DTS Sentinel unit serial number:	SN413079Multiplexer serial number:	ORYXHardware model number:	OX4-SRSoftware version number:	ORYX F/W v4.00 Oryx Data Collector v3.7.2.0data status	okinstallation	princeton_trtdifferential loss correction	single-endedforward channel	channel 4reverse channel	N/Adate	2019/09/13time	23:57:35forward acquisition time	60.00reverse acquisition time	0.00gamma	496.2192k internal	0.2324k external	0.2324temperature offset calibration	1.0133default loss term (dB/km)	0.3790temperature slope calibration	1.0000multiplexer offset coefficient	1.0000multiplexer slope coefficient	1.0000fibre end	0.00T internal ref (°C)	26.55T ext. ref 1 (°C)	3.17T ext. ref 2 (°C)	21.32length (m)	temperature (°C)	Stokes	anti-Stokes-747.200	-200.000	0.014	0.138
-746.185	-200.000	-0.024	0.144
-745.171	170.164	-0.129	-0.186
-744.156	-200.000	0.011	0.098
-743.142	-200.000	0.009	0.080
-742.127	-71.308	-0.113	-0.043
-741.112	-58.838	0.151	0.066
-740.098	17.146	-0.259	0.208
-739.083	578.204	-0.102	0.252
-738.069	4.840	0.257	-0.190
-737.054	96.309	0.046	-0.054
-736.039	32.661	-0.198	-0.173
-735.025	-200.000	0.051	0.325
-734.010	-200.000	-0.043	-0.219
-732.996	-15.309	-0.214	-0.138
-731.981	-168.949	0.033	-0.001
-730.966	390.220	-0.088	-0.183
-729.952	-49.334	-0.351	-0.169
-728.937	-200.000	0.010	-0.054
-727.923	-25.675	-0.128	0.076
-726.908	-37.439	0.190	-0.102
-725.894	59.336	-0.402	-0.400
-724.879	-50.173	-0.247	-0.118
-723.864	-200.000	-0.059	-0.510
-722.850	14.909	0.119	0.094
-721.835	211.044	-0.060	-0.094
-720.821	180.601	-0.128	0.190
-719.806	-134.516	0.058	-0.007
-718.791	800.000	-0.075	-0.242
-717.777	-200.000	0.004	-0.226
-716.762	-200.000	0.015	-0.301
-715.748	-101.492	0.608	-0.149
-714.733	115.325	-0.290	-0.358
-713.718	-16.402	0.131	-0.084
-712.704	-30.375	0.123	0.071
-711.689	94.515	-0.272	0.312
-710.675	-1.508	-0.145	-0.103
-709.660	35.114	0.038	0.034
-708.645	-91.063	-0.293	-0.085
-707.631	-101.221	0.286	-0.071
-706.616	-40.355	0.076	-0.040
-705.602	-22.539	0.189	-0.116
-704.587	-104.232	-0.170	-0.040
-703.572	791.089	0.136	0.376
-702.558	-200.000	0.047	0.234
-701.543	-200.000	-0.006	0.230
-700.529	-200.000	-0.011	0.166
-699.514	-114.187	-0.311	-0.060
-698.499	-50.307	0.324	-0.154
-697.485	-200.000	0.011	-0.152
-696.470	-92.870	0.185	0.052
-695.456	256.878	0.067	0.116
-694.441	27.741	-0.133	0.113
-693.426	-111.175	0.038	-0.008
-692.412	800.000	0.104	0.299
-691.397	98.316	0.148	-0.171
-690.383	211.873	-0.045	-0.072
-689.368	-71.059	-0.110	0.042
-688.354	102.192	-0.045	-0.053
-687.339	800.000	0.128	-0.366
-686.324	-154.453	0.223	0.015
-685.310	-50.744	0.253	-0.120
-684.295	-200.000	-0.012	-0.411
-683.281	-171.756	-0.209	-0.007
-682.266	-16.401	0.067	-0.043
-681.251	34.317	-0.233	0.205
-680.237	-1.341	-0.174	0.124
-679.222	45.691	0.139	-0.130
-678.208	26.042	-0.178	-0.149
-677.193	19.693	-0.040	0.032
-676.178	-200.000	-0.014	-0.125
-675.164	444.709	-0.030	-0.065
-674.149	64.720	0.174	-0.177
-673.135	433.697	-0.071	-0.155
-672.120	-111.270	-0.083	0.017
-671.105	73.663	0.092	-0.097
-670.091	-33.811	-0.029	0.016
-669.076	-41.422	-0.104	0.054
-668.062	94.724	0.158	-0.181
-667.047	26.425	-0.241	0.203
-666.032	-85.729	-0.289	-0.090
-665.018	242.452	-0.142	-0.239
-664.003	268.423	-0.147	-0.260
-662.989	-83.115	0.074	-0.024
-661.974	-140.259	0.150	-0.016
-660.959	-11.106	-0.054	0.036
-659.945	172.946	0.114	-0.165
-658.930	-34.609	-0.207	0.114
-657.916	-82.611	-0.282	-0.092
-656.901	-9.138	-0.163	-0.110
-655.886	-200.000	-0.023	0.194
-654.872	-180.067	0.122	-0.003
-653.857	-130.733	-0.208	-0.028
-652.843	84.937	0.011	-0.013
-651.828	458.937	-0.075	-0.167
-650.814	-38.769	-0.116	-0.062
-649.799	-200.000	-0.039	-0.189
-648.784	-143.188	-0.284	-0.028
-647.770	-68.718	0.197	-0.077
-646.755	247.132	0.109	0.186
-645.741	800.000	0.035	0.131
-644.726	141.832	-0.071	-0.095
-643.711	800.000	0.018	-0.075
-642.697	-133.213	-0.358	-0.045
-641.682	-115.832	-0.244	-0.046
-640.668	691.344	-0.224	0.591
-639.653	-52.035	0.226	-0.105
-638.638	-44.781	-0.131	-0.066
-637.624	-105.721	-0.238	-0.054
-636.609	-158.897	-0.577	-0.033
-635.595	-143.315	0.321	-0.031
-634.580	-145.894	0.179	0.016
-633.565	35.031	-0.226	-0.199
-632.551	-200.000	-0.017	0.090
-631.536	-200.000	0.018	-0.207
-630.522	-70.625	-0.090	-0.034
-629.507	159.654	-0.325	-0.454
-628.492	98.373	0.166	-0.192
-627.478	-43.431	0.211	0.107
-626.463	31.879	-0.248	-0.215
-625.449	21.090	0.107	0.088
-624.434	-200.000	0.041	0.264
-623.419	-38.187	-0.064	0.034
-622.405	153.675	0.135	0.185
-621.390	800.000	-0.036	0.152
-620.376	94.585	-0.269	-0.307
-619.361	554.585	-0.110	-0.265
-618.346	-121.565	0.307	-0.051
-617.332	-95.942	-0.166	-0.044
-616.317	-200.000	0.025	0.247
-615.303	-150.668	0.418	0.032
-614.288	-155.408	-0.339	-0.022
-613.273	800.000	0.023	0.068
-612.259	457.965	-0.101	-0.225
-611.244	-79.962	0.128	-0.043
-610.230	-200.000	-0.000	0.018
-609.215	-101.412	0.125	0.031
-608.201	-165.387	0.113	-0.005
-607.186	-159.110	-0.425	-0.024
-606.171	36.905	0.069	0.061
-605.157	-41.649	-0.211	-0.109
-604.142	216.023	-0.051	-0.081
-603.128	60.364	-0.173	-0.172
-602.113	23.275	-0.314	-0.259
-601.098	-97.089	-0.095	0.025
-600.084	-200.000	0.018	-0.176
-599.069	-3.530	-0.085	-0.060
-598.055	-65.810	-0.099	0.040
-597.040	800.000	-0.057	-0.195
-596.025	-121.887	0.284	-0.047
-595.011	93.210	0.140	-0.159
-593.996	-125.744	-0.081	0.012
-592.982	129.178	0.094	0.121
-591.967	-200.000	-0.043	-0.369
-590.952	-200.000	0.044	0.282
-589.938	-45.023	-0.036	-0.018
-588.923	-117.334	0.236	0.043
-587.909	-84.233	-0.212	0.067
-586.894	73.270	-0.095	0.100
-585.879	-118.530	-0.049	0.009
-584.865	20.896	0.157	0.128
-583.850	800.000	-0.090	0.394
-582.836	566.965	-0.139	-0.339
-581.821	800.000	0.078	-0.304
-580.806	-200.000	-0.026	0.195
-579.792	-200.000	-0.308	0.001
-578.777	-125.230	0.401	0.062
-577.763	60.801	-0.103	-0.103
-576.748	-92.750	-0.046	0.013
-575.733	-185.478	0.209	-0.003
-574.719	-200.000	0.015	-0.084
-573.704	-200.000	-0.026	-0.377
-572.690	-200.000	-0.051	0.300
-571.675	-123.132	0.287	0.046
-570.661	-70.871	0.247	0.093
-569.646	800.000	0.041	0.158
-568.631	-101.569	0.231	-0.056
-567.617	9.193	-0.150	-0.114
-566.602	29.683	-0.069	-0.059
-565.588	-200.000	-0.025	0.308
-564.573	-24.561	-0.137	0.082
-563.558	87.595	0.166	0.184
-562.544	114.030	-0.083	-0.101
-561.529	-170.833	0.455	-0.016
-560.515	85.391	0.098	-0.108
-559.500	800.000	-0.087	0.293
-558.485	40.801	0.222	-0.201
-557.471	-104.808	0.433	0.100
-556.456	201.362	-0.114	0.176
-555.442	-200.000	-0.005	0.214
-554.427	800.000	-0.083	0.239
-553.412	-159.469	-0.036	-0.002
-552.398	277.671	-0.065	-0.115
-551.383	-78.734	-0.189	0.065
-550.369	-39.358	-0.304	-0.160
-549.354	32.886	0.191	0.165
-548.339	-116.845	-0.102	-0.019
-547.325	-11.686	-0.222	-0.146
-546.310	-77.453	-0.346	-0.120
-545.296	800.000	0.054	-0.167
-544.281	-200.000	-0.007	-0.413
-543.266	800.000	-0.068	-0.281
-542.252	93.616	-0.238	0.270
-541.237	-133.197	0.179	-0.023
-540.223	222.906	-0.185	0.299
-539.208	800.000	-0.027	0.113
-538.193	144.531	-0.106	0.142
-537.179	-200.000	0.013	0.082
-536.164	-89.782	-0.194	-0.057
-535.150	-200.000	-0.060	-0.381
-534.135	-0.877	-0.271	-0.192
-533.121	-153.782	-0.077	-0.005
-532.106	-142.663	-0.108	-0.011
-531.091	82.808	0.181	0.197
-530.077	5.366	-0.081	-0.060
-529.062	-12.025	0.297	-0.195
-528.048	-97.479	-0.063	0.016
-527.033	-106.208	0.178	-0.040
-526.018	-83.088	-0.153	0.049
-525.004	-200.000	0.032	0.266
-523.989	86.637	0.057	-0.063
-522.975	351.359	-0.128	0.254
-521.960	0.739	-0.274	0.197
-520.945	-200.000	0.005	-0.057
-519.931	-200.000	0.043	-0.340
-518.916	-200.000	-0.034	0.152
-517.902	119.008	-0.092	0.114
-516.887	-200.000	0.025	0.181
-515.872	261.719	0.131	0.227
-514.858	-200.000	-0.082	0.378
-513.843	-5.742	-0.111	0.076
-512.829	166.690	0.114	0.162
-511.814	800.000	0.113	0.410
-510.799	-54.415	0.284	0.129
-509.785	133.482	-0.101	-0.131
-508.770	-15.421	0.107	-0.069
-507.756	-141.414	0.367	0.037
-506.741	49.204	-0.183	-0.172
-505.726	13.867	0.117	-0.091
-504.712	-43.480	0.151	-0.076
-503.697	-68.241	0.355	0.138
-502.683	104.181	0.166	0.196
-501.668	800.000	0.059	0.199
-500.653	199.921	0.060	-0.092
-499.639	-54.544	-0.078	-0.036
-498.624	500.989	0.061	0.140
-497.610	-200.000	0.060	0.272
-496.595	48.412	0.135	-0.127
-495.581	161.757	-0.107	-0.150
-494.566	-170.326	-0.475	-0.017
-493.551	75.189	0.062	0.065
-492.537	-65.106	-0.060	0.024
-491.522	-114.113	-0.286	-0.055
-490.508	-119.519	-0.082	-0.014
-489.493	-70.863	-0.216	0.081
-488.478	-200.000	-0.023	0.209
-487.464	-154.434	0.098	-0.007
-486.449	60.704	-0.092	0.091
-485.435	-200.000	-0.027	0.332
-484.420	-55.017	0.239	0.108
-483.405	96.805	0.293	0.336
-482.391	-200.000	0.027	-0.281
-481.376	413.002	-0.111	0.235
-480.362	28.870	0.011	-0.009
-479.347	-200.000	0.065	0.321
-478.332	-114.605	-0.283	-0.054
-477.318	33.317	0.110	-0.095
-476.303	-200.000	-0.028	0.277
-475.289	-86.416	-0.297	0.091
-474.274	-184.829	0.266	0.004
-473.259	800.000	-0.102	-0.386
-472.245	800.000	0.020	0.063
-471.230	800.000	-0.032	-0.127
-470.216	80.900	0.199	-0.214
-469.201	-33.254	-0.031	-0.017
-468.186	-55.386	0.230	-0.103
-467.172	-77.431	-0.047	0.016
-466.157	800.000	0.139	-0.491
-465.143	-200.000	0.010	-0.178
-464.128	1.067	-0.248	-0.178
-463.113	-160.591	0.486	-0.026
-462.099	351.578	-0.104	-0.206
-461.084	-132.650	-0.104	0.013
-460.070	-173.647	-0.326	-0.010
-459.055	800.000	0.038	-0.131
-458.040	-200.000	-0.023	-0.176
-457.026	-148.492	-0.457	0.037
-456.011	-92.473	-0.183	-0.051
-454.997	-200.000	0.028	0.155
-453.982	-200.000	0.036	0.184
-452.968	-7.565	-0.333	0.225
-451.953	331.558	0.081	0.156
-450.938	-175.068	-0.265	0.007
-449.924	-200.000	0.027	0.407
-448.909	219.505	-0.071	-0.114
-447.895	-10.240	0.155	-0.103
-446.880	435.548	0.120	-0.261
-445.865	-90.755	0.129	0.037
-444.851	-13.695	0.273	0.177
-443.836	511.862	-0.040	0.093
-442.822	-56.436	0.287	0.127
-441.807	462.453	-0.050	0.110
-440.792	-182.754	-0.120	0.002
-439.778	800.000	-0.015	0.054
-438.763	-200.000	-0.044	0.252
-437.749	-149.525	-0.274	-0.022
-436.734	-200.000	-0.019	0.146
-435.719	-99.629	0.225	0.056
-434.705	-200.000	-0.011	0.475
-433.690	746.556	0.101	0.271
-432.676	800.000	-0.111	0.478
-431.661	-141.829	0.148	-0.015
-430.646	321.347	-0.175	-0.333
-429.632	-200.000	-0.016	0.106
-428.617	480.911	0.048	0.109
-427.603	77.068	0.130	0.137
-426.588	-4.248	-0.248	0.171
-425.573	-36.835	0.293	-0.157
-424.559	-200.000	0.003	0.182
-423.544	141.928	-0.050	-0.066
-422.530	-117.800	0.237	0.043
-421.515	93.343	-0.110	-0.125
-420.500	-32.459	-0.239	-0.133
-419.486	5.345	0.310	0.228
-418.471	-200.000	-0.011	-0.306
-417.457	0.313	0.140	-0.100
-416.442	696.203	-0.026	-0.068
-415.428	133.314	-0.299	0.386
-414.413	800.000	-0.063	-0.229
-413.398	-200.000	-0.003	0.078
-412.384	46.087	0.303	-0.279
-411.369	800.000	-0.077	0.266
-410.355	8.318	-0.016	0.012
-409.340	69.390	-0.297	0.305
-408.325	389.555	-0.160	0.330
-407.311	16.980	0.264	-0.209
-406.296	-200.000	0.022	-0.241
-405.282	-127.283	0.332	-0.048
-404.267	-200.000	-0.001	-0.201
-403.252	800.000	0.049	0.204
-402.238	-132.952	-0.190	-0.024
-401.223	111.245	-0.308	-0.370
-400.209	-63.200	-0.210	-0.086
-399.194	-152.643	-0.049	0.003
-398.179	-200.000	-0.026	-0.134
-397.165	-123.594	0.042	-0.007
-396.150	-117.358	0.347	0.063
-395.136	418.084	0.056	0.118
-394.121	-101.633	0.195	-0.047
-393.106	800.000	-0.082	-0.276
-392.092	-61.531	0.076	-0.032
-391.077	-154.664	-0.245	0.016
-390.063	-17.039	-0.361	-0.227
-389.048	-112.763	0.445	-0.088
-388.033	14.913	0.164	-0.128
-387.019	583.674	0.061	-0.148
-386.004	-200.000	-0.064	0.315
-384.990	-200.000	-0.017	0.089
-383.975	64.920	-0.103	-0.104
-382.960	-173.679	-0.302	0.009
-381.946	-21.065	0.052	-0.031
-380.931	-170.481	0.361	-0.013
-379.917	-132.827	-0.283	-0.036
-378.902	464.521	0.117	0.259
-377.888	60.993	-0.246	-0.243
-376.873	45.002	-0.156	-0.143
-375.858	-138.618	0.272	0.030
-374.844	107.282	-0.157	0.186
-373.829	-200.000	-0.016	-0.138
-372.815	-124.079	-0.407	0.064
-371.800	61.971	-0.077	0.077
-370.785	-200.000	-0.021	0.164
-369.771	51.630	0.356	0.336
-368.756	-200.000	0.042	-0.190
-367.742	114.244	0.216	-0.261
-366.727	-127.328	0.146	-0.021
-365.712	-120.635	-0.282	-0.047
-364.698	-44.649	0.017	0.008
-363.683	46.330	0.095	-0.087
-362.669	0.780	0.139	0.099
-361.654	-3.244	0.434	-0.301
-360.639	-200.000	-0.061	0.483
-359.625	-90.523	0.106	0.031
-358.610	392.218	-0.062	0.127
-357.596	187.382	-0.062	-0.092
-356.581	-123.641	0.250	0.039
-355.566	800.000	-0.034	-0.096
-354.552	800.000	-0.065	0.246
-353.537	109.178	-0.179	0.213
-352.523	123.561	0.229	-0.286
-351.508	-100.266	0.342	-0.085
-350.493	-200.000	-0.045	-0.319
-349.479	800.000	-0.023	-0.083
-348.464	25.809	-0.132	0.109
-347.450	800.000	-0.057	-0.196
-346.435	-182.855	-0.403	-0.007
-345.420	423.587	-0.213	-0.455
-344.406	121.217	-0.185	-0.228
-343.391	385.125	0.113	0.231
-342.377	-15.077	-0.331	-0.211
-341.362	-72.789	0.303	-0.111
-340.348	153.846	0.115	-0.157
-339.333	41.883	-0.250	-0.225
-338.318	-16.424	0.346	-0.218
-337.304	-14.901	0.278	-0.177
-336.289	-200.000	0.004	-0.044
-335.275	-50.882	0.108	-0.051
-334.260	-104.938	0.152	0.035
-333.245	-93.599	0.076	0.021
-332.231	609.333	0.062	-0.155
-331.216	286.975	0.119	0.214
-330.202	54.281	0.258	-0.247
-329.187	228.558	-0.241	-0.390
-328.172	53.956	0.063	-0.060
-327.158	-196.693	0.392	-0.003
-326.143	-97.147	-0.328	0.085
-325.129	133.207	0.163	0.209
-324.114	-73.523	-0.098	-0.035
-323.099	39.108	-0.275	0.244
-322.085	79.041	0.196	-0.209
-321.070	198.942	-0.161	-0.244
-320.056	800.000	0.105	-0.325
-319.041	33.098	-0.266	0.229
-318.026	120.723	0.135	0.166
-317.012	9.336	0.132	-0.099
-315.997	-70.530	-0.080	-0.030
-314.983	-109.203	-0.318	-0.067
-313.968	-200.000	0.035	-0.241
-312.953	-200.000	-0.021	0.165
-311.939	-71.734	-0.223	0.082
-310.924	222.995	0.100	0.161
-309.910	240.706	0.122	-0.201
-308.895	-159.413	0.191	-0.011
-307.880	316.692	-0.152	0.285
-306.866	215.982	-0.105	-0.165
-305.851	165.889	-0.117	0.165
-304.837	-200.000	0.028	-0.393
-303.822	-104.447	0.206	-0.047
-302.807	-52.041	-0.215	-0.099
-301.793	-147.793	0.353	-0.029
-300.778	101.499	0.224	-0.259
-299.764	-126.759	0.151	0.022
-298.749	-70.752	-0.229	-0.086
-297.735	-169.615	0.158	0.006
-296.720	800.000	0.033	-0.138
-295.705	-93.825	-0.417	-0.114
-294.691	-67.061	0.167	0.065
-293.676	-0.544	0.102	-0.072
-292.662	64.916	0.253	0.253
-291.647	-147.627	0.157	0.013
-290.632	-77.749	0.241	0.083
-289.618	-40.363	0.197	-0.102
-288.603	122.688	-0.083	0.103
-287.589	174.872	-0.138	0.198
-286.574	-140.443	0.190	-0.020
-285.559	-200.000	-0.021	0.163
-284.545	800.000	0.042	0.138
-283.530	63.010	-0.182	-0.180
-282.516	-174.081	0.305	0.009
-281.501	112.509	-0.202	-0.243
-280.486	-200.000	0.029	-0.250
-279.472	800.000	-0.041	0.137
-278.457	-129.919	-0.198	-0.027
-277.443	800.000	0.046	-0.168
-276.428	-23.414	-0.110	-0.065
-275.413	-102.898	0.342	-0.081
-274.399	-93.591	0.327	-0.090
-273.384	210.995	-0.179	0.280
-272.370	525.553	-0.134	0.313
-271.355	227.336	-0.105	0.170
-270.340	43.330	0.061	-0.055
-269.326	800.000	-0.096	-0.390
-268.311	800.000	-0.063	0.187
-267.297	34.762	-0.017	0.014
-266.282	412.650	0.048	0.102
-265.267	800.000	-0.055	-0.176
-264.253	-67.288	0.258	0.101
-263.238	32.999	0.099	-0.085
-262.224	-80.726	-0.361	0.119
-261.209	55.828	0.188	-0.181
-260.195	-95.562	0.324	0.086
-259.180	105.678	0.202	-0.236
-258.165	188.328	0.206	0.306
-257.151	-77.244	-0.293	-0.101
-256.136	-77.774	-0.032	0.011
-255.122	-25.704	-0.265	-0.155
-254.107	112.619	0.134	0.161
-253.092	64.784	-0.178	-0.178
-252.078	-24.628	-0.178	0.105
-251.063	-87.236	-0.325	0.098
-250.049	207.480	-0.068	0.105
-249.034	210.388	0.173	0.269
-248.019	366.659	0.047	-0.094
-247.005	-55.803	-0.188	-0.083
-245.990	-83.178	0.283	-0.090
-244.976	-125.671	-0.193	0.029
-243.961	-70.725	0.370	0.138
-242.946	15.288	0.189	0.147
-241.932	32.703	0.065	-0.055
-240.917	-89.670	-0.183	0.053
-239.903	135.321	-0.136	-0.175
-238.888	26.529	0.265	0.220
-237.873	42.029	0.036	0.032
-236.859	800.000	-0.083	-0.284
-235.844	-87.045	0.436	0.131
-234.830	-101.190	-0.155	-0.037
-233.815	-37.961	0.326	0.171
-232.800	762.616	-0.013	-0.035
-231.786	-118.805	0.297	0.052
-230.771	-131.030	0.178	-0.024
-229.757	-30.085	-0.098	0.055
-228.742	-177.488	0.138	0.003
-227.727	-136.256	-0.075	0.009
-226.713	-121.599	-0.143	-0.024
-225.698	121.045	-0.090	0.111
-224.684	800.000	0.033	-0.098
-223.669	-200.000	0.009	-0.220
-222.655	-91.951	0.355	0.099
-221.640	-22.231	-0.318	0.191
-220.625	-63.823	0.321	0.130
-219.611	490.131	0.088	-0.200
-218.596	-96.786	0.240	-0.062
-217.582	103.344	0.347	-0.403
-216.567	44.665	0.144	0.131
-215.552	181.830	0.063	-0.092
-214.538	-35.100	0.352	-0.190
-213.523	-110.165	-0.373	-0.077
-212.509	-16.367	0.135	-0.085
-211.494	19.433	-0.256	-0.204
-210.479	-108.469	0.055	0.012
-209.465	-200.000	0.020	-0.169
-208.450	-58.512	0.154	0.066
-207.436	112.243	0.218	0.260
-206.421	-115.569	-0.211	-0.039
-205.406	-164.301	0.201	0.009
-204.392	6.023	-0.161	-0.118
-203.377	800.000	-0.047	0.191
-202.363	-39.783	0.199	0.103
-201.348	670.164	-0.149	-0.380
-200.333	-77.484	0.351	0.120
-199.319	377.147	0.097	0.196
-198.304	33.381	-0.373	-0.320
-197.290	31.414	-0.177	-0.151
-196.275	274.558	-0.087	0.152
-195.260	70.836	-0.055	0.057
-194.246	89.278	-0.178	-0.196
-193.231	-49.958	-0.151	0.071
-192.217	-68.566	-0.189	0.072
-191.202	-126.376	0.274	0.040
-190.187	-58.115	0.097	-0.042
-189.173	-200.000	-0.047	0.456
-188.158	-122.067	0.180	0.029
-187.144	-38.804	0.257	0.134
-186.129	-133.440	-0.094	0.012
-185.114	-161.454	-0.345	-0.018
-184.100	-99.874	-0.339	-0.084
-183.085	96.816	-0.134	-0.151
-182.071	-200.000	0.014	-0.077
-181.056	800.000	0.055	-0.160
-180.042	800.000	0.027	0.082
-179.027	663.960	-0.095	0.243
-178.012	-5.010	0.266	0.181
-176.998	-93.090	0.235	0.065
-175.983	-46.611	-0.266	0.129
-174.969	-89.760	-0.096	0.028
-173.954	-200.000	-0.031	-0.150
-172.939	10.134	0.247	0.185
-171.925	0.395	-0.305	-0.215
-170.910	800.000	-0.036	0.148
-169.896	-72.569	0.164	0.060
-168.881	219.289	-0.006	-0.009
-167.866	-200.000	0.001	0.063
-166.852	-200.000	0.010	-0.045
-165.837	-72.533	-0.195	0.071
-164.823	194.839	-0.149	0.224
-163.808	-144.948	0.096	0.009
-162.793	227.335	0.099	-0.158
-161.779	-200.000	-0.045	0.225
-160.764	-47.539	-0.137	-0.066
-159.750	-18.521	0.066	0.041
-158.735	-200.000	-0.014	0.171
-157.720	-9.219	0.131	-0.087
-156.706	175.208	0.030	0.042
-155.691	138.367	-0.392	0.507
-154.677	-13.684	-0.208	-0.133
-153.662	395.183	-0.026	-0.053
-152.647	-107.012	-0.228	0.050
-151.633	-70.086	0.119	-0.045
-150.618	440.757	0.095	0.205
-149.604	800.000	-0.056	-0.166
-148.589	-200.000	-0.026	0.172
-147.574	-200.000	-0.008	-0.356
-146.560	-50.495	0.252	0.117
-145.545	800.000	-0.091	0.287
-144.531	280.868	-0.041	0.073
-143.516	-200.000	-0.032	-0.202
-142.502	-10.485	-0.168	-0.110
-141.487	-42.536	-0.112	0.056
-140.472	-86.175	0.180	-0.055
-139.458	-80.166	-0.379	0.125
-138.443	-200.000	0.005	-0.334
-137.429	225.853	0.166	0.265
-136.414	55.865	-0.136	0.130
-135.399	380.139	-0.013	0.026
-134.385	-73.504	-0.084	0.030
-133.370	-200.000	-0.004	0.119
-132.356	-38.361	0.211	0.110
-131.341	131.678	0.098	-0.124
-130.326	216.241	0.134	0.211
-129.312	-131.897	0.142	-0.018
-128.297	800.000	-0.038	0.121
-127.283	33.306	0.102	-0.087
-126.268	-39.555	-0.097	-0.050
-125.253	-156.690	-0.082	-0.005
-124.239	57.197	-0.040	-0.039
-123.224	12.132	0.279	0.211
-122.210	247.054	0.137	0.228
