DTS Sentinel unit serial number:	SN413079Multiplexer serial number:	ORYXHardware model number:	OX4-SRSoftware version number:	ORYX F/W v4.00 Oryx Data Collector v3.7.2.0data status	okinstallation	princeton_trtdifferential loss correction	single-endedforward channel	channel 4reverse channel	N/Adate	2019/09/17time	06:25:35forward acquisition time	60.00reverse acquisition time	0.00gamma	496.2192k internal	0.2318k external	0.2318temperature offset calibration	0.9985default loss term (dB/km)	0.3790temperature slope calibration	1.0000multiplexer offset coefficient	1.0000multiplexer slope coefficient	1.0000fibre end	0.00T internal ref (°C)	28.27T ext. ref 1 (°C)	0.13T ext. ref 2 (°C)	21.58length (m)	temperature (°C)	Stokes	anti-Stokes-747.200	163.360	0.134	0.191
-746.185	8.685	-0.103	-0.079
-745.171	393.984	0.061	0.129
-744.156	434.464	-0.092	0.203
-743.142	33.809	-0.159	0.140
-742.127	764.396	-0.060	0.166
-741.112	364.699	-0.176	-0.359
-740.098	-47.062	0.234	-0.115
-739.083	-95.320	0.156	0.043
-738.069	-200.000	0.023	0.201
-737.054	361.230	0.099	0.200
-736.039	21.715	-0.205	0.169
-735.025	44.912	0.205	0.191
-734.010	206.413	-0.039	0.061
-732.996	37.615	-0.111	0.100
-731.981	169.632	-0.205	-0.297
-730.966	156.760	0.308	-0.431
-729.952	800.000	0.089	0.253
-728.937	-127.790	-0.404	-0.059
-727.923	24.499	0.139	0.117
-726.908	-102.123	-0.144	0.035
-725.894	-37.274	0.430	0.233
-724.879	-149.512	0.250	-0.020
-723.864	628.189	-0.083	-0.213
-722.850	-200.000	0.069	-0.326
-721.835	-200.000	-0.013	-0.317
-720.821	140.073	-0.116	0.155
-719.806	800.000	0.078	0.248
-718.791	32.902	-0.176	-0.154
-717.777	-150.772	-0.148	0.011
-716.762	50.219	0.105	0.100
-715.748	-146.013	0.122	0.011
-714.733	306.448	-0.189	0.355
-713.718	76.865	-0.163	-0.174
-712.704	-118.137	-0.114	-0.021
-711.689	-123.994	0.133	0.021
-710.675	22.997	-0.105	-0.087
-709.660	13.066	-0.014	0.011
-708.645	-1.150	0.402	-0.287
-707.631	800.000	0.130	-0.396
-706.616	311.999	-0.099	0.188
-705.602	-30.943	-0.115	-0.065
-704.587	-200.000	-0.011	-0.161
-703.572	-200.000	0.012	-0.225
-702.558	800.000	-0.134	-0.510
-701.543	27.370	-0.234	-0.199
-700.529	-38.050	-0.071	-0.038
-699.514	37.796	0.095	0.085
-698.499	800.000	-0.024	0.075
-697.485	15.640	-0.186	0.147
-696.470	-110.587	-0.067	0.014
-695.456	-121.243	0.217	0.037
-694.441	-52.606	-0.471	-0.220
-693.426	-200.000	-0.042	-0.268
-692.412	21.738	-0.281	0.231
-691.397	-200.000	0.059	-0.356
-690.383	-124.334	-0.159	-0.025
-689.368	497.476	0.019	0.045
-688.354	69.807	0.113	-0.118
-687.339	-112.621	-0.147	0.030
-686.324	-87.024	-0.341	0.105
-685.310	172.840	-0.092	0.134
-684.295	83.887	0.128	-0.141
-683.281	-84.783	0.204	-0.065
-682.266	-84.952	0.634	0.201
-681.251	31.354	-0.156	-0.135
-680.237	-136.541	0.153	0.018
-679.222	-59.047	-0.394	-0.172
-678.208	-28.958	0.204	-0.118
-677.193	-23.537	0.297	-0.180
-676.178	99.894	-0.061	-0.071
-675.164	105.757	0.115	-0.138
-674.149	-200.000	0.003	-0.397
-673.135	-94.735	0.190	0.052
-672.120	-124.997	0.079	0.012
-671.105	-35.308	-0.430	-0.236
-670.091	-200.000	0.034	-0.307
-669.076	-6.242	0.313	-0.216
-668.062	125.870	-0.133	-0.169
-667.047	-193.034	-0.330	-0.003
-666.032	9.115	0.126	0.096
-665.018	-143.856	-0.320	0.031
-664.003	-111.617	-0.169	0.035
-662.989	-7.723	-0.251	-0.171
-661.974	-200.000	-0.003	-0.073
-660.959	-92.139	-0.176	0.050
-659.945	800.000	0.049	-0.167
-658.930	-41.594	0.287	-0.149
-657.916	-59.327	0.116	0.050
-656.901	116.711	-0.197	-0.243
-655.886	800.000	-0.053	0.167
-654.872	800.000	0.063	0.176
-653.857	15.245	-0.225	0.178
-652.843	436.354	-0.102	0.225
-651.828	16.516	0.242	-0.193
-650.814	111.567	-0.183	0.222
-649.799	770.231	-0.116	-0.319
-648.784	273.907	-0.174	0.310
-647.770	-83.736	-0.663	-0.213
-646.755	-118.321	-0.212	0.038
-645.741	-86.330	-0.045	0.014
-644.726	229.123	0.131	-0.215
-643.711	188.170	0.222	-0.334
-642.697	-146.573	-0.218	0.019
-641.682	-13.229	0.260	-0.170
-640.668	-199.685	-0.227	0.001
-639.653	379.896	0.085	-0.176
-638.638	-106.765	0.239	-0.054
-637.624	800.000	-0.033	0.144
-636.609	-121.880	0.188	0.031
-635.595	-200.000	-0.003	0.295
-634.580	-125.162	0.036	-0.006
-633.565	364.328	0.081	-0.164
-632.551	159.706	0.083	-0.117
-631.536	-200.000	0.001	-0.140
-630.522	19.672	-0.130	0.106
-629.507	-200.000	0.040	0.245
-628.492	-200.000	-0.010	0.052
-627.478	-23.145	0.076	-0.046
-626.463	-128.499	-0.428	0.061
-625.449	651.904	-0.075	-0.193
-624.434	41.283	0.024	-0.022
-623.419	16.072	-0.174	0.138
-622.405	-200.000	-0.059	-0.271
-621.390	-200.000	-0.000	0.086
-620.376	-67.429	-0.100	-0.040
-619.361	87.412	-0.097	-0.108
-618.346	43.980	-0.240	-0.222
-617.332	-72.093	0.065	-0.024
-616.317	800.000	0.066	0.279
-615.303	87.926	-0.223	0.249
-614.288	73.025	0.047	0.049
-613.273	800.000	-0.094	-0.335
-612.259	-0.684	-0.085	-0.061
-611.244	229.202	0.116	-0.191
-610.230	-180.252	0.189	0.004
-609.215	-19.159	0.135	0.084
-608.201	-198.404	-0.279	0.002
-607.186	-50.117	-0.311	-0.148
-606.171	66.635	0.183	-0.188
-605.157	108.074	0.163	-0.195
-604.142	-139.168	-0.356	0.039
-603.128	35.527	0.078	-0.069
-602.113	-200.000	-0.070	-0.312
-601.098	-99.174	0.211	-0.054
-600.084	-67.708	-0.212	-0.084
-599.069	308.136	0.068	0.128
-598.055	-50.518	0.353	-0.167
-597.040	-133.748	0.049	0.006
-596.025	-200.000	-0.014	-0.240
-595.011	-200.000	-0.081	0.491
-593.996	570.885	0.114	0.279
-592.982	237.280	0.154	0.256
-591.967	273.363	-0.066	0.117
-590.952	67.936	0.089	-0.092
-589.938	18.419	-0.203	-0.163
-588.923	114.065	0.044	-0.054
-587.909	-200.000	-0.043	-0.338
-586.894	-200.000	0.052	-0.310
-585.879	183.236	0.059	0.088
-584.865	82.877	-0.052	-0.056
-583.850	-88.787	-0.153	-0.046
-582.836	-91.747	-0.223	0.064
-581.821	21.319	0.288	-0.235
-580.806	-109.409	-0.048	0.010
-579.792	77.676	0.033	-0.035
-578.777	-138.742	-0.336	0.037
-577.763	98.030	0.022	-0.026
-576.748	-200.000	0.011	0.184
-575.733	-33.105	0.062	-0.034
-574.719	-17.586	-0.255	0.161
-573.704	328.076	0.010	0.019
-572.690	-10.804	-0.082	0.055
-571.675	-200.000	-0.007	0.193
-570.661	-77.227	-0.181	0.063
-569.646	266.217	0.050	0.087
-568.631	3.040	0.073	0.053
-567.617	-167.984	0.208	-0.008
-566.602	248.220	-0.098	-0.166
-565.588	-116.610	0.227	0.042
-564.573	-126.167	-0.086	0.013
-563.558	-62.340	-0.211	-0.088
-562.544	-200.000	-0.039	-0.197
-561.529	-23.399	0.012	0.007
-560.515	86.109	0.208	0.230
-559.500	666.539	-0.117	0.304
-558.485	-24.811	0.114	0.068
-557.471	122.265	-0.263	0.330
-556.456	200.861	0.148	0.229
-555.442	800.000	0.026	0.108
-554.427	800.000	0.085	0.252
-553.412	94.532	0.142	0.162
-552.398	262.982	0.115	0.200
-551.383	-30.584	0.168	0.095
-550.369	-0.513	-0.122	-0.087
-549.354	262.046	0.082	0.144
-548.339	-144.346	0.140	-0.013
-547.325	89.827	-0.121	0.135
-546.310	-188.165	-0.210	-0.003
-545.296	208.035	-0.175	0.275
-544.281	-177.726	0.038	-0.001
-543.266	33.983	0.263	-0.230
-542.252	-200.000	-0.015	0.091
-541.237	-200.000	-0.029	0.367
-540.223	159.911	-0.200	0.280
-539.208	-45.515	-0.115	0.057
-538.193	-139.120	-0.108	0.012
-537.179	82.123	0.035	-0.038
-536.164	800.000	0.021	0.072
-535.150	-33.471	-0.235	0.130
-534.135	4.889	0.274	-0.203
-533.121	625.623	-0.020	-0.050
-532.106	-145.246	0.504	0.046
-531.091	143.990	-0.035	0.046
-530.077	188.421	0.073	0.110
-529.062	800.000	0.102	-0.398
-528.048	-56.313	0.106	0.047
-527.033	-84.509	0.089	0.028
-526.018	177.959	-0.067	0.098
-525.004	-96.303	0.143	0.038
-523.989	-58.465	-0.097	-0.042
-522.975	-200.000	-0.030	0.260
-521.960	-20.451	0.158	-0.098
-520.945	-19.711	0.146	-0.091
-519.931	-200.000	0.033	-0.190
-518.916	551.802	0.087	-0.209
-517.902	116.760	-0.100	0.123
-516.887	-99.500	0.345	-0.087
-515.872	-41.829	-0.200	0.103
-514.858	-112.441	0.263	-0.053
-513.843	-137.050	-0.105	-0.012
-512.829	-179.389	-0.477	-0.011
-511.814	-40.564	0.163	0.085
-510.799	541.836	-0.098	0.233
-509.785	476.197	-0.095	-0.215
-508.770	-159.788	-0.271	0.015
-507.756	-105.953	0.072	-0.016
-506.741	-120.482	-0.094	-0.016
-505.726	-160.711	0.314	0.017
-504.712	-40.196	0.243	0.127
-503.697	18.920	-0.204	0.164
-502.683	782.964	0.223	-0.612
-501.668	750.026	-0.096	0.259
-500.653	-73.413	-0.148	-0.054
-499.639	10.578	0.044	-0.034
-498.624	-54.207	-0.216	0.099
-497.610	347.139	0.206	0.406
-496.595	198.555	-0.092	0.142
-495.581	-200.000	-0.013	0.225
-494.566	-200.000	-0.079	-0.368
-493.551	800.000	-0.119	0.359
-492.537	-86.093	0.269	-0.083
-491.522	-148.719	-0.176	0.014
-490.508	234.980	0.085	0.140
-489.493	465.484	-0.057	-0.129
-488.478	261.493	0.067	-0.116
-487.464	119.763	-0.049	-0.061
-486.449	245.846	0.191	-0.323
-485.435	-49.612	-0.078	-0.037
-484.420	732.118	0.119	0.318
-483.405	-128.508	-0.379	0.054
-482.391	708.639	-0.025	0.065
-481.376	-89.048	-0.136	0.040
-480.362	352.856	-0.052	0.103
-479.347	800.000	-0.179	-0.527
-478.332	-35.173	-0.224	-0.122
-477.318	77.665	0.185	-0.198
-476.303	81.391	-0.208	-0.226
-475.289	-38.207	0.079	0.042
-474.274	-25.165	0.261	-0.155
-473.259	-91.059	0.285	0.082
-472.245	-200.000	0.003	-0.083
-471.230	-50.006	-0.127	-0.060
-470.216	-200.000	0.006	-0.047
-469.201	-200.000	-0.015	0.287
-468.186	-136.152	0.130	-0.015
-467.172	-200.000	-0.021	-0.125
-466.157	-69.140	0.274	0.106
-465.143	375.695	0.029	-0.058
-464.128	764.174	-0.032	-0.086
-463.113	-33.649	-0.283	-0.157
-462.099	92.784	-0.183	-0.207
-461.084	230.570	-0.065	0.107
-460.070	278.270	0.170	0.304
-459.055	58.676	0.218	0.214
-458.040	-81.625	0.064	-0.021
-457.026	-200.000	0.029	-0.150
-456.011	800.000	-0.043	-0.140
-454.997	521.776	-0.063	0.147
-453.982	-200.000	0.054	0.253
-452.968	35.799	-0.161	-0.142
-451.953	-131.887	-0.150	0.020
-450.938	-200.000	0.021	0.229
-449.924	46.278	-0.259	-0.240
-448.909	-82.168	-0.466	0.152
-447.895	47.074	-0.169	0.158
-446.880	-200.000	0.007	-0.438
-445.865	35.853	0.139	0.122
-444.851	-77.299	-0.420	0.146
-443.836	-141.781	0.257	0.026
-442.822	365.208	0.138	0.278
-441.807	435.282	0.080	0.175
-440.792	101.641	0.222	-0.259
-439.778	-12.346	0.265	0.173
-438.763	476.320	0.038	-0.086
-437.749	38.191	0.234	0.209
-436.734	800.000	-0.089	0.265
-435.719	-54.590	0.028	-0.013
-434.705	-166.154	0.298	-0.013
-433.690	261.251	0.113	-0.195
-432.676	104.429	0.235	-0.276
-431.661	800.000	-0.069	0.297
-430.646	800.000	0.071	0.252
-429.632	52.853	-0.108	0.103
-428.617	800.000	-0.024	0.103
-427.603	278.177	0.191	0.341
-426.588	-91.127	0.289	-0.083
-425.573	-108.720	-0.391	-0.084
-424.559	-164.651	-0.423	-0.019
-423.544	-42.313	-0.445	-0.227
-422.530	-200.000	-0.046	-0.288
-421.515	287.213	0.066	0.119
-420.500	-78.748	-0.165	-0.056
-419.486	42.595	-0.070	-0.064
-418.471	-99.551	-0.128	-0.032
-417.457	13.291	-0.050	-0.039
-416.442	-30.704	0.167	0.095
-415.428	-100.680	0.242	0.060
-414.413	-111.360	0.079	-0.016
-413.398	-78.034	0.096	-0.033
-412.384	800.000	0.101	-0.299
-411.369	800.000	-0.087	-0.289
-410.355	800.000	-0.072	-0.207
-409.340	-82.542	-0.423	-0.137
-408.325	129.608	0.067	0.086
-407.311	-170.334	0.144	-0.005
-406.296	-146.125	0.159	-0.014
-405.282	785.714	-0.142	-0.388
-404.267	526.306	-0.064	-0.149
-403.252	-109.356	0.098	-0.021
-402.238	200.947	0.105	-0.161
-401.223	800.000	0.030	0.110
-400.209	-200.000	0.034	-0.341
-399.194	-200.000	-0.056	0.531
-398.179	-46.815	0.342	0.167
-397.165	-86.140	-0.337	-0.104
-396.150	19.657	0.075	0.060
-395.136	-56.053	-0.185	0.082
-394.121	-101.828	-0.301	0.073
-393.106	-102.317	-0.225	0.054
-392.092	394.907	0.178	-0.371
-391.077	-38.796	0.423	-0.223
-390.063	206.124	-0.062	-0.097
-389.048	-185.042	-0.264	0.004
-388.033	-27.143	0.120	0.070
-387.019	106.851	-0.115	-0.136
-386.004	-166.276	0.349	-0.015
-384.990	-200.000	-0.037	-0.233
-383.975	-89.168	0.290	0.085
-382.960	-200.000	-0.015	-0.066
-381.946	289.169	-0.165	-0.298
-380.931	59.105	0.111	0.109
-379.917	800.000	-0.158	0.451
-378.902	-11.056	-0.066	-0.044
-377.888	800.000	0.079	-0.253
-376.873	800.000	-0.019	-0.069
-375.858	-104.108	-0.037	-0.009
-374.844	-200.000	-0.005	-0.213
-373.829	98.125	-0.142	0.163
-372.815	-116.476	0.175	0.032
-371.800	-39.237	0.145	-0.076
-370.785	-12.695	0.323	-0.210
-369.771	-200.000	-0.035	0.161
-368.756	-177.718	-0.105	-0.003
-367.742	-33.699	-0.028	-0.015
-366.727	-200.000	0.023	0.204
-365.712	52.229	0.137	-0.131
-364.698	115.277	-0.235	-0.286
-363.683	154.102	0.066	0.091
-362.669	-47.341	-0.147	0.071
-361.654	72.844	-0.092	-0.096
-360.639	94.476	-0.092	-0.104
-359.625	94.815	-0.111	-0.126
-358.610	800.000	0.124	-0.377
-357.596	-127.280	-0.232	0.034
-356.581	33.774	0.205	-0.178
-355.566	800.000	0.054	-0.213
-354.552	-121.530	0.395	-0.065
-353.537	-151.755	0.206	0.015
-352.523	-200.000	0.010	0.204
-351.508	-159.271	-0.088	-0.005
-350.493	484.270	-0.111	0.251
-349.479	192.632	0.031	0.046
-348.464	-186.310	-0.297	0.004
-347.450	-45.332	0.039	0.019
-346.435	-200.000	0.021	0.278
-345.420	-200.000	0.051	0.273
-344.406	-129.870	-0.114	0.016
-343.391	57.926	-0.251	0.245
-342.377	701.674	0.075	0.196
-341.362	-200.000	-0.029	-0.245
-340.348	-200.000	-0.039	0.244
-339.333	-36.913	-0.126	0.067
-338.318	-96.529	0.364	-0.096
-337.304	-96.279	0.318	-0.084
-336.289	101.742	-0.110	-0.128
-335.275	-179.960	0.117	0.002
-334.260	91.923	0.095	-0.107
-333.245	-98.212	-0.378	-0.097
-332.231	-79.275	-0.170	-0.058
-331.216	267.868	-0.094	-0.164
-330.202	-200.000	-0.014	0.188
-329.187	548.128	-0.096	0.229
-328.172	391.505	0.151	-0.312
-327.158	-7.201	0.258	-0.174
-326.143	31.623	0.169	-0.144
-325.129	-136.585	0.328	0.038
-324.114	-200.000	-0.012	-0.074
-323.099	190.700	-0.098	-0.146
-322.085	-98.589	-0.323	0.082
-321.070	251.191	0.057	0.097
-320.056	-105.343	0.331	0.075
-319.041	-137.510	-0.138	0.016
-318.026	158.411	0.151	-0.209
-317.012	-169.170	0.358	-0.013
-315.997	800.000	0.081	0.310
-314.983	75.630	-0.054	-0.057
-313.968	-200.000	0.052	-0.310
-312.953	615.398	-0.190	0.474
-311.939	499.452	-0.041	0.094
-310.924	800.000	-0.111	-0.350
-309.910	-136.841	0.078	0.009
-308.895	509.259	0.056	-0.128
-307.880	800.000	0.062	0.176
-306.866	395.056	0.047	0.098
-305.851	-11.390	-0.047	-0.031
-304.837	-78.682	-0.242	-0.082
-303.822	-200.000	-0.005	-0.402
-302.807	427.982	-0.233	-0.501
-301.793	800.000	0.057	-0.173
-300.778	-139.876	0.257	0.027
-299.764	2.740	-0.127	0.092
-298.749	-200.000	-0.015	0.183
-297.735	204.771	-0.115	-0.177
-296.720	-56.445	0.103	-0.045
-295.705	159.168	0.078	0.108
-294.691	-200.000	0.041	-0.329
-293.676	38.322	-0.138	0.122
-292.662	69.344	0.213	-0.218
-291.647	-133.274	0.103	-0.013
-290.632	-122.031	0.237	-0.039
-289.618	159.554	-0.077	-0.107
-288.603	32.762	0.050	-0.043
-287.589	69.137	-0.074	0.076
-286.574	800.000	-0.011	-0.042
-285.559	800.000	0.036	0.152
-284.545	74.022	0.119	-0.124
-283.530	-81.248	0.169	0.056
-282.516	-170.272	0.208	-0.007
-281.501	482.569	-0.091	-0.205
-280.486	-157.233	-0.185	-0.011
-279.472	1.361	-0.235	-0.168
-278.457	41.919	-0.147	-0.132
-277.443	-65.593	0.144	-0.058
-276.428	-44.486	-0.154	0.076
-275.413	-200.000	-0.012	0.477
-274.399	-200.000	-0.063	0.299
-273.384	272.471	-0.084	0.147
-272.370	-200.000	-0.021	0.216
-271.355	101.775	-0.237	0.275
-270.340	800.000	0.099	0.317
-269.326	340.586	-0.183	-0.354
-268.311	-44.241	0.216	-0.108
-267.297	800.000	-0.096	0.321
-266.282	-200.000	-0.001	0.067
-265.267	51.656	-0.101	0.096
-264.253	68.321	0.185	0.189
-263.238	68.123	0.136	0.139
-262.224	800.000	-0.129	-0.353
-261.209	-63.664	-0.157	-0.064
-260.195	-20.290	-0.338	0.206
-259.180	194.197	0.121	-0.181
-258.165	-174.937	-0.356	0.010
-257.151	333.975	-0.128	-0.245
-256.136	534.804	0.099	0.234
-255.122	-87.025	0.329	-0.099
-254.107	51.063	-0.162	0.152
-253.092	-33.416	0.116	-0.064
-252.078	329.381	0.041	0.079
-251.063	800.000	-0.099	-0.296
-250.049	-200.000	-0.018	0.388
-249.034	-49.060	0.305	-0.145
-248.019	24.443	0.242	-0.199
-247.005	-149.138	-0.375	-0.030
-245.990	800.000	0.020	0.072
-244.976	-200.000	0.007	0.147
-243.961	800.000	-0.001	0.005
-242.946	-32.320	-0.073	-0.041
-241.932	-200.000	0.111	0.000
-240.917	-54.586	-0.102	0.046
-239.903	9.261	-0.308	-0.231
-238.888	188.833	0.065	-0.096
-237.873	418.976	-0.160	0.340
-236.859	-82.614	0.192	0.062
-235.844	-48.222	0.248	0.119
-234.830	-79.745	-0.165	0.055
-233.815	243.254	-0.098	0.163
-232.800	-26.373	0.131	0.076
-231.786	800.000	0.076	-0.331
-230.771	800.000	-0.107	-0.325
-229.757	800.000	0.026	-0.079
-228.742	-24.719	0.094	-0.055
-227.727	377.667	0.041	0.084
-226.713	48.242	0.133	0.123
-225.698	-69.574	-0.090	0.034
-224.684	332.233	0.041	0.079
-223.669	800.000	0.109	0.299
-222.655	366.575	-0.082	0.163
-221.640	36.614	0.330	-0.289
-220.625	-93.802	-0.196	0.054
-219.611	74.306	-0.116	-0.121
-218.596	-29.422	-0.097	-0.055
-217.582	-200.000	0.001	0.478
-216.567	-72.909	0.141	0.052
-215.552	-29.372	-0.139	0.079
-214.538	800.000	0.028	-0.078
-213.523	800.000	-0.080	0.281
-212.509	-21.942	-0.310	0.187
-211.494	160.512	-0.071	-0.098
-210.479	163.199	0.085	0.118
-209.465	17.243	0.200	-0.157
-208.450	-70.622	0.227	0.085
-207.436	54.901	-0.046	-0.044
-206.421	87.492	-0.281	0.308
-205.406	104.237	0.073	0.086
-204.392	-50.521	0.274	-0.128
-203.377	100.028	0.098	-0.113
-202.363	-15.081	0.287	0.182
-201.348	124.142	0.135	-0.168
-200.333	16.349	0.142	0.111
-199.319	23.986	-0.276	0.225
-198.304	244.823	0.098	0.164
-197.290	-98.119	-0.248	0.063
-196.275	353.649	0.007	-0.013
-195.260	-200.000	0.015	-0.090
-194.246	506.114	-0.145	-0.334
-193.231	-46.026	-0.132	0.065
-192.217	-180.366	-0.107	0.002
-191.202	769.879	0.026	-0.071
-190.187	492.354	0.257	0.583
-189.173	-101.147	-0.122	-0.030
-188.158	100.231	-0.132	0.152
-187.144	-55.619	-0.318	0.141
-186.129	53.851	0.279	-0.265
-185.114	800.000	0.025	-0.108
-184.100	-153.269	-0.146	0.010
-183.085	800.000	0.029	-0.098
-182.071	-22.020	0.170	-0.102
-181.056	5.385	-0.028	-0.021
-180.042	99.760	-0.074	0.085
-179.027	-200.000	0.050	0.380
-178.012	-34.266	0.071	-0.039
-176.998	123.484	0.093	0.116
-175.983	-28.539	-0.134	0.076
-174.969	638.367	0.069	-0.174
-173.954	-91.800	-0.089	0.025
-172.939	289.111	0.174	-0.312
-171.925	-6.380	0.139	-0.094
-170.910	239.541	0.058	-0.095
-169.896	-200.000	-0.002	0.149
-168.881	41.668	0.081	-0.073
-167.866	115.435	-0.096	-0.116
-166.852	800.000	0.016	-0.070
-165.837	5.660	0.134	0.098
-164.823	181.365	0.145	-0.211
-163.808	349.184	0.119	-0.233
-162.793	13.523	0.072	-0.056
-161.779	-200.000	-0.055	0.290
-160.764	109.009	0.126	0.150
-159.750	-97.751	0.203	-0.052
-158.735	-123.028	0.196	-0.031
-157.720	-200.000	0.017	0.208
-156.706	-143.689	-0.093	-0.009
-155.691	104.347	-0.045	-0.052
-154.677	11.210	-0.171	0.129
-153.662	-58.728	0.137	-0.059
-152.647	-66.729	0.132	-0.052
-151.633	800.000	0.050	0.159
-150.618	-107.789	0.076	0.016
-149.604	800.000	-0.055	-0.203
-148.589	-107.527	-0.063	-0.014
-147.574	307.504	0.122	-0.224
-146.560	109.272	-0.046	-0.054
-145.545	290.341	0.045	-0.082
-144.531	453.679	0.084	-0.184
-143.516	39.378	0.166	-0.147
-142.502	-100.388	0.152	0.037
-141.487	332.861	-0.055	0.106
-140.472	-200.000	-0.007	0.100
-139.458	-200.000	-0.013	0.122
-138.443	477.909	-0.029	0.064
-137.429	-142.573	0.069	0.007
-136.414	121.448	-0.300	-0.369
-135.399	800.000	-0.037	0.138
-134.385	-6.397	0.297	-0.200
-133.370	243.651	0.038	0.064
-132.356	-31.195	-0.170	-0.095
-131.341	-200.000	-0.022	0.364
-130.326	126.558	0.136	0.171
-129.312	800.000	0.071	0.225
-128.297	-200.000	-0.050	0.295
-127.283	214.985	0.053	0.083
-126.268	-200.000	-0.019	0.226
-125.253	508.235	0.101	0.233
-124.239	100.700	-0.102	0.118
-123.224	800.000	0.078	-0.255
-122.210	-163.597	-0.108	-0.005
-121.195	221.056	-0.028	-0.044
