DTS Sentinel unit serial number:	SN413079Multiplexer serial number:	ORYXHardware model number:	OX4-SRSoftware version number:	ORYX F/W v4.00 Oryx Data Collector v3.7.2.0data status	okinstallation	princeton_trtdifferential loss correction	single-endedforward channel	channel 4reverse channel	N/Adate	2019/09/18time	17:49:35forward acquisition time	60.00reverse acquisition time	0.00gamma	496.2192k internal	0.2289k external	0.2289temperature offset calibration	1.0017default loss term (dB/km)	0.3790temperature slope calibration	1.0000multiplexer offset coefficient	1.0000multiplexer slope coefficient	1.0000fibre end	0.00T internal ref (°C)	40.20T ext. ref 1 (°C)	0.93T ext. ref 2 (°C)	32.35length (m)	temperature (°C)	Stokes	anti-Stokes-747.200	-200.000	0.091	-0.502
-746.185	-200.000	0.035	0.477
-745.171	240.285	-0.096	0.164
-744.156	-115.046	0.204	-0.040
-743.142	-178.062	-0.163	-0.004
-742.127	-200.000	-0.061	0.404
-741.112	-125.041	-0.587	0.092
-740.098	245.740	0.075	0.130
-739.083	-200.000	0.012	0.224
-738.069	800.000	0.095	0.271
-737.054	-200.000	-0.006	0.055
-736.039	-13.597	-0.094	0.063
-735.025	-93.752	-0.290	0.082
-734.010	800.000	0.028	0.118
-732.996	-23.898	-0.164	0.100
-731.981	-9.159	0.150	-0.103
-730.966	-47.883	-0.068	-0.034
-729.952	1.318	0.095	-0.070
-728.937	-200.000	0.053	-0.256
-727.923	50.235	0.067	0.065
-726.908	-200.000	0.014	-0.196
-725.894	279.393	-0.097	0.178
-724.879	800.000	-0.029	-0.085
-723.864	-164.925	0.228	0.010
-722.850	-178.247	0.199	0.005
-721.835	161.767	-0.196	-0.280
-720.821	62.873	0.138	-0.141
-719.806	79.614	-0.148	-0.163
-718.791	337.935	-0.064	-0.127
-717.777	-99.616	0.162	0.042
-716.762	536.426	-0.071	0.173
-715.748	55.757	-0.062	0.061
-714.733	301.992	-0.131	0.249
-713.718	-115.373	0.367	0.071
-712.704	159.638	-0.081	-0.116
-711.689	-16.303	0.364	-0.237
-710.675	-200.000	-0.020	-0.404
-709.660	223.045	-0.248	-0.409
-708.645	-33.996	-0.146	0.082
-707.631	-40.827	0.172	0.091
-706.616	112.022	0.106	0.131
-705.602	42.729	0.056	0.052
-704.587	459.296	0.085	0.195
-703.572	-70.642	-0.235	0.091
-702.558	-93.108	-0.157	-0.045
-701.543	-39.424	-0.312	-0.167
-700.529	35.522	-0.321	-0.289
-699.514	-55.748	0.192	-0.088
-698.499	779.229	-0.019	-0.053
-697.485	800.000	-0.072	0.323
-696.470	-63.963	0.270	0.113
-695.456	-86.711	-0.222	0.069
-694.441	-1.681	0.110	0.079
-693.426	51.852	-0.035	-0.034
-692.412	-140.543	-0.145	-0.015
-691.397	156.529	0.073	-0.103
-690.383	-122.715	-0.330	0.055
-689.368	-65.429	-0.129	0.053
-688.354	100.072	0.351	-0.416
-687.339	-133.223	-0.059	0.008
-686.324	16.535	0.198	0.160
-685.310	677.726	-0.022	0.057
-684.295	126.947	-0.115	0.149
-683.281	-0.473	0.069	-0.050
-682.266	-200.000	0.021	-0.155
-681.251	251.409	-0.238	0.415
-680.237	456.388	0.080	0.181
-679.222	545.926	0.117	0.285
-678.208	345.793	0.131	-0.264
-677.193	800.000	0.075	-0.221
-676.178	-107.927	-0.016	-0.004
-675.164	275.102	0.109	-0.197
-674.149	92.254	-0.204	0.234
-673.135	-75.631	0.389	0.141
-672.120	9.433	0.136	-0.105
-671.105	83.409	0.253	0.281
-670.091	-200.000	-0.003	-0.173
-669.076	-200.000	0.023	-0.250
-668.062	-200.000	-0.038	0.281
-667.047	-200.000	-0.097	0.440
-666.032	219.398	-0.134	0.220
-665.018	-43.681	0.147	-0.076
-664.003	800.000	-0.111	0.317
-662.989	-19.669	-0.267	-0.169
-661.974	14.707	0.131	0.105
-660.959	104.192	-0.144	-0.173
-659.945	169.224	-0.234	-0.341
-658.930	-27.876	-0.134	-0.079
-657.916	-200.000	0.020	-0.277
-656.901	-110.275	-0.133	-0.028
-655.886	139.278	0.110	-0.147
-654.872	103.843	-0.266	-0.319
-653.857	-200.000	0.040	-0.261
-652.843	45.465	-0.190	0.179
-651.828	-170.668	0.158	-0.006
-650.814	-94.532	0.117	-0.033
-649.799	-81.506	0.044	-0.015
-648.784	231.584	-0.060	-0.100
-647.770	-16.717	0.184	-0.119
-646.755	150.829	-0.115	-0.159
-645.741	-200.000	-0.024	0.245
-644.726	-63.384	-0.180	0.075
-643.711	-126.176	0.379	-0.058
-642.697	12.715	0.250	0.197
-641.682	-72.628	-0.236	0.089
-640.668	-116.404	-0.205	-0.039
-639.653	188.907	0.103	-0.157
-638.638	-140.149	0.167	0.018
-637.624	-55.191	0.152	-0.070
-636.609	-66.456	0.227	0.092
-635.595	301.958	-0.088	0.166
-634.580	203.105	0.231	0.365
-633.565	-4.469	0.054	0.038
-632.551	-90.078	-0.335	-0.100
-631.536	14.545	-0.246	0.196
-630.522	475.801	0.111	0.256
-629.507	-66.739	0.166	-0.067
-628.492	83.429	0.124	-0.138
-627.478	76.296	0.242	0.262
-626.463	-17.577	0.064	-0.041
-625.449	-22.096	-0.120	-0.074
-624.434	197.304	-0.217	0.338
-623.419	114.415	-0.122	0.151
-622.405	-68.120	-0.088	0.035
-621.390	71.915	0.134	-0.142
-620.376	-82.212	0.081	0.027
-619.361	165.970	-0.092	0.132
-618.346	602.917	0.168	-0.426
-617.332	-168.967	-0.263	-0.010
-616.317	510.450	0.162	-0.385
-615.303	28.935	0.111	-0.096
-614.288	-108.039	-0.319	0.071
-613.273	96.213	-0.421	-0.491
-612.259	184.467	-0.252	0.381
-611.244	388.557	0.081	-0.170
-610.230	-1.255	0.120	-0.087
-609.215	53.603	-0.156	0.153
-608.201	-200.000	-0.040	0.491
-607.186	-65.402	-0.124	-0.051
-606.171	-71.340	0.220	-0.084
-605.157	-125.031	-0.217	-0.034
-604.142	28.284	0.055	-0.048
-603.128	13.472	0.111	-0.088
-602.113	-50.419	-0.169	-0.081
-601.098	73.774	0.230	-0.246
-600.084	255.169	-0.094	0.165
-599.069	-113.179	-0.053	-0.011
-598.055	-140.258	-0.333	0.036
-597.040	87.425	-0.080	0.091
-596.025	281.406	0.041	0.076
-595.011	800.000	-0.024	0.107
-593.996	109.514	0.092	0.113
-592.982	-152.564	-0.286	0.021
-591.967	91.261	-0.199	-0.227
-590.952	-87.789	-0.285	-0.087
-589.938	-174.548	-0.150	0.004
-588.923	-13.386	-0.121	0.080
-587.909	-200.000	0.023	0.113
-586.894	-161.917	0.226	-0.012
-585.879	97.157	-0.050	0.058
-584.865	-25.805	-0.395	0.237
-583.850	-142.670	0.035	0.003
-582.836	-168.488	0.205	-0.008
-581.821	106.896	-0.035	-0.043
-580.806	-200.000	0.013	0.242
-579.792	-179.075	-0.347	-0.008
-578.777	-75.870	0.159	0.057
-577.763	-192.283	0.208	0.002
-576.748	800.000	0.024	0.083
-575.733	-200.000	0.004	0.090
-574.719	354.747	-0.077	-0.155
-573.704	-200.000	-0.024	0.155
-572.690	0.283	0.298	-0.216
-571.675	-90.977	-0.073	0.021
-570.661	15.724	-0.191	0.153
-569.646	-200.000	0.015	0.141
-568.631	-104.044	-0.306	-0.072
-567.617	269.692	-0.143	0.256
-566.602	-4.847	-0.123	-0.086
-565.588	-200.000	-0.016	0.075
-564.573	120.215	-0.218	0.276
-563.558	112.216	-0.252	-0.310
-562.544	35.228	0.161	-0.144
-561.529	454.745	-0.031	-0.071
-560.515	-11.048	0.086	0.058
-559.500	58.231	-0.125	-0.125
-558.485	-93.594	0.175	-0.049
-557.471	-200.000	0.044	0.264
-556.456	-200.000	0.003	-0.075
-555.442	-200.000	0.051	-0.302
-554.427	-110.458	0.130	0.027
-553.412	-200.000	-0.015	-0.113
-552.398	-144.096	-0.456	0.044
-551.383	-69.228	-0.073	0.028
-550.369	412.227	0.082	0.177
-549.354	-145.804	0.325	0.029
-548.339	-93.860	-0.084	0.024
-547.325	-200.000	0.018	0.181
-546.310	800.000	0.009	0.035
-545.296	93.758	-0.176	-0.203
-544.281	334.891	-0.060	0.117
-543.266	359.909	-0.060	-0.122
-542.252	-18.491	-0.138	-0.088
-541.237	-165.094	0.156	-0.007
-540.223	14.717	0.167	-0.133
-539.208	-15.265	0.276	0.179
-538.193	-73.421	0.321	-0.119
-537.179	-98.926	-0.211	0.055
-536.164	-112.180	0.040	-0.008
-535.150	-146.172	-0.231	0.021
-534.135	0.000	-0.255	0.184
-533.121	-200.000	-0.013	-0.088
-532.106	-15.062	-0.147	-0.096
-531.091	-200.000	-0.061	-0.507
-530.077	-200.000	0.003	0.028
-529.062	-200.000	-0.010	0.080
-528.048	496.392	-0.119	0.277
-527.033	124.473	0.178	0.228
-526.018	-133.782	-0.149	-0.019
-525.004	185.014	0.266	0.402
-523.989	266.561	-0.105	-0.187
-522.975	73.206	0.124	0.132
-521.960	112.547	0.168	0.206
-520.945	320.469	0.023	-0.045
-519.931	-86.041	-0.178	0.056
-518.916	-200.000	0.010	0.087
-517.902	-15.514	-0.069	-0.045
-516.887	27.627	-0.117	-0.100
-515.872	-200.000	0.011	0.204
-514.858	-48.620	-0.539	-0.263
-513.843	413.157	0.059	-0.126
-512.829	-200.000	0.017	-0.190
-511.814	205.358	-0.129	-0.204
-510.799	70.360	0.268	-0.281
-509.785	-87.286	0.330	-0.102
-508.770	800.000	0.040	-0.119
-507.756	-127.841	-0.111	0.016
-506.741	-139.900	-0.280	0.030
-505.726	-200.000	-0.033	-0.409
-504.712	-101.445	-0.294	-0.073
-503.697	-97.418	-0.084	0.022
-502.683	-61.875	-0.110	0.047
-501.668	98.529	-0.079	-0.092
-500.653	214.450	0.223	-0.359
-499.639	475.251	0.053	-0.122
-498.624	43.560	0.117	-0.109
-497.610	-156.303	-0.454	-0.029
-496.595	36.836	-0.156	0.140
-495.581	-140.125	0.076	-0.008
-494.566	649.621	0.126	-0.328
-493.551	55.080	-0.255	-0.250
-492.537	45.826	-0.068	0.064
-491.522	-82.157	-0.242	-0.080
-490.508	-200.000	0.027	-0.178
-489.493	-180.778	-0.041	-0.001
-488.478	246.595	-0.087	0.149
-487.464	763.585	0.092	-0.254
-486.449	-21.916	-0.299	0.185
-485.435	-114.281	0.476	-0.093
-484.420	800.000	-0.046	-0.184
-483.405	82.884	-0.185	-0.204
-482.391	-200.000	0.006	-0.160
-481.376	183.673	0.284	-0.426
-480.362	-200.000	0.016	-0.135
-479.347	-39.606	-0.119	0.063
-478.332	535.732	0.153	0.368
-477.318	-200.000	-0.064	0.335
-476.303	-27.486	-0.331	0.195
-475.289	75.478	0.307	-0.329
-474.274	-105.253	-0.487	-0.113
-473.259	-27.429	-0.136	0.080
-472.245	-117.131	0.100	0.018
-471.230	192.608	-0.141	-0.216
-470.216	-200.000	0.022	0.113
-469.201	-9.691	-0.210	0.142
-468.186	-83.258	-0.033	0.011
-467.172	-57.985	0.081	-0.036
-466.157	74.376	0.101	0.107
-465.143	-121.509	-0.417	0.070
-464.128	-154.879	-0.125	0.008
-463.113	-31.624	0.144	0.082
-462.099	-73.970	0.372	-0.137
-461.084	-12.653	0.042	0.028
-460.070	83.743	0.152	-0.168
-459.055	50.566	0.024	0.023
-458.040	176.514	-0.099	-0.146
-457.026	-99.265	-0.444	-0.114
-456.011	-62.669	0.157	-0.066
-454.997	-14.087	-0.055	-0.036
-453.982	-41.303	0.166	-0.087
-452.968	800.000	0.003	0.013
-451.953	265.909	0.131	0.231
-450.938	-145.568	-0.414	0.038
-449.924	-200.000	-0.041	0.206
-448.909	800.000	-0.094	0.285
-447.895	-86.320	0.306	-0.095
-446.880	-38.792	0.045	-0.024
-445.865	800.000	0.087	0.341
-444.851	-200.000	0.009	0.357
-443.836	-200.000	-0.008	-0.228
-442.822	37.236	0.325	-0.291
-441.807	185.794	0.104	0.157
-440.792	70.731	0.212	-0.222
-439.778	76.734	0.082	0.088
-438.763	589.367	-0.138	-0.344
-437.749	800.000	-0.084	0.288
-436.734	7.084	-0.098	0.074
-435.719	-93.661	-0.243	-0.068
-434.705	176.028	0.145	0.213
-433.690	-164.310	0.142	0.007
-432.676	210.425	0.132	-0.210
-431.661	-167.377	-0.137	0.006
-430.646	75.697	0.161	0.172
-429.632	43.288	-0.065	-0.060
-428.617	53.489	0.164	-0.159
-427.603	168.437	0.103	-0.148
-426.588	440.127	0.125	-0.277
-425.573	-142.128	-0.135	0.014
-424.559	326.931	0.070	0.135
-423.544	419.102	-0.034	0.074
-422.530	-98.241	0.139	-0.036
-421.515	287.001	-0.088	-0.161
-420.500	16.251	0.302	-0.241
-419.486	-129.464	0.471	0.066
-418.471	-100.791	0.130	-0.032
-417.457	800.000	-0.037	-0.161
-416.442	-40.204	-0.273	-0.144
-415.428	-200.000	0.001	0.351
-414.413	54.752	-0.024	0.023
-413.398	95.086	-0.113	0.130
-412.384	-55.660	0.223	0.101
-411.369	800.000	0.031	-0.087
-410.355	-39.036	0.183	0.098
-409.340	258.713	0.186	-0.325
-408.325	-195.955	0.110	0.001
-407.311	-200.000	0.034	-0.210
-406.296	-200.000	-0.010	-0.082
-405.282	-132.869	-0.157	-0.020
-404.267	-133.841	0.352	0.044
-403.252	-26.600	0.163	-0.097
-402.238	-104.778	0.129	0.030
-401.223	-82.688	0.138	0.045
-400.209	179.865	-0.145	0.215
-399.194	-90.150	0.200	0.059
-398.179	278.831	0.108	-0.195
-397.165	461.372	-0.081	0.181
-396.150	-90.536	-0.045	-0.013
-395.136	302.675	-0.161	-0.302
-394.121	127.091	0.195	-0.250
-393.106	800.000	-0.082	-0.358
-392.092	-99.077	-0.332	0.085
-391.077	289.507	-0.110	0.201
-390.063	800.000	0.086	0.290
-389.048	-89.682	0.260	-0.077
-388.033	216.662	0.164	0.263
-387.019	52.377	0.095	-0.091
-386.004	23.998	0.178	-0.149
-384.990	258.851	0.075	0.130
-383.975	-116.236	-0.169	0.032
-382.960	37.330	0.197	0.176
-381.946	502.298	-0.109	-0.255
-380.931	-200.000	-0.019	-0.185
-379.917	-4.070	0.089	0.062
-378.902	-93.802	-0.342	-0.095
-377.888	-32.005	0.172	-0.097
-376.873	800.000	0.040	0.122
-375.858	-77.258	0.061	-0.021
-374.844	26.585	-0.070	-0.059
-373.829	119.108	-0.153	0.191
-372.815	-200.000	-0.046	0.390
-371.800	63.308	-0.025	0.025
-370.785	88.430	-0.199	0.224
-369.771	41.867	0.071	0.065
-368.756	-51.597	0.235	0.111
-367.742	-200.000	-0.003	-0.233
-366.727	800.000	-0.100	0.286
-365.712	-8.798	-0.102	0.069
-364.698	42.247	0.240	0.220
-363.683	-29.224	0.249	0.144
-362.669	41.966	0.279	-0.255
-361.654	-51.424	-0.171	-0.081
-360.639	253.080	-0.107	-0.184
-359.625	-136.760	-0.267	0.031
-358.610	219.404	0.128	0.207
-357.596	466.367	-0.120	0.271
-356.581	261.419	0.133	-0.233
-355.566	3.496	0.239	0.176
-354.552	-35.333	-0.246	-0.135
-353.537	-25.624	0.310	0.185
-352.523	-200.000	-0.013	-0.314
-351.508	-121.992	0.088	-0.015
-350.493	-200.000	-0.005	0.223
-349.479	63.873	0.275	0.279
-348.464	190.015	0.068	-0.102
-347.450	-120.599	-0.228	0.039
-346.435	24.442	0.159	0.133
-345.420	608.362	0.021	-0.054
-344.406	106.338	-0.172	0.206
-343.391	-84.491	-0.261	-0.083
-342.377	-200.000	-0.036	0.166
-341.362	-200.000	-0.024	0.186
-340.348	-164.680	0.298	0.014
-339.333	-138.887	0.447	-0.049
-338.318	141.299	0.086	0.115
-337.304	280.907	-0.156	0.281
-336.289	-106.687	-0.187	0.042
-335.275	-115.673	-0.273	0.052
-334.260	-190.987	-0.260	-0.003
-333.245	-81.509	0.084	-0.028
-332.231	6.659	0.151	0.113
-331.216	800.000	-0.019	0.054
-330.202	246.289	-0.053	-0.091
-329.187	39.123	0.149	0.134
-328.172	43.985	0.152	0.140
-327.158	-121.981	0.031	0.005
-326.143	-107.369	0.250	0.055
-325.129	238.894	-0.095	0.159
-324.114	-118.103	-0.060	-0.011
-323.099	192.662	0.186	-0.283
-322.085	-71.459	-0.211	-0.080
-321.070	-37.173	-0.170	-0.092
-320.056	-15.645	0.438	-0.282
-319.041	-200.000	0.042	0.254
-318.026	-200.000	-0.036	0.204
-317.012	-117.615	-0.294	-0.053
-315.997	-200.000	-0.002	0.140
-314.983	-55.291	-0.208	0.094
-313.968	-127.599	-0.059	0.009
-312.953	-36.817	0.195	-0.106
-311.939	-64.632	0.255	-0.104
-310.924	-160.857	-0.260	0.014
-309.910	-182.849	-0.184	0.003
-308.895	-138.300	0.176	0.020
-307.880	-162.630	-0.202	0.010
-306.866	277.681	0.148	-0.266
-305.851	-200.000	0.039	-0.189
-304.837	800.000	0.157	-0.453
-303.822	800.000	0.112	-0.449
-302.807	-200.000	-0.006	-0.154
-301.793	-75.781	-0.014	-0.005
-300.778	410.017	-0.060	-0.128
-299.764	-168.017	-0.326	0.013
-298.749	283.363	-0.068	-0.123
-297.735	-200.000	0.029	-0.168
-296.720	432.034	-0.064	0.140
-295.705	-106.188	-0.366	-0.083
-294.691	-37.514	0.095	0.051
-293.676	-160.722	-0.326	-0.017
-292.662	-200.000	0.028	-0.201
-291.647	-114.054	-0.186	-0.036
-290.632	523.101	-0.074	-0.174
-289.618	1.116	0.172	0.124
-288.603	130.884	0.231	0.298
-287.589	-200.000	-0.059	-0.441
-286.574	39.652	-0.154	0.139
-285.559	-17.985	0.211	-0.133
-284.545	-83.107	-0.481	-0.156
-283.530	-82.511	-0.142	-0.046
-282.516	-27.825	0.294	0.172
-281.501	109.449	0.286	-0.345
-280.486	-200.000	0.076	-0.377
-279.472	-58.140	-0.177	-0.078
-278.457	170.447	-0.034	-0.049
-277.443	-200.000	0.010	0.160
-276.428	-120.152	-0.273	-0.047
-275.413	800.000	0.044	0.178
-274.399	-27.164	-0.085	0.050
-273.384	524.790	0.105	-0.249
-272.370	413.421	0.076	-0.163
-271.355	44.616	-0.085	-0.079
-270.340	-152.288	0.186	0.014
-269.326	639.197	-0.101	0.260
-268.311	-200.000	0.007	0.112
-267.297	-200.000	-0.051	-0.237
-266.282	-78.781	0.229	-0.079
-265.267	-200.000	0.006	0.234
-264.253	78.194	0.078	0.083
-263.238	800.000	0.080	0.233
-262.224	136.711	-0.156	0.205
-261.209	-91.097	-0.087	-0.025
-260.195	183.701	0.220	-0.327
-259.180	-157.639	0.083	0.005
-258.165	83.308	0.125	0.137
-257.151	-103.699	-0.085	-0.020
-256.136	-60.918	-0.147	-0.063
-255.122	24.020	-0.260	-0.216
-254.107	-200.000	-0.039	0.325
-253.092	178.056	0.053	-0.078
-252.078	113.771	-0.214	0.262
-251.063	-65.309	-0.219	0.089
-250.049	-200.000	0.008	0.127
-249.034	79.660	0.100	-0.108
-248.019	-69.658	0.134	-0.051
-247.005	226.083	0.123	0.201
-245.990	-99.254	-0.242	0.061
-244.976	474.324	-0.078	-0.176
-243.961	-29.043	-0.214	0.123
-242.946	-146.171	0.237	0.021
-241.932	69.457	0.139	0.144
-240.917	95.278	0.252	0.288
-239.903	800.000	0.036	0.103
-238.888	-200.000	0.014	-0.137
-237.873	3.734	0.191	0.140
-236.859	-200.000	-0.024	0.245
-235.844	-163.249	-0.162	-0.008
-234.830	-27.024	0.069	-0.041
-233.815	21.135	-0.308	-0.251
-232.800	336.314	-0.160	-0.312
-231.786	-200.000	-0.011	0.393
-230.771	-90.228	0.395	-0.115
-229.757	-171.264	0.258	-0.009
-228.742	-38.841	-0.147	0.078
-227.727	44.672	-0.259	-0.239
-226.713	-86.117	0.217	0.067
-225.698	-200.000	-0.020	-0.180
-224.684	244.455	-0.067	-0.114
-223.669	-43.594	-0.129	0.065
-222.655	-200.000	-0.076	-0.350
-221.640	-72.042	0.255	0.095
-220.625	254.652	-0.088	0.151
-219.611	-164.346	0.183	-0.008
-218.596	-200.000	0.002	-0.301
-217.582	-62.118	0.116	-0.048
-216.567	87.030	0.161	0.178
-215.552	-131.137	-0.268	-0.036
-214.538	-200.000	0.019	-0.118
-213.523	-22.407	0.207	-0.126
-212.509	-162.024	0.295	0.015
-211.494	693.380	0.118	-0.310
-210.479	29.273	0.213	0.181
-209.465	800.000	0.068	0.244
-208.450	94.926	-0.234	0.267
-207.436	-200.000	0.009	0.136
-206.421	-33.664	-0.199	0.110
-205.406	-46.308	0.280	0.138
-204.392	20.073	0.301	-0.244
-203.377	-200.000	0.046	-0.265
-202.363	135.815	0.117	0.153
-201.348	95.992	0.114	-0.131
-200.333	18.077	0.230	0.184
-199.319	2.962	0.197	0.144
-198.304	40.735	-0.344	-0.311
-197.290	-200.000	0.066	0.406
-196.275	714.691	-0.054	-0.142
-195.260	62.055	-0.149	0.149
-194.246	-185.409	0.217	0.003
-193.231	-200.000	-0.015	0.170
-192.217	-200.000	0.013	-0.183
-191.202	77.712	0.204	-0.218
-190.187	118.373	-0.020	-0.025
-189.173	181.200	0.109	-0.161
-188.158	743.087	0.092	0.249
-187.144	74.328	0.141	-0.149
-186.129	162.774	0.035	0.049
-185.114	-21.332	-0.380	-0.233
-184.100	65.155	-0.186	-0.188
-183.085	-64.479	-0.218	-0.089
-182.071	-22.984	0.074	0.045
-181.056	92.187	0.050	0.056
-180.042	-200.000	-0.013	-0.420
-179.027	800.000	-0.073	0.281
-178.012	379.842	0.063	-0.129
-176.998	111.004	0.131	-0.158
-175.983	-30.075	-0.029	-0.016
-174.969	368.416	0.043	0.087
-173.954	121.485	-0.158	-0.198
-172.939	77.921	0.187	0.200
-171.925	800.000	-0.062	0.199
-170.910	23.407	0.131	-0.108
-169.896	800.000	-0.040	-0.167
-168.881	51.006	0.122	-0.116
-167.866	270.394	0.035	0.061
-166.852	800.000	0.154	0.522
-165.837	-64.283	-0.177	-0.072
-164.823	547.344	0.034	0.081
-163.808	78.472	0.138	0.147
-162.793	-59.932	0.166	-0.071
-161.779	800.000	0.034	0.145
-160.764	-64.896	-0.292	-0.118
-159.750	226.455	-0.103	0.167
-158.735	185.080	-0.069	0.102
-157.720	81.381	0.422	0.457
-156.706	94.218	-0.274	0.312
-155.691	-116.472	0.084	-0.015
-154.677	-43.916	0.015	0.008
-153.662	800.000	-0.078	0.321
-152.647	-129.438	0.165	-0.023
-151.633	-200.000	-0.049	0.512
-150.618	151.374	0.110	0.150
-149.604	79.791	0.172	-0.184
-148.589	15.679	-0.182	-0.143
-147.574	800.000	0.122	-0.392
-146.560	-155.120	0.199	-0.013
-145.545	-114.663	0.235	0.045
-144.531	-69.142	0.137	0.053
-143.516	-24.094	0.164	-0.098
-142.502	-109.509	-0.165	-0.035
-141.487	-143.467	0.258	-0.025
-140.472	-200.000	0.020	0.194
-139.458	-200.000	0.019	-0.189
-138.443	800.000	-0.135	-0.437
-137.429	-125.938	0.293	-0.044
-136.414	-200.000	0.028	0.126
-135.399	-63.886	0.095	0.039
-134.385	-102.881	-0.287	-0.068
-133.370	-24.199	-0.317	-0.189
-132.356	-200.000	0.044	-0.264
-131.341	-200.000	0.035	0.348
-130.326	48.472	0.074	0.070
-129.312	-200.000	-0.007	-0.106
-128.297	52.765	-0.200	0.191
-127.283	-22.447	0.062	0.038
-126.268	28.003	-0.087	-0.073
-125.253	-82.289	0.304	0.099
-124.239	-94.067	0.204	-0.056
-123.224	-200.000	0.016	0.248
-122.210	-25.407	-0.096	-0.057
-121.195	-62.807	-0.226	-0.094
-120.180	-67.564	-0.181	0.071
