DTS Sentinel unit serial number:	SN413079Multiplexer serial number:	ORYXHardware model number:	OX4-SRSoftware version number:	ORYX F/W v4.00 Oryx Data Collector v3.7.2.0data status	okinstallation	princeton_trtdifferential loss correction	single-endedforward channel	channel 4reverse channel	N/Adate	2019/09/14time	07:13:34forward acquisition time	60.00reverse acquisition time	0.00gamma	496.2192k internal	0.2324k external	0.2324temperature offset calibration	1.0136default loss term (dB/km)	0.3790temperature slope calibration	1.0000multiplexer offset coefficient	1.0000multiplexer slope coefficient	1.0000fibre end	0.00T internal ref (°C)	26.19T ext. ref 1 (°C)	3.44T ext. ref 2 (°C)	20.95length (m)	temperature (°C)	Stokes	anti-Stokes-747.200	-108.661	0.467	0.101
-746.185	800.000	-0.044	0.189
-745.171	-25.249	-0.339	-0.203
-744.156	-197.713	-0.162	-0.001
-743.142	90.203	-0.072	-0.081
-742.127	-200.000	0.008	0.357
-741.112	-112.868	-0.272	-0.054
-740.098	-18.483	-0.099	0.062
-739.083	387.140	-0.114	0.237
-738.069	133.997	-0.165	0.216
-737.054	-87.462	-0.119	0.036
-736.039	-123.308	-0.117	-0.019
-735.025	-200.000	-0.004	0.134
-734.010	-57.214	0.023	0.010
-732.996	-125.063	-0.126	0.020
-731.981	-142.758	0.229	-0.022
-730.966	153.046	-0.305	-0.421
-729.952	-102.980	0.212	-0.051
-728.937	111.569	-0.044	-0.053
-727.923	-18.210	0.167	0.105
-726.908	113.363	0.292	0.357
-725.894	-143.823	-0.235	0.022
-724.879	64.873	0.231	-0.235
-723.864	14.894	0.151	0.119
-722.850	-12.861	0.433	-0.284
-721.835	-200.000	0.022	-0.372
-720.821	5.468	0.084	0.063
-719.806	-164.766	-0.484	0.022
-718.791	-166.168	0.194	-0.008
-717.777	3.024	0.160	-0.117
-716.762	63.715	0.090	0.091
-715.748	182.726	0.058	0.086
-714.733	379.274	0.135	-0.278
-713.718	-69.444	-0.229	0.089
-712.704	212.190	-0.120	0.190
-711.689	800.000	-0.084	-0.235
-710.675	-14.238	-0.162	0.105
-709.660	-69.615	0.116	-0.045
-708.645	-200.000	-0.007	0.322
-707.631	564.385	-0.162	0.397
-706.616	82.833	0.136	0.149
-705.602	-143.632	0.259	0.025
-704.587	213.678	0.149	-0.238
-703.572	800.000	0.066	0.229
-702.558	-0.286	-0.117	-0.084
-701.543	-200.000	0.022	-0.297
-700.529	17.553	-0.150	-0.120
-699.514	-200.000	-0.025	0.207
-698.499	6.528	0.125	-0.094
-697.485	65.430	-0.176	-0.180
-696.470	23.893	-0.341	0.283
-695.456	800.000	0.049	-0.173
-694.441	-9.788	0.198	0.133
-693.426	800.000	-0.099	0.363
-692.412	103.968	-0.061	-0.073
-691.397	-96.726	0.232	-0.061
-690.383	-60.536	-0.273	0.117
-689.368	-18.357	0.177	-0.112
-688.354	-200.000	0.038	-0.271
-687.339	-68.976	0.312	0.121
-686.324	398.804	0.115	0.242
-685.310	131.957	0.138	0.179
-684.295	-200.000	0.034	0.216
-683.281	-86.328	-0.502	-0.155
-682.266	676.695	0.133	-0.348
-681.251	-200.000	0.006	0.188
-680.237	-200.000	0.016	-0.110
-679.222	800.000	0.047	-0.156
-678.208	79.814	-0.147	-0.159
-677.193	339.743	-0.085	-0.166
-676.178	-115.916	-0.335	-0.063
-675.164	800.000	-0.090	-0.268
-674.149	-200.000	0.041	0.274
-673.135	-144.637	-0.216	0.020
-672.120	334.676	0.056	-0.108
-671.105	800.000	0.092	0.359
-670.091	123.652	0.148	0.187
-669.076	-200.000	-0.020	-0.169
-668.062	-114.565	0.476	0.092
-667.047	800.000	-0.073	-0.254
-666.032	32.721	-0.184	-0.161
-665.018	157.706	-0.077	0.108
-664.003	800.000	0.028	0.096
-662.989	-39.808	0.180	-0.095
-661.974	147.748	-0.088	0.119
-660.959	-87.507	-0.397	0.121
-659.945	-48.285	0.146	0.071
-658.930	67.224	-0.093	-0.096
-657.916	763.537	0.100	-0.272
-656.901	800.000	0.075	-0.300
-655.886	249.470	0.168	0.287
-654.872	-200.000	-0.047	0.299
-653.857	76.143	-0.068	0.072
-652.843	800.000	-0.069	0.231
-651.828	800.000	0.055	-0.193
-650.814	69.917	-0.112	-0.116
-649.799	-41.476	0.158	-0.082
-648.784	117.543	0.176	0.217
-647.770	215.814	-0.174	-0.278
-646.755	161.207	-0.183	-0.257
-645.741	-7.070	-0.180	0.123
-644.726	-190.157	0.057	0.001
-643.711	-120.120	0.271	0.047
-642.697	314.526	-0.058	0.109
-641.682	20.225	-0.130	-0.105
-640.668	-56.013	0.255	-0.114
-639.653	-200.000	-0.028	-0.567
-638.638	-94.138	-0.225	-0.062
-637.624	64.509	-0.136	-0.138
-636.609	-86.188	-0.327	-0.101
-635.595	-112.651	0.171	0.034
-634.580	524.985	-0.080	0.189
-633.565	199.250	-0.102	-0.157
-632.551	-200.000	-0.013	0.213
-631.536	-200.000	0.000	-0.274
-630.522	-200.000	-0.025	0.125
-629.507	-44.399	-0.328	-0.165
-628.492	-106.718	-0.388	-0.087
-627.478	-79.695	0.370	0.125
-626.463	58.232	-0.075	-0.074
-625.449	-200.000	-0.049	-0.309
-624.434	270.706	0.029	0.052
-623.419	1.985	0.230	0.167
-622.405	-55.209	0.174	0.078
-621.390	-84.711	-0.151	0.048
-620.376	-200.000	-0.047	-0.255
-619.361	-64.112	-0.299	-0.122
-618.346	-83.542	-0.356	-0.115
-617.332	-200.000	0.001	0.199
-616.317	93.224	0.150	0.170
-615.303	105.772	-0.119	0.142
-614.288	-139.019	0.469	-0.051
-613.273	178.857	0.177	-0.261
-612.259	125.913	-0.160	-0.203
-611.244	-102.577	0.183	0.044
-610.230	-122.016	-0.327	0.054
-609.215	-74.617	-0.104	-0.037
-608.201	-6.731	0.140	-0.096
-607.186	435.285	-0.108	-0.237
-606.171	550.176	0.022	0.054
-605.157	-88.893	-0.301	0.090
-604.142	-48.453	-0.106	-0.051
-603.128	133.883	-0.272	-0.354
-602.113	-2.016	0.044	-0.031
-601.098	-200.000	0.027	0.153
-600.084	84.392	-0.143	-0.157
-599.069	179.607	0.090	-0.132
-598.055	-44.347	-0.138	0.070
-597.040	-43.813	-0.154	-0.078
-596.025	-200.000	-0.059	0.309
-595.011	180.000	0.174	0.256
-593.996	251.978	0.027	0.046
-592.982	-13.799	0.235	-0.153
-591.967	-116.355	0.261	0.049
-590.952	-114.382	-0.277	-0.053
-589.938	48.353	-0.108	0.101
-588.923	555.230	-0.151	0.365
-587.909	-101.271	0.252	0.062
-586.894	189.241	-0.156	-0.234
-585.879	-48.633	0.113	0.054
-584.865	800.000	0.016	0.064
-583.850	-200.000	0.006	0.037
-582.836	701.144	-0.107	-0.282
-581.821	-200.000	-0.033	-0.279
-580.806	63.733	0.147	-0.148
-579.792	-42.111	-0.154	0.079
-578.777	76.937	0.020	0.021
-577.763	800.000	-0.042	0.146
-576.748	165.270	-0.043	-0.061
-575.733	-56.633	-0.236	-0.105
-574.719	-200.000	0.036	-0.277
-573.704	-14.176	-0.251	-0.162
-572.690	311.077	-0.086	0.162
-571.675	-200.000	-0.009	-0.157
-570.661	800.000	0.102	-0.306
-569.646	-198.311	-0.109	0.001
-568.631	54.369	-0.253	-0.244
-567.617	-200.000	-0.005	0.201
-566.602	-200.000	-0.092	0.583
-565.588	72.496	0.239	-0.250
-564.573	-65.474	-0.332	0.134
-563.558	-78.106	0.102	0.035
-562.544	-126.740	-0.077	-0.011
-561.529	-97.039	0.476	0.125
-560.515	800.000	0.039	-0.149
-559.500	-12.955	-0.214	0.140
-558.485	-200.000	-0.025	0.125
-557.471	800.000	-0.071	-0.240
-556.456	800.000	0.031	0.120
-555.442	800.000	0.037	0.163
-554.427	90.321	0.187	0.210
-553.412	800.000	-0.088	-0.282
-552.398	-104.541	0.017	0.004
-551.383	-6.736	0.150	0.102
-550.369	-1.024	-0.330	0.234
-549.354	-76.770	0.202	-0.071
-548.339	-200.000	-0.070	-0.370
-547.325	24.713	-0.244	-0.203
-546.310	-192.548	0.332	-0.003
-545.296	216.280	0.177	0.282
-544.281	-200.000	-0.016	0.238
-543.266	-200.000	0.005	-0.270
-542.252	800.000	0.059	0.215
-541.237	211.495	0.189	-0.298
-540.223	-200.000	-0.022	-0.222
-539.208	-200.000	-0.033	-0.169
-538.193	-40.662	0.272	-0.141
-537.179	644.486	-0.048	-0.124
-536.164	-9.179	0.232	-0.155
-535.150	-25.197	-0.010	-0.006
-534.135	-200.000	0.015	0.115
-533.121	353.521	-0.086	0.172
-532.106	351.178	-0.075	-0.149
-531.091	92.354	-0.146	-0.164
-530.077	-81.560	-0.326	-0.107
-529.062	11.209	-0.109	-0.083
-528.048	-200.000	0.009	-0.191
-527.033	92.750	0.275	0.311
-526.018	202.363	0.040	0.062
-525.004	57.276	-0.074	-0.072
-523.989	-60.892	0.220	0.093
-522.975	-66.091	0.065	-0.026
-521.960	800.000	-0.008	0.025
-520.945	36.655	0.123	0.109
-519.931	264.331	0.094	0.164
-518.916	800.000	0.088	0.276
-517.902	-99.374	-0.216	0.055
-516.887	-102.947	-0.191	-0.045
-515.872	-12.772	0.340	-0.221
-514.858	15.062	0.066	0.052
-513.843	212.840	0.031	-0.048
-512.829	-65.810	0.249	0.100
-511.814	10.359	0.272	0.207
-510.799	125.386	-0.193	0.244
-509.785	-99.392	0.077	0.019
-508.770	197.281	-0.167	-0.256
-507.756	545.609	0.097	0.233
-506.741	-149.767	-0.460	-0.036
-505.726	63.059	0.161	0.161
-504.712	-200.000	0.017	-0.105
-503.697	800.000	-0.052	0.148
-502.683	237.211	0.059	-0.098
-501.668	-91.826	0.113	-0.032
-500.653	-200.000	0.033	-0.146
-499.639	54.058	0.195	-0.187
-498.624	37.353	0.062	0.055
-497.610	-200.000	0.006	0.274
-496.595	713.365	-0.143	0.378
-495.581	800.000	-0.062	-0.185
-494.566	-38.835	0.038	0.020
-493.551	-19.510	-0.112	0.070
-492.537	675.029	-0.130	-0.339
-491.522	201.473	-0.100	0.154
-490.508	426.123	0.062	-0.133
-489.493	-47.872	-0.180	-0.087
-488.478	-182.367	0.254	-0.005
-487.464	-61.406	0.271	-0.114
-486.449	-33.861	-0.213	0.117
-485.435	-112.156	-0.058	-0.012
-484.420	-200.000	-0.070	-0.366
-483.405	-19.722	0.169	-0.104
-482.391	800.000	-0.034	-0.107
-481.376	-11.077	-0.058	0.038
-480.362	-29.559	-0.212	-0.121
-479.347	0.012	0.122	0.087
-478.332	800.000	0.053	-0.167
-477.318	-136.756	-0.134	0.015
-476.303	-19.415	-0.209	-0.129
-475.289	-200.000	-0.045	0.214
-474.274	561.575	-0.104	-0.250
-473.259	800.000	0.024	0.076
-472.245	770.854	0.162	0.442
-471.230	-200.000	-0.000	0.375
-470.216	-181.185	0.204	0.004
-469.201	-69.739	0.159	-0.061
-468.186	-86.068	0.201	-0.062
-467.172	-200.000	0.015	0.314
-466.157	-173.221	-0.387	-0.012
-465.143	-129.579	-0.354	-0.049
-464.128	-60.670	0.280	0.118
-463.113	779.810	0.065	-0.178
-462.099	107.451	0.084	-0.099
-461.084	472.869	-0.081	0.182
-460.070	-200.000	0.002	0.182
-459.055	332.372	0.092	-0.177
-458.040	800.000	-0.057	0.173
-457.026	-112.174	0.198	0.040
-456.011	294.071	-0.243	0.443
-454.997	157.058	-0.042	-0.058
-453.982	-126.151	-0.237	-0.035
-452.968	-87.651	0.306	0.092
-451.953	-200.000	0.020	0.215
-450.938	-200.000	0.029	0.322
-449.924	-200.000	0.004	-0.135
-448.909	324.432	-0.147	-0.281
-447.895	-131.177	0.095	0.013
-446.880	-101.731	-0.123	0.030
-445.865	577.476	0.075	-0.183
-444.851	-200.000	0.033	-0.206
-443.836	95.369	0.264	0.300
-442.822	-200.000	-0.057	-0.289
-441.807	-200.000	0.001	0.051
-440.792	-139.915	-0.328	0.035
-439.778	48.375	0.388	-0.363
-438.763	800.000	0.051	0.197
-437.749	-83.519	0.322	0.103
-436.734	-6.875	-0.202	-0.137
-435.719	91.490	0.218	0.244
-434.705	-104.965	-0.235	-0.054
-433.690	171.353	0.153	0.219
-432.676	-82.424	0.624	-0.202
-431.661	-117.208	-0.354	-0.064
-430.646	68.561	0.166	-0.170
-429.632	62.923	0.151	-0.151
-428.617	-42.783	-0.136	0.069
-427.603	-200.000	0.047	-0.382
-426.588	-113.219	-0.242	-0.048
-425.573	-200.000	-0.010	-0.293
-424.559	-200.000	0.021	0.183
-423.544	-200.000	0.030	-0.237
-422.530	698.877	-0.056	-0.146
-421.515	-200.000	0.001	0.277
-420.500	-200.000	-0.010	0.405
-419.486	-61.750	-0.227	-0.095
-418.471	136.885	0.092	0.119
-417.457	-122.144	-0.302	0.049
-416.442	40.255	0.122	0.109
-415.428	5.551	0.290	0.213
-414.413	192.338	0.130	-0.195
-413.398	243.919	-0.224	0.375
-412.384	356.320	0.084	0.168
-411.369	-45.731	-0.149	-0.073
-410.355	-64.967	0.163	-0.066
-409.340	-46.882	0.093	-0.045
-408.325	11.414	-0.285	0.217
-407.311	800.000	0.119	-0.464
-406.296	800.000	-0.062	-0.237
-405.282	-26.063	0.365	0.214
-404.267	800.000	-0.041	-0.152
-403.252	-92.926	-0.058	0.016
-402.238	-200.000	0.011	0.053
-401.223	473.751	0.121	-0.271
-400.209	-200.000	0.010	-0.188
-399.194	132.262	-0.052	0.066
-398.179	298.527	0.086	0.158
-397.165	80.800	0.218	-0.235
-396.150	28.253	0.157	0.132
-395.136	-79.431	-0.050	0.017
-394.121	-200.000	-0.019	-0.200
-393.106	593.212	-0.019	0.046
-392.092	439.893	-0.038	-0.084
-391.077	19.756	0.156	-0.125
-390.063	-2.168	-0.087	0.061
-389.048	-200.000	0.014	0.193
-388.033	5.807	-0.089	-0.066
-387.019	800.000	0.070	0.303
-386.004	61.657	0.181	0.179
-384.990	427.323	-0.129	0.277
-383.975	-83.247	-0.277	0.089
-382.960	-63.390	-0.285	-0.117
-381.946	800.000	-0.036	-0.134
-380.931	-6.186	0.143	-0.097
-379.917	800.000	0.127	-0.362
-378.902	-11.461	0.166	-0.108
-377.888	90.993	0.075	0.084
-376.873	-14.217	-0.334	0.214
-375.858	800.000	0.037	0.149
-374.844	-1.965	-0.120	-0.084
-373.829	154.311	-0.175	0.238
-372.815	-200.000	-0.081	0.474
-371.800	358.853	-0.139	0.276
-370.785	369.866	-0.066	0.133
-369.771	-107.745	0.403	0.087
-368.756	329.508	-0.097	-0.186
-367.742	-200.000	-0.018	0.279
-366.727	500.724	0.057	-0.131
-365.712	-200.000	0.008	-0.163
-364.698	774.609	-0.094	-0.256
-363.683	-200.000	0.017	-0.120
-362.669	319.568	0.183	-0.344
-361.654	415.202	0.076	0.162
-360.639	24.884	-0.119	0.098
-359.625	-157.394	-0.409	0.024
-358.610	-69.688	0.328	0.125
-357.596	-14.990	0.193	-0.123
-356.581	-107.250	-0.309	-0.068
-355.566	458.116	-0.082	0.182
-354.552	-28.271	0.176	-0.101
-353.537	-200.000	-0.273	-0.001
-352.523	-7.232	0.200	-0.135
-351.508	2.727	-0.189	0.137
-350.493	-9.048	-0.017	-0.011
-349.479	-200.000	-0.032	0.167
-348.464	-53.833	0.105	0.048
-347.450	-63.523	0.081	-0.033
-346.435	280.436	0.081	-0.144
-345.420	492.378	-0.053	-0.121
-344.406	-7.251	0.153	-0.103
-343.391	635.540	0.093	-0.235
-342.377	-197.726	-0.080	0.000
-341.362	-128.949	0.456	0.064
-340.348	-109.022	0.315	-0.067
-339.333	-3.232	0.122	-0.084
-338.318	458.074	-0.079	-0.174
-337.304	800.000	-0.041	-0.119
-336.289	-79.084	-0.216	0.073
-335.275	-102.750	0.103	-0.024
-334.260	381.888	0.036	0.073
-333.245	196.987	-0.138	-0.209
-332.231	-121.826	-0.393	0.064
-331.216	58.344	-0.320	-0.312
-330.202	62.821	-0.215	0.213
-329.187	-61.061	0.212	-0.089
-328.172	-108.052	-0.093	-0.020
-327.158	-200.000	0.016	0.156
-326.143	-105.183	0.019	-0.004
-325.129	-98.111	-0.254	0.065
-324.114	542.235	0.101	0.239
-323.099	531.420	0.037	-0.086
-322.085	-200.000	-0.007	-0.177
-321.070	-58.895	0.243	0.104
-320.056	800.000	0.117	-0.330
-319.041	-58.556	0.133	0.057
-318.026	-98.442	0.257	0.065
-317.012	-200.000	0.030	-0.169
-315.997	-24.262	-0.240	0.142
-314.983	-99.393	-0.242	0.061
-313.968	-200.000	0.031	0.406
-312.953	-107.380	0.086	-0.019
-311.939	-178.478	-0.114	-0.003
-310.924	2.534	0.129	0.093
-309.910	83.884	-0.046	0.050
-308.895	-56.599	0.220	0.097
-307.880	-63.261	-0.144	-0.059
-306.866	262.638	-0.151	-0.261
-305.851	-124.489	-0.181	0.028
-304.837	-138.056	-0.318	0.035
-303.822	-6.643	0.250	-0.169
-302.807	12.490	-0.281	-0.215
-301.793	54.418	-0.193	-0.184
-300.778	481.191	-0.153	-0.344
-299.764	28.633	-0.191	-0.160
-298.749	112.314	0.047	0.057
-297.735	-200.000	-0.001	-0.131
-296.720	-140.946	-0.410	-0.042
-295.705	-29.908	-0.291	0.165
-294.691	-200.000	-0.018	0.088
-293.676	47.563	-0.146	0.135
-292.662	21.887	-0.246	0.199
-291.647	73.797	-0.160	0.167
-290.632	107.171	-0.220	0.260
-289.618	-200.000	0.024	0.156
-288.603	-79.289	0.094	0.032
-287.589	47.871	-0.151	0.140
-286.574	142.792	0.213	-0.281
-285.559	-68.745	0.150	0.058
-284.545	-29.105	0.035	-0.020
-283.530	-200.000	-0.032	0.148
-282.516	491.786	0.099	0.224
-281.501	-97.530	-0.186	-0.048
-280.486	-15.952	0.123	0.078
-279.472	39.708	-0.345	0.307
-278.457	32.976	-0.266	0.228
-277.443	-84.396	0.029	0.009
-276.428	-21.585	0.144	-0.087
-275.413	28.179	0.136	-0.114
-274.399	-127.735	0.054	0.008
-273.384	-200.000	-0.060	0.368
-272.370	800.000	0.072	0.265
-271.355	-122.602	-0.189	-0.030
-270.340	-48.705	0.254	-0.121
-269.326	68.112	0.269	-0.273
-268.311	-78.568	0.327	-0.111
-267.297	460.328	0.075	-0.165
-266.282	12.971	0.481	-0.368
-265.267	-200.000	-0.036	0.199
-264.253	148.822	0.272	0.364
-263.238	-200.000	0.063	0.315
-262.224	-17.723	-0.115	0.072
-261.209	73.949	0.080	-0.083
-260.195	-200.000	-0.001	0.059
-259.180	2.300	-0.054	0.039
-258.165	-6.192	-0.244	-0.165
-257.151	-200.000	0.038	-0.390
-256.136	396.342	0.212	0.439
-255.122	585.634	-0.062	-0.150
-254.107	-200.000	-0.033	0.151
-253.092	-114.205	0.257	-0.049
-252.078	-200.000	0.024	-0.193
-251.063	800.000	0.047	0.167
-250.049	269.409	-0.105	0.183
-249.034	596.369	0.083	-0.204
-248.019	51.887	-0.082	-0.077
-247.005	35.597	0.214	0.186
-245.990	58.471	0.127	-0.124
-244.976	-200.000	0.022	0.168
-243.961	217.553	0.086	0.136
-242.946	-200.000	0.011	0.287
-241.932	259.972	-0.185	0.316
-240.917	-200.000	-0.001	0.019
-239.903	-92.004	0.123	-0.034
-238.888	-65.282	0.198	0.079
-237.873	334.085	-0.066	-0.126
-236.859	-76.891	0.293	0.101
-235.844	749.640	-0.095	0.253
-234.830	48.703	-0.278	0.258
-233.815	-200.000	-0.029	0.278
-232.800	-154.303	-0.151	-0.010
-231.786	35.141	0.084	0.073
-230.771	-117.192	-0.305	0.055
-229.757	-16.483	-0.316	0.198
-228.742	-63.469	0.296	-0.120
-227.727	-182.330	-0.300	0.006
-226.713	4.406	-0.271	0.197
-225.698	-115.176	0.410	-0.077
-224.684	71.853	-0.168	-0.172
-223.669	800.000	-0.048	-0.161
-222.655	-63.409	-0.116	0.047
-221.640	-15.789	0.154	0.097
-220.625	32.841	-0.084	-0.072
-219.611	507.424	-0.071	-0.162
-218.596	6.532	0.359	-0.264
-217.582	507.999	-0.085	-0.196
-216.567	215.712	0.077	-0.122
-215.552	-114.707	0.179	-0.034
-214.538	49.006	0.111	0.103
-213.523	85.058	-0.103	0.112
-212.509	235.612	0.073	-0.120
-211.494	-103.526	-0.064	-0.015
-210.479	94.912	-0.113	0.127
-209.465	64.467	0.479	0.477
-208.450	525.312	-0.138	0.322
-207.436	-159.464	-0.460	-0.025
-206.421	-200.000	0.075	0.372
-205.406	372.813	0.134	-0.269
-204.392	104.869	-0.097	-0.113
-203.377	256.604	0.108	-0.183
-202.363	-74.839	0.411	-0.146
-201.348	275.729	-0.096	0.169
-200.333	11.629	0.141	0.107
-199.319	-200.000	0.027	0.348
-198.304	-117.032	-0.060	-0.011
-197.290	-200.000	-0.026	-0.140
-196.275	66.425	-0.211	0.212
-195.260	-200.000	-0.021	0.262
-194.246	-55.550	0.110	-0.049
-193.231	94.144	0.265	-0.297
-192.217	-46.699	0.221	0.107
-191.202	-58.279	-0.108	-0.046
-190.187	-125.065	0.268	-0.041
-189.173	2.694	-0.267	0.191
-188.158	-200.000	0.008	0.123
-187.144	-82.655	-0.162	-0.052
-186.129	-1.001	0.202	0.141
-185.114	-140.853	0.107	0.011
-184.100	-109.505	-0.246	-0.051
-183.085	-200.000	-0.005	0.096
-182.071	800.000	-0.089	-0.271
-181.056	-159.674	-0.114	-0.006
-180.042	800.000	0.056	-0.193
-179.027	11.778	0.174	0.132
-178.012	-179.289	-0.178	0.004
-176.998	800.000	0.051	-0.183
-175.983	-8.872	-0.203	-0.134
-174.969	-43.649	0.374	0.186
-173.954	-7.715	-0.267	0.178
-172.939	-89.989	0.158	0.046
-171.925	-28.943	0.411	-0.233
-170.910	-39.111	-0.257	-0.133
-169.896	800.000	0.103	-0.359
-168.881	-67.079	-0.202	0.079
-167.866	48.059	0.407	0.376
-166.852	226.716	0.189	-0.303
-165.837	138.389	0.201	-0.260
-164.823	-58.552	-0.118	0.051
-163.808	105.269	-0.196	0.229
-162.793	48.974	0.184	0.170
-161.779	800.000	0.006	0.016
-160.764	-138.411	0.404	0.044
-159.750	2.340	0.189	0.135
-158.735	233.252	-0.095	-0.155
-157.720	4.397	0.236	-0.171
-156.706	-55.705	-0.160	-0.071
-155.691	270.062	-0.031	-0.053
-154.677	52.330	-0.171	-0.161
-153.662	49.597	-0.193	-0.179
-152.647	212.304	-0.107	-0.167
-151.633	13.269	0.212	-0.162
-150.618	-200.000	0.020	0.142
-149.604	-200.000	0.256	0.000
-148.589	21.505	-0.140	0.113
-147.574	-143.785	0.093	-0.009
-146.560	800.000	-0.112	0.344
-145.545	166.272	0.039	-0.055
-144.531	800.000	-0.036	0.126
-143.516	-111.828	0.192	-0.038
-142.502	431.719	0.058	0.124
-141.487	-110.638	0.068	-0.014
-140.472	789.690	0.084	-0.226
-139.458	800.000	-0.092	0.314
-138.443	-116.411	0.144	0.026
-137.429	10.534	0.150	0.113
-136.414	139.614	0.097	-0.126
-135.399	429.942	0.063	0.133
-134.385	72.884	0.053	-0.054
-133.370	-156.499	0.233	0.014
-132.356	181.110	0.265	0.384
-131.341	-200.000	0.011	0.070
-130.326	-200.000	0.005	0.204
-129.312	17.035	-0.083	0.065
-128.297	-56.418	0.331	0.145
-127.283	-178.060	-0.271	-0.006
-126.268	-200.000	0.057	0.274
-125.253	-200.000	0.049	-0.287
-124.239	800.000	-0.059	0.240
-123.224	153.613	0.049	0.066
-122.210	-102.474	-0.193	0.046
-121.195	800.000	-0.106	-0.441
-120.180	-200.000	-0.002	0.065
