DTS Sentinel unit serial number:	SN413079Multiplexer serial number:	ORYXHardware model number:	OX4-SRSoftware version number:	ORYX F/W v4.00 Oryx Data Collector v3.7.2.0data status	okinstallation	princeton_trtdifferential loss correction	single-endedforward channel	channel 4reverse channel	N/Adate	2019/09/18time	20:33:35forward acquisition time	60.00reverse acquisition time	0.00gamma	496.2192k internal	0.2325k external	0.2325temperature offset calibration	1.0037default loss term (dB/km)	0.3790temperature slope calibration	1.0000multiplexer offset coefficient	1.0000multiplexer slope coefficient	1.0000fibre end	0.00T internal ref (°C)	28.06T ext. ref 1 (°C)	0.95T ext. ref 2 (°C)	19.03length (m)	temperature (°C)	Stokes	anti-Stokes-747.200	-60.453	0.531	-0.228
-746.185	-111.525	0.103	0.021
-745.171	285.147	-0.083	0.151
-744.156	-200.000	-0.021	0.130
-743.142	-200.000	0.014	-0.121
-742.127	230.407	0.084	0.138
-741.112	630.525	-0.058	0.147
-740.098	142.307	0.071	-0.095
-739.083	-20.639	0.170	0.105
-738.069	6.943	0.179	-0.135
-737.054	800.000	-0.096	-0.358
-736.039	-116.992	-0.477	-0.088
-735.025	703.944	0.077	0.204
-734.010	-98.404	-0.254	0.066
-732.996	-45.721	-0.279	0.139
-731.981	77.990	-0.068	0.073
-730.966	-126.492	-0.359	0.054
-729.952	-48.295	0.173	-0.084
-728.937	317.994	0.171	-0.327
-727.923	655.612	-0.123	0.318
-726.908	89.413	0.070	0.079
-725.894	7.232	0.233	-0.175
-724.879	-153.880	0.227	-0.016
-723.864	713.313	-0.171	-0.457
-722.850	688.353	-0.184	-0.484
-721.835	217.663	0.121	-0.195
-720.821	610.712	-0.031	0.078
-719.806	395.692	0.059	0.123
-718.791	155.352	-0.079	-0.110
-717.777	2.949	0.169	-0.124
-716.762	-90.156	0.262	0.077
-715.748	-52.894	0.195	0.091
-714.733	-168.174	0.214	-0.008
-713.718	-115.322	-0.333	0.063
-712.704	106.619	0.059	0.071
-711.689	-91.501	-0.292	-0.084
-710.675	25.621	-0.251	0.210
-709.660	222.729	-0.193	-0.313
-708.645	102.509	0.053	-0.062
-707.631	-200.000	0.019	0.206
-706.616	138.135	0.232	-0.307
-705.602	-146.211	-0.154	0.014
-704.587	-56.386	0.212	-0.095
-703.572	-94.913	0.149	-0.041
-702.558	148.307	0.032	-0.044
-701.543	800.000	-0.063	-0.217
-700.529	-200.000	-0.045	0.204
-699.514	67.088	-0.170	0.175
-698.499	180.682	0.312	0.461
-697.485	-120.381	-0.287	-0.049
-696.470	-124.398	-0.239	0.038
-695.456	42.854	-0.070	-0.064
-694.441	-200.000	0.026	-0.295
-693.426	-57.763	0.235	-0.104
-692.412	-94.209	-0.159	0.044
-691.397	636.894	0.046	-0.117
-690.383	-131.803	-0.517	-0.068
-689.368	-128.609	-0.133	0.019
-688.354	693.423	0.045	-0.119
-687.339	800.000	-0.036	-0.110
-686.324	21.066	-0.190	-0.155
-685.310	-200.000	-0.000	-0.045
-684.295	-179.752	-0.167	-0.004
-683.281	-97.565	-0.359	-0.094
-682.266	-59.637	0.474	0.205
-681.251	-125.969	0.097	0.015
-680.237	800.000	0.080	-0.225
-679.222	230.127	0.092	0.151
-678.208	183.801	0.086	-0.128
-677.193	800.000	0.058	-0.250
-676.178	-100.700	0.145	-0.036
-675.164	171.186	-0.145	0.209
-674.149	-111.935	0.245	-0.050
-673.135	104.530	-0.222	-0.263
-672.120	191.241	0.072	-0.108
-671.105	118.749	-0.148	-0.184
-670.091	-46.640	0.134	0.066
-669.076	-166.343	-0.085	0.004
-668.062	-113.858	-0.088	-0.017
-667.047	-200.000	0.020	0.129
-666.032	-155.021	-0.165	0.011
-665.018	70.714	0.335	-0.349
-664.003	377.302	0.125	-0.257
-662.989	303.533	0.084	0.157
-661.974	4.047	0.199	0.147
-660.959	-56.444	-0.182	-0.081
-659.945	37.848	0.173	0.155
-658.930	-200.000	0.009	0.170
-657.916	-74.598	0.207	0.075
-656.901	-200.000	-0.011	-0.116
-655.886	-84.383	-0.259	-0.082
-654.872	383.117	0.247	-0.511
-653.857	-200.000	0.059	-0.293
-652.843	800.000	0.039	0.171
-651.828	-200.000	-0.000	0.129
-650.814	-84.558	-0.334	0.106
-649.799	130.393	-0.303	-0.391
-648.784	-28.120	0.188	0.109
-647.770	520.237	-0.118	0.278
-646.755	-22.578	-0.112	0.068
-645.741	-159.584	0.068	0.004
-644.726	557.916	-0.154	-0.373
-643.711	362.235	0.121	-0.243
-642.697	465.305	0.031	-0.071
-641.682	-200.000	-0.005	0.185
-640.668	-80.297	0.346	-0.116
-639.653	12.024	-0.310	0.239
-638.638	-200.000	0.061	-0.394
-637.624	226.436	-0.088	-0.144
-636.609	800.000	-0.064	-0.238
-635.595	323.980	0.058	-0.111
-634.580	-200.000	0.021	0.118
-633.565	-122.310	0.190	-0.031
-632.551	21.277	-0.258	-0.210
-631.536	516.900	0.151	-0.354
-630.522	-50.291	0.157	-0.074
-629.507	242.072	0.113	-0.189
-628.492	386.035	-0.038	-0.079
-627.478	-94.252	-0.474	0.130
-626.463	-200.000	-0.021	-0.295
-625.449	316.858	0.101	-0.191
-624.434	41.187	0.255	-0.232
-623.419	-59.508	0.114	-0.049
-622.405	-159.677	-0.195	-0.011
-621.390	800.000	0.031	-0.134
-620.376	-21.419	0.118	-0.072
-619.361	-30.028	0.237	0.135
-618.346	-168.623	-0.389	0.015
-617.332	726.966	0.147	0.394
-616.317	690.884	-0.128	-0.337
-615.303	-71.498	-0.133	-0.050
-614.288	61.565	-0.193	0.193
-613.273	98.585	0.047	-0.055
-612.259	255.935	0.177	0.305
-611.244	-200.000	-0.010	-0.085
-610.230	800.000	0.017	-0.058
-609.215	307.784	-0.188	0.352
-608.201	-200.000	-0.069	-0.332
-607.186	345.346	-0.052	-0.102
-606.171	-118.548	-0.105	0.019
-605.157	-200.000	-0.007	0.056
-604.142	800.000	0.090	-0.258
-603.128	-64.698	-0.115	-0.047
-602.113	-200.000	0.082	0.438
-601.098	189.573	0.035	-0.052
-600.084	114.151	0.163	-0.199
-599.069	-67.121	-0.153	0.061
-598.055	-109.803	0.141	0.030
-597.040	-200.000	0.005	0.076
-596.025	-130.591	0.097	-0.013
-595.011	112.439	-0.340	-0.413
-593.996	54.628	0.115	0.112
-592.982	100.912	-0.115	0.134
-591.967	130.773	-0.239	0.308
-590.952	-200.000	-0.035	-0.254
-589.938	0.507	-0.283	-0.203
-588.923	644.657	0.053	-0.136
-587.909	-148.779	-0.287	0.023
-586.894	768.405	0.096	0.261
-585.879	-81.932	-0.205	0.067
-584.865	-41.685	0.407	-0.210
-583.850	-200.000	-0.038	0.260
-582.836	399.399	0.057	-0.120
-581.821	800.000	-0.106	0.327
-580.806	-200.000	0.049	-0.222
-579.792	-87.930	-0.168	-0.051
-578.777	79.338	-0.191	-0.206
-577.763	252.425	-0.095	-0.162
-576.748	18.900	0.172	0.138
-575.733	-137.722	0.259	-0.029
-574.719	800.000	0.116	-0.386
-573.704	50.754	0.154	-0.146
-572.690	153.458	-0.126	-0.173
-571.675	46.973	0.097	0.090
-570.661	-200.000	-0.034	0.171
-569.646	800.000	0.054	-0.194
-568.631	11.832	-0.142	-0.109
-567.617	-200.000	0.012	0.096
-566.602	82.744	0.095	0.104
-565.588	-200.000	0.046	0.270
-564.573	200.279	0.147	0.226
-563.558	800.000	0.051	0.165
-562.544	-0.562	-0.218	-0.155
-561.529	-179.460	0.304	0.007
-560.515	-161.612	0.053	0.003
-559.500	-116.604	-0.038	-0.007
-558.485	655.333	-0.146	0.374
-557.471	-12.163	0.111	0.073
-556.456	-106.346	0.204	0.046
-555.442	-115.107	0.194	-0.037
-554.427	-200.000	0.016	0.178
-553.412	-60.846	0.071	0.030
-552.398	36.515	-0.212	-0.188
-551.383	54.319	0.278	-0.268
-550.369	800.000	-0.079	-0.291
-549.354	121.473	0.079	-0.099
-548.339	17.477	-0.234	0.186
-547.325	202.134	-0.078	-0.121
-546.310	341.476	-0.242	-0.473
-545.296	-200.000	0.044	-0.346
-544.281	13.030	-0.247	-0.191
-543.266	-181.102	-0.194	0.004
-542.252	21.092	-0.233	0.189
-541.237	-152.359	-0.253	-0.018
-540.223	800.000	-0.038	0.133
-539.208	126.512	-0.035	0.044
-538.193	12.815	0.465	0.360
-537.179	23.856	-0.344	0.284
-536.164	-123.377	0.321	-0.051
-535.150	-132.262	0.279	0.036
-534.135	228.654	0.099	0.161
-533.121	-200.000	0.001	-0.122
-532.106	-14.334	0.158	0.102
-531.091	-10.260	-0.065	-0.043
-530.077	-53.546	0.236	0.108
-529.062	-129.679	0.190	-0.026
-528.048	-129.030	0.520	0.073
-527.033	-5.503	-0.384	0.264
-526.018	91.368	0.083	0.093
-525.004	378.581	0.112	0.230
-523.989	-200.000	-0.001	0.237
-522.975	800.000	0.060	0.200
-521.960	-13.961	0.373	0.241
-520.945	800.000	0.060	-0.190
-519.931	-42.353	0.130	0.066
-518.916	-200.000	0.009	-0.130
-517.902	199.173	-0.182	0.279
-516.887	-200.000	0.001	-0.119
-515.872	450.059	0.162	0.357
-514.858	69.152	0.155	0.159
-513.843	800.000	0.146	0.503
-512.829	-26.045	0.408	-0.240
-511.814	-200.000	-0.120	-0.621
-510.799	-200.000	0.003	-0.069
-509.785	-117.542	-0.301	-0.054
-508.770	-114.566	-0.261	0.050
-507.756	-64.503	-0.378	0.153
-506.741	800.000	-0.023	-0.095
-505.726	282.661	-0.180	0.323
-504.712	-120.882	0.136	0.023
-503.697	46.644	-0.376	0.349
-502.683	93.985	0.262	-0.297
-501.668	-139.194	0.167	0.018
-500.653	157.648	-0.273	0.378
-499.639	-97.528	0.115	-0.030
-498.624	176.950	0.021	-0.031
-497.610	152.755	-0.062	-0.085
-496.595	-75.908	-0.181	-0.064
-495.581	-156.806	-0.283	0.017
-494.566	-103.486	0.179	-0.042
-493.551	-60.168	0.204	0.087
-492.537	-122.276	-0.134	-0.022
-491.522	800.000	-0.094	-0.264
-490.508	-200.000	0.000	-0.313
-489.493	319.363	0.102	0.193
-488.478	578.285	-0.049	-0.119
-487.464	-49.656	0.188	0.089
-486.449	-200.000	0.052	0.257
-485.435	-47.084	-0.074	-0.036
-484.420	140.144	-0.064	0.084
-483.405	427.185	0.039	0.084
-482.391	122.898	-0.123	-0.154
-481.376	586.022	-0.103	-0.253
-480.362	-87.131	-0.245	0.074
-479.347	80.692	-0.085	0.091
-478.332	-97.416	-0.147	0.038
-477.318	-101.048	-0.169	-0.041
-476.303	134.842	0.177	0.229
-475.289	191.623	-0.034	-0.051
-474.274	292.995	-0.080	-0.145
-473.259	-24.174	-0.146	-0.087
-472.245	-82.654	0.150	0.048
-471.230	27.398	0.256	0.214
-470.216	-200.000	-0.001	0.108
-469.201	8.977	0.172	-0.130
-468.186	76.306	-0.072	0.076
-467.172	800.000	0.084	0.301
-466.157	-192.047	-0.233	0.002
-465.143	14.460	-0.065	0.050
-464.128	246.851	-0.216	0.364
-463.113	-200.000	0.049	0.285
-462.099	3.354	0.122	-0.089
-461.084	179.495	0.128	0.187
-460.070	-57.968	-0.157	0.069
-459.055	-200.000	-0.010	0.237
-458.040	434.236	0.043	0.094
-457.026	116.227	-0.245	-0.300
-456.011	-200.000	-0.003	-0.178
-454.997	4.853	0.037	0.027
-453.982	-200.000	-0.041	0.302
-452.968	-71.245	-0.166	0.062
-451.953	46.777	0.188	-0.174
-450.938	227.152	0.027	0.045
-449.924	-200.000	0.038	-0.175
-448.909	159.917	0.180	-0.250
-447.895	-92.405	0.098	0.027
-446.880	-26.573	0.188	-0.110
-445.865	-200.000	-0.023	-0.339
-444.851	34.953	-0.102	0.089
-443.836	11.969	-0.142	-0.109
-442.822	21.992	0.218	-0.177
-441.807	304.757	0.055	-0.102
-440.792	-67.406	-0.238	0.093
-439.778	-70.045	0.351	-0.133
-438.763	-28.489	0.206	0.119
-437.749	67.327	0.276	-0.281
-436.734	423.887	0.064	-0.137
-435.719	-151.320	0.195	-0.015
-434.705	3.141	0.207	-0.150
-433.690	-73.399	0.244	-0.089
-432.676	100.081	-0.121	-0.139
-431.661	-41.544	0.270	-0.139
-430.646	-28.984	-0.233	0.133
-429.632	-10.995	-0.048	-0.031
-428.617	402.881	0.148	-0.309
-427.603	-163.604	-0.463	0.022
-426.588	249.683	-0.215	0.363
-425.573	255.912	0.042	0.072
-424.559	-78.417	-0.117	0.040
-423.544	800.000	-0.142	0.404
-422.530	-200.000	-0.022	-0.118
-421.515	77.481	0.112	0.118
-420.500	-200.000	-0.016	0.189
-419.486	-86.313	-0.118	-0.036
-418.471	800.000	0.107	-0.305
-417.457	-28.531	-0.145	-0.083
-416.442	62.935	0.371	-0.370
-415.428	103.161	-0.090	-0.105
-414.413	-125.416	0.248	-0.038
-413.398	800.000	0.092	0.362
-412.384	800.000	0.053	0.173
-411.369	-200.000	-0.018	-0.250
-410.355	-147.068	-0.307	0.026
-409.340	-67.659	-0.035	-0.014
-408.325	191.433	-0.094	0.141
-407.311	-95.174	0.236	0.063
-406.296	354.946	0.047	0.093
-405.282	306.805	-0.077	-0.142
-404.267	-59.627	-0.205	0.088
-403.252	16.167	-0.093	-0.073
-402.238	-22.794	-0.153	0.092
-401.223	-29.519	-0.138	0.079
-400.209	-32.273	-0.256	-0.142
-399.194	-200.000	0.077	-0.415
-398.179	-2.784	0.202	-0.140
-397.165	87.949	-0.351	0.387
-396.150	18.664	-0.244	0.195
-395.136	356.139	0.076	0.151
-394.121	34.805	-0.218	-0.190
-393.106	-72.963	0.354	0.129
-392.092	800.000	0.054	-0.223
-391.077	800.000	0.085	0.263
-390.063	-35.117	-0.090	-0.049
-389.048	140.989	0.189	0.249
-388.033	-102.593	0.157	-0.037
-387.019	800.000	-0.047	-0.150
-386.004	-83.697	0.195	-0.062
-384.990	-200.000	-0.004	-0.160
-383.975	-200.000	0.005	0.366
-382.960	-96.903	0.046	-0.012
-381.946	-92.084	-0.153	-0.043
-380.931	-165.089	0.057	-0.002
-379.917	279.789	0.059	0.104
-378.902	-54.640	-0.140	-0.063
-377.888	509.680	-0.097	0.224
-376.873	-200.000	-0.013	0.218
-375.858	30.093	-0.245	0.208
-374.844	160.016	-0.091	0.126
-373.829	-74.724	0.211	0.075
-372.815	800.000	0.093	-0.321
-371.800	-21.417	0.073	0.044
-370.785	60.254	0.134	-0.132
-369.771	-112.630	-0.149	-0.029
-368.756	87.991	-0.245	0.270
-367.742	-80.378	0.162	0.054
-366.727	-146.013	-0.149	0.013
-365.712	-95.701	0.409	0.109
-364.698	800.000	-0.113	-0.370
-363.683	107.750	0.096	0.114
-362.669	782.973	-0.160	-0.435
-361.654	800.000	-0.066	-0.214
-360.639	-31.054	-0.119	0.067
-359.625	179.115	0.136	0.197
-358.610	-92.274	0.090	-0.025
-357.596	800.000	0.071	0.204
-356.581	-152.923	-0.217	-0.015
-355.566	-61.845	0.115	-0.048
-354.552	192.960	-0.113	0.170
-353.537	-200.000	0.012	-0.093
-352.523	-107.620	0.230	0.050
-351.508	-103.272	-0.377	-0.088
-350.493	-29.057	0.126	0.072
-349.479	4.948	-0.251	-0.183
-348.464	172.171	0.268	-0.384
-347.450	29.674	-0.024	0.021
-346.435	156.746	-0.101	0.139
-345.420	-200.000	0.044	0.267
-344.406	-200.000	0.029	0.179
-343.391	-160.944	0.163	-0.009
-342.377	-200.000	-0.064	-0.286
-341.362	55.036	0.231	-0.221
-340.348	174.358	0.249	0.357
-339.333	-139.329	0.269	-0.029
-338.318	-58.930	-0.326	-0.140
-337.304	729.249	-0.039	-0.104
-336.289	134.057	0.229	0.295
-335.275	50.259	0.057	0.054
-334.260	117.570	-0.066	0.081
-333.245	-200.000	0.033	0.167
-332.231	-200.000	0.010	0.097
-331.216	-102.674	0.142	0.034
-330.202	-200.000	0.055	0.301
-329.187	-200.000	-0.003	0.406
-328.172	-133.005	-0.170	-0.021
-327.158	-12.534	0.088	-0.057
-326.143	-200.000	0.027	0.219
-325.129	-200.000	-0.018	-0.161
-324.114	81.545	-0.134	-0.143
-323.099	3.241	-0.180	-0.130
-322.085	800.000	0.154	0.546
-321.070	-36.267	0.264	-0.141
-320.056	-117.136	-0.131	0.024
-319.041	144.881	-0.237	0.315
-318.026	-200.000	0.028	-0.198
-317.012	-58.192	0.237	-0.102
-315.997	-154.776	0.269	0.018
-314.983	-1.290	-0.116	0.081
-313.968	115.122	-0.089	0.108
-312.953	-134.561	0.052	-0.006
-311.939	-61.660	-0.103	-0.043
-310.924	9.754	0.229	-0.173
-309.910	-200.000	-0.046	-0.344
-308.895	55.538	0.169	-0.162
-307.880	-200.000	-0.037	-0.233
-306.866	-103.713	-0.083	-0.019
-305.851	4.297	0.207	-0.150
-304.837	36.978	-0.394	0.346
-303.822	-92.772	-0.112	0.031
-302.807	-14.004	0.238	-0.152
-301.793	-155.152	0.238	0.015
-300.778	254.057	-0.111	-0.189
-299.764	28.272	0.276	0.231
-298.749	-71.303	-0.364	-0.135
-297.735	-66.161	0.105	-0.042
-296.720	-3.777	0.185	-0.127
-295.705	-20.775	0.255	0.155
-294.691	-200.000	0.024	-0.264
-293.676	-196.522	-0.174	-0.001
-292.662	412.889	0.179	-0.377
-291.647	172.134	-0.092	-0.131
-290.632	290.506	0.096	-0.173
-289.618	-94.978	-0.231	0.062
-288.603	-17.657	-0.216	0.134
-287.589	-75.889	0.248	-0.087
-286.574	-31.075	0.087	0.049
-285.559	-16.321	-0.207	0.130
-284.545	-62.708	-0.228	0.094
-283.530	-200.000	0.053	0.363
-282.516	-31.816	0.089	0.049
-281.501	-86.082	0.138	0.042
-280.486	156.027	0.145	-0.199
-279.472	169.305	-0.203	0.288
-278.457	20.666	0.078	-0.063
-277.443	1.615	-0.258	-0.184
-276.428	65.695	-0.187	-0.188
-275.413	19.476	-0.188	0.150
-274.399	16.592	-0.205	0.161
-273.384	127.723	-0.223	-0.281
-272.370	94.958	-0.016	0.018
-271.355	800.000	-0.090	0.326
-270.340	524.714	-0.165	-0.385
-269.326	210.897	0.123	-0.192
-268.311	386.418	-0.095	0.194
-267.297	-200.000	-0.009	-0.058
-266.282	-58.899	-0.236	-0.101
-265.267	-71.458	-0.101	-0.037
-264.253	-200.000	-0.006	-0.160
-263.238	-185.403	0.197	0.003
-262.224	-115.006	0.240	0.045
-261.209	-200.000	-0.050	-0.297
-260.195	-143.992	0.171	0.016
-259.180	-147.040	0.255	-0.022
-258.165	-42.144	-0.329	0.166
-257.151	800.000	-0.068	0.275
-256.136	-200.000	-0.097	-0.456
-255.122	-95.553	0.255	-0.068
-254.107	286.184	0.023	0.041
-253.092	4.275	-0.308	0.223
-252.078	108.102	-0.065	0.076
-251.063	298.979	-0.075	0.136
-250.049	-10.018	-0.257	0.169
-249.034	-200.000	-0.017	0.161
-248.019	275.163	-0.019	-0.034
-247.005	439.059	-0.115	0.248
-245.990	-200.000	0.033	0.304
-244.976	-130.778	0.050	-0.007
-243.961	-200.000	-0.003	-0.037
-242.946	154.347	0.145	0.197
-241.932	-44.224	-0.249	-0.124
-240.917	-68.347	-0.186	-0.071
-239.903	438.363	0.071	0.153
-238.888	-105.351	0.149	-0.033
-237.873	-200.000	0.050	0.319
-236.859	-68.443	-0.286	0.110
-235.844	286.236	-0.128	0.228
-234.830	800.000	0.060	-0.252
-233.815	800.000	-0.050	0.214
-232.800	-200.000	0.070	0.561
-231.786	-200.000	-0.042	0.192
-230.771	60.090	0.290	-0.284
-229.757	29.413	0.108	-0.091
-228.742	130.972	-0.012	-0.015
-227.727	-61.392	0.237	-0.099
-226.713	800.000	-0.040	0.138
-225.698	68.671	-0.209	0.212
-224.684	264.924	0.125	-0.216
-223.669	5.218	0.379	0.276
-222.655	668.171	-0.050	0.129
-221.640	62.243	0.142	-0.140
-220.625	59.805	-0.233	-0.227
-219.611	-47.528	0.095	-0.046
-218.596	-147.654	-0.270	0.022
-217.582	-59.315	0.456	-0.194
-216.567	103.293	0.036	-0.041
-215.552	-200.000	-0.016	0.167
-214.538	-0.386	0.157	0.110
-213.523	156.893	-0.125	-0.171
-212.509	-200.000	-0.055	0.241
-211.494	17.143	0.225	0.176
-210.479	-144.686	-0.193	0.018
-209.465	23.224	-0.254	-0.206
-208.450	-24.417	0.258	0.152
-207.436	-179.951	0.165	0.003
-206.421	-99.807	-0.150	0.037
-205.406	204.077	0.129	-0.197
-204.392	313.317	-0.077	-0.143
-203.377	-200.000	0.004	-0.701
-202.363	-63.440	-0.477	-0.194
-201.348	227.086	-0.149	-0.239
-200.333	461.251	0.037	-0.082
-199.319	-70.448	-0.170	-0.064
-198.304	241.135	0.194	-0.320
-197.290	1.263	0.338	0.240
-196.275	404.278	0.101	-0.210
-195.260	-76.207	-0.122	-0.042
-194.246	-49.365	0.154	-0.073
-193.231	-52.901	-0.260	0.118
-192.217	-28.597	0.325	-0.185
-191.202	-27.346	-0.363	-0.209
-190.187	737.965	0.075	-0.198
-189.173	800.000	0.064	0.210
-188.158	-134.934	0.277	-0.033
-187.144	96.221	0.054	0.061
-186.129	437.659	0.039	0.084
-185.114	688.027	0.050	-0.130
-184.100	800.000	-0.016	0.046
-183.085	55.185	-0.251	0.240
-182.071	248.422	0.058	0.098
-181.056	-3.587	0.123	-0.084
-180.042	-200.000	-0.014	0.252
-179.027	27.987	-0.382	-0.318
-178.012	311.660	0.118	0.218
-176.998	315.772	0.185	-0.345
-175.983	-37.466	-0.371	0.196
-174.969	36.237	0.217	-0.189
-173.954	-53.779	0.342	-0.154
-172.939	443.848	-0.052	-0.114
-171.925	187.350	-0.161	-0.236
-170.910	64.899	0.189	-0.188
-169.896	12.007	-0.190	-0.144
-168.881	-133.730	0.142	-0.017
-167.866	-26.011	0.337	-0.196
-166.852	696.428	-0.038	0.097
-165.837	199.331	0.123	0.186
-164.823	71.452	0.063	-0.064
-163.808	-80.717	-0.203	0.067
-162.793	-69.788	-0.209	0.079
-161.779	-200.000	0.038	-0.209
-160.764	-102.187	0.123	0.029
-159.750	-89.616	-0.162	0.047
-158.735	483.065	0.081	0.182
-157.720	800.000	0.083	0.297
-156.706	244.862	0.134	0.222
-155.691	800.000	-0.067	0.187
-154.677	17.773	-0.039	-0.031
-153.662	138.044	-0.164	0.213
-152.647	246.843	-0.092	0.153
-151.633	-200.000	-0.007	0.125
-150.618	-52.737	-0.212	-0.097
-149.604	800.000	0.027	0.086
-148.589	800.000	0.033	0.112
-147.574	-48.085	0.128	-0.061
-146.560	-65.567	0.023	0.009
-145.545	-200.000	-0.011	-0.102
-144.531	270.563	-0.162	-0.281
-143.516	40.262	0.159	-0.141
-142.502	-156.305	0.299	-0.018
-141.487	45.126	-0.538	0.489
-140.472	-66.273	0.108	-0.042
-139.458	135.843	0.029	-0.038
-138.443	49.942	0.227	-0.211
-137.429	-200.000	0.021	-0.310
-136.414	-200.000	-0.006	-0.240
-135.399	21.889	0.106	0.085
-134.385	230.302	-0.142	0.229
-133.370	477.211	-0.091	0.203
-132.356	-200.000	0.018	0.156
-131.341	-127.836	0.249	0.035
-130.326	54.955	-0.162	-0.154
-129.312	220.545	0.134	-0.211
-128.297	-25.244	0.193	-0.113
-127.283	-163.001	-0.183	-0.009
-126.268	800.000	0.068	0.261
-125.253	326.963	-0.182	0.344
-124.239	464.886	-0.187	-0.412
-123.224	172.651	0.250	0.354
-122.210	99.724	-0.140	-0.160
-121.195	283.601	-0.045	-0.080
-120.180	-3.545	-0.156	0.107
