DTS Sentinel unit serial number:	SN413079Multiplexer serial number:	ORYXHardware model number:	OX4-SRSoftware version number:	ORYX F/W v4.00 Oryx Data Collector v3.7.2.0data status	okinstallation	princeton_trtdifferential loss correction	single-endedforward channel	channel 4reverse channel	N/Adate	2019/09/11time	07:51:11forward acquisition time	60.00reverse acquisition time	0.00gamma	496.2192k internal	0.2306k external	0.2306temperature offset calibration	0.9950default loss term (dB/km)	0.3790temperature slope calibration	1.0000multiplexer offset coefficient	1.0000multiplexer slope coefficient	1.0000fibre end	0.00T internal ref (°C)	31.80T ext. ref 1 (°C)	0.06T ext. ref 2 (°C)	28.29length (m)	temperature (°C)	Stokes	anti-Stokes-747.200	188.023	0.226	-0.343
-746.185	-33.575	-0.155	0.087
-745.171	800.000	-0.162	-0.457
-744.156	-200.000	-0.025	0.378
-743.142	-85.247	-0.268	0.085
-742.127	102.565	-0.095	0.113
-741.112	468.353	0.081	0.184
-740.098	781.563	-0.077	0.213
-739.083	800.000	0.078	-0.324
-738.069	-57.005	0.366	0.164
-737.054	404.815	-0.098	-0.209
-736.039	-95.166	-0.483	0.132
-735.025	800.000	0.074	0.321
-734.010	327.252	0.115	0.224
-732.996	800.000	-0.065	-0.211
-731.981	-110.555	-0.141	-0.030
-730.966	289.701	-0.207	0.383
-729.952	-122.660	-0.244	0.040
-728.937	-79.806	0.518	-0.177
-727.923	-200.000	0.473	-0.000
-726.908	-55.682	0.171	-0.078
-725.894	-39.381	-0.209	-0.112
-724.879	-130.533	0.067	-0.009
-723.864	-44.717	0.298	-0.151
-722.850	-200.000	0.010	-0.207
-721.835	101.382	-0.147	-0.175
-720.821	-200.000	-0.086	-0.405
-719.806	-85.948	-0.450	-0.141
-718.791	-200.000	-0.028	-0.248
-717.777	52.474	0.059	0.057
-716.762	656.741	-0.064	0.168
-715.748	64.048	0.106	-0.108
-714.733	-139.873	-0.235	0.025
-713.718	-10.702	-0.115	0.077
-712.704	-200.000	0.004	0.044
-711.689	160.044	0.073	0.103
-710.675	-25.395	-0.141	0.084
-709.660	-200.000	-0.012	-0.199
-708.645	-96.794	-0.446	0.119
-707.631	2.601	0.177	0.131
-706.616	112.556	0.157	0.193
-705.602	-200.000	-0.011	-0.103
-704.587	-200.000	-0.064	-0.480
-703.572	28.369	0.223	-0.191
-702.558	800.000	0.036	0.107
-701.543	101.614	0.240	0.284
-700.529	-155.105	-0.333	-0.022
-699.514	800.000	-0.070	0.225
-698.499	15.993	0.141	-0.113
-697.485	-52.789	0.069	0.032
-696.470	424.866	-0.127	0.278
-695.456	-79.897	0.426	0.145
-694.441	-85.643	0.361	-0.114
-693.426	63.273	-0.253	0.257
-692.412	-91.294	0.158	-0.046
-691.397	-98.026	-0.062	-0.016
-690.383	185.742	-0.142	0.214
-689.368	-200.000	-0.029	-0.401
-688.354	462.632	0.139	-0.316
-687.339	118.508	0.107	-0.134
-686.324	-86.374	-0.348	-0.109
-685.310	-111.199	-0.051	-0.011
-684.295	190.880	0.061	-0.094
-683.281	-200.000	0.010	0.182
-682.266	151.175	-0.087	0.120
-681.251	-149.814	-0.052	0.004
-680.237	-200.000	0.039	-0.610
-679.222	-84.093	-0.210	0.068
-678.208	-142.291	-0.047	0.005
-677.193	800.000	-0.015	-0.049
-676.178	91.247	-0.077	0.088
-675.164	-138.809	-0.202	-0.022
-674.149	-200.000	-0.057	-0.262
-673.135	506.091	0.044	0.103
-672.120	-43.137	0.201	0.103
-671.105	-144.046	-0.325	-0.031
-670.091	55.488	-0.116	-0.113
-669.076	533.556	-0.037	-0.089
-668.062	401.276	-0.092	-0.196
-667.047	-110.847	-0.129	0.027
-666.032	451.802	-0.040	-0.089
-665.018	-10.716	-0.251	-0.169
-664.003	-25.519	-0.054	-0.032
-662.989	-200.000	0.006	-0.114
-661.974	134.072	0.222	-0.292
-660.959	39.372	-0.200	-0.182
-659.945	93.928	-0.378	0.434
-658.930	-200.000	0.067	0.423
-657.916	44.332	-0.059	0.055
-656.901	-79.898	0.109	0.037
-655.886	-138.316	-0.111	0.012
-654.872	-200.000	0.025	-0.516
-653.857	329.558	-0.052	-0.101
-652.843	285.860	-0.106	0.193
-651.828	-200.000	0.031	0.206
-650.814	-155.402	-0.169	-0.011
-649.799	-177.780	0.208	-0.005
-648.784	-41.946	-0.337	0.175
-647.770	800.000	-0.061	-0.201
-646.755	204.852	-0.036	-0.056
-645.741	-142.776	0.311	-0.031
-644.726	-177.192	0.307	0.008
-643.711	313.346	0.053	-0.101
-642.697	240.361	0.046	-0.078
-641.682	-200.000	0.053	-0.343
-640.668	-16.162	-0.109	-0.070
-639.653	111.513	-0.173	0.212
-638.638	-200.000	0.108	0.000
-637.624	-99.475	0.258	0.066
-636.609	78.870	-0.104	-0.113
-635.595	-27.065	0.138	-0.081
-634.580	4.025	-0.146	0.108
-633.565	477.466	0.106	-0.244
-632.551	-200.000	0.037	0.246
-631.536	-69.844	-0.179	-0.069
-630.522	800.000	0.175	-0.572
-629.507	629.325	-0.074	-0.190
-628.492	170.937	0.090	-0.130
-627.478	4.078	-0.276	-0.204
-626.463	800.000	0.045	-0.154
-625.449	283.590	0.094	0.171
-624.434	254.280	0.081	-0.140
-623.419	-10.733	-0.257	-0.172
-622.405	800.000	-0.067	-0.256
-621.390	800.000	-0.046	0.175
-620.376	-161.926	-0.148	0.008
-619.361	-34.332	-0.119	-0.066
-618.346	-99.003	-0.107	-0.028
-617.332	80.653	-0.051	0.056
-616.317	617.573	0.028	-0.071
-615.303	35.092	0.141	0.125
-614.288	134.010	-0.206	0.270
-613.273	-134.438	0.278	0.034
-612.259	800.000	-0.014	0.041
-611.244	343.812	-0.056	0.111
-610.230	-200.000	0.010	0.044
-609.215	640.896	0.034	-0.089
-608.201	-44.399	-0.065	-0.033
-607.186	123.620	-0.302	0.383
-606.171	275.455	-0.134	0.240
-605.157	62.286	0.071	-0.071
-604.142	437.713	0.216	0.475
-603.128	133.867	0.038	0.050
-602.113	-149.421	-0.161	0.013
-601.098	90.308	0.126	0.143
-600.084	198.694	-0.207	0.321
-599.069	-138.260	-0.181	0.020
-598.055	-145.009	0.399	0.037
-597.040	35.749	0.073	0.065
-596.025	-125.260	0.154	0.024
-595.011	234.788	-0.099	0.165
-593.996	-159.672	-0.189	0.011
-592.982	-200.000	-0.021	-0.099
-591.967	215.188	0.156	-0.250
-590.952	-65.842	-0.229	0.093
-589.938	299.869	0.198	-0.369
-588.923	800.000	-0.047	-0.187
-587.909	223.641	-0.164	-0.267
-586.894	65.925	-0.058	-0.059
-585.879	-107.989	-0.362	0.079
-584.865	318.131	-0.062	0.119
-583.850	-200.000	0.029	-0.364
-582.836	133.979	0.213	0.279
-581.821	11.402	-0.176	0.136
-580.806	-10.189	0.086	-0.058
-579.792	-156.555	-0.484	0.030
-578.777	-200.000	-0.036	0.166
-577.763	495.602	-0.058	-0.135
-576.748	-200.000	-0.027	-0.202
-575.733	-200.000	0.001	0.062
-574.719	-127.950	-0.230	-0.033
-573.704	-67.639	0.225	0.089
-572.690	794.098	-0.013	-0.036
-571.675	13.242	-0.053	-0.041
-570.661	472.779	0.057	-0.131
-569.646	-200.000	-0.007	-0.344
-568.631	800.000	-0.017	0.068
-567.617	-1.915	-0.176	-0.125
-566.602	-55.749	0.092	-0.042
-565.588	800.000	-0.117	-0.426
-564.573	800.000	-0.020	0.071
-563.558	-7.303	-0.138	0.094
-562.544	101.212	-0.103	-0.121
-561.529	-88.010	-0.357	0.108
-560.515	-26.507	-0.115	0.068
-559.500	-90.921	0.164	0.048
-558.485	65.007	-0.202	0.206
-557.471	800.000	-0.071	0.261
-556.456	-102.922	0.126	-0.030
-555.442	35.292	-0.130	-0.115
-554.427	-44.953	-0.130	0.065
-553.412	-63.325	-0.120	-0.050
-552.398	-80.189	0.226	0.076
-551.383	2.288	0.246	-0.179
-550.369	-95.098	-0.238	0.065
-549.354	2.900	-0.214	0.157
-548.339	70.470	-0.082	0.086
-547.325	-200.000	0.092	-0.413
-546.310	121.684	-0.297	-0.374
-545.296	-67.154	-0.251	-0.100
-544.281	800.000	0.080	-0.279
-543.266	-142.014	0.262	-0.026
-542.252	17.541	-0.108	0.086
-541.237	-123.237	0.390	0.063
-540.223	119.500	0.164	-0.205
-539.208	-42.569	-0.279	-0.143
-538.193	182.682	0.106	-0.158
-537.179	-148.499	0.219	-0.018
-536.164	290.963	-0.201	-0.369
-535.150	54.989	-0.126	0.123
-534.135	523.375	0.068	-0.160
-533.121	-120.925	0.201	-0.034
-532.106	434.252	-0.102	0.223
-531.091	-59.446	-0.252	-0.109
-530.077	-118.726	-0.343	-0.061
-529.062	-19.646	-0.190	0.119
-528.048	-200.000	0.023	0.218
-527.033	191.020	0.226	0.343
-526.018	164.256	-0.072	0.103
-525.004	382.598	-0.151	-0.313
-523.989	-71.942	-0.094	-0.035
-522.975	-143.234	-0.147	0.014
-521.960	-34.816	0.144	0.079
-520.945	-200.000	-0.005	0.242
-519.931	800.000	-0.084	-0.260
-518.916	37.336	0.219	-0.196
-517.902	800.000	-0.043	-0.175
-516.887	-16.532	0.181	-0.115
-515.872	-49.621	-0.305	0.146
-514.858	800.000	-0.105	-0.417
-513.843	784.559	0.102	-0.283
-512.829	25.310	-0.070	-0.059
-511.814	-106.336	-0.137	0.031
-510.799	0.617	-0.317	-0.229
-509.785	-122.434	0.263	-0.043
-508.770	105.428	0.162	0.193
-507.756	-51.168	-0.142	0.067
-506.741	104.634	-0.179	-0.213
-505.726	17.503	-0.135	0.108
-504.712	800.000	0.026	-0.083
-503.697	-200.000	-0.050	-0.234
-502.683	-128.438	-0.386	0.055
-501.668	274.963	-0.125	0.223
-500.653	-14.175	0.204	-0.133
-499.639	-133.647	0.123	0.016
-498.624	-59.657	0.166	0.072
-497.610	-83.972	0.202	-0.065
-496.595	183.888	-0.118	-0.176
-495.581	-98.322	0.069	-0.018
-494.566	-200.000	0.082	0.521
-493.551	-97.649	-0.242	-0.063
-492.537	-182.842	-0.394	0.007
-491.522	-200.000	-0.034	0.163
-490.508	355.232	-0.054	0.108
-489.493	800.000	-0.045	0.128
-488.478	-123.438	-0.186	0.030
-487.464	230.712	0.088	0.145
-486.449	-28.950	0.170	0.099
-485.435	-166.537	0.167	-0.007
-484.420	-113.148	-0.153	-0.030
-483.405	88.400	-0.094	0.106
-482.391	-168.945	-0.184	-0.007
-481.376	800.000	-0.068	0.270
-480.362	800.000	0.029	-0.107
-479.347	-113.119	0.479	0.095
-478.332	76.637	0.116	0.124
-477.318	-16.910	0.101	-0.064
-476.303	-200.000	-0.040	0.254
-475.289	119.670	0.091	0.113
-474.274	531.972	0.095	-0.226
-473.259	-149.392	-0.159	0.013
-472.245	-0.219	0.216	-0.155
-471.230	-7.476	0.247	-0.168
-470.216	800.000	0.059	-0.255
-469.201	88.738	0.064	-0.072
-468.186	58.783	-0.174	-0.172
-467.172	100.737	0.135	0.158
-466.157	497.892	0.056	-0.130
-465.143	154.463	-0.142	-0.196
-464.128	-83.712	0.100	0.032
-463.113	239.682	-0.219	-0.367
-462.099	-200.000	0.031	0.202
-461.084	111.220	0.162	0.197
-460.070	-200.000	0.027	0.295
-459.055	-200.000	0.018	-0.090
-458.040	-72.641	-0.115	0.043
-457.026	106.461	-0.180	-0.215
-456.011	800.000	-0.085	0.337
-454.997	-47.854	-0.298	0.145
-453.982	-168.053	-0.269	0.011
-452.968	46.604	-0.051	0.047
-451.953	42.594	-0.150	0.137
-450.938	-178.192	-0.139	-0.003
-449.924	449.067	-0.105	0.233
-448.909	-35.884	-0.144	-0.079
-447.895	21.778	0.311	0.255
-446.880	95.209	0.123	-0.141
-445.865	-134.634	0.219	-0.027
-444.851	-42.206	0.117	-0.060
-443.836	122.722	0.240	-0.301
-442.822	-200.000	0.233	0.000
-441.807	0.199	-0.278	-0.199
-440.792	189.450	0.007	0.010
-439.778	413.788	0.111	0.237
-438.763	465.250	-0.066	-0.149
-437.749	107.214	0.043	0.052
-436.734	474.750	0.056	0.126
-435.719	-83.158	-0.169	-0.055
-434.705	-161.655	0.318	-0.016
-433.690	-200.000	-0.016	0.074
-432.676	800.000	-0.064	0.274
-431.661	-200.000	-0.012	0.123
-430.646	-200.000	-0.027	0.247
-429.632	0.591	-0.057	0.041
-428.617	56.325	-0.064	-0.062
-427.603	-131.811	0.301	-0.040
-426.588	-97.791	0.166	0.043
-425.573	468.369	-0.061	0.138
-424.559	-23.636	-0.161	0.097
-423.544	-200.000	0.012	-0.101
-422.530	-101.542	-0.137	-0.033
-421.515	105.254	-0.025	0.030
-420.500	8.314	0.257	-0.194
-419.486	78.825	0.123	-0.132
-418.471	-18.928	-0.199	-0.124
-417.457	47.745	0.092	0.086
-416.442	-146.940	-0.080	0.007
-415.428	272.399	-0.061	0.108
-414.413	20.452	0.115	-0.094
-413.398	-65.645	0.125	-0.050
-412.384	-33.629	-0.344	0.191
-411.369	-79.958	0.031	-0.011
-410.355	-78.365	0.256	-0.088
-409.340	104.268	0.169	-0.200
-408.325	-71.856	-0.203	-0.076
-407.311	11.088	-0.153	0.117
-406.296	49.102	-0.088	0.083
-405.282	283.637	0.098	-0.177
-404.267	619.567	0.037	0.093
-403.252	-40.860	-0.064	-0.033
-402.238	114.925	-0.215	0.263
-401.223	10.080	-0.191	-0.146
-400.209	-200.000	0.014	-0.080
-399.194	-191.674	-0.181	0.002
-398.179	3.786	-0.167	-0.122
-397.165	-88.642	0.416	0.124
-396.150	2.734	0.108	-0.079
-395.136	-200.000	0.006	0.171
-394.121	800.000	0.072	0.220
-393.106	69.475	-0.206	-0.213
-392.092	-114.041	-0.216	-0.042
-391.077	82.692	0.074	-0.080
-390.063	-72.197	0.213	-0.079
-389.048	67.445	-0.043	-0.044
-388.033	-67.870	-0.236	-0.093
-387.019	-55.996	0.233	-0.104
-386.004	33.642	-0.160	-0.140
-384.990	-170.144	-0.170	-0.006
-383.975	-18.450	-0.279	0.175
-382.960	217.553	0.262	0.419
-381.946	-114.547	-0.295	-0.057
-380.931	-200.000	-0.032	0.247
-379.917	-133.114	0.341	-0.043
-378.902	800.000	0.013	0.054
-377.888	-40.662	-0.232	-0.121
-376.873	-22.489	-0.151	0.092
-375.858	-200.000	-0.033	-0.256
-374.844	-54.386	-0.012	0.006
-373.829	-65.215	-0.222	0.089
-372.815	32.604	-0.150	0.130
-371.800	28.894	-0.239	0.203
-370.785	510.269	0.138	-0.322
-369.771	-200.000	-0.027	-0.174
-368.756	-103.299	-0.376	-0.089
-367.742	-153.745	0.207	-0.014
-366.727	425.854	-0.048	-0.104
-365.712	-77.576	-0.186	0.065
-364.698	171.411	0.282	0.406
-363.683	-200.000	0.043	-0.280
-362.669	40.516	-0.166	-0.150
-361.654	491.711	-0.053	-0.122
-360.639	-58.671	0.069	-0.030
-359.625	219.477	-0.053	-0.084
-358.610	-27.122	-0.269	0.157
-357.596	-200.000	0.031	-0.347
-356.581	800.000	-0.097	0.299
-355.566	800.000	0.153	-0.466
-354.552	-158.181	0.387	0.023
-353.537	-63.146	0.367	-0.152
-352.523	607.465	-0.069	0.173
-351.508	800.000	-0.016	-0.049
-350.493	136.850	0.055	-0.072
-349.479	800.000	0.020	0.060
-348.464	-57.692	-0.032	-0.014
-347.450	248.466	0.075	0.127
-346.435	800.000	-0.062	0.262
-345.420	-200.000	0.014	-0.190
-344.406	800.000	0.050	-0.165
-343.391	-73.871	0.046	0.017
-342.377	-54.990	-0.051	-0.023
-341.362	-158.189	-0.073	0.004
-340.348	-83.525	0.255	0.082
-339.333	215.884	0.063	0.100
-338.318	121.016	0.079	-0.098
-337.304	-37.681	0.089	-0.047
-336.289	-166.381	-0.151	-0.006
-335.275	-131.279	0.341	0.045
-334.260	93.372	0.263	-0.298
-333.245	-50.163	0.184	-0.087
-332.231	182.338	0.120	-0.177
-331.216	-101.385	-0.189	0.046
-330.202	800.000	0.188	0.550
-329.187	-56.963	0.164	-0.073
-328.172	58.903	0.101	0.099
-327.158	329.145	-0.054	-0.103
-326.143	4.138	-0.275	-0.202
-325.129	174.048	0.094	-0.136
-324.114	-43.640	-0.022	0.011
-323.099	174.092	0.159	0.229
-322.085	800.000	-0.074	0.251
-321.070	800.000	-0.053	-0.202
-320.056	-99.832	0.321	0.080
-319.041	127.042	0.220	0.279
-318.026	-200.000	-0.063	-0.284
-317.012	155.304	0.134	0.185
-315.997	482.986	0.058	-0.132
-314.983	-84.970	0.362	0.114
-313.968	-108.999	-0.320	-0.068
-312.953	20.087	0.335	0.271
-311.939	-163.672	0.268	0.013
-310.924	450.973	0.055	-0.121
-309.910	-33.617	-0.323	-0.178
-308.895	-153.778	-0.193	-0.013
-307.880	-142.735	-0.045	-0.004
-306.866	131.128	0.068	0.088
-305.851	-153.303	0.262	0.018
-304.837	165.474	0.135	-0.190
-303.822	19.973	0.170	-0.137
-302.807	152.839	-0.132	-0.181
-301.793	-46.070	-0.194	-0.095
-300.778	194.220	0.155	0.235
-299.764	79.141	0.098	0.105
-298.749	378.776	-0.109	0.223
-297.735	475.010	0.158	-0.356
-296.720	-200.000	0.013	0.197
-295.705	-56.735	-0.241	0.106
-294.691	316.807	-0.071	-0.134
-293.676	-138.410	0.352	-0.039
-292.662	800.000	0.073	0.261
-291.647	95.490	0.050	0.057
-290.632	-117.734	-0.334	-0.060
-289.618	-149.290	0.140	0.011
-288.603	14.442	-0.128	0.100
-287.589	172.962	-0.178	0.257
-286.574	800.000	0.036	0.121
-285.559	-71.372	0.135	0.051
-284.545	27.412	0.085	-0.071
-283.530	514.984	0.110	0.257
-282.516	80.236	0.036	0.038
-281.501	-54.026	-0.186	0.085
-280.486	-88.173	-0.275	-0.082
-279.472	-72.888	-0.268	-0.099
-278.457	158.531	0.180	0.249
-277.443	-77.375	-0.089	-0.031
-276.428	-199.940	0.365	-0.002
-275.413	407.881	0.154	0.325
-274.399	120.105	0.153	0.189
-273.384	-81.663	0.122	-0.040
-272.370	-109.729	-0.189	-0.040
-271.355	-95.374	-0.067	-0.018
-270.340	-107.529	0.474	0.104
-269.326	800.000	-0.075	-0.295
-268.311	-200.000	0.007	0.109
-267.297	-47.582	-0.309	-0.150
-266.282	174.604	-0.150	-0.216
-265.267	800.000	0.018	0.060
-264.253	-144.748	0.200	0.018
-263.238	-194.207	-0.179	-0.001
-262.224	-200.000	0.016	0.108
-261.209	-53.472	-0.071	-0.032
-260.195	204.681	-0.108	-0.167
-259.180	-28.428	0.457	0.263
-258.165	201.488	-0.084	-0.129
-257.151	-31.057	0.055	-0.031
-256.136	51.287	0.180	0.171
-255.122	190.108	0.201	0.300
-254.107	119.932	-0.021	0.026
-253.092	-105.415	-0.190	0.043
-252.078	80.519	0.046	0.049
-251.063	-15.382	0.095	-0.061
-250.049	53.192	-0.243	0.232
-249.034	800.000	-0.047	0.165
-248.019	800.000	-0.018	0.066
-247.005	-200.000	0.003	0.093
-245.990	-42.596	0.202	0.103
-244.976	485.851	-0.097	-0.221
-243.961	-200.000	-0.012	-0.315
-242.946	123.463	0.150	0.188
-241.932	8.872	-0.124	0.093
-240.917	18.600	0.223	-0.178
-239.903	172.200	0.068	0.097
-238.888	-19.193	0.215	0.133
-237.873	244.818	-0.176	0.296
-236.859	800.000	0.050	0.161
-235.844	-150.550	-0.014	-0.001
-234.830	197.404	0.061	0.093
-233.815	-79.288	0.158	0.053
-232.800	-200.000	0.026	-0.146
-231.786	-129.457	-0.244	0.034
-230.771	800.000	0.079	0.225
-229.757	800.000	0.028	0.116
-228.742	-74.162	-0.233	-0.084
-227.727	-164.617	0.300	-0.014
-226.713	40.271	0.273	-0.245
-225.698	14.102	0.242	0.188
-224.684	800.000	0.045	0.128
-223.669	8.376	-0.268	-0.201
-222.655	-116.901	0.063	0.011
-221.640	88.071	0.189	-0.209
-220.625	-35.837	0.126	0.068
-219.611	-127.989	0.229	-0.033
-218.596	38.709	0.374	-0.333
-217.582	-18.276	0.128	-0.079
-216.567	-180.704	0.409	0.008
-215.552	800.000	-0.069	0.227
-214.538	-200.000	0.027	0.126
-213.523	800.000	0.109	0.305
-212.509	77.012	-0.092	0.098
-211.494	-89.131	-0.286	-0.084
-210.479	-90.548	0.322	0.093
-209.465	147.457	-0.145	-0.195
-208.450	-200.000	0.000	0.128
-207.436	-51.220	0.293	0.137
-206.421	104.321	0.166	0.195
-205.406	-200.000	0.005	0.072
-204.392	-66.100	-0.287	-0.114
-203.377	-46.176	-0.053	0.026
-202.363	800.000	-0.113	0.373
-201.348	155.244	-0.161	0.221
-200.333	-200.000	-0.008	-0.062
-199.319	-200.000	0.045	-0.241
-198.304	800.000	0.069	-0.244
-197.290	530.855	0.121	-0.284
-196.275	410.529	0.113	-0.238
-195.260	-148.835	-0.188	-0.015
-194.246	-19.263	0.167	0.103
-193.231	64.142	0.138	-0.138
-192.217	472.182	-0.114	-0.256
-191.202	284.353	0.123	-0.221
-190.187	-150.131	0.138	-0.011
-189.173	224.161	-0.120	0.192
-188.158	-52.013	0.165	0.077
-187.144	63.007	0.126	0.125
-186.129	-50.859	-0.233	-0.109
-185.114	-99.310	-0.410	0.103
-184.100	-24.052	0.115	-0.069
-183.085	255.083	0.039	-0.067
-182.071	-71.286	0.345	-0.129
-181.056	79.096	-0.184	-0.196
-180.042	34.438	-0.244	0.212
-179.027	-4.688	0.109	0.075
-178.012	800.000	-0.048	0.190
-176.998	722.755	-0.067	-0.178
-175.983	-129.032	-0.024	-0.003
-174.969	398.885	0.179	0.373
-173.954	-129.184	-0.021	-0.003
-172.939	-166.758	0.360	0.015
-171.925	-45.999	-0.103	-0.051
-170.910	-17.311	0.113	0.071
-169.896	-60.579	0.236	0.100
-168.881	157.419	-0.152	0.209
-167.866	-40.883	-0.282	0.145
-166.852	-33.546	0.136	0.075
-165.837	-88.484	-0.169	0.050
-164.823	217.536	0.133	0.211
-163.808	-200.000	0.026	-0.191
-162.793	-93.629	-0.212	-0.058
-161.779	630.252	-0.086	-0.217
-160.764	216.788	0.063	-0.099
-159.750	-110.783	-0.263	0.054
-158.735	-10.612	-0.178	-0.117
-157.720	-48.454	-0.105	-0.050
-156.706	58.121	-0.109	-0.106
-155.691	175.053	-0.053	-0.076
-154.677	-200.000	0.030	0.137
-153.662	437.516	0.002	0.004
-152.647	-62.020	0.055	0.023
-151.633	52.512	0.168	0.160
-150.618	-200.000	-0.027	0.183
-149.604	-15.440	0.325	-0.206
-148.589	-86.981	-0.038	-0.012
-147.574	118.712	-0.091	-0.111
-146.560	-69.312	0.192	0.073
-145.545	-29.355	-0.182	-0.103
-144.531	-166.414	0.204	-0.008
-143.516	89.644	0.143	-0.158
-142.502	-200.000	0.018	-0.098
-141.487	-117.023	0.155	0.028
-140.472	-200.000	0.006	-0.181
-139.458	-12.818	-0.307	-0.198
-138.443	126.534	-0.269	-0.338
-137.429	174.664	-0.156	0.225
-136.414	-81.904	0.165	-0.054
-135.399	280.688	0.027	0.047
-134.385	800.000	-0.018	0.057
-133.370	-18.982	0.230	0.142
-132.356	625.604	0.100	0.251
-131.341	-87.292	0.193	-0.058
-130.326	384.360	0.089	0.182
-129.312	182.807	0.060	0.088
-128.297	732.666	-0.015	0.040
-127.283	64.532	-0.199	0.199
-126.268	-200.000	0.017	-0.314
-125.253	120.726	-0.049	0.061
-124.239	88.237	0.123	-0.136
-123.224	84.061	-0.217	-0.236
-122.210	-63.805	0.284	0.115
-121.195	-72.859	0.129	-0.047
