DTS Sentinel unit serial number:	SN413079Multiplexer serial number:	ORYXHardware model number:	OX4-SRSoftware version number:	ORYX F/W v4.00 Oryx Data Collector v3.7.2.0data status	okinstallation	princeton_trtdifferential loss correction	single-endedforward channel	channel 4reverse channel	N/Adate	2019/09/17time	14:41:35forward acquisition time	60.00reverse acquisition time	0.00gamma	496.2192k internal	0.2295k external	0.2295temperature offset calibration	0.9986default loss term (dB/km)	0.3790temperature slope calibration	1.0000multiplexer offset coefficient	1.0000multiplexer slope coefficient	1.0000fibre end	0.00T internal ref (°C)	36.81T ext. ref 1 (°C)	0.40T ext. ref 2 (°C)	33.93length (m)	temperature (°C)	Stokes	anti-Stokes-747.200	800.000	0.041	-0.152
-746.185	-200.000	0.024	0.359
-745.171	-200.000	-0.005	0.086
-744.156	800.000	0.027	-0.080
-743.142	197.214	-0.078	0.122
-742.127	-157.895	-0.270	-0.016
-741.112	-97.992	0.241	-0.063
-740.098	754.295	0.084	0.232
-739.083	0.219	0.434	0.316
-738.069	146.810	-0.253	0.347
-737.054	473.755	-0.074	0.170
-736.039	-33.510	-0.273	-0.154
-735.025	246.655	0.064	0.111
-734.010	-200.000	-0.059	-0.271
-732.996	431.949	0.100	-0.221
-731.981	800.000	-0.136	-0.488
-730.966	-93.790	0.297	-0.084
-729.952	-75.598	0.029	0.010
-728.937	-200.000	0.071	-0.498
-727.923	-29.719	-0.298	0.174
-726.908	-85.130	-0.201	0.064
-725.894	141.424	0.059	-0.079
-724.879	-165.461	-0.111	-0.005
-723.864	321.172	0.088	-0.170
-722.850	-200.000	-0.033	-0.259
-721.835	-200.000	0.030	0.230
-720.821	169.922	0.127	0.185
-719.806	-16.355	-0.071	0.046
-718.791	-59.968	0.047	-0.020
-717.777	-57.990	-0.248	-0.111
-716.762	-96.181	0.143	-0.039
-715.748	-41.989	0.329	-0.172
-714.733	-68.511	-0.245	0.097
-713.718	77.926	0.102	0.111
-712.704	-7.056	-0.327	-0.227
-711.689	-98.963	0.014	0.004
-710.675	800.000	-0.022	-0.089
-709.660	112.140	0.308	0.381
-708.645	-135.938	-0.244	-0.029
-707.631	300.064	0.115	0.216
-706.616	-120.123	0.115	0.020
-705.602	-200.000	-0.003	0.348
-704.587	-200.000	-0.034	0.345
-703.572	223.973	-0.130	-0.214
-702.558	-200.000	-0.001	-0.203
-701.543	-51.103	-0.393	-0.188
-700.529	300.983	0.060	-0.112
-699.514	339.164	0.051	0.102
-698.499	-152.100	-0.109	-0.008
-697.485	-75.471	-0.070	0.025
-696.470	15.110	0.151	-0.120
-695.456	-13.513	-0.107	0.071
-694.441	-118.845	-0.528	-0.095
-693.426	118.790	0.242	-0.305
-692.412	-200.000	-0.004	-0.079
-691.397	689.758	0.077	-0.205
-690.383	93.153	0.061	-0.071
-689.368	19.465	0.181	0.149
-688.354	800.000	-0.057	0.170
-687.339	184.339	0.094	-0.142
-686.324	13.538	0.027	-0.021
-685.310	-26.378	-0.221	0.132
-684.295	800.000	-0.114	-0.326
-683.281	92.161	0.074	-0.085
-682.266	-200.000	-0.034	-0.394
-681.251	-29.234	-0.069	0.040
-680.237	-200.000	-0.027	-0.218
-679.222	-28.364	0.203	0.120
-678.208	-132.252	0.250	0.033
-677.193	-166.716	0.145	0.006
-676.178	-72.554	-0.189	-0.071
-675.164	-200.000	0.013	0.061
-674.149	-200.000	-0.059	-0.371
-673.135	8.058	0.154	-0.118
-672.120	-138.212	0.178	-0.020
-671.105	-200.000	0.000	0.099
-670.091	800.000	-0.134	-0.471
-669.076	75.078	-0.162	-0.174
-668.062	-112.724	0.113	0.023
-667.047	-69.563	0.210	0.082
-666.032	245.995	-0.211	-0.362
-665.018	18.008	0.148	0.120
-664.003	158.361	0.086	-0.122
-662.989	52.461	-0.163	0.158
-661.974	3.511	0.135	-0.100
-660.959	-17.223	0.141	-0.091
-659.945	277.248	0.117	-0.211
-658.930	196.599	-0.158	-0.246
-657.916	130.539	0.175	0.229
-656.901	-71.260	-0.208	0.079
-655.886	-200.000	0.007	0.357
-654.872	-200.000	0.002	0.136
-653.857	35.628	-0.363	-0.324
-652.843	-141.407	0.443	-0.046
-651.828	-57.292	-0.173	-0.078
-650.814	217.015	0.071	-0.115
-649.799	-52.609	0.180	0.085
-648.784	-200.000	-0.021	0.246
-647.770	206.008	0.072	-0.115
-646.755	-119.112	-0.193	0.034
-645.741	89.037	-0.079	-0.090
-644.726	31.979	-0.218	0.191
-643.711	-127.017	0.269	-0.040
-642.697	-100.702	-0.428	-0.107
-641.682	11.497	0.193	-0.151
-640.668	86.648	0.195	-0.219
-639.653	212.074	0.065	-0.105
-638.638	-200.000	-0.008	-0.356
-637.624	79.835	0.205	-0.224
-636.609	-200.000	0.064	0.331
-635.595	237.497	0.060	-0.101
-634.580	-200.000	-0.001	-0.166
-633.565	-77.644	0.221	-0.078
-632.551	300.245	-0.202	-0.379
-631.536	56.848	0.006	0.006
-630.522	240.010	0.030	-0.051
-629.507	800.000	-0.052	-0.181
-628.492	800.000	-0.096	-0.386
-627.478	85.428	-0.227	-0.253
-626.463	-79.031	-0.287	0.099
-625.449	285.397	0.059	-0.109
-624.434	23.605	0.132	0.111
-623.419	-95.991	-0.239	0.065
-622.405	166.899	0.161	-0.232
-621.390	-6.243	-0.248	-0.172
-620.376	-66.042	-0.537	-0.218
-619.361	-200.000	-0.037	-0.369
-618.346	290.737	-0.111	0.205
-617.332	279.338	-0.109	-0.198
-616.317	-3.783	0.289	-0.204
-615.303	-200.000	0.014	-0.291
-614.288	406.252	-0.118	0.254
-613.273	-200.000	-0.004	0.022
-612.259	-181.888	-0.099	-0.002
-611.244	80.739	0.152	0.166
-610.230	99.174	-0.122	-0.143
-609.215	-135.660	-0.071	-0.009
-608.201	-200.000	-0.006	0.145
-607.186	-124.406	0.095	-0.015
-606.171	-200.000	-0.015	0.133
-605.157	-200.000	0.000	-0.052
-604.142	-113.846	-0.176	-0.035
-603.128	88.078	-0.226	0.255
-602.113	-200.000	0.071	-0.324
-601.098	-200.000	0.022	-0.144
-600.084	-200.000	-0.027	0.448
-599.069	307.161	0.152	0.288
-598.055	711.949	-0.074	-0.198
-597.040	145.043	-0.105	-0.143
-596.025	516.267	-0.039	-0.092
-595.011	800.000	0.056	0.157
-593.996	719.112	-0.050	0.135
-592.982	279.080	-0.159	0.288
-591.967	-141.416	-0.120	-0.012
-590.952	-200.000	-0.037	0.218
-589.938	-4.350	-0.273	-0.192
-588.923	295.955	0.124	-0.231
-587.909	-95.672	-0.230	-0.063
-586.894	-85.366	0.186	-0.059
-585.879	-73.483	0.397	0.147
-584.865	69.020	0.137	0.143
-583.850	-200.000	-0.022	0.159
-582.836	-78.505	0.105	0.037
-581.821	-147.586	-0.203	0.017
-580.806	-179.304	0.076	0.002
-579.792	50.517	0.197	0.189
-578.777	-86.257	-0.016	-0.005
-577.763	-11.062	0.262	0.176
-576.748	48.022	0.065	0.062
-575.733	-157.142	0.380	0.023
-574.719	-106.449	-0.380	0.086
-573.704	-87.546	0.346	0.106
-572.690	-191.191	-0.207	0.002
-571.675	800.000	-0.035	0.124
-570.661	-200.000	0.013	0.253
-569.646	219.911	-0.033	0.053
-568.631	-200.000	0.009	-0.070
-567.617	-200.000	0.038	0.247
-566.602	-174.871	0.455	-0.013
-565.588	223.885	-0.132	-0.216
-564.573	-10.000	0.093	-0.063
-563.558	44.789	-0.056	-0.053
-562.544	14.456	-0.111	-0.088
-561.529	88.481	-0.095	0.108
-560.515	800.000	-0.046	0.201
-559.500	-52.852	0.403	0.188
-558.485	79.833	0.052	-0.056
-557.471	-155.366	0.196	-0.013
-556.456	-124.862	-0.077	-0.012
-555.442	82.552	0.207	-0.228
-554.427	-200.000	0.043	-0.247
-553.412	105.867	-0.126	-0.151
-552.398	-0.692	-0.187	-0.134
-551.383	363.199	0.008	0.016
-550.369	42.612	0.106	0.097
-549.354	139.185	0.119	-0.159
-548.339	13.229	-0.281	-0.221
-547.325	165.075	0.283	-0.406
-546.310	99.270	0.381	-0.447
-545.296	-147.146	-0.232	0.020
-544.281	519.743	-0.044	-0.104
-543.266	1.755	-0.110	-0.080
-542.252	-200.000	0.042	-0.295
-541.237	121.149	-0.126	0.159
-540.223	-59.458	-0.249	-0.108
-539.208	23.558	-0.142	0.118
-538.193	800.000	0.024	0.089
-537.179	282.144	-0.099	0.181
-536.164	-95.880	0.180	-0.049
-535.150	-7.902	-0.210	-0.144
-534.135	-69.781	0.109	-0.042
-533.121	-131.609	-0.137	0.018
-532.106	-77.601	-0.214	-0.075
-531.091	-68.216	-0.024	0.009
-530.077	205.765	0.212	0.334
-529.062	226.995	0.030	0.049
-528.048	-58.012	-0.374	0.165
-527.033	-200.000	-0.035	0.159
-526.018	550.174	-0.119	0.288
-525.004	-85.328	-0.165	0.052
-523.989	-130.940	-0.337	-0.046
-522.975	-132.143	0.064	0.008
-521.960	-75.446	-0.315	0.114
-520.945	-89.481	-0.136	-0.041
-519.931	156.638	0.125	0.176
-518.916	-42.497	-0.089	-0.046
-517.902	39.283	-0.044	0.040
-516.887	444.378	-0.035	-0.078
-515.872	800.000	-0.041	-0.148
-514.858	67.025	-0.082	-0.085
-513.843	-32.834	-0.326	-0.183
-512.829	-65.846	0.138	0.056
-511.814	489.696	0.083	0.193
-510.799	286.428	-0.113	0.207
-509.785	-90.889	-0.353	0.103
-508.770	194.480	0.188	0.289
-507.756	242.571	-0.079	0.134
-506.741	-101.545	0.165	0.041
-505.726	800.000	0.052	0.214
-504.712	-116.573	0.403	-0.075
-503.697	-167.224	-0.234	0.010
-502.683	-14.110	-0.051	0.033
-501.668	21.081	-0.290	0.238
-500.653	-190.371	0.458	0.005
-499.639	317.955	0.095	0.182
-498.624	254.211	0.094	-0.162
-497.610	71.901	-0.091	0.096
-496.595	800.000	-0.138	0.464
-495.581	-200.000	0.003	-0.049
-494.566	-119.839	0.329	0.057
-493.551	87.209	0.084	0.094
-492.537	-49.415	-0.109	-0.052
-491.522	93.456	0.055	0.063
-490.508	77.776	-0.042	0.045
-489.493	334.300	0.152	-0.297
-488.478	800.000	-0.029	0.100
-487.464	-83.588	-0.175	0.057
-486.449	-148.829	-0.076	0.006
-485.435	8.594	0.136	-0.104
-484.420	-160.001	-0.207	0.011
-483.405	-200.000	-0.018	-0.084
-482.391	18.235	0.243	-0.196
-481.376	-71.507	0.223	0.085
-480.362	-85.454	-0.132	-0.042
-479.347	-200.000	-0.005	0.156
-478.332	65.074	-0.034	0.035
-477.318	-68.180	0.296	-0.117
-476.303	-200.000	0.031	-0.177
-475.289	-72.473	0.142	-0.053
-474.274	-56.317	-0.207	0.093
-473.259	170.672	-0.203	0.293
-472.245	-200.000	-0.014	-0.155
-471.230	219.015	0.266	-0.430
-470.216	2.744	0.113	0.083
-469.201	-200.000	-0.021	-0.102
-468.186	163.364	-0.028	0.040
-467.172	-91.113	-0.469	-0.136
-466.157	-77.710	-0.070	0.025
-465.143	-106.416	-0.075	-0.017
-464.128	-200.000	-0.004	0.162
-463.113	-200.000	0.002	-0.036
-462.099	590.984	0.123	-0.306
-461.084	45.569	-0.104	0.097
-460.070	82.399	-0.020	-0.022
-459.055	7.364	-0.320	0.241
-458.040	-24.757	-0.158	0.095
-457.026	36.302	-0.192	-0.171
-456.011	-78.800	-0.093	0.032
-454.997	800.000	0.077	-0.272
-453.982	-175.075	0.180	0.005
-452.968	800.000	0.017	0.054
-451.953	-28.080	0.148	0.087
-450.938	-200.000	0.011	-0.141
-449.924	-17.089	0.337	-0.215
-448.909	-35.690	-0.177	0.097
-447.895	800.000	-0.069	0.242
-446.880	-9.442	-0.298	-0.201
-445.865	121.017	-0.050	-0.062
-444.851	424.902	-0.117	-0.254
-443.836	-200.000	-0.004	-0.150
-442.822	-200.000	0.026	-0.243
-441.807	-50.777	-0.183	0.087
-440.792	138.642	0.239	-0.317
-439.778	-200.000	-0.055	-0.291
-438.763	-160.747	0.498	0.027
-437.749	237.118	0.106	0.177
-436.734	-34.377	0.200	0.111
-435.719	1.788	-0.471	0.343
-434.705	-200.000	-0.021	0.129
-433.690	4.445	0.294	0.218
-432.676	-82.662	-0.428	0.140
-431.661	800.000	0.084	0.253
-430.646	-75.011	0.086	-0.031
-429.632	-172.081	-0.382	-0.012
-428.617	130.190	-0.053	0.069
-427.603	274.052	-0.158	-0.282
-426.588	-200.000	0.009	-0.296
-425.573	800.000	-0.011	-0.034
-424.559	-34.453	-0.142	0.079
-423.544	-200.000	0.028	0.142
-422.530	-48.452	-0.303	0.147
-421.515	47.742	0.229	-0.216
-420.500	-200.000	0.045	-0.343
-419.486	20.780	-0.204	-0.166
-418.471	47.291	-0.113	0.106
-417.457	-200.000	0.006	0.117
-416.442	-86.828	-0.249	-0.077
-415.428	85.837	0.037	0.041
-414.413	190.213	-0.148	0.225
-413.398	245.413	-0.096	0.163
-412.384	-200.000	0.003	-0.071
-411.369	53.839	-0.082	0.079
-410.355	-52.332	-0.178	-0.083
-409.340	-200.000	-0.008	0.214
-408.325	-200.000	0.024	-0.202
-407.311	158.282	-0.246	-0.345
-406.296	-200.000	0.035	0.168
-405.282	-133.570	0.122	0.015
-404.267	-50.990	-0.040	-0.019
-403.252	-200.000	0.049	-0.315
-402.238	-196.655	-0.211	0.001
-401.223	52.448	-0.340	-0.327
-400.209	-11.626	0.286	-0.189
-399.194	-106.519	0.224	-0.050
-398.179	381.091	-0.033	0.068
-397.165	-145.621	-0.273	-0.025
-396.150	352.976	-0.083	-0.165
-395.136	214.427	-0.113	-0.181
-394.121	800.000	-0.054	-0.219
-393.106	-200.000	0.061	-0.273
-392.092	-23.572	0.148	0.089
-391.077	-80.712	0.085	0.028
-390.063	31.165	-0.279	0.241
-389.048	-200.000	-0.004	0.298
-388.033	150.127	-0.111	0.152
-387.019	-105.577	0.440	-0.101
-386.004	70.054	0.039	0.041
-384.990	-40.370	-0.139	-0.073
-383.975	331.529	0.078	0.151
-382.960	-200.000	0.009	0.217
-381.946	-200.000	-0.010	0.108
-380.931	225.125	-0.096	0.157
-379.917	243.435	0.087	0.148
-378.902	179.752	-0.115	0.170
-377.888	-94.184	0.256	0.071
-376.873	300.784	0.088	-0.164
-375.858	-167.305	0.243	-0.010
-374.844	-200.000	-0.044	-0.239
-373.829	-200.000	-0.020	0.304
-372.815	-117.529	0.073	0.013
-371.800	19.541	-0.182	-0.147
-370.785	83.387	0.158	0.174
-369.771	800.000	0.027	0.074
-368.756	-33.515	-0.158	0.088
-367.742	800.000	0.033	0.126
-366.727	22.190	0.246	0.202
-365.712	-55.513	-0.136	0.061
-364.698	800.000	-0.082	0.277
-363.683	87.761	0.026	-0.029
-362.669	-200.000	0.003	0.026
-361.654	-200.000	0.039	0.398
-360.639	-200.000	0.100	0.447
-359.625	555.909	0.042	-0.103
-358.610	147.717	-0.028	0.038
-357.596	-200.000	-0.097	-0.442
-356.581	-12.517	0.078	0.052
-355.566	800.000	-0.075	0.235
-354.552	800.000	-0.062	-0.234
-353.537	-200.000	0.010	-0.177
-352.523	-160.196	-0.025	0.001
-351.508	-117.135	0.106	-0.020
-350.493	34.798	-0.141	0.125
-349.479	143.968	0.251	0.337
-348.464	-24.931	-0.075	-0.045
-347.450	-15.452	0.164	0.105
-346.435	-47.662	-0.235	0.115
-345.420	265.126	0.353	0.619
-344.406	19.656	-0.181	-0.147
-343.391	-18.607	0.094	-0.059
-342.377	-26.776	0.120	-0.071
-341.362	-3.540	-0.433	-0.303
-340.348	-2.520	-0.149	-0.105
-339.333	59.967	-0.066	-0.066
-338.318	100.352	-0.042	0.049
-337.304	-194.170	0.206	-0.002
-336.289	-90.851	-0.089	-0.026
-335.275	18.225	-0.096	0.077
-334.260	49.288	-0.363	0.343
-333.245	200.892	0.113	0.175
-332.231	-38.118	0.129	-0.069
-331.216	-27.542	0.231	-0.135
-330.202	800.000	-0.023	0.083
-329.187	-200.000	-0.034	0.211
-328.172	-70.214	0.086	-0.033
-327.158	-26.806	0.083	-0.049
-326.143	-200.000	-0.001	0.130
-325.129	-114.035	-0.354	0.069
-324.114	-200.000	-0.015	-0.081
-323.099	518.471	-0.075	-0.177
-322.085	-200.000	-0.053	0.295
-321.070	253.764	0.078	-0.133
-320.056	141.517	0.170	-0.226
-319.041	207.262	-0.046	-0.073
-318.026	181.124	0.161	-0.238
-317.012	-200.000	0.012	0.078
-315.997	-23.626	-0.145	-0.088
-314.983	-200.000	0.041	0.296
-313.968	-89.794	0.191	-0.056
-312.953	-109.135	0.246	-0.053
-311.939	-185.610	0.468	-0.007
-310.924	-149.528	-0.173	-0.014
-309.910	-106.313	-0.323	0.073
-308.895	-41.278	-0.413	-0.214
-307.880	612.862	0.071	-0.178
-306.866	-117.037	0.124	0.023
-305.851	-200.000	0.155	0.000
-304.837	224.712	-0.288	-0.468
-303.822	800.000	0.048	-0.168
-302.807	348.916	-0.050	-0.099
-301.793	470.146	0.059	-0.133
-300.778	800.000	-0.023	0.075
-299.764	186.112	0.200	-0.299
-298.749	-200.000	-0.002	-0.131
-297.735	452.965	0.105	-0.234
-296.720	134.247	0.095	0.124
-295.705	-142.075	-0.239	0.024
-294.691	-71.041	-0.204	-0.077
-293.676	-33.534	-0.245	0.136
-292.662	98.710	-0.143	0.166
-291.647	-76.163	0.097	0.034
-290.632	-109.980	-0.083	0.017
-289.618	-89.394	0.085	0.025
-288.603	-157.656	-0.044	0.003
-287.589	-66.236	-0.149	-0.060
-286.574	116.481	-0.173	0.213
-285.559	-200.000	-0.008	0.393
-284.545	35.659	0.132	0.116
-283.530	-40.413	-0.286	-0.149
-282.516	196.569	0.053	-0.081
-281.501	-30.887	0.154	-0.087
-280.486	800.000	-0.050	-0.149
-279.472	800.000	0.062	0.220
-278.457	111.208	0.123	-0.149
-277.443	800.000	-0.011	-0.047
-276.428	800.000	-0.017	-0.076
-275.413	138.346	0.262	0.345
-274.399	-130.306	-0.166	0.023
-273.384	273.293	0.026	-0.046
-272.370	271.149	-0.032	0.056
-271.355	-17.931	0.215	-0.135
-270.340	107.067	-0.041	0.049
-269.326	-193.810	0.139	-0.001
-268.311	290.532	0.080	0.146
-267.297	-200.000	-0.025	0.161
-266.282	-4.738	0.308	0.213
-265.267	-66.720	-0.149	-0.059
-264.253	84.993	0.077	0.084
-263.238	800.000	-0.104	0.302
-262.224	252.841	-0.079	-0.134
-261.209	800.000	-0.105	0.300
-260.195	748.027	-0.099	0.267
-259.180	120.853	0.303	-0.379
-258.165	800.000	-0.015	0.052
-257.151	-56.924	0.234	-0.104
-256.136	-96.775	-0.093	0.024
-255.122	-79.964	-0.261	0.088
-254.107	185.503	0.148	-0.220
-253.092	-167.434	0.288	-0.012
-252.078	800.000	-0.041	0.119
-251.063	-168.249	0.375	-0.015
-250.049	-200.000	0.025	0.161
-249.034	-76.144	-0.193	0.068
-248.019	-51.388	-0.205	-0.096
-247.005	32.677	-0.162	0.140
-245.990	106.362	0.134	0.159
-244.976	96.139	-0.118	-0.135
-243.961	518.450	0.034	0.079
-242.946	800.000	-0.023	0.088
-241.932	-64.261	-0.128	-0.052
-240.917	90.083	-0.084	-0.094
-239.903	-200.000	-0.132	0.643
-238.888	597.934	-0.066	0.163
-237.873	33.457	0.164	0.143
-236.859	-47.851	-0.158	-0.077
-235.844	-102.181	0.127	0.031
-234.830	-99.643	-0.090	-0.023
-233.815	18.572	0.098	-0.079
-232.800	-58.565	0.391	-0.170
-231.786	800.000	-0.036	-0.151
-230.771	146.727	-0.169	0.227
-229.757	194.198	0.130	-0.197
-228.742	-200.000	-0.003	0.220
-227.727	80.736	0.244	0.263
-226.713	-200.000	-0.075	-0.373
-225.698	-6.138	0.297	-0.203
-224.684	800.000	0.084	0.242
-223.669	115.009	0.109	-0.133
-222.655	-147.551	0.343	-0.029
-221.640	-179.327	0.197	-0.004
-220.625	41.973	-0.265	-0.241
-219.611	-17.863	-0.345	0.217
-218.596	-108.064	0.316	-0.069
-217.582	800.000	-0.085	-0.354
-216.567	-200.000	-0.120	-0.580
-215.552	-198.820	-0.039	-0.000
-214.538	-85.750	-0.211	0.065
-213.523	-120.001	0.152	-0.026
-212.509	-33.310	0.210	0.116
-211.494	1.362	0.159	-0.115
-210.479	141.814	0.157	-0.208
-209.465	110.237	0.033	-0.040
-208.450	-200.000	0.047	0.419
-207.436	-148.532	0.329	-0.027
-206.421	-35.199	0.242	-0.132
-205.406	133.130	-0.137	0.178
-204.392	800.000	-0.075	-0.230
-203.377	-20.784	0.137	-0.084
-202.363	47.510	-0.133	-0.125
-201.348	-8.031	0.192	-0.130
-200.333	113.812	0.254	-0.309
-199.319	86.291	-0.180	0.199
-198.304	-113.279	0.226	0.044
-197.290	-124.550	-0.278	0.043
-196.275	184.556	0.194	0.288
-195.260	-54.273	0.268	0.122
-194.246	-15.127	0.204	0.131
-193.231	-39.686	0.108	-0.056
-192.217	-95.006	0.186	0.050
-191.202	63.090	0.397	0.398
-190.187	-200.000	0.092	-0.404
-189.173	-171.247	0.284	-0.010
-188.158	672.475	0.069	-0.178
-187.144	6.214	-0.462	-0.343
-186.129	374.452	-0.093	0.190
-185.114	133.462	-0.078	-0.101
-184.100	122.490	-0.201	-0.251
-183.085	325.830	0.171	0.328
-182.071	279.079	0.148	-0.264
-181.056	-115.120	0.272	-0.052
-180.042	-158.071	0.204	-0.012
-179.027	316.279	0.135	-0.254
-178.012	11.566	0.233	-0.178
-176.998	-103.277	0.516	-0.122
-175.983	-75.062	-0.343	-0.123
-174.969	-200.000	0.027	0.129
-173.954	-61.488	0.079	0.033
-172.939	179.415	-0.138	0.202
-171.925	800.000	-0.028	-0.077
-170.910	-100.768	-0.097	0.024
-169.896	24.812	0.102	0.084
-168.881	800.000	-0.049	0.157
-167.866	-34.649	-0.496	-0.271
-166.852	176.040	-0.161	-0.234
-165.837	-200.000	0.025	0.601
-164.823	387.546	0.040	0.082
-163.808	-63.673	0.059	-0.024
-162.793	-12.086	-0.156	0.102
-161.779	112.549	-0.115	0.139
-160.764	378.709	0.173	0.355
-159.750	77.510	0.063	-0.067
-158.735	19.779	0.321	0.258
-157.720	-200.000	-0.010	0.192
-156.706	-200.000	-0.040	-0.279
-155.691	-200.000	-0.001	-0.101
-154.677	800.000	0.100	-0.298
-153.662	5.580	0.255	0.188
-152.647	-114.720	0.199	-0.038
-151.633	17.954	-0.279	0.222
-150.618	-52.483	0.261	-0.121
-149.604	-96.216	-0.327	0.087
-148.589	202.402	-0.146	-0.225
-147.574	3.844	0.220	0.160
-146.560	-200.000	0.021	-0.249
-145.545	-14.902	0.032	0.020
-144.531	89.389	-0.250	0.278
-143.516	-147.643	-0.221	-0.019
-142.502	-200.000	-0.026	-0.236
-141.487	800.000	0.063	-0.198
-140.472	473.794	0.114	-0.257
-139.458	540.563	0.128	0.304
-138.443	-200.000	0.000	0.092
-137.429	69.492	0.180	-0.185
-136.414	-167.188	-0.240	-0.010
-135.399	-128.084	-0.195	-0.028
-134.385	-200.000	-0.017	-0.151
-133.370	57.656	-0.265	-0.259
-132.356	-30.862	-0.041	-0.023
-131.341	112.431	-0.183	0.221
-130.326	-153.917	-0.145	-0.010
-129.312	22.878	-0.129	-0.106
-128.297	-200.000	0.022	-0.280
-127.283	-20.648	0.367	0.225
-126.268	232.565	-0.156	-0.256
-125.253	-167.260	0.343	0.014
-124.239	788.636	-0.048	-0.133
-123.224	178.462	0.253	-0.369
-122.210	10.283	-0.221	-0.168
