DTS Sentinel unit serial number:	SN413079Multiplexer serial number:	ORYXHardware model number:	OX4-SRSoftware version number:	ORYX F/W v4.00 Oryx Data Collector v3.7.2.0data status	okinstallation	princeton_trtdifferential loss correction	single-endedforward channel	channel 4reverse channel	N/Adate	2019/09/17time	12:17:35forward acquisition time	60.00reverse acquisition time	0.00gamma	496.2192k internal	0.2305k external	0.2305temperature offset calibration	0.9989default loss term (dB/km)	0.3790temperature slope calibration	1.0000multiplexer offset coefficient	1.0000multiplexer slope coefficient	1.0000fibre end	0.00T internal ref (°C)	31.50T ext. ref 1 (°C)	0.42T ext. ref 2 (°C)	28.29length (m)	temperature (°C)	Stokes	anti-Stokes-747.200	-41.870	0.124	-0.065
-746.185	-200.000	0.021	-0.098
-745.171	25.936	0.033	0.028
-744.156	800.000	0.062	0.230
-743.142	229.286	-0.143	0.238
-742.127	170.185	0.138	-0.200
-741.112	83.690	0.158	0.175
-740.098	49.181	-0.068	-0.065
-739.083	36.027	-0.206	0.184
-738.069	-122.208	-0.087	0.014
-737.054	348.329	0.118	0.238
-736.039	-105.582	-0.255	0.059
-735.025	240.396	-0.142	0.242
-734.010	-186.435	-0.359	-0.005
-732.996	-19.581	-0.040	-0.025
-731.981	-75.990	0.392	0.141
-730.966	25.889	0.178	-0.151
-729.952	70.805	-0.245	-0.258
-728.937	491.449	-0.069	0.160
-727.923	-73.406	-0.050	-0.019
-726.908	28.741	0.154	0.133
-725.894	23.325	-0.220	-0.184
-724.879	-200.000	0.033	-0.226
-723.864	-112.780	0.238	0.048
-722.850	11.563	-0.099	0.077
-721.835	258.649	0.087	0.153
-720.821	-87.588	0.118	-0.036
-719.806	-86.590	-0.129	-0.040
-718.791	-57.008	0.365	-0.164
-717.777	50.711	-0.305	-0.294
-716.762	-30.659	0.222	0.128
-715.748	-119.310	-0.291	-0.051
-714.733	-95.478	0.143	0.039
-713.718	-115.501	-0.060	-0.011
-712.704	-112.956	0.268	-0.054
-711.689	-155.496	-0.247	-0.016
-710.675	-200.000	0.011	0.234
-709.660	-141.988	0.257	-0.026
-708.645	-117.938	-0.053	-0.010
-707.631	-75.188	-0.235	0.085
-706.616	200.097	-0.189	-0.295
-705.602	230.143	-0.043	0.072
-704.587	247.041	-0.234	-0.402
-703.572	-22.868	-0.162	0.100
-702.558	-27.456	0.241	-0.142
-701.543	26.038	-0.244	-0.207
-700.529	180.885	-0.093	0.139
-699.514	-40.838	0.252	-0.132
-698.499	54.829	0.115	0.112
-697.485	800.000	-0.035	0.152
-696.470	-200.000	-0.003	0.126
-695.456	296.381	-0.053	-0.099
-694.441	482.432	0.058	-0.134
-693.426	800.000	-0.073	-0.225
-692.412	141.625	-0.058	0.078
-691.397	800.000	0.166	0.491
-690.383	-81.403	-0.056	-0.019
-689.368	-101.515	0.267	0.066
-688.354	-200.000	-0.003	-0.168
-687.339	417.938	-0.138	0.300
-686.324	-200.000	-0.034	-0.529
-685.310	74.903	-0.175	-0.187
-684.295	17.365	-0.134	0.108
-683.281	-46.632	-0.127	0.063
-682.266	217.800	0.093	0.151
-681.251	73.714	0.134	0.143
-680.237	-156.221	0.406	0.026
-679.222	368.393	0.043	0.088
-678.208	114.418	-0.094	0.116
-677.193	800.000	-0.061	0.238
-676.178	-61.253	-0.086	0.037
-675.164	-144.929	-0.135	0.013
-674.149	800.000	0.041	-0.165
-673.135	-200.000	0.063	-0.293
-672.120	-37.573	0.207	-0.112
-671.105	-78.651	0.163	-0.056
-670.091	-200.000	0.011	-0.085
-669.076	800.000	-0.042	0.162
-668.062	-22.411	0.042	0.026
-667.047	-67.268	0.194	-0.077
-666.032	52.314	0.259	0.251
-665.018	-104.496	-0.359	0.084
-664.003	52.287	-0.090	0.087
-662.989	800.000	0.141	-0.405
-661.974	-71.354	0.188	-0.071
-660.959	-200.000	-0.043	-0.211
-659.945	90.226	0.053	0.060
-658.930	45.471	0.208	0.195
-657.916	213.106	-0.237	0.380
-656.901	-77.509	0.111	-0.039
-655.886	-200.000	0.010	0.075
-654.872	-136.369	-0.238	-0.028
-653.857	-200.000	-0.087	0.402
-652.843	-111.603	-0.356	-0.073
-651.828	-29.685	-0.094	0.055
-650.814	-102.520	-0.118	0.029
-649.799	-106.963	0.097	-0.022
-648.784	-98.824	-0.290	-0.075
-647.770	-36.577	-0.077	-0.042
-646.755	-48.567	-0.132	0.064
-645.741	18.595	-0.082	-0.066
-644.726	800.000	-0.030	0.123
-643.711	-65.049	0.335	0.137
-642.697	154.078	-0.123	-0.172
-641.682	800.000	0.105	0.357
-640.668	-9.614	-0.326	-0.220
-639.653	-168.186	-0.376	0.015
-638.638	221.655	0.246	0.401
-637.624	167.599	-0.047	0.067
-636.609	-170.796	-0.278	-0.010
-635.595	-136.106	0.514	0.061
-634.580	-200.000	0.022	-0.454
-633.565	-200.000	0.051	-0.258
-632.551	-200.000	0.001	-0.028
-631.536	-135.757	-0.220	-0.026
-630.522	-200.000	0.014	-0.275
-629.507	-3.354	-0.409	-0.289
-628.492	-132.403	0.194	0.025
-627.478	74.992	0.034	-0.036
-626.463	-29.193	-0.390	0.227
-625.449	-132.386	0.204	-0.027
-624.434	664.149	-0.196	-0.513
-623.419	800.000	0.075	-0.275
-622.405	337.742	-0.011	-0.022
-621.390	-63.108	-0.287	-0.120
-620.376	389.224	0.210	0.440
-619.361	300.430	0.130	-0.243
-618.346	292.105	0.097	-0.180
-617.332	61.442	-0.299	0.302
-616.317	-80.432	0.372	0.126
-615.303	-68.213	-0.304	0.120
-614.288	-120.578	0.364	-0.062
-613.273	525.896	-0.069	-0.165
-612.259	-200.000	-0.003	0.115
-611.244	301.553	0.106	-0.199
-610.230	65.344	-0.198	0.202
-609.215	-12.162	-0.065	0.043
-608.201	146.340	-0.232	0.315
-607.186	-0.960	0.156	-0.112
-606.171	800.000	0.110	0.384
-605.157	800.000	-0.023	-0.085
-604.142	111.701	0.192	0.234
-603.128	43.366	0.140	0.130
-602.113	-148.316	-0.186	0.016
-601.098	-16.290	0.070	0.045
-600.084	-82.478	0.352	0.116
-599.069	-200.000	0.028	0.171
-598.055	-200.000	0.011	-0.052
-597.040	-48.662	0.368	-0.179
-596.025	-68.400	-0.060	0.024
-595.011	-83.237	-0.265	0.086
-593.996	-8.585	-0.201	-0.137
-592.982	-109.053	0.129	-0.028
-591.967	-87.703	-0.058	-0.018
-590.952	-79.571	-0.141	-0.048
-589.938	-81.145	-0.301	-0.101
-588.923	39.965	0.080	0.072
-587.909	-74.019	0.317	0.116
-586.894	205.125	0.134	0.210
-585.879	-115.874	-0.202	0.038
-584.865	-53.706	-0.042	-0.020
-583.850	15.321	-0.144	-0.114
-582.836	-200.000	0.021	0.124
-581.821	87.634	-0.101	-0.113
-580.806	-150.816	-0.362	-0.028
-579.792	-159.655	-0.089	0.005
-578.777	800.000	0.046	0.166
-577.763	-36.502	0.171	-0.093
-576.748	73.071	0.307	0.325
-575.733	-200.000	-0.003	0.274
-574.719	478.590	0.088	-0.201
-573.704	-200.000	-0.018	-0.258
-572.690	199.848	-0.106	-0.164
-571.675	-83.658	0.465	-0.150
-570.661	-5.392	-0.169	0.118
-569.646	104.522	-0.022	-0.026
-568.631	35.875	-0.114	-0.101
-567.617	462.777	0.081	0.184
-566.602	-200.000	-0.011	-0.084
-565.588	-200.000	-0.010	0.330
-564.573	-200.000	-0.013	-0.213
-563.558	99.236	-0.132	0.154
-562.544	-32.449	-0.329	-0.185
-561.529	-37.260	0.279	-0.151
-560.515	-87.836	-0.343	-0.104
-559.500	465.625	0.080	0.182
-558.485	-48.122	0.238	0.116
-557.471	-65.086	0.205	0.084
-556.456	800.000	-0.042	0.155
-555.442	-105.208	0.123	-0.028
-554.427	-116.508	-0.199	0.037
-553.412	800.000	0.101	-0.312
-552.398	-25.458	-0.091	0.054
-551.383	-104.690	-0.111	-0.026
-550.369	279.864	0.034	0.061
-549.354	126.008	0.148	0.189
-548.339	-129.836	-0.264	0.037
-547.325	183.875	-0.121	-0.180
-546.310	-200.000	0.092	-0.411
-545.296	800.000	0.028	-0.084
-544.281	306.552	-0.065	0.123
-543.266	-200.000	0.013	-0.156
-542.252	800.000	-0.070	0.299
-541.237	800.000	0.081	-0.269
-540.223	286.214	-0.083	0.152
-539.208	-51.900	-0.044	0.021
-538.193	800.000	0.052	0.189
-537.179	525.607	0.089	0.212
-536.164	-200.000	-0.043	0.340
-535.150	-66.200	-0.129	0.052
-534.135	13.986	-0.140	-0.110
-533.121	447.505	-0.187	0.416
-532.106	609.055	0.109	0.274
-531.091	-156.262	0.109	0.007
-530.077	349.699	0.066	0.132
-529.062	-61.307	0.147	0.062
-528.048	-56.555	-0.156	-0.070
-527.033	-200.000	0.004	-0.078
-526.018	683.975	-0.081	0.213
-525.004	800.000	-0.036	-0.158
-523.989	52.897	-0.041	0.039
-522.975	154.659	-0.049	0.068
-521.960	800.000	0.062	-0.222
-520.945	-132.319	-0.047	0.006
-519.931	-132.778	0.329	0.042
-518.916	44.419	0.077	-0.072
-517.902	-45.005	-0.341	0.171
-516.887	-4.736	0.289	-0.201
-515.872	45.969	-0.194	-0.181
-514.858	392.810	0.077	-0.161
-513.843	-96.130	0.059	0.016
-512.829	-37.631	-0.208	-0.112
-511.814	-200.000	0.014	-0.208
-510.799	70.945	-0.146	0.153
-509.785	-67.991	0.322	0.127
-508.770	40.181	-0.202	-0.183
-507.756	-200.000	-0.230	0.001
-506.741	24.996	0.064	0.053
-505.726	-115.481	0.175	0.033
-504.712	-191.350	0.222	-0.002
-503.697	597.618	-0.059	0.146
-502.683	-46.365	0.493	0.244
-501.668	-133.839	0.296	0.037
-500.653	-144.742	-0.228	-0.021
-499.639	121.915	0.048	0.060
-498.624	-200.000	0.012	-0.334
-497.610	-10.048	0.197	-0.132
-496.595	800.000	-0.042	0.119
-495.581	-200.000	-0.006	-0.107
-494.566	39.128	0.097	-0.087
-493.551	-34.151	-0.021	-0.012
-492.537	126.695	-0.017	0.021
-491.522	-200.000	-0.059	-0.319
-490.508	37.369	0.124	-0.111
-489.493	276.918	-0.120	-0.216
-488.478	-200.000	-0.013	0.181
-487.464	231.924	0.036	-0.060
-486.449	-113.247	0.128	0.025
-485.435	2.968	0.152	0.111
-484.420	-66.683	-0.241	-0.096
-483.405	183.495	0.143	0.213
-482.391	-200.000	-0.018	-0.081
-481.376	-22.672	-0.087	0.053
-480.362	800.000	0.042	-0.149
-479.347	287.485	-0.211	-0.385
-478.332	-127.242	-0.197	0.029
-477.318	-200.000	0.002	0.333
-476.303	219.743	-0.307	0.494
-475.289	-28.881	0.139	0.080
-474.274	-63.402	0.224	0.093
-473.259	74.332	-0.061	-0.065
-472.245	-128.416	-0.240	0.034
-471.230	-13.837	0.279	-0.181
-470.216	-200.000	-0.038	-0.199
-469.201	111.575	0.167	-0.203
-468.186	-85.916	-0.192	-0.060
-467.172	-48.446	0.138	-0.067
-466.157	-4.203	0.184	-0.128
-465.143	-191.017	-0.279	0.003
-464.128	435.904	-0.077	-0.170
-463.113	176.064	0.167	-0.245
-462.099	-103.015	0.089	0.021
-461.084	-42.357	0.262	0.135
-460.070	-156.006	0.018	0.001
-459.055	-200.000	-0.015	0.084
-458.040	763.294	-0.037	0.102
-457.026	408.349	0.040	-0.085
-456.011	74.375	-0.119	0.126
-454.997	481.079	-0.069	-0.158
-453.982	-200.000	-0.010	-0.072
-452.968	-167.269	-0.181	0.007
-451.953	-105.331	-0.096	-0.022
-450.938	-151.411	0.135	-0.010
-449.924	74.661	-0.143	0.151
-448.909	6.416	-0.267	0.199
-447.895	-39.661	0.281	-0.148
-446.880	800.000	-0.040	-0.153
-445.865	-25.526	0.186	0.111
-444.851	-105.199	-0.321	0.074
-443.836	800.000	0.096	-0.297
-442.822	208.631	-0.064	-0.101
-441.807	-117.917	-0.276	-0.050
-440.792	-75.226	0.059	-0.021
-439.778	-19.503	0.091	0.057
-438.763	185.690	-0.111	-0.166
-437.749	-149.688	0.402	0.032
-436.734	-200.000	0.006	-0.063
-435.719	427.986	-0.028	-0.062
-434.705	328.679	0.058	0.112
-433.690	178.723	0.081	-0.119
-432.676	-2.747	-0.081	-0.057
-431.661	-109.586	-0.243	0.052
-430.646	-27.341	-0.248	0.145
-429.632	800.000	0.025	-0.080
-428.617	316.170	0.176	-0.334
-427.603	404.900	0.124	-0.264
-426.588	225.391	0.206	-0.336
-425.573	-200.000	-0.020	-0.170
-424.559	800.000	-0.080	0.256
-423.544	-200.000	0.193	0.001
-422.530	-39.398	0.057	-0.030
-421.515	-21.843	-0.094	0.058
-420.500	-200.000	0.011	-0.137
-419.486	128.806	-0.079	0.101
-418.471	-61.969	0.099	0.042
-417.457	9.014	0.302	-0.229
-416.442	-13.602	0.333	-0.217
-415.428	-200.000	-0.063	0.369
-414.413	800.000	-0.073	0.287
-413.398	670.749	-0.023	-0.061
-412.384	-70.607	0.243	-0.092
-411.369	-200.000	-0.005	0.085
-410.355	-200.000	0.002	-0.092
-409.340	-200.000	-0.033	-0.230
-408.325	42.191	-0.082	0.075
-407.311	202.822	0.172	-0.267
-406.296	-37.637	-0.291	0.156
-405.282	0.561	-0.184	0.132
-404.267	-116.227	-0.180	-0.034
-403.252	370.319	0.156	0.318
-402.238	-34.402	-0.199	-0.110
-401.223	-78.371	0.099	0.034
-400.209	-77.271	-0.308	0.108
-399.194	-200.000	0.040	-0.200
-398.179	226.185	-0.090	0.147
-397.165	-200.000	0.008	0.106
-396.150	-18.238	0.157	-0.099
-395.136	-15.209	0.173	0.111
-394.121	-22.012	-0.245	0.149
-393.106	800.000	-0.062	-0.194
-392.092	-142.445	-0.226	-0.022
-391.077	-200.000	0.012	0.161
-390.063	264.370	-0.027	-0.047
-389.048	-181.618	-0.287	0.006
-388.033	-37.969	0.086	0.046
-387.019	-119.656	0.171	0.030
-386.004	46.684	-0.175	-0.163
-384.990	171.161	0.123	-0.177
-383.975	-20.559	0.082	-0.050
-382.960	-200.000	-0.014	-0.100
-381.946	36.281	-0.146	0.129
-380.931	-90.567	0.198	0.058
-379.917	-186.935	-0.130	-0.002
-378.902	-200.000	0.004	0.038
-377.888	29.027	0.163	0.139
-376.873	-128.830	-0.100	0.014
-375.858	70.984	0.045	0.047
-374.844	-12.423	-0.130	0.085
-373.829	-200.000	0.009	-0.267
-372.815	-2.817	-0.164	0.115
-371.800	800.000	0.026	0.102
-370.785	800.000	0.086	-0.272
-369.771	-27.628	0.326	0.190
-368.756	40.151	0.189	0.170
-367.742	-105.425	-0.100	-0.023
-366.727	-97.153	-0.267	-0.070
-365.712	-22.425	0.239	0.145
-364.698	497.143	-0.080	-0.184
-363.683	350.930	-0.026	0.051
-362.669	-50.391	-0.083	-0.039
-361.654	-53.648	-0.101	-0.046
-360.639	800.000	0.052	-0.161
-359.625	-200.000	0.010	0.202
-358.610	-158.928	-0.259	0.015
-357.596	800.000	0.061	-0.188
-356.581	-62.994	0.390	0.161
-355.566	51.060	-0.290	0.276
-354.552	-51.330	0.376	-0.176
-353.537	33.285	0.018	0.016
-352.523	35.245	-0.181	0.159
-351.508	50.208	0.277	-0.262
-350.493	-46.568	0.114	-0.056
-349.479	800.000	0.023	-0.075
-348.464	8.840	-0.100	-0.076
-347.450	-16.979	0.284	-0.180
-346.435	-44.635	-0.233	0.117
-345.420	800.000	-0.048	-0.145
-344.406	-105.023	-0.090	-0.021
-343.391	185.939	0.172	-0.256
-342.377	-121.626	-0.304	0.050
-341.362	563.867	-0.084	0.203
-340.348	-200.000	0.004	0.279
-339.333	90.812	-0.119	0.133
-338.318	-83.996	0.099	-0.031
-337.304	202.405	-0.149	-0.230
-336.289	-37.006	-0.160	-0.086
-335.275	49.697	-0.073	0.068
-334.260	-155.252	-0.274	0.018
-333.245	-200.000	0.000	0.065
-332.231	-81.427	0.153	0.050
-331.216	135.683	-0.138	0.180
-330.202	687.829	0.114	0.298
-329.187	78.281	0.122	0.131
-328.172	-29.115	-0.277	0.159
-327.158	-132.017	0.132	0.017
-326.143	-2.729	-0.143	0.100
-325.129	179.995	0.160	-0.235
-324.114	-200.000	0.009	-0.154
-323.099	-200.000	0.002	0.055
-322.085	-11.451	0.090	0.059
-321.070	345.325	0.083	0.163
-320.056	-200.000	-0.006	-0.162
-319.041	85.757	0.137	0.151
-318.026	456.805	0.058	0.129
-317.012	-165.897	-0.455	0.020
-315.997	142.482	0.281	0.374
-314.983	55.487	-0.255	0.247
-313.968	-200.000	-0.021	-0.314
-312.953	-13.720	0.104	0.068
-311.939	-200.000	-0.110	-0.000
-310.924	97.425	0.116	0.134
-309.910	-190.363	0.049	0.001
-308.895	-76.378	-0.197	0.069
-307.880	367.509	-0.057	0.115
-306.866	-79.378	0.037	-0.012
-305.851	-200.000	-0.002	0.246
-304.837	76.575	0.270	0.287
-303.822	-200.000	-0.054	-0.282
-302.807	800.000	-0.088	-0.253
-301.793	800.000	0.052	0.176
-300.778	-126.364	-0.400	0.060
-299.764	-76.120	0.289	0.102
-298.749	800.000	0.066	0.280
-297.735	267.458	-0.155	-0.271
-296.720	127.180	-0.056	-0.071
-295.705	-122.082	0.252	0.041
-294.691	46.475	-0.093	0.087
-293.676	-70.385	-0.240	0.091
-292.662	-200.000	-0.019	-0.192
-291.647	-200.000	-0.022	0.160
-290.632	596.252	0.171	0.423
-289.618	125.859	-0.086	-0.109
-288.603	426.956	0.005	-0.012
-287.589	48.709	-0.128	-0.120
-286.574	598.285	0.078	0.194
-285.559	800.000	0.100	0.307
-284.545	-62.768	0.202	-0.084
-283.530	800.000	0.093	0.280
-282.516	-200.000	-0.041	0.225
-281.501	-128.899	-0.289	0.041
-280.486	-200.000	0.020	0.104
-279.472	-19.009	-0.254	0.158
-278.457	-200.000	0.056	-0.274
-277.443	519.115	-0.046	-0.107
-276.428	-42.257	0.174	0.089
-275.413	267.564	0.065	-0.114
-274.399	-200.000	0.058	-0.284
-273.384	-200.000	0.017	0.078
-272.370	11.653	0.079	-0.061
-271.355	663.016	-0.131	-0.338
-270.340	-52.816	-0.253	-0.116
-269.326	-97.514	0.243	0.063
-268.311	-200.000	-0.006	0.259
-267.297	781.843	0.048	0.131
-266.282	167.814	-0.083	-0.119
-265.267	-200.000	0.003	0.017
-264.253	13.206	0.235	0.182
-263.238	-200.000	-0.035	-0.256
-262.224	-62.049	0.388	-0.162
-261.209	58.079	-0.288	-0.281
-260.195	275.888	0.075	-0.133
-259.180	800.000	0.074	0.313
-258.165	-29.982	0.370	0.210
-257.151	68.399	-0.034	0.034
-256.136	236.594	-0.118	-0.195
-255.122	400.870	0.135	-0.283
-254.107	255.841	-0.056	0.096
-253.092	-138.684	0.013	-0.001
-252.078	-200.000	0.041	-0.407
-251.063	-48.988	-0.202	-0.097
-250.049	-59.081	0.111	-0.048
-249.034	-173.355	-0.341	0.010
-248.019	-91.184	0.299	-0.085
-247.005	-161.737	-0.314	0.016
-245.990	-18.479	-0.227	-0.142
-244.976	-200.000	-0.030	-0.229
-243.961	119.792	0.172	-0.212
-242.946	-47.379	-0.113	0.055
-241.932	412.456	0.183	0.389
-240.917	182.475	0.069	-0.102
-239.903	160.325	0.071	0.099
-238.888	-78.835	-0.149	0.051
-237.873	160.822	0.187	-0.260
-236.859	14.978	-0.123	0.096
-235.844	19.652	-0.108	0.087
-234.830	124.509	-0.049	-0.061
-233.815	102.494	0.129	0.150
-232.800	-200.000	0.039	-0.246
-231.786	601.069	-0.071	-0.175
-230.771	440.566	0.183	0.399
-229.757	-200.000	-0.070	0.313
-228.742	137.390	-0.025	0.033
-227.727	800.000	-0.062	-0.201
-226.713	-12.099	0.148	-0.096
-225.698	-200.000	0.091	0.455
-224.684	24.627	-0.123	-0.102
-223.669	33.461	0.094	-0.081
-222.655	-16.761	0.358	0.226
-221.640	-23.887	0.232	0.139
-220.625	-200.000	-0.030	0.163
-219.611	-200.000	0.056	-0.279
-218.596	800.000	0.052	-0.191
-217.582	-68.452	0.256	-0.099
-216.567	33.968	0.080	0.069
-215.552	136.048	-0.189	-0.246
-214.538	-132.747	0.248	-0.032
-213.523	658.278	-0.038	-0.098
-212.509	266.079	-0.195	0.340
-211.494	-200.000	-0.012	-0.135
-210.479	-91.210	0.211	0.060
-209.465	800.000	-0.031	0.119
-208.450	800.000	-0.081	-0.227
-207.436	-23.880	-0.066	-0.039
-206.421	-48.347	-0.257	0.123
-205.406	110.523	0.151	0.181
-204.392	75.816	0.110	-0.116
-203.377	-91.385	-0.296	-0.084
-202.363	-143.880	0.146	0.014
-201.348	324.653	-0.077	0.146
-200.333	110.962	0.091	0.109
-199.319	101.577	-0.133	0.154
-198.304	-30.126	-0.312	-0.177
-197.290	-200.000	-0.018	0.083
-196.275	-200.000	-0.038	-0.165
-195.260	-200.000	0.112	0.494
-194.246	6.420	-0.258	-0.191
-193.231	-31.505	0.207	-0.116
-192.217	-200.000	-0.014	-0.098
-191.202	-165.299	0.381	0.017
-190.187	123.193	0.164	-0.205
-189.173	125.534	0.330	-0.415
-188.158	728.035	0.095	-0.253
-187.144	-200.000	-0.021	-0.233
-186.129	-93.486	0.330	-0.091
-185.114	-6.487	0.095	-0.065
-184.100	245.650	-0.067	0.112
-183.085	87.933	-0.257	0.284
-182.071	-138.167	-0.169	0.019
-181.056	-114.250	-0.147	-0.028
-180.042	136.372	0.148	-0.192
-179.027	-77.109	-0.192	-0.067
-178.012	321.318	-0.022	0.042
-176.998	-107.644	-0.293	0.064
-175.983	800.000	-0.042	-0.168
-174.969	-119.360	0.275	0.048
-173.954	-86.089	0.222	-0.068
-172.939	413.873	-0.098	0.208
-171.925	-46.900	-0.113	-0.055
-170.910	-4.575	-0.163	-0.112
-169.896	190.516	0.164	0.245
-168.881	301.729	-0.139	-0.255
-167.866	43.803	-0.140	-0.128
-166.852	-137.904	-0.298	0.033
-165.837	99.643	0.072	-0.083
-164.823	-63.632	0.139	-0.057
-163.808	622.615	0.096	-0.241
-162.793	-75.482	0.222	0.079
-161.779	-200.000	-0.050	0.260
-160.764	83.368	-0.240	-0.261
-159.750	288.437	0.195	0.351
-158.735	-19.839	0.032	0.019
-157.720	-51.092	0.187	0.087
-156.706	-21.327	-0.079	0.048
-155.691	800.000	0.050	0.203
-154.677	-200.000	0.053	-0.233
-153.662	800.000	0.016	0.044
-152.647	131.437	0.058	0.074
-151.633	404.262	-0.119	0.249
-150.618	19.639	0.289	-0.231
-149.604	0.329	0.288	0.205
-148.589	211.679	-0.121	0.190
-147.574	489.566	0.172	-0.391
-146.560	-166.337	0.281	-0.012
-145.545	236.462	0.125	-0.205
-144.531	-23.879	0.142	0.085
-143.516	-147.702	0.294	0.025
-142.502	51.450	0.142	0.134
-141.487	351.199	-0.178	0.350
-140.472	743.820	0.136	0.363
-139.458	-75.236	0.076	0.027
-138.443	54.642	-0.118	-0.113
-137.429	102.407	0.191	0.222
-136.414	56.591	-0.277	0.268
-135.399	101.870	0.174	0.202
-134.385	-66.300	0.175	0.069
-133.370	105.221	0.179	0.210
-132.356	187.414	0.110	-0.163
-131.341	-110.929	0.055	-0.011
-130.326	-168.091	0.225	0.009
-129.312	800.000	-0.012	0.048
-128.297	-200.000	-0.036	0.201
-127.283	-200.000	-0.029	-0.151
-126.268	82.788	-0.185	0.199
-125.253	233.749	-0.058	-0.095
-124.239	-200.000	-0.021	0.183
-123.224	-200.000	0.030	-0.154
-122.210	-19.661	0.137	0.084
-121.195	339.109	0.057	0.110
