DTS Sentinel unit serial number:	SN413079Multiplexer serial number:	ORYXHardware model number:	OX4-SRSoftware version number:	ORYX F/W v4.00 Oryx Data Collector v3.7.2.0data status	okinstallation	princeton_trtdifferential loss correction	single-endedforward channel	channel 4reverse channel	N/Adate	2019/09/11time	22:47:11forward acquisition time	60.00reverse acquisition time	0.00gamma	496.2192k internal	0.2308k external	0.2308temperature offset calibration	1.0073default loss term (dB/km)	0.3790temperature slope calibration	1.0000multiplexer offset coefficient	1.0000multiplexer slope coefficient	1.0000fibre end	0.00T internal ref (°C)	34.78T ext. ref 1 (°C)	1.76T ext. ref 2 (°C)	29.10length (m)	temperature (°C)	Stokes	anti-Stokes-747.200	-200.000	-0.013	0.341
-746.185	-37.748	0.220	0.119
-745.171	-116.912	-0.140	-0.026
-744.156	-57.498	-0.091	-0.041
-743.142	474.548	-0.121	0.278
-742.127	800.000	0.062	0.264
-741.112	-164.108	0.163	-0.008
-740.098	-38.218	-0.231	0.124
-739.083	800.000	-0.066	-0.268
-738.069	-200.000	0.006	-0.250
-737.054	532.353	-0.071	-0.172
-736.039	312.002	0.177	0.338
-735.025	-108.534	0.180	-0.039
-734.010	-200.000	0.021	-0.272
-732.996	-14.959	0.021	-0.014
-731.981	-30.419	0.385	-0.222
-730.966	48.148	0.256	-0.243
-729.952	-42.281	-0.105	-0.055
-728.937	266.571	-0.139	-0.247
-727.923	-88.030	-0.074	0.023
-726.908	-16.214	0.092	0.060
-725.894	800.000	0.073	-0.250
-724.879	-5.909	0.139	-0.096
-723.864	800.000	0.054	-0.184
-722.850	68.529	0.082	-0.085
-721.835	86.793	-0.118	-0.133
-720.821	106.158	0.064	0.077
-719.806	563.665	-0.160	0.394
-718.791	783.852	-0.081	-0.227
-717.777	76.529	0.076	-0.082
-716.762	-38.704	0.095	0.051
-715.748	-187.365	0.066	-0.001
-714.733	-200.000	0.002	0.018
-713.718	360.720	0.087	0.177
-712.704	-14.410	-0.170	-0.111
-711.689	27.093	0.153	0.130
-710.675	-80.934	-0.178	-0.060
-709.660	800.000	0.037	-0.111
-708.645	-115.407	-0.170	-0.033
-707.631	119.273	0.147	0.185
-706.616	-200.000	-0.057	-0.267
-705.602	123.151	-0.128	0.162
-704.587	26.341	0.271	0.230
-703.572	-99.996	-0.097	0.024
-702.558	-121.328	-0.151	0.026
-701.543	13.101	-0.131	0.103
-700.529	137.918	-0.226	-0.300
-699.514	-112.079	0.245	-0.050
-698.499	-200.000	-0.080	-0.465
-697.485	1.689	0.120	0.088
-696.470	2.949	-0.330	0.243
-695.456	97.234	-0.183	-0.213
-694.441	103.308	-0.183	0.218
-693.426	431.813	-0.036	0.079
-692.412	-101.615	-0.181	0.045
-691.397	254.554	-0.094	-0.163
-690.383	42.809	-0.107	-0.099
-689.368	128.641	-0.127	0.164
-688.354	181.954	0.096	0.144
-687.339	106.150	-0.125	-0.150
-686.324	-43.703	-0.143	0.073
-685.310	800.000	0.079	0.295
-684.295	-38.343	0.223	0.120
-683.281	7.849	0.184	-0.140
-682.266	340.816	0.051	0.102
-681.251	20.869	0.027	-0.022
-680.237	-44.562	0.136	-0.069
-679.222	-75.367	0.386	-0.139
-678.208	365.337	0.138	-0.282
-677.193	800.000	-0.057	-0.213
-676.178	-44.334	-0.126	0.064
-675.164	-200.000	0.042	0.260
-674.149	280.718	-0.133	0.241
-673.135	-200.000	-0.012	0.144
-672.120	16.455	-0.024	0.019
-671.105	394.850	0.102	-0.216
-670.091	800.000	0.114	-0.339
-669.076	-200.000	0.047	-0.241
-668.062	-168.164	-0.168	-0.007
-667.047	800.000	0.037	-0.129
-666.032	-39.379	-0.147	0.078
-665.018	314.864	0.074	0.142
-664.003	160.675	0.115	0.162
-662.989	259.220	-0.163	-0.285
-661.974	-175.615	-0.355	-0.010
-660.959	-68.735	0.087	-0.034
-659.945	-149.405	-0.401	-0.032
-658.930	-200.000	-0.029	0.284
-657.916	90.197	-0.289	-0.328
-656.901	-200.000	-0.037	0.538
-655.886	63.168	-0.089	0.090
-654.872	235.211	-0.254	0.425
-653.857	19.396	0.133	0.108
-652.843	-41.528	0.264	-0.137
-651.828	-133.752	0.096	0.012
-650.814	-11.914	0.200	0.133
-649.799	-143.354	-0.221	0.021
-648.784	-200.000	-0.089	0.566
-647.770	-116.226	-0.128	-0.024
-646.755	90.384	-0.130	0.147
-645.741	-19.723	0.307	0.192
-644.726	-200.000	-0.051	-0.231
-643.711	-134.310	-0.139	-0.017
-642.697	-2.453	0.121	0.086
-641.682	75.887	-0.170	0.182
-640.668	272.874	0.037	-0.066
-639.653	147.460	-0.113	0.154
-638.638	109.657	-0.062	-0.076
-637.624	128.053	-0.213	0.275
-636.609	-107.568	0.322	-0.071
-635.595	-200.000	0.008	-0.168
-634.580	-98.645	0.157	-0.040
-633.565	440.071	0.120	-0.265
-632.551	-200.000	0.012	0.163
-631.536	35.378	0.231	-0.205
-630.522	-146.510	-0.422	0.037
-629.507	-91.549	0.123	-0.036
-628.492	273.443	0.019	-0.034
-627.478	800.000	-0.071	-0.226
-626.463	355.868	-0.127	-0.256
-625.449	40.352	-0.227	-0.206
-624.434	-200.000	-0.038	0.243
-623.419	-44.465	-0.094	-0.048
-622.405	800.000	0.042	-0.164
-621.390	-125.057	0.400	0.062
-620.376	-138.276	-0.021	0.002
-619.361	-58.147	-0.142	-0.062
-618.346	-21.251	0.194	-0.120
-617.332	40.126	-0.124	0.113
-616.317	-200.000	-0.049	-0.241
-615.303	-96.257	0.203	0.054
-614.288	15.253	-0.307	0.243
-613.273	-86.888	-0.029	0.009
-612.259	-26.402	0.229	0.136
-611.244	542.594	-0.094	-0.226
-610.230	-47.322	-0.397	0.195
-609.215	800.000	-0.062	-0.194
-608.201	-52.355	-0.352	-0.165
-607.186	178.958	-0.141	0.208
-606.171	-200.000	0.033	-0.214
-605.157	130.256	-0.050	0.065
-604.142	2.265	-0.167	-0.122
-603.128	357.906	-0.047	0.096
-602.113	-99.389	-0.203	-0.052
-601.098	-73.737	0.314	-0.116
-600.084	504.879	0.044	0.103
-599.069	456.496	-0.084	0.189
-598.055	-28.909	0.266	-0.154
-597.040	365.994	-0.098	0.199
-596.025	-113.839	0.181	0.036
-595.011	177.179	0.069	-0.101
-593.996	421.857	-0.012	0.025
-592.982	-20.143	-0.008	-0.005
-591.967	-200.000	-0.031	0.235
-590.952	800.000	0.051	-0.218
-589.938	146.578	0.314	-0.426
-588.923	800.000	0.046	0.159
-587.909	-95.016	0.236	0.064
-586.894	138.843	-0.053	0.070
-585.879	800.000	-0.029	0.106
-584.865	-83.725	0.106	0.034
-583.850	132.144	-0.117	0.153
-582.836	-86.569	0.231	0.072
-581.821	-160.100	0.173	-0.009
-580.806	169.606	-0.131	-0.189
-579.792	-108.077	0.330	-0.072
-578.777	-77.113	0.214	-0.075
-577.763	-120.554	-0.124	-0.021
-576.748	800.000	0.056	0.194
-575.733	-200.000	-0.029	0.138
-574.719	800.000	-0.064	-0.258
-573.704	800.000	0.054	-0.213
-572.690	-70.959	0.329	-0.125
-571.675	92.839	-0.084	-0.096
-570.661	37.380	-0.083	-0.074
-569.646	699.733	-0.137	-0.363
-568.631	341.416	0.080	-0.158
-567.617	298.530	-0.104	-0.194
-566.602	-75.362	0.349	0.126
-565.588	-89.625	0.269	0.080
-564.573	-191.557	0.123	0.001
-563.558	-142.447	-0.344	-0.034
-562.544	-200.000	-0.034	0.440
-561.529	322.177	0.057	0.110
-560.515	371.833	0.034	0.069
-559.500	378.005	0.113	0.234
-558.485	23.294	-0.133	0.110
-557.471	52.100	0.323	0.311
-556.456	-200.000	0.030	-0.398
-555.442	41.835	0.165	0.151
-554.427	-16.331	0.026	0.017
-553.412	138.682	-0.236	0.313
-552.398	21.182	0.189	-0.155
-551.383	-70.705	0.315	0.120
-550.369	-34.777	-0.420	0.231
-549.354	800.000	0.036	-0.134
-548.339	-127.153	0.306	-0.045
-547.325	-56.814	-0.114	-0.051
-546.310	800.000	-0.029	0.093
-545.296	189.552	0.080	-0.121
-544.281	401.826	0.038	0.080
-543.266	7.398	0.105	-0.079
-542.252	741.752	0.049	-0.132
-541.237	-176.111	0.206	0.005
-540.223	-175.557	-0.349	0.010
-539.208	625.830	0.072	-0.184
-538.193	359.900	-0.159	-0.322
-537.179	40.172	0.169	0.154
-536.164	289.893	-0.123	-0.225
-535.150	-89.526	-0.151	0.045
-534.135	-44.270	-0.226	0.114
-533.121	800.000	-0.016	0.046
-532.106	-118.941	-0.247	0.044
-531.091	-200.000	0.003	-0.133
-530.077	-200.000	-0.003	-0.051
-529.062	34.333	0.087	0.076
-528.048	78.461	0.254	-0.274
-527.033	135.914	0.110	-0.144
-526.018	-149.795	-0.078	0.006
-525.004	-64.160	0.084	-0.034
-523.989	-200.000	-0.004	-0.063
-522.975	-49.176	-0.135	-0.065
-521.960	306.176	-0.093	0.174
-520.945	15.416	0.207	-0.164
-519.931	-89.054	-0.046	-0.014
-518.916	310.143	-0.181	-0.341
-517.902	-73.810	0.236	-0.086
-516.887	592.063	0.123	0.306
-515.872	-138.763	0.217	-0.024
-514.858	-200.000	0.002	-0.062
-513.843	150.034	-0.162	0.222
-512.829	800.000	-0.109	0.356
-511.814	-96.967	-0.201	-0.053
-510.799	-133.176	-0.109	-0.014
-509.785	496.581	-0.065	0.151
-508.770	-160.871	-0.206	0.011
-507.756	-200.000	-0.043	-0.192
-506.741	-99.806	0.156	-0.039
-505.726	800.000	-0.107	-0.348
-504.712	-33.157	-0.313	0.175
-503.697	145.698	0.136	-0.184
-502.683	-185.794	-0.296	-0.004
-501.668	-200.000	0.032	0.183
-500.653	-78.023	0.316	-0.110
-499.639	-200.000	-0.025	-0.262
-498.624	140.678	-0.119	-0.158
-497.610	-43.136	-0.084	0.043
-496.595	72.834	0.155	-0.163
-495.581	330.443	-0.114	-0.221
-494.566	10.493	-0.057	-0.044
-493.551	759.195	0.038	0.105
-492.537	35.890	-0.130	0.115
-491.522	199.758	-0.194	-0.300
-490.508	75.523	0.240	-0.255
-489.493	-200.000	0.026	-0.151
-488.478	11.882	-0.151	0.117
-487.464	98.441	-0.113	-0.131
-486.449	800.000	0.100	-0.355
-485.435	133.098	-0.189	-0.246
-484.420	278.638	-0.120	-0.215
-483.405	-96.786	0.315	0.083
-482.391	-95.216	-0.095	-0.026
-481.376	-105.383	-0.482	-0.110
-480.362	185.595	0.347	-0.519
-479.347	-200.000	0.048	0.235
-478.332	-200.000	0.031	0.262
-477.318	81.694	-0.087	-0.095
-476.303	42.535	0.041	0.038
-475.289	-73.091	0.202	0.074
-474.274	-200.000	-0.039	0.231
-473.259	800.000	-0.104	0.310
-472.245	73.671	-0.109	0.115
-471.230	91.532	-0.126	0.143
-470.216	-200.000	0.029	0.239
-469.201	-85.022	0.159	0.050
-468.186	-141.357	-0.208	0.021
-467.172	213.670	-0.152	-0.241
-466.157	-22.224	-0.212	-0.130
-465.143	800.000	-0.008	0.025
-464.128	-200.000	0.011	0.245
-463.113	253.543	0.060	0.102
-462.099	12.579	-0.092	0.071
-461.084	-130.426	0.258	0.035
-460.070	-200.000	-0.042	-0.202
-459.055	40.389	0.081	-0.073
-458.040	-200.000	0.038	-0.255
-457.026	800.000	0.038	-0.145
-456.011	-200.000	-0.003	-0.060
-454.997	-127.580	0.270	0.039
-453.982	193.549	-0.106	0.162
-452.968	232.040	-0.033	0.054
-451.953	115.266	0.099	-0.122
-450.938	800.000	0.033	0.096
-449.924	386.268	0.089	0.184
-448.909	19.268	0.164	-0.132
-447.895	305.373	-0.158	0.296
-446.880	236.732	-0.207	-0.345
-445.865	-200.000	0.026	0.234
-444.851	57.415	-0.171	-0.168
-443.836	92.111	-0.155	-0.176
-442.822	-200.000	-0.020	0.247
-441.807	51.600	-0.169	0.162
-440.792	-75.559	0.216	-0.077
-439.778	-42.328	0.096	-0.049
-438.763	-200.000	0.003	-0.171
-437.749	-115.656	-0.328	0.062
-436.734	-44.579	0.304	0.153
-435.719	800.000	-0.114	-0.415
-434.705	-200.000	0.010	-0.166
-433.690	-200.000	-0.023	0.249
-432.676	179.208	0.149	0.219
-431.661	-84.281	0.066	-0.021
-430.646	-200.000	-0.043	0.342
-429.632	29.023	0.032	-0.027
-428.617	-200.000	0.025	0.210
-427.603	-88.728	-0.351	-0.105
-426.588	139.467	0.102	0.135
-425.573	-127.916	-0.142	0.020
-424.559	800.000	-0.084	0.235
-423.544	-137.543	0.158	0.018
-422.530	-168.796	-0.230	-0.009
-421.515	-171.824	0.176	-0.006
-420.500	72.438	0.172	0.180
-419.486	53.540	0.079	0.076
-418.471	25.280	-0.332	-0.277
-417.457	-60.240	-0.416	-0.178
-416.442	66.086	0.097	-0.098
-415.428	-91.654	-0.267	-0.076
-414.413	-24.616	0.153	0.091
-413.398	13.763	0.238	0.186
-412.384	61.716	-0.108	-0.108
-411.369	-70.110	0.265	-0.101
-410.355	-130.352	-0.156	0.021
-409.340	-15.379	-0.042	-0.027
-408.325	110.227	-0.195	0.235
-407.311	34.324	-0.284	-0.249
-406.296	-24.085	0.205	-0.123
-405.282	588.773	-0.072	-0.178
-404.267	800.000	0.054	0.167
-403.252	-172.795	0.242	-0.008
-402.238	16.323	-0.180	-0.142
-401.223	82.605	-0.209	-0.227
-400.209	-75.220	-0.117	0.042
-399.194	-175.898	0.161	-0.004
-398.179	108.218	0.192	0.229
-397.165	-46.137	-0.265	-0.131
-396.150	-24.726	-0.192	-0.114
-395.136	800.000	-0.104	0.453
-394.121	-57.023	-0.075	-0.033
-393.106	-181.061	0.074	-0.001
-392.092	-52.248	-0.203	0.094
-391.077	80.551	-0.107	-0.115
-390.063	107.190	0.097	-0.116
-389.048	85.298	-0.236	0.260
-388.033	132.696	0.078	0.101
-387.019	-64.177	-0.105	0.043
-386.004	-142.562	-0.099	0.010
-384.990	-200.000	-0.005	0.352
-383.975	-62.818	0.439	-0.182
-382.960	189.444	-0.131	-0.197
-381.946	-200.000	-0.012	0.122
-380.931	-53.003	0.333	-0.154
-379.917	-16.257	-0.089	0.057
-378.902	263.078	-0.125	-0.217
-377.888	-200.000	0.003	0.315
-376.873	5.754	0.110	-0.081
-375.858	-28.626	0.225	0.130
-374.844	-154.628	-0.346	0.023
-373.829	-4.380	-0.291	-0.202
-372.815	54.575	-0.131	-0.127
-371.800	-200.000	0.041	0.217
-370.785	-65.600	-0.265	-0.106
-369.771	-44.238	-0.045	0.023
-368.756	-130.896	-0.145	-0.019
-367.742	-200.000	0.032	0.310
-366.727	-13.559	0.335	0.217
-365.712	-55.914	-0.176	-0.079
-364.698	-41.315	0.227	0.117
-363.683	-153.420	0.221	-0.015
-362.669	205.853	0.179	0.278
-361.654	-84.948	-0.217	0.068
-360.639	-151.505	-0.345	0.026
-359.625	-172.963	-0.126	0.004
-358.610	-200.000	0.025	0.316
-357.596	72.738	-0.145	0.151
-356.581	-130.076	0.205	0.028
-355.566	800.000	-0.174	0.502
-354.552	485.215	-0.108	0.245
-353.537	306.441	0.207	0.386
-352.523	573.738	-0.110	0.268
-351.508	-49.800	-0.196	0.093
-350.493	-45.028	0.342	-0.170
-349.479	-200.000	0.123	0.000
-348.464	-49.134	-0.126	-0.060
-347.450	-16.883	-0.171	-0.108
-346.435	800.000	0.067	-0.203
-345.420	253.332	-0.086	-0.147
-344.406	234.617	0.208	0.344
-343.391	89.282	0.152	0.169
-342.377	-21.471	-0.247	-0.151
-341.362	23.987	-0.204	-0.169
-340.348	-70.419	-0.200	0.076
-339.333	800.000	0.111	-0.316
-338.318	-130.180	0.152	-0.021
-337.304	-57.724	-0.081	-0.036
-336.289	-86.271	0.167	-0.051
-335.275	-200.000	0.027	-0.216
-334.260	-200.000	-0.054	-0.293
-333.245	-109.477	-0.197	0.042
-332.231	-16.282	0.151	0.096
-331.216	-1.519	0.173	0.122
-330.202	-102.706	-0.300	0.071
-329.187	-200.000	-0.004	-0.028
-328.172	589.407	-0.062	0.152
-327.158	526.418	0.200	0.470
-326.143	595.677	-0.116	-0.286
-325.129	635.475	0.096	-0.244
-324.114	800.000	0.020	-0.085
-323.099	-200.000	-0.023	-0.123
-322.085	-14.335	0.083	-0.054
-321.070	-85.681	-0.121	0.038
-320.056	6.291	0.179	0.133
-319.041	-200.000	0.182	-0.000
-318.026	800.000	0.059	-0.188
-317.012	145.898	0.199	-0.267
-315.997	-200.000	0.018	-0.322
-314.983	800.000	0.124	0.396
-313.968	74.389	-0.169	0.178
-312.953	505.468	-0.073	0.169
-311.939	113.886	-0.149	0.181
-310.924	226.349	-0.212	-0.343
-309.910	-200.000	-0.001	-0.134
-308.895	34.249	-0.315	-0.274
-307.880	-5.315	0.114	-0.078
-306.866	-106.542	-0.211	-0.047
-305.851	106.258	0.173	0.205
-304.837	-58.253	-0.200	-0.087
-303.822	-146.613	0.019	-0.002
-302.807	358.358	0.121	0.241
-301.793	-200.000	0.014	0.092
-300.778	800.000	0.029	0.103
-299.764	-119.950	0.376	0.064
-298.749	-200.000	0.001	-0.125
-297.735	-69.209	-0.153	0.059
-296.720	-200.000	-0.007	0.319
-295.705	-200.000	0.036	-0.174
-294.691	-200.000	0.006	-0.049
-293.676	557.175	-0.113	0.272
-292.662	104.571	-0.128	-0.151
-291.647	-123.110	-0.099	0.016
-290.632	224.953	0.261	-0.421
-289.618	-100.549	0.134	-0.033
-288.603	-37.009	0.041	-0.022
-287.589	-91.740	0.165	-0.047
-286.574	160.420	0.266	0.370
-285.559	609.247	-0.042	0.106
-284.545	-14.079	0.135	0.087
-283.530	-57.894	0.125	0.055
-282.516	3.987	0.278	0.203
-281.501	-26.922	0.297	0.173
-280.486	-60.505	-0.041	-0.017
-279.472	164.358	0.129	0.182
-278.457	-127.723	0.358	-0.052
-277.443	-200.000	0.094	0.567
-276.428	-166.019	-0.281	-0.012
-275.413	-173.078	0.261	-0.008
-274.399	21.981	0.084	-0.069
-273.384	-52.740	0.240	-0.110
-272.370	-177.957	0.264	0.006
-271.355	-115.786	-0.183	-0.034
-270.340	-0.077	-0.116	0.082
-269.326	800.000	0.020	0.082
-268.311	80.900	0.041	-0.044
-267.297	20.088	-0.104	0.084
-266.282	38.126	0.142	0.126
-265.267	77.317	-0.244	0.259
-264.253	-156.184	-0.185	-0.012
-263.238	-103.047	0.292	0.069
-262.224	453.141	-0.062	-0.137
-261.209	-200.000	-0.023	0.601
-260.195	59.894	-0.126	-0.124
-259.180	-132.112	-0.296	0.038
-258.165	289.472	-0.074	0.134
-257.151	3.657	0.092	-0.067
-256.136	-115.138	0.197	0.037
-255.122	-22.249	0.181	-0.109
-254.107	25.296	0.155	0.128
-253.092	-72.888	0.059	-0.022
-252.078	258.656	-0.245	-0.421
-251.063	-152.636	0.173	0.012
-250.049	-200.000	-0.117	-0.575
-249.034	147.772	0.238	-0.320
-248.019	-200.000	-0.020	-0.305
-247.005	35.248	0.071	-0.062
-245.990	-124.269	-0.282	0.044
-244.976	148.560	-0.126	-0.169
-243.961	-200.000	-0.004	0.245
-242.946	119.405	-0.168	-0.208
-241.932	230.541	-0.233	-0.380
-240.917	144.797	-0.142	-0.189
-239.903	5.614	-0.451	-0.332
-238.888	208.625	0.127	0.198
-237.873	-68.976	0.176	0.068
-236.859	213.022	0.099	-0.156
-235.844	59.396	0.174	0.171
-234.830	601.737	-0.157	-0.390
-233.815	349.632	-0.067	0.131
-232.800	70.413	0.245	-0.252
-231.786	800.000	0.028	-0.084
-230.771	68.844	0.067	-0.069
-229.757	800.000	-0.093	-0.353
-228.742	71.448	0.149	0.154
-227.727	-200.000	0.012	0.082
-226.713	-144.836	0.075	-0.007
-225.698	-200.000	0.085	0.575
-224.684	156.726	0.284	0.391
-223.669	-200.000	0.034	0.240
-222.655	202.446	0.103	0.159
-221.640	-200.000	0.027	0.199
-220.625	-74.954	-0.235	-0.084
-219.611	103.981	-0.077	-0.090
-218.596	-143.487	0.301	0.029
-217.582	17.509	-0.224	0.178
-216.567	-86.008	0.057	-0.018
-215.552	-102.874	-0.153	-0.036
-214.538	-46.903	-0.207	-0.101
-213.523	24.689	-0.126	-0.104
-212.509	-135.472	-0.308	0.037
-211.494	96.825	0.214	-0.244
-210.479	800.000	-0.069	-0.301
-209.465	-181.878	0.151	0.003
-208.450	268.312	-0.042	-0.072
-207.436	158.012	0.109	-0.150
-206.421	800.000	0.068	-0.220
-205.406	7.619	0.153	-0.114
-204.392	-37.016	0.139	0.074
-203.377	33.044	0.159	0.137
-202.363	28.295	-0.130	-0.109
-201.348	-191.791	0.248	0.002
-200.333	-200.000	0.024	0.331
-199.319	-200.000	0.023	0.140
-198.304	-124.003	0.212	-0.033
-197.290	70.859	-0.156	0.161
-196.275	37.198	-0.148	0.130
-195.260	19.449	0.053	0.042
-194.246	448.966	-0.070	0.154
-193.231	68.423	-0.168	-0.171
-192.217	-200.000	-0.014	0.106
-191.202	-9.828	0.328	0.217
-190.187	-2.673	-0.212	-0.147
-189.173	190.632	-0.094	0.141
-188.158	-100.675	-0.053	0.013
-187.144	800.000	0.094	-0.328
-186.129	177.700	0.241	-0.350
-185.114	800.000	-0.062	0.178
-184.100	-1.199	0.164	-0.115
-183.085	686.814	0.023	-0.059
-182.071	-92.338	0.214	0.060
-181.056	800.000	0.051	0.219
-180.042	-72.217	-0.303	-0.112
-179.027	-70.028	0.108	-0.041
-178.012	-62.386	0.337	-0.139
-176.998	-200.000	0.013	0.078
-175.983	-22.109	-0.331	0.200
-174.969	-89.371	0.452	0.132
-173.954	20.096	-0.327	-0.263
-172.939	-53.513	-0.017	0.008
-171.925	-43.323	0.060	0.030
-170.910	462.241	-0.050	-0.110
-169.896	-200.000	-0.052	0.254
-168.881	-83.186	-0.184	-0.059
-167.866	23.310	0.190	-0.156
-166.852	-10.044	0.368	0.243
-165.837	162.488	-0.200	-0.279
-164.823	317.939	0.051	0.096
-163.808	-35.569	0.233	-0.126
-162.793	20.770	-0.048	-0.038
-161.779	-179.627	0.035	-0.001
-160.764	-135.538	0.191	-0.023
-159.750	207.473	-0.088	0.136
-158.735	382.426	-0.108	0.220
-157.720	437.649	0.020	-0.042
-156.706	13.782	-0.135	-0.104
-155.691	-200.000	-0.014	0.096
-154.677	97.081	-0.088	-0.100
-153.662	-133.833	0.065	-0.008
-152.647	160.161	0.099	-0.138
-151.633	284.589	-0.112	0.201
-150.618	279.780	-0.051	-0.091
-149.604	54.253	0.238	0.227
-148.589	-84.898	-0.375	-0.117
-147.574	1.187	-0.165	-0.118
-146.560	-74.204	-0.173	-0.062
-145.545	-200.000	-0.024	0.170
-144.531	-129.882	-0.163	0.022
-143.516	800.000	-0.038	-0.163
-142.502	388.674	0.081	-0.167
-141.487	-90.523	-0.123	0.035
-140.472	-83.635	-0.250	-0.079
-139.458	-60.126	0.205	0.087
-138.443	469.261	0.083	-0.185
-137.429	-122.474	0.226	-0.036
-136.414	-57.555	0.261	-0.113
-135.399	150.890	0.181	0.244
-134.385	148.775	-0.160	0.214
-133.370	341.951	0.071	0.138
-132.356	-200.000	-0.056	0.252
-131.341	-48.619	-0.153	0.073
-130.326	238.474	-0.125	-0.207
-129.312	800.000	-0.073	-0.310
-128.297	-98.644	0.473	0.120
-127.283	494.831	0.111	0.252
-126.268	-63.369	0.178	0.073
-125.253	404.914	-0.108	0.225
-124.239	-200.000	0.007	-0.165
-123.224	-92.648	0.159	-0.044
-122.210	271.405	-0.077	0.134
-121.195	-49.766	0.049	0.023
