DTS Sentinel unit serial number:	SN413079Multiplexer serial number:	ORYXHardware model number:	OX4-SRSoftware version number:	ORYX F/W v4.00 Oryx Data Collector v3.7.2.0data status	okinstallation	princeton_trtdifferential loss correction	single-endedforward channel	channel 4reverse channel	N/Adate	2019/09/17time	00:37:34forward acquisition time	60.00reverse acquisition time	0.00gamma	496.2192k internal	0.2313k external	0.2313temperature offset calibration	0.9979default loss term (dB/km)	0.3790temperature slope calibration	1.0000multiplexer offset coefficient	1.0000multiplexer slope coefficient	1.0000fibre end	0.00T internal ref (°C)	29.44T ext. ref 1 (°C)	0.09T ext. ref 2 (°C)	23.96length (m)	temperature (°C)	Stokes	anti-Stokes-747.200	-101.247	-0.147	0.036
-746.185	-121.468	0.330	0.056
-745.171	-200.000	0.086	-0.481
-744.156	50.343	-0.216	0.207
-743.142	69.305	-0.132	0.138
-742.127	331.175	-0.066	-0.129
-741.112	-200.000	0.036	-0.217
-740.098	-28.028	-0.371	0.218
-739.083	6.210	0.334	0.251
-738.069	120.896	0.130	0.164
-737.054	732.373	0.081	0.220
-736.039	-61.132	-0.259	0.111
-735.025	-200.000	0.029	0.316
-734.010	37.282	-0.209	0.188
-732.996	800.000	0.022	-0.094
-731.981	299.078	0.076	0.141
-730.966	800.000	-0.038	-0.110
-729.952	-61.265	-0.235	-0.100
-728.937	-169.821	-0.138	-0.005
-727.923	-59.748	-0.110	-0.048
-726.908	210.581	0.226	-0.360
-725.894	-49.824	0.179	-0.086
-724.879	17.498	0.143	-0.115
-723.864	-7.837	-0.252	0.172
-722.850	-155.122	-0.170	-0.011
-721.835	45.725	-0.100	-0.093
-720.821	108.519	-0.227	-0.274
-719.806	60.844	-0.164	-0.164
-718.791	800.000	0.097	0.382
-717.777	144.371	-0.156	-0.211
-716.762	457.914	0.113	-0.254
-715.748	-105.688	-0.543	0.125
-714.733	800.000	0.093	-0.358
-713.718	-49.272	-0.342	-0.165
-712.704	8.598	0.078	-0.059
-711.689	-43.021	0.151	-0.078
-710.675	-200.000	0.034	-0.201
-709.660	800.000	-0.066	0.248
-708.645	171.093	0.130	-0.189
-707.631	144.250	0.130	-0.176
-706.616	-125.681	-0.083	0.013
-705.602	-56.149	0.158	0.071
-704.587	-184.063	-0.078	0.001
-703.572	-73.256	-0.340	-0.126
-702.558	-136.611	-0.075	-0.009
-701.543	-200.000	0.004	-0.303
-700.529	45.089	-0.144	-0.134
-699.514	-200.000	-0.010	-0.465
-698.499	800.000	0.057	-0.161
-697.485	7.407	-0.276	-0.209
-696.470	800.000	0.028	0.122
-695.456	162.250	-0.201	0.285
-694.441	52.944	-0.293	0.284
-693.426	-200.000	-0.009	0.087
-692.412	-200.000	0.147	-0.000
-691.397	758.334	0.040	0.110
-690.383	-200.000	0.019	-0.100
-689.368	266.958	0.128	-0.226
-688.354	183.205	0.126	0.189
-687.339	-79.221	0.193	0.066
-686.324	-200.000	-0.010	-0.049
-685.310	307.657	-0.061	0.116
-684.295	12.574	0.086	-0.067
-683.281	48.403	0.064	0.060
-682.266	-100.954	-0.190	-0.047
-681.251	23.525	-0.310	0.258
-680.237	-200.000	0.022	-0.145
-679.222	-145.003	-0.056	-0.005
-678.208	513.539	0.007	-0.016
-677.193	87.078	0.117	0.131
-676.178	-113.617	0.341	-0.067
-675.164	-91.525	-0.191	0.055
-674.149	-105.320	-0.400	-0.092
-673.135	-77.509	-0.159	-0.056
-672.120	-200.000	0.002	-0.075
-671.105	623.833	-0.028	0.070
-670.091	-102.881	-0.260	0.062
-669.076	800.000	-0.108	0.414
-668.062	700.411	-0.127	0.338
-667.047	-168.654	-0.305	0.012
-666.032	800.000	-0.055	0.173
-665.018	397.186	-0.131	0.277
-664.003	19.033	0.156	0.126
-662.989	800.000	-0.052	0.219
-661.974	-131.400	0.151	-0.020
-660.959	-90.465	0.148	0.043
-659.945	562.196	-0.046	-0.113
-658.930	7.665	-0.221	0.168
-657.916	76.812	-0.052	0.056
-656.901	-68.768	0.249	0.097
-655.886	-200.000	-0.007	-0.462
-654.872	47.648	-0.300	0.283
-653.857	-125.220	0.209	0.032
-652.843	-200.000	0.059	-0.000
-651.828	-5.885	-0.230	0.159
-650.814	-149.811	0.458	-0.036
-649.799	534.494	-0.025	-0.061
-648.784	287.380	-0.151	-0.275
-647.770	89.852	0.128	0.145
-646.755	-200.000	-0.018	-0.114
-645.741	331.054	-0.029	-0.057
-644.726	-200.000	0.003	-0.087
-643.711	800.000	0.060	0.224
-642.697	-77.000	-0.072	-0.025
-641.682	15.049	0.158	0.125
-640.668	67.953	-0.158	-0.163
-639.653	-99.308	0.132	-0.034
-638.638	-9.299	0.111	-0.075
-637.624	163.455	-0.182	0.259
-636.609	219.993	0.163	-0.263
-635.595	4.437	-0.043	0.032
-634.580	302.621	0.045	0.085
-633.565	29.911	-0.200	0.172
-632.551	-52.977	0.027	-0.012
-631.536	97.206	-0.138	-0.160
-630.522	-23.088	0.301	-0.183
-629.507	-41.226	0.278	0.145
-628.492	29.725	0.202	-0.174
-627.478	-31.478	-0.165	-0.094
-626.463	-58.392	0.137	0.060
-625.449	-127.341	-0.321	0.047
-624.434	-102.070	-0.120	-0.029
-623.419	-166.086	-0.104	-0.004
-622.405	-44.408	-0.282	-0.142
-621.390	-32.069	0.100	0.056
-620.376	800.000	-0.108	0.351
-619.361	26.122	0.167	-0.141
-618.346	-200.000	0.001	-0.111
-617.332	-76.824	-0.082	-0.029
-616.317	800.000	0.075	0.274
-615.303	203.762	-0.126	-0.196
-614.288	105.397	0.105	0.126
-613.273	39.620	0.222	-0.201
-612.259	-200.000	0.005	0.344
-611.244	236.153	0.072	-0.120
-610.230	282.723	-0.182	0.330
-609.215	-105.524	0.159	0.036
-608.201	52.425	-0.158	-0.152
-607.186	-136.409	0.168	0.020
-606.171	-58.399	0.247	0.109
-605.157	490.534	-0.032	-0.073
-604.142	333.182	-0.064	0.125
-603.128	415.538	0.044	-0.094
-602.113	-138.067	0.113	-0.013
-601.098	386.339	0.056	-0.118
-600.084	208.744	-0.122	-0.192
-599.069	720.908	0.043	-0.114
-598.055	118.117	-0.176	-0.219
-597.040	-200.000	0.010	-0.159
-596.025	-164.377	-0.055	0.003
-595.011	15.569	0.235	0.186
-593.996	4.910	-0.083	-0.062
-592.982	800.000	0.004	-0.013
-591.967	404.232	-0.009	-0.018
-590.952	84.919	0.181	-0.200
-589.938	-51.565	0.146	-0.068
-588.923	-60.680	-0.115	0.049
-587.909	-129.383	-0.179	-0.025
-586.894	-200.000	0.040	-0.326
-585.879	100.473	-0.111	-0.130
-584.865	800.000	0.085	-0.261
-583.850	-58.544	0.286	-0.125
-582.836	-10.615	0.064	-0.043
-581.821	-187.050	-0.095	-0.001
-580.806	-200.000	0.010	-0.277
-579.792	-74.009	0.233	0.085
-578.777	412.432	-0.083	-0.177
-577.763	-69.894	-0.548	-0.210
-576.748	60.389	-0.294	0.294
-575.733	6.975	0.172	0.129
-574.719	88.653	0.199	-0.223
-573.704	50.572	-0.251	0.240
-572.690	41.594	-0.129	-0.118
-571.675	-200.000	0.027	-0.230
-570.661	800.000	0.082	-0.322
-569.646	-69.787	0.366	0.141
-568.631	535.011	-0.125	0.299
-567.617	10.333	-0.045	-0.035
-566.602	-200.000	-0.106	0.570
-565.588	797.126	-0.074	-0.206
-564.573	107.863	0.166	-0.199
-563.558	-16.962	-0.161	0.102
-562.544	327.229	-0.057	-0.109
-561.529	430.039	0.131	-0.285
-560.515	-0.216	0.151	-0.108
-559.500	-65.683	-0.328	0.133
-558.485	64.855	-0.160	0.163
-557.471	9.828	0.050	-0.038
-556.456	124.229	0.269	-0.340
-555.442	23.982	0.391	-0.325
-554.427	-14.680	-0.194	0.125
-553.412	415.322	-0.056	-0.120
-552.398	-15.599	-0.176	0.113
-551.383	-200.000	0.018	-0.194
-550.369	344.003	0.049	0.097
-549.354	800.000	0.072	0.257
-548.339	-108.906	-0.083	-0.018
-547.325	27.230	-0.174	-0.147
-546.310	351.812	-0.125	0.248
-545.296	-37.788	0.138	-0.074
-544.281	-67.839	0.277	-0.109
-543.266	800.000	-0.121	0.385
-542.252	269.964	0.080	-0.141
-541.237	-200.000	0.026	-0.280
-540.223	-80.218	-0.338	0.114
-539.208	503.572	0.116	0.270
-538.193	417.483	-0.157	0.336
-537.179	-200.000	-0.010	0.136
-536.164	-23.608	-0.134	-0.081
-535.150	-26.199	-0.118	-0.070
-534.135	-78.626	-0.211	-0.073
-533.121	800.000	-0.025	0.100
-532.106	316.027	0.011	0.021
-531.091	800.000	0.048	-0.172
-530.077	-56.306	0.167	-0.075
-529.062	459.483	0.167	-0.374
-528.048	800.000	0.076	-0.245
-527.033	-47.319	-0.037	0.018
-526.018	373.941	0.109	-0.224
-525.004	-61.334	-0.091	0.039
-523.989	-200.000	-0.091	-0.437
-522.975	-62.845	0.112	-0.047
-521.960	800.000	0.039	-0.111
-520.945	-95.919	-0.489	0.131
-519.931	-48.591	-0.049	-0.024
-518.916	800.000	0.022	-0.069
-517.902	-164.760	0.324	0.015
-516.887	-105.207	-0.171	-0.039
-515.872	-153.386	0.339	0.024
-514.858	525.213	-0.065	0.153
-513.843	-105.219	-0.163	0.037
-512.829	-14.876	-0.148	-0.095
-511.814	-200.000	0.486	0.002
-510.799	-103.782	0.168	0.040
-509.785	-29.456	-0.137	0.079
-508.770	-131.929	-0.275	0.036
-507.756	-28.498	0.137	0.080
-506.741	637.922	-0.035	-0.090
-505.726	-73.814	0.187	0.068
-504.712	-200.000	0.008	0.279
-503.697	-200.000	-0.040	-0.488
-502.683	-81.022	0.217	-0.072
-501.668	205.380	0.108	-0.169
-500.653	-45.113	-0.416	0.208
-499.639	-99.676	0.148	0.037
-498.624	-92.117	0.042	0.012
-497.610	307.263	-0.103	-0.194
-496.595	-112.116	-0.121	-0.024
-495.581	-158.073	0.018	-0.001
-494.566	118.047	-0.188	-0.233
-493.551	77.033	0.244	0.260
-492.537	13.862	-0.113	-0.088
-491.522	-155.707	0.051	0.003
-490.508	35.678	-0.147	0.129
-489.493	242.856	-0.152	-0.255
-488.478	17.292	0.199	0.159
-487.464	-67.154	-0.332	-0.131
-486.449	44.369	-0.083	-0.076
-485.435	17.616	0.285	-0.228
-484.420	-129.888	0.112	0.015
-483.405	-22.400	-0.022	0.014
-482.391	-117.169	0.119	0.022
-481.376	587.729	-0.102	-0.252
-480.362	67.504	-0.176	0.181
-479.347	800.000	-0.042	-0.121
-478.332	-129.398	0.310	-0.043
-477.318	800.000	-0.115	-0.338
-476.303	-144.238	0.443	0.042
-475.289	-11.948	0.248	0.163
-474.274	-200.000	-0.025	-0.292
-473.259	800.000	-0.007	0.020
-472.245	-0.184	0.388	0.277
-471.230	-14.276	0.209	-0.135
-470.216	800.000	-0.085	0.296
-469.201	16.334	-0.309	0.245
-468.186	48.886	0.048	-0.045
-467.172	62.753	-0.199	0.199
-466.157	800.000	0.033	0.131
-465.143	-83.061	-0.133	0.043
-464.128	-41.256	-0.334	0.173
-463.113	-200.000	-0.017	-0.091
-462.099	-200.000	-0.011	-0.135
-461.084	742.748	0.022	0.059
-460.070	-20.738	-0.394	-0.242
-459.055	-179.485	0.317	-0.007
-458.040	70.943	-0.105	0.109
-457.026	-200.000	0.103	0.488
-456.011	-128.945	0.345	-0.049
-454.997	51.113	-0.247	-0.235
-453.982	15.636	-0.161	0.127
-452.968	347.055	0.021	0.042
-451.953	6.469	0.067	-0.050
-450.938	10.191	0.100	-0.076
-449.924	186.381	0.057	-0.085
-448.909	-157.325	-0.164	0.010
-447.895	800.000	0.087	0.276
-446.880	252.211	0.043	-0.073
-445.865	467.763	0.070	0.157
-444.851	-88.285	-0.193	0.058
-443.836	58.935	0.140	0.138
-442.822	96.033	-0.075	0.086
-441.807	100.604	0.070	0.081
-440.792	79.821	-0.034	0.037
-439.778	-16.396	-0.130	0.083
-438.763	491.657	-0.056	-0.129
-437.749	800.000	-0.089	0.376
-436.734	141.627	0.096	0.127
-435.719	-104.846	-0.285	0.066
-434.705	111.531	0.332	0.401
-433.690	-133.792	0.316	0.039
-432.676	483.173	-0.150	-0.341
-431.661	60.889	0.256	0.254
-430.646	-143.952	0.149	0.014
-429.632	-119.445	0.187	0.032
-428.617	273.110	0.082	0.146
-427.603	28.226	0.089	0.075
-426.588	616.070	0.078	0.195
-425.573	-62.187	0.133	0.055
-424.559	-200.000	-0.005	0.313
-423.544	800.000	-0.063	-0.245
-422.530	54.345	-0.168	-0.162
-421.515	134.975	-0.123	0.160
-420.500	426.682	0.237	0.512
-419.486	-38.124	0.134	0.071
-418.471	800.000	-0.087	-0.257
-417.457	-200.000	-0.010	0.169
-416.442	42.821	0.069	0.063
-415.428	313.431	0.193	-0.363
-414.413	141.490	0.150	-0.199
-413.398	-150.377	0.098	-0.008
-412.384	52.731	-0.307	-0.293
-411.369	88.480	0.204	0.227
-410.355	-127.717	0.303	-0.044
-409.340	-108.606	0.249	0.054
-408.325	-200.000	-0.070	-0.357
-407.311	-4.321	0.125	-0.087
-406.296	43.065	0.119	0.109
-405.282	-62.178	0.300	0.125
-404.267	16.439	-0.254	0.201
-403.252	224.930	-0.118	-0.192
-402.238	-200.000	0.016	-0.274
-401.223	-75.955	-0.128	0.045
-400.209	-100.522	-0.147	-0.036
-399.194	-17.287	-0.119	-0.075
-398.179	-20.161	-0.249	-0.154
-397.165	125.098	0.055	-0.070
-396.150	800.000	0.102	-0.327
-395.136	35.724	0.196	-0.173
-394.121	800.000	0.026	-0.095
-393.106	113.736	-0.238	0.290
-392.092	-62.482	0.361	0.150
-391.077	-44.338	-0.156	-0.078
-390.063	258.554	0.107	-0.184
-389.048	527.015	0.051	0.121
-388.033	-200.000	0.054	0.240
-387.019	-200.000	0.042	0.364
-386.004	490.740	0.045	-0.103
-384.990	45.927	0.134	-0.124
-383.975	44.858	-0.090	-0.083
-382.960	91.596	0.136	-0.153
-381.946	445.880	-0.202	-0.445
-380.931	-27.006	0.091	0.053
-379.917	-145.949	-0.244	0.022
-378.902	399.605	-0.118	0.248
-377.888	-20.403	0.164	0.101
-376.873	-40.219	0.171	-0.089
-375.858	-200.000	-0.001	0.040
-374.844	-165.934	0.371	0.016
-373.829	116.345	0.124	-0.152
-372.815	91.617	-0.210	-0.236
-371.800	-98.797	-0.145	-0.037
-370.785	163.591	0.215	-0.302
-369.771	-200.000	0.022	0.159
-368.756	-200.000	-0.041	0.420
-367.742	-200.000	0.024	0.227
-366.727	800.000	0.103	0.293
-365.712	-89.747	0.088	-0.026
-364.698	15.341	0.143	0.112
-363.683	-200.000	0.041	0.234
-362.669	-130.726	-0.437	0.059
-361.654	294.937	-0.044	-0.081
-360.639	79.383	-0.209	0.224
-359.625	308.245	0.098	0.183
-358.610	-179.849	0.075	-0.002
-357.596	215.244	0.227	0.359
-356.581	-200.000	-0.022	0.124
-355.566	-36.078	0.137	-0.074
-354.552	235.818	-0.212	0.350
-353.537	-200.000	0.056	0.333
-352.523	-80.155	-0.269	0.090
-351.508	-200.000	-0.050	-0.232
-350.493	390.855	0.293	0.607
-349.479	-200.000	0.019	-0.089
-348.464	183.496	0.125	-0.184
-347.450	18.699	0.206	0.165
-346.435	-118.277	0.168	-0.030
-345.420	261.335	-0.026	0.045
-344.406	475.462	-0.171	-0.386
-343.391	-161.520	0.170	0.009
-342.377	-76.130	0.100	0.035
-341.362	-200.000	0.031	0.307
-340.348	175.846	-0.066	-0.095
-339.333	30.208	-0.079	0.068
-338.318	-200.000	0.012	0.357
-337.304	-200.000	0.026	0.198
-336.289	71.237	-0.111	-0.115
-335.275	-49.955	-0.244	0.116
-334.260	86.167	0.045	-0.050
-333.245	-45.830	-0.337	-0.166
-332.231	-200.000	-0.004	-0.336
-331.216	-26.152	0.128	-0.075
-330.202	-87.802	0.206	0.062
-329.187	23.381	-0.263	0.216
-328.172	-200.000	-0.010	0.349
-327.158	-138.508	-0.249	-0.027
-326.143	-42.369	-0.328	0.167
-325.129	800.000	0.107	0.306
-324.114	76.950	0.070	-0.075
-323.099	332.312	0.138	-0.265
-322.085	800.000	-0.046	-0.147
-321.070	46.363	0.144	-0.133
-320.056	-200.000	0.000	-0.128
-319.041	24.376	0.146	0.121
-318.026	800.000	0.104	0.287
-317.012	-43.976	0.280	-0.140
-315.997	-200.000	-0.007	0.054
-314.983	-90.484	0.346	0.100
-313.968	-178.116	0.195	0.005
-312.953	-27.381	0.104	-0.060
-311.939	239.235	-0.185	-0.307
-310.924	-27.127	0.113	0.066
-309.910	-180.277	0.242	0.005
-308.895	-144.366	-0.398	-0.037
-307.880	800.000	-0.061	0.205
-306.866	-24.906	-0.221	-0.131
-305.851	800.000	0.051	-0.205
-304.837	280.522	-0.150	0.268
-303.822	-102.508	0.022	-0.005
-302.807	198.935	-0.028	0.043
-301.793	307.180	-0.107	-0.199
-300.778	-36.011	0.038	0.021
-299.764	-112.158	-0.223	-0.045
-298.749	425.342	-0.022	0.047
-297.735	186.304	0.083	-0.123
-296.720	486.669	-0.121	0.276
-295.705	-49.177	-0.114	0.054
-294.691	287.773	-0.061	0.109
-293.676	800.000	0.005	0.021
-292.662	21.262	0.253	-0.205
-291.647	441.761	0.024	0.052
-290.632	-200.000	0.032	0.163
-289.618	308.903	-0.085	-0.159
-288.603	800.000	0.097	-0.296
-287.589	-200.000	0.016	-0.094
-286.574	800.000	0.076	0.257
-285.559	-90.237	-0.183	0.053
-284.545	-68.834	0.237	-0.091
-283.530	-200.000	0.051	-0.272
-282.516	-200.000	-0.002	-0.189
-281.501	800.000	0.022	0.073
-280.486	61.437	0.151	-0.150
-279.472	-161.400	-0.167	-0.009
-278.457	99.166	-0.279	0.321
-277.443	314.859	0.066	0.124
-276.428	-28.899	-0.047	-0.027
-275.413	-200.000	0.001	-0.076
-274.399	135.661	-0.234	-0.303
-273.384	800.000	-0.142	-0.405
-272.370	188.033	-0.112	0.167
-271.355	66.038	0.080	0.081
-270.340	245.422	0.098	0.164
-269.326	20.775	0.209	0.169
-268.311	-173.780	0.221	-0.007
-267.297	-83.403	-0.145	-0.046
-266.282	40.623	0.151	0.136
-265.267	800.000	-0.029	-0.101
-264.253	143.671	-0.126	0.167
-263.238	91.117	-0.098	0.110
-262.224	-52.275	-0.165	-0.076
-261.209	-84.325	0.229	-0.072
-260.195	-200.000	-0.030	0.290
-259.180	75.400	-0.079	0.083
-258.165	47.583	-0.205	0.190
-257.151	-2.583	0.152	-0.106
-256.136	-8.457	-0.099	0.066
-255.122	153.474	-0.052	0.071
-254.107	-154.093	-0.360	-0.024
-253.092	-79.077	0.173	0.059
-252.078	-200.000	0.044	0.226
-251.063	154.063	0.196	0.268
-250.049	57.588	-0.253	0.246
-249.034	145.195	-0.210	-0.280
-248.019	-200.000	-0.011	-0.349
-247.005	140.043	0.103	0.134
-245.990	800.000	0.102	-0.325
-244.976	461.841	0.095	-0.210
-243.961	190.091	-0.072	0.108
-242.946	-102.605	-0.260	-0.062
-241.932	383.416	0.221	-0.452
-240.917	-159.615	-0.161	-0.009
-239.903	254.419	-0.126	0.214
-238.888	563.917	-0.109	-0.262
-237.873	-24.614	0.118	-0.070
-236.859	-62.383	0.117	-0.049
-235.844	-200.000	0.079	-0.630
-234.830	66.558	0.098	-0.099
-233.815	-9.707	0.182	0.121
-232.800	-200.000	-0.032	0.193
-231.786	88.506	-0.095	-0.105
-230.771	-178.639	0.176	0.004
-229.757	386.412	-0.227	0.465
-228.742	800.000	0.020	-0.056
-227.727	507.911	-0.096	0.222
-226.713	800.000	-0.032	0.130
-225.698	-5.563	0.195	-0.133
-224.684	800.000	0.036	0.099
-223.669	22.304	-0.595	0.483
-222.655	244.204	0.078	0.130
-221.640	800.000	0.022	0.072
-220.625	54.098	-0.273	-0.261
-219.611	-111.699	-0.135	0.027
-218.596	103.983	-0.140	-0.163
-217.582	-190.778	-0.268	-0.003
-216.567	-145.975	0.346	0.030
-215.552	397.566	0.127	0.264
-214.538	105.049	0.078	-0.091
-213.523	-5.675	0.130	-0.089
-212.509	-100.018	-0.265	0.066
-211.494	12.006	0.034	-0.026
-210.479	-68.779	-0.115	0.044
-209.465	-39.486	-0.216	0.112
-208.450	800.000	0.045	-0.180
-207.436	75.905	0.042	-0.044
-206.421	-1.368	0.100	-0.070
-205.406	-50.856	-0.231	0.108
-204.392	800.000	-0.032	0.114
-203.377	74.351	-0.126	-0.131
-202.363	70.782	0.155	-0.159
-201.348	306.823	0.119	0.220
-200.333	11.306	0.367	0.279
-199.319	127.234	-0.024	-0.030
-198.304	-90.949	0.096	0.027
-197.290	-49.514	-0.174	0.082
-196.275	-11.575	-0.082	0.054
-195.260	-56.500	-0.153	0.067
-194.246	-200.000	0.080	-0.371
-193.231	284.745	0.094	0.168
-192.217	153.353	0.108	-0.146
-191.202	-180.673	-0.131	0.003
-190.187	-43.868	0.234	-0.117
-189.173	85.060	0.081	0.088
-188.158	-14.065	0.227	0.145
-187.144	800.000	0.054	-0.187
-186.129	40.247	-0.248	0.221
-185.114	64.410	-0.150	0.150
-184.100	34.879	-0.173	-0.150
-183.085	-91.869	-0.241	0.068
-182.071	-25.956	-0.345	-0.202
-181.056	800.000	0.102	0.306
-180.042	-25.007	0.344	0.202
-179.027	158.348	-0.142	0.196
-178.012	-121.097	-0.393	0.065
-176.998	303.148	-0.140	0.257
-175.983	-15.494	-0.150	0.095
-174.969	-14.803	-0.121	-0.077
-173.954	481.618	0.070	0.157
-172.939	64.612	0.268	-0.268
-171.925	800.000	0.088	-0.265
-170.910	82.398	0.162	-0.174
-169.896	-200.000	-0.021	0.364
-168.881	800.000	-0.046	-0.147
-167.866	-50.053	-0.253	-0.119
-166.852	353.192	0.085	-0.167
-165.837	-200.000	-0.031	-0.162
-164.823	800.000	0.024	0.068
-163.808	-200.000	-0.045	-0.356
-162.793	34.259	-0.054	-0.047
-161.779	800.000	-0.074	-0.270
-160.764	90.179	-0.098	-0.109
-159.750	-200.000	-0.025	0.138
-158.735	499.864	0.122	0.279
-157.720	-153.897	-0.256	-0.017
-156.706	439.922	0.240	-0.520
-155.691	344.516	0.044	-0.085
-154.677	-167.086	0.139	0.006
-153.662	-200.000	-0.033	-0.290
-152.647	187.229	-0.174	0.257
-151.633	-152.897	-0.222	0.016
-150.618	-1.850	-0.241	0.168
-149.604	158.823	0.235	-0.324
-148.589	-46.674	-0.163	-0.079
-147.574	377.183	-0.056	0.114
-146.560	800.000	0.025	-0.100
-145.545	-200.000	-0.006	-0.321
-144.531	44.359	0.051	0.046
-143.516	-42.244	-0.197	-0.100
-142.502	-160.309	0.263	0.014
-141.487	264.299	0.072	0.123
-140.472	24.220	0.056	0.046
-139.458	-70.857	-0.201	-0.075
-138.443	-33.005	-0.226	0.124
-137.429	287.724	-0.061	-0.110
-136.414	122.040	0.085	0.106
-135.399	-91.650	0.159	0.045
-134.385	-71.545	0.187	0.069
-133.370	46.600	0.168	0.154
-132.356	800.000	-0.011	-0.041
-131.341	-140.254	0.234	-0.024
-130.326	334.257	0.099	-0.190
-129.312	-115.969	0.249	-0.046
-128.297	-200.000	-0.004	-0.185
-127.283	-146.412	0.315	-0.027
-126.268	215.269	-0.070	0.109
-125.253	-62.176	-0.147	-0.061
-124.239	400.628	0.020	-0.042
-123.224	-94.608	0.140	-0.038
-122.210	-89.231	-0.060	0.018
-121.195	184.041	0.174	-0.255
-120.180	-115.255	-0.055	0.010
