DTS Sentinel unit serial number:	SN413079Multiplexer serial number:	ORYXHardware model number:	OX4-SRSoftware version number:	ORYX F/W v4.00 Oryx Data Collector v3.7.2.0data status	okinstallation	princeton_trtdifferential loss correction	single-endedforward channel	channel 4reverse channel	N/Adate	2019/09/12time	18:18:19forward acquisition time	15.00reverse acquisition time	0.00gamma	496.2192k internal	0.2307k external	0.2307temperature offset calibration	1.0129default loss term (dB/km)	0.3790temperature slope calibration	1.0000multiplexer offset coefficient	1.0000multiplexer slope coefficient	1.0000fibre end	0.00T internal ref (°C)	33.44T ext. ref 1 (°C)	2.83T ext. ref 2 (°C)	28.10length (m)	temperature (°C)	Stokes	anti-Stokes-747.200	2.537	-0.193	0.143
-746.185	800.000	0.170	-0.691
-745.171	129.580	-0.529	-0.688
-744.156	-200.000	-0.049	1.066
-743.142	35.576	0.067	0.060
-742.127	137.874	0.433	0.577
-741.112	-44.283	0.510	-0.260
-740.098	-200.000	0.884	0.002
-739.083	83.614	-0.809	0.897
-738.069	-103.892	-0.317	-0.075
-737.054	-34.222	-0.760	-0.424
-736.039	-200.000	-0.070	-0.677
-735.025	506.741	0.211	-0.498
-734.010	136.186	0.406	-0.538
-732.996	-200.000	0.029	-0.950
-731.981	351.246	0.320	0.644
-730.966	-92.038	0.254	-0.073
-729.952	323.596	-0.032	0.063
-728.937	-25.364	-0.646	0.389
-727.923	-75.479	-0.541	0.196
-726.908	800.000	-0.130	-0.366
-725.894	-23.304	0.664	-0.406
-724.879	225.481	-0.249	0.410
-723.864	52.036	0.281	0.272
-722.850	62.280	-0.724	0.735
-721.835	-200.000	0.017	0.635
-720.821	10.598	0.283	-0.219
-719.806	-93.845	-1.052	0.294
-718.791	-111.433	-0.677	0.140
-717.777	-41.114	0.225	0.118
-716.762	712.256	0.091	-0.245
-715.748	-0.679	0.094	0.068
-714.733	20.756	0.410	-0.337
-713.718	757.367	0.315	-0.865
-712.704	73.079	0.227	-0.241
-711.689	-162.372	-0.821	-0.041
-710.675	-200.000	-0.037	0.235
-709.660	-140.367	0.125	-0.013
-708.645	-200.000	-0.008	0.164
-707.631	800.000	-0.146	0.570
-706.616	9.046	-0.182	-0.140
-705.602	-200.000	-0.066	-0.544
-704.587	-146.403	-0.502	0.045
-703.572	800.000	-0.100	0.363
-702.558	157.356	-0.307	0.432
-701.543	-200.000	0.071	-0.397
-700.529	-2.582	0.410	-0.292
-699.514	-200.000	-0.033	0.370
-698.499	-162.432	-0.199	-0.010
-697.485	800.000	-0.347	-1.052
-696.470	14.328	0.671	0.531
-695.456	-7.774	-0.100	-0.068
-694.441	-64.698	-1.212	-0.499
-693.426	9.063	-0.376	0.288
-692.412	13.993	-0.757	0.598
-691.397	518.574	0.376	0.893
-690.383	-200.000	-0.063	1.117
-689.368	-38.580	0.123	-0.066
-688.354	-164.041	-0.499	-0.023
-687.339	-200.000	0.025	-0.138
-686.324	35.159	-0.263	0.234
-685.310	800.000	-0.016	-0.063
-684.295	90.844	-0.278	-0.316
-683.281	-111.481	0.218	0.045
-682.266	134.653	0.530	0.698
-681.251	-113.903	0.145	-0.029
-680.237	-74.853	0.764	0.278
-679.222	147.336	0.032	0.043
-678.208	-200.000	0.424	-0.000
-677.193	-12.836	0.948	0.626
-676.178	-54.327	-0.221	0.102
-675.164	83.585	0.087	-0.097
-674.149	-53.025	-0.073	-0.034
-673.135	-7.840	0.189	0.129
-672.120	79.356	0.413	0.450
-671.105	-171.857	-0.577	-0.019
-670.091	-17.343	0.661	-0.422
-669.076	-174.305	0.201	-0.006
-668.062	603.277	0.229	0.578
-667.047	-91.909	0.359	0.103
-666.032	800.000	-0.152	0.441
-665.018	36.472	0.292	0.261
-664.003	-6.506	1.270	-0.877
-662.989	-195.093	-0.535	0.004
-661.974	-125.716	-0.786	-0.121
-660.959	800.000	0.089	0.292
-659.945	115.209	0.657	-0.814
-658.930	-80.215	0.455	-0.154
-657.916	-5.785	0.538	0.374
-656.901	-4.575	-0.178	-0.124
-655.886	232.285	-0.163	-0.271
-654.872	34.565	0.593	0.525
-653.857	-7.128	0.330	-0.227
-652.843	502.915	0.319	-0.746
-651.828	-147.992	0.207	0.017
-650.814	800.000	-0.043	-0.154
-649.799	207.175	0.242	0.382
-648.784	667.145	-0.140	-0.366
-647.770	115.483	0.103	0.127
-646.755	800.000	0.111	0.428
-645.741	268.117	-0.025	0.045
-644.726	-24.503	0.411	-0.248
-643.711	-90.586	0.491	-0.144
-642.697	-200.000	-0.138	0.791
-641.682	-58.960	0.382	0.167
-640.668	800.000	-0.178	0.776
-639.653	800.000	0.122	0.382
-638.638	-29.598	-0.637	0.369
-637.624	32.135	-0.521	0.455
-636.609	800.000	-0.396	1.344
-635.595	435.154	-0.368	0.811
-634.580	-15.000	-0.745	0.484
-633.565	-34.526	0.607	0.336
-632.551	-13.262	-0.728	0.479
-631.536	248.950	-0.237	0.406
-630.522	60.151	0.522	-0.522
-629.507	109.567	-0.137	-0.166
-628.492	23.439	0.670	-0.558
-627.478	286.347	-0.245	-0.447
-626.463	-67.212	0.521	-0.208
-625.449	-156.343	0.779	-0.049
-624.434	-50.016	-0.327	0.157
-623.419	800.000	-0.163	0.537
-622.405	58.825	-0.445	-0.442
-621.390	717.552	-0.268	0.721
-620.376	57.453	-0.248	0.245
-619.361	42.284	-0.480	-0.441
-618.346	36.529	0.369	0.330
-617.332	-200.000	0.062	-0.667
-616.317	360.503	0.272	-0.552
-615.303	-32.142	-0.669	0.379
-614.288	179.844	-0.473	0.701
-613.273	-20.985	0.156	-0.097
-612.259	-127.202	-0.497	-0.074
-611.244	-116.337	-0.712	0.133
-610.230	51.785	0.455	-0.438
-609.215	-143.290	-0.726	-0.071
-608.201	-149.422	0.577	-0.046
-607.186	-200.000	0.024	0.594
-606.171	148.120	-0.299	0.408
-605.157	800.000	0.072	0.292
-604.142	-200.000	0.167	0.798
-603.128	335.373	0.192	-0.377
-602.113	-98.421	-0.813	0.211
-601.098	37.958	0.119	0.107
-600.084	-45.201	0.323	0.162
-599.069	-52.192	-0.776	-0.364
-598.055	800.000	-0.034	-0.142
-597.040	704.059	-0.283	-0.756
-596.025	-200.000	0.004	-0.218
-595.011	800.000	-0.317	-1.017
-593.996	-200.000	-0.169	-1.076
-592.982	331.728	0.353	0.689
-591.967	-112.409	0.336	0.068
-590.952	-113.430	0.920	-0.182
-589.938	-200.000	0.243	-1.127
-588.923	-62.855	-0.189	-0.079
-587.909	-65.193	1.133	-0.462
-586.894	-73.087	0.325	-0.120
-585.879	37.304	0.351	0.315
-584.865	-16.475	0.166	-0.106
-583.850	-9.823	0.538	0.362
-582.836	-200.000	0.078	-0.714
-581.821	800.000	-0.202	-0.740
-580.806	-53.800	0.335	-0.155
-579.792	-77.641	0.784	-0.274
-578.777	-45.920	0.571	0.285
-577.763	-20.462	0.134	0.083
-576.748	68.118	-0.378	-0.391
-575.733	-127.214	-0.494	-0.073
-574.719	719.117	0.246	-0.661
-573.704	217.668	-0.263	0.424
-572.690	-61.391	-0.249	-0.106
-571.675	354.691	-0.636	1.277
-570.661	348.560	0.211	0.421
-569.646	-112.340	0.745	0.151
-568.631	257.378	0.227	-0.394
-567.617	202.929	-0.549	-0.856
-566.602	800.000	0.165	-0.553
-565.588	3.562	0.512	-0.377
-564.573	-155.979	-0.852	-0.055
-563.558	-200.000	-0.107	-0.548
-562.544	199.891	-0.161	-0.249
-561.529	-200.000	-0.009	0.090
-560.515	388.270	0.125	-0.261
-559.500	-163.076	-0.438	0.021
-558.485	800.000	-0.167	0.510
-557.471	-137.240	-0.436	0.050
-556.456	-100.552	0.157	-0.039
-555.442	775.524	0.163	0.449
-554.427	-78.296	-0.913	-0.316
-553.412	-61.584	-0.566	-0.240
-552.398	10.413	-0.372	-0.286
-551.383	-200.000	-0.022	0.105
-550.369	-121.669	0.402	0.067
-549.354	-103.253	0.440	0.105
-548.339	-20.100	-0.547	-0.340
-547.325	-7.945	0.909	0.619
-546.310	-74.103	0.186	-0.068
-545.296	800.000	-0.047	-0.188
-544.281	161.429	0.201	0.284
-543.266	-78.138	0.481	-0.167
-542.252	-187.034	0.442	-0.006
-541.237	106.567	0.284	0.340
-540.223	800.000	-0.108	-0.398
-539.208	25.465	0.423	0.355
-538.193	-200.000	-0.001	0.127
-537.179	-200.000	-0.123	-0.610
-536.164	-144.818	-0.539	-0.050
-535.150	240.482	-0.541	-0.910
-534.135	99.034	0.335	0.391
-533.121	-137.697	0.153	-0.017
-532.106	-42.826	0.545	0.279
-531.091	298.263	-0.608	-1.127
-530.077	4.288	0.173	-0.128
-529.062	-7.138	0.283	0.193
-528.048	-72.498	-0.650	-0.242
-527.033	800.000	-0.277	-0.826
-526.018	-44.869	-0.525	-0.264
-525.004	231.388	0.312	-0.516
-523.989	190.380	0.378	-0.573
-522.975	-200.000	-0.057	0.525
-521.960	-53.405	-0.439	0.203
-520.945	-28.945	0.428	-0.248
-519.931	-151.491	0.651	0.049
-518.916	-61.411	-0.599	0.254
-517.902	-200.000	-0.088	0.773
-516.887	-106.157	0.764	0.173
-515.872	249.045	-0.502	0.858
-514.858	181.135	-0.211	0.313
-513.843	188.027	0.106	0.160
-512.829	-91.461	-0.198	0.057
-511.814	-200.000	-0.009	0.453
-510.799	-116.348	-0.240	0.045
-509.785	-75.007	-0.951	0.343
-508.770	-200.000	-0.164	-1.100
-507.756	68.471	0.597	-0.617
-506.741	-24.882	0.623	-0.373
-505.726	-71.074	0.246	0.093
-504.712	-10.216	-0.582	-0.389
-503.697	752.685	0.239	-0.650
-502.683	18.753	-0.456	0.368
-501.668	-88.215	0.230	0.069
-500.653	-200.000	0.015	-0.490
-499.639	42.424	-0.500	-0.458
-498.624	-135.014	0.487	-0.059
-497.610	-181.764	1.019	-0.020
-496.595	598.547	-0.029	-0.073
-495.581	535.554	0.485	-1.159
-494.566	245.622	0.090	-0.153
-493.551	800.000	-0.048	0.149
-492.537	238.931	-0.084	-0.141
-491.522	-130.596	-0.173	0.023
-490.508	85.825	0.728	0.807
-489.493	-134.644	-0.643	0.079
-488.478	-200.000	-0.005	-0.189
-487.464	800.000	0.222	-0.807
-486.449	-104.814	-0.675	0.156
-485.435	800.000	0.220	-0.966
-484.420	-200.000	-0.005	-0.255
-483.405	-180.484	0.729	0.015
-482.391	-200.000	-0.067	-0.897
-481.376	215.901	-0.404	-0.646
-480.362	-132.307	0.091	-0.012
-479.347	800.000	-0.256	1.042
-478.332	-176.149	0.433	0.011
-477.318	-119.086	0.442	0.078
-476.303	789.367	-0.168	0.465
-475.289	800.000	0.277	0.926
-474.274	140.480	-0.515	0.684
-473.259	-200.000	0.039	-0.599
-472.245	195.978	-0.166	0.254
-471.230	800.000	-0.048	0.209
-470.216	63.455	0.307	-0.310
-469.201	692.747	0.360	-0.951
-468.186	-10.276	-0.686	-0.458
-467.172	-185.011	0.680	0.011
-466.157	82.528	0.203	0.221
-465.143	-17.739	0.291	-0.184
-464.128	135.340	0.228	-0.298
-463.113	326.127	0.191	-0.368
-462.099	-38.354	0.649	-0.346
-461.084	224.014	0.257	-0.417
-460.070	800.000	0.246	-0.944
-459.055	-200.000	-0.149	1.183
-458.040	-200.000	0.036	-0.282
-457.026	-80.354	-0.371	0.124
-456.011	22.558	0.912	0.751
-454.997	-75.775	-0.357	0.127
-453.982	256.850	0.170	0.294
-452.968	800.000	0.149	-0.512
-451.953	-66.132	-0.193	-0.077
-450.938	246.005	-0.308	-0.521
-449.924	-200.000	-0.029	0.312
-448.909	283.898	0.107	-0.193
-447.895	-200.000	-0.133	-0.886
-446.880	-42.173	-0.768	-0.395
-445.865	580.342	-0.323	0.795
-444.851	-29.363	0.618	-0.356
-443.836	-200.000	0.515	-0.002
-442.822	72.732	0.498	-0.522
-441.807	-60.972	0.250	-0.106
-440.792	12.885	-0.747	-0.580
-439.778	30.760	-0.281	0.241
-438.763	44.384	-0.491	0.453
-437.749	800.000	-0.269	0.941
-436.734	-48.116	-0.454	-0.220
-435.719	-200.000	-0.058	0.831
-434.705	-66.582	-0.512	0.204
-433.690	-48.340	0.417	-0.202
-432.676	-200.000	-0.167	-0.927
-431.661	-200.000	-0.109	-0.954
-430.646	-147.302	0.196	-0.017
-429.632	-38.745	-0.611	0.324
-428.617	-200.000	0.060	-0.342
-427.603	76.589	0.354	-0.377
-426.588	95.864	0.258	0.296
-425.573	800.000	0.101	-0.317
-424.559	162.631	0.641	0.904
-423.544	129.344	0.195	0.250
-422.530	68.701	-0.075	-0.077
-421.515	2.507	0.585	0.426
-420.500	8.915	-1.021	-0.774
-419.486	800.000	-0.196	0.848
-418.471	-200.000	0.081	0.361
-417.457	800.000	0.045	-0.157
-416.442	220.673	-0.301	-0.485
-415.428	-30.342	0.537	-0.306
-414.413	-94.342	0.316	0.087
-413.398	-137.042	0.940	-0.108
-412.384	-141.247	-0.125	-0.013
-411.369	340.978	-0.150	-0.294
-410.355	249.706	0.291	-0.496
-409.340	800.000	0.050	0.166
-408.325	370.119	0.142	0.288
-407.311	-108.785	0.226	-0.049
-406.296	-193.721	-0.597	0.005
-405.282	6.396	0.343	-0.256
-404.267	359.991	-0.147	-0.295
-403.252	-107.670	0.659	0.144
-402.238	800.000	0.243	0.832
-401.223	288.094	-0.173	-0.314
-400.209	-10.958	0.869	0.576
-399.194	-200.000	-0.084	-0.392
-398.179	33.274	-0.842	-0.733
-397.165	137.903	-0.636	-0.836
-396.150	-127.229	-0.649	-0.095
-395.136	80.562	-0.325	-0.351
-394.121	-14.867	-0.402	0.258
-393.106	153.759	0.063	0.087
-392.092	-200.000	0.053	-0.257
-391.077	-27.247	-0.309	-0.181
-390.063	-200.000	-0.466	0.001
-389.048	124.981	0.552	-0.697
-388.033	-107.679	-0.370	0.081
-387.019	63.730	-0.249	0.251
-386.004	76.903	-0.753	0.802
-384.990	-88.534	-0.240	-0.072
-383.975	-84.211	0.241	-0.077
-382.960	-151.951	0.554	-0.041
-381.946	34.738	-0.091	0.080
-380.931	162.060	-0.364	0.512
-379.917	38.875	0.311	0.278
-378.902	85.600	0.045	0.050
-377.888	800.000	0.062	0.176
-376.873	714.921	0.113	0.300
-375.858	507.241	0.392	0.912
-374.844	-110.375	0.693	-0.144
-373.829	800.000	0.291	0.849
-372.815	-180.841	0.755	0.015
-371.800	238.228	0.327	-0.544
-370.785	-138.874	0.529	-0.058
-369.771	-97.295	0.245	0.064
-368.756	-57.112	-0.509	0.225
-367.742	-1.370	0.741	-0.524
-366.727	558.789	-0.251	-0.607
-365.712	199.146	-0.192	0.294
-364.698	-19.371	-0.498	0.310
-363.683	119.597	-0.276	0.343
-362.669	24.227	-0.235	0.194
-361.654	331.820	0.403	0.779
-360.639	-200.000	-0.010	0.357
-359.625	278.721	0.510	-0.912
-358.610	-21.179	0.321	0.196
-357.596	503.012	-0.401	-0.929
-356.581	-61.229	-0.862	0.364
-355.566	-137.271	-0.241	-0.027
-354.552	151.350	0.287	-0.392
-353.537	-75.599	0.204	0.073
-352.523	-50.271	0.714	-0.338
-351.508	800.000	-0.238	0.716
-350.493	-50.527	-0.592	0.280
-349.479	-200.000	-0.069	0.618
-348.464	159.838	-0.357	-0.499
-347.450	800.000	-0.134	0.566
-346.435	-200.000	-0.002	-0.125
-345.420	-200.000	0.075	-0.672
-344.406	3.432	-0.077	-0.056
-343.391	138.279	0.539	-0.707
-342.377	-189.988	-0.454	-0.005
-341.362	-200.000	-0.155	1.378
-340.348	-200.000	0.084	0.673
-339.333	-69.400	0.268	-0.103
-338.318	-200.000	-0.028	0.367
-337.304	-52.745	0.538	0.248
-336.289	229.451	-0.390	-0.637
-335.275	-84.146	0.528	-0.168
-334.260	-200.000	-0.033	-0.373
-333.245	151.231	-0.542	-0.738
-332.231	-28.032	0.585	0.339
-331.216	800.000	0.266	0.752
-330.202	-34.786	0.185	-0.101
-329.187	224.737	0.143	-0.232
-328.172	189.564	0.337	-0.505
-327.158	-189.448	0.769	0.009
-326.143	242.048	0.348	0.582
-325.129	190.069	-0.661	-0.993
-324.114	108.591	-0.618	0.739
-323.099	163.241	0.417	0.586
-322.085	-200.000	0.073	0.352
-321.070	613.797	0.156	0.390
-320.056	800.000	-0.088	-0.338
-319.041	800.000	-0.119	0.419
-318.026	310.256	-0.032	0.060
-317.012	-53.717	0.276	0.126
-315.997	-200.000	-0.094	1.015
-314.983	-43.946	0.483	-0.243
-313.968	-2.387	-0.415	-0.291
-312.953	-139.597	-1.057	0.113
-311.939	202.319	-0.689	-1.063
-310.924	-150.578	0.016	0.001
-309.910	800.000	-0.154	-0.498
-308.895	261.648	-0.534	-0.925
-307.880	-121.608	-0.060	0.010
-306.866	-53.128	-1.231	-0.565
-305.851	-200.000	-0.111	-0.618
-304.837	102.876	-0.689	-0.806
-303.822	-7.759	0.260	-0.176
-302.807	333.600	-0.366	0.708
-301.793	27.605	0.428	0.360
-300.778	-94.973	-0.583	0.158
-299.764	-200.000	-0.054	0.278
-298.749	-66.407	0.620	0.246
-297.735	302.374	-0.511	0.945
-296.720	-74.548	-0.536	-0.193
-295.705	-83.632	-0.486	-0.155
-294.691	-91.004	0.590	-0.170
-293.676	-200.000	0.168	0.820
-292.662	-5.938	0.314	-0.215
-291.647	211.694	-0.455	-0.716
-290.632	8.927	0.724	-0.546
-289.618	-19.540	-0.498	-0.308
-288.603	154.839	-0.179	-0.246
-287.589	16.220	0.445	0.351
-286.574	173.095	0.349	-0.502
-285.559	112.917	-0.378	0.457
-284.545	-200.000	-0.040	-0.641
-283.530	-200.000	0.021	-0.376
-282.516	-37.541	-0.836	0.445
-281.501	-46.952	0.309	-0.151
-280.486	-133.538	0.528	-0.066
-279.472	-106.567	-0.552	-0.123
-278.457	529.508	-0.082	0.193
-277.443	-105.800	0.830	-0.187
-276.428	-47.721	0.148	0.072
-275.413	-152.402	-0.430	-0.031
-274.399	247.138	0.167	0.281
-273.384	-105.932	-0.277	0.062
-272.370	-200.000	-0.114	0.665
-271.355	28.978	-0.328	-0.278
-270.340	-63.922	0.416	-0.170
-269.326	515.572	0.345	0.804
-268.311	-40.096	-0.280	0.146
-267.297	-116.123	0.418	0.078
-266.282	-154.677	0.150	0.010
-265.267	-108.909	0.427	0.091
-264.253	-102.878	-0.306	-0.073
-263.238	-200.000	0.032	0.304
-262.224	-111.431	0.539	-0.110
-261.209	81.215	0.511	0.550
-260.195	175.845	0.719	1.041
-259.180	-200.000	-0.034	-0.426
-258.165	-77.576	0.692	0.239
-257.151	-200.000	0.020	-0.572
-256.136	-64.973	0.334	0.135
-255.122	-79.324	-0.550	-0.186
-254.107	269.251	0.570	0.998
-253.092	341.681	-0.231	-0.451
-252.078	181.325	0.183	-0.269
-251.063	-200.000	0.077	1.019
-250.049	-42.301	0.822	-0.419
-249.034	-200.000	0.002	-0.487
-248.019	-37.378	-0.368	0.196
-247.005	800.000	-0.111	-0.378
-245.990	-48.982	-0.320	0.153
-244.976	-16.888	-0.038	0.024
-243.961	-36.280	0.231	-0.124
-242.946	800.000	-0.134	-0.583
-241.932	-200.000	-0.009	1.143
-240.917	416.788	0.027	-0.058
-239.903	160.864	0.338	-0.471
-238.888	36.193	0.643	0.565
-237.873	-113.207	0.721	0.142
-236.859	-49.352	-0.380	-0.181
-235.844	-77.735	-0.418	-0.144
-234.830	-3.700	-0.227	0.157
-233.815	185.620	0.672	0.996
-232.800	-45.286	0.455	0.225
-231.786	-135.277	-0.207	-0.025
-230.771	-106.631	-0.214	0.047
-229.757	186.670	-0.482	0.716
-228.742	-101.186	-0.642	0.156
-227.727	77.712	0.467	0.496
-226.713	120.192	-0.189	-0.234
-225.698	800.000	0.059	-0.187
-224.684	800.000	0.267	0.827
-223.669	135.461	-0.178	0.231
-222.655	192.895	-0.322	-0.484
-221.640	-2.393	-0.586	-0.409
-220.625	-131.311	-0.404	-0.053
-219.611	83.928	-0.604	0.657
-218.596	167.347	-0.215	0.305
-217.582	334.963	0.122	0.235
-216.567	-90.669	-0.643	-0.185
-215.552	-36.009	-0.372	-0.200
-214.538	643.455	0.065	0.165
-213.523	208.806	-0.186	-0.289
-212.509	261.745	-0.278	0.479
-211.494	222.662	0.088	-0.140
-210.479	-79.787	-0.357	0.120
-209.465	77.486	-0.331	-0.351
-208.450	-14.789	0.478	0.306
-207.436	-200.000	-0.026	0.474
-206.421	-104.735	0.220	0.050
-205.406	-121.657	-0.386	0.064
-204.392	-159.299	0.737	-0.041
-203.377	-107.509	-0.316	-0.069
-202.363	6.541	0.208	-0.154
-201.348	-17.577	-0.474	0.297
-200.333	-24.558	-0.424	0.252
-199.319	-63.130	-0.548	-0.225
-198.304	277.742	0.251	0.445
-197.290	247.846	0.123	-0.206
-196.275	77.614	0.416	-0.441
-195.260	-128.702	-0.481	-0.068
-194.246	61.339	0.196	-0.194
-193.231	-103.788	0.589	0.137
-192.217	-89.466	-0.573	0.168
-191.202	-200.000	0.090	-0.924
-190.187	-66.209	0.344	0.137
-189.173	-110.755	-0.353	0.072
-188.158	-45.449	-0.378	-0.186
-187.144	-200.000	0.102	-0.535
-186.129	111.048	0.521	-0.624
-185.114	173.251	-0.425	-0.610
-184.100	800.000	0.087	0.288
-183.085	800.000	0.191	0.666
-182.071	87.128	-0.285	-0.313
-181.056	4.126	-0.216	-0.157
-180.042	-92.280	0.215	0.060
-179.027	-110.249	1.389	0.288
-178.012	-28.919	-0.325	-0.186
-176.998	-52.730	1.001	-0.459
-175.983	-200.000	0.041	0.332
-174.969	-94.724	-0.689	0.186
-173.954	152.246	-0.323	0.438
-172.939	-12.411	-0.117	-0.076
-171.925	-62.732	0.515	-0.212
-170.910	723.413	0.111	0.293
-169.896	85.723	0.313	0.342
-168.881	38.783	0.315	-0.280
-167.866	447.691	-0.185	0.406
-166.852	-200.000	0.145	0.655
-165.837	-60.052	0.290	-0.123
-164.823	-136.319	-0.626	-0.073
-163.808	-163.316	-0.788	-0.037
-162.793	-23.821	-0.159	0.094
-161.779	800.000	0.283	-0.814
-160.764	-61.840	0.245	0.102
-159.750	194.383	-0.392	-0.591
-158.735	-12.559	-0.415	0.269
-157.720	200.522	0.158	-0.241
-156.706	-200.000	-0.033	-0.279
-155.691	800.000	0.267	0.994
-154.677	-62.695	0.778	0.321
-153.662	32.542	-0.595	0.511
-152.647	319.850	-0.549	1.036
-151.633	122.066	-0.795	0.986
-150.618	800.000	0.068	-0.197
-149.604	-131.448	0.909	0.119
-148.589	-200.000	0.145	0.716
-147.574	-171.288	0.550	0.018
-146.560	-200.000	-0.014	-0.488
-145.545	-200.000	-0.137	0.787
-144.531	-200.000	-0.082	1.135
-143.516	-142.430	0.447	0.044
-142.502	-200.000	-0.001	-0.313
-141.487	-105.234	0.503	-0.114
-140.472	800.000	-0.172	-0.558
-139.458	-18.109	0.205	0.128
-138.443	313.342	-0.094	-0.175
-137.429	-38.190	0.448	0.236
-136.414	-120.022	-0.686	-0.117
-135.399	-200.000	-0.177	-0.825
-134.385	-200.000	-0.064	-0.369
-133.370	136.730	-0.452	-0.586
-132.356	-36.720	-0.467	-0.249
-131.341	396.015	0.180	0.374
-130.326	161.831	0.186	-0.259
-129.312	170.802	0.282	0.401
-128.297	800.000	-0.232	-0.777
-127.283	14.827	-0.273	0.212
-126.268	-20.238	-0.636	0.389
-125.253	-200.000	0.063	0.940
-124.239	283.763	-0.217	-0.387
-123.224	-62.984	0.489	0.201
-122.210	144.372	-0.530	-0.703
-121.195	-200.000	-0.162	-0.910
