DTS Sentinel unit serial number:	SN413079Multiplexer serial number:	ORYXHardware model number:	OX4-SRSoftware version number:	ORYX F/W v4.00 Oryx Data Collector v3.7.2.0data status	okinstallation	princeton_trtdifferential loss correction	single-endedforward channel	channel 4reverse channel	N/Adate	2019/09/12time	20:05:19forward acquisition time	15.00reverse acquisition time	0.00gamma	496.2192k internal	0.2311k external	0.2311temperature offset calibration	1.0151default loss term (dB/km)	0.3790temperature slope calibration	1.0000multiplexer offset coefficient	1.0000multiplexer slope coefficient	1.0000fibre end	0.00T internal ref (°C)	31.69T ext. ref 1 (°C)	3.40T ext. ref 2 (°C)	26.33length (m)	temperature (°C)	Stokes	anti-Stokes-747.200	-200.000	0.116	-0.673
-746.185	-123.397	-1.086	0.176
-745.171	800.000	-0.153	0.548
-744.156	-5.357	-0.790	-0.551
-743.142	-35.271	0.026	0.014
-742.127	-200.000	-0.055	-0.752
-741.112	106.078	0.154	0.185
-740.098	72.691	0.072	0.076
-739.083	77.682	0.365	-0.394
-738.069	800.000	-0.068	-0.209
-737.054	-200.000	-0.007	0.952
-736.039	29.245	0.511	0.441
-735.025	13.873	0.616	-0.487
-734.010	18.203	-0.007	0.006
-732.996	375.666	0.164	-0.340
-731.981	-85.094	0.708	0.225
-730.966	28.177	-0.730	-0.625
-729.952	-89.008	-0.587	-0.176
-728.937	251.688	0.287	-0.496
-727.923	800.000	-0.334	-1.017
-726.908	800.000	0.393	-1.190
-725.894	110.826	0.083	-0.101
-724.879	-83.550	0.448	0.145
-723.864	-30.439	0.595	0.343
-722.850	341.505	-0.292	-0.579
-721.835	800.000	0.121	-0.384
-720.821	-200.000	-0.175	-1.148
-719.806	42.018	0.344	0.317
-718.791	-200.000	-0.436	0.002
-717.777	44.183	-0.772	0.718
-716.762	-200.000	-0.010	0.310
-715.748	800.000	0.235	-0.723
-714.733	-53.055	-0.685	-0.319
-713.718	800.000	-0.105	0.350
-712.704	189.311	0.210	0.318
-711.689	-200.000	0.055	0.464
-710.675	-200.000	-0.069	0.364
-709.660	432.959	0.144	-0.316
-708.645	-127.323	-0.438	0.065
-707.631	-200.000	0.018	-0.517
-706.616	-200.000	0.060	0.309
-705.602	-200.000	-0.029	1.165
-704.587	-173.488	-0.298	-0.009
-703.572	-200.000	-0.025	0.606
-702.558	-200.000	-0.032	-0.264
-701.543	200.777	-0.084	-0.132
-700.529	-52.420	-0.681	0.320
-699.514	418.775	0.366	0.794
-698.499	800.000	-0.060	0.262
-697.485	-185.528	-0.291	0.004
-696.470	34.407	-0.660	-0.584
-695.456	-54.802	0.645	-0.295
-694.441	439.107	0.181	0.399
-693.426	-200.000	0.096	-0.583
-692.412	-75.185	-0.261	-0.094
-691.397	40.116	-0.185	0.169
-690.383	-146.077	-0.895	0.080
-689.368	800.000	-0.042	0.124
-688.354	-102.033	1.144	-0.279
-687.339	31.769	-0.434	-0.379
-686.324	-200.000	0.037	0.278
-685.310	61.386	-0.457	0.460
-684.295	-2.888	-0.900	0.637
-683.281	-74.793	-0.289	0.105
-682.266	60.359	0.528	-0.529
-681.251	-53.887	-0.640	-0.295
-680.237	101.759	-0.173	-0.205
-679.222	-145.048	0.519	0.048
-678.208	-200.000	0.131	0.904
-677.193	-200.000	0.075	0.588
-676.178	-25.610	-0.182	0.109
-675.164	-67.772	-0.336	0.133
-674.149	-200.000	-0.136	0.630
-673.135	6.943	-0.336	0.254
-672.120	800.000	0.159	0.519
-671.105	124.193	0.472	0.601
-670.091	-200.000	-0.115	0.784
-669.076	-26.645	-0.852	-0.505
-668.062	800.000	-0.158	0.617
-667.047	-0.471	-0.140	0.101
-666.032	-140.279	-0.203	-0.021
-665.018	630.851	0.151	-0.387
-664.003	146.252	-0.611	-0.830
-662.989	-92.096	0.388	0.111
-661.974	800.000	0.118	0.373
-660.959	-153.752	0.466	-0.032
-659.945	53.868	-0.531	0.516
-658.930	7.805	-0.624	0.473
-657.916	110.312	-0.605	0.736
-656.901	-31.559	0.632	0.359
-655.886	-6.233	-0.632	0.437
-654.872	236.822	-0.077	0.128
-653.857	161.184	-0.505	-0.714
-652.843	472.915	-0.288	0.657
-651.828	-28.073	-0.434	0.254
-650.814	-113.540	-0.413	-0.082
-649.799	-200.000	-0.061	-0.366
-648.784	567.503	-0.123	-0.303
-647.770	452.190	-0.194	-0.433
-646.755	-134.051	-0.127	-0.016
-645.741	-200.000	-0.003	0.608
-644.726	-42.087	-0.233	0.120
-643.711	135.040	0.360	-0.473
-642.697	-58.432	0.749	0.329
-641.682	-18.955	-0.580	-0.365
-640.668	800.000	0.095	0.350
-639.653	732.205	-0.053	-0.143
-638.638	-154.917	0.400	0.027
-637.624	800.000	-0.318	-0.974
-636.609	539.750	-0.237	0.570
-635.595	85.159	0.268	0.297
-634.580	-103.865	-0.820	0.194
-633.565	-200.000	-0.074	0.825
-632.551	179.113	0.178	0.263
-631.536	800.000	0.111	-0.439
-630.522	9.037	-0.214	0.164
-629.507	-90.614	-0.253	-0.074
-628.492	184.298	0.386	-0.578
-627.478	748.620	0.067	0.182
-626.463	158.018	0.705	-0.988
-625.449	-66.540	-0.287	0.115
-624.434	-90.329	0.460	0.135
-623.419	264.697	-0.334	0.587
-622.405	800.000	-0.121	-0.377
-621.390	-111.704	-1.090	0.223
-620.376	89.529	-0.271	0.306
-619.361	-200.000	-0.008	-0.422
-618.346	-19.891	0.672	-0.419
-617.332	-44.144	0.321	-0.163
-616.317	-113.184	-0.624	0.124
-615.303	153.126	-0.253	-0.350
-614.288	-200.000	0.169	0.898
-613.273	13.097	-0.587	0.459
-612.259	377.809	-0.266	-0.549
-611.244	-63.169	-0.357	0.149
-610.230	698.570	-0.081	0.216
-609.215	-25.711	-0.193	0.115
-608.201	-83.943	-0.569	-0.183
-607.186	-200.000	0.195	0.866
-606.171	-127.377	0.166	0.024
-605.157	-24.585	-0.327	0.197
-604.142	442.212	0.062	0.138
-603.128	-133.710	0.068	-0.009
-602.113	-200.000	0.039	0.713
-601.098	505.533	-0.121	0.284
-600.084	328.395	-0.408	-0.790
-599.069	32.550	-0.870	-0.759
-598.055	-200.000	0.007	0.485
-597.040	-200.000	-0.068	-0.428
-596.025	-54.997	-0.645	-0.294
-595.011	-33.021	0.837	0.469
-593.996	-200.000	0.106	-1.077
-592.982	-200.000	0.067	-0.445
-591.967	-34.387	0.682	-0.377
-590.952	800.000	-0.062	-0.206
-589.938	-163.683	0.231	-0.011
-588.923	800.000	-0.154	0.581
-587.909	44.176	-0.268	0.248
-586.894	-93.355	0.296	0.083
-585.879	-153.590	-0.324	-0.023
-584.865	113.680	0.040	0.049
-583.850	-53.557	-0.484	-0.223
-582.836	-147.167	-0.441	0.038
-581.821	-173.308	-0.839	0.026
-580.806	170.795	0.265	-0.383
-579.792	-200.000	0.118	0.603
-578.777	-200.000	0.147	0.667
-577.763	165.549	0.181	-0.258
-576.748	45.595	-0.707	0.659
-575.733	-10.896	-0.486	-0.324
-574.719	350.713	-0.133	0.266
-573.704	-105.723	-0.590	0.135
-572.690	-168.304	-0.406	-0.016
-571.675	-68.572	0.187	0.073
-570.661	218.488	0.419	0.675
-569.646	-193.159	-0.689	0.006
-568.631	32.069	-0.424	0.369
-567.617	800.000	-0.198	-0.835
-566.602	-178.407	0.658	-0.015
-565.588	800.000	0.365	1.089
-564.573	800.000	-0.088	-0.359
-563.558	800.000	-0.199	0.748
-562.544	-200.000	0.067	0.922
-561.529	-19.132	0.302	-0.189
-560.515	-50.709	0.346	0.164
-559.500	800.000	0.150	0.651
-558.485	1.092	-0.473	0.342
-557.471	-38.640	0.729	0.388
-556.456	-118.991	-0.428	-0.076
-555.442	-151.005	0.931	0.071
-554.427	3.096	0.494	-0.362
-553.412	800.000	0.085	-0.277
-552.398	-69.356	0.357	0.138
-551.383	194.955	0.130	0.199
-550.369	-48.221	-0.364	-0.177
-549.354	-115.638	-0.413	0.078
-548.339	-77.220	-0.677	-0.238
-547.325	800.000	0.195	0.699
-546.310	58.319	0.287	-0.284
-545.296	-58.950	-0.562	-0.245
-544.281	435.563	-0.068	-0.148
-543.266	-56.359	-0.459	-0.205
-542.252	-200.000	0.033	-0.586
-541.237	6.065	0.533	-0.398
-540.223	-200.000	-0.145	-0.647
-539.208	255.544	0.592	-1.022
-538.193	-30.120	0.312	-0.178
-537.179	8.935	-0.229	0.174
-536.164	551.241	0.315	0.761
-535.150	113.067	0.286	0.349
-534.135	-139.795	-0.457	-0.049
-533.121	132.623	0.338	0.439
-532.106	2.353	0.202	0.147
-531.091	270.273	0.275	0.487
-530.077	104.336	0.391	-0.463
-529.062	-200.000	-0.015	0.759
-528.048	-176.019	-0.556	0.015
-527.033	-124.226	-0.733	0.115
-526.018	-200.000	0.148	-0.664
-525.004	-51.447	0.786	0.370
-523.989	800.000	0.233	0.694
-522.975	-17.160	0.644	-0.409
-521.960	55.898	-0.456	-0.445
-520.945	-200.000	-0.055	-0.313
-519.931	-44.312	-0.939	-0.473
-518.916	123.998	0.373	0.472
-517.902	12.295	0.277	-0.215
-516.887	800.000	-0.111	0.347
-515.872	789.933	0.102	-0.283
-514.858	-45.574	-0.155	0.077
-513.843	184.894	-0.098	0.146
-512.829	-200.000	-0.008	-0.280
-511.814	800.000	0.086	-0.305
-510.799	216.093	-0.411	-0.658
-509.785	800.000	0.169	0.487
-508.770	800.000	-0.182	-0.758
-507.756	48.162	0.312	0.293
-506.741	-122.580	0.954	-0.156
-505.726	-200.000	-0.038	-0.348
-504.712	-200.000	0.035	-0.346
-503.697	77.906	0.591	0.634
-502.683	143.185	-0.440	0.589
-501.668	-200.000	-0.083	1.043
-500.653	-200.000	0.067	0.523
-499.639	-200.000	1.129	-0.004
-498.624	-15.850	-0.501	-0.321
-497.610	174.920	0.069	-0.100
-496.595	-62.038	0.843	0.354
-495.581	-49.075	-0.777	0.374
-494.566	-14.639	0.562	0.363
-493.551	-200.000	0.040	0.444
-492.537	13.480	1.125	0.878
-491.522	-9.727	0.699	-0.468
-490.508	-25.401	0.483	0.287
-489.493	-127.030	0.651	-0.096
-488.478	-24.976	-0.435	-0.260
-487.464	-5.845	0.822	-0.566
-486.449	102.048	-0.165	-0.193
-485.435	800.000	0.146	0.455
-484.420	-200.000	-0.158	-0.836
-483.405	201.529	-0.131	-0.203
-482.391	90.888	-0.261	-0.294
-481.376	637.761	0.146	-0.373
-480.362	364.075	0.146	-0.296
-479.347	-200.000	-0.029	0.396
-478.332	25.366	0.231	-0.192
-477.318	486.295	0.275	-0.630
-476.303	800.000	-0.035	-0.137
-475.289	-72.595	0.372	-0.138
-474.274	305.620	-0.138	-0.257
-473.259	14.795	0.205	-0.161
-472.245	-114.939	0.160	-0.031
-471.230	62.001	-0.571	0.572
-470.216	800.000	0.162	0.540
-469.201	779.343	0.055	0.150
-468.186	-97.097	0.209	0.055
-467.172	786.084	-0.233	0.643
-466.157	10.474	0.294	-0.225
-465.143	143.161	-0.437	-0.583
-464.128	-77.251	0.506	0.177
-463.113	-87.332	-0.250	0.076
-462.099	-200.000	-0.149	0.789
-461.084	-106.995	-0.749	-0.166
-460.070	119.186	0.473	-0.587
-459.055	-109.617	0.752	0.159
-458.040	-59.911	-0.416	-0.179
-457.026	81.403	0.749	0.813
-456.011	44.985	-0.381	0.352
-454.997	-75.120	0.315	0.113
-453.982	-200.000	-0.008	0.739
-452.968	-200.000	0.020	-0.318
-451.953	-22.850	-0.899	-0.545
-450.938	52.462	0.522	0.500
-449.924	-49.831	-0.239	-0.114
-448.909	20.079	0.615	0.498
-447.895	-200.000	0.029	-0.135
-446.880	95.314	-0.481	-0.550
-445.865	-200.000	0.038	0.709
-444.851	-200.000	-0.049	0.336
-443.836	-200.000	0.123	1.229
-442.822	-54.137	0.581	0.265
-441.807	-156.754	0.716	0.044
-440.792	-68.753	0.451	-0.175
-439.778	-148.958	0.352	-0.028
-438.763	-120.834	-0.416	-0.070
-437.749	127.856	0.282	0.359
-436.734	31.763	0.291	0.251
-435.719	252.483	-0.354	-0.605
-434.705	0.480	0.360	-0.258
-433.690	800.000	0.005	-0.015
-432.676	-101.226	-0.302	0.074
-431.661	-151.601	-0.919	-0.068
-430.646	-69.382	-0.391	-0.151
-429.632	87.293	-0.331	-0.367
-428.617	-58.300	0.567	-0.248
-427.603	-144.712	-0.365	-0.034
-426.588	656.979	0.166	0.428
-425.573	21.067	0.124	0.101
-424.559	-200.000	-0.001	1.042
-423.544	-167.497	1.840	-0.074
-422.530	-145.867	-0.624	0.056
-421.515	-87.113	-0.742	-0.226
-420.500	-139.003	0.173	0.019
-419.486	-20.752	-0.232	0.143
-418.471	59.052	-0.406	0.400
-417.457	74.782	-0.326	-0.344
-416.442	-141.868	-0.840	0.084
-415.428	-200.000	-0.123	-0.555
-414.413	-123.040	0.688	-0.111
-413.398	94.493	-0.486	-0.553
-412.384	-132.458	0.732	0.095
-411.369	-200.000	-0.078	-0.471
-410.355	2.476	-0.369	-0.267
-409.340	-20.647	0.594	0.365
-408.325	800.000	-0.334	-0.953
-407.311	-82.731	-0.464	0.150
-406.296	-200.000	-0.064	0.508
-405.282	465.639	0.340	0.761
-404.267	422.496	0.265	-0.570
-403.252	-157.405	-0.964	-0.058
-402.238	-81.325	-0.352	-0.116
-401.223	13.969	0.566	0.441
-400.209	-65.444	-0.749	-0.302
-399.194	82.362	-0.517	0.562
-398.179	-65.212	-0.540	0.218
-397.165	-173.841	-0.841	0.025
-396.150	763.402	0.286	-0.778
-395.136	-143.369	-0.267	0.026
-394.121	-52.308	-1.037	-0.481
-393.106	263.045	-0.314	0.545
-392.092	-200.000	-0.020	-0.407
-391.077	-123.988	0.137	0.022
-390.063	62.361	0.310	0.310
-389.048	-75.163	-0.417	-0.149
-388.033	-115.088	-0.136	-0.026
-387.019	422.506	-0.120	0.257
-386.004	-200.000	-0.018	0.799
-384.990	31.819	-0.734	-0.633
-383.975	800.000	-0.038	0.144
-382.960	-113.576	0.560	-0.110
-381.946	542.687	-0.106	-0.253
-380.931	-37.889	0.746	-0.397
-379.917	800.000	0.180	0.680
-378.902	-88.532	0.301	-0.090
-377.888	-193.046	-0.420	-0.004
-376.873	49.511	0.126	0.119
-375.858	-143.678	1.275	0.121
-374.844	800.000	-0.134	-0.432
-373.829	-54.715	0.534	-0.241
-372.815	800.000	0.133	0.576
-371.800	94.156	0.537	-0.610
-370.785	-23.588	-0.603	0.362
-369.771	74.547	0.605	-0.636
-368.756	-37.026	0.652	0.349
-367.742	32.375	-0.466	-0.403
-366.727	723.553	-0.097	0.260
-365.712	-16.862	-0.317	0.200
-364.698	-36.338	0.208	-0.112
-363.683	-200.000	0.016	0.479
-362.669	-200.000	0.050	-0.473
-361.654	458.004	-0.418	0.929
-360.639	11.167	0.226	0.173
-359.625	-45.212	0.275	-0.137
-358.610	-103.487	-0.442	-0.104
-357.596	-16.533	-0.571	0.362
-356.581	310.876	0.221	-0.414
-355.566	-60.226	-0.090	-0.038
-354.552	431.791	-0.116	0.251
-353.537	151.750	-0.307	-0.418
-352.523	457.549	0.218	-0.484
-351.508	581.273	0.225	-0.552
-350.493	93.072	-0.482	-0.545
-349.479	-35.876	-0.554	-0.300
-348.464	63.533	0.332	-0.333
-347.450	663.608	-0.177	-0.457
-346.435	-43.581	-0.292	-0.147
-345.420	800.000	-0.067	-0.210
-344.406	43.768	-0.444	-0.406
-343.391	-19.508	0.303	-0.187
-342.377	151.742	-0.212	-0.289
-341.362	-41.212	-0.388	0.200
-340.348	-200.000	-0.031	0.340
-339.333	-108.153	0.214	0.046
-338.318	-81.978	0.789	0.258
-337.304	22.810	0.368	-0.301
-336.289	800.000	0.097	0.347
-335.275	-200.000	-0.027	-0.144
-334.260	56.778	0.137	-0.133
-333.245	-32.038	-0.536	0.300
-332.231	573.593	0.149	0.363
-331.216	-144.174	-0.835	-0.078
-330.202	-140.668	-1.173	0.121
-329.187	-200.000	-0.006	-0.139
-328.172	-153.759	0.112	-0.008
-327.158	-25.943	0.294	0.173
-326.143	48.227	0.498	0.466
-325.129	84.888	0.701	-0.767
-324.114	199.157	0.099	-0.151
-323.099	372.091	-0.308	-0.624
-322.085	7.720	0.739	0.552
-321.070	-175.952	0.420	0.011
-320.056	591.997	0.203	0.501
-319.041	-200.000	-0.126	0.621
-318.026	-200.000	0.061	-0.392
-317.012	102.846	-0.366	0.428
-315.997	-78.319	-1.033	-0.354
-314.983	-200.000	-0.104	-0.685
-313.968	505.103	-0.089	-0.206
-312.953	800.000	0.222	0.669
-311.939	-23.885	0.406	-0.243
-310.924	186.344	0.436	-0.648
-309.910	-5.089	-0.243	0.167
-308.895	800.000	-0.407	1.250
-307.880	-15.514	-0.235	0.150
-306.866	-107.139	0.321	0.071
-305.851	91.137	-0.414	0.463
-304.837	144.639	-0.646	-0.861
-303.822	236.019	0.064	-0.105
-302.807	38.516	-0.447	-0.398
-301.793	-44.925	-0.931	0.463
-300.778	-127.542	0.244	-0.035
-299.764	-91.818	0.287	0.081
-298.749	-200.000	-0.065	-1.144
-297.735	-147.792	-0.414	-0.035
-296.720	-114.251	-0.710	0.137
-295.705	-54.638	0.589	-0.266
-294.691	4.190	-0.594	-0.434
-293.676	800.000	-0.121	-0.481
-292.662	-200.000	-0.148	-0.778
-291.647	-200.000	0.117	-0.599
-290.632	460.883	0.057	0.126
-289.618	54.068	0.507	-0.487
-288.603	-63.033	0.716	-0.295
-287.589	72.526	0.388	0.403
-286.574	-200.000	0.022	-0.667
-285.559	432.908	-0.215	0.466
-284.545	262.677	-0.085	-0.148
-283.530	77.817	0.507	-0.538
-282.516	-23.180	-0.542	-0.325
-281.501	102.942	0.325	0.379
-280.486	-175.733	-0.227	-0.006
-279.472	-43.157	-0.219	-0.110
-278.457	362.380	-0.340	-0.680
-277.443	187.400	-0.275	-0.409
-276.428	148.667	-0.518	-0.698
-275.413	-71.650	-0.499	0.186
-274.399	-51.977	0.334	-0.155
-273.384	610.547	-0.207	-0.516
-272.370	93.466	0.243	0.274
-271.355	168.015	0.503	-0.714
-270.340	-131.760	-0.304	0.040
-269.326	295.455	0.319	-0.581
-268.311	-200.000	-0.036	-0.456
-267.297	-92.637	-0.402	0.112
-266.282	-18.481	0.697	0.434
-265.267	-200.000	0.024	0.283
-264.253	-138.173	-0.469	0.052
-263.238	-200.000	0.291	1.288
-262.224	-200.000	0.065	-0.362
-261.209	800.000	-0.101	-0.436
-260.195	167.273	0.472	0.668
-259.180	-46.116	-0.446	-0.219
-258.165	800.000	0.252	0.716
-257.151	35.597	0.048	-0.042
-256.136	-48.390	0.939	0.451
-255.122	-53.391	-0.605	0.276
-254.107	-200.000	0.025	0.228
-253.092	238.806	-0.027	0.045
-252.078	800.000	0.139	0.574
-251.063	-200.000	0.004	0.075
-250.049	108.928	0.536	0.638
-249.034	652.724	-0.126	0.322
-248.019	-72.640	-0.870	0.320
-247.005	-200.000	0.043	0.411
-245.990	-85.639	-0.349	0.108
-244.976	-85.239	0.470	-0.146
-243.961	19.159	0.168	-0.134
-242.946	18.011	-0.684	-0.543
-241.932	-171.520	-0.785	0.026
-240.917	32.262	-0.377	-0.324
-239.903	-200.000	-0.003	0.336
-238.888	-200.000	0.097	-1.692
-237.873	154.981	-0.373	0.510
-236.859	-9.008	-0.405	-0.270
-235.844	-200.000	0.188	-0.878
-234.830	175.733	0.275	-0.397
-233.815	-0.898	0.417	-0.294
-232.800	-24.840	-0.631	0.373
-231.786	800.000	0.098	0.346
-230.771	351.129	0.159	0.312
-229.757	-81.524	-0.713	-0.233
-228.742	-200.000	0.054	-0.420
-227.727	146.526	-0.137	-0.183
-226.713	-57.001	0.148	-0.065
-225.698	-200.000	-0.015	0.380
-224.684	800.000	0.050	0.189
-223.669	49.593	0.499	-0.467
-222.655	-41.031	-0.439	0.225
-221.640	-131.854	0.898	0.117
-220.625	8.829	0.237	0.178
-219.611	189.854	0.136	0.203
-218.596	22.077	0.168	0.136
-217.582	800.000	-0.173	-0.531
-216.567	570.293	-0.080	0.193
-215.552	207.484	-0.215	-0.334
-214.538	96.956	-0.232	0.264
-213.523	-200.000	0.147	0.867
-212.509	308.525	-0.237	-0.440
-211.494	404.402	-0.111	0.234
-210.479	3.227	0.395	-0.286
-209.465	800.000	0.205	0.605
-208.450	800.000	-0.214	-0.633
-207.436	-200.000	-0.105	0.468
-206.421	-200.000	0.040	-0.183
-205.406	-200.000	0.076	-0.592
-204.392	-169.823	0.721	-0.026
-203.377	19.389	-0.643	-0.513
-202.363	200.835	-0.268	-0.409
-201.348	61.206	0.628	0.620
-200.333	-27.726	-0.349	-0.201
-199.319	-77.508	1.424	-0.491
-198.304	-200.000	-0.025	-0.331
-197.290	-94.386	0.669	0.181
-196.275	-141.703	-0.396	0.040
-195.260	-200.000	-0.045	0.611
-194.246	-123.146	0.756	-0.120
-193.231	343.374	0.293	-0.571
-192.217	312.613	-0.224	-0.418
-191.202	-200.000	0.008	-0.345
-190.187	-24.455	0.614	-0.363
-189.173	98.923	-0.125	0.143
-188.158	800.000	0.181	0.631
-187.144	-200.000	0.108	0.473
-186.129	90.044	0.382	-0.424
-185.114	260.739	0.188	0.322
-184.100	377.707	-0.142	0.288
-183.085	215.420	-0.136	-0.215
-182.071	-118.319	-0.623	-0.110
-181.056	411.425	0.130	0.274
-180.042	64.760	0.006	0.006
-179.027	65.655	0.222	-0.223
-178.012	-200.000	-0.509	-0.002
-176.998	-200.000	0.078	0.888
-175.983	59.568	-0.546	0.534
-174.969	16.995	0.273	-0.215
-173.954	98.325	-0.283	-0.324
-172.939	-1.234	0.829	0.582
-171.925	519.163	0.227	0.528
-170.910	-3.509	0.579	0.400
-169.896	-119.703	0.637	0.109
-168.881	800.000	-0.125	-0.442
-167.866	-12.174	0.774	0.503
-166.852	-2.394	0.766	-0.533
-165.837	-96.499	0.722	0.189
-164.823	29.576	-0.179	-0.151
-163.808	68.687	0.450	0.458
-162.793	800.000	-0.209	0.834
-161.779	-200.000	0.074	0.338
-160.764	-117.937	0.335	0.060
-159.750	-35.186	0.283	-0.153
-158.735	-66.705	-0.299	0.117
-157.720	-112.648	-0.816	0.161
-156.706	-82.170	-0.705	0.228
-155.691	-147.850	0.374	-0.031
-154.677	119.405	-0.433	-0.532
-153.662	-200.000	0.064	-0.301
-152.647	701.440	-0.275	-0.718
-151.633	-200.000	-0.065	0.324
-150.618	-200.000	-0.018	-0.354
-149.604	-7.827	-0.363	0.243
-148.589	11.336	-0.273	0.208
-147.574	-24.076	0.335	0.199
-146.560	-63.656	-0.154	0.062
-145.545	408.412	0.518	-1.086
-144.531	236.478	0.449	-0.737
-143.516	15.761	0.351	0.274
-142.502	-200.000	0.045	0.279
-141.487	-200.000	0.021	0.139
-140.472	131.132	0.278	0.354
-139.458	-200.000	0.037	0.540
-138.443	-90.423	0.331	0.095
-137.429	-132.317	0.486	-0.062
-136.414	18.907	-0.333	-0.264
-135.399	-49.342	0.347	-0.164
-134.385	3.390	-0.497	-0.359
-133.370	-200.000	0.094	-0.524
-132.356	-27.992	-0.612	0.351
-131.341	800.000	0.229	0.661
-130.326	413.024	0.023	0.048
-129.312	-200.000	0.079	0.831
-128.297	-190.067	-0.229	-0.003
-127.283	800.000	-0.075	0.226
-126.268	1.913	-0.543	-0.388
-125.253	-122.576	0.033	0.005
-124.239	-50.510	0.852	-0.398
-123.224	159.998	0.370	0.511
-122.210	-11.723	-0.860	0.560
-121.195	57.492	-0.629	0.609
