DTS Sentinel unit serial number:	SN413079Multiplexer serial number:	ORYXHardware model number:	OX4-SRSoftware version number:	ORYX F/W v4.00 Oryx Data Collector v3.7.2.0data status	okinstallation	princeton_trtdifferential loss correction	single-endedforward channel	channel 4reverse channel	N/Adate	2019/09/18time	23:01:35forward acquisition time	60.00reverse acquisition time	0.00gamma	496.2192k internal	0.2333k external	0.2333temperature offset calibration	1.0032default loss term (dB/km)	0.3790temperature slope calibration	1.0000multiplexer offset coefficient	1.0000multiplexer slope coefficient	1.0000fibre end	0.00T internal ref (°C)	24.00T ext. ref 1 (°C)	0.78T ext. ref 2 (°C)	18.00length (m)	temperature (°C)	Stokes	anti-Stokes-747.200	-15.834	-0.320	-0.205
-746.185	-142.560	0.298	-0.029
-745.171	-59.431	0.081	-0.035
-744.156	94.148	-0.161	0.184
-743.142	-200.000	-0.248	0.001
-742.127	-200.000	0.000	0.541
-741.112	-99.344	-0.106	0.027
-740.098	-80.112	0.177	0.060
-739.083	-76.813	0.318	-0.112
-738.069	800.000	-0.141	0.399
-737.054	-200.000	0.065	0.329
-736.039	242.698	-0.175	-0.295
-735.025	-200.000	0.063	0.416
-734.010	-25.176	0.076	-0.046
-732.996	-200.000	-0.031	-0.211
-731.981	132.005	-0.199	-0.258
-730.966	222.130	0.132	-0.214
-729.952	-200.000	0.010	0.153
-728.937	800.000	-0.032	0.094
-727.923	-71.536	-0.210	0.079
-726.908	132.994	0.081	-0.105
-725.894	-34.208	0.228	-0.126
-724.879	81.680	0.232	-0.253
-723.864	14.795	0.250	-0.196
-722.850	800.000	-0.116	0.398
-721.835	-44.923	-0.194	0.097
-720.821	1.728	-0.192	-0.139
-719.806	-200.000	0.072	-0.341
-718.791	136.037	-0.160	0.209
-717.777	-81.822	0.137	0.045
-716.762	315.173	-0.198	-0.376
-715.748	-63.960	-0.309	-0.127
-714.733	21.752	-0.126	-0.103
-713.718	71.252	0.173	0.180
-712.704	265.649	-0.111	0.194
-711.689	-158.289	0.147	-0.009
-710.675	-57.037	-0.132	-0.059
-709.660	-36.472	0.394	-0.213
-708.645	327.329	0.066	-0.126
-707.631	-41.574	-0.218	-0.113
-706.616	800.000	0.118	-0.450
-705.602	-126.306	-0.168	-0.025
-704.587	-200.000	-0.023	-0.225
-703.572	-12.329	0.154	-0.101
-702.558	-148.312	0.302	-0.025
-701.543	-200.000	-0.038	-0.245
-700.529	13.073	-0.257	-0.200
-699.514	360.594	-0.033	-0.066
-698.499	-200.000	0.007	-0.140
-697.485	-200.000	-0.010	0.185
-696.470	-142.966	-0.328	0.032
-695.456	186.194	0.104	0.155
-694.441	69.805	-0.071	0.074
-693.426	196.392	-0.096	0.147
-692.412	244.619	0.192	-0.324
-691.397	-77.770	-0.363	0.126
-690.383	800.000	0.089	0.267
-689.368	437.463	0.115	0.252
-688.354	-22.200	0.231	-0.141
-687.339	-200.000	0.018	0.119
-686.324	-200.000	-0.032	0.199
-685.310	-19.388	0.088	-0.055
-684.295	-200.000	0.033	0.180
-683.281	-41.711	0.232	-0.120
-682.266	-20.076	-0.113	-0.070
-681.251	-74.702	-0.099	-0.036
-680.237	-200.000	-0.028	0.462
-679.222	-200.000	0.010	-0.227
-678.208	376.200	-0.139	-0.284
-677.193	-67.927	-0.496	0.194
-676.178	260.590	-0.007	-0.012
-675.164	-200.000	-0.007	-0.377
-674.149	-58.640	-0.241	-0.105
-673.135	153.672	0.172	0.236
-672.120	800.000	-0.030	0.087
-671.105	-91.244	0.177	-0.051
-670.091	-36.364	-0.247	0.133
-669.076	83.635	-0.011	-0.012
-668.062	113.344	-0.038	-0.046
-667.047	206.072	-0.085	0.133
-666.032	580.099	-0.158	-0.389
-665.018	-200.000	0.014	-0.088
-664.003	-200.000	-0.012	-0.139
-662.989	324.829	0.191	0.366
-661.974	-200.000	-0.019	-0.203
-660.959	-50.630	0.122	-0.058
-659.945	-200.000	0.349	-0.001
-658.930	38.159	-0.125	-0.112
-657.916	-200.000	-0.056	-0.498
-656.901	-54.704	0.255	-0.116
-655.886	-121.268	0.176	0.029
-654.872	-197.201	-0.236	0.002
-653.857	-200.000	0.009	-0.140
-652.843	467.624	0.203	-0.456
-651.828	800.000	-0.069	-0.209
-650.814	-18.045	0.071	-0.045
-649.799	338.066	-0.107	0.208
-648.784	113.913	0.130	-0.158
-647.770	-33.286	-0.162	0.090
-646.755	-15.329	-0.277	0.178
-645.741	52.086	-0.140	-0.134
-644.726	-88.671	-0.185	0.055
-643.711	-132.452	0.224	0.029
-642.697	211.622	-0.141	-0.222
-641.682	-63.979	0.156	0.064
-640.668	538.522	0.058	0.139
-639.653	537.440	0.126	0.300
-638.638	800.000	-0.071	0.253
-637.624	57.703	0.087	0.085
-636.609	-143.360	0.199	-0.019
-635.595	197.916	-0.137	-0.210
-634.580	-73.732	0.101	0.037
-633.565	-61.424	-0.094	0.040
-632.551	-33.531	-0.203	0.112
-631.536	-94.473	0.146	0.040
-630.522	-200.000	0.024	0.219
-629.507	35.931	0.035	0.031
-628.492	34.281	0.100	-0.087
-627.478	-135.583	0.323	0.038
-626.463	-200.000	0.029	-0.181
-625.449	-38.878	-0.269	0.142
-624.434	364.972	-0.109	-0.219
-623.419	17.258	-0.094	0.075
-622.405	235.044	0.093	-0.154
-621.390	3.882	-0.162	-0.119
-620.376	-200.000	0.013	0.192
-619.361	-112.715	0.261	-0.052
-618.346	-200.000	-0.047	-0.361
-617.332	324.286	-0.118	-0.226
-616.317	-181.929	-0.334	-0.006
-615.303	-143.269	-0.067	-0.006
-614.288	280.417	0.147	0.263
-613.273	140.211	0.053	-0.070
-612.259	-200.000	-0.011	-0.128
-611.244	-200.000	0.018	-0.081
-610.230	640.356	-0.132	-0.337
-609.215	-200.000	0.061	0.420
-608.201	800.000	0.105	0.371
-607.186	-200.000	-0.028	-0.173
-606.171	-128.142	-0.034	0.005
-605.157	-108.118	-0.234	-0.051
-604.142	-4.877	-0.166	-0.114
-603.128	-21.237	0.038	0.023
-602.113	43.383	-0.085	0.078
-601.098	192.627	-0.177	-0.267
-600.084	-126.393	-0.015	0.002
-599.069	-138.797	-0.302	-0.033
-598.055	435.847	-0.081	0.177
-597.040	800.000	0.058	-0.250
-596.025	-128.264	-0.082	-0.012
-595.011	-200.000	-0.241	0.001
-593.996	-200.000	0.020	-0.135
-592.982	-91.615	0.298	-0.085
-591.967	-102.536	0.178	0.042
-590.952	-107.566	0.348	0.076
-589.938	61.432	-0.247	-0.245
-588.923	-125.639	0.173	-0.026
-587.909	-62.814	0.202	-0.084
-586.894	-172.190	-0.175	0.006
-585.879	-200.000	0.029	-0.206
-584.865	-35.421	-0.050	-0.027
-583.850	509.232	0.111	0.257
-582.836	640.815	-0.065	-0.166
-581.821	39.587	0.174	-0.156
-580.806	-200.000	0.048	0.311
-579.792	-200.000	0.027	0.421
-578.777	-102.618	-0.206	0.049
-577.763	221.508	0.132	0.212
-576.748	-52.300	-0.349	-0.162
-575.733	-183.056	-0.319	0.006
-574.719	-156.282	-0.120	0.008
-573.704	-200.000	-0.013	0.250
-572.690	-200.000	0.000	0.402
-571.675	-39.402	-0.433	0.227
-570.661	-137.736	-0.123	0.014
-569.646	53.937	0.191	-0.183
-568.631	-69.134	-0.085	-0.033
-567.617	-110.570	-0.466	0.096
-566.602	-128.414	0.256	-0.036
-565.588	-200.000	0.097	-0.440
-564.573	-112.771	0.135	0.027
-563.558	-200.000	-0.012	-0.125
-562.544	-200.000	0.040	-0.265
-561.529	-66.757	-0.098	0.039
-560.515	-200.000	0.063	-0.365
-559.500	-91.134	0.222	-0.064
-558.485	380.075	-0.044	0.089
-557.471	71.469	-0.046	0.048
-556.456	400.087	0.121	0.253
-555.442	800.000	-0.057	-0.223
-554.427	-185.158	0.332	0.005
-553.412	257.172	0.072	-0.124
-552.398	-148.112	0.524	-0.043
-551.383	15.847	-0.233	-0.183
-550.369	-200.000	0.009	0.050
-549.354	800.000	-0.067	0.250
-548.339	-120.504	-0.338	-0.057
-547.325	800.000	0.102	-0.293
-546.310	3.225	-0.091	-0.066
-545.296	612.120	-0.071	0.177
-544.281	58.194	0.080	-0.078
-543.266	-33.930	-0.210	-0.116
-542.252	-82.246	0.481	0.156
-541.237	-200.000	0.038	-0.251
-540.223	800.000	0.099	-0.404
-539.208	-187.607	-0.282	0.004
-538.193	-65.759	0.182	-0.073
-537.179	-94.458	-0.199	0.054
-536.164	40.136	0.051	-0.046
-535.150	800.000	0.062	-0.172
-534.135	378.976	-0.193	0.393
-533.121	124.703	0.272	0.341
-532.106	-200.000	0.034	0.155
-531.091	-87.600	0.142	0.043
-530.077	-59.704	-0.168	0.072
-529.062	-55.866	-0.393	-0.175
-528.048	-200.000	0.048	-0.217
-527.033	44.517	0.258	-0.236
-526.018	800.000	-0.095	-0.347
-525.004	-8.321	-0.176	-0.118
-523.989	66.421	-0.279	-0.283
-522.975	144.335	-0.095	0.126
-521.960	468.492	0.018	-0.039
-520.945	-200.000	-0.070	-0.320
-519.931	26.730	0.212	-0.177
-518.916	-115.621	-0.048	0.009
-517.902	-125.452	-0.100	-0.015
-516.887	-81.459	-0.078	-0.026
-515.872	-200.000	0.001	-0.140
-514.858	-44.479	0.032	-0.016
-513.843	-200.000	-0.013	-0.260
-512.829	165.888	0.030	-0.042
-511.814	110.334	-0.150	-0.180
-510.799	48.259	-0.110	-0.102
-509.785	-200.000	-0.001	-0.223
-508.770	-200.000	-0.019	0.236
-507.756	-103.934	0.014	0.003
-506.741	-200.000	0.024	0.563
-505.726	150.731	-0.110	0.149
-504.712	-119.452	0.105	-0.018
-503.697	255.588	-0.048	-0.082
-502.683	26.665	-0.038	0.032
-501.668	-22.163	-0.170	-0.103
-500.653	-121.721	0.146	0.024
-499.639	-200.000	0.008	0.372
-498.624	132.743	-0.089	0.115
-497.610	-59.942	-0.084	-0.036
-496.595	-200.000	-0.000	-0.204
-495.581	217.985	0.143	0.228
-494.566	-114.029	0.150	0.029
-493.551	-200.000	0.002	-0.410
-492.537	-24.820	0.042	0.025
-491.522	-200.000	-0.004	-0.162
-490.508	-200.000	0.000	-0.236
-489.493	800.000	-0.015	0.057
-488.478	49.384	-0.157	-0.147
-487.464	13.173	0.163	-0.126
-486.449	70.546	-0.165	-0.170
-485.435	-130.429	0.285	0.038
-484.420	-155.970	0.178	-0.011
-483.405	800.000	-0.040	-0.156
-482.391	-200.000	-0.055	-0.385
-481.376	310.757	0.059	-0.110
-480.362	-200.000	0.033	-0.380
-479.347	800.000	-0.011	0.034
-478.332	171.614	-0.051	-0.073
-477.318	-19.066	-0.414	0.256
-476.303	694.189	-0.055	-0.145
-475.289	296.658	0.128	0.234
-474.274	392.811	-0.041	-0.085
-473.259	37.792	0.367	0.325
-472.245	-44.369	0.086	0.043
-471.230	39.397	-0.066	0.059
-470.216	-185.022	0.293	-0.005
-469.201	131.171	0.039	-0.049
-468.186	-45.787	0.211	0.104
-467.172	-79.839	-0.275	-0.092
-466.157	89.638	0.152	-0.168
-465.143	-94.779	-0.185	0.050
-464.128	8.209	-0.354	-0.264
-463.113	-48.755	0.175	0.084
-462.099	165.611	0.092	-0.130
-461.084	109.090	-0.066	-0.079
-460.070	-117.438	-0.341	0.061
-459.055	41.177	-0.113	0.102
-458.040	-40.313	-0.196	0.101
-457.026	-193.489	0.222	0.002
-456.011	800.000	-0.067	-0.285
-454.997	-200.000	-0.103	0.476
-453.982	-200.000	0.035	0.313
-452.968	800.000	0.014	-0.050
-451.953	-200.000	0.041	-0.214
-450.938	-76.726	-0.292	0.102
-449.924	800.000	-0.107	0.388
-448.909	-97.000	-0.116	-0.030
-447.895	17.084	-0.047	-0.037
-446.880	-192.299	0.534	0.005
-445.865	13.842	0.069	-0.053
-444.851	-40.000	0.222	-0.115
-443.836	107.164	-0.166	0.197
-442.822	800.000	-0.119	-0.383
-441.807	800.000	0.071	-0.197
-440.792	771.461	-0.093	0.252
-439.778	800.000	-0.033	-0.095
-438.763	-102.646	0.036	0.009
-437.749	204.022	0.110	-0.169
-436.734	-125.444	0.519	-0.078
-435.719	227.939	-0.241	-0.390
-434.705	377.789	0.143	-0.290
-433.690	-5.160	-0.209	-0.143
-432.676	70.438	0.187	-0.192
-431.661	-131.658	0.258	0.034
-430.646	153.729	-0.259	0.352
-429.632	-200.000	0.014	0.085
-428.617	432.961	0.168	0.362
-427.603	800.000	0.018	0.057
-426.588	0.739	-0.139	-0.099
-425.573	-28.386	0.335	-0.192
-424.559	52.764	0.156	0.148
-423.544	-200.000	0.006	-0.114
-422.530	-114.136	0.471	-0.090
-421.515	1.294	-0.072	0.051
-420.500	27.858	-0.392	0.328
-419.486	416.833	0.124	-0.264
-418.471	-200.000	-0.015	-0.161
-417.457	-55.558	0.114	0.051
-416.442	52.283	-0.252	-0.238
-415.428	800.000	-0.129	-0.366
-414.413	289.144	0.192	0.346
-413.398	-112.306	-0.152	-0.030
-412.384	209.627	0.114	0.178
-411.369	-27.775	0.120	0.069
-410.355	800.000	0.076	0.250
-409.340	800.000	0.018	-0.051
-408.325	-112.442	0.076	-0.015
-407.311	20.705	0.214	0.172
-406.296	800.000	0.046	0.179
-405.282	246.633	-0.220	0.368
-404.267	-42.530	-0.438	0.221
-403.252	515.882	-0.086	-0.199
-402.238	241.256	-0.083	-0.137
-401.223	194.790	-0.237	-0.356
-400.209	-77.010	0.263	-0.091
-399.194	-200.000	0.010	0.101
-398.179	443.727	-0.093	0.201
-397.165	197.665	0.027	0.041
-396.150	800.000	-0.035	-0.133
-395.136	149.394	0.047	0.063
-394.121	-173.226	-0.317	0.010
-393.106	14.925	0.120	-0.093
-392.092	-78.633	-0.142	-0.048
-391.077	-45.246	-0.155	0.077
-390.063	-200.000	-0.056	-0.341
-389.048	-123.349	0.157	-0.025
-388.033	-117.660	-0.355	-0.064
-387.019	-76.501	-0.127	0.044
-386.004	-51.302	0.081	0.038
-384.990	-200.000	-0.043	0.197
-383.975	-174.853	-0.112	-0.003
-382.960	-74.385	-0.334	-0.119
-381.946	-0.327	0.096	0.067
-380.931	94.793	0.241	0.272
-379.917	-153.471	-0.110	-0.008
-378.902	497.609	0.041	-0.093
-377.888	-100.595	0.128	0.031
-376.873	128.319	0.037	-0.047
-375.858	-95.616	-0.138	-0.037
-374.844	369.290	0.203	0.408
-373.829	213.486	-0.150	-0.235
-372.815	800.000	-0.081	-0.244
-371.800	-12.665	-0.226	-0.146
-370.785	123.334	-0.025	0.031
-369.771	-71.555	-0.431	-0.159
-368.756	597.445	-0.089	-0.219
-367.742	20.787	0.109	-0.087
-366.727	-200.000	0.002	-0.121
-365.712	-140.717	0.248	-0.025
-364.698	476.315	0.058	0.130
-363.683	-28.058	-0.122	0.070
-362.669	288.749	0.211	-0.378
-361.654	-200.000	-0.064	0.311
-360.639	800.000	0.044	-0.151
-359.625	800.000	-0.039	0.123
-358.610	-65.766	0.242	-0.096
-357.596	-98.905	0.283	0.071
-356.581	224.763	0.091	0.146
-355.566	-15.882	-0.408	0.258
-354.552	-62.724	0.126	-0.052
-353.537	-75.918	-0.079	0.028
-352.523	561.216	-0.093	-0.224
-351.508	-43.422	-0.203	-0.102
-350.493	800.000	-0.083	0.259
-349.479	-86.415	-0.374	-0.114
-348.464	-163.279	0.059	-0.003
-347.450	10.775	0.373	0.282
-346.435	-155.981	0.185	0.012
-345.420	-27.505	0.157	0.090
-344.406	214.915	-0.105	0.164
-343.391	-70.234	0.258	0.097
-342.377	611.311	0.039	0.096
-341.362	250.039	0.188	-0.316
-340.348	162.523	0.160	0.223
-339.333	-29.553	0.297	-0.168
-338.318	-136.346	-0.050	-0.006
-337.304	8.320	-0.059	-0.044
-336.289	5.016	-0.161	-0.117
-335.275	268.451	-0.088	-0.152
-334.260	-54.998	0.137	-0.061
-333.245	-200.000	0.113	0.000
-332.231	-200.000	0.043	-0.274
-331.216	800.000	0.006	0.021
-330.202	-200.000	-0.091	0.585
-329.187	21.595	0.122	0.098
-328.172	-122.616	0.253	-0.041
-327.158	-92.413	0.092	-0.026
-326.143	224.678	-0.117	-0.187
-325.129	-19.995	0.278	-0.170
-324.114	253.821	0.050	-0.085
-323.099	44.928	0.231	-0.210
-322.085	100.719	0.076	0.088
-321.070	268.477	-0.115	-0.200
-320.056	713.022	0.056	-0.147
-319.041	187.439	-0.124	0.183
-318.026	-89.140	-0.086	-0.025
-317.012	-70.674	0.483	0.181
-315.997	179.733	-0.106	0.153
-314.983	800.000	-0.013	0.054
-313.968	677.212	-0.101	0.260
-312.953	286.263	0.039	0.070
-311.939	-6.205	0.121	0.081
-310.924	-30.710	-0.099	-0.055
-309.910	-146.774	-0.217	-0.019
-308.895	86.420	0.183	-0.200
-307.880	-135.032	0.333	-0.040
-306.866	76.590	-0.055	0.057
-305.851	287.095	-0.050	-0.089
-304.837	800.000	0.152	-0.486
-303.822	800.000	0.052	0.210
-302.807	-77.012	0.277	0.096
-301.793	-200.000	-0.038	-0.359
-300.778	-200.000	-0.027	0.136
-299.764	-200.000	0.025	0.569
-298.749	-108.406	-0.331	0.070
-297.735	-200.000	-0.008	-0.183
-296.720	-144.460	-0.050	-0.005
-295.705	71.376	0.125	-0.128
-294.691	-200.000	-0.006	-0.072
-293.676	-111.029	0.134	-0.027
-292.662	23.316	0.401	-0.326
-291.647	-59.115	-0.185	0.079
-290.632	-70.977	-0.281	0.105
-289.618	566.018	-0.132	0.317
-288.603	410.085	0.207	0.433
-287.589	310.918	0.114	-0.211
-286.574	-121.857	-0.251	-0.041
-285.559	800.000	0.042	-0.171
-284.545	-39.559	-0.256	0.132
-283.530	139.911	0.169	0.220
-282.516	-200.000	0.000	-0.048
-281.501	169.784	-0.088	0.124
-280.486	-173.222	-0.458	-0.014
-279.472	-200.000	-0.047	0.264
-278.457	-41.948	0.296	0.150
-277.443	-200.000	0.001	0.069
-276.428	-15.956	-0.366	-0.230
-275.413	800.000	0.048	-0.132
-274.399	789.297	0.048	-0.130
-273.384	-114.340	-0.036	0.007
-272.370	28.447	0.076	0.063
-271.355	-92.845	0.308	0.085
-270.340	25.687	-0.062	-0.051
-269.326	-178.177	-0.203	-0.005
-268.311	-151.408	0.127	0.009
-267.297	-161.545	0.184	-0.009
-266.282	205.123	-0.145	0.222
-265.267	-200.000	-0.004	0.178
-264.253	569.229	0.124	-0.297
-263.238	-21.227	-0.186	0.112
-262.224	-146.633	-0.152	0.013
-261.209	-200.000	-0.010	0.077
-260.195	165.590	-0.089	-0.124
-259.180	-200.000	0.025	0.272
-258.165	239.608	0.100	-0.164
-257.151	-7.554	-0.060	-0.040
-256.136	151.371	0.127	-0.170
-255.122	-200.000	0.064	0.278
-254.107	-200.000	-0.031	0.349
-253.092	-3.707	0.153	0.105
-252.078	78.281	0.136	0.143
-251.063	-200.000	0.042	-0.204
-250.049	-200.000	0.042	-0.263
-249.034	-63.401	0.311	0.126
-248.019	800.000	0.076	-0.213
-247.005	10.742	0.098	0.074
-245.990	-200.000	-0.066	0.312
-244.976	164.203	-0.104	0.145
-243.961	-30.767	-0.245	-0.137
-242.946	-59.647	-0.157	0.066
-241.932	-100.934	-0.261	0.063
-240.917	-75.306	0.226	-0.079
-239.903	315.127	0.193	-0.359
-238.888	26.791	-0.229	0.189
-237.873	-118.895	0.122	0.021
-236.859	-200.000	0.044	0.199
-235.844	-200.000	-0.093	0.457
-234.830	487.390	-0.114	0.256
-233.815	76.641	0.162	0.170
-232.800	-34.175	0.122	-0.066
-231.786	-200.000	-0.009	0.405
-230.771	800.000	-0.133	0.384
-229.757	800.000	0.056	0.237
-228.742	-200.000	0.017	0.191
-227.727	-46.059	-0.196	-0.095
-226.713	-200.000	0.041	-0.217
-225.698	-12.134	-0.236	-0.152
-224.684	-200.000	0.062	-0.349
-223.669	202.597	-0.057	0.086
-222.655	-200.000	0.031	0.267
-221.640	247.133	0.067	0.111
-220.625	152.703	-0.278	0.374
-219.611	-27.561	-0.081	0.046
-218.596	602.597	-0.151	-0.369
-217.582	661.870	-0.129	-0.327
-216.567	197.946	-0.014	0.021
-215.552	-59.754	0.092	0.039
-214.538	800.000	0.104	-0.424
-213.523	-91.591	-0.313	-0.088
-212.509	-97.548	0.219	-0.056
-211.494	594.045	0.093	0.227
-210.479	59.545	0.105	-0.102
-209.465	107.349	0.167	-0.196
-208.450	411.994	0.067	-0.140
-207.436	-200.000	0.021	-0.267
-206.421	-147.410	0.162	0.014
-205.406	-65.264	0.248	0.098
-204.392	-144.064	0.213	-0.020
-203.377	511.983	-0.127	-0.291
-202.363	237.935	-0.211	0.345
-201.348	-200.000	0.028	0.161
-200.333	-77.668	0.161	-0.055
-199.319	-200.000	-0.023	0.373
-198.304	-23.083	-0.138	0.082
-197.290	282.817	-0.103	0.182
-196.275	-189.861	0.135	0.002
-195.260	-18.800	0.062	0.038
-194.246	-200.000	-0.030	0.246
-193.231	108.421	-0.292	-0.343
-192.217	-200.000	0.044	0.233
-191.202	208.620	0.041	0.063
-190.187	55.057	0.218	-0.208
-189.173	216.985	-0.085	0.133
-188.158	-126.878	-0.053	0.008
-187.144	-99.362	0.434	-0.108
-186.129	243.093	-0.051	0.084
-185.114	124.821	-0.081	-0.100
-184.100	-51.521	0.089	0.041
-183.085	-117.967	-0.235	0.041
-182.071	-30.709	0.504	0.281
-181.056	-108.853	-0.153	0.032
-180.042	-158.698	0.313	0.018
-179.027	13.223	-0.231	0.176
-178.012	-80.812	-0.282	-0.092
-176.998	800.000	-0.122	0.501
-175.983	-200.000	-0.067	0.373
-174.969	800.000	0.073	-0.199
-173.954	-200.000	0.008	0.061
-172.939	-200.000	-0.003	0.055
-171.925	800.000	0.037	-0.159
-170.910	-106.603	-0.171	0.037
-169.896	800.000	-0.104	0.391
-168.881	-48.950	0.279	-0.131
-167.866	10.962	-0.183	0.138
-166.852	-200.000	0.003	-0.076
-165.837	-120.083	0.208	0.035
-164.823	39.067	-0.210	0.185
-163.808	-76.706	-0.056	-0.019
-162.793	-42.259	0.180	-0.090
-161.779	6.580	-0.190	-0.139
-160.764	2.762	-0.147	0.105
-159.750	-200.000	-0.011	0.080
-158.735	-39.541	0.607	-0.312
-157.720	45.013	-0.086	0.077
-156.706	800.000	0.036	0.108
-155.691	38.142	0.264	-0.231
-154.677	-105.408	-0.144	0.032
-153.662	-170.101	-0.456	0.016
-152.647	-17.202	0.324	0.201
-151.633	16.795	0.325	-0.253
-150.618	-200.000	0.013	-0.190
-149.604	255.749	-0.206	-0.347
-148.589	-200.000	-0.045	0.384
-147.574	275.548	0.113	0.196
-146.560	304.283	-0.108	-0.197
-145.545	-200.000	0.026	0.211
-144.531	-57.503	-0.357	0.154
-143.516	800.000	0.005	0.021
-142.502	-110.022	-0.187	-0.038
-141.487	-200.000	-0.029	0.160
-140.472	-153.608	-0.215	-0.015
-139.458	-200.000	-0.057	0.292
-138.443	-66.793	0.207	0.081
-137.429	-94.738	0.141	0.038
-136.414	148.647	-0.037	-0.049
-135.399	-200.000	-0.028	0.125
-134.385	5.230	-0.229	-0.166
-133.370	-12.988	0.169	0.108
-132.356	-114.038	-0.211	-0.040
-131.341	434.438	0.105	-0.223
-130.326	222.316	-0.123	-0.194
-129.312	-38.693	0.074	0.038
-128.297	74.151	0.135	0.139
-127.283	389.313	-0.163	-0.332
-126.268	-85.269	0.327	-0.100
-125.253	-111.648	0.217	-0.043
-124.239	167.664	0.227	-0.316
-123.224	800.000	0.102	-0.299
