DTS Sentinel unit serial number:	SN413079Multiplexer serial number:	ORYXHardware model number:	OX4-SRSoftware version number:	ORYX F/W v4.00 Oryx Data Collector v3.7.2.0data status	okinstallation	princeton_trtdifferential loss correction	single-endedforward channel	channel 4reverse channel	N/Adate	2019/09/19time	06:05:35forward acquisition time	60.00reverse acquisition time	0.00gamma	496.2192k internal	0.2340k external	0.2340temperature offset calibration	1.0029default loss term (dB/km)	0.3790temperature slope calibration	1.0000multiplexer offset coefficient	1.0000multiplexer slope coefficient	1.0000fibre end	0.00T internal ref (°C)	19.12T ext. ref 1 (°C)	0.58T ext. ref 2 (°C)	12.74length (m)	temperature (°C)	Stokes	anti-Stokes-747.200	800.000	0.025	-0.093
-746.185	93.917	0.079	0.090
-745.171	-28.363	0.255	-0.147
-744.156	317.907	-0.207	0.392
-743.142	-156.410	0.524	0.033
-742.127	-101.070	0.143	-0.035
-741.112	-200.000	-0.016	-0.155
-740.098	800.000	0.093	0.293
-739.083	-53.053	0.167	0.077
-738.069	111.563	-0.160	0.194
-737.054	-200.000	-0.239	0.000
-736.039	-98.023	-0.306	0.079
-735.025	-49.344	0.552	0.264
-734.010	-200.000	0.034	0.339
-732.996	527.391	-0.160	-0.377
-731.981	266.039	0.141	-0.247
-730.966	-100.590	-0.515	0.127
-729.952	-164.746	-0.519	0.023
-728.937	-63.586	0.081	0.033
-727.923	-59.312	-0.283	0.122
-726.908	-30.055	-0.182	0.104
-725.894	368.103	-0.191	-0.386
-724.879	40.816	-0.263	-0.238
-723.864	330.140	-0.139	-0.268
-722.850	-200.000	-0.326	0.001
-721.835	800.000	0.093	-0.264
-720.821	-85.417	-0.240	-0.075
-719.806	-62.201	0.152	-0.063
-718.791	586.689	0.114	-0.281
-717.777	121.226	-0.177	-0.221
-716.762	-130.153	-0.048	0.007
-715.748	446.338	-0.097	-0.214
-714.733	167.345	-0.102	-0.144
-713.718	-89.483	-0.214	0.063
-712.704	-105.423	0.259	-0.059
-711.689	135.817	-0.263	-0.343
-710.675	-6.231	0.101	-0.069
-709.660	-200.000	-0.019	-0.165
-708.645	289.231	0.114	-0.206
-707.631	-22.815	-0.162	-0.098
-706.616	-200.000	0.021	0.159
-705.602	95.498	0.235	0.269
-704.587	-20.379	0.084	-0.052
-703.572	610.622	0.121	0.303
-702.558	112.467	0.129	0.157
-701.543	-84.856	0.158	-0.050
-700.529	-200.000	-0.018	0.176
-699.514	532.946	-0.116	-0.276
-698.499	-99.029	-0.204	0.052
-697.485	-183.923	-0.185	0.003
-696.470	-94.340	0.432	0.118
-695.456	-200.000	-0.028	0.193
-694.441	-79.552	-0.234	-0.079
-693.426	800.000	0.057	0.193
-692.412	35.502	-0.162	-0.142
-691.397	67.216	-0.095	-0.097
-690.383	800.000	-0.095	-0.328
-689.368	-95.948	0.281	-0.075
-688.354	749.728	0.025	-0.068
-687.339	-200.000	0.023	-0.194
-686.324	23.223	0.083	-0.068
-685.310	-60.273	0.196	-0.083
-684.295	800.000	0.045	-0.169
-683.281	442.641	0.098	0.215
-682.266	-174.327	-0.116	-0.003
-681.251	800.000	-0.033	-0.142
-680.237	63.309	0.234	0.234
-679.222	60.866	0.005	-0.005
-678.208	553.590	0.032	0.076
-677.193	-93.228	0.149	-0.042
-676.178	172.406	-0.124	-0.178
-675.164	800.000	0.073	-0.302
-674.149	800.000	0.031	-0.098
-673.135	-143.685	0.256	-0.024
-672.120	368.604	0.072	-0.146
-671.105	-200.000	0.007	-0.342
-670.091	-200.000	0.104	0.579
-669.076	-51.497	0.132	0.062
-668.062	-91.060	0.129	-0.037
-667.047	1.330	-0.208	0.149
-666.032	-53.314	0.084	0.038
-665.018	-200.000	-0.038	0.360
-664.003	-68.438	0.105	0.041
-662.989	-36.424	-0.122	-0.066
-661.974	145.954	0.289	-0.388
-660.959	-36.839	-0.200	-0.107
-659.945	-89.349	-0.515	0.152
-658.930	-36.541	-0.341	0.183
-657.916	-39.276	0.094	-0.049
-656.901	-5.780	0.224	-0.153
-655.886	-181.289	-0.461	0.009
-654.872	23.998	0.205	-0.169
-653.857	-79.418	0.024	0.008
-652.843	-182.871	-0.528	-0.009
-651.828	521.364	-0.064	-0.151
-650.814	-155.467	0.388	-0.025
-649.799	686.688	0.026	-0.068
-648.784	-3.217	0.136	0.095
-647.770	-49.984	0.335	-0.159
-646.755	733.081	-0.095	-0.254
-645.741	460.971	0.072	0.160
-644.726	-141.862	-0.579	0.058
-643.711	142.269	-0.128	-0.169
-642.697	53.086	-0.067	-0.064
-641.682	-92.410	0.215	-0.060
-640.668	800.000	-0.035	-0.104
-639.653	-28.679	0.013	0.007
-638.638	-48.105	-0.361	0.174
-637.624	800.000	0.093	0.264
-636.609	-200.000	0.011	-0.213
-635.595	-39.820	0.138	-0.072
-634.580	-16.433	-0.429	0.272
-633.565	800.000	0.057	0.157
-632.551	-91.308	0.195	0.056
-631.536	-200.000	0.005	-0.088
-630.522	-137.106	0.242	-0.028
-629.507	99.632	0.226	-0.261
-628.492	-67.406	0.274	-0.107
-627.478	-179.059	0.150	-0.003
-626.463	712.101	-0.072	0.189
-625.449	-200.000	0.006	0.082
-624.434	-200.000	0.021	0.216
-623.419	-200.000	-0.022	-0.377
-622.405	800.000	-0.018	0.056
-621.390	41.724	0.084	0.076
-620.376	-69.565	-0.366	0.140
-619.361	-98.749	0.168	0.043
-618.346	800.000	0.087	0.313
-617.332	-109.189	0.240	-0.051
-616.317	800.000	0.090	-0.369
-615.303	415.417	-0.149	0.317
-614.288	267.786	0.075	-0.130
-613.273	-76.008	0.094	-0.033
-612.259	-52.566	-0.197	-0.091
-611.244	-200.000	0.007	-0.172
-610.230	800.000	-0.064	-0.249
-609.215	498.084	0.157	-0.361
-608.201	-78.322	0.119	-0.041
-607.186	241.953	-0.161	-0.268
-606.171	800.000	-0.091	-0.294
-605.157	800.000	-0.066	-0.205
-604.142	-90.515	-0.048	-0.014
-603.128	-23.385	0.225	0.135
-602.113	800.000	0.080	0.330
-601.098	-140.032	-0.187	-0.020
-600.084	307.108	-0.180	0.334
-599.069	185.197	-0.161	-0.238
-598.055	69.251	-0.105	-0.108
-597.040	-75.960	-0.117	0.041
-596.025	121.417	0.307	-0.382
-595.011	-60.930	-0.116	0.049
-593.996	-200.000	-0.033	-0.303
-592.982	-151.353	-0.250	0.019
-591.967	-105.456	0.080	-0.018
-590.952	164.539	-0.141	-0.199
-589.938	59.141	-0.169	0.166
-588.923	-200.000	-0.019	-0.161
-587.909	482.552	-0.076	0.172
-586.894	10.682	-0.089	-0.067
-585.879	-200.000	0.013	-0.198
-584.865	-166.803	-0.337	0.014
-583.850	34.908	0.292	0.255
-582.836	-180.622	0.374	-0.008
-581.821	116.627	-0.200	0.245
-580.806	800.000	0.050	-0.202
-579.792	-49.635	-0.099	0.047
-578.777	-105.230	-0.156	-0.036
-577.763	270.642	-0.083	-0.145
-576.748	0.267	0.148	0.105
-575.733	-132.392	-0.115	0.015
-574.719	-161.634	-0.400	-0.020
-573.704	-60.006	-0.055	-0.023
-572.690	-57.648	-0.096	0.042
-571.675	-66.844	-0.111	0.044
-570.661	17.734	0.137	-0.109
-569.646	-50.645	0.109	-0.051
-568.631	127.485	0.115	0.145
-567.617	-25.542	-0.312	-0.184
-566.602	-144.718	-0.411	-0.038
-565.588	158.852	-0.054	-0.074
-564.573	370.489	-0.110	-0.222
-563.558	56.430	-0.091	0.089
-562.544	800.000	0.035	-0.118
-561.529	-92.331	0.149	0.042
-560.515	-140.227	-0.208	0.022
-559.500	104.382	0.193	-0.226
-558.485	-59.213	-0.138	-0.059
-557.471	-97.498	0.280	-0.072
-556.456	-200.000	0.024	0.177
-555.442	50.979	-0.012	0.012
-554.427	-200.000	0.026	-0.205
-553.412	-127.172	-0.044	0.006
-552.398	612.181	-0.052	-0.128
-551.383	483.010	-0.096	0.218
-550.369	-53.243	-0.429	0.196
-549.354	485.100	-0.177	-0.400
-548.339	800.000	0.029	-0.108
-547.325	19.315	-0.167	0.133
-546.310	-200.000	0.038	-0.169
-545.296	307.334	0.144	-0.267
-544.281	-74.366	-0.172	0.062
-543.266	-53.902	-0.073	0.033
-542.252	456.973	0.093	-0.206
-541.237	-105.504	-0.425	-0.096
-540.223	-200.000	0.017	0.119
-539.208	530.835	-0.052	-0.123
-538.193	145.649	-0.178	0.237
-537.179	-21.662	-0.091	0.055
-536.164	800.000	0.208	0.578
-535.150	-14.666	-0.261	-0.167
-534.135	-200.000	0.014	-0.188
-533.121	800.000	0.080	-0.327
-532.106	-164.478	0.202	-0.009
-531.091	-194.381	0.150	0.001
-530.077	-177.610	0.543	-0.013
-529.062	33.500	0.196	-0.169
-528.048	723.725	0.049	0.130
-527.033	-123.951	0.313	0.049
-526.018	-117.505	-0.402	-0.072
-525.004	-164.698	0.129	-0.006
-523.989	180.788	0.155	-0.226
-522.975	478.038	-0.122	0.274
-521.960	-146.101	0.193	0.017
-520.945	97.354	0.040	-0.045
-519.931	-8.059	0.104	-0.070
-518.916	344.364	0.043	-0.083
-517.902	-75.780	-0.067	0.024
-516.887	258.853	-0.086	0.147
-515.872	-88.329	0.209	-0.062
-514.858	105.146	0.092	-0.108
-513.843	187.741	-0.113	-0.168
-512.829	-38.239	-0.131	-0.069
-511.814	-23.380	-0.146	-0.087
-510.799	327.021	-0.060	0.114
-509.785	405.901	0.097	-0.202
-508.770	-200.000	0.010	0.154
-507.756	235.076	0.155	0.254
-506.741	-22.048	0.375	-0.226
-505.726	82.867	-0.199	-0.215
-504.712	-200.000	0.028	0.207
-503.697	800.000	-0.077	-0.293
-502.683	174.200	-0.177	0.254
-501.668	-200.000	0.008	0.217
-500.653	-200.000	0.052	0.285
-499.639	-179.599	0.236	0.005
-498.624	271.104	-0.089	0.156
-497.610	181.495	0.101	0.147
-496.595	-200.000	-0.011	-0.217
-495.581	800.000	0.065	0.228
-494.566	31.048	-0.220	-0.188
-493.551	-25.116	0.097	0.057
-492.537	-40.666	0.226	0.117
-491.522	-43.087	0.291	0.146
-490.508	-25.791	0.092	-0.054
-489.493	-84.578	0.073	0.023
-488.478	-64.981	0.115	-0.046
-487.464	800.000	-0.124	0.397
-486.449	345.364	-0.085	-0.166
-485.435	77.597	0.137	-0.145
-484.420	-74.232	0.306	-0.110
-483.405	-58.335	-0.091	0.039
-482.391	-200.000	0.068	0.415
-481.376	-68.239	-0.179	0.069
-480.362	-149.027	-0.158	-0.013
-479.347	228.418	0.197	0.318
-478.332	-118.693	0.143	-0.025
-477.318	-14.302	0.153	0.098
-476.303	-200.000	-0.018	-0.146
-475.289	-103.108	-0.223	-0.052
-474.274	127.267	-0.101	-0.127
-473.259	-125.983	-0.285	0.042
-472.245	-110.470	-0.182	-0.037
-471.230	-99.321	-0.325	0.081
-470.216	708.334	-0.028	-0.075
-469.201	-111.044	0.365	-0.074
-468.186	-139.100	-0.202	0.022
-467.172	742.253	0.111	0.295
-466.157	368.638	0.018	0.037
-465.143	-20.663	-0.239	0.145
-464.128	-115.568	-0.127	-0.024
-463.113	-10.929	-0.305	-0.200
-462.099	64.632	-0.201	-0.201
-461.084	112.501	-0.280	-0.336
-460.070	-200.000	0.027	0.117
-459.055	-193.213	0.210	0.002
-458.040	-75.060	-0.281	0.100
-457.026	107.002	-0.266	-0.313
-456.011	343.369	0.017	-0.032
-454.997	190.310	0.221	-0.329
-453.982	362.772	0.198	-0.395
-452.968	-97.488	-0.321	-0.083
-451.953	-10.978	-0.171	0.112
-450.938	76.539	-0.217	-0.228
-449.924	-107.261	-0.094	-0.021
-448.909	68.475	0.052	-0.053
-447.895	72.639	0.251	-0.260
-446.880	52.245	-0.242	-0.228
-445.865	-87.644	-0.165	-0.050
-444.851	-84.075	-0.157	0.049
-443.836	79.842	-0.088	0.093
-442.822	158.853	-0.096	-0.132
-441.807	-81.198	0.172	0.056
-440.792	-23.991	-0.396	0.235
-439.778	-43.879	-0.100	-0.050
-438.763	-40.303	-0.276	-0.142
-437.749	-15.254	-0.294	0.187
-436.734	-141.976	-0.318	-0.031
-435.719	-19.548	-0.088	-0.054
-434.705	-57.897	0.227	-0.098
-433.690	125.705	-0.179	-0.224
-432.676	338.647	-0.024	-0.046
-431.661	800.000	-0.039	-0.123
-430.646	800.000	0.053	-0.178
-429.632	800.000	-0.067	0.268
-428.617	174.622	-0.204	-0.292
-427.603	-62.768	0.211	-0.087
-426.588	-200.000	0.002	0.147
-425.573	-87.946	-0.049	0.015
-424.559	384.540	0.064	0.131
-423.544	-140.457	0.270	0.028
-422.530	-200.000	-0.017	0.186
-421.515	149.706	0.114	0.152
-420.500	268.835	0.166	0.288
-419.486	-99.687	-0.354	0.088
-418.471	-23.741	0.161	0.096
-417.457	244.876	0.047	-0.078
-416.442	202.507	0.171	0.261
-415.428	224.418	0.101	0.161
-414.413	720.790	-0.081	0.212
-413.398	224.458	-0.200	-0.319
-412.384	14.158	0.214	-0.165
-411.369	-33.740	0.208	-0.114
-410.355	53.389	0.253	-0.240
-409.340	800.000	0.044	0.137
-408.325	244.371	-0.092	0.153
-407.311	-200.000	-0.003	0.033
-406.296	158.410	-0.100	-0.137
-405.282	-77.896	-0.206	-0.070
-404.267	-43.217	-0.055	0.027
-403.252	-105.992	-0.178	-0.040
-402.238	600.104	-0.048	0.118
-401.223	-200.000	0.016	0.169
-400.209	-75.755	-0.160	0.056
-399.194	212.567	-0.118	-0.184
-398.179	-50.840	-0.123	-0.057
-397.165	800.000	0.047	-0.158
-396.150	64.078	0.227	0.226
-395.136	-70.815	0.330	-0.123
-394.121	800.000	0.163	0.576
-393.106	-159.518	-0.035	-0.002
-392.092	125.314	0.215	-0.268
-391.077	-200.000	0.001	-0.304
-390.063	14.070	-0.121	-0.093
-389.048	800.000	0.117	-0.400
-388.033	-99.302	-0.135	-0.034
-387.019	39.245	-0.190	0.168
-386.004	628.136	0.076	0.189
-384.990	-177.761	0.293	0.007
-383.975	-30.239	-0.107	-0.060
-382.960	54.626	0.159	-0.152
-381.946	231.263	-0.153	0.247
-380.931	-135.111	0.427	-0.051
-379.917	-121.342	-0.329	-0.054
-378.902	-183.438	0.336	-0.006
-377.888	143.066	-0.203	-0.267
-376.873	93.124	-0.181	-0.202
-375.858	16.440	-0.215	0.168
-374.844	751.825	0.132	-0.352
-373.829	99.729	-0.125	0.143
-372.815	800.000	0.056	-0.198
-371.800	101.354	0.157	-0.181
-370.785	30.868	0.176	0.149
-369.771	-60.174	-0.220	0.093
-368.756	-200.000	-0.005	0.056
-367.742	500.034	-0.056	0.129
-366.727	800.000	0.053	-0.187
-365.712	133.180	-0.147	0.188
-364.698	351.702	-0.149	0.291
-363.683	121.012	-0.044	0.054
-362.669	139.975	0.149	0.193
-361.654	800.000	-0.057	-0.172
-360.639	723.946	-0.109	-0.286
-359.625	-110.473	0.412	-0.084
-358.610	-135.383	-0.294	-0.035
-357.596	184.065	0.149	-0.218
-356.581	-83.405	0.383	0.121
-355.566	53.856	-0.196	0.186
-354.552	-38.135	0.173	-0.091
-353.537	46.486	-0.311	0.285
-352.523	219.963	0.190	0.301
-351.508	139.059	0.150	0.195
-350.493	-181.737	-0.235	0.004
-349.479	49.344	0.227	-0.211
-348.464	-120.902	-0.174	-0.029
-347.450	79.067	0.174	0.184
-346.435	257.615	-0.221	0.376
-345.420	237.054	0.037	0.061
-344.406	-7.643	0.244	-0.163
-343.391	-45.330	0.195	-0.096
-342.377	221.814	0.124	0.197
-341.362	800.000	-0.026	0.082
-340.348	-129.847	0.164	0.022
-339.333	-103.222	0.264	-0.061
-338.318	-95.879	0.249	-0.066
-337.304	-43.947	-0.193	-0.096
-336.289	218.305	-0.104	-0.163
-335.275	-129.121	-0.183	-0.025
-334.260	293.630	0.076	0.138
-333.245	-200.000	-0.055	0.274
-332.231	800.000	-0.143	0.479
-331.216	11.149	0.148	0.112
-330.202	-59.453	-0.027	0.011
-329.187	238.213	0.204	-0.334
-328.172	-200.000	-0.032	-0.306
-327.158	-73.478	0.181	0.065
-326.143	194.777	0.179	-0.268
-325.129	21.455	0.164	0.131
-324.114	-74.181	0.345	-0.123
-323.099	-143.414	0.188	0.018
-322.085	10.113	-0.117	0.088
-321.070	-97.541	0.343	0.088
-320.056	252.888	-0.149	-0.251
-319.041	-131.239	0.150	-0.020
-318.026	800.000	-0.029	0.112
-317.012	-200.000	-0.040	-0.216
-315.997	231.909	-0.243	0.394
-314.983	-200.000	0.054	0.294
-313.968	800.000	-0.057	0.200
-312.953	320.765	0.130	-0.244
-311.939	-77.028	0.224	-0.077
-310.924	-89.482	-0.344	0.100
-309.910	52.757	0.304	-0.286
-308.895	-11.333	0.253	-0.164
-307.880	77.456	-0.210	0.220
-306.866	800.000	0.178	0.537
-305.851	-44.911	0.253	-0.124
-304.837	735.822	-0.025	-0.065
-303.822	218.887	-0.096	-0.151
-302.807	31.774	0.031	0.026
-301.793	-200.000	-0.010	-0.121
-300.778	66.664	0.027	0.027
-299.764	800.000	-0.155	0.435
-298.749	87.354	0.211	0.230
-297.735	-58.297	0.104	-0.045
-296.720	-24.927	-0.133	0.078
-295.705	800.000	0.045	-0.183
-294.691	17.248	-0.049	-0.038
-293.676	25.131	0.069	0.057
-292.662	-200.000	0.045	0.246
-291.647	-200.000	0.011	0.134
-290.632	126.332	0.083	0.103
-289.618	312.128	-0.127	0.235
-288.603	-138.316	-0.309	-0.034
-287.589	-200.000	-0.007	0.163
-286.574	232.418	0.070	-0.113
-285.559	131.820	0.014	0.018
-284.545	22.254	-0.259	0.208
-283.530	-50.280	-0.229	-0.106
-282.516	89.850	0.252	-0.277
-281.501	54.388	-0.146	0.138
-280.486	-87.066	-0.086	-0.026
-279.472	165.358	0.166	-0.231
-278.457	274.281	-0.072	-0.126
-277.443	-105.960	0.041	-0.009
-276.428	-81.073	-0.071	0.023
-275.413	-200.000	-0.082	0.373
-274.399	-65.301	0.222	0.088
-273.384	59.703	0.105	-0.102
-272.370	-14.330	0.159	-0.101
-271.355	37.221	-0.100	0.087
-270.340	-108.654	-0.273	-0.058
-269.326	800.000	-0.079	0.271
-268.311	-38.716	-0.228	0.119
-267.297	-42.820	0.561	0.280
-266.282	105.048	0.152	0.177
-265.267	800.000	-0.072	0.264
-264.253	-127.140	0.149	0.021
-263.238	57.560	0.349	-0.335
-262.224	-45.147	-0.430	-0.210
-261.209	-95.756	0.045	-0.012
-260.195	155.140	-0.051	-0.068
-259.180	800.000	0.051	0.146
-258.165	792.943	0.012	-0.032
-257.151	2.526	-0.250	0.178
-256.136	-23.510	-0.242	-0.143
-255.122	-54.988	-0.101	-0.045
-254.107	274.962	0.097	-0.168
-253.092	168.867	-0.134	0.188
-252.078	117.508	0.255	-0.308
-251.063	-77.572	-0.029	0.010
-250.049	-42.885	-0.414	-0.207
-249.034	449.165	0.098	0.212
-248.019	-157.743	-0.295	0.017
-247.005	-32.076	0.183	-0.101
-245.990	-29.805	0.340	-0.190
-244.976	-77.104	0.359	0.123
-243.961	-8.923	-0.175	0.115
-242.946	673.555	0.035	0.090
-241.932	-144.533	0.196	0.018
-240.917	-96.289	-0.313	0.082
-239.903	-120.893	0.199	-0.033
-238.888	283.523	0.050	-0.089
-237.873	489.513	0.025	-0.056
-236.859	-200.000	0.004	0.109
-235.844	454.960	-0.134	0.291
-234.830	13.416	0.039	-0.030
-233.815	800.000	0.020	-0.067
-232.800	-78.616	-0.203	-0.068
-231.786	-57.247	0.193	-0.083
-230.771	-105.204	-0.164	0.037
-229.757	-200.000	0.028	-0.136
-228.742	800.000	-0.055	-0.165
-227.727	335.572	-0.183	0.349
-226.713	-100.499	-0.385	0.094
-225.698	93.202	0.230	0.256
-224.684	-200.000	0.011	-0.222
-223.669	-7.684	-0.248	-0.165
-222.655	-200.000	0.015	-0.435
-221.640	310.023	0.036	0.066
-220.625	-166.571	0.224	-0.009
-219.611	-6.461	-0.262	-0.175
-218.596	206.508	0.061	-0.093
-217.582	-165.538	-0.241	-0.010
-216.567	7.812	0.185	0.136
-215.552	188.549	0.132	0.194
-214.538	-62.651	-0.343	-0.140
-213.523	-6.483	-0.147	0.098
-212.509	-68.144	0.221	-0.084
-211.494	-10.442	0.178	-0.116
-210.479	-134.448	0.041	0.005
-209.465	-103.602	-0.222	0.051
-208.450	-144.542	0.240	-0.022
-207.436	800.000	0.098	0.270
-206.421	800.000	-0.089	0.283
-205.406	504.070	-0.125	0.284
-204.392	-181.001	0.256	0.005
-203.377	-193.455	0.185	-0.002
-202.363	-85.666	-0.120	-0.037
-201.348	-152.020	0.066	-0.005
-200.333	-200.000	-0.013	-0.084
-199.319	439.525	0.045	0.096
-198.304	173.943	0.286	0.406
-197.290	150.165	-0.101	0.135
-196.275	-8.729	-0.143	-0.094
-195.260	722.504	0.102	0.267
-194.246	-105.008	0.022	0.005
-193.231	-177.409	0.207	-0.005
-192.217	800.000	-0.049	0.176
-191.202	800.000	0.098	-0.318
-190.187	-12.302	0.243	-0.156
-189.173	34.796	0.220	-0.189
-188.158	585.851	0.041	0.098
-187.144	-116.374	0.165	0.030
-186.129	-68.365	-0.151	0.057
-185.114	165.470	0.008	0.011
-184.100	-13.845	0.075	-0.048
-183.085	215.945	0.127	0.198
-182.071	64.634	0.138	0.137
-181.056	36.826	0.298	-0.258
-180.042	-46.728	-0.111	0.053
-179.027	-200.000	0.046	0.369
-178.012	-79.211	-0.188	0.062
-176.998	-3.350	0.237	0.162
-175.983	-130.272	0.219	-0.029
-174.969	50.941	0.110	0.103
-173.954	-200.000	-0.023	0.106
-172.939	-58.150	-0.231	0.099
-171.925	97.617	0.194	0.219
-170.910	-105.615	0.326	-0.072
-169.896	151.861	0.234	0.313
-168.881	-107.932	0.235	0.050
-167.866	15.219	-0.093	0.072
-166.852	491.138	-0.089	0.199
-165.837	-59.552	-0.386	0.163
-164.823	245.771	-0.145	-0.239
-163.808	46.339	0.171	-0.155
-162.793	-103.740	-0.465	-0.107
-161.779	-35.176	-0.191	-0.102
-160.764	-22.843	0.110	-0.065
-159.750	-99.686	0.226	0.056
-158.735	15.576	-0.095	-0.073
-157.720	-19.666	-0.015	-0.009
-156.706	-98.775	0.363	-0.091
-155.691	-67.842	-0.296	0.113
-154.677	-116.311	-0.233	-0.042
-153.662	112.471	0.049	0.058
-152.647	-200.000	0.055	-0.246
-151.633	277.798	0.119	-0.208
-150.618	-36.338	0.151	-0.080
-149.604	-96.698	-0.262	0.067
-148.589	-108.354	0.066	-0.014
-147.574	183.329	-0.068	0.098
-146.560	134.217	0.136	-0.173
-145.545	193.003	-0.160	-0.237
-144.531	800.000	-0.031	-0.103
-143.516	26.906	-0.284	0.233
-142.502	-200.000	0.031	0.291
-141.487	124.098	0.042	-0.052
-140.472	-200.000	0.042	0.187
-139.458	128.749	0.249	-0.311
-138.443	800.000	0.118	0.346
-137.429	3.914	0.042	0.030
-136.414	-200.000	-0.024	0.200
-135.399	250.937	0.251	-0.417
-134.385	282.012	0.178	-0.312
-133.370	-200.000	-0.038	-0.177
-132.356	-200.000	0.004	0.184
-131.341	-31.444	-0.245	0.135
-130.326	-200.000	-0.023	-0.251
-129.312	301.797	-0.135	0.244
-128.297	307.357	-0.100	-0.183
-127.283	44.925	-0.157	0.142
-126.268	-108.529	0.238	0.050
-125.253	-109.013	-0.281	-0.059
-124.239	-121.089	-0.217	0.036
-123.224	26.457	-0.256	0.210
-122.210	-29.554	0.325	-0.182
-121.195	644.149	0.183	-0.456
