DTS Sentinel unit serial number:	SN413079Multiplexer serial number:	ORYXHardware model number:	OX4-SRSoftware version number:	ORYX F/W v4.00 Oryx Data Collector v3.7.2.0data status	okinstallation	princeton_trtdifferential loss correction	single-endedforward channel	channel 4reverse channel	N/Adate	2019/09/11time	04:51:10forward acquisition time	60.00reverse acquisition time	0.00gamma	496.2192k internal	0.2316k external	0.2316temperature offset calibration	0.9946default loss term (dB/km)	0.3790temperature slope calibration	1.0000multiplexer offset coefficient	1.0000multiplexer slope coefficient	1.0000fibre end	0.00T internal ref (°C)	29.50T ext. ref 1 (°C)	-0.28T ext. ref 2 (°C)	23.33length (m)	temperature (°C)	Stokes	anti-Stokes-747.200	-75.613	0.079	-0.028
-746.185	-50.330	0.158	0.076
-745.171	-200.000	-0.067	-0.300
-744.156	-97.161	0.218	0.058
-743.142	40.069	0.349	-0.317
-742.127	688.583	0.157	0.416
-741.112	800.000	0.012	-0.039
-740.098	182.012	0.087	0.130
-739.083	145.285	0.137	0.185
-738.069	727.106	-0.137	0.371
-737.054	82.981	-0.243	-0.268
-736.039	-113.136	-0.156	-0.031
-735.025	136.531	0.108	-0.143
-734.010	800.000	-0.125	0.404
-732.996	44.367	-0.115	-0.107
-731.981	-200.000	-0.105	0.000
-730.966	-34.262	0.137	0.076
-729.952	76.060	-0.095	0.101
-728.937	-45.448	-0.319	0.160
-727.923	161.079	-0.155	-0.219
-726.908	-200.000	-0.028	-0.222
-725.894	-42.339	-0.335	-0.173
-724.879	289.112	0.078	-0.144
-723.864	-154.663	0.182	0.012
-722.850	-106.358	-0.260	0.059
-721.835	-200.000	-0.015	0.356
-720.821	800.000	0.136	0.468
-719.806	-21.319	0.174	0.108
-718.791	173.233	0.119	-0.174
-717.777	800.000	-0.087	-0.252
-716.762	370.580	0.143	0.293
-715.748	145.272	0.064	-0.086
-714.733	533.851	-0.050	-0.120
-713.718	-123.097	-0.198	-0.032
-712.704	800.000	-0.047	0.138
-711.689	541.882	-0.050	0.121
-710.675	9.558	0.261	0.200
-709.660	-107.962	0.046	-0.010
-708.645	-90.669	0.334	0.098
-707.631	-200.000	0.046	0.211
-706.616	-118.999	-0.123	-0.022
-705.602	-104.709	-0.400	0.093
-704.587	2.643	0.144	-0.105
-703.572	24.469	-0.325	0.272
-702.558	-92.163	0.270	0.077
-701.543	69.832	0.089	-0.093
-700.529	-4.882	-0.123	-0.086
-699.514	206.809	-0.131	-0.207
-698.499	103.610	-0.175	0.208
-697.485	-62.090	-0.149	0.063
-696.470	151.141	-0.327	-0.450
-695.456	336.555	-0.174	-0.341
-694.441	-200.000	-0.004	0.019
-693.426	337.945	0.096	0.189
-692.412	-200.000	-0.070	0.336
-691.397	450.101	0.039	0.087
-690.383	469.143	0.062	0.140
-689.368	210.951	0.087	-0.138
-688.354	563.131	0.057	0.138
-687.339	-200.000	-0.010	0.409
-686.324	800.000	0.051	0.177
-685.310	305.172	0.051	0.095
-684.295	-57.024	-0.187	0.084
-683.281	-123.018	0.370	-0.060
-682.266	-90.584	0.325	-0.095
-681.251	-84.819	-0.321	-0.102
-680.237	7.816	0.133	0.101
-679.222	-140.747	-0.135	-0.014
-678.208	-200.000	-0.005	0.097
-677.193	800.000	0.071	0.274
-676.178	800.000	0.130	-0.366
-675.164	5.977	0.297	-0.223
-674.149	-25.208	-0.324	0.194
-673.135	-94.109	-0.122	0.034
-672.120	-60.909	0.236	0.101
-671.105	-157.873	-0.089	0.005
-670.091	-71.574	0.305	0.115
-669.076	65.382	0.211	0.215
-668.062	164.068	0.069	0.098
-667.047	-46.573	0.144	0.071
-666.032	117.616	0.176	0.218
-665.018	-139.720	-0.094	-0.010
-664.003	-91.197	-0.192	-0.056
-662.989	-101.622	0.295	-0.072
-661.974	-200.000	-0.008	0.266
-660.959	-38.627	-0.144	-0.077
-659.945	260.906	0.102	0.179
-658.930	300.143	-0.079	0.147
-657.916	217.105	-0.051	-0.082
-656.901	-79.968	0.106	-0.036
-655.886	-200.000	-0.002	-0.157
-654.872	-200.000	0.051	0.465
-653.857	-76.612	0.246	-0.087
-652.843	23.289	-0.113	-0.094
-651.828	-2.767	-0.136	-0.096
-650.814	218.425	0.056	0.090
-649.799	-15.542	0.232	0.149
-648.784	545.613	-0.069	0.167
-647.770	-200.000	0.002	0.069
-646.755	-88.849	0.352	-0.105
-645.741	-167.511	-0.082	-0.003
-644.726	26.308	-0.015	0.012
-643.711	-67.079	-0.080	0.032
-642.697	-200.000	-0.029	-0.261
-641.682	172.671	0.059	0.086
-640.668	414.917	0.099	-0.213
-639.653	719.770	-0.035	-0.094
-638.638	-200.000	-0.001	0.062
-637.624	-166.042	-0.337	0.014
-636.609	-111.220	0.271	-0.056
-635.595	-174.877	0.333	0.009
-634.580	-200.000	-0.001	-0.344
-633.565	-22.820	0.279	-0.170
-632.551	-96.819	-0.222	0.059
-631.536	-200.000	0.016	-0.079
-630.522	-37.503	0.115	0.062
-629.507	-200.000	0.034	0.201
-628.492	-88.203	0.212	0.064
-627.478	-78.242	0.011	0.004
-626.463	-101.493	0.127	0.031
-625.449	15.454	-0.092	0.073
-624.434	-30.061	0.284	0.163
-623.419	-200.000	-0.017	0.223
-622.405	391.617	-0.081	0.169
-621.390	-30.308	-0.221	0.126
-620.376	21.434	-0.189	-0.155
-619.361	25.684	0.235	-0.197
-618.346	-85.075	-0.133	-0.042
-617.332	-106.600	-0.381	-0.086
-616.317	-55.743	0.141	-0.064
-615.303	173.815	-0.133	0.194
-614.288	121.713	0.122	0.154
-613.273	-24.475	-0.228	0.137
-612.259	17.936	-0.182	0.146
-611.244	-200.000	-0.033	-0.481
-610.230	-163.403	0.174	-0.008
-609.215	216.643	-0.189	-0.302
-608.201	104.837	0.127	-0.151
-607.186	194.744	-0.179	-0.274
-606.171	230.792	0.069	-0.114
-605.157	128.534	0.143	0.184
-604.142	-13.332	-0.369	-0.241
-603.128	393.500	0.048	0.100
-602.113	-29.949	0.039	-0.022
-601.098	53.107	-0.017	0.016
-600.084	-10.457	-0.231	0.154
-599.069	-200.000	-0.055	-0.295
-598.055	183.674	0.123	0.184
-597.040	-200.000	-0.050	-0.263
-596.025	164.564	-0.037	-0.053
-595.011	115.122	0.065	-0.079
-593.996	-69.800	-0.147	-0.057
-592.982	-112.184	0.267	-0.054
-591.967	11.142	0.044	-0.034
-590.952	-40.250	-0.080	-0.042
-589.938	-200.000	0.008	0.182
-588.923	23.940	-0.162	0.134
-587.909	-115.607	0.150	-0.028
-586.894	-61.550	0.233	-0.098
-585.879	223.598	-0.168	-0.273
-584.865	224.656	0.086	-0.140
-583.850	670.566	0.166	-0.433
-582.836	-119.159	0.266	-0.047
-581.821	-105.291	-0.429	-0.098
-580.806	-59.824	0.195	-0.084
-579.792	-200.000	-0.007	0.159
-578.777	800.000	0.091	-0.352
-577.763	-200.000	0.004	-0.127
-576.748	-128.942	0.367	0.052
-575.733	-18.163	-0.251	-0.158
-574.719	-3.160	-0.107	0.075
-573.704	76.577	0.242	0.258
-572.690	800.000	-0.025	0.079
-571.675	-53.915	-0.328	0.150
-570.661	-129.850	0.086	0.012
-569.646	20.154	0.134	-0.108
-568.631	-200.000	0.016	-0.316
-567.617	-200.000	0.014	-0.146
-566.602	-172.904	0.502	0.016
-565.588	-200.000	-0.026	-0.148
-564.573	800.000	0.066	-0.207
-563.558	-105.786	0.315	-0.072
-562.544	-40.206	0.318	0.167
-561.529	-53.949	-0.143	-0.065
-560.515	139.803	0.052	0.069
-559.500	-22.156	-0.106	-0.065
-558.485	-47.234	-0.201	-0.098
-557.471	-14.625	-0.157	0.101
-556.456	96.331	-0.142	0.163
-555.442	-159.101	0.177	0.010
-554.427	-200.000	0.018	-0.138
-553.412	146.812	-0.163	0.220
-552.398	800.000	-0.096	0.316
-551.383	89.317	-0.089	0.100
-550.369	-96.318	0.144	0.038
-549.354	-44.966	-0.272	0.136
-548.339	38.156	0.243	-0.218
-547.325	166.139	0.093	0.133
-546.310	-200.000	0.474	0.002
-545.296	193.231	-0.187	-0.284
-544.281	800.000	-0.102	-0.363
-543.266	196.393	0.074	-0.113
-542.252	-200.000	0.011	-0.171
-541.237	-88.533	-0.059	0.018
-540.223	800.000	-0.061	0.236
-539.208	85.220	-0.246	0.272
-538.193	62.294	-0.252	0.253
-537.179	36.337	-0.103	0.092
-536.164	433.751	0.063	-0.137
-535.150	-200.000	0.005	0.109
-534.135	11.365	-0.199	-0.153
-533.121	5.763	0.174	-0.129
-532.106	-19.094	0.028	0.018
-531.091	444.255	-0.138	-0.304
-530.077	-200.000	-0.070	0.346
-529.062	78.331	-0.199	0.213
-528.048	27.674	-0.116	0.098
-527.033	800.000	-0.008	-0.030
-526.018	-119.774	0.180	-0.031
-525.004	398.699	0.107	0.226
-523.989	-183.568	0.268	-0.005
-522.975	33.535	0.107	0.093
-521.960	-200.000	-0.016	-0.184
-520.945	-200.000	0.024	-0.214
-519.931	-42.566	-0.238	-0.122
-518.916	-200.000	0.012	0.207
-517.902	-200.000	0.020	0.337
-516.887	-177.690	0.315	0.008
-515.872	332.968	0.060	-0.116
-514.858	59.358	0.181	-0.179
-513.843	-103.144	0.143	-0.034
-512.829	-200.000	-0.009	0.317
-511.814	-200.000	-0.036	0.210
-510.799	-200.000	0.027	0.131
-509.785	-200.000	0.018	-0.235
-508.770	-200.000	-0.034	-0.446
-507.756	-200.000	-0.019	-0.198
-506.741	-79.103	-0.149	0.051
-505.726	-87.640	0.121	-0.037
-504.712	56.120	0.270	0.263
-503.697	139.926	-0.162	-0.215
-502.683	-200.000	0.000	0.018
-501.668	210.255	-0.248	-0.391
-500.653	-200.000	-0.007	0.209
-499.639	747.675	0.045	-0.122
-498.624	-0.465	-0.174	-0.124
-497.610	2.057	-0.102	0.074
-496.595	800.000	-0.034	-0.114
-495.581	687.191	0.079	0.206
-494.566	-80.099	-0.129	-0.043
-493.551	132.202	-0.146	0.189
-492.537	-133.077	0.167	-0.021
-491.522	196.186	0.080	-0.122
-490.508	48.403	0.119	0.112
-489.493	408.220	-0.076	0.161
-488.478	199.200	-0.126	-0.194
-487.464	776.982	-0.088	-0.242
-486.449	776.038	0.112	0.306
-485.435	-157.319	-0.110	0.007
-484.420	-89.769	-0.338	0.099
-483.405	-52.345	-0.138	0.064
-482.391	31.279	0.293	-0.252
-481.376	-200.000	-0.033	0.279
-480.362	-200.000	0.007	0.156
-479.347	331.502	0.014	-0.027
-478.332	99.767	0.217	-0.252
-477.318	0.370	-0.076	0.055
-476.303	-200.000	0.028	0.148
-475.289	-92.143	0.206	-0.058
-474.274	-50.240	0.201	-0.095
-473.259	284.644	0.052	-0.093
-472.245	-200.000	-0.001	0.081
-471.230	-134.561	-0.215	-0.026
-470.216	-200.000	0.018	0.478
-469.201	48.786	0.232	-0.218
-468.186	435.268	0.038	-0.083
-467.172	-23.161	-0.064	-0.039
-466.157	754.211	-0.070	-0.191
-465.143	182.567	-0.089	0.132
-464.128	-135.445	0.327	-0.039
-463.113	56.684	0.158	0.154
-462.099	15.783	0.433	0.341
-461.084	-148.415	-0.125	-0.010
-460.070	49.097	-0.151	-0.142
-459.055	21.072	-0.055	0.045
-458.040	537.376	0.124	-0.295
-457.026	-187.489	0.335	-0.004
-456.011	496.292	-0.090	0.208
-454.997	-159.209	-0.173	0.010
-453.982	-118.170	-0.143	0.026
-452.968	800.000	-0.059	0.167
-451.953	33.788	0.145	0.126
-450.938	-200.000	0.013	0.074
-449.924	419.277	-0.190	0.407
-448.909	-200.000	0.027	-0.182
-447.895	-10.122	0.324	-0.216
-446.880	169.950	0.202	-0.289
-445.865	800.000	0.058	-0.200
-444.851	-106.356	-0.191	-0.043
-443.836	-28.705	0.263	0.151
-442.822	320.717	-0.162	0.307
-441.807	282.312	-0.086	0.154
-440.792	-200.000	0.075	-0.401
-439.778	179.296	-0.190	0.278
-438.763	-117.564	-0.211	-0.038
-437.749	-154.974	-0.057	-0.004
-436.734	-113.243	-0.222	0.044
-435.719	-74.246	-0.193	-0.070
-434.705	-171.712	-0.469	-0.015
-433.690	-44.917	-0.096	0.048
-432.676	314.994	-0.086	-0.162
-431.661	35.576	-0.032	-0.028
-430.646	-31.489	-0.141	-0.079
-429.632	-200.000	-0.033	0.317
-428.617	774.487	0.175	0.476
-427.603	757.489	-0.068	0.185
-426.588	16.037	0.117	-0.092
-425.573	-62.466	-0.131	-0.054
-424.559	-91.709	-0.099	-0.028
-423.544	20.649	0.277	-0.225
-422.530	800.000	0.053	0.155
-421.515	82.062	-0.176	-0.191
-420.500	220.074	0.059	0.095
-419.486	-142.750	-0.305	0.030
-418.471	-189.826	-0.206	0.002
-417.457	241.973	-0.182	0.305
-416.442	-14.833	0.182	-0.117
-415.428	-200.000	0.001	-0.122
-414.413	-60.560	0.347	0.147
-413.398	-200.000	0.008	-0.148
-412.384	-89.378	-0.134	0.039
-411.369	283.691	-0.119	-0.214
-410.355	-16.186	-0.142	-0.090
-409.340	-83.124	-0.362	0.116
-408.325	800.000	0.049	-0.161
-407.311	-65.826	-0.055	0.022
-406.296	240.428	0.096	0.160
-405.282	290.235	-0.076	-0.137
-404.267	344.543	-0.049	0.096
-403.252	-30.982	-0.128	-0.072
-402.238	-11.522	-0.072	-0.047
-401.223	-95.621	0.252	-0.067
-400.209	528.945	0.075	0.177
-399.194	266.325	0.103	-0.179
-398.179	-56.098	0.082	-0.037
-397.165	-200.000	-0.003	-0.115
-396.150	-136.267	0.209	0.024
-395.136	146.905	-0.053	0.072
-394.121	-164.327	0.197	0.009
-393.106	10.357	-0.374	-0.285
-392.092	-200.000	-0.008	0.294
-391.077	-104.339	0.264	-0.061
-390.063	139.274	-0.166	-0.219
-389.048	227.734	0.140	0.228
-388.033	73.904	0.047	-0.049
-387.019	-48.895	0.155	0.074
-386.004	27.683	-0.135	0.114
-384.990	154.324	0.166	-0.228
-383.975	800.000	-0.086	0.238
-382.960	-42.200	0.430	0.220
-381.946	139.508	0.089	0.117
-380.931	127.149	-0.168	-0.213
-379.917	-11.236	0.155	0.102
-378.902	33.623	-0.162	0.141
-377.888	218.354	0.079	-0.126
-376.873	-200.000	-0.002	-0.108
-375.858	47.209	-0.228	-0.212
-374.844	131.755	-0.236	-0.303
-373.829	800.000	0.072	0.306
-372.815	-200.000	-0.016	0.115
-371.800	-200.000	-0.015	-0.086
-370.785	173.649	-0.252	-0.364
-369.771	485.192	0.058	-0.133
-368.756	-91.831	0.191	0.054
-367.742	-200.000	-0.019	0.157
-366.727	800.000	-0.046	0.177
-365.712	-168.061	-0.450	-0.018
-364.698	-160.306	-0.152	-0.008
-363.683	-200.000	-0.049	0.242
-362.669	-159.374	0.236	0.013
-361.654	-64.096	0.251	0.102
-360.639	-47.856	0.115	-0.056
-359.625	800.000	-0.014	-0.057
-358.610	-200.000	-0.003	-0.187
-357.596	100.480	0.231	0.267
-356.581	111.007	0.165	0.198
-355.566	-32.275	-0.036	-0.020
-354.552	-50.894	0.100	0.047
-353.537	39.338	-0.062	-0.055
-352.523	-162.354	-0.249	-0.012
-351.508	-200.000	0.049	0.353
-350.493	-200.000	-0.019	0.083
-349.479	174.261	-0.139	0.201
-348.464	800.000	-0.132	0.404
-347.450	-112.300	0.373	-0.074
-346.435	-4.174	0.331	0.229
-345.420	-159.780	0.221	0.012
-344.406	-20.443	-0.163	-0.100
-343.391	-170.440	-0.250	0.009
-342.377	-200.000	-0.003	0.053
-341.362	-174.941	0.214	-0.006
-340.348	-200.000	-0.041	-0.344
-339.333	108.247	-0.033	0.039
-338.318	-177.311	0.359	0.009
-337.304	367.875	-0.137	0.277
-336.289	-24.224	-0.223	-0.133
-335.275	152.569	-0.175	0.238
-334.260	800.000	-0.111	-0.474
-333.245	-200.000	-0.005	-0.451
-332.231	-49.361	-0.066	-0.031
-331.216	-23.207	0.058	-0.035
-330.202	-169.714	-0.133	-0.005
-329.187	93.348	-0.207	-0.234
-328.172	62.454	-0.116	0.115
-327.158	-82.205	0.224	0.073
-326.143	375.059	0.250	-0.508
-325.129	-121.514	0.257	-0.043
-324.114	155.832	0.165	-0.227
-323.099	-200.000	0.036	0.167
-322.085	54.411	0.057	-0.054
-321.070	121.295	-0.027	-0.034
-320.056	-62.431	0.177	-0.073
-319.041	95.878	0.216	-0.246
-318.026	-74.879	0.215	-0.077
-317.012	-33.751	-0.024	0.013
-315.997	-200.000	0.021	0.091
-314.983	-181.859	0.251	-0.005
-313.968	800.000	-0.069	-0.295
-312.953	-63.776	-0.049	0.020
-311.939	-113.428	-0.255	-0.050
-310.924	-200.000	-0.035	0.154
-309.910	800.000	0.039	0.127
-308.895	800.000	-0.061	0.181
-307.880	-86.796	-0.348	0.106
-306.866	270.234	-0.099	-0.173
-305.851	-47.998	0.221	-0.106
-304.837	-200.000	0.018	-0.101
-303.822	-12.718	-0.197	0.128
-302.807	-200.000	0.055	0.277
-301.793	46.604	-0.282	0.261
-300.778	-61.408	0.217	-0.091
-299.764	81.749	0.111	0.119
-298.749	800.000	-0.080	0.291
-297.735	222.297	0.085	-0.137
-296.720	-146.923	-0.029	0.002
-295.705	524.946	0.092	0.217
-294.691	-54.235	0.205	-0.093
-293.676	64.185	-0.181	-0.182
-292.662	-78.070	0.581	-0.199
-291.647	-110.515	-0.200	0.041
-290.632	30.056	-0.234	0.199
-289.618	800.000	-0.096	0.364
-288.603	-82.526	-0.268	-0.086
-287.589	-31.170	-0.133	0.075
-286.574	324.330	-0.161	-0.305
-285.559	142.481	-0.024	0.032
-284.545	232.886	0.057	-0.093
-283.530	-147.448	-0.390	-0.033
-282.516	-79.917	0.314	0.105
-281.501	-200.000	-0.044	0.351
-280.486	-101.064	-0.393	-0.096
-279.472	-200.000	0.059	0.421
-278.457	35.282	-0.269	0.235
-277.443	-200.000	0.005	-0.307
-276.428	-82.887	0.252	-0.081
-275.413	-92.709	-0.093	-0.026
-274.399	84.800	-0.282	0.307
-273.384	77.293	0.192	-0.203
-272.370	189.348	-0.014	0.020
-271.355	84.772	-0.168	-0.183
-270.340	246.772	-0.016	0.026
-269.326	296.466	-0.121	0.220
-268.311	800.000	0.032	-0.129
-267.297	-101.977	0.223	-0.054
-266.282	-95.999	-0.056	0.015
-265.267	-90.774	-0.140	-0.040
-264.253	-200.000	0.055	-0.254
-263.238	207.710	0.139	-0.216
-262.224	516.766	0.140	-0.325
-261.209	162.571	-0.105	-0.146
-260.195	69.791	-0.216	0.221
-259.180	-200.000	-0.043	0.199
-258.165	-94.225	-0.188	-0.051
-257.151	-200.000	0.034	-0.623
-256.136	-4.406	-0.176	0.121
-255.122	-200.000	-0.010	0.193
-254.107	-200.000	0.001	-0.328
-253.092	800.000	-0.079	-0.277
-252.078	-123.164	0.232	0.037
-251.063	26.589	-0.164	0.136
-250.049	79.091	0.122	-0.130
-249.034	103.182	0.119	-0.139
-248.019	-145.652	0.184	-0.016
-247.005	-34.021	0.214	-0.117
-245.990	-138.040	-0.221	0.024
-244.976	-8.298	0.153	-0.102
-243.961	156.295	0.190	-0.260
-242.946	-139.532	0.235	-0.025
-241.932	-162.423	0.111	0.005
-240.917	-200.000	-0.068	0.349
-239.903	-54.886	-0.350	0.157
-238.888	637.582	0.053	0.134
-237.873	86.187	0.110	0.120
-236.859	-73.052	0.309	0.113
-235.844	-142.105	-0.527	0.052
-234.830	-152.906	-0.087	-0.006
-233.815	-200.000	0.004	0.068
-232.800	201.030	-0.106	0.162
-231.786	178.248	0.070	0.102
-230.771	-61.758	0.344	0.143
-229.757	10.894	-0.221	0.167
-228.742	-98.450	-0.045	-0.011
-227.727	220.967	-0.064	0.102
-226.713	-64.977	-0.309	0.124
-225.698	175.693	-0.056	0.081
-224.684	-73.266	-0.165	0.060
-223.669	800.000	0.034	-0.141
-222.655	800.000	-0.062	0.209
-221.640	105.913	0.172	0.202
-220.625	-200.000	0.010	-0.076
-219.611	-118.033	0.180	-0.032
-218.596	0.919	0.174	0.124
-217.582	-200.000	0.002	-0.270
-216.567	194.936	-0.007	0.010
-215.552	-6.603	-0.086	0.058
-214.538	-64.750	0.032	-0.013
-213.523	-200.000	0.019	-0.286
-212.509	800.000	0.026	0.115
-211.494	150.975	0.078	-0.105
-210.479	800.000	0.028	0.093
-209.465	120.603	0.100	0.124
-208.450	16.022	-0.052	0.041
-207.436	258.330	0.170	0.291
-206.421	0.515	0.248	0.175
-205.406	252.210	-0.137	0.232
-204.392	255.115	-0.072	0.123
-203.377	-137.055	0.432	0.049
-202.363	12.685	-0.284	-0.218
-201.348	-200.000	0.012	-0.157
-200.333	43.597	0.115	-0.105
-199.319	-133.857	-0.210	0.026
-198.304	22.322	0.296	0.240
-197.290	800.000	0.049	0.214
-196.275	800.000	-0.090	0.342
-195.260	-12.937	-0.187	0.121
-194.246	-170.838	-0.071	-0.002
-193.231	800.000	-0.121	0.354
-192.217	-36.333	-0.235	0.126
-191.202	503.438	-0.062	0.142
-190.187	445.002	0.137	-0.298
-189.173	-115.643	-0.358	0.067
-188.158	-200.000	0.002	-0.044
-187.144	61.307	0.172	0.169
-186.129	800.000	0.027	0.078
-185.114	61.728	0.161	0.159
-184.100	-200.000	0.026	0.141
-183.085	-125.419	-0.506	-0.076
-182.071	800.000	-0.013	-0.054
-181.056	-154.148	0.195	-0.013
-180.042	1.432	-0.170	-0.121
-179.027	800.000	0.157	-0.495
-178.012	-72.185	-0.289	0.106
-176.998	93.746	-0.090	-0.101
-175.983	-97.910	-0.142	-0.036
-174.969	86.448	0.127	-0.139
-173.954	-200.000	0.074	-0.360
-172.939	-200.000	-0.027	-0.135
-171.925	-69.639	0.356	0.135
-170.910	669.956	-0.110	-0.283
-169.896	224.528	0.095	-0.152
-168.881	41.303	-0.223	0.200
-167.866	800.000	0.040	0.131
-166.852	-154.219	-0.325	0.022
-165.837	-17.446	0.090	0.056
-164.823	-200.000	0.016	0.116
-163.808	-24.579	0.255	0.150
-162.793	-65.819	-0.096	-0.038
-161.779	-93.629	0.189	-0.052
-160.764	60.471	0.124	0.121
-159.750	19.467	-0.097	-0.077
-158.735	694.577	0.172	-0.446
-157.720	-85.021	0.134	0.042
-156.706	463.426	0.085	-0.189
-155.691	-200.000	-0.012	-0.238
-154.677	627.374	-0.084	0.210
-153.662	31.482	-0.094	0.080
-152.647	401.697	-0.094	0.196
-151.633	10.840	0.123	0.093
-150.618	33.791	0.358	0.308
-149.604	50.168	-0.169	0.158
-148.589	219.928	-0.032	0.051
-147.574	152.976	0.058	0.078
-146.560	176.929	0.100	0.143
-145.545	6.911	-0.063	0.047
-144.531	-200.000	0.041	0.338
-143.516	613.040	-0.132	-0.326
-142.502	205.538	0.031	0.048
-141.487	228.138	0.132	0.213
-140.472	58.062	-0.191	0.185
-139.458	800.000	0.043	-0.158
-138.443	161.244	-0.147	0.204
-137.429	800.000	-0.049	0.170
-136.414	-97.132	-0.083	-0.022
-135.399	15.748	0.350	0.273
-134.385	-75.966	0.121	-0.042
-133.370	7.292	0.175	-0.129
-132.356	-162.105	-0.177	-0.009
-131.341	-200.000	0.012	-0.128
-130.326	-125.922	0.216	0.032
-129.312	-21.781	0.055	-0.033
-128.297	-138.720	0.159	0.017
-127.283	354.334	-0.167	0.329
-126.268	261.079	0.250	0.429
-125.253	-82.656	-0.163	-0.052
-124.239	-200.000	-0.017	-0.212
-123.224	50.418	-0.295	-0.275
-122.210	10.985	-0.196	0.148
-121.195	-200.000	0.007	0.092
