DTS Sentinel unit serial number:	SN413079Multiplexer serial number:	ORYXHardware model number:	OX4-SRSoftware version number:	ORYX F/W v4.00 Oryx Data Collector v3.7.2.0data status	okinstallation	princeton_trtdifferential loss correction	single-endedforward channel	channel 4reverse channel	N/Adate	2019/09/18time	17:01:35forward acquisition time	60.00reverse acquisition time	0.00gamma	496.2192k internal	0.2290k external	0.2290temperature offset calibration	1.0008default loss term (dB/km)	0.3790temperature slope calibration	1.0000multiplexer offset coefficient	1.0000multiplexer slope coefficient	1.0000fibre end	0.00T internal ref (°C)	40.05T ext. ref 1 (°C)	0.88T ext. ref 2 (°C)	33.79length (m)	temperature (°C)	Stokes	anti-Stokes-747.200	19.966	0.210	0.174
-746.185	-151.813	0.109	0.008
-745.171	-200.000	0.023	0.135
-744.156	184.027	0.058	0.088
-743.142	87.748	-0.219	-0.248
-742.127	-200.000	-0.017	0.166
-741.112	-25.953	-0.100	-0.060
-740.098	-200.000	-0.025	0.271
-739.083	800.000	0.103	-0.406
-738.069	173.002	0.171	0.253
-737.054	-38.505	0.146	0.079
-736.039	407.980	-0.146	-0.316
-735.025	-200.000	0.057	0.378
-734.010	-113.272	-0.242	-0.049
-732.996	-200.000	-0.007	-0.312
-731.981	238.565	0.181	-0.308
-730.966	-57.491	0.078	-0.035
-729.952	-122.684	0.085	0.014
-728.937	-102.533	0.217	0.053
-727.923	-200.000	-0.022	0.227
-726.908	-107.232	0.278	-0.063
-725.894	85.118	-0.144	-0.162
-724.879	-35.704	0.337	-0.187
-723.864	257.289	-0.014	0.025
-722.850	-116.144	-0.159	-0.030
-721.835	399.496	0.130	-0.279
-720.821	17.916	0.231	-0.188
-719.806	-149.020	-0.274	0.023
-718.791	-8.673	0.124	-0.085
-717.777	-200.000	0.032	-0.172
-716.762	-200.000	-0.035	-0.205
-715.748	-2.339	-0.354	0.254
-714.733	-200.000	-0.009	0.283
-713.718	667.230	0.104	-0.274
-712.704	-200.000	-0.042	-0.296
-711.689	-200.000	0.098	0.511
-710.675	-106.550	0.305	0.070
-709.660	-116.162	-0.195	0.037
-708.645	56.247	0.182	0.181
-707.631	-51.867	-0.061	0.029
-706.616	800.000	0.059	-0.254
-705.602	794.123	-0.026	0.073
-704.587	-117.860	0.261	-0.048
-703.572	-200.000	0.002	-0.133
-702.558	800.000	0.073	0.287
-701.543	800.000	0.099	-0.339
-700.529	342.576	-0.106	-0.212
-699.514	131.139	0.094	0.124
-698.499	800.000	-0.067	0.280
-697.485	800.000	0.072	0.313
-696.470	-43.002	0.056	-0.029
-695.456	-2.346	-0.076	0.055
-694.441	142.706	-0.344	0.467
-693.426	528.840	-0.112	0.270
-692.412	518.061	0.109	0.261
-691.397	166.305	-0.089	-0.129
-690.383	-93.290	0.216	0.061
-689.368	-39.126	0.031	-0.017
-688.354	105.167	-0.085	-0.102
-687.339	334.827	0.033	-0.065
-686.324	-200.000	-0.005	0.090
-685.310	-46.525	-0.174	-0.087
-684.295	481.101	0.054	-0.124
-683.281	59.332	-0.275	0.277
-682.266	-2.293	0.246	0.176
-681.251	116.404	-0.116	-0.145
-680.237	19.879	0.131	-0.108
-679.222	97.487	-0.174	0.204
-678.208	-140.337	0.289	-0.031
-677.193	71.030	-0.084	-0.089
-676.178	-50.224	-0.180	-0.087
-675.164	-200.000	-0.002	0.115
-674.149	62.337	-0.238	-0.243
-673.135	-90.232	0.231	0.069
-672.120	105.670	-0.147	-0.178
-671.105	-200.000	0.015	-0.094
-670.091	-9.651	-0.361	0.246
-669.076	661.765	-0.082	0.215
-668.062	-34.575	-0.085	0.048
-667.047	-45.462	0.130	-0.066
-666.032	93.991	-0.055	-0.064
-665.018	628.280	0.104	-0.267
-664.003	800.000	-0.049	0.158
-662.989	-37.299	0.071	-0.039
-661.974	193.038	-0.129	-0.199
-660.959	75.912	-0.112	-0.121
-659.945	134.259	0.014	-0.019
-658.930	-200.000	0.010	0.276
-657.916	-68.016	0.566	-0.225
-656.901	-29.772	-0.217	-0.126
-655.886	-160.117	-0.451	0.025
-654.872	-3.017	-0.398	0.284
-653.857	301.454	-0.156	0.295
-652.843	281.732	0.134	0.245
-651.828	-112.561	-0.137	0.028
-650.814	-45.777	0.376	-0.189
-649.799	98.760	-0.163	0.192
-648.784	-13.413	0.065	0.043
-647.770	291.150	0.110	-0.204
-646.755	-100.159	0.304	0.077
-645.741	8.523	-0.311	-0.239
-644.726	-200.000	0.020	-0.153
-643.711	800.000	0.049	-0.175
-642.697	-8.944	0.165	0.113
-641.682	133.774	0.264	0.349
-640.668	-91.242	0.243	0.071
-639.653	-105.683	-0.384	-0.089
-638.638	-108.696	0.487	0.107
-637.624	0.173	0.058	0.042
-636.609	800.000	-0.053	0.234
-635.595	673.356	0.145	0.383
-634.580	800.000	-0.112	-0.359
-633.565	451.865	-0.122	-0.275
-632.551	25.038	0.072	0.061
-631.536	800.000	-0.070	0.241
-630.522	-121.822	0.138	0.023
-629.507	72.629	0.277	0.295
-628.492	525.243	-0.219	0.524
-627.478	-13.081	0.386	-0.256
-626.463	-23.524	-0.107	-0.066
-625.449	221.413	0.057	-0.093
-624.434	-200.000	0.024	-0.156
-623.419	-152.027	-0.235	-0.017
-622.405	57.515	0.193	0.192
-621.390	800.000	-0.076	-0.247
-620.376	361.244	0.130	-0.265
-619.361	-26.031	-0.206	0.124
-618.346	-125.628	-0.159	0.025
-617.332	-138.263	0.199	0.022
-616.317	-11.088	-0.153	-0.103
-615.303	140.770	-0.304	-0.410
-614.288	-113.543	0.158	-0.031
-613.273	480.555	0.144	0.333
-612.259	788.745	0.115	0.322
-611.244	-149.608	-0.304	-0.024
-610.230	151.667	-0.083	-0.116
-609.215	-200.000	0.046	-0.284
-608.201	26.079	-0.269	-0.228
-607.186	-146.123	-0.201	0.018
-606.171	125.877	0.090	0.116
-605.157	-118.738	-0.260	-0.047
-604.142	305.447	0.159	-0.302
-603.128	-98.180	0.221	0.058
-602.113	145.644	0.016	-0.022
-601.098	-61.314	0.152	0.065
-600.084	-200.000	0.004	-0.125
-599.069	800.000	0.091	0.304
-598.055	-200.000	0.013	0.163
-597.040	15.722	0.121	-0.097
-596.025	49.588	0.200	-0.192
-595.011	-4.168	0.038	0.027
-593.996	223.011	-0.076	-0.125
-592.982	46.081	-0.120	-0.113
-591.967	-200.000	0.013	-0.208
-590.952	26.398	0.127	-0.108
-589.938	800.000	0.023	-0.068
-588.923	296.676	0.104	0.194
-587.909	-9.529	-0.201	0.137
-586.894	-17.233	0.238	-0.153
-585.879	128.714	0.123	0.159
-584.865	1.892	-0.160	-0.117
-583.850	186.036	-0.079	-0.120
-582.836	36.741	-0.046	-0.041
-581.821	-135.324	0.178	-0.022
-580.806	-160.873	0.101	-0.005
-579.792	455.685	-0.056	0.127
-578.777	-200.000	-0.012	-0.255
-577.763	-56.715	-0.037	0.017
-576.748	-200.000	0.015	-0.371
-575.733	-99.249	-0.166	0.043
-574.719	800.000	0.042	0.127
-573.704	-127.099	-0.263	-0.039
-572.690	-200.000	-0.003	0.294
-571.675	358.477	-0.076	0.155
-570.661	6.054	0.175	0.132
-569.646	-66.908	0.414	-0.166
-568.631	382.459	0.191	-0.400
-567.617	800.000	0.094	0.389
-566.602	800.000	-0.093	0.293
-565.588	-189.842	-0.115	-0.001
-564.573	9.531	0.283	-0.218
-563.558	117.229	-0.239	-0.299
-562.544	-200.000	0.060	-0.358
-561.529	66.011	-0.193	0.199
-560.515	-98.398	0.196	0.051
-559.500	443.117	-0.153	0.342
-558.485	-89.090	-0.366	0.110
-557.471	747.876	-0.093	-0.255
-556.456	43.736	-0.185	-0.172
-555.442	220.343	-0.209	-0.340
-554.427	168.250	0.241	-0.348
-553.412	88.030	-0.083	-0.093
-552.398	164.351	0.149	-0.213
-551.383	-146.043	-0.076	-0.007
-550.369	-15.264	0.349	-0.227
-549.354	-41.928	-0.285	-0.148
-548.339	427.908	-0.016	-0.035
-547.325	357.401	-0.072	-0.147
-546.310	-200.000	0.004	-0.120
-545.296	-200.000	-0.008	-0.083
-544.281	21.751	0.291	0.241
-543.266	-6.297	-0.023	-0.016
-542.252	108.970	-0.216	-0.263
-541.237	45.678	-0.153	-0.144
-540.223	-151.705	0.410	-0.031
-539.208	-99.749	-0.019	0.005
-538.193	-171.631	-0.276	0.009
-537.179	89.809	-0.245	-0.278
-536.164	-131.102	0.140	0.019
-535.150	288.900	-0.015	0.027
-534.135	-173.114	0.125	0.004
-533.121	-65.894	-0.351	0.143
-532.106	-200.000	0.002	0.210
-531.091	-170.901	-0.325	-0.011
-530.077	-128.687	-0.066	0.009
-529.062	-2.788	-0.249	-0.177
-528.048	19.864	-0.379	0.310
-527.033	-200.000	-0.011	0.233
-526.018	-68.153	-0.311	-0.123
-525.004	-200.000	0.018	-0.112
-523.989	-45.856	0.319	-0.160
-522.975	-200.000	0.021	0.099
-521.960	800.000	-0.040	-0.130
-520.945	-96.448	-0.239	-0.064
-519.931	78.120	-0.225	0.244
-518.916	800.000	0.086	0.297
-517.902	800.000	-0.038	-0.157
-516.887	-43.191	0.215	0.110
-515.872	24.029	-0.100	0.084
-514.858	27.246	-0.096	0.082
-513.843	84.318	-0.233	0.259
-512.829	-200.000	0.047	0.271
-511.814	-154.794	-0.105	-0.007
-510.799	800.000	0.069	-0.285
-509.785	120.592	-0.165	0.208
-508.770	267.312	-0.190	-0.337
-507.756	-149.803	0.320	-0.025
-506.741	-138.610	-0.206	0.023
-505.726	-200.000	-0.000	-0.020
-504.712	-3.212	-0.234	-0.165
-503.697	-88.627	-0.284	0.086
-502.683	-137.554	-0.187	-0.021
-501.668	101.115	-0.068	0.080
-500.653	-145.296	0.228	-0.021
-499.639	225.596	-0.207	0.340
-498.624	-200.000	0.044	-0.270
-497.610	-120.867	0.261	-0.045
-496.595	-57.745	-0.224	0.099
-495.581	-115.494	-0.325	0.062
-494.566	800.000	0.057	0.174
-493.551	-58.326	0.112	-0.050
-492.537	800.000	0.092	-0.355
-491.522	-200.000	0.061	-0.348
-490.508	584.938	0.060	-0.149
-489.493	-200.000	0.030	-0.145
-488.478	483.334	-0.137	-0.315
-487.464	45.729	-0.169	0.159
-486.449	73.414	0.169	0.179
-485.435	800.000	-0.073	-0.236
-484.420	800.000	0.004	-0.016
-483.405	187.430	0.265	0.401
-482.391	2.854	0.209	0.154
-481.376	-154.756	-0.141	-0.009
-480.362	-8.599	0.140	0.095
-479.347	-200.000	-0.004	-0.201
-478.332	-161.663	-0.547	-0.028
-477.318	-145.562	-0.423	-0.038
-476.303	162.276	-0.095	-0.135
-475.289	406.455	0.153	-0.328
-474.274	183.888	0.115	-0.173
-473.259	-140.708	0.545	0.057
-472.245	301.648	-0.163	-0.306
-471.230	208.798	-0.115	-0.182
-470.216	235.589	-0.144	-0.242
-469.201	-62.741	-0.198	0.083
-468.186	201.089	-0.162	-0.253
-467.172	-67.535	-0.136	0.054
-466.157	-77.631	0.116	0.041
-465.143	269.318	-0.026	0.046
-464.128	59.068	-0.364	0.362
-463.113	-200.000	-0.023	0.171
-462.099	280.819	-0.118	0.213
-461.084	800.000	0.114	0.389
-460.070	800.000	0.061	-0.227
-459.055	37.720	0.123	-0.111
-458.040	-59.401	-0.260	0.113
-457.026	-65.666	0.365	-0.148
-456.011	-200.000	0.010	-0.326
-454.997	800.000	-0.042	0.156
-453.982	-1.919	0.150	0.107
-452.968	800.000	0.032	-0.119
-451.953	-127.357	0.303	0.045
-450.938	-200.000	-0.076	0.000
-449.924	-84.832	-0.104	0.033
-448.909	602.648	-0.083	0.209
-447.895	-127.510	-0.125	0.018
-446.880	-200.000	0.003	0.127
-445.865	-108.981	0.096	-0.021
-444.851	800.000	-0.038	-0.112
-443.836	282.598	-0.211	0.384
-442.822	-200.000	0.025	0.321
-441.807	-78.772	0.201	-0.069
-440.792	-124.374	0.385	-0.061
-439.778	532.082	-0.020	-0.049
-438.763	391.915	-0.184	0.387
-437.749	50.366	-0.139	0.133
-436.734	-140.189	0.126	0.013
-435.719	-200.000	-0.006	0.089
-434.705	-59.382	0.323	-0.141
-433.690	216.455	0.013	-0.021
-432.676	93.027	0.133	0.152
-431.661	-200.000	-0.038	0.192
-430.646	222.066	-0.071	-0.116
-429.632	-200.000	-0.004	0.142
-428.617	130.459	-0.105	0.136
-427.603	800.000	-0.060	0.187
-426.588	-200.000	-0.020	-0.142
-425.573	358.243	0.139	0.280
-424.559	37.510	-0.119	0.107
-423.544	54.781	-0.110	0.107
-422.530	800.000	-0.053	-0.177
-421.515	-200.000	0.049	-0.485
-420.500	346.626	0.148	0.295
-419.486	-200.000	-0.003	-0.085
-418.471	-103.886	-0.214	0.051
-417.457	-200.000	-0.054	0.318
-416.442	74.741	0.278	0.296
-415.428	140.301	0.274	0.365
-414.413	-200.000	0.027	0.318
-413.398	-200.000	0.004	-0.196
-412.384	-76.890	0.214	0.075
-411.369	8.082	0.153	-0.116
-410.355	31.582	-0.355	-0.308
-409.340	-134.222	-0.265	-0.033
-408.325	-200.000	-0.018	0.270
-407.311	-46.088	-0.144	-0.072
-406.296	9.463	0.076	-0.058
-405.282	-117.194	0.331	0.061
-404.267	-167.165	0.448	-0.018
-403.252	-6.607	-0.143	-0.098
-402.238	800.000	0.132	0.374
-401.223	28.934	-0.232	0.199
-400.209	-55.764	0.257	0.116
-399.194	91.129	-0.061	-0.069
-398.179	173.358	0.219	0.319
-397.165	460.260	0.058	0.130
-396.150	410.171	0.158	0.339
-395.136	-59.416	0.127	0.055
-394.121	-15.141	-0.252	0.163
-393.106	-200.000	0.004	0.208
-392.092	-45.719	0.133	-0.066
-391.077	-21.079	0.092	0.057
-390.063	-200.000	-0.024	-0.154
-389.048	-120.602	-0.272	-0.046
-388.033	-121.970	-0.150	-0.025
-387.019	-200.000	0.008	-0.105
-386.004	-132.750	0.313	-0.040
-384.990	49.627	0.074	0.070
-383.975	800.000	-0.096	-0.289
-382.960	-58.572	0.103	0.045
-381.946	-123.722	-0.278	0.044
-380.931	800.000	0.041	0.161
-379.917	67.691	0.296	-0.305
-378.902	-200.000	0.010	-0.184
-377.888	-200.000	-0.055	-0.247
-376.873	800.000	0.034	-0.100
-375.858	65.009	-0.028	-0.029
-374.844	34.122	-0.026	0.023
-373.829	530.642	-0.061	0.147
-372.815	64.974	-0.162	0.165
-371.800	-200.000	0.020	0.116
-370.785	1.947	-0.064	0.046
-369.771	-64.985	-0.439	0.179
-368.756	-20.028	-0.251	0.156
-367.742	-157.507	-0.166	-0.010
-366.727	-96.497	0.282	-0.075
-365.712	-36.346	-0.153	0.083
-364.698	800.000	0.018	-0.056
-363.683	430.011	-0.089	-0.194
-362.669	409.633	-0.050	-0.107
-361.654	-67.233	0.217	0.086
-360.639	-200.000	0.002	0.175
-359.625	-124.706	0.210	-0.033
-358.610	493.078	0.091	-0.211
-357.596	-84.915	-0.428	-0.135
-356.581	-20.657	0.270	-0.167
-355.566	-120.586	-0.184	-0.031
-354.552	-13.544	-0.230	-0.150
-353.537	711.096	0.091	0.243
-352.523	-200.000	-0.007	0.359
-351.508	-200.000	-0.026	-0.301
-350.493	159.236	0.204	0.286
-349.479	-200.000	-0.015	-0.270
-348.464	-160.478	0.162	-0.009
-347.450	-66.245	0.067	0.027
-346.435	33.250	0.258	0.226
-345.420	89.827	-0.178	0.201
-344.406	293.466	0.117	0.215
-343.391	-65.971	-0.058	-0.024
-342.377	-159.334	0.321	0.018
-341.362	800.000	-0.079	0.286
-340.348	-44.073	-0.120	0.061
-339.333	-35.528	0.141	-0.077
-338.318	70.735	0.180	0.188
-337.304	43.027	-0.032	0.030
-336.289	-3.017	0.248	-0.175
-335.275	223.261	0.061	-0.100
-334.260	-32.504	0.175	0.098
-333.245	-83.276	-0.235	-0.076
-332.231	511.448	0.071	0.166
-331.216	334.102	-0.156	-0.305
-330.202	-200.000	-0.031	-0.204
-329.187	800.000	0.124	0.475
-328.172	-93.790	-0.207	-0.057
-327.158	-25.180	0.157	-0.094
-326.143	359.833	-0.069	0.139
-325.129	186.020	0.057	-0.085
-324.114	155.684	0.157	0.218
-323.099	-4.515	-0.152	-0.106
-322.085	-101.935	0.184	0.045
-321.070	-200.000	-0.058	0.401
-320.056	-74.669	-0.253	0.092
-319.041	-200.000	-0.003	0.049
-318.026	-82.624	0.193	0.063
-317.012	7.424	0.219	0.165
-315.997	602.850	-0.092	-0.230
-314.983	-136.874	-0.239	-0.028
-313.968	800.000	-0.050	0.218
-312.953	-61.668	0.347	-0.147
-311.939	209.499	0.190	-0.299
-310.924	90.068	0.044	-0.050
-309.910	32.603	0.108	0.094
-308.895	-123.671	-0.236	0.038
-307.880	-127.585	0.207	0.030
-306.866	-54.836	-0.178	0.081
-305.851	-20.133	0.062	-0.038
-304.837	-34.076	-0.065	0.036
-303.822	-93.530	0.143	-0.040
-302.807	-200.000	-0.026	-0.126
-301.793	-116.495	-0.051	0.010
-300.778	171.521	0.028	0.041
-299.764	266.882	0.040	0.071
-298.749	64.541	0.096	-0.097
-297.735	-73.169	0.185	0.068
-296.720	460.920	-0.022	0.049
-295.705	-147.192	-0.109	-0.009
-294.691	-157.004	0.349	-0.021
-293.676	-16.764	0.285	0.182
-292.662	109.180	-0.230	-0.276
-291.647	254.601	-0.072	-0.125
-290.632	358.707	-0.071	-0.142
-289.618	-88.157	-0.153	-0.046
-288.603	-51.567	-0.203	0.095
-287.589	-136.231	0.427	-0.050
-286.574	-76.580	0.135	0.048
-285.559	58.998	-0.040	-0.040
-284.545	-200.000	-0.004	0.039
-283.530	24.867	0.228	0.190
-282.516	800.000	0.058	-0.229
-281.501	-94.219	0.352	-0.097
-280.486	-117.894	0.124	-0.022
-279.472	91.065	0.053	-0.060
-278.457	156.511	0.051	0.070
-277.443	209.153	0.063	0.099
-276.428	800.000	-0.062	0.213
-275.413	87.711	-0.179	-0.199
-274.399	-200.000	-0.022	0.265
-273.384	112.369	0.075	-0.092
-272.370	384.442	-0.101	-0.210
-271.355	17.752	-0.216	-0.173
-270.340	484.743	0.055	0.126
-269.326	-200.000	0.020	0.110
-268.311	-147.498	-0.164	-0.014
-267.297	-38.893	-0.043	-0.023
-266.282	-52.548	0.060	0.028
-265.267	-75.198	0.274	-0.098
-264.253	800.000	0.057	0.214
-263.238	-200.000	0.215	0.001
-262.224	45.101	0.325	-0.301
-261.209	218.874	-0.175	0.281
-260.195	-200.000	-0.005	0.529
-259.180	500.366	-0.082	0.190
-258.165	404.885	0.153	0.325
-257.151	-88.091	-0.180	0.054
-256.136	-104.907	-0.496	-0.114
-255.122	-1.025	-0.061	0.043
-254.107	-200.000	-0.049	0.429
-253.092	800.000	-0.033	0.112
-252.078	-43.592	-0.360	-0.182
-251.063	-32.942	0.183	-0.102
-250.049	-200.000	-0.063	-0.337
-249.034	800.000	0.022	0.096
-248.019	112.612	0.175	-0.213
-247.005	-154.936	0.074	-0.005
-245.990	-28.798	-0.079	-0.046
-244.976	-200.000	0.010	0.201
-243.961	-56.747	0.213	0.094
-242.946	800.000	0.040	-0.141
-241.932	-200.000	0.045	-0.258
-240.917	58.407	0.163	0.160
-239.903	411.688	-0.132	0.282
-238.888	800.000	0.066	-0.221
-237.873	800.000	-0.088	-0.333
-236.859	259.765	-0.213	-0.369
-235.844	-200.000	-0.013	0.201
-234.830	-52.050	-0.481	-0.224
-233.815	800.000	-0.073	-0.238
-232.800	-2.587	-0.229	-0.161
-231.786	-153.588	-0.074	0.005
-230.771	-200.000	-0.016	-0.154
-229.757	-132.115	-0.244	-0.032
-228.742	161.939	-0.139	-0.196
-227.727	325.651	-0.137	0.263
-226.713	1.891	-0.341	0.247
-225.698	-63.014	-0.252	-0.104
-224.684	390.472	0.028	-0.058
-223.669	34.526	0.291	-0.255
-222.655	309.494	0.118	0.222
-221.640	731.317	-0.052	-0.139
-220.625	800.000	0.088	-0.249
-219.611	-49.259	0.412	-0.198
-218.596	200.803	-0.109	-0.168
-217.582	-131.358	-0.364	0.048
-216.567	80.270	-0.131	-0.141
-215.552	18.573	-0.148	0.118
-214.538	-200.000	-0.006	-0.082
-213.523	119.239	-0.049	0.061
-212.509	800.000	0.071	-0.214
-211.494	800.000	0.048	-0.169
-210.479	800.000	0.016	0.055
-209.465	-112.205	-0.159	-0.032
-208.450	-137.464	0.168	-0.019
-207.436	-89.259	0.260	-0.077
-206.421	68.016	-0.228	0.234
-205.406	-134.599	0.292	0.036
-204.392	267.076	-0.046	0.080
-203.377	-200.000	-0.021	-0.146
-202.363	-20.293	0.280	-0.173
-201.348	-58.642	0.269	-0.117
-200.333	-73.030	0.460	0.169
-199.319	2.414	0.174	0.126
-198.304	75.748	0.314	0.332
-197.290	31.381	-0.076	0.066
-196.275	-150.485	-0.129	0.010
-195.260	-200.000	0.019	-0.230
-194.246	116.018	-0.107	-0.131
-193.231	445.543	0.054	0.120
-192.217	-74.929	-0.231	0.083
-191.202	800.000	-0.062	-0.177
-190.187	40.259	0.103	0.093
-189.173	-87.518	0.344	-0.104
-188.158	-46.392	0.215	-0.106
-187.144	-200.000	0.015	-0.216
-186.129	244.354	-0.089	-0.150
-185.114	32.694	-0.091	-0.078
-184.100	-139.430	-0.126	0.014
-183.085	-68.188	0.167	-0.065
-182.071	-200.000	0.008	0.309
-181.056	-200.000	0.025	0.328
-180.042	-200.000	-0.012	0.168
-179.027	17.140	0.127	-0.101
-178.012	800.000	-0.069	-0.247
-176.998	258.459	-0.106	-0.182
-175.983	604.909	-0.067	-0.167
-174.969	231.834	0.089	0.147
-173.954	-102.935	-0.192	-0.046
-172.939	-200.000	0.037	-0.199
-171.925	26.876	-0.115	-0.096
-170.910	-85.183	-0.211	0.066
-169.896	73.393	0.126	0.132
-168.881	-200.000	-0.009	-0.050
-167.866	-119.486	0.162	0.028
-166.852	-40.634	-0.315	0.164
-165.837	-200.000	-0.050	-0.409
-164.823	48.314	-0.138	-0.129
-163.808	800.000	0.038	0.119
-162.793	-179.202	0.084	-0.002
-161.779	312.986	-0.117	-0.221
-160.764	-64.467	-0.238	0.097
-159.750	-90.461	0.289	-0.084
-158.735	-200.000	0.027	-0.136
-157.720	-124.523	-0.120	0.019
-156.706	-200.000	-0.013	0.352
-155.691	554.638	0.172	0.414
-154.677	800.000	-0.033	-0.131
-153.662	539.586	-0.038	0.089
-152.647	-75.540	0.118	0.042
-151.633	-95.720	0.254	0.068
-150.618	140.698	-0.190	-0.252
-149.604	-200.000	0.001	-0.143
-148.589	-200.000	-0.012	-0.256
-147.574	-31.167	-0.271	0.153
-146.560	-42.492	0.163	-0.083
-145.545	-65.572	0.093	0.037
-144.531	27.076	0.179	0.151
-143.516	-11.650	0.202	0.133
-142.502	680.347	-0.078	-0.203
-141.487	800.000	0.039	0.118
-140.472	-200.000	0.017	0.077
-139.458	163.415	0.071	0.100
-138.443	-54.265	0.274	0.125
-137.429	76.470	0.110	-0.117
-136.414	-200.000	-0.320	0.001
-135.399	-53.186	-0.074	0.034
-134.385	66.477	0.029	0.029
-133.370	82.743	-0.079	0.086
-132.356	-200.000	-0.008	-0.264
-131.341	800.000	0.099	0.323
-130.326	-30.299	0.309	0.176
-129.312	-126.988	0.142	-0.021
-128.297	-49.350	-0.356	-0.170
-127.283	-200.000	-0.053	0.508
-126.268	-200.000	0.010	0.299
-125.253	45.624	0.179	-0.166
-124.239	273.596	0.020	-0.035
-123.224	122.202	0.103	0.129
-122.210	667.364	0.081	0.209
-121.195	-70.827	0.272	-0.102
