DTS Sentinel unit serial number:	SN413079Multiplexer serial number:	ORYXHardware model number:	OX4-SRSoftware version number:	ORYX F/W v4.00 Oryx Data Collector v3.7.2.0data status	okinstallation	princeton_trtdifferential loss correction	single-endedforward channel	channel 4reverse channel	N/Adate	2019/09/13time	14:49:35forward acquisition time	60.00reverse acquisition time	0.00gamma	496.2192k internal	0.2294k external	0.2294temperature offset calibration	1.0208default loss term (dB/km)	0.3790temperature slope calibration	1.0000multiplexer offset coefficient	1.0000multiplexer slope coefficient	1.0000fibre end	0.00T internal ref (°C)	35.56T ext. ref 1 (°C)	4.68T ext. ref 2 (°C)	32.33length (m)	temperature (°C)	Stokes	anti-Stokes-747.200	88.042	0.172	0.195
-746.185	-200.000	-0.018	0.268
-745.171	-54.819	-0.283	0.131
-744.156	-200.000	0.015	0.352
-743.142	608.055	0.117	0.300
-742.127	-41.602	-0.245	0.129
-741.112	-54.853	-0.570	0.263
-740.098	38.070	-0.083	0.076
-739.083	-149.470	0.092	0.007
-738.069	-200.000	-0.029	0.283
-737.054	306.647	0.029	0.055
-736.039	-8.366	-0.127	0.087
-735.025	273.809	0.059	0.107
-734.010	289.302	-0.072	0.133
-732.996	-1.853	-0.235	-0.169
-731.981	101.181	-0.033	-0.040
-730.966	-139.291	0.217	0.024
-729.952	-200.000	-0.039	-0.194
-728.937	-200.000	0.088	0.000
-727.923	-200.000	0.004	-0.228
-726.908	-65.421	-0.121	-0.050
-725.894	800.000	0.092	-0.347
-724.879	133.372	0.039	0.051
-723.864	-167.332	0.304	0.013
-722.850	201.725	0.042	-0.066
-721.835	-100.358	-0.307	0.078
-720.821	-21.646	0.120	0.075
-719.806	24.833	-0.240	0.203
-718.791	21.498	-0.161	0.134
-717.777	800.000	0.044	0.132
-716.762	78.542	0.111	0.121
-715.748	320.236	0.112	0.216
-714.733	-132.532	-0.274	0.036
-713.718	-168.778	-0.252	-0.010
-712.704	136.957	0.171	-0.228
-711.689	-200.000	0.030	-0.151
-710.675	-125.021	0.352	-0.055
-709.660	-76.663	0.186	-0.067
-708.645	289.075	0.107	-0.198
-707.631	136.961	0.115	-0.153
-706.616	604.516	0.109	0.276
-705.602	-139.959	-0.256	0.028
-704.587	-114.561	-0.185	-0.036
-703.572	-102.020	-0.077	0.019
-702.558	-93.743	-0.241	-0.068
-701.543	198.065	0.257	-0.401
-700.529	-96.158	0.120	0.032
-699.514	-74.675	0.351	0.129
-698.499	52.557	0.333	0.324
-697.485	-124.933	-0.315	-0.050
-696.470	-97.511	-0.287	-0.076
-695.456	61.975	-0.098	-0.100
-694.441	46.321	0.067	0.063
-693.426	-200.000	-0.014	0.291
-692.412	-200.000	0.001	0.229
-691.397	-200.000	-0.006	-0.091
-690.383	328.196	-0.092	-0.180
-689.368	78.141	-0.242	0.264
-688.354	75.438	-0.353	0.381
-687.339	-72.083	-0.125	-0.048
-686.324	-64.640	0.142	-0.059
-685.310	-3.447	-0.215	-0.152
-684.295	38.127	-0.133	0.120
-683.281	-122.200	-0.293	0.049
-682.266	800.000	0.046	0.204
-681.251	-141.704	-0.138	-0.014
-680.237	-108.360	0.082	0.018
-679.222	186.886	-0.086	0.131
-678.208	-64.296	0.102	0.042
-677.193	-200.000	0.026	0.342
-676.178	800.000	0.039	0.167
-675.164	268.768	0.075	-0.134
-674.149	-146.015	0.167	-0.015
-673.135	28.411	0.139	-0.120
-672.120	-200.000	0.041	-0.266
-671.105	-124.950	0.136	-0.021
-670.091	800.000	-0.029	-0.114
-669.076	-0.323	0.178	-0.129
-668.062	-200.000	-0.010	-0.295
-667.047	-70.714	-0.131	-0.050
-666.032	-138.985	0.138	0.015
-665.018	800.000	-0.071	-0.269
-664.003	470.005	0.048	-0.110
-662.989	-73.375	0.164	0.061
-661.974	31.946	-0.114	-0.100
-660.959	800.000	-0.070	-0.289
-659.945	-90.176	-0.183	-0.054
-658.930	-62.959	-0.264	-0.111
-657.916	-87.860	0.078	0.024
-656.901	263.064	-0.198	-0.351
-655.886	-200.000	0.001	0.156
-654.872	-90.084	-0.323	-0.096
-653.857	800.000	0.040	-0.173
-652.843	214.164	-0.107	0.173
-651.828	800.000	-0.014	-0.042
-650.814	27.538	-0.221	-0.189
-649.799	-43.125	0.019	-0.010
-648.784	-200.000	0.070	-0.376
-647.770	-6.617	0.138	0.095
-646.755	800.000	0.011	-0.038
-645.741	-59.352	0.156	0.069
-644.726	-129.780	-0.271	0.038
-643.711	-160.513	0.226	0.012
-642.697	-200.000	-0.051	0.460
-641.682	35.333	-0.126	-0.113
-640.668	-200.000	0.016	0.127
-639.653	46.916	0.074	-0.070
-638.638	-107.630	0.205	0.046
-637.624	800.000	-0.066	-0.201
-636.609	103.620	-0.081	0.097
-635.595	-66.338	0.190	-0.077
-634.580	-200.000	-0.068	0.373
-633.565	130.814	-0.087	0.114
-632.551	-134.920	-0.306	0.038
-631.536	-41.903	-0.143	-0.075
-630.522	-12.335	0.211	-0.140
-629.507	683.725	-0.030	-0.080
-628.492	-200.000	-0.037	0.212
-627.478	-36.528	0.060	0.033
-626.463	-32.956	-0.251	0.142
-625.449	-70.285	-0.117	-0.045
-624.434	-89.730	0.330	0.098
-623.419	-159.506	-0.254	0.014
-622.405	-56.231	0.327	-0.148
-621.390	-31.282	0.048	0.028
-620.376	145.588	0.183	-0.250
-619.361	800.000	0.155	-0.482
-618.346	-82.992	-0.048	0.016
-617.332	40.749	0.186	0.171
-616.317	-200.000	-0.029	-0.136
-615.303	-200.000	0.034	0.196
-614.288	-140.315	-0.282	0.030
-613.273	575.211	-0.170	-0.422
-612.259	643.111	0.068	-0.176
-611.244	800.000	-0.084	0.264
-610.230	29.630	-0.208	-0.180
-609.215	599.669	0.081	0.204
-608.201	504.115	-0.167	0.393
-607.186	-100.312	0.059	-0.015
-606.171	-61.850	-0.028	-0.012
-605.157	149.938	-0.241	-0.333
-604.142	-200.000	0.011	-0.086
-603.128	81.493	0.175	0.192
-602.113	-200.000	-0.023	-0.226
-601.098	504.095	-0.022	0.051
-600.084	-17.507	0.197	-0.126
-599.069	226.536	-0.163	-0.269
-598.055	-200.000	-0.018	0.081
-597.040	448.178	0.136	-0.305
-596.025	23.091	0.101	-0.085
-595.011	-69.247	0.104	0.041
-593.996	177.305	0.152	0.225
-592.982	57.756	0.168	0.167
-591.967	145.813	0.060	-0.081
-590.952	800.000	-0.062	0.178
-589.938	99.015	-0.123	-0.144
-588.923	39.451	0.167	-0.152
-587.909	419.298	-0.010	-0.021
-586.894	-142.686	0.267	-0.027
-585.879	800.000	-0.029	-0.081
-584.865	-38.328	0.321	-0.173
-583.850	168.267	0.063	-0.092
-582.836	-200.000	-0.010	-0.316
-581.821	528.899	0.082	-0.196
-580.806	800.000	-0.026	0.085
-579.792	14.600	0.293	-0.233
-578.777	800.000	-0.097	-0.424
-577.763	-14.477	-0.228	-0.149
-576.748	61.378	-0.478	-0.482
-575.733	234.688	0.081	-0.136
-574.719	150.357	-0.202	0.278
-573.704	800.000	0.036	-0.102
-572.690	800.000	-0.076	0.295
-571.675	251.838	-0.052	0.090
-570.661	-200.000	-0.044	0.532
-569.646	310.960	0.084	-0.160
-568.631	-123.277	-0.044	0.007
-567.617	-16.852	-0.095	0.061
-566.602	-50.192	-0.139	0.067
-565.588	-11.484	0.047	-0.031
-564.573	174.627	0.040	-0.059
-563.558	-15.763	0.362	0.235
-562.544	-149.328	-0.077	-0.006
-561.529	-152.092	0.180	-0.013
-560.515	-101.165	0.477	-0.118
-559.500	25.778	-0.287	0.243
-558.485	-200.000	0.208	0.000
-557.471	-118.495	-0.179	-0.032
-556.456	-128.667	0.129	0.019
-555.442	258.052	-0.104	-0.182
-554.427	-84.455	0.254	0.082
-553.412	45.462	0.212	-0.199
-552.398	-115.069	-0.232	-0.045
-551.383	-135.116	0.321	-0.039
-550.369	-30.319	0.263	-0.151
-549.354	800.000	-0.050	-0.181
-548.339	-96.759	-0.178	-0.047
-547.325	14.778	-0.054	0.043
-546.310	-177.228	0.352	-0.009
-545.296	800.000	0.059	0.214
-544.281	-75.168	-0.034	0.012
-543.266	-154.706	-0.305	-0.021
-542.252	129.699	0.115	-0.150
-541.237	107.651	0.213	0.257
-540.223	42.285	-0.128	0.118
-539.208	-200.000	-0.003	-0.088
-538.193	109.805	0.200	0.243
-537.179	-108.212	0.216	0.047
-536.164	-18.508	0.209	0.132
-535.150	514.003	-0.047	-0.111
-534.135	-64.033	-0.150	-0.062
-533.121	73.595	0.249	-0.264
-532.106	-61.880	-0.229	-0.097
-531.091	-34.723	-0.261	-0.145
-530.077	-105.127	0.145	0.034
-529.062	-200.000	-0.007	-0.067
-528.048	-200.000	-0.021	0.204
-527.033	36.678	0.193	0.172
-526.018	-29.853	0.223	0.129
-525.004	-19.129	0.076	0.048
-523.989	-71.177	0.178	-0.068
-522.975	-200.000	-0.035	0.271
-521.960	-200.000	-0.020	0.113
-520.945	194.276	-0.095	-0.146
-519.931	41.345	-0.143	0.132
-518.916	123.584	-0.105	-0.133
-517.902	800.000	0.092	-0.314
-516.887	713.533	-0.082	-0.219
-515.872	107.857	-0.234	-0.282
-514.858	800.000	-0.025	0.083
-513.843	-200.000	0.011	-0.181
-512.829	132.740	-0.082	0.107
-511.814	-200.000	0.010	0.473
-510.799	-29.005	-0.123	-0.072
-509.785	-200.000	0.045	-0.249
-508.770	-200.000	0.043	-0.218
-507.756	115.386	-0.132	0.164
-506.741	-98.347	0.129	-0.033
-505.726	205.818	-0.213	-0.336
-504.712	-91.594	0.116	-0.033
-503.697	-94.209	0.194	-0.054
-502.683	17.998	-0.285	0.230
-501.668	-200.000	-0.014	0.140
-500.653	-64.507	-0.336	-0.138
-499.639	162.378	-0.232	-0.329
-498.624	529.148	-0.111	-0.266
-497.610	800.000	-0.034	-0.127
-496.595	70.179	0.140	0.147
-495.581	28.781	-0.029	0.024
-494.566	89.029	-0.136	0.154
-493.551	246.637	0.062	0.106
-492.537	337.629	-0.091	0.179
-491.522	-72.810	-0.167	0.062
-490.508	-132.830	0.174	-0.022
-489.493	-67.298	-0.261	0.104
-488.478	-29.588	-0.128	-0.074
-487.464	-120.981	-0.273	0.046
-486.449	-200.000	0.004	-0.076
-485.435	800.000	0.036	-0.102
-484.420	-90.389	0.122	0.036
-483.405	23.935	-0.341	-0.284
-482.391	-96.846	-0.041	-0.011
-481.376	-200.000	-0.006	0.127
-480.362	30.627	-0.377	0.326
-479.347	-200.000	0.043	0.355
-478.332	800.000	0.085	-0.242
-477.318	-63.909	-0.352	-0.146
-476.303	280.256	-0.200	-0.361
-475.289	-73.088	0.390	-0.145
-474.274	44.990	-0.197	-0.184
-473.259	-74.863	0.121	0.044
-472.245	-7.130	-0.131	-0.090
-471.230	-85.676	0.346	-0.109
-470.216	-90.383	0.350	0.103
-469.201	-200.000	-0.035	-0.222
-468.186	-62.220	0.100	0.042
-467.172	-112.454	-0.361	-0.073
-466.157	34.570	0.119	-0.105
-465.143	21.004	-0.274	-0.225
-464.128	-200.000	0.005	0.064
-463.113	-59.631	-0.200	0.087
-462.099	531.893	-0.120	-0.287
-461.084	62.868	-0.057	0.057
-460.070	173.290	-0.182	0.266
-459.055	-200.000	-0.003	0.228
-458.040	90.376	0.198	0.224
-457.026	-9.750	0.213	0.143
-456.011	-128.076	-0.194	-0.028
-454.997	156.117	-0.065	0.090
-453.982	383.337	0.072	-0.149
-452.968	-41.192	0.308	0.160
-451.953	-134.647	-0.209	-0.026
-450.938	-69.948	-0.391	0.151
-449.924	497.417	0.059	-0.138
-448.909	251.855	-0.139	-0.239
-447.895	-156.144	0.210	0.013
-446.880	-93.999	-0.456	-0.127
-445.865	97.938	0.095	-0.111
-444.851	775.534	0.100	0.276
-443.836	384.102	0.085	0.176
-442.822	117.609	-0.043	-0.053
-441.807	-22.676	-0.168	-0.103
-440.792	324.255	0.007	-0.013
-439.778	457.797	-0.076	-0.171
-438.763	800.000	0.119	0.359
-437.749	-13.710	0.212	0.139
-436.734	-102.800	0.164	-0.039
-435.719	7.412	0.221	0.167
-434.705	-200.000	-0.041	0.272
-433.690	638.837	0.070	-0.179
-432.676	-55.021	0.144	0.066
-431.661	-172.643	-0.268	0.008
-430.646	-13.544	-0.222	0.146
-429.632	-200.000	0.003	0.141
-428.617	-45.239	0.269	-0.135
-427.603	254.028	-0.138	0.238
-426.588	-200.000	-0.041	-0.309
-425.573	132.847	0.086	-0.112
-424.559	-64.798	-0.202	0.083
-423.544	182.151	0.080	0.120
-422.530	201.358	0.094	0.146
-421.515	305.612	0.207	0.389
-420.500	-200.000	-0.010	-0.124
-419.486	51.714	0.167	0.161
-418.471	-200.000	-0.007	-0.317
-417.457	80.179	-0.101	-0.109
-416.442	-200.000	-0.033	0.288
-415.428	49.212	-0.464	-0.440
-414.413	78.189	-0.064	-0.069
-413.398	-200.000	0.014	-0.159
-412.384	361.545	0.098	-0.198
-411.369	-11.666	0.287	0.190
-410.355	432.508	0.094	0.206
-409.340	-48.465	0.148	0.072
-408.325	6.405	-0.168	-0.126
-407.311	-119.149	-0.171	-0.030
-406.296	800.000	-0.041	-0.117
-405.282	10.335	-0.315	-0.242
-404.267	383.073	-0.078	0.163
-403.252	118.640	0.214	-0.267
-402.238	-200.000	-0.021	-0.242
-401.223	-98.583	0.241	-0.062
-400.209	-128.336	0.219	0.031
-399.194	-94.187	0.079	-0.022
-398.179	-65.301	-0.175	-0.071
-397.165	35.572	0.177	-0.157
-396.150	678.169	-0.013	-0.035
-395.136	-92.726	-0.158	0.045
-394.121	-200.000	0.011	-0.246
-393.106	210.135	0.082	-0.130
-392.092	322.534	-0.013	0.025
-391.077	105.755	0.181	-0.216
-390.063	-29.459	0.134	0.077
-389.048	-200.000	-0.001	-0.238
-388.033	165.848	-0.167	0.238
-387.019	429.258	-0.093	-0.203
-386.004	201.118	0.057	-0.089
-384.990	-136.021	0.158	-0.019
-383.975	52.938	-0.225	-0.217
-382.960	-171.463	-0.165	0.006
-381.946	186.781	-0.154	-0.232
-380.931	-162.881	-0.295	-0.014
-379.917	23.291	0.277	0.229
-378.902	-200.000	-0.032	0.446
-377.888	-170.103	0.290	0.010
-376.873	-200.000	0.006	-0.190
-375.858	-146.444	-0.344	-0.030
-374.844	514.346	-0.079	-0.187
-373.829	-200.000	0.011	0.321
-372.815	-48.122	-0.284	0.138
-371.800	26.493	-0.268	0.226
-370.785	-200.000	-0.033	0.385
-369.771	3.278	-0.173	0.127
-368.756	-200.000	-0.022	0.165
-367.742	-36.025	0.262	0.142
-366.727	638.094	0.107	0.273
-365.712	769.400	-0.033	-0.091
-364.698	800.000	-0.086	-0.371
-363.683	800.000	0.042	-0.156
-362.669	800.000	0.059	-0.165
-361.654	-199.825	0.288	-0.001
-360.639	-200.000	-0.015	-0.081
-359.625	-110.172	-0.114	0.024
-358.610	800.000	-0.107	-0.341
-357.596	-20.353	0.158	0.098
-356.581	-200.000	0.015	0.369
-355.566	-200.000	0.013	-0.065
-354.552	-162.809	-0.132	-0.006
-353.537	18.650	-0.101	0.081
-352.523	578.662	0.081	0.199
-351.508	-45.643	0.396	0.197
-350.493	190.708	-0.064	-0.096
-349.479	282.932	-0.037	-0.067
-348.464	-200.000	-0.009	0.046
-347.450	388.983	-0.034	-0.072
-346.435	800.000	0.058	0.203
-345.420	83.834	-0.154	0.169
-344.406	-69.594	0.212	-0.082
-343.391	800.000	-0.049	-0.163
-342.377	-101.193	0.413	-0.102
-341.362	36.690	0.268	0.238
-340.348	-74.194	-0.328	-0.119
-339.333	108.456	-0.066	0.079
-338.318	-200.000	0.005	0.297
-337.304	-99.887	-0.328	-0.082
-336.289	800.000	-0.081	0.346
-335.275	130.307	-0.115	-0.148
-334.260	-40.525	0.170	-0.089
-333.245	279.019	0.023	0.041
-332.231	-200.000	0.068	0.490
-331.216	70.644	-0.222	0.231
-330.202	306.573	-0.147	0.276
-329.187	-31.690	0.085	-0.048
-328.172	459.872	0.101	-0.226
-327.158	-200.000	0.098	-0.000
-326.143	-119.988	-0.078	0.013
-325.129	153.201	-0.213	-0.293
-324.114	-200.000	-0.067	0.299
-323.099	-28.346	-0.264	-0.153
-322.085	143.909	0.098	0.131
-321.070	-200.000	-0.037	0.354
-320.056	-105.777	-0.145	0.033
-319.041	-73.985	-0.293	0.107
-318.026	-200.000	0.066	0.292
-317.012	191.221	0.039	-0.059
-315.997	-18.805	-0.119	-0.075
-314.983	-200.000	-0.017	-0.193
-313.968	-4.982	0.155	0.107
-312.953	-28.252	-0.072	-0.042
-311.939	-48.170	0.095	-0.046
-310.924	-2.107	0.232	0.164
-309.910	-95.323	0.115	-0.031
-308.895	-97.356	0.178	-0.047
-307.880	116.151	-0.182	0.224
-306.866	-159.939	0.014	0.001
-305.851	800.000	0.112	-0.318
-304.837	800.000	0.053	-0.194
-303.822	800.000	-0.088	0.291
-302.807	80.409	-0.232	0.251
-301.793	-200.000	-0.013	0.091
-300.778	-132.235	0.153	0.020
-299.764	201.925	0.031	-0.048
-298.749	-49.781	0.047	0.022
-297.735	150.898	-0.184	-0.252
-296.720	-141.147	-0.119	0.012
-295.705	781.099	0.016	-0.044
-294.691	-147.519	0.108	-0.009
-293.676	-200.000	0.017	0.229
-292.662	-200.000	0.038	0.225
-291.647	-198.174	-0.185	0.001
-290.632	700.726	-0.098	-0.260
-289.618	414.591	0.200	0.429
-288.603	631.575	0.082	-0.209
-287.589	-82.818	-0.148	0.048
-286.574	-167.166	-0.110	0.004
-285.559	-99.574	-0.222	0.056
-284.545	-200.000	0.013	0.113
-283.530	-200.000	-0.070	-0.515
-282.516	-106.104	-0.190	-0.043
-281.501	19.083	0.269	0.216
-280.486	-12.827	-0.117	0.076
-279.472	-200.000	-0.003	-0.183
-278.457	-44.307	-0.133	0.067
-277.443	-200.000	-0.042	0.403
-276.428	-106.216	0.198	0.045
-275.413	309.421	-0.135	0.254
-274.399	43.265	-0.090	-0.083
-273.384	800.000	-0.059	-0.246
-272.370	36.985	-0.270	0.239
-271.355	800.000	-0.027	0.108
-270.340	84.545	-0.121	0.133
-269.326	92.057	-0.095	0.107
-268.311	-200.000	0.027	0.192
-267.297	233.659	-0.159	0.263
-266.282	-200.000	0.042	-0.223
-265.267	239.263	0.149	0.248
-264.253	800.000	0.101	0.303
-263.238	-58.822	0.141	0.061
-262.224	312.271	-0.060	-0.114
-261.209	73.900	-0.321	-0.337
-260.195	-200.000	0.011	0.165
-259.180	-28.078	0.161	0.093
-258.165	179.927	-0.074	0.108
-257.151	66.750	0.101	0.104
-256.136	310.102	0.083	0.157
-255.122	96.158	-0.131	0.151
-254.107	91.187	0.170	0.192
-253.092	103.331	-0.137	-0.162
-252.078	53.848	-0.149	0.144
-251.063	328.055	0.136	0.262
-250.049	-53.718	0.256	0.117
-249.034	-86.749	0.165	0.051
-248.019	41.357	0.212	-0.192
-247.005	-37.122	0.200	-0.107
-245.990	-44.138	0.246	-0.124
-244.976	77.771	-0.153	-0.163
-243.961	-119.414	-0.341	0.059
-242.946	-84.045	-0.198	-0.063
-241.932	-171.874	0.072	-0.002
-240.917	-174.100	0.163	0.005
-239.903	-36.563	-0.162	-0.087
-238.888	-79.407	-0.217	0.074
-237.873	-80.773	0.186	-0.062
-236.859	258.137	0.091	0.157
-235.844	-200.000	-0.001	-0.021
-234.830	111.125	-0.031	0.037
-233.815	84.617	-0.266	0.292
-232.800	147.425	0.112	0.151
-231.786	520.253	0.048	0.112
-230.771	-27.709	-0.393	-0.229
-229.757	800.000	0.134	0.442
-228.742	-200.000	0.020	-0.211
-227.727	237.270	0.054	0.089
-226.713	-31.693	0.231	0.130
-225.698	-200.000	-0.018	0.316
-224.684	-36.132	-0.434	-0.235
-223.669	-17.827	0.170	0.107
-222.655	55.967	-0.210	-0.204
-221.640	67.516	-0.323	-0.331
-220.625	-148.099	0.149	-0.012
-219.611	213.268	0.228	0.361
-218.596	106.741	0.061	0.072
-217.582	-143.245	0.143	0.014
-216.567	-66.827	-0.114	0.045
-215.552	-35.103	0.208	0.114
-214.538	-21.693	0.275	0.168
-213.523	494.538	0.069	0.158
-212.509	259.373	-0.125	0.216
-211.494	-78.357	0.193	0.066
-210.479	110.229	0.141	0.170
-209.465	-200.000	0.021	0.150
-208.450	-200.000	0.011	-0.128
-207.436	15.549	-0.224	-0.176
-206.421	6.245	0.142	0.106
-205.406	-200.000	-0.007	-0.129
-204.392	-107.683	0.352	0.077
-203.377	182.845	-0.139	-0.206
-202.363	294.923	-0.033	-0.061
-201.348	-38.949	0.438	0.231
-200.333	84.980	0.160	0.176
-199.319	800.000	0.034	-0.101
-198.304	-171.692	0.145	0.005
-197.290	-6.289	-0.056	-0.038
-196.275	654.876	-0.120	-0.309
-195.260	-200.000	-0.069	-0.353
-194.246	35.088	0.262	-0.230
-193.231	-43.917	-0.191	0.096
-192.217	-200.000	-0.040	-0.191
-191.202	-105.026	0.183	0.042
-190.187	236.300	-0.119	-0.197
-189.173	-200.000	-0.016	-0.106
-188.158	-13.907	0.019	0.012
-187.144	800.000	-0.105	-0.364
-186.129	11.340	0.234	0.179
-185.114	-200.000	0.028	-0.175
-184.100	36.899	-0.142	-0.126
-183.085	173.161	0.141	0.203
-182.071	286.030	-0.083	0.149
-181.056	-200.000	0.030	-0.440
-180.042	379.387	-0.049	0.100
-179.027	800.000	-0.069	0.287
-178.012	174.671	-0.144	0.209
-176.998	-83.405	-0.225	-0.072
-175.983	-61.730	0.219	-0.092
-174.969	48.972	0.208	-0.196
-173.954	35.568	-0.138	-0.121
-172.939	124.166	0.174	0.219
-171.925	-25.329	-0.198	0.117
-170.910	-86.761	0.235	0.072
-169.896	-42.398	0.076	-0.039
-168.881	180.814	0.141	-0.207
-167.866	-200.000	0.030	-0.276
-166.852	-200.000	-0.002	-0.192
-165.837	-181.107	0.411	0.008
-164.823	-33.948	0.137	-0.076
-163.808	97.582	0.098	0.113
-162.793	-14.193	-0.279	-0.180
-161.779	129.533	-0.121	-0.154
-160.764	-12.908	0.302	0.196
-159.750	-116.458	0.064	0.012
-158.735	-200.000	0.045	-0.493
-157.720	-53.118	0.139	-0.064
-156.706	24.786	-0.068	-0.056
-155.691	-200.000	0.002	-0.120
-154.677	32.673	-0.088	0.076
-153.662	-177.016	0.181	-0.005
-152.647	-25.104	0.150	-0.089
-151.633	-39.876	-0.263	-0.137
-150.618	-39.338	-0.116	-0.061
-149.604	-94.264	0.245	-0.067
-148.589	-49.122	-0.071	0.034
-147.574	-85.486	-0.145	-0.045
-146.560	-15.317	0.347	0.222
-145.545	-81.337	-0.302	0.099
-144.531	-199.957	-0.094	0.000
-143.516	-5.550	0.256	-0.175
-142.502	21.034	0.234	0.189
-141.487	-200.000	0.026	-0.308
-140.472	-200.000	0.009	-0.139
-139.458	-138.345	0.076	-0.008
-138.443	108.491	-0.161	0.192
-137.429	800.000	0.021	0.084
-136.414	-200.000	-0.005	-0.066
-135.399	-51.617	0.354	0.165
-134.385	-152.776	-0.154	-0.011
-133.370	181.869	0.013	-0.019
-132.356	-34.811	0.190	0.104
-131.341	40.396	0.043	0.039
-130.326	-106.191	0.101	-0.023
-129.312	800.000	-0.019	0.058
-128.297	-163.182	0.365	0.018
-127.283	24.546	0.204	0.169
-126.268	215.260	-0.091	0.144
-125.253	34.831	0.377	-0.329
-124.239	-128.691	-0.127	0.018
-123.224	222.360	0.113	-0.182
-122.210	148.357	0.259	0.349
-121.195	800.000	-0.028	0.083
