DTS Sentinel unit serial number:	SN413079Multiplexer serial number:	ORYXHardware model number:	OX4-SRSoftware version number:	ORYX F/W v4.00 Oryx Data Collector v3.7.2.0data status	okinstallation	princeton_trtdifferential loss correction	single-endedforward channel	channel 4reverse channel	N/Adate	2019/09/17time	07:25:34forward acquisition time	60.00reverse acquisition time	0.00gamma	496.2192k internal	0.2320k external	0.2320temperature offset calibration	0.9982default loss term (dB/km)	0.3790temperature slope calibration	1.0000multiplexer offset coefficient	1.0000multiplexer slope coefficient	1.0000fibre end	0.00T internal ref (°C)	27.19T ext. ref 1 (°C)	0.12T ext. ref 2 (°C)	21.55length (m)	temperature (°C)	Stokes	anti-Stokes-747.200	215.487	0.069	0.110
-746.185	-200.000	-0.030	0.511
-745.171	-200.000	-0.009	0.059
-744.156	412.790	0.022	-0.047
-743.142	276.577	-0.107	0.191
-742.127	183.995	-0.146	0.218
-741.112	289.478	0.158	-0.289
-740.098	95.563	-0.098	0.112
-739.083	-200.000	-0.033	0.150
-738.069	800.000	-0.094	-0.287
-737.054	182.271	0.117	-0.175
-736.039	-87.428	-0.317	-0.097
-735.025	-23.399	0.285	0.173
-734.010	-150.087	0.221	-0.017
-732.996	621.877	0.044	0.112
-731.981	-200.000	-0.107	-0.597
-730.966	-200.000	0.027	-0.242
-729.952	-200.000	-0.018	0.114
-728.937	89.359	0.031	0.035
-727.923	-200.000	-0.033	0.265
-726.908	666.888	0.017	0.045
-725.894	105.521	-0.046	-0.055
-724.879	-85.416	0.226	0.071
-723.864	-200.000	0.029	-0.423
-722.850	266.359	0.108	0.190
-721.835	189.269	-0.084	0.128
-720.821	-23.899	-0.118	0.071
-719.806	-105.918	-0.247	0.056
-718.791	-200.000	0.012	-0.204
-717.777	-61.844	-0.118	0.050
-716.762	-155.055	-0.210	-0.014
-715.748	-62.453	-0.247	0.104
-714.733	229.349	0.121	0.200
-713.718	157.170	0.174	-0.243
-712.704	-66.569	-0.029	-0.012
-711.689	6.848	-0.067	-0.051
-710.675	-190.487	-0.131	-0.001
-709.660	-51.686	-0.255	-0.120
-708.645	-200.000	-0.002	-0.225
-707.631	-52.349	0.079	-0.037
-706.616	184.107	-0.112	-0.167
-705.602	800.000	-0.034	0.115
-704.587	667.626	-0.055	-0.144
-703.572	143.490	0.200	-0.269
-702.558	-200.000	-0.038	-0.193
-701.543	43.073	-0.174	-0.160
-700.529	-9.703	0.142	0.096
-699.514	-93.468	-0.334	-0.093
-698.499	-27.332	0.164	-0.096
-697.485	91.320	0.201	0.228
-696.470	51.996	-0.104	-0.100
-695.456	152.595	-0.110	-0.151
-694.441	26.811	-0.096	0.082
-693.426	-64.252	-0.133	-0.055
-692.412	56.655	-0.142	-0.139
-691.397	-82.057	0.160	0.053
-690.383	-27.131	0.346	-0.204
-689.368	-143.528	0.224	-0.022
-688.354	-200.000	0.021	0.196
-687.339	-65.424	-0.074	-0.030
-686.324	177.347	0.219	0.321
-685.310	-32.293	0.284	-0.160
-684.295	94.445	0.049	0.056
-683.281	-200.000	0.024	-0.340
-682.266	-82.282	-0.068	-0.022
-681.251	-200.000	-0.006	-0.058
-680.237	-62.408	0.131	0.055
-679.222	364.836	0.078	0.158
-678.208	135.216	0.231	0.303
-677.193	800.000	-0.108	0.402
-676.178	-2.723	0.118	-0.084
-675.164	202.639	-0.200	-0.312
-674.149	426.998	0.080	-0.174
-673.135	-90.125	0.190	0.056
-672.120	223.886	0.027	-0.043
-671.105	0.928	0.040	0.029
-670.091	357.633	0.243	0.490
-669.076	-200.000	-0.067	-0.427
-668.062	-200.000	-0.012	-0.290
-667.047	374.819	0.078	-0.160
-666.032	-133.739	-0.132	0.017
-665.018	433.010	-0.045	0.098
-664.003	86.664	0.091	0.102
-662.989	-21.343	-0.140	0.086
-661.974	-131.871	0.197	0.026
-660.959	-200.000	0.018	0.263
-659.945	118.465	0.085	0.105
-658.930	800.000	-0.061	-0.183
-657.916	738.919	-0.020	-0.054
-656.901	108.862	0.020	-0.024
-655.886	800.000	0.087	-0.307
-654.872	800.000	-0.031	0.091
-653.857	344.367	-0.205	0.405
-652.843	27.949	-0.055	-0.047
-651.828	-134.359	0.148	-0.018
-650.814	-62.524	-0.167	0.070
-649.799	152.437	0.088	-0.121
-648.784	800.000	-0.026	-0.075
-647.770	-150.623	-0.267	-0.021
-646.755	118.785	0.168	0.209
-645.741	127.171	-0.051	0.065
-644.726	-147.329	-0.052	-0.004
-643.711	-92.521	-0.282	0.080
-642.697	-51.571	0.268	0.126
-641.682	-56.606	-0.129	-0.057
-640.668	398.314	0.124	0.261
-639.653	198.598	-0.121	0.186
-638.638	-94.552	-0.197	-0.054
-637.624	257.439	0.086	-0.149
-636.609	769.510	-0.090	-0.246
-635.595	185.389	0.061	-0.091
-634.580	285.949	-0.105	-0.190
-633.565	-32.978	0.214	0.119
-632.551	-41.291	0.179	0.093
-631.536	103.931	-0.180	-0.213
-630.522	-183.593	-0.135	0.002
-629.507	-30.571	0.076	-0.043
-628.492	138.462	-0.022	-0.029
-627.478	-89.992	-0.492	0.144
-626.463	-200.000	0.019	-0.226
-625.449	108.981	0.119	-0.143
-624.434	-179.089	-0.218	-0.005
-623.419	42.093	0.179	-0.164
-622.405	36.883	0.185	-0.165
-621.390	85.032	0.174	-0.192
-620.376	50.827	-0.098	-0.093
-619.361	107.048	0.241	-0.288
-618.346	132.759	0.169	-0.219
-617.332	-115.425	-0.181	0.034
-616.317	229.404	-0.115	0.189
-615.303	-200.000	-0.047	-0.331
-614.288	-200.000	-0.053	-0.262
-613.273	276.903	-0.053	0.094
-612.259	272.709	-0.057	-0.101
-611.244	23.508	-0.244	0.202
-610.230	46.505	-0.194	0.181
-609.215	-66.144	0.185	-0.074
-608.201	-123.875	-0.343	0.054
-607.186	297.289	0.165	0.305
-606.171	-75.210	0.283	0.102
-605.157	86.435	-0.145	0.161
-604.142	-94.687	-0.193	-0.053
-603.128	60.964	-0.013	-0.013
-602.113	431.038	-0.074	-0.160
-601.098	-200.000	-0.014	-0.526
-600.084	126.377	0.156	-0.198
-599.069	31.266	-0.369	0.318
-598.055	-68.834	0.023	-0.009
-597.040	15.422	-0.203	0.161
-596.025	150.109	0.077	0.105
-595.011	-24.221	0.186	0.112
-593.996	800.000	0.071	-0.256
-592.982	719.835	-0.084	-0.225
-591.967	-129.884	0.299	-0.041
-590.952	-200.000	0.017	0.108
-589.938	32.814	-0.192	0.167
-588.923	-78.670	-0.110	0.038
-587.909	-174.033	-0.202	-0.006
-586.894	-62.688	-0.353	-0.147
-585.879	800.000	0.128	0.363
-584.865	-200.000	-0.054	0.321
-583.850	-200.000	-0.041	-0.256
-582.836	800.000	0.058	-0.203
-581.821	-53.847	-0.194	-0.089
-580.806	-6.814	0.397	-0.272
-579.792	-200.000	0.004	-0.081
-578.777	-112.558	0.153	0.031
-577.763	-131.588	-0.263	0.035
-576.748	-51.392	-0.187	-0.088
-575.733	800.000	0.091	-0.278
-574.719	706.451	-0.060	0.158
-573.704	-79.090	-0.298	-0.102
-572.690	573.987	0.072	-0.175
-571.675	-200.000	0.015	0.110
-570.661	-0.557	-0.280	-0.200
-569.646	138.220	-0.275	0.363
-568.631	-59.778	0.061	-0.026
-567.617	-146.050	-0.474	0.042
-566.602	-5.420	0.440	-0.303
-565.588	-101.327	-0.047	-0.011
-564.573	83.350	-0.241	0.264
-563.558	508.434	0.095	0.222
-562.544	369.667	0.092	-0.187
-561.529	137.179	-0.195	0.256
-560.515	-71.367	0.071	0.027
-559.500	363.074	0.107	0.216
-558.485	-200.000	0.006	-0.090
-557.471	-81.085	0.056	-0.019
-556.456	-76.308	-0.435	-0.154
-555.442	-47.246	0.179	-0.087
-554.427	194.187	0.061	0.093
-553.412	327.738	-0.109	-0.210
-552.398	-24.171	-0.198	0.119
-551.383	81.626	0.023	-0.025
-550.369	-42.912	0.196	-0.100
-549.354	-40.291	-0.311	-0.162
-548.339	157.990	0.064	-0.089
-547.325	-37.446	-0.163	-0.087
-546.310	-166.581	0.306	0.013
-545.296	-20.122	-0.179	0.111
-544.281	-120.709	0.126	-0.021
-543.266	562.444	-0.068	-0.165
-542.252	-58.177	0.157	0.069
-541.237	-75.602	0.318	0.114
-540.223	-109.352	-0.317	-0.067
-539.208	338.166	-0.036	-0.071
-538.193	-70.519	-0.094	-0.036
-537.179	-114.556	0.128	-0.025
-536.164	-50.247	0.166	0.079
-535.150	-14.538	-0.134	-0.086
-534.135	483.659	-0.045	0.103
-533.121	6.860	0.336	0.251
-532.106	136.111	-0.063	0.082
-531.091	-37.580	0.192	-0.102
-530.077	18.506	-0.254	-0.204
-529.062	-48.778	0.159	0.076
-528.048	-79.883	-0.174	-0.059
-527.033	411.238	-0.068	0.145
-526.018	-48.730	-0.152	0.073
-525.004	220.442	0.138	0.222
-523.989	-200.000	0.044	-0.297
-522.975	48.489	-0.110	0.103
-521.960	-47.746	-0.201	0.098
-520.945	-44.555	0.230	-0.115
-519.931	-79.522	-0.209	0.071
-518.916	-30.580	0.109	-0.062
-517.902	56.718	0.102	0.100
-516.887	3.911	-0.102	-0.075
-515.872	-200.000	0.009	0.062
-514.858	33.312	-0.061	-0.053
-513.843	-95.982	0.019	-0.005
-512.829	65.593	-0.052	-0.053
-511.814	-200.000	-0.256	0.000
-510.799	-88.012	0.213	0.064
-509.785	-52.920	-0.131	-0.060
-508.770	-23.250	-0.300	0.181
-507.756	-158.005	-0.215	-0.013
-506.741	107.848	-0.140	-0.167
-505.726	151.257	0.076	0.104
-504.712	54.709	0.229	0.221
-503.697	471.170	-0.131	0.295
-502.683	800.000	0.089	0.305
-501.668	800.000	-0.141	-0.459
-500.653	-200.000	0.004	-0.101
-499.639	68.441	-0.283	-0.291
-498.624	800.000	-0.014	-0.040
-497.610	44.255	0.164	0.151
-496.595	-103.788	-0.266	0.062
-495.581	-116.355	-0.033	-0.006
-494.566	-52.651	0.091	-0.042
-493.551	-200.000	-0.036	-0.305
-492.537	86.152	0.130	-0.144
-491.522	-156.514	0.260	0.016
-490.508	-131.030	-0.163	0.022
-489.493	-85.200	-0.123	0.039
-488.478	-200.000	0.024	-0.122
-487.464	415.284	0.019	-0.041
-486.449	-67.430	0.073	-0.029
-485.435	-76.270	0.252	0.089
-484.420	-21.423	0.074	-0.045
-483.405	800.000	0.078	-0.279
-482.391	-63.513	0.197	-0.081
-481.376	-33.876	0.193	-0.106
-480.362	477.757	-0.181	-0.409
-479.347	7.779	0.078	-0.058
-478.332	-175.769	0.117	-0.003
-477.318	662.751	-0.032	-0.084
-476.303	183.423	-0.113	0.167
-475.289	-81.684	-0.265	0.087
-474.274	-200.000	-0.037	-0.404
-473.259	-157.300	-0.149	-0.009
-472.245	372.999	-0.071	-0.144
-471.230	101.589	-0.166	-0.193
-470.216	323.524	-0.178	0.339
-469.201	-64.788	-0.198	-0.080
-468.186	35.753	-0.202	-0.178
-467.172	420.951	-0.110	0.235
-466.157	706.524	-0.070	0.186
-465.143	-151.625	0.221	0.016
-464.128	665.025	-0.035	-0.091
-463.113	206.982	0.073	0.114
-462.099	-35.554	0.070	-0.038
-461.084	-129.227	0.366	0.051
-460.070	401.907	-0.086	-0.180
-459.055	-174.114	-0.286	0.008
-458.040	-85.553	-0.210	0.065
-457.026	-12.543	-0.100	0.066
-456.011	35.103	0.187	-0.164
-454.997	101.385	0.205	0.238
-453.982	95.073	0.186	0.212
-452.968	-126.397	-0.354	0.053
-451.953	-46.224	-0.069	-0.034
-450.938	-29.169	0.037	0.021
-449.924	0.420	0.085	0.061
-448.909	101.478	0.289	-0.336
-447.895	-200.000	0.002	-0.012
-446.880	-141.397	0.261	0.026
-445.865	-69.740	0.185	-0.071
-444.851	-45.745	0.157	-0.078
-443.836	-75.423	-0.224	-0.080
-442.822	-146.989	-0.324	-0.028
-441.807	-200.000	0.052	0.261
-440.792	-44.433	0.417	0.208
-439.778	-200.000	0.085	0.461
-438.763	-127.233	0.103	0.015
-437.749	800.000	-0.067	-0.196
-436.734	-73.999	-0.418	0.151
-435.719	-94.938	0.091	-0.024
-434.705	7.272	0.046	0.034
-433.690	-166.880	0.292	0.012
-432.676	-109.621	-0.243	-0.051
-431.661	800.000	-0.089	-0.253
-430.646	-200.000	0.057	-0.256
-429.632	800.000	-0.048	-0.140
-428.617	570.731	0.148	-0.359
-427.603	-200.000	0.031	-0.157
-426.588	-6.241	-0.037	-0.025
-425.573	197.310	-0.168	-0.257
-424.559	-131.385	-0.213	-0.028
-423.544	248.615	-0.097	-0.164
-422.530	-54.437	-0.130	0.059
-421.515	-14.177	0.068	0.044
-420.500	-51.139	0.119	0.056
-419.486	131.354	-0.069	0.089
-418.471	340.585	0.100	-0.196
-417.457	-110.043	-0.051	0.011
-416.442	-134.202	-0.182	-0.022
-415.428	800.000	0.073	0.230
-414.413	148.310	-0.055	0.074
-413.398	-68.793	-0.222	0.086
-412.384	-163.825	-0.183	-0.009
-411.369	268.354	0.065	0.114
-410.355	-67.579	0.146	-0.057
-409.340	-200.000	0.004	-0.103
-408.325	242.770	-0.151	0.252
-407.311	320.122	-0.144	-0.274
-406.296	316.593	-0.103	0.195
-405.282	-85.888	-0.159	-0.049
-404.267	-93.759	-0.137	0.038
-403.252	-87.470	0.228	-0.069
-402.238	-62.464	-0.350	0.145
-401.223	-200.000	-0.043	-0.201
-400.209	-15.923	0.054	0.034
-399.194	-70.412	0.260	-0.098
-398.179	-72.935	0.251	0.092
-397.165	150.892	0.047	-0.063
-396.150	-150.874	-0.182	-0.014
-395.136	151.358	0.116	0.157
-394.121	362.815	-0.088	0.177
-393.106	-65.213	-0.144	0.058
-392.092	469.550	0.118	0.264
-391.077	-95.858	-0.119	0.032
-390.063	800.000	-0.038	0.151
-389.048	198.357	0.045	-0.069
-388.033	14.097	-0.157	-0.122
-387.019	141.684	-0.166	0.219
-386.004	-118.256	0.562	0.100
-384.990	-80.347	-0.106	-0.035
-383.975	575.445	-0.116	-0.282
-382.960	-105.511	-0.386	-0.087
-381.946	-147.072	-0.296	0.025
-380.931	800.000	0.107	0.384
-379.917	164.887	-0.290	0.408
-378.902	55.969	0.161	-0.156
-377.888	-120.720	-0.239	-0.040
-376.873	429.437	0.154	0.331
-375.858	800.000	-0.029	0.082
-374.844	800.000	-0.055	-0.208
-373.829	800.000	-0.142	0.395
-372.815	177.008	-0.186	0.270
-371.800	277.314	-0.097	0.173
-370.785	-37.057	-0.148	-0.079
-369.771	-200.000	0.016	-0.127
-368.756	-107.724	0.325	-0.071
-367.742	-200.000	0.395	-0.001
-366.727	10.928	-0.292	0.222
-365.712	175.594	0.062	-0.089
-364.698	-122.915	-0.298	0.048
-363.683	277.971	-0.106	0.188
-362.669	237.107	-0.084	0.139
-361.654	225.200	0.107	-0.172
-360.639	102.401	0.105	-0.122
-359.625	-200.000	0.007	0.060
-358.610	668.525	0.106	-0.273
-357.596	-169.490	-0.296	-0.011
-356.581	-2.383	-0.040	0.028
-355.566	-62.851	0.085	-0.035
-354.552	-73.665	-0.169	0.061
-353.537	38.869	-0.125	0.112
-352.523	-9.422	0.191	0.127
-351.508	-200.000	-0.037	-0.240
-350.493	21.007	0.186	-0.150
-349.479	-147.822	0.240	-0.020
-348.464	-97.096	-0.231	-0.060
-347.450	-131.044	0.342	-0.045
-346.435	765.175	-0.103	-0.278
-345.420	404.177	-0.188	0.395
-344.406	22.675	-0.188	0.153
-343.391	800.000	0.055	-0.229
-342.377	-200.000	0.016	0.299
-341.362	-200.000	-0.116	0.000
-340.348	-104.263	0.272	0.063
-339.333	291.275	0.072	-0.130
-338.318	-5.218	-0.035	-0.024
-337.304	-26.650	0.146	-0.085
-336.289	-86.208	0.064	-0.020
-335.275	-70.262	0.100	0.038
-334.260	-52.126	0.394	0.182
-333.245	161.024	-0.083	0.115
-332.231	-160.714	0.151	0.008
-331.216	-117.168	0.098	0.018
-330.202	520.369	-0.104	0.243
-329.187	459.271	0.070	-0.154
-328.172	18.081	-0.123	-0.098
-327.158	333.195	-0.168	0.323
-326.143	-144.233	-0.070	0.006
-325.129	-200.000	-0.048	0.321
-324.114	-37.289	0.366	-0.195
-323.099	66.632	0.095	-0.096
-322.085	85.080	-0.067	0.073
-321.070	-200.000	0.037	-0.475
-320.056	57.227	-0.196	0.190
-319.041	28.811	0.190	-0.160
-318.026	-96.656	0.141	0.037
-317.012	-61.047	0.073	-0.031
-315.997	-34.737	0.113	0.062
-314.983	339.615	0.084	0.163
-313.968	-104.268	-0.080	0.019
-312.953	98.537	0.208	0.238
-311.939	55.300	-0.157	-0.151
-310.924	-44.871	0.073	0.036
-309.910	-83.501	0.204	0.065
-308.895	279.982	0.067	0.120
-307.880	-1.254	-0.290	0.204
-306.866	114.800	0.030	-0.037
-305.851	-52.289	-0.095	0.044
-304.837	-200.000	-0.026	-0.309
-303.822	77.669	0.406	-0.430
-302.807	-71.004	0.150	-0.056
-301.793	-200.000	-0.026	0.147
-300.778	-200.000	-0.035	0.161
-299.764	142.991	0.237	0.314
-298.749	410.794	-0.121	0.255
-297.735	800.000	-0.073	-0.296
-296.720	83.466	0.264	-0.286
-295.705	-140.135	-0.229	-0.024
-294.691	-98.994	0.414	0.104
-293.676	-200.000	0.057	-0.252
-292.662	-74.028	-0.067	-0.024
-291.647	800.000	0.024	-0.083
-290.632	-53.579	0.142	-0.065
-289.618	108.201	-0.088	-0.104
-288.603	98.299	0.243	0.278
-287.589	15.793	0.110	-0.086
-286.574	-103.724	0.365	0.085
-285.559	61.095	0.055	0.054
-284.545	2.776	-0.145	-0.105
-283.530	-200.000	0.031	-0.164
-282.516	-40.996	0.143	0.073
-281.501	283.045	0.067	0.119
-280.486	-200.000	0.027	0.208
-279.472	12.163	-0.056	-0.043
-278.457	-16.810	-0.171	-0.108
-277.443	800.000	0.052	0.205
-276.428	31.536	0.210	-0.179
-275.413	276.552	-0.096	-0.169
-274.399	-120.161	0.159	0.027
-273.384	139.372	-0.134	0.176
-272.370	-74.034	0.233	-0.084
-271.355	-33.604	-0.127	-0.070
-270.340	-200.000	0.039	0.229
-269.326	-90.198	-0.161	0.047
-268.311	54.339	0.025	-0.024
-267.297	130.018	0.068	-0.087
-266.282	-98.613	0.104	0.026
-265.267	-9.508	-0.167	0.110
-264.253	800.000	0.106	-0.407
-263.238	-55.767	0.324	-0.144
-262.224	27.413	-0.111	-0.093
-261.209	-24.122	-0.155	-0.092
-260.195	283.083	-0.096	0.171
-259.180	135.370	0.196	0.252
-258.165	36.949	-0.315	0.277
-257.151	-149.724	0.204	-0.016
-256.136	-200.000	0.019	0.164
-255.122	-200.000	-0.017	-0.097
-254.107	50.720	-0.057	0.054
-253.092	-200.000	0.001	0.119
-252.078	78.525	0.142	-0.151
-251.063	39.285	-0.175	0.155
-250.049	-123.084	0.226	0.036
-249.034	600.179	0.076	0.188
-248.019	-200.000	0.012	-0.299
-247.005	94.149	-0.145	-0.163
-245.990	-172.840	0.027	-0.001
-244.976	175.367	-0.182	-0.262
-243.961	-116.025	0.118	-0.022
-242.946	61.198	0.155	-0.152
-241.932	-200.000	0.052	-0.304
-240.917	-31.037	0.257	0.144
-239.903	-200.000	-0.013	0.107
-238.888	-75.572	0.074	0.026
-237.873	310.780	-0.107	-0.198
-236.859	-86.253	-0.287	-0.087
-235.844	0.277	0.108	-0.076
-234.830	115.917	0.070	-0.085
-233.815	13.946	0.209	-0.161
-232.800	249.821	0.203	-0.342
-231.786	325.892	-0.082	0.156
-230.771	-88.612	0.150	-0.044
-229.757	-43.877	-0.061	0.030
-228.742	-200.000	-0.000	0.002
-227.727	-98.858	0.362	-0.091
-226.713	-131.444	-0.128	0.017
-225.698	61.854	-0.063	0.062
-224.684	-4.761	-0.146	-0.100
-223.669	800.000	-0.061	0.200
-222.655	800.000	0.072	0.229
-221.640	-128.104	-0.442	-0.063
-220.625	91.699	0.187	0.208
-219.611	176.944	-0.157	0.227
-218.596	169.773	-0.068	0.096
-217.582	17.450	-0.178	0.140
-216.567	27.997	0.332	0.278
-215.552	-200.000	-0.042	0.380
-214.538	-200.000	0.001	0.286
-213.523	39.716	0.116	-0.103
-212.509	107.800	0.145	-0.171
-211.494	57.062	-0.181	-0.175
-210.479	-159.683	-0.414	0.023
-209.465	506.113	0.070	-0.161
-208.450	800.000	-0.068	0.290
-207.436	-200.000	-0.007	0.164
-206.421	-3.856	0.173	0.119
-205.406	-58.423	0.182	0.078
-204.392	-200.000	0.009	-0.342
-203.377	306.355	-0.087	-0.159
-202.363	266.101	0.091	0.158
-201.348	-4.636	-0.057	0.039
-200.333	800.000	0.025	-0.096
-199.319	44.747	0.195	0.178
-198.304	478.449	0.064	0.143
-197.290	-42.680	0.416	-0.209
-196.275	800.000	-0.080	0.225
-195.260	-70.341	-0.233	0.087
-194.246	-169.557	0.209	0.008
-193.231	-4.513	0.385	0.263
-192.217	9.583	-0.078	0.058
-191.202	-100.223	-0.232	0.057
-190.187	-200.000	-0.022	-0.350
-189.173	-123.516	0.355	0.056
-188.158	-77.035	0.209	0.072
-187.144	-25.560	0.114	0.067
-186.129	664.894	0.140	0.357
-185.114	8.213	-0.117	-0.087
-184.100	-200.000	0.007	-0.096
-183.085	108.160	-0.239	0.282
-182.071	-89.031	0.148	0.043
-181.056	47.087	-0.133	0.122
-180.042	-93.901	-0.227	-0.062
-179.027	-200.000	-0.011	-0.467
-178.012	28.118	0.095	0.079
-176.998	36.113	0.182	0.159
-175.983	397.129	-0.163	-0.336
-174.969	-22.856	0.304	0.181
-173.954	43.684	0.338	0.306
-172.939	-200.000	-0.002	0.088
-171.925	11.881	-0.293	-0.223
-170.910	323.488	0.214	-0.403
-169.896	-22.912	0.250	-0.149
-168.881	-200.000	0.078	0.358
-167.866	285.629	-0.133	-0.236
-166.852	-0.571	-0.166	-0.117
-165.837	-200.000	-0.017	0.335
-164.823	-138.058	0.147	0.016
-163.808	84.804	-0.088	-0.095
-162.793	428.960	-0.170	-0.363
-161.779	800.000	0.056	0.222
-160.764	800.000	0.017	-0.049
-159.750	3.887	0.042	-0.030
-158.735	257.526	0.239	0.406
-157.720	12.218	0.281	0.214
-156.706	-200.000	0.009	0.091
-155.691	800.000	-0.077	0.226
-154.677	6.950	-0.143	-0.105
-153.662	-76.886	0.423	-0.146
-152.647	-60.251	-0.009	0.004
-151.633	-103.523	0.207	-0.048
-150.618	444.703	-0.043	0.093
-149.604	-200.000	-0.001	-0.215
-148.589	-19.010	0.097	-0.060
-147.574	-23.837	-0.035	-0.021
-146.560	298.749	-0.198	-0.360
-145.545	-124.600	-0.161	-0.025
-144.531	18.685	0.122	0.097
-143.516	135.621	0.034	-0.044
-142.502	-200.000	-0.028	-0.143
-141.487	-200.000	0.040	-0.279
-140.472	371.253	0.134	0.269
-139.458	-200.000	0.009	-0.155
-138.443	-200.000	0.014	0.151
-137.429	-200.000	0.007	0.038
-136.414	-200.000	-0.027	-0.140
-135.399	-65.111	-0.211	-0.084
-134.385	399.073	-0.061	-0.127
-133.370	-200.000	0.008	0.144
-132.356	421.352	-0.021	-0.045
-131.341	80.536	0.169	-0.179
-130.326	460.647	-0.062	-0.137
-129.312	173.117	-0.050	-0.070
-128.297	86.028	0.454	-0.493
-127.283	-133.731	0.335	-0.041
-126.268	-131.848	0.162	0.021
-125.253	229.133	-0.105	0.169
-124.239	800.000	-0.133	-0.402
-123.224	800.000	0.027	0.096
-122.210	800.000	-0.068	0.203
-121.195	-184.579	0.234	-0.004
-120.180	59.954	0.134	0.130
