DTS Sentinel unit serial number:	SN413079Multiplexer serial number:	ORYXHardware model number:	OX4-SRSoftware version number:	ORYX F/W v4.00 Oryx Data Collector v3.7.2.0data status	okinstallation	princeton_trtdifferential loss correction	single-endedforward channel	channel 4reverse channel	N/Adate	2019/09/14time	14:57:35forward acquisition time	60.00reverse acquisition time	0.00gamma	496.2192k internal	0.2291k external	0.2291temperature offset calibration	1.0138default loss term (dB/km)	0.3790temperature slope calibration	1.0000multiplexer offset coefficient	1.0000multiplexer slope coefficient	1.0000fibre end	0.00T internal ref (°C)	39.11T ext. ref 1 (°C)	5.03T ext. ref 2 (°C)	34.48length (m)	temperature (°C)	Stokes	anti-Stokes-747.200	-122.108	-0.151	0.025
-746.185	800.000	-0.148	0.420
-745.171	3.101	-0.128	0.095
-744.156	800.000	-0.111	0.376
-743.142	800.000	-0.144	0.462
-742.127	-200.000	0.018	0.336
-741.112	-140.061	-0.447	-0.048
-740.098	121.622	-0.112	-0.143
-739.083	-134.022	0.039	0.005
-738.069	-16.022	0.086	0.056
-737.054	-19.922	0.155	0.098
-736.039	24.204	-0.094	-0.080
-735.025	-200.000	0.004	0.363
-734.010	-28.224	0.399	0.236
-732.996	438.570	-0.076	-0.169
-731.981	-131.901	0.236	-0.032
-730.966	2.068	-0.139	-0.103
-729.952	-29.673	-0.239	0.140
-728.937	800.000	-0.071	-0.232
-727.923	-131.934	0.307	0.041
-726.908	-17.694	-0.264	-0.170
-725.894	-130.556	-0.256	0.035
-724.879	-200.000	0.001	-0.465
-723.864	-47.238	-0.208	0.104
-722.850	-200.000	-0.205	0.000
-721.835	37.659	0.195	-0.177
-720.821	-170.472	-0.136	0.005
-719.806	-196.877	-0.056	-0.000
-718.791	-93.902	-0.233	0.066
-717.777	-119.838	-0.308	-0.054
-716.762	-20.388	-0.202	-0.127
-715.748	701.185	-0.128	0.345
-714.733	151.049	-0.180	-0.250
-713.718	-96.386	-0.175	-0.047
-712.704	96.363	-0.172	-0.201
-711.689	45.584	0.165	0.156
-710.675	-11.065	-0.205	-0.138
-709.660	-200.000	0.044	0.215
-708.645	-68.042	0.415	-0.165
-707.631	-17.117	0.149	0.096
-706.616	-200.000	0.021	-0.231
-705.602	-64.937	0.217	-0.090
-704.587	-41.414	-0.092	0.049
-703.572	-200.000	-0.019	-0.219
-702.558	-200.000	-0.000	-0.043
-701.543	-61.570	0.253	0.108
-700.529	800.000	-0.088	0.280
-699.514	177.993	-0.066	-0.098
-698.499	57.379	-0.068	0.068
-697.485	-5.085	0.090	0.064
-696.470	-22.057	0.187	-0.116
-695.456	800.000	-0.064	-0.262
-694.441	159.820	-0.148	-0.211
-693.426	14.073	0.059	-0.047
-692.412	115.137	-0.251	0.313
-691.397	122.888	-0.184	0.235
-690.383	488.535	-0.061	0.142
-689.368	232.992	-0.183	-0.307
-688.354	366.777	-0.138	0.284
-687.339	507.149	0.066	-0.156
-686.324	61.456	0.247	-0.251
-685.310	800.000	0.026	-0.099
-684.295	-89.262	-0.219	-0.066
-683.281	-18.945	0.252	-0.160
-682.266	-152.052	-0.176	-0.013
-681.251	438.168	-0.084	-0.188
-680.237	-200.000	-0.009	-0.102
-679.222	-76.538	0.427	-0.153
-678.208	-100.513	0.119	-0.030
-677.193	800.000	-0.058	0.175
-676.178	-40.674	0.083	-0.044
-675.164	-65.520	-0.143	-0.059
-674.149	302.615	-0.123	0.233
-673.135	-200.000	-0.023	0.568
-672.120	-200.000	0.006	0.119
-671.105	-200.000	-0.124	-0.569
-670.091	171.570	0.187	-0.274
-669.076	-200.000	0.005	-0.147
-668.062	-22.413	-0.313	0.193
-667.047	-200.000	0.002	-0.149
-666.032	66.919	-0.016	0.016
-665.018	-77.906	0.229	-0.081
-664.003	164.135	-0.117	-0.168
-662.989	247.783	-0.087	-0.150
-661.974	-32.041	0.374	0.214
-660.959	-18.394	-0.081	-0.052
-659.945	-200.000	-0.002	-0.181
-658.930	-98.726	-0.203	0.053
-657.916	-161.988	0.193	-0.010
-656.901	-200.000	0.002	0.113
-655.886	-119.346	-0.075	-0.013
-654.872	84.718	0.104	0.116
-653.857	-61.315	0.067	-0.029
-652.843	-118.570	-0.270	-0.049
-651.828	-200.000	0.001	-0.030
-650.814	0.206	-0.124	0.090
-649.799	-71.899	-0.097	-0.037
-648.784	-148.432	-0.067	-0.006
-647.770	-157.462	-0.240	-0.015
-646.755	-200.000	-0.050	-0.467
-645.741	-200.000	0.016	0.176
-644.726	-147.849	-0.189	0.016
-643.711	-124.807	0.248	-0.039
-642.697	-200.000	-0.025	0.114
-641.682	-165.200	-0.270	-0.012
-640.668	-105.692	-0.044	-0.010
-639.653	32.169	-0.142	-0.125
-638.638	-57.959	-0.089	-0.040
-637.624	502.328	0.061	0.143
-636.609	-96.544	0.315	-0.085
-635.595	402.727	-0.097	-0.207
-634.580	72.494	0.071	0.076
-633.565	351.428	0.016	0.032
-632.551	185.939	-0.178	-0.270
-631.536	-80.146	-0.160	0.055
-630.522	11.901	-0.104	-0.082
-629.507	10.406	-0.157	-0.122
-628.492	-139.454	0.145	0.016
-627.478	800.000	0.049	-0.167
-626.463	-123.854	0.059	-0.009
-625.449	111.067	-0.046	0.057
-624.434	-200.000	-0.005	0.027
-623.419	-1.904	0.310	-0.222
-622.405	285.133	0.124	-0.228
-621.390	51.300	-0.267	-0.258
-620.376	196.856	-0.130	-0.202
-619.361	800.000	-0.079	0.240
-618.346	22.873	0.182	0.152
-617.332	74.290	-0.180	-0.193
-616.317	-169.424	0.161	-0.006
-615.303	794.127	0.078	0.220
-614.288	-9.026	-0.212	0.145
-613.273	800.000	-0.102	-0.417
-612.259	-200.000	0.019	-0.248
-611.244	-102.410	-0.085	0.021
-610.230	-200.000	0.026	0.277
-609.215	-59.933	-0.306	0.133
-608.201	185.322	-0.054	0.082
-607.186	-157.762	0.533	0.032
-606.171	20.436	-0.068	-0.056
-605.157	106.495	0.072	-0.087
-604.142	-121.939	-0.134	-0.022
-603.128	721.193	0.150	0.405
-602.113	222.023	0.072	-0.118
-601.098	-158.419	-0.210	0.012
-600.084	379.804	-0.064	-0.134
-599.069	-200.000	-0.003	0.182
-598.055	-200.000	-0.035	-0.248
-597.040	-19.983	0.055	0.035
-596.025	185.969	0.101	0.153
-595.011	48.732	-0.146	-0.139
-593.996	-200.000	0.025	-0.135
-592.982	-46.063	-0.305	-0.153
-591.967	536.408	-0.193	-0.467
-590.952	800.000	0.028	-0.118
-589.938	37.487	0.085	0.077
-588.923	-116.420	-0.231	0.043
-587.909	-7.696	-0.143	0.098
-586.894	-200.000	-0.023	-0.273
-585.879	-17.020	0.222	-0.143
-584.865	78.944	-0.145	-0.158
-583.850	70.922	-0.119	-0.126
-582.836	-94.228	-0.098	-0.027
-581.821	-188.245	-0.351	-0.005
-580.806	-56.565	-0.162	-0.073
-579.792	-129.029	0.452	-0.064
-578.777	18.713	-0.241	0.196
-577.763	800.000	0.067	0.212
-576.748	32.285	0.077	-0.067
-575.733	800.000	0.020	-0.066
-574.719	191.167	-0.107	0.164
-573.704	-54.767	-0.342	-0.157
-572.690	-76.024	-0.177	-0.064
-571.675	-200.000	0.000	-0.032
-570.661	-101.244	0.213	0.053
-569.646	-122.053	0.377	-0.063
-568.631	-41.767	-0.260	-0.136
-567.617	-74.244	-0.026	0.010
-566.602	-109.415	0.042	0.009
-565.588	-200.000	-0.003	-0.169
-564.573	274.468	0.089	-0.160
-563.558	-127.248	-0.305	-0.045
-562.544	-3.818	0.064	-0.045
-561.529	72.958	-0.242	0.257
-560.515	800.000	0.037	0.145
-559.500	-126.038	-0.125	0.019
-558.485	-200.000	0.043	0.260
-557.471	-126.845	-0.160	0.024
-556.456	-84.288	-0.047	-0.015
-555.442	107.367	0.124	-0.150
-554.427	273.191	0.114	-0.206
-553.412	-200.000	0.097	-0.476
-552.398	128.186	0.131	-0.170
-551.383	800.000	-0.040	0.149
-550.369	800.000	0.086	-0.356
-549.354	-76.903	-0.119	-0.042
-548.339	40.010	0.108	-0.098
-547.325	277.754	0.237	-0.429
-546.310	42.641	-0.145	-0.134
-545.296	55.179	0.088	-0.086
-544.281	-144.251	-0.247	0.023
-543.266	-148.596	-0.278	0.023
-542.252	-35.611	0.211	-0.117
-541.237	-170.921	0.177	0.006
-540.223	-43.477	0.346	0.177
-539.208	277.427	0.087	0.157
-538.193	153.015	0.133	0.185
-537.179	-153.715	0.182	-0.013
-536.164	-130.539	-0.344	0.047
-535.150	-175.528	0.164	-0.005
-534.135	-200.000	-0.011	0.121
-533.121	800.000	0.030	-0.112
-532.106	-141.668	-0.128	-0.013
-531.091	-90.327	-0.197	-0.058
-530.077	-71.120	0.049	-0.019
-529.062	-200.000	0.014	-0.074
-528.048	520.541	0.038	0.090
-527.033	-13.054	-0.188	-0.124
-526.018	-200.000	-0.039	0.263
-525.004	800.000	0.036	0.120
-523.989	-117.989	0.252	0.046
-522.975	65.968	-0.187	0.192
-521.960	-200.000	0.019	-0.122
-520.945	-200.000	0.028	0.181
-519.931	7.632	-0.290	-0.220
-518.916	-14.699	-0.138	0.090
-517.902	221.779	-0.056	-0.091
-516.887	623.774	-0.089	0.227
-515.872	800.000	0.068	-0.207
-514.858	-66.694	-0.369	0.148
-513.843	-62.230	0.299	0.127
-512.829	-176.901	0.355	0.009
-511.814	-109.095	-0.373	0.081
-510.799	15.996	-0.111	0.089
-509.785	-15.983	-0.035	0.023
-508.770	-200.000	-0.018	0.124
-507.756	-200.000	0.426	-0.002
-506.741	-200.000	-0.074	-0.396
-505.726	-200.000	-0.010	-0.196
-504.712	458.774	0.064	0.144
-503.697	-87.830	-0.174	-0.053
-502.683	-34.578	0.172	-0.095
-501.668	-135.420	0.101	0.012
-500.653	-128.205	-0.093	-0.013
-499.639	69.628	-0.063	0.066
-498.624	-200.000	0.000	0.097
-497.610	91.659	0.117	-0.133
-496.595	187.820	-0.219	0.332
-495.581	-103.235	-0.190	0.046
-494.566	453.583	0.037	-0.082
-493.551	-200.000	0.342	-0.001
-492.537	-72.132	-0.341	0.128
-491.522	800.000	0.097	0.424
-490.508	800.000	0.111	-0.338
-489.493	-0.341	0.352	0.254
-488.478	102.921	-0.213	0.253
-487.464	18.603	-0.122	-0.099
-486.449	-24.362	0.404	0.244
-485.435	-60.385	0.235	-0.101
-484.420	163.267	-0.079	-0.112
-483.405	-105.264	-0.208	0.048
-482.391	-200.000	0.011	0.145
-481.376	-200.000	-0.051	-0.256
-480.362	-98.267	0.222	0.058
-479.347	538.632	-0.091	0.219
-478.332	-50.418	-0.156	0.074
-477.318	-187.200	0.239	-0.003
-476.303	739.114	-0.109	-0.296
-475.289	571.753	-0.103	0.254
-474.274	-53.942	-0.386	0.178
-473.259	42.507	0.044	-0.041
-472.245	-117.165	0.327	0.060
-471.230	84.584	0.117	0.130
-470.216	-74.697	0.087	-0.032
-469.201	288.652	-0.257	-0.471
-468.186	198.407	-0.238	-0.369
-467.172	-9.120	0.178	-0.121
-466.157	211.939	0.050	0.080
-465.143	279.913	-0.169	-0.306
-464.128	-121.135	-0.055	0.009
-463.113	532.840	0.140	0.335
-462.099	-200.000	-0.058	-0.456
-461.084	-36.898	0.254	-0.138
-460.070	118.973	-0.096	0.120
-459.055	-3.102	-0.349	-0.247
-458.040	-200.000	-0.026	-0.406
-457.026	-135.510	0.145	0.017
-456.011	32.012	-0.077	-0.068
-454.997	379.454	0.157	-0.325
-453.982	-133.035	0.548	-0.070
-452.968	-23.182	-0.129	0.079
-451.953	227.693	-0.196	-0.322
-450.938	-104.957	-0.155	-0.036
-449.924	800.000	0.038	-0.122
-448.909	-11.392	-0.066	-0.044
-447.895	-200.000	-0.047	0.464
-446.880	241.230	0.149	0.252
-445.865	-127.712	0.479	0.070
-444.851	-200.000	0.015	-0.195
-443.836	-200.000	0.014	-0.102
-442.822	318.121	-0.122	-0.233
-441.807	-56.621	0.132	-0.059
-440.792	-200.000	-0.032	0.000
-439.778	-169.063	0.065	-0.002
-438.763	73.555	0.090	0.096
-437.749	-63.016	0.209	0.087
-436.734	-99.497	0.161	0.041
-435.719	179.018	0.170	-0.252
-434.705	-200.000	0.034	0.336
-433.690	-82.860	0.357	0.117
-432.676	47.823	0.129	-0.122
-431.661	59.690	-0.043	0.042
-430.646	392.931	-0.055	0.115
-429.632	18.733	0.138	0.112
-428.617	-2.715	0.246	0.174
-427.603	-200.000	-0.038	0.294
-426.588	-157.664	0.154	0.009
-425.573	161.572	-0.170	0.240
-424.559	29.925	-0.110	-0.095
-423.544	-43.573	0.251	0.128
-422.530	57.272	-0.129	-0.128
-421.515	-13.674	0.064	0.042
-420.500	633.051	-0.108	0.278
-419.486	-53.647	-0.121	-0.056
-418.471	-200.000	0.034	-0.222
-417.457	-139.520	0.429	0.046
-416.442	-144.223	-0.299	-0.028
-415.428	76.726	0.083	-0.089
-414.413	-96.554	-0.205	0.055
-413.398	-110.628	-0.051	-0.011
-412.384	453.510	0.022	0.050
-411.369	-52.713	0.165	0.077
-410.355	145.183	0.190	-0.258
-409.340	-171.816	-0.146	-0.005
-408.325	349.709	0.067	-0.134
-407.311	800.000	0.068	0.227
-406.296	800.000	-0.100	0.359
-405.282	694.541	-0.153	0.407
-404.267	-61.748	-0.097	0.041
-403.252	105.008	0.135	0.160
-402.238	-200.000	0.026	0.143
-401.223	-200.000	0.045	-0.296
-400.209	-200.000	0.008	-0.177
-399.194	423.004	0.123	-0.267
-398.179	17.364	-0.192	0.154
-397.165	-145.401	0.108	0.010
-396.150	323.305	0.027	-0.053
-395.136	-150.319	0.450	0.035
-394.121	263.025	-0.084	-0.147
-393.106	129.533	-0.119	0.154
-392.092	-118.397	-0.067	0.012
-391.077	-71.784	-0.413	-0.155
-390.063	-151.909	0.166	0.012
-389.048	116.660	-0.228	0.282
-388.033	48.851	0.057	-0.054
-387.019	-113.194	0.034	-0.007
-386.004	-173.563	0.126	0.004
-384.990	-60.089	-0.179	-0.077
-383.975	-105.987	0.020	-0.005
-382.960	-200.000	-0.042	-0.215
-381.946	9.266	0.202	0.154
-380.931	6.876	0.224	-0.169
-379.917	800.000	0.066	-0.187
-378.902	156.269	0.052	-0.072
-377.888	-121.686	0.060	-0.010
-376.873	26.718	-0.040	-0.034
-375.858	800.000	0.041	-0.170
-374.844	522.367	-0.064	-0.151
-373.829	373.615	0.047	0.097
-372.815	10.951	-0.133	0.103
-371.800	204.189	-0.253	-0.395
-370.785	-200.000	0.035	0.212
-369.771	-200.000	-0.026	-0.127
-368.756	800.000	-0.047	0.134
-367.742	-61.598	0.189	0.080
-366.727	800.000	-0.086	0.250
-365.712	153.436	0.134	-0.186
-364.698	-33.833	-0.297	-0.165
-363.683	-63.150	0.181	0.075
-362.669	-200.000	0.083	0.420
-361.654	-3.960	0.122	-0.086
-360.639	800.000	0.035	-0.124
-359.625	-20.894	0.043	0.027
-358.610	45.070	0.262	0.243
-357.596	576.063	-0.077	-0.191
-356.581	229.423	0.061	0.101
-355.566	33.143	0.154	0.135
-354.552	19.170	-0.415	-0.336
-353.537	-90.782	-0.191	0.056
-352.523	-200.000	-0.037	-0.217
-351.508	-200.000	-0.050	0.250
-350.493	-187.771	0.096	-0.001
-349.479	18.404	0.224	0.180
-348.464	-127.830	0.327	-0.048
-347.450	-177.624	0.156	0.004
-346.435	800.000	0.080	0.227
-345.420	196.392	0.053	-0.081
-344.406	-127.952	-0.139	0.020
-343.391	16.304	-0.242	0.193
-342.377	-112.229	-0.075	-0.015
-341.362	-81.239	-0.311	0.104
-340.348	800.000	-0.089	-0.363
-339.333	-73.511	0.158	-0.058
-338.318	-200.000	0.025	-0.156
-337.304	211.006	0.295	-0.468
-336.289	-111.855	0.155	0.031
-335.275	-168.944	-0.197	-0.007
-334.260	-200.000	-0.042	0.391
-333.245	-38.342	-0.258	-0.138
-332.231	-84.588	0.239	-0.076
-331.216	-35.957	0.059	0.032
-330.202	452.692	-0.011	-0.025
-329.187	5.114	0.086	-0.064
-328.172	800.000	0.177	0.552
-327.158	-89.791	-0.171	-0.050
-326.143	-200.000	0.027	-0.441
-325.129	184.950	-0.186	-0.277
-324.114	311.035	-0.197	0.373
-323.099	-200.000	0.025	0.113
-322.085	800.000	-0.110	0.406
-321.070	800.000	-0.014	-0.057
-320.056	-200.000	0.026	-0.330
-319.041	-72.639	-0.137	0.051
-318.026	-54.172	0.207	0.095
-317.012	-53.818	-0.272	-0.125
-315.997	539.089	0.049	-0.117
-314.983	-121.970	0.361	0.060
-313.968	148.507	-0.180	0.244
-312.953	514.550	0.053	-0.125
-311.939	162.851	0.067	0.095
-310.924	-89.657	0.494	-0.146
-309.910	47.601	-0.043	0.040
-308.895	63.142	0.126	0.127
-307.880	-200.000	-0.019	0.167
-306.866	-102.034	-0.304	0.074
-305.851	800.000	0.151	-0.443
-304.837	15.899	-0.264	0.209
-303.822	-142.950	-0.198	0.019
-302.807	88.248	-0.140	0.157
-301.793	800.000	0.027	0.084
-300.778	709.183	0.053	0.140
-299.764	178.346	0.126	-0.184
-298.749	800.000	0.121	-0.359
-297.735	664.327	-0.119	-0.309
-296.720	-200.000	-0.010	-0.061
-295.705	96.096	0.240	0.277
-294.691	52.848	0.301	0.289
-293.676	-55.993	0.085	-0.038
-292.662	17.933	-0.275	-0.221
-291.647	-18.891	0.113	-0.071
-290.632	-8.781	-0.364	0.245
-289.618	-128.648	-0.197	-0.028
-288.603	363.504	-0.146	0.296
-287.589	5.667	-0.356	0.265
-286.574	-185.446	0.070	-0.001
-285.559	-200.000	-0.039	-0.445
-284.545	800.000	-0.036	0.119
-283.530	-88.032	-0.152	0.046
-282.516	-31.476	0.254	0.143
-281.501	25.087	-0.245	-0.205
-280.486	-200.000	0.047	0.253
-279.472	-200.000	0.020	0.164
-278.457	-100.944	0.187	0.046
-277.443	40.707	-0.410	0.372
-276.428	46.283	0.148	-0.138
-275.413	27.432	0.031	-0.026
-274.399	-132.909	-0.070	0.009
-273.384	-27.525	0.653	0.382
-272.370	-177.719	0.090	0.002
-271.355	-63.533	-0.027	-0.011
-270.340	748.380	0.095	0.257
-269.326	-19.153	0.082	-0.051
-268.311	800.000	-0.120	-0.374
-267.297	669.360	0.086	-0.224
-266.282	62.249	-0.202	0.202
-265.267	132.094	0.105	-0.135
-264.253	-200.000	-0.010	0.193
-263.238	-85.688	-0.076	0.024
-262.224	-118.578	0.189	0.034
-261.209	-200.000	-0.018	0.508
-260.195	-11.347	0.083	0.055
-259.180	190.978	0.050	0.076
-258.165	-31.199	0.172	-0.098
-257.151	111.960	0.076	0.092
-256.136	-36.274	-0.099	0.054
-255.122	94.503	0.184	0.210
-254.107	5.760	-0.157	0.117
-253.092	-200.000	0.041	-0.182
-252.078	-54.262	0.091	-0.042
-251.063	96.272	-0.343	0.394
-250.049	-82.713	0.257	0.084
-249.034	800.000	0.025	0.095
-248.019	7.198	-0.173	0.130
-247.005	-74.028	0.054	-0.020
-245.990	-112.121	0.465	0.094
-244.976	41.002	-0.139	-0.126
-243.961	311.117	-0.099	-0.187
-242.946	78.618	-0.070	-0.075
-241.932	-91.173	0.008	-0.002
-240.917	-200.000	0.071	0.315
-239.903	-200.000	-0.009	0.191
-238.888	-102.888	-0.189	0.045
-237.873	-200.000	-0.020	-0.113
-236.859	-200.000	-0.015	0.143
-235.844	-91.626	-0.365	-0.104
-234.830	-78.809	0.180	-0.061
-233.815	-145.687	0.030	-0.003
-232.800	-1.605	0.081	-0.057
-231.786	33.510	0.062	-0.054
-230.771	-200.000	-0.021	-0.200
-229.757	-54.793	0.380	0.172
-228.742	800.000	0.071	-0.271
-227.727	60.551	0.265	0.263
-226.713	-46.128	-0.255	-0.126
-225.698	-200.000	-0.020	0.114
-224.684	41.691	-0.236	0.215
-223.669	-200.000	-0.046	0.237
-222.655	-22.626	0.407	-0.247
-221.640	-1.128	-0.363	-0.257
-220.625	-143.818	-0.440	0.042
-219.611	-54.846	0.287	0.130
-218.596	-1.099	-0.103	0.073
-217.582	334.163	0.014	-0.027
-216.567	-200.000	-0.004	0.130
-215.552	800.000	-0.045	-0.148
-214.538	120.394	0.084	-0.104
-213.523	-70.027	-0.313	0.119
-212.509	132.366	0.171	0.222
-211.494	-129.589	0.140	0.019
-210.479	41.949	0.182	0.165
-209.465	-117.647	0.315	0.057
-208.450	-137.540	-0.328	-0.037
-207.436	-200.000	0.070	-0.322
-206.421	-155.713	0.202	-0.013
-205.406	72.553	-0.159	0.166
-204.392	-81.185	0.248	-0.082
-203.377	30.732	0.062	-0.053
-202.363	-200.000	0.024	-0.248
-201.348	-146.505	-0.075	-0.007
-200.333	-65.610	0.156	0.063
-199.319	181.071	-0.233	0.344
-198.304	-152.398	-0.305	-0.022
-197.290	800.000	0.038	0.142
-196.275	-122.309	-0.349	0.057
-195.260	172.588	0.219	0.317
-194.246	-84.884	-0.204	0.064
-193.231	61.583	-0.182	-0.181
-192.217	-159.087	-0.284	-0.016
-191.202	-93.359	-0.196	0.054
-190.187	-16.192	0.037	0.024
-189.173	-178.098	0.148	0.004
-188.158	75.853	-0.126	-0.134
-187.144	-87.244	0.301	0.092
-186.129	-200.000	-0.010	0.149
-185.114	306.601	-0.169	0.315
-184.100	3.404	0.174	-0.127
-183.085	-200.000	-0.069	-0.318
-182.071	800.000	0.038	-0.158
-181.056	-155.017	0.111	-0.007
-180.042	14.214	0.188	0.147
-179.027	-107.145	0.282	-0.062
-178.012	-21.706	0.319	0.195
-176.998	-122.589	0.173	0.028
-175.983	540.936	0.089	0.212
-174.969	45.115	0.073	-0.068
-173.954	-124.664	0.156	0.024
-172.939	375.613	-0.034	0.069
-171.925	208.814	-0.093	0.145
-170.910	285.526	-0.084	0.152
-169.896	-123.465	0.059	0.009
-168.881	-200.000	0.016	-0.195
-167.866	55.601	-0.120	0.117
-166.852	130.964	0.092	0.119
-165.837	-109.725	-0.434	0.091
-164.823	201.912	-0.155	-0.239
-163.808	-81.984	0.132	-0.043
-162.793	-71.032	-0.176	-0.066
-161.779	-25.201	0.171	-0.101
-160.764	-31.374	-0.081	0.045
-159.750	800.000	-0.097	-0.344
-158.735	800.000	0.016	-0.054
-157.720	650.634	-0.066	-0.170
-156.706	-13.882	-0.179	0.116
-155.691	257.575	-0.065	0.112
-154.677	800.000	0.036	0.104
-153.662	-139.349	-0.041	-0.004
-152.647	-40.702	-0.183	0.095
-151.633	-119.201	0.209	-0.037
-150.618	-200.000	-0.041	-0.191
-149.604	282.974	-0.095	-0.170
-148.589	-31.528	0.076	-0.043
-147.574	800.000	0.076	-0.298
-146.560	-140.301	-0.192	0.020
-145.545	33.033	0.262	-0.227
-144.531	39.960	-0.228	-0.205
-143.516	56.399	-0.051	0.050
-142.502	163.277	0.107	-0.150
-141.487	800.000	0.086	0.259
-140.472	-130.372	-0.156	0.021
-139.458	32.633	-0.207	0.179
-138.443	-123.821	-0.218	0.035
-137.429	-200.000	-0.001	-0.175
-136.414	-200.000	-0.045	0.253
-135.399	-91.005	-0.266	0.077
-134.385	-94.286	0.132	-0.036
-133.370	-128.961	0.320	0.045
-132.356	669.983	-0.081	-0.209
-131.341	326.366	-0.150	-0.287
-130.326	-70.162	0.345	0.131
-129.312	401.155	-0.153	0.320
-128.297	307.836	0.104	-0.193
-127.283	-200.000	-0.096	0.423
-126.268	-126.252	-0.228	0.034
-125.253	-47.856	-0.168	0.081
-124.239	22.214	-0.020	-0.016
-123.224	-85.026	0.358	-0.112
-122.210	-21.689	-0.151	-0.092
