DTS Sentinel unit serial number:	SN413079Multiplexer serial number:	ORYXHardware model number:	OX4-SRSoftware version number:	ORYX F/W v4.00 Oryx Data Collector v3.7.2.0data status	okinstallation	princeton_trtdifferential loss correction	single-endedforward channel	channel 4reverse channel	N/Adate	2019/09/17time	18:41:35forward acquisition time	60.00reverse acquisition time	0.00gamma	496.2192k internal	0.2282k external	0.2282temperature offset calibration	0.9976default loss term (dB/km)	0.3790temperature slope calibration	1.0000multiplexer offset coefficient	1.0000multiplexer slope coefficient	1.0000fibre end	0.00T internal ref (°C)	42.50T ext. ref 1 (°C)	0.30T ext. ref 2 (°C)	34.34length (m)	temperature (°C)	Stokes	anti-Stokes-747.200	34.695	-0.055	-0.049
-746.185	-200.000	0.008	0.037
-745.171	411.930	-0.188	-0.410
-744.156	-68.276	-0.126	-0.050
-743.142	43.663	0.139	0.131
-742.127	493.251	-0.180	0.424
-741.112	486.437	-0.030	0.070
-740.098	-200.000	0.050	0.254
-739.083	-200.000	0.054	0.314
-738.069	12.286	-0.055	-0.043
-737.054	-200.000	0.003	-0.051
-736.039	-43.260	0.201	-0.104
-735.025	-168.707	-0.198	0.008
-734.010	800.000	-0.005	-0.021
-732.996	169.044	-0.194	-0.285
-731.981	275.416	0.089	0.163
-730.966	-2.457	0.118	0.085
-729.952	-58.276	-0.298	-0.133
-728.937	-200.000	-0.001	-0.171
-727.923	279.485	-0.068	-0.125
-726.908	13.264	-0.154	-0.122
-725.894	800.000	0.061	-0.178
-724.879	-108.023	0.111	0.025
-723.864	277.925	-0.070	-0.129
-722.850	-133.528	-0.267	-0.034
-721.835	22.861	-0.266	0.224
-720.821	-61.028	-0.158	-0.069
-719.806	-200.000	-0.003	-0.489
-718.791	-75.597	-0.145	-0.053
-717.777	-200.000	0.001	0.079
-716.762	94.661	0.133	0.155
-715.748	-151.284	-0.427	-0.033
-714.733	-96.727	0.044	-0.012
-713.718	240.147	0.063	0.108
-712.704	-41.376	0.260	0.138
-711.689	120.836	0.163	0.208
-710.675	-44.291	0.169	0.087
-709.660	-133.865	-0.194	0.025
-708.645	-194.558	-0.107	0.001
-707.631	178.045	-0.118	0.176
-706.616	-200.000	-0.047	-0.239
-705.602	800.000	-0.103	-0.313
-704.587	-16.789	0.208	-0.135
-703.572	-172.019	0.101	0.003
-702.558	200.251	-0.103	-0.163
-701.543	135.893	-0.186	-0.248
-700.529	-200.000	-0.005	-0.186
-699.514	259.870	-0.159	0.281
-698.499	-140.538	-0.174	0.019
-697.485	800.000	0.091	-0.285
-696.470	800.000	-0.014	-0.041
-695.456	-17.892	0.094	-0.061
-694.441	-15.778	-0.141	-0.092
-693.426	-24.496	-0.186	-0.114
-692.412	106.011	-0.048	0.058
-691.397	-111.523	-0.164	0.034
-690.383	-27.857	-0.310	0.184
-689.368	-200.000	-0.066	-0.299
-688.354	54.221	-0.088	0.087
-687.339	50.024	0.079	0.077
-686.324	-200.000	-0.038	-0.209
-685.310	-172.607	0.260	0.008
-684.295	-55.345	-0.356	0.164
-683.281	-50.494	0.328	0.159
-682.266	800.000	-0.023	-0.077
-681.251	-66.165	-0.230	0.094
-680.237	-200.000	0.021	0.144
-679.222	-30.175	0.110	-0.064
-678.208	57.365	-0.203	-0.203
-677.193	389.173	-0.072	-0.152
-676.178	-134.203	0.088	-0.011
-675.164	575.916	0.069	-0.174
-674.149	360.958	-0.140	0.287
-673.135	431.234	0.113	-0.251
-672.120	-120.391	0.375	-0.065
-671.105	44.447	0.183	0.172
-670.091	10.611	0.222	0.174
-669.076	-8.916	-0.032	0.022
-668.062	-46.528	0.217	0.109
-667.047	71.551	0.184	-0.196
-666.032	552.329	0.008	-0.021
-665.018	-200.000	-0.008	-0.224
-664.003	-49.746	-0.221	-0.107
-662.989	-48.079	-0.257	-0.127
-661.974	-92.402	-0.105	0.030
-660.959	-95.689	0.210	0.057
-659.945	-200.000	-0.004	0.189
-658.930	-118.812	0.209	0.038
-657.916	346.017	0.094	-0.189
-656.901	230.351	-0.256	-0.429
-655.886	358.330	-0.100	-0.205
-654.872	-83.412	0.300	-0.098
-653.857	-200.000	0.010	0.567
-652.843	124.152	0.138	0.177
-651.828	-99.522	-0.415	-0.107
-650.814	-200.000	-0.010	-0.194
-649.799	-28.509	0.093	0.055
-648.784	467.746	0.077	-0.177
-647.770	-179.363	0.170	0.004
-646.755	-111.283	0.142	-0.030
-645.741	-148.704	-0.091	0.008
-644.726	286.510	-0.099	0.184
-643.711	193.343	-0.109	-0.169
-642.697	-100.630	0.149	0.038
-641.682	-200.000	0.001	-0.103
-640.668	-200.000	0.044	-0.285
-639.653	8.274	0.247	-0.190
-638.638	-125.737	0.285	0.044
-637.624	143.342	-0.132	0.180
-636.609	-48.263	-0.042	0.021
-635.595	488.762	-0.067	0.156
-634.580	20.014	0.184	0.152
-633.565	-83.518	-0.110	0.036
-632.551	66.796	0.022	-0.023
-631.536	2.349	-0.062	-0.046
-630.522	-200.000	0.021	0.338
-629.507	181.106	-0.059	0.088
-628.492	157.039	0.156	0.221
-627.478	-200.000	0.018	-0.081
-626.463	38.651	0.107	-0.098
-625.449	800.000	0.041	-0.168
-624.434	39.286	0.092	0.084
-623.419	160.570	-0.102	0.145
-622.405	800.000	-0.118	0.344
-621.390	-200.000	-0.039	-0.324
-620.376	-34.897	0.164	-0.092
-619.361	-200.000	0.024	0.369
-618.346	49.102	-0.415	-0.399
-617.332	474.109	-0.110	-0.255
-616.317	123.737	0.117	-0.150
-615.303	159.926	-0.112	-0.160
-614.288	-63.246	-0.342	-0.144
-613.273	-200.000	-0.012	0.072
-612.259	227.229	-0.164	0.272
-611.244	-200.000	-0.015	0.179
-610.230	-99.318	0.084	0.022
-609.215	24.178	0.144	0.122
-608.201	65.076	0.120	0.124
-607.186	-85.965	-0.101	0.032
-606.171	93.715	0.190	-0.220
-605.157	800.000	-0.076	-0.254
-604.142	-148.701	-0.295	-0.024
-603.128	42.010	-0.184	-0.170
-602.113	-79.974	-0.210	0.072
-601.098	398.885	0.105	-0.226
-600.084	552.997	0.113	-0.278
-599.069	-56.542	-0.013	-0.006
-598.055	800.000	0.071	0.266
-597.040	-117.386	-0.388	-0.072
-596.025	250.011	-0.120	0.208
-595.011	169.124	-0.095	0.139
-593.996	-56.903	0.224	0.101
-592.982	-110.584	0.105	0.022
-591.967	81.152	-0.143	-0.158
-590.952	800.000	-0.047	-0.167
-589.938	-146.994	-0.164	0.014
-588.923	-64.433	-0.087	0.036
-587.909	-114.638	-0.224	-0.044
-586.894	-65.275	-0.292	-0.120
-585.879	-200.000	0.021	0.101
-584.865	-50.987	0.246	0.118
-583.850	87.803	-0.251	0.284
-582.836	-200.000	-0.075	0.362
-581.821	16.415	-0.155	-0.125
-580.806	-127.882	-0.357	-0.052
-579.792	-141.593	-0.110	-0.011
-578.777	-103.380	-0.513	0.123
-577.763	12.853	0.182	0.143
-576.748	-16.244	0.201	-0.131
-575.733	87.928	0.304	-0.344
-574.719	11.568	-0.193	0.151
-573.704	8.131	-0.126	-0.096
-572.690	82.740	0.234	-0.260
-571.675	104.652	0.073	-0.088
-570.661	110.208	0.168	0.206
-569.646	-20.062	0.143	0.090
-568.631	20.868	-0.307	-0.254
-567.617	-120.748	-0.101	0.017
-566.602	38.333	0.043	-0.039
-565.588	537.136	-0.090	-0.217
-564.573	170.370	0.041	-0.059
-563.558	-134.450	-0.330	-0.041
-562.544	108.568	0.157	-0.191
-561.529	-48.766	-0.049	-0.024
-560.515	93.904	0.152	0.176
-559.500	-73.557	-0.220	0.082
-558.485	72.236	-0.159	-0.169
-557.471	-200.000	0.007	-0.201
-556.456	-141.302	-0.062	-0.006
-555.442	-200.000	0.010	0.114
-554.427	16.597	-0.330	-0.266
-553.412	70.942	-0.133	-0.140
-552.398	-200.000	-0.004	0.036
-551.383	105.143	-0.165	-0.198
-550.369	-200.000	0.041	0.217
-549.354	41.851	-0.094	0.087
-548.339	-69.614	0.268	0.104
-547.325	231.453	-0.047	-0.079
-546.310	-200.000	-0.024	-0.283
-545.296	109.627	0.104	0.128
-544.281	-114.078	-0.444	-0.088
-543.266	-200.000	-0.023	0.176
-542.252	-91.855	-0.173	0.050
-541.237	431.322	0.184	-0.407
-540.223	251.637	-0.145	-0.252
-539.208	-139.783	0.051	-0.006
-538.193	-118.864	-0.211	-0.038
-537.179	-200.000	0.027	-0.133
-536.164	-7.535	0.301	0.208
-535.150	-200.000	-0.037	-0.188
-534.135	26.373	0.137	-0.117
-533.121	133.827	0.266	0.351
-532.106	800.000	-0.075	0.242
-531.091	43.508	-0.186	0.174
-530.077	683.830	0.066	0.176
-529.062	-4.406	-0.119	0.084
-528.048	-95.156	-0.077	-0.021
-527.033	263.026	0.084	0.148
-526.018	516.686	-0.018	0.043
-525.004	800.000	-0.036	-0.125
-523.989	-200.000	-0.023	-0.212
-522.975	-136.836	0.365	0.043
-521.960	-60.951	0.115	-0.050
-520.945	-82.602	0.442	-0.146
-519.931	-54.947	0.164	0.075
-518.916	-56.693	-0.223	0.101
-517.902	9.875	-0.281	0.217
-516.887	114.994	-0.080	0.099
-515.872	-116.308	0.126	-0.024
-514.858	-64.846	0.397	-0.163
-513.843	-51.296	-0.036	-0.017
-512.829	800.000	-0.053	-0.159
-511.814	-109.360	-0.324	-0.070
-510.799	-112.397	0.302	-0.062
-509.785	390.848	0.097	0.206
-508.770	692.748	0.049	-0.130
-507.756	75.004	-0.076	0.081
-506.741	-74.784	0.063	0.023
-505.726	-119.299	0.169	-0.030
-504.712	-36.123	-0.121	0.066
-503.697	-69.198	-0.051	-0.020
-502.683	-80.554	0.097	-0.033
-501.668	64.183	-0.093	-0.095
-500.653	320.699	-0.154	-0.299
-499.639	-153.672	0.241	0.017
-498.624	-12.353	0.304	-0.202
-497.610	800.000	0.028	0.115
-496.595	43.581	-0.143	0.133
-495.581	57.976	-0.064	-0.064
-494.566	25.821	-0.223	-0.189
-493.551	-68.015	-0.206	0.082
-492.537	302.623	0.178	0.335
-491.522	-80.006	-0.082	-0.028
-490.508	-102.577	-0.309	0.075
-489.493	800.000	-0.082	-0.295
-488.478	-44.411	-0.400	0.204
-487.464	-200.000	0.035	-0.220
-486.449	-30.591	-0.183	-0.106
-485.435	-117.878	0.185	0.034
-484.420	-81.622	-0.068	0.023
-483.405	-146.565	-0.340	0.030
-482.391	800.000	-0.027	-0.102
-481.376	-66.018	-0.150	0.061
-480.362	-200.000	-0.002	-0.009
-479.347	-169.877	0.316	0.012
-478.332	-115.466	-0.252	0.048
-477.318	-28.162	0.369	0.217
-476.303	-200.000	0.031	0.417
-475.289	178.648	-0.077	-0.114
-474.274	130.746	-0.053	-0.069
-473.259	800.000	-0.097	0.346
-472.245	433.658	0.007	0.016
-471.230	206.164	-0.169	-0.267
-470.216	571.382	-0.088	0.218
-469.201	-86.326	0.288	0.090
-468.186	-200.000	-0.007	0.190
-467.172	-200.000	-0.007	0.273
-466.157	-58.685	-0.383	-0.169
-465.143	24.026	-0.220	-0.185
-464.128	-74.189	-0.271	-0.100
-463.113	57.577	0.175	-0.174
-462.099	-200.000	0.062	-0.282
-461.084	-139.227	-0.154	0.017
-460.070	-57.378	-0.118	-0.053
-459.055	-30.072	-0.066	-0.038
-458.040	800.000	0.056	0.168
-457.026	106.313	-0.189	-0.227
-456.011	-13.938	-0.206	-0.135
-454.997	-200.000	0.027	-0.129
-453.982	18.031	-0.181	-0.147
-452.968	-200.000	0.010	0.251
-451.953	-78.730	-0.143	0.049
-450.938	65.415	0.181	-0.186
-449.924	-200.000	0.033	-0.178
-448.909	-102.871	-0.097	-0.023
-447.895	-46.241	0.235	0.118
-446.880	800.000	0.093	0.275
-445.865	179.632	0.107	0.159
-444.851	-47.837	0.286	-0.141
-443.836	-200.000	0.022	0.337
-442.822	-83.543	-0.216	-0.070
-441.807	-200.000	-0.031	-0.229
-440.792	-127.531	0.411	0.061
-439.778	800.000	0.096	-0.277
-438.763	-200.000	-0.023	-0.232
-437.749	800.000	-0.064	-0.191
-436.734	800.000	-0.030	0.114
-435.719	-51.264	-0.123	0.058
-434.705	800.000	-0.080	0.232
-433.690	-45.734	0.240	0.121
-432.676	-109.670	-0.124	0.027
-431.661	-82.974	-0.090	0.030
-430.646	-116.262	-0.065	-0.012
-429.632	-163.804	-0.315	-0.015
-428.617	-7.853	-0.085	-0.058
-427.603	31.668	0.286	-0.249
-426.588	-130.693	0.384	0.052
-425.573	59.948	0.146	0.146
-424.559	133.570	0.112	0.147
-423.544	41.875	0.084	0.078
-422.530	-128.518	-0.172	0.025
-421.515	800.000	0.036	0.107
-420.500	-77.131	-0.234	-0.083
-419.486	-193.727	0.314	-0.003
-418.471	-157.194	-0.133	-0.008
-417.457	-31.714	0.245	0.139
-416.442	685.002	0.030	0.079
-415.428	462.734	-0.111	0.251
-414.413	800.000	0.071	0.212
-413.398	532.977	-0.063	-0.152
-412.384	-50.288	-0.411	-0.197
-411.369	-88.141	0.191	0.058
-410.355	-200.000	-0.024	0.182
-409.340	-46.283	-0.397	-0.198
-408.325	-200.000	0.030	0.149
-407.311	800.000	-0.024	-0.076
-406.296	800.000	0.064	-0.231
-405.282	-52.173	0.215	-0.101
-404.267	102.088	0.128	0.152
-403.252	126.899	-0.176	-0.227
-402.238	-140.789	-0.261	-0.027
-401.223	27.214	0.155	-0.132
-400.209	24.601	0.318	0.267
-399.194	-200.000	-0.039	-0.254
-398.179	-78.644	0.383	-0.133
-397.165	726.189	-0.109	-0.295
-396.150	-85.543	0.269	0.085
-395.136	88.278	-0.281	0.316
-394.121	-200.000	0.020	0.147
-393.106	239.418	0.158	0.267
-392.092	-37.580	0.293	0.158
-391.077	-174.310	-0.342	0.010
-390.063	-44.880	0.353	0.178
-389.048	30.050	0.118	0.102
-388.033	6.751	-0.032	-0.024
-387.019	-200.000	-0.010	0.052
-386.004	353.384	0.123	0.248
-384.990	163.334	0.074	-0.106
-383.975	-89.481	0.380	0.113
-382.960	171.843	0.168	-0.245
-381.946	-78.139	0.242	0.084
-380.931	-200.000	0.096	0.572
-379.917	-200.000	-0.032	-0.222
-378.902	11.749	0.263	0.205
-377.888	-200.000	-0.022	-0.448
-376.873	-200.000	-0.072	-0.360
-375.858	139.539	0.080	-0.106
-374.844	-200.000	0.009	0.266
-373.829	800.000	-0.089	0.257
-372.815	-44.480	-0.016	0.008
-371.800	-200.000	0.009	-0.313
-370.785	-126.425	0.280	0.042
-369.771	-60.323	0.197	0.085
-368.756	-16.402	-0.141	0.091
-367.742	800.000	0.029	0.088
-366.727	800.000	0.021	-0.085
-365.712	-179.538	0.240	0.005
-364.698	-122.723	-0.141	-0.023
-363.683	-102.883	-0.227	0.055
-362.669	800.000	-0.059	-0.210
-361.654	-22.369	0.265	-0.163
-360.639	29.009	-0.146	0.126
-359.625	-75.697	0.391	0.141
-358.610	-200.000	0.000	-0.041
-357.596	14.713	0.148	-0.117
-356.581	800.000	-0.029	-0.127
-355.566	353.611	0.189	0.381
-354.552	-200.000	0.010	0.453
-353.537	145.879	-0.178	0.241
-352.523	-34.205	0.190	-0.106
-351.508	2.000	-0.238	-0.174
-350.493	33.799	-0.215	0.190
-349.479	526.280	-0.050	-0.120
-348.464	-200.000	0.003	0.163
-347.450	-200.000	0.037	0.274
-346.435	-43.274	-0.057	-0.029
-345.420	-200.000	0.003	-0.263
-344.406	800.000	0.124	0.389
-343.391	-98.743	-0.187	0.048
-342.377	800.000	0.015	-0.049
-341.362	125.449	0.091	-0.116
-340.348	-200.000	0.037	-0.399
-339.333	73.642	0.302	-0.320
-338.318	-85.856	0.071	0.022
-337.304	140.206	-0.048	-0.064
-336.289	358.859	-0.051	0.104
-335.275	-91.982	-0.084	0.024
-334.260	7.249	-0.053	-0.040
-333.245	-160.006	-0.108	-0.006
-332.231	110.289	-0.040	-0.049
-331.216	-13.004	-0.082	0.054
-330.202	800.000	-0.071	-0.243
-329.187	800.000	-0.106	-0.387
-328.172	-165.012	-0.098	0.004
-327.158	-78.692	0.201	0.069
-326.143	-56.717	0.108	-0.048
-325.129	-153.559	-0.320	0.022
-324.114	0.619	0.253	-0.183
-323.099	-103.212	-0.373	-0.089
-322.085	585.018	0.120	0.298
-321.070	-105.988	-0.264	-0.060
-320.056	418.392	-0.065	0.140
-319.041	-106.220	0.335	0.076
-318.026	-108.128	-0.187	-0.041
-317.012	-44.711	-0.090	-0.046
-315.997	74.353	-0.233	0.247
-314.983	800.000	0.091	-0.257
-313.968	-177.092	-0.072	-0.002
-312.953	221.629	0.085	0.137
-311.939	800.000	-0.057	-0.169
-310.924	-115.799	0.335	-0.063
-309.910	110.291	0.167	0.203
-308.895	14.201	0.240	-0.189
-307.880	36.418	0.122	0.108
-306.866	164.362	-0.229	-0.326
-305.851	253.335	0.129	0.223
-304.837	-121.799	-0.157	-0.026
-303.822	-36.669	-0.264	-0.143
-302.807	186.653	-0.229	-0.345
-301.793	-114.836	-0.517	0.100
-300.778	-33.943	0.279	-0.155
-299.764	-98.409	0.192	0.050
-298.749	405.435	-0.038	-0.080
-297.735	800.000	-0.019	-0.082
-296.720	-121.602	-0.232	0.039
-295.705	-94.088	0.278	-0.077
-294.691	-200.000	-0.039	-0.354
-293.676	-103.972	0.110	0.026
-292.662	800.000	0.032	0.116
-291.647	-4.135	-0.246	0.172
-290.632	-200.000	0.027	-0.419
-289.618	125.098	0.224	0.285
-288.603	-0.316	0.135	0.097
-287.589	800.000	0.026	-0.086
-286.574	-58.606	0.212	0.093
-285.559	-144.217	0.142	-0.013
-284.545	-81.930	0.307	-0.102
-283.530	-135.846	0.171	0.020
-282.516	20.778	-0.238	0.195
-281.501	125.483	0.257	0.327
-280.486	330.869	0.086	-0.168
-279.472	-171.089	0.099	0.003
-278.457	302.166	-0.018	-0.033
-277.443	-102.084	0.238	0.058
-276.428	-200.000	-0.006	0.168
-275.413	-156.412	-0.042	0.003
-274.399	-36.633	0.095	-0.052
-273.384	-200.000	-0.023	0.124
-272.370	-85.946	0.127	-0.040
-271.355	663.197	0.045	-0.116
-270.340	-171.435	-0.155	-0.005
-269.326	268.725	-0.149	-0.264
-268.311	-66.571	0.156	0.062
-267.297	-132.657	0.279	-0.036
-266.282	50.578	0.303	0.289
-265.267	-200.000	0.057	-0.392
-264.253	-53.657	-0.052	-0.024
-263.238	159.643	-0.151	-0.213
-262.224	-185.329	0.220	-0.003
-261.209	-103.613	0.296	0.070
-260.195	-94.721	-0.183	0.050
-259.180	235.319	-0.106	0.176
-258.165	-102.292	0.155	0.038
-257.151	-200.000	-0.024	-0.230
-256.136	-200.000	0.035	0.158
-255.122	43.828	-0.196	-0.181
-254.107	-172.935	-0.194	0.006
-253.092	89.437	0.122	-0.137
-252.078	10.177	-0.150	0.115
-251.063	-59.863	0.253	-0.109
-250.049	688.859	0.095	0.250
-249.034	277.946	-0.046	-0.082
-248.019	-82.294	-0.160	0.053
-247.005	223.147	0.234	-0.380
-245.990	800.000	0.068	-0.251
-244.976	-44.495	-0.299	-0.151
-243.961	-200.000	0.004	-0.250
-242.946	83.884	-0.186	0.204
-241.932	13.750	-0.190	0.149
-240.917	-59.265	-0.148	0.064
-239.903	-105.986	-0.325	-0.074
-238.888	800.000	-0.022	-0.090
-237.873	-200.000	-0.049	-0.373
-236.859	649.281	-0.042	-0.109
-235.844	-200.000	0.008	0.290
-234.830	-67.444	0.060	-0.024
-233.815	-100.347	0.071	-0.018
-232.800	394.602	-0.125	0.263
-231.786	-18.467	-0.156	-0.098
-230.771	254.044	-0.114	-0.197
-229.757	-104.663	-0.329	0.076
-228.742	-116.111	0.323	0.060
-227.727	-131.524	0.106	0.014
-226.713	134.689	0.152	0.198
-225.698	63.865	0.185	-0.187
-224.684	-200.000	-0.004	-0.044
-223.669	181.989	-0.137	-0.203
-222.655	-35.508	0.298	-0.163
-221.640	91.037	0.043	-0.048
-220.625	800.000	-0.066	-0.228
-219.611	-41.372	0.100	0.052
-218.596	180.764	0.163	-0.241
-217.582	-50.298	0.135	0.064
-216.567	800.000	-0.034	0.129
-215.552	177.127	0.108	0.158
-214.538	57.997	0.134	-0.132
-213.523	43.585	-0.235	-0.217
-212.509	481.981	-0.072	-0.165
-211.494	-200.000	-0.034	0.322
-210.479	800.000	0.082	-0.279
-209.465	800.000	-0.053	0.163
-208.450	-31.408	-0.346	0.196
-207.436	-23.488	0.040	-0.024
-206.421	-56.225	-0.032	-0.014
-205.406	-200.000	0.009	-0.074
-204.392	-99.232	0.234	0.060
-203.377	23.135	-0.290	0.239
-202.363	-147.445	0.225	-0.019
-201.348	-200.000	-0.007	0.158
-200.333	-84.238	0.213	-0.068
-199.319	10.699	-0.186	-0.143
-198.304	-200.000	0.025	-0.191
-197.290	-200.000	0.004	-0.045
-196.275	68.201	0.092	0.095
-195.260	-200.000	-0.005	-0.103
-194.246	142.934	-0.145	0.193
-193.231	-200.000	-0.034	0.338
-192.217	139.338	-0.087	-0.115
-191.202	230.649	-0.078	-0.128
-190.187	247.099	0.123	0.209
-189.173	92.463	0.209	0.237
-188.158	100.827	0.077	0.090
-187.144	-141.817	0.402	-0.040
-186.129	18.009	-0.134	-0.107
-185.114	-200.000	-0.018	0.154
-184.100	-109.915	-0.096	-0.020
-183.085	800.000	0.112	0.426
-182.071	-100.409	-0.229	0.057
-181.056	27.604	0.138	0.117
-180.042	800.000	-0.098	0.275
-179.027	371.059	0.150	0.305
-178.012	-200.000	-0.001	0.128
-176.998	-200.000	0.007	-0.106
-175.983	-11.468	-0.139	0.092
-174.969	-157.386	0.130	-0.008
-173.954	486.958	-0.171	-0.393
-172.939	-163.371	0.139	-0.007
-171.925	800.000	-0.059	-0.249
-170.910	-200.000	-0.040	0.193
-169.896	-41.615	0.271	0.140
-168.881	455.824	0.077	0.171
-167.866	386.256	-0.017	0.035
-166.852	77.938	-0.146	0.156
-165.837	800.000	0.119	0.384
-164.823	-114.079	0.087	-0.017
-163.808	-79.589	-0.188	0.064
-162.793	22.723	0.132	0.109
-161.779	31.300	0.251	-0.217
-160.764	-29.522	-0.191	0.109
-159.750	65.875	0.189	0.192
-158.735	-200.000	0.014	0.344
-157.720	114.042	-0.147	0.179
-156.706	-200.000	0.031	-0.420
-155.691	-200.000	0.003	-0.020
-154.677	113.123	-0.051	0.062
-153.662	800.000	-0.125	0.468
-152.647	15.098	-0.183	-0.144
-151.633	-200.000	0.011	-0.076
-150.618	-25.715	0.109	0.065
-149.604	-138.907	0.300	0.033
-148.589	83.499	-0.121	0.133
-147.574	-53.197	-0.286	0.132
-146.560	-130.333	0.294	-0.040
-145.545	-15.946	-0.289	0.185
-144.531	-173.689	0.164	-0.005
-143.516	-200.000	0.057	0.303
-142.502	-116.377	-0.448	0.083
-141.487	-200.000	-0.033	-0.173
-140.472	231.419	0.186	0.306
-139.458	800.000	0.023	0.088
-138.443	-200.000	-0.040	0.436
-137.429	-183.411	0.248	-0.004
-136.414	44.910	0.155	-0.143
-135.399	-135.119	-0.250	0.030
-134.385	-115.025	0.275	0.052
-133.370	397.863	-0.040	0.083
-132.356	117.840	-0.313	0.387
-131.341	-79.771	-0.164	0.055
-130.326	-200.000	0.018	0.097
-129.312	-200.000	-0.012	0.209
-128.297	210.327	0.085	0.133
-127.283	296.871	0.189	-0.348
-126.268	91.863	-0.137	0.155
-125.253	-43.615	0.177	0.090
-124.239	-72.831	0.298	-0.110
-123.224	-200.000	-0.019	0.178
-122.210	-132.717	-0.283	0.036
