DTS Sentinel unit serial number:	SN413079Multiplexer serial number:	ORYXHardware model number:	OX4-SRSoftware version number:	ORYX F/W v4.00 Oryx Data Collector v3.7.2.0data status	okinstallation	princeton_trtdifferential loss correction	single-endedforward channel	channel 4reverse channel	N/Adate	2019/09/15time	08:57:34forward acquisition time	60.00reverse acquisition time	0.00gamma	496.2192k internal	0.2302k external	0.2302temperature offset calibration	1.0020default loss term (dB/km)	0.3790temperature slope calibration	1.0000multiplexer offset coefficient	1.0000multiplexer slope coefficient	1.0000fibre end	0.00T internal ref (°C)	32.66T ext. ref 1 (°C)	4.97T ext. ref 2 (°C)	29.69length (m)	temperature (°C)	Stokes	anti-Stokes-747.200	393.150	-0.030	-0.063
-746.185	-43.237	-0.064	-0.033
-745.171	132.364	0.266	0.349
-744.156	-200.000	-0.028	0.481
-743.142	-11.713	0.065	-0.043
-742.127	63.042	-0.033	-0.034
-741.112	-27.484	-0.300	0.178
-740.098	290.425	0.194	0.360
-739.083	-200.000	-0.057	-0.282
-738.069	-85.710	0.029	0.009
-737.054	208.702	0.112	-0.178
-736.039	101.943	-0.162	0.193
-735.025	-136.444	0.106	0.013
-734.010	-200.000	0.036	-0.199
-732.996	-33.187	-0.106	-0.060
-731.981	713.564	-0.097	0.262
-730.966	-119.565	-0.186	-0.033
-729.952	78.489	-0.038	-0.041
-728.937	-78.621	-0.231	-0.081
-727.923	74.823	0.220	0.236
-726.908	-75.463	0.377	0.137
-725.894	-35.473	-0.358	-0.198
-724.879	-33.248	-0.096	-0.054
-723.864	329.773	-0.113	-0.222
-722.850	-200.000	0.029	-0.172
-721.835	-49.375	-0.335	0.163
-720.821	47.178	0.225	-0.213
-719.806	-90.421	-0.151	0.044
-718.791	-60.325	-0.184	0.080
-717.777	800.000	-0.075	-0.274
-716.762	-200.000	-0.011	-0.378
-715.748	-200.000	-0.014	-0.277
-714.733	-117.941	-0.143	0.026
-713.718	441.174	0.060	0.134
-712.704	-200.000	-0.076	-0.554
-711.689	33.728	0.021	-0.019
-710.675	283.444	-0.119	-0.218
-709.660	-200.000	0.009	-0.069
-708.645	664.173	-0.102	0.268
-707.631	-67.100	-0.164	0.066
-706.616	800.000	0.120	-0.369
-705.602	-60.995	-0.143	-0.062
-704.587	521.673	-0.094	-0.225
-703.572	429.656	0.055	0.122
-702.558	299.530	-0.155	-0.290
-701.543	31.320	0.138	0.121
-700.529	580.918	0.064	-0.160
-699.514	-82.970	0.226	0.074
-698.499	548.176	0.022	0.054
-697.485	577.937	-0.021	0.053
-696.470	-200.000	-0.016	0.127
-695.456	-131.137	-0.125	0.017
-694.441	-200.000	0.018	0.234
-693.426	76.142	0.243	-0.262
-692.412	-108.410	-0.154	0.034
-691.397	559.308	-0.014	0.034
-690.383	-109.285	-0.169	0.037
-689.368	800.000	0.027	0.118
-688.354	-39.534	0.167	-0.089
-687.339	195.217	0.062	-0.095
-686.324	-200.000	0.006	-0.405
-685.310	299.359	0.122	0.229
-684.295	-97.806	0.280	-0.074
-683.281	19.448	-0.135	0.111
-682.266	101.279	0.150	0.177
-681.251	-83.438	-0.216	0.070
-680.237	-82.513	0.080	0.026
-679.222	-200.000	0.009	-0.224
-678.208	-200.000	-0.027	-0.241
-677.193	-4.917	-0.068	-0.048
-676.178	153.946	-0.023	0.032
-675.164	800.000	-0.029	-0.081
-674.149	-11.952	-0.086	-0.057
-673.135	-200.000	-0.043	0.292
-672.120	-88.068	0.441	0.134
-671.105	-108.671	-0.124	0.027
-670.091	-200.000	-0.081	0.414
-669.076	-68.256	-0.119	0.047
-668.062	231.965	0.049	0.082
-667.047	-200.000	-0.012	-0.229
-666.032	95.699	0.059	0.069
-665.018	16.875	0.195	0.157
-664.003	-200.000	-0.009	-0.065
-662.989	28.314	-0.242	-0.208
-661.974	-78.109	0.152	-0.053
-660.959	353.413	0.113	-0.228
-659.945	39.169	-0.081	-0.073
-658.930	-74.842	0.083	-0.030
-657.916	23.203	-0.090	0.075
-656.901	-20.380	-0.214	0.134
-655.886	-55.948	-0.209	0.095
-654.872	800.000	0.058	-0.200
-653.857	800.000	0.037	0.127
-652.843	9.370	0.227	-0.175
-651.828	-9.808	0.328	-0.222
-650.814	-23.364	-0.021	0.013
-649.799	-29.764	-0.397	-0.230
-648.784	41.249	0.102	-0.093
-647.770	-56.350	-0.382	-0.172
-646.755	63.438	0.259	0.264
-645.741	-119.290	-0.346	-0.061
-644.726	-1.504	0.309	-0.221
-643.711	61.160	0.137	0.138
-642.697	346.201	0.065	-0.131
-641.682	202.751	0.236	-0.369
-640.668	-54.193	-0.292	0.135
-639.653	-145.922	0.172	0.015
-638.638	-145.286	0.231	-0.021
-637.624	-76.180	-0.213	0.076
-636.609	543.068	0.086	-0.209
-635.595	-35.015	-0.140	-0.077
-634.580	800.000	0.073	-0.261
-633.565	36.503	0.203	-0.182
-632.551	-90.846	-0.307	-0.090
-631.536	380.558	-0.102	-0.213
-630.522	-1.154	-0.075	-0.054
-629.507	72.048	0.092	-0.097
-628.492	-51.963	0.204	-0.096
-627.478	-200.000	0.039	0.270
-626.463	236.120	-0.153	0.257
-625.449	800.000	0.062	-0.202
-624.434	78.402	0.116	0.126
-623.419	-200.000	-0.022	0.134
-622.405	-31.566	-0.215	0.123
-621.390	-5.550	0.320	0.223
-620.376	-18.581	0.116	-0.073
-619.361	-108.057	0.327	-0.072
-618.346	-200.000	0.078	-0.660
-617.332	-12.268	0.256	-0.170
-616.317	-1.676	-0.197	-0.141
-615.303	247.343	-0.077	-0.132
-614.288	3.268	0.210	0.155
-613.273	-195.712	-0.215	-0.002
-612.259	-98.352	0.118	-0.031
-611.244	190.931	-0.084	-0.128
-610.230	-124.537	-0.037	0.006
-609.215	-93.234	-0.133	-0.038
-608.201	-142.275	0.180	0.018
-607.186	-50.348	-0.134	-0.064
-606.171	-200.000	-0.054	-0.254
-605.157	-132.767	0.066	-0.009
-604.142	-40.957	0.195	0.102
-603.128	-5.987	-0.008	-0.006
-602.113	-200.000	-0.039	-0.223
-601.098	148.323	-0.046	-0.064
-600.084	-200.000	0.000	0.161
-599.069	258.669	-0.183	0.319
-598.055	-120.381	-0.316	-0.055
-597.040	800.000	0.008	-0.026
-596.025	-19.059	-0.463	0.292
-595.011	796.886	-0.096	0.268
-593.996	-74.389	0.180	-0.066
-592.982	-200.000	-0.002	-0.102
-591.967	-200.000	0.012	-0.278
-590.952	-67.634	-0.187	-0.074
-589.938	-123.262	-0.129	-0.021
-588.923	127.983	0.143	-0.184
-587.909	-165.176	0.049	0.002
-586.894	-3.881	0.177	0.124
-585.879	-132.342	0.181	0.024
-584.865	-168.636	-0.260	0.010
-583.850	-127.314	0.492	0.073
-582.836	-9.715	0.236	-0.159
-581.821	-148.090	-0.180	-0.015
-580.806	-114.332	0.130	-0.025
-579.792	341.632	0.121	-0.239
-578.777	800.000	-0.071	0.213
-577.763	-43.557	0.249	-0.127
-576.748	-200.000	0.030	0.146
-575.733	11.119	-0.291	-0.225
-574.719	745.969	0.071	-0.194
-573.704	-107.539	-0.259	-0.057
-572.690	-200.000	-0.041	0.241
-571.675	29.003	0.123	-0.105
-570.661	-22.906	0.225	0.137
-569.646	-200.000	-0.013	0.062
-568.631	-138.695	-0.226	-0.025
-567.617	-131.500	0.231	-0.031
-566.602	-63.736	-0.162	-0.067
-565.588	288.573	-0.091	-0.166
-564.573	200.295	-0.236	-0.367
-563.558	-84.070	0.216	0.069
-562.544	-200.000	-0.014	0.066
-561.529	-200.000	-0.030	0.300
-560.515	-4.420	0.193	0.135
-559.500	269.756	-0.048	-0.085
-558.485	161.468	-0.207	-0.294
-557.471	-52.442	0.185	0.087
-556.456	-45.307	0.272	0.137
-555.442	800.000	-0.096	-0.281
-554.427	538.237	-0.178	-0.429
-553.412	-106.095	0.462	-0.105
-552.398	341.317	-0.121	0.240
-551.383	-200.000	0.015	-0.137
-550.369	594.231	0.090	-0.226
-549.354	93.145	-0.141	-0.161
-548.339	-8.080	-0.058	0.040
-547.325	308.706	-0.048	-0.091
-546.310	-55.399	0.098	0.044
-545.296	-51.278	0.172	0.081
-544.281	-200.000	0.018	0.231
-543.266	77.649	0.532	-0.573
-542.252	-131.718	0.245	0.033
-541.237	103.086	0.273	0.323
-540.223	-20.313	-0.081	0.050
-539.208	95.233	0.133	-0.154
-538.193	-200.000	0.016	0.115
-537.179	41.009	-0.074	0.068
-536.164	79.208	0.179	0.194
-535.150	-108.150	-0.427	0.094
-534.135	148.826	-0.013	-0.018
-533.121	-3.820	-0.231	0.162
-532.106	-50.656	0.124	0.059
-531.091	-200.000	0.018	-0.362
-530.077	138.761	0.105	-0.140
-529.062	-94.725	-0.154	-0.042
-528.048	296.786	-0.207	0.384
-527.033	-13.936	-0.268	0.175
-526.018	-72.308	0.208	0.078
-525.004	63.790	0.334	0.339
-523.989	32.081	0.290	-0.253
-522.975	358.602	-0.053	0.107
-521.960	800.000	-0.053	0.153
-520.945	235.581	0.030	-0.051
-519.931	113.348	0.225	-0.276
-518.916	-74.372	-0.274	0.100
-517.902	404.771	0.147	0.313
-516.887	75.855	-0.193	-0.206
-515.872	326.095	0.042	-0.082
-514.858	-200.000	-0.022	0.418
-513.843	221.799	0.101	0.165
-512.829	226.783	0.057	0.094
-511.814	276.947	0.085	0.152
-510.799	-18.273	-0.290	0.183
-509.785	-102.207	-0.374	0.091
-508.770	-95.525	-0.174	0.047
-507.756	398.625	0.073	-0.154
-506.741	-5.721	0.299	0.207
-505.726	-124.003	0.351	0.056
-504.712	79.245	-0.088	-0.095
-503.697	-5.576	0.020	-0.014
-502.683	-1.610	0.050	-0.036
-501.668	-18.758	-0.267	-0.168
-500.653	159.978	-0.131	-0.185
-499.639	-27.848	0.227	-0.133
-498.624	53.498	-0.060	0.058
-497.610	-41.630	0.157	-0.081
-496.595	-33.784	0.259	0.144
-495.581	-200.000	0.017	0.101
-494.566	-46.068	-0.144	-0.072
-493.551	42.707	-0.338	-0.311
-492.537	-0.697	-0.073	-0.052
-491.522	106.418	-0.077	-0.092
-490.508	368.165	0.125	-0.254
-489.493	-19.207	-0.104	-0.065
-488.478	800.000	-0.120	-0.358
-487.464	-65.281	-0.088	-0.036
-486.449	-200.000	-0.026	0.232
-485.435	87.899	0.112	0.125
-484.420	22.889	0.402	0.332
-483.405	-44.713	-0.082	-0.041
-482.391	516.223	-0.101	-0.239
-481.376	-200.000	0.040	-0.200
-480.362	-47.849	-0.021	-0.010
-479.347	-90.920	-0.131	0.038
-478.332	-42.291	0.040	0.021
-477.318	46.816	0.111	-0.104
-476.303	30.258	0.038	0.033
-475.289	-200.000	-0.025	-0.144
-474.274	800.000	-0.052	0.219
-473.259	339.350	-0.115	-0.227
-472.245	195.837	0.154	-0.236
-471.230	-88.342	0.091	0.027
-470.216	324.138	0.036	0.069
-469.201	-200.000	0.013	-0.126
-468.186	-200.000	-0.069	-0.368
-467.172	220.373	-0.187	0.302
-466.157	-71.781	0.098	-0.037
-465.143	-12.674	0.119	0.078
-464.128	800.000	0.046	0.151
-463.113	382.776	0.201	0.417
-462.099	-56.552	0.049	-0.022
-461.084	-105.694	-0.201	0.046
-460.070	-29.771	0.243	0.139
-459.055	265.353	0.147	0.259
-458.040	-99.582	-0.434	-0.110
-457.026	361.011	-0.124	-0.250
-456.011	800.000	-0.063	-0.229
-454.997	130.968	-0.061	-0.079
-453.982	457.608	-0.038	0.084
-452.968	-144.865	-0.217	0.020
-451.953	-179.994	0.130	0.003
-450.938	-65.773	0.267	-0.108
-449.924	-161.441	0.131	0.007
-448.909	0.781	-0.193	-0.140
-447.895	14.902	0.083	0.065
-446.880	-141.643	0.265	-0.027
-445.865	209.583	-0.083	0.131
-444.851	230.098	-0.111	0.183
-443.836	-118.536	0.179	-0.032
-442.822	555.687	-0.086	-0.210
-441.807	214.442	0.087	-0.138
-440.792	241.271	-0.115	-0.193
-439.778	-162.867	-0.308	0.015
-438.763	800.000	0.084	-0.259
-437.749	-104.719	-0.250	0.058
-436.734	-87.251	0.311	0.095
-435.719	243.823	0.050	0.085
-434.705	-200.000	-0.029	-0.166
-433.690	40.053	0.281	0.254
-432.676	143.281	0.283	0.379
-431.661	-200.000	-0.024	0.178
-430.646	-82.728	-0.230	-0.075
-429.632	-200.000	0.033	0.150
-428.617	43.128	-0.177	0.162
-427.603	150.226	0.195	-0.267
-426.588	-68.269	0.168	0.066
-425.573	800.000	-0.065	-0.196
-424.559	800.000	0.126	0.430
-423.544	49.498	0.099	-0.094
-422.530	-17.716	0.111	-0.070
-421.515	-25.655	0.160	-0.095
-420.500	-34.338	0.280	0.155
-419.486	-107.620	-0.314	0.069
-418.471	800.000	-0.039	-0.159
-417.457	222.754	-0.181	-0.294
-416.442	-61.211	0.155	0.066
-415.428	337.633	-0.063	0.123
-414.413	-98.533	0.249	0.064
-413.398	-165.019	-0.195	0.009
-412.384	58.517	0.134	0.132
-411.369	-200.000	0.015	-0.183
-410.355	800.000	-0.073	-0.234
-409.340	-200.000	0.006	-0.115
-408.325	-61.548	-0.183	0.077
-407.311	-42.243	0.092	0.047
-406.296	-200.000	0.023	0.140
-405.282	469.398	-0.162	-0.366
-404.267	-52.920	-0.182	-0.084
-403.252	32.879	-0.162	0.141
-402.238	-200.000	0.017	0.163
-401.223	-57.832	0.157	-0.069
-400.209	-6.952	0.293	0.200
-399.194	264.106	-0.106	-0.185
-398.179	295.477	0.060	-0.111
-397.165	-40.389	0.129	0.067
-396.150	43.599	-0.040	0.037
-395.136	25.825	-0.210	-0.176
-394.121	-90.224	0.185	-0.054
-393.106	800.000	-0.066	0.277
-392.092	800.000	-0.071	-0.271
-391.077	9.667	0.207	-0.158
-390.063	3.855	-0.275	-0.202
-389.048	383.059	-0.118	0.243
-388.033	-93.703	-0.053	-0.015
-387.019	10.296	-0.397	0.304
-386.004	719.105	0.161	0.429
-384.990	-149.169	0.129	-0.010
-383.975	800.000	0.053	0.171
-382.960	447.353	-0.160	0.355
-381.946	38.627	0.062	0.056
-380.931	-61.153	-0.434	-0.184
-379.917	-178.308	-0.275	-0.006
-378.902	-71.324	0.196	-0.074
-377.888	800.000	0.037	-0.162
-376.873	-67.774	-0.161	-0.063
-375.858	-200.000	0.009	-0.111
-374.844	-200.000	-0.008	-0.162
-373.829	-116.634	-0.129	0.024
-372.815	-157.754	0.283	-0.017
-371.800	0.642	0.114	0.082
-370.785	-88.523	0.191	0.057
-369.771	-119.910	0.061	-0.011
-368.756	-74.802	0.220	-0.079
-367.742	-200.000	-0.028	0.271
-366.727	800.000	-0.078	0.260
-365.712	144.271	0.127	-0.170
-364.698	261.439	0.094	0.164
-363.683	-132.093	-0.278	-0.036
-362.669	-200.000	-0.044	0.198
-361.654	219.630	-0.180	0.289
-360.639	461.682	-0.106	-0.237
-359.625	142.522	-0.175	-0.233
-358.610	322.104	-0.041	0.078
-357.596	28.609	-0.150	0.127
-356.581	-90.844	-0.237	-0.069
-355.566	800.000	-0.022	0.095
-354.552	451.551	-0.079	0.176
-353.537	-25.255	0.129	0.077
-352.523	-19.463	0.483	-0.300
-351.508	-34.802	0.349	-0.191
-350.493	800.000	0.010	0.036
-349.479	800.000	0.052	0.148
-348.464	-200.000	0.033	0.237
-347.450	-200.000	0.018	-0.213
-346.435	40.104	0.115	-0.104
-345.420	64.559	0.063	-0.063
-344.406	-87.680	-0.133	-0.040
-343.391	22.927	-0.296	-0.243
-342.377	-51.820	0.265	0.124
-341.362	800.000	-0.080	0.314
-340.348	-111.820	-0.086	-0.018
-339.333	-174.973	-0.389	-0.011
-338.318	-20.336	0.141	0.087
-337.304	251.679	-0.026	0.045
-336.289	-64.982	-0.174	-0.070
-335.275	-200.000	-0.035	-0.193
-334.260	-67.517	-0.042	-0.016
-333.245	83.621	-0.128	0.140
-332.231	112.428	0.077	0.093
-331.216	22.730	-0.137	-0.113
-330.202	-43.538	-0.156	0.079
-329.187	230.861	0.106	-0.174
-328.172	-200.000	0.001	0.146
-327.158	9.810	0.202	0.154
-326.143	-200.000	0.004	-0.097
-325.129	-28.336	-0.093	-0.054
-324.114	315.477	-0.117	-0.221
-323.099	-61.196	0.152	0.064
-322.085	379.216	-0.049	0.101
-321.070	-151.463	-0.157	-0.012
-320.056	-200.000	0.026	-0.134
-319.041	-39.110	-0.164	-0.087
-318.026	-9.651	0.243	-0.163
-317.012	225.747	0.107	-0.174
-315.997	-200.000	0.003	0.273
-314.983	-200.000	-0.010	0.093
-313.968	-111.703	-0.241	-0.049
-312.953	-50.244	0.324	-0.153
-311.939	72.707	0.098	0.103
-310.924	-54.604	-0.242	0.110
-309.910	-118.121	0.197	-0.035
-308.895	95.683	-0.164	0.188
-307.880	142.154	0.238	-0.316
-306.866	-120.920	0.128	-0.022
-305.851	-63.008	0.026	-0.011
-304.837	-125.498	0.251	-0.038
-303.822	477.495	0.028	0.064
-302.807	-99.729	0.169	-0.042
-301.793	-108.347	-0.131	-0.028
-300.778	-24.915	-0.114	-0.068
-299.764	-154.057	-0.203	-0.014
-298.749	-123.714	0.168	-0.027
-297.735	-200.000	0.010	0.161
-296.720	-200.000	-0.014	-0.155
-295.705	124.012	0.210	0.264
-294.691	800.000	0.099	0.304
-293.676	5.403	-0.276	0.204
-292.662	-100.284	0.277	0.069
-291.647	196.609	0.038	-0.058
-290.632	-4.127	0.089	-0.061
-289.618	-142.314	0.462	0.046
-288.603	59.927	0.095	-0.094
-287.589	638.110	-0.034	0.087
-286.574	-5.777	-0.181	0.124
-285.559	-85.014	-0.079	0.025
-284.545	15.759	0.288	-0.227
-283.530	486.769	-0.023	-0.053
-282.516	68.921	0.082	0.085
-281.501	-200.000	-0.088	0.395
-280.486	800.000	-0.080	-0.254
-279.472	26.200	-0.381	0.318
-278.457	25.402	-0.051	-0.042
-277.443	310.728	0.168	0.314
-276.428	245.178	-0.179	-0.301
-275.413	-118.326	0.232	-0.041
-274.399	-86.087	-0.137	-0.042
-273.384	33.029	-0.207	-0.179
-272.370	-95.937	-0.321	0.085
-271.355	-107.410	0.441	0.097
-270.340	800.000	-0.040	-0.170
-269.326	-200.000	0.076	-0.410
-268.311	75.818	-0.207	0.219
-267.297	422.262	0.063	0.136
-266.282	-200.000	0.061	0.285
-265.267	-200.000	-0.019	0.259
-264.253	51.323	0.112	-0.107
-263.238	-51.011	-0.272	-0.128
-262.224	-46.110	-0.232	-0.114
-261.209	-75.239	-0.201	0.072
-260.195	132.408	-0.083	0.106
-259.180	-148.822	0.327	0.027
-258.165	-200.000	-0.012	0.435
-257.151	-200.000	-0.010	-0.044
-256.136	-58.132	0.051	0.022
-255.122	279.100	0.101	-0.179
-254.107	-123.600	0.413	0.066
-253.092	800.000	-0.060	0.240
-252.078	-200.000	0.073	0.357
-251.063	-165.035	-0.204	-0.009
-250.049	-200.000	-0.018	-0.140
-249.034	116.051	0.067	-0.082
-248.019	146.245	0.079	0.106
-247.005	16.053	-0.096	0.076
-245.990	-96.637	0.227	0.060
-244.976	-101.633	-0.226	-0.055
-243.961	-86.600	0.100	0.031
-242.946	-4.601	-0.323	0.223
-241.932	-70.544	-0.153	0.058
-240.917	340.868	0.115	-0.225
-239.903	22.509	-0.279	0.228
-238.888	242.293	0.164	-0.275
-237.873	-200.000	0.042	0.239
-236.859	38.731	-0.155	-0.139
-235.844	800.000	-0.042	-0.150
-234.830	-76.692	0.050	0.017
-233.815	-200.000	0.019	-0.152
-232.800	333.338	-0.131	0.252
-231.786	-79.357	0.259	0.088
-230.771	800.000	0.112	0.324
-229.757	800.000	0.068	-0.246
-228.742	441.873	-0.062	0.137
-227.727	-70.251	0.111	0.042
-226.713	47.571	0.042	-0.039
-225.698	336.632	0.066	-0.128
-224.684	800.000	-0.026	-0.079
-223.669	800.000	-0.034	0.129
-222.655	-141.288	0.073	0.007
-221.640	800.000	-0.079	-0.219
-220.625	-200.000	-0.042	0.240
-219.611	-200.000	-0.010	0.331
-218.596	-87.517	-0.352	0.106
-217.582	-73.002	0.211	-0.077
-216.567	-200.000	0.010	0.218
-215.552	800.000	-0.083	-0.247
-214.538	-49.170	-0.089	-0.042
-213.523	-155.698	-0.237	0.015
-212.509	-147.422	-0.054	0.005
-211.494	684.635	-0.089	-0.231
-210.479	-58.044	-0.397	-0.173
-209.465	0.330	-0.181	-0.129
-208.450	-78.338	0.239	0.082
-207.436	42.302	0.119	0.108
-206.421	-23.337	0.088	0.053
-205.406	387.484	-0.017	-0.034
-204.392	-38.718	0.106	-0.056
-203.377	-43.376	0.158	-0.080
-202.363	-200.000	0.008	0.212
-201.348	-166.153	-0.212	-0.009
-200.333	-79.804	-0.061	-0.020
-199.319	-72.482	-0.114	0.042
-198.304	-117.196	0.261	0.047
-197.290	-151.593	0.132	-0.010
-196.275	33.645	-0.284	-0.246
-195.260	243.748	0.046	0.077
-194.246	212.723	-0.137	-0.215
-193.231	-65.373	-0.314	-0.126
-192.217	-22.132	0.298	-0.181
-191.202	-200.000	0.006	0.092
-190.187	-1.939	0.246	0.173
-189.173	800.000	-0.135	0.511
-188.158	337.402	0.179	0.346
-187.144	69.283	-0.161	0.165
-186.129	129.409	-0.233	0.297
-185.114	-46.145	-0.127	0.062
-184.100	59.314	0.068	-0.067
-183.085	-200.000	0.003	0.085
-182.071	-6.129	0.315	0.214
-181.056	-159.849	-0.304	0.017
-180.042	800.000	0.023	-0.098
-179.027	122.610	0.058	0.072
-178.012	-125.366	-0.190	-0.029
-176.998	153.028	-0.090	-0.123
-175.983	41.686	0.167	-0.151
-174.969	-90.357	0.292	-0.085
-173.954	-55.690	-0.051	-0.023
-172.939	544.737	-0.149	-0.355
-171.925	-132.356	0.176	0.023
-170.910	-151.058	-0.446	-0.033
-169.896	-108.920	-0.077	-0.016
-168.881	56.701	-0.092	-0.089
-167.866	-200.000	0.009	0.083
-166.852	95.817	0.207	-0.235
-165.837	-200.000	-0.023	0.114
-164.823	-200.000	-0.047	0.228
-163.808	-9.873	0.150	-0.099
-162.793	-200.000	0.006	0.108
-161.779	-38.286	-0.373	-0.197
-160.764	-200.000	-0.031	0.204
-159.750	800.000	-0.014	0.052
-158.735	-46.454	-0.209	-0.102
-157.720	-35.363	-0.108	-0.059
-156.706	-100.468	0.229	0.056
-155.691	-200.000	0.020	0.212
-154.677	-77.013	0.219	0.076
-153.662	-142.036	-0.335	0.033
-152.647	-76.965	0.208	-0.072
-151.633	-66.765	-0.360	-0.142
-150.618	-200.000	-0.011	0.259
-149.604	-141.374	-0.063	-0.006
-148.589	7.089	0.150	-0.111
-147.574	-68.369	-0.355	-0.137
-146.560	-127.665	-0.098	0.014
-145.545	-23.132	0.182	0.109
-144.531	49.304	0.168	0.157
-143.516	2.605	0.253	-0.183
-142.502	-200.000	-0.011	-0.128
-141.487	-200.000	0.055	-0.283
-140.472	-200.000	-0.066	-0.341
-139.458	246.496	0.136	0.228
-138.443	158.947	-0.300	-0.415
-137.429	10.074	0.059	0.044
-136.414	321.462	-0.089	0.168
-135.399	-132.217	0.394	0.051
-134.385	121.831	0.209	-0.260
-133.370	-163.762	0.152	0.007
-132.356	-153.360	0.324	0.022
-131.341	800.000	0.133	-0.408
-130.326	154.448	-0.166	0.227
-129.312	-92.299	0.234	0.065
-128.297	28.121	0.136	-0.114
-127.283	136.145	0.072	0.094
-126.268	800.000	-0.099	-0.301
-125.253	-200.000	0.027	-0.139
-124.239	-147.225	-0.155	0.013
-123.224	-200.000	-0.061	0.274
-122.210	71.213	-0.278	-0.287
-121.195	-88.080	0.221	0.066
