DTS Sentinel unit serial number:	SN413079Multiplexer serial number:	ORYXHardware model number:	OX4-SRSoftware version number:	ORYX F/W v4.00 Oryx Data Collector v3.7.2.0data status	okinstallation	princeton_trtdifferential loss correction	single-endedforward channel	channel 4reverse channel	N/Adate	2019/09/15time	02:25:35forward acquisition time	60.00reverse acquisition time	0.00gamma	496.2192k internal	0.2308k external	0.2308temperature offset calibration	1.0036default loss term (dB/km)	0.3790temperature slope calibration	1.0000multiplexer offset coefficient	1.0000multiplexer slope coefficient	1.0000fibre end	0.00T internal ref (°C)	31.56T ext. ref 1 (°C)	4.55T ext. ref 2 (°C)	26.01length (m)	temperature (°C)	Stokes	anti-Stokes-747.200	255.954	-0.078	-0.136
-746.185	-70.009	-0.377	-0.146
-745.171	-23.323	0.057	0.035
-744.156	-200.000	-0.045	-0.215
-743.142	-69.764	-0.154	-0.060
-742.127	-118.631	-0.166	0.030
-741.112	-8.246	0.318	0.217
-740.098	198.847	0.282	0.439
-739.083	156.233	-0.057	0.079
-738.069	27.734	-0.115	-0.098
-737.054	-200.000	-0.019	-0.154
-736.039	-200.000	0.001	0.218
-735.025	-99.215	0.431	0.111
-734.010	26.615	0.075	-0.063
-732.996	164.384	0.087	-0.124
-731.981	96.067	0.153	-0.178
-730.966	-18.925	0.081	0.051
-729.952	-53.225	-0.280	-0.131
-728.937	-81.846	0.216	0.072
-727.923	800.000	0.051	-0.179
-726.908	172.173	-0.162	-0.237
-725.894	-158.031	-0.129	-0.008
-724.879	76.856	0.159	0.171
-723.864	-70.355	-0.109	-0.042
-722.850	-47.139	-0.250	-0.124
-721.835	11.192	0.053	0.041
-720.821	-69.238	-0.046	0.018
-719.806	-128.197	0.047	-0.007
-718.791	800.000	-0.118	-0.379
-717.777	-145.185	0.058	-0.005
-716.762	160.503	-0.170	-0.241
-715.748	-134.008	-0.292	-0.037
-714.733	-80.142	0.087	0.030
-713.718	-200.000	0.226	0.001
-712.704	-200.000	0.050	0.232
-711.689	463.988	-0.091	0.206
-710.675	64.130	-0.140	-0.143
-709.660	53.760	0.232	0.226
-708.645	-93.658	-0.191	0.054
-707.631	207.764	-0.148	-0.235
-706.616	431.731	0.027	-0.059
-705.602	-200.000	0.016	-0.451
-704.587	-80.090	0.138	-0.047
-703.572	-81.129	-0.384	0.129
-702.558	800.000	0.009	-0.027
-701.543	-44.961	-0.211	0.106
-700.529	123.273	-0.031	-0.040
-699.514	-128.662	0.038	-0.005
-698.499	56.824	-0.035	-0.035
-697.485	-33.200	-0.115	-0.065
-696.470	201.014	-0.109	-0.170
-695.456	800.000	-0.037	-0.151
-694.441	177.870	0.058	-0.086
-693.426	800.000	-0.068	0.204
-692.412	-109.059	0.196	-0.042
-691.397	55.537	0.086	0.084
-690.383	341.856	0.059	0.117
-689.368	-132.784	-0.430	0.056
-688.354	-30.425	0.167	-0.096
-687.339	-133.684	-0.114	0.014
-686.324	-200.000	-0.048	-0.255
-685.310	4.107	-0.249	-0.185
-684.295	71.971	0.077	-0.081
-683.281	735.653	-0.109	-0.298
-682.266	-130.692	-0.156	-0.021
-681.251	-181.773	-0.068	0.001
-680.237	-97.021	-0.138	0.037
-679.222	-120.133	0.089	0.015
-678.208	-102.722	-0.071	-0.017
-677.193	-76.070	-0.547	0.196
-676.178	99.171	0.288	0.338
-675.164	-107.450	-0.448	-0.100
-674.149	82.754	-0.242	-0.267
-673.135	-71.358	0.178	-0.068
-672.120	-200.000	0.046	-0.232
-671.105	-7.539	0.263	-0.181
-670.091	-200.000	-0.069	0.353
-669.076	-128.310	-0.171	-0.025
-668.062	-32.119	-0.418	-0.237
-667.047	416.176	0.083	-0.179
-666.032	-200.000	-0.053	-0.289
-665.018	-70.099	0.014	0.005
-664.003	56.822	0.333	-0.329
-662.989	-200.000	-0.027	-0.335
-661.974	224.101	-0.112	0.183
-660.959	254.578	-0.034	-0.058
-659.945	120.247	0.157	0.197
-658.930	-13.864	-0.182	0.119
-657.916	36.365	0.098	-0.087
-656.901	114.629	0.176	-0.217
-655.886	-4.825	-0.361	0.252
-654.872	-70.266	-0.101	-0.039
-653.857	-6.494	-0.128	0.088
-652.843	102.640	-0.281	-0.333
-651.828	-200.000	-0.065	-0.313
-650.814	-200.000	0.011	0.274
-649.799	410.753	-0.068	-0.145
-648.784	-169.211	0.111	0.004
-647.770	-49.586	0.195	0.094
-646.755	-56.505	-0.190	0.086
-645.741	61.767	-0.270	-0.273
-644.726	-35.381	0.205	-0.113
-643.711	87.577	-0.215	0.241
-642.697	-26.134	-0.102	-0.061
-641.682	-133.993	-0.201	-0.025
-640.668	5.572	-0.186	-0.139
-639.653	88.437	-0.031	-0.035
-638.638	249.279	0.116	-0.198
-637.624	-37.194	-0.157	-0.085
-636.609	3.242	0.228	-0.168
-635.595	-200.000	0.040	-0.286
-634.580	66.535	-0.226	0.232
-633.565	-200.000	0.064	0.313
-632.551	61.175	0.162	0.163
-631.536	-3.479	-0.278	0.196
-630.522	11.952	-0.186	-0.145
-629.507	301.856	0.096	0.179
-628.492	-101.543	0.160	-0.039
-627.478	65.979	-0.199	0.205
-626.463	177.612	-0.268	0.395
-625.449	17.208	-0.269	0.216
-624.434	-53.108	0.157	-0.073
-623.419	245.329	-0.050	0.085
-622.405	153.428	0.004	-0.005
-621.390	-79.383	-0.247	-0.084
-620.376	69.616	0.048	-0.050
-619.361	191.044	0.060	-0.092
-618.346	76.487	0.271	-0.290
-617.332	438.969	0.086	-0.191
-616.317	-184.908	0.185	0.003
-615.303	186.273	0.065	0.098
-614.288	46.566	-0.125	0.117
-613.273	-162.400	-0.009	-0.000
-612.259	-14.157	0.221	-0.144
-611.244	-200.000	0.015	-0.157
-610.230	530.069	0.144	0.343
-609.215	570.161	-0.019	0.046
-608.201	-131.339	0.069	-0.009
-607.186	800.000	-0.133	-0.372
-606.171	18.954	0.117	0.095
-605.157	800.000	-0.165	0.507
-604.142	-119.417	0.478	-0.084
-603.128	-140.880	0.302	0.031
-602.113	65.640	-0.070	0.072
-601.098	800.000	0.033	0.140
-600.084	-200.000	-0.010	0.096
-599.069	705.178	-0.113	-0.301
-598.055	84.224	-0.227	-0.251
-597.040	79.245	-0.066	-0.072
-596.025	344.735	0.069	0.136
-595.011	-200.000	-0.012	-0.102
-593.996	459.518	-0.013	-0.029
-592.982	-37.756	-0.243	-0.131
-591.967	-200.000	-0.018	0.178
-590.952	94.324	-0.045	0.051
-589.938	-118.205	0.436	0.079
-588.923	-45.410	0.334	-0.167
-587.909	-200.000	0.000	0.112
-586.894	156.882	0.299	-0.418
-585.879	-90.701	0.134	-0.039
-584.865	84.446	0.265	-0.292
-583.850	-200.000	0.002	-0.165
-582.836	-200.000	-0.039	0.173
-581.821	50.219	-0.147	-0.140
-580.806	108.415	0.169	-0.204
-579.792	-52.923	-0.196	0.091
-578.777	-52.082	0.208	0.097
-577.763	-75.475	-0.299	-0.107
-576.748	0.453	-0.017	-0.013
-575.733	-46.593	-0.115	-0.057
-574.719	428.334	-0.059	0.128
-573.704	138.251	0.112	0.148
-572.690	22.628	-0.172	-0.142
-571.675	-21.513	-0.094	0.058
-570.661	-115.726	0.076	0.014
-569.646	-118.102	0.284	-0.051
-568.631	-184.069	-0.159	0.003
-567.617	8.287	-0.280	-0.213
-566.602	800.000	0.055	-0.182
-565.588	352.842	-0.126	-0.252
-564.573	64.563	-0.120	-0.122
-563.558	-93.793	0.242	-0.067
-562.544	800.000	-0.088	0.267
-561.529	800.000	-0.078	0.230
-560.515	4.438	0.267	0.198
-559.500	-78.950	0.204	-0.070
-558.485	732.625	-0.152	-0.409
-557.471	-156.234	0.091	0.006
-556.456	53.286	0.167	0.161
-555.442	-168.322	0.130	-0.005
-554.427	92.912	-0.241	0.275
-553.412	-106.025	0.234	-0.053
-552.398	-200.000	0.047	0.240
-551.383	-77.440	0.096	-0.034
-550.369	267.576	0.143	-0.252
-549.354	-81.190	-0.363	-0.121
-548.339	242.124	0.088	0.148
-547.325	-14.328	-0.238	-0.154
-546.310	-101.479	0.187	-0.046
-545.296	130.374	0.166	0.214
-544.281	-173.883	0.145	0.004
-543.266	-158.105	0.536	-0.032
-542.252	-200.000	0.011	0.238
-541.237	-127.574	0.390	0.057
-540.223	-61.936	0.172	0.073
-539.208	-172.557	-0.223	0.007
-538.193	727.947	0.086	-0.232
-537.179	426.227	0.105	-0.228
-536.164	-32.986	-0.044	-0.024
-535.150	44.620	-0.084	-0.078
-534.135	-29.390	-0.084	-0.048
-533.121	-200.000	0.021	-0.240
-532.106	43.658	-0.119	0.110
-531.091	487.822	0.124	-0.285
-530.077	36.407	0.234	-0.208
-529.062	223.103	0.227	-0.370
-528.048	457.984	0.102	0.229
-527.033	469.733	0.037	-0.084
-526.018	102.379	0.091	-0.107
-525.004	-200.000	-0.024	-0.220
-523.989	800.000	-0.095	-0.265
-522.975	800.000	-0.040	0.166
-521.960	9.782	0.141	-0.108
-520.945	-21.614	-0.287	0.176
-519.931	-105.407	0.169	-0.039
-518.916	-174.853	-0.073	0.002
-517.902	363.907	-0.159	0.322
-516.887	6.451	0.182	0.136
-515.872	800.000	-0.099	-0.290
-514.858	305.411	-0.106	0.199
-513.843	-44.845	0.130	0.065
-512.829	-102.057	-0.200	0.048
-511.814	-128.089	0.254	-0.037
-510.799	-173.571	0.235	-0.007
-509.785	661.874	-0.079	0.205
-508.770	800.000	0.034	0.126
-507.756	-163.421	-0.306	-0.015
-506.741	526.494	-0.108	0.257
-505.726	-139.045	-0.481	0.052
-504.712	-200.000	-0.003	0.258
-503.697	-84.847	0.188	-0.060
-502.683	-57.513	0.279	0.123
-501.668	-79.844	0.281	-0.095
-500.653	-91.992	0.220	-0.063
-499.639	124.481	0.055	0.070
-498.624	126.785	-0.163	0.207
-497.610	-183.168	-0.510	0.009
-496.595	-58.706	0.433	0.189
-495.581	-82.647	-0.212	0.069
-494.566	-14.098	-0.229	-0.149
-493.551	-85.063	0.078	-0.025
-492.537	800.000	-0.091	-0.275
-491.522	-200.000	0.019	-0.085
-490.508	800.000	-0.097	-0.328
-489.493	142.444	-0.139	-0.186
-488.478	-200.000	-0.045	0.217
-487.464	641.661	-0.125	-0.319
-486.449	-200.000	0.057	-0.377
-485.435	-19.094	0.219	-0.137
-484.420	800.000	-0.091	0.278
-483.405	368.683	0.086	-0.175
-482.391	-74.630	-0.434	0.157
-481.376	800.000	0.049	-0.166
-480.362	24.404	-0.068	-0.057
-479.347	-200.000	0.025	-0.190
-478.332	115.023	-0.106	-0.131
-477.318	-155.043	0.058	-0.004
-476.303	34.181	-0.055	0.048
-475.289	-124.063	-0.355	-0.056
-474.274	-28.199	0.139	0.081
-473.259	-174.274	0.062	0.002
-472.245	-95.376	0.231	0.062
-471.230	-61.383	-0.193	-0.082
-470.216	-161.746	-0.367	0.019
-469.201	-172.410	-0.203	-0.007
-468.186	496.913	-0.112	-0.259
-467.172	483.416	0.033	0.075
-466.157	9.188	-0.127	0.096
-465.143	44.892	0.178	-0.165
-464.128	-77.043	-0.292	-0.103
-463.113	800.000	-0.052	0.147
-462.099	-136.836	0.227	-0.026
-461.084	54.645	-0.133	0.129
-460.070	-200.000	0.015	-0.226
-459.055	64.641	-0.165	-0.167
-458.040	800.000	-0.110	0.362
-457.026	-0.765	-0.136	0.097
-456.011	43.705	-0.151	-0.139
-454.997	99.684	0.248	0.289
-453.982	208.059	-0.125	0.197
-452.968	-5.513	-0.190	0.131
-451.953	-162.249	-0.038	-0.002
-450.938	205.351	0.216	0.336
-449.924	134.877	-0.218	-0.285
-448.909	-100.850	0.181	0.045
-447.895	-23.098	-0.119	0.072
-446.880	534.471	-0.127	-0.303
-445.865	521.256	-0.036	-0.084
-444.851	-200.000	0.053	-0.258
-443.836	-10.529	0.352	-0.234
-442.822	-18.007	-0.151	0.095
-441.807	-18.573	-0.302	0.190
-440.792	-157.082	0.322	0.020
-439.778	22.952	-0.152	-0.125
-438.763	800.000	0.094	-0.300
-437.749	130.066	-0.147	0.188
-436.734	-63.023	-0.269	0.112
-435.719	257.481	-0.100	0.172
-434.705	175.781	-0.193	-0.281
-433.690	-200.000	-0.009	0.186
-432.676	89.075	-0.116	-0.129
-431.661	183.636	-0.020	-0.029
-430.646	-65.362	-0.199	-0.080
-429.632	-200.000	-0.027	-0.159
-428.617	-84.620	-0.527	0.167
-427.603	-79.181	-0.028	0.010
-426.588	-200.000	0.022	-0.118
-425.573	227.704	-0.036	-0.059
-424.559	200.725	-0.054	-0.083
-423.544	21.019	0.060	0.049
-422.530	-61.165	0.269	-0.114
-421.515	7.686	0.189	-0.142
-420.500	573.265	-0.126	0.308
-419.486	-200.000	0.004	-0.186
-418.471	-200.000	0.058	0.397
-417.457	-194.918	-0.134	0.001
-416.442	-92.369	-0.188	-0.053
-415.428	-102.412	-0.153	-0.037
-414.413	518.839	-0.045	-0.106
-413.398	102.380	-0.011	0.013
-412.384	179.837	-0.085	-0.125
-411.369	-5.124	0.223	-0.154
-410.355	54.717	0.273	-0.265
-409.340	419.907	0.057	-0.123
-408.325	218.550	-0.131	0.210
-407.311	-200.000	-0.056	-0.288
-406.296	68.522	0.180	0.185
-405.282	-143.560	-0.278	-0.027
-404.267	161.064	0.073	0.102
-403.252	123.854	0.142	0.178
-402.238	800.000	-0.043	0.121
-401.223	511.610	-0.084	0.197
-400.209	159.554	0.288	-0.402
-399.194	94.670	0.168	-0.191
-398.179	-200.000	-0.018	0.189
-397.165	-115.937	0.099	-0.019
-396.150	-190.185	-0.159	-0.002
-395.136	800.000	0.020	0.083
-394.121	-106.256	-0.100	-0.022
-393.106	-200.000	0.030	0.217
-392.092	276.429	0.089	-0.159
-391.077	317.551	0.109	-0.208
-390.063	753.857	0.047	0.127
-389.048	244.753	0.123	0.207
-388.033	-73.389	-0.036	-0.013
-387.019	-76.973	0.149	0.052
-386.004	800.000	0.047	-0.205
-384.990	-200.000	-0.040	-0.256
-383.975	-17.809	0.180	-0.113
-382.960	-96.468	0.160	0.042
-381.946	-138.199	0.219	-0.024
-380.931	135.933	-0.156	0.204
-379.917	-67.668	-0.219	0.086
-378.902	-200.000	0.034	0.353
-377.888	-98.346	0.440	-0.113
-376.873	16.251	-0.092	0.073
-375.858	-104.719	-0.159	-0.037
-374.844	601.220	0.063	0.157
-373.829	-46.672	0.299	0.147
-372.815	496.816	-0.104	-0.239
-371.800	37.142	-0.170	-0.151
-370.785	653.539	0.065	-0.166
-369.771	264.637	-0.100	-0.174
-368.756	290.267	-0.136	0.247
-367.742	100.145	0.095	0.111
-366.727	2.691	-0.139	0.101
-365.712	800.000	0.059	0.177
-364.698	26.494	-0.319	0.267
-363.683	-38.910	0.055	-0.029
-362.669	-200.000	0.000	-0.284
-361.654	-119.296	0.205	-0.036
-360.639	-50.298	-0.185	-0.088
-359.625	-90.516	0.127	0.037
-358.610	40.785	-0.026	0.023
-357.596	-200.000	-0.001	0.273
-356.581	2.443	-0.272	0.197
-355.566	-97.922	0.293	-0.076
-354.552	22.381	0.001	0.001
-353.537	-200.000	0.022	-0.326
-352.523	-144.465	0.189	-0.017
-351.508	-200.000	0.029	0.214
-350.493	0.377	-0.201	-0.144
-349.479	95.194	0.165	0.188
-348.464	800.000	0.055	-0.154
-347.450	4.847	-0.318	-0.234
-346.435	800.000	0.013	-0.056
-345.420	-200.000	-0.045	-0.207
-344.406	-101.627	0.081	0.020
-343.391	-10.698	0.094	-0.062
-342.377	429.379	0.075	-0.162
-341.362	-57.141	0.285	-0.126
-340.348	-74.992	-0.206	-0.074
-339.333	26.698	-0.234	0.196
-338.318	800.000	-0.080	0.245
-337.304	-4.007	-0.117	0.081
-336.289	260.034	0.079	0.136
-335.275	48.283	-0.099	-0.093
-334.260	-179.058	0.238	-0.005
-333.245	107.622	-0.065	0.077
-332.231	-65.646	0.065	0.026
-331.216	-200.000	-0.045	0.327
-330.202	482.239	0.071	0.161
-329.187	46.808	-0.133	0.124
-328.172	-200.000	0.004	0.132
-327.158	44.489	0.167	-0.153
-326.143	566.369	-0.057	0.138
-325.129	71.646	0.025	-0.026
-324.114	-200.000	0.011	-0.089
-323.099	-200.000	-0.092	0.509
-322.085	84.217	-0.346	-0.378
-321.070	-200.000	-0.091	0.415
-320.056	114.869	0.201	-0.245
-319.041	800.000	-0.040	0.156
-318.026	800.000	0.025	-0.099
-317.012	-107.475	0.137	-0.030
-315.997	-123.352	-0.112	-0.018
-314.983	-111.132	0.131	0.027
-313.968	110.222	-0.085	-0.102
-312.953	30.573	0.156	0.134
-311.939	681.807	-0.103	0.269
-310.924	-109.068	-0.217	-0.046
-309.910	67.587	-0.210	-0.214
-308.895	800.000	0.020	-0.063
-307.880	-200.000	0.039	0.243
-306.866	30.975	-0.281	0.241
-305.851	-84.400	0.142	-0.045
-304.837	-200.000	-0.014	0.114
-303.822	-108.116	0.258	0.056
-302.807	104.225	-0.281	0.330
-301.793	361.277	-0.039	-0.079
-300.778	-200.000	0.043	0.218
-299.764	463.800	0.023	0.050
-298.749	267.600	-0.163	-0.285
-297.735	-15.545	0.161	-0.103
-296.720	-77.668	0.201	-0.070
-295.705	23.300	-0.208	0.171
-294.691	110.394	-0.146	0.176
-293.676	-135.261	-0.172	0.021
-292.662	109.359	-0.216	0.258
-291.647	800.000	0.029	0.120
-290.632	-75.282	0.207	-0.074
-289.618	-200.000	-0.030	-0.148
-288.603	-38.359	-0.426	0.225
-287.589	188.578	0.197	0.295
-286.574	-28.970	-0.063	-0.036
-285.559	-200.000	0.035	0.326
-284.545	0.494	-0.082	-0.058
-283.530	513.906	-0.040	-0.094
-282.516	-162.917	0.192	-0.009
-281.501	-93.715	-0.246	0.068
-280.486	505.079	-0.122	0.282
-279.472	102.613	0.235	0.274
-278.457	-200.000	0.011	-0.113
-277.443	-112.716	0.120	0.024
-276.428	-106.301	-0.157	0.035
-275.413	-200.000	0.038	-0.326
-274.399	577.479	-0.116	-0.282
-273.384	800.000	0.043	-0.145
-272.370	-107.737	0.094	0.020
-271.355	266.952	-0.097	0.169
-270.340	-84.523	0.125	-0.039
-269.326	-128.759	0.193	-0.027
-268.311	-82.371	0.149	0.048
-267.297	-200.000	0.069	0.327
-266.282	10.335	-0.062	-0.047
-265.267	67.588	-0.229	0.234
-264.253	-178.350	-0.153	0.004
-263.238	-125.376	0.201	-0.031
-262.224	-200.000	-0.037	0.183
-261.209	30.310	0.066	-0.056
-260.195	280.581	0.085	0.151
-259.180	-14.962	-0.137	-0.087
-258.165	-121.342	0.114	0.019
-257.151	145.008	-0.028	-0.037
-256.136	800.000	0.040	0.169
-255.122	-91.617	0.169	0.048
-254.107	-100.060	0.144	-0.036
-253.092	-150.423	-0.168	-0.013
-252.078	632.899	0.102	0.258
-251.063	225.148	0.136	-0.220
-250.049	-91.854	0.169	-0.048
-249.034	11.656	-0.168	0.128
-248.019	-26.131	0.361	-0.211
-247.005	-200.000	0.043	-0.188
-245.990	-200.000	0.013	-0.364
-244.976	67.878	-0.117	-0.120
-243.961	-200.000	-0.063	-0.403
-242.946	733.507	0.082	-0.219
-241.932	145.772	0.211	0.282
-240.917	690.204	0.093	-0.242
-239.903	-200.000	-0.022	0.237
-238.888	800.000	0.076	0.286
-237.873	211.025	-0.196	-0.307
-236.859	67.822	-0.034	0.034
-235.844	-142.597	0.272	0.027
-234.830	69.933	-0.337	-0.346
-233.815	-200.000	0.056	-0.347
-232.800	-200.000	0.075	0.395
-231.786	-131.538	-0.192	0.025
-230.771	-18.958	-0.219	-0.136
-229.757	-163.102	0.259	0.012
-228.742	-72.360	0.146	-0.054
-227.727	46.471	0.243	0.224
-226.713	-161.182	-0.166	0.009
-225.698	16.089	0.102	0.080
-224.684	-124.444	-0.081	0.013
-223.669	99.564	0.193	0.223
-222.655	-88.957	0.133	-0.039
-221.640	688.227	-0.040	-0.104
-220.625	522.017	-0.054	0.126
-219.611	-200.000	0.023	0.223
-218.596	34.662	-0.038	-0.034
-217.582	-200.000	-0.030	-0.200
-216.567	564.535	0.094	0.226
-215.552	18.975	-0.294	-0.235
-214.538	-92.147	0.373	-0.105
-213.523	227.840	-0.152	-0.246
-212.509	800.000	-0.070	0.288
-211.494	-200.000	-0.043	0.229
-210.479	401.272	0.164	0.342
-209.465	16.249	0.132	0.104
-208.450	-3.069	-0.168	-0.117
-207.436	-108.620	0.423	0.090
-206.421	-200.000	0.006	0.038
-205.406	-38.980	-0.098	0.051
-204.392	-200.000	0.012	0.054
-203.377	-200.000	0.003	0.128
-202.363	298.107	-0.040	-0.074
-201.348	-49.688	-0.038	-0.018
-200.333	43.884	-0.087	-0.079
-199.319	171.670	0.121	-0.173
-198.304	5.267	0.254	0.187
-197.290	-91.104	0.161	-0.046
-196.275	-41.071	-0.055	-0.028
-195.260	800.000	-0.043	-0.132
-194.246	-85.001	0.151	0.047
-193.231	-116.579	0.521	-0.095
-192.217	-88.384	0.175	-0.052
-191.202	142.374	-0.085	0.113
-190.187	-174.595	-0.235	0.007
-189.173	185.036	-0.154	0.227
-188.158	800.000	0.053	-0.188
-187.144	800.000	0.029	0.086
-186.129	318.524	-0.099	-0.186
-185.114	22.546	-0.030	-0.024
-184.100	39.376	-0.075	-0.067
-183.085	487.376	-0.108	-0.246
-182.071	-15.048	-0.166	-0.106
-181.056	320.093	0.071	-0.134
-180.042	-73.624	0.177	0.064
-179.027	-200.000	0.013	-0.163
-178.012	39.999	0.240	0.215
-176.998	73.517	-0.139	0.145
-175.983	-4.275	0.122	-0.084
-174.969	800.000	0.057	0.172
-173.954	420.817	0.149	-0.318
-172.939	647.158	0.163	-0.413
-171.925	-68.407	0.280	-0.108
-170.910	800.000	0.076	0.237
-169.896	427.007	-0.161	0.346
-168.881	800.000	-0.041	-0.118
-167.866	13.595	-0.099	0.076
-166.852	-58.958	-0.381	0.164
-165.837	699.307	-0.052	0.137
-164.823	578.896	0.129	0.314
-163.808	-200.000	0.441	-0.000
-162.793	-8.909	-0.296	-0.197
-161.779	1.188	-0.263	0.188
-160.764	-35.387	0.179	0.097
-159.750	800.000	-0.050	-0.195
-158.735	-143.818	0.066	-0.006
-157.720	-88.136	-0.317	0.094
-156.706	-97.067	-0.190	-0.049
-155.691	7.621	-0.050	-0.037
-154.677	33.706	-0.028	0.024
-153.662	-61.574	-0.189	0.079
-152.647	-160.723	0.070	-0.004
-151.633	211.351	-0.042	-0.066
-150.618	-200.000	0.037	-0.551
-149.604	124.324	0.183	0.229
-148.589	456.234	0.174	0.384
-147.574	40.720	0.173	-0.155
-146.560	129.065	-0.192	0.243
-145.545	-200.000	0.000	0.068
-144.531	-200.000	0.000	-0.023
-143.516	-200.000	0.011	-0.228
-142.502	800.000	0.076	-0.239
-141.487	97.176	0.119	-0.136
-140.472	175.408	-0.178	0.256
-139.458	-83.348	-0.109	0.035
-138.443	-200.000	-0.016	-0.089
-137.429	59.851	0.143	-0.141
-136.414	367.570	-0.087	0.174
-135.399	215.532	-0.164	0.258
-134.385	-200.000	-0.007	0.298
-133.370	-200.000	0.023	-0.124
-132.356	800.000	-0.084	0.303
-131.341	133.766	0.224	-0.288
-130.326	-71.648	0.381	0.141
-129.312	-200.000	-0.045	-0.385
-128.297	48.466	0.194	0.180
-127.283	-156.496	0.269	0.017
-126.268	800.000	-0.020	-0.077
-125.253	-200.000	-0.025	-0.181
-124.239	-13.916	0.371	0.238
-123.224	124.717	-0.229	0.286
-122.210	-200.000	0.007	0.155
-121.195	-33.499	-0.210	-0.115
