DTS Sentinel unit serial number:	SN413079Multiplexer serial number:	ORYXHardware model number:	OX4-SRSoftware version number:	ORYX F/W v4.00 Oryx Data Collector v3.7.2.0data status	okinstallation	princeton_trtdifferential loss correction	single-endedforward channel	channel 4reverse channel	N/Adate	2019/09/14time	11:53:35forward acquisition time	60.00reverse acquisition time	0.00gamma	496.2192k internal	0.2293k external	0.2293temperature offset calibration	1.0154default loss term (dB/km)	0.3790temperature slope calibration	1.0000multiplexer offset coefficient	1.0000multiplexer slope coefficient	1.0000fibre end	0.00T internal ref (°C)	37.19T ext. ref 1 (°C)	4.64T ext. ref 2 (°C)	34.62length (m)	temperature (°C)	Stokes	anti-Stokes-747.200	453.802	0.022	-0.050
-746.185	134.311	-0.107	0.142
-745.171	-166.753	0.053	0.002
-744.156	-80.441	-0.311	0.106
-743.142	60.504	0.213	0.216
-742.127	-101.524	-0.398	0.099
-741.112	-7.820	-0.072	-0.050
-740.098	163.961	0.041	0.058
-739.083	-48.319	-0.271	-0.134
-738.069	-200.000	0.028	-0.191
-737.054	-142.149	0.190	0.019
-736.039	-4.307	-0.145	-0.103
-735.025	101.831	0.363	0.433
-734.010	-113.567	-0.404	0.081
-732.996	222.078	-0.152	0.250
-731.981	263.254	0.126	-0.223
-730.966	-73.188	-0.109	-0.041
-729.952	-186.880	-0.027	-0.000
-728.937	764.084	-0.036	-0.101
-727.923	800.000	-0.046	-0.146
-726.908	254.282	-0.077	-0.134
-725.894	134.541	-0.342	0.454
-724.879	-94.767	0.100	0.028
-723.864	88.977	0.195	0.222
-722.850	-127.225	-0.213	0.032
-721.835	-200.000	-0.001	-0.112
-720.821	344.770	0.042	-0.085
-719.806	35.969	-0.094	0.085
-718.791	-54.495	-0.152	0.070
-717.777	-99.717	-0.174	-0.045
-716.762	-54.860	0.398	-0.183
-715.748	198.386	0.071	-0.111
-714.733	78.443	0.187	-0.204
-713.718	-200.000	-0.029	-0.456
-712.704	37.553	0.264	-0.239
-711.689	-200.000	-0.013	-0.091
-710.675	78.808	-0.135	0.148
-709.660	-200.000	0.010	0.251
-708.645	249.842	-0.071	0.123
-707.631	69.342	-0.021	0.022
-706.616	-46.575	0.144	-0.072
-705.602	-200.000	-0.021	-0.205
-704.587	64.458	0.075	-0.077
-703.572	-4.526	0.253	-0.179
-702.558	9.199	-0.076	0.059
-701.543	-127.677	0.291	0.043
-700.529	-85.884	0.183	-0.058
-699.514	-200.000	-0.024	-0.271
-698.499	-63.246	-0.033	-0.014
-697.485	-200.000	-0.054	-0.305
-696.470	-37.772	0.191	0.104
-695.456	-132.807	0.578	-0.075
-694.441	-63.111	-0.125	-0.052
-693.426	-108.611	0.162	0.035
-692.412	-17.525	-0.280	0.180
-691.397	800.000	-0.047	-0.147
-690.383	484.256	-0.191	-0.444
-689.368	-171.302	0.158	0.005
-688.354	-200.000	-0.002	-0.128
-687.339	-19.551	-0.281	0.178
-686.324	-118.510	0.049	0.009
-685.310	758.955	-0.102	-0.282
-684.295	5.551	-0.255	-0.192
-683.281	-120.778	-0.239	0.041
-682.266	800.000	0.048	0.174
-681.251	1.246	0.399	-0.292
-680.237	303.774	0.142	-0.268
-679.222	6.141	-0.122	-0.092
-678.208	-41.392	0.339	0.178
-677.193	139.488	-0.036	0.049
-676.178	272.007	-0.085	-0.153
-675.164	24.456	-0.120	-0.101
-674.149	-104.057	-0.063	-0.015
-673.135	-40.172	0.057	0.030
-672.120	-29.418	0.158	0.092
-671.105	800.000	-0.078	0.270
-670.091	-200.000	0.009	0.090
-669.076	-200.000	0.011	0.187
-668.062	27.065	-0.107	-0.092
-667.047	-0.599	0.076	-0.055
-666.032	196.004	-0.127	-0.197
-665.018	-101.823	0.134	-0.033
-664.003	-3.295	0.182	-0.129
-662.989	66.873	-0.298	-0.309
-661.974	-200.000	0.021	0.213
-660.959	-20.443	0.310	-0.195
-659.945	6.732	-0.155	0.118
-658.930	333.080	-0.019	-0.038
-657.916	102.032	0.120	0.143
-656.901	800.000	0.073	0.288
-655.886	-5.206	-0.248	-0.174
-654.872	227.229	-0.036	0.060
-653.857	3.601	0.101	-0.075
-652.843	50.080	0.174	-0.167
-651.828	-200.000	-0.066	-0.419
-650.814	-25.955	0.185	-0.111
-649.799	119.192	-0.142	-0.179
-648.784	7.632	-0.052	0.039
-647.770	-200.000	0.007	-0.192
-646.755	-200.000	0.027	-0.168
-645.741	-200.000	0.003	0.040
-644.726	43.770	0.164	-0.153
-643.711	-200.000	0.042	0.193
-642.697	417.822	0.162	0.352
-641.682	-41.579	-0.162	0.085
-640.668	-29.975	-0.118	-0.069
-639.653	218.324	-0.059	0.096
-638.638	-79.500	-0.097	-0.033
-637.624	4.791	0.110	-0.082
-636.609	-138.632	-0.070	-0.008
-635.595	65.343	0.077	0.080
-634.580	-55.739	0.365	0.166
-633.565	-19.914	0.138	-0.087
-632.551	-21.348	-0.333	-0.207
-631.536	-117.489	-0.126	-0.023
-630.522	-158.948	0.278	-0.016
-629.507	412.444	0.072	-0.156
-628.492	-66.972	0.142	-0.057
-627.478	141.453	0.061	-0.083
-626.463	-180.376	-0.179	-0.004
-625.449	10.093	0.285	-0.221
-624.434	-92.157	0.169	-0.049
-623.419	-77.864	-0.220	0.077
-622.405	-74.356	-0.272	0.100
-621.390	-200.000	0.005	-0.168
-620.376	-164.875	-0.239	-0.011
-619.361	-12.207	-0.210	-0.140
-618.346	-194.693	-0.159	-0.001
-617.332	-140.478	0.393	-0.042
-616.317	114.889	-0.112	-0.139
-615.303	800.000	0.065	0.211
-614.288	-200.000	0.022	0.168
-613.273	-185.070	0.037	-0.001
-612.259	503.468	-0.042	0.098
-611.244	-200.000	0.057	-0.331
-610.230	226.033	0.129	-0.213
-609.215	4.144	-0.028	0.021
-608.201	-200.000	0.031	-0.318
-607.186	-55.938	-0.163	0.074
-606.171	247.024	0.099	0.170
-605.157	22.797	-0.120	-0.100
-604.142	-161.248	0.254	-0.013
-603.128	103.399	-0.318	0.379
-602.113	-200.000	-0.012	-0.301
-601.098	-200.000	0.022	-0.150
-600.084	250.750	-0.065	0.113
-599.069	-101.612	0.191	-0.047
-598.055	167.971	-0.139	-0.201
-597.040	117.395	0.158	0.197
-596.025	53.372	-0.057	-0.056
-595.011	16.216	0.127	-0.102
-593.996	-200.000	0.020	-0.273
-592.982	800.000	-0.033	-0.102
-591.967	-200.000	-0.026	-0.380
-590.952	364.044	-0.219	-0.448
-589.938	800.000	0.066	0.235
-588.923	-54.650	-0.279	-0.128
-587.909	-200.000	0.271	0.000
-586.894	-109.331	0.264	0.057
-585.879	-100.083	0.154	0.039
-584.865	59.702	-0.179	-0.180
-583.850	528.591	-0.102	0.244
-582.836	-200.000	0.003	0.028
-581.821	166.855	0.188	-0.271
-580.806	157.791	-0.071	-0.100
-579.792	26.926	0.208	-0.177
-578.777	26.314	-0.077	-0.065
-577.763	257.553	0.081	0.141
-576.748	-86.603	0.102	-0.032
-575.733	-55.517	0.470	0.214
-574.719	175.162	-0.085	0.126
-573.704	-200.000	-0.037	-0.210
-572.690	-7.201	-0.213	0.147
-571.675	-200.000	-0.010	0.171
-570.661	93.741	-0.182	0.210
-569.646	-200.000	-0.014	0.116
-568.631	-97.385	0.033	0.009
-567.617	180.149	0.083	-0.124
-566.602	-138.817	-0.173	0.019
-565.588	-9.595	-0.146	0.099
-564.573	75.651	0.152	0.163
-563.558	1.094	-0.149	-0.108
-562.544	-39.126	-0.365	0.195
-561.529	-55.945	0.324	-0.147
-560.515	607.542	-0.025	0.063
-559.500	510.285	0.133	0.314
-558.485	-86.458	0.201	-0.063
-557.471	129.266	0.222	-0.287
-556.456	800.000	-0.081	-0.265
-555.442	-28.278	0.253	0.148
-554.427	-177.448	0.119	0.003
-553.412	-119.536	0.076	-0.013
-552.398	800.000	-0.053	-0.197
-551.383	-31.769	-0.202	0.115
-550.369	-32.651	-0.109	-0.062
-549.354	425.982	-0.174	-0.380
-548.339	-31.165	-0.263	-0.151
-547.325	346.048	0.167	0.333
-546.310	376.693	-0.146	0.303
-545.296	800.000	0.048	-0.208
-544.281	-127.570	0.204	-0.030
-543.266	-131.042	0.096	-0.013
-542.252	-63.418	0.163	0.068
-541.237	-86.032	-0.100	0.031
-540.223	-51.679	-0.047	-0.022
-539.208	200.765	-0.087	-0.136
-538.193	800.000	0.118	0.387
-537.179	86.338	0.077	-0.087
-536.164	-88.919	-0.167	0.050
-535.150	339.409	0.088	-0.174
-534.135	800.000	0.051	-0.175
-533.121	-155.274	-0.334	-0.022
-532.106	-53.432	-0.218	0.101
-531.091	-21.772	0.033	-0.020
-530.077	160.541	0.033	0.046
-529.062	-108.289	0.096	0.021
-528.048	62.801	-0.198	-0.201
-527.033	800.000	-0.013	0.046
-526.018	-39.057	0.251	-0.134
-525.004	-200.000	-0.008	-0.270
-523.989	800.000	0.064	-0.182
-522.975	36.746	0.239	-0.214
-521.960	800.000	0.073	-0.310
-520.945	-200.000	-0.075	-0.369
-519.931	-30.438	0.431	-0.248
-518.916	131.392	-0.191	-0.249
-517.902	552.052	-0.039	-0.095
-516.887	549.702	-0.196	0.475
-515.872	-103.809	0.229	0.054
-514.858	5.706	0.219	0.164
-513.843	-200.000	0.023	-0.268
-512.829	160.331	0.063	-0.089
-511.814	-76.278	-0.390	-0.139
-510.799	-172.354	-0.214	-0.007
-509.785	531.608	0.037	0.089
-508.770	-177.511	-0.326	-0.008
-507.756	-56.500	-0.184	-0.083
-506.741	-146.898	0.140	0.012
-505.726	800.000	-0.064	0.273
-504.712	103.081	-0.088	-0.104
-503.697	-200.000	0.043	0.219
-502.683	-31.671	0.224	0.127
-501.668	297.837	-0.129	-0.240
-500.653	-200.000	-0.016	-0.122
-499.639	-139.545	0.307	-0.033
-498.624	-107.582	0.131	0.029
-497.610	-52.825	-0.247	0.115
-496.595	-135.096	0.359	-0.044
-495.581	-200.000	0.018	-0.081
-494.566	345.081	0.074	0.148
-493.551	34.190	-0.034	0.030
-492.537	-31.863	0.159	0.090
-491.522	159.038	-0.023	0.033
-490.508	-6.621	0.123	0.085
-489.493	-66.470	-0.128	-0.052
-488.478	800.000	-0.026	0.073
-487.464	-200.000	0.010	0.194
-486.449	800.000	0.111	-0.382
-485.435	-8.906	-0.099	-0.067
-484.420	82.252	-0.146	-0.161
-483.405	-200.000	0.028	-0.172
-482.391	-39.304	-0.191	0.102
-481.376	-179.295	0.158	-0.004
-480.362	-132.592	0.330	-0.043
-479.347	-37.614	-0.135	0.073
-478.332	404.145	-0.175	-0.372
-477.318	-70.761	-0.166	0.063
-476.303	-183.328	-0.290	-0.005
-475.289	-12.314	-0.271	0.179
-474.274	-200.000	0.038	-0.389
-473.259	-13.705	0.371	-0.243
-472.245	79.928	-0.203	0.220
-471.230	27.757	-0.031	0.027
-470.216	223.668	0.142	0.232
-469.201	-82.917	-0.310	-0.101
-468.186	261.468	-0.097	0.171
-467.172	-200.000	0.020	-0.260
-466.157	-182.012	0.299	-0.006
-465.143	800.000	-0.069	0.288
-464.128	-33.011	0.151	-0.085
-463.113	-90.393	0.103	0.030
-462.099	-87.602	0.254	-0.078
-461.084	-200.000	-0.037	-0.166
-460.070	-168.201	0.236	0.009
-459.055	-46.782	-0.014	0.007
-458.040	-200.000	-0.007	-0.125
-457.026	-200.000	-0.003	0.041
-456.011	-86.542	0.028	-0.009
-454.997	20.909	0.244	-0.200
-453.982	94.426	-0.121	0.140
-452.968	32.936	0.249	0.218
-451.953	-26.424	0.193	-0.114
-450.938	-105.934	-0.245	0.056
-449.924	395.782	0.135	-0.285
-448.909	13.381	-0.254	-0.199
-447.895	800.000	-0.046	0.130
-446.880	-172.719	-0.192	-0.006
-445.865	-38.193	-0.157	0.084
-444.851	-39.806	-0.136	-0.072
-443.836	-200.000	-0.008	0.104
-442.822	-200.000	-0.012	-0.211
-441.807	-28.836	-0.196	0.114
-440.792	331.401	-0.188	0.367
-439.778	800.000	0.082	0.284
-438.763	78.378	-0.221	-0.239
-437.749	170.387	-0.206	0.298
-436.734	139.523	-0.140	0.186
-435.719	-64.947	0.015	-0.006
-434.705	-53.003	-0.178	0.083
-433.690	91.975	0.092	0.105
-432.676	-200.000	-0.006	0.327
-431.661	129.584	-0.165	-0.214
-430.646	-200.000	-0.043	0.198
-429.632	-200.000	0.007	0.126
-428.617	745.512	0.105	-0.285
-427.603	20.757	0.074	-0.060
-426.588	-200.000	0.020	0.230
-425.573	-42.925	-0.277	0.142
-424.559	16.928	0.282	0.226
-423.544	2.357	-0.096	-0.070
-422.530	38.512	-0.226	-0.203
-421.515	285.000	-0.149	-0.271
-420.500	111.034	-0.134	-0.163
-419.486	-200.000	0.049	0.286
-418.471	-4.455	0.252	0.176
-417.457	800.000	-0.003	0.013
-416.442	2.751	0.239	-0.175
-415.428	-56.535	-0.104	-0.046
-414.413	137.239	0.112	0.148
-413.398	134.110	0.121	-0.158
-412.384	312.978	-0.161	-0.306
-411.369	86.032	0.044	-0.048
-410.355	692.961	0.100	-0.265
-409.340	-93.538	-0.031	-0.009
-408.325	-200.000	-0.007	0.214
-407.311	-82.137	-0.365	-0.120
-406.296	48.669	-0.314	0.297
-405.282	-144.332	0.384	-0.036
-404.267	35.514	0.131	-0.116
-403.252	21.852	-0.318	0.261
-402.238	6.637	0.304	0.228
-401.223	-121.251	-0.153	-0.026
-400.209	-71.844	-0.127	-0.048
-399.194	800.000	0.060	-0.213
-398.179	-152.455	-0.272	-0.020
-397.165	126.078	0.155	-0.198
-396.150	-98.349	0.336	0.087
-395.136	-200.000	0.031	-0.174
-394.121	297.302	-0.155	-0.288
-393.106	800.000	-0.041	0.137
-392.092	-2.151	0.246	0.174
-391.077	-200.000	-0.061	0.505
-390.063	537.928	0.109	0.261
-389.048	-193.431	-0.142	0.001
-388.033	-200.000	-0.040	0.404
-387.019	-33.036	-0.298	0.167
-386.004	-19.831	0.206	-0.128
-384.990	-172.612	-0.213	-0.007
-383.975	79.756	-0.048	-0.052
-382.960	-149.614	-0.117	-0.009
-381.946	283.219	0.122	0.221
-380.931	-91.092	-0.242	-0.070
-379.917	-129.506	-0.274	-0.038
-378.902	800.000	-0.038	0.143
-377.888	88.473	-0.157	-0.176
-376.873	-73.800	-0.227	0.083
-375.858	-182.911	-0.147	-0.003
-374.844	27.155	0.240	0.203
-373.829	452.628	0.075	0.166
-372.815	800.000	0.025	0.090
-371.800	800.000	0.060	-0.223
-370.785	-88.970	0.368	0.110
-369.771	-31.027	0.299	0.170
-368.756	157.400	-0.048	-0.067
-367.742	-200.000	0.021	0.175
-366.727	-200.000	0.006	-0.069
-365.712	359.510	0.154	-0.311
-364.698	-129.478	0.279	-0.039
-363.683	47.343	-0.046	0.043
-362.669	-200.000	-0.029	0.176
-361.654	149.775	0.133	0.182
-360.639	-79.540	0.254	0.087
-359.625	-16.243	0.169	-0.108
-358.610	-200.000	0.012	-0.194
-357.596	35.165	0.300	-0.265
-356.581	222.967	0.160	0.260
-355.566	-200.000	0.003	-0.228
-354.552	97.766	0.184	0.213
-353.537	-146.606	-0.125	0.011
-352.523	-185.378	0.169	-0.003
-351.508	-44.016	-0.047	-0.024
-350.493	800.000	-0.049	-0.198
-349.479	-154.625	0.018	-0.001
-348.464	35.550	-0.106	-0.094
-347.450	106.005	-0.070	0.084
-346.435	-72.313	-0.352	0.131
-345.420	633.303	0.099	0.252
-344.406	407.054	0.149	0.317
-343.391	134.047	0.142	0.186
-342.377	55.069	-0.098	0.096
-341.362	490.053	-0.132	-0.304
-340.348	-200.000	-0.035	0.316
-339.333	794.972	0.071	0.198
-338.318	800.000	0.129	-0.361
-337.304	800.000	0.065	-0.245
-336.289	-24.500	-0.433	-0.260
-335.275	-117.769	0.322	-0.058
-334.260	-113.405	0.129	-0.025
-333.245	-183.180	0.175	-0.003
-332.231	-200.000	-0.012	0.068
-331.216	-122.578	0.306	0.050
-330.202	-35.957	-0.124	0.068
-329.187	-53.853	-0.127	-0.058
-328.172	488.061	0.124	-0.285
-327.158	-114.691	0.175	0.034
-326.143	54.640	0.112	-0.109
-325.129	49.635	0.097	-0.092
-324.114	800.000	0.087	-0.350
-323.099	300.599	-0.151	0.281
-322.085	-200.000	0.000	0.253
-321.070	-48.372	-0.157	0.076
-320.056	328.368	-0.173	-0.335
-319.041	-41.796	-0.041	0.021
-318.026	33.194	-0.084	0.073
-317.012	-5.248	-0.160	0.111
-315.997	800.000	-0.119	-0.478
-314.983	22.656	-0.220	-0.181
-313.968	168.709	0.107	0.154
-312.953	755.999	-0.053	0.145
-311.939	91.906	0.152	0.172
-310.924	10.861	0.220	-0.169
-309.910	-161.714	-0.239	-0.012
-308.895	-184.539	0.164	0.003
-307.880	157.306	-0.112	0.156
-306.866	104.933	-0.139	0.165
-305.851	-200.000	0.030	-0.177
-304.837	-4.147	-0.325	0.226
-303.822	-150.962	0.081	-0.006
-302.807	800.000	0.069	-0.255
-301.793	-200.000	-0.001	0.262
-300.778	-170.038	0.137	-0.005
-299.764	481.081	-0.071	0.163
-298.749	113.019	0.087	0.106
-297.735	-186.088	-0.217	-0.003
-296.720	-86.574	0.329	0.102
-295.705	-59.344	0.253	0.109
-294.691	800.000	-0.015	0.066
-293.676	-70.524	0.065	-0.025
-292.662	-200.000	0.023	0.173
-291.647	-18.004	0.144	0.091
-290.632	21.260	0.162	0.133
-289.618	73.594	-0.233	0.246
-288.603	116.208	0.060	-0.074
-287.589	22.225	0.109	-0.090
-286.574	172.561	-0.303	0.438
-285.559	800.000	0.052	-0.188
-284.545	-121.748	0.177	0.029
-283.530	100.994	-0.134	-0.156
-282.516	172.940	0.177	0.256
-281.501	-123.082	-0.091	0.015
-280.486	29.935	-0.366	0.314
-279.472	59.022	0.018	0.018
-278.457	-51.599	0.095	-0.045
-277.443	-50.393	-0.193	0.092
-276.428	-53.198	-0.090	-0.041
-275.413	-94.019	-0.101	-0.028
-274.399	347.035	0.027	-0.054
-273.384	-29.543	-0.059	-0.034
-272.370	-51.181	-0.207	0.097
-271.355	161.005	0.029	-0.041
-270.340	800.000	-0.086	-0.288
-269.326	373.613	0.158	-0.322
-268.311	220.543	-0.233	0.375
-267.297	83.529	0.092	-0.101
-266.282	-200.000	-0.029	-0.225
-265.267	776.233	-0.071	-0.194
-264.253	800.000	-0.062	-0.199
-263.238	-99.625	-0.111	-0.028
-262.224	-200.000	-0.019	-0.226
-261.209	38.794	0.048	-0.043
-260.195	454.757	-0.024	-0.054
-259.180	28.046	0.050	0.042
-258.165	22.470	-0.208	0.171
-257.151	42.851	0.170	0.155
-256.136	-200.000	0.052	0.363
-255.122	187.203	-0.134	0.201
-254.107	-140.547	0.041	-0.004
-253.092	126.259	-0.170	-0.216
-252.078	267.441	-0.032	0.056
-251.063	-93.937	-0.064	0.018
-250.049	-116.153	0.300	-0.056
-249.034	-142.873	-0.285	0.028
-248.019	226.515	-0.134	-0.218
-247.005	7.915	-0.159	0.120
-245.990	794.703	-0.057	-0.158
-244.976	-33.714	0.212	0.117
-243.961	269.934	0.044	-0.077
-242.946	800.000	0.094	-0.293
-241.932	-140.678	0.407	-0.042
-240.917	800.000	-0.062	-0.206
-239.903	-132.195	-0.319	0.042
-238.888	101.045	-0.249	-0.290
-237.873	112.545	0.178	-0.216
-236.859	246.655	-0.060	-0.102
-235.844	249.341	0.010	0.017
-234.830	279.843	-0.087	0.157
-233.815	-149.668	0.201	-0.016
-232.800	800.000	-0.067	-0.236
-231.786	554.088	-0.100	-0.241
-230.771	258.000	-0.132	0.227
-229.757	70.474	-0.081	0.084
-228.742	-84.117	-0.249	0.079
-227.727	481.160	0.078	0.178
-226.713	800.000	-0.020	-0.068
-225.698	-137.640	-0.259	0.029
-224.684	244.133	-0.146	0.246
-223.669	-91.400	0.408	0.117
-222.655	-70.975	0.034	-0.013
-221.640	-45.381	-0.214	-0.106
-220.625	-136.265	0.196	-0.023
-219.611	63.168	-0.069	-0.069
-218.596	-200.000	-0.007	-0.045
-217.582	198.982	-0.086	0.133
-216.567	-200.000	-0.040	0.276
-215.552	-200.000	0.014	-0.120
-214.538	192.244	-0.063	0.096
-213.523	578.583	0.149	0.366
-212.509	-98.847	0.291	-0.074
-211.494	164.558	0.125	-0.176
-210.479	-9.285	-0.091	-0.061
-209.465	-180.091	0.300	0.006
-208.450	-96.850	0.299	0.079
-207.436	34.461	-0.133	0.116
-206.421	100.577	-0.041	0.048
-205.406	388.571	-0.117	-0.242
-204.392	-152.762	0.047	0.003
-203.377	489.897	-0.096	0.220
-202.363	5.072	0.131	0.096
-201.348	172.073	-0.208	0.300
-200.333	-74.769	-0.344	0.124
-199.319	84.119	0.176	0.193
-198.304	419.324	0.136	0.292
-197.290	-148.810	0.040	-0.003
-196.275	-65.055	0.335	-0.135
-195.260	313.044	-0.112	-0.210
-194.246	-10.321	-0.114	-0.076
-193.231	-138.527	-0.132	0.015
-192.217	-106.305	-0.516	-0.116
-191.202	-73.706	-0.257	-0.094
-190.187	800.000	0.027	0.087
-189.173	64.403	0.410	-0.414
-188.158	106.021	0.334	0.396
-187.144	-59.088	0.335	0.145
-186.129	-2.394	-0.328	0.230
-185.114	-200.000	0.308	0.001
-184.100	-25.795	0.084	0.050
-183.085	662.584	0.068	0.174
-182.071	207.877	-0.040	0.063
-181.056	800.000	-0.084	-0.270
-180.042	-200.000	-0.064	0.282
-179.027	-36.894	-0.256	-0.137
-178.012	-104.831	0.276	-0.064
-176.998	65.302	0.244	0.247
-175.983	-142.318	0.182	0.018
-174.969	786.554	0.089	0.243
-173.954	413.590	-0.146	0.311
-172.939	800.000	0.013	0.054
-171.925	-148.129	-0.314	-0.026
-170.910	59.127	-0.125	-0.123
-169.896	276.056	0.098	-0.174
-168.881	0.857	-0.250	0.179
-167.866	120.557	-0.165	-0.205
-166.852	399.045	0.045	0.094
-165.837	-111.513	0.411	-0.084
-164.823	48.848	0.179	0.168
-163.808	-42.530	0.161	0.082
-162.793	314.511	0.086	-0.161
-161.779	-65.323	-0.256	-0.103
-160.764	-26.714	0.046	-0.027
-159.750	-200.000	-0.016	-0.094
-158.735	-25.163	0.075	-0.045
-157.720	73.065	-0.102	0.107
-156.706	-79.003	0.160	-0.054
-155.691	800.000	-0.038	0.134
-154.677	37.362	-0.178	-0.158
-153.662	-200.000	0.026	0.433
-152.647	-200.000	0.008	-0.052
-151.633	510.300	0.112	0.259
-150.618	-77.017	0.130	-0.045
-149.604	-200.000	-0.013	0.357
-148.589	-40.185	0.112	0.058
-147.574	-31.627	0.166	0.093
-146.560	-200.000	-0.007	-0.049
-145.545	1.743	-0.170	0.123
-144.531	122.814	0.138	-0.173
-143.516	-54.189	0.145	0.066
-142.502	151.212	0.129	0.176
-141.487	-200.000	0.082	0.388
-140.472	800.000	-0.043	-0.172
-139.458	709.360	0.062	-0.164
-138.443	-103.854	-0.025	-0.006
-137.429	169.470	0.024	-0.034
-136.414	-44.261	0.163	0.082
-135.399	33.454	-0.462	-0.401
-134.385	-87.655	-0.285	-0.086
-133.370	28.406	0.108	-0.091
-132.356	43.724	-0.097	0.088
-131.341	-70.728	0.279	0.105
-130.326	32.024	0.212	-0.183
-129.312	626.713	0.096	0.241
-128.297	-200.000	0.023	-0.174
-127.283	-52.490	0.116	-0.053
-126.268	-20.623	0.071	-0.043
-125.253	139.967	-0.113	0.149
-124.239	10.614	-0.117	-0.089
-123.224	26.530	-0.156	-0.131
-122.210	-200.000	-0.046	0.236
-121.195	800.000	0.035	-0.106
