DTS Sentinel unit serial number:	SN413079Multiplexer serial number:	ORYXHardware model number:	OX4-SRSoftware version number:	ORYX F/W v4.00 Oryx Data Collector v3.7.2.0data status	okinstallation	princeton_trtdifferential loss correction	single-endedforward channel	channel 4reverse channel	N/Adate	2019/09/13time	07:09:35forward acquisition time	60.00reverse acquisition time	0.00gamma	496.2192k internal	0.2323k external	0.2323temperature offset calibration	1.0200default loss term (dB/km)	0.3790temperature slope calibration	1.0000multiplexer offset coefficient	1.0000multiplexer slope coefficient	1.0000fibre end	0.00T internal ref (°C)	26.00T ext. ref 1 (°C)	4.14T ext. ref 2 (°C)	21.31length (m)	temperature (°C)	Stokes	anti-Stokes-747.200	-14.402	-0.106	-0.069
-746.185	659.249	0.060	-0.156
-745.171	59.215	0.107	-0.106
-744.156	-43.483	0.076	-0.039
-743.142	-87.535	0.286	0.087
-742.127	368.234	-0.069	-0.140
-741.112	-77.790	0.096	0.034
-740.098	51.987	-0.252	0.242
-739.083	256.634	0.170	0.294
-738.069	563.968	0.152	0.372
-737.054	-76.477	0.245	-0.087
-736.039	22.643	-0.128	-0.106
-735.025	-150.338	-0.251	-0.020
-734.010	26.903	0.252	-0.213
-732.996	192.592	-0.083	-0.127
-731.981	-200.000	0.013	0.094
-730.966	-106.722	-0.235	0.053
-729.952	-66.855	-0.345	-0.138
-728.937	446.904	0.114	0.253
-727.923	573.336	0.017	0.043
-726.908	442.428	0.036	-0.080
-725.894	800.000	-0.078	0.267
-724.879	436.395	0.036	-0.080
-723.864	-88.927	0.320	-0.096
-722.850	152.491	-0.086	0.119
-721.835	-200.000	0.012	0.099
-720.821	49.175	-0.179	-0.170
-719.806	-43.827	-0.240	-0.122
-718.791	202.404	-0.072	0.112
-717.777	489.882	0.246	-0.568
-716.762	-200.000	-0.008	-0.284
-715.748	103.496	0.106	0.125
-714.733	-76.768	-0.346	-0.122
-713.718	140.633	-0.054	0.072
-712.704	192.895	0.215	-0.328
-711.689	-88.193	-0.214	-0.065
-710.675	-35.907	-0.064	0.035
-709.660	-173.630	0.294	-0.009
-708.645	163.446	-0.036	-0.052
-707.631	-200.000	-0.053	0.313
-706.616	-185.658	0.250	-0.004
-705.602	687.362	0.089	-0.236
-704.587	-200.000	0.036	-0.175
-703.572	-110.395	-0.401	0.084
-702.558	294.270	-0.037	0.068
-701.543	655.122	-0.090	0.233
-700.529	81.221	-0.074	0.080
-699.514	-132.671	0.134	0.017
-698.499	-96.332	0.215	0.057
-697.485	-143.492	-0.463	-0.045
-696.470	800.000	-0.067	-0.256
-695.456	-66.798	-0.259	0.103
-694.441	-200.000	0.014	-0.145
-693.426	377.046	0.314	-0.647
-692.412	-200.000	-0.074	-0.501
-691.397	-101.534	0.374	-0.092
-690.383	15.982	-0.049	-0.039
-689.368	328.715	0.151	-0.292
-688.354	253.383	0.048	-0.082
-687.339	-6.310	0.222	-0.153
-686.324	-200.000	0.038	0.221
-685.310	-92.329	-0.112	-0.032
-684.295	-200.000	0.058	-0.373
-683.281	-154.755	0.389	-0.026
-682.266	-200.000	0.006	0.050
-681.251	14.775	0.171	0.135
-680.237	800.000	-0.088	0.289
-679.222	-99.052	0.186	0.047
-678.208	-114.984	-0.047	0.009
-677.193	-146.758	-0.136	-0.012
-676.178	800.000	-0.078	-0.238
-675.164	-134.988	0.167	-0.020
-674.149	-39.197	-0.037	0.020
-673.135	-104.920	-0.172	-0.040
-672.120	-40.636	-0.141	-0.074
-671.105	767.058	-0.105	-0.286
-670.091	353.683	0.174	0.347
-669.076	25.290	0.136	-0.114
-668.062	-101.777	0.073	-0.018
-667.047	38.272	0.144	0.129
-666.032	-200.000	-0.008	-0.156
-665.018	-169.052	0.064	0.002
-664.003	13.985	-0.089	0.070
-662.989	-114.216	0.381	0.074
-661.974	-121.179	-0.136	-0.023
-660.959	223.843	-0.192	-0.311
-659.945	-71.238	0.422	0.159
-658.930	800.000	-0.135	-0.399
-657.916	26.490	0.288	-0.243
-656.901	-200.000	-0.017	-0.378
-655.886	-200.000	-0.003	-0.046
-654.872	800.000	0.047	0.170
-653.857	208.841	-0.087	-0.137
-652.843	-83.992	-0.343	0.110
-651.828	800.000	-0.020	-0.057
-650.814	-200.000	-0.007	-0.120
-649.799	346.562	0.066	0.131
-648.784	-104.551	0.396	0.092
-647.770	638.697	0.089	0.229
-646.755	-151.854	-0.236	0.017
-645.741	-200.000	0.001	-0.200
-644.726	-200.000	-0.057	-0.305
-643.711	613.181	-0.052	-0.131
-642.697	-161.014	0.399	-0.021
-641.682	82.788	0.113	-0.123
-640.668	-200.000	0.024	-0.286
-639.653	-139.687	-0.094	-0.010
-638.638	-150.371	0.312	-0.024
-637.624	-149.383	-0.166	-0.013
-636.609	-173.462	0.221	0.007
-635.595	-116.613	-0.070	-0.013
-634.580	-164.409	-0.320	0.015
-633.565	-60.221	0.133	0.057
-632.551	-56.417	-0.185	-0.083
-631.536	34.354	0.020	-0.017
-630.522	-200.000	0.009	0.057
-629.507	-10.221	-0.245	0.163
-628.492	-200.000	0.032	-0.347
-627.478	-200.000	0.028	-0.267
-626.463	-47.520	0.167	0.082
-625.449	-200.000	0.005	0.047
-624.434	119.624	0.197	0.246
-623.419	3.828	0.019	0.014
-622.405	298.710	0.163	0.302
-621.390	10.878	-0.168	0.129
-620.376	-36.769	0.176	0.095
-619.361	165.330	0.053	-0.075
-618.346	800.000	0.029	0.094
-617.332	-57.347	0.227	-0.100
-616.317	-96.713	-0.042	0.011
-615.303	147.879	-0.147	-0.199
-614.288	-200.000	0.017	-0.191
-613.273	24.784	-0.042	0.035
-612.259	-200.000	0.027	0.498
-611.244	-44.551	-0.274	-0.138
-610.230	-43.602	0.079	-0.040
-609.215	-10.920	0.219	-0.145
-608.201	-190.452	-0.107	-0.001
-607.186	-124.930	0.203	-0.031
-606.171	-46.382	0.058	0.029
-605.157	-127.337	0.328	0.048
-604.142	9.227	-0.368	-0.279
-603.128	-20.563	0.330	-0.204
-602.113	240.249	-0.206	-0.344
-601.098	800.000	-0.054	-0.204
-600.084	-200.000	0.014	-0.150
-599.069	98.077	0.138	-0.160
-598.055	196.967	-0.139	0.213
-597.040	-6.234	0.336	0.230
-596.025	-200.000	-0.013	-0.248
-595.011	52.176	-0.234	0.224
-593.996	-200.000	-0.037	0.218
-592.982	-4.955	-0.261	-0.180
-591.967	-200.000	0.049	-0.387
-590.952	-200.000	0.001	0.254
-589.938	-39.720	0.138	-0.072
-588.923	-177.001	-0.120	0.003
-587.909	-84.180	-0.118	-0.038
-586.894	-33.580	-0.060	-0.033
-585.879	-101.156	0.226	0.055
-584.865	800.000	0.049	0.156
-583.850	-200.000	0.037	-0.347
-582.836	-200.000	-0.047	-0.220
-581.821	289.069	-0.051	0.094
-580.806	-78.500	-0.082	0.028
-579.792	-27.111	0.164	0.096
-578.777	93.646	-0.088	-0.100
-577.763	800.000	0.022	0.072
-576.748	-200.000	-0.001	-0.214
-575.733	-53.619	0.019	-0.009
-574.719	-66.150	0.263	-0.105
-573.704	-21.856	-0.175	0.107
-572.690	-98.727	-0.353	-0.090
-571.675	-124.833	-0.353	-0.055
-570.661	-51.859	-0.073	-0.034
-569.646	-126.578	-0.088	0.013
-568.631	684.470	-0.060	-0.158
-567.617	71.133	0.263	-0.274
-566.602	800.000	0.028	-0.085
-565.588	186.245	-0.070	-0.104
-564.573	-200.000	0.034	-0.174
-563.558	81.011	0.174	-0.188
-562.544	-1.034	0.314	0.223
-561.529	-64.002	-0.180	-0.074
-560.515	-200.000	-0.012	0.130
-559.500	-141.599	0.326	0.033
-558.485	75.937	0.182	-0.193
-557.471	-14.079	-0.321	-0.208
-556.456	800.000	-0.053	-0.226
-555.442	-139.993	0.114	0.012
-554.427	79.419	-0.252	0.271
-553.412	-8.965	0.114	-0.076
-552.398	-119.336	-0.095	-0.017
-551.383	282.781	-0.113	0.204
-550.369	29.606	-0.222	-0.189
-549.354	-200.000	-0.350	0.001
-548.339	-200.000	-0.011	-0.175
-547.325	-200.000	-0.038	-0.463
-546.310	-85.889	-0.272	0.084
-545.296	-151.146	0.219	0.017
-544.281	269.904	-0.219	-0.385
-543.266	-161.932	0.449	0.023
-542.252	274.836	-0.081	0.144
-541.237	97.338	0.111	0.128
-540.223	-68.092	-0.053	-0.021
-539.208	115.701	0.121	-0.148
-538.193	35.956	-0.160	-0.141
-537.179	-119.638	-0.074	-0.013
-536.164	219.334	0.128	-0.205
-535.150	-71.721	-0.322	0.120
-534.135	175.947	0.132	0.192
-533.121	-163.317	0.331	-0.016
-532.106	800.000	-0.037	0.118
-531.091	390.603	0.086	-0.178
-530.077	-200.000	0.090	0.397
-529.062	7.965	-0.040	-0.030
-528.048	-45.413	-0.156	0.078
-527.033	800.000	-0.032	0.095
-526.018	800.000	0.124	-0.345
-525.004	344.371	-0.042	-0.082
-523.989	491.942	-0.127	0.291
-522.975	-94.656	-0.081	0.022
-521.960	490.623	0.123	-0.282
-520.945	-140.771	-0.103	-0.011
-519.931	-99.082	-0.258	-0.065
-518.916	-141.965	-0.081	0.008
-517.902	155.402	0.197	-0.272
-516.887	-7.157	0.224	0.152
-515.872	-200.000	-0.008	0.090
-514.858	-144.236	0.285	0.027
-513.843	800.000	0.095	0.294
-512.829	-200.000	0.009	0.365
-511.814	33.776	-0.050	-0.043
-510.799	119.512	-0.224	0.278
-509.785	-200.000	-0.010	-0.402
-508.770	-200.000	-0.005	0.064
-507.756	-117.652	-0.361	-0.065
-506.741	800.000	-0.038	-0.126
-505.726	512.904	0.099	0.231
-504.712	800.000	-0.104	-0.351
-503.697	106.096	-0.101	-0.120
-502.683	-200.000	-0.055	-0.343
-501.668	132.943	0.064	-0.083
-500.653	-200.000	0.010	-0.134
-499.639	-63.421	0.164	-0.068
-498.624	-136.301	0.262	-0.031
-497.610	757.094	-0.087	-0.234
-496.595	-200.000	0.024	-0.229
-495.581	245.602	0.112	-0.188
-494.566	-200.000	-0.079	0.372
-493.551	53.924	-0.253	-0.243
-492.537	-89.501	-0.407	-0.120
-491.522	7.381	0.088	0.066
-490.508	-53.396	-0.161	0.074
-489.493	56.371	-0.141	0.137
-488.478	173.036	0.122	-0.176
-487.464	251.823	0.046	-0.078
-486.449	47.613	-0.109	-0.102
-485.435	-7.482	0.107	-0.072
-484.420	439.081	0.042	-0.092
-483.405	48.714	0.126	-0.118
-482.391	12.814	0.392	-0.303
-481.376	234.949	0.060	-0.098
-480.362	-111.388	0.084	-0.017
-479.347	211.047	0.129	0.203
-478.332	-200.000	0.013	-0.152
-477.318	-200.000	-0.071	-0.328
-476.303	-70.261	-0.113	0.043
-475.289	-113.887	0.333	-0.065
-474.274	-113.847	0.309	-0.060
-473.259	-94.599	-0.067	-0.018
-472.245	56.358	-0.099	0.096
-471.230	800.000	0.084	0.266
-470.216	294.026	-0.246	-0.449
-469.201	-39.493	0.158	0.083
-468.186	74.606	0.046	0.048
-467.172	299.032	-0.055	-0.101
-466.157	-200.000	0.061	0.297
-465.143	15.933	0.207	-0.163
-464.128	-98.063	0.166	0.043
-463.113	23.791	-0.021	-0.018
-462.099	-110.306	0.047	0.010
-461.084	-89.287	-0.315	0.093
-460.070	52.017	0.142	-0.135
-459.055	623.427	0.070	0.175
-458.040	176.704	0.132	-0.192
-457.026	-137.137	-0.166	0.019
-456.011	41.807	-0.174	0.158
-454.997	87.124	0.202	-0.223
-453.982	-200.000	0.016	-0.089
-452.968	57.041	-0.121	0.118
-451.953	43.238	0.261	-0.238
-450.938	-44.163	-0.296	0.148
-449.924	-127.257	-0.286	-0.042
-448.909	-94.092	-0.242	-0.066
-447.895	193.570	0.163	0.247
-446.880	-200.000	-0.002	-0.067
-445.865	-17.089	0.253	0.159
-444.851	36.749	0.264	-0.233
-443.836	-70.438	-0.133	-0.050
-442.822	-79.409	0.396	-0.134
-441.807	-77.253	0.310	0.108
-440.792	81.006	0.179	0.192
-439.778	144.513	-0.364	0.485
-438.763	180.535	0.084	-0.123
-437.749	379.169	-0.210	-0.429
-436.734	-96.759	0.089	0.023
-435.719	164.444	0.046	0.065
-434.705	107.146	-0.144	0.171
-433.690	12.443	0.114	-0.088
-432.676	-35.336	0.170	-0.092
-431.661	125.622	-0.257	0.324
-430.646	-200.000	0.019	0.161
-429.632	13.019	0.162	-0.125
-428.617	137.779	-0.271	0.353
-427.603	168.150	0.021	0.030
-426.588	-196.726	-0.261	-0.002
-425.573	393.511	0.129	-0.268
-424.559	800.000	0.049	-0.211
-423.544	37.486	0.134	-0.119
-422.530	314.212	-0.155	0.290
-421.515	121.449	-0.086	0.106
-420.500	70.744	-0.168	0.173
-419.486	-10.812	0.203	0.133
-418.471	800.000	0.087	-0.272
-417.457	800.000	-0.045	-0.158
-416.442	95.427	0.171	0.195
-415.428	-185.519	-0.263	-0.004
-414.413	90.241	0.185	-0.206
-413.398	375.253	-0.071	0.145
-412.384	43.123	0.054	-0.050
-411.369	-87.055	-0.119	0.036
-410.355	800.000	-0.051	-0.179
-409.340	43.176	-0.060	-0.055
-408.325	36.371	0.114	-0.100
-407.311	-200.000	-0.000	-0.066
-406.296	-63.769	0.302	0.123
-405.282	800.000	0.016	0.051
-404.267	-112.297	0.505	-0.101
-403.252	-70.230	-0.133	0.050
-402.238	-30.791	0.204	0.115
-401.223	-87.780	0.190	0.057
-400.209	-200.000	-0.036	0.198
-399.194	23.618	-0.297	-0.244
-398.179	-66.455	0.267	0.106
-397.165	355.247	0.096	0.190
-396.150	800.000	0.015	0.055
-395.136	97.129	-0.365	0.417
-394.121	157.879	-0.126	0.174
-393.106	40.431	0.028	-0.025
-392.092	-44.208	0.398	-0.199
-391.077	255.569	0.253	0.432
-390.063	-105.883	-0.358	0.080
-389.048	694.973	-0.018	-0.047
-388.033	-71.271	-0.070	0.026
-387.019	-147.466	-0.454	0.038
-386.004	341.838	-0.170	-0.330
-384.990	-43.746	-0.323	0.162
-383.975	-71.507	-0.167	0.062
-382.960	372.818	-0.128	0.259
-381.946	-200.000	0.001	-0.024
-380.931	-105.226	0.071	0.016
-379.917	-36.519	-0.241	-0.129
-378.902	-108.405	-0.097	-0.021
-377.888	-19.612	-0.081	-0.050
-376.873	-97.591	-0.234	0.060
-375.858	61.982	-0.128	0.127
-374.844	-187.791	0.169	-0.002
-373.829	118.308	-0.078	0.096
-372.815	-200.000	0.035	-0.202
-371.800	5.445	-0.308	-0.226
-370.785	24.643	0.223	0.184
-369.771	184.454	0.097	0.143
-368.756	-48.323	-0.274	0.132
-367.742	238.181	0.041	-0.068
-366.727	-149.596	-0.094	-0.007
-365.712	45.426	-0.232	0.213
-364.698	199.647	-0.031	0.047
-363.683	-148.487	-0.205	0.017
-362.669	14.870	0.155	0.121
-361.654	100.273	-0.185	0.214
-360.639	-200.000	0.016	0.324
-359.625	-200.000	-0.006	-0.029
-358.610	-200.000	0.006	-0.155
-357.596	-200.000	-0.067	-0.425
-356.581	-90.257	-0.244	0.070
-355.566	306.492	-0.032	-0.059
-354.552	800.000	-0.064	-0.181
-353.537	-11.341	0.085	0.056
-352.523	77.652	-0.158	0.167
-351.508	-200.000	0.014	-0.392
-350.493	-200.000	0.047	0.239
-349.479	200.349	0.116	0.178
-348.464	-63.926	0.580	0.236
-347.450	72.701	0.291	0.302
-346.435	298.948	0.041	0.075
-345.420	22.039	0.201	0.163
-344.406	123.853	-0.202	0.252
-343.391	-2.585	-0.237	0.165
-342.377	-44.681	-0.117	-0.058
-341.362	-11.239	-0.098	0.064
-340.348	-200.000	-0.002	-0.032
-339.333	-200.000	-0.030	0.204
-338.318	2.570	-0.125	0.090
-337.304	68.505	-0.152	-0.155
-336.289	145.344	0.127	0.168
-335.275	-82.009	-0.504	-0.164
-334.260	256.961	-0.245	-0.419
-333.245	800.000	0.083	-0.240
-332.231	9.760	0.124	-0.093
-331.216	690.113	0.079	0.206
-330.202	9.535	-0.244	-0.184
-329.187	-29.334	0.180	-0.102
-328.172	-200.000	0.030	0.205
-327.158	800.000	-0.060	0.232
-326.143	345.176	-0.115	-0.224
-325.129	349.428	0.097	0.191
-324.114	-92.713	0.432	0.120
-323.099	149.864	0.234	0.315
-322.085	488.254	-0.141	-0.319
-321.070	86.332	0.152	0.166
-320.056	-200.000	-0.019	0.109
-319.041	-30.955	0.228	-0.128
-318.026	-62.554	-0.033	0.014
-317.012	20.633	-0.026	0.021
-315.997	408.624	0.099	-0.209
-314.983	-200.000	-0.002	-0.134
-313.968	762.075	-0.027	0.072
-312.953	-112.607	0.155	-0.031
-311.939	500.306	-0.078	0.178
-310.924	28.811	-0.178	0.150
-309.910	206.698	0.054	-0.084
-308.895	83.429	0.271	-0.293
-307.880	800.000	-0.047	-0.204
-306.866	292.551	-0.173	0.314
-305.851	-34.279	0.176	-0.096
-304.837	-9.551	0.060	-0.040
-303.822	129.974	0.013	0.017
-302.807	-200.000	-0.046	0.235
-301.793	69.384	0.120	-0.123
-300.778	202.152	0.044	0.067
-299.764	61.996	-0.128	0.127
-298.749	-200.000	0.029	0.150
-297.735	-200.000	-0.062	-0.287
-296.720	-93.225	0.325	0.090
-295.705	-163.734	0.070	-0.003
-294.691	1.685	0.269	0.192
-293.676	-88.351	0.157	0.047
-292.662	211.464	0.181	0.282
-291.647	-200.000	0.077	-0.449
-290.632	-200.000	0.301	-0.000
-289.618	208.003	0.273	0.423
-288.603	-36.619	-0.262	0.140
-287.589	-92.819	0.320	-0.089
-286.574	800.000	-0.068	0.195
-285.559	-134.666	-0.162	0.020
-284.545	-90.051	0.218	-0.063
-283.530	-200.000	0.013	0.198
-282.516	-57.003	-0.062	-0.027
-281.501	129.766	0.194	0.246
-280.486	526.113	0.085	0.198
-279.472	800.000	-0.038	0.124
-278.457	-200.000	0.021	-0.190
-277.443	24.648	0.084	-0.069
-276.428	95.132	0.093	0.105
-275.413	800.000	-0.126	0.362
-274.399	60.469	-0.175	0.172
-273.384	-57.408	-0.295	0.128
-272.370	-200.000	-0.001	0.030
-271.355	800.000	0.019	-0.065
-270.340	94.108	-0.214	-0.240
-269.326	-42.871	-0.113	-0.057
-268.311	157.059	0.032	-0.043
-267.297	800.000	-0.037	0.157
-266.282	688.185	-0.152	0.395
-265.267	102.335	0.098	-0.113
-264.253	732.642	0.145	0.384
-263.238	-42.946	-0.131	-0.066
-262.224	621.344	-0.077	0.191
-261.209	19.195	0.235	-0.187
-260.195	-110.801	-0.153	-0.031
-259.180	553.132	-0.142	0.338
-258.165	581.149	-0.090	0.220
-257.151	-200.000	-0.057	-0.000
-256.136	59.091	0.137	-0.133
-255.122	71.556	0.312	0.321
-254.107	340.467	-0.100	-0.193
-253.092	612.276	0.018	0.045
-252.078	-200.000	0.023	-0.264
-251.063	-66.048	-0.074	-0.029
-250.049	-123.839	-0.195	-0.031
-249.034	-143.830	0.163	-0.015
-248.019	-200.000	-0.012	0.216
-247.005	50.694	0.063	0.059
-245.990	128.329	0.137	-0.173
-244.976	108.411	-0.185	0.219
-243.961	800.000	0.020	-0.062
-242.946	341.473	0.115	-0.222
-241.932	109.752	0.307	0.364
-240.917	-200.000	-0.072	0.371
-239.903	-80.941	-0.098	-0.032
-238.888	-41.550	0.244	0.124
-237.873	101.770	-0.089	0.102
-236.859	1.748	-0.578	-0.412
-235.844	85.835	0.065	-0.071
-234.830	-200.000	0.009	0.042
-233.815	-179.342	0.118	0.003
-232.800	39.506	0.242	0.215
-231.786	537.638	0.113	0.265
-230.771	800.000	-0.035	-0.129
-229.757	-138.165	0.428	-0.047
-228.742	615.517	0.055	0.137
-227.727	196.567	0.136	-0.205
-226.713	501.588	0.077	-0.176
-225.698	294.750	-0.072	0.131
-224.684	800.000	0.109	0.304
-223.669	5.307	-0.097	0.070
-222.655	-23.549	-0.195	-0.116
-221.640	173.867	-0.069	-0.098
-220.625	-200.000	0.024	-0.234
-219.611	-162.662	-0.075	-0.004
-218.596	-94.387	-0.093	0.025
-217.582	800.000	0.092	0.301
-216.567	-69.136	-0.192	0.073
-215.552	-14.856	0.013	-0.009
-214.538	-141.354	0.114	0.011
-213.523	-20.821	-0.211	-0.128
-212.509	-106.275	-0.193	-0.043
-211.494	43.665	-0.018	0.017
-210.479	-33.649	-0.177	-0.097
-209.465	228.858	0.119	-0.191
-208.450	-44.045	-0.275	0.136
-207.436	-200.000	0.014	-0.076
-206.421	-51.942	0.083	-0.038
-205.406	-167.393	0.122	-0.005
-204.392	60.623	-0.082	0.080
-203.377	800.000	-0.048	0.169
-202.363	-200.000	-0.021	-0.126
-201.348	-200.000	0.005	0.111
-200.333	-200.000	-0.001	-0.062
-199.319	-10.359	0.038	0.025
-198.304	-147.906	-0.070	-0.006
-197.290	-154.691	-0.173	-0.011
-196.275	-100.931	-0.122	0.030
-195.260	-111.499	-0.165	-0.033
-194.246	-78.650	-0.159	0.054
-193.231	142.887	-0.090	-0.118
-192.217	74.796	-0.198	0.206
-191.202	197.877	0.142	-0.214
-190.187	-57.739	-0.293	-0.127
-189.173	-129.747	0.228	-0.031
-188.158	-200.000	0.009	-0.179
-187.144	607.836	-0.045	-0.112
-186.129	800.000	-0.056	0.187
-185.114	-200.000	0.046	0.407
-184.100	65.743	0.096	0.096
-183.085	526.017	-0.030	-0.070
-182.071	-42.176	0.032	-0.016
-181.056	174.498	-0.041	0.059
-180.042	-200.000	0.007	0.396
-179.027	-22.920	-0.260	0.155
-178.012	-50.924	0.336	0.156
-176.998	-200.000	-0.014	0.158
-175.983	800.000	0.036	-0.100
-174.969	86.394	-0.340	-0.370
-173.954	-200.000	0.003	0.216
-172.939	-53.991	0.253	0.114
-171.925	128.022	0.119	-0.150
-170.910	8.681	-0.155	-0.115
-169.896	131.477	-0.164	-0.208
-168.881	278.173	-0.258	-0.454
-167.866	-200.000	-0.013	-0.346
-166.852	262.715	-0.197	-0.337
-165.837	-97.575	0.232	-0.060
-164.823	-200.000	0.018	0.083
-163.808	-113.381	-0.126	0.024
-162.793	730.734	-0.098	0.258
-161.779	415.038	-0.124	-0.261
-160.764	-76.128	-0.215	-0.075
-159.750	800.000	-0.017	-0.066
-158.735	-200.000	-0.013	-0.097
-157.720	-200.000	0.012	0.257
-156.706	-200.000	0.040	-0.318
-155.691	-74.160	0.222	-0.079
-154.677	-200.000	0.064	0.432
-153.662	-200.000	0.291	0.001
-152.647	800.000	0.070	0.278
-151.633	-176.085	0.033	-0.001
-150.618	-200.000	-0.018	-0.280
-149.604	467.205	0.046	-0.101
-148.589	-90.470	-0.053	0.015
-147.574	239.224	0.116	-0.190
-146.560	-200.000	-0.052	-0.283
-145.545	-142.324	0.102	-0.010
-144.531	102.792	0.192	-0.222
-143.516	73.615	-0.149	-0.154
-142.502	-200.000	0.042	0.296
-141.487	-155.177	-0.127	0.008
-140.472	-128.352	-0.304	0.043
-139.458	-57.769	-0.220	-0.095
-138.443	-148.813	0.278	-0.022
-137.429	72.358	-0.234	-0.240
-136.414	440.124	-0.023	0.050
-135.399	-200.000	0.016	-0.135
-134.385	-200.000	0.039	0.197
-133.370	19.950	-0.194	-0.154
-132.356	533.804	0.115	-0.269
-131.341	48.678	0.272	-0.251
-130.326	88.911	0.092	-0.100
-129.312	800.000	-0.126	0.461
-128.297	-27.512	-0.130	0.074
-127.283	74.190	-0.070	-0.072
-126.268	-42.332	0.163	0.082
-125.253	-123.563	-0.194	-0.030
-124.239	-51.823	-0.372	0.171
-123.224	800.000	0.061	0.193
-122.210	800.000	-0.086	0.289
