DTS Sentinel unit serial number:	SN413079Multiplexer serial number:	ORYXHardware model number:	OX4-SRSoftware version number:	ORYX F/W v4.00 Oryx Data Collector v3.7.2.0data status	okinstallation	princeton_trtdifferential loss correction	single-endedforward channel	channel 4reverse channel	N/Adate	2019/09/10time	20:39:11forward acquisition time	60.00reverse acquisition time	0.00gamma	496.2192k internal	0.2312k external	0.2312temperature offset calibration	0.9948default loss term (dB/km)	0.3790temperature slope calibration	1.0000multiplexer offset coefficient	1.0000multiplexer slope coefficient	1.0000fibre end	0.00T internal ref (°C)	31.87T ext. ref 1 (°C)	-0.31T ext. ref 2 (°C)	25.33length (m)	temperature (°C)	Stokes	anti-Stokes-747.200	-67.750	0.269	0.107
-746.185	-200.000	-0.015	0.080
-745.171	-43.424	0.122	0.063
-744.156	-122.158	-0.376	-0.062
-743.142	-28.744	-0.199	0.116
-742.127	-4.601	0.177	-0.124
-741.112	-117.048	0.075	-0.014
-740.098	800.000	-0.128	0.408
-739.083	-58.779	-0.169	0.074
-738.069	88.739	-0.193	-0.218
-737.054	-63.405	0.466	0.194
-736.039	12.726	-0.016	-0.012
-735.025	265.173	0.109	0.193
-734.010	-0.556	-0.283	-0.204
-732.996	463.953	-0.121	-0.274
-731.981	1.721	0.183	-0.133
-730.966	18.867	0.172	0.139
-729.952	84.970	-0.097	-0.108
-728.937	-167.418	0.178	-0.007
-727.923	-200.000	-0.030	0.217
-726.908	-200.000	0.276	0.000
-725.894	342.116	-0.071	0.142
-724.879	-62.242	0.353	-0.149
-723.864	-200.000	-0.065	-0.469
-722.850	352.190	-0.133	-0.268
-721.835	-116.134	-0.273	-0.052
-720.821	360.674	-0.030	-0.062
-719.806	13.339	-0.174	-0.137
-718.791	-200.000	-0.008	-0.125
-717.777	-200.000	-0.034	-0.154
-716.762	-62.675	0.249	-0.105
-715.748	-200.000	0.004	0.036
-714.733	-104.746	0.156	-0.036
-713.718	506.448	0.096	-0.226
-712.704	758.473	-0.088	-0.241
-711.689	102.347	-0.087	-0.103
-710.675	-200.000	0.017	-0.256
-709.660	800.000	-0.051	-0.158
-708.645	-95.191	0.213	0.058
-707.631	-33.948	-0.125	0.070
-706.616	-122.704	0.252	-0.041
-705.602	50.139	0.292	-0.279
-704.587	800.000	0.052	-0.169
-703.572	-113.581	-0.194	-0.038
-702.558	-55.607	0.172	-0.078
-701.543	-200.000	-0.088	0.400
-700.529	-132.799	-0.052	0.007
-699.514	96.130	-0.316	-0.365
-698.499	-24.616	0.271	-0.163
-697.485	-200.000	-0.021	0.144
-696.470	-200.000	0.021	0.184
-695.456	-123.617	-0.287	-0.046
-694.441	-168.106	-0.169	-0.007
-693.426	-170.088	-0.081	0.003
-692.412	-200.000	0.011	0.111
-691.397	33.019	-0.062	0.055
-690.383	-173.467	-0.195	0.006
-689.368	40.933	-0.142	0.130
-688.354	-26.072	-0.371	-0.221
-687.339	-156.411	-0.323	0.020
-686.324	-90.662	0.106	-0.031
-685.310	-200.000	0.030	-0.259
-684.295	-40.198	0.215	-0.113
-683.281	-200.000	-0.037	0.356
-682.266	-200.000	0.038	0.204
-681.251	147.254	-0.185	-0.251
-680.237	-90.779	0.074	0.022
-679.222	-200.000	0.009	-0.075
-678.208	-200.000	-0.002	-0.035
-677.193	800.000	-0.008	0.026
-676.178	91.419	-0.066	0.076
-675.164	-200.000	0.070	-0.330
-674.149	71.886	0.160	-0.169
-673.135	-30.734	0.066	-0.038
-672.120	-200.000	0.110	0.489
-671.105	65.955	-0.104	0.107
-670.091	-77.515	-0.123	0.043
-669.076	-10.842	0.093	-0.062
-668.062	-200.000	0.009	0.356
-667.047	63.709	-0.206	0.209
-666.032	-24.882	-0.442	-0.265
-665.018	-101.434	-0.413	-0.102
-664.003	349.097	0.010	0.021
-662.989	-158.602	-0.108	-0.006
-661.974	-47.751	0.268	0.131
-660.959	-7.189	0.135	-0.092
-659.945	-47.012	-0.061	-0.030
-658.930	225.468	-0.044	0.072
-657.916	-146.991	0.084	0.007
-656.901	60.517	0.202	0.203
-655.886	800.000	-0.026	-0.100
-654.872	-196.989	0.151	0.001
-653.857	35.979	-0.124	-0.110
-652.843	86.201	-0.167	-0.186
-651.828	-82.264	-0.149	0.049
-650.814	355.417	-0.102	0.205
-649.799	-89.369	0.156	0.047
-648.784	264.904	-0.294	-0.517
-647.770	113.925	0.066	-0.082
-646.755	-61.047	0.226	0.097
-645.741	37.064	0.126	-0.112
-644.726	-149.492	0.156	-0.013
-643.711	800.000	-0.061	0.223
-642.697	129.815	-0.117	-0.151
-641.682	-77.663	-0.268	0.094
-640.668	-142.954	0.156	-0.015
-639.653	800.000	-0.047	-0.188
-638.638	-39.516	0.305	-0.161
-637.624	-200.000	-0.011	-0.252
-636.609	-200.000	-0.028	-0.207
-635.595	99.669	-0.206	0.240
-634.580	95.102	-0.129	0.149
-633.565	-0.471	-0.309	-0.221
-632.551	401.840	0.235	-0.499
-631.536	-53.529	-0.064	0.030
-630.522	-39.796	-0.189	-0.100
-629.507	370.015	0.089	0.182
-628.492	-200.000	-0.006	-0.419
-627.478	-200.000	-0.167	0.000
-626.463	70.456	-0.182	0.190
-625.449	-200.000	0.006	0.411
-624.434	458.931	0.099	0.223
-623.419	-150.648	-0.352	0.027
-622.405	179.386	-0.100	-0.147
-621.390	-120.452	0.140	-0.024
-620.376	-95.514	-0.052	0.014
-619.361	-29.827	-0.211	0.121
-618.346	-76.012	-0.323	0.115
-617.332	-34.013	0.188	-0.104
-616.317	-200.000	0.045	-0.318
-615.303	-26.413	0.360	-0.213
-614.288	244.137	0.076	0.129
-613.273	-89.048	0.287	-0.086
-612.259	-14.254	0.298	-0.194
-611.244	439.038	0.030	0.065
-610.230	403.707	0.242	-0.515
-609.215	800.000	0.036	0.125
-608.201	-200.000	-0.002	-0.171
-607.186	-200.000	0.172	0.001
-606.171	-138.358	-0.231	0.026
-605.157	654.425	-0.083	0.216
-604.142	-200.000	0.013	0.128
-603.128	-200.000	0.056	-0.307
-602.113	-93.482	-0.201	-0.056
-601.098	30.979	-0.379	0.328
-600.084	800.000	0.089	0.271
-599.069	-26.038	-0.211	-0.125
-598.055	800.000	0.033	-0.102
-597.040	-110.430	-0.246	-0.052
-596.025	-6.219	-0.262	0.180
-595.011	92.426	-0.266	0.302
-593.996	389.764	0.125	-0.262
-592.982	-34.048	0.080	0.044
-591.967	4.640	-0.102	-0.076
-590.952	-80.776	0.098	-0.033
-589.938	343.408	0.200	-0.396
-588.923	-34.905	-0.205	-0.113
-587.909	-66.233	-0.124	0.050
-586.894	389.185	0.129	0.271
-585.879	670.452	-0.102	0.267
-584.865	-9.040	0.439	-0.296
-583.850	-75.855	-0.165	-0.059
-582.836	-75.901	0.201	0.072
-581.821	-31.023	0.062	0.035
-580.806	-142.665	-0.113	-0.011
-579.792	-200.000	-0.019	0.174
-578.777	-93.874	0.274	0.076
-577.763	-2.295	-0.260	-0.184
-576.748	166.442	0.245	-0.350
-575.733	421.219	-0.073	0.159
-574.719	800.000	-0.098	0.371
-573.704	-200.000	-0.012	0.182
-572.690	-142.830	0.272	0.027
-571.675	-136.856	-0.565	-0.065
-570.661	218.881	-0.095	-0.153
-569.646	464.103	-0.064	0.144
-568.631	-75.765	0.134	0.048
-567.617	-200.000	0.004	-0.092
-566.602	698.846	-0.132	0.350
-565.588	154.946	0.110	0.152
-564.573	383.518	0.176	-0.365
-563.558	286.596	-0.168	-0.305
-562.544	-70.431	0.059	-0.022
-561.529	59.643	-0.339	-0.337
-560.515	-101.587	-0.562	-0.137
-559.500	373.710	-0.078	0.159
-558.485	-31.444	-0.070	-0.040
-557.471	65.787	-0.137	0.140
-556.456	0.770	0.077	-0.056
-555.442	548.710	0.051	-0.123
-554.427	161.420	-0.164	0.231
-553.412	800.000	-0.102	0.363
-552.398	-42.595	0.213	0.109
-551.383	40.168	0.072	0.065
-550.369	273.839	0.168	-0.299
-549.354	141.960	0.065	0.087
-548.339	-49.569	0.155	0.074
-547.325	-200.000	0.010	0.233
-546.310	-59.819	0.410	0.177
-545.296	800.000	0.039	0.161
-544.281	223.815	-0.065	-0.106
-543.266	782.352	-0.077	0.212
-542.252	36.236	0.195	0.173
-541.237	-98.793	0.129	-0.033
-540.223	627.558	-0.077	0.196
-539.208	472.176	0.130	-0.295
-538.193	143.980	-0.231	0.311
-537.179	234.807	-0.179	0.297
-536.164	-198.879	0.352	0.002
-535.150	800.000	0.022	-0.087
-534.135	39.900	-0.239	-0.216
-533.121	253.471	0.072	0.124
-532.106	-165.223	-0.187	-0.008
-531.091	-14.914	-0.292	0.189
-530.077	546.547	-0.060	0.143
-529.062	-12.410	-0.052	-0.034
-528.048	-21.732	-0.229	-0.140
-527.033	116.047	-0.086	0.106
-526.018	307.514	-0.077	-0.145
-525.004	-50.770	0.053	-0.025
-523.989	415.807	-0.064	-0.136
-522.975	-29.685	0.110	-0.063
-521.960	-106.511	0.342	0.077
-520.945	-146.529	-0.135	0.012
-519.931	-82.401	0.288	-0.094
-518.916	217.547	-0.268	-0.430
-517.902	-138.852	-0.340	-0.037
-516.887	97.234	0.150	0.173
-515.872	75.070	0.084	-0.089
-514.858	342.930	-0.034	0.066
-513.843	-79.687	-0.022	0.008
-512.829	85.836	-0.194	-0.215
-511.814	-46.444	-0.142	-0.070
-510.799	37.250	-0.278	-0.248
-509.785	800.000	-0.062	-0.173
-508.770	-71.168	-0.104	0.039
-507.756	-93.382	0.202	0.056
-506.741	-21.008	0.392	-0.241
-505.726	800.000	0.096	0.268
-504.712	71.529	0.219	0.229
-503.697	-143.968	-0.281	-0.027
-502.683	200.380	0.222	0.343
-501.668	-200.000	-0.029	0.260
-500.653	212.110	-0.026	-0.041
-499.639	377.501	-0.075	0.155
-498.624	246.595	-0.053	0.090
-497.610	38.638	0.191	0.171
-496.595	-200.000	-0.054	-0.333
-495.581	-200.000	0.001	0.110
-494.566	-42.117	0.115	0.059
-493.551	-18.002	-0.214	0.135
-492.537	-80.929	-0.490	0.163
-491.522	428.695	0.092	-0.201
-490.508	68.980	0.051	0.052
-489.493	160.212	0.050	0.069
-488.478	-52.142	-0.259	0.121
-487.464	748.558	0.077	0.209
-486.449	-85.432	0.135	0.042
-485.435	-42.233	0.417	-0.214
-484.420	-1.490	0.168	0.119
-483.405	800.000	-0.037	-0.156
-482.391	-56.010	0.094	-0.042
-481.376	15.733	-0.241	0.190
-480.362	800.000	-0.055	-0.240
-479.347	-71.933	-0.007	0.003
-478.332	800.000	0.027	-0.105
-477.318	22.606	-0.128	0.105
-476.303	-29.364	0.059	0.034
-475.289	-78.520	0.249	0.086
-474.274	-50.284	0.308	-0.146
-473.259	-200.000	-0.017	0.200
-472.245	-0.564	0.168	-0.120
-471.230	171.842	-0.115	-0.166
-470.216	-200.000	0.070	-0.349
-469.201	97.842	-0.049	0.057
-468.186	36.431	-0.075	0.066
-467.172	-50.513	0.340	-0.161
-466.157	68.733	0.033	-0.034
-465.143	142.317	0.127	-0.169
-464.128	-93.430	0.338	-0.094
-463.113	-127.455	0.125	-0.018
-462.099	-69.794	0.118	-0.045
-461.084	-200.000	0.044	-0.323
-460.070	-200.000	0.007	0.157
-459.055	-67.075	0.332	-0.132
-458.040	800.000	0.063	-0.222
-457.026	-179.575	-0.197	0.004
-456.011	-13.420	-0.299	0.194
-454.997	93.048	-0.153	-0.173
-453.982	-26.933	-0.142	0.083
-452.968	-134.790	-0.148	0.018
-451.953	118.637	0.102	-0.127
-450.938	-200.000	-0.059	-0.294
-449.924	-136.892	-0.283	0.033
-448.909	120.544	-0.035	-0.044
-447.895	-200.000	-0.006	0.344
-446.880	73.462	-0.128	0.135
-445.865	-90.443	-0.262	-0.076
-444.851	323.640	-0.129	0.247
-443.836	-19.183	-0.368	0.229
-442.822	53.729	-0.283	0.272
-441.807	-33.614	0.092	0.051
-440.792	-153.477	-0.233	0.016
-439.778	179.962	-0.221	-0.324
-438.763	-72.544	-0.183	0.068
-437.749	-200.000	-0.015	0.139
-436.734	16.208	0.147	0.116
-435.719	-133.240	0.310	-0.039
-434.705	-58.541	-0.155	-0.068
-433.690	-82.014	0.329	-0.108
-432.676	-85.144	-0.348	0.109
-431.661	800.000	-0.048	0.184
-430.646	-200.000	-0.007	0.201
-429.632	-200.000	0.054	-0.258
-428.617	-105.196	-0.118	-0.027
-427.603	-39.972	0.067	0.035
-426.588	45.372	0.064	-0.059
-425.573	-200.000	0.001	-0.126
-424.559	-175.569	0.403	-0.011
-423.544	32.717	-0.368	0.319
-422.530	96.405	-0.131	-0.150
-421.515	-200.000	0.020	-0.269
-420.500	98.034	0.128	-0.148
-419.486	-158.104	0.109	-0.006
-418.471	-7.017	-0.287	-0.195
-417.457	-70.169	0.182	-0.069
-416.442	162.256	-0.129	0.181
-415.428	757.001	-0.047	-0.126
-414.413	-55.722	-0.289	-0.130
-413.398	800.000	-0.023	0.098
-412.384	-200.000	-0.067	0.354
-411.369	-73.211	-0.151	-0.056
-410.355	-28.895	0.117	-0.068
-409.340	-102.375	-0.173	-0.041
-408.325	602.880	0.040	-0.100
-407.311	183.412	0.035	-0.052
-406.296	-146.824	0.185	-0.016
-405.282	-200.000	-0.010	0.105
-404.267	73.937	-0.077	-0.081
-403.252	252.945	0.088	-0.151
-402.238	-116.193	0.003	0.001
-401.223	738.882	-0.144	0.387
-400.209	-200.000	0.029	0.139
-399.194	52.958	-0.239	-0.229
-398.179	429.221	-0.098	0.212
-397.165	289.467	0.087	0.159
-396.150	-138.633	0.488	-0.054
-395.136	-108.260	-0.100	-0.022
-394.121	164.150	-0.162	0.228
-393.106	-106.659	0.395	-0.088
-392.092	35.902	-0.147	0.130
-391.077	-52.934	0.247	0.114
-390.063	-130.836	-0.111	-0.015
-389.048	-200.000	-0.091	0.458
-388.033	793.282	0.050	-0.138
-387.019	-200.000	0.064	-0.505
-386.004	800.000	0.038	-0.125
-384.990	18.538	0.163	0.130
-383.975	-200.000	0.021	0.197
-382.960	-14.213	-0.084	-0.054
-381.946	-122.841	-0.136	-0.022
-380.931	-41.304	0.038	-0.019
-379.917	62.613	0.109	0.109
-378.902	19.853	-0.232	-0.187
-377.888	-32.492	-0.064	-0.036
-376.873	-10.705	0.347	-0.229
-375.858	-68.549	0.100	0.039
-374.844	17.627	-0.166	0.132
-373.829	-131.129	0.125	0.017
-372.815	-200.000	0.010	0.206
-371.800	36.213	0.138	-0.121
-370.785	2.699	0.156	-0.113
-369.771	-37.747	0.261	-0.139
-368.756	-200.000	0.024	0.374
-367.742	-90.344	-0.280	-0.081
-366.727	182.158	-0.049	0.072
-365.712	6.064	0.126	0.093
-364.698	281.691	0.106	-0.190
-363.683	800.000	0.035	0.098
-362.669	20.685	-0.186	0.151
-361.654	-200.000	-0.029	0.239
-360.639	631.674	0.039	-0.098
-359.625	189.178	-0.091	0.136
-358.610	-102.848	-0.228	0.054
-357.596	-90.423	0.046	-0.013
-356.581	-19.742	-0.445	-0.275
-355.566	31.161	-0.212	-0.182
-354.552	-184.658	0.108	0.002
-353.537	83.982	0.088	0.096
-352.523	-200.000	-0.010	-0.059
-351.508	-158.595	-0.350	-0.020
-350.493	-200.000	-0.000	0.122
-349.479	228.575	0.091	0.148
-348.464	373.220	0.119	0.241
-347.450	46.657	0.066	0.061
-346.435	-20.658	0.194	0.119
-345.420	191.651	0.090	-0.136
-344.406	-200.000	-0.014	0.119
-343.391	-70.595	-0.156	0.059
-342.377	133.944	-0.114	-0.147
-341.362	-200.000	-0.016	-0.104
-340.348	588.008	0.046	0.113
-339.333	166.381	0.127	-0.180
-338.318	-200.000	-0.054	0.301
-337.304	482.648	0.094	0.214
-336.289	-145.681	0.185	-0.017
-335.275	-151.472	-0.448	0.033
-334.260	-146.122	0.127	-0.011
-333.245	-170.864	0.235	0.008
-332.231	76.178	0.112	0.118
-331.216	-80.886	0.082	-0.027
-330.202	-14.227	0.138	-0.089
-329.187	15.182	0.209	0.164
-328.172	800.000	0.098	-0.285
-327.158	8.369	0.061	0.046
-326.143	63.866	-0.150	0.151
-325.129	632.436	0.147	-0.371
-324.114	-116.791	-0.225	-0.041
-323.099	282.924	-0.253	0.452
-322.085	275.184	0.092	0.163
-321.070	-200.000	0.008	0.193
-320.056	-200.000	0.060	-0.378
-319.041	-134.949	0.292	-0.035
-318.026	-57.398	0.154	0.068
-317.012	-27.995	-0.264	-0.153
-315.997	-200.000	-0.004	0.119
-314.983	94.448	0.033	0.038
-313.968	-200.000	-0.001	0.296
-312.953	-38.267	-0.222	-0.118
-311.939	793.989	0.024	0.066
-310.924	800.000	0.092	0.315
-309.910	-14.327	0.199	-0.128
-308.895	590.568	-0.116	-0.286
-307.880	800.000	0.134	0.382
-306.866	74.814	0.050	0.053
-305.851	72.554	0.116	-0.121
-304.837	-200.000	-0.048	-0.214
-303.822	40.574	-0.087	0.078
-302.807	175.620	-0.156	-0.225
-301.793	-35.495	0.092	0.050
-300.778	-92.899	0.163	-0.045
-299.764	780.134	-0.068	-0.185
-298.749	-200.000	0.030	0.219
-297.735	407.749	-0.129	0.272
-296.720	770.655	0.071	-0.194
-295.705	692.987	-0.104	0.271
-294.691	-82.741	0.432	-0.139
-293.676	235.271	0.129	-0.212
-292.662	93.422	0.238	-0.268
-291.647	800.000	0.067	-0.198
-290.632	82.339	0.119	-0.129
-289.618	-200.000	0.015	-0.552
-288.603	-111.515	0.166	0.034
-287.589	-55.754	-0.274	0.122
-286.574	-200.000	0.006	-0.055
-285.559	718.417	-0.087	0.231
-284.545	276.811	0.054	0.096
-283.530	-200.000	-0.064	0.307
-282.516	-200.000	0.039	0.286
-281.501	404.068	0.061	0.127
-280.486	800.000	0.050	-0.188
-279.472	288.266	-0.160	-0.288
-278.457	269.544	-0.189	0.330
-277.443	-62.928	0.267	0.110
-276.428	8.682	-0.134	0.101
-275.413	-200.000	0.031	0.157
-274.399	-200.000	-0.010	0.114
-273.384	-141.988	-0.198	0.020
-272.370	-8.041	0.152	0.102
-271.355	473.222	-0.113	0.254
-270.340	-126.988	0.298	0.044
-269.326	-79.911	-0.203	0.068
-268.311	143.337	0.131	-0.174
-267.297	409.049	-0.059	0.124
-266.282	-153.506	0.269	0.019
-265.267	-89.011	-0.080	0.024
-264.253	-200.000	0.008	-0.358
-263.238	-7.169	0.223	-0.150
-262.224	125.195	0.086	-0.108
-261.209	-60.610	0.195	-0.083
-260.195	252.555	0.094	-0.159
-259.180	40.938	0.046	-0.041
-258.165	173.519	-0.056	0.081
-257.151	-200.000	0.049	0.326
-256.136	-21.803	0.304	0.184
-255.122	-200.000	-0.010	0.491
-254.107	-40.601	0.100	0.052
-253.092	120.993	0.158	-0.195
-252.078	260.394	0.192	0.331
-251.063	57.203	0.146	-0.141
-250.049	-12.295	0.112	0.073
-249.034	-200.000	0.018	-0.377
-248.019	-200.000	0.006	-0.351
-247.005	-78.407	0.212	0.072
-245.990	-70.123	0.098	-0.037
-244.976	-200.000	-0.028	-0.204
-243.961	44.302	-0.151	-0.137
-242.946	94.228	-0.010	-0.012
-241.932	340.612	0.158	-0.307
-240.917	-200.000	0.016	0.229
-239.903	-200.000	-0.057	0.354
-238.888	-2.516	0.119	0.083
-237.873	69.242	-0.090	-0.092
-236.859	-64.935	0.156	0.063
-235.844	-147.253	-0.129	-0.011
-234.830	294.935	0.176	-0.320
-233.815	-101.772	0.284	0.068
-232.800	800.000	0.125	-0.511
-231.786	-200.000	-0.002	0.024
-230.771	185.019	-0.137	0.203
-229.757	27.347	-0.052	-0.044
-228.742	-200.000	0.032	-0.224
-227.727	724.668	-0.018	0.049
-226.713	-53.065	0.190	-0.087
-225.698	800.000	-0.089	-0.256
-224.684	279.776	0.073	0.130
-223.669	13.859	-0.333	-0.257
-222.655	-200.000	-0.022	-0.206
-221.640	-118.216	0.207	-0.037
-220.625	-78.141	0.157	0.054
-219.611	-28.212	-0.145	0.083
-218.596	-200.000	-0.018	0.105
-217.582	-113.944	-0.190	0.037
-216.567	29.893	-0.031	-0.026
-215.552	-172.051	0.410	-0.013
-214.538	45.164	0.099	0.091
-213.523	-200.000	-0.015	-0.335
-212.509	483.113	-0.005	-0.011
-211.494	800.000	-0.108	-0.349
-210.479	-137.753	0.088	-0.010
-209.465	51.412	-0.232	0.219
-208.450	-84.837	0.294	0.092
-207.436	-115.879	0.253	0.047
-206.421	-124.651	-0.254	-0.039
-205.406	-42.180	-0.191	0.097
-204.392	-21.058	0.138	-0.084
-203.377	-174.588	-0.376	-0.011
-202.363	800.000	-0.081	-0.262
-201.348	-128.221	0.090	0.013
-200.333	473.227	0.051	0.113
-199.319	-93.972	-0.344	-0.094
-198.304	-62.218	0.024	0.010
-197.290	87.796	0.277	-0.304
-196.275	800.000	-0.040	0.125
-195.260	-25.884	-0.151	0.089
-194.246	800.000	0.091	0.381
-193.231	-28.571	-0.166	0.095
-192.217	291.929	-0.111	-0.200
-191.202	-70.865	-0.257	-0.096
-190.187	-80.056	0.281	0.094
-189.173	-111.526	-0.428	0.086
-188.158	-94.404	-0.522	-0.141
-187.144	-200.000	0.015	-0.110
-186.129	319.965	0.041	0.076
-185.114	-59.047	0.369	-0.158
-184.100	-200.000	-0.011	-0.054
-183.085	16.215	0.198	-0.155
-182.071	61.198	-0.123	0.122
-181.056	-95.376	0.111	-0.030
-180.042	43.792	0.171	0.155
-179.027	137.832	0.402	-0.523
-178.012	91.069	0.154	-0.171
-176.998	14.132	0.143	0.111
-175.983	199.532	-0.035	0.053
-174.969	-200.000	-0.001	-0.074
-173.954	-49.882	-0.320	0.151
-172.939	-32.970	-0.084	0.046
-171.925	-169.137	-0.272	0.010
-170.910	104.217	-0.061	-0.071
-169.896	-183.180	0.342	-0.006
-168.881	-171.477	-0.296	-0.010
-167.866	582.157	-0.028	-0.068
-166.852	459.270	-0.167	-0.368
-165.837	-98.180	0.407	-0.104
-164.823	199.088	-0.044	0.067
-163.808	102.947	-0.132	0.154
-162.793	-200.000	-0.018	-0.153
-161.779	-96.272	0.270	-0.071
-160.764	12.576	-0.363	0.278
-159.750	525.143	-0.129	0.302
-158.735	-200.000	0.037	0.299
-157.720	-200.000	-0.017	-0.140
-156.706	-4.939	-0.032	0.022
-155.691	11.789	-0.257	0.196
-154.677	-200.000	-0.051	0.348
-153.662	176.166	0.092	0.133
-152.647	-175.689	-0.184	0.005
-151.633	422.563	0.081	0.172
-150.618	-46.750	0.469	0.228
-149.604	18.555	-0.158	0.125
-148.589	179.509	0.156	0.226
-147.574	-94.178	0.090	0.024
-146.560	-200.000	0.012	-0.128
-145.545	-200.000	0.033	-0.310
-144.531	-45.264	0.089	-0.044
-143.516	800.000	-0.064	0.214
-142.502	678.233	0.089	-0.231
-141.487	23.287	0.095	-0.078
-140.472	149.429	-0.241	-0.324
-139.458	-46.858	-0.148	-0.072
-138.443	6.250	0.055	-0.040
-137.429	37.905	0.298	0.263
-136.414	-21.394	-0.073	-0.044
-135.399	800.000	0.106	-0.336
-134.385	-54.767	0.140	-0.063
-133.370	-87.548	-0.344	0.103
-132.356	-118.306	-0.318	0.056
-131.341	-200.000	0.009	-0.145
-130.326	-5.650	-0.098	0.067
-129.312	490.354	-0.067	-0.152
-128.297	-200.000	0.038	0.228
-127.283	-200.000	-0.037	0.184
-126.268	-51.918	0.343	0.158
-125.253	-66.244	0.247	0.098
-124.239	-14.357	-0.089	-0.057
-123.224	800.000	0.025	-0.083
-122.210	-1.458	-0.175	0.122
-121.195	-112.499	-0.304	-0.060
