DTS Sentinel unit serial number:	SN413079Multiplexer serial number:	ORYXHardware model number:	OX4-SRSoftware version number:	ORYX F/W v4.00 Oryx Data Collector v3.7.2.0data status	okinstallation	princeton_trtdifferential loss correction	single-endedforward channel	channel 4reverse channel	N/Adate	2019/09/16time	11:53:35forward acquisition time	60.00reverse acquisition time	0.00gamma	496.2192k internal	0.2294k external	0.2294temperature offset calibration	0.9952default loss term (dB/km)	0.3790temperature slope calibration	1.0000multiplexer offset coefficient	1.0000multiplexer slope coefficient	1.0000fibre end	0.00T internal ref (°C)	38.42T ext. ref 1 (°C)	13.12T ext. ref 2 (°C)	35.76length (m)	temperature (°C)	Stokes	anti-Stokes-747.200	236.198	-0.127	0.216
-746.185	75.342	-0.210	0.227
-745.171	800.000	0.074	0.276
-744.156	23.189	-0.121	0.101
-743.142	-35.633	0.176	-0.097
-742.127	-38.118	-0.152	0.082
-741.112	-12.006	-0.117	-0.078
-740.098	-72.584	-0.204	0.077
-739.083	401.401	0.084	0.181
-738.069	-57.356	0.217	0.097
-737.054	-200.000	-0.029	0.303
-736.039	452.966	-0.048	-0.108
-735.025	-200.000	0.017	0.094
-734.010	94.292	0.183	-0.212
-732.996	154.123	-0.094	-0.132
-731.981	9.786	-0.314	-0.244
-730.966	73.777	0.123	0.132
-729.952	4.389	0.193	-0.145
-728.937	-140.233	0.376	-0.040
-727.923	-12.517	-0.083	0.055
-726.908	-26.205	-0.114	0.069
-725.894	152.012	0.110	-0.154
-724.879	-135.508	-0.229	0.028
-723.864	-170.682	-0.215	0.008
-722.850	86.564	-0.365	-0.412
-721.835	48.034	0.140	0.133
-720.821	-200.000	0.023	0.145
-719.806	0.999	-0.414	0.304
-718.791	-89.963	0.263	0.079
-717.777	97.274	-0.135	-0.159
-716.762	30.983	-0.061	-0.054
-715.748	-73.268	-0.088	-0.033
-714.733	260.385	-0.104	-0.183
-713.718	-4.870	0.198	0.139
-712.704	-2.842	-0.337	-0.240
-711.689	-97.682	0.477	-0.126
-710.675	800.000	0.132	0.395
-709.660	-93.373	-0.260	0.074
-708.645	800.000	-0.055	-0.170
-707.631	-154.492	-0.157	0.011
-706.616	-200.000	-0.043	-0.203
-705.602	-170.560	-0.149	-0.005
-704.587	121.060	-0.047	-0.060
-703.572	-4.104	-0.190	0.135
-702.558	95.301	-0.060	0.070
-701.543	-36.225	-0.328	0.181
-700.529	-200.000	0.010	-0.320
-699.514	-4.549	-0.202	-0.143
-698.499	249.187	-0.133	0.231
-697.485	259.023	-0.081	-0.143
-696.470	-160.882	0.188	0.010
-695.456	-123.084	-0.458	0.075
-694.441	-200.000	0.064	-0.399
-693.426	726.507	0.071	0.194
-692.412	-200.000	0.003	-0.083
-691.397	342.170	0.119	0.238
-690.383	-38.692	0.222	-0.119
-689.368	31.763	-0.182	0.160
-688.354	-27.528	0.179	-0.106
-687.339	-130.361	0.178	-0.025
-686.324	-200.000	-0.008	-0.274
-685.310	253.872	0.240	-0.419
-684.295	-33.557	-0.308	0.173
-683.281	-200.000	-0.021	-0.202
-682.266	342.328	-0.070	0.139
-681.251	377.994	0.091	0.191
-680.237	-200.000	0.025	-0.249
-679.222	213.215	0.045	-0.073
-678.208	-120.529	0.159	-0.028
-677.193	-200.000	-0.035	0.226
-676.178	800.000	0.034	-0.097
-675.164	70.867	-0.133	-0.140
-674.149	-59.335	-0.186	0.082
-673.135	-135.082	0.321	-0.039
-672.120	75.208	-0.117	-0.126
-671.105	1.829	0.293	-0.215
-670.091	-68.209	0.059	-0.024
-669.076	-103.607	-0.168	-0.040
-668.062	110.346	-0.024	0.029
-667.047	-200.000	0.039	-0.243
-666.032	-30.627	0.358	0.207
-665.018	127.582	0.129	-0.167
-664.003	172.053	-0.061	0.090
-662.989	-200.000	0.002	-0.298
-661.974	2.134	-0.098	0.072
-660.959	-96.027	-0.433	0.118
-659.945	-200.000	-0.057	0.375
-658.930	-200.000	0.004	0.072
-657.916	-73.888	-0.091	0.034
-656.901	158.111	0.181	0.256
-655.886	-46.450	0.101	-0.050
-654.872	49.307	-0.250	0.240
-653.857	-183.350	0.244	0.004
-652.843	-90.041	-0.316	0.094
-651.828	-131.740	-0.262	-0.035
-650.814	-200.000	0.039	0.282
-649.799	327.343	0.124	0.242
-648.784	232.454	-0.108	-0.181
-647.770	415.826	0.034	-0.074
-646.755	-200.000	-0.021	-0.230
-645.741	38.540	0.166	0.151
-644.726	274.383	0.084	-0.152
-643.711	-98.014	0.079	-0.021
-642.697	17.694	-0.213	0.173
-641.682	-28.664	-0.093	-0.055
-640.668	16.744	0.261	0.210
-639.653	-107.297	0.218	-0.049
-638.638	-200.000	-0.345	0.001
-637.624	28.136	0.188	0.161
-636.609	741.445	0.049	-0.134
-635.595	98.235	0.185	-0.217
-634.580	-98.678	0.268	-0.070
-633.565	-17.489	0.112	0.072
-632.551	298.386	-0.137	0.256
-631.536	-114.874	-0.167	0.032
-630.522	254.147	-0.077	-0.134
-629.507	-176.881	-0.102	-0.003
-628.492	800.000	0.048	0.205
-627.478	-200.000	-0.003	0.217
-626.463	-178.820	-0.066	0.002
-625.449	70.991	-0.099	-0.105
-624.434	-38.251	0.518	0.279
-623.419	-114.134	0.098	-0.019
-622.405	-78.714	0.257	-0.089
-621.390	365.866	-0.071	-0.145
-620.376	142.347	0.059	-0.080
-619.361	-7.526	0.023	0.016
-618.346	157.976	0.162	0.228
-617.332	-84.602	-0.293	0.094
-616.317	-200.000	0.004	0.222
-615.303	-176.275	0.400	-0.011
-614.288	588.167	-0.104	-0.261
-613.273	-11.049	-0.157	0.105
-612.259	800.000	-0.084	0.285
-611.244	-52.933	-0.292	-0.137
-610.230	59.346	0.113	0.113
-609.215	-200.000	-0.131	-0.000
-608.201	-5.229	-0.247	-0.173
-607.186	-200.000	-0.003	0.135
-606.171	-94.523	-0.262	0.073
-605.157	43.247	-0.154	0.143
-604.142	4.063	0.210	0.156
-603.128	-123.918	0.119	-0.019
-602.113	-73.868	0.390	-0.144
-601.098	800.000	0.051	-0.209
-600.084	-158.178	0.305	0.018
-599.069	-200.000	-0.006	-0.207
-598.055	-200.000	-0.017	0.099
-597.040	14.514	0.155	-0.123
-596.025	191.336	0.077	0.118
-595.011	-119.951	-0.140	-0.024
-593.996	40.112	0.298	-0.272
-592.982	-79.516	0.230	-0.079
-591.967	446.142	-0.026	0.058
-590.952	-182.839	0.273	-0.005
-589.938	24.824	0.274	0.231
-588.923	-78.564	-0.216	0.075
-587.909	-169.441	-0.210	-0.008
-586.894	63.741	-0.072	0.074
-585.879	100.147	-0.038	0.045
-584.865	-77.900	-0.304	0.107
-583.850	-55.738	-0.159	-0.072
-582.836	46.452	-0.299	0.282
-581.821	25.215	-0.026	-0.022
-580.806	800.000	0.068	-0.233
-579.792	-65.118	0.147	0.060
-578.777	267.549	-0.171	-0.304
-577.763	-200.000	-0.040	-0.565
-576.748	354.390	-0.009	0.019
-575.733	50.984	0.178	0.171
-574.719	42.301	-0.177	0.164
-573.704	-200.000	-0.018	0.162
-572.690	-121.363	-0.226	-0.038
-571.675	397.365	-0.101	0.215
-570.661	106.886	0.318	0.384
-569.646	15.244	0.059	0.047
-568.631	800.000	0.019	0.067
-567.617	-61.307	-0.208	-0.089
-566.602	-129.285	0.101	-0.014
-565.588	-200.000	-0.028	0.131
-564.573	66.931	0.283	0.293
-563.558	-33.215	-0.274	-0.154
-562.544	-163.435	0.576	-0.028
-561.529	-200.000	0.020	-0.348
-560.515	-49.611	0.229	-0.110
-559.500	800.000	-0.015	-0.043
-558.485	-66.507	-0.033	0.013
-557.471	-55.787	-0.038	0.017
-556.456	37.008	-0.234	-0.210
-555.442	-117.608	0.155	0.028
-554.427	68.787	-0.147	-0.153
-553.412	800.000	-0.014	0.053
-552.398	800.000	0.076	0.254
-551.383	-75.445	-0.050	0.018
-550.369	69.519	-0.255	-0.267
-549.354	-91.324	0.130	-0.038
-548.339	-7.690	0.238	-0.163
-547.325	-95.535	0.209	0.057
-546.310	31.580	-0.240	0.209
-545.296	800.000	0.017	-0.057
-544.281	-200.000	-0.032	-0.216
-543.266	-200.000	-0.045	-0.384
-542.252	326.966	0.152	0.295
-541.237	331.160	-0.121	-0.237
-540.223	31.171	0.275	-0.240
-539.208	164.323	0.112	-0.160
-538.193	-200.000	-0.059	0.421
-537.179	24.344	0.193	0.162
-536.164	-17.868	0.182	-0.116
-535.150	-17.447	-0.092	-0.059
-534.135	344.787	-0.046	0.092
-533.121	519.978	0.093	-0.220
-532.106	-153.261	-0.148	-0.010
-531.091	207.492	-0.059	-0.094
-530.077	-73.702	0.453	-0.167
-529.062	-11.057	-0.182	0.122
-528.048	-122.430	-0.459	0.076
-527.033	117.881	-0.233	0.291
-526.018	341.971	0.153	0.304
-525.004	-200.000	0.014	-0.239
-523.989	37.996	-0.087	0.079
-522.975	384.158	-0.152	0.318
-521.960	-200.000	0.002	0.080
-520.945	-200.000	0.035	-0.264
-519.931	143.459	0.054	0.073
-518.916	-131.225	0.209	-0.028
-517.902	109.504	0.270	-0.328
-516.887	-200.000	-0.020	0.190
-515.872	-67.931	0.210	-0.083
-514.858	-200.000	-0.045	-0.298
-513.843	532.187	-0.146	-0.349
-512.829	-66.156	-0.217	-0.088
-511.814	-92.307	-0.186	0.053
-510.799	10.760	-0.117	0.091
-509.785	-11.328	-0.162	-0.108
-508.770	-59.829	-0.044	0.019
-507.756	-200.000	0.000	0.310
-506.741	800.000	-0.050	-0.172
-505.726	44.835	0.069	0.065
-504.712	-19.048	0.259	0.163
-503.697	-32.824	-0.217	-0.122
-502.683	275.874	0.053	0.095
-501.668	-200.000	-0.057	0.316
-500.653	-72.006	-0.162	-0.061
-499.639	-32.233	0.212	-0.120
-498.624	-200.000	-0.002	-0.230
-497.610	3.123	0.178	-0.131
-496.595	42.010	0.134	0.124
-495.581	48.531	0.220	0.208
-494.566	105.907	-0.250	0.299
-493.551	638.588	0.051	0.133
-492.537	407.700	-0.091	0.195
-491.522	142.344	-0.087	-0.117
-490.508	-136.086	0.291	0.035
-489.493	254.535	-0.055	0.096
-488.478	170.531	0.053	-0.078
-487.464	-83.310	0.154	0.050
-486.449	249.893	0.120	0.206
-485.435	-64.597	-0.245	-0.101
-484.420	-200.000	0.057	-0.346
-483.405	-200.000	0.062	-0.312
-482.391	18.687	-0.110	-0.089
-481.376	-49.862	-0.129	-0.062
-480.362	92.166	0.082	-0.093
-479.347	-31.417	-0.306	0.174
-478.332	-37.747	-0.226	-0.122
-477.318	-142.291	-0.238	0.024
-476.303	-83.960	0.043	0.014
-475.289	124.026	0.148	0.188
-474.274	434.278	-0.090	-0.197
-473.259	541.269	-0.068	0.164
-472.245	-200.000	0.001	0.119
-471.230	323.947	0.062	0.119
-470.216	14.894	-0.212	0.168
-469.201	313.105	-0.027	0.051
-468.186	14.821	0.107	-0.085
-467.172	-110.668	-0.174	-0.036
-466.157	800.000	0.057	0.219
-465.143	-59.831	0.402	-0.174
-464.128	146.161	0.064	-0.087
-463.113	-37.311	0.217	0.117
-462.099	12.721	-0.123	0.096
-461.084	-93.622	-0.250	0.070
-460.070	-20.705	-0.302	0.188
-459.055	-200.000	-0.024	0.456
-458.040	800.000	-0.060	-0.174
-457.026	-200.000	0.015	-0.069
-456.011	-118.033	-0.291	0.053
-454.997	-100.647	-0.193	-0.048
-453.982	106.778	0.233	0.279
-452.968	99.716	-0.284	-0.332
-451.953	368.246	0.165	-0.337
-450.938	-39.230	0.128	0.068
-449.924	-36.435	0.257	0.140
-448.909	-50.851	-0.128	-0.061
-447.895	-155.750	-0.327	-0.021
-446.880	0.789	-0.086	-0.062
-445.865	-200.000	-0.006	-0.371
-444.851	154.599	-0.043	0.060
-443.836	-200.000	-0.005	-0.122
-442.822	189.639	0.126	-0.191
-441.807	-163.473	-0.285	0.014
-440.792	-87.332	0.230	-0.071
-439.778	-103.840	-0.230	-0.054
-438.763	-53.416	-0.163	-0.075
-437.749	-200.000	-0.019	0.143
-436.734	-130.488	-0.163	0.022
-435.719	29.931	-0.488	-0.420
-434.705	-200.000	-0.016	-0.091
-433.690	343.548	-0.079	0.155
-432.676	99.545	-0.136	0.159
-431.661	30.081	0.244	-0.211
-430.646	-113.051	-0.281	-0.056
-429.632	-70.143	-0.101	-0.039
-428.617	-200.000	-0.046	-0.417
-427.603	-36.913	0.135	0.073
-426.588	-132.661	0.216	0.028
-425.573	-111.625	0.188	0.038
-424.559	765.001	0.085	0.233
-423.544	-38.823	-0.034	-0.018
-422.530	800.000	0.068	0.283
-421.515	263.423	0.045	0.080
-420.500	207.667	0.138	-0.218
-419.486	-192.237	0.220	0.002
-418.471	-188.958	-0.130	-0.002
-417.457	34.954	0.090	-0.080
-416.442	-200.000	-0.075	0.417
-415.428	-82.493	-0.102	0.034
-414.413	-200.000	0.012	-0.064
-413.398	-151.182	0.341	-0.026
-412.384	699.841	-0.167	0.444
-411.369	174.015	-0.108	-0.157
-410.355	199.860	-0.044	0.069
-409.340	-200.000	-0.034	-0.225
-408.325	229.034	-0.074	0.122
-407.311	-154.964	0.125	-0.008
-406.296	800.000	-0.022	-0.093
-405.282	-200.000	-0.022	0.158
-404.267	332.853	0.213	-0.416
-403.252	-200.000	-0.036	0.437
-402.238	793.357	0.047	0.132
-401.223	318.150	0.098	-0.187
-400.209	470.800	0.144	-0.327
-399.194	-200.000	-0.014	-0.368
-398.179	754.816	0.073	0.199
-397.165	800.000	0.127	0.372
-396.150	-70.520	0.282	0.108
-395.136	-15.511	-0.103	0.067
-394.121	-71.591	0.405	-0.153
-393.106	-122.689	-0.357	0.058
-392.092	-200.000	0.024	-0.480
-391.077	-200.000	0.060	0.283
-390.063	-18.101	0.098	0.062
-389.048	212.431	0.169	0.270
-388.033	20.911	-0.186	-0.152
-387.019	4.837	0.111	-0.082
-386.004	178.027	-0.096	0.142
-384.990	197.762	-0.055	0.085
-383.975	51.401	0.050	-0.048
-382.960	475.958	-0.091	0.208
-381.946	-200.000	-0.012	0.076
-380.931	-200.000	-0.016	-0.292
-379.917	561.416	-0.120	0.292
-378.902	440.631	0.113	0.250
-377.888	-139.998	0.127	-0.013
-376.873	468.859	0.107	-0.243
-375.858	16.114	-0.075	-0.059
-374.844	800.000	0.017	-0.051
-373.829	-200.000	-0.080	-0.403
-372.815	-140.909	0.106	0.011
-371.800	-17.426	-0.274	0.174
-370.785	80.141	0.155	0.168
-369.771	296.668	0.086	-0.160
-368.756	-69.903	0.212	0.081
-367.742	-172.053	-0.226	-0.007
-366.727	-200.000	0.043	0.249
-365.712	-177.214	-0.170	-0.004
-364.698	-159.911	-0.288	0.016
-363.683	-36.672	0.107	0.058
-362.669	-200.000	0.018	-0.200
-361.654	667.339	-0.056	-0.146
-360.639	-71.403	0.076	0.029
-359.625	-29.185	-0.387	-0.224
-358.610	77.440	-0.153	-0.164
-357.596	113.226	0.173	-0.211
-356.581	-122.453	0.229	-0.037
-355.566	656.938	-0.030	0.076
-354.552	-137.039	0.132	0.015
-353.537	87.049	0.234	-0.260
-352.523	-13.935	0.077	-0.050
-351.508	137.527	-0.134	-0.176
-350.493	-132.657	-0.149	-0.019
-349.479	-34.095	0.229	-0.127
-348.464	396.044	-0.096	-0.202
-347.450	21.539	0.146	0.119
-346.435	280.008	0.200	0.360
-345.420	129.979	-0.190	-0.245
-344.406	-97.623	0.278	0.073
-343.391	-112.339	-0.233	-0.047
-342.377	-47.533	-0.061	-0.030
-341.362	788.158	0.072	-0.200
-340.348	-200.000	-0.023	-0.205
-339.333	668.562	-0.092	-0.240
-338.318	-52.015	0.195	0.091
-337.304	442.940	0.071	-0.156
-336.289	800.000	-0.049	0.170
-335.275	-100.920	0.395	-0.098
-334.260	-200.000	0.001	-0.303
-333.245	-6.761	0.083	0.057
-332.231	-37.273	0.262	0.141
-331.216	199.705	-0.116	0.179
-330.202	-118.971	0.114	0.020
-329.187	573.001	0.090	-0.220
-328.172	-47.753	-0.242	-0.118
-327.158	-67.278	-0.161	0.064
-326.143	800.000	-0.013	0.052
-325.129	800.000	-0.050	-0.159
-324.114	-113.454	0.231	0.046
-323.099	0.856	-0.352	0.254
-322.085	-122.877	-0.144	-0.023
-321.070	116.823	0.306	-0.377
-320.056	-38.398	0.324	0.172
-319.041	-170.708	0.161	-0.006
-318.026	176.371	-0.137	-0.201
-317.012	31.570	-0.291	0.252
-315.997	788.186	-0.045	-0.124
-314.983	-95.192	-0.162	0.044
-313.968	5.218	-0.244	0.181
-312.953	800.000	0.063	-0.222
-311.939	-200.000	-0.045	-0.292
-310.924	34.961	0.325	0.286
-309.910	-71.385	0.072	0.027
-308.895	103.671	0.110	-0.130
-307.880	-69.420	-0.244	-0.094
-306.866	144.246	-0.099	0.133
-305.851	14.107	-0.141	-0.110
-304.837	-189.782	0.307	-0.004
-303.822	-18.873	0.031	-0.020
-302.807	-14.109	-0.132	0.085
-301.793	-200.000	0.005	-0.084
-300.778	-95.025	0.163	-0.044
-299.764	-23.501	-0.306	0.185
-298.749	144.503	0.124	0.166
-297.735	407.751	0.089	0.190
-296.720	539.152	-0.026	-0.061
-295.705	737.178	0.073	-0.196
-294.691	53.196	-0.319	0.307
-293.676	239.880	-0.146	0.245
-292.662	-47.666	0.215	0.105
-291.647	-9.505	-0.107	0.072
-290.632	-154.506	0.200	-0.013
-289.618	-152.342	-0.163	-0.012
-288.603	20.770	-0.107	0.087
-287.589	-63.961	-0.070	-0.029
-286.574	16.168	0.146	-0.115
-285.559	77.811	0.192	-0.206
-284.545	63.536	-0.152	0.153
-283.530	-155.723	-0.013	-0.001
-282.516	800.000	0.072	-0.212
-281.501	286.471	0.056	-0.101
-280.486	-200.000	0.067	0.359
-279.472	-22.935	0.367	0.222
-278.457	664.696	-0.059	-0.152
-277.443	-54.355	-0.307	0.140
-276.428	-54.350	0.194	0.088
-275.413	-200.000	0.039	-0.253
-274.399	800.000	-0.079	0.223
-273.384	800.000	-0.105	0.388
-272.370	-77.957	-0.131	-0.045
-271.355	84.465	-0.370	-0.407
-270.340	-200.000	-0.001	-0.099
-269.326	-200.000	-0.009	0.153
-268.311	230.748	-0.046	-0.076
-267.297	-200.000	0.675	0.003
-266.282	15.593	0.077	-0.060
-265.267	193.986	-0.129	0.196
-264.253	190.879	0.244	0.368
-263.238	-200.000	0.009	0.111
-262.224	800.000	0.021	-0.080
-261.209	134.553	-0.138	-0.179
-260.195	291.625	0.079	0.144
-259.180	181.918	0.040	-0.060
-258.165	-79.228	0.144	-0.049
-257.151	-166.903	0.098	0.004
-256.136	-173.782	-0.589	0.018
-255.122	-135.031	-0.312	-0.038
-254.107	-15.495	-0.419	0.268
-253.092	-200.000	-0.047	0.244
-252.078	-133.807	-0.202	-0.025
-251.063	158.466	-0.126	-0.176
-250.049	43.665	0.291	-0.267
-249.034	206.608	-0.139	0.218
-248.019	-91.597	-0.327	0.093
-247.005	146.838	-0.112	0.151
-245.990	207.251	-0.106	-0.166
-244.976	11.707	0.218	-0.168
-243.961	516.976	0.070	0.164
-242.946	800.000	0.009	0.030
-241.932	800.000	-0.043	-0.170
-240.917	-157.451	-0.453	0.027
-239.903	-74.337	-0.050	-0.018
-238.888	-200.000	0.006	-0.145
-237.873	-200.000	-0.008	0.102
-236.859	-94.885	0.183	0.050
-235.844	-77.856	0.158	0.055
-234.830	-2.304	0.327	0.230
-233.815	53.564	0.243	0.234
-232.800	6.094	-0.216	-0.161
-231.786	-200.000	-0.022	-0.199
-230.771	92.054	0.117	-0.132
-229.757	7.414	-0.158	0.118
-228.742	88.925	-0.169	0.189
-227.727	-112.531	-0.238	0.048
-226.713	-124.085	0.035	-0.005
-225.698	-175.845	-0.380	-0.010
-224.684	-200.000	0.017	0.146
-223.669	-200.000	-0.029	-0.282
-222.655	367.936	-0.107	-0.218
-221.640	3.863	0.059	0.043
-220.625	800.000	0.007	0.032
-219.611	-36.832	-0.170	0.092
-218.596	-79.761	-0.170	-0.057
-217.582	-84.358	-0.268	0.085
-216.567	307.027	0.069	0.128
-215.552	800.000	0.082	0.344
-214.538	28.086	0.128	-0.108
-213.523	-64.631	-0.072	0.029
-212.509	-175.189	-0.333	0.009
-211.494	-106.667	0.445	0.099
-210.479	-81.472	0.316	0.104
-209.465	-105.468	-0.320	0.073
-208.450	-138.190	-0.259	0.029
-207.436	125.395	0.070	-0.088
-206.421	-159.528	-0.235	0.013
-205.406	-162.717	0.072	-0.004
-204.392	-200.000	0.012	-0.227
-203.377	-200.000	0.020	-0.336
-202.363	132.618	0.157	-0.203
-201.348	131.289	0.112	-0.144
-200.333	561.825	-0.099	-0.239
-199.319	-181.406	-0.217	-0.004
-198.304	-200.000	-0.001	-0.058
-197.290	-117.376	0.232	-0.042
-196.275	125.568	0.231	-0.292
-195.260	-99.343	-0.118	-0.030
-194.246	165.147	-0.207	0.292
-193.231	415.598	-0.149	0.318
-192.217	-56.513	0.202	-0.090
-191.202	-192.653	-0.108	-0.001
-190.187	48.518	-0.219	0.205
-189.173	42.067	0.058	0.052
-188.158	-200.000	-0.007	-0.043
-187.144	-65.920	0.134	0.053
-186.129	97.318	0.054	-0.062
-185.114	-31.312	0.253	-0.143
-184.100	800.000	0.048	0.180
-183.085	-137.436	0.186	0.021
-182.071	-43.118	0.287	-0.145
-181.056	-169.518	-0.401	-0.015
-180.042	421.342	-0.120	-0.258
-179.027	800.000	0.165	0.525
-178.012	-23.474	-0.067	-0.040
-176.998	217.548	-0.212	-0.338
-175.983	-26.322	-0.271	0.159
-174.969	157.545	0.099	-0.137
-173.954	-200.000	-0.015	-0.134
-172.939	67.303	0.164	0.168
-171.925	-200.000	0.003	0.017
-170.910	-200.000	-0.015	-0.314
-169.896	-61.046	-0.212	-0.089
-168.881	800.000	0.080	0.317
-167.866	529.011	-0.116	0.274
-166.852	800.000	0.013	0.039
-165.837	-200.000	0.040	0.330
-164.823	345.126	0.166	-0.326
-163.808	-200.000	-0.007	0.236
-162.793	-200.000	0.005	0.113
-161.779	-200.000	0.308	-0.001
-160.764	462.497	0.144	-0.322
-159.750	-3.093	0.075	0.052
-158.735	-168.481	0.052	0.002
-157.720	-0.053	0.095	-0.067
-156.706	-157.757	-0.132	-0.008
-155.691	-86.423	0.178	-0.055
-154.677	99.782	0.112	0.129
-153.662	-66.569	-0.199	-0.079
-152.647	-44.595	0.181	-0.090
-151.633	48.831	0.262	0.246
-150.618	-200.000	-0.024	0.137
-149.604	201.237	0.103	0.158
-148.589	-148.875	-0.128	-0.010
-147.574	390.422	0.111	0.230
-146.560	-55.454	-0.150	0.067
-145.545	-56.920	0.079	0.035
-144.531	25.543	-0.105	-0.087
-143.516	101.804	-0.097	0.113
-142.502	-41.867	0.144	-0.074
-141.487	800.000	0.105	-0.297
-140.472	-109.011	0.356	0.076
-139.458	-33.484	-0.371	0.205
-138.443	-5.129	0.501	0.344
-137.429	0.436	0.078	0.056
-136.414	-10.327	-0.277	0.184
-135.399	236.778	-0.239	0.395
-134.385	-200.000	0.023	0.160
-133.370	184.530	0.135	-0.200
-132.356	-200.000	0.019	0.199
-131.341	-35.319	-0.055	0.030
-130.326	547.074	0.053	-0.126
-129.312	31.143	-0.216	0.185
-128.297	15.375	0.058	-0.045
-127.283	-200.000	-0.030	-0.205
-126.268	-200.000	0.005	-0.065
-125.253	151.164	-0.022	0.030
-124.239	-131.627	-0.420	0.055
-123.224	188.408	-0.117	0.174
-122.210	-200.000	0.022	-0.129
-121.195	-120.956	-0.067	-0.011
