DTS Sentinel unit serial number:	SN413079Multiplexer serial number:	ORYXHardware model number:	OX4-SRSoftware version number:	ORYX F/W v4.00 Oryx Data Collector v3.7.2.0data status	okinstallation	princeton_trtdifferential loss correction	single-endedforward channel	channel 4reverse channel	N/Adate	2019/09/17time	11:33:35forward acquisition time	60.00reverse acquisition time	0.00gamma	496.2192k internal	0.2308k external	0.2308temperature offset calibration	0.9984default loss term (dB/km)	0.3790temperature slope calibration	1.0000multiplexer offset coefficient	1.0000multiplexer slope coefficient	1.0000fibre end	0.00T internal ref (°C)	30.70T ext. ref 1 (°C)	0.35T ext. ref 2 (°C)	26.48length (m)	temperature (°C)	Stokes	anti-Stokes-747.200	-200.000	0.024	-0.179
-746.185	-137.043	-0.054	-0.006
-745.171	-57.455	0.055	-0.024
-744.156	800.000	-0.052	0.232
-743.142	19.304	-0.167	-0.136
-742.127	-65.919	-0.169	0.069
-741.112	-50.754	0.205	0.098
-740.098	-128.536	-0.343	-0.049
-739.083	-54.117	-0.131	0.061
-738.069	-200.000	0.032	-0.258
-737.054	-99.919	-0.141	-0.036
-736.039	-200.000	0.015	0.149
-735.025	800.000	0.048	0.171
-734.010	296.423	0.043	-0.081
-732.996	-91.200	-0.460	-0.134
-731.981	104.856	0.111	-0.133
-730.966	800.000	0.034	-0.105
-729.952	-29.085	0.149	0.087
-728.937	-200.000	-0.058	-0.306
-727.923	800.000	-0.103	-0.377
-726.908	224.942	0.085	0.140
-725.894	-59.069	-0.272	-0.119
-724.879	800.000	0.064	-0.266
-723.864	-200.000	-0.038	-0.291
-722.850	0.486	0.216	-0.157
-721.835	39.247	-0.141	0.128
-720.821	483.559	-0.061	-0.140
-719.806	-66.766	0.055	0.022
-718.791	-200.000	0.018	-0.381
-717.777	58.510	0.296	0.295
-716.762	35.286	0.301	-0.268
-715.748	117.772	0.073	0.091
-714.733	231.104	-0.087	0.145
-713.718	-118.400	0.148	-0.027
-712.704	138.841	0.041	-0.055
-711.689	-156.147	-0.327	-0.021
-710.675	96.867	-0.090	0.105
-709.660	-83.696	0.281	-0.091
-708.645	-200.000	0.013	0.446
-707.631	366.790	0.117	-0.240
-706.616	-5.292	-0.168	-0.117
-705.602	234.521	0.127	-0.213
-704.587	71.809	0.318	0.335
-703.572	400.360	-0.116	-0.247
-702.558	152.647	-0.136	-0.189
-701.543	122.287	-0.214	-0.272
-700.529	-93.627	0.119	0.033
-699.514	-200.000	0.005	0.204
-698.499	-200.000	-0.003	-0.166
-697.485	-29.583	0.057	-0.033
-696.470	40.685	0.083	-0.076
-695.456	-137.315	0.229	-0.026
-694.441	-47.823	0.268	0.132
-693.426	-200.000	-0.017	0.149
-692.412	-65.295	0.173	0.071
-691.397	-200.000	-0.004	-0.369
-690.383	-173.439	-0.422	-0.013
-689.368	-137.628	0.234	-0.027
-688.354	272.084	0.088	0.158
-687.339	746.811	-0.156	-0.426
-686.324	-200.000	-0.018	-0.342
-685.310	-29.631	-0.093	0.054
-684.295	172.775	0.186	0.272
-683.281	-200.000	-0.018	0.279
-682.266	-200.000	-0.070	-0.330
-681.251	-66.299	0.200	-0.081
-680.237	800.000	0.067	-0.244
-679.222	-200.000	-0.030	0.265
-678.208	124.347	-0.022	0.028
-677.193	800.000	0.046	0.163
-676.178	776.649	-0.072	-0.200
-675.164	-50.165	-0.304	0.146
-674.149	-200.000	-0.031	-0.276
-673.135	-54.308	-0.179	-0.082
-672.120	75.062	0.048	0.051
-671.105	77.756	0.285	-0.308
-670.091	25.486	-0.116	-0.098
-669.076	539.900	-0.097	-0.235
-668.062	575.537	-0.111	-0.275
-667.047	800.000	-0.043	-0.172
-666.032	-25.373	-0.351	0.210
-665.018	-200.000	-0.008	-0.176
-664.003	800.000	-0.056	-0.202
-662.989	107.811	0.050	-0.061
-661.974	18.996	0.237	0.192
-660.959	-1.103	0.337	-0.241
-659.945	228.737	-0.172	0.283
-658.930	21.231	0.320	0.263
-657.916	800.000	-0.057	0.244
-656.901	-83.867	-0.133	0.043
-655.886	-129.106	-0.197	0.028
-654.872	-135.601	-0.287	0.035
-653.857	800.000	-0.020	-0.087
-652.843	-71.225	0.107	0.040
-651.828	-150.872	0.120	-0.009
-650.814	-41.388	-0.496	-0.258
-649.799	-58.126	-0.349	-0.154
-648.784	-200.000	-0.012	-0.340
-647.770	-33.999	0.109	-0.061
-646.755	-102.855	0.168	-0.040
-645.741	-200.000	-0.041	0.283
-644.726	-133.359	-0.339	0.043
-643.711	-18.383	-0.362	0.229
-642.697	-72.286	0.159	0.059
-641.682	177.791	-0.063	-0.093
-640.668	800.000	0.065	-0.192
-639.653	-107.001	0.105	-0.024
-638.638	-103.207	0.323	-0.077
-637.624	-57.333	-0.448	-0.199
-636.609	-200.000	-0.002	0.097
-635.595	-200.000	-0.088	0.494
-634.580	-133.395	0.223	0.028
-633.565	800.000	-0.015	0.067
-632.551	73.029	-0.078	0.082
-631.536	-43.163	0.286	-0.146
-630.522	59.581	-0.118	-0.118
-629.507	-99.649	0.370	0.094
-628.492	-19.107	0.229	0.144
-627.478	-78.787	-0.113	0.039
-626.463	-116.453	0.126	-0.023
-625.449	-27.432	0.108	-0.063
-624.434	-200.000	-0.013	0.269
-623.419	-33.219	0.139	-0.078
-622.405	114.655	-0.184	0.226
-621.390	-80.885	-0.313	0.105
-620.376	154.830	-0.040	-0.056
-619.361	-200.000	0.021	0.139
-618.346	-200.000	0.342	-0.001
-617.332	-200.000	-0.046	-0.292
-616.317	-123.292	-0.546	0.088
-615.303	35.338	-0.198	-0.176
-614.288	-200.000	0.153	0.000
-613.273	800.000	0.114	-0.389
-612.259	-72.955	-0.195	-0.072
-611.244	309.895	0.151	-0.287
-610.230	-42.455	-0.385	-0.198
-609.215	-131.275	-0.022	-0.003
-608.201	-200.000	-0.007	0.099
-607.186	-108.375	-0.242	0.053
-606.171	-200.000	-0.007	0.181
-605.157	-59.546	-0.214	-0.093
-604.142	2.666	-0.213	-0.156
-603.128	800.000	-0.056	-0.171
-602.113	0.479	0.071	-0.051
-601.098	120.260	-0.165	-0.207
-600.084	-68.452	0.081	0.032
-599.069	-26.203	-0.179	0.106
-598.055	6.073	-0.053	0.040
-597.040	412.222	-0.012	-0.026
-596.025	-23.149	-0.047	0.029
-595.011	-200.000	0.036	0.344
-593.996	-200.000	-0.024	0.157
-592.982	-200.000	-0.025	-0.237
-591.967	22.111	0.115	0.095
-590.952	334.134	0.063	0.124
-589.938	-20.660	0.155	0.096
-588.923	93.529	-0.132	-0.151
-587.909	146.975	-0.220	-0.299
-586.894	-177.929	0.240	-0.006
-585.879	-25.384	0.204	0.122
-584.865	-6.425	0.432	0.297
-583.850	107.036	0.035	0.042
-582.836	-200.000	0.014	-0.150
-581.821	-112.981	-0.159	-0.032
-580.806	61.176	0.044	0.044
-579.792	800.000	0.028	0.095
-578.777	7.830	-0.088	0.066
-577.763	267.567	-0.184	0.325
-576.748	55.171	0.141	-0.138
-575.733	131.856	-0.199	0.259
-574.719	66.917	0.352	0.362
-573.704	-72.149	-0.149	-0.056
-572.690	-9.637	0.109	0.073
-571.675	-156.937	0.274	-0.017
-570.661	-48.717	0.161	0.078
-569.646	-200.000	-0.004	0.423
-568.631	-132.304	0.155	-0.020
-567.617	-148.671	-0.143	-0.012
-566.602	-200.000	-0.009	0.041
-565.588	439.798	-0.166	-0.367
-564.573	-200.000	-0.032	-0.420
-563.558	505.129	-0.187	-0.438
-562.544	800.000	-0.017	0.065
-561.529	111.272	0.218	0.265
-560.515	150.500	0.093	0.127
-559.500	104.069	-0.207	0.246
-558.485	-200.000	0.001	0.446
-557.471	-200.000	0.021	0.143
-556.456	800.000	0.053	0.199
-555.442	-15.995	-0.230	-0.147
-554.427	800.000	0.036	0.103
-553.412	-200.000	0.027	0.585
-552.398	-56.602	-0.330	0.147
-551.383	75.863	0.116	0.123
-550.369	-200.000	-0.082	-0.395
-549.354	-200.000	0.041	-0.306
-548.339	-156.835	-0.189	0.012
-547.325	526.339	-0.068	0.162
-546.310	104.599	0.105	0.125
-545.296	-46.379	-0.063	0.031
-544.281	800.000	0.057	-0.217
-543.266	26.969	-0.367	-0.310
-542.252	112.361	-0.272	0.332
-541.237	-114.259	0.164	0.032
-540.223	-94.300	-0.231	0.064
-539.208	205.593	0.085	-0.133
-538.193	44.373	-0.222	0.205
-537.179	-200.000	-0.063	-0.396
-536.164	148.145	0.082	-0.111
-535.150	30.637	-0.217	0.187
-534.135	-150.580	-0.289	0.022
-533.121	51.859	0.081	0.078
-532.106	-81.796	-0.101	0.033
-531.091	-34.966	-0.100	-0.055
-530.077	-120.173	-0.261	0.045
-529.062	-152.606	0.326	0.023
-528.048	800.000	0.078	-0.234
-527.033	-74.740	0.037	0.013
-526.018	-6.255	0.230	-0.158
-525.004	13.047	0.096	0.075
-523.989	23.752	-0.068	-0.056
-522.975	27.864	-0.041	-0.035
-521.960	800.000	-0.029	-0.086
-520.945	800.000	-0.032	0.101
-519.931	449.741	-0.134	-0.297
-518.916	2.632	0.171	0.125
-517.902	-122.944	0.154	0.025
-516.887	100.737	-0.124	-0.145
-515.872	-200.000	0.012	-0.134
-514.858	175.278	-0.136	0.199
-513.843	490.593	-0.035	0.080
-512.829	800.000	0.057	-0.178
-511.814	-95.474	0.136	-0.037
-510.799	-200.000	-0.064	0.330
-509.785	-187.399	-0.339	0.005
-508.770	-95.647	-0.184	0.050
-507.756	-30.136	-0.283	0.162
-506.741	-155.545	-0.194	-0.013
-505.726	800.000	0.062	-0.174
-504.712	-200.000	0.024	0.189
-503.697	87.408	0.202	-0.225
-502.683	82.558	0.068	-0.075
-501.668	9.020	-0.177	0.135
-500.653	150.209	-0.099	0.135
-499.639	-21.606	-0.154	0.094
-498.624	800.000	-0.066	0.217
-497.610	61.070	0.215	0.215
-496.595	-132.419	0.310	0.040
-495.581	-69.708	0.185	0.071
-494.566	-118.459	0.295	-0.053
-493.551	34.541	0.119	-0.104
-492.537	800.000	-0.039	-0.124
-491.522	-82.080	0.260	-0.085
-490.508	313.363	0.112	-0.211
-489.493	-104.449	-0.165	-0.038
-488.478	-65.335	0.063	0.026
-487.464	-39.598	-0.212	-0.112
-486.449	-200.000	0.025	-0.158
-485.435	-19.371	0.179	-0.111
-484.420	-120.528	-0.208	0.035
-483.405	-104.804	-0.110	0.025
-482.391	800.000	-0.045	0.144
-481.376	-200.000	0.029	-0.388
-480.362	-200.000	-0.019	-0.342
-479.347	-95.841	0.363	0.097
-478.332	-95.757	-0.323	0.087
-477.318	800.000	-0.008	0.032
-476.303	-135.142	0.140	0.017
-475.289	30.070	-0.242	-0.207
-474.274	-26.353	-0.161	-0.095
-473.259	89.167	0.193	0.216
-472.245	-65.771	0.315	0.127
-471.230	-114.517	-0.188	-0.036
-470.216	384.583	0.082	-0.170
-469.201	-19.123	-0.240	0.150
-468.186	-98.520	0.269	0.069
-467.172	171.437	0.104	0.150
-466.157	-200.000	0.059	0.345
-465.143	70.391	-0.042	0.043
-464.128	176.451	-0.118	0.173
-463.113	148.446	-0.115	0.155
-462.099	255.180	-0.170	-0.292
-461.084	12.989	0.119	0.093
-460.070	405.648	0.073	-0.154
-459.055	156.347	0.130	-0.181
-458.040	-200.000	-0.028	0.235
-457.026	-200.000	-0.021	-0.139
-456.011	-100.739	0.084	0.021
-454.997	-92.415	0.282	0.080
-453.982	-200.000	-0.001	0.006
-452.968	479.644	-0.097	0.222
-451.953	-200.000	-0.008	0.125
-450.938	-200.000	0.002	0.094
-449.924	325.303	-0.278	0.534
-448.909	-200.000	-0.023	-0.276
-447.895	-121.525	0.206	0.034
-446.880	291.102	-0.109	-0.198
-445.865	30.309	0.129	-0.110
-444.851	221.690	-0.184	0.298
-443.836	800.000	0.072	-0.292
-442.822	-200.000	0.002	-0.428
-441.807	24.546	0.249	-0.207
-440.792	507.826	0.075	0.175
-439.778	140.027	0.169	0.224
-438.763	237.447	-0.130	-0.217
-437.749	800.000	-0.077	-0.215
-436.734	-200.000	0.037	0.163
-435.719	-23.798	0.189	-0.114
-434.705	-89.616	0.192	0.057
-433.690	51.856	-0.070	0.067
-432.676	-63.031	-0.258	0.107
-431.661	-17.736	-0.108	-0.068
-430.646	-163.194	0.144	0.007
-429.632	-2.000	0.207	-0.146
-428.617	800.000	-0.036	0.117
-427.603	-120.397	0.153	0.026
-426.588	-200.000	-0.052	-0.259
-425.573	-18.417	-0.309	0.193
-424.559	800.000	0.060	0.225
-423.544	-163.739	-0.016	0.001
-422.530	108.138	0.140	-0.167
-421.515	-158.658	-0.149	-0.009
-420.500	141.376	0.062	0.082
-419.486	84.158	-0.079	0.086
-418.471	-58.808	0.251	-0.109
-417.457	-200.000	0.018	0.295
-416.442	200.016	0.101	-0.156
-415.428	-73.824	-0.162	-0.059
-414.413	800.000	-0.074	0.211
-413.398	73.485	-0.293	-0.307
-412.384	14.017	0.323	0.252
-411.369	-21.471	0.117	0.072
-410.355	-200.000	0.072	-0.342
-409.340	-141.648	0.315	-0.032
-408.325	-200.000	-0.064	0.322
-407.311	94.049	-0.067	-0.076
-406.296	-148.759	-0.130	-0.011
-405.282	-111.881	0.341	0.069
-404.267	-200.000	0.011	0.146
-403.252	392.042	0.113	-0.235
-402.238	96.948	-0.218	0.251
-401.223	30.031	-0.161	-0.137
-400.209	293.887	0.054	-0.100
-399.194	-200.000	-0.006	-0.160
-398.179	-65.559	-0.155	0.062
-397.165	800.000	0.005	-0.019
-396.150	148.511	-0.307	0.415
-395.136	17.233	0.424	0.338
-394.121	-47.537	0.403	-0.196
-393.106	-156.227	0.103	0.007
-392.092	-200.000	0.003	-0.049
-391.077	-195.828	0.187	-0.001
-390.063	-15.238	-0.097	-0.062
-389.048	-67.870	0.400	0.157
-388.033	192.261	0.155	-0.235
-387.019	26.059	-0.072	0.061
-386.004	-200.000	0.020	-0.223
-384.990	11.763	-0.288	-0.222
-383.975	590.530	-0.086	-0.212
-382.960	-200.000	0.014	0.077
-381.946	-119.682	-0.221	0.038
-380.931	-98.929	-0.050	0.013
-379.917	-134.157	-0.330	-0.041
-378.902	-200.000	0.056	-0.510
-377.888	800.000	-0.122	-0.529
-376.873	-200.000	-0.096	0.507
-375.858	-200.000	0.016	0.152
-374.844	290.951	-0.104	0.190
-373.829	-12.509	0.181	-0.119
-372.815	-106.273	-0.053	-0.012
-371.800	70.979	0.098	0.101
-370.785	-54.996	-0.193	0.087
-369.771	-79.073	0.260	0.088
-368.756	-64.148	-0.137	0.056
-367.742	-88.341	0.182	0.055
-366.727	-43.097	0.145	0.073
-365.712	-200.000	-0.023	0.263
-364.698	-117.768	-0.187	0.034
-363.683	702.036	-0.051	0.135
-362.669	98.946	-0.155	0.179
-361.654	-134.118	0.269	0.033
-360.639	800.000	0.103	0.356
-359.625	464.168	-0.041	0.091
-358.610	-167.152	-0.227	-0.009
-357.596	70.194	0.180	0.186
-356.581	-109.238	-0.103	-0.022
-355.566	276.037	0.023	-0.040
-354.552	256.128	0.107	0.184
-353.537	132.070	0.089	0.115
-352.523	554.808	-0.078	0.188
-351.508	-96.041	0.363	0.097
-350.493	254.946	-0.041	-0.071
-349.479	-185.281	-0.392	0.006
-348.464	331.214	-0.229	-0.442
-347.450	-192.643	-0.259	-0.002
-346.435	132.274	0.107	-0.138
-345.420	25.218	-0.266	-0.221
-344.406	-200.000	-0.006	-0.276
-343.391	95.332	-0.211	-0.240
-342.377	-48.284	-0.164	-0.079
-341.362	-135.146	0.056	-0.007
-340.348	118.956	-0.193	0.238
-339.333	-62.082	0.084	-0.035
-338.318	476.947	-0.122	-0.276
-337.304	-130.501	0.109	-0.015
-336.289	-119.235	-0.162	0.028
-335.275	760.335	-0.060	0.162
-334.260	-200.000	0.039	0.000
-333.245	200.698	-0.150	-0.231
-332.231	-28.769	-0.260	-0.149
-331.216	52.281	0.243	-0.232
-330.202	-200.000	-0.020	0.105
-329.187	325.969	-0.115	0.221
-328.172	123.799	-0.117	-0.147
-327.158	-29.951	0.088	-0.050
-326.143	-200.000	-0.029	-0.238
-325.129	715.308	0.131	-0.347
-324.114	11.897	-0.100	0.077
-323.099	-195.230	0.417	-0.003
-322.085	-92.261	-0.263	-0.074
-321.070	-45.633	-0.250	0.124
-320.056	-200.000	0.041	0.218
-319.041	429.550	0.132	0.286
-318.026	-37.974	-0.418	-0.222
-317.012	800.000	0.071	-0.205
-315.997	-200.000	-0.022	0.262
-314.983	53.443	0.121	-0.116
-313.968	-141.864	0.249	-0.025
-312.953	57.859	-0.046	-0.045
-311.939	-65.179	-0.150	0.060
-310.924	32.592	0.181	0.156
-309.910	-79.056	0.100	0.034
-308.895	157.396	0.099	-0.136
-307.880	800.000	0.059	0.234
-306.866	212.724	-0.169	-0.267
-305.851	-200.000	-0.008	-0.318
-304.837	-200.000	0.054	0.411
-303.822	32.706	0.299	-0.259
-302.807	-66.085	0.183	-0.073
-301.793	-200.000	0.008	-0.170
-300.778	101.898	-0.053	0.062
-299.764	-200.000	0.015	-0.259
-298.749	800.000	0.061	-0.213
-297.735	63.360	-0.110	0.110
-296.720	160.434	-0.211	0.294
-295.705	-142.678	-0.020	-0.002
-294.691	11.225	0.313	0.239
-293.676	-29.216	-0.260	0.149
-292.662	453.216	0.079	-0.175
-291.647	44.066	-0.065	0.059
-290.632	-100.710	0.189	-0.046
-289.618	-74.378	-0.132	0.047
-288.603	-16.473	0.156	0.099
-287.589	238.777	0.154	0.256
-286.574	-54.129	-0.061	0.028
-285.559	-181.047	0.170	0.003
-284.545	354.989	0.236	-0.469
-283.530	-149.291	0.425	-0.034
-282.516	311.059	-0.169	0.317
-281.501	465.880	0.039	-0.087
-280.486	-71.115	-0.297	-0.111
-279.472	324.787	-0.051	0.096
-278.457	800.000	0.095	0.327
-277.443	800.000	-0.132	0.403
-276.428	443.275	0.136	-0.298
-275.413	19.246	-0.212	0.170
-274.399	168.906	0.124	-0.176
-273.384	-110.553	-0.035	0.007
-272.370	-200.000	0.005	-0.130
-271.355	58.318	-0.067	-0.065
-270.340	-90.480	-0.273	-0.079
-269.326	90.457	-0.097	-0.108
-268.311	167.187	-0.111	-0.157
-267.297	37.629	0.264	-0.234
-266.282	-51.614	0.270	0.126
-265.267	-200.000	-0.019	0.086
-264.253	9.715	-0.172	0.130
-263.238	-10.599	-0.057	-0.038
-262.224	-4.006	-0.279	0.193
-261.209	-200.000	-0.015	0.115
-260.195	165.411	0.083	-0.118
-259.180	48.064	0.099	-0.092
-258.165	609.575	-0.146	0.365
-257.151	32.055	-0.039	-0.033
-256.136	800.000	-0.107	0.328
-255.122	-4.790	-0.499	-0.343
-254.107	-46.297	-0.202	-0.099
-253.092	-20.569	0.338	0.207
-252.078	-80.637	0.182	-0.060
-251.063	-9.824	0.167	0.111
-250.049	2.045	-0.127	0.091
-249.034	-179.957	-0.279	0.006
-248.019	-92.497	0.142	0.040
-247.005	181.693	-0.155	-0.228
-245.990	-113.090	0.068	0.013
-244.976	-128.952	0.356	0.050
-243.961	138.801	-0.066	0.087
-242.946	444.655	-0.088	-0.193
-241.932	-200.000	0.003	-0.292
-240.917	800.000	0.018	0.076
-239.903	-89.351	0.489	0.144
-238.888	-51.048	0.142	-0.066
-237.873	292.771	-0.129	0.234
-236.859	113.264	-0.185	-0.224
-235.844	800.000	0.087	-0.244
-234.830	-200.000	0.010	0.130
-233.815	-200.000	0.018	0.139
-232.800	87.230	0.282	0.311
-231.786	296.201	-0.183	0.334
-230.771	-200.000	0.001	-0.216
-229.757	-84.593	-0.348	-0.109
-228.742	127.819	0.254	-0.321
-227.727	4.265	-0.086	-0.063
-226.713	-80.326	0.398	-0.132
-225.698	-200.000	-0.122	-0.000
-224.684	5.704	0.345	-0.254
-223.669	-0.024	0.101	-0.072
-222.655	-59.402	-0.089	0.038
-221.640	696.874	0.047	-0.124
-220.625	-33.597	-0.103	-0.057
-219.611	-85.937	0.435	-0.134
-218.596	-200.000	-0.054	-0.311
-217.582	800.000	0.057	-0.230
-216.567	-200.000	0.004	-0.055
-215.552	204.331	-0.135	0.208
-214.538	26.480	0.259	0.216
-213.523	800.000	-0.078	0.243
-212.509	-155.008	-0.206	0.013
-211.494	159.691	0.058	0.080
-210.479	43.075	0.128	0.116
-209.465	260.534	-0.251	0.433
-208.450	-93.414	0.204	0.056
-207.436	-30.917	0.291	-0.164
-206.421	-15.294	-0.161	-0.103
-205.406	-200.000	0.010	-0.062
-204.392	-110.695	0.227	0.047
-203.377	348.844	-0.186	0.366
-202.363	354.370	-0.056	-0.110
-201.348	-111.762	-0.179	-0.036
-200.333	-200.000	-0.015	0.109
-199.319	-126.645	0.226	0.033
-198.304	20.642	0.053	0.042
-197.290	-116.175	0.141	-0.026
-196.275	-116.548	0.254	-0.047
-195.260	-110.083	0.213	0.044
-194.246	-148.472	0.166	-0.014
-193.231	38.882	-0.108	0.096
-192.217	107.322	-0.173	0.205
-191.202	594.243	-0.129	-0.316
-190.187	-112.453	0.223	-0.044
-189.173	-67.345	-0.220	-0.086
-188.158	-127.349	0.187	-0.027
-187.144	-200.000	-0.078	-0.417
-186.129	-200.000	0.012	0.223
-185.114	-200.000	-0.036	-0.246
-184.100	-200.000	0.096	-0.420
-183.085	-106.285	0.192	0.043
-182.071	453.683	0.161	0.355
-181.056	32.696	0.371	-0.319
-180.042	301.321	-0.070	-0.129
-179.027	3.410	0.151	0.109
-178.012	41.126	-0.077	0.069
-176.998	-31.916	-0.234	-0.130
-175.983	-161.446	-0.061	-0.003
-174.969	-200.000	-0.028	0.232
-173.954	-100.096	0.278	0.069
-172.939	76.855	-0.151	0.159
-171.925	-200.000	0.001	-0.012
-170.910	-155.269	-0.227	0.015
-169.896	-4.200	0.018	-0.012
-168.881	300.900	-0.104	-0.190
-167.866	10.650	-0.189	0.143
-166.852	7.627	0.233	0.173
-165.837	97.324	0.295	-0.337
-164.823	800.000	-0.082	-0.241
-163.808	-15.444	-0.168	-0.106
-162.793	-102.234	-0.163	-0.039
-161.779	-42.570	0.123	-0.062
-160.764	-53.654	0.212	-0.096
-159.750	129.029	-0.322	-0.408
-158.735	-200.000	0.018	0.422
-157.720	-15.184	0.229	-0.146
-156.706	800.000	-0.024	-0.078
-155.691	-128.754	-0.153	-0.021
-154.677	-99.693	0.466	0.116
-153.662	-200.000	-0.005	-0.124
-152.647	-98.890	-0.284	0.072
-151.633	-121.841	0.056	0.009
-150.618	136.979	-0.182	0.237
-149.604	-1.152	0.244	-0.172
-148.589	-47.370	0.377	-0.182
-147.574	-52.093	-0.307	0.142
-146.560	800.000	-0.059	-0.241
-145.545	-72.321	-0.211	-0.078
-144.531	-200.000	0.028	0.211
-143.516	-120.135	0.219	-0.037
-142.502	-43.716	0.079	-0.039
-141.487	295.628	0.100	-0.182
-140.472	-62.154	-0.077	-0.032
-139.458	38.899	0.110	0.098
-138.443	-6.196	0.220	-0.149
-137.429	259.973	-0.103	-0.176
-136.414	-52.390	-0.022	0.010
-135.399	-95.001	-0.673	0.181
-134.385	696.208	0.151	-0.392
-133.370	105.586	0.052	-0.061
-132.356	-16.595	0.047	-0.030
-131.341	-67.618	-0.062	-0.024
-130.326	358.418	-0.161	0.319
-129.312	197.108	-0.114	0.172
-128.297	736.607	0.037	0.097
-127.283	800.000	0.081	-0.269
-126.268	-67.718	-0.140	0.054
-125.253	170.341	0.161	-0.229
-124.239	275.064	0.142	0.249
-123.224	-168.814	-0.301	0.011
-122.210	-147.651	0.241	-0.020
