DTS Sentinel unit serial number:	SN413079Multiplexer serial number:	ORYXHardware model number:	OX4-SRSoftware version number:	ORYX F/W v4.00 Oryx Data Collector v3.7.2.0data status	okinstallation	princeton_trtdifferential loss correction	single-endedforward channel	channel 4reverse channel	N/Adate	2019/09/12time	12:07:11forward acquisition time	60.00reverse acquisition time	0.00gamma	496.2192k internal	0.2288k external	0.2288temperature offset calibration	1.0074default loss term (dB/km)	0.3790temperature slope calibration	1.0000multiplexer offset coefficient	1.0000multiplexer slope coefficient	1.0000fibre end	0.00T internal ref (°C)	40.53T ext. ref 1 (°C)	2.04T ext. ref 2 (°C)	36.56length (m)	temperature (°C)	Stokes	anti-Stokes-747.200	0.013	-0.200	0.146
-746.185	-200.000	0.008	0.075
-745.171	-200.000	-0.054	-0.362
-744.156	39.117	-0.350	0.321
-743.142	-99.076	-0.162	-0.042
-742.127	-20.641	0.150	-0.094
-741.112	162.465	0.110	-0.158
-740.098	-135.895	0.354	-0.043
-739.083	-0.492	0.192	-0.140
-738.069	20.446	-0.095	0.079
-737.054	-33.395	-0.252	-0.143
-736.039	800.000	-0.144	0.456
-735.025	-200.000	-0.046	0.222
-734.010	-83.950	-0.330	-0.108
-732.996	-59.256	-0.203	-0.090
-731.981	-59.680	0.121	-0.053
-730.966	-176.415	-0.150	0.004
-729.952	-78.016	-0.527	0.186
-728.937	-70.911	-0.216	-0.083
-727.923	-152.121	0.150	-0.011
-726.908	148.916	-0.078	-0.109
-725.894	-92.180	0.115	-0.033
-724.879	-66.586	-0.056	0.023
-723.864	638.819	0.114	0.296
-722.850	-122.209	-0.149	0.025
-721.835	-35.146	0.166	-0.093
-720.821	105.672	0.154	0.186
-719.806	-14.492	-0.164	-0.108
-718.791	800.000	-0.054	0.170
-717.777	203.831	-0.155	-0.245
-716.762	-200.000	-0.016	-0.260
-715.748	-2.747	-0.092	-0.066
-714.733	800.000	-0.071	0.302
-713.718	800.000	0.086	-0.313
-712.704	-179.672	-0.054	-0.001
-711.689	-87.067	-0.366	-0.114
-710.675	-122.369	0.173	0.029
-709.660	523.623	0.151	-0.364
-708.645	-23.180	0.234	-0.144
-707.631	-200.000	-0.016	-0.268
-706.616	66.921	0.130	-0.135
-705.602	-12.204	-0.075	0.050
-704.587	-91.327	-0.101	-0.030
-703.572	-200.000	-0.031	-0.413
-702.558	-200.000	-0.018	-0.188
-701.543	1.495	-0.088	-0.065
-700.529	-200.000	0.012	0.095
-699.514	112.086	-0.109	-0.135
-698.499	245.556	0.122	0.211
-697.485	6.026	0.050	-0.038
-696.470	-200.000	0.031	-0.268
-695.456	77.311	-0.112	-0.122
-694.441	60.413	0.218	0.220
-693.426	186.595	0.199	-0.303
-692.412	-200.000	-0.035	-0.265
-691.397	0.480	0.121	0.089
-690.383	-144.938	0.112	0.011
-689.368	-200.000	0.007	0.151
-688.354	-49.489	-0.291	-0.142
-687.339	408.573	0.109	-0.237
-686.324	50.289	0.039	-0.037
-685.310	-14.946	-0.153	-0.100
-684.295	-116.086	0.203	0.039
-683.281	-200.000	0.031	-0.217
-682.266	-183.125	-0.277	0.005
-681.251	37.391	-0.340	-0.309
-680.237	138.684	0.051	0.068
-679.222	-44.409	-0.285	-0.146
-678.208	-92.973	-0.276	0.079
-677.193	-200.000	-0.003	0.107
-676.178	42.316	0.052	-0.048
-675.164	-82.699	0.050	-0.017
-674.149	-111.705	0.368	-0.076
-673.135	-133.270	-0.202	0.026
-672.120	800.000	0.057	0.194
-671.105	27.026	0.190	-0.163
-670.091	-200.000	0.017	-0.179
-669.076	-16.972	0.141	-0.091
-668.062	73.604	0.015	0.016
-667.047	-200.000	0.006	0.068
-666.032	-110.825	-0.543	0.114
-665.018	64.746	0.066	-0.068
-664.003	-24.765	-0.200	-0.122
-662.989	800.000	-0.140	-0.486
-661.974	78.830	-0.173	-0.189
-660.959	-29.682	-0.307	-0.179
-659.945	493.888	0.011	0.026
-658.930	-41.506	0.127	0.067
-657.916	90.716	0.127	-0.146
-656.901	-200.000	0.027	-0.179
-655.886	-155.991	-0.352	0.023
-654.872	41.016	0.389	-0.359
-653.857	249.029	-0.061	0.106
-652.843	4.904	-0.319	-0.240
-651.828	119.033	0.137	-0.173
-650.814	71.875	0.020	0.021
-649.799	-72.878	0.220	0.083
-648.784	-47.829	-0.257	-0.127
-647.770	554.443	-0.030	0.073
-646.755	160.854	-0.014	0.019
-645.741	38.528	0.023	0.021
-644.726	407.891	-0.101	0.218
-643.711	800.000	0.107	-0.466
-642.697	538.275	0.106	-0.257
-641.682	-155.546	0.410	-0.027
-640.668	-16.148	0.083	0.054
-639.653	-102.346	-0.332	-0.081
-638.638	188.206	-0.163	0.249
-637.624	101.401	0.154	-0.184
-636.609	800.000	0.041	0.123
-635.595	-47.415	0.197	0.098
-634.580	800.000	0.045	0.151
-633.565	-200.000	0.038	-0.302
-632.551	100.682	-0.065	0.077
-631.536	800.000	-0.021	-0.073
-630.522	371.605	-0.089	-0.185
-629.507	760.315	0.072	-0.200
-628.492	-127.605	-0.164	-0.024
-627.478	800.000	0.055	-0.243
-626.463	-200.000	-0.039	-0.205
-625.449	14.693	-0.191	0.153
-624.434	164.683	0.183	0.263
-623.419	-182.197	-0.024	-0.000
-622.405	-52.767	0.088	0.041
-621.390	-200.000	-0.032	0.210
-620.376	-5.347	0.180	-0.126
-619.361	-60.847	-0.499	0.216
-618.346	-17.736	-0.228	-0.146
-617.332	-200.000	0.044	-0.204
-616.317	800.000	0.089	0.265
-615.303	25.770	0.091	-0.077
-614.288	65.436	-0.109	-0.112
-613.273	218.785	-0.071	-0.115
-612.259	-56.869	0.247	-0.112
-611.244	-200.000	0.027	-0.166
-610.230	-141.919	-0.286	0.029
-609.215	-152.175	-0.267	-0.020
-608.201	125.353	-0.036	0.047
-607.186	-80.415	0.074	0.025
-606.171	-200.000	-0.013	-0.113
-605.157	-128.055	0.269	0.039
-604.142	15.339	0.031	-0.025
-603.128	10.016	0.053	0.041
-602.113	-15.873	0.019	0.013
-601.098	-28.718	-0.499	-0.292
-600.084	609.572	0.067	-0.170
-599.069	-131.927	-0.273	0.036
-598.055	-114.151	-0.364	-0.072
-597.040	388.688	0.039	0.083
-596.025	-200.000	-0.006	0.116
-595.011	-41.318	-0.260	0.136
-593.996	-200.000	-0.043	0.293
-592.982	159.204	-0.126	-0.178
-591.967	431.386	0.092	-0.202
-590.952	800.000	0.091	-0.273
-589.938	-200.000	0.016	-0.128
-588.923	237.791	0.093	-0.157
-587.909	-38.438	-0.178	-0.096
-586.894	761.849	-0.023	-0.063
-585.879	-50.014	-0.052	-0.025
-584.865	1.555	-0.020	0.015
-583.850	-25.979	0.152	0.091
-582.836	34.485	0.245	0.218
-581.821	-200.000	0.020	-0.323
-580.806	151.872	0.129	-0.179
-579.792	-200.000	0.005	0.195
-578.777	-35.436	0.181	0.100
-577.763	-200.000	0.000	-0.022
-576.748	443.158	-0.138	0.308
-575.733	-101.550	0.136	0.034
-574.719	-200.000	-0.001	0.324
-573.704	79.558	0.091	-0.099
-572.690	98.321	-0.084	-0.098
-571.675	189.693	0.061	-0.093
-570.661	589.153	0.130	-0.325
-569.646	658.073	-0.031	0.081
-568.631	-97.292	-0.254	0.067
-567.617	533.269	-0.064	-0.154
-566.602	-151.178	-0.419	0.032
-565.588	-88.200	0.213	0.065
-564.573	800.000	-0.052	0.153
-563.558	-24.188	0.190	-0.115
-562.544	-156.625	0.042	0.003
-561.529	-200.000	-0.006	0.403
-560.515	-55.825	-0.141	-0.064
-559.500	155.070	0.067	-0.094
-558.485	-151.262	-0.355	-0.027
-557.471	-123.237	0.249	-0.041
-556.456	-31.566	-0.178	0.102
-555.442	-49.654	-0.192	-0.093
-554.427	247.558	0.117	-0.201
-553.412	165.982	-0.053	0.076
-552.398	74.389	0.036	0.039
-551.383	-119.778	-0.069	-0.012
-550.369	555.496	-0.119	-0.291
-549.354	-93.149	0.175	-0.049
-548.339	787.318	-0.103	0.288
-547.325	110.330	-0.068	-0.083
-546.310	13.120	-0.318	0.250
-545.296	153.701	0.398	-0.555
-544.281	62.859	-0.105	0.107
-543.266	-18.100	-0.223	-0.142
-542.252	-84.183	-0.357	0.115
-541.237	-200.000	-0.068	-0.000
-540.223	-74.891	0.208	0.076
-539.208	800.000	0.047	-0.133
-538.193	259.256	0.127	0.224
-537.179	-73.580	-0.336	-0.124
-536.164	-149.531	0.363	-0.029
-535.150	90.017	-0.178	0.203
-534.135	800.000	-0.048	0.183
-533.121	-81.420	-0.171	-0.057
-532.106	97.867	-0.082	-0.096
-531.091	800.000	0.009	0.030
-530.077	-48.444	-0.081	0.040
-529.062	-81.317	0.265	0.089
-528.048	187.504	-0.236	0.357
-527.033	86.928	-0.103	0.115
-526.018	546.466	0.132	-0.320
-525.004	383.548	0.072	0.151
-523.989	-77.721	0.300	0.105
-522.975	-13.730	0.186	0.122
-521.960	9.050	-0.159	-0.122
-520.945	24.788	-0.157	-0.132
-519.931	-7.636	-0.054	0.037
-518.916	-102.746	-0.023	0.006
-517.902	-99.308	0.170	0.044
-516.887	-95.755	0.166	0.045
-515.872	-16.049	0.405	0.262
-514.858	125.627	-0.170	0.218
-513.843	101.369	0.131	0.155
-512.829	-169.421	-0.117	-0.004
-511.814	-4.804	-0.159	0.111
-510.799	-142.365	-0.490	-0.049
-509.785	166.815	0.067	-0.097
-508.770	-112.430	-0.143	0.029
-507.756	-200.000	-0.040	-0.237
-506.741	-163.840	-0.054	-0.003
-505.726	159.253	0.193	-0.273
-504.712	-36.403	0.055	-0.030
-503.697	-153.718	0.440	-0.031
-502.683	322.122	-0.058	-0.112
-501.668	45.992	0.115	-0.108
-500.653	2.454	-0.054	-0.040
-499.639	576.248	0.022	0.054
-498.624	76.048	-0.233	0.250
-497.610	-25.447	-0.046	-0.028
-496.595	-200.000	-0.049	0.426
-495.581	-24.477	0.206	0.124
-494.566	680.972	0.075	-0.199
-493.551	-51.755	-0.005	-0.002
-492.537	-72.273	0.190	0.071
-491.522	-200.000	-0.014	0.171
-490.508	27.856	0.062	0.053
-489.493	4.684	-0.353	-0.263
-488.478	124.396	0.103	-0.132
-487.464	-109.910	-0.132	0.028
-486.449	387.478	-0.081	-0.171
-485.435	-166.798	-0.134	0.006
-484.420	112.811	0.180	-0.222
-483.405	119.901	0.332	-0.418
-482.391	800.000	0.051	0.166
-481.376	-104.722	0.058	0.013
-480.362	800.000	-0.052	-0.221
-479.347	429.464	0.080	-0.175
-478.332	545.271	-0.030	0.073
-477.318	-32.644	0.091	0.052
-476.303	22.839	-0.148	0.123
-475.289	262.716	0.200	0.352
-474.274	800.000	-0.118	0.331
-473.259	159.944	0.134	0.190
-472.245	346.911	-0.161	0.321
-471.230	3.376	-0.043	0.032
-470.216	139.971	0.146	0.195
-469.201	190.201	-0.243	-0.371
-468.186	139.242	-0.142	0.189
-467.172	65.871	0.033	-0.034
-466.157	800.000	0.173	-0.545
-465.143	183.373	-0.097	0.146
-464.128	-82.227	-0.043	0.014
-463.113	-49.621	-0.196	-0.094
-462.099	93.349	-0.073	-0.084
-461.084	800.000	0.023	0.078
-460.070	219.526	-0.117	-0.190
-459.055	214.828	0.170	0.274
-458.040	17.675	0.123	-0.099
-457.026	273.134	-0.196	-0.351
-456.011	-200.000	0.001	-0.039
-454.997	-83.780	-0.283	-0.092
-453.982	-52.610	-0.170	-0.080
-452.968	272.857	0.132	0.236
-451.953	-98.185	0.215	-0.056
-450.938	46.722	-0.071	-0.067
-449.924	-117.526	-0.137	0.025
-448.909	-17.390	0.163	-0.104
-447.895	-60.207	0.283	-0.122
-446.880	333.307	-0.111	0.217
-445.865	39.065	0.293	0.266
-444.851	-58.376	0.395	-0.174
-443.836	-78.338	0.243	-0.085
-442.822	22.558	0.187	0.155
-441.807	654.996	0.127	0.330
-440.792	-106.546	0.240	0.054
-439.778	322.785	-0.144	0.279
-438.763	-200.000	-0.043	-0.390
-437.749	143.853	-0.062	0.084
-436.734	308.159	-0.066	0.124
-435.719	486.860	0.058	-0.134
-434.705	-93.300	-0.174	-0.049
-433.690	543.213	0.113	-0.272
-432.676	581.726	0.096	-0.238
-431.661	-90.762	-0.251	0.073
-430.646	-114.793	0.351	-0.068
-429.632	637.512	0.108	-0.277
-428.617	0.099	-0.219	-0.158
-427.603	-200.000	-0.006	0.121
-426.588	43.725	0.290	0.269
-425.573	362.144	-0.026	0.052
-424.559	-63.764	-0.265	-0.110
-423.544	31.690	0.146	-0.127
-422.530	-107.680	-0.101	0.022
-421.515	-200.000	-0.009	-0.108
-420.500	800.000	-0.016	0.053
-419.486	-83.217	0.139	-0.045
-418.471	73.684	-0.229	-0.243
-417.457	44.888	-0.201	-0.187
-416.442	47.122	-0.161	-0.152
-415.428	-157.862	0.363	0.022
-414.413	-170.364	0.229	0.008
-413.398	255.383	-0.023	-0.041
-412.384	-116.445	-0.189	-0.035
-411.369	31.679	-0.081	0.071
-410.355	29.484	-0.179	0.154
-409.340	230.091	-0.051	0.085
-408.325	145.746	-0.175	0.237
-407.311	-200.000	0.037	-0.206
-406.296	-117.662	0.217	0.040
-405.282	800.000	-0.014	-0.057
-404.267	800.000	0.061	0.242
-403.252	576.422	-0.033	0.083
-402.238	-138.576	0.205	-0.023
-401.223	-200.000	0.018	-0.220
-400.209	-53.368	-0.158	0.073
-399.194	-200.000	0.039	0.218
-398.179	-11.372	-0.292	0.194
-397.165	-12.280	0.235	0.155
-396.150	-93.994	0.159	0.044
-395.136	-200.000	0.028	0.274
-394.121	-116.840	0.138	0.026
-393.106	3.474	-0.127	-0.094
-392.092	-200.000	-0.033	0.260
-391.077	76.881	-0.302	-0.324
-390.063	636.953	-0.109	-0.279
-389.048	800.000	-0.128	0.413
-388.033	-86.894	0.206	0.064
-387.019	-72.907	0.151	0.056
-386.004	800.000	-0.008	-0.033
-384.990	27.091	-0.065	0.056
-383.975	-24.678	0.289	-0.174
-382.960	-74.098	0.264	-0.097
-381.946	-93.681	-0.333	-0.093
-380.931	169.281	-0.040	-0.058
-379.917	92.912	0.119	0.136
-378.902	800.000	-0.035	-0.144
-377.888	-19.440	0.165	0.103
-376.873	-39.400	0.247	0.131
-375.858	-24.107	0.168	0.102
-374.844	800.000	-0.046	0.188
-373.829	800.000	0.056	0.232
-372.815	384.684	-0.061	-0.128
-371.800	-148.968	0.175	-0.014
-370.785	-105.211	-0.370	-0.085
-369.771	30.069	-0.227	-0.196
-368.756	-139.731	0.024	-0.003
-367.742	140.515	0.093	0.124
-366.727	-121.909	-0.244	0.041
-365.712	800.000	0.024	0.078
-364.698	-43.546	-0.158	-0.081
-363.683	167.109	0.309	-0.443
-362.669	-200.000	0.019	0.292
-361.654	-177.216	0.166	-0.004
-360.639	-24.711	-0.139	0.084
-359.625	-200.000	0.009	0.050
-358.610	134.328	0.199	0.261
-357.596	32.082	0.188	0.164
-356.581	357.791	0.086	0.172
-355.566	88.926	0.157	0.176
-354.552	535.803	0.141	-0.337
-353.537	-132.340	0.199	-0.026
-352.523	-133.529	-0.233	0.029
-351.508	-200.000	-0.102	0.000
-350.493	-18.245	-0.255	0.161
-349.479	173.563	0.101	-0.148
-348.464	-200.000	-0.013	-0.166
-347.450	-47.016	0.100	-0.049
-346.435	-78.256	-0.359	0.125
-345.420	-135.083	-0.127	0.015
-344.406	-103.622	-0.194	0.046
-343.391	-162.342	0.348	0.017
-342.377	48.329	0.137	-0.129
-341.362	-106.833	0.154	0.034
-340.348	-174.884	-0.155	0.004
-339.333	-200.000	0.048	0.380
-338.318	254.292	0.131	0.226
-337.304	-67.451	0.097	0.039
-336.289	-168.451	-0.377	-0.015
-335.275	352.447	0.120	0.239
-334.260	7.781	0.363	-0.274
-333.245	-60.018	-0.296	-0.128
-332.231	-120.696	0.124	0.021
-331.216	-20.440	-0.198	-0.123
-330.202	-200.000	-0.017	0.232
-329.187	800.000	-0.071	-0.211
-328.172	800.000	-0.034	0.097
-327.158	372.379	0.109	0.224
-326.143	271.404	-0.222	-0.395
-325.129	48.629	-0.085	0.080
-324.114	-137.451	0.197	-0.022
-323.099	-200.000	-0.004	0.046
-322.085	-200.000	0.051	-0.340
-321.070	-82.856	0.190	-0.062
-320.056	130.658	0.084	0.109
-319.041	800.000	-0.048	-0.196
-318.026	-99.978	0.320	0.081
-317.012	-121.706	0.180	-0.030
-315.997	165.552	-0.181	-0.259
-314.983	-162.126	0.360	0.018
-313.968	-24.464	-0.119	0.072
-312.953	800.000	0.103	0.337
-311.939	560.012	0.062	0.152
-310.924	-88.343	-0.327	-0.098
-309.910	-200.000	0.001	0.020
-308.895	800.000	0.031	-0.138
-307.880	-200.000	0.022	0.107
-306.866	19.651	0.126	0.102
-305.851	100.063	-0.162	0.189
-304.837	-200.000	0.016	-0.302
-303.822	-94.949	-0.185	0.050
-302.807	55.798	0.075	-0.073
-301.793	-24.722	0.028	0.017
-300.778	800.000	0.043	0.164
-299.764	-200.000	-0.009	0.349
-298.749	800.000	-0.099	0.382
-297.735	54.403	-0.313	-0.303
-296.720	-200.000	-0.017	-0.173
-295.705	26.597	0.346	-0.292
-294.691	274.556	-0.146	-0.260
-293.676	-188.199	0.166	-0.002
-292.662	-42.266	-0.028	0.015
-291.647	-200.000	-0.031	0.242
-290.632	-166.262	-0.261	0.011
-289.618	-200.000	0.032	0.256
-288.603	619.010	-0.063	0.159
-287.589	-98.878	-0.063	0.016
-286.574	-3.195	0.115	-0.081
-285.559	607.297	-0.081	-0.205
-284.545	-85.233	-0.147	0.046
-283.530	733.316	0.031	-0.084
-282.516	-200.000	-0.011	0.223
-281.501	-178.257	0.148	0.004
-280.486	247.184	0.088	0.149
-279.472	9.845	0.168	0.128
-278.457	-130.527	-0.474	0.064
-277.443	800.000	-0.031	0.126
-276.428	-37.071	-0.185	0.100
-275.413	-88.411	-0.416	0.125
-274.399	-83.417	-0.104	0.034
-273.384	259.556	-0.077	-0.134
-272.370	206.512	0.087	-0.136
-271.355	800.000	0.141	-0.425
-270.340	-132.615	-0.234	-0.030
-269.326	11.847	-0.328	0.254
-268.311	172.704	-0.096	-0.139
-267.297	-96.467	0.192	0.051
-266.282	522.299	0.073	0.172
-265.267	-170.013	-0.230	0.008
-264.253	-200.000	0.025	0.173
-263.238	-30.268	0.220	0.126
-262.224	388.849	-0.054	0.113
-261.209	389.441	-0.064	0.133
-260.195	-75.771	-0.310	-0.111
-259.180	-50.938	-0.356	-0.168
-258.165	-200.000	0.011	-0.235
-257.151	77.675	0.284	-0.305
-256.136	-132.751	-0.173	0.022
-255.122	-12.506	0.356	0.234
-254.107	-200.000	0.042	0.225
-253.092	800.000	0.066	-0.240
-252.078	176.144	-0.020	0.029
-251.063	-0.270	-0.197	0.141
-250.049	-118.938	0.104	0.018
-249.034	-200.000	-0.066	-0.316
-248.019	110.100	-0.128	-0.155
-247.005	590.305	-0.087	-0.215
-245.990	656.918	0.096	-0.248
-244.976	-76.564	0.295	0.104
-243.961	175.612	0.053	0.077
-242.946	114.328	0.219	0.268
-241.932	-117.998	-0.312	0.056
-240.917	60.423	-0.162	-0.161
-239.903	1.547	0.166	-0.120
-238.888	-200.000	-0.040	-0.292
-237.873	353.954	-0.047	-0.094
-236.859	34.613	-0.309	0.272
-235.844	-200.000	0.020	0.307
-234.830	800.000	-0.115	0.335
-233.815	641.540	-0.056	-0.144
-232.800	-200.000	-0.004	-0.365
-231.786	322.539	-0.023	0.045
-230.771	-111.385	0.036	0.007
-229.757	129.017	0.037	-0.048
-228.742	574.346	0.049	0.119
-227.727	-47.244	-0.088	0.043
-226.713	-200.000	-0.002	-0.187
-225.698	428.914	0.095	-0.206
-224.684	-150.527	0.134	0.010
-223.669	-122.675	-0.239	0.039
-222.655	25.649	0.236	0.198
-221.640	-67.618	0.384	0.151
-220.625	286.468	0.039	0.071
-219.611	-83.880	-0.384	-0.123
-218.596	-200.000	0.001	-0.054
-217.582	-72.074	0.324	0.121
-216.567	15.217	0.169	-0.133
-215.552	-200.000	0.029	-0.313
-214.538	481.730	-0.080	0.181
-213.523	-42.402	-0.160	0.082
-212.509	-94.509	-0.138	-0.038
-211.494	355.361	-0.080	-0.160
-210.479	-138.048	0.317	-0.035
-209.465	41.825	0.157	0.143
-208.450	-89.663	0.158	-0.046
-207.436	-200.000	-0.035	0.182
-206.421	-38.052	0.272	0.145
-205.406	-80.082	-0.170	-0.057
-204.392	32.526	-0.025	0.021
-203.377	-65.345	0.176	-0.071
-202.363	-200.000	-0.035	-0.269
-201.348	-200.000	0.061	-0.376
-200.333	-37.205	-0.217	-0.117
-199.319	46.880	-0.012	0.011
-198.304	316.793	0.163	0.310
-197.290	560.933	0.193	0.468
-196.275	596.604	0.027	-0.068
-195.260	-35.472	0.121	-0.066
-194.246	41.361	-0.172	0.156
-193.231	-28.052	0.343	-0.199
-192.217	800.000	0.109	0.316
-191.202	78.592	-0.223	-0.239
-190.187	-55.600	0.255	-0.115
-189.173	-18.473	-0.083	-0.052
-188.158	5.137	-0.140	-0.103
-187.144	39.814	0.107	-0.096
-186.129	185.610	0.164	-0.244
-185.114	-13.283	-0.156	-0.102
-184.100	800.000	0.018	-0.061
-183.085	-127.640	-0.018	-0.003
-182.071	-123.207	-0.100	-0.016
-181.056	-82.976	-0.316	0.102
-180.042	-72.948	0.355	0.131
-179.027	-50.489	0.418	0.198
-178.012	200.270	0.162	-0.249
-176.998	-153.009	-0.244	-0.017
-175.983	77.982	-0.137	0.147
-174.969	-105.691	0.219	-0.050
-173.954	-108.102	0.231	0.050
-172.939	-200.000	-0.048	-0.329
-171.925	-17.482	0.258	0.163
-170.910	158.684	-0.205	0.286
-169.896	-200.000	0.015	-0.170
-168.881	673.979	-0.075	0.194
-167.866	674.074	0.032	-0.083
-166.852	-95.751	-0.342	-0.091
-165.837	111.450	-0.131	0.159
-164.823	-200.000	-0.007	0.187
-163.808	19.999	-0.182	0.147
-162.793	468.228	0.029	-0.065
-161.779	108.688	0.167	0.200
-160.764	389.534	-0.076	0.159
-159.750	-2.413	-0.209	0.147
-158.735	165.733	0.102	0.145
-157.720	648.578	0.168	-0.431
-156.706	800.000	0.068	0.293
-155.691	-186.559	-0.139	-0.002
-154.677	273.539	0.167	-0.296
-153.662	11.749	-0.083	0.064
-152.647	297.971	0.024	-0.044
-151.633	-45.234	0.239	-0.119
-150.618	-123.053	0.086	-0.014
-149.604	-102.548	0.301	0.072
-148.589	800.000	-0.022	0.076
-147.574	800.000	0.067	0.214
-146.560	110.830	-0.055	-0.066
-145.545	-200.000	0.015	-0.140
-144.531	139.621	0.055	-0.072
-143.516	22.699	0.259	0.213
-142.502	11.089	-0.169	0.130
-141.487	290.217	0.129	-0.235
-140.472	-46.202	-0.286	-0.141
-139.458	-89.029	0.137	-0.041
-138.443	98.136	0.043	0.049
-137.429	-4.195	-0.183	-0.127
-136.414	800.000	-0.101	0.405
-135.399	27.705	0.255	0.215
-134.385	-37.573	0.448	0.239
-133.370	-72.634	-0.351	-0.130
-132.356	-137.034	-0.055	0.006
-131.341	800.000	0.075	-0.278
-130.326	-32.899	0.128	0.071
-129.312	-146.868	-0.373	0.032
-128.297	213.626	0.094	-0.149
-127.283	143.944	-0.106	-0.142
-126.268	-200.000	0.012	-0.104
-125.253	-125.446	-0.242	-0.037
-124.239	107.707	0.165	0.196
-123.224	800.000	0.115	-0.463
-122.210	51.409	0.078	0.074
-121.195	10.210	-0.135	0.102
-120.180	307.247	0.048	0.090
