DTS Sentinel unit serial number:	SN413079Multiplexer serial number:	ORYXHardware model number:	OX4-SRSoftware version number:	ORYX F/W v4.00 Oryx Data Collector v3.7.2.0data status	okinstallation	princeton_trtdifferential loss correction	single-endedforward channel	channel 4reverse channel	N/Adate	2019/09/12time	03:35:10forward acquisition time	60.00reverse acquisition time	0.00gamma	496.2192k internal	0.2309k external	0.2309temperature offset calibration	1.0093default loss term (dB/km)	0.3790temperature slope calibration	1.0000multiplexer offset coefficient	1.0000multiplexer slope coefficient	1.0000fibre end	0.00T internal ref (°C)	32.17T ext. ref 1 (°C)	2.15T ext. ref 2 (°C)	27.09length (m)	temperature (°C)	Stokes	anti-Stokes-747.200	-124.476	0.340	0.054
-746.185	800.000	-0.076	0.239
-745.171	-200.000	-0.005	0.237
-744.156	-96.678	-0.220	0.059
-743.142	5.339	-0.399	0.299
-742.127	21.390	0.137	0.113
-741.112	82.152	-0.178	-0.196
-740.098	471.115	0.089	0.203
-739.083	-200.000	0.017	-0.204
-738.069	26.718	-0.191	0.162
-737.054	35.334	-0.067	0.060
-736.039	-3.673	-0.267	-0.188
-735.025	-68.525	0.206	0.081
-734.010	-87.073	-0.345	0.107
-732.996	-139.769	-0.323	-0.035
-731.981	41.133	-0.311	0.285
-730.966	-200.000	0.020	-0.387
-729.952	-37.667	0.209	-0.113
-728.937	73.530	0.177	0.188
-727.923	-114.467	-0.202	-0.039
-726.908	800.000	-0.092	0.333
-725.894	-200.000	-0.077	-0.446
-724.879	14.227	0.113	-0.089
-723.864	-3.852	-0.226	0.159
-722.850	60.151	-0.354	0.356
-721.835	800.000	-0.060	0.213
-720.821	800.000	0.047	0.180
-719.806	479.911	-0.044	0.102
-718.791	427.540	-0.096	-0.209
-717.777	800.000	0.142	-0.423
-716.762	-138.334	0.253	-0.028
-715.748	93.495	-0.194	-0.223
-714.733	-62.751	0.052	0.022
-713.718	109.794	-0.282	-0.343
-712.704	-200.000	-0.027	-0.394
-711.689	44.486	0.041	0.038
-710.675	-74.896	0.587	-0.214
-709.660	234.074	0.047	0.079
-708.645	7.639	-0.150	-0.114
-707.631	-2.867	-0.309	-0.219
-706.616	83.801	-0.177	0.196
-705.602	800.000	-0.031	0.105
-704.587	-82.009	-0.390	-0.129
-703.572	38.238	-0.182	0.164
-702.558	39.324	0.191	-0.174
-701.543	7.164	0.097	-0.073
-700.529	340.031	-0.098	0.194
-699.514	-118.271	0.128	-0.023
-698.499	-57.482	-0.109	0.049
-697.485	243.756	0.226	-0.385
-696.470	-74.682	0.092	0.034
-695.456	-3.688	-0.059	0.042
-694.441	-200.000	0.003	0.068
-693.426	-57.593	-0.234	-0.104
-692.412	-109.797	0.184	-0.039
-691.397	800.000	0.054	-0.218
-690.383	377.035	-0.049	0.102
-689.368	-70.703	-0.252	-0.096
-688.354	222.657	-0.261	-0.426
-687.339	520.024	-0.036	-0.086
-686.324	-177.313	0.051	-0.001
-685.310	-103.439	-0.358	0.085
-684.295	-200.000	-0.002	-0.020
-683.281	272.101	-0.095	-0.169
-682.266	-90.016	-0.273	-0.081
-681.251	-82.362	-0.136	-0.045
-680.237	339.173	0.208	0.410
-679.222	313.414	-0.056	-0.108
-678.208	800.000	-0.111	-0.419
-677.193	2.801	-0.044	0.033
-676.178	-15.791	-0.372	0.240
-675.164	557.941	-0.140	-0.342
-674.149	-97.243	-0.235	0.062
-673.135	-37.629	-0.216	-0.117
-672.120	-1.676	0.094	0.067
-671.105	-200.000	-0.029	-0.188
-670.091	-165.015	-0.077	0.003
-669.076	-93.638	-0.105	-0.029
-668.062	420.570	0.077	0.167
-667.047	253.315	0.134	-0.232
-666.032	-30.397	0.189	0.109
-665.018	24.192	0.134	0.112
-664.003	79.805	0.026	0.028
-662.989	-96.530	-0.268	0.072
-661.974	-136.358	0.106	0.013
-660.959	-125.529	0.128	-0.020
-659.945	102.415	-0.043	-0.051
-658.930	262.229	0.097	-0.170
-657.916	119.018	0.082	-0.103
-656.901	-200.000	-0.019	-0.285
-655.886	346.268	0.109	-0.217
-654.872	-200.000	0.058	-0.336
-653.857	-67.830	0.322	0.127
-652.843	121.743	-0.048	-0.060
-651.828	-109.486	-0.055	-0.012
-650.814	-59.138	0.401	-0.175
-649.799	-127.885	0.159	0.023
-648.784	-20.912	-0.116	-0.072
-647.770	-18.752	-0.129	-0.081
-646.755	197.607	-0.211	0.325
-645.741	-85.314	0.081	-0.025
-644.726	-26.345	-0.044	-0.026
-643.711	-5.388	0.231	0.161
-642.697	-21.405	-0.355	-0.219
-641.682	-133.731	-0.105	0.013
-640.668	188.228	-0.163	0.247
-639.653	-103.135	-0.112	0.027
-638.638	-49.351	0.284	0.137
-637.624	132.393	-0.094	-0.123
-636.609	-128.058	-0.332	0.048
-635.595	-200.000	-0.047	0.489
-634.580	170.044	-0.186	0.269
-633.565	-114.038	0.351	0.069
-632.551	-200.000	0.033	-0.274
-631.536	259.875	0.076	-0.134
-630.522	41.726	-0.219	0.200
-629.507	-200.000	-0.012	0.121
-628.492	-200.000	-0.049	-0.270
-627.478	345.797	0.103	-0.204
-626.463	-200.000	0.032	-0.227
-625.449	7.117	-0.159	-0.120
-624.434	-200.000	-0.008	0.200
-623.419	149.611	-0.085	0.116
-622.405	-200.000	0.013	0.115
-621.390	184.869	-0.175	-0.262
-620.376	-90.901	0.053	-0.015
-619.361	-187.630	-0.227	0.003
-618.346	76.294	-0.188	-0.202
-617.332	512.096	0.063	-0.149
-616.317	-26.069	0.159	0.095
-615.303	800.000	0.100	-0.330
-614.288	-44.027	0.033	-0.017
-613.273	46.877	-0.153	-0.143
-612.259	-200.000	0.027	0.129
-611.244	216.083	-0.161	-0.259
-610.230	35.621	-0.113	-0.100
-609.215	-69.317	0.307	-0.119
-608.201	389.881	-0.083	-0.173
-607.186	-200.000	0.022	0.199
-606.171	766.778	0.053	0.146
-605.157	-47.612	0.375	0.184
-604.142	-85.834	-0.113	-0.035
-603.128	-140.294	-0.103	-0.011
-602.113	347.297	0.140	0.279
-601.098	-43.481	-0.234	-0.119
-600.084	-29.718	0.074	-0.043
-599.069	319.875	0.098	-0.187
-598.055	-200.000	0.003	0.442
-597.040	800.000	-0.104	-0.438
-596.025	-70.917	-0.394	0.150
-595.011	800.000	-0.059	-0.213
-593.996	-98.647	-0.165	-0.042
-592.982	-85.547	-0.306	0.096
-591.967	40.816	-0.030	-0.028
-590.952	459.341	-0.015	-0.035
-589.938	-0.343	0.203	-0.146
-588.923	800.000	-0.050	-0.152
-587.909	184.711	-0.214	-0.321
-586.894	-52.977	-0.082	0.038
-585.879	184.364	0.221	0.331
-584.865	-6.072	-0.062	0.043
-583.850	116.079	-0.199	-0.246
-582.836	-200.000	-0.011	-0.090
-581.821	84.464	-0.055	-0.061
-580.806	-65.842	0.028	-0.011
-579.792	-200.000	-0.009	-0.200
-578.777	-63.304	0.142	0.059
-577.763	-74.585	0.092	-0.033
-576.748	11.973	-0.013	-0.010
-575.733	-80.402	0.135	-0.046
-574.719	352.801	-0.067	0.135
-573.704	-138.335	0.106	0.012
-572.690	800.000	0.087	0.355
-571.675	-200.000	-0.013	-0.110
-570.661	684.502	0.095	-0.250
-569.646	-9.479	0.087	-0.058
-568.631	-95.419	-0.209	-0.057
-567.617	-200.000	0.033	-0.469
-566.602	-136.522	-0.281	0.033
-565.588	-56.539	-0.109	-0.049
-564.573	-200.000	-0.005	0.228
-563.558	-117.428	0.270	-0.049
-562.544	26.081	-0.259	-0.218
-561.529	-200.000	-0.002	0.066
-560.515	-200.000	-0.013	0.217
-559.500	-4.344	0.114	-0.080
-558.485	-116.941	-0.268	-0.049
-557.471	800.000	0.012	-0.052
-556.456	82.528	0.110	0.120
-555.442	800.000	0.088	0.289
-554.427	-65.771	0.136	0.055
-553.412	55.412	-0.118	-0.115
-552.398	800.000	-0.045	0.141
-551.383	-73.944	-0.411	0.150
-550.369	-200.000	-0.015	-0.169
-549.354	-65.523	0.176	-0.071
-548.339	578.338	-0.048	0.118
-547.325	-200.000	0.000	0.139
-546.310	4.301	0.138	0.102
-545.296	456.710	0.052	-0.117
-544.281	369.791	0.048	-0.098
-543.266	800.000	-0.028	0.116
-542.252	-200.000	0.029	-0.330
-541.237	-74.071	0.108	0.039
-540.223	-40.196	-0.144	0.076
-539.208	-37.313	-0.134	0.072
-538.193	-143.645	0.126	-0.012
-537.179	127.829	-0.175	-0.224
-536.164	157.265	0.177	-0.247
-535.150	-88.793	-0.117	-0.035
-534.135	169.868	0.205	0.296
-533.121	-72.190	0.157	0.059
-532.106	-141.819	0.249	-0.025
-531.091	-200.000	0.035	-0.154
-530.077	-5.484	0.246	0.170
-529.062	-200.000	0.046	0.337
-528.048	-200.000	0.009	0.062
-527.033	7.115	0.232	-0.174
-526.018	74.102	-0.079	-0.084
-525.004	-48.898	-0.205	0.099
-523.989	-107.273	-0.366	-0.081
-522.975	200.180	0.037	0.057
-521.960	-39.170	0.116	0.061
-520.945	-200.000	-0.004	-0.266
-519.931	4.958	0.104	0.077
-518.916	-142.881	0.225	-0.022
-517.902	-13.640	0.050	0.032
-516.887	119.217	0.127	0.158
-515.872	275.350	-0.134	-0.239
-514.858	800.000	-0.084	-0.246
-513.843	-200.000	-0.025	-0.171
-512.829	800.000	0.107	-0.333
-511.814	800.000	0.028	-0.117
-510.799	11.324	-0.227	-0.175
-509.785	717.996	-0.073	0.195
-508.770	411.471	-0.143	-0.306
-507.756	91.333	-0.222	-0.251
-506.741	283.836	0.099	0.179
-505.726	-132.056	0.055	0.007
-504.712	-32.309	0.113	0.063
-503.697	-142.955	-0.045	-0.004
-502.683	-25.648	0.105	0.062
-501.668	65.291	-0.114	0.116
-500.653	-200.000	0.010	-0.200
-499.639	-29.976	0.314	-0.180
-498.624	20.759	-0.124	0.101
-497.610	-171.112	-0.050	-0.002
-496.595	-100.423	0.474	-0.118
-495.581	-56.369	0.315	0.141
-494.566	-125.231	-0.094	-0.014
-493.551	659.757	-0.052	-0.134
-492.537	-200.000	0.007	-0.502
-491.522	10.141	0.077	0.059
-490.508	-38.240	-0.021	0.011
-489.493	-120.997	0.351	0.059
-488.478	-200.000	-0.003	-0.106
-487.464	32.494	0.050	-0.044
-486.449	-19.092	-0.204	-0.128
-485.435	-89.526	0.289	-0.085
-484.420	56.230	0.223	-0.218
-483.405	800.000	-0.150	-0.465
-482.391	-129.990	0.227	0.031
-481.376	-92.846	-0.344	0.097
-480.362	800.000	-0.064	-0.194
-479.347	455.963	0.074	-0.164
-478.332	-45.237	0.058	-0.029
-477.318	340.320	-0.024	-0.048
-476.303	-200.000	-0.009	0.164
-475.289	356.135	0.179	-0.358
-474.274	-134.141	-0.206	-0.026
-473.259	712.970	0.039	-0.104
-472.245	800.000	0.074	0.265
-471.230	-0.363	0.223	-0.159
-470.216	236.540	0.041	0.068
-469.201	-200.000	-0.013	-0.117
-468.186	686.615	-0.118	0.310
-467.172	28.604	-0.390	-0.331
-466.157	-67.883	-0.331	0.130
-465.143	-200.000	-0.011	0.324
-464.128	-200.000	0.045	-0.251
-463.113	95.639	0.090	-0.103
-462.099	-63.482	-0.105	-0.043
-461.084	-22.937	0.043	-0.026
-460.070	108.409	0.226	-0.271
-459.055	418.114	-0.069	0.148
-458.040	-49.823	0.099	-0.047
-457.026	-83.369	-0.315	-0.101
-456.011	-172.502	0.188	-0.006
-454.997	-5.922	-0.114	0.078
-453.982	-200.000	-0.056	0.282
-452.968	26.963	-0.042	0.035
-451.953	-119.828	-0.317	-0.055
-450.938	-119.411	0.333	-0.058
-449.924	34.135	0.122	-0.107
-448.909	-200.000	0.002	0.022
-447.895	391.651	-0.173	0.361
-446.880	-110.522	0.368	-0.077
-445.865	-200.000	0.202	-0.000
-444.851	-200.000	-0.019	-0.343
-443.836	-36.455	0.152	-0.082
-442.822	234.455	0.050	-0.083
-441.807	274.901	-0.066	0.118
-440.792	-94.281	0.244	-0.067
-439.778	800.000	-0.026	0.092
-438.763	4.143	-0.141	0.103
-437.749	800.000	0.124	0.495
-436.734	639.461	-0.154	0.394
-435.719	-200.000	0.017	0.114
-434.705	10.594	0.166	0.127
-433.690	-72.539	-0.334	0.124
-432.676	102.470	-0.251	-0.294
-431.661	772.772	-0.057	-0.155
-430.646	42.892	-0.334	-0.306
-429.632	126.141	0.389	-0.493
-428.617	-200.000	0.026	0.116
-427.603	-147.685	-0.166	-0.014
-426.588	800.000	0.065	-0.204
-425.573	182.523	0.202	0.299
-424.559	429.810	-0.137	-0.298
-423.544	100.424	-0.145	0.169
-422.530	-200.000	-0.019	0.096
-421.515	128.061	-0.225	-0.287
-420.500	-19.011	0.011	0.007
-419.486	800.000	0.103	-0.396
-418.471	25.573	0.034	-0.028
-417.457	-75.284	0.286	0.103
-416.442	800.000	0.047	-0.197
-415.428	298.338	0.158	0.291
-414.413	152.336	0.108	0.148
-413.398	-96.536	0.158	-0.042
-412.384	-5.225	0.142	-0.098
-411.369	87.651	0.014	0.015
-410.355	-9.481	0.127	0.085
-409.340	-63.533	0.357	0.147
-408.325	-7.676	-0.286	0.194
-407.311	-100.348	-0.285	-0.071
-406.296	164.234	0.187	0.264
-405.282	720.751	0.019	-0.050
-404.267	-115.827	0.177	0.033
-403.252	-155.815	0.034	0.002
-402.238	-200.000	0.043	0.258
-401.223	-14.899	0.200	0.128
-400.209	131.266	0.094	-0.120
-399.194	-138.621	-0.310	-0.034
-398.179	-52.001	0.102	0.048
-397.165	48.669	-0.089	0.083
-396.150	103.874	-0.116	0.137
-395.136	56.713	-0.093	-0.090
-394.121	303.994	-0.099	-0.183
-393.106	297.363	0.130	0.240
-392.092	-200.000	-0.018	-0.092
-391.077	-77.833	0.193	0.067
-390.063	-8.054	-0.066	0.044
-389.048	-200.000	0.062	-0.463
-388.033	32.000	0.290	0.251
-387.019	16.185	-0.049	0.039
-386.004	273.011	-0.158	-0.280
-384.990	97.841	0.067	-0.078
-383.975	179.214	0.121	0.177
-382.960	29.640	0.457	0.390
-381.946	307.089	0.083	-0.154
-380.931	-200.000	-0.095	-0.475
-379.917	-86.346	-0.338	0.104
-378.902	91.975	0.270	0.305
-377.888	118.049	0.015	0.019
-376.873	-149.848	0.029	-0.002
-375.858	800.000	-0.066	0.209
-374.844	-1.084	0.183	0.129
-373.829	393.979	0.112	0.233
-372.815	-200.000	0.064	-0.339
-371.800	-200.000	0.001	0.414
-370.785	-30.057	-0.225	0.128
-369.771	-200.000	0.022	-0.247
-368.756	89.137	-0.058	-0.064
-367.742	-158.390	-0.172	0.010
-366.727	-122.355	-0.251	-0.041
-365.712	135.884	-0.022	0.029
-364.698	-200.000	0.028	-0.361
-363.683	156.752	0.201	0.278
-362.669	-74.424	-0.217	-0.078
-361.654	-200.000	0.010	-0.238
-360.639	-142.594	-0.080	0.008
-359.625	28.598	0.186	0.158
-358.610	-77.659	-0.123	-0.043
-357.596	-31.785	0.209	-0.117
-356.581	800.000	0.074	0.256
-355.566	258.815	-0.227	0.392
-354.552	800.000	0.018	-0.056
-353.537	-61.203	-0.247	0.104
-352.523	-119.078	-0.286	-0.050
-351.508	-44.100	0.254	0.128
-350.493	415.252	0.112	-0.239
-349.479	-91.448	0.227	-0.065
-348.464	-88.578	-0.387	0.115
-347.450	-200.000	-0.034	-0.240
-346.435	-200.000	0.026	0.282
-345.420	-67.727	0.172	0.067
-344.406	-89.417	-0.379	-0.112
-343.391	-22.674	0.500	-0.302
-342.377	73.903	0.113	0.119
-341.362	-81.589	-0.141	0.046
-340.348	-131.881	0.209	-0.027
-339.333	800.000	-0.084	0.295
-338.318	800.000	-0.045	0.183
-337.304	-99.895	0.350	0.088
-336.289	-200.000	-0.025	-0.211
-335.275	-147.434	-0.123	0.010
-334.260	-44.365	-0.378	0.189
-333.245	-31.206	0.289	0.163
-332.231	-90.986	0.097	0.028
-331.216	-5.632	0.107	-0.073
-330.202	-156.900	0.102	-0.006
-329.187	-128.649	-0.384	0.054
-328.172	-59.643	-0.389	-0.167
-327.158	98.469	0.152	0.176
-326.143	-100.996	0.378	-0.093
-325.129	230.268	-0.213	0.348
-324.114	325.836	0.191	-0.366
-323.099	663.146	0.149	-0.385
-322.085	-56.905	-0.132	-0.058
-321.070	319.971	-0.098	-0.186
-320.056	-46.328	0.137	-0.068
-319.041	-103.259	0.338	0.080
-318.026	210.160	-0.190	0.297
-317.012	84.796	-0.128	0.140
-315.997	-100.509	-0.313	0.077
-314.983	355.058	-0.127	0.253
-313.968	-98.155	0.099	-0.025
-312.953	-73.323	0.148	-0.054
-311.939	-76.881	-0.414	-0.145
-310.924	-200.000	-0.318	-0.001
-309.910	-171.200	-0.474	0.016
-308.895	-162.675	0.153	-0.007
-307.880	-27.857	-0.240	0.139
-306.866	-147.640	-0.191	0.016
-305.851	-200.000	0.004	0.163
-304.837	-159.501	0.124	0.007
-303.822	227.379	0.167	-0.272
-302.807	36.549	-0.194	0.171
-301.793	-185.978	-0.255	-0.004
-300.778	387.352	-0.055	0.113
-299.764	705.440	-0.078	-0.205
-298.749	800.000	0.052	-0.143
-297.735	49.322	-0.226	-0.212
-296.720	341.220	0.154	0.301
-295.705	371.664	-0.115	0.233
-294.691	-200.000	0.013	0.440
-293.676	2.709	0.382	0.277
-292.662	138.192	0.137	0.180
-291.647	-34.267	0.197	0.108
-290.632	-119.043	-0.196	0.034
-289.618	-144.689	0.230	0.021
-288.603	-190.898	-0.248	-0.003
-287.589	-127.431	-0.204	-0.030
-286.574	-101.231	0.096	-0.024
-285.559	-131.738	0.303	0.040
-284.545	-157.434	-0.137	0.008
-283.530	800.000	0.105	-0.298
-282.516	-169.122	0.582	-0.022
-281.501	-17.649	0.238	-0.149
-280.486	127.936	0.135	-0.172
-279.472	436.205	-0.052	0.113
-278.457	-200.000	-0.022	0.108
-277.443	-23.899	-0.148	-0.088
-276.428	74.013	0.084	0.088
-275.413	348.772	0.038	-0.074
-274.399	123.884	0.156	-0.195
-273.384	266.688	0.097	-0.169
-272.370	11.877	0.057	-0.044
-271.355	-200.000	0.050	0.301
-270.340	239.542	-0.059	-0.097
-269.326	218.335	0.090	-0.144
-268.311	383.204	0.079	-0.162
-267.297	154.088	0.119	0.163
-266.282	339.714	0.074	0.143
-265.267	14.920	-0.162	-0.126
-264.253	800.000	0.092	-0.336
-263.238	-48.300	0.198	-0.095
-262.224	-200.000	0.018	0.486
-261.209	-51.374	-0.103	-0.048
-260.195	544.535	0.048	-0.114
-259.180	-21.353	0.216	0.132
-258.165	-164.470	0.015	0.001
-257.151	-200.000	0.021	-0.107
-256.136	-21.171	0.105	-0.064
-255.122	-200.000	-0.018	0.321
-254.107	-200.000	0.035	0.309
-253.092	800.000	-0.064	-0.252
-252.078	-1.636	0.253	0.177
-251.063	-61.294	0.066	0.028
-250.049	158.904	0.044	-0.061
-249.034	356.080	0.103	0.204
-248.019	-74.985	-0.408	0.145
-247.005	-18.523	-0.202	-0.126
-245.990	800.000	-0.087	0.293
-244.976	182.521	0.078	0.115
-243.961	-164.495	0.135	0.006
-242.946	590.353	0.138	0.340
-241.932	209.553	-0.106	-0.165
-240.917	-200.000	-0.074	-0.413
-239.903	65.062	-0.132	-0.133
-238.888	-200.000	0.023	0.182
-237.873	705.492	0.099	-0.261
-236.859	-131.247	-0.158	0.021
-235.844	-200.000	0.034	0.301
-234.830	-200.000	-0.022	0.200
-233.815	-125.565	-0.099	0.015
-232.800	-200.000	0.039	0.218
-231.786	10.000	0.228	0.172
-230.771	-200.000	-0.006	0.153
-229.757	-200.000	-0.042	-0.185
-228.742	755.412	0.014	0.038
-227.727	-191.100	-0.310	-0.003
-226.713	-46.809	0.195	0.095
-225.698	198.511	-0.062	-0.094
-224.684	1.182	-0.329	0.235
-223.669	570.396	0.066	-0.159
-222.655	-74.297	0.042	0.015
-221.640	454.839	0.136	-0.299
-220.625	800.000	0.196	-0.615
-219.611	-13.455	-0.292	0.188
-218.596	102.552	-0.261	0.304
-217.582	-126.742	0.151	0.022
-216.567	-89.940	0.217	0.063
-215.552	-13.508	-0.135	0.087
-214.538	-120.424	-0.016	-0.003
-213.523	124.973	-0.033	0.041
-212.509	-92.868	0.159	-0.044
-211.494	-15.704	-0.328	-0.208
-210.479	-89.286	-0.085	-0.025
-209.465	-10.808	-0.295	0.194
-208.450	13.959	0.047	0.036
-207.436	-84.380	0.143	-0.045
-206.421	7.961	-0.070	-0.052
-205.406	-200.000	0.024	0.360
-204.392	382.060	-0.069	0.140
-203.377	463.121	-0.073	0.162
-202.363	171.422	0.073	-0.104
-201.348	34.459	-0.274	0.238
-200.333	-95.537	0.272	0.073
-199.319	-22.549	-0.210	-0.126
-198.304	113.254	0.140	0.169
-197.290	386.002	0.103	-0.211
-196.275	23.653	0.262	-0.215
-195.260	-137.676	-0.125	0.014
-194.246	123.492	-0.107	0.134
-193.231	-11.883	0.087	0.057
-192.217	-173.386	0.135	-0.004
-191.202	265.274	-0.169	0.292
-190.187	82.142	0.346	0.373
-189.173	-57.544	0.204	0.089
-188.158	-200.000	0.066	0.351
-187.144	-114.085	0.346	0.067
-186.129	-65.697	-0.301	-0.120
-185.114	12.062	-0.175	-0.133
-184.100	-180.339	-0.169	0.003
-183.085	-200.000	0.010	0.151
-182.071	-164.111	-0.137	0.006
-181.056	402.999	0.017	0.035
-180.042	800.000	0.130	0.385
-179.027	-200.000	0.013	0.432
-178.012	-74.010	0.234	0.084
-176.998	-20.303	-0.223	-0.136
-175.983	12.147	0.072	0.055
-174.969	91.091	0.060	-0.067
-173.954	7.675	0.031	-0.023
-172.939	800.000	-0.049	-0.152
-171.925	800.000	-0.048	0.153
-170.910	-62.238	-0.110	-0.046
-169.896	57.507	-0.166	0.161
-168.881	-200.000	-0.032	-0.229
-167.866	29.767	-0.051	-0.043
-166.852	-200.000	0.046	-0.245
-165.837	-68.349	0.110	-0.042
-164.823	73.075	-0.182	-0.189
-163.808	25.390	-0.197	0.163
-162.793	-167.686	-0.062	0.002
-161.779	490.672	0.052	-0.117
-160.764	-163.923	-0.200	-0.009
-159.750	-192.802	0.108	0.001
-158.735	28.495	-0.170	-0.143
-157.720	-200.000	-0.044	-0.482
-156.706	-200.000	0.010	0.295
-155.691	-200.000	0.019	-0.086
-154.677	-100.857	-0.131	-0.032
-153.662	800.000	0.054	0.155
-152.647	2.801	-0.246	-0.177
-151.633	-36.833	0.305	-0.162
-150.618	454.491	0.066	-0.145
-149.604	103.377	0.108	-0.125
-148.589	-55.581	-0.214	0.095
-147.574	51.204	0.101	0.095
-146.560	-41.592	-0.185	-0.094
-145.545	-169.872	-0.261	0.009
-144.531	-200.000	-0.002	0.085
-143.516	-200.000	0.041	-0.368
-142.502	24.305	-0.045	-0.037
-141.487	-200.000	-0.052	0.228
-140.472	33.465	0.275	0.237
-139.458	624.732	-0.085	0.212
-138.443	-42.137	0.189	0.096
-137.429	1.470	-0.127	0.091
-136.414	409.016	0.088	-0.185
-135.399	-97.062	0.171	0.044
-134.385	-9.331	0.177	-0.117
-133.370	-143.162	0.404	-0.039
-132.356	-8.332	0.364	-0.243
-131.341	-44.084	-0.301	-0.150
-130.326	70.998	0.094	-0.096
-129.312	114.698	0.064	-0.077
-128.297	18.025	-0.145	0.114
-127.283	135.643	-0.105	0.136
-126.268	-200.000	0.022	0.220
-125.253	533.394	0.091	0.214
-124.239	-200.000	-0.055	0.285
-123.224	-167.740	0.433	0.017
-122.210	-200.000	0.016	-0.089
-121.195	229.293	0.108	-0.175
-120.180	575.591	-0.108	0.262
