DTS Sentinel unit serial number:	SN413079Multiplexer serial number:	ORYXHardware model number:	OX4-SRSoftware version number:	ORYX F/W v4.00 Oryx Data Collector v3.7.2.0data status	okinstallation	princeton_trtdifferential loss correction	single-endedforward channel	channel 4reverse channel	N/Adate	2019/09/12time	20:09:19forward acquisition time	15.00reverse acquisition time	0.00gamma	496.2192k internal	0.2311k external	0.2311temperature offset calibration	1.0153default loss term (dB/km)	0.3790temperature slope calibration	1.0000multiplexer offset coefficient	1.0000multiplexer slope coefficient	1.0000fibre end	0.00T internal ref (°C)	31.62T ext. ref 1 (°C)	3.46T ext. ref 2 (°C)	26.26length (m)	temperature (°C)	Stokes	anti-Stokes-747.200	-43.072	0.177	0.091
-746.185	-67.024	-0.379	0.152
-745.171	128.026	0.471	0.609
-744.156	-139.886	0.847	-0.091
-743.142	576.609	-0.378	-0.937
-742.127	45.131	-0.195	0.182
-741.112	6.004	-0.522	-0.392
-740.098	689.302	0.231	-0.613
-739.083	280.012	-0.156	-0.283
-738.069	275.558	0.280	0.503
-737.054	324.035	-0.128	-0.248
-736.039	-66.544	0.422	-0.170
-735.025	-52.705	0.953	-0.446
-734.010	800.000	0.177	0.706
-732.996	-74.116	0.273	-0.100
-731.981	-170.445	-0.385	-0.014
-730.966	-200.000	-0.044	0.216
-729.952	-200.000	0.083	0.572
-728.937	715.697	-0.252	0.677
-727.923	172.740	-0.291	-0.426
-726.908	440.335	0.072	0.159
-725.894	-2.111	-0.252	0.180
-724.879	-200.000	0.077	0.601
-723.864	-23.945	0.299	0.181
-722.850	-200.000	0.061	0.320
-721.835	-161.631	-0.570	-0.030
-720.821	-200.000	-0.027	0.170
-719.806	69.829	0.051	-0.054
-718.791	137.228	-0.103	-0.137
-717.777	-113.740	-0.448	-0.089
-716.762	43.614	0.161	0.149
-715.748	57.472	-0.404	-0.400
-714.733	800.000	-0.167	-0.631
-713.718	-200.000	0.073	-0.496
-712.704	-85.621	0.906	-0.285
-711.689	270.534	-0.163	0.290
-710.675	-200.000	-0.202	-0.907
-709.660	26.146	0.076	0.065
-708.645	-100.115	-1.226	-0.310
-707.631	248.167	-0.082	0.140
-706.616	-138.351	0.527	-0.059
-705.602	-48.017	-0.351	0.172
-704.587	-200.000	0.075	0.692
-703.572	76.848	-0.291	0.313
-702.558	-75.929	0.334	0.120
-701.543	-19.555	0.707	0.443
-700.529	-61.117	0.744	-0.318
-699.514	83.595	0.477	0.527
-698.499	-183.687	-0.148	0.003
-697.485	-44.124	-0.481	0.244
-696.470	53.678	0.522	-0.508
-695.456	252.155	0.270	0.467
-694.441	-98.773	0.508	-0.131
-693.426	800.000	-0.108	-0.343
-692.412	-200.000	-0.021	0.270
-691.397	414.950	-0.488	1.053
-690.383	800.000	0.103	0.450
-689.368	-10.612	-0.447	0.300
-688.354	391.244	0.278	0.584
-687.339	-200.000	-0.042	0.801
-686.324	-130.783	0.430	-0.058
-685.310	-7.661	-0.134	0.091
-684.295	-140.327	0.487	-0.052
-683.281	-200.000	0.053	0.342
-682.266	-200.000	0.086	-0.703
-681.251	55.540	-0.763	0.748
-680.237	800.000	0.362	-1.384
-679.222	143.449	-0.662	-0.893
-678.208	19.401	-0.814	-0.662
-677.193	-97.966	0.951	0.248
-676.178	-85.711	-0.615	-0.193
-675.164	-59.639	0.968	0.421
-674.149	-30.023	0.858	0.494
-673.135	70.560	0.291	0.305
-672.120	800.000	0.328	0.968
-671.105	-62.347	-0.314	-0.132
-670.091	-24.562	-0.712	-0.429
-669.076	-156.580	0.899	-0.057
-668.062	676.193	0.291	-0.766
-667.047	-200.000	-0.020	-0.249
-666.032	41.747	0.382	0.350
-665.018	-142.157	0.251	0.025
-664.003	-59.609	0.281	-0.122
-662.989	4.122	-0.504	0.373
-661.974	800.000	0.120	-0.501
-660.959	800.000	0.193	-0.840
-659.945	-28.731	0.313	-0.182
-658.930	47.510	0.229	0.216
-657.916	-144.463	-0.852	0.080
-656.901	-95.212	-0.581	0.158
-655.886	-123.803	0.351	-0.056
-654.872	-82.606	0.522	0.171
-653.857	24.714	0.420	-0.352
-652.843	204.789	-0.177	-0.278
-651.828	-200.000	-0.019	0.206
-650.814	-129.658	0.851	-0.119
-649.799	-125.165	0.156	0.024
-648.784	-104.132	0.790	0.186
-647.770	71.335	-0.798	0.838
-646.755	800.000	-0.153	-0.652
-645.741	191.228	0.200	0.305
-644.726	-150.386	-0.649	-0.051
-643.711	-64.479	0.078	0.032
-642.697	523.551	0.162	-0.385
-641.682	49.738	-0.532	-0.507
-640.668	-200.000	0.008	0.248
-639.653	121.993	-0.144	-0.181
-638.638	-200.000	-0.090	-0.937
-637.624	-200.000	-0.042	0.537
-636.609	-82.013	-0.238	0.079
-635.595	331.134	0.475	-0.926
-634.580	-22.999	0.605	-0.369
-633.565	-30.447	-0.626	0.359
-632.551	800.000	0.100	0.284
-631.536	544.105	-0.083	0.199
-630.522	106.874	0.748	-0.898
-629.507	66.205	0.204	0.209
-628.492	-121.493	0.218	0.037
-627.478	-132.771	0.332	-0.043
-626.463	-67.530	-0.648	-0.257
-625.449	-200.000	-0.039	0.321
-624.434	6.896	-0.341	0.256
-623.419	-76.010	-0.134	-0.048
-622.405	206.512	-0.217	-0.342
-621.390	-151.158	0.320	0.024
-620.376	800.000	0.133	-0.375
-619.361	-124.011	-0.538	-0.086
-618.346	800.000	0.214	0.604
-617.332	60.021	0.559	0.558
-616.317	-200.000	-0.050	0.579
-615.303	-200.000	-0.075	0.444
-614.288	-200.000	0.013	-0.526
-613.273	10.285	0.262	0.202
-612.259	130.063	-0.324	-0.419
-611.244	-115.804	-0.456	0.086
-610.230	-53.873	-0.292	-0.135
-609.215	99.130	-0.131	-0.153
-608.201	-29.870	-0.353	-0.203
-607.186	-143.354	0.163	0.016
-606.171	87.241	0.481	-0.537
-605.157	-106.484	0.688	0.155
-604.142	-200.000	-0.086	-0.454
-603.128	40.220	-0.227	0.206
-602.113	800.000	0.215	0.919
-601.098	-155.674	-0.219	-0.014
-600.084	-200.000	0.042	0.207
-599.069	188.580	-0.202	0.304
-598.055	141.203	0.469	0.626
-597.040	-200.000	0.038	0.313
-596.025	-200.000	0.067	-0.793
-595.011	-62.036	-0.789	-0.332
-593.996	66.673	0.306	0.314
-592.982	148.618	-0.567	0.773
-591.967	-200.000	-0.034	-0.600
-590.952	-170.586	0.471	-0.016
-589.938	-54.343	0.250	-0.115
-588.923	462.769	0.484	-1.089
-587.909	800.000	-0.160	0.538
-586.894	-76.368	0.396	-0.141
-585.879	72.803	-0.035	0.036
-584.865	175.351	-0.228	-0.333
-583.850	-200.000	0.055	-0.418
-582.836	-117.460	-0.391	0.071
-581.821	-141.466	-0.878	0.090
-580.806	158.035	-0.476	0.666
-579.792	467.435	-0.170	0.383
-578.777	-130.813	-0.054	-0.007
-577.763	198.196	-0.319	-0.491
-576.748	-76.918	0.804	0.283
-575.733	189.432	0.159	-0.241
-574.719	-190.665	0.597	0.006
-573.704	-200.000	0.094	0.708
-572.690	15.155	0.251	0.198
-571.675	-68.364	0.240	-0.094
-570.661	-200.000	-0.089	-0.745
-569.646	8.631	-0.150	0.114
-568.631	-99.958	-0.827	-0.208
-567.617	-180.328	-0.358	-0.008
-566.602	-91.620	-0.671	-0.193
-565.588	15.853	0.252	0.200
-564.573	-131.498	0.582	0.077
-563.558	-21.172	-0.502	-0.310
-562.544	-168.047	0.991	-0.039
-561.529	-200.000	-0.008	0.193
-560.515	339.143	0.415	-0.815
-559.500	-11.051	0.252	0.167
-558.485	-90.869	-0.418	-0.121
-557.471	-98.068	-0.344	-0.089
-556.456	476.967	-0.283	0.644
-555.442	-61.459	-0.592	0.251
-554.427	105.523	-0.362	-0.431
-553.412	665.868	-0.231	0.601
-552.398	513.293	0.106	0.248
-551.383	-3.811	-0.613	0.429
-550.369	5.434	-0.317	0.236
-549.354	-158.194	-0.475	0.028
-548.339	-200.000	-0.067	-0.356
-547.325	778.340	0.336	0.925
-546.310	-49.097	0.804	0.387
-545.296	-26.354	-0.605	-0.357
-544.281	800.000	-0.137	-0.417
-543.266	-200.000	-0.070	-0.926
-542.252	-125.585	-0.250	0.038
-541.237	-115.111	-0.747	-0.143
-540.223	-29.062	0.508	0.293
-539.208	26.192	0.333	-0.280
-538.193	-18.873	-0.663	0.416
-537.179	-200.000	0.012	-0.646
-536.164	23.115	-0.412	-0.341
-535.150	-200.000	-0.040	0.302
-534.135	800.000	0.098	0.286
-533.121	561.889	0.158	0.384
-532.106	-128.168	0.312	-0.045
-531.091	-21.750	-0.731	-0.448
-530.077	-43.981	0.148	0.075
-529.062	-200.000	0.030	0.367
-528.048	-56.262	-0.678	-0.304
-527.033	-151.921	-0.599	0.044
-526.018	361.188	0.083	-0.168
-525.004	-200.000	0.034	-1.101
-523.989	-0.267	-0.484	-0.346
-522.975	-132.387	0.374	0.049
-521.960	173.206	-0.376	-0.546
-520.945	-200.000	0.068	-0.334
-519.931	-55.087	0.166	0.075
-518.916	98.656	0.216	-0.250
-517.902	-130.669	0.265	-0.036
-516.887	-82.869	-0.597	-0.194
-515.872	-200.000	0.060	0.864
-514.858	-58.751	-0.488	-0.213
-513.843	-33.387	0.180	0.100
-512.829	207.941	0.377	-0.592
-511.814	19.905	0.199	-0.161
-510.799	-126.356	0.400	0.060
-509.785	-135.258	-1.089	0.131
-508.770	36.490	-0.560	0.497
-507.756	800.000	-0.151	-0.441
-506.741	-200.000	0.140	-0.643
-505.726	800.000	0.116	-0.367
-504.712	-77.829	0.233	0.081
-503.697	331.159	-0.207	-0.401
-502.683	21.589	0.442	-0.362
-501.668	-21.477	-0.838	0.514
-500.653	-200.000	0.007	-0.229
-499.639	-197.389	0.666	-0.004
-498.624	-44.441	-0.427	-0.215
-497.610	-200.000	-0.042	-0.369
-496.595	-49.591	-0.534	0.255
-495.581	800.000	-0.108	-0.300
-494.566	76.345	-0.237	-0.252
-493.551	-200.000	-0.029	1.084
-492.537	-59.491	0.479	-0.207
-491.522	-200.000	-0.007	0.197
-490.508	-200.000	-0.123	0.637
-489.493	428.549	0.016	-0.035
-488.478	-164.509	0.160	-0.007
-487.464	-31.591	-0.378	0.213
-486.449	424.255	-0.106	0.229
-485.435	506.384	0.060	0.140
-484.420	267.459	0.166	-0.293
-483.405	-89.624	0.495	-0.146
-482.391	2.462	0.566	0.412
-481.376	800.000	-0.336	1.040
-480.362	-200.000	0.040	-0.181
-479.347	-66.118	0.248	0.099
-478.332	-43.192	-0.321	-0.163
-477.318	98.652	-0.189	0.219
-476.303	-200.000	-0.010	0.705
-475.289	-56.298	0.939	0.419
-474.274	-111.044	0.343	0.071
-473.259	151.122	0.500	-0.683
-472.245	206.449	-0.158	-0.247
-471.230	-200.000	-0.183	-0.873
-470.216	258.220	0.246	0.425
-469.201	-74.471	0.885	0.321
-468.186	2.668	0.359	0.262
-467.172	-200.000	0.097	0.658
-466.157	-200.000	0.034	0.941
-465.143	-200.000	0.051	0.318
-464.128	115.888	-0.307	0.377
-463.113	202.966	0.361	0.561
-462.099	-200.000	0.093	0.796
-461.084	-200.000	-0.032	-1.057
-460.070	134.244	0.201	0.261
-459.055	201.445	0.508	-0.786
-458.040	437.946	-0.148	-0.324
-457.026	183.313	-0.687	-1.019
-456.011	-200.000	0.160	1.038
-454.997	30.539	0.124	-0.106
-453.982	215.793	-0.570	-0.909
-452.968	-53.343	-0.215	-0.099
-451.953	357.652	-0.141	0.283
-450.938	36.840	-0.752	0.667
-449.924	191.740	-0.166	0.251
-448.909	-27.982	0.270	0.157
-447.895	-200.000	-0.091	-0.427
-446.880	40.650	0.346	-0.313
-445.865	800.000	-0.069	-0.247
-444.851	-62.892	0.172	-0.072
-443.836	800.000	-0.273	-1.098
-442.822	-1.100	-0.476	-0.337
-441.807	-50.769	-1.102	0.520
-440.792	-91.812	-0.817	0.233
-439.778	39.109	-0.539	0.484
-438.763	-9.693	-0.109	0.073
-437.749	360.076	0.022	-0.044
-436.734	-84.760	-0.784	-0.247
-435.719	284.345	0.058	-0.104
-434.705	-86.661	-0.281	-0.086
-433.690	800.000	0.092	-0.401
-432.676	800.000	-0.037	0.120
-431.661	-200.000	0.043	0.381
-430.646	122.714	0.215	0.270
-429.632	-130.378	-0.293	-0.040
-428.617	-134.427	-0.217	-0.027
-427.603	800.000	0.112	0.339
-426.588	-93.707	-0.576	0.159
-425.573	362.591	0.107	-0.216
-424.559	275.458	-0.327	-0.581
-423.544	-8.910	-0.239	-0.161
-422.530	458.801	0.257	0.572
-421.515	-200.000	0.029	-0.296
-420.500	-200.000	0.142	-1.022
-419.486	560.964	-0.347	-0.841
-418.471	-200.000	-0.035	0.409
-417.457	-200.000	-0.063	-0.582
-416.442	150.364	0.269	0.366
-415.428	13.196	-0.228	-0.177
-414.413	-105.391	-0.373	-0.085
-413.398	-200.000	-0.176	0.802
-412.384	-200.000	0.001	-0.639
-411.369	-200.000	0.150	-0.875
-410.355	43.418	0.244	0.224
-409.340	-200.000	-0.002	0.087
-408.325	-59.971	-0.405	0.173
-407.311	217.860	-0.336	0.537
-406.296	81.544	-0.245	0.265
-405.282	-200.000	-0.128	0.926
-404.267	-200.000	-0.054	0.875
-403.252	59.489	0.318	-0.314
-402.238	379.735	0.229	-0.470
-401.223	-141.808	0.702	-0.070
-400.209	-200.000	-0.017	-0.984
-399.194	265.248	0.574	1.003
-398.179	530.801	-0.171	-0.405
-397.165	-21.098	-0.209	0.128
-396.150	-125.112	-0.092	0.014
-395.136	-115.744	0.136	-0.025
-394.121	-100.302	-0.696	-0.173
-393.106	779.951	0.088	0.240
-392.092	-115.672	-0.971	0.182
-391.077	-200.000	0.016	0.419
-390.063	800.000	0.240	0.744
-389.048	-45.961	-0.583	0.288
-388.033	-22.029	0.838	-0.510
-387.019	-129.904	0.190	0.026
-386.004	-200.000	-0.065	0.358
-384.990	475.997	0.144	0.326
-383.975	191.535	0.278	-0.419
-382.960	-69.650	0.227	0.087
-381.946	46.042	-0.491	-0.455
-380.931	56.236	-0.505	0.491
-379.917	64.831	0.284	0.287
-378.902	102.469	-0.112	0.131
-377.888	118.652	-0.582	-0.720
-376.873	-200.000	0.004	-0.018
-375.858	110.829	0.368	0.443
-374.844	-100.191	0.689	-0.172
-373.829	64.831	0.246	0.249
-372.815	-200.000	0.049	-0.259
-371.800	6.041	-0.502	-0.372
-370.785	-182.845	-0.271	-0.005
-369.771	-56.650	-0.231	-0.102
-368.756	-103.385	0.893	0.211
-367.742	40.658	-0.257	-0.232
-366.727	309.001	-0.126	0.235
-365.712	76.416	-0.373	-0.395
-364.698	-200.000	0.084	-0.714
-363.683	800.000	0.079	-0.321
-362.669	-130.224	-0.402	0.055
-361.654	-77.185	0.554	0.193
-360.639	-200.000	-0.005	-0.528
-359.625	-184.281	-0.411	0.007
-358.610	800.000	-0.277	-0.883
-357.596	-56.245	-0.890	0.396
-356.581	-200.000	0.089	0.443
-355.566	41.481	0.445	-0.402
-354.552	-200.000	0.006	-0.169
-353.537	-4.981	0.334	0.230
-352.523	-200.000	0.075	0.557
-351.508	800.000	0.123	-0.496
-350.493	21.328	0.644	-0.523
-349.479	-19.847	0.330	-0.204
-348.464	-114.349	-0.991	-0.191
-347.450	-156.508	-0.283	0.018
-346.435	800.000	0.152	0.476
-345.420	-90.832	0.555	0.160
-344.406	-21.082	-0.696	0.425
-343.391	-9.628	0.776	-0.517
-342.377	133.935	0.150	-0.194
-341.362	-75.730	1.289	0.457
-340.348	-33.571	0.405	-0.224
-339.333	-70.291	1.041	-0.395
-338.318	-113.439	0.577	0.113
-337.304	-200.000	0.071	0.520
-336.289	800.000	-0.167	-0.720
-335.275	-28.462	0.743	0.428
-334.260	-145.408	0.343	0.031
-333.245	24.388	0.310	-0.256
-332.231	63.023	0.092	-0.092
-331.216	-200.000	0.192	1.028
-330.202	-32.313	0.896	-0.500
-329.187	-200.000	0.043	0.432
-328.172	-122.704	-0.933	0.151
-327.158	-98.881	-0.774	-0.197
-326.143	-145.331	0.305	0.027
-325.129	800.000	-0.102	0.398
-324.114	-14.553	0.257	0.165
-323.099	-96.690	-0.046	-0.012
-322.085	-103.471	0.779	-0.183
-321.070	-101.625	-0.406	0.098
-320.056	-200.000	0.030	-0.268
-319.041	-40.883	-0.544	0.281
-318.026	-200.000	-0.012	-0.476
-317.012	130.814	0.348	0.446
-315.997	289.494	-0.544	0.985
-314.983	763.310	-0.119	0.323
-313.968	-65.460	-0.692	-0.278
-312.953	-12.706	0.421	-0.274
-311.939	205.263	0.346	-0.536
-310.924	-26.531	0.593	0.347
-309.910	1.667	0.652	-0.469
-308.895	800.000	-0.101	0.336
-307.880	-65.825	-0.606	-0.242
-306.866	535.980	-0.075	-0.178
-305.851	-200.000	0.008	-0.139
-304.837	28.003	0.754	-0.635
-303.822	-49.493	-0.965	-0.459
-302.807	-156.203	0.383	-0.024
-301.793	800.000	-0.152	0.515
-300.778	-132.641	-0.148	-0.019
-299.764	800.000	-0.101	0.346
-298.749	800.000	-0.155	0.652
-297.735	678.180	-0.142	0.368
-296.720	-22.403	-0.320	-0.193
-295.705	-200.000	-0.096	0.540
-294.691	156.365	-0.174	-0.240
-293.676	-105.405	-0.133	0.030
-292.662	-22.805	-0.515	-0.310
-291.647	47.808	0.527	0.491
-290.632	288.709	-0.436	0.788
-289.618	-116.363	0.871	-0.161
-288.603	6.436	0.780	-0.578
-287.589	800.000	-0.072	-0.240
-286.574	-200.000	-0.050	-0.571
-285.559	-103.776	0.297	0.069
-284.545	285.997	-0.156	0.281
-283.530	60.255	-0.059	0.058
-282.516	-200.000	-0.048	0.362
-281.501	506.284	-0.330	-0.762
-280.486	18.128	0.348	-0.277
-279.472	33.945	-0.121	0.105
-278.457	627.169	-0.312	0.786
-277.443	-93.204	0.399	0.111
-276.428	-90.096	-0.163	-0.047
-275.413	493.053	-0.109	0.249
-274.399	643.596	-0.442	1.124
-273.384	121.801	0.175	-0.218
-272.370	-200.000	0.085	0.581
-271.355	205.958	0.019	-0.029
-270.340	8.894	-0.705	0.530
-269.326	-19.489	-0.219	-0.135
-268.311	681.013	-0.173	0.448
-267.297	662.569	-0.218	-0.559
-266.282	-200.000	-0.021	0.934
-265.267	-30.403	0.612	-0.346
-264.253	-63.615	-0.274	-0.112
-263.238	-200.000	-0.019	0.182
-262.224	57.816	-0.308	-0.300
-261.209	301.517	0.151	-0.277
-260.195	-153.258	0.726	-0.051
-259.180	-200.000	-0.028	0.589
-258.165	50.978	0.207	-0.195
-257.151	52.673	0.602	0.572
-256.136	-200.000	0.068	0.632
-255.122	-200.000	-0.133	-0.783
-254.107	292.108	-0.098	0.177
-253.092	-84.394	-0.338	-0.106
-252.078	-177.873	0.381	0.009
-251.063	101.658	0.197	0.228
-250.049	-149.441	-0.901	-0.071
-249.034	7.768	0.281	0.209
-248.019	-200.000	0.018	0.163
-247.005	-107.726	0.280	-0.061
-245.990	0.865	-0.993	0.709
-244.976	702.552	-0.247	0.647
-243.961	-26.440	0.677	-0.395
-242.946	-57.390	0.424	0.185
-241.932	-200.000	-0.139	-0.880
-240.917	-200.000	0.141	-0.639
-239.903	-200.000	-0.080	-0.378
-238.888	15.216	-0.273	0.213
-237.873	-19.794	-0.763	0.469
-236.859	5.495	0.236	0.173
-235.844	186.707	-0.299	-0.444
-234.830	-200.000	-0.049	0.297
-233.815	-163.551	0.513	0.024
-232.800	-200.000	0.104	1.098
-231.786	-102.439	1.087	0.259
-230.771	473.809	0.254	0.570
-229.757	117.733	0.170	-0.208
-228.742	-179.229	0.681	-0.015
-227.727	800.000	-0.010	-0.036
-226.713	37.543	-0.120	0.106
-225.698	32.453	0.508	-0.437
-224.684	-100.401	-0.118	0.029
-223.669	-66.367	0.415	0.164
-222.655	-101.991	0.618	-0.148
-221.640	189.479	0.556	-0.829
-220.625	-137.591	0.692	0.078
-219.611	318.332	-0.182	-0.342
-218.596	119.844	0.752	-0.927
-217.582	82.519	0.108	0.117
-216.567	223.958	-0.137	-0.220
-215.552	-62.981	0.336	-0.138
-214.538	-200.000	-0.163	0.814
-213.523	-200.000	0.077	0.803
-212.509	-72.248	0.933	0.344
-211.494	-200.000	0.224	-1.112
-210.479	600.862	-0.260	-0.642
-209.465	-103.805	0.511	-0.119
-208.450	-99.099	0.458	-0.115
-207.436	-89.052	-0.446	0.131
-206.421	-141.613	0.334	0.033
-205.406	-53.395	0.642	0.292
-204.392	-6.963	-0.530	-0.358
-203.377	-138.071	-0.861	-0.095
-202.363	800.000	0.259	-1.012
-201.348	373.378	-0.241	-0.488
-200.333	-84.464	0.433	-0.136
-199.319	314.796	-0.277	-0.518
-198.304	113.625	0.621	0.750
-197.290	90.133	-0.414	0.460
-196.275	-181.393	0.392	-0.008
-195.260	-200.000	-0.136	0.930
-194.246	-83.692	-0.458	0.145
-193.231	-114.144	0.860	0.165
-192.217	-8.269	-0.793	0.530
-191.202	180.780	0.597	-0.870
-190.187	305.952	0.141	-0.260
-189.173	-169.394	-0.216	0.008
-188.158	65.744	-0.848	0.853
-187.144	254.932	-0.310	0.527
-186.129	-100.907	0.630	0.154
-185.114	626.697	-0.237	0.594
-184.100	-200.000	-0.460	-0.002
-183.085	369.966	0.028	-0.057
-182.071	800.000	0.055	0.164
-181.056	-200.000	-0.046	-0.625
-180.042	-84.952	0.433	-0.135
-179.027	656.478	0.511	-1.303
-178.012	55.562	-0.139	-0.133
-176.998	-2.285	-0.356	-0.248
-175.983	-79.577	-0.772	0.259
-174.969	-200.000	-0.022	-0.111
-173.954	-200.000	0.092	0.589
-172.939	-200.000	0.056	-0.328
-171.925	705.161	0.080	-0.209
-170.910	22.147	0.482	-0.391
-169.896	-200.000	-0.049	0.408
-168.881	-8.148	-0.112	0.075
-167.866	204.330	-0.411	-0.633
-166.852	800.000	0.044	0.149
-165.837	-162.473	0.499	-0.024
-164.823	34.468	-0.849	-0.736
-163.808	-200.000	0.017	0.449
-162.793	-141.319	0.605	0.061
-161.779	-117.929	-0.485	-0.086
-160.764	625.523	0.156	-0.390
-159.750	-148.747	0.845	-0.068
-158.735	-173.631	0.212	-0.006
-157.720	88.612	-0.211	0.232
-156.706	55.277	0.249	-0.239
-155.691	-136.035	-0.775	0.090
-154.677	-128.894	0.563	-0.078
-153.662	10.521	0.299	0.226
-152.647	-142.528	0.305	0.030
-151.633	-77.381	0.300	-0.103
-150.618	246.546	0.373	0.624
-149.604	-200.000	-0.114	1.085
-148.589	612.067	0.232	-0.575
-147.574	-65.319	0.538	0.215
-146.560	29.887	0.627	-0.530
-145.545	7.973	0.290	-0.216
-144.531	86.649	0.324	0.354
-143.516	587.980	0.086	0.211
-142.502	800.000	0.076	-0.207
-141.487	-144.641	-0.283	-0.026
-140.472	179.390	-0.706	1.025
-139.458	653.135	0.180	0.458
-138.443	365.233	-0.072	0.144
-137.429	178.024	0.189	0.274
-136.414	-26.895	-0.968	-0.561
-135.399	-132.838	0.398	-0.050
-134.385	-200.000	-0.003	0.135
-133.370	20.849	-0.764	0.613
-132.356	124.719	-0.167	-0.208
-131.341	-50.195	-0.685	-0.321
-130.326	-102.442	-0.625	0.148
-129.312	-200.000	-0.001	-0.043
-128.297	-200.000	0.011	-0.443
-127.283	-11.380	0.447	-0.291
-126.268	-41.906	-0.561	0.285
-125.253	-54.935	-0.318	0.142
-124.239	-44.544	-0.290	0.144
-123.224	-90.175	0.373	0.107
-122.210	-200.000	-0.006	0.157
