DTS Sentinel unit serial number:	SN413079Multiplexer serial number:	ORYXHardware model number:	OX4-SRSoftware version number:	ORYX F/W v4.00 Oryx Data Collector v3.7.2.0data status	okinstallation	princeton_trtdifferential loss correction	single-endedforward channel	channel 4reverse channel	N/Adate	2019/09/18time	12:57:35forward acquisition time	60.00reverse acquisition time	0.00gamma	496.2192k internal	0.2303k external	0.2303temperature offset calibration	0.9989default loss term (dB/km)	0.3790temperature slope calibration	1.0000multiplexer offset coefficient	1.0000multiplexer slope coefficient	1.0000fibre end	0.00T internal ref (°C)	33.28T ext. ref 1 (°C)	0.57T ext. ref 2 (°C)	30.42length (m)	temperature (°C)	Stokes	anti-Stokes-747.200	129.432	-0.084	0.109
-746.185	140.291	-0.178	-0.240
-745.171	153.641	0.123	-0.172
-744.156	-200.000	0.010	0.236
-743.142	-200.000	0.002	-0.251
-742.127	-200.000	-0.020	0.479
-741.112	-200.000	-0.012	-0.210
-740.098	-134.076	-0.250	-0.031
-739.083	90.521	0.131	0.150
-738.069	-47.163	-0.058	0.029
-737.054	-28.659	-0.155	0.091
-736.039	-68.149	0.171	0.068
-735.025	800.000	0.045	-0.143
-734.010	-22.598	-0.420	-0.259
-732.996	-92.182	-0.219	0.063
-731.981	-95.785	0.087	0.024
-730.966	-9.356	0.080	-0.054
-729.952	-47.382	-0.245	0.122
-728.937	-116.514	-0.307	0.058
-727.923	253.107	-0.228	-0.397
-726.908	-55.766	0.179	0.081
-725.894	800.000	-0.017	0.065
-724.879	-43.891	0.142	-0.073
-723.864	-77.236	-0.274	0.097
-722.850	118.350	0.101	-0.127
-721.835	3.127	-0.183	0.135
-720.821	478.572	-0.039	0.090
-719.806	-200.000	-0.007	-0.037
-718.791	667.232	-0.027	0.070
-717.777	274.482	0.085	-0.153
-716.762	-200.000	-0.024	0.176
-715.748	-16.361	-0.142	0.092
-714.733	-53.642	-0.260	-0.121
-713.718	-200.000	-0.006	0.289
-712.704	-102.243	0.035	0.008
-711.689	-200.000	0.011	-0.163
-710.675	137.431	-0.008	0.010
-709.660	800.000	-0.017	0.049
-708.645	-200.000	0.074	-0.377
-707.631	-24.208	0.214	-0.130
-706.616	-12.419	-0.156	0.104
-705.602	-142.743	-0.315	-0.031
-704.587	-167.740	0.191	-0.008
-703.572	800.000	-0.033	-0.135
-702.558	-39.713	-0.094	0.050
-701.543	-48.915	-0.104	0.051
-700.529	-140.016	-0.249	-0.027
-699.514	-62.490	0.094	-0.040
-698.499	-58.452	0.170	0.075
-697.485	153.734	0.095	-0.133
-696.470	-104.498	-0.132	0.031
-695.456	506.899	0.077	-0.182
-694.441	18.643	-0.268	-0.218
-693.426	-87.092	0.226	-0.070
-692.412	187.599	-0.134	-0.203
-691.397	58.453	0.135	0.135
-690.383	218.948	-0.080	-0.129
-689.368	122.267	-0.142	-0.180
-688.354	-200.000	-0.035	-0.175
-687.339	36.295	0.075	0.067
-686.324	-137.487	-0.149	-0.017
-685.310	-200.000	0.025	0.171
-684.295	36.351	-0.398	0.357
-683.281	34.284	-0.078	-0.069
-682.266	107.372	-0.089	-0.108
-681.251	-70.438	0.206	-0.079
-680.237	-200.000	-0.008	0.194
-679.222	-110.161	0.213	-0.045
-678.208	-6.032	-0.149	-0.103
-677.193	18.583	-0.143	-0.117
-676.178	-72.942	0.147	-0.055
-675.164	-200.000	0.004	-0.076
-674.149	20.636	0.085	-0.070
-673.135	-161.568	0.295	-0.015
-672.120	-93.073	-0.415	-0.117
-671.105	495.029	0.025	0.059
-670.091	-200.000	0.005	-0.167
-669.076	800.000	0.021	0.086
-668.062	-21.673	-0.144	0.089
-667.047	-34.686	0.372	-0.207
-666.032	162.376	-0.114	-0.163
-665.018	-136.410	0.321	-0.038
-664.003	52.781	0.117	0.113
-662.989	-56.429	-0.157	0.071
-661.974	-7.290	-0.252	-0.174
-660.959	-92.423	-0.377	-0.108
-659.945	-161.471	-0.237	-0.012
-658.930	-74.391	0.138	0.050
-657.916	-112.323	-0.179	0.036
-656.901	68.887	0.136	-0.142
-655.886	729.834	-0.069	0.186
-654.872	118.234	0.006	0.008
-653.857	41.955	-0.186	0.171
-652.843	10.714	-0.091	0.070
-651.828	-53.536	-0.274	0.127
-650.814	-21.278	0.151	0.094
-649.799	-200.000	0.026	0.182
-648.784	-128.255	-0.361	0.052
-647.770	258.086	-0.034	0.059
-646.755	406.570	-0.089	0.191
-645.741	-200.000	0.009	0.058
-644.726	-158.933	-0.363	0.021
-643.711	-55.404	-0.149	-0.068
-642.697	70.134	-0.387	-0.405
-641.682	88.515	0.056	0.063
-640.668	-200.000	0.038	0.548
-639.653	6.990	0.304	-0.230
-638.638	-179.869	0.298	-0.006
-637.624	53.632	0.196	0.191
-636.609	334.355	-0.072	-0.142
-635.595	420.897	-0.099	-0.214
-634.580	-71.700	0.233	0.088
-633.565	134.499	-0.131	0.172
-632.551	800.000	0.114	0.366
-631.536	126.210	0.059	-0.076
-630.522	-200.000	-0.003	-0.027
-629.507	-119.143	-0.213	0.038
-628.492	-200.000	-0.032	-0.273
-627.478	-55.164	-0.592	-0.270
-626.463	398.050	0.012	0.025
-625.449	-32.006	0.226	-0.128
-624.434	363.120	-0.097	0.197
-623.419	-76.561	0.170	0.060
-622.405	83.908	0.210	0.232
-621.390	49.521	-0.061	-0.058
-620.376	800.000	-0.092	-0.393
-619.361	800.000	0.057	0.214
-618.346	-59.733	-0.119	-0.052
-617.332	436.727	0.076	-0.169
-616.317	-200.000	-0.014	0.107
-615.303	-58.368	-0.295	-0.130
-614.288	-131.353	0.234	0.031
-613.273	-10.942	0.128	-0.085
-612.259	124.438	-0.006	-0.007
-611.244	44.943	-0.196	-0.183
-610.230	26.878	-0.100	-0.085
-609.215	-61.021	-0.322	0.138
-608.201	800.000	0.077	0.220
-607.186	800.000	0.064	-0.202
-606.171	-159.517	0.318	-0.018
-605.157	-200.000	-0.016	0.115
-604.142	800.000	-0.034	-0.120
-603.128	-72.695	0.167	0.062
-602.113	-45.453	0.137	0.069
-601.098	-13.479	-0.274	0.180
-600.084	-200.000	-0.017	-0.340
-599.069	800.000	-0.005	0.016
-598.055	-42.170	-0.085	-0.044
-597.040	-200.000	0.016	-0.165
-596.025	800.000	0.071	0.240
-595.011	24.325	-0.103	-0.087
-593.996	-119.922	-0.203	-0.035
-592.982	800.000	0.041	0.174
-591.967	114.865	-0.169	0.209
-590.952	212.538	0.286	0.457
-589.938	-200.000	0.022	-0.195
-588.923	7.878	-0.034	-0.026
-587.909	-200.000	0.042	0.235
-586.894	-200.000	0.046	0.294
-585.879	-121.377	0.222	-0.037
-584.865	66.788	-0.131	0.135
-583.850	7.084	-0.202	-0.152
-582.836	-200.000	-0.003	0.196
-581.821	155.416	0.176	0.245
-580.806	-8.134	-0.133	0.091
-579.792	22.497	0.202	-0.167
-578.777	-126.760	0.033	-0.005
-577.763	-67.338	0.192	0.077
-576.748	87.478	0.280	0.313
-575.733	-60.220	-0.384	0.166
-574.719	-37.481	0.196	0.106
-573.704	-200.000	-0.023	-0.181
-572.690	-55.023	0.156	-0.071
-571.675	45.095	-0.095	-0.089
-570.661	422.177	0.057	-0.124
-569.646	23.046	-0.173	-0.144
-568.631	-69.069	-0.199	0.077
-567.617	9.854	-0.064	0.049
-566.602	-200.000	-0.031	0.143
-565.588	176.472	0.210	0.309
-564.573	36.367	0.072	-0.064
-563.558	800.000	0.073	0.269
-562.544	73.895	0.127	0.135
-561.529	384.057	0.122	0.254
-560.515	800.000	0.060	-0.251
-559.500	800.000	-0.126	-0.364
-558.485	-200.000	0.001	-0.187
-557.471	24.541	0.122	-0.102
-556.456	-87.177	-0.191	-0.059
-555.442	48.236	-0.278	-0.263
-554.427	-55.561	-0.075	0.034
-553.412	-4.410	-0.101	-0.070
-552.398	81.441	-0.286	-0.313
-551.383	-159.254	0.071	0.004
-550.369	346.664	-0.144	0.287
-549.354	433.167	-0.080	-0.175
-548.339	50.801	-0.194	-0.186
-547.325	50.115	0.170	0.162
-546.310	320.826	0.082	-0.158
-545.296	-68.116	-0.074	-0.029
-544.281	-16.406	-0.248	0.159
-543.266	-17.567	-0.172	-0.109
-542.252	182.568	-0.146	0.217
-541.237	-200.000	-0.015	-0.101
-540.223	-134.020	-0.446	0.056
-539.208	-118.778	-0.177	0.031
-538.193	800.000	0.123	0.358
-537.179	-92.110	0.162	-0.046
-536.164	-99.203	0.068	0.017
-535.150	-200.000	-0.001	-0.220
-534.135	16.614	-0.238	-0.190
-533.121	194.833	-0.008	0.013
-532.106	507.894	-0.110	-0.259
-531.091	403.841	0.098	0.209
-530.077	800.000	0.066	-0.249
-529.062	-200.000	0.041	-0.202
-528.048	199.650	0.100	0.155
-527.033	-200.000	0.019	0.178
-526.018	-200.000	0.010	0.066
-525.004	7.814	0.123	0.093
-523.989	599.595	-0.073	-0.183
-522.975	-200.000	-0.002	-0.275
-521.960	800.000	0.145	0.529
-520.945	-200.000	0.012	0.204
-519.931	-98.232	-0.043	0.011
-518.916	-200.000	-0.014	-0.199
-517.902	313.868	0.035	0.066
-516.887	-141.903	-0.348	-0.035
-515.872	-161.800	-0.478	0.025
-514.858	230.566	0.084	0.139
-513.843	800.000	-0.062	-0.229
-512.829	123.642	0.046	-0.059
-511.814	-34.566	-0.162	-0.090
-510.799	326.517	-0.116	0.224
-509.785	260.544	0.054	-0.095
-508.770	-20.184	-0.077	-0.048
-507.756	-72.855	0.062	-0.023
-506.741	-75.387	-0.224	-0.081
-505.726	-200.000	-0.055	-0.381
-504.712	-65.511	-0.151	-0.061
-503.697	-113.398	-0.101	-0.020
-502.683	-18.892	-0.087	0.054
-501.668	800.000	-0.088	-0.378
-500.653	141.328	-0.189	0.252
-499.639	800.000	-0.034	0.103
-498.624	-40.798	0.292	-0.152
-497.610	-85.373	-0.278	-0.087
-496.595	-137.833	0.219	-0.025
-495.581	-92.029	-0.243	0.069
-494.566	7.737	-0.281	0.212
-493.551	50.165	-0.122	0.116
-492.537	-78.012	-0.164	-0.057
-491.522	-81.835	0.218	0.072
-490.508	-125.323	0.402	0.062
-489.493	149.802	-0.016	0.021
-488.478	-114.353	0.248	-0.048
-487.464	-77.007	0.232	-0.082
-486.449	-5.658	0.122	0.084
-485.435	-128.386	0.183	0.026
-484.420	-89.005	0.113	0.034
-483.405	184.517	-0.122	-0.183
-482.391	-57.565	-0.267	-0.118
-481.376	19.433	0.061	-0.049
-480.362	-158.985	0.192	0.011
-479.347	-7.555	0.264	0.180
-478.332	-13.268	0.253	0.165
-477.318	95.811	0.279	-0.321
-476.303	119.441	-0.181	-0.226
-475.289	523.755	0.008	-0.020
-474.274	800.000	0.111	-0.428
-473.259	-200.000	-0.022	0.258
-472.245	125.725	0.068	0.086
-471.230	265.321	-0.053	-0.094
-470.216	173.356	-0.170	0.246
-469.201	93.228	0.242	0.276
-468.186	365.506	0.178	0.361
-467.172	269.407	0.023	-0.041
-466.157	37.615	0.078	-0.070
-465.143	150.942	0.096	0.132
-464.128	-51.931	0.113	0.053
-463.113	237.619	-0.063	0.104
-462.099	-200.000	0.033	-0.200
-461.084	118.006	-0.150	0.186
-460.070	208.557	0.146	-0.230
-459.055	29.861	-0.191	-0.164
-458.040	-61.847	-0.374	0.158
-457.026	-124.476	-0.268	-0.042
-456.011	128.761	0.113	-0.146
-454.997	185.890	-0.148	0.222
-453.982	-50.981	0.088	-0.041
-452.968	-79.225	0.223	-0.076
-451.953	44.764	0.118	0.109
-450.938	-73.247	-0.189	-0.070
-449.924	-166.425	0.249	-0.010
-448.909	-96.793	0.082	-0.022
-447.895	236.442	0.163	-0.272
-446.880	-53.785	0.308	-0.142
-445.865	497.189	0.083	-0.193
-444.851	288.172	0.072	-0.131
-443.836	-96.202	-0.382	0.102
-442.822	313.358	0.010	0.020
-441.807	-26.967	-0.062	-0.036
-440.792	104.407	0.100	-0.118
-439.778	13.814	0.123	-0.097
-438.763	228.197	-0.014	-0.023
-437.749	257.705	0.139	0.240
-436.734	48.013	-0.152	-0.143
-435.719	-78.143	0.180	-0.062
-434.705	105.400	0.154	0.183
-433.690	137.133	-0.156	-0.206
-432.676	410.327	0.040	-0.085
-431.661	0.752	-0.199	-0.143
-430.646	-41.569	0.276	0.143
-429.632	259.554	0.119	-0.207
-428.617	36.251	0.234	-0.207
-427.603	-117.797	-0.245	0.044
-426.588	-200.000	-0.251	0.000
-425.573	312.325	-0.052	-0.097
-424.559	-137.393	-0.482	0.055
-423.544	107.825	-0.072	-0.087
-422.530	75.804	0.255	-0.271
-421.515	-52.232	0.244	0.114
-420.500	800.000	0.074	0.257
-419.486	475.978	-0.084	0.190
-418.471	-200.000	0.028	-0.214
-417.457	97.434	0.081	-0.093
-416.442	-84.135	-0.157	-0.050
-415.428	49.435	-0.063	0.060
-414.413	9.077	0.040	0.030
-413.398	0.739	-0.356	0.256
-412.384	-84.153	-0.167	0.053
-411.369	-50.764	0.330	-0.156
-410.355	-169.882	-0.139	-0.005
-409.340	299.801	0.140	-0.259
-408.325	154.997	-0.110	0.152
-407.311	-104.795	0.031	0.007
-406.296	-200.000	-0.002	-0.082
-405.282	121.254	0.132	0.165
-404.267	-117.508	-0.283	0.051
-403.252	-200.000	-0.005	-0.110
-402.238	-184.118	-0.122	-0.002
-401.223	148.206	-0.123	0.167
-400.209	-65.553	0.399	-0.161
-399.194	-25.896	-0.185	0.110
-398.179	-92.793	0.228	-0.064
-397.165	320.604	0.137	0.261
-396.150	11.149	0.104	0.080
-395.136	106.746	0.079	-0.095
-394.121	-124.712	-0.242	0.038
-393.106	-44.409	-0.388	0.195
-392.092	-64.657	-0.239	-0.098
-391.077	-139.552	-0.178	-0.019
-390.063	-63.095	-0.253	-0.105
-389.048	235.191	-0.110	-0.183
-388.033	-179.035	0.192	0.004
-387.019	-65.279	-0.239	-0.097
-386.004	107.312	-0.290	-0.347
-384.990	-113.159	0.294	0.058
-383.975	-42.282	-0.231	0.118
-382.960	144.875	0.268	0.360
-381.946	-57.064	-0.123	-0.055
-380.931	-95.958	-0.414	0.111
-379.917	-111.201	0.371	0.076
-378.902	-136.135	-0.275	0.032
-377.888	-200.000	0.016	-0.302
-376.873	129.799	0.190	-0.244
-375.858	-13.243	0.431	0.281
-374.844	-56.668	-0.215	0.095
-373.829	-25.320	-0.021	0.012
-372.815	800.000	-0.036	-0.141
-371.800	298.307	0.139	-0.257
-370.785	800.000	0.145	0.511
-369.771	-200.000	0.028	0.325
-368.756	-42.219	0.218	-0.112
-367.742	25.964	-0.165	-0.138
-366.727	198.308	0.139	0.213
-365.712	-108.959	0.324	-0.069
-364.698	-165.024	-0.212	-0.009
-363.683	800.000	-0.072	-0.202
-362.669	-37.750	-0.185	-0.099
-361.654	-52.494	-0.127	0.059
-360.639	410.146	0.135	-0.287
-359.625	37.072	0.184	0.164
-358.610	-91.091	-0.115	0.033
-357.596	-121.297	-0.246	-0.041
-356.581	238.905	0.158	-0.264
-355.566	37.675	0.128	-0.114
-354.552	-133.155	-0.255	0.032
-353.537	-109.838	0.183	-0.039
-352.523	800.000	-0.099	-0.278
-351.508	623.193	-0.134	-0.339
-350.493	-200.000	-0.025	-0.261
-349.479	108.863	0.052	-0.063
-348.464	-58.007	0.075	0.033
-347.450	214.518	0.030	0.048
-346.435	-50.182	-0.090	0.043
-345.420	13.320	-0.104	-0.081
-344.406	11.413	0.106	-0.081
-343.391	-200.000	-0.013	-0.332
-342.377	-137.537	0.263	0.030
-341.362	800.000	0.008	-0.033
-340.348	260.477	-0.086	0.150
-339.333	7.293	0.111	0.083
-338.318	-200.000	-0.037	0.396
-337.304	613.425	-0.114	0.287
-336.289	-47.513	-0.142	-0.069
-335.275	-33.859	-0.083	0.046
-334.260	215.739	0.122	0.194
-333.245	83.921	0.040	-0.044
-332.231	800.000	0.101	-0.301
-331.216	177.610	-0.139	-0.203
-330.202	78.708	0.313	0.336
-329.187	52.236	-0.166	-0.159
-328.172	-38.691	0.292	-0.155
-327.158	-91.069	-0.115	-0.033
-326.143	-200.000	0.082	-0.427
-325.129	800.000	0.049	0.202
-324.114	450.712	0.047	-0.104
-323.099	-52.727	-0.175	-0.081
-322.085	-132.826	-0.102	0.013
-321.070	-200.000	0.003	0.227
-320.056	66.816	0.154	0.157
-319.041	-25.361	0.227	0.135
-318.026	-200.000	0.040	0.235
-317.012	-39.442	-0.014	-0.008
-315.997	142.293	-0.193	0.257
-314.983	-68.531	0.273	0.106
-313.968	800.000	-0.093	0.259
-312.953	119.832	-0.246	0.305
-311.939	81.758	-0.087	-0.095
-310.924	-159.635	0.006	0.000
-309.910	51.653	-0.141	-0.134
-308.895	-162.051	-0.192	0.010
-307.880	27.275	-0.243	-0.205
-306.866	164.564	0.230	-0.325
-305.851	-79.458	0.298	0.101
-304.837	800.000	-0.044	0.185
-303.822	13.745	0.176	-0.137
-302.807	84.559	-0.167	0.183
-301.793	-121.315	-0.159	0.027
-300.778	-200.000	0.013	-0.505
-299.764	207.792	-0.108	0.169
-298.749	-75.531	0.029	0.010
-297.735	8.407	0.109	-0.082
-296.720	142.738	-0.102	-0.135
-295.705	-184.380	-0.152	-0.002
-294.691	-200.000	-0.030	-0.209
-293.676	-145.396	0.329	0.030
-292.662	800.000	-0.036	0.111
-291.647	-132.385	-0.234	-0.030
-290.632	-200.000	0.013	0.067
-289.618	-125.396	0.158	0.024
-288.603	13.349	-0.088	-0.069
-287.589	-44.239	0.259	0.130
-286.574	22.037	0.027	-0.022
-285.559	-144.629	-0.131	-0.012
-284.545	184.426	0.023	0.035
-283.530	76.720	-0.081	-0.086
-282.516	73.398	0.231	0.242
-281.501	-35.047	0.093	-0.051
-280.486	-23.225	-0.601	0.361
-279.472	-139.384	0.130	-0.014
-278.457	-22.128	0.141	-0.086
-277.443	304.824	-0.006	-0.011
-276.428	43.853	-0.265	0.243
-275.413	-161.066	0.147	-0.008
-274.399	800.000	0.129	-0.406
-273.384	-126.817	-0.201	0.030
-272.370	126.659	0.086	0.109
-271.355	800.000	0.040	-0.125
-270.340	-143.618	0.198	-0.019
-269.326	-200.000	-0.022	-0.294
-268.311	-200.000	0.005	-0.041
-267.297	-30.728	-0.282	0.159
-266.282	339.922	-0.061	0.120
-265.267	-200.000	0.037	0.324
-264.253	101.029	-0.204	0.237
-263.238	-35.202	0.053	-0.029
-262.224	5.739	-0.033	-0.025
-261.209	-60.587	0.144	-0.061
-260.195	-63.649	-0.303	0.124
-259.180	-0.807	0.176	0.125
-258.165	-48.410	0.460	0.221
-257.151	-29.112	-0.122	0.070
-256.136	27.148	0.131	-0.110
-255.122	-126.725	0.169	0.025
-254.107	-148.304	0.044	0.004
-253.092	-97.779	-0.222	0.057
-252.078	18.746	0.126	-0.101
-251.063	-159.060	-0.459	-0.026
-250.049	800.000	-0.084	-0.285
-249.034	-174.402	0.104	0.003
-248.019	-200.000	-0.068	0.317
-247.005	206.215	0.082	-0.128
-245.990	674.220	0.109	-0.282
-244.976	-200.000	-0.065	0.309
-243.961	300.028	0.270	0.496
-242.946	-200.000	0.031	0.186
-241.932	-60.175	0.124	-0.053
-240.917	-102.531	-0.318	0.076
-239.903	-200.000	-0.013	0.114
-238.888	351.585	0.112	0.222
-237.873	12.656	0.320	-0.246
-236.859	-135.573	0.303	-0.036
-235.844	750.342	0.039	0.104
-234.830	291.840	0.099	0.179
-233.815	-140.303	-0.322	0.034
-232.800	-96.983	-0.063	-0.017
-231.786	800.000	-0.069	0.218
-230.771	-21.264	0.195	-0.119
-229.757	-118.586	0.075	-0.013
-228.742	-59.008	0.176	-0.076
-227.727	800.000	0.079	-0.227
-226.713	254.230	-0.026	0.045
-225.698	-158.177	0.130	0.008
-224.684	205.202	-0.092	-0.143
-223.669	89.236	0.156	0.174
-222.655	306.958	0.064	0.120
-221.640	-10.653	-0.186	-0.123
-220.625	-143.557	-0.474	-0.045
-219.611	800.000	-0.057	0.160
-218.596	13.908	0.200	-0.155
-217.582	800.000	-0.044	0.189
-216.567	-55.374	-0.193	-0.086
-215.552	149.300	-0.150	-0.202
-214.538	800.000	-0.038	-0.155
-213.523	-200.000	-0.013	-0.162
-212.509	-200.000	0.013	-0.197
-211.494	-27.024	0.034	-0.020
-210.479	800.000	0.050	0.208
-209.465	282.494	0.199	-0.355
-208.450	800.000	-0.073	0.207
-207.436	-2.048	-0.145	0.102
-206.421	800.000	0.039	0.121
-205.406	-40.427	-0.131	0.068
-204.392	800.000	0.073	-0.207
-203.377	-23.141	0.098	0.059
-202.363	245.903	-0.104	-0.174
-201.348	-118.271	0.159	-0.028
-200.333	800.000	-0.075	-0.265
-199.319	130.541	-0.049	-0.063
-198.304	209.322	-0.209	-0.327
-197.290	164.518	0.204	-0.287
-196.275	-200.000	0.025	-0.201
-195.260	100.316	0.138	-0.160
-194.246	800.000	0.066	0.205
-193.231	58.812	0.393	0.385
-192.217	100.965	0.142	0.165
-191.202	-200.000	0.019	0.117
-190.187	12.064	-0.217	0.166
-189.173	132.868	0.187	0.241
-188.158	-120.765	0.186	-0.031
-187.144	-200.000	-0.026	-0.124
-186.129	109.842	0.284	-0.340
-185.114	-161.294	0.143	-0.007
-184.100	306.163	0.076	0.142
-183.085	664.686	0.050	0.128
-182.071	-45.990	-0.040	-0.020
-181.056	-27.726	-0.196	-0.113
-180.042	-20.883	0.426	-0.260
-179.027	-200.000	0.043	0.224
-178.012	188.728	0.085	0.127
-176.998	173.664	-0.177	0.255
-175.983	268.958	-0.128	0.224
-174.969	160.363	0.129	-0.180
-173.954	-92.117	-0.190	0.054
-172.939	131.654	0.043	0.055
-171.925	199.238	-0.123	-0.188
-170.910	-81.757	0.098	0.032
-169.896	800.000	0.046	-0.178
-168.881	-122.945	0.490	-0.079
-167.866	39.127	-0.151	-0.135
-166.852	-27.901	0.056	0.032
-165.837	248.387	-0.135	0.227
-164.823	-200.000	0.059	0.315
-163.808	162.061	-0.027	0.038
-162.793	-200.000	-0.040	0.203
-161.779	198.875	0.091	0.139
-160.764	-101.503	0.549	-0.133
-159.750	15.383	0.095	-0.074
-158.735	-98.290	0.182	-0.046
-157.720	800.000	0.010	0.043
-156.706	-200.000	-0.011	-0.414
-155.691	153.233	-0.146	0.199
-154.677	-127.070	-0.227	0.033
-153.662	315.078	0.159	-0.297
-152.647	-92.709	0.240	0.067
-151.633	91.196	0.112	0.125
-150.618	800.000	0.087	-0.343
-149.604	-103.922	0.090	0.021
-148.589	495.418	-0.089	0.203
-147.574	-200.000	-0.057	-0.260
-146.560	800.000	0.034	-0.133
-145.545	-70.382	-0.176	0.066
-144.531	-200.000	0.038	-0.339
-143.516	695.340	0.032	-0.083
-142.502	-200.000	0.030	-0.213
-141.487	726.164	0.143	0.378
-140.472	265.326	0.160	0.277
-139.458	-200.000	-0.003	-0.019
-138.443	-84.204	-0.081	-0.025
-137.429	-73.144	0.298	0.108
-136.414	-133.291	-0.166	0.021
-135.399	469.658	0.095	0.213
-134.385	94.379	0.140	0.158
-133.370	-200.000	0.047	0.323
-132.356	800.000	0.110	-0.302
-131.341	272.402	0.114	0.200
-130.326	285.183	-0.101	-0.181
-129.312	130.434	-0.162	0.206
-128.297	392.292	0.083	0.172
-127.283	-55.219	0.112	-0.050
-126.268	170.977	0.199	0.283
-125.253	664.777	-0.086	0.222
-124.239	-80.200	0.227	0.076
-123.224	-42.384	-0.271	-0.137
-122.210	148.692	0.101	0.135
-121.195	800.000	-0.101	0.312
-120.180	3.130	-0.137	0.099
