DTS Sentinel unit serial number:	SN413079Multiplexer serial number:	ORYXHardware model number:	OX4-SRSoftware version number:	ORYX F/W v4.00 Oryx Data Collector v3.7.2.0data status	okinstallation	princeton_trtdifferential loss correction	single-endedforward channel	channel 4reverse channel	N/Adate	2019/09/16time	21:53:35forward acquisition time	60.00reverse acquisition time	0.00gamma	496.2192k internal	0.2313k external	0.2313temperature offset calibration	0.9966default loss term (dB/km)	0.3790temperature slope calibration	1.0000multiplexer offset coefficient	1.0000multiplexer slope coefficient	1.0000fibre end	0.00T internal ref (°C)	31.25T ext. ref 1 (°C)	0.07T ext. ref 2 (°C)	25.58length (m)	temperature (°C)	Stokes	anti-Stokes-747.200	-117.909	0.301	-0.055
-746.185	199.230	0.099	-0.154
-745.171	-200.000	-0.029	0.137
-744.156	144.156	-0.270	0.365
-743.142	-200.000	-0.028	0.245
-742.127	577.182	-0.134	0.332
-741.112	-200.000	0.047	0.310
-740.098	58.412	-0.050	-0.050
-739.083	-200.000	0.025	-0.188
-738.069	86.748	-0.251	0.281
-737.054	-200.000	-0.030	-0.271
-736.039	-30.072	0.214	-0.123
-735.025	-72.722	0.257	0.096
-734.010	411.567	-0.089	-0.192
-732.996	-138.297	-0.141	0.016
-731.981	175.658	-0.044	0.064
-730.966	-102.410	-0.428	0.104
-729.952	800.000	-0.047	0.188
-728.937	-124.187	-0.210	0.033
-727.923	-59.299	-0.312	-0.136
-726.908	-200.000	-0.008	-0.308
-725.894	291.069	-0.200	0.369
-724.879	800.000	0.021	-0.062
-723.864	336.460	-0.052	-0.102
-722.850	800.000	-0.066	0.240
-721.835	-155.112	0.047	-0.003
-720.821	4.486	-0.156	-0.116
-719.806	-200.000	-0.003	-0.344
-718.791	-25.349	0.232	-0.139
-717.777	280.297	0.002	-0.004
-716.762	63.895	-0.359	0.365
-715.748	558.945	0.120	0.292
-714.733	755.731	-0.014	-0.039
-713.718	-82.079	-0.038	-0.013
-712.704	-124.294	-0.151	0.024
-711.689	-18.248	-0.152	-0.096
-710.675	-200.000	0.018	-0.269
-709.660	88.778	0.060	0.067
-708.645	-34.838	0.201	0.111
-707.631	-143.563	-0.042	0.004
-706.616	-106.717	0.194	-0.044
-705.602	-70.192	0.313	0.121
-704.587	-136.647	0.151	0.018
-703.572	800.000	0.018	-0.078
-702.558	-200.000	0.039	-0.263
-701.543	548.279	0.121	-0.292
-700.529	424.380	0.090	0.195
-699.514	800.000	-0.068	-0.259
-698.499	-200.000	0.033	0.175
-697.485	626.520	-0.042	0.107
-696.470	-43.422	0.219	0.112
-695.456	-194.308	0.021	0.000
-694.441	-200.000	-0.001	0.259
-693.426	494.416	0.066	0.153
-692.412	118.697	-0.195	-0.243
-691.397	-111.629	0.528	0.109
-690.383	-77.883	0.283	-0.099
-689.368	27.170	-0.177	0.151
-688.354	272.537	-0.105	-0.188
-687.339	800.000	-0.071	-0.269
-686.324	800.000	-0.040	-0.158
-685.310	687.444	0.058	0.154
-684.295	-167.093	-0.350	-0.014
-683.281	-200.000	-0.018	0.145
-682.266	-12.296	-0.353	0.233
-681.251	90.795	-0.174	0.197
-680.237	-123.265	-0.141	0.023
-679.222	459.857	-0.077	0.173
-678.208	126.083	-0.131	-0.167
-677.193	161.558	-0.150	0.212
-676.178	-84.832	0.169	-0.054
-675.164	37.646	0.040	-0.036
-674.149	-200.000	-0.060	0.451
-673.135	-146.903	-0.584	0.051
-672.120	-200.000	0.000	-0.154
-671.105	-73.141	0.148	-0.055
-670.091	-200.000	-0.007	0.083
-669.076	-56.044	-0.286	0.129
-668.062	-200.000	-0.009	-0.149
-667.047	-70.602	0.222	0.085
-666.032	-66.768	-0.087	-0.035
-665.018	-109.951	-0.314	-0.066
-664.003	-200.000	-0.012	-0.124
-662.989	-81.666	0.163	0.054
-661.974	456.293	-0.084	-0.189
-660.959	92.206	-0.209	0.238
-659.945	-173.692	0.136	0.004
-658.930	-4.357	0.324	0.227
-657.916	195.400	-0.067	-0.102
-656.901	-25.601	-0.227	-0.135
-655.886	675.558	0.088	0.230
-654.872	-135.035	0.187	-0.023
-653.857	-90.662	-0.539	0.157
-652.843	-200.000	0.013	-0.235
-651.828	103.775	0.114	-0.135
-650.814	33.056	-0.387	-0.339
-649.799	-7.860	0.084	0.057
-648.784	336.525	-0.071	-0.140
-647.770	261.592	-0.123	0.215
-646.755	-100.861	0.289	-0.072
-645.741	792.836	-0.080	0.223
-644.726	-31.577	0.089	0.050
-643.711	-63.234	-0.106	-0.044
-642.697	64.419	-0.147	0.149
-641.682	-2.852	0.145	0.103
-640.668	-24.609	0.469	0.282
-639.653	130.684	-0.197	-0.255
-638.638	299.473	0.066	0.122
-637.624	138.602	0.285	0.378
-636.609	-96.565	-0.208	-0.055
-635.595	-10.093	0.268	0.180
-634.580	16.628	-0.212	0.170
-633.565	160.058	-0.264	0.372
-632.551	-200.000	-0.034	-0.171
-631.536	-39.149	-0.097	0.051
-630.522	100.700	-0.184	-0.216
-629.507	-69.321	-0.281	0.109
-628.492	328.204	-0.155	-0.300
-627.478	-200.000	-0.013	0.179
-626.463	113.797	-0.104	0.127
-625.449	-64.435	-0.278	-0.114
-624.434	163.380	-0.116	-0.164
-623.419	-200.000	0.002	-0.236
-622.405	287.650	-0.188	0.343
-621.390	1.718	-0.044	0.032
-620.376	-200.000	-0.016	-0.314
-619.361	200.477	-0.045	0.070
-618.346	-97.503	-0.112	0.029
-617.332	-31.120	0.332	-0.189
-616.317	-200.000	-0.008	0.059
-615.303	-30.932	-0.196	0.112
-614.288	137.622	0.036	0.048
-613.273	800.000	0.070	0.221
-612.259	800.000	0.021	-0.081
-611.244	-200.000	-0.046	-0.288
-610.230	19.494	-0.141	-0.115
-609.215	-178.027	-0.277	0.007
-608.201	519.622	-0.051	0.120
-607.186	89.218	0.227	-0.255
-606.171	-0.950	-0.217	0.155
-605.157	-67.874	-0.495	0.195
-604.142	-47.533	-0.114	0.056
-603.128	138.350	-0.064	-0.084
-602.113	-200.000	-0.014	-0.157
-601.098	62.790	-0.165	-0.166
-600.084	-165.596	-0.152	-0.007
-599.069	-200.000	0.056	0.517
-598.055	418.519	-0.041	0.088
-597.040	-149.733	-0.117	-0.009
-596.025	228.950	0.139	-0.229
-595.011	-130.481	-0.301	0.041
-593.996	73.030	-0.239	-0.252
-592.982	-187.253	-0.073	0.001
-591.967	-53.903	-0.320	-0.147
-590.952	-200.000	0.036	-0.440
-589.938	21.817	-0.153	-0.125
-588.923	147.748	0.185	-0.251
-587.909	-41.122	-0.183	-0.095
-586.894	-200.000	-0.022	-0.261
-585.879	-27.951	0.266	0.155
-584.865	44.303	-0.166	0.153
-583.850	-93.907	-0.256	0.071
-582.836	33.704	0.160	-0.140
-581.821	-8.856	0.072	-0.049
-580.806	-57.852	0.055	-0.024
-579.792	-125.440	0.079	-0.012
-578.777	358.299	-0.164	-0.330
-577.763	-102.580	-0.144	0.035
-576.748	800.000	-0.030	-0.122
-575.733	56.158	-0.183	-0.179
-574.719	-30.235	0.257	0.147
-573.704	800.000	-0.126	-0.502
-572.690	-32.387	0.285	-0.160
-571.675	-70.240	0.073	0.028
-570.661	-118.847	-0.133	0.024
-569.646	800.000	0.030	-0.122
-568.631	-200.000	0.165	0.000
-567.617	316.201	0.054	-0.103
-566.602	154.824	0.165	0.229
-565.588	287.161	0.126	0.229
-564.573	800.000	0.026	0.104
-563.558	-19.394	-0.149	-0.093
-562.544	-200.000	-0.010	-0.061
-561.529	361.193	0.135	0.273
-560.515	-72.716	-0.077	0.029
-559.500	-200.000	0.049	0.274
-558.485	800.000	-0.093	-0.331
-557.471	-200.000	-0.024	-0.127
-556.456	-200.000	0.008	0.065
-555.442	-44.356	0.297	0.150
-554.427	387.108	0.092	0.191
-553.412	800.000	0.050	-0.196
-552.398	-76.002	0.160	-0.057
-551.383	-66.871	0.189	-0.075
-550.369	-200.000	-0.043	0.255
-549.354	800.000	0.023	-0.076
-548.339	144.631	0.077	-0.103
-547.325	-129.985	-0.464	-0.064
-546.310	-20.136	0.115	-0.071
-545.296	-9.965	-0.103	0.069
-544.281	299.171	0.151	-0.280
-543.266	-66.048	0.217	-0.087
-542.252	231.328	0.123	0.202
-541.237	-20.273	-0.205	0.127
-540.223	77.227	-0.024	0.026
-539.208	386.324	0.101	0.209
-538.193	-158.724	0.308	0.018
-537.179	-0.272	0.022	-0.016
-536.164	297.268	-0.145	-0.268
-535.150	-62.263	0.380	-0.159
-534.135	800.000	0.132	-0.373
-533.121	-200.000	-0.022	0.358
-532.106	-47.009	-0.166	-0.082
-531.091	28.933	0.085	-0.073
-530.077	-80.300	-0.382	-0.128
-529.062	-200.000	0.007	-0.325
-528.048	800.000	-0.086	-0.325
-527.033	44.629	0.036	-0.034
-526.018	-171.193	-0.135	0.005
-525.004	-200.000	-0.013	0.141
-523.989	-200.000	0.030	-0.152
-522.975	81.984	-0.162	0.176
-521.960	-200.000	-0.057	-0.310
-520.945	116.207	-0.138	0.170
-519.931	195.405	0.225	0.344
-518.916	800.000	0.050	0.162
-517.902	407.017	-0.019	0.040
-516.887	-200.000	0.000	0.150
-515.872	-200.000	-0.065	-0.513
-514.858	-97.561	-0.393	-0.103
-513.843	-145.916	-0.172	-0.015
-512.829	800.000	0.114	0.317
-511.814	452.351	-0.122	0.272
-510.799	-200.000	-0.021	-0.154
-509.785	-200.000	0.010	0.214
-508.770	146.420	-0.031	0.042
-507.756	-200.000	0.023	0.197
-506.741	-200.000	0.003	-0.084
-505.726	-200.000	0.016	-0.103
-504.712	-200.000	0.008	0.103
-503.697	212.692	0.183	0.290
-502.683	-104.105	-0.387	-0.091
-501.668	-147.497	-0.227	0.019
-500.653	626.682	-0.080	-0.203
-499.639	69.303	0.047	-0.049
-498.624	-73.560	0.036	0.013
-497.610	-83.018	0.224	-0.073
-496.595	496.160	0.069	-0.160
-495.581	63.684	0.106	0.107
-494.566	800.000	0.062	-0.185
-493.551	-200.000	-0.005	-0.050
-492.537	-90.606	-0.017	0.005
-491.522	-200.000	0.045	-0.207
-490.508	17.389	-0.142	-0.113
-489.493	800.000	-0.111	-0.446
-488.478	-146.859	-0.192	0.017
-487.464	34.292	0.087	0.076
-486.449	56.648	-0.035	0.035
-485.435	189.000	0.108	0.162
-484.420	-33.563	0.107	-0.059
-483.405	36.787	0.371	0.329
-482.391	-59.697	0.256	0.110
-481.376	286.571	-0.119	0.215
-480.362	266.254	-0.147	0.257
-479.347	53.792	-0.054	-0.052
-478.332	-200.000	-0.079	-0.432
-477.318	-200.000	-0.011	-0.269
-476.303	-200.000	0.039	0.180
-475.289	-41.439	-0.233	0.120
-474.274	9.179	-0.057	0.043
-473.259	38.148	0.255	0.228
-472.245	-3.495	-0.230	-0.161
-471.230	439.433	0.063	0.137
-470.216	-114.485	-0.117	0.023
-469.201	-200.000	0.005	-0.267
-468.186	-200.000	0.013	0.123
-467.172	53.566	0.334	-0.322
-466.157	-200.000	0.008	-0.046
-465.143	-200.000	-0.051	0.293
-464.128	-116.204	0.233	0.043
-463.113	-70.387	0.218	0.083
-462.099	-126.062	0.235	0.035
-461.084	780.613	0.099	0.272
-460.070	-3.920	0.321	-0.223
-459.055	-110.691	0.256	0.053
-458.040	329.741	-0.180	-0.347
-457.026	156.250	0.030	-0.042
-456.011	-200.000	-0.002	0.166
-454.997	-200.000	0.034	-0.262
-453.982	-200.000	0.019	-0.191
-452.968	-200.000	0.020	-0.137
-451.953	-162.212	0.187	0.009
-450.938	-6.392	-0.215	0.147
-449.924	-200.000	-0.001	0.105
-448.909	-141.632	0.153	0.015
-447.895	186.772	0.038	-0.057
-446.880	207.428	0.149	-0.233
-445.865	-0.577	-0.079	-0.056
-444.851	-107.002	0.130	-0.029
-443.836	-61.255	0.051	-0.022
-442.822	-144.485	0.299	0.028
-441.807	-125.059	0.351	-0.054
-440.792	-200.000	0.082	-0.571
-439.778	-56.569	0.051	-0.023
-438.763	800.000	0.109	0.305
-437.749	118.090	-0.037	-0.045
-436.734	-83.029	-0.239	-0.077
-435.719	42.389	-0.114	0.104
-434.705	-200.000	0.001	-0.251
-433.690	-56.372	-0.066	-0.029
-432.676	-128.334	0.377	0.054
-431.661	-200.000	0.020	0.209
-430.646	800.000	-0.112	0.355
-429.632	-200.000	-0.084	0.373
-428.617	111.758	-0.357	-0.431
-427.603	-170.349	-0.151	-0.005
-426.588	421.062	-0.057	-0.122
-425.573	130.103	-0.243	0.312
-424.559	-87.543	-0.490	-0.148
-423.544	497.685	-0.051	-0.117
-422.530	-200.000	0.021	-0.334
-421.515	168.795	0.116	0.165
-420.500	-67.121	0.198	0.078
-419.486	16.270	0.247	-0.195
-418.471	549.273	-0.089	0.213
-417.457	-167.562	-0.436	0.017
-416.442	577.612	0.029	-0.071
-415.428	-65.279	-0.067	-0.027
-414.413	123.456	-0.089	-0.112
-413.398	238.617	0.084	-0.140
-412.384	193.471	-0.016	0.025
-411.369	-158.255	0.204	0.012
-410.355	158.878	-0.181	0.252
-409.340	-114.619	-0.276	0.053
-408.325	-80.870	0.093	0.031
-407.311	768.010	0.080	0.219
-406.296	165.441	-0.063	-0.090
-405.282	-9.914	0.125	0.083
-404.267	-96.435	-0.359	0.095
-403.252	-101.822	0.207	0.050
-402.238	35.866	-0.130	-0.115
-401.223	67.062	0.134	0.136
-400.209	-200.000	-0.023	-0.158
-399.194	-63.939	-0.123	0.050
-398.179	14.059	-0.172	0.134
-397.165	-111.474	-0.236	0.048
-396.150	405.154	0.162	-0.341
-395.136	-119.599	-0.113	-0.020
-394.121	102.326	-0.158	-0.185
-393.106	79.068	-0.063	-0.067
-392.092	77.181	-0.123	0.131
-391.077	328.275	-0.052	0.101
-390.063	-144.722	-0.398	0.037
-389.048	7.618	0.227	0.170
-388.033	2.894	0.332	0.241
-387.019	-200.000	0.005	0.062
-386.004	-11.849	0.076	-0.050
-384.990	44.360	-0.212	-0.194
-383.975	73.989	0.170	0.178
-382.960	-111.840	0.186	0.038
-381.946	327.745	-0.083	-0.159
-380.931	800.000	-0.032	0.113
-379.917	-52.145	-0.249	0.115
-378.902	-1.188	0.265	-0.187
-377.888	29.455	-0.101	0.085
-376.873	7.828	-0.099	-0.074
-375.858	556.453	0.156	0.375
-374.844	-194.359	-0.329	-0.003
-373.829	-200.000	-0.009	0.103
-372.815	-144.807	0.312	-0.029
-371.800	160.766	0.052	-0.073
-370.785	19.224	-0.056	0.045
-369.771	-168.259	-0.155	-0.006
-368.756	632.533	-0.151	-0.382
-367.742	-120.354	0.287	0.049
-366.727	-74.167	0.280	0.101
-365.712	-179.412	-0.261	0.006
-364.698	31.332	-0.277	-0.238
-363.683	-200.000	-0.009	0.043
-362.669	-200.000	-0.024	-0.281
-361.654	-200.000	0.018	-0.131
-360.639	223.548	0.137	-0.221
-359.625	226.409	0.108	0.176
-358.610	-171.660	-0.154	0.005
-357.596	-24.119	-0.134	0.080
-356.581	44.104	0.195	-0.179
-355.566	197.446	-0.085	-0.129
-354.552	-121.785	-0.298	-0.049
-353.537	-200.000	0.250	-0.001
-352.523	-200.000	0.028	0.177
-351.508	12.454	-0.101	0.078
-350.493	76.211	-0.079	0.084
-349.479	0.980	-0.133	-0.095
-348.464	-48.740	-0.284	-0.136
-347.450	-56.011	-0.043	0.019
-346.435	97.373	-0.193	-0.221
-345.420	116.348	0.056	-0.069
-344.406	121.549	0.129	-0.161
-343.391	-17.441	0.097	-0.061
-342.377	20.845	0.259	-0.210
-341.362	140.821	-0.156	0.206
-340.348	-62.863	0.083	-0.034
-339.333	-200.000	0.007	-0.108
-338.318	553.105	0.114	0.273
-337.304	-107.071	-0.169	-0.037
-336.289	101.889	0.058	0.068
-335.275	800.000	-0.021	0.076
-334.260	-91.174	-0.043	0.012
-333.245	-58.970	-0.164	-0.071
-332.231	230.318	0.112	-0.182
-331.216	-137.841	0.115	0.013
-330.202	-61.629	-0.060	0.025
-329.187	-200.000	-0.039	0.297
-328.172	-200.000	0.235	-0.000
-327.158	-68.574	0.154	-0.060
-326.143	130.863	-0.266	-0.340
-325.129	-147.986	0.318	0.026
-324.114	145.888	-0.231	0.310
-323.099	-10.147	-0.186	0.123
-322.085	50.566	0.162	0.152
-321.070	800.000	0.067	-0.253
-320.056	-200.000	-0.014	0.275
-319.041	-118.917	-0.232	0.041
-318.026	638.543	0.042	0.107
-317.012	70.984	-0.253	-0.261
-315.997	54.127	0.187	0.180
-314.983	276.047	0.078	0.139
-313.968	581.529	0.087	-0.212
-312.953	-110.899	-0.064	0.013
-311.939	140.298	0.169	-0.222
-310.924	309.040	-0.145	0.271
-309.910	-200.000	0.000	0.250
-308.895	469.294	-0.079	0.176
-307.880	-76.875	0.149	-0.052
-306.866	128.735	0.168	0.213
-305.851	800.000	-0.039	0.157
-304.837	-184.793	-0.240	0.004
-303.822	106.577	0.019	0.023
-302.807	-22.554	0.187	-0.113
-301.793	-75.745	0.169	-0.060
-300.778	-142.646	0.283	0.028
-299.764	4.756	0.244	-0.179
-298.749	-156.917	0.129	-0.008
-297.735	800.000	-0.032	0.109
-296.720	205.338	-0.166	0.257
-295.705	-21.097	-0.339	0.206
-294.691	-200.000	-0.127	0.600
-293.676	3.156	-0.355	0.257
-292.662	619.253	-0.126	-0.315
-291.647	800.000	0.023	0.080
-290.632	-185.363	-0.182	0.003
-289.618	-58.605	0.279	0.120
-288.603	158.581	0.181	0.250
-287.589	-20.992	0.219	-0.134
-286.574	297.332	0.147	-0.268
-285.559	754.498	0.100	-0.270
-284.545	24.376	-0.263	-0.217
-283.530	281.497	-0.147	-0.261
-282.516	4.667	0.155	-0.114
-281.501	411.794	0.078	0.165
-280.486	1.017	-0.126	-0.090
-279.472	-200.000	-0.014	-0.125
-278.457	-200.000	0.028	0.296
-277.443	-200.000	-0.005	-0.131
-276.428	492.190	-0.177	-0.403
-275.413	191.097	-0.091	-0.137
-274.399	25.932	0.220	0.183
-273.384	406.673	0.085	0.178
-272.370	-43.845	0.270	-0.135
-271.355	-200.000	0.021	-0.143
-270.340	-200.000	0.029	-0.275
-269.326	0.095	0.201	0.143
-268.311	24.627	-0.225	-0.186
-267.297	-103.535	0.551	0.129
-266.282	-200.000	0.027	0.269
-265.267	-200.000	0.058	-0.614
-264.253	23.341	-0.117	0.096
-263.238	-200.000	0.057	0.333
-262.224	10.355	-0.101	0.077
-261.209	206.923	0.136	-0.211
-260.195	-92.713	-0.375	0.105
-259.180	-200.000	-0.003	0.243
-258.165	-35.520	0.302	-0.163
-257.151	800.000	0.032	0.134
-256.136	-51.268	-0.011	0.005
-255.122	13.838	0.222	0.172
-254.107	187.526	0.044	-0.066
-253.092	87.165	0.174	0.191
-252.078	-200.000	0.097	-0.000
-251.063	-113.911	-0.284	0.055
-250.049	124.808	0.227	0.284
-249.034	270.478	-0.132	0.231
-248.019	214.542	0.080	-0.127
-247.005	162.302	0.077	-0.107
-245.990	-142.271	0.266	-0.026
-244.976	-200.000	-0.045	-0.227
-243.961	800.000	0.044	0.143
-242.946	35.229	0.261	0.227
-241.932	-200.000	0.000	-0.076
-240.917	159.482	0.137	0.190
-239.903	-110.812	-0.175	0.036
-238.888	-200.000	0.022	0.102
-237.873	800.000	0.031	-0.089
-236.859	375.096	-0.084	0.171
-235.844	-0.024	0.210	0.149
-234.830	257.867	-0.167	-0.285
-233.815	-12.657	0.213	0.138
-232.800	-35.398	0.164	0.088
-231.786	-180.904	0.087	0.002
-230.771	113.618	0.139	0.168
-229.757	-58.457	-0.033	0.014
-228.742	-122.285	0.059	-0.010
-227.727	-52.402	-0.087	0.040
-226.713	281.809	-0.056	0.099
-225.698	-53.868	-0.349	-0.158
-224.684	-200.000	0.063	0.467
-223.669	4.708	-0.173	0.126
-222.655	765.521	-0.096	0.260
-221.640	-200.000	-0.010	0.156
-220.625	396.371	0.199	-0.412
-219.611	15.023	0.024	-0.019
-218.596	-146.070	-0.193	0.017
-217.582	170.402	-0.198	0.282
-216.567	-121.086	-0.175	0.029
-215.552	-115.680	-0.329	0.061
-214.538	-25.101	0.223	0.131
-213.523	-120.939	0.122	-0.020
-212.509	-17.294	-0.334	0.209
-211.494	800.000	0.080	0.232
-210.479	-161.207	0.064	0.003
-209.465	-179.554	0.327	0.007
-208.450	-74.395	0.261	-0.093
-207.436	534.214	0.118	-0.277
-206.421	49.550	-0.113	0.106
-205.406	-25.429	-0.289	0.170
-204.392	83.641	-0.083	0.090
-203.377	-95.053	0.225	-0.060
-202.363	181.764	-0.094	0.137
-201.348	440.758	0.116	-0.251
-200.333	36.779	0.278	-0.244
-199.319	-144.395	-0.182	-0.017
-198.304	-25.637	-0.149	0.087
-197.290	-179.518	0.097	-0.002
-196.275	800.000	0.081	-0.296
-195.260	-200.000	0.072	0.406
-194.246	-27.766	-0.133	0.077
-193.231	-200.000	0.119	0.000
-192.217	800.000	0.038	-0.146
-191.202	-112.035	0.312	-0.062
-190.187	-19.950	0.175	0.107
-189.173	76.815	-0.235	0.248
-188.158	-128.555	0.337	0.047
-187.144	51.053	0.169	-0.159
-186.129	-43.561	0.133	-0.067
-185.114	-95.204	0.184	0.049
-184.100	-200.000	0.015	0.135
-183.085	-90.711	-0.216	-0.062
-182.071	-200.000	-0.111	-0.516
-181.056	118.957	-0.130	-0.159
-180.042	347.101	-0.143	0.278
-179.027	800.000	0.073	-0.277
-178.012	800.000	0.114	0.341
-176.998	-138.601	-0.173	0.019
-175.983	-88.285	-0.219	-0.065
-174.969	-93.282	0.173	-0.048
-173.954	-191.148	0.360	-0.004
-172.939	-3.974	0.109	-0.075
-171.925	-200.000	0.030	-0.141
-170.910	-99.631	0.258	0.064
-169.896	-55.712	0.084	-0.037
-168.881	800.000	0.068	0.286
-167.866	-200.000	-0.022	-0.199
-166.852	-122.003	-0.195	0.032
-165.837	-200.000	-0.021	0.247
-164.823	342.361	0.180	-0.349
-163.808	800.000	-0.046	-0.156
-162.793	456.951	0.044	-0.098
-161.779	-65.083	0.368	-0.147
-160.764	800.000	0.083	0.283
-159.750	-200.000	0.003	0.236
-158.735	25.287	-0.173	-0.143
-157.720	31.316	-0.223	-0.190
-156.706	800.000	0.083	-0.321
-155.691	-128.071	-0.192	-0.027
-154.677	-78.403	-0.184	0.062
-153.662	-49.062	-0.170	-0.081
-152.647	56.033	0.325	0.312
-151.633	216.904	-0.062	0.098
-150.618	-91.420	0.338	0.096
-149.604	43.225	0.285	0.258
-148.589	-80.794	0.496	-0.163
-147.574	227.725	-0.100	-0.161
-146.560	90.840	-0.133	0.148
-145.545	-200.000	0.028	-0.149
-144.531	-74.976	0.215	0.076
-143.516	161.335	-0.099	-0.137
-142.502	-200.000	0.074	0.560
-141.487	-200.000	0.067	-0.301
-140.472	407.000	0.063	-0.132
-139.458	9.900	0.479	-0.360
-138.443	-15.121	0.235	0.149
-137.429	386.524	0.135	-0.275
-136.414	-87.263	-0.452	-0.136
-135.399	111.773	-0.108	-0.129
-134.385	292.526	-0.111	0.200
-133.370	88.688	0.125	0.137
-132.356	-200.000	0.009	-0.223
-131.341	-59.885	-0.187	0.079
-130.326	-2.735	-0.232	-0.161
-129.312	-111.857	0.152	0.030
-128.297	-200.000	-0.016	0.241
-127.283	286.173	-0.156	0.279
-126.268	798.051	0.071	0.193
-125.253	-200.000	0.010	0.181
-124.239	-18.613	0.046	0.028
-123.224	-200.000	0.016	-0.109
-122.210	-109.041	-0.284	-0.060
-121.195	227.549	-0.146	0.235
