DTS Sentinel unit serial number:	SN413079Multiplexer serial number:	ORYXHardware model number:	OX4-SRSoftware version number:	ORYX F/W v4.00 Oryx Data Collector v3.7.2.0data status	okinstallation	princeton_trtdifferential loss correction	single-endedforward channel	channel 4reverse channel	N/Adate	2019/09/12time	17:31:11forward acquisition time	60.00reverse acquisition time	0.00gamma	496.2192k internal	0.2308k external	0.2308temperature offset calibration	1.0126default loss term (dB/km)	0.3790temperature slope calibration	1.0000multiplexer offset coefficient	1.0000multiplexer slope coefficient	1.0000fibre end	0.00T internal ref (°C)	34.58T ext. ref 1 (°C)	2.83T ext. ref 2 (°C)	28.61length (m)	temperature (°C)	Stokes	anti-Stokes-747.200	-53.995	0.246	0.114
-746.185	-61.587	-0.116	0.050
-745.171	-200.000	0.022	0.372
-744.156	96.552	0.401	0.466
-743.142	67.507	-0.069	0.072
-742.127	-114.931	-0.452	0.087
-741.112	-119.009	-0.203	0.036
-740.098	24.604	0.243	0.205
-739.083	313.919	-0.047	0.089
-738.069	-47.064	0.247	0.123
-737.054	1.046	-0.155	0.113
-736.039	112.959	-0.175	-0.215
-735.025	800.000	-0.026	-0.077
-734.010	-163.218	0.020	0.001
-732.996	351.384	-0.170	-0.343
-731.981	-198.409	-0.139	-0.001
-730.966	-0.482	-0.173	-0.124
-729.952	-44.000	-0.212	-0.108
-728.937	639.962	0.151	-0.391
-727.923	747.701	-0.129	0.354
-726.908	431.510	0.087	0.191
-725.894	-119.750	0.139	-0.024
-724.879	800.000	0.062	-0.252
-723.864	-200.000	0.071	-0.564
-722.850	123.821	0.110	-0.141
-721.835	-91.640	0.261	-0.075
-720.821	338.568	0.089	-0.176
-719.806	400.464	-0.151	-0.321
-718.791	135.247	0.147	-0.194
-717.777	367.897	-0.075	-0.154
-716.762	458.195	-0.078	-0.176
-715.748	-56.430	0.124	-0.056
-714.733	405.014	0.079	-0.168
-713.718	21.402	-0.265	0.219
-712.704	41.689	0.253	0.233
-711.689	-87.283	-0.289	0.089
-710.675	-15.201	-0.176	-0.114
-709.660	360.127	-0.155	-0.315
-708.645	-188.169	0.110	0.001
-707.631	-142.870	-0.792	-0.078
-706.616	318.272	-0.134	0.258
-705.602	800.000	-0.118	0.387
-704.587	24.260	0.153	0.128
-703.572	-200.000	-0.045	-0.269
-702.558	-90.216	-0.183	0.054
-701.543	24.351	0.106	-0.089
-700.529	223.687	-0.191	-0.313
-699.514	52.476	0.094	0.091
-698.499	66.687	-0.126	0.130
-697.485	120.319	-0.096	0.121
-696.470	459.229	0.152	-0.344
-695.456	24.516	0.213	0.178
-694.441	-92.123	0.507	0.145
-693.426	-200.000	-0.023	0.114
-692.412	-200.000	0.054	-0.473
-691.397	800.000	-0.169	-0.482
-690.383	139.588	-0.179	-0.239
-689.368	-47.953	-0.262	0.129
-688.354	800.000	0.061	-0.214
-687.339	632.668	0.062	0.159
-686.324	-9.216	0.135	-0.092
-685.310	153.778	0.036	0.050
-684.295	-200.000	0.026	0.221
-683.281	800.000	-0.066	0.191
-682.266	-1.887	0.339	0.242
-681.251	57.134	-0.247	-0.244
-680.237	-113.047	-0.115	0.023
-679.222	-72.984	-0.155	0.058
-678.208	145.602	0.322	0.437
-677.193	-156.216	0.222	-0.014
-676.178	-171.842	-0.342	-0.011
-675.164	512.472	0.080	-0.188
-674.149	-149.227	0.340	-0.028
-673.135	800.000	-0.074	-0.250
-672.120	-200.000	-0.001	0.181
-671.105	167.397	-0.145	-0.208
-670.091	386.348	0.066	-0.139
-669.076	-90.454	-0.076	0.022
-668.062	-68.304	0.220	0.087
-667.047	-200.000	-0.016	0.089
-666.032	502.940	-0.054	0.126
-665.018	-118.451	0.271	-0.049
-664.003	-76.644	0.264	0.094
-662.989	739.359	0.052	0.142
-661.974	120.847	0.138	-0.174
-660.959	-45.655	-0.263	0.132
-659.945	-46.015	0.353	-0.176
-658.930	-200.000	0.019	-0.200
-657.916	800.000	-0.095	-0.328
-656.901	-200.000	-0.036	-0.204
-655.886	30.613	-0.394	-0.341
-654.872	800.000	0.095	0.296
-653.857	205.332	-0.094	-0.147
-652.843	412.789	-0.210	-0.452
-651.828	-124.723	-0.345	-0.054
-650.814	-200.000	-0.072	-0.390
-649.799	-200.000	-0.049	0.352
-648.784	139.894	0.157	-0.209
-647.770	148.200	-0.067	-0.091
-646.755	-128.512	0.274	-0.039
-645.741	59.905	-0.327	-0.327
-644.726	800.000	-0.057	0.163
-643.711	-140.486	0.190	0.020
-642.697	604.236	0.120	-0.303
-641.682	-115.928	0.154	-0.029
-640.668	800.000	0.123	-0.388
-639.653	67.998	0.131	0.136
-638.638	-43.998	0.029	-0.015
-637.624	553.163	-0.192	-0.466
-636.609	-200.000	-0.022	0.179
-635.595	-85.800	-0.056	0.018
-634.580	-197.385	0.247	0.002
-633.565	-115.159	-0.251	-0.048
-632.551	615.100	0.095	0.241
-631.536	123.632	-0.105	0.134
-630.522	19.489	-0.076	-0.062
-629.507	139.545	0.052	0.069
-628.492	160.816	-0.031	0.043
-627.478	-82.573	-0.217	-0.071
-626.463	223.770	-0.055	-0.089
-625.449	318.573	-0.139	-0.266
-624.434	-80.544	-0.142	0.048
-623.419	-163.022	-0.335	-0.016
-622.405	211.269	-0.037	-0.059
-621.390	-70.295	-0.273	-0.105
-620.376	-200.000	0.023	0.177
-619.361	-49.028	-0.254	0.123
-618.346	174.144	0.109	0.159
-617.332	150.336	0.101	0.138
-616.317	800.000	0.038	0.110
-615.303	39.507	-0.093	-0.084
-614.288	-141.498	-0.020	0.002
-613.273	-146.618	0.099	0.009
-612.259	406.795	-0.232	-0.495
-611.244	-107.894	-0.355	0.078
-610.230	-117.219	-0.259	0.048
-609.215	-145.588	-0.043	-0.004
-608.201	-42.516	-0.152	-0.078
-607.186	-200.000	0.027	0.281
-606.171	-200.000	-0.013	-0.142
-605.157	-35.227	-0.167	0.092
-604.142	-200.000	-0.036	-0.240
-603.128	-200.000	-0.036	-0.188
-602.113	-146.953	0.244	-0.021
-601.098	151.639	0.180	0.248
-600.084	44.002	-0.099	-0.092
-599.069	-200.000	-0.029	0.162
-598.055	-200.000	-0.005	0.349
-597.040	63.182	-0.111	0.112
-596.025	-154.218	-0.134	0.009
-595.011	105.304	-0.183	0.219
-593.996	-111.752	-0.381	-0.078
-592.982	-200.000	-0.004	0.043
-591.967	150.289	0.056	-0.077
-590.952	-200.000	-0.096	0.456
-589.938	-183.297	0.281	-0.005
-588.923	96.213	-0.276	0.319
-587.909	-200.000	0.000	0.025
-586.894	-152.591	-0.192	-0.014
-585.879	187.878	-0.237	0.357
-584.865	46.389	0.102	-0.096
-583.850	400.365	0.146	0.309
-582.836	336.930	0.076	0.150
-581.821	339.281	0.040	-0.078
-580.806	208.541	-0.098	-0.155
-579.792	88.794	0.244	0.274
-578.777	-200.000	-0.012	-0.362
-577.763	-81.945	0.303	0.100
-576.748	142.904	0.133	0.178
-575.733	-127.939	0.272	0.039
-574.719	-80.721	-0.414	-0.139
-573.704	-200.000	0.135	-0.000
-572.690	0.691	0.213	0.154
-571.675	-78.027	0.321	0.112
-570.661	-93.584	-0.085	0.024
-569.646	-69.922	-0.309	0.119
-568.631	-168.860	0.224	-0.009
-567.617	64.502	-0.253	-0.257
-566.602	-86.787	0.206	0.064
-565.588	18.399	-0.342	0.276
-564.573	-200.000	0.054	-0.327
-563.558	800.000	0.170	-0.479
-562.544	-73.103	0.332	0.123
-561.529	407.878	0.186	0.396
-560.515	146.135	0.159	-0.216
-559.500	109.033	-0.148	-0.178
-558.485	98.345	0.104	0.121
-557.471	-82.126	-0.015	-0.005
-556.456	-106.846	-0.295	-0.066
-555.442	-130.802	-0.226	-0.031
-554.427	305.828	0.133	0.249
-553.412	468.302	-0.068	0.154
-552.398	800.000	-0.029	0.128
-551.383	91.158	-0.140	-0.159
-550.369	57.805	-0.054	-0.053
-549.354	48.354	-0.179	-0.169
-548.339	-118.989	0.132	-0.023
-547.325	95.893	0.218	-0.251
-546.310	-200.000	0.001	-0.137
-545.296	113.780	0.106	0.130
-544.281	429.105	-0.072	-0.157
-543.266	123.942	-0.090	0.114
-542.252	-3.886	0.312	-0.218
-541.237	13.191	-0.496	-0.387
-540.223	110.233	-0.071	0.087
-539.208	800.000	0.084	-0.257
-538.193	800.000	0.106	-0.353
-537.179	-85.894	-0.061	0.019
-536.164	213.345	-0.196	-0.312
-535.150	800.000	0.013	0.041
-534.135	-133.199	-0.333	0.042
-533.121	60.579	0.114	-0.114
-532.106	273.111	-0.114	-0.203
-531.091	800.000	0.025	-0.073
-530.077	-66.240	-0.119	-0.048
-529.062	-106.975	-0.083	0.018
-528.048	-200.000	0.077	0.366
-527.033	-200.000	0.033	0.317
-526.018	260.161	0.132	-0.230
-525.004	552.951	0.092	-0.222
-523.989	800.000	-0.096	0.312
-522.975	-110.532	-0.017	0.004
-521.960	-158.830	-0.073	-0.004
-520.945	-40.293	-0.222	-0.116
-519.931	89.867	0.054	-0.060
-518.916	332.922	-0.039	-0.075
-517.902	-81.206	0.194	0.065
-516.887	-75.813	-0.164	-0.058
-515.872	189.897	-0.198	-0.300
-514.858	183.634	0.109	0.163
-513.843	-38.551	0.310	0.165
-512.829	-2.675	0.020	-0.014
-511.814	-98.669	-0.213	-0.055
-510.799	-200.000	-0.011	-0.338
-509.785	800.000	0.066	0.225
-508.770	-84.914	-0.288	0.091
-507.756	133.923	0.119	-0.155
-506.741	-83.553	-0.044	0.014
-505.726	800.000	0.072	0.239
-504.712	157.528	-0.249	0.347
-503.697	292.784	0.155	-0.285
-502.683	68.442	-0.275	-0.284
-501.668	192.844	-0.208	-0.316
-500.653	779.475	-0.033	-0.090
-499.639	-76.572	0.283	0.100
-498.624	-107.281	0.132	-0.029
-497.610	-198.188	0.388	-0.002
-496.595	586.296	0.158	0.390
-495.581	25.359	-0.199	-0.166
-494.566	33.037	-0.040	-0.035
-493.551	-48.889	-0.455	0.220
-492.537	-200.000	0.026	0.154
-491.522	-60.227	-0.089	-0.038
-490.508	800.000	-0.070	0.303
-489.493	-21.668	-0.313	0.192
-488.478	-65.290	0.257	0.104
-487.464	-200.000	0.008	0.085
-486.449	266.990	0.109	0.192
-485.435	-116.304	0.249	-0.046
-484.420	98.103	-0.226	-0.261
-483.405	263.018	0.153	-0.268
-482.391	-200.000	0.039	0.213
-481.376	-200.000	-0.009	-0.100
-480.362	11.585	0.214	0.165
-479.347	800.000	-0.036	0.147
-478.332	800.000	-0.103	0.318
-477.318	79.713	-0.064	0.069
-476.303	-18.938	0.216	0.135
-475.289	81.242	-0.134	-0.146
-474.274	163.793	-0.092	-0.131
-473.259	-42.907	-0.357	-0.183
-472.245	-200.000	0.057	-0.257
-471.230	-200.000	0.002	0.246
-470.216	438.488	0.098	0.216
-469.201	-41.815	0.322	-0.166
-468.186	-145.010	-0.339	0.031
-467.172	530.991	0.063	0.150
-466.157	-139.142	0.029	-0.003
-465.143	-200.000	0.037	0.191
-464.128	-123.373	0.079	0.013
-463.113	63.979	-0.192	-0.194
-462.099	-191.265	-0.223	-0.002
-461.084	51.422	-0.101	-0.097
-460.070	262.223	0.041	-0.071
-459.055	-200.000	0.097	0.000
-458.040	-22.527	0.208	0.127
-457.026	83.783	-0.299	-0.328
-456.011	-55.911	-0.093	-0.042
-454.997	313.812	0.118	-0.223
-453.982	-78.991	0.105	0.036
-452.968	268.046	0.183	0.322
-451.953	-160.632	-0.246	0.013
-450.938	-49.584	-0.087	-0.042
-449.924	4.433	-0.212	0.156
-448.909	6.118	-0.033	0.025
-447.895	-200.000	0.012	0.059
-446.880	-200.000	0.016	0.199
-445.865	166.527	0.117	-0.167
-444.851	-127.186	0.377	0.055
-443.836	800.000	-0.100	0.321
-442.822	-177.789	0.131	-0.003
-441.807	-25.498	0.163	0.097
-440.792	-200.000	0.012	-0.096
-439.778	800.000	0.054	-0.164
-438.763	-38.241	-0.069	0.037
-437.749	-75.487	-0.224	-0.080
-436.734	246.942	0.021	0.036
-435.719	279.526	0.050	-0.089
-434.705	-132.307	0.027	-0.003
-433.690	171.936	0.203	-0.293
-432.676	-200.000	0.028	-0.255
-431.661	17.196	0.065	-0.052
-430.646	-200.000	0.007	0.298
-429.632	-200.000	0.296	-0.001
-428.617	80.844	0.044	-0.047
-427.603	444.580	0.199	-0.438
-426.588	-200.000	0.015	0.195
-425.573	290.934	0.113	-0.207
-424.559	-109.822	0.061	0.013
-423.544	-35.876	-0.215	0.117
-422.530	-200.000	0.001	-0.173
-421.515	-142.220	-0.150	-0.015
-420.500	800.000	0.047	0.146
-419.486	-200.000	0.016	-0.260
-418.471	800.000	-0.028	-0.115
-417.457	-0.256	-0.116	0.083
-416.442	574.651	-0.160	-0.392
-415.428	-21.558	0.368	0.225
-414.413	-183.925	0.181	0.003
-413.398	-124.232	0.275	-0.043
-412.384	587.318	0.113	0.278
-411.369	-48.983	-0.231	0.111
-410.355	-82.226	-0.130	-0.042
-409.340	-200.000	0.022	0.190
-408.325	-200.000	0.037	0.184
-407.311	557.929	-0.112	-0.271
-406.296	-135.198	0.557	0.067
-405.282	249.590	0.171	-0.290
-404.267	-85.279	0.266	-0.083
-403.252	625.985	0.100	0.254
-402.238	-99.310	-0.220	-0.056
-401.223	-163.335	-0.330	0.016
-400.209	221.766	-0.071	0.114
-399.194	-200.000	-0.023	0.138
-398.179	509.060	-0.068	-0.157
-397.165	-70.690	0.320	0.121
-396.150	-152.796	0.116	-0.008
-395.136	132.839	-0.152	-0.197
-394.121	7.037	0.163	0.122
-393.106	-200.000	-0.011	-0.063
-392.092	16.736	-0.159	-0.126
-391.077	-89.510	0.129	-0.038
-390.063	157.569	0.071	0.099
-389.048	-200.000	0.001	-0.230
-388.033	-87.397	0.152	-0.046
-387.019	-200.000	0.023	-0.123
-386.004	-73.456	0.232	-0.085
-384.990	-200.000	0.017	0.122
-383.975	-146.911	0.011	0.001
-382.960	-46.878	-0.100	0.049
-381.946	125.080	-0.130	-0.164
-380.931	-121.964	-0.110	-0.018
-379.917	-1.469	-0.230	0.162
-378.902	-52.569	0.250	-0.116
-377.888	21.076	-0.043	0.035
-376.873	-75.060	-0.251	0.090
-375.858	37.117	0.156	-0.138
-374.844	-158.116	0.127	-0.007
-373.829	373.210	0.117	-0.238
-372.815	-75.027	-0.297	0.106
-371.800	-200.000	0.016	-0.074
-370.785	451.380	0.203	-0.450
-369.771	-101.984	0.160	-0.039
-368.756	-116.934	-0.099	0.018
-367.742	-200.000	0.015	-0.420
-366.727	56.003	0.148	-0.144
-365.712	-200.000	-0.019	0.223
-364.698	-200.000	-0.001	0.126
-363.683	216.822	0.275	0.439
-362.669	340.622	0.037	0.073
-361.654	-200.000	-0.085	-0.474
-360.639	800.000	-0.069	0.236
-359.625	144.578	-0.101	-0.135
-358.610	-200.000	0.002	-0.094
-357.596	-147.257	0.049	-0.004
-356.581	-200.000	0.055	0.270
-355.566	800.000	0.103	0.352
-354.552	486.164	0.058	0.133
-353.537	-96.212	-0.394	-0.105
-352.523	-172.908	-0.236	-0.007
-351.508	108.173	-0.065	-0.078
-350.493	456.091	0.081	-0.180
-349.479	-12.751	-0.174	0.113
-348.464	103.921	-0.105	0.124
-347.450	-98.938	0.294	0.075
-346.435	197.067	-0.274	-0.418
-345.420	-67.678	-0.107	-0.042
-344.406	-200.000	-0.014	-0.193
-343.391	-0.390	0.158	0.113
-342.377	-69.849	-0.377	-0.144
-341.362	-200.000	0.009	0.156
-340.348	237.295	0.108	-0.180
-339.333	-73.145	-0.145	-0.053
-338.318	69.538	-0.146	-0.150
-337.304	95.538	-0.175	-0.200
-336.289	-200.000	0.019	0.128
-335.275	231.554	-0.164	-0.268
-334.260	228.703	0.064	-0.105
-333.245	782.601	-0.206	0.565
-332.231	-69.285	0.263	0.101
-331.216	-133.702	0.103	0.013
-330.202	-6.394	0.155	-0.106
-329.187	-25.126	0.114	-0.068
-328.172	-192.090	0.269	-0.003
-327.158	141.886	0.050	-0.067
-326.143	-200.000	0.002	-0.032
-325.129	119.513	0.291	-0.360
-324.114	117.270	0.078	-0.096
-323.099	43.488	-0.174	-0.159
-322.085	144.527	0.158	0.211
-321.070	-200.000	-0.046	-0.357
-320.056	800.000	0.062	-0.172
-319.041	686.816	0.120	0.313
-318.026	-111.915	-0.206	-0.042
-317.012	-108.672	-0.054	0.012
-315.997	191.397	-0.143	-0.215
-314.983	800.000	0.022	0.072
-313.968	82.317	0.199	0.216
-312.953	142.682	-0.010	-0.013
-311.939	-119.609	-0.386	0.067
-310.924	-97.879	0.376	-0.097
-309.910	-53.310	0.318	-0.146
-308.895	-91.601	-0.197	0.056
-307.880	-200.000	-0.027	-0.139
-306.866	-14.309	-0.048	0.031
-305.851	-200.000	0.010	0.184
-304.837	428.743	-0.062	0.134
-303.822	-200.000	0.045	-0.250
-302.807	29.069	-0.359	0.304
-301.793	-157.739	0.089	-0.005
-300.778	800.000	0.036	-0.101
-299.764	-121.996	0.369	0.061
-298.749	228.522	0.079	0.129
-297.735	800.000	-0.099	-0.282
-296.720	-31.981	-0.278	-0.155
-295.705	-200.000	0.005	-0.043
-294.691	-65.347	-0.113	0.045
-293.676	-108.320	0.187	0.040
-292.662	-113.762	-0.186	-0.036
-291.647	-200.000	0.021	0.204
-290.632	129.531	0.073	-0.094
-289.618	477.939	0.079	0.178
-288.603	-200.000	0.005	0.125
-287.589	-18.211	0.121	0.075
-286.574	800.000	0.180	-0.575
-285.559	514.510	-0.234	-0.545
-284.545	800.000	0.058	-0.171
-283.530	-77.498	-0.362	0.125
-282.516	-112.150	-0.334	0.067
-281.501	-142.231	0.249	0.025
-280.486	-200.000	0.106	0.469
-279.472	298.354	-0.278	0.510
-278.457	-200.000	0.037	0.320
-277.443	-76.080	-0.028	-0.010
-276.428	-200.000	-0.008	-0.038
-275.413	800.000	0.021	-0.082
-274.399	800.000	-0.069	0.229
-273.384	-81.577	-0.141	-0.046
-272.370	525.874	0.111	-0.262
-271.355	139.638	0.066	-0.086
-270.340	2.029	0.234	-0.169
-269.326	-46.479	-0.034	-0.017
-268.311	463.576	0.160	0.357
-267.297	-35.335	0.041	-0.022
-266.282	800.000	0.043	0.166
-265.267	-173.927	0.169	0.005
-264.253	55.333	0.283	-0.273
-263.238	-45.228	-0.376	0.186
-262.224	597.183	0.149	-0.369
-261.209	396.178	0.044	0.093
-260.195	-18.993	-0.065	-0.040
-259.180	-64.146	0.255	0.104
-258.165	-155.782	0.302	0.019
-257.151	289.692	0.198	0.358
-256.136	-142.205	-0.279	0.028
-255.122	168.537	0.131	0.186
-254.107	-108.546	-0.369	-0.079
-253.092	-138.207	-0.017	-0.002
-252.078	-94.529	0.154	-0.042
-251.063	-200.000	-0.004	0.017
-250.049	339.408	-0.138	0.268
-249.034	-200.000	-0.000	0.007
-248.019	800.000	0.041	0.139
-247.005	-143.397	0.177	-0.017
-245.990	-116.905	-0.044	-0.008
-244.976	-155.272	0.509	0.033
-243.961	-20.960	0.320	0.196
-242.946	-185.795	0.394	0.006
-241.932	-97.218	0.148	0.038
-240.917	-108.431	-0.336	-0.072
-239.903	32.906	-0.040	0.034
-238.888	-200.000	-0.008	0.433
-237.873	800.000	-0.030	0.111
-236.859	125.206	-0.090	-0.113
-235.844	-139.605	-0.115	-0.012
-234.830	-58.779	-0.183	0.079
-233.815	-157.953	0.246	-0.014
-232.800	-179.120	-0.157	0.003
-231.786	249.434	0.123	0.208
-230.771	247.045	-0.113	0.190
-229.757	-65.091	-0.245	-0.098
-228.742	-155.627	0.212	-0.014
-227.727	-200.000	-0.009	-0.082
-226.713	490.133	-0.108	0.246
-225.698	110.648	0.105	-0.125
-224.684	624.691	0.155	0.390
-223.669	183.248	0.188	-0.276
-222.655	800.000	0.028	0.121
-221.640	430.431	-0.142	-0.307
-220.625	49.141	-0.102	-0.096
-219.611	155.244	0.046	-0.063
-218.596	-128.779	0.204	-0.029
-217.582	-4.037	-0.352	-0.243
-216.567	-21.195	-0.131	0.080
-215.552	34.296	0.119	-0.104
-214.538	392.108	0.168	0.349
-213.523	94.653	0.102	-0.115
-212.509	277.634	0.039	0.070
-211.494	63.545	0.262	0.262
-210.479	-146.785	-0.372	0.032
-209.465	48.040	0.249	-0.232
-208.450	-81.793	0.040	0.013
-207.436	-176.725	0.318	-0.008
-206.421	-35.947	0.034	-0.018
-205.406	287.833	-0.062	0.112
-204.392	134.415	-0.132	0.171
-203.377	-169.443	0.148	-0.005
-202.363	-8.641	-0.350	-0.234
-201.348	616.776	0.180	0.450
-200.333	109.441	-0.271	-0.323
-199.319	55.014	-0.201	0.193
-198.304	-200.000	-0.009	-0.171
-197.290	-91.541	-0.112	0.032
-196.275	191.884	0.078	0.118
-195.260	98.424	-0.131	-0.150
-194.246	-95.948	-0.283	0.075
-193.231	431.984	-0.096	-0.207
-192.217	-117.905	-0.190	0.034
-191.202	-24.883	0.309	-0.183
-190.187	-200.000	0.081	-0.438
-189.173	68.155	0.054	0.055
-188.158	-142.104	0.098	0.010
-187.144	106.297	0.112	0.132
-186.129	800.000	0.048	-0.195
-185.114	-50.394	-0.328	0.154
-184.100	-116.747	-0.146	0.027
-183.085	109.086	0.120	0.143
-182.071	-156.113	-0.394	0.025
-181.056	167.142	0.133	0.187
-180.042	308.959	0.055	0.101
-179.027	190.591	0.215	-0.321
-178.012	-18.353	0.127	0.079
-176.998	-44.011	-0.156	0.078
-175.983	-104.960	0.185	0.042
-174.969	-174.516	-0.108	0.003
-173.954	-200.000	-0.011	-0.184
-172.939	43.462	-0.155	0.141
-171.925	-46.012	-0.200	-0.098
-170.910	-77.066	-0.040	0.014
-169.896	485.998	0.075	-0.169
-168.881	-200.000	0.006	0.194
-167.866	-145.704	0.372	0.033
-166.852	-76.795	0.088	0.031
-165.837	278.763	-0.243	-0.430
-164.823	-200.000	0.000	0.016
-163.808	200.084	0.048	0.074
-162.793	-200.000	0.007	0.244
-161.779	-104.848	0.132	0.030
-160.764	-200.000	-0.032	0.320
-159.750	-126.773	0.259	-0.038
-158.735	-65.151	-0.174	-0.070
-157.720	-75.983	-0.120	-0.042
-156.706	33.201	0.335	0.289
-155.691	41.539	0.108	0.097
-154.677	-106.595	0.095	-0.021
-153.662	-200.000	0.022	0.117
-152.647	-23.615	-0.293	-0.174
-151.633	800.000	0.096	0.359
-150.618	-83.064	0.316	0.101
-149.604	191.197	-0.070	-0.104
-148.589	236.208	-0.104	-0.171
-147.574	127.569	-0.208	-0.262
-146.560	245.064	0.239	0.399
-145.545	800.000	0.080	-0.309
-144.531	293.748	0.144	-0.262
-143.516	-62.003	-0.375	-0.156
-142.502	-42.526	-0.133	-0.067
-141.487	-200.000	-0.001	0.068
-140.472	86.169	-0.134	-0.147
-139.458	189.693	0.014	0.021
-138.443	185.779	0.138	0.203
-137.429	-200.000	0.011	0.218
-136.414	127.832	0.243	0.307
-135.399	800.000	0.033	0.107
-134.385	85.906	0.141	0.155
-133.370	-67.033	-0.281	0.110
-132.356	8.263	0.422	0.315
-131.341	800.000	0.024	0.069
-130.326	-200.000	-0.012	0.312
-129.312	601.094	0.119	0.293
-128.297	93.773	0.112	0.126
-127.283	19.872	-0.236	0.189
-126.268	273.643	-0.042	-0.074
-125.253	-66.686	0.073	0.029
-124.239	800.000	-0.037	-0.106
-123.224	-200.000	-0.038	0.167
-122.210	-76.463	-0.185	0.065
