DTS Sentinel unit serial number:	SN413079Multiplexer serial number:	ORYXHardware model number:	OX4-SRSoftware version number:	ORYX F/W v4.00 Oryx Data Collector v3.7.2.0data status	okinstallation	princeton_trtdifferential loss correction	single-endedforward channel	channel 4reverse channel	N/Adate	2019/09/16time	22:13:35forward acquisition time	60.00reverse acquisition time	0.00gamma	496.2192k internal	0.2313k external	0.2313temperature offset calibration	0.9971default loss term (dB/km)	0.3790temperature slope calibration	1.0000multiplexer offset coefficient	1.0000multiplexer slope coefficient	1.0000fibre end	0.00T internal ref (°C)	31.02T ext. ref 1 (°C)	0.07T ext. ref 2 (°C)	24.68length (m)	temperature (°C)	Stokes	anti-Stokes-747.200	800.000	-0.099	0.300
-746.185	137.527	-0.183	0.244
-745.171	650.092	-0.075	0.194
-744.156	-165.936	0.047	-0.002
-743.142	-200.000	-0.016	0.425
-742.127	680.877	-0.141	0.372
-741.112	-30.521	0.283	-0.163
-740.098	1.383	-0.223	0.163
-739.083	106.548	0.058	0.070
-738.069	182.504	0.130	0.195
-737.054	-121.577	-0.152	0.026
-736.039	149.478	-0.090	-0.123
-735.025	6.374	-0.068	-0.051
-734.010	-154.420	-0.588	-0.040
-732.996	800.000	-0.042	-0.127
-731.981	-200.000	-0.012	-0.166
-730.966	-86.151	0.226	-0.071
-729.952	-88.600	-0.356	0.108
-728.937	-157.649	-0.247	-0.015
-727.923	-92.423	-0.221	-0.063
-726.908	-37.869	0.272	-0.146
-725.894	-197.162	-0.180	-0.001
-724.879	-200.000	0.005	0.097
-723.864	-139.845	-0.174	0.019
-722.850	-200.000	0.005	-0.054
-721.835	-94.132	0.191	0.053
-720.821	269.017	-0.020	-0.035
-719.806	-118.477	-0.087	-0.016
-718.791	-195.468	-0.432	-0.003
-717.777	170.723	0.109	0.158
-716.762	-45.346	-0.184	-0.093
-715.748	443.207	-0.120	-0.266
-714.733	-130.643	0.133	0.018
-713.718	203.663	-0.092	-0.145
-712.704	-11.398	-0.326	-0.217
-711.689	-120.204	-0.323	0.056
-710.675	87.288	0.047	-0.053
-709.660	-24.784	0.262	0.158
-708.645	-42.039	0.300	0.155
-707.631	370.270	-0.101	0.207
-706.616	340.643	-0.192	0.379
-705.602	-70.466	-0.085	-0.033
-704.587	800.000	0.107	-0.437
-703.572	162.886	0.137	0.195
-702.558	-101.112	0.180	0.045
-701.543	376.276	-0.068	-0.140
-700.529	147.722	0.113	0.154
-699.514	-44.304	0.267	0.136
-698.499	-102.352	-0.175	0.042
-697.485	-32.963	0.258	-0.145
-696.470	175.459	0.129	0.189
-695.456	69.373	-0.093	0.097
-694.441	-107.549	-0.035	-0.008
-693.426	-200.000	0.018	-0.147
-692.412	-135.597	-0.209	0.025
-691.397	-200.000	-0.020	-0.328
-690.383	12.418	-0.176	-0.137
-689.368	119.353	-0.160	0.200
-688.354	-2.851	0.219	-0.155
-687.339	127.348	0.089	0.115
-686.324	52.546	-0.216	-0.209
-685.310	-109.649	0.245	-0.052
-684.295	164.735	0.089	-0.127
-683.281	-200.000	0.040	-0.483
-682.266	-200.000	0.020	-0.316
-681.251	108.643	0.167	0.202
-680.237	-70.727	0.162	-0.062
-679.222	187.611	-0.135	-0.204
-678.208	-134.060	-0.029	0.004
-677.193	148.385	-0.110	0.150
-676.178	-9.260	-0.177	-0.120
-675.164	203.229	-0.191	-0.299
-674.149	-35.820	-0.301	-0.165
-673.135	-200.000	0.033	-0.501
-672.120	412.509	0.118	-0.254
-671.105	-12.749	0.147	-0.097
-670.091	-158.482	0.395	-0.023
-669.076	-30.520	-0.173	-0.099
-668.062	-84.828	-0.172	0.055
-667.047	-200.000	-0.053	-0.351
-666.032	-75.256	0.307	-0.111
-665.018	-7.906	-0.389	0.266
-664.003	110.299	-0.067	0.082
-662.989	107.668	0.056	-0.067
-661.974	800.000	-0.032	0.094
-660.959	45.495	-0.195	0.182
-659.945	78.111	-0.078	0.085
-658.930	-200.000	0.008	-0.247
-657.916	-60.199	0.270	-0.117
-656.901	-200.000	-0.002	0.024
-655.886	233.084	-0.193	-0.321
-654.872	572.619	0.073	-0.180
-653.857	-81.489	-0.154	-0.051
-652.843	-200.000	-0.026	-0.245
-651.828	286.164	0.238	-0.435
-650.814	-200.000	0.030	-0.370
-649.799	-118.830	-0.072	-0.013
-648.784	-200.000	-0.032	0.274
-647.770	56.986	-0.242	0.238
-646.755	-132.881	-0.070	-0.009
-645.741	7.907	-0.147	0.111
-644.726	-200.000	-0.025	0.183
-643.711	-29.671	0.304	-0.175
-642.697	-200.000	-0.044	0.276
-641.682	71.920	0.255	0.268
-640.668	133.881	-0.122	-0.159
-639.653	-200.000	-0.051	0.302
-638.638	-82.546	0.303	-0.099
-637.624	-0.447	0.115	-0.083
-636.609	425.998	-0.004	-0.008
-635.595	-92.578	-0.131	0.037
-634.580	89.370	-0.287	-0.324
-633.565	-200.000	-0.012	-0.126
-632.551	-200.000	-0.028	-0.176
-631.536	-2.296	-0.082	-0.058
-630.522	510.778	0.162	-0.382
-629.507	140.240	0.065	-0.087
-628.492	-119.062	0.271	0.048
-627.478	629.375	-0.124	0.318
-626.463	800.000	0.017	0.065
-625.449	276.613	-0.139	-0.250
-624.434	800.000	-0.055	-0.186
-623.419	138.858	0.178	0.236
-622.405	79.093	-0.105	0.113
-621.390	40.702	0.113	-0.103
-620.376	-69.466	-0.063	0.024
-619.361	-15.015	0.237	0.153
-618.346	432.083	0.081	-0.178
-617.332	98.008	-0.223	0.259
-616.317	211.252	0.066	0.105
-615.303	-76.013	0.114	0.041
-614.288	-200.000	0.049	0.274
-613.273	-200.000	0.018	-0.262
-612.259	231.255	0.150	-0.248
-611.244	89.570	0.164	-0.185
-610.230	-200.000	-0.003	-0.094
-609.215	-176.560	0.359	-0.009
-608.201	-200.000	0.012	0.129
-607.186	-200.000	-0.008	0.108
-606.171	142.294	-0.119	0.159
-605.157	-74.586	0.106	-0.038
-604.142	56.036	-0.132	0.129
-603.128	-3.517	-0.144	-0.101
-602.113	326.555	-0.106	0.205
-601.098	-125.349	0.147	-0.023
-600.084	102.435	-0.127	0.150
-599.069	-200.000	0.001	0.061
-598.055	-17.677	0.271	0.172
-597.040	-5.714	0.151	-0.104
-596.025	240.529	0.057	0.096
-595.011	-53.100	0.195	0.090
-593.996	-200.000	0.155	-0.001
-592.982	182.568	-0.055	0.081
-591.967	800.000	-0.059	-0.176
-590.952	800.000	0.034	-0.144
-589.938	-76.380	-0.404	0.143
-588.923	21.728	-0.248	0.204
-587.909	-25.223	-0.186	-0.111
-586.894	-200.000	-0.016	-0.110
-585.879	371.013	-0.138	-0.282
-584.865	454.010	-0.145	0.325
-583.850	287.731	0.077	-0.141
-582.836	800.000	0.056	0.170
-581.821	800.000	-0.149	0.513
-580.806	800.000	0.010	0.030
-579.792	-54.410	-0.181	-0.083
-578.777	800.000	-0.023	0.089
-577.763	-151.074	-0.371	-0.028
-576.748	20.528	-0.131	-0.106
-575.733	-49.005	0.051	0.025
-574.719	-200.000	-0.008	-0.286
-573.704	50.172	0.105	0.100
-572.690	31.146	-0.150	0.130
-571.675	-36.974	0.213	0.115
-570.661	119.609	0.117	0.146
-569.646	711.659	0.052	0.139
-568.631	-19.437	-0.253	-0.158
-567.617	-119.048	0.354	-0.062
-566.602	24.645	0.056	-0.047
-565.588	545.651	-0.054	-0.129
-564.573	92.758	0.132	0.150
-563.558	-96.386	-0.128	-0.034
-562.544	-45.228	0.248	-0.124
-561.529	-105.511	-0.567	-0.130
-560.515	800.000	-0.084	-0.261
-559.500	561.327	0.151	0.367
-558.485	-200.000	-0.096	0.575
-557.471	-200.000	0.009	0.049
-556.456	-200.000	-0.013	-0.216
-555.442	111.412	-0.187	-0.227
-554.427	-40.780	0.170	-0.089
-553.412	-58.872	-0.115	-0.050
-552.398	196.498	0.249	-0.382
-551.383	-38.006	0.491	0.263
-550.369	207.633	-0.127	0.200
-549.354	76.364	-0.059	0.063
-548.339	-32.752	-0.332	0.186
-547.325	232.761	-0.172	-0.284
-546.310	13.393	0.123	-0.096
-545.296	-200.000	-0.010	-0.086
-544.281	-40.158	0.062	-0.032
-543.266	-13.349	0.223	0.146
-542.252	-86.190	-0.241	-0.075
-541.237	-67.048	-0.146	0.058
-540.223	800.000	-0.086	-0.256
-539.208	-84.915	0.303	0.096
-538.193	-10.299	-0.226	-0.151
-537.179	526.477	-0.141	-0.334
-536.164	129.833	0.183	-0.235
-535.150	-200.000	-0.011	-0.094
-534.135	117.662	0.135	-0.167
-533.121	89.915	-0.180	0.202
-532.106	-133.257	-0.062	-0.008
-531.091	17.375	-0.393	0.314
-530.077	-200.000	-0.041	0.241
-529.062	-48.466	-0.150	-0.073
-528.048	206.749	-0.101	0.158
-527.033	-143.259	0.246	0.024
-526.018	-200.000	0.041	0.419
-525.004	19.068	0.275	0.222
-523.989	-174.290	-0.302	0.009
-522.975	800.000	0.082	-0.246
-521.960	19.615	-0.109	-0.089
-520.945	-118.667	0.185	-0.033
-519.931	800.000	-0.034	0.095
-518.916	-0.357	-0.255	0.182
-517.902	271.702	0.092	-0.164
-516.887	-200.000	0.041	0.193
-515.872	800.000	-0.016	0.052
-514.858	25.738	-0.096	-0.080
-513.843	-200.000	0.002	-0.024
-512.829	28.069	-0.317	-0.269
-511.814	110.576	0.169	-0.204
-510.799	-200.000	0.002	0.010
-509.785	-91.641	0.274	-0.078
-508.770	-57.388	0.091	-0.040
-507.756	102.510	-0.160	-0.188
-506.741	800.000	0.054	-0.157
-505.726	-200.000	0.045	0.267
-504.712	-5.812	0.060	-0.041
-503.697	-103.142	0.208	0.049
-502.683	800.000	-0.119	-0.365
-501.668	448.086	0.058	-0.129
-500.653	-107.757	0.064	-0.014
-499.639	38.165	-0.214	-0.192
-498.624	-14.775	-0.100	-0.065
-497.610	-200.000	0.044	-0.197
-496.595	-109.306	-0.091	0.019
-495.581	20.175	0.091	-0.074
-494.566	800.000	-0.041	0.134
-493.551	-200.000	0.024	0.326
-492.537	-200.000	0.006	0.131
-491.522	800.000	-0.039	-0.116
-490.508	71.036	-0.435	-0.453
-489.493	248.163	0.042	-0.071
-488.478	-146.707	-0.312	-0.027
-487.464	-16.629	0.194	-0.123
-486.449	16.409	-0.303	0.240
-485.435	99.391	-0.335	-0.389
-484.420	-200.000	-0.009	-0.053
-483.405	-26.701	0.133	0.078
-482.391	90.026	0.045	0.050
-481.376	-200.000	0.030	-0.301
-480.362	-200.000	0.112	-0.494
-479.347	-112.762	-0.085	-0.017
-478.332	58.700	0.335	0.330
-477.318	103.758	-0.072	0.085
-476.303	642.898	-0.070	-0.178
-475.289	246.038	0.093	0.158
-474.274	-72.001	0.325	0.121
-473.259	-88.041	-0.099	-0.030
-472.245	-68.669	0.190	0.074
-471.230	166.524	0.212	-0.302
-470.216	-196.807	-0.132	-0.001
-469.201	-13.125	0.304	-0.198
-468.186	-137.932	0.347	0.039
-467.172	46.719	-0.189	-0.177
-466.157	800.000	0.038	-0.126
-465.143	-200.000	0.005	0.259
-464.128	-132.986	0.159	0.020
-463.113	-36.642	-0.209	-0.113
-462.099	-200.000	0.035	-0.166
-461.084	-105.464	0.132	0.030
-460.070	698.523	-0.055	-0.144
-459.055	-85.647	-0.295	-0.092
-458.040	-151.715	-0.364	0.027
-457.026	-200.000	0.001	0.093
-456.011	-200.000	0.011	0.391
-454.997	-33.425	0.212	-0.118
-453.982	223.626	0.247	-0.400
-452.968	-159.385	0.339	0.019
-451.953	-200.000	0.003	0.213
-450.938	51.830	-0.335	-0.320
-449.924	-68.835	-0.338	-0.131
-448.909	31.496	-0.235	-0.203
-447.895	-161.481	0.345	0.018
-446.880	192.336	0.098	-0.149
-445.865	800.000	-0.101	-0.316
-444.851	-61.536	-0.199	0.084
-443.836	-200.000	0.069	-0.483
-442.822	-200.000	-0.003	-0.237
-441.807	-80.887	0.234	-0.078
-440.792	-95.844	0.292	0.078
-439.778	-200.000	0.015	-0.089
-438.763	444.934	-0.132	-0.290
-437.749	-78.310	0.236	0.081
-436.734	-200.000	-0.058	0.295
-435.719	119.778	0.228	-0.283
-434.705	-84.749	0.153	0.048
-433.690	-24.693	0.233	-0.139
-432.676	-11.494	-0.169	-0.111
-431.661	-124.918	0.294	0.045
-430.646	-200.000	-0.037	0.169
-429.632	334.206	-0.069	0.134
-428.617	144.252	-0.168	0.225
-427.603	800.000	-0.104	-0.311
-426.588	-52.632	-0.113	-0.052
-425.573	187.410	0.142	-0.213
-424.559	200.294	0.221	0.340
-423.544	-200.000	-0.037	-0.349
-422.530	-200.000	-0.009	0.054
-421.515	10.011	-0.278	0.211
-420.500	-74.515	0.312	0.113
-419.486	800.000	-0.093	-0.289
-418.471	228.567	-0.164	-0.267
-417.457	-31.194	-0.231	0.130
-416.442	-142.127	-0.100	-0.010
-415.428	123.831	-0.210	-0.264
-414.413	-41.694	-0.078	-0.040
-413.398	38.540	0.179	0.160
-412.384	143.778	-0.038	-0.051
-411.369	-120.207	0.087	0.015
-410.355	800.000	-0.055	-0.156
-409.340	142.352	-0.206	-0.273
-408.325	273.306	0.131	-0.232
-407.311	26.135	-0.121	-0.101
-406.296	-200.000	-0.034	-0.342
-405.282	-200.000	0.024	-0.148
-404.267	82.909	-0.095	0.103
-403.252	541.242	0.148	-0.353
-402.238	194.285	-0.176	-0.268
-401.223	16.536	0.331	0.262
-400.209	76.060	0.103	0.109
-399.194	-0.637	-0.210	-0.149
-398.179	292.328	-0.148	0.270
-397.165	192.330	0.090	0.136
-396.150	629.828	-0.104	0.263
-395.136	246.555	-0.161	0.271
-394.121	-23.981	-0.151	-0.091
-393.106	446.504	0.136	-0.299
-392.092	244.566	0.025	-0.041
-391.077	-80.965	-0.173	0.057
-390.063	800.000	0.048	0.169
-389.048	28.442	0.082	-0.070
-388.033	57.460	-0.051	-0.050
-387.019	-39.084	-0.142	-0.075
-386.004	-18.345	0.196	-0.123
-384.990	3.800	0.368	0.269
-383.975	-200.000	-0.028	0.128
-382.960	-200.000	0.022	0.123
-381.946	-63.095	0.093	-0.038
-380.931	50.023	-0.144	0.136
-379.917	-118.090	0.152	-0.027
-378.902	800.000	-0.029	-0.096
-377.888	-47.679	0.199	-0.096
-376.873	259.758	0.163	0.281
-375.858	80.036	0.109	-0.118
-374.844	127.831	0.056	-0.071
-373.829	786.569	0.187	-0.512
-372.815	-19.071	-0.178	-0.110
-371.800	367.086	0.065	-0.132
-370.785	468.049	0.074	-0.166
-369.771	800.000	0.056	0.170
-368.756	-128.267	0.183	0.026
-367.742	700.145	0.027	0.071
-366.727	800.000	-0.027	-0.079
-365.712	-82.139	0.384	-0.125
-364.698	110.501	0.048	-0.058
-363.683	413.417	0.183	0.389
-362.669	-88.383	-0.192	0.057
-361.654	-200.000	0.002	-0.076
-360.639	-200.000	0.004	0.135
-359.625	800.000	0.100	0.318
-358.610	-200.000	0.057	0.595
-357.596	-19.812	-0.211	0.130
-356.581	241.806	0.051	0.085
-355.566	-61.876	-0.166	0.069
-354.552	168.535	0.097	0.138
-353.537	-40.917	0.098	0.050
-352.523	-174.720	-0.237	0.007
-351.508	17.932	0.250	-0.199
-350.493	183.246	0.199	-0.294
-349.479	175.727	-0.175	0.253
-348.464	-130.326	0.285	0.039
-347.450	-138.974	0.184	-0.020
-346.435	30.590	-0.164	0.140
-345.420	25.485	-0.174	-0.145
-344.406	-37.890	-0.130	-0.069
-343.391	731.508	-0.177	0.473
-342.377	-96.498	0.128	0.034
-341.362	-123.405	0.116	0.018
-340.348	268.714	-0.170	0.298
-339.333	-187.710	-0.460	-0.006
-338.318	-96.029	-0.045	0.012
-337.304	19.112	0.072	-0.058
-336.289	667.196	0.070	-0.180
-335.275	-121.537	-0.337	0.056
-334.260	154.677	-0.218	-0.299
-333.245	293.198	0.154	0.280
-332.231	-7.731	-0.117	-0.079
-331.216	105.338	0.045	0.054
-330.202	20.628	0.154	0.125
-329.187	-76.112	0.171	0.060
-328.172	-129.100	0.356	0.050
-327.158	-200.000	-0.070	0.335
-326.143	221.664	-0.072	-0.115
-325.129	-74.206	-0.061	0.022
-324.114	108.876	-0.288	0.343
-323.099	227.384	-0.090	-0.146
-322.085	633.476	0.127	-0.320
-321.070	378.072	0.075	0.152
-320.056	-18.984	-0.314	-0.195
-319.041	181.173	0.161	-0.237
-318.026	-200.000	0.048	0.370
-317.012	800.000	0.053	-0.199
-315.997	-4.039	-0.180	-0.124
-314.983	106.464	0.092	-0.109
-313.968	-23.999	0.231	0.138
-312.953	800.000	-0.043	-0.140
-311.939	75.972	0.069	-0.073
-310.924	3.673	0.308	-0.224
-309.910	88.579	-0.168	-0.187
-308.895	-118.703	-0.135	-0.024
-307.880	-106.570	-0.174	0.039
-306.866	-200.000	0.073	0.355
-305.851	-124.840	-0.289	0.045
-304.837	139.029	0.046	0.061
-303.822	-114.562	0.340	-0.065
-302.807	-53.603	-0.123	0.056
-301.793	-23.029	0.130	0.078
-300.778	-10.891	0.211	-0.139
-299.764	-117.524	-0.087	0.016
-298.749	9.950	0.195	0.148
-297.735	205.893	-0.156	-0.242
-296.720	-130.565	0.293	-0.039
-295.705	-200.000	-0.031	0.179
-294.691	800.000	0.039	0.116
-293.676	-200.000	-0.016	-0.254
-292.662	-41.650	0.117	0.060
-291.647	183.062	0.122	0.180
-290.632	783.684	0.026	-0.070
-289.618	800.000	0.048	0.204
-288.603	-2.771	0.321	-0.224
-287.589	800.000	-0.060	0.164
-286.574	-86.864	0.129	0.039
-285.559	800.000	0.032	0.094
-284.545	-200.000	0.018	0.216
-283.530	800.000	0.135	-0.403
-282.516	-24.065	0.105	0.062
-281.501	106.855	-0.138	0.164
-280.486	-121.475	-0.390	0.065
-279.472	88.734	-0.264	-0.293
-278.457	-91.675	-0.229	-0.065
-277.443	290.841	0.088	0.160
-276.428	800.000	-0.062	-0.206
-275.413	-200.000	-0.021	-0.264
-274.399	159.960	0.097	-0.134
-273.384	-200.000	-0.036	-0.160
-272.370	-200.000	-0.012	0.082
-271.355	264.308	-0.049	-0.085
-270.340	-0.096	0.073	-0.052
-269.326	-23.295	0.257	0.154
-268.311	800.000	-0.140	0.471
-267.297	48.852	0.053	-0.050
-266.282	174.321	0.135	-0.195
-265.267	-127.968	0.108	-0.015
-264.253	-200.000	0.009	-0.388
-263.238	800.000	0.015	0.066
-262.224	-23.891	0.235	-0.140
-261.209	43.852	-0.166	-0.151
-260.195	141.802	-0.177	0.233
-259.180	134.532	-0.057	0.073
-258.165	-73.445	0.205	0.075
-257.151	82.059	-0.280	0.302
-256.136	-200.000	0.016	0.120
-255.122	-37.983	0.094	-0.050
-254.107	-61.138	0.210	0.088
-253.092	-118.877	0.278	-0.049
-252.078	-200.000	-0.050	-0.290
-251.063	-200.000	0.056	-0.285
-250.049	-200.000	0.049	-0.322
-249.034	-200.000	0.034	-0.276
-248.019	-136.355	-0.305	0.035
-247.005	629.541	0.094	-0.236
-245.990	800.000	0.070	0.205
-244.976	-200.000	0.011	-0.093
-243.961	5.914	-0.303	0.223
-242.946	800.000	-0.041	0.135
-241.932	90.287	0.218	0.243
-240.917	-117.116	-0.264	0.048
-239.903	-124.006	-0.333	-0.052
-238.888	-91.270	-0.412	0.117
-237.873	-40.813	0.045	0.023
-236.859	49.209	-0.117	0.110
-235.844	-184.511	-0.232	0.004
-234.830	130.762	0.068	-0.087
-233.815	-200.000	0.067	0.352
-232.800	-122.548	-0.242	-0.039
-231.786	800.000	0.024	0.091
-230.771	32.701	-0.064	0.055
-229.757	-11.606	-0.249	-0.162
-228.742	-182.347	0.258	0.005
-227.727	162.963	-0.150	-0.210
-226.713	612.607	-0.114	0.284
-225.698	-85.953	-0.133	-0.041
-224.684	350.505	-0.122	0.239
-223.669	94.857	0.170	0.192
-222.655	-6.367	0.161	-0.109
-221.640	-35.311	0.212	-0.115
-220.625	-85.366	-0.323	0.100
-219.611	-200.000	0.034	-0.192
-218.596	-200.000	0.043	0.320
-217.582	108.167	-0.269	-0.318
-216.567	-179.905	-0.217	0.005
-215.552	-200.000	-0.011	-0.203
-214.538	-200.000	0.085	0.514
-213.523	377.847	-0.071	0.144
-212.509	-72.119	0.172	-0.063
-211.494	232.912	-0.119	0.195
-210.479	-129.222	-0.066	-0.009
-209.465	28.193	0.139	-0.117
-208.450	47.579	-0.122	0.113
-207.436	391.811	0.101	0.208
-206.421	-86.101	0.107	-0.033
-205.406	0.506	0.231	-0.164
-204.392	800.000	0.031	-0.096
-203.377	317.061	-0.175	-0.328
-202.363	133.572	0.129	0.166
-201.348	-200.000	0.011	-0.282
-200.333	-133.105	0.258	-0.032
-199.319	800.000	-0.138	0.390
-198.304	17.364	0.450	-0.355
-197.290	-57.750	-0.143	-0.062
-196.275	-82.008	0.127	0.041
-195.260	-150.969	-0.315	0.024
-194.246	-18.608	0.297	-0.184
-193.231	800.000	-0.045	0.138
-192.217	9.325	-0.147	0.110
-191.202	28.873	0.247	0.208
-190.187	-200.000	0.051	0.340
-189.173	464.797	-0.092	0.203
-188.158	800.000	-0.027	0.109
-187.144	-200.000	-0.000	0.128
-186.129	-200.000	0.017	0.318
-185.114	77.575	-0.209	0.220
-184.100	-147.141	0.028	0.002
-183.085	27.215	-0.121	0.100
-182.071	277.303	0.221	-0.390
-181.056	706.290	-0.038	0.100
-180.042	800.000	-0.114	0.369
-179.027	800.000	-0.047	-0.196
-178.012	55.963	0.306	0.295
-176.998	-45.802	-0.128	-0.063
-175.983	800.000	0.068	0.197
-174.969	181.225	0.169	0.247
-173.954	130.832	0.236	0.301
-172.939	3.796	-0.189	0.137
-171.925	150.576	-0.094	-0.126
-170.910	-19.933	-0.351	0.215
-169.896	-75.572	0.174	-0.062
-168.881	-133.947	0.105	-0.013
-167.866	-117.967	0.086	-0.015
-166.852	-12.697	-0.186	0.120
-165.837	-130.051	-0.075	0.010
-164.823	173.709	-0.161	-0.231
-163.808	-3.884	-0.233	0.160
-162.793	-169.779	0.316	0.011
-161.779	-200.000	-0.007	-0.108
-160.764	36.402	-0.132	0.115
-159.750	-161.109	-0.146	-0.008
-158.735	-104.570	0.008	0.002
-157.720	232.421	0.123	0.200
-156.706	-183.047	-0.263	0.005
-155.691	-30.953	0.059	0.033
-154.677	-121.979	0.148	-0.024
-153.662	-200.000	0.065	0.326
-152.647	-48.363	0.165	-0.079
-151.633	-200.000	-0.026	-0.124
-150.618	8.606	-0.421	0.314
-149.604	-194.190	0.053	-0.000
-148.589	-80.226	-0.235	0.078
-147.574	61.823	0.305	-0.301
-146.560	-200.000	-0.006	-0.081
-145.545	-148.589	0.147	0.012
-144.531	414.826	-0.055	0.116
-143.516	-200.000	-0.003	0.054
-142.502	-134.552	0.188	0.023
-141.487	29.026	0.260	-0.218
-140.472	-200.000	0.020	0.139
-139.458	-178.998	0.365	-0.008
-138.443	800.000	0.053	0.210
-137.429	-126.714	-0.435	0.064
-136.414	-118.804	0.121	-0.021
-135.399	800.000	-0.062	-0.249
-134.385	-133.635	-0.298	0.037
-133.370	800.000	0.127	0.367
-132.356	68.772	0.069	0.070
-131.341	-200.000	-0.005	-0.029
-130.326	187.604	-0.110	0.162
-129.312	-51.103	-0.229	-0.106
-128.297	-5.961	-0.056	-0.038
-127.283	-58.378	0.144	-0.062
-126.268	-200.000	0.018	-0.117
-125.253	0.436	-0.087	-0.061
-124.239	194.767	0.041	-0.062
-123.224	112.045	-0.078	-0.093
-122.210	270.341	0.188	0.328
