DTS Sentinel unit serial number:	SN413079Multiplexer serial number:	ORYXHardware model number:	OX4-SRSoftware version number:	ORYX F/W v4.00 Oryx Data Collector v3.7.2.0data status	okinstallation	princeton_trtdifferential loss correction	single-endedforward channel	channel 4reverse channel	N/Adate	2019/09/11time	17:55:11forward acquisition time	60.00reverse acquisition time	0.00gamma	496.2192k internal	0.2274k external	0.2274temperature offset calibration	1.0022default loss term (dB/km)	0.3790temperature slope calibration	1.0000multiplexer offset coefficient	1.0000multiplexer slope coefficient	1.0000fibre end	0.00T internal ref (°C)	44.00T ext. ref 1 (°C)	1.12T ext. ref 2 (°C)	39.15length (m)	temperature (°C)	Stokes	anti-Stokes-747.200	168.836	0.088	0.130
-746.185	-123.742	-0.356	0.058
-745.171	322.820	0.115	0.227
-744.156	-97.680	-0.410	0.110
-743.142	397.440	0.097	0.209
-742.127	162.766	0.192	0.278
-741.112	0.298	0.033	0.024
-740.098	800.000	-0.066	0.263
-739.083	397.649	0.113	0.244
-738.069	51.034	-0.201	0.197
-737.054	239.265	0.242	0.416
-736.039	327.689	-0.041	0.082
-735.025	-141.782	-0.199	-0.021
-734.010	-200.000	-0.019	-0.085
-732.996	-47.537	-0.383	-0.192
-731.981	-114.653	-0.125	-0.025
-730.966	-119.548	-0.241	0.043
-729.952	495.916	-0.029	-0.068
-728.937	-47.818	0.112	-0.056
-727.923	-61.097	-0.406	0.177
-726.908	-200.000	-0.029	-0.143
-725.894	-44.992	0.268	-0.138
-724.879	84.984	-0.217	0.246
-723.864	518.896	-0.088	0.211
-722.850	-164.975	0.415	0.019
-721.835	-95.185	-0.145	0.040
-720.821	70.881	-0.060	0.064
-719.806	-149.002	-0.218	0.018
-718.791	-60.692	-0.075	0.033
-717.777	-200.000	0.014	-0.102
-716.762	-36.942	-0.472	-0.261
-715.748	58.063	0.154	0.156
-714.733	-10.475	-0.324	-0.221
-713.718	53.871	-0.345	-0.342
-712.704	-200.000	0.031	-0.251
-711.689	63.195	-0.117	-0.121
-710.675	6.618	0.096	0.074
-709.660	121.864	-0.052	-0.067
-708.645	-200.000	0.030	-0.182
-707.631	188.096	-0.150	0.230
-706.616	380.306	-0.045	0.095
-705.602	224.657	-0.094	-0.156
-704.587	-137.496	-0.196	0.023
-703.572	-68.108	-0.065	0.026
-702.558	9.464	-0.166	-0.130
-701.543	-62.330	0.052	0.022
-700.529	4.891	0.099	-0.075
-699.514	76.294	-0.124	-0.135
-698.499	-29.556	0.183	0.108
-697.485	-200.000	-0.020	0.344
-696.470	-124.054	0.146	0.024
-695.456	-110.296	-0.090	0.019
-694.441	266.378	0.110	-0.198
-693.426	471.218	-0.108	-0.250
-692.412	800.000	0.063	-0.192
-691.397	541.053	0.070	-0.171
-690.383	317.302	0.132	-0.257
-689.368	-36.409	0.102	-0.056
-688.354	123.345	0.158	-0.204
-687.339	-200.000	0.088	0.487
-686.324	-32.357	-0.104	0.060
-685.310	-200.000	0.012	-0.176
-684.295	436.725	-0.101	-0.226
-683.281	187.657	-0.023	-0.035
-682.266	-41.952	0.234	0.123
-681.251	-200.000	-0.037	0.235
-680.237	-34.573	-0.301	0.170
-679.222	800.000	0.079	0.305
-678.208	3.600	0.155	-0.116
-677.193	-200.000	0.003	-0.059
-676.178	-2.126	-0.216	-0.156
-675.164	800.000	0.096	0.361
-674.149	-200.000	-0.012	-0.117
-673.135	-18.361	0.112	-0.072
-672.120	407.251	0.075	0.162
-671.105	57.513	-0.207	0.208
-670.091	201.791	0.047	-0.074
-669.076	16.864	0.234	0.190
-668.062	107.423	0.144	0.176
-667.047	-132.029	-0.338	0.045
-666.032	800.000	0.044	-0.167
-665.018	-200.000	0.008	-0.428
-664.003	-147.780	-0.259	-0.022
-662.989	126.669	-0.111	-0.144
-661.974	-17.431	-0.226	-0.146
-660.959	320.097	0.060	0.118
-659.945	4.376	0.212	-0.159
-658.930	-108.326	0.173	-0.038
-657.916	-200.000	-0.015	0.130
-656.901	-139.094	-0.243	-0.027
-655.886	-200.000	0.015	-0.329
-654.872	55.439	-0.186	-0.185
-653.857	-179.214	0.114	0.003
-652.843	257.226	-0.034	0.061
-651.828	-64.513	0.176	-0.074
-650.814	-51.086	0.159	-0.076
-649.799	242.881	0.065	0.112
-648.784	-156.855	-0.304	-0.019
-647.770	0.021	0.146	-0.107
-646.755	-200.000	-0.025	-0.257
-645.741	76.670	0.129	0.140
-644.726	-0.955	0.254	0.185
-643.711	-19.633	0.133	-0.085
-642.697	-200.000	-0.052	-0.307
-641.682	-200.000	0.023	-0.303
-640.668	276.154	-0.041	-0.074
-639.653	800.000	0.109	-0.461
-638.638	286.921	0.093	0.173
-637.624	-154.344	0.372	-0.026
-636.609	-30.002	-0.249	0.146
-635.595	-30.343	-0.201	0.117
-634.580	268.101	-0.119	0.214
-633.565	-98.412	0.051	-0.013
-632.551	-12.895	0.071	0.048
-631.536	267.208	-0.160	-0.287
-630.522	349.632	-0.047	0.095
-629.507	235.193	0.050	-0.085
-628.492	-120.439	0.432	0.075
-627.478	-200.000	-0.056	-0.483
-626.463	800.000	0.066	-0.245
-625.449	-200.000	-0.020	0.102
-624.434	64.330	-0.085	-0.088
-623.419	92.249	-0.084	0.098
-622.405	2.510	-0.081	-0.060
-621.390	134.479	-0.113	-0.151
-620.376	-72.751	0.263	0.099
-619.361	87.911	-0.176	-0.201
-618.346	75.873	-0.178	-0.194
-617.332	-40.721	-0.318	-0.169
-616.317	68.208	-0.203	0.213
-615.303	-169.958	-0.398	-0.015
-614.288	-200.000	0.014	0.220
-613.273	50.088	-0.213	-0.206
-612.259	-26.296	0.167	-0.101
-611.244	-135.964	0.064	-0.008
-610.230	-109.436	0.285	0.062
-609.215	418.745	-0.009	0.020
-608.201	1.166	-0.317	-0.233
-607.186	-77.985	0.220	-0.078
-606.171	688.365	0.060	0.162
-605.157	55.706	-0.193	0.192
-604.142	-197.915	0.113	0.001
-603.128	800.000	-0.034	-0.133
-602.113	-51.719	-0.076	0.036
-601.098	242.757	0.130	-0.223
-600.084	555.384	-0.021	-0.051
-599.069	250.002	0.118	-0.206
-598.055	-128.044	-0.088	-0.013
-597.040	-200.000	0.028	0.269
-596.025	476.146	0.071	-0.164
-595.011	14.876	-0.287	-0.231
-593.996	-69.338	0.116	-0.046
-592.982	-28.738	0.223	0.132
-591.967	3.798	-0.286	-0.214
-590.952	18.229	0.231	-0.189
-589.938	-63.966	0.209	-0.088
-588.923	-108.076	0.205	-0.046
-587.909	-200.000	0.004	0.267
-586.894	-133.056	0.144	-0.019
-585.879	-128.326	-0.174	0.025
-584.865	800.000	0.070	-0.271
-583.850	-8.096	0.145	-0.100
-582.836	175.202	0.254	0.377
-581.821	-58.607	0.255	0.113
-580.806	-183.198	0.293	0.005
-579.792	-200.000	-0.028	0.143
-578.777	154.485	0.076	-0.107
-577.763	98.643	-0.027	-0.032
-576.748	-37.843	-0.095	0.052
-575.733	800.000	-0.039	0.141
-574.719	54.528	-0.166	-0.164
-573.704	57.985	-0.253	-0.254
-572.690	425.230	-0.104	-0.230
-571.675	-200.000	-0.003	0.248
-570.661	317.795	0.108	-0.210
-569.646	36.936	-0.239	0.216
-568.631	-77.402	0.073	0.026
-567.617	800.000	-0.032	-0.114
-566.602	96.004	0.111	0.129
-565.588	-146.996	-0.227	0.020
-564.573	450.128	0.153	0.345
-563.558	-108.449	-0.148	-0.033
-562.544	42.255	-0.279	0.260
-561.529	-81.374	0.141	0.048
-560.515	-200.000	0.002	-0.133
-559.500	-150.528	-0.083	0.006
-558.485	96.976	-0.178	0.209
-557.471	15.717	0.188	0.152
-556.456	800.000	0.085	-0.377
-555.442	84.312	-0.169	0.189
-554.427	-74.186	-0.237	-0.088
-553.412	-153.934	-0.271	0.019
-552.398	25.456	0.168	0.143
-551.383	151.375	-0.069	0.097
-550.369	204.078	0.037	0.059
-549.354	-112.402	-0.060	0.012
-548.339	-110.795	0.138	0.029
-547.325	800.000	0.037	0.143
-546.310	-69.831	0.153	0.060
-545.296	-200.000	-0.038	-0.241
-544.281	70.031	-0.174	-0.184
-543.266	-175.317	0.229	-0.006
-542.252	-152.956	-0.246	0.018
-541.237	-77.843	-0.089	-0.032
-540.223	-111.100	-0.412	0.086
-539.208	-74.642	0.108	0.040
-538.193	800.000	-0.059	0.212
-537.179	50.257	-0.264	-0.255
-536.164	-6.102	0.224	-0.156
-535.150	-167.025	0.240	0.010
-534.135	545.723	0.103	-0.251
-533.121	258.344	-0.099	-0.174
-532.106	-89.595	0.053	-0.016
-531.091	7.942	0.093	-0.072
-530.077	-200.000	-0.021	0.130
-529.062	121.072	-0.166	-0.211
-528.048	-10.397	-0.258	0.175
-527.033	800.000	-0.005	0.016
-526.018	-98.525	0.045	-0.012
-525.004	176.501	0.253	-0.376
-523.989	800.000	-0.067	-0.217
-522.975	228.095	0.106	-0.177
-521.960	-42.105	-0.173	0.091
-520.945	291.582	0.183	-0.341
-519.931	-107.538	-0.059	0.013
-518.916	800.000	0.100	0.310
-517.902	296.162	-0.064	-0.120
-516.887	-200.000	0.006	0.207
-515.872	-75.032	-0.164	0.060
-514.858	513.665	0.128	-0.305
-513.843	-200.000	-0.013	-0.289
-512.829	589.541	-0.092	-0.231
-511.814	-133.735	-0.179	0.023
-510.799	304.298	-0.111	-0.210
-509.785	119.568	0.189	0.239
-508.770	64.169	0.079	-0.081
-507.756	-200.000	0.138	0.001
-506.741	158.534	0.031	0.044
-505.726	157.425	0.226	0.319
-504.712	220.952	-0.043	0.071
-503.697	-157.180	0.360	0.022
-502.683	30.018	0.152	0.132
-501.668	207.082	0.129	-0.206
-500.653	248.830	-0.070	0.121
-499.639	675.553	0.034	0.091
-498.624	800.000	0.018	0.061
-497.610	-16.649	0.123	0.079
-496.595	800.000	-0.107	-0.320
-495.581	131.374	0.040	0.052
-494.566	263.353	-0.056	-0.099
-493.551	639.194	-0.119	0.310
-492.537	800.000	-0.030	0.124
-491.522	9.178	-0.071	0.055
-490.508	213.876	-0.044	-0.071
-489.493	-200.000	0.000	0.067
-488.478	-11.412	-0.242	-0.163
-487.464	-200.000	-0.316	-0.002
-486.449	-200.000	0.015	0.416
-485.435	155.400	0.094	-0.132
-484.420	-54.767	0.126	0.058
-483.405	369.140	-0.114	0.236
-482.391	-173.123	0.352	-0.011
-481.376	-65.982	0.293	-0.120
-480.362	132.891	0.158	-0.209
-479.347	6.627	-0.209	-0.159
-478.332	-95.877	-0.261	-0.071
-477.318	362.870	0.221	0.453
-476.303	-127.591	0.195	0.029
-475.289	486.643	-0.020	-0.046
-474.274	-70.002	0.134	-0.052
-473.259	-88.185	-0.192	-0.059
-472.245	-153.728	0.234	0.016
-471.230	-200.000	0.014	-0.117
-470.216	-200.000	0.031	-0.237
-469.201	800.000	0.078	-0.321
-468.186	-136.954	-0.093	-0.011
-467.172	6.727	-0.234	-0.178
-466.157	293.482	0.123	0.230
-465.143	-200.000	-0.022	-0.237
-464.128	-68.426	0.228	0.090
-463.113	209.860	-0.110	0.176
-462.099	-52.405	0.140	0.066
-461.084	-84.291	0.524	-0.169
-460.070	31.620	-0.195	0.171
-459.055	-200.000	0.006	-0.091
-458.040	-52.636	-0.097	-0.046
-457.026	800.000	-0.062	-0.198
-456.011	-168.989	-0.075	-0.003
-454.997	120.862	0.144	0.183
-453.982	-60.246	0.253	0.110
-452.968	394.722	-0.105	0.223
-451.953	-161.896	-0.462	0.024
-450.938	800.000	0.064	0.263
-449.924	800.000	0.038	-0.113
-448.909	-200.000	-0.001	0.040
-447.895	126.770	-0.203	0.262
-446.880	130.435	0.240	0.313
-445.865	-38.162	-0.087	0.047
-444.851	69.103	-0.235	-0.247
-443.836	-139.315	-0.172	-0.019
-442.822	-82.128	-0.074	-0.025
-441.807	56.679	-0.199	-0.197
-440.792	-134.982	0.268	-0.033
-439.778	-70.609	0.196	-0.076
-438.763	-76.099	-0.192	0.069
-437.749	-200.000	0.009	0.207
-436.734	-43.933	-0.237	0.121
-435.719	269.945	-0.040	0.071
-434.705	-152.593	0.225	-0.016
-433.690	-200.000	0.020	0.093
-432.676	247.699	0.125	0.215
-431.661	800.000	-0.128	0.378
-430.646	-180.114	0.230	-0.005
-429.632	29.343	0.062	0.054
-428.617	340.547	0.039	-0.077
-427.603	6.560	0.302	0.229
-426.588	-138.024	-0.156	0.018
-425.573	181.425	-0.097	0.145
-424.559	-83.329	0.136	0.044
-423.544	-200.000	0.023	-0.219
-422.530	126.242	-0.169	0.218
-421.515	-200.000	-0.079	-0.363
-420.500	-200.000	-0.034	0.791
-419.486	249.792	0.026	-0.045
-418.471	374.933	0.164	-0.341
-417.457	-200.000	0.355	0.001
-416.442	-200.000	0.037	0.164
-415.428	800.000	-0.067	0.212
-414.413	-80.193	0.041	0.014
-413.398	-60.314	-0.327	0.142
-412.384	-200.000	-0.010	0.088
-411.369	-177.368	-0.256	-0.006
-410.355	-137.872	0.204	0.023
-409.340	-200.000	0.045	0.228
-408.325	800.000	-0.050	-0.187
-407.311	249.977	-0.148	-0.255
-406.296	459.297	0.026	-0.058
-405.282	-10.512	-0.159	0.108
-404.267	53.381	0.032	-0.032
-403.252	-58.032	0.184	-0.082
-402.238	498.353	-0.143	-0.334
-401.223	210.234	0.136	-0.218
-400.209	-76.882	0.065	-0.023
-399.194	-1.375	-0.179	0.128
-398.179	-98.324	-0.241	0.063
-397.165	-200.000	-0.012	0.262
-396.150	-164.384	-0.527	-0.025
-395.136	-157.093	-0.101	-0.006
-394.121	800.000	-0.071	-0.239
-393.106	-78.311	0.077	-0.027
-392.092	-142.823	0.464	-0.046
-391.077	782.124	0.027	-0.075
-390.063	-200.000	-0.020	-0.298
-389.048	139.964	0.081	-0.109
-388.033	-104.760	-0.148	0.035
-387.019	-190.407	0.098	-0.001
-386.004	-102.842	-0.073	-0.018
-384.990	12.671	-0.177	-0.139
-383.975	30.505	0.049	0.043
-382.960	-70.189	0.300	-0.116
-381.946	800.000	0.159	-0.466
-380.931	20.024	-0.157	-0.129
-379.917	-139.591	-0.144	-0.016
-378.902	-157.074	-0.120	-0.007
-377.888	-87.415	-0.198	0.061
-376.873	-200.000	-0.002	-0.046
-375.858	388.219	0.020	-0.042
-374.844	800.000	0.036	-0.117
-373.829	-200.000	-0.013	-0.257
-372.815	-34.742	-0.178	-0.099
-371.800	17.907	0.239	0.194
-370.785	358.854	-0.066	0.135
-369.771	800.000	0.081	0.339
-368.756	-200.000	-0.015	-0.150
-367.742	2.540	-0.147	-0.108
-366.727	49.953	0.168	-0.161
-365.712	-116.315	0.220	0.041
-364.698	-200.000	-0.040	-0.311
-363.683	-200.000	-0.031	0.168
-362.669	-89.482	0.072	-0.021
-361.654	-30.312	0.276	-0.159
-360.639	-101.857	0.160	0.039
-359.625	-200.000	-0.006	0.152
-358.610	-200.000	0.004	0.128
-357.596	800.000	-0.052	-0.217
-356.581	-128.365	-0.036	0.005
-355.566	-100.893	0.141	0.035
-354.552	342.964	-0.014	0.029
-353.537	375.279	0.068	0.141
-352.523	663.094	-0.079	-0.207
-351.508	289.387	0.035	0.065
-350.493	93.496	-0.131	0.150
-349.479	106.961	-0.248	0.299
-348.464	112.842	0.067	-0.083
-347.450	-113.722	-0.311	0.062
-346.435	-21.688	-0.252	-0.156
-345.420	664.618	-0.051	0.134
-344.406	108.434	-0.082	-0.100
-343.391	4.756	0.187	-0.140
-342.377	3.334	0.122	-0.090
-341.362	6.075	0.210	0.158
-340.348	110.457	0.278	0.339
-339.333	197.065	0.080	0.124
-338.318	800.000	0.075	0.307
-337.304	473.223	-0.037	0.084
-336.289	242.757	0.076	-0.129
-335.275	-158.451	-0.368	0.022
-334.260	65.500	-0.307	0.316
-333.245	-68.841	-0.039	0.015
-332.231	85.309	-0.194	-0.217
-331.216	-117.320	-0.311	0.057
-330.202	-200.000	0.020	0.090
-329.187	-200.000	-0.050	0.310
-328.172	72.896	-0.148	0.157
-327.158	-86.652	-0.047	0.015
-326.143	-200.000	0.006	0.032
-325.129	-127.025	0.165	0.025
-324.114	50.442	-0.180	0.172
-323.099	-200.000	0.001	0.065
-322.085	-64.169	0.150	-0.062
-321.070	-92.931	-0.035	-0.010
-320.056	-43.024	-0.065	-0.034
-319.041	-55.288	-0.341	-0.155
-318.026	-131.231	0.514	-0.069
-317.012	800.000	-0.079	0.284
-315.997	360.837	0.100	0.202
-314.983	185.152	-0.010	-0.015
-313.968	48.816	-0.043	0.041
-312.953	723.761	-0.045	-0.120
-311.939	-200.000	0.010	0.264
-310.924	-66.173	-0.166	-0.067
-309.910	-64.759	-0.082	0.034
-308.895	-99.771	0.206	0.052
-307.880	24.060	-0.042	0.035
-306.866	-33.263	0.199	-0.112
-305.851	7.114	-0.065	0.049
-304.837	-50.999	-0.114	0.054
-303.822	20.141	-0.093	0.076
-302.807	-101.664	-0.220	0.054
-301.793	68.095	-0.215	-0.223
-300.778	340.650	0.154	0.304
-299.764	113.025	-0.146	0.180
-298.749	537.830	0.044	-0.107
-297.735	404.805	-0.076	0.163
-296.720	-87.338	-0.157	0.048
-295.705	-200.000	0.017	0.211
-294.691	119.553	-0.122	-0.153
-293.676	26.231	0.123	0.104
-292.662	800.000	0.124	-0.408
-291.647	344.501	0.211	0.420
-290.632	-77.376	-0.232	-0.082
-289.618	-174.964	-0.307	0.009
-288.603	101.608	0.129	0.152
-287.589	18.788	-0.117	-0.095
-286.574	32.811	-0.102	0.090
-285.559	1.390	-0.147	0.107
-284.545	404.641	-0.025	-0.053
-283.530	-200.000	-0.001	0.058
-282.516	58.627	0.148	-0.148
-281.501	-71.936	-0.324	0.122
-280.486	67.105	0.156	0.161
-279.472	52.156	0.230	0.222
-278.457	160.886	-0.110	-0.155
-277.443	-107.517	0.275	0.061
-276.428	-200.000	-0.001	-0.072
-275.413	-200.000	-0.038	0.337
-274.399	-17.681	-0.201	0.128
-273.384	122.856	0.239	0.304
-272.370	800.000	0.089	-0.347
-271.355	-74.648	0.085	0.031
-270.340	-200.000	0.035	-0.227
-269.326	-38.536	0.197	0.105
-268.311	800.000	0.102	0.294
-267.297	-70.207	-0.196	-0.075
-266.282	-117.203	0.199	-0.037
-265.267	402.209	-0.107	-0.227
-264.253	-16.114	0.448	0.288
-263.238	228.235	0.103	0.170
-262.224	-64.408	-0.136	-0.056
-261.209	110.144	0.048	0.058
-260.195	512.311	0.057	0.135
-259.180	58.408	0.265	-0.263
-258.165	762.416	0.064	0.177
-257.151	12.472	0.234	-0.183
-256.136	-133.996	0.230	-0.029
-255.122	-56.883	0.022	-0.010
-254.107	-131.071	-0.215	0.029
-253.092	-162.991	-0.117	0.006
-252.078	-143.673	-0.097	0.009
-251.063	-147.579	0.196	-0.017
-250.049	352.888	0.069	-0.139
-249.034	11.615	-0.106	-0.083
-248.019	800.000	-0.065	0.196
-247.005	5.386	-0.100	0.075
-245.990	-5.551	-0.258	0.179
-244.976	-12.489	0.457	-0.302
-243.961	-200.000	0.009	-0.139
-242.946	800.000	0.028	-0.099
-241.932	-200.000	-0.016	-0.143
-240.917	-11.343	0.457	-0.305
-239.903	-87.736	0.170	-0.052
-238.888	-16.017	0.259	-0.166
-237.873	57.575	-0.126	-0.125
-236.859	11.101	-0.236	0.183
-235.844	134.375	0.051	0.066
-234.830	-0.211	0.120	0.086
-233.815	151.760	-0.045	0.062
-232.800	-200.000	-0.000	-0.244
-231.786	-200.000	0.048	0.261
-230.771	179.850	-0.171	0.254
-229.757	152.330	-0.054	0.074
-228.742	201.478	0.094	0.146
-227.727	-63.187	0.228	0.095
-226.713	-200.000	0.064	-0.302
-225.698	800.000	0.044	0.155
-224.684	-200.000	-0.019	-0.259
-223.669	-29.793	0.218	0.126
-222.655	340.678	0.132	-0.261
-221.640	-141.068	-0.325	0.034
-220.625	800.000	-0.026	-0.089
-219.611	-200.000	0.035	-0.169
-218.596	13.889	-0.115	-0.091
-217.582	-137.138	0.062	-0.007
-216.567	-60.453	0.164	-0.070
-215.552	800.000	-0.053	-0.175
-214.538	-134.544	-0.282	0.035
-213.523	-122.786	0.057	0.009
-212.509	72.617	-0.282	-0.297
-211.494	-146.160	-0.186	0.017
-210.479	800.000	0.138	-0.548
-209.465	581.539	-0.049	0.122
-208.450	-7.241	0.084	0.058
-207.436	800.000	0.048	0.181
-206.421	652.202	0.103	0.266
-205.406	41.071	0.157	0.143
-204.392	-150.227	-0.156	-0.012
-203.377	-63.137	-0.109	-0.045
-202.363	40.372	-0.214	-0.195
-201.348	8.920	0.146	-0.111
-200.333	800.000	0.011	-0.042
-199.319	94.255	0.178	-0.204
-198.304	43.135	-0.192	-0.177
-197.290	19.108	-0.228	0.184
-196.275	-200.000	0.063	0.367
-195.260	-127.725	0.170	-0.025
-194.246	280.440	0.151	0.273
-193.231	-46.011	-0.035	0.017
-192.217	28.150	0.341	0.291
-191.202	-17.956	0.191	-0.121
-190.187	757.641	0.037	-0.102
-189.173	-81.286	0.405	0.135
-188.158	-114.435	-0.289	-0.056
-187.144	800.000	-0.099	-0.331
-186.129	520.507	-0.111	0.263
-185.114	35.869	-0.232	-0.206
-184.100	438.699	-0.042	0.092
-183.085	800.000	-0.124	0.396
-182.071	58.307	-0.184	0.182
-181.056	-150.370	-0.465	0.036
-180.042	-21.131	0.440	-0.271
-179.027	-200.000	-0.030	0.291
-178.012	-19.626	0.234	-0.146
-176.998	21.810	0.094	0.077
-175.983	97.062	0.084	-0.098
-174.969	0.133	-0.375	0.270
-173.954	800.000	0.113	-0.421
-172.939	-178.914	0.492	0.011
-171.925	-133.815	0.225	0.028
-170.910	800.000	0.090	-0.319
-169.896	800.000	-0.044	0.156
-168.881	398.462	-0.154	-0.324
-167.866	99.370	0.180	-0.210
-166.852	178.185	-0.109	0.161
-165.837	800.000	0.072	0.250
-164.823	395.774	-0.078	0.165
-163.808	-190.524	-0.254	0.003
-162.793	-141.610	0.071	0.007
-161.779	-49.945	-0.234	0.112
-160.764	-15.626	0.283	0.182
-159.750	49.543	-0.152	0.144
-158.735	-176.171	0.338	-0.009
-157.720	17.933	-0.289	-0.232
-156.706	58.732	-0.256	0.253
-155.691	-200.000	0.015	0.161
-154.677	-93.340	-0.202	-0.056
-153.662	60.029	-0.203	-0.202
-152.647	274.439	-0.227	-0.404
-151.633	175.623	0.097	0.141
-150.618	-117.151	-0.274	-0.050
-149.604	308.592	0.113	-0.212
-148.589	-200.000	0.037	0.209
-147.574	-129.927	0.259	-0.036
-146.560	-200.000	-0.004	0.039
-145.545	-200.000	0.047	0.380
-144.531	-61.569	0.047	-0.020
-143.516	38.826	-0.186	-0.167
-142.502	-76.695	-0.197	0.069
-141.487	800.000	0.039	0.151
-140.472	260.757	0.105	-0.184
-139.458	9.292	0.310	0.236
-138.443	55.096	-0.145	-0.141
-137.429	-78.765	-0.211	-0.073
-136.414	-68.196	-0.106	0.041
-135.399	800.000	0.047	0.187
-134.385	-133.689	-0.245	0.031
-133.370	-141.920	-0.125	0.013
-132.356	-63.683	-0.097	-0.040
-131.341	-148.709	-0.293	0.024
-130.326	-200.000	-0.004	0.047
-129.312	463.716	-0.098	0.220
-128.297	81.848	-0.051	-0.056
-127.283	-57.967	-0.194	-0.086
-126.268	40.805	-0.124	-0.113
-125.253	89.226	0.323	-0.363
-124.239	82.505	-0.064	-0.070
-123.224	-80.986	0.291	0.097
-122.210	-129.741	-0.153	-0.021
-121.195	-44.921	0.276	-0.138
-120.180	269.062	-0.145	0.256
