DTS Sentinel unit serial number:	SN413079Multiplexer serial number:	ORYXHardware model number:	OX4-SRSoftware version number:	ORYX F/W v4.00 Oryx Data Collector v3.7.2.0data status	okinstallation	princeton_trtdifferential loss correction	single-endedforward channel	channel 4reverse channel	N/Adate	2019/09/18time	15:57:35forward acquisition time	60.00reverse acquisition time	0.00gamma	496.2192k internal	0.2292k external	0.2292temperature offset calibration	1.0006default loss term (dB/km)	0.3790temperature slope calibration	1.0000multiplexer offset coefficient	1.0000multiplexer slope coefficient	1.0000fibre end	0.00T internal ref (°C)	37.09T ext. ref 1 (°C)	0.80T ext. ref 2 (°C)	36.42length (m)	temperature (°C)	Stokes	anti-Stokes-747.200	-161.809	-0.343	0.018
-746.185	-114.241	0.196	0.039
-745.171	800.000	-0.064	-0.267
-744.156	741.244	-0.173	0.477
-743.142	800.000	-0.105	0.354
-742.127	59.253	-0.204	0.205
-741.112	-47.003	-0.255	0.127
-740.098	800.000	-0.120	0.385
-739.083	42.376	0.072	0.067
-738.069	-200.000	0.073	0.434
-737.054	284.918	-0.124	-0.229
-736.039	-200.000	0.007	-0.077
-735.025	-148.940	0.297	0.025
-734.010	289.784	0.179	-0.333
-732.996	153.251	-0.135	-0.188
-731.981	-157.087	-0.177	-0.011
-730.966	486.843	0.090	0.209
-729.952	39.926	-0.118	-0.109
-728.937	55.492	-0.092	0.091
-727.923	-200.000	-0.060	-0.336
-726.908	43.260	-0.111	-0.104
-725.894	532.441	-0.096	-0.232
-724.879	65.314	-0.078	0.080
-723.864	-8.495	-0.058	0.040
-722.850	-200.000	0.009	-0.170
-721.835	-39.389	0.205	-0.110
-720.821	800.000	-0.023	0.071
-719.806	186.539	0.028	-0.042
-718.791	156.379	0.099	-0.139
-717.777	101.761	-0.152	0.182
-716.762	42.742	-0.130	0.121
-715.748	0.130	0.210	0.153
-714.733	-159.642	-0.100	0.006
-713.718	-200.000	0.037	0.196
-712.704	588.165	-0.094	-0.237
-711.689	-116.637	-0.546	-0.103
-710.675	213.585	-0.066	0.106
-709.660	712.301	0.047	-0.127
-708.645	595.556	0.096	-0.243
-707.631	-56.667	0.253	-0.114
-706.616	-83.311	-0.435	0.143
-705.602	-65.257	0.246	-0.101
-704.587	28.735	0.137	0.119
-703.572	800.000	-0.039	0.162
-702.558	-63.564	-0.248	0.104
-701.543	19.949	0.318	-0.262
-700.529	-19.796	-0.208	0.132
-699.514	-21.066	0.103	0.064
-698.499	211.563	-0.097	-0.156
-697.485	338.423	-0.055	0.110
-696.470	639.336	0.010	0.026
-695.456	-200.000	0.033	0.157
-694.441	-138.188	0.579	0.066
-693.426	205.913	0.183	0.292
-692.412	260.792	-0.109	0.193
-691.397	800.000	0.020	0.061
-690.383	-43.902	0.268	-0.138
-689.368	-40.949	0.083	-0.044
-688.354	-76.195	-0.183	0.066
-687.339	718.277	-0.066	-0.180
-686.324	-200.000	0.007	0.100
-685.310	40.089	0.130	-0.119
-684.295	269.452	0.064	-0.115
-683.281	-83.105	0.258	-0.085
-682.266	-200.000	0.004	0.203
-681.251	-55.622	-0.200	0.091
-680.237	10.576	-0.095	-0.074
-679.222	-200.000	0.048	-0.234
-678.208	173.318	-0.115	-0.169
-677.193	-86.026	-0.129	0.041
-676.178	167.854	0.174	-0.253
-675.164	-142.786	-0.451	-0.045
-674.149	-200.000	0.006	0.093
-673.135	126.352	-0.127	-0.164
-672.120	-44.823	-0.217	0.110
-671.105	-79.720	0.179	0.062
-670.091	-19.526	0.381	-0.241
-669.076	341.458	0.132	-0.264
-668.062	338.691	-0.095	0.189
-667.047	-200.000	0.015	0.325
-666.032	-64.150	-0.203	0.084
-665.018	800.000	0.086	0.315
-664.003	665.920	0.083	-0.220
-662.989	41.525	0.096	0.089
-661.974	-101.198	-0.253	0.063
-660.959	-73.356	-0.436	-0.163
-659.945	800.000	-0.084	0.287
-658.930	-92.973	0.103	-0.029
-657.916	8.033	0.431	-0.330
-656.901	203.229	-0.110	-0.174
-655.886	-35.904	0.047	0.026
-654.872	156.899	-0.228	-0.321
-653.857	23.270	-0.317	-0.266
-652.843	-154.553	-0.322	0.022
-651.828	150.350	0.098	-0.135
-650.814	-200.000	-0.021	-0.174
-649.799	18.418	-0.220	0.179
-648.784	45.219	-0.178	-0.167
-647.770	212.726	-0.109	-0.175
-646.755	-94.938	0.139	0.038
-645.741	-35.733	-0.144	0.080
-644.726	13.191	-0.110	0.087
-643.711	-18.529	-0.219	-0.139
-642.697	-57.138	-0.128	-0.057
-641.682	526.142	0.068	0.163
-640.668	227.506	-0.057	-0.094
-639.653	-200.000	-0.021	0.141
-638.638	-47.174	-0.205	0.102
-637.624	-200.000	0.104	0.474
-636.609	-54.200	-0.415	-0.192
-635.595	-38.104	-0.266	-0.144
-634.580	-23.968	0.126	0.077
-633.565	-2.478	-0.266	0.190
-632.551	800.000	0.005	-0.015
-631.536	-178.320	-0.148	-0.004
-630.522	525.280	0.051	0.122
-629.507	124.338	0.080	0.103
-628.492	155.108	-0.022	0.031
-627.478	-172.833	-0.319	0.010
-626.463	26.743	0.207	-0.177
-625.449	-200.000	-0.009	0.242
-624.434	800.000	-0.077	-0.266
-623.419	-116.939	0.084	0.016
-622.405	356.026	0.089	-0.181
-621.390	-200.000	-0.016	-0.216
-620.376	5.866	-0.165	-0.124
-619.361	77.856	0.060	0.065
-618.346	592.765	-0.054	-0.135
-617.332	277.796	-0.101	-0.184
-616.317	182.959	-0.140	-0.211
-615.303	-129.133	-0.067	0.010
-614.288	-122.399	0.088	0.015
-613.273	-200.000	0.000	0.169
-612.259	299.446	0.036	-0.067
-611.244	-74.592	-0.356	0.131
-610.230	9.437	0.077	-0.059
-609.215	-0.025	-0.491	-0.356
-608.201	800.000	0.040	-0.155
-607.186	68.458	0.143	-0.149
-606.171	800.000	0.084	-0.269
-605.157	-22.230	-0.108	-0.067
-604.142	53.719	0.156	-0.153
-603.128	254.420	-0.086	-0.150
-602.113	-200.000	0.053	-0.239
-601.098	-2.561	0.232	-0.165
-600.084	-200.000	-0.001	-0.112
-599.069	-49.972	0.027	0.013
-598.055	-200.000	-0.011	-0.050
-597.040	22.246	-0.114	0.095
-596.025	26.519	-0.142	-0.121
-595.011	-200.000	-0.002	0.213
-593.996	800.000	-0.115	0.326
-592.982	-104.815	0.023	0.005
-591.967	-200.000	0.009	-0.182
-590.952	-30.029	0.178	-0.103
-589.938	206.517	-0.081	0.129
-588.923	-55.143	-0.417	0.191
-587.909	762.385	0.062	0.170
-586.894	-129.912	0.323	-0.045
-585.879	-32.849	-0.222	0.126
-584.865	-56.479	0.326	-0.147
-583.850	64.214	-0.176	-0.180
-582.836	-69.939	-0.163	-0.063
-581.821	800.000	-0.071	-0.222
-580.806	-163.046	-0.235	-0.012
-579.792	-200.000	-0.006	-0.181
-578.777	-80.159	-0.137	-0.047
-577.763	263.783	0.169	-0.299
-576.748	-158.096	0.089	-0.005
-575.733	16.314	-0.324	-0.260
-574.719	7.521	-0.233	-0.177
-573.704	-185.934	-0.155	0.002
-572.690	-149.547	0.209	0.017
-571.675	-95.830	-0.319	-0.086
-570.661	92.972	0.194	-0.222
-569.646	-100.870	0.105	-0.026
-568.631	-81.918	0.151	-0.050
-567.617	359.865	0.167	-0.340
-566.602	42.019	0.239	0.220
-565.588	-78.057	0.238	0.083
-564.573	-83.882	-0.234	-0.076
-563.558	12.708	0.116	-0.091
-562.544	343.993	-0.108	0.215
-561.529	-160.413	0.097	0.005
-560.515	-166.965	0.283	0.012
-559.500	26.968	-0.125	-0.107
-558.485	-174.434	0.235	0.007
-557.471	-45.170	-0.171	-0.086
-556.456	98.620	-0.395	0.462
-555.442	800.000	-0.042	0.186
-554.427	800.000	-0.052	-0.177
-553.412	174.234	0.170	0.250
-552.398	425.183	0.200	0.438
-551.383	-64.272	0.095	-0.039
-550.369	-50.582	0.293	0.140
-549.354	298.138	0.103	0.193
-548.339	39.162	-0.119	0.108
-547.325	-200.000	-0.019	0.250
-546.310	800.000	0.045	-0.200
-545.296	323.337	-0.093	-0.181
-544.281	800.000	0.025	0.071
-543.266	-116.299	0.349	-0.066
-542.252	-200.000	0.042	-0.377
-541.237	-200.000	-0.021	-0.354
-540.223	-42.245	-0.239	-0.124
-539.208	800.000	0.013	-0.051
-538.193	-200.000	0.005	-0.051
-537.179	-108.227	-0.297	0.065
-536.164	-200.000	0.052	-0.356
-535.150	211.162	-0.090	0.144
-534.135	48.517	-0.262	-0.250
-533.121	-200.000	0.035	-0.165
-532.106	800.000	0.026	0.083
-531.091	166.238	-0.123	-0.177
-530.077	-36.999	-0.080	0.043
-529.062	143.642	-0.271	0.366
-528.048	-146.192	0.123	-0.011
-527.033	-63.795	0.167	0.069
-526.018	11.041	0.081	0.063
-525.004	70.930	0.106	0.112
-523.989	385.997	-0.065	-0.136
-522.975	20.373	-0.397	0.325
-521.960	-30.640	0.057	-0.032
-520.945	100.262	-0.120	0.141
-519.931	32.018	0.228	0.199
-518.916	-135.516	-0.240	-0.029
-517.902	-200.000	-0.005	-0.040
-516.887	18.388	0.052	-0.042
-515.872	192.724	0.079	-0.121
-514.858	193.977	0.056	-0.086
-513.843	222.111	-0.192	0.313
-512.829	800.000	-0.028	-0.098
-511.814	-37.910	0.312	-0.168
-510.799	-200.000	0.039	-0.396
-509.785	32.426	0.170	-0.149
-508.770	-14.649	0.145	0.095
-507.756	203.756	-0.063	-0.098
-506.741	-31.446	-0.079	-0.045
-505.726	-133.720	0.230	-0.029
-504.712	-89.553	-0.103	-0.031
-503.697	-120.538	-0.266	-0.046
-502.683	177.645	0.076	-0.112
-501.668	377.325	-0.113	-0.233
-500.653	596.175	0.053	0.132
-499.639	-200.000	-0.009	0.189
-498.624	-35.359	-0.288	0.159
-497.610	431.532	-0.115	0.253
-496.595	-200.000	0.008	0.183
-495.581	171.277	-0.018	-0.026
-494.566	-200.000	-0.030	0.154
-493.551	-25.812	0.093	0.055
-492.537	-200.000	-0.042	-0.241
-491.522	-138.856	0.257	0.028
-490.508	-45.477	-0.152	0.076
-489.493	-200.000	-0.032	0.154
-488.478	74.258	0.101	0.107
-487.464	-200.000	-0.041	-0.300
-486.449	-99.272	-0.115	0.029
-485.435	177.638	0.181	-0.268
-484.420	-8.016	-0.106	0.072
-483.405	-200.000	0.027	0.208
-482.391	-200.000	-0.048	0.294
-481.376	266.131	0.129	0.228
-480.362	89.563	0.147	0.166
-479.347	616.458	-0.091	-0.232
-478.332	-200.000	0.021	-0.467
-477.318	-200.000	0.030	0.336
-476.303	-135.102	0.042	0.005
-475.289	-142.991	-0.231	-0.023
-474.274	-158.166	0.341	-0.020
-473.259	-195.120	0.217	0.002
-472.245	70.263	-0.146	-0.152
-471.230	-69.774	0.175	-0.068
-470.216	83.756	-0.185	-0.204
-469.201	-200.000	0.002	-0.343
-468.186	441.883	0.085	0.188
-467.172	-200.000	0.023	0.384
-466.157	386.170	-0.118	0.247
-465.143	227.755	-0.086	-0.142
-464.128	800.000	0.071	0.253
-463.113	800.000	-0.048	-0.175
-462.099	307.368	0.061	-0.116
-461.084	-130.977	-0.049	-0.007
-460.070	115.525	0.187	0.232
-459.055	123.714	-0.231	-0.293
-458.040	-116.599	0.187	-0.035
-457.026	170.294	0.039	0.056
-456.011	-132.233	0.183	-0.024
-454.997	-164.229	-0.168	-0.008
-453.982	-197.940	-0.104	-0.001
-452.968	566.642	-0.036	-0.088
-451.953	-73.702	-0.050	0.018
-450.938	-150.832	0.429	-0.033
-449.924	-106.370	-0.083	-0.019
-448.909	-106.749	0.041	0.009
-447.895	231.844	-0.045	0.075
-446.880	-114.765	-0.172	-0.033
-445.865	288.635	0.151	-0.276
-444.851	-39.185	-0.167	0.089
-443.836	-200.000	-0.235	0.001
-442.822	-97.344	-0.425	-0.112
-441.807	61.550	0.239	-0.240
-440.792	-86.373	0.209	-0.065
-439.778	-7.028	-0.177	-0.122
-438.763	-102.715	0.158	0.038
-437.749	-72.005	0.091	-0.034
-436.734	-75.133	-0.146	-0.053
-435.719	139.525	-0.192	0.256
-434.705	-200.000	0.063	-0.382
-433.690	800.000	-0.069	-0.280
-432.676	-7.331	-0.236	-0.162
-431.661	-43.865	0.130	-0.066
-430.646	140.073	-0.107	0.143
-429.632	8.368	-0.249	0.189
-428.617	131.815	0.210	0.273
-427.603	119.789	-0.040	-0.050
-426.588	-55.593	0.281	0.127
-425.573	-200.000	0.000	0.171
-424.559	-39.175	0.147	-0.078
-423.544	800.000	-0.025	-0.090
-422.530	800.000	-0.066	-0.263
-421.515	-141.537	-0.162	-0.017
-420.500	-2.579	0.251	-0.178
-419.486	320.704	-0.108	0.208
-418.471	-88.002	-0.151	-0.046
-417.457	-75.488	-0.231	0.083
-416.442	-84.665	0.400	-0.127
-415.428	10.561	-0.299	0.230
-414.413	-153.807	-0.118	0.008
-413.398	523.171	0.155	0.368
-412.384	-200.000	0.002	-0.221
-411.369	214.162	0.233	-0.373
-410.355	-109.209	0.545	0.117
-409.340	800.000	0.068	0.264
-408.325	-89.018	-0.187	-0.056
-407.311	124.107	0.273	-0.347
-406.296	-156.099	-0.549	-0.035
-405.282	-200.000	-0.035	-0.445
-404.267	-200.000	0.043	-0.191
-403.252	-17.073	-0.462	-0.294
-402.238	646.605	0.137	-0.353
-401.223	75.082	-0.185	-0.197
-400.209	688.253	0.019	-0.051
-399.194	-51.235	-0.182	-0.086
-398.179	-170.043	-0.222	-0.008
-397.165	-183.345	-0.099	0.002
-396.150	800.000	0.052	-0.163
-395.136	77.074	-0.042	0.046
-394.121	-96.923	0.252	-0.067
-393.106	-31.138	-0.080	-0.045
-392.092	-118.396	-0.195	-0.035
-391.077	-49.797	-0.162	-0.078
-390.063	-200.000	0.009	-0.116
-389.048	259.255	-0.118	0.205
-388.033	-108.929	-0.226	-0.049
-387.019	-28.666	0.285	-0.166
-386.004	-107.278	-0.148	0.033
-384.990	69.156	-0.247	0.256
-383.975	657.125	-0.028	0.072
-382.960	-101.474	-0.316	-0.078
-381.946	-53.548	0.302	-0.139
-380.931	-42.646	-0.280	-0.144
-379.917	104.666	0.110	-0.131
-378.902	-124.932	-0.049	0.008
-377.888	-200.000	-0.012	0.165
-376.873	82.727	0.107	-0.117
-375.858	-62.298	-0.132	0.055
-374.844	800.000	-0.030	-0.122
-373.829	-188.581	0.109	0.001
-372.815	800.000	0.085	-0.343
-371.800	-31.850	0.346	0.196
-370.785	-20.436	-0.164	-0.102
-369.771	-5.535	-0.096	-0.066
-368.756	61.282	0.177	0.177
-367.742	-32.523	0.069	-0.039
-366.727	5.977	0.122	0.091
-365.712	-94.076	-0.098	-0.027
-364.698	280.723	0.126	-0.228
-363.683	-200.000	0.050	-0.391
-362.669	-109.010	-0.043	0.009
-361.654	-200.000	-0.033	-0.161
-360.639	-14.147	0.132	-0.086
-359.625	-28.233	0.031	-0.018
-358.610	332.346	0.136	-0.265
-357.596	-149.528	-0.152	-0.012
-356.581	-200.000	0.002	-0.088
-355.566	-200.000	0.032	-0.325
-354.552	70.117	-0.174	0.181
-353.537	800.000	0.052	0.202
-352.523	-200.000	0.038	0.299
-351.508	800.000	-0.067	0.228
-350.493	117.440	0.301	0.373
-349.479	-49.213	0.312	-0.150
-348.464	637.485	0.100	-0.257
-347.450	800.000	0.069	0.250
-346.435	92.510	0.238	0.270
-345.420	-34.519	0.440	0.243
-344.406	40.757	0.146	-0.133
-343.391	124.954	0.165	0.210
-342.377	-131.587	-0.105	0.014
-341.362	366.063	-0.049	-0.100
-340.348	800.000	-0.100	-0.324
-339.333	-114.329	-0.131	-0.026
-338.318	-7.936	0.277	-0.188
-337.304	-200.000	-0.056	-0.345
-336.289	-46.305	-0.491	0.243
-335.275	186.321	-0.223	0.334
-334.260	-200.000	-0.013	0.155
-333.245	275.335	0.129	0.231
-332.231	70.409	0.053	0.055
-331.216	287.408	-0.053	-0.096
-330.202	-140.637	-0.365	-0.038
-329.187	19.604	-0.091	-0.074
-328.172	800.000	0.077	-0.285
-327.158	-96.796	0.085	-0.022
-326.143	238.345	0.096	0.160
-325.129	-93.447	-0.366	0.102
-324.114	449.046	-0.149	0.332
-323.099	608.391	-0.084	0.212
-322.085	429.906	0.076	-0.166
-321.070	118.034	-0.025	0.031
-320.056	-33.288	-0.135	-0.075
-319.041	399.408	-0.064	-0.136
-318.026	700.993	0.070	0.185
-317.012	-200.000	0.058	0.347
-315.997	15.059	0.051	-0.040
-314.983	152.573	-0.204	0.280
-313.968	451.009	-0.079	0.176
-312.953	688.553	0.098	0.257
-311.939	140.000	0.155	-0.205
-310.924	-200.000	-0.024	0.194
-309.910	68.093	-0.140	-0.144
-308.895	374.049	-0.221	0.452
-307.880	-32.495	0.274	-0.154
-306.866	800.000	0.069	0.207
-305.851	65.301	0.141	0.144
-304.837	-169.647	0.033	0.001
-303.822	-63.918	0.419	-0.172
-302.807	800.000	0.122	-0.466
-301.793	-159.151	-0.045	-0.003
-300.778	800.000	0.053	-0.186
-299.764	693.224	0.027	-0.070
-298.749	-43.258	0.432	-0.220
-297.735	-200.000	0.000	-0.027
-296.720	4.387	0.169	0.124
-295.705	800.000	0.053	0.217
-294.691	-22.108	0.205	-0.125
-293.676	-115.914	0.319	-0.060
-292.662	-200.000	0.026	-0.129
-291.647	-200.000	-0.012	-0.111
-290.632	15.947	-0.155	0.122
-289.618	51.533	0.188	0.180
-288.603	-200.000	0.040	0.219
-287.589	98.881	0.045	0.052
-286.574	-81.644	-0.335	-0.111
-285.559	93.395	0.128	0.146
-284.545	50.636	-0.090	-0.085
-283.530	-34.008	0.261	0.144
-282.516	800.000	0.064	0.186
-281.501	312.592	-0.074	0.140
-280.486	281.695	-0.114	0.206
-279.472	422.649	-0.021	-0.045
-278.457	-200.000	0.014	0.289
-277.443	-200.000	0.079	-0.356
-276.428	-50.359	-0.126	0.060
-275.413	-150.594	0.210	0.016
-274.399	-62.915	0.043	0.018
-273.384	116.728	0.181	-0.223
-272.370	189.577	-0.178	-0.269
-271.355	800.000	0.052	-0.171
-270.340	800.000	0.109	-0.407
-269.326	-50.591	0.209	0.099
-268.311	-83.992	0.289	0.092
-267.297	-200.000	0.033	0.293
-266.282	191.569	-0.038	0.058
-265.267	-100.075	0.235	-0.059
-264.253	65.140	0.029	-0.030
-263.238	-200.000	0.033	0.161
-262.224	-200.000	0.039	-0.204
-261.209	232.517	0.148	0.243
-260.195	59.759	0.034	-0.034
-259.180	119.152	-0.113	0.140
-258.165	48.876	-0.251	-0.237
-257.151	129.220	0.084	-0.108
-256.136	-200.000	0.041	0.391
-255.122	-200.000	-0.028	0.163
-254.107	341.837	-0.086	0.169
-253.092	-200.000	-0.052	0.370
-252.078	-57.057	0.080	0.035
-251.063	-200.000	0.030	0.166
-250.049	800.000	-0.071	0.302
-249.034	-200.000	-0.000	0.110
-248.019	234.781	-0.048	0.079
-247.005	-168.436	-0.101	-0.004
-245.990	-116.811	-0.073	0.013
-244.976	-67.678	0.129	0.051
-243.961	35.989	-0.124	-0.110
-242.946	-103.123	0.188	0.045
-241.932	-35.130	-0.335	0.183
-240.917	-200.000	-0.028	0.265
-239.903	241.249	-0.040	-0.066
-238.888	-66.484	-0.286	-0.114
-237.873	-97.432	-0.086	0.022
-236.859	-200.000	0.006	0.285
-235.844	-200.000	-0.055	0.428
-234.830	800.000	0.076	0.232
-233.815	234.694	0.093	0.154
-232.800	800.000	0.081	0.248
-231.786	66.482	0.153	0.156
-230.771	-78.976	0.156	0.053
-229.757	-88.754	0.072	0.021
-228.742	800.000	-0.040	-0.162
-227.727	-163.679	-0.314	-0.015
-226.713	-13.459	-0.109	-0.071
-225.698	-200.000	0.004	0.125
-224.684	5.853	-0.047	-0.035
-223.669	63.579	0.132	-0.133
-222.655	177.424	-0.056	0.081
-221.640	-200.000	0.054	-0.650
-220.625	-167.300	0.291	-0.012
-219.611	58.635	-0.204	0.201
-218.596	-103.963	0.026	-0.006
-217.582	-67.964	0.279	-0.109
-216.567	800.000	-0.017	0.053
-215.552	250.248	0.157	-0.268
-214.538	-28.583	0.279	-0.161
-213.523	-87.847	0.290	-0.087
-212.509	-200.000	0.027	0.155
-211.494	68.127	0.144	0.148
-210.479	121.801	-0.020	-0.025
-209.465	-200.000	-0.028	-0.270
-208.450	98.404	0.088	0.101
-207.436	275.653	0.153	0.273
-206.421	160.088	0.021	-0.029
-205.406	-200.000	-0.010	-0.153
-204.392	-200.000	-0.018	0.127
-203.377	-127.295	0.243	0.036
-202.363	-35.232	-0.180	-0.098
-201.348	94.646	-0.175	0.199
-200.333	2.235	-0.158	-0.114
-199.319	-66.966	0.038	0.015
-198.304	-119.269	0.507	0.089
-197.290	290.596	-0.103	-0.188
-196.275	-200.000	-0.020	0.211
-195.260	10.404	0.355	0.270
-194.246	3.054	0.219	0.159
-193.231	518.413	0.068	0.159
-192.217	600.559	-0.031	0.076
-191.202	-200.000	0.017	-0.135
-190.187	-79.900	-0.213	0.072
-189.173	-200.000	0.057	-0.254
-188.158	-22.947	0.345	0.208
-187.144	800.000	-0.075	0.269
-186.129	-50.802	-0.122	0.057
-185.114	75.461	-0.164	0.173
-184.100	21.192	0.140	-0.113
-183.085	-22.857	0.137	0.083
-182.071	-146.275	-0.077	0.007
-181.056	-200.000	0.061	-0.300
-180.042	89.963	0.190	0.212
-179.027	-102.399	0.118	0.028
-178.012	-51.441	0.209	-0.098
-176.998	-41.196	0.071	-0.037
-175.983	-130.658	-0.312	0.042
-174.969	-34.942	0.108	0.059
-173.954	-73.660	0.036	-0.013
-172.939	521.433	-0.084	0.198
-171.925	-200.000	0.041	0.388
-170.910	136.702	-0.228	-0.298
-169.896	129.639	-0.188	-0.240
-168.881	-200.000	0.001	-0.170
-167.866	-200.000	-0.031	0.227
-166.852	-144.498	-0.186	0.017
-165.837	123.650	0.140	0.176
-164.823	-146.013	-0.183	0.016
-163.808	-11.471	-0.328	-0.216
-162.793	-98.447	0.129	0.033
-161.779	-15.338	-0.171	-0.109
-160.764	800.000	-0.026	0.073
-159.750	-30.425	-0.338	0.192
-158.735	-24.726	0.261	0.155
-157.720	-135.444	0.286	0.034
-156.706	-71.724	0.070	-0.026
-155.691	800.000	-0.050	-0.151
-154.677	252.161	-0.071	0.121
-153.662	245.333	0.255	0.429
-152.647	-200.000	-0.068	0.309
-151.633	-84.086	0.150	0.048
-150.618	-14.293	0.184	0.119
-149.604	1.773	-0.039	-0.028
-148.589	-33.658	-0.093	0.052
-147.574	34.274	-0.131	-0.114
-146.560	3.999	-0.346	-0.253
-145.545	118.089	-0.204	0.252
-144.531	-26.349	0.085	0.050
-143.516	-128.073	0.250	-0.036
-142.502	535.751	0.111	-0.263
-141.487	84.183	0.111	-0.121
-140.472	-200.000	0.006	-0.040
-139.458	64.983	0.189	-0.191
-138.443	48.174	-0.117	-0.110
-137.429	197.680	-0.071	-0.109
-136.414	124.850	-0.114	-0.144
-135.399	613.807	-0.121	0.304
-134.385	438.410	0.042	-0.092
-133.370	-78.815	-0.165	-0.056
-132.356	-131.979	0.137	0.018
-131.341	6.285	-0.372	0.276
-130.326	88.899	0.093	0.104
-129.312	-200.000	0.035	0.231
-128.297	270.450	-0.060	-0.105
-127.283	183.751	-0.041	0.061
-126.268	-25.671	0.182	-0.107
-125.253	-200.000	-0.018	0.200
-124.239	8.259	0.085	0.064
-123.224	-156.311	0.285	-0.018
-122.210	-118.704	0.051	0.009
-121.195	-67.403	0.267	0.105
