DTS Sentinel unit serial number:	SN413079Multiplexer serial number:	ORYXHardware model number:	OX4-SRSoftware version number:	ORYX F/W v4.00 Oryx Data Collector v3.7.2.0data status	okinstallation	princeton_trtdifferential loss correction	single-endedforward channel	channel 4reverse channel	N/Adate	2019/09/14time	06:53:34forward acquisition time	60.00reverse acquisition time	0.00gamma	496.2192k internal	0.2324k external	0.2324temperature offset calibration	1.0136default loss term (dB/km)	0.3790temperature slope calibration	1.0000multiplexer offset coefficient	1.0000multiplexer slope coefficient	1.0000fibre end	0.00T internal ref (°C)	26.25T ext. ref 1 (°C)	3.45T ext. ref 2 (°C)	20.87length (m)	temperature (°C)	Stokes	anti-Stokes-747.200	221.440	0.060	0.098
-746.185	800.000	-0.067	-0.297
-745.171	-53.638	0.202	0.093
-744.156	-7.565	-0.216	0.148
-743.142	398.559	-0.009	-0.019
-742.127	765.641	0.131	0.359
-741.112	-200.000	-0.030	0.165
-740.098	-41.828	-0.283	0.146
-739.083	-173.357	0.241	0.007
-738.069	-110.684	-0.466	0.097
-737.054	217.293	-0.121	0.194
-736.039	-135.585	-0.495	-0.059
-735.025	35.340	0.075	0.066
-734.010	-196.345	-0.262	0.002
-732.996	598.544	0.123	-0.308
-731.981	-68.978	-0.418	-0.163
-730.966	-125.189	-0.256	-0.040
-729.952	20.962	-0.208	0.170
-728.937	583.145	-0.034	0.084
-727.923	169.178	0.083	0.120
-726.908	260.348	0.170	-0.297
-725.894	114.811	-0.218	-0.268
-724.879	33.376	0.146	-0.128
-723.864	200.571	-0.145	-0.225
-722.850	286.806	0.162	-0.295
-721.835	-3.825	0.366	-0.256
-720.821	43.470	-0.084	-0.077
-719.806	224.200	0.116	0.190
-718.791	-87.624	0.313	-0.095
-717.777	-200.000	-0.029	0.328
-716.762	800.000	0.074	0.257
-715.748	377.057	-0.098	0.201
-714.733	475.087	-0.044	-0.101
-713.718	22.998	-0.193	-0.160
-712.704	-145.606	0.156	0.014
-711.689	-66.837	-0.292	0.116
-710.675	800.000	-0.063	-0.225
-709.660	800.000	0.029	-0.087
-708.645	52.947	0.140	-0.135
-707.631	40.851	-0.222	0.202
-706.616	800.000	0.036	-0.137
-705.602	-24.428	-0.308	-0.185
-704.587	-123.452	-0.152	-0.024
-703.572	-21.155	-0.277	-0.171
-702.558	-123.915	0.174	0.028
-701.543	3.761	0.094	-0.069
-700.529	-73.838	-0.152	0.056
-699.514	199.906	-0.265	0.411
-698.499	203.116	0.113	-0.177
-697.485	-0.643	-0.090	-0.064
-696.470	-200.000	0.002	0.344
-695.456	-94.364	-0.205	0.056
-694.441	-96.646	-0.172	0.046
-693.426	-144.870	0.155	0.014
-692.412	-167.426	-0.254	-0.010
-691.397	42.447	-0.223	-0.205
-690.383	116.893	0.098	0.121
-689.368	434.091	0.193	-0.421
-688.354	-184.057	0.333	0.006
-687.339	-16.795	-0.232	0.148
-686.324	109.282	0.136	0.164
-685.310	-175.480	-0.266	0.007
-684.295	-118.466	-0.185	0.033
-683.281	-123.350	-0.119	0.019
-682.266	542.692	-0.031	-0.074
-681.251	165.644	-0.114	0.162
-680.237	80.365	0.105	-0.114
-679.222	-122.470	0.161	-0.026
-678.208	-80.342	-0.134	-0.045
-677.193	-95.866	-0.150	0.040
-676.178	-200.000	0.025	-0.276
-675.164	-107.247	-0.239	-0.053
-674.149	-89.664	-0.114	0.034
-673.135	-126.910	-0.235	0.035
-672.120	45.555	0.143	0.133
-671.105	39.729	0.241	-0.217
-670.091	800.000	-0.100	0.370
-669.076	168.437	-0.051	0.073
-668.062	594.893	-0.014	-0.034
-667.047	-38.130	0.054	-0.029
-666.032	-52.734	-0.118	-0.055
-665.018	179.047	-0.113	-0.167
-664.003	-50.978	0.257	0.121
-662.989	-80.149	0.187	-0.063
-661.974	-127.596	-0.130	0.019
-660.959	-147.293	0.228	-0.020
-659.945	-87.450	-0.321	0.098
-658.930	-17.064	-0.198	0.126
-657.916	-129.434	0.470	-0.066
-656.901	-200.000	0.044	0.211
-655.886	-61.721	0.021	0.009
-654.872	-10.586	-0.088	0.058
-653.857	-80.589	-0.160	-0.054
-652.843	-22.041	0.165	-0.101
-651.828	-69.114	-0.073	-0.028
-650.814	49.696	0.208	-0.197
-649.799	26.132	-0.177	-0.149
-648.784	93.293	-0.148	0.168
-647.770	2.222	0.292	0.212
-646.755	-148.477	-0.178	-0.015
-645.741	39.223	-0.249	-0.224
-644.726	58.624	0.164	0.161
-643.711	-74.683	-0.258	-0.093
-642.697	240.606	0.077	0.129
-641.682	-1.141	-0.071	-0.050
-640.668	12.955	-0.427	0.332
-639.653	-71.143	0.183	-0.069
-638.638	124.751	-0.098	-0.123
-637.624	-200.000	-0.035	-0.156
-636.609	194.427	-0.100	0.153
-635.595	513.783	-0.141	-0.330
-634.580	422.821	-0.116	-0.252
-633.565	306.758	0.052	-0.098
-632.551	800.000	-0.026	-0.100
-631.536	-200.000	0.005	-0.042
-630.522	800.000	0.042	0.150
-629.507	800.000	0.044	-0.142
-628.492	92.324	-0.199	-0.225
-627.478	-177.755	0.307	-0.007
-626.463	12.254	0.103	0.080
-625.449	-200.000	-0.023	-0.213
-624.434	-19.082	-0.249	-0.155
-623.419	-200.000	0.013	0.260
-622.405	-31.125	-0.127	0.072
-621.390	250.548	0.071	0.121
-620.376	38.227	0.236	-0.211
-619.361	107.697	-0.113	0.135
-618.346	-200.000	-0.042	-0.210
-617.332	-200.000	0.016	-0.400
-616.317	-84.505	-0.104	0.033
-615.303	-51.949	-0.168	0.078
-614.288	-135.605	0.271	-0.032
-613.273	-200.000	0.040	-0.463
-612.259	-200.000	0.004	-0.367
-611.244	165.108	0.105	0.149
-610.230	335.522	-0.084	-0.165
-609.215	106.298	-0.148	-0.176
-608.201	-1.121	-0.138	-0.098
-607.186	283.512	-0.104	-0.188
-606.171	-168.688	-0.215	0.008
-605.157	66.739	-0.133	0.136
-604.142	140.397	-0.117	-0.155
-603.128	-200.000	0.015	-0.416
-602.113	23.132	-0.306	0.252
-601.098	-200.000	-0.058	-0.519
-600.084	-133.917	-0.238	0.030
-599.069	-200.000	-0.027	0.180
-598.055	286.802	0.128	-0.232
-597.040	105.652	-0.381	0.452
-596.025	350.439	-0.096	-0.191
-595.011	-149.972	0.137	-0.011
-593.996	-200.000	0.012	-0.094
-592.982	-107.335	-0.243	0.054
-591.967	-106.911	-0.369	-0.082
-590.952	-143.076	0.485	0.047
-589.938	-118.151	-0.328	0.059
-588.923	10.575	0.115	0.088
-587.909	-138.857	0.159	0.017
-586.894	37.721	0.096	0.086
-585.879	463.061	-0.165	0.371
-584.865	59.818	-0.070	0.069
-583.850	426.488	0.262	0.567
-582.836	-12.805	0.286	0.187
-581.821	-44.751	-0.221	-0.111
-580.806	255.546	-0.077	-0.133
-579.792	-70.017	-0.089	-0.034
-578.777	-200.000	-0.026	-0.248
-577.763	-44.749	0.077	-0.039
-576.748	792.956	-0.037	-0.101
-575.733	706.033	-0.092	-0.244
-574.719	4.396	0.203	-0.150
-573.704	-176.966	-0.113	0.003
-572.690	26.437	0.383	0.321
-571.675	-178.216	-0.275	-0.006
-570.661	0.372	0.284	-0.203
-569.646	-187.913	-0.310	0.004
-568.631	682.869	-0.103	-0.270
-567.617	15.683	-0.102	0.080
-566.602	-83.811	-0.135	-0.043
-565.588	-192.256	-0.261	-0.002
-564.573	27.356	-0.087	-0.073
-563.558	-200.000	0.003	-0.088
-562.544	-55.208	-0.492	0.222
-561.529	-43.456	0.264	-0.134
-560.515	800.000	0.051	-0.146
-559.500	-35.682	0.220	-0.119
-558.485	-200.000	0.012	-0.147
-557.471	-50.672	0.268	-0.127
-556.456	-75.104	-0.028	0.010
-555.442	-200.000	-0.062	0.406
-554.427	-121.397	-0.128	-0.021
-553.412	85.757	0.209	-0.231
-552.398	800.000	0.099	-0.376
-551.383	596.394	0.078	-0.192
-550.369	-200.000	0.002	0.161
-549.354	52.870	-0.095	0.091
-548.339	-200.000	0.009	0.257
-547.325	800.000	-0.080	-0.238
-546.310	34.203	-0.023	-0.020
-545.296	800.000	-0.103	0.351
-544.281	-22.932	0.124	-0.075
-543.266	20.504	0.181	0.146
-542.252	-62.396	-0.225	0.094
-541.237	-200.000	-0.072	0.505
-540.223	800.000	0.110	-0.323
-539.208	-39.438	0.197	-0.103
-538.193	45.845	-0.252	0.233
-537.179	18.246	0.317	0.254
-536.164	-161.977	0.335	-0.017
-535.150	25.789	-0.151	0.126
-534.135	31.426	0.265	0.228
-533.121	14.079	0.076	0.059
-532.106	-84.480	0.332	0.105
-531.091	-14.859	-0.200	-0.129
-530.077	800.000	0.044	-0.123
-529.062	256.867	-0.119	0.204
-528.048	-41.226	-0.279	-0.144
-527.033	-200.000	-0.000	-0.035
-526.018	-80.661	0.230	0.077
-525.004	-200.000	0.053	0.291
-523.989	800.000	-0.118	-0.431
-522.975	-136.179	0.079	-0.009
-521.960	-102.319	-0.106	0.025
-520.945	-155.021	0.241	-0.016
-519.931	-31.668	0.092	-0.052
-518.916	-81.354	0.162	0.053
-517.902	85.165	0.015	0.017
-516.887	800.000	0.066	0.247
-515.872	800.000	-0.023	-0.088
-514.858	-147.605	0.119	-0.010
-513.843	62.312	0.109	0.108
-512.829	-19.659	-0.332	0.205
-511.814	-1.783	0.149	0.105
-510.799	-200.000	0.010	0.111
-509.785	-200.000	0.029	-0.167
-508.770	40.264	0.287	-0.259
-507.756	78.428	0.178	0.190
-506.741	177.519	-0.013	0.019
-505.726	-148.435	-0.315	-0.026
-504.712	303.491	-0.031	0.057
-503.697	-200.000	-0.018	0.096
-502.683	-200.000	-0.025	0.300
-501.668	-61.389	0.195	0.082
-500.653	45.499	-0.164	-0.152
-499.639	-181.056	-0.446	-0.009
-498.624	59.045	0.262	0.258
-497.610	-149.839	0.522	0.041
-496.595	-33.625	0.251	-0.138
-495.581	-58.446	-0.312	0.136
-494.566	-85.767	-0.167	-0.052
-493.551	-0.974	-0.202	0.143
-492.537	-130.753	0.155	0.021
-491.522	-62.126	0.360	-0.150
-490.508	-62.103	-0.116	-0.048
-489.493	74.195	0.278	0.292
-488.478	800.000	-0.066	-0.201
-487.464	319.601	-0.104	0.197
-486.449	601.219	-0.175	-0.434
-485.435	125.078	-0.077	-0.096
-484.420	522.941	-0.080	0.188
-483.405	94.677	0.200	0.228
-482.391	-58.410	-0.293	-0.127
-481.376	-168.873	0.167	-0.006
-480.362	78.975	0.134	0.144
-479.347	571.069	0.097	-0.237
-478.332	-159.742	0.137	-0.008
-477.318	-80.021	0.455	0.152
-476.303	1.379	-0.242	0.174
-475.289	-200.000	-0.024	-0.500
-474.274	377.200	0.087	0.179
-473.259	64.333	0.186	-0.188
-472.245	-183.748	0.159	0.003
-471.230	-83.428	-0.115	0.037
-470.216	763.760	0.085	0.232
-469.201	-200.000	-0.033	0.167
-468.186	-200.000	0.028	0.125
-467.172	-200.000	-0.003	0.569
-466.157	258.814	-0.118	0.203
-465.143	800.000	0.045	-0.156
-464.128	295.755	0.092	0.168
-463.113	-56.840	-0.207	-0.091
-462.099	265.366	-0.120	-0.208
-461.084	11.063	0.022	-0.016
-460.070	358.547	-0.093	0.186
-459.055	-75.931	-0.141	0.050
-458.040	269.753	0.115	0.203
-457.026	327.064	-0.113	0.216
-456.011	-24.631	-0.120	0.071
-454.997	-200.000	-0.024	0.187
-453.982	4.389	0.037	-0.027
-452.968	-86.144	-0.103	0.032
-451.953	-87.088	0.240	0.073
-450.938	-157.263	-0.245	0.015
-449.924	-83.765	-0.337	-0.107
-448.909	-200.000	-0.016	0.236
-447.895	-119.271	-0.296	0.051
-446.880	-4.916	0.154	0.106
-445.865	453.899	-0.103	-0.228
-444.851	22.848	-0.117	0.095
-443.836	800.000	0.059	-0.163
-442.822	499.830	0.120	-0.275
-441.807	11.238	0.413	-0.316
-440.792	32.094	0.097	0.084
-439.778	-86.492	0.167	0.051
-438.763	-113.395	-0.297	-0.058
-437.749	-200.000	-0.004	-0.102
-436.734	509.356	-0.102	0.237
-435.719	-81.656	-0.187	0.061
-434.705	-152.575	-0.241	0.017
-433.690	528.479	0.125	-0.293
-432.676	800.000	-0.047	-0.163
-431.661	-200.000	0.026	-0.156
-430.646	244.101	0.057	0.096
-429.632	-48.958	0.135	-0.064
-428.617	210.299	0.075	-0.118
-427.603	304.763	-0.052	0.097
-426.588	800.000	-0.079	0.240
-425.573	-66.456	0.299	-0.118
-424.559	-123.280	-0.110	0.018
-423.544	-168.271	0.205	0.008
-422.530	2.331	0.198	0.143
-421.515	250.423	-0.044	-0.075
-420.500	439.187	0.057	0.123
-419.486	-200.000	0.022	-0.212
-418.471	51.571	-0.171	0.162
-417.457	-97.361	0.316	0.082
-416.442	-81.885	0.348	0.114
-415.428	800.000	-0.030	-0.100
-414.413	204.366	-0.074	0.115
-413.398	-83.107	-0.210	-0.067
-412.384	-139.815	-0.368	-0.039
-411.369	7.128	-0.154	-0.115
-410.355	234.560	0.089	-0.147
-409.340	460.362	0.145	0.321
-408.325	454.527	0.142	0.314
-407.311	61.321	-0.162	0.160
-406.296	-24.003	-0.150	-0.089
-405.282	-105.664	0.471	0.106
-404.267	228.978	0.132	-0.215
-403.252	-156.118	0.130	0.008
-402.238	-102.650	0.077	0.018
-401.223	242.721	-0.119	0.199
-400.209	205.905	0.156	-0.242
-399.194	-200.000	-0.062	-0.346
-398.179	72.195	-0.098	0.101
-397.165	-200.000	-0.001	0.266
-396.150	-139.289	-0.184	0.020
-395.136	133.621	-0.366	-0.471
-394.121	-26.520	0.112	0.065
-393.106	-27.474	0.120	-0.069
-392.092	101.961	0.135	-0.157
-391.077	-22.879	-0.179	0.108
-390.063	-142.465	0.450	-0.044
-389.048	-200.000	0.027	-0.295
-388.033	800.000	-0.014	0.038
-387.019	-42.407	0.107	0.055
-386.004	-200.000	0.011	0.106
-384.990	85.945	-0.082	-0.090
-383.975	-60.020	0.358	0.152
-382.960	-200.000	-0.018	-0.273
-381.946	-200.000	-0.027	0.242
-380.931	50.974	0.142	-0.134
-379.917	57.709	0.169	-0.164
-378.902	-96.670	-0.256	-0.067
-377.888	-67.628	-0.390	0.152
-376.873	3.100	0.155	0.112
-375.858	26.999	-0.077	-0.064
-374.844	602.817	0.069	0.171
-373.829	-51.482	0.419	-0.195
-372.815	208.018	-0.072	0.112
-371.800	31.847	-0.167	0.143
-370.785	375.314	-0.121	-0.246
-369.771	-5.176	-0.034	-0.023
-368.756	-200.000	-0.031	-0.264
-367.742	207.884	0.081	0.125
-366.727	800.000	0.048	0.144
-365.712	-3.428	-0.117	0.081
-364.698	8.607	0.151	0.113
-363.683	-200.000	0.010	0.178
-362.669	-2.409	0.287	0.200
-361.654	-200.000	0.032	0.169
-360.639	-64.793	-0.258	-0.104
-359.625	800.000	-0.168	-0.494
-358.610	-40.148	-0.060	0.031
-357.596	-200.000	0.006	-0.131
-356.581	341.368	0.015	0.030
-355.566	-112.614	-0.278	0.055
-354.552	400.979	-0.053	-0.110
-353.537	-7.708	0.143	0.096
-352.523	102.858	0.030	0.035
-351.508	-76.866	-0.138	0.048
-350.493	-11.354	-0.127	-0.083
-349.479	224.854	-0.024	0.039
-348.464	52.675	-0.059	-0.056
-347.450	-200.000	0.043	-0.198
-346.435	124.992	0.076	-0.095
-345.420	186.578	0.131	0.194
-344.406	-37.716	-0.177	0.093
-343.391	-163.572	0.207	0.010
-342.377	-143.436	0.118	-0.011
-341.362	-39.061	-0.167	-0.087
-340.348	-200.000	-0.004	-0.172
-339.333	64.126	-0.024	-0.024
-338.318	-117.373	-0.235	0.042
-337.304	594.896	0.062	0.152
-336.289	-200.000	-0.110	0.569
-335.275	715.326	-0.034	0.090
-334.260	-25.175	0.317	-0.187
-333.245	-128.826	-0.027	0.004
-332.231	800.000	0.080	-0.227
-331.216	140.485	-0.245	0.321
-330.202	252.342	0.176	0.298
-329.187	800.000	-0.059	-0.165
-328.172	-200.000	0.251	0.000
-327.158	-197.397	0.125	-0.001
-326.143	132.969	0.208	0.267
-325.129	-97.304	-0.065	-0.017
-324.114	800.000	-0.042	-0.169
-323.099	-200.000	0.007	0.066
-322.085	9.841	0.340	0.256
-321.070	66.805	0.290	0.293
-320.056	-200.000	0.002	-0.178
-319.041	-200.000	-0.054	-0.443
-318.026	-55.940	0.036	-0.016
-317.012	-28.356	-0.181	0.104
-315.997	281.981	-0.064	-0.114
-314.983	283.908	-0.083	0.148
-313.968	180.649	0.202	-0.295
-312.953	375.005	-0.047	0.095
-311.939	-121.508	-0.178	0.029
-310.924	374.719	0.120	-0.244
-309.910	-85.529	-0.280	-0.086
-308.895	-76.370	-0.471	0.164
-307.880	-75.009	0.413	-0.147
-306.866	54.066	0.125	-0.119
-305.851	-59.744	0.259	0.110
-304.837	135.475	-0.024	0.031
-303.822	1.852	0.089	0.063
-302.807	176.094	-0.161	0.232
-301.793	-103.315	-0.184	0.043
-300.778	-123.750	0.113	-0.018
-299.764	-110.139	0.150	0.031
-298.749	73.912	-0.106	-0.110
-297.735	224.542	-0.036	0.058
-296.720	-140.704	-0.052	-0.005
-295.705	800.000	-0.029	0.088
-294.691	58.003	0.209	-0.203
-293.676	-69.749	0.194	0.074
-292.662	-200.000	0.005	0.111
-291.647	-34.312	-0.205	0.112
-290.632	-200.000	0.002	0.166
-289.618	-200.000	0.026	0.192
-288.603	343.078	0.144	-0.280
-287.589	-57.554	0.281	0.122
-286.574	-131.454	-0.173	-0.023
-285.559	468.426	-0.065	0.144
-284.545	347.448	0.078	0.152
-283.530	85.325	-0.356	0.388
-282.516	-200.000	-0.010	0.093
-281.501	-33.527	0.302	-0.166
-280.486	800.000	0.136	-0.407
-279.472	-22.047	-0.092	0.055
-278.457	-3.828	0.290	0.199
-277.443	118.872	0.119	0.145
-276.428	-68.500	0.083	0.032
-275.413	800.000	-0.052	0.225
-274.399	800.000	0.079	0.299
-273.384	3.483	-0.174	0.126
-272.370	-22.664	0.067	0.040
-271.355	-62.002	0.339	-0.140
-270.340	-200.000	-0.020	0.091
-269.326	-95.478	-0.296	0.079
-268.311	-152.097	-0.207	0.015
-267.297	-200.000	-0.006	-0.154
-266.282	800.000	0.081	-0.283
-265.267	800.000	-0.104	-0.406
-264.253	-125.570	-0.025	0.004
-263.238	-200.000	0.045	-0.382
-262.224	614.167	0.060	0.149
-261.209	-50.724	-0.229	-0.107
-260.195	73.348	-0.191	-0.198
-259.180	252.778	0.191	0.323
-258.165	-102.178	0.160	0.038
-257.151	-58.156	0.064	-0.028
-256.136	-116.447	-0.148	0.027
-255.122	-50.437	-0.193	0.090
-254.107	-11.172	-0.280	0.183
-253.092	107.938	0.041	-0.048
-252.078	-200.000	0.001	-0.199
-251.063	800.000	-0.086	0.239
-250.049	305.995	0.030	-0.056
-249.034	-148.828	-0.231	-0.018
-248.019	-16.042	-0.177	0.111
-247.005	-200.000	-0.020	-0.199
-245.990	-153.440	-0.131	0.009
-244.976	226.834	0.020	-0.032
-243.961	-200.000	0.051	-0.240
-242.946	-200.000	0.019	-0.383
-241.932	-100.216	0.215	-0.053
-240.917	-84.870	-0.213	-0.066
-239.903	-103.934	0.130	0.030
-238.888	69.490	-0.123	-0.126
-237.873	118.605	-0.060	0.073
-236.859	-185.621	0.087	-0.001
-235.844	800.000	0.103	-0.333
-234.830	-72.835	-0.179	0.065
-233.815	-145.690	0.123	-0.011
-232.800	308.075	0.076	-0.141
-231.786	-200.000	-0.014	0.150
-230.771	-131.930	0.178	0.023
-229.757	-130.260	-0.272	0.037
-228.742	284.261	-0.115	-0.205
-227.727	-88.256	0.117	-0.035
-226.713	-200.000	0.000	0.203
-225.698	534.959	0.051	-0.118
-224.684	-200.000	-0.013	0.083
-223.669	-200.000	0.019	0.125
-222.655	-46.971	0.148	0.071
-221.640	291.234	-0.154	-0.278
-220.625	553.515	0.101	-0.240
-219.611	800.000	0.070	0.194
-218.596	-78.558	0.428	-0.145
-217.582	-200.000	0.015	0.216
-216.567	800.000	0.082	0.251
-215.552	-200.000	0.011	0.097
-214.538	-102.292	-0.050	0.012
-213.523	118.096	-0.118	-0.144
-212.509	800.000	-0.031	0.111
-211.494	423.711	0.071	0.151
-210.479	64.920	0.321	0.320
-209.465	159.012	0.137	-0.188
-208.450	-119.188	-0.098	0.017
-207.436	267.491	-0.099	0.172
-206.421	418.730	0.057	0.121
-205.406	158.415	-0.120	0.165
-204.392	103.358	0.167	-0.194
-203.377	92.127	0.177	-0.197
-202.363	-124.757	-0.008	-0.001
-201.348	65.895	0.216	0.217
-200.333	326.430	0.063	0.120
-199.319	-44.900	0.070	0.035
-198.304	-28.428	0.055	0.032
-197.290	303.444	0.146	0.268
-196.275	92.429	0.227	0.253
-195.260	307.273	-0.131	-0.241
-194.246	-50.752	-0.265	0.123
-193.231	-9.667	-0.139	0.091
-192.217	113.103	-0.193	0.232
-191.202	-108.123	-0.170	0.036
-190.187	-154.328	0.169	-0.011
-189.173	32.583	-0.035	0.030
-188.158	-200.000	0.029	-0.252
-187.144	21.408	-0.154	-0.124
-186.129	154.529	-0.223	0.303
-185.114	-91.062	-0.251	-0.071
-184.100	584.849	0.141	-0.342
-183.085	410.098	-0.122	-0.255
-182.071	-200.000	0.029	-0.181
-181.056	-200.000	0.036	-0.184
-180.042	-200.000	0.023	0.319
-179.027	-81.112	0.120	0.039
-178.012	93.932	0.177	0.199
-176.998	-50.549	-0.066	-0.031
-175.983	-25.815	0.196	-0.114
-174.969	-71.167	-0.325	0.120
-173.954	-97.029	-0.161	0.042
-172.939	383.250	-0.058	0.118
-171.925	27.810	-0.120	-0.100
-170.910	-200.000	-0.065	-0.336
-169.896	-46.986	-0.138	-0.067
-168.881	-58.310	-0.197	-0.085
-167.866	-11.530	0.167	-0.108
-166.852	-200.000	-0.022	0.277
-165.837	195.250	0.055	-0.082
-164.823	-128.412	0.214	-0.030
-163.808	-72.227	0.093	-0.034
-162.793	97.129	-0.138	-0.156
-161.779	409.590	0.088	-0.184
-160.764	800.000	0.063	0.175
-159.750	-34.429	-0.112	0.060
-158.735	-73.282	0.194	-0.070
-157.720	800.000	-0.090	-0.332
-156.706	248.373	-0.099	-0.166
-155.691	-112.050	0.259	0.051
-154.677	-200.000	-0.036	0.169
-153.662	-31.147	-0.279	-0.155
-152.647	35.262	0.044	0.038
-151.633	800.000	0.079	-0.319
-150.618	800.000	0.016	-0.067
-149.604	-98.319	-0.075	0.019
-148.589	-50.397	-0.136	0.063
-147.574	-200.000	0.021	-0.170
-146.560	374.193	0.045	0.089
-145.545	-117.904	0.269	0.048
-144.531	499.131	0.188	-0.427
-143.516	146.510	-0.028	0.037
-142.502	140.558	0.067	0.088
-141.487	103.454	0.244	-0.282
-140.472	-118.832	-0.126	0.022
-139.458	-111.628	-0.042	0.008
-138.443	-200.000	0.276	-0.001
-137.429	378.735	0.093	0.187
-136.414	196.193	0.043	0.064
-135.399	-77.435	0.126	0.043
-134.385	-20.240	-0.108	0.066
-133.370	-71.218	0.307	0.114
-132.356	358.724	0.071	0.139
-131.341	-200.000	-0.083	0.401
-130.326	-200.000	0.000	-0.042
-129.312	222.247	-0.075	-0.119
-128.297	-200.000	0.000	-0.092
-127.283	800.000	0.064	-0.261
-126.268	-57.730	-0.254	0.109
-125.253	-200.000	-0.084	0.374
-124.239	254.684	0.161	-0.272
-123.224	-118.316	-0.208	0.036
-122.210	-200.000	-0.022	0.164
-121.195	112.733	0.145	-0.173
