DTS Sentinel unit serial number:	SN413079Multiplexer serial number:	ORYXHardware model number:	OX4-SRSoftware version number:	ORYX F/W v4.00 Oryx Data Collector v3.7.2.0data status	okinstallation	princeton_trtdifferential loss correction	single-endedforward channel	channel 4reverse channel	N/Adate	2019/09/15time	01:53:35forward acquisition time	60.00reverse acquisition time	0.00gamma	496.2192k internal	0.2307k external	0.2307temperature offset calibration	1.0032default loss term (dB/km)	0.3790temperature slope calibration	1.0000multiplexer offset coefficient	1.0000multiplexer slope coefficient	1.0000fibre end	0.00T internal ref (°C)	31.77T ext. ref 1 (°C)	4.51T ext. ref 2 (°C)	26.71length (m)	temperature (°C)	Stokes	anti-Stokes-747.200	800.000	0.039	0.168
-746.185	-57.248	0.357	0.160
-745.171	800.000	0.071	0.221
-744.156	-179.240	-0.314	0.007
-743.142	756.642	-0.040	0.111
-742.127	-71.958	-0.249	0.094
-741.112	-200.000	-0.036	-0.207
-740.098	-175.426	0.357	0.010
-739.083	-40.562	-0.166	0.087
-738.069	97.369	-0.123	0.144
-737.054	-114.447	-0.304	-0.059
-736.039	-62.352	-0.189	-0.080
-735.025	-154.326	0.239	0.016
-734.010	-200.000	-0.029	-0.503
-732.996	-105.304	0.072	0.017
-731.981	-157.874	-0.143	0.009
-730.966	-119.245	-0.419	0.074
-729.952	41.667	-0.256	0.236
-728.937	-113.274	-0.195	0.039
-727.923	-129.484	-0.373	-0.053
-726.908	331.667	-0.070	-0.137
-725.894	102.533	0.362	-0.430
-724.879	-53.810	-0.082	0.038
-723.864	-146.914	-0.140	-0.012
-722.850	-200.000	-0.009	-0.166
-721.835	41.599	0.097	0.089
-720.821	45.943	-0.180	0.169
-719.806	-131.951	-0.308	0.041
-718.791	-200.000	0.053	-0.308
-717.777	168.724	0.087	0.125
-716.762	-47.136	-0.296	0.147
-715.748	-31.994	-0.132	0.075
-714.733	-200.000	-0.003	-0.066
-713.718	390.188	-0.061	-0.128
-712.704	-81.540	-0.147	-0.049
-711.689	-53.455	0.196	-0.091
-710.675	-6.190	0.112	0.078
-709.660	-33.998	0.295	0.165
-708.645	28.974	0.148	0.128
-707.631	-162.680	-0.086	0.004
-706.616	472.874	0.175	0.401
-705.602	-89.025	0.108	0.032
-704.587	-38.812	-0.035	0.019
-703.572	80.912	-0.086	-0.094
-702.558	-131.718	0.040	-0.005
-701.543	294.661	-0.126	0.233
-700.529	-97.484	0.290	0.077
-699.514	751.158	-0.071	0.193
-698.499	422.069	-0.092	0.200
-697.485	-127.158	-0.358	0.053
-696.470	-200.000	-0.013	-0.121
-695.456	-200.000	-0.011	-0.403
-694.441	-110.256	-0.356	-0.075
-693.426	-44.893	0.224	-0.114
-692.412	413.331	0.106	-0.230
-691.397	-70.576	-0.222	0.085
-690.383	4.202	0.212	-0.158
-689.368	-92.805	0.263	-0.075
-688.354	148.619	0.108	0.147
-687.339	-48.875	-0.237	0.115
-686.324	-125.957	-0.194	0.030
-685.310	-112.345	-0.154	0.031
-684.295	-200.000	0.020	-0.194
-683.281	-146.525	-0.243	0.021
-682.266	-107.442	-0.065	-0.015
-681.251	52.627	-0.024	0.023
-680.237	4.922	-0.266	0.198
-679.222	291.994	-0.168	0.310
-678.208	-100.009	-0.259	0.065
-677.193	-200.000	0.001	0.163
-676.178	-200.000	0.003	-0.166
-675.164	-42.935	-0.209	-0.107
-674.149	-134.990	-0.213	0.026
-673.135	432.700	-0.146	-0.321
-672.120	315.899	0.106	-0.202
-671.105	-114.809	0.305	-0.059
-670.091	-51.349	0.059	-0.028
-669.076	-200.000	-0.095	-0.484
-668.062	120.496	-0.085	-0.107
-667.047	-68.326	-0.239	0.094
-666.032	125.412	0.116	-0.148
-665.018	-22.122	-0.182	-0.112
-664.003	-101.255	0.057	0.014
-662.989	-200.000	0.022	0.130
-661.974	-162.901	-0.144	-0.007
-660.959	-200.000	-0.005	-0.203
-659.945	68.595	0.212	-0.221
-658.930	-29.253	0.083	-0.048
-657.916	-200.000	0.007	-0.162
-656.901	800.000	0.076	-0.241
-655.886	-200.000	-0.031	0.206
-654.872	180.533	0.046	0.068
-653.857	-54.834	-0.249	-0.114
-652.843	-127.631	-0.181	0.027
-651.828	800.000	-0.077	-0.341
-650.814	-200.000	0.006	-0.038
-649.799	-200.000	0.007	0.038
-648.784	364.190	0.177	-0.360
-647.770	-200.000	0.003	-0.044
-646.755	800.000	-0.055	0.168
-645.741	-143.007	-0.212	-0.021
-644.726	74.186	0.168	-0.179
-643.711	-60.754	0.097	-0.042
-642.697	-23.373	0.283	-0.172
-641.682	-26.397	0.175	-0.104
-640.668	-200.000	-0.019	0.155
-639.653	-154.406	-0.225	0.015
-638.638	-106.339	-0.384	-0.087
-637.624	-77.697	-0.121	-0.043
-636.609	800.000	-0.116	-0.356
-635.595	33.177	0.201	-0.177
-634.580	-113.626	-0.262	0.052
-633.565	-78.748	-0.097	-0.033
-632.551	-200.000	0.003	-0.154
-631.536	394.889	-0.063	-0.134
-630.522	-117.427	0.103	-0.019
-629.507	63.969	-0.044	0.045
-628.492	85.466	-0.157	0.174
-627.478	-200.000	0.064	-0.433
-626.463	-200.000	-0.011	-0.157
-625.449	65.453	0.059	-0.060
-624.434	-73.017	0.064	-0.024
-623.419	-99.212	0.354	-0.091
-622.405	55.804	0.133	-0.130
-621.390	129.295	-0.062	-0.080
-620.376	727.522	0.071	-0.192
-619.361	101.865	0.083	-0.098
-618.346	595.273	-0.085	0.214
-617.332	-83.757	-0.389	0.126
-616.317	83.353	-0.216	0.239
-615.303	-128.118	-0.416	0.060
-614.288	800.000	-0.128	0.359
-613.273	175.694	-0.098	0.144
-612.259	-71.405	0.242	0.091
-611.244	-200.000	0.042	-0.362
-610.230	-200.000	0.008	-0.305
-609.215	-200.000	0.434	0.001
-608.201	-200.000	0.002	0.017
-607.186	-200.000	0.008	-0.297
-606.171	800.000	-0.077	-0.235
-605.157	95.041	0.232	-0.267
-604.142	800.000	-0.005	0.018
-603.128	-32.439	0.352	0.198
-602.113	-66.295	0.193	0.078
-601.098	-143.307	-0.071	0.007
-600.084	204.368	0.021	0.033
-599.069	-127.123	0.204	-0.030
-598.055	66.328	-0.148	0.152
-597.040	-200.000	0.039	0.238
-596.025	21.063	0.180	0.148
-595.011	-200.000	0.053	-0.278
-593.996	169.319	-0.070	0.101
-592.982	581.574	0.132	-0.328
-591.967	110.052	0.122	-0.148
-590.952	4.230	0.126	-0.093
-589.938	-115.004	0.072	-0.014
-588.923	-67.546	-0.121	0.048
-587.909	-134.418	-0.146	-0.018
-586.894	-200.000	0.001	0.222
-585.879	53.412	-0.165	-0.160
-584.865	203.221	0.156	-0.243
-583.850	-82.693	0.196	0.064
-582.836	733.247	-0.019	-0.051
-581.821	-90.481	-0.155	0.045
-580.806	-140.177	0.146	0.015
-579.792	2.633	-0.059	0.043
-578.777	457.769	0.101	0.227
-577.763	-10.428	0.070	0.047
-576.748	800.000	-0.133	0.441
-575.733	-28.791	0.232	0.135
-574.719	-96.281	-0.252	0.067
-573.704	-106.681	-0.146	-0.033
-572.690	-113.847	-0.203	-0.040
-571.675	-132.632	0.030	0.004
-570.661	-200.000	0.001	-0.017
-569.646	356.128	0.289	-0.582
-568.631	-200.000	0.014	0.246
-567.617	-200.000	-0.033	0.207
-566.602	-53.414	-0.153	0.071
-565.588	239.952	0.088	0.149
-564.573	329.960	-0.040	0.078
-563.558	565.024	-0.084	-0.207
-562.544	-111.929	-0.071	0.014
-561.529	-90.674	-0.165	0.048
-560.515	-200.000	-0.032	-0.259
-559.500	517.338	-0.086	-0.204
-558.485	296.440	0.043	0.080
-557.471	120.541	-0.072	0.091
-556.456	-105.940	-0.313	-0.071
-555.442	-200.000	-0.028	-0.312
-554.427	63.919	0.128	-0.130
-553.412	459.846	0.056	0.126
-552.398	-44.737	0.334	-0.168
-551.383	800.000	0.076	-0.333
-550.369	264.370	-0.050	-0.088
-549.354	29.683	-0.076	-0.066
-548.339	92.918	0.218	0.249
-547.325	529.508	0.087	-0.207
-546.310	58.055	-0.352	-0.348
-545.296	-54.414	0.207	-0.095
-544.281	78.082	-0.337	-0.362
-543.266	-200.000	-0.044	0.315
-542.252	-200.000	-0.030	0.153
-541.237	150.418	0.175	-0.240
-540.223	-105.407	-0.383	-0.088
-539.208	46.970	-0.201	0.189
-538.193	217.663	-0.108	0.173
-537.179	110.814	0.265	-0.321
-536.164	2.886	0.253	-0.185
-535.150	-133.528	-0.283	-0.036
-534.135	-142.989	-0.216	-0.021
-533.121	-200.000	0.007	-0.123
-532.106	-200.000	0.017	0.088
-531.091	115.166	-0.240	-0.296
-530.077	9.454	0.209	-0.159
-529.062	-64.386	-0.127	-0.052
-528.048	129.256	0.191	0.245
-527.033	-80.487	-0.201	-0.068
-526.018	-137.542	-0.198	-0.023
-525.004	-74.189	0.312	0.114
-523.989	122.727	-0.072	0.091
-522.975	344.879	0.152	0.300
-521.960	683.470	-0.035	-0.093
-520.945	312.889	-0.113	-0.213
-519.931	-59.139	-0.241	0.105
-518.916	1.210	-0.314	-0.228
-517.902	30.833	0.335	-0.290
-516.887	118.215	-0.036	0.045
-515.872	-115.107	-0.230	-0.044
-514.858	-156.751	0.319	0.020
-513.843	136.369	-0.167	0.219
-512.829	-119.360	0.272	0.048
-511.814	248.328	-0.080	0.136
-510.799	800.000	-0.077	0.237
-509.785	-63.906	0.246	0.101
-508.770	-63.988	0.172	-0.071
-507.756	-79.988	-0.199	0.067
-506.741	106.322	0.188	-0.224
-505.726	800.000	0.020	-0.070
-504.712	800.000	0.086	0.373
-503.697	30.391	0.149	0.128
-502.683	27.574	-0.171	0.145
-501.668	-87.011	0.243	-0.074
-500.653	-168.364	0.108	-0.004
-499.639	131.771	0.053	0.069
-498.624	800.000	-0.180	0.591
-497.610	282.473	0.079	-0.143
-496.595	223.963	-0.089	-0.144
-495.581	-44.719	-0.054	-0.027
-494.566	-200.000	-0.043	-0.233
-493.551	143.563	-0.122	0.164
-492.537	-98.565	0.231	-0.059
-491.522	-142.410	0.339	-0.034
-490.508	-97.368	0.253	0.066
-489.493	-22.753	-0.285	-0.173
-488.478	-103.720	-0.390	-0.092
-487.464	-0.255	0.066	-0.048
-486.449	-150.491	0.150	-0.012
-485.435	60.413	0.207	0.206
-484.420	-10.671	-0.364	0.242
-483.405	119.342	-0.139	0.173
-482.391	-200.000	-0.020	-0.165
-481.376	31.728	-0.254	-0.220
-480.362	-200.000	0.005	-0.101
-479.347	-200.000	-0.028	0.231
-478.332	140.947	-0.163	0.217
-477.318	103.460	0.063	-0.074
-476.303	-136.370	0.157	-0.018
-475.289	-91.979	-0.419	0.119
-474.274	-200.000	-0.016	-0.149
-473.259	140.942	0.303	-0.403
-472.245	-200.000	0.007	0.274
-471.230	-18.504	-0.379	0.238
-470.216	-140.516	0.139	0.015
-469.201	-200.000	0.022	0.187
-468.186	33.410	0.220	0.192
-467.172	92.925	0.041	-0.047
-466.157	-47.280	-0.251	-0.123
-465.143	-72.372	-0.208	0.077
-464.128	-133.724	-0.226	0.028
-463.113	-200.000	-0.036	-0.383
-462.099	295.380	0.158	-0.290
-461.084	-88.458	-0.201	-0.060
-460.070	-10.170	-0.222	0.148
-459.055	800.000	-0.046	-0.158
-458.040	-114.267	0.093	-0.018
-457.026	800.000	0.076	-0.275
-456.011	-73.173	0.136	0.050
-454.997	30.752	0.165	-0.142
-453.982	-200.000	0.017	-0.334
-452.968	36.884	-0.025	0.022
-451.953	36.848	0.084	0.075
-450.938	219.023	0.030	0.047
-449.924	186.542	-0.170	0.255
-448.909	-200.000	-0.002	0.081
-447.895	503.832	0.165	-0.383
-446.880	86.773	-0.185	-0.205
-445.865	-141.572	-0.088	-0.009
-444.851	-70.020	-0.163	0.062
-443.836	111.423	-0.235	0.284
-442.822	-127.723	-0.139	-0.020
-441.807	54.324	-0.115	0.111
-440.792	-200.000	0.007	0.106
-439.778	800.000	-0.068	0.217
-438.763	411.884	0.140	0.298
-437.749	42.798	-0.036	-0.033
-436.734	106.095	-0.050	-0.060
-435.719	99.793	0.235	0.274
-434.705	-200.000	0.002	0.065
-433.690	-200.000	0.011	-0.298
-432.676	-200.000	0.040	-0.300
-431.661	65.650	0.227	0.231
-430.646	-110.766	-0.135	0.028
-429.632	-54.642	-0.156	0.071
-428.617	-13.702	-0.415	0.270
-427.603	800.000	0.057	-0.203
-426.588	-52.494	-0.246	-0.114
-425.573	-110.979	0.270	0.056
-424.559	-200.000	0.074	-0.414
-423.544	-145.759	0.169	-0.015
-422.530	259.243	0.134	0.233
-421.515	800.000	0.062	-0.265
-420.500	422.839	-0.089	0.191
-419.486	-200.000	0.027	-0.136
-418.471	-200.000	-0.035	-0.271
-417.457	421.277	0.105	-0.226
-416.442	-200.000	0.022	-0.169
-415.428	26.272	0.131	0.110
-414.413	-173.146	-0.462	-0.014
-413.398	229.311	-0.069	0.113
-412.384	157.122	0.102	-0.142
-411.369	174.230	0.060	0.087
-410.355	50.222	-0.167	0.158
-409.340	144.174	0.207	-0.277
-408.325	127.775	0.142	0.181
-407.311	-44.967	-0.113	-0.057
-406.296	246.478	0.032	0.054
-405.282	506.511	-0.100	0.232
-404.267	-200.000	0.028	-0.327
-403.252	-114.444	0.241	-0.046
-402.238	-22.833	0.444	0.269
-401.223	57.787	0.099	0.097
-400.209	262.717	0.158	0.275
-399.194	-98.825	0.259	0.066
-398.179	-200.000	0.014	0.065
-397.165	240.895	0.145	0.243
-396.150	-7.967	0.100	0.068
-395.136	-54.012	0.170	0.078
-394.121	800.000	-0.051	-0.150
-393.106	-36.469	0.234	-0.126
-392.092	-111.466	0.022	-0.004
-391.077	123.041	0.198	0.249
-390.063	66.538	0.173	0.177
-389.048	-200.000	-0.004	0.255
-388.033	56.134	0.086	-0.084
-387.019	-37.349	0.356	-0.191
-386.004	274.843	0.043	-0.077
-384.990	-107.368	-0.229	-0.050
-383.975	-110.211	0.142	-0.030
-382.960	-26.077	-0.246	0.145
-381.946	742.609	-0.066	0.179
-380.931	-57.030	0.283	0.125
-379.917	37.192	-0.053	-0.047
-378.902	446.046	-0.064	0.140
-377.888	9.915	-0.191	0.145
-376.873	800.000	0.040	0.120
-375.858	-47.315	0.123	0.060
-374.844	-86.340	0.176	0.054
-373.829	310.767	-0.146	-0.274
-372.815	-17.129	0.136	0.086
-371.800	33.082	0.051	-0.044
-370.785	666.255	-0.089	0.232
-369.771	129.453	-0.156	-0.199
-368.756	-24.205	-0.140	0.084
-367.742	-37.981	-0.183	0.097
-366.727	-200.000	-0.008	0.066
-365.712	-200.000	-0.009	0.283
-364.698	157.999	0.045	-0.062
-363.683	-200.000	0.013	-0.521
-362.669	800.000	-0.095	0.348
-361.654	-97.828	-0.231	-0.060
-360.639	-200.000	-0.013	0.077
-359.625	556.644	-0.055	0.134
-358.610	133.399	0.200	-0.259
-357.596	84.123	-0.052	0.057
-356.581	-38.708	-0.301	0.159
-355.566	-40.083	-0.258	0.135
-354.552	-86.204	-0.266	0.082
-353.537	-23.512	0.029	0.017
-352.523	72.446	-0.099	-0.104
-351.508	800.000	0.082	0.274
-350.493	800.000	-0.054	-0.201
-349.479	774.525	0.020	-0.056
-348.464	-11.985	0.249	0.163
-347.450	661.833	-0.067	0.173
-346.435	-200.000	-0.002	0.109
-345.420	-200.000	0.020	0.129
-344.406	-91.305	-0.114	-0.033
-343.391	-200.000	0.009	0.216
-342.377	-85.726	-0.339	0.105
-341.362	-75.353	0.162	-0.058
-340.348	-8.224	0.158	0.107
-339.333	-200.000	0.362	-0.001
-338.318	85.606	0.094	-0.103
-337.304	361.088	-0.265	0.532
-336.289	145.961	-0.013	-0.017
-335.275	74.224	-0.377	0.396
-334.260	207.854	0.137	0.214
-333.245	653.782	-0.048	-0.124
-332.231	186.005	-0.133	0.198
-331.216	-30.641	0.077	0.044
-330.202	52.562	0.298	0.284
-329.187	-38.094	-0.037	0.020
-328.172	520.843	-0.024	0.057
-327.158	114.078	0.161	-0.196
-326.143	-84.023	-0.135	-0.043
-325.129	141.302	0.187	0.247
-324.114	-129.012	0.123	0.017
-323.099	160.498	0.114	0.159
-322.085	-200.000	-0.002	0.018
-321.070	-184.313	-0.125	-0.002
-320.056	7.867	-0.144	-0.108
-319.041	-1.226	-0.104	0.073
-318.026	-119.956	-0.172	-0.030
-317.012	-119.695	0.224	0.039
-315.997	-26.574	-0.224	-0.131
-314.983	126.765	-0.164	-0.208
-313.968	202.710	0.154	-0.238
-312.953	-147.569	-0.171	-0.014
-311.939	-200.000	0.065	0.395
-310.924	-68.771	-0.374	0.145
-309.910	-200.000	0.011	-0.209
-308.895	0.567	0.218	-0.156
-307.880	38.103	-0.044	0.039
-306.866	-40.806	0.265	-0.137
-305.851	158.177	-0.130	-0.181
-304.837	127.654	0.136	0.172
-303.822	800.000	-0.070	-0.308
-302.807	-200.000	-0.013	-0.073
-301.793	199.080	-0.133	0.204
-300.778	-22.273	0.171	-0.104
-299.764	25.252	0.146	0.121
-298.749	116.062	-0.135	-0.166
-297.735	-200.000	0.028	0.350
-296.720	-200.000	-0.004	-0.132
-295.705	456.767	-0.113	0.250
-294.691	-200.000	-0.039	0.252
-293.676	-200.000	-0.013	-0.369
-292.662	-73.602	0.159	0.058
-291.647	-79.113	0.260	0.088
-290.632	800.000	0.027	-0.101
-289.618	-200.000	0.065	-0.496
-288.603	328.979	-0.085	-0.162
-287.589	4.211	0.282	-0.206
-286.574	120.339	-0.114	-0.141
-285.559	-105.390	0.075	0.017
-284.545	55.046	0.073	-0.071
-283.530	-59.876	-0.151	0.065
-282.516	345.088	0.180	0.352
-281.501	122.832	-0.160	-0.200
-280.486	800.000	-0.021	-0.061
-279.472	-200.000	-0.007	-0.153
-278.457	-135.232	0.196	0.023
-277.443	93.538	0.092	0.104
-276.428	-200.000	-0.013	-0.342
-275.413	-92.986	-0.158	0.044
-274.399	-65.227	0.112	0.045
-273.384	10.443	-0.084	-0.064
-272.370	-30.000	0.201	0.114
-271.355	-200.000	0.019	0.247
-270.340	-8.700	-0.287	-0.193
-269.326	-200.000	0.006	-0.057
-268.311	478.060	0.068	-0.153
-267.297	35.815	0.269	0.236
-266.282	800.000	-0.013	-0.055
-265.267	800.000	0.059	-0.220
-264.253	-32.803	-0.087	-0.048
-263.238	246.826	-0.352	0.592
-262.224	-174.498	-0.328	0.009
-261.209	-200.000	-0.037	0.373
-260.195	235.844	-0.083	-0.137
-259.180	-54.957	-0.306	-0.138
-258.165	-200.000	-0.009	-0.056
-257.151	-44.520	0.174	0.087
-256.136	-35.074	0.219	0.119
-255.122	246.293	-0.128	-0.215
-254.107	800.000	-0.054	0.188
-253.092	-160.809	-0.332	-0.018
-252.078	-57.557	0.237	0.104
-251.063	-124.744	-0.190	0.029
-250.049	800.000	0.074	-0.281
-249.034	146.203	-0.150	-0.200
-248.019	88.724	0.081	-0.090
-247.005	800.000	-0.049	0.198
-245.990	8.939	0.214	0.161
-244.976	404.743	0.018	0.038
-243.961	800.000	0.104	0.345
-242.946	-90.672	-0.277	-0.080
-241.932	122.077	0.103	-0.129
-240.917	182.245	-0.024	-0.036
-239.903	21.891	0.205	-0.167
-238.888	800.000	-0.058	-0.172
-237.873	66.828	0.166	-0.169
-236.859	-140.028	-0.177	-0.019
-235.844	-52.221	0.270	-0.125
-234.830	-59.032	-0.310	0.133
-233.815	-200.000	0.055	-0.270
-232.800	-110.871	0.118	0.024
-231.786	-93.365	0.355	0.098
-230.771	-44.533	0.122	-0.061
-229.757	-61.076	0.249	-0.105
-228.742	259.005	0.098	0.168
-227.727	4.491	0.178	0.130
-226.713	76.870	-0.278	-0.294
-225.698	-86.473	-0.205	0.063
-224.684	-99.201	-0.306	0.077
-223.669	-72.744	0.408	0.150
-222.655	-200.000	0.039	0.230
-221.640	800.000	-0.139	-0.401
-220.625	-39.292	-0.106	0.055
-219.611	-125.398	-0.003	-0.000
-218.596	-200.000	-0.041	-0.253
-217.582	-200.000	0.044	0.437
-216.567	162.022	-0.155	-0.216
-215.552	594.516	-0.140	-0.346
-214.538	800.000	-0.064	-0.247
-213.523	800.000	-0.059	0.233
-212.509	-8.120	-0.376	-0.253
-211.494	782.958	-0.075	0.204
-210.479	800.000	-0.069	0.227
-209.465	278.374	-0.184	0.326
-208.450	-76.382	0.259	0.091
-207.436	-49.130	0.173	-0.082
-206.421	800.000	0.023	0.088
-205.406	274.960	0.013	-0.023
-204.392	154.780	0.168	0.229
-203.377	-11.662	-0.067	0.044
-202.363	104.667	0.164	0.192
-201.348	391.230	-0.055	0.113
-200.333	-200.000	0.053	-0.333
-199.319	-90.564	0.317	0.091
-198.304	42.652	0.170	0.154
-197.290	524.675	-0.097	0.227
-196.275	-200.000	-0.062	-0.326
-195.260	-45.028	-0.033	-0.016
-194.246	302.783	-0.101	0.185
-193.231	800.000	-0.096	0.301
-192.217	370.274	0.171	-0.345
-191.202	199.700	0.044	0.067
-190.187	137.888	-0.072	0.094
-189.173	-105.840	-0.119	-0.027
-188.158	9.148	-0.210	0.158
-187.144	245.071	0.123	0.205
-186.129	-98.703	-0.063	-0.016
-185.114	114.994	-0.063	-0.077
-184.100	-108.191	0.136	-0.029
-183.085	-122.963	-0.259	-0.042
-182.071	3.649	-0.258	-0.187
-181.056	-175.903	-0.458	-0.012
-180.042	164.268	-0.094	-0.132
-179.027	40.231	0.075	0.067
-178.012	800.000	0.052	-0.158
-176.998	-31.574	-0.130	-0.073
-175.983	419.952	0.035	0.074
-174.969	-162.209	0.150	0.007
-173.954	2.126	-0.121	-0.087
-172.939	62.380	-0.201	0.200
-171.925	-0.947	0.225	0.158
-170.910	-51.805	0.184	0.085
-169.896	-36.183	-0.096	-0.052
-168.881	125.537	0.080	-0.101
-167.866	800.000	0.056	0.184
-166.852	287.187	0.132	-0.237
-165.837	-200.000	-0.017	0.138
-164.823	-48.359	0.080	-0.038
-163.808	800.000	-0.055	-0.177
-162.793	119.681	-0.089	0.109
-161.779	-200.000	0.064	-0.294
-160.764	162.530	0.104	-0.145
-159.750	8.540	0.267	0.200
-158.735	-200.000	-0.009	0.230
-157.720	-117.173	0.186	0.034
-156.706	-200.000	0.000	0.206
-155.691	-200.000	0.010	0.077
-154.677	-172.828	0.282	-0.009
-153.662	800.000	-0.016	-0.056
-152.647	134.997	0.090	0.116
-151.633	-24.172	0.417	-0.247
-150.618	799.567	-0.099	0.272
-149.604	206.572	-0.030	-0.046
-148.589	332.092	0.098	-0.188
-147.574	-60.812	0.101	-0.042
-146.560	-148.747	-0.316	-0.025
-145.545	-20.531	0.041	0.025
-144.531	-114.523	0.343	0.065
-143.516	800.000	-0.140	-0.498
-142.502	-131.410	0.459	-0.060
-141.487	674.590	0.032	0.083
-140.472	-69.077	0.080	-0.031
-139.458	-94.203	-0.430	-0.117
-138.443	111.874	-0.036	0.043
-137.429	110.075	-0.263	-0.314
-136.414	-95.847	0.449	0.119
-135.399	552.667	-0.019	-0.045
-134.385	800.000	-0.050	0.138
-133.370	-200.000	0.008	0.137
-132.356	-72.557	0.091	0.033
-131.341	119.128	0.336	0.412
-130.326	-179.578	-0.191	-0.004
-129.312	-59.718	0.124	0.053
-128.297	-79.507	0.249	0.083
-127.283	-38.041	0.447	0.235
-126.268	377.661	0.076	0.154
-125.253	-89.987	0.514	-0.149
-124.239	108.828	0.232	0.275
-123.224	-66.795	0.166	-0.065
-122.210	169.115	0.072	-0.102
-121.195	-190.995	0.132	-0.001
