DTS Sentinel unit serial number:	SN413079Multiplexer serial number:	ORYXHardware model number:	OX4-SRSoftware version number:	ORYX F/W v4.00 Oryx Data Collector v3.7.2.0data status	okinstallation	princeton_trtdifferential loss correction	single-endedforward channel	channel 4reverse channel	N/Adate	2019/09/18time	00:25:35forward acquisition time	60.00reverse acquisition time	0.00gamma	496.2192k internal	0.2333k external	0.2333temperature offset calibration	0.9999default loss term (dB/km)	0.3790temperature slope calibration	1.0000multiplexer offset coefficient	1.0000multiplexer slope coefficient	1.0000fibre end	0.00T internal ref (°C)	23.56T ext. ref 1 (°C)	0.17T ext. ref 2 (°C)	17.21length (m)	temperature (°C)	Stokes	anti-Stokes-747.200	-200.000	-0.018	0.116
-746.185	28.434	-0.197	0.168
-745.171	2.880	-0.169	-0.124
-744.156	-95.081	-0.316	0.086
-743.142	-200.000	0.018	0.352
-742.127	800.000	-0.173	0.575
-741.112	627.154	-0.119	0.302
-740.098	-3.952	-0.226	0.158
-739.083	800.000	-0.054	0.204
-738.069	-200.000	0.001	0.159
-737.054	247.623	0.049	-0.084
-736.039	-200.000	0.018	-0.193
-735.025	298.028	0.168	-0.310
-734.010	-81.482	-0.115	0.038
-732.996	124.850	-0.079	-0.099
-731.981	255.998	-0.047	0.081
-730.966	-100.339	0.220	0.055
-729.952	-154.524	-0.412	-0.028
-728.937	36.289	0.140	-0.124
-727.923	-159.308	0.162	-0.009
-726.908	-200.000	-0.035	-0.199
-725.894	-50.984	0.338	-0.159
-724.879	-21.632	-0.056	-0.034
-723.864	-39.253	-0.060	0.032
-722.850	145.837	-0.079	-0.107
-721.835	366.153	0.032	0.066
-720.821	-33.825	0.340	0.188
-719.806	166.124	0.271	0.386
-718.791	381.401	0.149	-0.306
-717.777	-200.000	-0.035	0.324
-716.762	800.000	0.085	-0.258
-715.748	181.352	0.053	0.078
-714.733	-65.347	0.102	-0.041
-713.718	513.301	0.098	0.229
-712.704	101.150	-0.063	0.074
-711.689	-200.000	-0.004	0.059
-710.675	-67.523	-0.065	-0.026
-709.660	-200.000	-0.021	-0.213
-708.645	129.561	0.203	0.261
-707.631	63.607	0.167	0.168
-706.616	-200.000	0.024	-0.149
-705.602	-48.224	-0.098	-0.048
-704.587	-87.105	0.250	0.076
-703.572	-145.841	0.160	0.014
-702.558	800.000	-0.045	0.141
-701.543	87.497	-0.235	-0.261
-700.529	-9.050	0.144	-0.097
-699.514	57.380	0.216	0.212
-698.499	-25.422	-0.170	-0.101
-697.485	457.159	-0.122	0.272
-696.470	-97.252	0.153	0.040
-695.456	-68.922	0.243	0.094
-694.441	-103.893	0.109	-0.026
-693.426	-61.945	0.083	-0.035
-692.412	95.688	-0.348	-0.399
-691.397	96.975	-0.132	-0.152
-690.383	800.000	-0.025	0.085
-689.368	-92.486	0.335	-0.095
-688.354	82.508	-0.071	0.078
-687.339	138.836	-0.134	-0.176
-686.324	-71.205	0.202	-0.076
-685.310	-4.572	-0.369	0.255
-684.295	-39.138	-0.153	0.081
-683.281	-138.918	-0.086	0.009
-682.266	-114.727	-0.117	-0.022
-681.251	-200.000	0.012	-0.460
-680.237	-200.000	-0.017	-0.076
-679.222	-58.006	-0.262	0.115
-678.208	-200.000	0.038	0.197
-677.193	501.951	-0.147	0.341
-676.178	-9.579	0.024	0.016
-675.164	62.201	0.258	-0.258
-674.149	800.000	-0.122	-0.525
-673.135	25.435	-0.146	-0.122
-672.120	209.680	0.048	0.076
-671.105	-80.951	-0.292	0.097
-670.091	5.753	0.204	-0.151
-669.076	-200.000	0.070	0.390
-668.062	-55.664	0.035	0.016
-667.047	94.709	-0.080	0.092
-666.032	-52.775	-0.149	-0.069
-665.018	59.296	0.164	-0.162
-664.003	-80.216	0.176	-0.059
-662.989	800.000	-0.085	0.288
-661.974	-34.017	-0.374	-0.206
-660.959	76.766	-0.112	0.119
-659.945	18.275	-0.257	0.205
-658.930	207.745	-0.102	-0.160
-657.916	-115.645	0.247	0.047
-656.901	10.931	-0.278	0.213
-655.886	99.854	-0.212	0.246
-654.872	-57.704	0.413	-0.181
-653.857	-200.000	0.064	-0.308
-652.843	-156.770	0.117	0.007
-651.828	-141.594	-0.184	0.019
-650.814	-200.000	0.028	0.224
-649.799	-62.599	-0.067	0.028
-648.784	-200.000	-0.016	0.263
-647.770	800.000	0.107	-0.346
-646.755	1.970	0.285	-0.206
-645.741	-167.749	0.227	0.009
-644.726	227.368	0.126	-0.204
-643.711	-101.904	0.438	0.106
-642.697	-43.096	-0.237	0.120
-641.682	-37.086	0.131	-0.071
-640.668	800.000	0.052	-0.206
-639.653	399.977	0.056	0.118
-638.638	72.866	-0.175	0.183
-637.624	-27.612	0.228	0.133
-636.609	-149.470	-0.236	0.019
-635.595	-122.332	-0.227	0.037
-634.580	424.079	-0.067	-0.145
-633.565	17.217	-0.425	-0.338
-632.551	34.300	-0.116	-0.101
-631.536	-42.000	-0.195	-0.100
-630.522	-2.612	-0.253	0.177
-629.507	800.000	0.036	-0.124
-628.492	-200.000	0.011	0.210
-627.478	-132.515	0.514	-0.066
-626.463	288.975	-0.103	-0.188
-625.449	79.782	0.126	-0.136
-624.434	800.000	0.046	0.166
-623.419	-81.982	0.179	0.059
-622.405	83.644	-0.130	-0.142
-621.390	-126.343	0.197	0.029
-620.376	4.283	-0.346	-0.254
-619.361	-77.792	0.244	0.084
-618.346	-21.596	-0.120	-0.073
-617.332	-78.013	0.401	-0.138
-616.317	-200.000	-0.015	-0.231
-615.303	-89.031	-0.297	0.088
-614.288	-200.000	-0.052	0.407
-613.273	496.157	-0.015	0.035
-612.259	-200.000	-0.006	-0.094
-611.244	-148.287	-0.091	-0.007
-610.230	23.272	0.092	0.076
-609.215	-56.999	0.180	-0.080
-608.201	-76.794	0.277	-0.097
-607.186	143.139	-0.057	-0.076
-606.171	62.909	0.157	0.157
-605.157	305.702	-0.106	0.197
-604.142	-200.000	0.004	-0.026
-603.128	-170.179	0.408	-0.014
-602.113	-200.000	-0.008	-0.234
-601.098	301.514	0.154	0.285
-600.084	-76.047	0.229	-0.081
-599.069	-200.000	0.019	0.320
-598.055	-200.000	-0.005	0.034
-597.040	-69.889	-0.223	0.085
-596.025	253.197	0.113	0.194
-595.011	-200.000	0.002	0.061
-593.996	22.039	-0.167	-0.136
-592.982	35.176	-0.158	-0.139
-591.967	-146.635	0.203	-0.018
-590.952	305.012	-0.117	0.218
-589.938	800.000	-0.083	-0.250
-588.923	87.816	-0.195	-0.216
-587.909	-120.258	-0.275	-0.047
-586.894	800.000	-0.051	-0.182
-585.879	-200.000	0.027	-0.146
-584.865	-17.576	0.216	0.136
-583.850	-67.258	0.383	-0.151
-582.836	595.071	0.091	0.224
-581.821	9.415	-0.218	-0.165
-580.806	-200.000	0.062	-0.318
-579.792	-39.217	0.067	0.035
-578.777	-9.487	0.008	0.005
-577.763	313.942	0.065	0.122
-576.748	-72.038	-0.382	-0.142
-575.733	368.831	0.069	0.139
-574.719	-191.870	-0.127	-0.001
-573.704	-47.541	0.058	-0.028
-572.690	-200.000	0.024	-0.183
-571.675	-90.418	-0.155	-0.045
-570.661	-200.000	-0.094	0.463
-569.646	800.000	-0.076	-0.283
-568.631	-13.753	0.523	0.338
-567.617	335.300	-0.066	0.128
-566.602	-200.000	0.046	-0.282
-565.588	-26.142	0.249	-0.146
-564.573	36.067	0.196	0.172
-563.558	-200.000	0.101	-0.774
-562.544	35.613	0.204	-0.179
-561.529	177.617	-0.072	-0.105
-560.515	800.000	0.114	-0.395
-559.500	-107.384	0.346	0.076
-558.485	264.226	0.086	0.149
-557.471	345.815	-0.167	0.327
-556.456	-200.000	0.006	0.398
-555.442	193.410	0.163	0.246
-554.427	-44.123	-0.118	0.059
-553.412	22.776	0.087	0.071
-552.398	83.661	-0.032	-0.034
-551.383	-25.212	-0.179	-0.106
-550.369	-139.748	0.200	0.021
-549.354	-96.289	-0.364	-0.096
-548.339	-109.453	-0.052	-0.011
-547.325	251.730	-0.078	-0.133
-546.310	-113.923	-0.083	0.016
-545.296	239.803	0.018	-0.029
-544.281	800.000	-0.118	0.372
-543.266	186.056	-0.062	-0.092
-542.252	67.392	-0.197	0.200
-541.237	-200.000	0.000	0.064
-540.223	153.138	0.133	-0.181
-539.208	-200.000	0.030	-0.181
-538.193	-89.770	0.405	-0.118
-537.179	152.945	-0.205	0.279
-536.164	800.000	-0.074	0.311
-535.150	260.797	-0.057	0.098
-534.135	248.553	-0.092	0.155
-533.121	64.177	-0.117	-0.118
-532.106	236.737	0.061	-0.100
-531.091	-200.000	-0.019	-0.199
-530.077	-200.000	0.027	0.220
-529.062	114.635	0.200	-0.243
-528.048	-99.415	0.195	-0.049
-527.033	-200.000	-0.073	-0.358
-526.018	-200.000	-0.013	-0.080
-525.004	341.613	0.050	-0.098
-523.989	-48.314	-0.116	0.056
-522.975	13.179	0.169	-0.131
-521.960	-141.853	-0.147	0.015
-520.945	-200.000	0.018	-0.218
-519.931	-167.573	-0.084	-0.003
-518.916	-115.200	0.124	-0.023
-517.902	-68.240	-0.502	-0.195
-516.887	800.000	0.105	0.314
-515.872	-27.543	0.307	0.177
-514.858	46.564	-0.302	-0.280
-513.843	-200.000	0.017	0.360
-512.829	-200.000	-0.054	-0.332
-511.814	680.332	-0.086	0.224
-510.799	-200.000	0.028	-0.198
-509.785	21.142	0.018	-0.014
-508.770	800.000	0.058	0.163
-507.756	-93.324	-0.280	-0.077
-506.741	406.139	-0.180	-0.378
-505.726	624.068	0.125	0.313
-504.712	-115.894	-0.421	-0.078
-503.697	-97.067	0.077	0.020
-502.683	29.086	-0.206	-0.174
-501.668	5.313	-0.279	-0.205
-500.653	-200.000	-0.011	0.073
-499.639	-117.585	-0.131	0.024
-498.624	82.971	-0.260	-0.282
-497.610	-58.584	-0.127	0.055
-496.595	-200.000	0.053	-0.238
-495.581	-47.084	-0.362	-0.176
-494.566	-200.000	-0.041	-0.207
-493.551	223.197	-0.228	-0.366
-492.537	-105.753	0.117	-0.026
-491.522	800.000	-0.030	0.116
-490.508	-142.800	0.113	0.011
-489.493	-121.539	-0.150	-0.025
-488.478	7.362	0.110	-0.082
-487.464	738.470	-0.029	-0.079
-486.449	366.194	-0.192	-0.385
-485.435	-68.606	-0.236	-0.091
-484.420	163.686	-0.138	0.194
-483.405	800.000	-0.038	0.136
-482.391	-13.396	-0.257	0.166
-481.376	-139.012	0.394	0.043
-480.362	-72.468	0.222	0.082
-479.347	-200.000	-0.044	-0.274
-478.332	674.219	-0.033	0.086
-477.318	128.451	-0.227	0.288
-476.303	-97.633	-0.214	-0.055
-475.289	257.961	-0.158	0.271
-474.274	-98.796	0.065	0.017
-473.259	172.752	0.119	0.171
-472.245	-174.449	-0.298	-0.009
-471.230	-63.891	0.435	0.177
-470.216	175.541	0.111	-0.161
-469.201	-22.093	-0.431	-0.260
-468.186	-200.000	0.038	0.347
-467.172	488.800	0.139	0.316
-466.157	-15.012	-0.147	-0.094
-465.143	800.000	-0.020	0.061
-464.128	-34.659	0.358	0.195
-463.113	56.891	0.133	0.129
-462.099	45.313	0.258	0.237
-461.084	-61.765	-0.175	0.073
-460.070	-38.292	0.046	-0.024
-459.055	-200.000	0.033	-0.165
-458.040	-89.075	-0.260	-0.076
-457.026	-200.000	0.036	-0.276
-456.011	282.928	0.070	-0.125
-454.997	800.000	-0.029	0.107
-453.982	-199.207	0.182	0.001
-452.968	115.385	-0.141	-0.171
-451.953	-200.000	-0.034	-0.156
-450.938	-110.943	-0.339	-0.069
-449.924	16.240	-0.273	0.214
-448.909	176.364	0.059	0.084
-447.895	-130.026	-0.046	-0.006
-446.880	-40.894	0.185	-0.095
-445.865	160.311	-0.065	0.090
-444.851	-86.639	0.059	-0.018
-443.836	-10.727	0.065	0.043
-442.822	142.263	0.219	-0.288
-441.807	-62.403	-0.092	0.038
-440.792	-81.345	0.212	0.069
-439.778	-200.000	-0.013	0.426
-438.763	105.807	-0.162	-0.191
-437.749	103.240	-0.308	-0.358
-436.734	65.457	-0.184	-0.185
-435.719	-71.312	-0.165	0.062
-434.705	-116.330	0.194	0.036
-433.690	-190.837	0.333	0.003
-432.676	431.680	-0.134	-0.289
-431.661	36.717	0.234	0.205
-430.646	-200.000	0.081	0.458
-429.632	-93.161	0.226	-0.063
-428.617	-8.211	0.188	0.126
-427.603	-50.344	0.177	-0.083
-426.588	-200.000	0.027	-0.286
-425.573	108.858	0.212	0.252
-424.559	-103.303	-0.078	-0.018
-423.544	-200.000	-0.001	-0.027
-422.530	-123.700	0.292	-0.046
-421.515	-200.000	-0.016	0.155
-420.500	131.537	0.024	0.031
-419.486	125.669	0.180	-0.225
-418.471	-200.000	0.039	0.337
-417.457	200.374	0.063	0.096
-416.442	9.740	0.227	0.171
-415.428	-200.000	-0.011	0.149
-414.413	800.000	-0.041	-0.142
-413.398	661.712	0.118	-0.303
-412.384	407.980	-0.062	0.130
-411.369	-52.859	0.164	0.075
-410.355	281.481	0.022	-0.040
-409.340	800.000	0.119	0.328
-408.325	56.352	0.096	-0.093
-407.311	-200.000	0.004	-0.039
-406.296	-129.525	0.138	-0.019
-405.282	-200.000	0.254	0.000
-404.267	192.255	-0.149	-0.222
-403.252	180.484	0.198	-0.289
-402.238	-136.120	-0.435	-0.051
-401.223	19.205	0.317	0.252
-400.209	313.602	-0.064	0.119
-399.194	-188.538	0.258	-0.003
-398.179	800.000	0.065	-0.204
-397.165	-42.234	-0.210	-0.106
-396.150	800.000	-0.068	-0.207
-395.136	-175.098	0.261	0.007
-394.121	102.041	0.201	0.233
-393.106	-146.695	-0.161	-0.014
-392.092	-0.935	-0.142	0.100
-391.077	25.542	0.408	-0.337
-390.063	-113.750	-0.331	0.064
-389.048	19.518	0.389	0.311
-388.033	-200.000	0.078	-0.676
-387.019	-1.337	0.155	-0.108
-386.004	-200.000	0.000	0.079
-384.990	-134.809	-0.269	-0.032
-383.975	800.000	-0.011	0.030
-382.960	88.707	0.297	0.327
-381.946	-200.000	0.011	0.048
-380.931	412.789	-0.075	0.159
-379.917	313.500	0.226	-0.421
-378.902	-19.708	0.181	-0.111
-377.888	-139.131	-0.078	0.008
-376.873	-97.489	0.202	-0.052
-375.858	-200.000	0.010	-0.149
-374.844	11.654	0.090	-0.069
-373.829	-65.027	-0.109	-0.044
-372.815	-57.538	-0.336	0.146
-371.800	-3.845	0.220	-0.151
-370.785	-68.450	-0.183	-0.071
-369.771	-52.571	-0.133	-0.061
-368.756	150.220	0.145	-0.196
-367.742	10.951	-0.226	0.171
-366.727	192.752	-0.099	0.148
-365.712	800.000	0.057	0.217
-364.698	342.186	0.162	-0.313
-363.683	3.204	0.047	0.034
-362.669	569.634	0.101	-0.242
-361.654	800.000	0.050	-0.164
-360.639	-113.758	-0.385	-0.074
-359.625	-108.019	0.177	-0.038
-358.610	137.560	-0.126	-0.163
-357.596	-40.348	-0.162	0.083
-356.581	-199.603	0.190	0.001
-355.566	290.674	-0.187	0.337
-354.552	-59.558	0.393	0.167
-353.537	-42.469	-0.297	0.150
-352.523	190.519	-0.017	-0.025
-351.508	-200.000	-0.052	0.376
-350.493	-84.157	-0.535	-0.168
-349.479	62.273	0.253	-0.250
-348.464	-114.336	0.351	-0.067
-347.450	-184.997	0.204	-0.003
-346.435	-80.835	0.126	-0.041
-345.420	-76.292	-0.191	-0.067
-344.406	-200.000	0.020	0.258
-343.391	-59.281	0.372	0.159
-342.377	35.980	-0.374	0.326
-341.362	46.159	-0.088	-0.080
-340.348	100.652	-0.102	-0.117
-339.333	-181.124	-0.102	0.002
-338.318	-19.151	-0.068	0.042
-337.304	-125.709	0.073	0.011
-336.289	37.697	0.191	0.168
-335.275	127.280	0.124	0.155
-334.260	-35.015	-0.199	0.107
-333.245	-13.516	0.056	-0.036
-332.231	-37.053	0.063	-0.033
-331.216	-151.733	-0.364	0.026
-330.202	5.250	0.241	0.176
-329.187	-57.909	0.388	0.168
-328.172	26.355	-0.199	-0.164
-327.158	-200.000	0.024	-0.115
-326.143	800.000	-0.078	0.226
-325.129	-133.421	0.269	0.033
-324.114	-200.000	-0.014	0.233
-323.099	0.712	0.262	0.186
-322.085	-158.727	-0.169	-0.010
-321.070	-34.781	0.012	-0.006
-320.056	562.020	0.057	-0.137
-319.041	639.410	-0.171	0.429
-318.026	10.178	0.185	0.139
-317.012	-16.193	-0.306	-0.192
-315.997	614.964	-0.030	0.073
-314.983	-200.000	0.045	0.284
-313.968	36.963	-0.230	0.201
-312.953	175.383	-0.159	0.228
-311.939	146.452	-0.122	-0.162
-310.924	46.360	0.259	0.238
-309.910	253.506	0.144	0.243
-308.895	105.951	0.138	0.161
-307.880	-48.301	-0.284	0.136
-306.866	-200.000	0.023	-0.187
-305.851	-200.000	0.009	0.116
-304.837	-200.000	0.138	-0.000
-303.822	76.659	-0.172	0.180
-302.807	-200.000	0.021	-0.127
-301.793	-200.000	0.003	-0.083
-300.778	-200.000	0.013	-0.282
-299.764	-112.055	-0.344	-0.068
-298.749	-200.000	0.028	0.126
-297.735	-124.261	-0.085	-0.013
-296.720	-200.000	0.011	0.313
-295.705	213.986	-0.040	0.063
-294.691	119.671	0.088	0.108
-293.676	-96.239	0.278	0.073
-292.662	-148.197	-0.035	-0.003
-291.647	127.542	-0.129	0.162
-290.632	431.640	-0.045	0.096
-289.618	175.426	0.255	-0.365
-288.603	-161.032	0.320	0.017
-287.589	231.984	-0.076	-0.124
-286.574	467.820	-0.007	0.016
-285.559	-200.000	-0.057	-0.377
-284.545	59.503	-0.086	-0.083
-283.530	800.000	0.035	-0.105
-282.516	-200.000	-0.050	-0.424
-281.501	-200.000	-0.013	0.204
-280.486	-123.077	0.143	-0.023
-279.472	-84.285	-0.227	0.071
-278.457	-164.338	0.227	-0.010
-277.443	11.766	0.040	0.030
-276.428	23.622	-0.113	-0.092
-275.413	212.572	-0.096	0.150
-274.399	129.011	-0.299	-0.376
-273.384	-200.000	0.003	-0.055
-272.370	-150.275	-0.260	-0.020
-271.355	800.000	0.004	0.016
-270.340	9.096	-0.126	-0.094
-269.326	-136.207	0.309	-0.036
-268.311	-200.000	-0.024	-0.157
-267.297	194.016	-0.174	-0.260
-266.282	-73.852	0.140	-0.050
-265.267	800.000	0.021	-0.080
-264.253	-157.426	-0.216	0.013
-263.238	-125.172	-0.068	-0.010
-262.224	800.000	-0.066	-0.185
-261.209	-200.000	-0.002	0.354
-260.195	117.786	-0.143	-0.174
-259.180	-35.867	0.247	0.132
-258.165	466.568	-0.025	0.055
-257.151	-80.272	0.189	0.062
-256.136	594.288	-0.240	-0.585
-255.122	107.035	0.211	-0.247
-254.107	-77.406	0.323	0.111
-253.092	0.369	-0.174	0.122
-252.078	-200.000	-0.014	-0.203
-251.063	-16.723	-0.096	0.060
-250.049	-91.461	-0.149	-0.042
-249.034	-78.262	-0.055	0.019
-248.019	-103.353	-0.134	-0.031
-247.005	-30.006	0.083	0.047
-245.990	-200.000	-0.014	0.293
-244.976	47.116	-0.022	-0.020
-243.961	87.031	0.252	0.275
-242.946	-96.734	-0.369	0.096
-241.932	-141.361	-0.290	-0.029
-240.917	-116.078	-0.194	-0.036
-239.903	-122.607	0.107	-0.017
-238.888	-200.000	0.030	0.453
-237.873	359.978	0.258	-0.509
-236.859	-200.000	-0.013	0.203
-235.844	-25.800	0.395	-0.230
-234.830	-193.564	0.062	0.001
-233.815	-93.778	0.108	-0.029
-232.800	-94.683	0.151	-0.040
-231.786	714.627	-0.066	-0.173
-230.771	-200.000	-0.019	-0.087
-229.757	54.040	-0.136	0.129
-228.742	800.000	0.045	-0.137
-227.727	-127.218	-0.137	0.020
-226.713	-17.473	0.123	-0.076
-225.698	168.358	-0.192	-0.269
-224.684	-40.215	0.181	-0.093
-223.669	335.082	-0.120	0.230
-222.655	-81.694	0.305	-0.099
-221.640	-200.000	0.024	-0.152
-220.625	11.546	-0.140	0.105
-219.611	800.000	0.033	0.116
-218.596	132.351	0.013	-0.016
-217.582	-200.000	0.001	0.087
-216.567	-48.799	0.256	-0.121
-215.552	7.711	0.231	0.170
-214.538	311.284	0.061	0.113
-213.523	800.000	-0.061	-0.264
-212.509	-200.000	-0.021	0.222
-211.494	-200.000	0.004	-0.221
-210.479	-200.000	0.033	-0.318
-209.465	-200.000	0.020	-0.278
-208.450	-200.000	-0.063	-0.441
-207.436	-134.739	-0.231	0.028
-206.421	-139.147	-0.490	0.052
-205.406	434.616	0.118	0.253
-204.392	-175.061	-0.046	-0.001
-203.377	-4.315	-0.150	-0.102
-202.363	-141.130	-0.319	-0.032
-201.348	410.689	0.091	0.190
-200.333	-2.974	-0.152	0.104
-199.319	800.000	-0.100	0.303
-198.304	246.900	0.112	0.186
-197.290	397.338	-0.146	0.300
-196.275	-200.000	-0.083	0.386
-195.260	-102.136	-0.447	-0.106
-194.246	800.000	0.051	0.182
-193.231	151.462	0.211	0.283
-192.217	17.416	-0.156	-0.122
-191.202	-4.646	0.158	-0.107
-190.187	-12.331	-0.242	-0.156
-189.173	-82.709	0.233	-0.074
-188.158	800.000	-0.099	0.339
-187.144	-200.000	0.035	0.171
-186.129	-89.112	0.182	0.053
-185.114	309.321	-0.022	-0.040
-184.100	98.521	0.148	-0.168
-183.085	73.382	-0.442	-0.455
-182.071	109.703	-0.087	0.102
-181.056	68.412	-0.037	0.037
-180.042	-200.000	-0.075	0.373
-179.027	-1.751	0.091	-0.063
-178.012	-99.555	0.204	-0.050
-176.998	-132.532	0.320	-0.040
-175.983	-11.457	0.134	0.087
-174.969	-91.001	-0.054	0.015
-173.954	-200.000	0.031	-0.240
-172.939	-38.862	-0.157	0.082
-171.925	551.638	-0.128	0.301
-170.910	-97.633	0.195	-0.050
-169.896	-33.738	-0.502	0.272
-168.881	800.000	-0.033	-0.141
-167.866	-200.000	0.013	0.375
-166.852	-102.469	-0.323	-0.076
-165.837	-200.000	0.025	0.465
-164.823	47.839	0.130	0.119
-163.808	385.074	0.076	0.153
-162.793	791.817	0.057	0.153
-161.779	367.678	0.106	0.210
-160.764	-200.000	0.023	-0.260
-159.750	266.418	0.154	0.265
-158.735	-43.489	-0.428	0.212
-157.720	-74.431	0.168	0.060
-156.706	247.468	-0.030	0.050
-155.691	758.913	-0.122	-0.324
-154.677	269.619	-0.106	-0.184
-153.662	-93.518	0.351	-0.095
-152.647	556.197	-0.090	0.213
-151.633	-200.000	0.041	0.189
-150.618	33.835	0.136	-0.116
-149.604	182.363	-0.058	0.084
-148.589	251.565	-0.112	0.187
-147.574	640.951	-0.071	-0.178
-146.560	-200.000	0.006	0.070
-145.545	748.999	-0.088	-0.234
-144.531	-173.404	0.232	0.007
-143.516	-34.046	0.235	0.127
-142.502	78.546	0.361	-0.379
-141.487	-166.870	-0.263	-0.011
-140.472	-200.000	-0.013	-0.201
-139.458	800.000	-0.038	0.162
-138.443	-8.709	0.106	-0.070
-137.429	-123.551	0.219	0.034
-136.414	42.902	0.198	0.177
-135.399	-85.434	0.218	0.067
-134.385	268.318	-0.083	-0.142
-133.370	204.054	-0.169	0.257
-132.356	-99.717	0.264	0.065
-131.341	374.241	-0.187	0.373
-130.326	-158.062	0.168	-0.010
-129.312	277.620	0.233	0.407
-128.297	44.470	-0.082	-0.074
-127.283	-164.867	0.248	-0.011
-126.268	313.701	0.083	-0.152
-125.253	800.000	-0.063	-0.182
-124.239	-106.378	0.185	-0.041
-123.224	800.000	-0.086	0.344
-122.210	228.853	0.076	0.122
-121.195	-200.000	-0.022	0.223
