DTS Sentinel unit serial number:	SN413079Multiplexer serial number:	ORYXHardware model number:	OX4-SRSoftware version number:	ORYX F/W v4.00 Oryx Data Collector v3.7.2.0data status	okinstallation	princeton_trtdifferential loss correction	single-endedforward channel	channel 4reverse channel	N/Adate	2019/09/14time	20:13:35forward acquisition time	60.00reverse acquisition time	0.00gamma	496.2192k internal	0.2305k external	0.2305temperature offset calibration	1.0094default loss term (dB/km)	0.3790temperature slope calibration	1.0000multiplexer offset coefficient	1.0000multiplexer slope coefficient	1.0000fibre end	0.00T internal ref (°C)	33.81T ext. ref 1 (°C)	4.86T ext. ref 2 (°C)	28.26length (m)	temperature (°C)	Stokes	anti-Stokes-747.200	-87.032	0.249	-0.077
-746.185	360.563	0.084	0.172
-745.171	-103.048	-0.046	0.011
-744.156	-200.000	-0.022	0.315
-743.142	492.051	0.050	0.117
-742.127	399.796	-0.126	0.268
-741.112	-42.836	-0.240	0.124
-740.098	-138.836	-0.436	0.048
-739.083	-40.190	0.245	0.130
-738.069	234.994	0.264	0.444
-737.054	54.993	-0.111	0.109
-736.039	79.807	-0.193	-0.211
-735.025	91.758	0.074	0.085
-734.010	417.056	-0.159	-0.346
-732.996	-76.016	0.045	0.016
-731.981	101.272	-0.141	0.167
-730.966	-10.473	0.240	0.162
-729.952	403.487	0.118	-0.254
-728.937	800.000	-0.102	-0.298
-727.923	800.000	-0.133	-0.390
-726.908	82.157	-0.326	-0.360
-725.894	-118.722	0.350	-0.063
-724.879	150.484	-0.207	-0.286
-723.864	-135.673	-0.214	0.026
-722.850	-200.000	0.044	-0.305
-721.835	-98.848	0.151	-0.039
-720.821	202.892	0.102	-0.161
-719.806	308.056	0.017	0.033
-718.791	336.075	-0.209	-0.412
-717.777	800.000	-0.088	-0.289
-716.762	-68.763	-0.120	-0.047
-715.748	-200.000	-0.456	-0.000
-714.733	800.000	0.126	0.365
-713.718	-9.061	0.262	0.178
-712.704	207.474	-0.089	-0.141
-711.689	-200.000	0.006	-0.095
-710.675	60.438	-0.098	0.098
-709.660	-131.482	-0.157	0.021
-708.645	179.565	-0.025	-0.038
-707.631	800.000	-0.049	-0.216
-706.616	30.870	-0.140	-0.122
-705.602	-75.855	0.277	-0.100
-704.587	-200.000	-0.040	-0.299
-703.572	16.783	0.265	-0.213
-702.558	-200.000	-0.036	0.455
-701.543	-34.170	0.089	-0.050
-700.529	-200.000	0.048	-0.291
-699.514	-188.364	0.068	-0.001
-698.499	-142.999	0.114	0.011
-697.485	-129.914	-0.278	-0.039
-696.470	-140.172	0.295	0.031
-695.456	-118.860	0.321	-0.057
-694.441	445.271	-0.145	-0.324
-693.426	13.850	0.275	0.217
-692.412	-160.874	-0.499	0.027
-691.397	800.000	0.080	0.320
-690.383	-200.000	-0.076	-0.375
-689.368	129.699	-0.112	0.145
-688.354	38.185	-0.167	0.151
-687.339	253.580	0.073	0.126
-686.324	-132.577	-0.330	0.043
-685.310	-36.990	-0.091	-0.050
-684.295	11.408	0.037	-0.029
-683.281	1.163	-0.134	0.097
-682.266	153.191	0.117	0.163
-681.251	-80.528	0.184	-0.062
-680.237	356.314	-0.140	-0.284
-679.222	9.368	0.169	0.129
-678.208	392.741	-0.097	0.205
-677.193	-200.000	-0.009	0.231
-676.178	800.000	-0.061	-0.240
-675.164	-200.000	0.061	-0.354
-674.149	-51.322	0.167	0.079
-673.135	586.514	-0.122	-0.304
-672.120	1.938	-0.265	0.194
-671.105	757.692	-0.069	-0.190
-670.091	654.401	-0.062	-0.162
-669.076	102.144	-0.061	-0.073
-668.062	-200.000	0.003	0.280
-667.047	-177.352	0.149	0.004
-666.032	-88.117	-0.113	0.034
-665.018	303.141	0.048	-0.091
-664.003	481.281	-0.095	-0.219
-662.989	739.160	0.127	0.346
-661.974	-200.000	-0.057	-0.366
-660.959	128.975	-0.199	0.258
-659.945	-72.392	0.279	0.105
-658.930	527.049	0.035	0.084
-657.916	58.431	-0.429	-0.427
-656.901	296.108	0.192	-0.357
-655.886	-17.900	-0.177	-0.113
-654.872	40.666	-0.174	-0.159
-653.857	800.000	-0.059	-0.206
-652.843	-200.000	0.002	-0.094
-651.828	-200.000	0.022	0.299
-650.814	205.845	-0.091	-0.143
-649.799	22.848	-0.064	0.053
-648.784	-26.332	0.033	-0.020
-647.770	-45.258	0.283	0.142
-646.755	-200.000	0.008	0.107
-645.741	-177.136	-0.307	0.008
-644.726	369.012	-0.063	-0.130
-643.711	-45.051	0.286	-0.144
-642.697	659.281	-0.026	-0.067
-641.682	-200.000	0.032	0.150
-640.668	-200.000	-0.006	-0.150
-639.653	88.651	0.058	0.065
-638.638	-72.283	0.070	0.026
-637.624	-200.000	0.025	-0.145
-636.609	-200.000	-0.005	-0.176
-635.595	80.698	-0.087	0.095
-634.580	-127.030	-0.332	0.049
-633.565	139.631	-0.089	-0.119
-632.551	-52.668	0.068	0.032
-631.536	-200.000	0.042	-0.187
-630.522	-84.417	0.187	0.060
-629.507	-123.225	-0.276	0.045
-628.492	84.405	-0.151	0.168
-627.478	57.264	0.222	0.220
-626.463	-143.184	-0.146	0.014
-625.449	-200.000	-0.033	-0.283
-624.434	118.108	-0.264	-0.329
-623.419	-9.043	0.447	-0.303
-622.405	-46.452	0.165	-0.082
-621.390	-200.000	-0.038	0.181
-620.376	800.000	0.161	-0.548
-619.361	435.315	0.076	-0.167
-618.346	-200.000	0.012	0.095
-617.332	-136.685	0.119	-0.014
-616.317	780.819	0.077	-0.214
-615.303	-140.687	0.034	-0.004
-614.288	-39.276	0.267	-0.142
-613.273	-14.513	0.136	-0.089
-612.259	-118.766	-0.345	-0.062
-611.244	-71.753	-0.120	-0.045
-610.230	191.576	0.139	0.212
-609.215	105.071	0.136	0.162
-608.201	289.962	-0.027	0.050
-607.186	-200.000	-0.016	-0.080
-606.171	74.028	-0.246	0.262
-605.157	-200.000	0.031	-0.152
-604.142	800.000	0.107	-0.313
-603.128	-91.922	0.244	0.070
-602.113	84.547	-0.005	0.006
-601.098	301.240	0.059	0.110
-600.084	-16.264	-0.318	-0.205
-599.069	71.499	0.054	0.056
-598.055	-200.000	0.027	0.228
-597.040	673.268	0.044	0.117
-596.025	800.000	0.078	-0.289
-595.011	-15.374	-0.080	-0.052
-593.996	-70.567	0.126	0.048
-592.982	800.000	-0.098	0.353
-591.967	161.305	-0.284	0.402
-590.952	58.041	-0.205	-0.203
-589.938	-17.855	0.097	-0.062
-588.923	384.030	0.156	-0.325
-587.909	-21.373	-0.295	-0.182
-586.894	-88.892	0.213	-0.064
-585.879	-42.643	0.068	0.035
-584.865	-200.000	-0.022	0.125
-583.850	69.515	0.065	-0.068
-582.836	800.000	0.070	0.201
-581.821	86.027	0.164	-0.183
-580.806	-200.000	-0.022	0.170
-579.792	74.271	-0.087	0.093
-578.777	31.504	0.190	-0.165
-577.763	438.181	-0.051	0.112
-576.748	-125.884	-0.259	-0.040
-575.733	-123.587	0.072	0.012
-574.719	13.876	0.049	-0.038
-573.704	266.403	-0.102	-0.179
-572.690	-122.072	-0.283	-0.047
-571.675	640.596	0.030	-0.077
-570.661	-110.898	0.157	0.033
-569.646	-61.296	0.164	-0.070
-568.631	-103.121	-0.321	0.077
-567.617	-79.681	0.490	0.167
-566.602	-58.683	-0.078	0.034
-565.588	131.790	-0.106	-0.138
-564.573	800.000	-0.079	-0.317
-563.558	94.817	0.367	0.422
-562.544	-200.000	-0.073	0.376
-561.529	107.801	0.086	0.103
-560.515	71.897	-0.083	-0.087
-559.500	-137.612	-0.399	0.045
-558.485	800.000	0.118	0.371
-557.471	-28.971	-0.131	-0.076
-556.456	-183.185	-0.161	0.003
-555.442	9.131	0.249	0.190
-554.427	47.295	0.121	-0.114
-553.412	-200.000	-0.002	-0.153
-552.398	7.990	0.258	0.196
-551.383	64.558	-0.134	0.136
-550.369	164.109	-0.090	-0.128
-549.354	-129.395	-0.313	-0.044
-548.339	-200.000	-0.007	-0.109
-547.325	37.888	-0.124	0.111
-546.310	-20.214	-0.177	0.110
-545.296	17.971	0.134	-0.108
-544.281	298.265	0.050	-0.093
-543.266	-30.090	-0.193	-0.111
-542.252	-200.000	-0.033	-0.342
-541.237	-109.580	-0.397	0.085
-540.223	-131.218	0.150	0.020
-539.208	26.874	-0.074	-0.063
-538.193	-93.542	0.286	-0.080
-537.179	-7.362	0.267	-0.183
-536.164	22.101	-0.113	0.093
-535.150	476.286	-0.029	-0.066
-534.135	319.512	-0.163	-0.313
-533.121	-158.375	0.301	0.018
-532.106	800.000	-0.108	-0.373
-531.091	498.954	0.052	-0.120
-530.077	-200.000	-0.035	0.265
-529.062	800.000	-0.044	-0.156
-528.048	-175.803	-0.046	0.001
-527.033	-107.619	0.337	-0.074
-526.018	800.000	0.031	-0.132
-525.004	33.727	0.138	-0.121
-523.989	173.899	-0.067	0.098
-522.975	78.477	0.111	0.120
-521.960	-90.490	-0.023	0.007
-520.945	-200.000	-0.016	0.469
-519.931	-67.895	-0.245	0.096
-518.916	42.337	0.117	0.108
-517.902	-200.000	-0.023	0.137
-516.887	-161.791	0.107	-0.005
-515.872	64.220	-0.291	-0.296
-514.858	-0.146	-0.242	0.173
-513.843	-35.024	0.089	-0.049
-512.829	434.964	0.080	0.175
-511.814	372.771	-0.128	0.262
-510.799	85.508	-0.181	0.200
-509.785	-111.883	-0.068	0.014
-508.770	-119.461	0.133	0.023
-507.756	-66.459	0.076	-0.030
-506.741	-155.708	0.076	0.005
-505.726	6.586	-0.165	0.123
-504.712	90.921	-0.200	-0.226
-503.697	235.930	-0.059	-0.099
-502.683	-200.000	0.015	0.128
-501.668	800.000	-0.049	0.142
-500.653	-200.000	0.013	0.384
-499.639	-200.000	-0.003	0.078
-498.624	-134.335	0.133	-0.016
-497.610	-168.804	0.120	-0.005
-496.595	-200.000	-0.034	0.212
-495.581	49.176	0.218	-0.207
-494.566	160.487	-0.223	-0.314
-493.551	28.010	0.263	-0.223
-492.537	-149.145	0.232	0.019
-491.522	800.000	0.113	0.325
-490.508	131.387	0.102	-0.132
-489.493	-99.191	0.114	-0.029
-488.478	92.826	0.276	0.314
-487.464	-145.976	-0.372	-0.033
-486.449	392.327	-0.050	0.106
-485.435	-20.435	0.103	-0.064
-484.420	-133.033	-0.195	-0.025
-483.405	-39.580	0.193	0.102
-482.391	-151.472	0.359	-0.027
-481.376	-160.816	-0.436	-0.023
-480.362	-200.000	0.003	0.051
-479.347	-12.411	-0.258	0.170
-478.332	-200.000	-0.016	-0.156
-477.318	-52.978	-0.192	0.089
-476.303	110.547	0.054	0.065
-475.289	22.577	-0.165	0.136
-474.274	196.836	0.051	0.078
-473.259	-200.000	-0.046	-0.582
-472.245	11.927	0.329	-0.254
-471.230	-90.953	-0.083	-0.024
-470.216	-38.897	0.147	0.078
-469.201	-200.000	0.005	0.144
-468.186	-119.546	-0.191	0.033
-467.172	-200.000	-0.009	-0.111
-466.157	-74.576	0.059	-0.021
-465.143	-160.115	0.067	-0.004
-464.128	-34.567	0.351	0.194
-463.113	-55.679	-0.381	0.172
-462.099	-50.825	-0.165	0.078
-461.084	-143.951	-0.444	-0.042
-460.070	-50.764	-0.041	-0.020
-459.055	-175.615	0.058	-0.002
-458.040	-71.727	-0.368	-0.138
-457.026	-91.558	0.229	-0.066
-456.011	471.876	0.059	0.134
-454.997	800.000	0.057	0.206
-453.982	205.337	-0.062	0.097
-452.968	-107.781	0.157	0.034
-451.953	-200.000	-0.022	-0.180
-450.938	-160.403	-0.128	-0.007
-449.924	125.377	0.091	0.115
-448.909	-60.226	-0.143	-0.062
-447.895	-39.975	0.272	0.143
-446.880	-200.000	0.022	0.126
-445.865	-121.433	-0.059	-0.010
-444.851	-200.000	-0.007	-0.122
-443.836	800.000	-0.077	-0.232
-442.822	-200.000	-0.007	-0.107
-441.807	-94.767	-0.216	0.059
-440.792	-140.395	0.200	0.021
-439.778	800.000	0.141	0.396
-438.763	508.757	0.072	-0.169
-437.749	176.538	0.275	-0.402
-436.734	800.000	-0.089	-0.361
-435.719	800.000	0.100	-0.311
-434.705	-127.577	-0.236	-0.034
-433.690	-200.000	-0.019	0.087
-432.676	32.218	0.071	-0.062
-431.661	237.519	-0.157	-0.263
-430.646	631.561	0.145	-0.369
-429.632	85.860	-0.181	-0.200
-428.617	-25.283	-0.048	-0.028
-427.603	34.629	0.137	0.121
-426.588	-200.000	-0.014	-0.303
-425.573	-119.048	0.271	0.048
-424.559	45.817	0.149	0.138
-423.544	24.309	0.086	0.072
-422.530	518.461	-0.125	0.294
-421.515	-138.070	0.199	0.022
-420.500	-84.593	-0.139	-0.044
-419.486	800.000	-0.048	-0.199
-418.471	59.897	-0.269	-0.267
-417.457	341.297	-0.073	-0.144
-416.442	-200.000	0.042	0.225
-415.428	-200.000	0.011	0.176
-414.413	-200.000	-0.098	0.434
-413.398	141.285	-0.263	0.350
-412.384	-68.866	-0.042	-0.016
-411.369	-135.625	-0.419	-0.050
-410.355	-115.291	0.315	0.060
-409.340	-14.721	0.173	0.112
-408.325	-71.627	-0.262	-0.098
-407.311	-97.161	-0.161	0.042
-406.296	-200.000	0.036	-0.272
-405.282	16.105	-0.277	-0.220
-404.267	800.000	0.054	-0.214
-403.252	-78.660	0.060	-0.021
-402.238	-200.000	0.020	0.173
-401.223	114.989	0.272	-0.333
-400.209	283.200	0.075	0.136
-399.194	16.588	0.315	0.250
-398.179	154.065	-0.215	0.296
-397.165	346.668	0.076	-0.150
-396.150	-200.000	-0.012	0.193
-395.136	-138.002	-0.263	0.029
-394.121	-79.097	0.179	-0.061
-393.106	-200.000	-0.015	0.205
-392.092	16.358	0.230	0.182
-391.077	800.000	-0.043	0.131
-390.063	800.000	0.076	0.221
-389.048	-200.000	0.018	-0.089
-388.033	-6.707	-0.234	-0.160
-387.019	314.860	0.070	0.132
-386.004	260.842	-0.058	-0.101
-384.990	29.396	0.292	0.249
-383.975	-86.007	-0.420	0.130
-382.960	-154.330	0.349	-0.024
-381.946	-168.771	0.436	0.017
-380.931	63.625	-0.068	-0.068
-379.917	15.397	0.285	0.225
-378.902	690.110	0.094	0.246
-377.888	-167.953	0.205	0.008
-376.873	-189.337	-0.262	-0.003
-375.858	-200.000	0.041	-0.183
-374.844	-107.259	0.330	-0.073
-373.829	432.744	-0.096	-0.209
-372.815	-200.000	0.009	-0.134
-371.800	800.000	0.068	0.285
-370.785	-23.776	0.019	-0.012
-369.771	607.457	-0.081	0.202
-368.756	-58.194	-0.461	0.202
-367.742	-200.000	-0.001	-0.049
-366.727	788.000	-0.108	-0.297
-365.712	-200.000	0.025	0.239
-364.698	206.456	-0.025	-0.039
-363.683	-114.524	-0.266	-0.051
-362.669	496.987	-0.036	-0.084
-361.654	106.941	0.321	-0.383
-360.639	-200.000	0.032	-0.306
-359.625	-15.758	-0.275	0.176
-358.610	-32.924	-0.088	-0.049
-357.596	12.906	-0.167	-0.129
-356.581	-200.000	0.039	-0.274
-355.566	-102.202	-0.180	-0.043
-354.552	216.207	-0.248	-0.396
-353.537	-14.525	-0.168	0.108
-352.523	-6.729	-0.192	-0.131
-351.508	-137.820	-0.212	0.024
-350.493	56.275	-0.111	-0.108
-349.479	-122.404	0.215	0.035
-348.464	-200.000	-0.043	0.365
-347.450	-200.000	-0.052	0.258
-346.435	234.768	-0.127	0.210
-345.420	-127.090	-0.120	0.018
-344.406	-46.012	-0.158	-0.078
-343.391	-128.479	0.316	0.045
-342.377	10.343	-0.138	0.105
-341.362	-15.814	-0.238	-0.152
-340.348	-121.007	0.231	0.039
-339.333	-105.056	-0.225	-0.052
-338.318	-20.355	0.227	-0.140
-337.304	-27.003	-0.244	0.143
-336.289	175.925	-0.029	0.042
-335.275	-140.568	-0.097	0.010
-334.260	-128.756	-0.203	0.029
-333.245	600.378	0.034	0.084
-332.231	-200.000	-0.064	-0.293
-331.216	800.000	-0.024	0.069
-330.202	104.409	0.090	-0.106
-329.187	-58.689	-0.232	0.101
-328.172	-113.824	-0.177	0.035
-327.158	136.723	0.292	0.382
-326.143	-200.000	-0.016	0.161
-325.129	450.478	-0.120	-0.264
-324.114	1.637	-0.065	0.047
-323.099	80.225	0.124	-0.134
-322.085	125.101	0.153	0.193
-321.070	-120.882	0.141	-0.024
-320.056	415.784	-0.182	-0.388
-319.041	0.349	0.190	0.136
-318.026	41.917	0.090	0.081
-317.012	-34.740	0.204	0.111
-315.997	-200.000	-0.025	-0.114
-314.983	56.412	0.042	0.041
-313.968	-200.000	-0.048	0.222
-312.953	-153.888	0.229	-0.016
-311.939	88.707	-0.204	-0.227
-310.924	-167.567	-0.300	-0.012
-309.910	-200.000	0.018	0.090
-308.895	98.374	-0.051	-0.059
-307.880	-200.000	-0.032	0.188
-306.866	-19.534	-0.332	-0.206
-305.851	-30.846	0.377	-0.213
-304.837	-105.101	0.053	-0.012
-303.822	61.984	0.251	0.250
-302.807	-65.629	-0.107	0.043
-301.793	-168.076	0.236	0.009
-300.778	56.489	0.067	-0.065
-299.764	-43.651	-0.441	-0.223
-298.749	-106.890	0.104	-0.023
-297.735	-200.000	0.003	0.161
-296.720	-14.223	0.176	0.114
-295.705	-200.000	-0.003	0.183
-294.691	529.493	0.029	0.068
-293.676	-77.111	0.077	0.027
-292.662	-156.491	0.137	-0.009
-291.647	-106.387	0.168	-0.038
-290.632	8.678	-0.336	-0.253
-289.618	-99.161	-0.164	0.042
-288.603	-200.000	0.015	-0.358
-287.589	36.482	-0.148	0.130
-286.574	-5.566	0.124	-0.085
-285.559	175.065	-0.252	-0.365
-284.545	-18.993	0.215	-0.133
-283.530	-161.612	-0.426	0.022
-282.516	-37.605	-0.242	-0.129
-281.501	-62.678	0.115	0.048
-280.486	-34.779	-0.244	0.134
-279.472	-108.174	0.125	-0.027
-278.457	407.915	-0.085	0.180
-277.443	-68.148	0.471	-0.183
-276.428	138.062	-0.106	0.139
-275.413	55.426	-0.265	-0.256
-274.399	6.299	0.122	0.091
-273.384	-58.734	-0.438	0.190
-272.370	800.000	0.077	-0.227
-271.355	-31.556	0.120	0.068
-270.340	-132.320	-0.163	0.021
-269.326	-57.900	-0.128	0.056
-268.311	800.000	0.026	0.099
-267.297	695.013	-0.059	0.155
-266.282	-53.897	0.365	-0.166
-265.267	-200.000	0.013	0.090
-264.253	606.161	0.156	0.390
-263.238	-61.949	-0.130	-0.054
-262.224	-11.619	0.346	0.227
-261.209	-38.773	0.239	0.126
-260.195	-53.353	0.045	-0.021
-259.180	-66.269	-0.067	-0.027
-258.165	91.506	0.104	-0.117
-257.151	10.614	-0.095	0.072
-256.136	175.342	-0.084	0.122
-255.122	-32.663	-0.169	-0.094
-254.107	-58.725	0.230	-0.100
-253.092	-108.110	0.414	-0.090
-252.078	-9.609	-0.113	0.075
-251.063	30.601	-0.093	-0.079
-250.049	-200.000	-0.002	-0.019
-249.034	93.835	-0.059	-0.067
-248.019	-144.284	0.117	-0.011
-247.005	-93.232	0.131	0.036
-245.990	-29.458	-0.153	-0.087
-244.976	451.057	-0.078	-0.171
-243.961	98.019	0.086	-0.099
-242.946	-155.965	-0.061	-0.004
-241.932	-82.784	-0.149	0.048
-240.917	-110.513	-0.211	-0.044
-239.903	13.340	0.095	0.073
-238.888	103.861	-0.135	0.159
-237.873	-200.000	-0.007	0.117
-236.859	-200.000	-0.043	0.307
-235.844	-128.301	0.007	-0.001
-234.830	116.359	-0.071	0.087
-233.815	-50.983	-0.166	0.078
-232.800	98.138	0.147	-0.169
-231.786	32.048	0.156	0.135
-230.771	-200.000	-0.250	0.001
-229.757	215.304	0.053	-0.084
-228.742	800.000	-0.020	0.085
-227.727	243.888	0.063	0.105
-226.713	208.619	0.109	-0.170
-225.698	-124.827	0.331	0.051
-224.684	-132.635	-0.426	0.054
-223.669	-11.121	0.210	-0.138
-222.655	-83.360	0.169	-0.054
-221.640	162.037	0.295	0.412
-220.625	-30.681	0.311	-0.175
-219.611	119.204	0.168	0.208
-218.596	-200.000	-0.008	-0.126
-217.582	9.445	0.074	0.056
-216.567	-200.000	0.055	0.330
-215.552	253.377	0.116	0.198
-214.538	310.668	0.217	-0.406
-213.523	800.000	0.053	-0.208
-212.509	-200.000	0.370	0.001
-211.494	800.000	0.026	-0.113
-210.479	-23.002	0.221	-0.133
-209.465	14.619	0.177	0.138
-208.450	269.281	-0.057	0.099
-207.436	-93.344	-0.251	0.069
-206.421	7.240	-0.181	-0.135
-205.406	-34.239	0.142	-0.078
-204.392	788.150	0.086	0.235
-203.377	8.947	0.101	0.076
-202.363	-200.000	0.034	0.176
-201.348	243.631	0.035	0.058
-200.333	-34.271	0.288	0.158
-199.319	800.000	0.032	0.094
-198.304	-200.000	0.065	0.302
-197.290	-200.000	0.050	0.223
-196.275	79.041	-0.097	0.103
-195.260	92.371	0.037	0.041
-194.246	-200.000	0.037	0.189
-193.231	800.000	-0.062	0.175
-192.217	-200.000	-0.040	0.331
-191.202	510.320	0.040	-0.093
-190.187	357.224	0.025	-0.050
-189.173	-200.000	-0.034	-0.156
-188.158	-200.000	0.001	0.045
-187.144	-103.433	0.089	-0.021
-186.129	-90.980	0.264	-0.076
-185.114	800.000	-0.019	0.075
-184.100	-200.000	0.011	0.087
-183.085	459.664	-0.144	-0.319
-182.071	800.000	0.088	-0.323
-181.056	88.689	-0.100	-0.111
-180.042	-200.000	0.028	0.272
-179.027	-11.088	0.219	0.144
-178.012	-1.231	-0.220	-0.155
-176.998	580.302	-0.077	-0.187
-175.983	-200.000	-0.020	0.278
-174.969	-110.299	-0.257	-0.053
-173.954	-200.000	-0.008	-0.176
-172.939	160.835	-0.071	-0.099
-171.925	243.990	-0.127	-0.211
-170.910	465.753	-0.062	0.139
-169.896	-109.061	-0.325	-0.069
-168.881	-146.727	0.099	0.009
-167.866	-28.187	-0.107	0.062
-166.852	-200.000	-0.042	0.270
-165.837	112.443	-0.065	-0.078
-164.823	115.210	-0.253	-0.307
-163.808	-108.315	0.496	0.107
-162.793	114.804	0.250	-0.303
-161.779	-200.000	-0.001	0.166
-160.764	-0.167	-0.127	-0.090
-159.750	-41.645	-0.072	0.037
-158.735	-70.246	0.201	0.076
-157.720	-200.000	-0.008	0.095
-156.706	-200.000	0.037	-0.203
-155.691	14.822	-0.069	0.054
-154.677	214.101	-0.285	-0.448
-153.662	183.701	0.044	-0.064
-152.647	-110.569	0.198	0.041
-151.633	441.755	-0.029	-0.062
-150.618	-61.850	0.147	0.061
-149.604	-7.054	0.211	0.143
-148.589	3.071	-0.212	0.153
-147.574	-124.662	0.127	-0.020
-146.560	-38.305	-0.046	0.024
-145.545	800.000	0.132	-0.412
-144.531	82.551	0.220	0.238
-143.516	-200.000	-0.076	0.352
-142.502	-96.259	0.265	-0.070
-141.487	800.000	-0.046	-0.199
-140.472	-21.797	0.071	0.043
-139.458	381.042	-0.056	-0.113
-138.443	-58.841	0.241	0.104
-137.429	-200.000	-0.032	0.222
-136.414	8.054	-0.298	0.222
-135.399	-153.600	-0.207	-0.014
-134.385	-200.000	-0.006	-0.093
-133.370	116.212	0.188	-0.229
-132.356	63.796	0.061	0.061
-131.341	258.448	-0.095	0.162
-130.326	-200.000	-0.046	-0.276
-129.312	-200.000	0.052	0.260
-128.297	30.784	0.235	-0.200
-127.283	456.311	-0.056	-0.123
-126.268	697.246	0.023	-0.061
-125.253	-200.000	0.010	0.078
-124.239	-85.596	0.115	-0.036
-123.224	23.189	0.252	0.205
-122.210	-200.000	0.025	-0.264
-121.195	-136.482	0.162	0.019
