DTS Sentinel unit serial number:	SN413079Multiplexer serial number:	ORYXHardware model number:	OX4-SRSoftware version number:	ORYX F/W v4.00 Oryx Data Collector v3.7.2.0data status	okinstallation	princeton_trtdifferential loss correction	single-endedforward channel	channel 4reverse channel	N/Adate	2019/09/16time	00:53:35forward acquisition time	60.00reverse acquisition time	0.00gamma	496.2192k internal	0.2323k external	0.2323temperature offset calibration	0.9966default loss term (dB/km)	0.3790temperature slope calibration	1.0000multiplexer offset coefficient	1.0000multiplexer slope coefficient	1.0000fibre end	0.00T internal ref (°C)	27.37T ext. ref 1 (°C)	9.69T ext. ref 2 (°C)	21.35length (m)	temperature (°C)	Stokes	anti-Stokes-747.200	-165.746	-0.056	0.002
-746.185	660.289	-0.141	0.367
-745.171	-77.700	-0.269	-0.094
-744.156	7.495	-0.075	-0.057
-743.142	-48.165	-0.175	0.085
-742.127	32.678	-0.123	0.107
-741.112	-10.002	0.092	-0.062
-740.098	303.012	-0.081	0.151
-739.083	200.919	-0.045	0.070
-738.069	153.993	-0.140	0.193
-737.054	-131.754	-0.450	0.060
-736.039	800.000	-0.085	-0.360
-735.025	-200.000	-0.081	0.540
-734.010	71.864	-0.051	0.054
-732.996	-86.899	-0.192	0.059
-731.981	204.053	0.044	-0.069
-730.966	50.843	-0.025	-0.024
-729.952	800.000	0.081	0.322
-728.937	-91.610	-0.284	-0.082
-727.923	-12.615	0.056	-0.037
-726.908	-200.000	-0.008	-0.205
-725.894	-128.157	-0.244	0.035
-724.879	53.632	-0.227	-0.220
-723.864	-58.211	0.095	0.042
-722.850	-61.437	0.244	0.104
-721.835	531.114	-0.166	-0.395
-720.821	-92.001	-0.307	-0.088
-719.806	581.394	-0.043	0.107
-718.791	-200.000	-0.010	0.049
-717.777	-12.413	-0.068	-0.045
-716.762	-33.886	0.116	0.064
-715.748	29.411	0.223	0.191
-714.733	800.000	-0.048	0.136
-713.718	513.952	0.062	0.145
-712.704	101.338	0.009	0.010
-711.689	-200.000	0.031	-0.217
-710.675	-72.710	0.187	0.070
-709.660	248.685	0.146	0.250
-708.645	-171.174	-0.230	-0.008
-707.631	-4.369	-0.012	0.008
-706.616	132.949	-0.087	-0.113
-705.602	92.596	0.065	0.074
-704.587	-103.651	0.278	0.066
-703.572	-49.475	-0.173	-0.083
-702.558	168.197	0.130	-0.187
-701.543	169.294	0.156	-0.224
-700.529	-62.015	0.277	0.117
-699.514	-148.865	-0.179	0.015
-698.499	-173.949	-0.472	0.014
-697.485	302.357	0.100	-0.186
-696.470	-27.913	-0.170	-0.099
-695.456	65.140	0.039	-0.039
-694.441	-200.000	-0.018	0.300
-693.426	-113.793	0.410	0.080
-692.412	349.014	-0.047	-0.094
-691.397	33.128	0.082	0.072
-690.383	-11.233	-0.367	0.244
-689.368	800.000	0.106	0.299
-688.354	-182.095	-0.013	-0.000
-687.339	245.564	-0.082	0.139
-686.324	110.481	-0.182	-0.220
-685.310	328.727	-0.171	-0.330
-684.295	287.164	-0.200	-0.364
-683.281	-39.905	-0.041	0.022
-682.266	112.574	-0.190	0.231
-681.251	-114.003	-0.389	0.076
-680.237	122.116	0.061	-0.077
-679.222	800.000	0.104	-0.322
-678.208	167.508	-0.251	-0.359
-677.193	-7.098	0.067	0.046
-676.178	-25.054	0.195	-0.117
-675.164	222.460	0.146	0.237
-674.149	800.000	0.047	0.155
-673.135	280.698	0.181	-0.325
-672.120	-52.609	-0.216	-0.100
-671.105	138.920	0.143	-0.190
-670.091	2.059	0.014	-0.010
-669.076	49.805	-0.219	-0.208
-668.062	-74.851	-0.090	0.033
-667.047	-66.880	0.195	0.078
-666.032	79.314	0.102	0.110
-665.018	800.000	-0.091	0.314
-664.003	-98.414	0.103	0.026
-662.989	74.835	0.170	0.180
-661.974	-200.000	-0.062	-0.499
-660.959	800.000	0.010	0.028
-659.945	498.705	0.143	0.332
-658.930	800.000	-0.058	0.237
-657.916	144.360	0.244	0.327
-656.901	-34.100	0.213	0.118
-655.886	-198.475	-0.215	0.001
-654.872	-200.000	-0.031	-0.284
-653.857	-200.000	-0.077	-0.591
-652.843	60.524	-0.215	-0.214
-651.828	142.846	-0.068	0.091
-650.814	312.352	0.040	-0.076
-649.799	800.000	0.047	0.146
-648.784	87.773	-0.012	0.013
-647.770	-10.030	0.108	0.072
-646.755	-200.000	0.006	-0.189
-645.741	308.346	-0.120	0.225
-644.726	-200.000	0.001	-0.007
-643.711	58.846	-0.291	-0.288
-642.697	-200.000	-0.002	-0.010
-641.682	190.239	-0.007	-0.011
-640.668	-34.238	0.182	-0.100
-639.653	365.241	-0.097	-0.195
-638.638	22.383	0.164	0.135
-637.624	132.424	0.207	-0.268
-636.609	-200.000	-0.050	0.245
-635.595	129.714	-0.029	-0.038
-634.580	141.278	0.107	-0.143
-633.565	336.554	0.201	-0.393
-632.551	197.957	-0.093	-0.143
-631.536	-200.000	-0.031	-0.285
-630.522	-200.000	-0.065	-0.336
-629.507	-200.000	0.054	-0.296
-628.492	18.942	-0.053	0.043
-627.478	-161.661	-0.522	-0.027
-626.463	-30.989	-0.193	-0.110
-625.449	-73.065	-0.235	-0.087
-624.434	-36.671	0.384	0.207
-623.419	100.198	0.123	0.144
-622.405	-99.885	-0.574	-0.144
-621.390	-16.224	0.158	-0.101
-620.376	-47.142	-0.175	0.086
-619.361	522.215	0.100	-0.235
-618.346	800.000	-0.048	0.170
-617.332	-86.789	-0.225	0.069
-616.317	31.843	0.156	0.135
-615.303	488.214	-0.033	-0.075
-614.288	-73.092	-0.078	0.029
-613.273	-62.853	-0.032	-0.013
-612.259	-200.000	-0.001	-0.031
-611.244	-141.029	-0.061	0.006
-610.230	180.360	-0.032	-0.047
-609.215	-77.559	-0.090	0.031
-608.201	9.857	0.154	-0.117
-607.186	-70.567	0.311	0.118
-606.171	-81.933	-0.116	0.038
-605.157	538.844	-0.051	-0.121
-604.142	-102.081	0.249	0.060
-603.128	719.627	-0.058	0.156
-602.113	-200.000	-0.000	-0.313
-601.098	-200.000	-0.021	0.133
-600.084	423.336	0.173	0.372
-599.069	260.915	0.275	0.477
-598.055	-5.869	-0.170	0.117
-597.040	38.115	-0.170	-0.152
-596.025	14.337	-0.068	-0.053
-595.011	-68.590	-0.109	0.042
-593.996	-40.941	0.130	0.068
-592.982	375.607	0.060	-0.123
-591.967	-41.486	-0.125	-0.064
-590.952	800.000	0.028	-0.081
-589.938	791.115	-0.015	0.041
-588.923	-200.000	-0.008	0.194
-587.909	469.834	-0.141	0.318
-586.894	28.453	-0.202	0.171
-585.879	-200.000	-0.032	0.200
-584.865	26.361	0.272	-0.228
-583.850	-200.000	-0.054	-0.257
-582.836	52.950	-0.322	0.309
-581.821	112.203	0.026	-0.031
-580.806	29.729	0.262	0.224
-579.792	412.109	0.060	-0.128
-578.777	-9.761	-0.134	-0.090
-577.763	-14.421	-0.091	-0.059
-576.748	-36.950	0.084	0.045
-575.733	53.661	0.200	-0.193
-574.719	800.000	0.149	-0.514
-573.704	139.226	-0.084	-0.110
-572.690	-200.000	-0.015	0.206
-571.675	292.081	-0.033	0.061
-570.661	-91.193	0.101	-0.029
-569.646	90.212	0.122	-0.137
-568.631	800.000	0.068	0.225
-567.617	409.715	0.192	0.409
-566.602	-128.187	0.299	-0.043
-565.588	4.048	-0.186	-0.136
-564.573	-84.680	-0.341	0.108
-563.558	-200.000	0.006	-0.036
-562.544	22.427	-0.029	0.024
-561.529	-200.000	0.006	-0.104
-560.515	-89.190	-0.126	0.037
-559.500	-53.382	-0.380	-0.175
-558.485	2.007	0.237	-0.171
-557.471	-200.000	0.087	0.393
-556.456	-33.187	0.281	0.156
-555.442	-197.401	-0.360	0.002
-554.427	32.504	0.205	0.177
-553.412	154.265	-0.091	0.126
-552.398	-165.910	-0.309	0.013
-551.383	-76.249	0.163	0.058
-550.369	53.009	-0.180	0.173
-549.354	-200.000	-0.045	-0.207
-548.339	75.648	0.165	-0.174
-547.325	215.812	0.152	0.243
-546.310	92.094	-0.202	-0.228
-545.296	800.000	0.042	0.180
-544.281	-70.770	-0.073	0.028
-543.266	84.877	-0.165	-0.181
-542.252	-200.000	0.005	0.070
-541.237	-112.668	0.170	-0.034
-540.223	-84.168	0.256	0.081
-539.208	-200.000	0.055	0.417
-538.193	130.681	0.118	0.151
-537.179	99.037	-0.143	-0.165
-536.164	-200.000	-0.070	0.326
-535.150	357.549	0.200	0.400
-534.135	2.548	0.170	-0.124
-533.121	401.880	-0.113	-0.237
-532.106	-200.000	-0.116	-0.514
-531.091	-200.000	-0.008	-0.254
-530.077	-200.000	0.014	-0.098
-529.062	477.412	-0.169	-0.383
-528.048	321.347	-0.087	-0.167
-527.033	-59.358	-0.156	0.067
-526.018	-165.084	0.106	-0.005
-525.004	491.280	-0.065	0.149
-523.989	-200.000	0.012	0.241
-522.975	-59.484	-0.109	0.047
-521.960	-28.945	-0.182	0.105
-520.945	-28.455	0.237	0.137
-519.931	-74.154	-0.301	-0.109
-518.916	6.884	0.313	0.233
-517.902	-96.845	0.321	-0.084
-516.887	-186.234	0.202	-0.003
-515.872	-86.182	0.221	0.068
-514.858	138.819	0.096	0.127
-513.843	-200.000	-0.009	0.438
-512.829	-200.000	-0.011	0.216
-511.814	7.598	0.240	-0.180
-510.799	-200.000	0.090	0.396
-509.785	-132.403	0.178	-0.023
-508.770	-91.165	0.103	0.029
-507.756	113.606	0.134	-0.163
-506.741	232.715	-0.115	-0.189
-505.726	110.409	-0.315	0.378
-504.712	152.417	-0.150	-0.205
-503.697	-49.105	-0.368	-0.176
-502.683	-89.867	-0.307	0.090
-501.668	-200.000	0.053	0.352
-500.653	393.248	-0.161	0.336
-499.639	-85.985	0.402	0.124
-498.624	-140.351	-0.107	0.011
-497.610	800.000	0.045	0.172
-496.595	-174.234	-0.219	-0.006
-495.581	15.812	-0.136	0.107
-494.566	-110.830	-0.088	-0.018
-493.551	-11.069	-0.029	-0.019
-492.537	169.471	0.059	-0.084
-491.522	34.710	0.164	0.144
-490.508	-65.850	0.250	-0.100
-489.493	800.000	0.061	-0.266
-488.478	685.934	0.039	0.102
-487.464	4.906	-0.145	-0.107
-486.449	800.000	0.043	0.134
-485.435	-200.000	0.050	-0.371
-484.420	800.000	0.121	-0.403
-483.405	123.081	-0.194	-0.243
-482.391	-34.644	0.034	0.019
-481.376	-200.000	0.005	0.077
-480.362	114.693	0.149	0.182
-479.347	-59.500	-0.438	0.188
-478.332	-77.124	0.216	-0.075
-477.318	175.894	0.171	-0.248
-476.303	-200.000	0.074	0.377
-475.289	579.377	-0.097	0.236
-474.274	-192.319	0.280	-0.003
-473.259	-168.609	-0.298	0.011
-472.245	800.000	0.017	-0.062
-471.230	79.110	-0.068	0.073
-470.216	695.827	0.034	-0.090
-469.201	692.707	0.066	-0.174
-468.186	-200.000	-0.018	0.254
-467.172	61.389	-0.165	0.164
-466.157	-38.065	-0.370	0.196
-465.143	-5.248	-0.121	-0.083
-464.128	-200.000	0.005	-0.404
-463.113	-3.677	0.329	0.228
-462.099	-48.862	0.471	-0.226
-461.084	800.000	0.046	0.130
-460.070	800.000	-0.072	0.295
-459.055	87.865	-0.049	-0.055
-458.040	-171.900	-0.277	-0.009
-457.026	36.366	-0.283	0.249
-456.011	-100.803	-0.349	-0.086
-454.997	500.490	0.050	0.115
-453.982	276.919	-0.084	0.148
-452.968	-5.794	-0.183	-0.125
-451.953	121.373	-0.175	-0.217
-450.938	-137.853	0.323	-0.036
-449.924	-94.592	-0.165	0.045
-448.909	-200.000	-0.015	0.263
-447.895	-76.129	-0.100	0.035
-446.880	-200.000	0.002	-0.446
-445.865	-154.424	-0.451	0.030
-444.851	-200.000	0.279	-0.000
-443.836	406.163	-0.032	0.068
-442.822	-200.000	0.070	-0.383
-441.807	800.000	-0.073	-0.236
-440.792	800.000	0.024	-0.096
-439.778	-200.000	0.018	0.205
-438.763	-200.000	0.075	0.443
-437.749	-121.754	-0.372	0.061
-436.734	-28.101	0.169	-0.098
-435.719	153.756	0.173	0.236
-434.705	-29.736	0.267	-0.152
-433.690	-200.000	0.086	0.384
-432.676	146.255	0.159	0.213
-431.661	-76.034	0.300	-0.106
-430.646	-75.781	0.042	-0.015
-429.632	-121.337	-0.087	-0.015
-428.617	-200.000	-0.003	-0.093
-427.603	-58.328	0.137	-0.059
-426.588	-200.000	-0.074	0.402
-425.573	-92.399	0.302	-0.085
-424.559	-23.838	0.192	-0.114
-423.544	380.623	-0.166	-0.340
-422.530	39.945	0.137	0.123
-421.515	-16.768	0.167	0.105
-420.500	55.434	-0.069	-0.067
-419.486	-36.180	-0.274	-0.147
-418.471	-119.126	0.171	-0.030
-417.457	-200.000	-0.030	-0.212
-416.442	-72.453	0.127	0.047
-415.428	4.273	0.162	-0.119
-414.413	-200.000	0.037	-0.445
-413.398	-93.744	0.205	0.056
-412.384	18.464	-0.161	0.128
-411.369	-69.028	0.218	-0.084
-410.355	-121.762	0.224	0.037
-409.340	70.801	-0.060	-0.062
-408.325	-16.093	0.218	0.138
-407.311	-200.000	-0.025	-0.126
-406.296	319.142	-0.056	0.106
-405.282	228.018	-0.101	-0.163
-404.267	115.074	0.241	-0.293
-403.252	-150.319	0.176	0.014
-402.238	-42.992	0.089	-0.045
-401.223	490.515	0.047	0.107
-400.209	-24.432	0.313	0.186
-399.194	-110.973	-0.302	-0.062
-398.179	24.605	-0.232	0.191
-397.165	695.809	0.082	0.215
-396.150	-43.922	0.298	0.149
-395.136	154.288	-0.209	0.286
-394.121	800.000	0.035	-0.104
-393.106	-115.901	0.294	-0.055
-392.092	-200.000	-0.011	0.160
-391.077	-3.977	-0.170	-0.118
-390.063	-116.945	-0.242	0.044
-389.048	321.627	-0.083	-0.158
-388.033	-135.043	-0.400	0.048
-387.019	116.140	-0.166	0.202
-386.004	-88.056	-0.070	-0.021
-384.990	-200.000	0.033	-0.212
-383.975	-58.238	-0.060	0.026
-382.960	274.453	0.065	0.114
-381.946	-46.487	-0.121	-0.059
-380.931	261.514	0.143	0.246
-379.917	-134.384	-0.283	-0.035
-378.902	-102.361	0.102	0.024
-377.888	-107.665	0.209	-0.045
-376.873	-73.999	-0.280	-0.101
-375.858	-97.240	-0.276	0.072
-374.844	95.101	0.127	0.144
-373.829	770.694	0.063	-0.171
-372.815	-200.000	0.018	0.094
-371.800	338.252	0.144	0.278
-370.785	800.000	-0.052	-0.207
-369.771	-200.000	-0.003	-0.145
-368.756	-200.000	-0.005	0.143
-367.742	-200.000	-0.013	-0.217
-366.727	62.962	0.139	0.138
-365.712	-200.000	0.013	-0.095
-364.698	-42.691	-0.067	-0.034
-363.683	-200.000	-0.008	0.307
-362.669	-200.000	0.012	-0.202
-361.654	-200.000	0.085	-0.626
-360.639	-200.000	-0.041	-0.260
-359.625	23.809	-0.021	0.017
-358.610	-15.844	0.050	0.032
-357.596	-107.057	0.161	0.035
-356.581	-200.000	0.039	-0.289
-355.566	495.427	-0.084	0.193
-354.552	-128.450	0.108	-0.015
-353.537	-200.000	0.030	0.302
-352.523	101.972	-0.061	0.071
-351.508	-200.000	0.024	-0.265
-350.493	226.418	0.071	-0.115
-349.479	139.021	-0.262	-0.342
-348.464	-64.439	-0.135	0.055
-347.450	570.424	0.050	-0.122
-346.435	149.640	0.217	0.292
-345.420	-160.101	0.149	0.008
-344.406	308.449	-0.128	0.238
-343.391	-200.000	0.044	-0.203
-342.377	800.000	-0.061	0.237
-341.362	73.865	-0.412	0.429
-340.348	40.053	0.204	0.182
-339.333	91.901	-0.025	-0.027
-338.318	279.400	-0.227	-0.403
-337.304	-200.000	0.044	-0.282
-336.289	107.569	0.085	-0.101
-335.275	384.216	0.111	-0.228
-334.260	-58.778	0.434	0.187
-333.245	119.050	-0.196	0.240
-332.231	-172.682	0.225	0.007
-331.216	-200.000	-0.004	0.043
-330.202	7.859	0.192	0.143
-329.187	144.356	0.135	0.180
-328.172	60.879	0.160	0.158
-327.158	-200.000	0.030	-0.179
-326.143	-20.183	0.067	0.041
-325.129	-154.722	0.492	0.032
-324.114	-99.903	0.343	-0.085
-323.099	223.266	-0.102	0.163
-322.085	370.416	-0.102	-0.204
-321.070	208.093	-0.079	0.123
-320.056	142.076	0.257	-0.339
-319.041	-54.310	-0.097	-0.044
-318.026	15.795	0.213	0.166
-317.012	-200.000	0.005	0.222
-315.997	241.236	-0.165	-0.274
-314.983	93.409	-0.104	-0.117
-313.968	800.000	0.020	-0.081
-312.953	800.000	-0.066	0.219
-311.939	-13.775	-0.378	-0.243
-310.924	292.868	-0.117	0.212
-309.910	-200.000	0.045	-0.357
-308.895	96.450	-0.179	-0.203
-307.880	800.000	-0.089	-0.247
-306.866	-108.477	0.088	0.019
-305.851	407.483	-0.077	-0.162
-304.837	540.532	0.077	0.183
-303.822	106.268	-0.217	-0.255
-302.807	200.683	0.157	-0.240
-301.793	-117.679	-0.266	-0.048
-300.778	-117.613	0.463	0.083
-299.764	247.859	-0.065	-0.110
-298.749	-15.592	-0.360	0.228
-297.735	-148.038	0.183	-0.015
-296.720	100.940	-0.041	0.047
-295.705	148.402	-0.059	0.079
-294.691	-162.956	0.266	0.013
-293.676	94.523	-0.180	0.203
-292.662	800.000	-0.078	-0.294
-291.647	-200.000	0.008	-0.079
-290.632	-200.000	-0.045	-0.441
-289.618	574.207	0.171	-0.415
-288.603	85.749	-0.232	-0.253
-287.589	-200.000	-0.001	-0.287
-286.574	141.093	0.316	0.415
-285.559	7.108	-0.083	-0.061
-284.545	-200.000	-0.031	0.176
-283.530	-95.508	-0.321	-0.085
-282.516	-20.056	0.168	-0.103
-281.501	40.578	-0.028	0.025
-280.486	-30.510	-0.255	-0.143
-279.472	267.622	-0.107	-0.186
-278.457	-17.504	-0.098	0.061
-277.443	333.264	0.086	-0.164
-276.428	571.385	0.058	0.141
-275.413	-79.890	-0.230	0.077
-274.399	33.746	-0.175	0.151
-273.384	-60.520	0.274	0.115
-272.370	-144.858	-0.079	0.007
-271.355	-200.000	0.005	-0.078
-270.340	-200.000	0.008	-0.055
-269.326	800.000	-0.067	0.216
-268.311	384.248	0.163	0.334
-267.297	146.258	-0.070	0.093
-266.282	-200.000	-0.007	0.260
-265.267	-200.000	0.010	0.278
-264.253	15.637	-0.116	-0.091
-263.238	-128.813	0.143	0.020
-262.224	251.554	0.100	0.169
-261.209	601.894	-0.128	0.314
-260.195	-60.287	0.256	-0.108
-259.180	67.749	0.038	0.039
-258.165	204.783	-0.058	-0.089
-257.151	-96.822	0.278	0.072
-256.136	153.641	-0.239	0.324
-255.122	-3.900	-0.126	0.087
-254.107	430.897	-0.102	-0.218
-253.092	-200.000	-0.008	0.106
-252.078	97.563	-0.202	-0.230
-251.063	214.451	-0.043	0.067
-250.049	800.000	-0.035	0.149
-249.034	219.686	0.095	0.151
-248.019	800.000	-0.053	-0.152
-247.005	49.700	0.101	0.095
-245.990	-22.927	0.117	0.070
-244.976	-200.000	-0.033	0.200
-243.961	-200.000	0.004	-0.293
-242.946	800.000	-0.039	0.139
-241.932	-200.000	-0.018	0.246
-240.917	142.192	-0.109	-0.143
-239.903	-11.569	0.319	-0.207
-238.888	119.546	-0.141	0.173
-237.873	514.787	-0.087	0.201
-236.859	107.213	0.061	0.071
-235.844	-10.257	0.054	0.036
-234.830	-166.492	-0.161	-0.007
-233.815	74.511	-0.342	-0.356
-232.800	-135.632	-0.508	0.060
-231.786	800.000	-0.035	0.107
-230.771	800.000	0.046	-0.134
-229.757	-90.323	0.178	0.051
-228.742	-200.000	0.035	0.226
-227.727	800.000	-0.092	0.271
-226.713	-69.665	-0.252	-0.095
-225.698	-130.861	-0.047	0.006
-224.684	293.992	0.177	-0.320
-223.669	-2.289	-0.121	0.084
-222.655	-200.000	0.046	-0.400
-221.640	-155.465	0.324	-0.021
-220.625	800.000	-0.088	-0.346
-219.611	-42.784	-0.137	-0.069
-218.596	550.431	0.093	0.220
-217.582	-128.830	-0.179	0.025
-216.567	-200.000	0.009	0.137
-215.552	-77.878	-0.301	-0.103
-214.538	-54.139	0.167	-0.075
-213.523	800.000	0.041	-0.165
-212.509	154.324	0.138	0.187
-211.494	262.744	0.160	-0.274
-210.479	10.545	-0.111	0.084
-209.465	16.464	0.156	-0.122
-208.450	26.031	-0.039	-0.032
-207.436	800.000	0.041	-0.157
-206.421	-48.008	0.175	0.083
-205.406	800.000	0.083	-0.299
-204.392	-129.806	-0.173	0.023
-203.377	-68.327	-0.232	0.089
-202.363	155.678	0.390	0.532
-201.348	5.796	-0.126	-0.092
-200.333	800.000	0.019	-0.068
-199.319	13.906	-0.348	-0.267
-198.304	69.041	-0.187	-0.190
-197.290	-144.470	0.236	-0.022
-196.275	62.902	-0.079	0.078
-195.260	800.000	0.019	-0.055
-194.246	555.981	0.034	-0.080
-193.231	-89.236	-0.123	0.036
-192.217	261.325	-0.095	0.163
-191.202	-137.803	0.373	0.041
-190.187	162.417	-0.091	0.127
-189.173	18.241	-0.093	0.074
-188.158	-200.000	-0.068	0.314
-187.144	-200.000	-0.006	-0.087
-186.129	-4.085	-0.134	-0.092
-185.114	124.410	-0.112	-0.139
-184.100	301.199	0.105	0.192
-183.085	-200.000	0.017	0.142
-182.071	74.849	-0.070	-0.073
-181.056	63.228	0.214	0.212
-180.042	-200.000	-0.004	-0.139
-179.027	800.000	0.072	0.230
-178.012	198.282	-0.140	-0.211
-176.998	-138.308	-0.120	0.013
-175.983	674.338	0.076	-0.196
-174.969	30.541	-0.061	0.051
-173.954	53.475	0.139	0.132
-172.939	-115.355	0.245	0.046
-171.925	154.965	-0.058	-0.079
-170.910	800.000	-0.052	-0.189
-169.896	73.604	-0.069	-0.071
-168.881	800.000	-0.030	0.115
-167.866	98.114	0.332	0.377
-166.852	-92.290	-0.066	0.018
-165.837	-89.769	0.338	-0.098
-164.823	-200.000	-0.018	-0.193
-163.808	67.763	0.182	-0.183
-162.793	-135.074	-0.397	0.047
-161.779	343.146	0.262	-0.507
-160.764	-52.789	-0.204	-0.093
-159.750	346.360	-0.021	-0.040
-158.735	49.487	-0.082	-0.076
-157.720	-200.000	0.027	-0.284
-156.706	42.445	0.062	-0.056
-155.691	120.375	-0.153	0.188
-154.677	588.963	-0.077	0.187
-153.662	249.912	0.077	-0.128
-152.647	221.869	0.203	0.321
-151.633	-116.196	0.285	0.052
-150.618	-117.469	-0.465	-0.083
-149.604	800.000	0.076	0.270
-148.589	0.257	0.242	0.171
-147.574	224.301	0.244	-0.389
-146.560	-68.099	0.203	0.078
-145.545	132.803	0.284	0.361
-144.531	-81.056	0.077	-0.025
-143.516	-134.261	0.094	-0.011
-142.502	272.671	-0.074	-0.129
-141.487	76.736	-0.045	0.048
-140.472	152.493	0.213	0.287
-139.458	726.389	0.124	0.327
-138.443	800.000	-0.040	0.143
-137.429	-157.040	0.261	-0.016
-136.414	-115.418	0.312	-0.058
-135.399	24.417	-0.088	-0.072
-134.385	158.807	-0.213	0.291
-133.370	-50.777	-0.184	0.085
-132.356	511.005	-0.101	-0.231
-131.341	-200.000	-0.039	0.195
-130.326	400.503	-0.021	-0.043
-129.312	-200.000	0.036	-0.276
-128.297	-58.579	0.037	-0.016
-127.283	45.467	0.180	-0.164
-126.268	-130.900	-0.204	-0.027
-125.253	657.757	0.058	0.147
-124.239	316.100	-0.168	0.312
-123.224	6.988	-0.191	-0.141
-122.210	-74.419	0.284	-0.101
-121.195	33.286	-0.188	0.161
