DTS Sentinel unit serial number:	SN413079Multiplexer serial number:	ORYXHardware model number:	OX4-SRSoftware version number:	ORYX F/W v4.00 Oryx Data Collector v3.7.2.0data status	okinstallation	princeton_trtdifferential loss correction	single-endedforward channel	channel 4reverse channel	N/Adate	2019/09/15time	03:57:34forward acquisition time	60.00reverse acquisition time	0.00gamma	496.2192k internal	0.2310k external	0.2310temperature offset calibration	1.0032default loss term (dB/km)	0.3790temperature slope calibration	1.0000multiplexer offset coefficient	1.0000multiplexer slope coefficient	1.0000fibre end	0.00T internal ref (°C)	30.94T ext. ref 1 (°C)	4.61T ext. ref 2 (°C)	25.92length (m)	temperature (°C)	Stokes	anti-Stokes-747.200	-200.000	-0.038	0.386
-746.185	-126.809	-0.240	0.036
-745.171	-146.151	-0.099	-0.009
-744.156	55.581	0.284	0.279
-743.142	228.321	0.073	-0.121
-742.127	800.000	-0.072	-0.237
-741.112	-16.393	0.092	-0.059
-740.098	-24.879	0.229	0.138
-739.083	113.078	-0.168	-0.207
-738.069	76.216	-0.133	-0.143
-737.054	191.412	-0.173	0.264
-736.039	800.000	-0.046	-0.141
-735.025	-65.359	0.192	-0.078
-734.010	566.412	-0.163	0.401
-732.996	-200.000	-0.000	-0.183
-731.981	-48.002	-0.145	-0.071
-730.966	-101.337	-0.270	0.067
-729.952	-200.000	0.033	-0.192
-728.937	106.359	-0.048	-0.058
-727.923	-167.409	-0.131	0.005
-726.908	25.288	0.094	-0.079
-725.894	28.307	-0.152	-0.130
-724.879	800.000	-0.045	0.133
-723.864	-161.234	0.118	0.006
-722.850	390.113	0.051	0.108
-721.835	31.049	-0.116	-0.101
-720.821	64.834	-0.201	-0.205
-719.806	800.000	0.001	0.002
-718.791	-93.748	-0.181	0.051
-717.777	-77.318	-0.179	-0.063
-716.762	-200.000	-0.020	-0.222
-715.748	-96.103	-0.392	-0.106
-714.733	387.643	-0.172	0.360
-713.718	-33.501	0.148	-0.083
-712.704	-28.581	-0.372	0.217
-711.689	26.476	-0.180	0.153
-710.675	607.197	0.051	-0.128
-709.660	-200.000	0.047	-0.369
-708.645	-94.213	0.206	-0.057
-707.631	-200.000	0.017	0.258
-706.616	544.102	-0.098	-0.238
-705.602	-126.930	0.121	0.018
-704.587	-110.423	-0.196	-0.041
-703.572	800.000	0.068	-0.286
-702.558	102.521	-0.081	0.096
-701.543	-140.564	0.080	0.008
-700.529	15.550	-0.206	-0.164
-699.514	-200.000	0.037	-0.170
-698.499	590.705	0.066	-0.165
-697.485	16.771	0.173	0.138
-696.470	-130.415	-0.319	0.044
-695.456	-133.716	0.132	0.017
-694.441	408.991	0.164	0.351
-693.426	-200.000	-0.018	0.323
-692.412	-110.154	0.237	0.050
-691.397	-14.902	-0.050	0.032
-690.383	234.746	0.047	-0.079
-689.368	-47.170	-0.099	0.049
-688.354	-71.015	-0.035	-0.013
-687.339	-149.343	0.097	-0.008
-686.324	-200.000	-0.021	-0.333
-685.310	800.000	0.114	-0.344
-684.295	-74.703	-0.257	-0.094
-683.281	-200.000	0.004	0.127
-682.266	-200.000	-0.446	0.002
-681.251	18.113	-0.175	0.142
-680.237	146.299	-0.079	-0.107
-679.222	800.000	0.113	0.318
-678.208	-58.325	-0.260	0.115
-677.193	-88.342	-0.247	-0.075
-676.178	-152.165	-0.468	-0.034
-675.164	40.084	0.168	0.153
-674.149	291.295	-0.097	0.178
-673.135	54.671	0.104	0.102
-672.120	125.999	0.186	-0.238
-671.105	-45.087	0.036	-0.018
-670.091	-47.543	0.217	-0.107
-669.076	-127.316	-0.061	0.009
-668.062	177.579	0.106	0.156
-667.047	210.997	-0.107	0.171
-666.032	-94.803	-0.236	-0.065
-665.018	478.501	0.149	-0.342
-664.003	-200.000	-0.013	-0.230
-662.989	-107.340	-0.310	0.069
-661.974	145.826	-0.146	-0.198
-660.959	800.000	-0.060	0.168
-659.945	-200.000	0.021	0.338
-658.930	-200.000	-0.007	0.325
-657.916	-36.687	0.333	0.181
-656.901	-200.000	-0.027	-0.176
-655.886	648.827	0.059	0.153
-654.872	-0.966	0.367	-0.263
-653.857	6.711	-0.087	0.065
-652.843	-200.000	-0.002	-0.190
-651.828	220.613	-0.263	-0.426
-650.814	-185.134	0.291	-0.005
-649.799	11.824	-0.169	-0.131
-648.784	189.689	-0.083	-0.125
-647.770	-144.864	-0.292	0.027
-646.755	227.661	0.288	-0.474
-645.741	175.545	0.191	-0.280
-644.726	800.000	0.124	-0.365
-643.711	292.422	-0.103	-0.191
-642.697	619.276	0.096	0.245
-641.682	107.133	-0.116	0.140
-640.668	800.000	-0.039	0.123
-639.653	144.892	-0.228	-0.309
-638.638	-96.934	-0.278	-0.074
-637.624	46.624	-0.193	-0.181
-636.609	-118.488	0.277	-0.050
-635.595	-82.104	0.422	0.139
-634.580	-200.000	-0.005	-0.409
-633.565	145.583	-0.083	0.112
-632.551	200.044	-0.060	0.093
-631.536	444.391	0.090	-0.201
-630.522	-55.321	-0.402	0.182
-629.507	42.300	-0.197	0.181
-628.492	-141.563	0.147	-0.015
-627.478	800.000	0.009	-0.037
-626.463	-22.479	-0.158	-0.097
-625.449	-47.780	0.137	-0.067
-624.434	-162.228	0.370	-0.019
-623.419	-145.941	0.063	0.006
-622.405	-200.000	-0.007	-0.139
-621.390	-200.000	-0.029	0.437
-620.376	800.000	0.106	-0.410
-619.361	-200.000	0.001	-0.338
-618.346	254.369	-0.029	-0.050
-617.332	-23.247	0.091	-0.055
-616.317	-79.889	0.113	0.039
-615.303	-19.902	0.108	0.068
-614.288	-167.208	0.080	-0.003
-613.273	249.615	-0.129	-0.220
-612.259	556.666	-0.190	0.463
-611.244	106.278	0.115	-0.137
-610.230	215.727	-0.152	-0.244
-609.215	-200.000	-0.010	0.107
-608.201	-200.000	-0.002	-0.034
-607.186	653.901	0.068	0.176
-606.171	-23.346	-0.169	0.103
-605.157	-165.089	0.042	-0.002
-604.142	96.697	-0.063	0.073
-603.128	800.000	0.041	-0.179
-602.113	126.322	0.334	-0.426
-601.098	229.653	0.130	-0.215
-600.084	184.023	0.110	0.164
-599.069	-73.013	0.067	0.025
-598.055	800.000	0.081	-0.229
-597.040	-200.000	-0.063	0.334
-596.025	81.697	-0.008	0.009
-595.011	193.388	0.258	-0.394
-593.996	-200.000	-0.050	-0.399
-592.982	126.447	0.142	0.182
-591.967	-200.000	0.057	-0.281
-590.952	-81.002	-0.060	-0.020
-589.938	600.469	0.021	0.052
-588.923	-200.000	0.021	-0.262
-587.909	-56.835	0.313	0.140
-586.894	-128.775	-0.145	0.021
-585.879	12.031	-0.134	0.104
-584.865	135.775	0.205	-0.270
-583.850	-200.000	0.038	-0.236
-582.836	5.291	0.123	0.091
-581.821	-200.000	0.031	0.152
-580.806	75.952	-0.051	0.055
-579.792	97.150	0.178	0.206
-578.777	680.126	-0.107	0.281
-577.763	-4.690	0.083	-0.058
-576.748	99.143	0.072	0.085
-575.733	-200.000	0.003	0.452
-574.719	201.366	-0.190	0.295
-573.704	-200.000	0.046	0.212
-572.690	800.000	0.071	-0.270
-571.675	-96.304	-0.233	-0.062
-570.661	223.327	-0.133	-0.216
-569.646	12.363	-0.284	-0.220
-568.631	137.844	-0.105	0.138
-567.617	-112.166	0.410	0.083
-566.602	188.105	0.095	-0.143
-565.588	-200.000	-0.035	0.161
-564.573	101.132	-0.153	0.180
-563.558	135.902	0.098	-0.128
-562.544	-200.000	-0.032	0.301
-561.529	-8.804	-0.277	-0.188
-560.515	-48.535	0.237	0.115
-559.500	-0.611	-0.138	-0.099
-558.485	70.087	-0.230	0.239
-557.471	264.184	0.238	-0.418
-556.456	800.000	-0.096	0.301
-555.442	-200.000	-0.037	0.176
-554.427	-17.092	-0.250	0.159
-553.412	-200.000	0.041	-0.201
-552.398	-142.704	-0.360	0.035
-551.383	-109.317	0.173	0.037
-550.369	-93.148	0.153	-0.043
-549.354	33.318	0.325	-0.284
-548.339	552.188	0.089	0.215
-547.325	-200.000	-0.029	-0.330
-546.310	187.657	0.171	0.258
-545.296	168.451	-0.061	-0.088
-544.281	22.447	-0.035	0.029
-543.266	-11.075	-0.124	0.083
-542.252	-112.236	-0.114	0.023
-541.237	-81.019	-0.194	-0.065
-540.223	-76.473	0.191	0.068
-539.208	2.259	0.075	0.055
-538.193	-54.206	0.361	0.165
-537.179	-2.439	-0.003	0.002
-536.164	800.000	-0.070	0.289
-535.150	-200.000	-0.058	0.339
-534.135	78.800	0.198	-0.213
-533.121	-200.000	-0.001	0.208
-532.106	-200.000	0.110	-0.602
-531.091	-110.698	0.113	0.023
-530.077	-29.586	-0.279	-0.160
-529.062	-100.158	-0.020	-0.005
-528.048	290.736	0.079	0.144
-527.033	-10.484	-0.118	0.078
-526.018	-112.798	-0.058	-0.012
-525.004	-200.000	-0.365	-0.000
-523.989	-124.427	-0.581	-0.091
-522.975	324.598	0.065	0.125
-521.960	-159.869	-0.344	0.019
-520.945	-97.496	-0.223	0.058
-519.931	800.000	0.017	-0.067
-518.916	14.194	0.165	0.129
-517.902	-200.000	0.050	0.351
-516.887	125.399	0.225	0.286
-515.872	-200.000	-0.014	0.075
-514.858	-61.596	0.153	0.065
-513.843	346.788	-0.145	0.287
-512.829	-200.000	0.057	-0.264
-511.814	93.191	-0.098	0.112
-510.799	10.111	-0.071	-0.054
-509.785	-200.000	-0.006	-0.105
-508.770	-91.682	-0.218	0.063
-507.756	-200.000	-0.004	0.177
-506.741	-34.838	0.183	-0.101
-505.726	743.763	0.103	-0.280
-504.712	295.066	-0.127	0.235
-503.697	52.919	-0.131	-0.126
-502.683	261.223	0.067	0.117
-501.668	-200.000	0.027	0.151
-500.653	111.075	-0.156	-0.189
-499.639	98.905	0.158	0.184
-498.624	69.005	-0.045	-0.047
-497.610	-200.000	-0.036	-0.171
-496.595	-200.000	-0.036	-0.199
-495.581	68.644	0.295	-0.304
-494.566	152.773	-0.143	-0.197
-493.551	-61.850	-0.156	0.066
-492.537	166.994	0.216	-0.308
-491.522	-200.000	0.068	0.370
-490.508	-200.000	0.041	0.222
-489.493	-106.054	-0.292	0.066
-488.478	96.311	-0.192	0.220
-487.464	-200.000	0.028	-0.225
-486.449	81.048	-0.077	-0.083
-485.435	-53.697	0.277	-0.127
-484.420	41.991	-0.115	0.105
-483.405	-51.326	0.089	-0.042
-482.391	-85.350	0.141	0.044
-481.376	-13.990	0.076	-0.049
-480.362	113.965	-0.137	0.168
-479.347	95.834	0.153	-0.176
-478.332	33.528	0.161	-0.140
-477.318	-78.057	-0.289	0.100
-476.303	-39.786	-0.282	0.148
-475.289	78.749	0.149	-0.161
-474.274	61.512	0.099	-0.099
-473.259	505.039	-0.024	0.055
-472.245	404.065	0.039	-0.083
-471.230	-8.615	-0.196	0.132
-470.216	-159.754	0.166	-0.009
-469.201	223.254	0.110	0.179
-468.186	800.000	0.108	0.309
-467.172	-36.052	-0.177	-0.096
-466.157	161.253	-0.146	0.205
-465.143	-78.500	0.386	-0.133
-464.128	-74.184	-0.333	-0.121
-463.113	-200.000	-0.001	0.082
-462.099	-60.119	-0.255	-0.109
-461.084	156.582	-0.179	-0.249
-460.070	-34.495	-0.202	-0.111
-459.055	-200.000	0.001	-0.207
-458.040	-200.000	-0.053	0.247
-457.026	-157.347	0.289	0.018
-456.011	646.253	0.095	0.245
-454.997	57.257	-0.106	-0.104
-453.982	-73.562	0.212	-0.078
-452.968	800.000	0.068	0.289
-451.953	800.000	-0.052	0.186
-450.938	-141.807	0.129	-0.013
-449.924	-108.929	-0.333	-0.071
-448.909	-200.000	0.046	-0.263
-447.895	172.861	0.110	0.158
-446.880	353.339	0.124	-0.248
-445.865	209.779	-0.134	-0.211
-444.851	-61.490	0.259	-0.109
-443.836	-20.637	-0.168	-0.103
-442.822	-39.681	0.087	0.046
-441.807	-81.003	0.072	0.024
-440.792	800.000	0.015	0.044
-439.778	-200.000	-0.022	-0.206
-438.763	-9.768	-0.202	0.135
-437.749	89.302	-0.160	0.179
-436.734	800.000	-0.095	-0.342
-435.719	284.840	0.055	0.099
-434.705	-49.684	-0.393	0.188
-433.690	424.857	0.098	-0.212
-432.676	-92.951	0.269	0.075
-431.661	-91.387	0.121	-0.035
-430.646	-200.000	0.003	-0.061
-429.632	800.000	-0.094	0.371
-428.617	-200.000	-0.003	0.200
-427.603	14.027	-0.038	0.029
-426.588	-154.853	0.172	-0.011
-425.573	-89.571	0.211	-0.062
-424.559	54.381	-0.180	-0.174
-423.544	-49.400	0.090	-0.043
-422.530	-87.554	-0.127	0.038
-421.515	59.975	-0.077	-0.076
-420.500	-52.979	-0.214	-0.099
-419.486	248.522	-0.267	-0.453
-418.471	-200.000	-0.007	-0.105
-417.457	320.182	0.050	-0.095
-416.442	158.106	0.068	0.095
-415.428	-200.000	0.021	-0.196
-414.413	10.440	0.059	-0.045
-413.398	61.005	-0.206	0.205
-412.384	60.345	0.185	0.183
-411.369	-200.000	-0.012	-0.282
-410.355	-136.299	0.157	-0.018
-409.340	460.953	0.035	-0.079
-408.325	233.855	-0.058	0.096
-407.311	-126.139	0.211	0.032
-406.296	43.483	0.220	-0.202
-405.282	501.735	0.055	0.128
-404.267	-18.138	-0.162	-0.102
-403.252	36.628	0.231	-0.204
-402.238	-117.853	0.226	-0.041
-401.223	233.109	-0.110	0.181
-400.209	292.570	0.120	0.220
-399.194	44.130	-0.163	0.149
-398.179	-109.798	-0.307	-0.065
-397.165	15.990	-0.093	-0.074
-396.150	-5.010	0.181	-0.125
-395.136	-74.168	-0.235	-0.085
-394.121	800.000	-0.035	0.120
-393.106	-200.000	-0.043	0.193
-392.092	-200.000	-0.006	0.458
-391.077	382.888	0.031	-0.064
-390.063	-14.067	0.221	-0.143
-389.048	781.502	0.115	-0.314
-388.033	-200.000	-0.012	0.125
-387.019	-64.791	-0.115	-0.047
-386.004	231.386	0.131	-0.215
-384.990	41.614	-0.028	0.026
-383.975	800.000	-0.035	-0.150
-382.960	-127.871	-0.177	0.025
-381.946	800.000	0.034	-0.142
-380.931	-200.000	0.038	-0.212
-379.917	-200.000	-0.010	0.219
-378.902	-182.498	-0.346	0.006
-377.888	54.080	0.153	-0.148
-376.873	54.215	0.290	0.279
-375.858	-193.869	0.128	0.001
-374.844	-89.048	-0.395	0.117
-373.829	800.000	-0.044	0.138
-372.815	-0.583	0.106	-0.075
-371.800	-200.000	-0.046	-0.288
-370.785	386.467	0.143	0.295
-369.771	-200.000	-0.031	0.280
-368.756	37.271	0.276	0.245
-367.742	-200.000	-0.046	-0.213
-366.727	344.968	-0.066	-0.129
-365.712	169.778	0.127	-0.182
-364.698	800.000	-0.018	-0.073
-363.683	-146.235	-0.237	0.021
-362.669	-200.000	0.043	0.200
-361.654	-200.000	-0.042	0.230
-360.639	-200.000	-0.018	0.384
-359.625	141.558	0.071	-0.095
-358.610	361.957	0.267	0.535
-357.596	-58.299	0.187	0.082
-356.581	-59.191	-0.302	0.130
-355.566	687.347	-0.014	0.037
-354.552	-111.045	0.373	0.077
-353.537	800.000	-0.095	0.343
-352.523	505.921	0.037	-0.086
-351.508	-93.768	0.390	0.108
-350.493	70.332	-0.107	0.111
-349.479	-200.000	0.005	0.024
-348.464	-200.000	0.248	-0.001
-347.450	-23.657	0.160	0.096
-346.435	-111.918	0.138	0.028
-345.420	800.000	0.057	-0.235
-344.406	-67.182	0.378	0.149
-343.391	339.342	-0.063	0.122
-342.377	655.089	0.041	-0.105
-341.362	588.636	-0.137	0.338
-340.348	115.976	-0.111	0.135
-339.333	29.383	-0.083	0.071
-338.318	491.612	-0.190	0.434
-337.304	-98.104	-0.251	0.065
-336.289	-107.639	0.133	-0.029
-335.275	-17.678	-0.204	-0.128
-334.260	193.702	0.099	0.149
-333.245	-35.948	-0.278	-0.150
-332.231	-104.009	0.140	0.033
-331.216	198.448	-0.129	-0.197
-330.202	-80.089	-0.151	-0.051
-329.187	-93.888	0.283	0.078
-328.172	-200.000	0.027	-0.174
-327.158	260.317	-0.061	0.106
-326.143	-120.943	-0.233	0.039
-325.129	-200.000	-0.071	-0.372
-324.114	357.927	-0.172	0.342
-323.099	109.380	-0.070	0.083
-322.085	800.000	0.055	-0.171
-321.070	69.950	0.197	-0.203
-320.056	12.350	-0.280	0.216
-319.041	148.519	-0.111	0.150
-318.026	679.887	-0.105	0.272
-317.012	-199.087	-0.185	-0.001
-315.997	97.086	0.146	-0.168
-314.983	86.361	0.097	-0.106
-313.968	-83.270	0.185	-0.059
-312.953	96.111	0.041	0.047
-311.939	-105.915	0.172	0.039
-310.924	-162.005	-0.182	-0.009
-309.910	23.695	-0.173	-0.142
-308.895	-68.632	-0.270	0.104
-307.880	-130.862	0.107	-0.014
-306.866	559.455	-0.009	-0.022
-305.851	389.952	0.145	0.300
-304.837	672.169	-0.054	-0.139
-303.822	176.278	-0.268	0.389
-302.807	25.785	-0.034	0.028
-301.793	-108.035	-0.222	-0.048
-300.778	-81.757	0.113	-0.037
-299.764	-42.101	0.186	0.095
-298.749	118.893	0.250	0.309
-297.735	-37.771	-0.051	-0.027
-296.720	-166.890	0.122	-0.005
-295.705	40.398	0.317	-0.285
-294.691	121.304	-0.202	-0.252
-293.676	800.000	0.054	-0.192
-292.662	71.609	0.124	-0.128
-291.647	-133.949	-0.113	-0.014
-290.632	-200.000	0.036	-0.332
-289.618	-161.942	0.188	-0.009
-288.603	148.206	0.064	-0.086
-287.589	-200.000	-0.012	0.245
-286.574	109.966	-0.157	0.188
-285.559	-23.423	0.152	-0.091
-284.545	-106.606	-0.237	-0.053
-283.530	800.000	-0.055	-0.207
-282.516	4.998	0.054	-0.040
-281.501	-200.000	-0.004	0.250
-280.486	111.209	-0.107	0.128
-279.472	652.002	0.012	-0.030
-278.457	121.187	-0.083	-0.103
-277.443	387.969	0.107	0.221
-276.428	100.645	-0.258	-0.299
-275.413	-12.192	0.236	-0.154
-274.399	-160.035	0.325	0.018
-273.384	-94.196	-0.211	0.058
-272.370	61.286	0.086	-0.085
-271.355	-40.854	0.064	-0.033
-270.340	45.357	0.063	0.058
-269.326	-27.864	-0.200	-0.116
-268.311	-73.531	0.187	-0.068
-267.297	-19.435	0.277	0.171
-266.282	800.000	-0.026	0.113
-265.267	-126.448	-0.237	-0.035
-264.253	90.989	0.110	0.122
-263.238	-200.000	-0.031	0.184
-262.224	91.829	-0.101	-0.113
-261.209	-94.394	0.045	-0.012
-260.195	62.542	0.265	-0.264
-259.180	542.643	0.042	-0.099
-258.165	-190.828	0.348	-0.004
-257.151	326.543	0.139	-0.265
-256.136	-11.736	-0.140	0.091
-255.122	-45.914	0.200	0.098
-254.107	-100.988	-0.074	-0.018
-253.092	-200.000	0.008	-0.196
-252.078	219.947	0.037	0.060
-251.063	659.768	0.058	-0.150
-250.049	-95.719	0.190	0.051
-249.034	71.800	-0.042	0.044
-248.019	32.450	0.058	0.050
-247.005	206.179	0.057	-0.088
-245.990	-190.880	-0.095	-0.001
-244.976	13.721	0.205	0.158
-243.961	-79.883	0.136	-0.045
-242.946	-189.752	-0.352	-0.004
-241.932	-132.362	0.181	0.023
-240.917	800.000	0.089	0.306
-239.903	139.583	0.109	0.142
-238.888	230.957	0.060	0.098
-237.873	96.599	0.065	-0.074
-236.859	-31.641	-0.126	0.070
-235.844	189.505	0.098	0.146
-234.830	-200.000	0.020	0.329
-233.815	800.000	0.034	0.148
-232.800	326.176	0.122	-0.233
-231.786	322.572	-0.133	0.252
-230.771	-118.350	0.170	-0.030
-229.757	-27.386	0.087	0.050
-228.742	-76.694	0.187	-0.065
-227.727	89.780	-0.212	0.236
-226.713	113.160	0.124	-0.149
-225.698	-150.631	0.089	-0.007
-224.684	-81.728	-0.169	-0.055
-223.669	-200.000	-0.021	0.216
-222.655	-109.507	0.078	-0.016
-221.640	139.082	0.099	-0.130
-220.625	-67.870	-0.234	0.091
-219.611	32.453	-0.275	-0.236
-218.596	15.487	0.146	-0.114
-217.582	16.260	0.219	-0.172
-216.567	91.365	0.077	0.086
-215.552	-97.233	-0.062	0.016
-214.538	800.000	-0.055	-0.177
-213.523	-69.488	0.218	-0.083
-212.509	124.324	-0.225	0.282
-211.494	-200.000	-0.013	-0.208
-210.479	800.000	-0.114	-0.328
-209.465	314.003	0.115	-0.215
-208.450	0.004	-0.441	-0.312
-207.436	800.000	-0.054	0.154
-206.421	-200.000	0.008	-0.502
-205.406	-100.636	-0.321	-0.079
-204.392	73.180	-0.279	0.291
-203.377	-0.938	0.217	-0.153
-202.363	-112.769	0.247	-0.049
-201.348	402.858	-0.095	0.198
-200.333	173.809	0.063	0.090
-199.319	-5.414	-0.204	-0.139
-198.304	233.472	-0.106	0.174
-197.290	-200.000	0.022	-0.102
-196.275	249.238	0.092	-0.156
-195.260	-112.592	-0.500	-0.099
-194.246	-200.000	0.019	-0.304
-193.231	323.279	0.121	-0.230
-192.217	800.000	-0.137	0.427
-191.202	800.000	0.071	0.208
-190.187	14.960	-0.107	-0.083
-189.173	-154.034	-0.207	0.014
-188.158	800.000	-0.065	-0.186
-187.144	-20.931	-0.115	0.070
-186.129	-109.800	0.280	0.058
-185.114	800.000	0.062	0.241
-184.100	43.016	-0.308	-0.279
-183.085	-106.624	-0.289	-0.064
-182.071	-200.000	-0.053	-0.383
-181.056	-11.208	-0.036	-0.024
-180.042	-130.024	-0.245	0.033
-179.027	341.255	-0.158	0.306
-178.012	800.000	-0.087	-0.244
-176.998	-10.989	-0.189	-0.124
-175.983	-104.770	0.326	0.075
-174.969	-118.657	0.178	-0.031
-173.954	184.595	0.214	-0.315
-172.939	37.606	-0.047	-0.041
-171.925	702.750	0.072	0.188
-170.910	800.000	0.124	0.351
-169.896	-105.804	-0.401	0.090
-168.881	370.025	0.065	0.131
-167.866	46.128	0.128	0.118
-166.852	-3.415	-0.087	-0.060
-165.837	800.000	-0.083	-0.352
-164.823	800.000	0.067	-0.280
-163.808	72.194	0.108	0.112
-162.793	-130.082	0.420	0.057
-161.779	127.707	0.256	0.323
-160.764	-139.695	-0.160	0.017
-159.750	70.590	0.125	0.129
-158.735	-200.000	-0.015	0.130
-157.720	1.679	-0.097	-0.069
-156.706	372.407	-0.129	0.260
-155.691	-67.379	-0.172	0.067
-154.677	-200.000	0.037	0.209
-153.662	-73.764	-0.059	0.021
-152.647	219.771	-0.117	-0.186
-151.633	456.937	0.161	0.355
-150.618	-200.000	0.042	0.274
-149.604	20.326	0.268	0.215
-148.589	800.000	-0.117	0.402
-147.574	-123.896	-0.270	-0.042
-146.560	800.000	0.018	0.074
-145.545	-65.513	0.137	-0.055
-144.531	231.627	-0.154	-0.250
-143.516	-200.000	-0.010	0.301
-142.502	140.136	-0.025	-0.033
-141.487	-16.608	-0.190	-0.119
-140.472	-116.272	-0.166	0.031
-139.458	103.158	0.134	0.155
-138.443	-177.987	0.080	-0.002
-137.429	-200.000	0.007	-0.063
-136.414	9.682	-0.224	0.169
-135.399	217.947	-0.148	0.235
-134.385	-200.000	0.002	0.132
-133.370	152.333	0.114	-0.155
-132.356	-57.907	-0.238	-0.103
-131.341	-200.000	-0.039	0.333
-130.326	-200.000	-0.006	-0.331
-129.312	357.449	-0.158	-0.313
-128.297	-200.000	0.019	-0.122
-127.283	-44.509	0.167	0.083
-126.268	67.387	-0.199	-0.202
-125.253	-163.504	0.347	-0.016
-124.239	7.815	0.196	0.145
-123.224	-36.084	0.327	-0.175
-122.210	469.969	0.092	0.205
-121.195	276.437	0.140	-0.246
