DTS Sentinel unit serial number:	SN413079Multiplexer serial number:	ORYXHardware model number:	OX4-SRSoftware version number:	ORYX F/W v4.00 Oryx Data Collector v3.7.2.0data status	okinstallation	princeton_trtdifferential loss correction	single-endedforward channel	channel 4reverse channel	N/Adate	2019/09/16time	13:21:35forward acquisition time	60.00reverse acquisition time	0.00gamma	496.2192k internal	0.2287k external	0.2287temperature offset calibration	0.9936default loss term (dB/km)	0.3790temperature slope calibration	1.0000multiplexer offset coefficient	1.0000multiplexer slope coefficient	1.0000fibre end	0.00T internal ref (°C)	41.41T ext. ref 1 (°C)	13.73T ext. ref 2 (°C)	39.35length (m)	temperature (°C)	Stokes	anti-Stokes-747.200	142.913	-0.142	-0.193
-746.185	-200.000	0.042	-0.229
-745.171	48.595	-0.169	0.163
-744.156	-200.000	-0.050	0.321
-743.142	-200.000	-0.010	0.351
-742.127	70.387	0.085	0.090
-741.112	-200.000	-0.028	0.141
-740.098	-200.000	0.000	0.145
-739.083	-40.748	0.083	-0.044
-738.069	20.491	-0.249	0.207
-737.054	-55.144	0.154	-0.071
-736.039	87.112	0.181	-0.205
-735.025	-74.662	-0.180	-0.066
-734.010	138.378	-0.242	-0.326
-732.996	492.522	-0.122	-0.287
-731.981	-161.204	-0.158	-0.008
-730.966	775.671	-0.185	-0.518
-729.952	-95.920	0.238	-0.065
-728.937	-160.915	-0.251	0.014
-727.923	-80.576	-0.049	-0.017
-726.908	-200.000	0.011	-0.362
-725.894	-97.853	-0.405	0.107
-724.879	-96.126	-0.158	0.043
-723.864	-95.800	-0.301	-0.082
-722.850	-2.860	-0.153	-0.109
-721.835	-32.034	0.258	0.148
-720.821	394.072	-0.029	-0.062
-719.806	-130.571	-0.242	-0.033
-718.791	-100.464	-0.030	-0.008
-717.777	-200.000	0.073	0.378
-716.762	-0.166	0.117	0.086
-715.748	-79.022	0.175	-0.061
-714.733	-97.879	0.182	-0.048
-713.718	96.133	-0.126	-0.148
-712.704	567.163	-0.078	-0.195
-711.689	308.487	-0.054	0.104
-710.675	737.365	0.031	-0.086
-709.660	-200.000	0.079	-0.372
-708.645	-200.000	0.053	-0.434
-707.631	-0.261	-0.201	-0.147
-706.616	64.113	0.260	0.268
-705.602	-67.901	0.305	-0.122
-704.587	-172.255	-0.049	-0.002
-703.572	-181.142	-0.169	0.003
-702.558	154.626	0.103	0.145
-701.543	-67.701	0.234	-0.094
-700.529	-76.836	0.192	-0.069
-699.514	-128.302	0.166	-0.024
-698.499	52.301	0.060	0.059
-697.485	182.601	0.037	0.056
-696.470	-14.757	0.154	0.101
-695.456	-200.000	0.029	-0.256
-694.441	81.264	0.119	-0.132
-693.426	627.351	-0.010	0.027
-692.412	152.139	-0.008	-0.011
-691.397	800.000	-0.060	0.174
-690.383	135.563	-0.087	0.115
-689.368	-58.608	0.131	0.058
-688.354	-200.000	-0.006	-0.253
-687.339	-159.885	0.219	-0.012
-686.324	269.465	-0.195	0.350
-685.310	-107.449	-0.197	0.044
-684.295	-22.693	0.164	-0.101
-683.281	432.612	0.254	0.565
-682.266	-44.015	-0.442	-0.227
-681.251	-200.000	-0.015	-0.154
-680.237	137.908	-0.138	-0.185
-679.222	-185.964	0.281	-0.004
-678.208	790.931	0.079	-0.223
-677.193	-86.992	0.135	-0.042
-676.178	-76.384	-0.136	0.049
-675.164	33.790	0.217	-0.193
-674.149	-64.542	-0.380	-0.158
-673.135	-78.051	-0.033	0.012
-672.120	53.294	-0.175	-0.172
-671.105	105.950	0.089	-0.107
-670.091	-141.115	-0.199	0.021
-669.076	-154.730	-0.263	0.018
-668.062	-200.000	-0.012	0.056
-667.047	49.375	-0.099	-0.096
-666.032	124.547	-0.091	0.117
-665.018	243.125	0.063	0.108
-664.003	-56.699	0.066	-0.030
-662.989	-67.751	-0.416	-0.166
-661.974	-200.000	-0.007	-0.073
-660.959	-113.873	0.192	0.038
-659.945	9.099	0.064	-0.049
-658.930	326.679	0.048	0.094
-657.916	-200.000	-0.093	-0.522
-656.901	253.416	0.043	-0.075
-655.886	5.956	-0.134	0.102
-654.872	14.006	-0.206	-0.164
-653.857	108.382	-0.067	-0.081
-652.843	158.910	-0.061	-0.087
-651.828	-7.976	0.241	0.166
-650.814	108.273	-0.102	0.124
-649.799	-200.000	0.003	-0.159
-648.784	275.903	-0.138	0.251
-647.770	4.423	0.218	0.163
-646.755	56.467	-0.111	0.111
-645.741	800.000	0.035	0.108
-644.726	309.789	0.136	0.260
-643.711	-42.554	-0.294	0.153
-642.697	800.000	-0.067	-0.219
-641.682	87.908	0.077	0.087
-640.668	-200.000	0.034	-0.212
-639.653	31.094	-0.278	-0.244
-638.638	-150.296	0.210	-0.017
-637.624	442.148	-0.037	-0.082
-636.609	60.609	0.105	0.106
-635.595	-200.000	0.038	0.190
-634.580	11.072	-0.141	-0.110
-633.565	324.302	-0.043	0.083
-632.551	229.395	-0.063	-0.104
-631.536	21.992	-0.030	-0.025
-630.522	-65.358	-0.609	0.250
-629.507	-6.668	-0.146	0.102
-628.492	298.013	0.029	-0.054
-627.478	-13.869	-0.213	0.141
-626.463	-90.031	0.127	-0.038
-625.449	-200.000	0.024	0.275
-624.434	439.101	-0.055	-0.122
-623.419	157.948	-0.082	-0.116
-622.405	-14.992	0.172	0.113
-621.390	30.504	-0.084	0.073
-620.376	-33.978	0.043	-0.024
-619.361	-200.000	0.017	-0.496
-618.346	-200.000	-0.027	-0.208
-617.332	-105.294	-0.245	-0.057
-616.317	65.526	-0.186	-0.192
-615.303	82.237	0.107	-0.119
-614.288	-92.908	-0.119	0.034
-613.273	609.460	0.109	-0.277
-612.259	27.315	0.081	0.069
-611.244	800.000	-0.129	-0.556
-610.230	-200.000	0.000	0.300
-609.215	-79.013	-0.157	0.054
-608.201	800.000	-0.026	0.085
-607.186	39.358	-0.110	0.100
-606.171	-46.934	0.309	0.154
-605.157	-113.125	-0.267	0.054
-604.142	-200.000	-0.019	-0.150
-603.128	50.976	0.150	0.145
-602.113	-200.000	0.001	-0.179
-601.098	-200.000	-0.022	-0.318
-600.084	191.147	-0.049	-0.075
-599.069	-97.630	0.280	0.074
-598.055	-35.648	-0.126	0.070
-597.040	-27.757	0.102	0.060
-596.025	-124.031	-0.254	0.041
-595.011	226.454	-0.059	-0.097
-593.996	29.940	-0.140	-0.122
-592.982	800.000	0.059	-0.194
-591.967	502.163	-0.015	0.036
-590.952	319.588	0.052	0.101
-589.938	11.583	-0.261	0.204
-588.923	-87.282	0.273	0.085
-587.909	-117.147	0.487	0.090
-586.894	-200.000	-0.032	0.353
-585.879	-61.434	0.251	0.107
-584.865	-200.000	0.029	-0.374
-583.850	-71.168	0.109	-0.042
-582.836	691.316	-0.069	0.186
-581.821	-175.569	-0.147	0.004
-580.806	-43.703	-0.160	-0.082
-579.792	50.776	0.202	0.195
-578.777	800.000	-0.108	0.321
-577.763	-200.000	0.004	0.311
-576.748	299.540	0.108	0.202
-575.733	-200.000	0.025	-0.152
-574.719	26.365	-0.202	0.172
-573.704	-141.740	0.182	-0.019
-572.690	433.751	-0.173	0.383
-571.675	-119.751	-0.458	-0.081
-570.661	93.666	-0.095	0.110
-569.646	-66.734	-0.109	-0.044
-568.631	-96.008	0.126	-0.034
-567.617	312.749	-0.130	-0.248
-566.602	-125.356	0.241	0.037
-565.588	251.068	-0.035	-0.061
-564.573	-38.119	-0.076	0.041
-563.558	569.980	-0.118	0.293
-562.544	-117.742	-0.152	-0.028
-561.529	162.507	-0.094	0.135
-560.515	-107.373	0.373	0.083
-559.500	467.045	-0.182	-0.416
-558.485	139.264	-0.163	0.218
-557.471	-200.000	-0.020	0.378
-556.456	-56.638	-0.248	0.112
-555.442	800.000	-0.048	-0.180
-554.427	622.630	0.101	-0.260
-553.412	-160.171	0.194	0.011
-552.398	8.395	0.184	-0.141
-551.383	-62.641	-0.185	-0.078
-550.369	62.583	0.052	-0.053
-549.354	-19.949	0.121	0.076
-548.339	264.725	0.215	-0.381
-547.325	30.070	0.223	0.194
-546.310	678.347	0.113	-0.300
-545.296	370.236	0.040	-0.083
-544.281	-96.791	0.183	0.049
-543.266	210.733	0.180	0.287
-542.252	-200.000	0.005	0.222
-541.237	-200.000	0.010	0.054
-540.223	-200.000	-0.018	0.105
-539.208	-118.635	-0.091	-0.016
-538.193	-200.000	-0.011	-0.317
-537.179	-77.517	0.107	-0.038
-536.164	530.275	-0.060	0.145
-535.150	-200.000	-0.016	-0.071
-534.135	-131.619	0.207	0.028
-533.121	167.960	-0.136	-0.197
-532.106	608.090	-0.055	-0.139
-531.091	12.473	0.082	0.064
-530.077	-79.544	-0.551	-0.189
-529.062	724.509	-0.075	-0.204
-528.048	-41.504	-0.173	0.091
-527.033	68.613	-0.136	-0.142
-526.018	69.979	-0.215	-0.226
-525.004	614.880	-0.004	-0.011
-523.989	357.141	0.179	-0.362
-522.975	-102.884	-0.299	-0.072
-521.960	10.239	0.096	0.074
-520.945	273.101	-0.145	0.260
-519.931	-80.926	-0.334	0.113
-518.916	-113.035	-0.256	0.051
-517.902	-157.671	-0.283	-0.017
-516.887	-129.829	-0.189	-0.026
-515.872	-29.687	-0.121	-0.070
-514.858	800.000	-0.041	-0.156
-513.843	-102.353	0.226	0.055
-512.829	800.000	0.062	0.215
-511.814	247.577	-0.069	0.119
-510.799	-200.000	-0.010	0.066
-509.785	800.000	0.043	-0.168
-508.770	-15.292	0.242	-0.157
-507.756	675.513	0.087	0.229
-506.741	269.981	-0.083	0.148
-505.726	-100.202	0.063	-0.016
-504.712	800.000	-0.057	-0.162
-503.697	113.354	0.113	-0.139
-502.683	-200.000	0.038	-0.000
-501.668	-200.000	0.028	-0.281
-500.653	-75.503	0.149	0.054
-499.639	-60.896	0.133	0.057
-498.624	187.707	-0.076	-0.115
-497.610	-158.041	0.161	-0.010
-496.595	75.952	0.036	-0.038
-495.581	-129.357	-0.099	0.014
-494.566	800.000	0.044	-0.179
-493.551	-125.102	0.362	-0.056
-492.537	207.199	-0.125	0.198
-491.522	-200.000	-0.007	0.054
-490.508	-109.169	0.222	0.048
-489.493	-43.573	0.112	0.057
-488.478	-134.803	0.373	-0.046
-487.464	191.181	-0.057	0.087
-486.449	-200.000	0.016	0.091
-485.435	-180.927	-0.356	0.007
-484.420	-200.000	0.002	-0.088
-483.405	152.220	0.047	-0.065
-482.391	-153.169	0.323	-0.023
-481.376	731.841	-0.144	-0.390
-480.362	238.225	-0.144	0.243
-479.347	800.000	-0.043	-0.156
-478.332	800.000	-0.060	-0.221
-477.318	800.000	-0.046	-0.160
-476.303	-1.566	0.104	0.074
-475.289	-19.931	0.167	-0.105
-474.274	-53.997	-0.342	-0.158
-473.259	429.963	0.040	0.088
-472.245	-169.859	-0.445	0.016
-471.230	122.653	0.193	0.245
-470.216	-22.707	-0.384	0.236
-469.201	-106.849	0.278	0.063
-468.186	-200.000	-0.079	-0.361
-467.172	-58.422	0.128	-0.057
-466.157	-142.294	-0.428	0.043
-465.143	-44.004	0.193	0.099
-464.128	72.535	-0.291	-0.307
-463.113	39.978	0.130	0.118
-462.099	800.000	-0.061	-0.267
-461.084	800.000	-0.045	0.126
-460.070	-200.000	-0.004	0.251
-459.055	-200.000	-0.072	0.331
-458.040	-200.000	0.012	-0.215
-457.026	441.664	-0.107	-0.237
-456.011	-172.649	0.404	-0.013
-454.997	800.000	-0.050	0.153
-453.982	241.779	-0.096	-0.163
-452.968	-200.000	-0.058	0.293
-451.953	253.147	-0.194	-0.336
-450.938	-200.000	0.031	0.210
-449.924	-200.000	0.027	-0.144
-448.909	-69.350	-0.230	0.090
-447.895	-200.000	0.005	0.206
-446.880	-200.000	-0.007	0.101
-445.865	-200.000	0.048	0.409
-444.851	30.456	0.121	0.104
-443.836	-200.000	-0.042	-0.360
-442.822	-151.450	0.421	-0.032
-441.807	543.841	0.032	0.078
-440.792	-28.187	0.153	-0.090
-439.778	-67.196	-0.093	0.037
-438.763	-200.000	0.019	0.391
-437.749	-67.649	0.071	0.028
-436.734	72.822	-0.145	0.154
-435.719	-40.111	0.426	0.225
-434.705	-85.185	0.130	-0.041
-433.690	388.853	0.051	-0.108
-432.676	-83.876	-0.342	0.110
-431.661	-44.004	0.085	-0.043
-430.646	25.500	0.299	0.252
-429.632	-151.903	-0.342	-0.025
-428.617	96.897	-0.219	-0.255
-427.603	-39.538	0.147	0.078
-426.588	-26.873	0.161	-0.095
-425.573	-37.788	0.180	0.097
-424.559	-43.698	-0.142	0.072
-423.544	-111.592	0.122	-0.025
-422.530	-93.658	0.211	-0.059
-421.515	-161.804	0.499	0.026
-420.500	32.263	-0.148	-0.129
-419.486	13.877	0.115	0.091
-418.471	-44.495	0.222	0.113
-417.457	345.159	-0.013	0.025
-416.442	196.922	0.146	0.225
-415.428	-44.537	0.183	-0.093
-414.413	800.000	-0.105	0.411
-413.398	257.213	0.102	0.178
-412.384	8.523	0.199	-0.151
-411.369	-134.417	-0.287	-0.036
-410.355	-200.000	0.001	-0.432
-409.340	-58.791	0.317	-0.139
-408.325	47.584	-0.144	0.136
-407.311	-123.017	-0.220	-0.036
-406.296	-62.703	0.341	-0.143
-405.282	91.405	-0.152	-0.173
-404.267	-200.000	-0.024	0.236
-403.252	-200.000	0.039	0.345
-402.238	219.004	0.171	-0.276
-401.223	-48.485	0.353	-0.172
-400.209	-84.611	0.135	0.043
-399.194	39.219	0.135	-0.123
-398.179	-129.322	-0.219	0.031
-397.165	184.107	0.102	0.152
-396.150	257.797	-0.149	0.259
-395.136	-200.000	-0.011	0.064
-394.121	79.340	0.297	0.322
-393.106	-115.634	0.224	0.043
-392.092	-78.291	-0.185	0.064
-391.077	-200.000	-0.044	0.225
-390.063	-119.729	-0.287	0.050
-389.048	417.052	-0.155	0.335
-388.033	-123.457	-0.402	-0.065
-387.019	800.000	0.112	-0.334
-386.004	-48.674	-0.235	-0.114
-384.990	752.847	-0.042	0.115
-383.975	-200.000	-0.003	-0.207
-382.960	-13.595	-0.200	-0.131
-381.946	130.071	0.064	0.083
-380.931	-92.281	0.191	0.054
-379.917	-200.000	0.090	-0.432
-378.902	437.047	0.090	-0.198
-377.888	-200.000	-0.024	0.115
-376.873	-200.000	-0.005	-0.102
-375.858	-25.335	-0.107	0.064
-374.844	-151.117	-0.186	0.014
-373.829	-83.838	0.287	0.092
-372.815	-65.181	-0.271	0.110
-371.800	-79.826	-0.163	0.056
-370.785	385.372	-0.089	0.186
-369.771	42.938	-0.138	0.127
-368.756	800.000	-0.032	-0.106
-367.742	-106.948	-0.411	0.092
-366.727	-200.000	-0.042	-0.254
-365.712	75.973	0.142	-0.152
-364.698	-200.000	0.007	0.390
-363.683	800.000	0.083	-0.288
-362.669	800.000	0.112	-0.377
-361.654	-86.393	0.092	-0.029
-360.639	-72.472	-0.339	0.126
-359.625	-141.204	0.135	-0.014
-358.610	-50.187	0.079	0.038
-357.596	-8.910	-0.136	0.092
-356.581	519.068	-0.139	0.328
-355.566	188.106	0.119	0.179
-354.552	561.423	-0.118	-0.287
-353.537	136.486	0.075	0.099
-352.523	-200.000	-0.034	-0.281
-351.508	154.632	-0.099	-0.137
-350.493	60.728	0.183	0.184
-349.479	-200.000	-0.010	-0.109
-348.464	-200.000	0.023	-0.339
-347.450	-200.000	0.010	0.126
-346.435	-131.360	-0.155	-0.021
-345.420	-49.135	0.414	0.200
-344.406	800.000	-0.064	-0.206
-343.391	-200.000	0.009	0.254
-342.377	-200.000	-0.007	0.115
-341.362	197.840	0.000	0.001
-340.348	-87.129	0.126	-0.039
-339.333	-89.620	-0.093	0.027
-338.318	183.387	-0.163	-0.244
-337.304	547.962	-0.142	-0.343
-336.289	159.081	-0.032	-0.045
-335.275	180.210	0.100	-0.148
-334.260	-97.051	-0.160	0.042
-333.245	800.000	0.081	-0.282
-332.231	-136.976	-0.035	0.004
-331.216	-200.000	0.063	0.425
-330.202	382.911	0.131	0.271
-329.187	-117.566	0.066	0.012
-328.172	-34.507	-0.307	0.170
-327.158	75.147	0.211	0.224
-326.143	-90.257	0.324	0.095
-325.129	56.256	-0.116	-0.114
-324.114	-200.000	-0.010	0.104
-323.099	752.277	-0.053	-0.144
-322.085	596.090	0.066	-0.165
-321.070	-73.974	-0.335	-0.123
-320.056	137.733	0.230	0.304
-319.041	112.623	-0.273	0.333
-318.026	30.126	-0.267	-0.230
-317.012	-195.447	0.243	0.002
-315.997	568.551	0.113	-0.278
-314.983	258.441	-0.118	0.205
-313.968	18.265	-0.193	0.156
-312.953	109.018	-0.216	-0.261
-311.939	-200.000	0.025	-0.314
-310.924	-141.201	-0.299	0.031
-309.910	800.000	0.085	-0.285
-308.895	3.376	-0.037	-0.027
-307.880	81.908	0.249	0.272
-306.866	-200.000	0.036	0.382
-305.851	-73.695	0.134	0.049
-304.837	800.000	0.009	-0.039
-303.822	125.717	-0.300	0.383
-302.807	-14.174	0.234	-0.152
-301.793	16.547	-0.280	-0.223
-300.778	65.014	0.147	-0.150
-299.764	-200.000	-0.005	0.110
-298.749	800.000	0.013	0.037
-297.735	-111.103	0.249	0.052
-296.720	800.000	0.064	-0.203
-295.705	-129.914	0.268	-0.037
-294.691	-171.635	0.222	-0.007
-293.676	59.838	0.094	-0.093
-292.662	-119.163	0.226	-0.040
-291.647	35.153	-0.110	0.097
-290.632	30.593	-0.103	-0.088
-289.618	-200.000	0.004	0.237
-288.603	-200.000	0.102	0.000
-287.589	711.104	0.004	0.011
-286.574	-81.961	0.191	-0.063
-285.559	0.283	-0.156	0.112
-284.545	10.713	-0.198	0.152
-283.530	-69.269	-0.080	-0.031
-282.516	-103.032	-0.190	0.045
-281.501	-28.789	-0.177	0.103
-280.486	32.908	-0.165	0.144
-279.472	294.299	-0.115	0.213
-278.457	-71.813	0.088	0.033
-277.443	333.192	0.109	-0.212
-276.428	-116.521	0.114	0.021
-275.413	214.198	0.235	-0.375
-274.399	56.681	-0.098	0.096
-273.384	-50.840	-0.064	-0.030
-272.370	33.744	-0.231	-0.203
-271.355	234.625	-0.061	0.102
-270.340	-164.150	-0.084	0.004
-269.326	173.679	0.094	-0.136
-268.311	691.678	0.011	-0.028
-267.297	-114.570	-0.083	0.016
-266.282	68.241	-0.151	-0.155
-265.267	33.249	-0.291	0.255
-264.253	362.199	-0.047	-0.094
-263.238	-200.000	-0.048	-0.309
-262.224	88.356	0.301	0.336
-261.209	48.358	-0.255	-0.241
-260.195	-90.408	0.273	0.080
-259.180	-87.266	0.484	-0.148
-258.165	245.637	-0.336	-0.570
-257.151	800.000	-0.033	0.144
-256.136	554.866	-0.082	-0.199
-255.122	-80.609	0.353	0.118
-254.107	29.882	0.005	0.004
-253.092	800.000	0.037	0.161
-252.078	-177.309	-0.043	0.001
-251.063	-200.000	-0.076	0.582
-250.049	8.341	0.270	0.204
-249.034	800.000	0.073	-0.264
-248.019	-60.578	0.348	0.149
-247.005	76.270	0.192	0.205
-245.990	-200.000	-0.001	0.276
-244.976	-53.332	0.161	0.074
-243.961	-107.380	-0.162	-0.036
-242.946	-64.339	0.260	-0.106
-241.932	-200.000	-0.007	-0.036
-240.917	-44.576	-0.202	-0.102
-239.903	47.276	0.222	-0.208
-238.888	-200.000	0.062	-0.285
-237.873	-74.404	-0.326	0.118
-236.859	263.413	-0.025	0.043
-235.844	44.461	0.120	-0.111
-234.830	800.000	-0.010	-0.031
-233.815	800.000	0.043	0.150
-232.800	-89.319	0.149	-0.044
-231.786	181.881	-0.016	-0.024
-230.771	-67.796	0.311	-0.122
-229.757	247.187	0.050	-0.085
-228.742	786.007	0.041	0.113
-227.727	-200.000	-0.014	-0.220
-226.713	-121.093	-0.401	0.068
-225.698	-98.407	-0.254	0.065
-224.684	-89.046	0.283	0.084
-223.669	-131.243	-0.210	-0.028
-222.655	-43.688	0.451	0.228
-221.640	-200.000	0.011	0.173
-220.625	267.951	0.087	0.153
-219.611	-200.000	-0.025	-0.275
-218.596	-200.000	-0.014	-0.065
-217.582	-82.059	-0.111	-0.036
-216.567	3.102	-0.271	-0.198
-215.552	-131.296	-0.112	0.015
-214.538	-4.672	0.174	0.121
-213.523	-81.288	0.030	0.010
-212.509	-200.000	-0.016	-0.163
-211.494	5.347	-0.414	0.307
-210.479	197.177	0.116	-0.178
-209.465	60.068	-0.193	-0.192
-208.450	542.606	0.089	-0.214
-207.436	-47.223	-0.216	0.106
-206.421	800.000	-0.045	0.166
-205.406	158.346	-0.259	-0.361
-204.392	513.231	-0.031	0.073
-203.377	-63.897	0.393	-0.162
-202.363	-200.000	-0.054	-0.252
-201.348	-15.668	0.109	-0.070
-200.333	289.916	0.148	0.270
-199.319	42.682	-0.090	0.082
-198.304	-100.940	-0.151	0.037
-197.290	-153.717	0.215	0.015
-196.275	181.383	0.252	0.372
-195.260	-200.000	-0.034	0.200
-194.246	187.148	0.071	-0.107
-193.231	139.914	0.281	-0.371
-192.217	-143.574	-0.057	-0.005
-191.202	-145.537	0.310	0.028
-190.187	231.785	0.087	0.144
-189.173	573.377	0.131	0.320
-188.158	-24.537	0.159	-0.095
-187.144	-81.381	0.021	0.007
-186.129	-200.000	-0.000	-0.113
-185.114	120.943	-0.079	0.098
-184.100	-110.576	0.129	0.027
-183.085	542.085	-0.076	0.183
-182.071	247.988	-0.206	-0.349
-181.056	-48.730	0.094	-0.045
-180.042	163.543	-0.158	0.224
-179.027	-200.000	0.022	-0.130
-178.012	-15.148	-0.116	0.075
-176.998	-108.444	-0.234	-0.051
-175.983	-200.000	-0.021	-0.324
-174.969	-62.913	0.055	-0.023
-173.954	-200.000	-0.011	0.197
-172.939	25.511	-0.448	-0.373
-171.925	800.000	0.052	0.161
-170.910	-200.000	-0.011	-0.202
-169.896	-200.000	-0.004	-0.046
-168.881	25.187	0.121	-0.101
-167.866	109.767	-0.118	0.142
-166.852	-120.049	0.285	-0.049
-165.837	-200.000	0.001	-0.108
-164.823	-200.000	-0.005	0.361
-163.808	-200.000	-0.066	0.467
-162.793	229.000	0.077	0.127
-161.779	797.184	0.099	-0.273
-160.764	-188.000	0.376	-0.005
-159.750	242.654	-0.127	-0.213
-158.735	124.609	0.117	-0.148
-157.720	90.820	-0.188	-0.211
-156.706	-200.000	0.007	0.049
-155.691	784.723	0.064	0.176
-154.677	158.638	0.200	-0.278
-153.662	-124.106	0.186	-0.029
-152.647	-111.330	-0.115	-0.024
-151.633	-57.680	0.215	0.095
-150.618	-78.902	0.136	0.046
-149.604	-171.313	0.262	0.009
-148.589	118.171	0.012	0.015
-147.574	-21.231	-0.093	-0.057
-146.560	-157.473	0.183	0.011
-145.545	85.069	-0.096	0.106
-144.531	-200.000	-0.013	-0.361
-143.516	-111.168	0.125	0.026
-142.502	-35.863	-0.232	0.126
-141.487	-125.254	-0.041	0.006
-140.472	-1.136	0.301	-0.213
-139.458	-100.682	0.205	-0.051
-138.443	-155.008	-0.221	0.015
-137.429	800.000	-0.036	-0.101
-136.414	88.029	-0.193	0.214
-135.399	219.608	-0.099	0.159
-134.385	62.882	-0.061	0.061
-133.370	-160.315	-0.135	0.007
-132.356	800.000	-0.021	-0.077
-131.341	-134.226	0.190	-0.023
-130.326	40.128	-0.048	-0.043
-129.312	-152.487	-0.072	-0.005
-128.297	-112.353	-0.117	0.023
-127.283	91.876	-0.083	-0.093
-126.268	-200.000	-0.022	-0.131
-125.253	-200.000	-0.023	0.231
-124.239	-64.153	0.070	0.029
-123.224	9.099	0.269	-0.203
-122.210	48.560	-0.070	0.065
