DTS Sentinel unit serial number:	SN413079Multiplexer serial number:	ORYXHardware model number:	OX4-SRSoftware version number:	ORYX F/W v4.00 Oryx Data Collector v3.7.2.0data status	okinstallation	princeton_trtdifferential loss correction	single-endedforward channel	channel 4reverse channel	N/Adate	2019/09/13time	08:33:34forward acquisition time	60.00reverse acquisition time	0.00gamma	496.2192k internal	0.2316k external	0.2316temperature offset calibration	1.0199default loss term (dB/km)	0.3790temperature slope calibration	1.0000multiplexer offset coefficient	1.0000multiplexer slope coefficient	1.0000fibre end	0.00T internal ref (°C)	27.58T ext. ref 1 (°C)	4.28T ext. ref 2 (°C)	24.52length (m)	temperature (°C)	Stokes	anti-Stokes-747.200	3.992	0.059	-0.044
-746.185	800.000	0.019	0.080
-745.171	227.115	0.021	-0.035
-744.156	-200.000	-0.043	0.311
-743.142	233.509	-0.087	0.144
-742.127	419.831	-0.160	0.346
-741.112	557.206	0.175	0.427
-740.098	297.566	0.181	0.337
-739.083	437.605	-0.106	-0.233
-738.069	117.259	-0.140	0.175
-737.054	4.090	0.263	0.195
-736.039	-75.044	-0.467	-0.169
-735.025	134.206	0.217	-0.285
-734.010	-61.370	-0.255	-0.109
-732.996	-52.327	0.200	-0.094
-731.981	-67.537	-0.536	0.213
-730.966	800.000	-0.078	0.293
-729.952	30.262	0.298	-0.257
-728.937	-11.554	-0.133	-0.089
-727.923	-58.697	-0.358	-0.157
-726.908	-48.694	0.284	-0.138
-725.894	139.717	-0.151	0.201
-724.879	-200.000	-0.026	-0.294
-723.864	565.074	0.048	0.117
-722.850	181.314	-0.170	0.253
-721.835	110.804	-0.051	0.063
-720.821	-164.894	0.063	-0.003
-719.806	67.983	-0.120	0.124
-718.791	-22.057	0.139	-0.085
-717.777	456.404	-0.101	-0.228
-716.762	-135.847	0.233	-0.028
-715.748	-53.371	-0.219	-0.101
-714.733	800.000	-0.108	-0.312
-713.718	-130.260	-0.118	0.016
-712.704	-200.000	-0.034	0.524
-711.689	-200.000	-0.062	-0.294
-710.675	92.850	-0.171	-0.195
-709.660	-55.833	0.178	-0.080
-708.645	800.000	0.050	-0.180
-707.631	-65.746	-0.133	-0.054
-706.616	-200.000	-0.072	-0.432
-705.602	131.454	0.180	0.233
-704.587	-127.926	0.166	-0.024
-703.572	-68.256	0.362	-0.142
-702.558	-200.000	-0.050	0.237
-701.543	-200.000	-0.019	0.402
-700.529	68.148	0.269	0.278
-699.514	130.234	-0.181	-0.234
-698.499	-200.000	-0.003	-0.169
-697.485	800.000	-0.088	-0.341
-696.470	-26.523	0.264	0.156
-695.456	-91.207	-0.154	0.045
-694.441	-200.000	0.029	-0.199
-693.426	-74.987	-0.182	-0.066
-692.412	117.081	0.115	-0.143
-691.397	252.134	0.059	0.102
-690.383	-71.896	-0.366	0.138
-689.368	29.861	0.094	0.081
-688.354	-149.597	-0.177	-0.014
-687.339	-200.000	0.005	0.068
-686.324	800.000	-0.077	-0.308
-685.310	-81.771	-0.090	-0.030
-684.295	123.393	0.107	0.136
-683.281	-12.607	0.108	0.071
-682.266	-153.602	-0.043	-0.003
-681.251	-20.405	0.120	-0.074
-680.237	41.377	0.147	0.134
-679.222	224.344	0.199	-0.325
-678.208	92.619	-0.125	0.143
-677.193	124.782	-0.190	-0.241
-676.178	-5.430	0.131	0.091
-675.164	-104.994	-0.237	0.055
-674.149	-107.950	0.117	-0.026
-673.135	800.000	0.151	0.428
-672.120	-200.000	-0.004	-0.044
-671.105	-44.656	-0.277	-0.140
-670.091	696.689	0.097	-0.258
-669.076	-192.777	0.332	-0.003
-668.062	-11.191	0.080	0.053
-667.047	27.153	0.095	-0.080
-666.032	-200.000	-0.012	-0.139
-665.018	-200.000	0.010	-0.103
-664.003	18.647	-0.074	0.060
-662.989	800.000	-0.018	-0.066
-661.974	-55.012	0.275	0.125
-660.959	-157.290	-0.283	-0.017
-659.945	-20.586	0.456	0.283
-658.930	86.907	-0.158	0.176
-657.916	-154.804	-0.345	-0.023
-656.901	63.732	-0.123	0.124
-655.886	-200.000	0.008	0.093
-654.872	55.789	-0.134	0.131
-653.857	217.022	-0.095	-0.153
-652.843	43.152	-0.217	0.200
-651.828	-171.567	0.130	-0.004
-650.814	800.000	0.082	-0.285
-649.799	-33.856	0.217	-0.121
-648.784	24.811	0.037	-0.031
-647.770	-3.121	-0.339	-0.238
-646.755	800.000	-0.123	-0.353
-645.741	206.835	0.126	-0.197
-644.726	143.295	0.044	0.059
-643.711	403.139	0.108	-0.228
-642.697	-200.000	0.021	-0.163
-641.682	800.000	0.026	-0.083
-640.668	193.156	0.017	-0.026
-639.653	-51.059	0.399	-0.189
-638.638	305.873	0.127	-0.239
-637.624	178.755	-0.034	-0.050
-636.609	120.327	0.015	-0.019
-635.595	800.000	-0.070	-0.240
-634.580	437.962	-0.022	0.049
-633.565	-85.609	0.067	0.021
-632.551	-33.628	-0.276	0.154
-631.536	340.144	0.028	-0.055
-630.522	-192.353	-0.068	0.001
-629.507	33.787	0.111	0.098
-628.492	-146.740	0.176	-0.015
-627.478	800.000	-0.015	-0.064
-626.463	-119.794	-0.105	0.018
-625.449	-11.925	0.091	-0.060
-624.434	-139.430	0.295	-0.032
-623.419	231.837	-0.328	0.543
-622.405	-35.092	0.164	-0.090
-621.390	-200.000	0.032	-0.312
-620.376	-96.987	-0.143	0.038
-619.361	7.506	0.051	0.039
-618.346	-124.087	0.118	-0.019
-617.332	-47.682	-0.253	0.124
-616.317	190.918	0.136	-0.206
-615.303	158.979	-0.024	-0.033
-614.288	-63.274	0.117	0.048
-613.273	-78.262	-0.287	-0.099
-612.259	-56.958	0.074	-0.033
-611.244	495.263	0.152	0.351
-610.230	-92.993	-0.076	-0.021
-609.215	343.727	-0.146	0.289
-608.201	463.765	-0.109	0.245
-607.186	353.374	-0.178	0.355
-606.171	70.303	0.187	-0.195
-605.157	468.369	-0.141	-0.318
-604.142	205.553	0.154	-0.241
-603.128	-127.629	-0.307	0.045
-602.113	-152.714	0.345	-0.025
-601.098	6.649	-0.170	0.127
-600.084	-200.000	0.057	0.273
-599.069	800.000	-0.129	-0.489
-598.055	-21.523	0.077	-0.048
-597.040	1.934	0.232	0.169
-596.025	800.000	0.145	0.483
-595.011	-106.986	0.175	0.039
-593.996	-133.701	0.319	0.040
-592.982	-200.000	-0.038	-0.349
-591.967	209.642	-0.231	-0.365
-590.952	-200.000	0.031	-0.213
-589.938	800.000	-0.153	-0.544
-588.923	225.468	0.059	0.096
-587.909	-66.753	-0.388	0.155
-586.894	423.653	-0.119	-0.258
-585.879	800.000	-0.046	-0.154
-584.865	27.343	-0.171	0.144
-583.850	800.000	0.017	0.071
-582.836	-126.298	-0.171	0.026
-581.821	-193.493	0.114	-0.001
-580.806	800.000	0.024	-0.098
-579.792	193.701	-0.141	0.214
-578.777	-81.349	-0.157	-0.052
-577.763	283.780	0.073	-0.133
-576.748	-200.000	0.015	-0.277
-575.733	-72.505	-0.216	0.080
-574.719	-200.000	0.044	-0.280
-573.704	38.269	0.037	0.033
-572.690	-83.944	0.279	-0.089
-571.675	244.863	0.107	0.180
-570.661	178.545	0.038	-0.055
-569.646	4.118	0.067	0.050
-568.631	11.110	-0.325	-0.250
-567.617	231.316	-0.147	-0.242
-566.602	-27.096	-0.244	-0.143
-565.588	711.562	0.039	0.104
-564.573	144.659	0.225	0.303
-563.558	-46.772	0.157	0.077
-562.544	727.675	-0.016	-0.042
-561.529	800.000	-0.107	-0.392
-560.515	-200.000	-0.036	0.164
-559.500	68.032	0.139	0.143
-558.485	-98.788	-0.266	0.068
-557.471	800.000	0.104	-0.341
-556.456	800.000	0.102	0.429
-555.442	-148.586	0.386	0.032
-554.427	800.000	0.080	0.352
-553.412	-68.486	-0.242	-0.094
-552.398	-34.080	-0.368	-0.203
-551.383	-200.000	0.005	0.226
-550.369	-4.219	0.234	-0.163
-549.354	-114.484	-0.035	0.007
-548.339	24.249	0.078	-0.065
-547.325	-58.892	-0.129	-0.056
-546.310	-15.010	-0.143	-0.092
-545.296	-200.000	0.051	-0.287
-544.281	64.599	0.208	-0.211
-543.266	166.581	0.049	0.070
-542.252	-176.249	0.211	-0.006
-541.237	-105.124	-0.173	0.040
-540.223	100.456	-0.035	-0.041
-539.208	-68.353	-0.203	-0.079
-538.193	-159.447	0.496	-0.028
-537.179	800.000	0.047	-0.150
-536.164	-178.984	-0.114	-0.003
-535.150	-200.000	0.037	-0.169
-534.135	689.506	0.017	-0.045
-533.121	800.000	0.112	0.323
-532.106	264.565	-0.115	0.201
-531.091	550.086	-0.074	0.177
-530.077	241.390	-0.057	0.096
-529.062	63.316	-0.166	-0.167
-528.048	800.000	0.044	-0.156
-527.033	82.187	0.259	-0.282
-526.018	-21.542	-0.066	-0.040
-525.004	445.503	-0.133	0.293
-523.989	-52.967	-0.131	0.060
-522.975	800.000	-0.023	-0.064
-521.960	372.293	0.030	0.062
-520.945	-200.000	0.046	0.426
-519.931	168.852	-0.082	-0.118
-518.916	-100.427	0.250	0.062
-517.902	-140.273	0.156	0.016
-516.887	-35.647	0.205	-0.112
-515.872	-200.000	-0.044	0.305
-514.858	-17.028	-0.071	0.045
-513.843	757.262	0.017	0.047
-512.829	-108.621	-0.148	-0.032
-511.814	-104.250	-0.110	-0.026
-510.799	78.369	0.255	-0.273
-509.785	-200.000	-0.049	-0.219
-508.770	661.109	-0.112	-0.290
-507.756	-200.000	-0.004	0.072
-506.741	-200.000	0.000	-0.040
-505.726	142.721	0.031	-0.041
-504.712	-136.317	0.333	-0.039
-503.697	-63.380	0.332	-0.137
-502.683	80.837	-0.072	-0.078
-501.668	227.551	0.153	0.250
-500.653	800.000	-0.059	0.180
-499.639	251.148	-0.123	-0.210
-498.624	-7.469	-0.118	0.080
-497.610	141.656	0.142	-0.188
-496.595	-26.688	0.141	-0.083
-495.581	113.353	-0.238	-0.290
-494.566	78.379	-0.075	-0.080
-493.551	-171.814	-0.192	0.006
-492.537	-4.102	-0.260	0.180
-491.522	-116.341	0.250	0.046
-490.508	90.104	0.019	-0.021
-489.493	-73.060	-0.184	0.068
-488.478	110.905	0.160	0.193
-487.464	800.000	0.041	0.130
-486.449	-110.142	-0.335	0.070
-485.435	-200.000	-0.010	-0.173
-484.420	-38.406	0.161	-0.085
-483.405	562.432	0.023	0.055
-482.391	30.178	-0.114	-0.098
-481.376	-76.104	0.440	-0.156
-480.362	-51.317	0.136	-0.064
-479.347	-200.000	0.041	-0.477
-478.332	402.699	-0.133	0.281
-477.318	4.248	0.084	0.061
-476.303	349.166	0.124	0.245
-475.289	-62.391	-0.103	0.043
-474.274	210.204	0.060	0.094
-473.259	-200.000	-0.012	0.099
-472.245	-102.943	-0.048	0.011
-471.230	-41.304	-0.226	0.116
-470.216	800.000	-0.011	0.046
-469.201	-97.458	0.213	0.056
-468.186	-92.710	0.170	-0.048
-467.172	-200.000	0.008	0.068
-466.157	320.781	-0.117	-0.223
-465.143	13.486	-0.353	0.274
-464.128	800.000	-0.056	0.242
-463.113	800.000	0.065	-0.233
-462.099	288.285	-0.146	-0.264
-461.084	-193.152	-0.127	0.001
-460.070	-142.651	-0.124	-0.012
-459.055	466.661	-0.121	-0.273
-458.040	-43.138	0.125	0.063
-457.026	800.000	-0.034	-0.114
-456.011	-32.759	0.360	0.200
-454.997	-104.926	-0.226	-0.052
-453.982	-200.000	-0.005	0.067
-452.968	-58.869	0.123	0.053
-451.953	13.926	0.081	-0.063
-450.938	-98.635	-0.219	0.056
-449.924	10.604	-0.308	0.235
-448.909	-8.262	0.195	-0.132
-447.895	-200.000	0.020	-0.369
-446.880	-11.608	-0.262	0.172
-445.865	56.856	-0.264	-0.257
-444.851	-200.000	-0.014	0.168
-443.836	-74.239	-0.088	-0.032
-442.822	321.704	-0.087	0.165
-441.807	-77.442	0.196	0.068
-440.792	-145.323	-0.477	0.043
-439.778	-76.316	0.479	-0.169
-438.763	8.118	-0.112	0.084
-437.749	323.608	-0.098	-0.187
-436.734	-45.922	-0.208	-0.103
-435.719	-200.000	-0.021	-0.132
-434.705	-37.353	-0.115	-0.061
-433.690	345.503	0.104	0.205
-432.676	-12.595	0.348	0.227
-431.661	-200.000	0.015	-0.215
-430.646	800.000	0.059	0.172
-429.632	250.480	0.140	0.237
-428.617	-106.785	0.092	0.020
-427.603	191.052	0.101	-0.151
-426.588	76.444	0.155	0.164
-425.573	109.888	0.188	-0.226
-424.559	338.010	0.090	0.176
-423.544	-33.028	-0.438	0.243
-422.530	-68.866	-0.181	-0.070
-421.515	149.294	0.090	0.122
-420.500	90.095	-0.117	-0.131
-419.486	-115.387	-0.291	-0.055
-418.471	79.549	0.192	0.206
-417.457	-131.673	-0.216	0.028
-416.442	390.857	0.069	-0.142
-415.428	287.513	-0.098	-0.177
-414.413	-94.857	0.109	0.030
-413.398	-51.020	-0.224	0.105
-412.384	-199.726	0.186	-0.001
-411.369	-86.699	-0.132	-0.040
-410.355	442.728	0.068	0.149
-409.340	65.471	-0.095	0.096
-408.325	361.637	-0.142	0.284
-407.311	134.073	-0.055	0.071
-406.296	800.000	-0.082	-0.283
-405.282	800.000	0.007	0.026
-404.267	800.000	0.064	-0.191
-403.252	583.784	0.104	-0.256
-402.238	626.824	0.109	-0.275
-401.223	-200.000	-0.008	0.297
-400.209	348.368	0.056	-0.111
-399.194	202.121	-0.067	0.103
-398.179	25.195	-0.044	0.037
-397.165	-4.667	-0.285	0.196
-396.150	233.850	-0.062	-0.102
-395.136	-200.000	-0.016	-0.367
-394.121	-23.185	0.309	-0.186
-393.106	-85.804	-0.117	-0.036
-392.092	-98.534	0.075	-0.019
-391.077	280.599	-0.137	-0.244
-390.063	182.391	-0.078	-0.115
-389.048	-43.131	-0.131	0.066
-388.033	-55.659	-0.149	0.067
-387.019	394.220	-0.128	0.266
-386.004	-79.130	0.319	-0.108
-384.990	-67.038	0.265	0.105
-383.975	-161.785	0.383	-0.019
-382.960	134.996	-0.132	-0.171
-381.946	-200.000	0.010	-0.084
-380.931	73.155	0.066	-0.069
-379.917	19.561	0.123	-0.099
-378.902	-56.282	0.191	0.085
-377.888	-83.005	0.136	-0.044
-376.873	111.550	0.210	0.253
-375.858	231.277	0.078	-0.127
-374.844	-200.000	-0.010	-0.229
-373.829	339.351	0.079	0.153
-372.815	99.313	-0.069	-0.080
-371.800	-200.000	-0.012	0.164
-370.785	432.390	0.062	0.135
-369.771	-76.901	0.289	0.101
-368.756	14.894	0.175	-0.137
-367.742	-133.181	0.262	-0.033
-366.727	-93.897	0.423	0.116
-365.712	-60.388	-0.160	-0.068
-364.698	-51.552	-0.105	-0.049
-363.683	2.669	0.287	-0.208
-362.669	-200.000	-0.099	0.456
-361.654	800.000	0.089	0.257
-360.639	-143.337	0.216	0.021
-359.625	-90.471	-0.276	-0.080
-358.610	-91.989	-0.345	-0.097
-357.596	528.200	0.108	-0.254
-356.581	222.498	-0.142	-0.227
-355.566	-99.601	0.270	0.068
-354.552	-70.106	-0.123	-0.047
-353.537	138.882	-0.012	-0.016
-352.523	140.882	-0.139	0.184
-351.508	-19.439	-0.133	-0.082
-350.493	-158.576	-0.086	0.005
-349.479	423.928	-0.019	-0.042
-348.464	-66.488	0.265	-0.105
-347.450	-41.542	0.058	-0.030
-346.435	800.000	0.016	-0.052
-345.420	12.826	-0.142	0.109
-344.406	51.721	-0.085	0.081
-343.391	361.995	-0.162	0.325
-342.377	-190.106	-0.116	-0.001
-341.362	335.783	0.081	0.156
-340.348	-200.000	0.002	-0.083
-339.333	710.274	0.112	0.295
-338.318	-19.209	-0.350	0.216
-337.304	800.000	0.027	-0.111
-336.289	-197.156	-0.341	-0.002
-335.275	61.916	-0.194	-0.193
-334.260	82.467	0.225	-0.244
-333.245	533.478	0.093	0.219
-332.231	-69.453	0.268	0.102
-331.216	150.384	-0.130	0.176
-330.202	-151.086	0.256	0.019
-329.187	-83.113	-0.290	-0.093
-328.172	453.979	-0.087	0.191
-327.158	355.383	-0.102	-0.203
-326.143	-100.178	0.043	-0.011
-325.129	-102.375	-0.175	-0.042
-324.114	-143.563	-0.210	-0.020
-323.099	-200.000	-0.017	0.178
-322.085	28.296	0.324	0.272
-321.070	-167.168	-0.258	-0.010
-320.056	-81.267	-0.268	-0.088
-319.041	800.000	0.059	-0.255
-318.026	-89.389	-0.096	-0.028
-317.012	-200.000	0.014	0.238
-315.997	4.033	-0.306	-0.223
-314.983	-200.000	0.015	-0.095
-313.968	-200.000	-0.024	0.111
-312.953	-121.343	-0.322	-0.053
-311.939	-24.904	-0.139	-0.082
-310.924	16.231	-0.112	-0.088
-309.910	297.793	0.110	0.200
-308.895	-15.119	-0.421	-0.269
-307.880	800.000	0.093	-0.351
-306.866	-193.108	0.140	-0.001
-305.851	-56.966	-0.076	-0.034
-304.837	-64.099	-0.347	0.141
-303.822	-125.752	-0.239	0.036
-302.807	126.335	-0.211	-0.266
-301.793	-159.833	0.333	-0.018
-300.778	717.877	-0.097	-0.258
-299.764	-200.000	-0.009	0.152
-298.749	411.120	0.035	0.073
-297.735	-103.189	0.035	0.008
-296.720	125.527	0.167	0.210
-295.705	112.070	0.300	-0.360
-294.691	-175.495	0.288	0.008
-293.676	-95.197	-0.429	-0.115
-292.662	211.968	-0.017	0.027
-291.647	800.000	0.033	0.118
-290.632	25.131	-0.136	0.112
-289.618	-85.095	-0.138	-0.043
-288.603	-200.000	0.083	0.457
-287.589	-107.565	0.211	-0.046
-286.574	-200.000	-0.010	0.274
-285.559	70.487	0.079	0.081
-284.545	800.000	0.090	-0.358
-283.530	-82.790	0.093	-0.030
-282.516	175.385	0.261	0.376
-281.501	-63.808	-0.358	-0.146
-280.486	-83.348	-0.509	-0.163
-279.472	-200.000	-0.039	0.546
-278.457	-166.388	-0.119	0.005
-277.443	-200.000	0.024	0.177
-276.428	538.287	-0.173	-0.410
-275.413	11.529	-0.339	0.259
-274.399	171.308	-0.199	0.283
-273.384	704.685	0.051	0.134
-272.370	588.989	-0.046	0.112
-271.355	286.920	0.016	-0.030
-270.340	-200.000	-0.051	0.277
-269.326	75.587	0.137	0.144
-268.311	-182.010	-0.123	0.002
-267.297	-200.000	0.052	-0.261
-266.282	800.000	-0.081	0.326
-265.267	32.476	-0.315	0.270
-264.253	-200.000	-0.001	0.253
-263.238	120.388	0.154	0.190
-262.224	-174.987	0.270	0.008
-261.209	800.000	-0.053	-0.196
-260.195	-157.474	-0.093	0.006
-259.180	120.812	0.083	-0.103
-258.165	-141.909	-0.359	-0.036
-257.151	181.193	-0.331	-0.484
-256.136	-77.761	0.143	-0.049
-255.122	517.138	-0.061	-0.142
-254.107	57.262	-0.160	-0.156
-253.092	36.512	0.301	-0.264
-252.078	-194.866	-0.046	-0.000
-251.063	84.131	-0.271	0.295
-250.049	-18.834	-0.190	-0.118
-249.034	198.527	0.126	0.192
-248.019	117.365	-0.204	0.249
-247.005	44.032	0.082	-0.075
-245.990	-77.409	0.236	-0.081
-244.976	-200.000	-0.004	0.092
-243.961	293.375	0.050	0.090
-242.946	-79.567	-0.206	0.069
-241.932	-3.288	0.099	-0.068
-240.917	-121.810	0.254	-0.042
-239.903	-115.923	-0.229	-0.042
-238.888	-200.000	0.001	0.225
-237.873	-200.000	0.037	0.229
-236.859	-200.000	0.048	0.208
-235.844	303.223	0.038	0.069
-234.830	-112.456	-0.189	-0.037
-233.815	788.477	0.117	0.320
-232.800	19.963	0.192	0.154
-231.786	-66.473	0.410	-0.162
-230.771	-200.000	-0.041	-0.443
-229.757	-140.998	0.318	0.032
-228.742	54.441	-0.188	0.180
-227.727	120.159	0.033	0.041
-226.713	-173.310	-0.355	0.011
-225.698	671.823	0.080	0.207
-224.684	169.876	0.101	-0.144
-223.669	-16.597	-0.110	0.069
-222.655	56.966	0.282	-0.273
-221.640	39.467	0.111	0.099
-220.625	-200.000	0.024	-0.123
-219.611	-131.418	0.275	-0.036
-218.596	-200.000	-0.016	-0.103
-217.582	-41.321	0.319	0.163
-216.567	-200.000	0.006	0.108
-215.552	147.033	0.159	0.213
-214.538	24.139	0.187	0.153
-213.523	183.006	0.052	-0.076
-212.509	169.539	-0.094	0.134
-211.494	-16.422	0.260	0.163
-210.479	49.547	0.199	0.186
-209.465	800.000	-0.064	-0.208
-208.450	-74.973	-0.081	-0.029
-207.436	-200.000	0.054	0.330
-206.421	40.826	0.139	-0.124
-205.406	-68.353	0.307	-0.118
-204.392	-32.881	-0.291	0.160
-203.377	-19.047	0.073	0.045
-202.363	-132.845	-0.086	0.011
-201.348	-200.000	0.036	0.323
-200.333	-7.897	-0.455	0.304
-199.319	86.912	0.209	-0.228
-198.304	52.471	0.165	0.157
-197.290	30.552	-0.068	0.057
-196.275	11.633	-0.271	-0.206
-195.260	419.938	0.244	0.518
-194.246	268.732	0.187	0.325
-193.231	-170.797	-0.358	-0.012
-192.217	44.880	0.152	0.139
-191.202	-23.211	0.294	-0.175
-190.187	-54.314	0.097	-0.044
-189.173	-160.916	-0.373	-0.019
-188.158	800.000	-0.134	-0.380
-187.144	-167.528	-0.327	-0.013
-186.129	18.576	0.213	-0.169
-185.114	-69.454	-0.268	-0.102
-184.100	-200.000	0.006	0.280
-183.085	81.166	0.154	-0.164
-182.071	-81.889	-0.037	0.012
-181.056	68.301	0.115	-0.116
-180.042	800.000	0.044	0.171
-179.027	-15.558	-0.297	-0.188
-178.012	776.635	-0.002	0.004
-176.998	-200.000	-0.041	0.227
-175.983	-76.338	0.166	0.058
-174.969	800.000	-0.045	-0.173
-173.954	-64.734	0.235	0.094
-172.939	496.023	0.059	0.134
-171.925	553.838	0.035	-0.083
-170.910	-78.850	0.075	-0.025
-169.896	202.522	0.169	-0.259
-168.881	-200.000	0.008	-0.038
-167.866	273.902	-0.032	0.057
-166.852	-105.754	-0.171	-0.038
-165.837	-1.498	0.039	-0.027
-164.823	-78.947	0.220	-0.074
-163.808	54.988	0.064	0.061
-162.793	20.020	0.295	0.235
-161.779	229.331	-0.041	0.066
-160.764	103.230	0.148	-0.172
-159.750	-41.778	0.126	0.064
-158.735	-1.279	0.369	-0.258
-157.720	57.675	-0.122	0.118
-156.706	-132.984	-0.042	-0.005
-155.691	800.000	0.058	0.228
-154.677	800.000	0.004	0.015
-153.662	62.630	0.164	0.163
-152.647	379.339	0.132	0.268
-151.633	493.085	0.159	-0.362
-150.618	269.772	0.109	-0.189
-149.604	154.591	-0.153	-0.207
-148.589	295.279	-0.092	0.166
-147.574	-69.209	0.170	0.065
-146.560	97.867	0.102	0.116
-145.545	-200.000	-0.071	0.327
-144.531	111.131	0.211	0.251
-143.516	-46.033	0.347	-0.169
-142.502	800.000	0.062	-0.192
-141.487	201.223	-0.013	0.021
-140.472	107.963	0.220	0.259
-139.458	-200.000	0.071	-0.399
-138.443	65.505	0.101	0.101
-137.429	-200.000	-0.034	0.155
-136.414	-99.365	0.516	-0.129
-135.399	-90.272	0.030	-0.009
-134.385	-138.225	-0.059	0.006
-133.370	-29.380	0.142	-0.080
-132.356	800.000	-0.068	-0.226
-131.341	100.236	-0.095	-0.108
-130.326	-149.217	0.162	-0.013
-129.312	-200.000	0.016	0.389
-128.297	-87.954	0.279	-0.083
-127.283	-174.935	0.168	0.005
-126.268	124.942	-0.119	0.148
-125.253	76.996	0.117	-0.123
-124.239	800.000	-0.074	0.296
-123.224	55.755	-0.238	-0.228
-122.210	-180.122	0.153	0.003
-121.195	-200.000	-0.022	0.434
