DTS Sentinel unit serial number:	SN413079Multiplexer serial number:	ORYXHardware model number:	OX4-SRSoftware version number:	ORYX F/W v4.00 Oryx Data Collector v3.7.2.0data status	okinstallation	princeton_trtdifferential loss correction	single-endedforward channel	channel 4reverse channel	N/Adate	2019/09/18time	08:25:35forward acquisition time	60.00reverse acquisition time	0.00gamma	496.2192k internal	0.2328k external	0.2328temperature offset calibration	0.9990default loss term (dB/km)	0.3790temperature slope calibration	1.0000multiplexer offset coefficient	1.0000multiplexer slope coefficient	1.0000fibre end	0.00T internal ref (°C)	24.19T ext. ref 1 (°C)	0.21T ext. ref 2 (°C)	19.91length (m)	temperature (°C)	Stokes	anti-Stokes-747.200	-200.000	-0.022	0.267
-746.185	737.591	-0.112	0.302
-745.171	-51.001	0.156	0.074
-744.156	101.317	-0.124	0.146
-743.142	-4.186	-0.151	0.106
-742.127	-118.258	-0.247	0.044
-741.112	800.000	0.102	-0.387
-740.098	-6.012	-0.284	0.196
-739.083	-200.000	0.000	-0.236
-738.069	40.219	0.128	0.116
-737.054	-157.910	-0.007	-0.000
-736.039	-99.494	-0.396	0.100
-735.025	-127.154	0.151	-0.022
-734.010	224.396	-0.060	0.098
-732.996	-200.000	0.005	-0.133
-731.981	-19.204	0.100	0.062
-730.966	-152.918	-0.064	-0.005
-729.952	44.648	0.158	-0.146
-728.937	1.540	-0.070	0.051
-727.923	800.000	0.146	0.446
-726.908	509.404	0.074	-0.174
-725.894	-109.109	0.417	-0.089
-724.879	-200.000	0.031	0.303
-723.864	-200.000	0.051	-0.328
-722.850	369.813	-0.099	-0.202
-721.835	399.020	0.021	-0.045
-720.821	304.359	-0.056	-0.105
-719.806	323.874	-0.078	-0.150
-718.791	-200.000	-0.034	-0.219
-717.777	230.515	0.131	-0.216
-716.762	400.282	-0.067	-0.141
-715.748	52.172	0.164	-0.158
-714.733	-200.000	-0.023	0.129
-713.718	-23.690	-0.507	0.306
-712.704	1.621	-0.131	-0.095
-711.689	800.000	-0.094	-0.332
-710.675	800.000	-0.036	-0.129
-709.660	448.359	-0.061	-0.136
-708.645	10.245	0.131	0.100
-707.631	620.464	-0.014	0.034
-706.616	472.277	-0.094	0.213
-705.602	-129.911	-0.246	0.034
-704.587	-77.704	0.239	0.083
-703.572	-164.005	-0.181	-0.008
-702.558	-111.036	0.339	-0.070
-701.543	120.470	-0.097	-0.121
-700.529	-78.513	0.261	0.090
-699.514	89.933	-0.219	-0.246
-698.499	-96.982	-0.152	-0.040
-697.485	-200.000	0.022	-0.253
-696.470	-200.000	-0.062	-0.387
-695.456	-86.080	-0.102	0.032
-694.441	91.670	0.470	0.532
-693.426	169.497	-0.126	-0.180
-692.412	-59.599	0.329	-0.142
-691.397	-200.000	0.006	-0.145
-690.383	-200.000	0.028	-0.239
-689.368	-41.607	0.065	0.034
-688.354	800.000	-0.074	-0.294
-687.339	264.195	0.043	-0.075
-686.324	-52.238	0.133	0.062
-685.310	107.964	-0.170	0.204
-684.295	748.529	-0.114	0.308
-683.281	800.000	-0.057	-0.171
-682.266	800.000	-0.052	-0.228
-681.251	-200.000	0.007	0.058
-680.237	190.000	0.096	0.145
-679.222	-98.150	-0.487	0.126
-678.208	-137.776	-0.146	-0.016
-677.193	33.662	-0.091	0.080
-676.178	25.831	-0.066	0.055
-675.164	131.459	-0.181	0.234
-674.149	104.092	-0.102	0.121
-673.135	97.911	-0.123	0.142
-672.120	754.584	-0.028	0.076
-671.105	57.859	-0.210	0.207
-670.091	-71.253	-0.389	-0.147
-669.076	56.351	-0.179	-0.174
-668.062	-3.322	0.152	-0.106
-667.047	282.569	0.079	-0.142
-666.032	-88.971	0.234	0.070
-665.018	111.957	0.246	-0.298
-664.003	38.381	0.199	-0.178
-662.989	-200.000	0.004	-0.279
-661.974	-119.289	-0.182	-0.032
-660.959	56.346	-0.157	-0.153
-659.945	800.000	-0.026	0.099
-658.930	-104.465	0.375	-0.087
-657.916	411.208	0.151	0.321
-656.901	244.916	0.254	0.430
-655.886	25.984	0.089	-0.075
-654.872	-131.328	0.136	0.018
-653.857	-126.513	-0.089	0.013
-652.843	74.157	0.252	-0.265
-651.828	-140.179	0.107	0.011
-650.814	-123.003	0.138	0.022
-649.799	-119.551	-0.513	0.089
-648.784	-31.843	-0.214	0.121
-647.770	296.925	-0.040	0.074
-646.755	-18.624	0.126	-0.079
-645.741	19.259	-0.347	-0.280
-644.726	-200.000	0.010	0.075
-643.711	11.463	-0.209	0.160
-642.697	-200.000	0.007	0.055
-641.682	580.248	-0.101	0.249
-640.668	-150.763	-0.130	0.010
-639.653	-43.987	0.326	-0.164
-638.638	-2.494	-0.245	-0.172
-637.624	756.604	0.037	0.100
-636.609	208.340	-0.123	-0.193
-635.595	-48.850	-0.370	-0.178
-634.580	800.000	-0.045	0.166
-633.565	20.930	-0.134	0.109
-632.551	-200.000	0.023	-0.221
-631.536	-2.455	-0.227	-0.160
-630.522	-19.709	-0.090	0.056
-629.507	-70.105	0.247	0.094
-628.492	-200.000	-0.031	-0.248
-627.478	-13.379	-0.067	-0.043
-626.463	96.578	0.013	0.015
-625.449	-200.000	0.035	0.232
-624.434	384.339	-0.146	-0.302
-623.419	87.630	0.254	-0.283
-622.405	-7.501	-0.195	0.133
-621.390	24.358	0.204	0.169
-620.376	-200.000	-0.039	-0.184
-619.361	-193.921	0.295	-0.002
-618.346	85.552	0.208	0.229
-617.332	73.307	0.193	0.202
-616.317	76.993	-0.024	0.026
-615.303	-60.058	-0.153	-0.065
-614.288	-7.228	0.250	0.170
-613.273	131.919	-0.011	0.014
-612.259	-176.788	0.484	-0.012
-611.244	391.523	0.118	0.246
-610.230	800.000	-0.087	-0.300
-609.215	-22.506	-0.052	0.032
-608.201	-200.000	-0.015	0.299
-607.186	-174.895	-0.225	-0.006
-606.171	-165.319	-0.154	0.007
-605.157	-40.444	0.055	0.029
-604.142	-1.819	0.145	-0.102
-603.128	707.297	-0.186	-0.492
-602.113	-200.000	0.045	-0.207
-601.098	-186.190	0.298	0.004
-600.084	82.753	-0.009	0.010
-599.069	-176.909	-0.338	-0.009
-598.055	477.664	0.041	0.092
-597.040	-68.070	-0.309	-0.121
-596.025	-13.565	0.283	0.184
-595.011	-200.000	0.052	0.271
-593.996	329.885	-0.071	-0.136
-592.982	311.790	0.186	-0.350
-591.967	-184.084	0.247	0.004
-590.952	800.000	-0.056	0.162
-589.938	77.744	0.025	-0.027
-588.923	-35.139	-0.178	0.097
-587.909	422.582	0.039	0.083
-586.894	800.000	-0.060	-0.182
-585.879	800.000	-0.044	0.176
-584.865	-200.000	-0.023	-0.349
-583.850	-73.368	-0.053	-0.019
-582.836	-18.382	0.103	-0.064
-581.821	605.649	-0.041	-0.103
-580.806	-200.000	-0.010	0.194
-579.792	61.159	-0.147	0.147
-578.777	-200.000	0.048	0.232
-577.763	27.994	-0.066	-0.056
-576.748	-44.939	0.365	-0.182
-575.733	99.100	-0.309	-0.358
-574.719	82.789	0.161	0.175
-573.704	473.612	0.077	0.175
-572.690	-200.000	0.007	-0.041
-571.675	-24.975	-0.172	-0.102
-570.661	-75.102	-0.091	-0.032
-569.646	14.991	0.162	-0.127
-568.631	-200.000	0.019	-0.250
-567.617	800.000	0.029	-0.112
-566.602	185.095	-0.291	0.432
-565.588	120.791	0.058	0.072
-564.573	-144.205	0.123	0.011
-563.558	-137.545	-0.113	0.013
-562.544	-200.000	-0.024	0.522
-561.529	531.183	0.101	0.239
-560.515	-53.016	0.110	-0.051
-559.500	358.623	0.067	-0.134
-558.485	-5.982	-0.354	0.242
-557.471	800.000	0.047	-0.157
-556.456	-200.000	0.003	0.171
-555.442	-57.955	0.035	-0.015
-554.427	800.000	0.009	0.029
-553.412	2.684	-0.098	-0.071
-552.398	146.405	-0.256	0.344
-551.383	43.159	0.047	-0.043
-550.369	16.458	-0.257	-0.203
-549.354	-200.000	0.012	0.118
-548.339	-200.000	-0.009	-0.042
-547.325	-40.626	0.198	0.103
-546.310	101.679	-0.079	-0.093
-545.296	-5.446	0.082	-0.056
-544.281	319.321	-0.135	-0.257
-543.266	800.000	-0.069	-0.276
-542.252	-83.361	-0.108	0.035
-541.237	-92.836	-0.057	0.016
-540.223	-7.995	-0.238	0.160
-539.208	102.275	-0.054	0.063
-538.193	-119.611	0.367	-0.063
-537.179	-143.537	0.092	0.009
-536.164	-200.000	0.039	-0.189
-535.150	800.000	0.032	-0.118
-534.135	564.341	-0.102	0.248
-533.121	-160.826	0.050	0.003
-532.106	-200.000	-0.031	0.164
-531.091	-200.000	-0.028	0.246
-530.077	800.000	-0.065	-0.235
-529.062	-123.031	-0.444	-0.071
-528.048	14.519	-0.121	-0.094
-527.033	472.470	0.135	0.304
-526.018	-200.000	-0.008	-0.251
-525.004	301.484	-0.055	0.101
-523.989	-74.943	-0.339	-0.122
-522.975	217.967	0.108	-0.172
-521.960	66.134	0.125	0.127
-520.945	325.954	-0.062	0.118
-519.931	-200.000	0.029	-0.257
-518.916	800.000	-0.123	-0.373
-517.902	800.000	0.058	-0.171
-516.887	-200.000	0.013	-0.073
-515.872	-38.559	-0.104	0.055
-514.858	-200.000	-0.090	0.525
-513.843	-183.486	0.200	0.003
-512.829	301.480	-0.236	0.435
-511.814	-42.932	-0.275	0.139
-510.799	238.881	-0.124	-0.205
-509.785	-56.883	-0.108	0.048
-508.770	310.599	0.203	0.380
-507.756	-110.658	0.172	0.035
-506.741	-200.000	0.032	-0.220
-505.726	258.322	0.023	-0.040
-504.712	-138.249	0.154	-0.017
-503.697	800.000	0.022	0.077
-502.683	27.530	0.218	0.183
-501.668	-66.908	0.054	0.021
-500.653	755.079	0.115	-0.310
-499.639	25.853	-0.085	-0.071
-498.624	-56.251	-0.211	-0.094
-497.610	164.761	0.171	0.241
-496.595	-200.000	0.027	0.251
-495.581	-43.182	-0.336	0.170
-494.566	101.910	0.059	0.068
-493.551	-105.057	-0.339	0.077
-492.537	59.151	-0.154	0.152
-491.522	-200.000	0.058	0.274
-490.508	129.862	-0.241	-0.308
-489.493	176.528	-0.125	-0.181
-488.478	-11.864	0.176	-0.115
-487.464	275.695	-0.069	-0.123
-486.449	757.177	-0.112	0.302
-485.435	-200.000	-0.014	-0.065
-484.420	-98.647	-0.275	-0.070
-483.405	82.557	0.216	-0.234
-482.391	-200.000	0.039	-0.368
-481.376	-56.084	0.280	0.124
-480.362	800.000	0.067	0.193
-479.347	-32.796	0.031	-0.017
-478.332	-118.229	-0.182	-0.032
-477.318	201.391	0.017	-0.026
-476.303	-80.896	0.338	0.112
-475.289	68.504	0.264	-0.270
-474.274	-0.527	0.060	-0.042
-473.259	-200.000	0.017	-0.344
-472.245	282.463	-0.174	-0.311
-471.230	2.839	0.308	-0.223
-470.216	390.711	-0.055	-0.114
-469.201	-60.402	-0.218	-0.092
-468.186	-25.534	-0.130	0.076
-467.172	373.839	0.080	0.162
-466.157	-39.945	0.058	0.030
-465.143	60.236	0.114	-0.112
-464.128	800.000	-0.023	-0.066
-463.113	-166.898	0.147	-0.006
-462.099	102.035	-0.143	-0.166
-461.084	-56.647	-0.113	-0.050
-460.070	-149.595	-0.228	-0.018
-459.055	404.336	-0.143	0.300
-458.040	-18.229	-0.138	0.086
-457.026	28.337	-0.050	-0.042
-456.011	-200.000	-0.006	0.230
-454.997	163.822	0.127	-0.178
-453.982	-200.000	-0.044	0.417
-452.968	-29.652	0.258	0.147
-451.953	338.989	0.094	-0.183
-450.938	-62.923	0.293	-0.121
-449.924	-70.657	0.143	-0.054
-448.909	800.000	0.047	0.172
-447.895	436.460	0.115	0.249
-446.880	71.192	0.042	-0.043
-445.865	-167.957	0.083	0.003
-444.851	800.000	0.173	-0.528
-443.836	800.000	-0.041	-0.141
-442.822	84.586	-0.223	-0.244
-441.807	709.552	0.038	-0.100
-440.792	-200.000	-0.013	-0.134
-439.778	13.679	-0.077	-0.059
-438.763	136.200	-0.179	-0.233
-437.749	58.323	0.050	0.049
-436.734	800.000	0.053	-0.215
-435.719	-200.000	0.005	-0.180
-434.705	-136.271	-0.232	-0.027
-433.690	137.654	0.036	-0.047
-432.676	-74.862	0.243	0.087
-431.661	-122.619	0.304	0.049
-430.646	-96.981	0.235	0.061
-429.632	21.481	-0.220	0.178
-428.617	-200.000	-0.021	-0.257
-427.603	-133.195	-0.164	0.021
-426.588	145.807	-0.110	-0.147
-425.573	371.410	0.114	0.231
-424.559	-89.697	0.070	-0.021
-423.544	-138.095	-0.234	0.026
-422.530	386.194	-0.182	-0.375
-421.515	-80.927	0.166	-0.055
-420.500	73.667	-0.162	0.169
-419.486	565.423	-0.081	0.196
-418.471	-70.277	0.235	0.089
-417.457	-7.952	0.267	-0.179
-416.442	-200.000	0.030	-0.162
-415.428	-77.517	0.095	-0.033
-414.413	-78.139	-0.267	-0.091
-413.398	-113.601	0.343	0.067
-412.384	-200.000	-0.021	-0.114
-411.369	-48.358	-0.331	-0.159
-410.355	7.534	-0.116	0.086
-409.340	28.160	-0.061	-0.051
-408.325	-110.656	-0.077	-0.016
-407.311	-32.801	-0.163	0.090
-406.296	15.475	-0.190	-0.148
-405.282	697.813	-0.111	0.289
-404.267	122.605	0.246	-0.307
-403.252	800.000	0.020	-0.058
-402.238	-200.000	-0.015	0.200
-401.223	-29.493	0.312	-0.177
-400.209	-125.134	0.077	-0.012
-399.194	333.262	0.091	0.175
-398.179	-200.000	-0.303	-0.001
-397.165	-200.000	0.061	-0.375
-396.150	-200.000	0.078	0.366
-395.136	255.920	-0.039	-0.066
-394.121	-96.202	-0.247	0.065
-393.106	-200.000	-0.009	-0.041
-392.092	-71.158	0.313	-0.117
-391.077	-200.000	-0.021	-0.189
-390.063	7.020	-0.073	0.054
-389.048	-32.305	0.339	-0.188
-388.033	-61.208	-0.169	0.071
-387.019	400.449	0.011	0.023
-386.004	-200.000	0.003	0.134
-384.990	152.873	0.215	-0.292
-383.975	-76.904	0.206	0.072
-382.960	-78.906	-0.148	-0.050
-381.946	796.873	-0.089	0.245
-380.931	364.389	0.088	-0.176
-379.917	140.285	-0.046	0.060
-378.902	-200.000	0.028	0.295
-377.888	220.996	0.206	-0.329
-376.873	-73.863	0.223	-0.081
-375.858	-168.542	0.269	-0.010
-374.844	716.752	-0.196	-0.517
-373.829	167.402	-0.073	-0.103
-372.815	800.000	0.078	0.338
-371.800	-111.433	0.212	-0.043
-370.785	-200.000	0.016	0.506
-369.771	-200.000	-0.004	0.020
-368.756	-96.220	0.085	-0.022
-367.742	-95.819	-0.231	-0.061
-366.727	-200.000	0.018	-0.121
-365.712	220.038	-0.059	-0.094
-364.698	25.878	-0.332	-0.275
-363.683	2.094	0.202	-0.145
-362.669	-141.160	-0.320	0.032
-361.654	-19.616	-0.093	0.057
-360.639	51.188	-0.157	0.148
-359.625	7.469	-0.131	-0.097
-358.610	800.000	0.091	0.261
-357.596	21.956	-0.094	0.076
-356.581	294.930	0.121	-0.220
-355.566	335.246	-0.005	-0.010
-354.552	22.115	-0.344	-0.278
-353.537	71.059	0.098	0.100
-352.523	8.255	-0.186	0.138
-351.508	113.442	-0.048	0.057
-350.493	23.387	-0.179	-0.146
-349.479	-53.584	0.189	-0.086
-348.464	-1.101	0.353	-0.248
-347.450	80.803	-0.202	0.216
-346.435	776.058	-0.060	0.162
-345.420	-101.420	-0.248	-0.060
-344.406	800.000	-0.060	0.171
-343.391	-200.000	-0.008	0.112
-342.377	-64.217	-0.405	0.164
-341.362	-127.148	0.105	0.015
-340.348	-200.000	0.061	0.269
-339.333	480.640	-0.053	-0.120
-338.318	-34.535	0.292	-0.159
-337.304	173.299	0.071	-0.102
-336.289	369.127	0.148	0.297
-335.275	382.833	0.033	-0.068
-334.260	204.700	-0.092	-0.141
-333.245	-100.840	0.217	0.053
-332.231	-152.848	-0.257	0.018
-331.216	-200.000	0.000	0.294
-330.202	-48.882	-0.124	-0.059
-329.187	615.348	0.074	0.183
-328.172	174.820	0.032	-0.046
-327.158	-41.748	0.198	-0.101
-326.143	-14.593	0.200	0.127
-325.129	88.200	-0.329	-0.362
-324.114	108.772	0.055	-0.065
-323.099	217.752	0.237	0.374
-322.085	-200.000	0.035	0.245
-321.070	-7.732	-0.186	0.125
-320.056	86.139	-0.186	-0.203
-319.041	-119.304	0.273	-0.047
-318.026	140.277	0.227	-0.296
-317.012	459.846	0.041	0.091
-315.997	180.205	0.145	0.211
-314.983	-20.063	0.074	-0.045
-313.968	800.000	0.143	-0.456
-312.953	-170.539	-0.420	-0.014
-311.939	5.923	0.158	-0.116
-310.924	-97.186	-0.091	0.024
-309.910	-176.781	-0.176	0.004
-308.895	-101.087	-0.350	0.085
-307.880	243.159	0.085	-0.142
-306.866	49.983	0.109	0.102
-305.851	422.208	0.074	-0.158
-304.837	-190.736	-0.427	0.004
-303.822	27.782	-0.161	0.134
-302.807	9.033	0.349	-0.261
-301.793	-167.464	-0.363	-0.014
-300.778	102.593	0.033	0.038
-299.764	222.371	0.043	0.069
-298.749	707.666	0.102	0.267
-297.735	-196.071	-0.595	0.004
-296.720	58.406	-0.153	0.149
-295.705	465.932	0.165	0.366
-294.691	-147.329	0.160	-0.013
-293.676	-5.301	0.096	-0.065
-292.662	84.411	0.257	-0.279
-291.647	800.000	0.033	0.112
-290.632	-54.189	-0.209	0.094
-289.618	-160.290	-0.105	0.006
-288.603	375.831	-0.086	-0.174
-287.589	140.372	-0.028	0.037
-286.574	-10.628	-0.083	-0.055
-285.559	-200.000	0.017	-0.182
-284.545	-200.000	0.011	0.101
-283.530	-105.492	-0.197	0.044
-282.516	181.344	0.006	-0.009
-281.501	800.000	0.145	-0.452
-280.486	-200.000	-0.019	-0.108
-279.472	17.427	-0.190	0.150
-278.457	800.000	0.087	-0.295
-277.443	-200.000	-0.023	-0.169
-276.428	-124.239	-0.183	0.028
-275.413	-200.000	0.003	0.255
-274.399	-146.061	0.342	0.030
-273.384	-126.725	0.057	-0.008
-272.370	327.873	0.056	0.107
-271.355	-49.307	-0.083	-0.039
-270.340	112.143	0.049	-0.059
-269.326	54.103	-0.114	-0.108
-268.311	61.019	0.063	-0.062
-267.297	778.764	-0.081	0.218
-266.282	515.745	-0.058	-0.135
-265.267	94.748	0.107	-0.121
-264.253	-154.374	0.162	-0.011
-263.238	-4.213	0.149	-0.102
-262.224	8.407	-0.262	0.195
-261.209	42.464	0.288	0.259
-260.195	-163.858	0.190	0.009
-259.180	304.660	-0.120	-0.219
-258.165	800.000	-0.126	0.350
-257.151	-111.439	0.289	-0.058
-256.136	-111.112	0.154	-0.031
-255.122	66.112	0.307	-0.308
-254.107	77.258	-0.185	-0.194
-253.092	-200.000	0.012	0.092
-252.078	-152.720	-0.181	-0.013
-251.063	-200.000	-0.032	0.263
-250.049	126.449	0.108	-0.135
-249.034	800.000	0.056	-0.169
-248.019	425.602	0.018	-0.039
-247.005	631.159	0.129	0.322
-245.990	800.000	0.049	0.161
-244.976	-128.654	0.353	0.049
-243.961	-200.000	0.001	0.552
-242.946	9.623	-0.181	0.135
-241.932	-74.055	0.297	-0.107
-240.917	12.555	0.285	0.217
-239.903	-118.301	0.106	0.019
-238.888	441.603	0.208	-0.451
-237.873	800.000	0.060	-0.174
-236.859	157.716	0.058	0.079
-235.844	-125.049	-0.279	-0.042
-234.830	97.270	-0.081	-0.092
-233.815	790.265	0.061	0.165
-232.800	539.227	-0.082	0.193
-231.786	-150.250	-0.065	0.005
-230.771	-95.550	0.243	-0.064
-229.757	229.471	-0.139	0.223
-228.742	149.562	-0.007	0.010
-227.727	-200.000	0.075	-0.386
-226.713	138.593	0.158	0.205
-225.698	113.210	0.129	0.154
-224.684	22.882	-0.026	0.021
-223.669	-87.209	-0.130	-0.039
-222.655	9.600	0.167	0.125
-221.640	52.528	-0.227	0.214
-220.625	-200.000	0.007	0.029
-219.611	-200.000	-0.007	-0.057
-218.596	-69.435	0.146	-0.055
-217.582	-180.085	-0.224	-0.005
-216.567	-200.000	-0.002	0.147
-215.552	112.870	0.051	0.061
-214.538	-91.881	-0.329	-0.092
-213.523	-79.700	0.410	0.136
-212.509	670.850	-0.170	0.434
-211.494	1.967	0.026	0.019
-210.479	-200.000	-0.037	0.207
-209.465	-66.153	0.413	-0.163
-208.450	34.793	0.173	0.150
-207.436	179.543	-0.295	0.426
-206.421	-75.442	0.056	0.020
-205.406	-70.762	0.175	-0.065
-204.392	499.921	-0.090	-0.205
-203.377	-59.232	0.300	0.128
-202.363	-146.217	-0.101	-0.009
-201.348	800.000	-0.040	0.137
-200.333	-200.000	-0.048	0.365
-199.319	800.000	0.049	0.207
-198.304	800.000	-0.017	-0.059
-197.290	14.322	0.097	-0.075
-196.275	-110.129	0.340	0.070
-195.260	132.451	-0.186	-0.237
-194.246	-200.000	-0.007	-0.166
-193.231	-116.172	0.055	-0.010
-192.217	-62.837	0.261	-0.106
-191.202	-94.106	-0.167	-0.045
-190.187	279.348	0.233	-0.410
-189.173	161.102	0.147	0.202
-188.158	-200.000	-0.013	0.108
-187.144	23.108	0.179	-0.145
-186.129	-99.171	0.212	0.053
-185.114	72.954	0.275	0.283
-184.100	65.126	-0.087	-0.087
-183.085	-81.281	0.114	-0.037
-182.071	-55.153	-0.138	-0.061
-181.056	337.183	-0.118	-0.225
-180.042	-128.234	-0.252	0.035
-179.027	-63.366	-0.052	-0.021
-178.012	130.571	0.028	0.036
-176.998	-77.253	-0.078	0.027
-175.983	-200.000	-0.031	0.266
-174.969	-44.519	0.175	0.086
-173.954	-123.857	-0.339	-0.053
-172.939	-30.027	-0.212	0.119
-171.925	800.000	-0.052	0.160
-170.910	418.339	0.031	0.066
-169.896	13.679	0.176	0.135
-168.881	800.000	-0.133	0.372
-167.866	-0.935	0.092	-0.065
-166.852	800.000	0.029	-0.119
-165.837	67.198	0.074	-0.074
-164.823	-181.245	0.210	-0.004
-163.808	82.251	-0.096	0.103
-162.793	-35.081	0.241	0.129
-161.779	-71.752	-0.269	-0.099
-160.764	-38.201	-0.153	0.080
-159.750	-49.327	-0.220	0.104
-158.735	-200.000	0.046	-0.407
-157.720	10.862	-0.150	0.113
-156.706	-150.315	0.227	0.017
-155.691	-200.000	0.038	-0.334
-154.677	-30.544	0.324	0.181
-153.662	105.198	-0.063	0.074
-152.647	38.273	0.057	0.050
-151.633	-30.153	0.172	0.096
-150.618	-137.500	0.189	-0.021
-149.604	45.812	-0.128	0.117
-148.589	268.223	-0.126	-0.218
-147.574	23.711	-0.101	0.082
-146.560	-148.984	0.087	0.007
-145.545	-145.172	-0.152	0.014
-144.531	800.000	0.095	0.324
-143.516	-41.873	0.149	-0.075
-142.502	-126.509	0.093	0.014
-141.487	800.000	-0.062	0.181
-140.472	-138.294	0.307	-0.033
-139.458	800.000	-0.040	-0.123
-138.443	481.655	-0.079	-0.177
-137.429	-112.084	-0.189	-0.037
-136.414	51.096	-0.074	0.069
-135.399	800.000	-0.009	0.034
-134.385	-112.187	-0.055	-0.011
-133.370	347.886	0.155	-0.301
-132.356	-54.980	0.473	0.210
-131.341	-104.143	-0.264	-0.060
-130.326	-200.000	0.005	0.164
-129.312	800.000	-0.036	0.149
-128.297	-200.000	-0.034	-0.198
-127.283	0.667	-0.236	0.166
-126.268	294.577	0.095	-0.171
-125.253	800.000	-0.094	-0.261
-124.239	-200.000	0.008	-0.164
-123.224	-200.000	-0.027	-0.250
-122.210	-170.547	-0.233	-0.008
-121.195	11.533	0.203	0.153
-120.180	713.407	0.074	-0.192
