DTS Sentinel unit serial number:	SN413079Multiplexer serial number:	ORYXHardware model number:	OX4-SRSoftware version number:	ORYX F/W v4.00 Oryx Data Collector v3.7.2.0data status	okinstallation	princeton_trtdifferential loss correction	single-endedforward channel	channel 4reverse channel	N/Adate	2019/09/15time	08:45:35forward acquisition time	60.00reverse acquisition time	0.00gamma	496.2192k internal	0.2303k external	0.2303temperature offset calibration	1.0023default loss term (dB/km)	0.3790temperature slope calibration	1.0000multiplexer offset coefficient	1.0000multiplexer slope coefficient	1.0000fibre end	0.00T internal ref (°C)	32.19T ext. ref 1 (°C)	4.97T ext. ref 2 (°C)	29.47length (m)	temperature (°C)	Stokes	anti-Stokes-747.200	117.411	0.120	-0.150
-746.185	-9.100	-0.028	0.019
-745.171	-200.000	-0.022	0.127
-744.156	52.643	-0.097	0.095
-743.142	-81.866	0.216	0.072
-742.127	3.369	0.126	0.093
-741.112	-141.220	0.400	0.042
-740.098	-114.519	-0.060	-0.012
-739.083	-12.262	0.246	0.164
-738.069	136.867	-0.103	0.136
-737.054	800.000	0.055	-0.225
-736.039	-22.312	0.272	0.168
-735.025	210.402	0.201	0.321
-734.010	800.000	0.185	0.537
-732.996	800.000	0.063	0.194
-731.981	343.697	-0.156	-0.310
-730.966	81.689	0.120	0.133
-729.952	-54.098	-0.142	0.066
-728.937	-81.086	0.384	-0.129
-727.923	-149.281	0.057	-0.005
-726.908	-137.227	-0.341	0.039
-725.894	800.000	-0.055	0.165
-724.879	168.555	-0.130	0.188
-723.864	237.169	-0.301	-0.508
-722.850	-36.906	0.271	0.148
-721.835	-88.012	0.189	-0.058
-720.821	-169.765	0.299	-0.011
-719.806	62.565	0.280	0.285
-718.791	-108.694	0.119	-0.026
-717.777	-171.769	0.045	-0.002
-716.762	88.819	0.127	0.143
-715.748	800.000	0.028	0.121
-714.733	221.269	0.112	-0.183
-713.718	8.688	0.239	0.183
-712.704	85.488	-0.077	0.086
-711.689	60.309	0.252	0.253
-710.675	177.731	-0.088	0.130
-709.660	476.316	0.055	0.126
-708.645	4.164	0.303	-0.226
-707.631	0.505	-0.376	-0.273
-706.616	800.000	-0.044	0.163
-705.602	-17.050	0.137	-0.088
-704.587	-200.000	-0.040	0.402
-703.572	99.584	-0.080	-0.095
-702.558	-108.250	0.194	0.043
-701.543	14.416	0.080	0.064
-700.529	-150.940	-0.411	0.032
-699.514	-166.651	0.157	0.007
-698.499	17.774	0.171	-0.139
-697.485	-49.748	0.116	0.056
-696.470	-57.095	0.261	-0.117
-695.456	92.037	-0.037	0.043
-694.441	617.864	0.118	0.300
-693.426	-102.946	0.093	-0.022
-692.412	111.853	-0.326	-0.400
-691.397	-78.328	-0.210	0.073
-690.383	-9.413	0.209	-0.142
-689.368	-60.781	-0.193	-0.083
-688.354	800.000	0.022	-0.069
-687.339	-200.000	-0.006	0.114
-686.324	-11.439	0.036	-0.024
-685.310	-36.890	0.278	0.151
-684.295	-61.247	-0.324	-0.139
-683.281	248.100	-0.122	-0.209
-682.266	-200.000	-0.021	0.240
-681.251	-157.211	0.101	0.006
-680.237	-129.139	0.325	-0.046
-679.222	800.000	0.026	-0.096
-678.208	-42.819	-0.157	-0.081
-677.193	-200.000	-0.002	-0.113
-676.178	-124.834	-0.106	0.017
-675.164	41.170	-0.131	-0.120
-674.149	23.604	-0.154	0.128
-673.135	-200.000	-0.063	-0.285
-672.120	-85.884	0.154	0.048
-671.105	-200.000	-0.012	-0.233
-670.091	-200.000	0.061	0.346
-669.076	54.825	0.093	-0.091
-668.062	-150.568	0.284	0.022
-667.047	-200.000	0.005	-0.163
-666.032	-200.000	-0.051	0.227
-665.018	-32.799	-0.252	-0.142
-664.003	-126.419	-0.048	0.007
-662.989	-120.140	0.269	-0.047
-661.974	366.273	0.082	0.168
-660.959	-171.696	0.290	-0.010
-659.945	110.605	-0.071	0.086
-658.930	77.665	-0.177	-0.191
-657.916	-38.098	-0.071	0.038
-656.901	34.004	0.184	0.163
-655.886	485.480	-0.054	0.126
-654.872	-200.000	0.010	0.061
-653.857	36.165	0.143	-0.128
-652.843	-77.050	0.024	-0.008
-651.828	-144.876	0.211	-0.020
-650.814	349.552	-0.083	-0.165
-649.799	-200.000	-0.030	-0.154
-648.784	95.844	-0.139	-0.161
-647.770	38.593	-0.193	-0.175
-646.755	27.275	-0.090	0.077
-645.741	-200.000	-0.032	0.211
-644.726	-102.627	-0.140	0.034
-643.711	-75.682	-0.013	0.005
-642.697	-169.055	0.289	0.011
-641.682	-161.305	0.119	-0.006
-640.668	88.092	0.095	0.107
-639.653	-200.000	0.003	0.365
-638.638	800.000	-0.070	-0.222
-637.624	-132.301	-0.201	0.026
-636.609	125.889	-0.131	0.168
-635.595	1.631	0.239	-0.175
-634.580	6.852	-0.069	0.052
-633.565	800.000	-0.023	-0.073
-632.551	55.737	-0.157	-0.155
-631.536	3.169	-0.206	-0.152
-630.522	-200.000	-0.002	-0.080
-629.507	-83.421	0.133	0.043
-628.492	105.044	0.082	0.098
-627.478	401.101	-0.055	0.117
-626.463	-115.665	-0.451	0.086
-625.449	800.000	-0.122	-0.478
-624.434	-161.040	0.216	-0.011
-623.419	800.000	0.107	0.439
-622.405	46.902	-0.290	0.274
-621.390	-42.265	-0.176	0.091
-620.376	-21.203	0.184	-0.114
-619.361	13.349	-0.065	0.051
-618.346	-48.304	-0.289	-0.141
-617.332	800.000	0.018	-0.079
-616.317	-75.235	-0.400	-0.145
-615.303	171.603	0.228	-0.332
-614.288	800.000	-0.082	0.231
-613.273	-12.745	-0.169	-0.112
-612.259	-200.000	-0.061	0.333
-611.244	-200.000	-0.063	-0.290
-610.230	-92.399	-0.568	0.162
-609.215	101.150	-0.182	0.215
-608.201	3.432	-0.126	-0.093
-607.186	29.229	-0.058	0.050
-606.171	56.696	0.252	-0.248
-605.157	-200.000	-0.023	-0.273
-604.142	315.573	-0.172	-0.329
-603.128	800.000	0.060	-0.191
-602.113	-200.000	-0.028	0.131
-601.098	74.675	0.164	0.175
-600.084	800.000	-0.098	-0.276
-599.069	-3.160	0.120	0.085
-598.055	-102.011	0.303	0.074
-597.040	-66.609	0.219	-0.088
-596.025	268.161	-0.104	-0.185
-595.011	-0.151	-0.104	0.075
-593.996	-15.325	-0.092	0.059
-592.982	-64.472	-0.192	0.079
-591.967	-88.929	-0.238	0.071
-590.952	-120.241	0.184	-0.032
-589.938	759.889	0.065	-0.178
-588.923	56.810	0.141	-0.139
-587.909	80.022	-0.181	-0.197
-586.894	800.000	-0.067	-0.195
-585.879	138.634	0.138	0.184
-584.865	800.000	0.046	-0.182
-583.850	-200.000	0.031	0.151
-582.836	-137.288	-0.232	0.027
-581.821	-200.000	-0.033	-0.358
-580.806	-128.349	-0.151	-0.022
-579.792	131.799	0.102	0.133
-578.777	118.731	0.065	0.081
-577.763	47.569	0.388	0.366
-576.748	-9.777	0.168	-0.113
-575.733	59.040	-0.320	0.319
-574.719	-200.000	-0.001	0.079
-573.704	-80.927	0.178	0.060
-572.690	800.000	-0.077	0.264
-571.675	155.586	-0.148	0.206
-570.661	111.245	0.166	-0.202
-569.646	-200.000	0.022	0.151
-568.631	-108.856	-0.240	-0.052
-567.617	577.203	-0.128	-0.316
-566.602	-57.270	0.146	0.065
-565.588	-1.640	0.197	0.140
-564.573	-138.453	-0.469	0.052
-563.558	-59.656	0.252	-0.109
-562.544	-200.000	0.017	0.332
-561.529	177.925	-0.046	0.068
-560.515	-61.791	0.147	-0.062
-559.500	-99.311	0.282	0.072
-558.485	-173.677	-0.068	0.002
-557.471	120.213	0.066	-0.082
-556.456	222.863	0.104	0.170
-555.442	-200.000	-0.064	0.291
-554.427	110.881	0.173	0.210
-553.412	-88.167	-0.299	-0.091
-552.398	51.260	0.090	0.086
-551.383	230.437	0.226	-0.374
-550.369	-60.553	-0.244	0.105
-549.354	-86.022	-0.149	0.047
-548.339	-200.000	0.017	-0.085
-547.325	-200.000	0.018	-0.120
-546.310	-59.374	0.288	0.125
-545.296	26.679	0.090	-0.076
-544.281	-36.403	-0.219	0.119
-543.266	45.219	0.062	-0.058
-542.252	-200.000	-0.045	-0.217
-541.237	630.911	-0.137	-0.351
-540.223	40.806	0.172	-0.156
-539.208	-21.611	0.279	-0.172
-538.193	-99.292	-0.305	-0.078
-537.179	-200.000	0.027	0.251
-536.164	85.536	-0.162	0.180
-535.150	-200.000	0.026	-0.513
-534.135	-101.841	-0.063	-0.015
-533.121	-80.413	-0.315	0.106
-532.106	800.000	-0.073	-0.287
-531.091	448.854	-0.097	0.216
-530.077	-103.732	0.166	-0.039
-529.062	-10.991	-0.283	0.189
-528.048	152.567	-0.290	0.401
-527.033	-81.800	-0.179	-0.059
-526.018	253.745	-0.109	0.189
-525.004	60.191	0.160	-0.160
-523.989	-102.334	-0.297	0.072
-522.975	800.000	-0.058	-0.201
-521.960	-78.632	0.364	-0.126
-520.945	-92.594	0.166	-0.047
-519.931	-88.344	0.168	-0.051
-518.916	-55.143	0.085	0.038
-517.902	-70.728	0.269	-0.103
-516.887	225.149	0.210	-0.343
-515.872	314.267	0.108	-0.206
-514.858	-200.000	-0.038	-0.170
-513.843	146.694	0.180	0.244
-512.829	92.326	-0.370	0.421
-511.814	-57.154	-0.265	-0.118
-510.799	-52.676	-0.288	0.134
-509.785	24.352	-0.214	-0.179
-508.770	402.422	0.124	0.263
-507.756	-200.000	0.184	0.000
-506.741	-80.817	0.217	0.073
-505.726	45.915	0.222	-0.207
-504.712	22.229	0.031	0.026
-503.697	-66.281	-0.261	0.105
-502.683	-80.861	-0.044	-0.015
-501.668	-159.346	-0.271	-0.015
-500.653	53.890	-0.271	0.263
-499.639	-160.865	0.022	-0.001
-498.624	317.355	0.062	0.118
-497.610	800.000	0.094	-0.315
-496.595	-131.470	-0.190	-0.025
-495.581	60.122	0.075	0.075
-494.566	47.399	0.258	-0.243
-493.551	-200.000	0.010	0.094
-492.537	-148.004	-0.468	-0.039
-491.522	-64.539	0.196	0.080
-490.508	-125.663	0.357	-0.055
-489.493	-156.389	0.115	0.007
-488.478	280.668	0.048	0.087
-487.464	602.530	0.076	-0.190
-486.449	-200.000	0.005	-0.282
-485.435	-200.000	-0.008	0.131
-484.420	-102.582	-0.168	0.040
-483.405	558.467	0.162	-0.393
-482.391	12.271	-0.183	-0.142
-481.376	90.580	-0.112	-0.126
-480.362	466.334	-0.143	-0.324
-479.347	-81.600	-0.105	-0.035
-478.332	-200.000	0.059	-0.327
-477.318	-200.000	0.077	-0.401
-476.303	800.000	0.034	-0.135
-475.289	-200.000	-0.050	0.273
-474.274	-200.000	-0.025	-0.118
-473.259	-43.315	0.097	-0.049
-472.245	261.923	-0.105	0.183
-471.230	46.177	-0.189	0.177
-470.216	68.679	0.146	-0.151
-469.201	-15.738	0.205	-0.131
-468.186	266.757	0.078	0.137
-467.172	768.393	-0.083	-0.227
-466.157	-135.456	0.464	0.056
-465.143	-200.000	-0.033	0.390
-464.128	125.385	0.227	-0.288
-463.113	-200.000	-0.015	-0.340
-462.099	23.477	-0.085	0.071
-461.084	-200.000	-0.030	0.267
-460.070	-103.397	-0.206	-0.049
-459.055	178.321	-0.163	-0.240
-458.040	415.039	0.013	0.027
-457.026	-72.670	-0.244	0.091
-456.011	26.747	0.137	0.116
-454.997	34.998	0.277	0.244
-453.982	-153.947	0.044	-0.003
-452.968	800.000	0.083	0.345
-451.953	554.188	-0.067	0.163
-450.938	62.163	0.056	-0.056
-449.924	-200.000	-0.032	0.329
-448.909	-200.000	-0.013	-0.259
-447.895	-18.845	0.272	0.171
-446.880	168.004	0.048	-0.069
-445.865	-143.477	-0.433	-0.042
-444.851	-200.000	0.073	0.425
-443.836	138.118	-0.195	-0.258
-442.822	181.505	0.117	-0.173
-441.807	-200.000	-0.009	0.210
-440.792	-110.909	-0.079	0.016
-439.778	-52.604	0.294	-0.137
-438.763	-2.467	0.131	-0.093
-437.749	-200.000	0.006	-0.171
-436.734	46.773	-0.090	-0.085
-435.719	50.609	-0.064	0.061
-434.705	-24.257	-0.145	0.087
-433.690	-26.829	-0.188	-0.110
-432.676	-100.417	-0.349	-0.087
-431.661	125.839	-0.042	-0.053
-430.646	-96.678	0.387	-0.103
-429.632	-200.000	-0.007	-0.064
-428.617	-20.177	-0.227	-0.141
-427.603	325.864	0.051	0.098
-426.588	-15.653	0.035	0.023
-425.573	384.644	-0.058	-0.120
-424.559	369.136	0.163	0.333
-423.544	-41.639	-0.238	-0.123
-422.530	20.268	-0.153	-0.124
-421.515	729.494	0.046	-0.123
-420.500	800.000	-0.103	0.318
-419.486	-73.871	-0.046	0.017
-418.471	323.390	0.121	-0.231
-417.457	-200.000	0.059	-0.315
-416.442	-138.664	-0.224	0.025
-415.428	262.888	0.088	-0.153
-414.413	-200.000	0.041	0.212
-413.398	-200.000	0.059	-0.351
-412.384	168.230	0.067	-0.096
-411.369	210.781	0.099	0.156
-410.355	-20.942	-0.030	-0.019
-409.340	-170.684	-0.157	0.005
-408.325	183.800	-0.022	-0.033
-407.311	-114.846	0.067	0.013
-406.296	-135.329	-0.226	-0.027
-405.282	-53.953	0.224	0.102
-404.267	-200.000	-0.023	-0.166
-403.252	800.000	-0.061	-0.179
-402.238	-79.718	0.200	0.068
-401.223	-68.892	0.089	-0.034
-400.209	52.909	0.236	0.227
-399.194	-173.027	-0.391	0.012
-398.179	800.000	0.013	0.040
-397.165	-200.000	-0.206	0.001
-396.150	-109.415	-0.058	-0.012
-395.136	112.469	0.129	0.157
-394.121	101.685	-0.108	-0.127
-393.106	800.000	0.072	0.248
-392.092	-26.599	0.080	-0.047
-391.077	-1.652	0.241	0.170
-390.063	-200.000	-0.003	0.050
-389.048	-200.000	0.009	0.064
-388.033	151.053	0.137	0.187
-387.019	504.920	-0.125	0.290
-386.004	-80.272	-0.237	-0.080
-384.990	478.286	0.055	0.125
-383.975	800.000	-0.041	0.136
-382.960	5.709	0.119	-0.088
-381.946	-200.000	0.002	0.204
-380.931	-8.912	0.060	-0.040
-379.917	-200.000	0.029	0.243
-378.902	800.000	0.054	0.216
-377.888	-34.200	-0.154	0.085
-376.873	-200.000	0.016	-0.234
-375.858	800.000	-0.042	-0.163
-374.844	-200.000	0.287	-0.001
-373.829	45.577	-0.055	0.051
-372.815	-200.000	0.058	0.400
-371.800	800.000	0.054	0.168
-370.785	148.210	-0.083	0.112
-369.771	800.000	-0.015	-0.059
-368.756	-75.879	0.109	-0.039
-367.742	-143.021	0.290	0.028
-366.727	552.634	0.164	0.395
-365.712	11.174	0.054	-0.042
-364.698	657.704	0.045	0.115
-363.683	-138.681	-0.151	-0.017
-362.669	-65.576	0.319	-0.128
-361.654	3.769	0.176	-0.129
-360.639	668.667	-0.075	-0.193
-359.625	-200.000	0.035	0.306
-358.610	800.000	0.019	-0.056
-357.596	159.551	-0.166	-0.231
-356.581	211.203	-0.074	-0.117
-355.566	800.000	-0.005	0.019
-354.552	-59.892	0.155	0.066
-353.537	-66.125	0.276	0.110
-352.523	-143.015	-0.176	-0.017
-351.508	-200.000	-0.032	0.317
-350.493	-72.164	-0.092	0.034
-349.479	-135.559	-0.150	0.018
-348.464	388.002	0.231	0.479
-347.450	-32.894	0.273	0.152
-346.435	-95.432	0.089	0.024
-345.420	36.624	0.168	0.148
-344.406	287.930	0.027	0.049
-343.391	-24.160	-0.060	0.036
-342.377	26.138	0.205	-0.172
-341.362	57.087	-0.105	0.103
-340.348	206.504	-0.104	-0.163
-339.333	185.976	0.119	-0.178
-338.318	-122.449	0.195	-0.032
-337.304	493.649	-0.097	-0.223
-336.289	800.000	0.121	0.423
-335.275	-116.894	0.039	0.007
-334.260	800.000	0.037	-0.110
-333.245	-185.048	-0.339	0.005
-332.231	-51.362	0.088	0.041
-331.216	-53.046	0.141	0.065
-330.202	115.891	-0.231	0.283
-329.187	-143.734	0.433	0.041
-328.172	24.784	-0.102	0.085
-327.158	35.180	-0.118	0.104
-326.143	-200.000	0.018	-0.270
-325.129	800.000	0.045	-0.185
-324.114	61.597	-0.083	0.082
-323.099	606.539	0.119	0.297
-322.085	116.273	-0.156	-0.192
-321.070	30.212	0.162	-0.139
-320.056	-200.000	-0.009	-0.334
-319.041	-7.686	-0.506	0.343
-318.026	395.879	-0.099	-0.207
-317.012	-93.765	0.150	0.041
-315.997	-183.724	0.276	0.005
-314.983	-6.785	-0.213	-0.145
-313.968	-147.798	-0.187	0.016
-312.953	-5.710	0.146	0.100
-311.939	-56.273	-0.168	-0.075
-310.924	-66.745	0.264	-0.105
-309.910	1.979	0.291	-0.211
-308.895	492.348	-0.051	-0.116
-307.880	-52.794	-0.338	0.156
-306.866	-134.443	-0.180	0.022
-305.851	182.792	-0.247	-0.365
-304.837	-103.207	0.114	-0.027
-303.822	51.747	0.117	-0.111
-302.807	25.740	-0.092	0.077
-301.793	800.000	-0.077	-0.297
-300.778	800.000	0.072	0.242
-299.764	-200.000	-0.014	0.316
-298.749	119.395	0.025	-0.031
-297.735	193.398	-0.139	0.210
-296.720	-200.000	0.247	0.001
-295.705	104.953	0.134	0.158
-294.691	-200.000	0.003	-0.046
-293.676	-56.099	-0.167	-0.074
-292.662	314.026	0.099	-0.186
-291.647	800.000	0.023	0.077
-290.632	-175.782	0.420	0.011
-289.618	210.061	0.107	-0.169
-288.603	722.375	0.054	-0.144
-287.589	243.119	-0.024	-0.040
-286.574	171.419	0.009	0.013
-285.559	-132.246	0.133	0.017
-284.545	142.051	0.278	0.368
-283.530	-68.062	-0.141	-0.055
-282.516	86.822	-0.107	0.118
-281.501	63.709	0.082	-0.082
-280.486	-179.460	0.196	-0.004
-279.472	800.000	-0.062	-0.254
-278.457	800.000	-0.075	-0.273
-277.443	800.000	-0.093	-0.374
-276.428	-43.245	0.149	0.076
-275.413	800.000	-0.076	-0.216
-274.399	800.000	-0.050	0.182
-273.384	381.535	0.166	-0.342
-272.370	-50.866	0.269	0.126
-271.355	800.000	0.016	0.056
-270.340	-200.000	0.019	-0.120
-269.326	-93.260	0.291	-0.081
-268.311	-117.815	-0.178	-0.032
-267.297	-200.000	0.028	0.133
-266.282	-200.000	0.103	0.480
-265.267	800.000	-0.042	0.139
-264.253	-69.093	-0.202	0.078
-263.238	73.824	-0.212	-0.223
-262.224	276.126	-0.254	-0.451
-261.209	-200.000	-0.011	0.091
-260.195	-200.000	-0.006	0.200
-259.180	-124.275	0.093	0.015
-258.165	-200.000	0.076	-0.398
-257.151	94.584	0.247	0.280
-256.136	78.351	-0.058	0.062
-255.122	89.096	0.044	0.048
-254.107	-200.000	0.020	0.113
-253.092	110.106	0.235	-0.281
-252.078	-170.611	-0.085	0.003
-251.063	-8.688	-0.180	-0.120
-250.049	542.422	-0.101	-0.241
-249.034	15.454	0.146	0.114
-248.019	-102.725	0.165	-0.039
-247.005	-80.422	-0.138	-0.046
-245.990	-80.941	-0.123	-0.041
-244.976	552.537	0.119	0.285
-243.961	727.721	0.121	0.322
-242.946	157.480	0.105	0.145
-241.932	242.728	0.080	-0.133
-240.917	-6.724	-0.144	0.098
-239.903	-200.000	0.007	0.310
-238.888	-109.267	0.058	0.012
-237.873	221.367	-0.114	0.184
-236.859	-200.000	-0.007	0.422
-235.844	800.000	-0.136	-0.440
-234.830	563.865	-0.069	-0.166
-233.815	-47.547	-0.261	0.127
-232.800	-200.000	0.004	0.259
-231.786	-200.000	-0.017	0.172
-230.771	-7.687	0.129	0.087
-229.757	-16.637	0.133	0.084
-228.742	198.211	-0.093	-0.142
-227.727	90.155	-0.158	-0.176
-226.713	-145.173	-0.191	0.017
-225.698	44.995	-0.168	-0.155
-224.684	-200.000	0.024	-0.114
-223.669	331.482	-0.214	-0.411
-222.655	208.703	0.113	0.176
-221.640	800.000	0.041	-0.131
-220.625	-79.323	0.071	0.024
-219.611	-200.000	-0.052	0.266
-218.596	637.218	0.191	0.483
-217.582	-86.853	0.049	-0.015
-216.567	459.118	0.053	-0.118
-215.552	-60.932	-0.128	0.054
-214.538	800.000	0.069	-0.194
-213.523	-51.373	0.054	-0.025
-212.509	-56.514	0.249	-0.110
-211.494	800.000	-0.131	-0.377
-210.479	172.739	-0.024	-0.035
-209.465	-127.980	0.113	-0.016
-208.450	98.532	-0.307	0.353
-207.436	-164.981	-0.170	-0.008
-206.421	800.000	0.036	-0.130
-205.406	800.000	-0.066	0.213
-204.392	-119.017	-0.114	0.020
-203.377	2.073	-0.101	-0.072
-202.363	-200.000	0.034	-0.328
-201.348	-37.101	0.246	0.131
-200.333	35.600	-0.273	0.239
-199.319	-46.540	-0.249	-0.122
-198.304	-87.234	0.155	0.047
-197.290	58.285	-0.097	0.095
-196.275	800.000	-0.061	-0.169
-195.260	-200.000	0.008	-0.126
-194.246	182.975	0.046	0.067
-193.231	800.000	0.077	0.250
-192.217	-74.413	0.177	-0.064
-191.202	800.000	0.085	-0.357
-190.187	206.030	-0.151	-0.235
-189.173	-105.872	0.323	-0.073
-188.158	171.065	0.259	0.370
-187.144	-18.125	-0.283	0.177
-186.129	381.066	-0.154	0.314
-185.114	-200.000	0.009	-0.097
-184.100	-200.000	-0.003	0.403
-183.085	121.347	0.146	-0.181
-182.071	-126.011	-0.272	0.041
-181.056	-200.000	0.026	-0.205
-180.042	330.759	0.183	-0.351
-179.027	-200.000	0.054	0.310
-178.012	-40.914	-0.073	0.038
-176.998	63.399	0.080	0.080
-175.983	-25.818	0.293	-0.172
-174.969	556.357	0.080	0.192
-173.954	198.100	0.138	0.210
-172.939	-200.000	-0.047	-0.252
-171.925	800.000	-0.034	0.130
-170.910	-39.524	-0.410	-0.214
-169.896	-200.000	-0.054	0.407
-168.881	-161.988	0.449	-0.023
-167.866	-65.992	0.175	0.070
-166.852	-99.505	-0.195	-0.049
-165.837	-125.560	0.334	-0.050
-164.823	-71.097	0.396	-0.148
-163.808	-77.018	-0.158	-0.055
-162.793	-146.882	-0.144	0.012
-161.779	27.147	0.249	-0.208
-160.764	415.239	0.092	0.195
-159.750	97.429	-0.133	0.152
-158.735	-25.187	0.107	0.063
-157.720	-132.371	0.284	0.036
-156.706	-86.325	-0.302	0.092
-155.691	492.064	0.195	0.444
-154.677	230.267	-0.110	-0.180
-153.662	-200.000	-0.036	-0.245
-152.647	44.404	0.066	-0.060
-151.633	-25.319	-0.152	-0.089
-150.618	-67.985	0.076	0.030
-149.604	121.455	0.156	0.194
-148.589	-200.000	-0.019	0.104
-147.574	-146.526	0.298	-0.026
-146.560	19.795	-0.085	0.068
-145.545	-200.000	0.008	-0.116
-144.531	79.734	0.177	0.189
-143.516	-86.761	-0.148	0.045
-142.502	-95.712	0.214	0.057
-141.487	165.282	-0.116	0.163
-140.472	31.130	-0.286	0.244
-139.458	-103.825	0.191	0.044
-138.443	-200.000	0.025	-0.219
-137.429	133.324	0.199	0.256
-136.414	5.831	0.177	-0.130
-135.399	338.281	-0.248	-0.481
-134.385	-23.371	0.241	0.144
-133.370	54.020	-0.100	0.096
-132.356	-7.772	0.246	0.165
-131.341	-60.496	0.051	0.021
-130.326	-200.000	0.027	-0.207
-129.312	-200.000	0.052	0.370
-128.297	-200.000	-0.030	0.267
-127.283	28.960	0.197	0.166
-126.268	-86.651	-0.411	-0.125
-125.253	45.788	-0.122	-0.112
-124.239	800.000	-0.117	-0.332
-123.224	800.000	-0.106	-0.292
-122.210	-49.819	0.249	0.118
-121.195	-200.000	-0.015	0.065
-120.180	-127.196	0.320	0.047
