DTS Sentinel unit serial number:	SN413079Multiplexer serial number:	ORYXHardware model number:	OX4-SRSoftware version number:	ORYX F/W v4.00 Oryx Data Collector v3.7.2.0data status	okinstallation	princeton_trtdifferential loss correction	single-endedforward channel	channel 4reverse channel	N/Adate	2019/09/18time	03:13:34forward acquisition time	60.00reverse acquisition time	0.00gamma	496.2192k internal	0.2334k external	0.2334temperature offset calibration	0.9996default loss term (dB/km)	0.3790temperature slope calibration	1.0000multiplexer offset coefficient	1.0000multiplexer slope coefficient	1.0000fibre end	0.00T internal ref (°C)	22.75T ext. ref 1 (°C)	0.17T ext. ref 2 (°C)	16.90length (m)	temperature (°C)	Stokes	anti-Stokes-747.200	198.378	0.079	-0.122
-746.185	-200.000	-0.033	0.364
-745.171	-200.000	0.017	-0.233
-744.156	-156.046	-0.289	0.018
-743.142	-128.148	-0.181	0.026
-742.127	-123.912	-0.295	0.047
-741.112	-71.326	0.091	0.034
-740.098	571.579	0.083	0.203
-739.083	-140.582	-0.267	0.028
-738.069	118.526	-0.294	0.364
-737.054	133.541	-0.147	-0.191
-736.039	800.000	-0.051	-0.217
-735.025	9.728	-0.019	0.014
-734.010	-147.306	-0.354	-0.030
-732.996	389.884	0.156	-0.325
-731.981	485.528	-0.142	0.325
-730.966	-108.929	0.188	0.040
-729.952	-120.853	-0.061	0.010
-728.937	-4.157	0.013	0.009
-727.923	-96.329	-0.063	-0.017
-726.908	33.629	-0.260	-0.227
-725.894	167.076	-0.165	-0.235
-724.879	110.510	-0.096	0.116
-723.864	25.137	-0.027	0.023
-722.850	101.013	0.108	0.126
-721.835	22.317	-0.278	-0.228
-720.821	23.743	-0.290	-0.240
-719.806	372.656	0.130	-0.265
-718.791	-200.000	0.039	-0.533
-717.777	-200.000	-0.016	0.107
-716.762	800.000	0.043	-0.159
-715.748	-200.000	-0.036	-0.596
-714.733	-93.537	-0.063	-0.018
-713.718	50.274	0.122	-0.115
-712.704	8.176	-0.222	-0.167
-711.689	134.902	0.138	-0.181
-710.675	800.000	0.089	-0.286
-709.660	-71.601	0.135	-0.051
-708.645	-184.577	-0.045	-0.001
-707.631	-74.791	0.507	0.183
-706.616	-98.476	-0.305	0.078
-705.602	-110.896	-0.006	0.001
-704.587	93.239	0.121	0.137
-703.572	800.000	0.036	-0.114
-702.558	-200.000	-0.046	0.301
-701.543	679.875	-0.118	0.308
-700.529	-200.000	0.075	0.363
-699.514	800.000	-0.099	-0.411
-698.499	-140.594	0.175	-0.018
-697.485	-162.984	0.280	-0.014
-696.470	-32.831	-0.084	0.047
-695.456	181.659	-0.148	0.218
-694.441	-17.501	-0.124	-0.078
-693.426	-121.803	-0.385	0.064
-692.412	-91.231	0.121	0.035
-691.397	-8.170	-0.269	-0.181
-690.383	372.159	0.109	-0.222
-689.368	800.000	-0.034	-0.132
-688.354	-136.728	0.069	0.008
-687.339	-200.000	-0.018	0.111
-686.324	-57.439	0.281	-0.124
-685.310	-200.000	-0.073	0.371
-684.295	800.000	-0.083	0.252
-683.281	-200.000	0.024	0.178
-682.266	-105.024	0.030	-0.007
-681.251	351.987	0.136	-0.270
-680.237	-200.000	0.093	-0.614
-679.222	-31.079	-0.113	-0.064
-678.208	800.000	-0.083	0.264
-677.193	-163.629	0.210	-0.010
-676.178	-77.373	-0.157	-0.055
-675.164	96.943	-0.160	-0.184
-674.149	620.121	0.109	-0.275
-673.135	9.294	-0.204	0.155
-672.120	-52.768	-0.089	-0.041
-671.105	-200.000	-0.020	0.109
-670.091	-100.088	-0.185	0.046
-669.076	490.367	0.143	0.327
-668.062	-200.000	-0.019	0.209
-667.047	335.879	0.073	0.141
-666.032	96.136	0.118	0.135
-665.018	359.180	-0.070	-0.141
-664.003	25.586	0.248	0.207
-662.989	161.758	-0.051	-0.071
-661.974	632.670	-0.061	0.154
-660.959	-200.000	-0.002	-0.255
-659.945	-200.000	0.024	-0.298
-658.930	-84.706	0.286	0.090
-657.916	-128.640	-0.398	0.056
-656.901	800.000	0.063	-0.202
-655.886	13.414	-0.450	0.350
-654.872	-76.792	-0.235	0.083
-653.857	386.812	0.009	-0.019
-652.843	800.000	0.069	-0.203
-651.828	-50.766	0.226	0.106
-650.814	438.044	-0.066	-0.143
-649.799	800.000	0.054	-0.233
-648.784	-37.759	-0.353	0.188
-647.770	-50.589	0.304	-0.144
-646.755	-30.086	-0.242	0.138
-645.741	-200.000	0.007	0.083
-644.726	38.372	0.150	-0.134
-643.711	800.000	-0.079	-0.286
-642.697	-19.044	0.235	-0.146
-641.682	165.535	-0.105	0.149
-640.668	-94.318	0.143	0.039
-639.653	779.179	0.074	0.203
-638.638	91.140	0.085	0.096
-637.624	121.786	-0.198	-0.247
-636.609	498.025	0.171	-0.394
-635.595	-180.086	0.434	0.009
-634.580	17.161	-0.171	-0.136
-633.565	330.216	-0.066	-0.126
-632.551	-52.552	-0.102	0.047
-631.536	372.641	0.046	0.094
-630.522	-129.359	0.086	-0.012
-629.507	56.398	0.059	-0.058
-628.492	113.150	0.197	-0.239
-627.478	-96.607	-0.341	0.090
-626.463	-110.944	-0.275	-0.057
-625.449	-137.299	0.242	-0.028
-624.434	-200.000	-0.021	-0.268
-623.419	98.549	-0.063	0.072
-622.405	-189.000	-0.394	0.005
-621.390	120.230	0.129	-0.160
-620.376	-200.000	-0.025	-0.165
-619.361	112.547	0.077	-0.093
-618.346	-73.363	0.214	-0.078
-617.332	-41.319	-0.215	-0.111
-616.317	-32.142	0.270	-0.151
-615.303	-24.400	-0.174	0.103
-614.288	-77.387	0.069	-0.024
-613.273	431.242	-0.081	-0.175
-612.259	85.791	0.208	-0.229
-611.244	-87.549	-0.092	-0.028
-610.230	-95.482	-0.221	-0.059
-609.215	800.000	-0.064	0.234
-608.201	204.104	-0.132	0.204
-607.186	-189.127	0.113	0.001
-606.171	181.413	0.097	-0.143
-605.157	58.086	0.048	0.047
-604.142	-147.626	-0.180	0.015
-603.128	800.000	-0.114	-0.359
-602.113	-22.642	-0.280	-0.169
-601.098	800.000	-0.017	-0.063
-600.084	99.613	0.292	-0.337
-599.069	302.430	-0.040	0.075
-598.055	-14.271	-0.194	-0.125
-597.040	46.592	-0.191	-0.177
-596.025	23.789	0.239	-0.196
-595.011	-104.540	-0.076	-0.018
-593.996	-200.000	-0.044	0.299
-592.982	265.646	-0.030	-0.052
-591.967	-105.360	0.183	-0.042
-590.952	64.588	-0.400	-0.403
-589.938	-200.000	-0.027	-0.276
-588.923	-71.033	-0.191	0.072
-587.909	261.348	0.062	-0.108
-586.894	-200.000	0.080	-0.376
-585.879	-196.327	0.302	-0.002
-584.865	-18.477	0.249	-0.155
-583.850	-113.253	-0.338	-0.066
-582.836	88.305	-0.401	-0.445
-581.821	800.000	-0.031	-0.104
-580.806	191.277	0.105	0.157
-579.792	-154.748	-0.181	-0.012
-578.777	-51.920	-0.227	0.105
-577.763	-26.680	0.023	-0.013
-576.748	-200.000	-0.048	0.299
-575.733	92.941	0.341	0.385
-574.719	-87.490	0.195	-0.059
-573.704	-200.000	-0.040	0.229
-572.690	33.905	-0.120	-0.105
-571.675	-9.529	0.249	-0.166
-570.661	58.171	0.157	-0.153
-569.646	-110.512	-0.197	-0.041
-568.631	-152.529	0.099	-0.007
-567.617	-38.517	-0.249	-0.132
-566.602	-41.227	0.260	-0.134
-565.588	-76.373	-0.157	-0.055
-564.573	527.231	-0.036	0.086
-563.558	-45.603	-0.353	0.174
-562.544	-56.908	0.250	-0.110
-561.529	-123.957	0.443	0.070
-560.515	103.261	0.202	0.237
-559.500	793.804	0.126	-0.346
-558.485	-200.000	0.020	-0.125
-557.471	133.939	-0.122	-0.158
-556.456	-73.045	0.224	-0.082
-555.442	-200.000	0.010	-0.116
-554.427	396.461	0.098	0.205
-553.412	-29.313	-0.076	0.044
-552.398	41.523	0.087	-0.079
-551.383	-90.376	0.214	-0.062
-550.369	475.859	0.032	-0.073
-549.354	92.574	0.057	0.064
-548.339	176.344	0.104	0.150
-547.325	-139.243	-0.141	0.015
-546.310	-135.115	-0.212	-0.025
-545.296	-52.989	0.187	0.086
-544.281	-41.683	0.148	0.076
-543.266	-82.097	-0.067	0.022
-542.252	39.952	-0.334	0.299
-541.237	800.000	0.105	0.368
-540.223	2.001	-0.273	0.196
-539.208	1.935	0.281	-0.202
-538.193	202.108	-0.295	0.454
-537.179	48.142	0.051	0.047
-536.164	150.278	-0.106	0.144
-535.150	800.000	-0.046	0.130
-534.135	35.763	0.129	-0.113
-533.121	754.459	-0.070	-0.188
-532.106	-39.246	0.192	-0.101
-531.091	-153.381	0.079	0.005
-530.077	-131.651	0.239	0.031
-529.062	1.963	0.317	0.228
-528.048	-50.602	-0.111	-0.052
-527.033	9.111	0.139	0.104
-526.018	-84.860	0.230	0.072
-525.004	-200.000	0.042	0.333
-523.989	-200.000	0.007	0.042
-522.975	-72.716	0.217	0.080
-521.960	-200.000	-0.014	0.091
-520.945	21.325	0.049	-0.040
-519.931	188.507	0.123	0.183
-518.916	9.365	0.113	0.085
-517.902	800.000	0.072	-0.206
-516.887	59.601	-0.108	0.106
-515.872	149.859	-0.208	0.281
-514.858	800.000	-0.030	-0.116
-513.843	70.995	0.129	-0.134
-512.829	7.549	-0.204	-0.152
-511.814	20.415	0.166	-0.133
-510.799	122.946	0.119	0.148
-509.785	420.722	-0.120	0.256
-508.770	157.569	-0.123	-0.169
-507.756	663.535	-0.070	0.181
-506.741	102.488	0.227	0.264
-505.726	-66.995	-0.166	-0.065
-504.712	-120.064	-0.094	-0.016
-503.697	137.451	-0.244	-0.317
-502.683	-113.744	-0.024	-0.005
-501.668	74.835	0.200	-0.210
-500.653	-200.000	-0.028	-0.295
-499.639	211.742	-0.054	-0.085
-498.624	293.487	0.119	-0.217
-497.610	-64.492	-0.168	-0.068
-496.595	269.372	-0.214	-0.374
-495.581	-19.929	-0.179	-0.110
-494.566	-200.000	-0.016	0.080
-493.551	-165.769	-0.286	-0.012
-492.537	16.264	-0.332	-0.260
-491.522	89.004	-0.023	0.026
-490.508	-200.000	-0.013	-0.075
-489.493	-9.516	0.195	-0.129
-488.478	-98.377	-0.070	0.018
-487.464	-4.858	-0.276	-0.189
-486.449	-21.451	-0.341	0.207
-485.435	-200.000	-0.005	-0.054
-484.420	-133.443	-0.173	-0.022
-483.405	-31.242	0.049	0.028
-482.391	-118.286	-0.356	-0.063
-481.376	351.839	0.108	0.213
-480.362	-200.000	0.048	0.212
-479.347	8.824	-0.083	-0.062
-478.332	-33.740	-0.242	0.133
-477.318	-2.153	0.073	-0.051
-476.303	-134.782	0.254	-0.031
-475.289	800.000	-0.009	0.036
-474.274	711.313	-0.019	0.049
-473.259	-200.000	-0.035	-0.153
-472.245	39.943	0.215	-0.192
-471.230	-171.641	-0.180	-0.006
-470.216	95.106	0.184	-0.209
-469.201	277.512	-0.203	-0.360
-468.186	-200.000	0.039	0.173
-467.172	-154.284	-0.062	-0.004
-466.157	-104.364	0.134	0.031
-465.143	274.272	-0.116	-0.205
-464.128	133.922	-0.085	0.109
-463.113	-169.501	0.184	0.007
-462.099	-200.000	-0.014	0.194
-461.084	-200.000	-0.001	0.166
-460.070	-36.260	0.120	-0.064
-459.055	107.221	-0.082	0.097
-458.040	-164.702	0.489	0.022
-457.026	642.432	0.085	-0.215
-456.011	-2.095	0.072	0.050
-454.997	-57.042	-0.332	-0.145
-453.982	-67.412	-0.409	0.160
-452.968	32.828	0.221	0.190
-451.953	800.000	-0.032	-0.115
-450.938	-56.059	0.258	0.114
-449.924	-200.000	0.004	-0.133
-448.909	287.403	0.048	0.087
-447.895	693.222	0.139	-0.361
-446.880	347.556	0.134	-0.262
-445.865	438.178	-0.072	0.157
-444.851	215.019	-0.049	-0.077
-443.836	-101.006	-0.345	0.084
-442.822	-133.189	-0.333	0.042
-441.807	68.160	0.138	0.140
-440.792	362.161	0.221	0.440
-439.778	800.000	-0.175	-0.502
-438.763	120.555	-0.065	-0.080
-437.749	32.314	0.147	-0.126
-436.734	29.785	0.048	-0.041
-435.719	-136.166	-0.143	0.017
-434.705	699.691	-0.180	-0.469
-433.690	-140.076	0.389	0.041
-432.676	-89.889	0.216	0.063
-431.661	-3.667	0.181	-0.125
-430.646	-163.724	-0.426	0.020
-429.632	287.808	-0.107	-0.191
-428.617	64.971	-0.168	0.169
-427.603	-54.121	0.392	-0.177
-426.588	92.699	0.182	-0.204
-425.573	16.680	-0.165	-0.129
-424.559	-2.600	-0.258	0.179
-423.544	58.434	0.070	-0.068
-422.530	-128.648	0.132	0.019
-421.515	-148.156	0.076	-0.006
-420.500	161.903	0.069	-0.096
-419.486	389.612	0.129	-0.266
-418.471	97.340	-0.102	-0.116
-417.457	-63.391	-0.258	0.105
-416.442	800.000	-0.065	0.221
-415.428	-200.000	0.032	0.148
-414.413	1.794	0.219	0.157
-413.398	77.257	-0.047	0.049
-412.384	16.558	-0.294	0.230
-411.369	-200.000	0.033	-0.254
-410.355	-177.193	0.361	0.009
-409.340	-147.505	-0.349	0.029
-408.325	-12.068	-0.232	-0.151
-407.311	125.167	-0.295	-0.369
-406.296	-169.271	0.454	0.017
-405.282	36.711	0.302	0.265
-404.267	-89.897	0.214	0.062
-403.252	207.828	-0.054	0.084
-402.238	103.263	0.059	0.069
-401.223	-126.282	-0.034	0.005
-400.209	-118.852	-0.483	0.084
-399.194	-75.446	-0.252	-0.089
-398.179	-68.519	-0.219	0.084
-397.165	318.130	-0.107	0.200
-396.150	-200.000	-0.012	-0.147
-395.136	41.060	-0.089	-0.080
-394.121	-200.000	-0.020	-0.285
-393.106	-103.469	0.164	0.038
-392.092	761.343	0.064	0.172
-391.077	476.841	-0.131	0.294
-390.063	-200.000	0.013	0.181
-389.048	-88.895	-0.299	0.088
-388.033	-200.000	-0.007	0.092
-387.019	18.725	0.141	0.112
-386.004	-96.113	-0.594	-0.156
-384.990	58.203	0.285	0.277
-383.975	-80.568	0.142	-0.047
-382.960	-166.292	0.372	-0.016
-381.946	-200.000	-0.026	0.302
-380.931	-141.398	0.294	0.030
-379.917	-32.194	-0.160	-0.088
-378.902	-104.207	-0.146	-0.033
-377.888	-79.491	0.380	0.127
-376.873	-200.000	-0.047	-0.267
-375.858	-200.000	0.014	0.131
-374.844	-200.000	-0.019	-0.089
-373.829	-109.471	0.293	0.061
-372.815	-31.321	-0.135	0.075
-371.800	208.148	-0.168	0.260
-370.785	-23.513	-0.171	0.102
-369.771	674.175	-0.097	-0.249
-368.756	-34.898	-0.283	0.153
-367.742	-187.420	0.277	-0.004
-366.727	-180.405	0.144	-0.003
-365.712	-200.000	-0.009	-0.098
-364.698	-82.372	0.261	0.084
-363.683	-100.457	-0.105	0.026
-362.669	-70.243	0.291	-0.109
-361.654	-71.424	-0.179	-0.066
-360.639	-200.000	0.003	0.154
-359.625	24.733	0.058	-0.047
-358.610	69.414	0.185	0.188
-357.596	318.195	0.049	0.092
-356.581	-43.045	-0.117	-0.059
-355.566	-200.000	0.037	0.187
-354.552	-200.000	-0.075	0.421
-353.537	-200.000	0.020	0.298
-352.523	-149.408	0.168	0.013
-351.508	-171.438	0.076	-0.003
-350.493	-128.313	0.470	0.066
-349.479	671.670	-0.031	-0.079
-348.464	172.981	0.080	0.114
-347.450	11.950	0.360	0.274
-346.435	-200.000	0.025	0.268
-345.420	-128.377	-0.257	0.036
-344.406	-200.000	-0.011	0.072
-343.391	-200.000	0.033	-0.205
-342.377	-139.603	0.117	-0.012
-341.362	148.257	-0.287	-0.383
-340.348	400.952	-0.094	0.196
-339.333	99.659	0.061	0.070
-338.318	-45.893	-0.201	-0.098
-337.304	-79.631	0.118	-0.039
-336.289	-64.870	-0.508	0.203
-335.275	131.808	-0.063	0.080
-334.260	-104.478	-0.364	0.083
-333.245	-200.000	-0.003	-0.162
-332.231	163.958	0.034	0.048
-331.216	-63.547	-0.146	0.059
-330.202	-15.962	0.120	0.075
-329.187	387.303	-0.033	0.067
-328.172	715.364	0.099	-0.261
-327.158	399.143	-0.158	0.327
-326.143	6.601	-0.436	-0.321
-325.129	447.427	0.094	-0.204
-324.114	352.191	0.034	0.067
-323.099	-126.995	0.314	0.046
-322.085	-26.403	0.067	-0.039
-321.070	160.636	-0.233	0.321
-320.056	30.405	0.287	0.242
-319.041	-200.000	-0.012	0.212
-318.026	-77.964	-0.088	0.030
-317.012	-139.228	0.221	0.024
-315.997	283.892	0.099	-0.175
-314.983	-76.299	-0.210	0.073
-313.968	-148.309	-0.417	0.034
-312.953	-24.900	0.145	-0.085
-311.939	800.000	-0.120	-0.443
-310.924	-27.314	-0.053	-0.030
-309.910	29.226	0.264	-0.221
-308.895	-54.361	-0.230	0.103
-307.880	-200.000	-0.012	-0.096
-306.866	-94.528	0.089	-0.024
-305.851	123.715	0.034	-0.043
-304.837	800.000	-0.076	0.262
-303.822	8.147	-0.217	-0.161
-302.807	-72.349	-0.353	-0.129
-301.793	323.542	0.102	0.192
-300.778	-106.804	-0.147	0.032
-299.764	-121.362	-0.292	-0.048
-298.749	74.428	-0.286	-0.297
-297.735	-200.000	0.064	0.339
-296.720	44.557	0.313	-0.284
-295.705	32.103	0.108	0.092
-294.691	-24.825	-0.058	-0.034
-293.676	653.216	0.154	0.391
-292.662	800.000	0.040	0.135
-291.647	800.000	-0.088	0.298
-290.632	-200.000	0.088	0.459
-289.618	-109.010	-0.044	0.009
-288.603	595.625	0.128	0.312
-287.589	162.098	-0.040	0.055
-286.574	-4.000	0.254	0.174
-285.559	-200.000	0.081	0.512
-284.545	-86.822	-0.098	0.030
-283.530	-200.000	0.034	-0.230
-282.516	-102.125	0.463	-0.110
-281.501	-71.312	-0.314	-0.116
-280.486	-163.535	-0.104	-0.005
-279.472	-180.214	0.136	0.003
-278.457	-125.653	0.361	-0.054
-277.443	800.000	0.054	0.203
-276.428	-29.476	-0.364	0.206
-275.413	-109.912	-0.294	-0.061
-274.399	-26.648	0.081	0.047
-273.384	16.615	-0.217	0.169
-272.370	193.212	0.098	-0.147
-271.355	68.022	0.103	-0.104
-270.340	-180.945	0.187	0.004
-269.326	-73.284	-0.420	-0.151
-268.311	-200.000	-0.006	0.124
-267.297	-40.443	0.331	-0.170
-266.282	-87.331	0.162	-0.049
-265.267	13.051	-0.324	0.248
-264.253	-82.536	-0.224	-0.072
-263.238	1.564	-0.487	0.346
-262.224	-184.657	0.160	0.003
-261.209	634.837	0.030	0.074
-260.195	-200.000	-0.054	-0.255
-259.180	103.628	0.229	-0.265
-258.165	644.859	0.060	-0.151
-257.151	18.675	-0.175	0.138
-256.136	53.710	0.081	-0.076
-255.122	220.640	0.090	0.143
-254.107	-6.694	-0.125	0.084
-253.092	800.000	0.076	-0.233
-252.078	-200.000	0.017	0.363
-251.063	-105.490	0.192	0.043
-250.049	-81.506	-0.364	-0.118
-249.034	41.278	0.096	0.085
-248.019	800.000	0.063	0.172
-247.005	176.387	0.199	-0.285
-245.990	800.000	-0.075	-0.210
-244.976	-122.294	0.185	-0.030
-243.961	149.426	-0.150	-0.200
-242.946	800.000	0.040	0.165
-241.932	-200.000	-0.004	0.409
-240.917	800.000	-0.111	0.345
-239.903	-128.980	0.450	0.062
-238.888	800.000	-0.026	0.081
-237.873	135.396	0.195	0.250
-236.859	295.098	-0.061	-0.109
-235.844	-158.814	0.161	0.009
-234.830	-95.741	-0.290	-0.076
-233.815	132.149	-0.078	-0.098
-232.800	-125.217	-0.056	-0.008
-231.786	63.004	0.193	0.191
-230.771	-66.948	0.342	0.133
-229.757	95.456	0.088	-0.099
-228.742	-200.000	0.025	0.202
-227.727	-200.000	0.011	0.177
-226.713	-126.892	0.243	-0.035
-225.698	-91.314	-0.147	0.042
-224.684	425.933	-0.076	-0.161
-223.669	-39.789	-0.160	-0.082
-222.655	-127.620	-0.301	0.043
-221.640	-197.320	0.218	0.001
-220.625	-200.000	-0.003	-0.276
-219.611	-50.886	-0.193	0.089
-218.596	-46.118	-0.314	-0.152
-217.582	-89.284	0.271	-0.079
-216.567	158.460	0.063	-0.086
-215.552	-118.356	-0.110	0.019
-214.538	481.748	0.080	-0.179
-213.523	-118.048	-0.091	-0.016
-212.509	-2.540	0.386	-0.266
-211.494	25.768	0.055	0.045
-210.479	-200.000	0.044	-0.272
-209.465	-200.000	0.026	-0.422
-208.450	800.000	-0.041	0.170
-207.436	10.300	-0.104	0.078
-206.421	-89.187	0.056	0.016
-205.406	-9.169	0.048	0.032
-204.392	-82.289	0.175	0.056
-203.377	385.812	-0.100	-0.202
-202.363	800.000	-0.049	0.154
-201.348	800.000	0.101	-0.277
-200.333	-131.429	0.146	-0.019
-199.319	-121.702	-0.171	-0.028
-198.304	230.223	-0.083	0.134
-197.290	-200.000	0.024	0.518
-196.275	-52.304	0.150	-0.068
-195.260	-59.188	-0.198	-0.084
-194.246	-158.955	0.422	-0.024
-193.231	87.769	0.125	-0.137
-192.217	-0.513	0.138	-0.096
-191.202	448.786	-0.170	-0.369
-190.187	34.607	-0.134	-0.115
-189.173	-172.956	0.326	-0.010
-188.158	-141.050	-0.337	-0.034
-187.144	149.630	-0.129	0.172
-186.129	-33.061	-0.227	-0.124
-185.114	-178.258	0.115	-0.003
-184.100	800.000	0.084	-0.239
-183.085	-53.568	0.191	-0.086
-182.071	-200.000	0.022	0.215
-181.056	-36.258	0.190	-0.101
-180.042	184.784	-0.106	-0.154
-179.027	290.955	0.099	0.176
-178.012	800.000	-0.030	-0.080
-176.998	-5.218	0.102	-0.069
-175.983	599.651	-0.098	-0.238
-174.969	-140.251	0.232	-0.024
-173.954	452.762	0.099	0.216
-172.939	-49.778	-0.196	0.091
-171.925	228.726	-0.201	0.321
-170.910	800.000	0.094	0.399
-169.896	-8.364	0.265	0.175
-168.881	-138.496	-0.276	-0.030
-167.866	-184.705	-0.151	0.002
-166.852	-32.869	0.372	-0.203
-165.837	218.944	0.184	0.289
-164.823	500.405	-0.128	-0.290
-163.808	-200.000	-0.005	0.116
-162.793	-80.748	0.146	-0.048
-161.779	174.172	0.034	0.048
-160.764	-58.049	-0.197	0.084
-159.750	97.496	0.241	0.272
-158.735	-101.694	0.118	0.028
-157.720	116.161	-0.146	0.176
-156.706	156.161	0.090	-0.122
-155.691	55.690	-0.128	0.122
-154.677	-200.000	-0.022	0.296
-153.662	302.199	-0.122	0.222
-152.647	-114.418	0.166	0.031
-151.633	-70.371	0.189	0.071
-150.618	-155.195	-0.398	-0.025
-149.604	680.856	0.096	0.246
-148.589	-200.000	-0.004	0.128
-147.574	-200.000	-0.014	0.158
-146.560	-200.000	-0.040	0.211
-145.545	26.697	0.180	-0.148
-144.531	193.184	0.129	0.192
-143.516	-160.077	-0.369	-0.020
-142.502	119.333	0.221	-0.269
-141.487	590.504	-0.055	0.134
-140.472	-200.000	-0.004	-0.098
-139.458	-82.528	-0.142	0.045
-138.443	7.179	0.269	-0.197
-137.429	33.268	0.037	-0.032
-136.414	25.294	-0.170	-0.138
-135.399	543.046	0.051	0.121
-134.385	690.938	0.055	0.141
-133.370	-43.578	0.265	-0.131
-132.356	800.000	-0.014	-0.050
-131.341	59.986	0.098	0.095
-130.326	-200.000	-0.024	-0.105
-129.312	243.299	-0.092	-0.152
-128.297	-45.625	0.052	-0.025
-127.283	-200.000	-0.026	0.316
-126.268	-185.188	0.302	0.005
-125.253	424.350	0.048	-0.100
-124.239	-18.218	0.125	-0.077
-123.224	-46.210	-0.064	-0.031
-122.210	-95.475	-0.538	-0.142
-121.195	-63.537	0.335	-0.135
