DTS Sentinel unit serial number:	SN413079Multiplexer serial number:	ORYXHardware model number:	OX4-SRSoftware version number:	ORYX F/W v4.00 Oryx Data Collector v3.7.2.0data status	okinstallation	princeton_trtdifferential loss correction	single-endedforward channel	channel 4reverse channel	N/Adate	2019/09/18time	05:01:35forward acquisition time	60.00reverse acquisition time	0.00gamma	496.2192k internal	0.2331k external	0.2331temperature offset calibration	0.9994default loss term (dB/km)	0.3790temperature slope calibration	1.0000multiplexer offset coefficient	1.0000multiplexer slope coefficient	1.0000fibre end	0.00T internal ref (°C)	23.50T ext. ref 1 (°C)	0.19T ext. ref 2 (°C)	17.82length (m)	temperature (°C)	Stokes	anti-Stokes-747.200	-200.000	0.004	0.051
-746.185	128.222	-0.031	0.040
-745.171	-200.000	-0.046	0.221
-744.156	134.394	0.095	0.124
-743.142	800.000	-0.070	-0.307
-742.127	-87.991	0.156	-0.047
-741.112	479.442	-0.062	0.141
-740.098	7.453	-0.194	0.146
-739.083	361.535	-0.067	-0.135
-738.069	-200.000	-0.013	0.470
-737.054	-45.192	-0.161	0.081
-736.039	105.560	-0.055	0.065
-735.025	123.013	0.037	0.047
-734.010	99.096	-0.225	-0.262
-732.996	25.714	-0.335	-0.281
-731.981	-200.000	-0.002	0.049
-730.966	-2.199	0.252	-0.178
-729.952	800.000	0.145	-0.406
-728.937	-200.000	0.039	-0.303
-727.923	-102.252	-0.211	0.051
-726.908	-147.805	-0.222	0.019
-725.894	-86.440	-0.253	0.078
-724.879	4.849	-0.117	-0.086
-723.864	-74.086	0.187	-0.068
-722.850	-11.504	-0.272	-0.180
-721.835	541.601	0.089	-0.213
-720.821	348.659	-0.029	-0.057
-719.806	-25.354	-0.325	0.193
-718.791	-86.569	0.203	0.063
-717.777	-200.000	0.116	0.568
-716.762	19.509	0.011	-0.009
-715.748	-40.434	0.085	0.044
-714.733	84.261	-0.125	-0.137
-713.718	91.811	-0.091	0.103
-712.704	-20.899	-0.249	-0.154
-711.689	209.471	0.087	0.137
-710.675	-27.011	0.328	-0.192
-709.660	3.195	-0.163	-0.119
-708.645	-200.000	0.001	-0.095
-707.631	231.051	-0.092	-0.151
-706.616	-64.941	-0.079	-0.032
-705.602	333.508	0.130	0.252
-704.587	249.235	0.171	-0.291
-703.572	-200.000	0.005	0.145
-702.558	-40.453	0.215	0.112
-701.543	-19.545	0.088	-0.055
-700.529	800.000	-0.038	0.147
-699.514	3.564	0.255	-0.187
-698.499	-152.456	0.131	0.009
-697.485	800.000	-0.135	-0.395
-696.470	-88.442	-0.074	-0.022
-695.456	-83.576	0.224	0.072
-694.441	114.414	0.314	-0.384
-693.426	390.789	0.094	0.196
-692.412	-69.276	0.127	-0.049
-691.397	41.334	-0.228	-0.207
-690.383	-200.000	-0.001	-0.115
-689.368	-200.000	0.002	0.169
-688.354	-10.940	0.304	0.201
-687.339	54.082	0.295	-0.285
-686.324	-46.997	-0.042	-0.021
-685.310	-149.342	-0.257	-0.021
-684.295	122.629	-0.135	0.170
-683.281	-200.000	-0.036	-0.221
-682.266	235.649	-0.084	-0.139
-681.251	232.445	0.037	0.061
-680.237	30.148	-0.383	-0.328
-679.222	251.221	0.141	0.241
-678.208	-18.414	0.226	0.142
-677.193	271.998	-0.075	0.132
-676.178	-110.417	-0.414	-0.086
-675.164	12.875	0.063	0.049
-674.149	-55.879	-0.263	0.118
-673.135	-14.121	-0.181	-0.117
-672.120	562.681	-0.080	0.195
-671.105	800.000	-0.049	0.158
-670.091	800.000	0.018	-0.070
-669.076	70.323	0.069	-0.071
-668.062	-139.447	-0.293	-0.032
-667.047	-3.022	-0.082	0.057
-666.032	-129.194	0.199	-0.028
-665.018	-111.710	-0.297	-0.060
-664.003	159.836	0.214	0.299
-662.989	211.561	-0.167	-0.263
-661.974	-127.844	0.154	-0.022
-660.959	140.980	0.365	-0.484
-659.945	50.443	0.116	0.110
-658.930	142.029	-0.058	-0.077
-657.916	-24.115	0.125	0.075
-656.901	279.468	-0.051	-0.092
-655.886	189.761	0.100	0.150
-654.872	800.000	-0.045	0.166
-653.857	-101.551	0.168	-0.041
-652.843	-140.399	0.284	0.030
-651.828	-73.054	-0.273	0.101
-650.814	-142.597	0.358	0.035
-649.799	64.158	-0.038	0.038
-648.784	-58.193	-0.401	0.175
-647.770	627.608	-0.064	0.161
-646.755	-179.437	-0.059	0.001
-645.741	-123.768	-0.158	-0.025
-644.726	628.973	0.049	-0.124
-643.711	4.898	0.116	0.086
-642.697	133.642	-0.162	-0.210
-641.682	17.681	-0.232	0.185
-640.668	-200.000	0.033	-0.193
-639.653	9.565	-0.160	-0.121
-638.638	-200.000	0.031	-0.215
-637.624	-200.000	0.007	0.129
-636.609	-200.000	-0.063	-0.407
-635.595	-45.865	-0.106	-0.053
-634.580	-127.296	0.342	0.050
-633.565	-200.000	0.019	-0.141
-632.551	534.956	0.043	-0.103
-631.536	-200.000	0.032	-0.243
-630.522	610.633	-0.113	-0.283
-629.507	129.852	0.134	0.172
-628.492	-133.505	0.198	0.025
-627.478	109.585	-0.071	0.086
-626.463	-42.552	0.418	0.213
-625.449	-58.438	0.296	0.129
-624.434	-13.636	0.162	0.105
-623.419	-161.961	-0.157	-0.008
-622.405	37.999	-0.305	-0.272
-621.390	-200.000	0.042	-0.198
-620.376	91.140	0.158	-0.178
-619.361	5.484	0.209	0.155
-618.346	447.056	0.092	0.202
-617.332	207.999	0.117	-0.183
-616.317	800.000	0.084	-0.262
-615.303	112.862	-0.084	-0.101
-614.288	-200.000	0.015	-0.266
-613.273	-14.883	-0.253	-0.163
-612.259	22.650	0.246	0.202
-611.244	392.340	-0.118	-0.246
-610.230	222.157	-0.064	0.103
-609.215	314.753	0.136	-0.256
-608.201	2.587	0.338	0.245
-607.186	800.000	0.029	-0.093
-606.171	142.496	-0.129	-0.172
-605.157	-11.875	-0.091	0.060
-604.142	-147.716	0.435	-0.037
-603.128	-122.166	-0.170	0.028
-602.113	-123.213	-0.365	0.058
-601.098	81.443	0.179	-0.193
-600.084	133.188	-0.156	-0.201
-599.069	800.000	-0.046	0.154
-598.055	26.436	0.032	-0.027
-597.040	62.244	-0.303	-0.302
-596.025	223.919	-0.228	-0.368
-595.011	-200.000	0.028	0.156
-593.996	-44.125	0.146	0.073
-592.982	-37.943	-0.225	0.120
-591.967	-200.000	0.059	0.474
-590.952	445.455	0.096	0.210
-589.938	-200.000	0.024	0.240
-588.923	179.726	-0.229	-0.336
-587.909	35.040	-0.034	-0.030
-586.894	800.000	0.115	0.355
-585.879	202.936	-0.192	-0.297
-584.865	-139.042	-0.277	-0.030
-583.850	117.788	0.211	0.259
-582.836	-14.914	0.150	-0.096
-581.821	512.851	-0.123	0.286
-580.806	117.783	0.150	0.185
-579.792	-1.517	0.087	-0.061
-578.777	-200.000	-0.014	0.153
-577.763	-200.000	-0.001	0.166
-576.748	-200.000	-0.009	-0.103
-575.733	751.639	-0.150	0.406
-574.719	-200.000	-0.009	-0.170
-573.704	-104.556	0.252	-0.058
-572.690	17.591	0.034	0.027
-571.675	98.108	-0.227	0.261
-570.661	2.939	-0.153	-0.111
-569.646	800.000	0.038	-0.143
-568.631	-93.451	-0.207	-0.057
-567.617	-0.937	-0.134	0.095
-566.602	196.478	-0.157	0.239
-565.588	-100.860	0.168	0.041
-564.573	800.000	-0.020	-0.056
-563.558	-82.135	0.240	0.078
-562.544	-49.794	-0.257	-0.122
-561.529	-21.357	0.179	0.110
-560.515	-200.000	0.070	0.356
-559.500	-98.938	-0.375	-0.095
-558.485	-200.000	0.004	0.203
-557.471	354.622	0.154	0.306
-556.456	-200.000	-0.027	-0.132
-555.442	33.647	0.046	0.040
-554.427	48.093	-0.245	-0.229
-553.412	325.072	-0.075	-0.143
-552.398	-131.174	-0.282	-0.037
-551.383	-200.000	-0.027	0.417
-550.369	47.652	-0.130	0.121
-549.354	-200.000	0.003	-0.225
-548.339	444.256	-0.031	-0.068
-547.325	800.000	-0.037	-0.157
-546.310	6.548	0.187	0.139
-545.296	800.000	-0.096	0.273
-544.281	27.879	-0.090	0.075
-543.266	-129.934	-0.149	0.020
-542.252	-180.452	0.261	-0.005
-541.237	-86.006	-0.097	0.030
-540.223	-28.816	0.172	0.099
-539.208	47.948	-0.168	0.157
-538.193	-164.895	0.264	-0.012
-537.179	147.381	-0.079	-0.106
-536.164	73.171	-0.096	0.100
-535.150	4.494	-0.209	-0.153
-534.135	-72.982	-0.181	-0.066
-533.121	94.517	-0.089	-0.101
-532.106	183.991	-0.117	-0.172
-531.091	117.505	-0.058	-0.071
-530.077	-30.537	0.190	-0.108
-529.062	516.143	-0.017	0.040
-528.048	481.549	-0.099	0.224
-527.033	166.846	0.041	0.058
-526.018	-132.537	0.557	0.071
-525.004	-73.968	-0.270	-0.098
-523.989	800.000	0.049	0.211
-522.975	75.295	0.133	-0.140
-521.960	-200.000	0.072	-0.476
-520.945	237.182	0.146	0.242
-519.931	-68.907	-0.053	-0.020
-518.916	31.398	0.224	-0.192
-517.902	105.054	0.195	0.230
-516.887	471.606	0.115	-0.258
-515.872	-21.875	0.206	-0.125
-514.858	-92.635	0.211	0.059
-513.843	-79.295	0.263	-0.089
-512.829	29.467	0.096	-0.081
-511.814	800.000	-0.060	-0.259
-510.799	-43.080	0.377	-0.191
-509.785	-77.349	0.248	-0.086
-508.770	-69.683	-0.118	-0.045
-507.756	-200.000	-0.036	-0.372
-506.741	228.202	0.252	-0.410
-505.726	508.883	-0.097	0.224
-504.712	-14.847	-0.172	0.110
-503.697	70.947	0.225	0.233
-502.683	-11.838	-0.347	0.227
-501.668	-200.000	-0.005	-0.101
-500.653	-47.229	0.180	0.087
-499.639	-28.654	-0.333	0.191
-498.624	-200.000	0.020	-0.255
-497.610	-200.000	0.016	0.372
-496.595	10.745	-0.315	-0.239
-495.581	510.047	0.050	-0.116
-494.566	-200.000	-0.256	0.001
-493.551	36.850	0.184	0.162
-492.537	-32.584	-0.202	-0.112
-491.522	247.891	-0.097	0.163
-490.508	-71.546	-0.179	-0.067
-489.493	-193.256	-0.027	0.000
-488.478	654.953	-0.139	-0.355
-487.464	107.738	0.095	0.113
-486.449	28.212	0.065	0.055
-485.435	265.096	0.062	0.107
-484.420	244.004	-0.108	0.181
-483.405	349.171	0.079	0.156
-482.391	39.220	0.129	0.115
-481.376	-166.170	0.174	0.007
-480.362	337.303	0.115	0.223
-479.347	-50.033	0.143	-0.068
-478.332	-190.675	-0.276	0.003
-477.318	800.000	0.027	-0.073
-476.303	-200.000	-0.003	0.264
-475.289	267.062	-0.212	-0.369
-474.274	211.847	0.077	-0.120
-473.259	-30.915	0.273	-0.154
-472.245	339.994	-0.175	0.340
-471.230	-135.423	0.148	0.018
-470.216	-91.496	-0.170	-0.048
-469.201	110.990	-0.067	0.080
-468.186	-12.225	0.309	-0.201
-467.172	-200.000	0.019	-0.162
-466.157	-66.254	0.354	0.140
-465.143	-200.000	-0.068	0.329
-464.128	14.440	-0.050	-0.039
-463.113	-68.070	0.515	0.200
-462.099	27.753	0.161	0.135
-461.084	753.396	0.099	0.267
-460.070	-73.610	0.135	0.049
-459.055	201.496	-0.209	-0.320
-458.040	-180.282	0.258	-0.005
-457.026	-200.000	-0.020	-0.343
-456.011	-200.000	-0.002	-0.105
-454.997	7.373	-0.134	0.100
-453.982	-200.000	0.002	-0.106
-452.968	-4.709	-0.263	-0.180
-451.953	-54.512	-0.152	0.069
-450.938	181.959	-0.187	0.275
-449.924	-8.433	0.430	0.288
-448.909	12.447	0.214	0.164
-447.895	800.000	-0.073	-0.229
-446.880	-200.000	0.029	0.228
-445.865	-200.000	-0.042	0.190
-444.851	800.000	0.080	-0.289
-443.836	157.379	0.086	-0.118
-442.822	289.211	0.074	-0.133
-441.807	478.809	-0.162	0.364
-440.792	-69.622	0.369	0.140
-439.778	-200.000	0.004	0.288
-438.763	-85.610	0.159	0.049
-437.749	-80.076	-0.213	0.071
-436.734	-200.000	0.020	0.106
-435.719	31.523	0.122	-0.104
-434.705	64.693	-0.116	0.117
-433.690	256.791	0.100	-0.171
-432.676	-10.390	0.096	0.063
-431.661	539.441	-0.051	-0.120
-430.646	800.000	-0.051	-0.200
-429.632	277.276	0.040	-0.070
-428.617	-109.615	0.026	-0.005
-427.603	221.827	-0.137	0.218
-426.588	292.377	-0.145	0.262
-425.573	-89.893	-0.139	-0.040
-424.559	161.078	-0.024	-0.033
-423.544	-200.000	-0.030	0.204
-422.530	-200.000	-0.009	0.210
-421.515	-43.781	-0.245	-0.122
-420.500	234.558	-0.187	-0.306
-419.486	293.399	-0.117	-0.213
-418.471	-200.000	0.003	0.035
-417.457	-70.808	0.293	-0.110
-416.442	-120.824	-0.437	0.073
-415.428	-66.889	-0.311	0.122
-414.413	-200.000	0.003	0.172
-413.398	31.148	0.156	0.133
-412.384	55.836	-0.120	0.115
-411.369	-133.081	-0.224	0.028
-410.355	52.781	-0.291	-0.277
-409.340	-67.034	0.078	-0.031
-408.325	-200.000	-0.026	-0.234
-407.311	54.095	-0.050	0.048
-406.296	-35.961	-0.253	-0.136
-405.282	-121.919	0.301	-0.049
-404.267	169.172	0.188	-0.266
-403.252	-31.233	0.308	-0.172
-402.238	-200.000	0.116	-0.535
-401.223	9.878	-0.250	0.188
-400.209	-200.000	-0.009	0.205
-399.194	351.825	-0.105	-0.206
-398.179	375.024	-0.088	-0.178
-397.165	800.000	0.062	-0.228
-396.150	-78.129	-0.396	-0.135
-395.136	-115.169	-0.581	0.109
-394.121	308.149	-0.090	-0.166
-393.106	143.299	-0.297	-0.393
-392.092	128.212	0.014	-0.018
-391.077	-13.368	0.129	0.083
-390.063	-26.476	-0.223	0.130
-389.048	689.292	-0.058	-0.149
-388.033	-136.473	0.319	-0.037
-387.019	433.085	0.083	-0.178
-386.004	-200.000	0.188	-0.001
-384.990	144.115	0.194	-0.257
-383.975	-112.766	0.220	0.043
-382.960	-14.708	-0.100	0.064
-381.946	-76.519	-0.284	0.099
-380.931	-150.090	0.204	0.016
-379.917	-21.585	-0.082	0.050
-378.902	-200.000	0.015	-0.078
-377.888	-18.813	-0.361	-0.223
-376.873	-29.240	0.099	-0.056
-375.858	-200.000	0.036	-0.398
-374.844	-138.020	-0.235	0.026
-373.829	-20.050	-0.150	-0.092
-372.815	58.241	-0.091	0.089
-371.800	287.445	-0.106	-0.190
-370.785	-43.372	0.222	-0.111
-369.771	-200.000	0.002	0.036
-368.756	207.276	0.123	0.191
-367.742	-137.834	-0.176	0.020
-366.727	120.587	-0.175	0.216
-365.712	-200.000	0.012	0.144
-364.698	8.329	-0.117	-0.087
-363.683	-200.000	0.008	0.106
-362.669	485.639	0.226	-0.510
-361.654	135.827	-0.068	0.088
-360.639	-200.000	-0.030	0.273
-359.625	-59.923	0.301	0.127
-358.610	119.575	-0.209	0.257
-357.596	331.496	-0.167	-0.319
-356.581	117.998	0.312	-0.381
-355.566	214.180	-0.147	-0.231
-354.552	-200.000	0.005	0.322
-353.537	751.529	-0.053	-0.143
-352.523	800.000	0.090	0.246
-351.508	-200.000	-0.071	0.464
-350.493	-3.509	-0.201	0.139
-349.479	68.380	0.130	-0.132
-348.464	334.065	-0.094	0.180
-347.450	96.547	0.203	-0.230
-346.435	-19.572	0.228	-0.140
-345.420	100.078	-0.206	-0.236
-344.406	92.957	0.094	0.105
-343.391	-200.000	-0.019	0.203
-342.377	-200.000	-0.038	-0.218
-341.362	87.718	0.147	0.162
-340.348	-118.710	-0.302	-0.053
-339.333	54.380	0.201	-0.192
-338.318	-14.373	-0.264	0.168
-337.304	800.000	-0.009	-0.026
-336.289	-97.338	-0.337	0.087
-335.275	-200.000	-0.067	0.394
-334.260	-200.000	-0.037	0.425
-333.245	800.000	-0.015	0.059
-332.231	-170.208	0.148	0.005
-331.216	424.508	-0.092	0.196
-330.202	-200.000	0.004	0.195
-329.187	253.487	0.067	0.114
-328.172	-71.568	0.094	-0.035
-327.158	-2.026	-0.208	-0.145
-326.143	800.000	-0.191	0.624
-325.129	-200.000	0.024	0.236
-324.114	-200.000	-0.006	-0.071
-323.099	800.000	-0.082	0.312
-322.085	-171.934	-0.273	-0.009
-321.070	88.151	-0.198	-0.217
-320.056	167.022	0.250	0.351
-319.041	0.270	0.096	-0.068
-318.026	339.185	-0.115	-0.222
-317.012	-112.783	-0.273	-0.054
-315.997	-200.000	-0.009	-0.127
-314.983	577.252	-0.114	-0.276
-313.968	-200.000	0.022	-0.420
-312.953	800.000	-0.052	-0.158
-311.939	70.541	-0.158	0.162
-310.924	453.492	0.024	-0.053
-309.910	301.961	-0.035	0.063
-308.895	66.113	0.208	0.209
-307.880	753.792	0.040	0.108
-306.866	-23.407	0.107	0.064
-305.851	9.606	0.212	0.159
-304.837	98.514	-0.140	0.159
-303.822	-63.209	0.140	-0.057
-302.807	800.000	0.097	0.284
-301.793	-200.000	0.007	0.171
-300.778	-10.054	-0.242	0.159
-299.764	-200.000	0.010	0.266
-298.749	95.282	0.217	-0.245
-297.735	25.031	-0.347	0.285
-296.720	36.540	0.203	0.177
-295.705	196.216	-0.176	-0.265
-294.691	-200.000	0.006	-0.129
-293.676	-200.000	-0.069	-0.307
-292.662	40.847	0.141	0.125
-291.647	-153.158	-0.129	-0.009
-290.632	-56.986	0.187	0.082
-289.618	33.780	-0.117	0.100
-288.603	7.434	0.228	0.169
-287.589	136.288	-0.055	-0.070
-286.574	-200.000	0.008	-0.104
-285.559	467.668	-0.122	-0.269
-284.545	272.810	0.102	0.178
-283.530	523.907	0.124	-0.288
-282.516	287.146	0.183	0.327
-281.501	-138.012	-0.198	-0.022
-280.486	800.000	-0.038	-0.141
-279.472	-27.964	0.202	-0.115
-278.457	22.169	0.018	-0.014
-277.443	226.437	-0.202	-0.325
-276.428	62.291	-0.335	-0.331
-275.413	-41.473	-0.173	0.088
-274.399	63.840	0.155	-0.154
-273.384	57.799	-0.040	0.039
-272.370	-142.272	0.203	-0.020
-271.355	-50.755	0.073	-0.034
-270.340	-20.287	-0.276	0.168
-269.326	-200.000	-0.176	0.000
-268.311	800.000	0.030	-0.111
-267.297	13.301	0.201	-0.154
-266.282	-88.545	0.403	0.119
-265.267	-200.000	-0.031	0.259
-264.253	-121.378	-0.244	0.040
-263.238	272.853	0.071	-0.124
-262.224	419.989	0.157	-0.333
-261.209	-171.806	-0.042	-0.001
-260.195	800.000	0.036	0.124
-259.180	517.715	-0.087	-0.201
-258.165	-111.579	0.255	0.051
-257.151	15.168	0.257	0.199
-256.136	-87.903	0.046	-0.014
-255.122	-41.483	0.224	-0.114
-254.107	-103.285	-0.363	0.085
-253.092	-106.067	0.469	-0.104
-252.078	-66.637	0.166	0.065
-251.063	398.679	0.235	0.485
-250.049	-80.056	0.310	0.102
-249.034	541.955	-0.027	0.062
-248.019	103.583	-0.103	0.120
-247.005	159.593	0.168	-0.231
-245.990	-149.037	0.366	0.029
-244.976	80.740	0.234	-0.249
-243.961	-89.234	0.189	0.055
-242.946	-200.000	0.054	-0.277
-241.932	17.301	-0.073	0.057
-240.917	463.972	0.182	0.402
-239.903	-35.896	-0.119	-0.064
-238.888	-200.000	-0.000	-0.423
-237.873	-149.334	-0.269	-0.021
-236.859	-12.194	-0.167	-0.108
-235.844	-200.000	-0.022	-0.200
-234.830	64.225	0.344	-0.342
-233.815	193.277	0.049	-0.073
-232.800	101.396	0.031	-0.036
-231.786	-200.000	-0.010	0.399
-230.771	-29.731	-0.360	-0.202
-229.757	-108.426	-0.037	-0.008
-228.742	278.325	0.043	-0.075
-227.727	-200.000	-0.009	-0.096
-226.713	-200.000	-0.021	0.278
-225.698	800.000	-0.045	-0.128
-224.684	259.871	0.181	-0.308
-223.669	-148.611	-0.378	0.030
-222.655	61.929	0.158	0.155
-221.640	-200.000	-0.012	0.142
-220.625	135.796	-0.060	0.077
-219.611	800.000	-0.074	0.212
-218.596	114.540	0.121	-0.145
-217.582	-33.788	-0.174	0.095
-216.567	-34.004	-0.196	0.106
-215.552	-66.993	-0.144	-0.056
-214.538	-200.000	-0.069	0.309
-213.523	204.297	0.265	0.405
-212.509	3.112	0.104	0.074
-211.494	-135.352	0.211	0.025
-210.479	-1.303	-0.268	0.186
-209.465	-200.000	-0.036	0.168
-208.450	-200.000	0.019	-0.306
-207.436	-86.517	0.220	-0.067
-206.421	310.179	-0.168	-0.310
-205.406	171.866	0.212	-0.300
-204.392	-160.963	0.077	0.004
-203.377	449.596	-0.008	0.017
-202.363	-200.000	-0.252	-0.001
-201.348	-3.003	0.191	-0.132
-200.333	-143.918	0.107	-0.010
-199.319	55.679	-0.088	-0.084
-198.304	281.622	0.216	0.380
-197.290	-32.092	0.098	0.054
-196.275	26.489	0.357	-0.294
-195.260	29.864	-0.142	-0.119
-194.246	140.815	-0.414	0.539
-193.231	0.321	0.418	0.294
-192.217	-6.310	0.119	0.080
-191.202	-138.925	-0.181	0.019
-190.187	-33.645	0.198	0.108
-189.173	-200.000	0.013	-0.068
-188.158	-38.286	-0.235	-0.122
-187.144	-142.803	-0.091	0.009
-186.129	-160.366	-0.069	0.004
-185.114	1.742	-0.259	0.184
-184.100	-19.760	0.104	-0.063
-183.085	-200.000	0.009	-0.047
-182.071	800.000	0.049	-0.189
-181.056	-200.000	0.019	-0.114
-180.042	104.843	0.161	-0.187
-179.027	-2.682	-0.050	0.034
-178.012	-200.000	-0.047	0.256
-176.998	14.910	0.233	-0.179
-175.983	-76.501	-0.280	-0.097
-174.969	-200.000	0.083	0.374
-173.954	-54.812	-0.187	0.083
-172.939	187.385	-0.224	-0.329
-171.925	-200.000	-0.000	0.342
-170.910	508.572	0.104	0.238
-169.896	-24.545	0.171	-0.100
-168.881	-200.000	0.028	-0.211
-167.866	281.103	-0.166	0.293
-166.852	-33.028	0.346	-0.189
-165.837	122.087	0.128	0.158
-164.823	-23.468	0.286	0.169
-163.808	171.361	0.124	-0.175
-162.793	-52.455	-0.346	-0.157
-161.779	177.356	-0.118	0.169
-160.764	89.952	0.015	0.016
-159.750	-200.000	0.002	-0.141
-158.735	470.112	-0.080	-0.177
-157.720	-200.000	-0.031	0.187
-156.706	-200.000	0.000	0.067
-155.691	-6.847	0.355	0.238
-154.677	800.000	-0.063	-0.217
-153.662	-4.411	0.336	-0.229
-152.647	800.000	-0.014	0.038
-151.633	99.792	-0.099	-0.112
-150.618	107.191	-0.242	0.283
-149.604	-140.510	0.339	-0.035
-148.589	147.018	0.188	0.249
-147.574	-115.940	-0.064	-0.012
-146.560	298.548	-0.254	-0.459
-145.545	-25.016	-0.187	0.109
-144.531	-65.278	-0.225	0.089
-143.516	253.135	-0.136	-0.228
-142.502	-200.000	0.025	0.131
-141.487	183.989	0.170	-0.248
-140.472	-112.625	-0.079	0.015
-139.458	25.074	0.196	-0.160
-138.443	-200.000	0.016	0.075
-137.429	-144.171	0.337	0.031
-136.414	-78.673	0.155	-0.052
-135.399	159.537	-0.094	-0.128
-134.385	26.641	-0.178	-0.147
-133.370	98.042	0.150	0.170
-132.356	-120.996	0.142	0.023
-131.341	-59.162	0.275	0.117
-130.326	-33.858	0.195	0.106
-129.312	-200.000	0.025	-0.158
-128.297	372.590	-0.167	-0.333
-127.283	-87.188	-0.436	-0.130
-126.268	393.415	-0.053	0.109
-125.253	178.408	0.134	0.193
-124.239	18.743	0.401	0.315
-123.224	-53.386	0.213	0.096
-122.210	-200.000	0.017	0.144
-121.195	645.670	0.053	-0.133
-120.180	739.909	0.059	-0.156
