DTS Sentinel unit serial number:	SN413079Multiplexer serial number:	ORYXHardware model number:	OX4-SRSoftware version number:	ORYX F/W v4.00 Oryx Data Collector v3.7.2.0data status	okinstallation	princeton_trtdifferential loss correction	single-endedforward channel	channel 4reverse channel	N/Adate	2019/09/16time	14:13:35forward acquisition time	60.00reverse acquisition time	0.00gamma	496.2192k internal	0.2285k external	0.2285temperature offset calibration	0.9936default loss term (dB/km)	0.3790temperature slope calibration	1.0000multiplexer offset coefficient	1.0000multiplexer slope coefficient	1.0000fibre end	0.00T internal ref (°C)	42.25T ext. ref 1 (°C)	14.13T ext. ref 2 (°C)	37.24length (m)	temperature (°C)	Stokes	anti-Stokes-747.200	-31.398	0.213	0.123
-746.185	-200.000	-0.051	0.264
-745.171	286.231	0.232	0.431
-744.156	-51.743	-0.025	0.012
-743.142	800.000	0.040	-0.143
-742.127	-148.168	-0.201	-0.017
-741.112	-102.120	0.049	0.012
-740.098	336.121	-0.165	0.328
-739.083	-200.000	0.022	-0.308
-738.069	-200.000	0.025	0.383
-737.054	800.000	-0.034	-0.137
-736.039	-200.000	-0.016	0.307
-735.025	743.292	-0.059	0.163
-734.010	-111.762	-0.146	0.030
-732.996	-47.047	0.297	-0.149
-731.981	800.000	0.039	-0.113
-730.966	800.000	-0.087	0.390
-729.952	-68.828	-0.169	-0.067
-728.937	-63.188	0.315	-0.133
-727.923	-15.660	-0.067	0.044
-726.908	800.000	-0.053	-0.210
-725.894	15.474	-0.263	-0.212
-724.879	267.267	0.098	0.176
-723.864	331.517	-0.096	0.189
-722.850	800.000	-0.031	-0.095
-721.835	62.691	-0.089	-0.091
-720.821	-41.777	0.165	0.087
-719.806	800.000	-0.022	-0.067
-718.791	-138.894	0.346	0.039
-717.777	459.404	-0.174	0.396
-716.762	800.000	0.150	0.467
-715.748	6.160	0.204	0.155
-714.733	478.444	-0.052	-0.122
-713.718	-39.077	0.210	0.114
-712.704	-140.605	-0.372	0.040
-711.689	-85.975	-0.149	-0.047
-710.675	-200.000	-0.020	-0.153
-709.660	17.744	0.177	0.144
-708.645	24.992	0.172	0.147
-707.631	-62.876	-0.095	0.040
-706.616	-167.430	-0.406	0.017
-705.602	-6.941	-0.155	0.108
-704.587	-200.000	-0.034	0.232
-703.572	-200.000	-0.015	0.069
-702.558	-200.000	0.002	-0.102
-701.543	-91.122	-0.114	-0.034
-700.529	113.004	-0.133	0.165
-699.514	133.925	-0.291	0.386
-698.499	19.847	-0.317	-0.262
-697.485	-32.273	-0.251	-0.144
-696.470	282.962	-0.087	0.161
-695.456	228.656	-0.191	0.319
-694.441	-123.304	0.384	0.063
-693.426	800.000	0.033	-0.101
-692.412	-13.982	0.179	-0.119
-691.397	-36.428	-0.333	-0.184
-690.383	354.074	0.059	0.121
-689.368	-57.033	-0.133	-0.060
-688.354	-120.972	0.280	-0.048
-687.339	122.676	-0.109	-0.139
-686.324	478.732	0.087	0.202
-685.310	-42.984	0.151	-0.079
-684.295	90.275	0.124	-0.143
-683.281	6.662	0.069	0.053
-682.266	16.371	0.176	0.143
-681.251	116.561	0.025	-0.032
-680.237	71.680	0.142	-0.151
-679.222	423.285	-0.035	-0.078
-678.208	-93.417	-0.169	0.048
-677.193	218.966	0.028	-0.045
-676.178	-71.906	0.202	0.077
-675.164	-55.970	-0.285	-0.130
-674.149	-200.000	-0.180	-0.001
-673.135	315.555	-0.211	-0.407
-672.120	101.611	-0.166	0.198
-671.105	-63.430	-0.135	0.057
-670.091	800.000	-0.057	0.208
-669.076	-122.450	-0.212	-0.035
-668.062	57.209	-0.216	-0.216
-667.047	-87.157	-0.128	0.040
-666.032	-200.000	0.049	0.333
-665.018	32.834	-0.328	-0.291
-664.003	34.767	-0.278	-0.249
-662.989	-200.000	-0.014	-0.179
-661.974	-200.000	-0.021	0.192
-660.959	-145.204	-0.344	0.032
-659.945	48.612	-0.333	-0.319
-658.930	800.000	0.074	-0.307
-657.916	-177.406	-0.178	-0.004
-656.901	-85.483	-0.165	0.052
-655.886	398.952	-0.142	0.304
-654.872	-109.580	0.396	0.086
-653.857	7.011	-0.131	0.100
-652.843	-79.934	-0.187	-0.064
-651.828	-114.755	-0.103	-0.020
-650.814	-132.678	-0.116	0.015
-649.799	-96.343	-0.123	-0.033
-648.784	-46.207	-0.072	-0.036
-647.770	-53.343	0.381	0.179
-646.755	-113.391	-0.304	-0.061
-645.741	800.000	0.092	-0.395
-644.726	-53.566	0.065	0.030
-643.711	-112.543	-0.180	-0.037
-642.697	800.000	-0.058	0.211
-641.682	-40.426	-0.274	0.145
-640.668	78.038	-0.192	-0.209
-639.653	-164.274	0.124	-0.006
-638.638	-200.000	0.036	0.285
-637.624	-44.485	-0.157	-0.080
-636.609	-139.393	-0.118	0.013
-635.595	800.000	0.064	0.185
-634.580	-200.000	-0.001	0.091
-633.565	524.196	-0.111	0.267
-632.551	27.158	-0.106	-0.091
-631.536	101.748	-0.194	-0.231
-630.522	677.182	0.062	0.166
-629.507	16.402	0.255	-0.205
-628.492	596.467	-0.107	0.271
-627.478	-155.582	0.183	-0.012
-626.463	141.721	-0.094	0.127
-625.449	160.199	0.091	0.129
-624.434	206.443	0.200	-0.318
-623.419	232.943	0.080	0.135
-622.405	650.034	-0.168	0.439
-621.390	-97.439	-0.100	-0.027
-620.376	-106.730	-0.090	0.020
-619.361	0.390	-0.248	-0.181
-618.346	-200.000	-0.045	-0.284
-617.332	-80.419	-0.305	0.104
-616.317	440.512	-0.117	0.261
-615.303	699.816	-0.056	-0.149
-614.288	114.196	0.037	-0.046
-613.273	-200.000	-0.000	-0.258
-612.259	800.000	-0.024	-0.100
-611.244	-6.563	0.175	-0.122
-610.230	-59.904	0.108	0.047
-609.215	308.747	-0.024	-0.046
-608.201	48.784	0.241	0.231
-607.186	181.027	-0.171	0.257
-606.171	800.000	-0.080	0.249
-605.157	800.000	-0.058	-0.166
-604.142	44.020	-0.216	0.202
-603.128	318.214	-0.216	0.417
-602.113	106.895	0.151	-0.183
-601.098	85.390	0.014	-0.016
-600.084	-200.000	0.026	0.369
-599.069	-200.000	-0.093	-0.000
-598.055	-135.986	0.287	-0.035
-597.040	8.767	-0.068	0.053
-596.025	116.590	0.077	0.097
-595.011	-3.352	-0.080	-0.057
-593.996	800.000	0.047	-0.160
-592.982	583.420	0.109	0.274
-591.967	800.000	0.103	0.309
-590.952	122.761	0.208	-0.265
-589.938	300.508	-0.068	0.128
-588.923	-79.858	0.078	0.027
-587.909	-125.938	-0.040	-0.006
-586.894	111.867	-0.165	-0.204
-585.879	25.224	-0.275	0.233
-584.865	11.879	0.056	-0.044
-583.850	-23.157	0.161	0.099
-582.836	-87.072	0.164	0.051
-581.821	263.117	-0.071	0.125
-580.806	-200.000	-0.009	-0.164
-579.792	800.000	0.026	-0.096
-578.777	-200.000	0.001	0.139
-577.763	-83.325	0.230	0.075
-576.748	-81.677	0.192	0.064
-575.733	-116.966	-0.078	0.015
-574.719	42.725	-0.134	0.124
-573.704	602.362	0.015	-0.039
-572.690	659.603	0.151	0.396
-571.675	-181.826	0.280	-0.005
-570.661	-200.000	-0.006	0.303
-569.646	-8.282	0.168	0.115
-568.631	277.594	0.173	-0.314
-567.617	800.000	0.057	0.232
-566.602	236.559	-0.137	0.231
-565.588	-49.436	-0.230	0.112
-564.573	-200.000	-0.018	-0.144
-563.558	-47.610	0.342	-0.169
-562.544	69.552	-0.229	-0.241
-561.529	-28.018	0.036	-0.021
-560.515	-47.265	-0.119	-0.059
-559.500	-128.414	-0.299	0.043
-558.485	-88.828	-0.195	-0.059
-557.471	5.200	0.110	0.082
-556.456	198.490	0.181	0.282
-555.442	800.000	-0.075	-0.284
-554.427	-34.848	-0.273	-0.152
-553.412	800.000	0.061	0.245
-552.398	-128.302	-0.220	-0.032
-551.383	89.490	-0.189	-0.215
-550.369	6.232	-0.093	-0.070
-549.354	395.997	-0.047	0.100
-548.339	800.000	-0.043	0.126
-547.325	-200.000	-0.012	-0.114
-546.310	-65.017	0.221	0.091
-545.296	-96.248	0.076	0.020
-544.281	82.878	-0.070	-0.078
-543.266	-87.850	0.145	0.044
-542.252	800.000	0.119	0.431
-541.237	-100.424	-0.016	0.004
-540.223	519.027	-0.155	0.370
-539.208	240.485	0.038	-0.064
-538.193	26.461	-0.063	0.054
-537.179	-71.246	-0.197	-0.075
-536.164	406.524	-0.175	-0.376
-535.150	-200.000	0.003	-0.197
-534.135	-112.494	0.081	0.017
-533.121	496.679	0.055	-0.128
-532.106	105.700	-0.070	-0.084
-531.091	800.000	0.100	0.323
-530.077	-117.637	0.270	0.049
-529.062	800.000	-0.085	-0.338
-528.048	225.548	0.071	0.116
-527.033	800.000	0.034	-0.114
-526.018	374.052	0.138	0.286
-525.004	121.266	-0.203	-0.257
-523.989	3.603	0.062	-0.046
-522.975	35.670	0.194	0.173
-521.960	-80.356	0.147	-0.050
-520.945	800.000	-0.099	0.334
-519.931	303.176	-0.172	0.324
-518.916	63.485	-0.262	-0.268
-517.902	-200.000	0.012	-0.072
-516.887	-138.172	0.125	-0.014
-515.872	9.433	-0.060	-0.046
-514.858	220.969	0.063	0.103
-513.843	774.564	0.063	-0.174
-512.829	66.508	-0.140	-0.144
-511.814	-153.029	-0.041	0.003
-510.799	63.432	0.241	-0.246
-509.785	4.490	0.047	-0.035
-508.770	-82.099	-0.040	0.013
-507.756	-123.358	-0.269	0.044
-506.741	38.382	0.121	-0.110
-505.726	213.400	0.184	-0.296
-504.712	735.946	0.078	0.212
-503.697	-200.000	0.009	-0.133
-502.683	389.564	0.102	-0.215
-501.668	-135.237	-0.328	-0.040
-500.653	800.000	0.114	-0.406
-499.639	11.532	-0.343	0.268
-498.624	-168.898	-0.179	0.007
-497.610	800.000	-0.092	-0.263
-496.595	69.632	-0.085	-0.089
-495.581	-35.833	-0.093	0.051
-494.566	5.798	-0.017	0.013
-493.551	76.713	-0.109	0.117
-492.537	35.616	-0.233	-0.208
-491.522	108.972	0.071	0.087
-490.508	-79.297	0.112	-0.039
-489.493	800.000	-0.145	-0.436
-488.478	-200.000	0.005	-0.055
-487.464	-200.000	-0.046	0.341
-486.449	78.026	-0.110	-0.119
-485.435	214.821	0.055	0.088
-484.420	-148.718	0.300	0.025
-483.405	-62.542	0.364	-0.154
-482.391	197.547	0.184	0.285
-481.376	-90.744	0.308	0.090
-480.362	68.576	0.205	-0.214
-479.347	-163.561	0.386	-0.019
-478.332	62.934	-0.047	-0.047
-477.318	-2.612	0.207	0.147
-476.303	-69.433	0.135	0.053
-475.289	47.864	0.086	-0.081
-474.274	800.000	0.075	-0.237
-473.259	-120.113	0.347	-0.060
-472.245	353.885	0.017	-0.033
-471.230	-43.608	-0.188	-0.096
-470.216	559.021	-0.053	0.129
-469.201	-200.000	0.037	-0.194
-468.186	-152.700	0.244	0.018
-467.172	800.000	-0.067	0.211
-466.157	-11.335	-0.131	0.088
-465.143	384.519	0.087	0.181
-464.128	-200.000	-0.061	-0.290
-463.113	800.000	-0.058	-0.217
-462.099	-107.327	0.312	0.070
-461.084	218.844	-0.059	0.095
-460.070	-200.000	-0.044	0.253
-459.055	-7.409	-0.356	0.245
-458.040	-47.253	-0.261	0.129
-457.026	37.195	0.232	0.209
-456.011	-200.000	0.024	-0.275
-454.997	18.035	-0.073	-0.059
-453.982	-200.000	0.019	-0.331
-452.968	4.343	-0.311	-0.231
-451.953	77.890	0.223	-0.242
-450.938	-109.279	-0.105	-0.023
-449.924	189.021	-0.147	-0.223
-448.909	-200.000	-0.031	0.270
-447.895	800.000	0.092	0.342
-446.880	48.521	-0.269	0.255
-445.865	138.650	0.089	0.119
-444.851	800.000	-0.038	-0.114
-443.836	-46.607	-0.219	-0.109
-442.822	446.892	0.079	0.176
-441.807	-67.115	0.098	0.039
-440.792	800.000	-0.040	-0.115
-439.778	-200.000	-0.014	-0.120
-438.763	102.570	-0.167	-0.198
-437.749	-68.736	-0.279	-0.109
-436.734	-38.696	0.263	-0.141
-435.719	-94.379	-0.173	0.048
-434.705	-60.858	0.260	0.112
-433.690	-13.946	0.208	-0.136
-432.676	-200.000	-0.027	0.138
-431.661	77.055	0.164	0.177
-430.646	800.000	-0.072	0.235
-429.632	-135.918	0.072	0.009
-428.617	-29.627	0.033	-0.019
-427.603	-49.340	0.218	0.105
-426.588	800.000	0.086	-0.283
-425.573	-200.000	0.021	0.226
-424.559	-200.000	-0.533	0.001
-423.544	38.566	0.309	-0.279
-422.530	-3.548	-0.226	0.160
-421.515	-179.040	0.424	0.010
-420.500	-200.000	-0.020	0.104
-419.486	-200.000	0.015	0.131
-418.471	756.130	0.053	-0.146
-417.457	55.349	-0.165	-0.162
-416.442	-200.000	0.060	-0.320
-415.428	15.583	0.381	0.304
-414.413	-143.712	0.470	0.045
-413.398	308.677	-0.058	-0.110
-412.384	648.552	-0.006	0.017
-411.369	96.905	-0.104	-0.121
-410.355	635.294	0.057	-0.147
-409.340	-98.128	0.236	-0.062
-408.325	70.226	0.119	-0.125
-407.311	-200.000	-0.006	0.090
-406.296	-5.034	0.248	-0.173
-405.282	-57.715	0.479	-0.212
-404.267	158.476	-0.099	-0.140
-403.252	340.810	-0.108	0.214
-402.238	-23.024	-0.069	0.042
-401.223	646.211	0.080	0.206
-400.209	-200.000	0.003	-0.062
-399.194	408.382	0.125	-0.269
-398.179	19.566	-0.165	0.134
-397.165	-170.642	0.153	0.005
-396.150	-81.595	-0.376	-0.125
-395.136	10.625	0.085	0.066
-394.121	800.000	0.027	0.111
-393.106	248.720	-0.067	-0.115
-392.092	800.000	-0.085	-0.332
-391.077	800.000	-0.014	-0.040
-390.063	17.560	0.113	-0.091
-389.048	-200.000	0.014	-0.404
-388.033	336.550	-0.084	0.166
-387.019	-200.000	0.016	0.179
-386.004	800.000	0.100	-0.420
-384.990	-200.000	-0.030	0.194
-383.975	35.493	0.113	0.101
-382.960	-200.000	-0.085	0.464
-381.946	19.490	0.053	0.043
-380.931	-92.404	-0.308	-0.088
-379.917	400.530	0.070	-0.149
-378.902	-59.056	-0.202	-0.088
-377.888	168.345	-0.108	-0.156
-376.873	-200.000	0.032	0.156
-375.858	179.849	-0.107	0.158
-374.844	116.879	0.164	0.204
-373.829	-48.637	0.196	0.095
-372.815	551.939	0.124	0.300
-371.800	-200.000	0.011	-0.081
-370.785	800.000	-0.026	0.093
-369.771	-146.606	-0.253	0.022
-368.756	-83.620	-0.173	0.056
-367.742	-62.655	0.168	-0.071
-366.727	168.400	-0.089	-0.128
-365.712	7.511	0.042	-0.032
-364.698	9.572	0.171	0.131
-363.683	-113.525	-0.172	-0.034
-362.669	57.957	-0.081	0.081
-361.654	-82.412	0.160	-0.052
-360.639	-60.978	-0.246	0.105
-359.625	-200.000	-0.022	-0.242
-358.610	-56.073	0.084	0.038
-357.596	222.229	-0.034	-0.055
-356.581	24.445	-0.185	-0.155
-355.566	17.647	-0.180	-0.145
-354.552	526.772	-0.064	-0.153
-353.537	292.751	-0.040	0.074
-352.523	-137.137	0.116	0.013
-351.508	140.100	0.068	0.091
-350.493	30.013	0.587	0.506
-349.479	-104.779	-0.309	0.072
-348.464	-200.000	0.031	-0.407
-347.450	800.000	-0.065	0.256
-346.435	373.458	-0.159	0.327
-345.420	345.448	0.113	0.225
-344.406	-87.316	0.268	0.082
-343.391	800.000	0.057	0.199
-342.377	-194.201	-0.123	-0.001
-341.362	586.630	-0.028	0.069
-340.348	800.000	-0.112	-0.446
-339.333	-19.256	0.238	0.149
-338.318	537.960	0.040	0.096
-337.304	-200.000	-0.009	-0.143
-336.289	330.186	-0.089	0.173
-335.275	-99.650	-0.063	0.016
-334.260	-44.291	0.120	-0.061
-333.245	-16.960	-0.176	-0.112
-332.231	12.256	-0.189	0.147
-331.216	-107.971	-0.073	-0.016
-330.202	-25.967	-0.099	-0.059
-329.187	-169.274	0.168	-0.006
-328.172	-200.000	0.018	-0.445
-327.158	693.206	0.112	0.297
-326.143	-104.234	0.095	0.022
-325.129	-124.695	0.187	-0.029
-324.114	-27.072	-0.084	0.049
-323.099	-43.472	0.211	-0.107
-322.085	195.539	0.256	0.394
-321.070	256.707	-0.087	0.151
-320.056	-186.598	-0.157	0.002
-319.041	-140.797	0.134	-0.014
-318.026	-51.737	0.230	-0.108
-317.012	-188.665	0.336	-0.004
-315.997	200.421	-0.013	0.019
-314.983	-60.963	-0.180	-0.077
-313.968	-115.571	-0.280	0.053
-312.953	-87.095	0.058	0.018
-311.939	118.713	-0.102	0.128
-310.924	-9.345	0.373	-0.252
-309.910	-61.804	-0.243	0.103
-308.895	-200.000	0.070	0.348
-307.880	800.000	0.015	0.059
-306.866	-200.000	-0.016	0.084
-305.851	-200.000	0.005	-0.178
-304.837	34.085	0.233	-0.205
-303.822	800.000	0.041	0.178
-302.807	800.000	-0.020	-0.080
-301.793	101.059	-0.163	0.192
-300.778	83.212	-0.306	0.337
-299.764	-156.832	-0.117	-0.007
-298.749	-6.058	0.008	-0.006
-297.735	-200.000	-0.010	-0.102
-296.720	-19.007	-0.233	-0.146
-295.705	-16.633	-0.204	-0.130
-294.691	-145.501	0.285	-0.026
-293.676	-100.620	0.198	-0.049
-292.662	53.250	0.043	-0.041
-291.647	-200.000	-0.048	-0.283
-290.632	-118.491	-0.235	0.042
-289.618	-130.717	-0.381	-0.052
-288.603	15.318	-0.032	0.025
-287.589	12.752	-0.239	0.186
-286.574	157.141	0.051	0.071
-285.559	-23.293	-0.328	-0.199
-284.545	263.896	0.059	0.103
-283.530	-200.000	0.054	0.239
-282.516	321.238	0.071	-0.135
-281.501	-99.754	-0.130	-0.033
-280.486	137.587	-0.289	0.381
-279.472	-151.372	-0.304	-0.023
-278.457	-200.000	0.084	0.411
-277.443	-165.240	0.270	0.012
-276.428	-200.000	0.009	-0.169
-275.413	161.335	0.315	-0.444
-274.399	-200.000	-0.012	-0.152
-273.384	-39.673	0.128	-0.068
-272.370	-136.811	0.254	0.029
-271.355	-200.000	-0.017	-0.193
-270.340	-39.695	-0.118	-0.062
-269.326	93.281	-0.218	0.248
-268.311	-161.664	0.193	-0.010
-267.297	800.000	0.062	0.275
-266.282	410.713	0.100	-0.214
-265.267	82.071	0.081	-0.089
-264.253	-62.871	0.244	0.102
-263.238	54.537	-0.131	-0.127
-262.224	800.000	0.048	-0.139
-261.209	-66.368	0.074	-0.030
-260.195	-200.000	0.068	-0.343
-259.180	-66.673	-0.180	0.072
-258.165	20.579	0.146	-0.119
-257.151	-200.000	-0.001	0.087
-256.136	117.504	0.045	0.056
-255.122	800.000	0.024	0.070
-254.107	-200.000	0.007	-0.205
-253.092	-61.622	0.249	-0.105
-252.078	25.513	0.174	0.145
-251.063	63.713	0.281	0.284
-250.049	575.312	0.071	-0.175
-249.034	-200.000	0.017	-0.473
-248.019	-200.000	0.029	-0.174
-247.005	54.440	0.244	0.236
-245.990	8.133	0.014	-0.011
-244.976	775.708	-0.113	-0.311
-243.961	795.468	0.102	-0.283
-242.946	44.562	0.164	-0.151
-241.932	-49.914	0.224	-0.107
-240.917	563.529	-0.069	0.168
-239.903	-22.047	0.145	-0.089
-238.888	359.155	0.088	0.177
-237.873	269.511	0.044	-0.078
-236.859	148.545	0.325	0.442
-235.844	800.000	0.069	0.306
-234.830	-93.820	-0.101	-0.028
-233.815	84.031	-0.224	0.246
-232.800	201.875	0.089	-0.137
-231.786	13.601	-0.197	0.154
-230.771	-100.725	-0.281	-0.070
-229.757	800.000	0.072	0.222
-228.742	31.937	-0.074	0.064
-227.727	205.548	-0.117	-0.183
-226.713	800.000	0.039	-0.109
-225.698	-81.190	-0.140	0.046
-224.684	-194.668	-0.302	0.002
-223.669	-28.324	-0.148	-0.086
-222.655	-32.977	-0.196	-0.109
-221.640	-79.819	0.317	-0.107
-220.625	-200.000	-0.014	0.174
-219.611	-180.657	0.030	-0.001
-218.596	37.327	-0.096	0.086
-217.582	-146.385	0.276	0.024
-216.567	-88.970	-0.071	0.021
-215.552	-200.000	-0.012	0.237
-214.538	-200.000	-0.017	-0.148
-213.523	-19.259	0.031	-0.020
-212.509	257.381	-0.204	-0.353
-211.494	128.090	-0.050	-0.064
-210.479	800.000	-0.093	0.264
-209.465	800.000	0.129	0.370
-208.450	205.504	-0.082	0.128
-207.436	174.247	-0.343	-0.499
-206.421	80.523	-0.321	-0.347
-205.406	-200.000	-0.048	0.309
-204.392	-82.508	0.345	-0.112
-203.377	-142.935	0.215	-0.021
-202.363	-126.591	-0.492	-0.073
-201.348	-39.549	-0.119	-0.063
-200.333	-200.000	-0.023	-0.119
-199.319	376.447	-0.161	-0.331
-198.304	26.341	0.011	-0.009
-197.290	-54.701	-0.311	0.141
-196.275	-200.000	0.035	-0.264
-195.260	800.000	-0.103	-0.322
-194.246	221.951	-0.294	0.474
-193.231	11.547	-0.168	-0.129
-192.217	-200.000	0.011	-0.098
-191.202	800.000	0.090	0.298
-190.187	335.267	-0.175	-0.341
-189.173	-91.251	-0.232	-0.067
-188.158	-119.064	0.383	-0.067
-187.144	-4.380	-0.053	0.037
-186.129	15.585	-0.197	-0.156
-185.114	273.380	-0.102	0.181
-184.100	140.011	0.201	-0.266
-183.085	-200.000	-0.030	-0.351
-182.071	244.825	0.058	-0.097
-181.056	693.664	0.121	0.320
-180.042	-200.000	-0.045	-0.228
-179.027	800.000	-0.100	-0.369
-178.012	-90.021	0.276	0.081
-176.998	74.844	-0.034	-0.036
-175.983	115.540	0.106	0.130
-174.969	-22.709	0.043	-0.026
-173.954	150.872	-0.137	-0.186
-172.939	25.858	-0.193	0.161
-171.925	-29.737	-0.217	0.124
-170.910	8.773	0.269	0.204
-169.896	226.090	-0.140	-0.228
-168.881	50.200	-0.136	-0.129
-167.866	-200.000	0.000	0.083
-166.852	-70.181	0.253	0.096
-165.837	-128.771	-0.204	0.029
-164.823	-78.876	-0.089	-0.031
-163.808	-74.738	-0.159	0.057
-162.793	16.669	-0.080	-0.064
-161.779	-26.760	0.195	0.115
-160.764	562.914	0.182	0.442
-159.750	800.000	0.088	-0.248
-158.735	-103.960	0.242	-0.057
-157.720	800.000	0.053	0.182
-156.706	78.391	0.039	0.042
-155.691	18.737	0.024	-0.019
-154.677	-125.510	-0.193	0.029
-153.662	40.166	0.156	0.141
-152.647	-200.000	-0.007	-0.125
-151.633	149.022	-0.070	0.095
-150.618	-200.000	0.022	-0.118
-149.604	-90.822	0.115	-0.033
-148.589	-200.000	0.018	0.141
-147.574	-73.285	0.054	0.020
-146.560	-68.056	0.205	-0.080
-145.545	-80.495	-0.223	0.075
-144.531	-200.000	0.017	-0.216
-143.516	782.048	0.072	-0.197
-142.502	-200.000	0.041	0.202
-141.487	-133.178	-0.106	-0.013
-140.472	-71.714	-0.343	0.128
-139.458	79.953	-0.104	0.112
-138.443	647.216	-0.082	-0.210
-137.429	-13.247	0.131	0.085
-136.414	-50.939	0.156	0.073
-135.399	-69.953	-0.127	-0.048
-134.385	800.000	0.058	0.170
-133.370	231.100	0.133	0.218
-132.356	160.675	0.208	-0.290
-131.341	-45.358	0.317	-0.158
-130.326	-160.699	-0.164	0.009
-129.312	369.497	-0.081	-0.164
-128.297	-59.237	0.101	0.044
-127.283	-172.689	-0.108	-0.003
-126.268	65.962	-0.091	-0.093
-125.253	3.650	0.010	-0.007
-124.239	-65.448	-0.109	-0.044
-123.224	-30.231	-0.201	-0.115
-122.210	800.000	0.032	-0.092
-121.195	45.002	-0.271	0.250
-120.180	547.715	0.081	-0.194
