DTS Sentinel unit serial number:	SN413079Multiplexer serial number:	ORYXHardware model number:	OX4-SRSoftware version number:	ORYX F/W v4.00 Oryx Data Collector v3.7.2.0data status	okinstallation	princeton_trtdifferential loss correction	single-endedforward channel	channel 4reverse channel	N/Adate	2019/09/13time	15:17:34forward acquisition time	60.00reverse acquisition time	0.00gamma	496.2192k internal	0.2296k external	0.2296temperature offset calibration	1.0211default loss term (dB/km)	0.3790temperature slope calibration	1.0000multiplexer offset coefficient	1.0000multiplexer slope coefficient	1.0000fibre end	0.00T internal ref (°C)	35.47T ext. ref 1 (°C)	4.73T ext. ref 2 (°C)	29.68length (m)	temperature (°C)	Stokes	anti-Stokes-747.200	47.328	0.230	-0.219
-746.185	-119.418	-0.023	-0.004
-745.171	-9.028	0.293	0.201
-744.156	-200.000	-0.005	-0.118
-743.142	113.535	0.163	0.202
-742.127	-137.226	-0.181	-0.021
-741.112	270.770	0.029	0.052
-740.098	-200.000	-0.045	0.339
-739.083	-200.000	-0.018	0.293
-738.069	800.000	0.142	0.501
-737.054	-200.000	0.011	-0.468
-736.039	-146.036	-0.369	0.033
-735.025	-200.000	0.028	0.373
-734.010	-27.086	-0.121	0.072
-732.996	-179.016	-0.056	-0.001
-731.981	-163.386	0.077	-0.004
-730.966	800.000	-0.041	-0.159
-729.952	66.423	-0.235	0.244
-728.937	800.000	-0.148	0.468
-727.923	-188.280	0.267	-0.003
-726.908	-125.749	0.142	-0.022
-725.894	-200.000	-0.011	0.093
-724.879	-95.149	-0.708	-0.195
-723.864	-35.882	-0.055	-0.030
-722.850	800.000	-0.075	-0.215
-721.835	-31.683	-0.043	0.025
-720.821	128.929	0.134	-0.174
-719.806	214.633	-0.130	0.211
-718.791	-27.477	-0.095	0.057
-717.777	40.969	0.165	0.152
-716.762	148.883	0.066	0.091
-715.748	-107.977	0.227	-0.050
-714.733	800.000	0.049	-0.192
-713.718	-200.000	-0.037	-0.394
-712.704	-20.985	0.182	0.114
-711.689	-1.716	-0.316	0.227
-710.675	-95.408	-0.122	0.034
-709.660	387.405	-0.233	-0.491
-708.645	274.850	-0.039	-0.070
-707.631	-21.905	0.144	-0.089
-706.616	800.000	-0.098	-0.399
-705.602	800.000	0.085	0.303
-704.587	327.874	0.092	-0.180
-703.572	800.000	0.123	-0.387
-702.558	-6.969	-0.166	-0.115
-701.543	-65.750	-0.178	0.073
-700.529	27.500	0.219	-0.188
-699.514	-126.644	0.456	-0.069
-698.499	-177.230	-0.371	0.009
-697.485	6.232	-0.107	-0.081
-696.470	-69.305	-0.185	0.072
-695.456	-200.000	0.021	-0.116
-694.441	116.479	-0.260	-0.325
-693.426	800.000	0.031	0.091
-692.412	353.108	-0.072	0.145
-691.397	800.000	-0.075	-0.260
-690.383	711.513	-0.058	0.157
-689.368	-66.139	0.357	0.145
-688.354	543.928	-0.121	0.295
-687.339	-86.113	-0.306	-0.096
-686.324	-20.420	0.057	-0.036
-685.310	-132.532	-0.286	-0.038
-684.295	266.536	0.058	-0.104
-683.281	-200.000	-0.051	-0.232
-682.266	165.421	0.150	-0.216
-681.251	64.602	-0.150	0.154
-680.237	150.700	0.149	0.207
-679.222	234.096	-0.063	0.105
-678.208	-16.698	-0.146	0.094
-677.193	-184.122	-0.064	-0.001
-676.178	-139.504	-0.067	0.007
-675.164	-200.000	0.049	0.390
-674.149	-1.155	0.100	0.072
-673.135	299.797	0.226	0.423
-672.120	142.773	0.211	0.285
-671.105	-1.345	-0.070	-0.050
-670.091	-121.253	0.381	-0.065
-669.076	627.940	-0.057	-0.148
-668.062	106.276	-0.064	0.077
-667.047	-75.112	0.176	-0.064
-666.032	-66.170	-0.385	0.156
-665.018	98.914	0.154	-0.181
-664.003	-200.000	-0.036	-0.175
-662.989	-110.504	0.250	0.053
-661.974	583.710	0.129	0.323
-660.959	28.781	0.290	-0.250
-659.945	373.621	-0.133	-0.276
-658.930	39.420	-0.095	0.086
-657.916	-200.000	0.053	-0.241
-656.901	-20.779	0.212	0.132
-655.886	800.000	-0.030	0.086
-654.872	-87.854	-0.228	0.070
-653.857	-58.886	-0.099	0.044
-652.843	74.293	0.134	-0.144
-651.828	-44.662	0.157	-0.080
-650.814	-20.136	0.313	0.196
-649.799	-200.000	0.031	-0.310
-648.784	-116.237	-0.154	0.029
-647.770	-200.000	-0.007	-0.045
-646.755	47.393	0.268	-0.254
-645.741	-54.893	-0.069	-0.032
-644.726	28.124	0.253	-0.218
-643.711	43.208	-0.257	-0.239
-642.697	-59.087	0.085	0.037
-641.682	75.468	0.138	-0.149
-640.668	-78.962	0.402	-0.139
-639.653	-200.000	0.021	0.324
-638.638	365.761	0.020	-0.040
-637.624	-165.234	-0.527	-0.024
-636.609	609.017	0.109	-0.276
-635.595	167.671	0.134	-0.194
-634.580	88.200	0.178	-0.201
-633.565	32.002	0.150	-0.132
-632.551	-15.770	-0.233	-0.151
-631.536	800.000	0.087	-0.273
-630.522	-200.000	-0.007	0.237
-629.507	800.000	-0.040	-0.149
-628.492	800.000	-0.043	0.158
-627.478	-184.205	-0.311	0.005
-626.463	-92.551	-0.209	0.060
-625.449	168.574	0.115	-0.167
-624.434	-91.711	-0.331	0.096
-623.419	565.436	-0.038	-0.094
-622.405	-92.191	0.406	0.117
-621.390	147.647	0.077	0.105
-620.376	-200.000	0.054	0.263
-619.361	242.250	-0.012	-0.020
-618.346	38.210	0.195	0.176
-617.332	-31.916	0.137	0.078
-616.317	445.046	-0.110	-0.245
-615.303	272.464	0.121	-0.217
-614.288	-124.113	-0.155	-0.025
-613.273	-113.152	0.406	0.081
-612.259	800.000	0.009	0.039
-611.244	215.403	0.133	-0.214
-610.230	-37.169	-0.170	-0.093
-609.215	142.181	0.240	0.323
-608.201	-143.081	0.120	0.012
-607.186	321.418	0.140	-0.270
-606.171	-65.622	0.175	-0.071
-605.157	-78.651	-0.367	0.128
-604.142	72.219	0.081	-0.086
-603.128	-5.051	-0.137	0.096
-602.113	374.193	-0.047	-0.098
-601.098	141.825	-0.110	0.148
-600.084	-109.208	-0.274	-0.059
-599.069	324.046	-0.067	-0.130
-598.055	-41.062	-0.415	0.218
-597.040	-55.105	0.217	-0.099
-596.025	-200.000	-0.024	-0.173
-595.011	370.127	-0.052	-0.108
-593.996	382.846	-0.120	0.252
-592.982	-6.737	-0.083	0.057
-591.967	-200.000	-0.041	-0.290
-590.952	-80.356	0.129	0.044
-589.938	190.261	0.099	0.150
-588.923	-200.000	-0.004	0.035
-587.909	-135.924	0.215	-0.026
-586.894	-36.897	-0.191	0.104
-585.879	-18.011	0.143	-0.091
-584.865	-99.351	0.228	-0.059
-583.850	-119.584	-0.263	-0.046
-582.836	19.627	0.185	-0.151
-581.821	-200.000	-0.010	0.061
-580.806	122.205	0.133	-0.168
-579.792	217.372	-0.049	0.079
-578.777	10.920	0.317	-0.246
-577.763	-200.000	-0.035	0.254
-576.748	-187.193	0.179	-0.002
-575.733	41.567	-0.083	-0.077
-574.719	800.000	0.121	-0.382
-573.704	171.925	-0.183	0.267
-572.690	-200.000	-0.104	0.686
-571.675	-186.518	0.274	0.004
-570.661	-73.439	-0.227	-0.084
-569.646	38.446	-0.182	-0.165
-568.631	64.694	-0.093	0.095
-567.617	69.219	-0.202	-0.211
-566.602	-66.147	0.149	-0.060
-565.588	-109.940	-0.245	0.052
-564.573	6.213	-0.154	0.116
-563.558	-200.000	0.002	-0.058
-562.544	-98.462	0.154	0.040
-561.529	11.208	-0.127	-0.098
-560.515	-200.000	-0.010	-0.167
-559.500	-166.576	0.124	-0.005
-558.485	28.148	0.212	0.182
-557.471	-131.339	-0.396	-0.053
-556.456	9.239	0.111	0.085
-555.442	149.340	-0.133	-0.183
-554.427	-135.617	-0.249	0.030
-553.412	-84.307	0.050	-0.016
-552.398	64.551	0.194	-0.199
-551.383	800.000	-0.057	0.240
-550.369	114.965	-0.102	-0.126
-549.354	800.000	0.020	0.083
-548.339	-200.000	0.011	0.244
-547.325	13.527	-0.073	-0.058
-546.310	-200.000	0.036	0.201
-545.296	-93.091	0.148	-0.042
-544.281	800.000	0.026	0.092
-543.266	800.000	0.018	-0.066
-542.252	-179.916	0.182	-0.004
-541.237	-29.266	0.246	0.143
-540.223	-200.000	-0.007	0.166
-539.208	33.879	0.316	-0.279
-538.193	18.814	-0.239	-0.194
-537.179	-44.752	-0.114	-0.058
-536.164	-23.988	-0.267	0.162
-535.150	-108.564	-0.234	-0.051
-534.135	800.000	0.036	-0.118
-533.121	-6.488	0.166	0.115
-532.106	611.672	-0.151	0.383
-531.091	-107.911	0.063	-0.014
-530.077	80.824	0.195	-0.213
-529.062	386.958	-0.046	-0.096
-528.048	800.000	0.056	-0.174
-527.033	-119.753	0.426	-0.074
-526.018	409.757	0.195	0.418
-525.004	326.625	-0.119	0.231
-523.989	-90.447	-0.119	0.035
-522.975	495.207	0.098	0.227
-521.960	7.105	-0.084	0.063
-520.945	-200.000	0.006	-0.034
-519.931	-200.000	-0.028	0.268
-518.916	-4.991	0.089	-0.062
-517.902	-200.000	-0.069	0.332
-516.887	97.219	0.114	0.132
-515.872	633.271	0.105	-0.269
-514.858	-25.130	0.327	0.196
-513.843	-200.000	-0.015	0.197
-512.829	189.305	-0.083	0.126
-511.814	-110.993	0.363	-0.076
-510.799	-200.000	-0.015	-0.225
-509.785	800.000	0.040	0.166
-508.770	108.905	-0.057	-0.070
-507.756	61.497	-0.187	0.188
-506.741	-165.806	-0.287	-0.012
-505.726	-117.473	-0.132	-0.024
-504.712	-61.400	-0.039	-0.017
-503.697	-74.051	-0.080	0.029
-502.683	-165.852	-0.323	0.014
-501.668	800.000	0.073	0.289
-500.653	-26.922	0.359	0.212
-499.639	263.576	0.126	0.222
-498.624	680.301	0.066	-0.175
-497.610	796.797	-0.061	0.171
-496.595	327.496	-0.039	0.076
-495.581	90.179	0.146	-0.165
-494.566	412.981	0.045	0.097
-493.551	-34.539	0.167	-0.093
-492.537	318.814	-0.231	-0.443
-491.522	37.306	-0.068	0.061
-490.508	538.635	0.133	-0.321
-489.493	-109.229	0.331	-0.071
-488.478	122.653	0.193	0.244
-487.464	-28.645	-0.098	0.057
-486.449	46.861	0.029	0.027
-485.435	105.198	-0.143	0.170
-484.420	7.006	-0.194	0.146
-483.405	65.611	-0.163	0.167
-482.391	800.000	-0.051	0.190
-481.376	47.372	0.223	-0.210
-480.362	-27.065	0.153	0.091
-479.347	-94.740	-0.141	-0.039
-478.332	-200.000	0.405	-0.001
-477.318	800.000	0.091	0.280
-476.303	-37.484	0.062	-0.034
-475.289	339.234	0.132	0.260
-474.274	-79.734	0.127	-0.043
-473.259	60.983	0.131	0.132
-472.245	-5.162	0.116	-0.081
-471.230	-86.826	-0.245	0.076
-470.216	-183.253	0.599	0.011
-469.201	-99.719	-0.411	-0.104
-468.186	-110.962	-0.442	-0.092
-467.172	800.000	-0.081	-0.274
-466.157	-27.978	0.220	0.129
-465.143	-200.000	-0.001	-0.229
-464.128	-29.212	-0.173	-0.100
-463.113	-96.269	-0.246	-0.066
-462.099	-152.987	0.189	0.013
-461.084	26.097	-0.322	0.272
-460.070	-95.815	0.304	-0.082
-459.055	32.128	0.172	0.150
-458.040	-125.729	0.131	0.020
-457.026	-200.000	-0.019	-0.278
-456.011	150.409	0.085	0.116
-454.997	-200.000	-0.035	0.289
-453.982	-59.344	0.140	0.061
-452.968	83.368	0.051	0.057
-451.953	-108.835	0.038	0.008
-450.938	-200.000	0.004	-0.186
-449.924	1.065	-0.266	0.193
-448.909	-108.012	-0.091	0.020
-447.895	-72.926	-0.213	0.079
-446.880	-54.708	-0.189	0.086
-445.865	-200.000	0.003	0.367
-444.851	-117.352	0.123	-0.022
-443.836	-20.100	-0.038	0.024
-442.822	395.853	-0.057	-0.121
-441.807	-94.407	0.303	-0.083
-440.792	-200.000	-0.033	-0.202
-439.778	-151.808	-0.299	-0.022
-438.763	-128.503	-0.197	-0.028
-437.749	-109.132	-0.263	-0.057
-436.734	43.183	-0.154	0.141
-435.719	-200.000	0.046	0.335
-434.705	188.383	0.263	0.397
-433.690	53.864	-0.157	0.153
-432.676	-34.452	0.242	-0.134
-431.661	800.000	-0.022	0.077
-430.646	364.871	0.216	0.439
-429.632	800.000	0.070	0.210
-428.617	87.080	0.094	-0.105
-427.603	-62.468	0.294	0.123
-426.588	-200.000	-0.018	0.217
-425.573	-69.193	0.265	-0.103
-424.559	194.177	0.102	-0.156
-423.544	-126.317	0.054	0.008
-422.530	15.450	-0.237	-0.188
-421.515	288.102	-0.047	0.085
-420.500	82.632	-0.153	0.167
-419.486	169.642	-0.112	0.162
-418.471	-46.117	0.160	0.079
-417.457	389.256	0.083	0.173
-416.442	574.321	-0.067	0.165
-415.428	193.759	0.034	0.053
-414.413	94.303	-0.150	-0.172
-413.398	217.286	-0.104	0.168
-412.384	-200.000	0.044	-0.309
-411.369	-172.890	0.494	-0.015
-410.355	-200.000	-0.009	-0.353
-409.340	731.881	-0.074	0.200
-408.325	-19.105	-0.133	-0.084
-407.311	-75.213	-0.431	-0.155
-406.296	107.990	-0.279	-0.336
-405.282	-45.017	0.164	0.083
-404.267	1.316	-0.156	0.113
-403.252	160.490	-0.225	0.316
-402.238	-54.813	0.322	0.147
-401.223	-200.000	-0.019	-0.086
-400.209	-200.000	0.012	0.287
-399.194	-19.474	-0.153	-0.096
-398.179	-35.319	-0.264	-0.145
-397.165	27.733	0.159	0.135
-396.150	-148.413	0.232	-0.019
-395.136	-159.268	-0.193	0.011
-394.121	-6.220	-0.353	0.243
-393.106	-131.011	-0.198	0.027
-392.092	-58.042	0.295	0.130
-391.077	-200.000	0.018	-0.081
-390.063	-21.081	0.108	0.066
-389.048	258.029	0.015	0.026
-388.033	-98.861	-0.140	-0.036
-387.019	800.000	0.018	-0.072
-386.004	-66.809	-0.032	0.013
-384.990	739.499	-0.072	-0.195
-383.975	-101.863	0.109	-0.026
-382.960	172.741	0.080	-0.116
-381.946	-180.874	0.111	0.002
-380.931	-81.808	-0.072	-0.024
-379.917	-72.030	0.109	-0.041
-378.902	-185.126	-0.167	0.003
-377.888	143.628	-0.068	-0.091
-376.873	-200.000	-0.004	-0.122
-375.858	-101.829	0.039	-0.010
-374.844	163.893	-0.207	-0.294
-373.829	186.192	0.230	-0.345
-372.815	182.402	0.272	-0.403
-371.800	180.903	0.107	-0.158
-370.785	3.572	-0.035	-0.026
-369.771	-200.000	-0.020	-0.101
-368.756	119.050	-0.156	-0.194
-367.742	-117.791	-0.320	0.058
-366.727	37.580	-0.135	0.120
-365.712	-21.413	0.043	-0.027
-364.698	800.000	-0.032	-0.113
-363.683	800.000	-0.096	-0.365
-362.669	83.039	-0.134	0.147
-361.654	348.593	-0.066	-0.132
-360.639	-94.971	0.116	0.032
-359.625	32.903	0.149	0.130
-358.610	28.053	0.236	0.201
-357.596	-139.023	-0.215	0.023
-356.581	-27.989	-0.161	-0.094
-355.566	-147.384	-0.122	0.010
-354.552	-16.219	0.294	0.188
-353.537	121.657	-0.116	0.145
-352.523	672.736	-0.049	0.129
-351.508	800.000	0.037	-0.107
-350.493	-159.848	-0.355	-0.020
-349.479	800.000	-0.102	0.309
-348.464	212.710	0.023	-0.037
-347.450	-82.789	-0.144	0.047
-346.435	61.538	0.081	0.081
-345.420	649.352	-0.097	0.249
-344.406	-200.000	-0.007	-0.254
-343.391	142.721	0.190	-0.254
-342.377	-200.000	-0.042	-0.433
-341.362	-200.000	0.013	-0.266
-340.348	113.137	-0.202	-0.247
-339.333	-68.158	0.065	-0.025
-338.318	-200.000	0.017	0.349
-337.304	-200.000	-0.007	0.244
-336.289	16.892	-0.138	-0.110
-335.275	-200.000	-0.008	0.062
-334.260	-38.543	0.102	0.054
-333.245	504.865	-0.145	0.338
-332.231	-200.000	-0.026	-0.192
-331.216	-53.279	-0.163	-0.075
-330.202	103.345	0.118	-0.140
-329.187	318.182	0.110	0.209
-328.172	-200.000	-0.003	-0.362
-327.158	-4.289	0.161	0.112
-326.143	-200.000	0.029	-0.247
-325.129	-86.159	0.179	0.055
-324.114	402.128	-0.096	0.202
-323.099	499.036	0.091	-0.212
-322.085	-59.160	0.326	0.141
-321.070	-94.039	0.207	0.057
-320.056	-200.000	-0.051	-0.306
-319.041	-88.773	-0.409	0.122
-318.026	-200.000	0.007	-0.106
-317.012	800.000	-0.058	-0.221
-315.997	40.289	-0.255	0.230
-314.983	555.928	0.109	-0.263
-313.968	-2.063	-0.145	0.102
-312.953	257.917	0.203	0.352
-311.939	197.285	-0.102	-0.156
-310.924	251.829	-0.165	-0.282
-309.910	-17.609	-0.305	-0.192
-308.895	-64.254	-0.036	-0.015
-307.880	-200.000	0.015	0.208
-306.866	-125.226	0.250	-0.038
-305.851	434.352	0.062	0.135
-304.837	-199.026	-0.155	-0.001
-303.822	-62.537	-0.261	0.109
-302.807	52.918	0.150	-0.144
-301.793	87.236	0.206	0.229
-300.778	-200.000	0.018	-0.129
-299.764	-200.000	0.071	0.324
-298.749	64.960	-0.145	0.147
-297.735	470.020	-0.106	0.239
-296.720	298.304	0.062	0.115
-295.705	-157.217	-0.116	0.007
-294.691	-31.526	0.163	0.092
-293.676	-68.134	0.109	0.043
-292.662	70.180	-0.126	-0.130
-291.647	5.278	-0.173	0.128
-290.632	-31.902	-0.117	0.066
-289.618	-127.468	-0.248	0.036
-288.603	317.704	-0.185	0.351
-287.589	83.144	-0.023	-0.026
-286.574	-71.283	-0.143	0.054
-285.559	-109.626	0.377	-0.080
-284.545	87.338	-0.198	0.219
-283.530	31.557	0.225	0.194
-282.516	-108.530	-0.216	0.047
-281.501	-132.680	-0.288	-0.037
-280.486	375.270	0.087	0.177
-279.472	-71.252	0.146	-0.055
-278.457	-44.025	-0.176	-0.089
-277.443	155.695	0.133	-0.184
-276.428	-76.674	0.214	0.075
-275.413	23.810	-0.068	0.056
-274.399	-200.000	-0.008	-0.241
-273.384	800.000	0.024	0.092
-272.370	-150.573	0.229	0.018
-271.355	-200.000	0.001	-0.163
-270.340	1.203	0.152	0.109
-269.326	-200.000	-0.013	-0.197
-268.311	-70.360	0.105	0.040
-267.297	22.310	-0.151	-0.123
-266.282	-86.086	0.107	-0.033
-265.267	-46.562	0.205	-0.101
-264.253	95.531	0.061	-0.070
-263.238	-109.443	0.249	-0.053
-262.224	-90.515	0.104	0.030
-261.209	28.247	0.169	0.143
-260.195	-200.000	0.042	-0.366
-259.180	-92.549	0.119	-0.033
-258.165	-200.000	0.011	0.131
-257.151	800.000	0.073	0.238
-256.136	130.787	0.160	-0.206
-255.122	426.920	-0.071	-0.154
-254.107	-200.000	-0.018	0.324
-253.092	233.792	0.061	0.101
-252.078	-200.000	-0.005	0.026
-251.063	-97.736	0.147	0.038
-250.049	-24.714	-0.230	0.137
-249.034	-89.814	0.231	0.068
-248.019	-79.507	0.259	0.088
-247.005	-65.079	0.275	-0.111
-245.990	-69.508	-0.121	-0.047
-244.976	800.000	0.057	-0.165
-243.961	245.549	0.133	-0.225
-242.946	-63.014	-0.064	-0.026
-241.932	-91.760	0.158	0.045
-240.917	373.712	-0.104	-0.211
-239.903	-49.581	-0.135	0.064
-238.888	-103.857	-0.280	0.065
-237.873	-200.000	-0.033	-0.150
-236.859	-49.227	0.276	0.132
-235.844	-62.782	-0.235	-0.098
-234.830	440.283	0.242	-0.530
-233.815	-107.715	-0.369	-0.081
-232.800	-66.357	-0.188	-0.075
-231.786	-17.606	-0.210	-0.132
-230.771	189.736	0.301	0.453
-229.757	67.169	-0.248	-0.253
-228.742	255.057	-0.117	-0.201
-227.727	-44.176	-0.055	-0.028
-226.713	623.692	-0.071	-0.179
-225.698	19.026	-0.235	-0.189
-224.684	-200.000	0.007	0.186
-223.669	800.000	0.068	-0.237
-222.655	-51.479	-0.379	0.177
-221.640	-200.000	-0.010	0.339
-220.625	106.900	-0.227	-0.270
-219.611	-67.785	0.136	0.053
-218.596	800.000	-0.092	-0.332
-217.582	29.932	0.166	-0.142
-216.567	-145.203	0.171	0.016
-215.552	-55.215	-0.221	-0.099
-214.538	70.510	0.042	-0.044
-213.523	181.682	0.161	-0.237
-212.509	800.000	-0.040	0.113
-211.494	-200.000	-0.015	0.266
-210.479	-63.000	-0.286	-0.118
-209.465	-109.086	0.096	0.021
-208.450	-200.000	0.008	0.395
-207.436	59.814	-0.124	0.122
-206.421	189.484	0.163	0.244
-205.406	143.499	-0.158	-0.211
-204.392	-33.415	-0.140	-0.078
-203.377	-75.838	0.198	-0.070
-202.363	-200.000	-0.005	-0.096
-201.348	-52.487	-0.225	0.104
-200.333	571.685	0.147	-0.358
-199.319	-84.828	-0.163	0.051
-198.304	-200.000	-0.012	-0.318
-197.290	324.005	0.064	0.123
-196.275	-200.000	-0.025	0.277
-195.260	-28.548	0.344	0.198
-194.246	44.132	0.034	-0.031
-193.231	-60.431	0.228	0.097
-192.217	68.053	-0.312	0.319
-191.202	800.000	-0.044	-0.152
-190.187	1.916	0.050	-0.036
-189.173	800.000	-0.079	0.226
-188.158	-119.122	0.287	0.050
-187.144	17.456	-0.113	-0.090
-186.129	-200.000	0.026	0.341
-185.114	22.052	0.173	-0.141
-184.100	-200.000	0.048	0.250
-183.085	-200.000	-0.029	-0.138
-182.071	-42.341	-0.282	-0.144
-181.056	800.000	-0.091	-0.322
-180.042	124.239	0.098	-0.123
-179.027	-149.717	0.127	0.010
-178.012	-200.000	0.064	-0.302
-176.998	-65.238	0.145	-0.059
-175.983	-191.153	-0.062	-0.001
-174.969	544.421	0.068	0.163
-173.954	47.790	-0.209	-0.195
-172.939	-171.967	-0.195	-0.006
-171.925	692.830	-0.071	0.187
-170.910	-55.670	0.220	-0.098
-169.896	-139.519	-0.214	-0.023
-168.881	-48.800	0.161	0.077
-167.866	-200.000	0.022	-0.286
-166.852	60.058	-0.150	-0.148
-165.837	370.473	0.149	-0.302
-164.823	197.066	0.133	-0.202
-163.808	241.209	-0.152	0.253
-162.793	-48.540	0.249	0.120
-161.779	-121.425	-0.115	-0.019
-160.764	-105.188	-0.288	-0.066
-159.750	-200.000	0.020	0.094
-158.735	-35.151	0.250	0.136
-157.720	378.534	-0.128	0.261
-156.706	-81.238	-0.236	-0.078
-155.691	-130.373	0.262	-0.035
-154.677	800.000	0.045	-0.127
-153.662	446.728	-0.101	0.222
-152.647	37.205	0.071	-0.063
-151.633	-200.000	-0.003	0.023
-150.618	-10.111	0.083	0.055
-149.604	-153.635	0.350	0.024
-148.589	-200.000	0.027	-0.133
-147.574	56.561	-0.067	0.065
-146.560	-121.208	0.163	-0.027
-145.545	800.000	-0.018	-0.081
-144.531	145.542	0.129	0.173
-143.516	106.786	-0.211	0.250
-142.502	39.362	0.198	0.177
-141.487	-122.342	0.326	-0.053
-140.472	-118.811	-0.270	0.047
-139.458	-200.000	0.001	0.171
-138.443	-200.000	0.233	0.000
-137.429	-200.000	-0.036	-0.300
-136.414	31.399	0.361	0.310
-135.399	-6.075	0.326	0.222
-134.385	-181.539	0.074	-0.001
-133.370	-15.932	-0.218	-0.138
-132.356	175.474	0.091	-0.131
-131.341	-200.000	-0.035	-0.271
-130.326	-106.717	-0.278	0.062
-129.312	-86.642	-0.289	0.088
-128.297	-200.000	0.021	0.175
-127.283	3.833	-0.235	-0.171
-126.268	-141.914	0.167	0.017
-125.253	10.028	-0.179	0.135
-124.239	45.448	0.180	-0.166
-123.224	-72.393	-0.038	0.014
-122.210	-54.353	0.230	0.104
-121.195	-31.172	0.345	0.194
