DTS Sentinel unit serial number:	SN413079Multiplexer serial number:	ORYXHardware model number:	OX4-SRSoftware version number:	ORYX F/W v4.00 Oryx Data Collector v3.7.2.0data status	okinstallation	princeton_trtdifferential loss correction	single-endedforward channel	channel 4reverse channel	N/Adate	2019/09/19time	00:53:35forward acquisition time	60.00reverse acquisition time	0.00gamma	496.2192k internal	0.2338k external	0.2338temperature offset calibration	1.0030default loss term (dB/km)	0.3790temperature slope calibration	1.0000multiplexer offset coefficient	1.0000multiplexer slope coefficient	1.0000fibre end	0.00T internal ref (°C)	22.06T ext. ref 1 (°C)	0.73T ext. ref 2 (°C)	15.35length (m)	temperature (°C)	Stokes	anti-Stokes-747.200	740.807	-0.076	0.204
-746.185	-49.081	-0.145	0.070
-745.171	-200.000	0.169	-0.000
-744.156	-11.863	-0.192	0.127
-743.142	-200.000	-0.016	0.193
-742.127	-200.000	-0.488	0.001
-741.112	22.523	0.384	0.315
-740.098	-200.000	0.015	0.282
-739.083	311.876	-0.144	0.271
-738.069	-83.819	-0.306	0.098
-737.054	-109.452	-0.184	-0.039
-736.039	151.452	-0.211	-0.288
-735.025	-31.427	0.145	0.082
-734.010	686.995	0.160	-0.418
-732.996	800.000	-0.007	-0.032
-731.981	800.000	0.024	-0.095
-730.966	-50.562	-0.320	-0.151
-729.952	146.901	0.113	0.153
-728.937	800.000	-0.097	-0.323
-727.923	54.169	-0.221	-0.213
-726.908	133.997	-0.140	0.182
-725.894	-200.000	-0.018	-0.202
-724.879	-88.440	-0.223	-0.067
-723.864	-136.768	0.201	0.023
-722.850	55.106	-0.230	0.223
-721.835	36.588	0.073	0.065
-720.821	-200.000	0.006	0.174
-719.806	423.817	-0.090	0.193
-718.791	-200.000	0.056	-0.277
-717.777	-90.710	-0.036	0.010
-716.762	201.823	0.203	-0.314
-715.748	-124.476	-0.139	-0.022
-714.733	-35.880	0.211	-0.114
-713.718	110.937	-0.062	-0.074
-712.704	12.922	0.227	-0.176
-711.689	-23.059	-0.219	-0.132
-710.675	-73.614	0.156	0.057
-709.660	-86.981	0.200	-0.061
-708.645	224.109	-0.150	0.243
-707.631	-200.000	0.012	0.091
-706.616	-56.883	-0.139	0.062
-705.602	-115.051	-0.197	-0.037
-704.587	-162.364	-0.157	0.008
-703.572	-166.963	-0.273	0.011
-702.558	-200.000	0.036	-0.235
-701.543	-71.735	-0.342	0.128
-700.529	191.326	-0.095	0.143
-699.514	-200.000	-0.057	-0.300
-698.499	-112.517	0.032	0.006
-697.485	-134.962	-0.252	-0.030
-696.470	-25.004	0.072	0.043
-695.456	-153.093	-0.100	0.007
-694.441	576.794	0.072	0.177
-693.426	122.553	-0.186	-0.233
-692.412	140.525	0.147	-0.194
-691.397	218.422	0.116	0.185
-690.383	-87.609	-0.168	-0.051
-689.368	-24.127	-0.257	-0.154
-688.354	55.331	0.125	0.121
-687.339	-200.000	0.019	0.086
-686.324	-110.673	-0.116	0.024
-685.310	-39.853	0.113	-0.059
-684.295	27.198	-0.233	-0.196
-683.281	-195.619	-0.620	-0.005
-682.266	9.131	0.126	0.095
-681.251	-121.148	-0.301	0.051
-680.237	-53.230	-0.073	0.033
-679.222	-94.442	-0.460	-0.126
-678.208	242.776	0.049	0.083
-677.193	-129.600	-0.231	0.032
-676.178	108.671	0.050	0.059
-675.164	152.332	0.060	0.082
-674.149	-200.000	-0.012	-0.151
-673.135	-150.121	-0.400	0.031
-672.120	205.480	0.085	-0.132
-671.105	56.472	0.196	-0.191
-670.091	113.017	-0.190	-0.230
-669.076	-200.000	-0.029	0.216
-668.062	-99.633	-0.258	-0.065
-667.047	-130.025	0.473	-0.065
-666.032	-121.939	0.156	0.026
-665.018	-133.492	0.051	-0.006
-664.003	521.020	0.110	0.259
-662.989	-16.590	-0.151	-0.096
-661.974	-66.029	-0.363	0.145
-660.959	-181.997	0.176	-0.003
-659.945	14.964	-0.215	-0.168
-658.930	42.631	0.162	-0.147
-657.916	-200.000	0.055	0.279
-656.901	-95.629	-0.308	0.083
-655.886	-200.000	0.014	0.124
-654.872	-200.000	-0.028	-0.217
-653.857	8.778	0.281	0.212
-652.843	149.573	0.030	0.040
-651.828	384.127	-0.074	0.153
-650.814	314.164	0.162	0.305
-649.799	-115.611	0.153	0.029
-648.784	106.754	-0.150	-0.178
-647.770	800.000	-0.045	0.175
-646.755	800.000	-0.081	0.330
-645.741	107.783	0.189	-0.225
-644.726	114.089	0.136	0.166
-643.711	-70.474	-0.159	-0.060
-642.697	-200.000	0.028	-0.223
-641.682	313.455	-0.018	-0.033
-640.668	-123.453	-0.260	-0.041
-639.653	-145.336	0.090	0.008
-638.638	1.162	-0.374	0.268
-637.624	19.165	0.158	-0.126
-636.609	-33.357	0.073	-0.040
-635.595	-93.673	-0.087	-0.024
-634.580	121.490	0.165	0.205
-633.565	-123.979	-0.563	-0.088
-632.551	-78.579	0.215	0.074
-631.536	309.978	-0.070	-0.130
-630.522	800.000	0.155	-0.590
-629.507	10.323	-0.104	-0.079
-628.492	480.770	-0.158	-0.358
-627.478	-200.000	0.003	-0.028
-626.463	30.874	0.149	0.127
-625.449	-200.000	-0.046	0.324
-624.434	-70.331	0.028	-0.011
-623.419	-0.619	-0.039	-0.028
-622.405	115.697	0.123	-0.151
-621.390	134.603	-0.163	0.212
-620.376	-156.729	0.196	-0.012
-619.361	-200.000	-0.023	-0.160
-618.346	-200.000	0.040	-0.416
-617.332	243.038	-0.126	0.210
-616.317	-11.952	-0.166	0.109
-615.303	-200.000	0.009	-0.256
-614.288	800.000	-0.004	0.014
-613.273	-33.619	-0.064	0.035
-612.259	106.719	0.169	0.200
-611.244	-40.047	-0.179	0.093
-610.230	-200.000	0.021	-0.275
-609.215	-162.916	-0.350	0.017
-608.201	-65.907	0.284	0.113
-607.186	297.113	-0.050	-0.091
-606.171	800.000	0.095	-0.325
-605.157	800.000	0.073	-0.206
-604.142	88.307	-0.292	-0.324
-603.128	22.430	0.371	-0.302
-602.113	7.198	-0.186	0.138
-601.098	800.000	-0.014	-0.053
-600.084	23.884	0.182	-0.150
-599.069	280.216	0.154	-0.274
-598.055	372.807	-0.170	-0.344
-597.040	-101.504	0.226	-0.055
-596.025	800.000	-0.083	-0.347
-595.011	-200.000	-0.043	0.297
-593.996	-79.593	-0.172	-0.058
-592.982	-200.000	0.027	-0.149
-591.967	-200.000	0.018	0.350
-590.952	371.120	0.086	0.174
-589.938	12.654	0.132	-0.102
-588.923	-200.000	-0.004	-0.213
-587.909	79.974	0.116	0.124
-586.894	24.469	0.154	0.127
-585.879	-100.615	-0.185	0.045
-584.865	233.312	-0.064	0.104
-583.850	219.547	-0.187	0.298
-582.836	410.369	0.065	-0.138
-581.821	57.887	0.182	0.178
-580.806	-21.453	-0.125	0.076
-579.792	-17.205	-0.217	-0.136
-578.777	238.579	0.137	-0.227
-577.763	-23.339	-0.046	-0.027
-576.748	800.000	0.120	0.434
-575.733	-200.000	-0.070	-0.334
-574.719	-200.000	-0.045	-0.254
-573.704	-23.950	0.131	-0.078
-572.690	-200.000	0.015	-0.088
-571.675	-200.000	0.017	0.227
-570.661	-5.791	0.184	-0.126
-569.646	113.453	-0.213	0.258
-568.631	471.605	0.025	-0.057
-567.617	153.939	0.221	-0.302
-566.602	18.002	-0.163	-0.129
-565.588	-26.710	0.063	0.036
-564.573	67.513	-0.048	0.049
-563.558	22.900	0.019	0.016
-562.544	-46.237	0.097	0.048
-561.529	188.738	0.055	-0.082
-560.515	119.884	-0.133	0.164
-559.500	-13.213	-0.297	0.192
-558.485	-200.000	0.018	0.286
-557.471	-49.652	0.191	0.091
-556.456	-137.192	-0.234	0.026
-555.442	56.015	0.114	-0.110
-554.427	-148.030	-0.136	0.011
-553.412	-66.460	0.028	-0.011
-552.398	800.000	0.048	-0.196
-551.383	499.200	-0.096	-0.221
-550.369	-200.000	-0.045	-0.201
-549.354	83.374	0.088	-0.095
-548.339	-68.059	0.186	-0.072
-547.325	382.739	-0.021	-0.044
-546.310	-33.789	0.073	-0.040
-545.296	452.274	-0.113	0.248
-544.281	800.000	0.104	0.307
-543.266	-162.877	-0.240	-0.012
-542.252	75.059	-0.101	-0.106
-541.237	152.935	-0.075	0.103
-540.223	243.469	0.094	-0.156
-539.208	-200.000	-0.365	0.000
-538.193	-19.372	-0.166	-0.102
-537.179	-26.082	0.266	0.156
-536.164	229.020	-0.174	-0.282
-535.150	317.607	0.077	0.145
-534.135	-168.288	-0.512	0.020
-533.121	-200.000	-0.022	0.255
-532.106	15.286	-0.100	0.078
-531.091	-110.564	0.134	0.028
-530.077	800.000	-0.081	0.242
-529.062	356.187	-0.049	0.097
-528.048	521.598	0.149	0.349
-527.033	-14.056	-0.275	0.177
-526.018	-50.264	-0.047	0.022
-525.004	14.830	0.231	-0.179
-523.989	8.125	-0.240	0.179
-522.975	190.313	0.108	0.162
-521.960	115.420	0.195	0.236
-520.945	-39.015	0.246	0.129
-519.931	217.127	0.099	-0.157
-518.916	-65.846	-0.186	-0.074
-517.902	95.855	-0.082	0.093
-516.887	-24.623	0.034	-0.020
-515.872	35.683	-0.098	0.086
-514.858	83.911	-0.060	0.065
-513.843	800.000	-0.026	0.075
-512.829	-200.000	-0.044	-0.198
-511.814	29.408	0.091	-0.077
-510.799	487.897	-0.098	-0.223
-509.785	-200.000	0.004	0.109
-508.770	217.240	0.107	-0.169
-507.756	-115.017	0.234	0.044
-506.741	-7.401	-0.089	-0.060
-505.726	57.466	-0.228	0.221
-504.712	-37.107	-0.482	0.257
-503.697	109.704	-0.113	-0.134
-502.683	-200.000	-0.018	-0.082
-501.668	24.582	-0.030	0.025
-500.653	-84.164	0.128	-0.040
-499.639	-161.290	-0.065	0.003
-498.624	-137.599	-0.461	0.052
-497.610	23.643	0.058	0.048
-496.595	-60.180	0.266	-0.113
-495.581	-139.175	0.023	-0.002
-494.566	-56.480	0.186	-0.082
-493.551	-104.567	0.365	0.084
-492.537	-200.000	-0.005	-0.034
-491.522	-107.111	-0.167	-0.037
-490.508	-200.000	0.005	-0.040
-489.493	67.127	0.169	0.172
-488.478	223.174	-0.136	-0.218
-487.464	1.710	-0.261	-0.187
-486.449	175.653	0.194	-0.279
-485.435	286.315	-0.176	0.316
-484.420	-97.304	0.206	-0.053
-483.405	-100.746	0.066	-0.016
-482.391	-5.331	-0.365	0.249
-481.376	800.000	0.062	0.179
-480.362	31.024	0.154	0.132
-479.347	-124.175	-0.223	-0.035
-478.332	-64.800	0.287	-0.116
-477.318	-101.262	0.318	0.077
-476.303	-200.000	-0.056	-0.335
-475.289	-156.001	-0.324	-0.020
-474.274	312.778	0.239	0.446
-473.259	194.499	-0.226	-0.340
-472.245	-7.709	0.179	0.120
-471.230	-159.312	-0.151	0.008
-470.216	781.162	-0.047	0.127
-469.201	-131.105	0.391	-0.052
-468.186	20.735	0.303	0.244
-467.172	-80.730	0.239	0.079
-466.157	229.173	-0.176	-0.285
-465.143	4.669	0.097	0.070
-464.128	-187.104	0.114	-0.002
-463.113	25.889	-0.038	0.032
-462.099	330.395	0.085	-0.163
-461.084	-200.000	0.039	-0.341
-460.070	58.315	-0.172	0.168
-459.055	800.000	-0.095	-0.339
-458.040	-43.877	0.313	0.156
-457.026	-74.144	0.112	0.040
-456.011	-1.476	-0.085	-0.059
-454.997	128.621	0.123	-0.156
-453.982	52.662	0.210	0.199
-452.968	262.906	-0.189	0.326
-451.953	226.006	-0.158	0.254
-450.938	-200.000	0.021	0.192
-449.924	-172.873	-0.070	-0.002
-448.909	800.000	0.032	0.098
-447.895	-45.116	0.297	0.147
-446.880	-69.065	-0.269	-0.103
-445.865	-200.000	0.016	-0.196
-444.851	-73.487	-0.101	0.037
-443.836	184.435	-0.105	-0.154
-442.822	-200.000	0.004	-0.177
-441.807	-200.000	0.036	-0.490
-440.792	259.330	-0.054	0.092
-439.778	-92.548	-0.170	-0.047
-438.763	-99.535	0.325	-0.081
-437.749	44.237	-0.160	-0.146
-436.734	55.023	-0.174	-0.166
-435.719	800.000	0.054	0.188
-434.705	-200.000	-0.018	0.173
-433.690	4.123	-0.123	-0.090
-432.676	39.591	0.069	-0.061
-431.661	123.061	0.043	0.053
-430.646	-36.371	-0.137	0.073
-429.632	-61.451	-0.285	0.119
-428.617	800.000	-0.053	0.206
-427.603	-200.000	-0.005	0.039
-426.588	-200.000	0.030	-0.169
-425.573	-200.000	-0.007	-0.292
-424.559	419.159	0.072	-0.152
-423.544	620.999	-0.121	0.301
-422.530	800.000	-0.112	0.439
-421.515	-200.000	0.019	-0.211
-420.500	26.500	-0.061	-0.051
-419.486	800.000	-0.097	-0.390
-418.471	117.241	0.183	-0.223
-417.457	41.503	-0.081	-0.073
-416.442	-43.914	-0.134	-0.067
-415.428	244.582	0.016	-0.027
-414.413	-106.980	-0.082	0.018
-413.398	800.000	-0.088	0.314
-412.384	716.342	0.059	-0.154
-411.369	45.888	0.134	-0.123
-410.355	123.880	0.079	-0.098
-409.340	352.552	0.174	0.342
-408.325	-12.227	0.098	0.064
-407.311	-42.844	-0.149	0.075
-406.296	-200.000	-0.031	0.250
-405.282	327.499	0.199	-0.378
-404.267	12.342	0.164	-0.125
-403.252	-137.939	-0.083	0.009
-402.238	-51.716	-0.229	-0.106
-401.223	-63.381	-0.089	0.036
-400.209	800.000	0.026	-0.093
-399.194	-65.001	-0.222	0.089
-398.179	-48.415	0.119	-0.057
-397.165	-200.000	-0.023	0.141
-396.150	-131.187	0.188	0.025
-395.136	698.787	0.039	0.101
-394.121	70.296	0.200	0.205
-393.106	224.336	0.176	0.282
-392.092	-179.339	-0.167	0.004
-391.077	97.210	0.102	-0.116
-390.063	38.323	-0.230	-0.203
-389.048	-129.090	-0.108	-0.015
-388.033	-200.000	0.019	-0.141
-387.019	-57.061	0.139	-0.061
-386.004	-99.897	-0.239	0.059
-384.990	-200.000	0.006	0.088
-383.975	-70.742	0.273	-0.102
-382.960	-59.615	0.119	-0.051
-381.946	562.550	0.102	0.243
-380.931	-200.000	0.023	0.254
-379.917	119.874	-0.137	-0.168
-378.902	-200.000	-0.028	0.208
-377.888	621.215	0.131	0.326
-376.873	-200.000	-0.045	-0.315
-375.858	-200.000	0.003	-0.082
-374.844	252.019	-0.097	-0.164
-373.829	-200.000	-0.013	0.164
-372.815	-200.000	-0.008	0.138
-371.800	-200.000	-0.001	-0.180
-370.785	67.252	-0.167	-0.169
-369.771	85.778	0.137	0.149
-368.756	63.381	-0.078	-0.077
-367.742	52.174	-0.164	0.154
-366.727	-84.017	-0.260	-0.082
-365.712	40.521	0.303	0.270
-364.698	-9.351	0.352	-0.232
-363.683	-65.473	0.126	-0.050
-362.669	-113.485	-0.114	-0.022
-361.654	210.505	-0.109	-0.169
-360.639	-200.000	0.051	-0.247
-359.625	-200.000	0.039	-0.359
-358.610	-200.000	-0.079	-0.403
-357.596	-200.000	-0.026	-0.324
-356.581	-62.021	0.237	-0.098
-355.566	-23.471	0.187	-0.111
-354.552	414.403	0.143	0.300
-353.537	17.566	-0.261	-0.205
-352.523	-99.721	0.245	-0.061
-351.508	-200.000	-0.008	-0.239
-350.493	70.021	-0.066	0.067
-349.479	227.455	-0.135	-0.217
-348.464	800.000	-0.094	0.330
-347.450	800.000	-0.055	0.175
-346.435	800.000	0.186	0.650
-345.420	-200.000	0.021	-0.125
-344.406	-70.225	0.136	-0.051
-343.391	800.000	0.065	-0.242
-342.377	-114.921	0.221	-0.042
-341.362	-58.063	0.368	0.159
-340.348	-35.113	-0.066	-0.036
-339.333	304.263	-0.052	-0.095
-338.318	-110.588	0.154	-0.032
-337.304	31.828	-0.155	-0.132
-336.289	-78.769	-0.077	-0.026
-335.275	13.140	0.165	0.127
-334.260	-96.071	0.363	-0.095
-333.245	231.320	-0.065	-0.106
-332.231	253.729	0.018	0.031
-331.216	-77.951	0.150	0.051
-330.202	-200.000	-0.012	0.205
-329.187	-200.000	-0.034	-0.286
-328.172	-200.000	0.015	-0.182
-327.158	-5.515	0.363	0.246
-326.143	-58.082	-0.334	-0.144
-325.129	500.786	0.119	-0.271
-324.114	257.629	-0.007	-0.012
-323.099	-28.766	0.140	-0.079
-322.085	-168.021	-0.148	0.006
-321.070	195.481	0.054	0.082
-320.056	108.175	0.072	-0.085
-319.041	-60.886	-0.411	-0.172
-318.026	800.000	-0.037	0.120
-317.012	38.340	0.197	0.173
-315.997	108.776	0.077	-0.091
-314.983	242.784	0.135	0.223
-313.968	101.732	-0.196	0.225
-312.953	-92.529	-0.115	0.032
-311.939	-139.934	0.078	0.008
-310.924	118.436	-0.076	0.092
-309.910	-144.043	0.392	-0.036
-308.895	771.360	-0.090	-0.242
-307.880	60.531	-0.099	-0.097
-306.866	-96.939	0.194	0.050
-305.851	-117.208	0.189	0.034
-304.837	0.424	0.031	-0.022
-303.822	-157.641	0.248	-0.015
-302.807	-106.474	-0.044	0.010
-301.793	0.002	-0.129	-0.091
-300.778	-73.931	-0.370	-0.132
-299.764	103.652	0.057	0.066
-298.749	502.280	0.135	0.308
-297.735	-170.437	0.144	0.005
-296.720	-200.000	-0.016	0.206
-295.705	-200.000	-0.023	-0.142
-294.691	800.000	0.097	0.291
-293.676	800.000	-0.059	0.219
-292.662	-180.009	-0.351	0.007
-291.647	-171.624	0.258	0.008
-290.632	40.221	-0.107	-0.095
-289.618	38.571	-0.048	0.042
-288.603	-176.558	-0.207	-0.005
-287.589	272.755	-0.166	-0.289
-286.574	-165.095	0.059	-0.003
-285.559	51.556	0.274	0.257
-284.545	-160.354	0.217	-0.011
-283.530	18.608	-0.208	0.164
-282.516	-158.696	0.295	0.017
-281.501	13.147	0.044	0.034
-280.486	-139.291	0.148	0.016
-279.472	187.896	-0.064	-0.094
-278.457	73.599	-0.335	-0.346
-277.443	-200.000	0.117	-0.524
-276.428	6.945	-0.425	0.312
-275.413	110.747	0.131	-0.155
-274.399	-200.000	-0.025	0.405
-273.384	-200.000	-0.038	0.190
-272.370	-200.000	0.012	-0.163
-271.355	49.637	-0.280	-0.260
-270.340	32.389	-0.254	0.216
-269.326	-41.911	-0.157	-0.079
-268.311	640.757	-0.093	0.234
-267.297	37.686	-0.127	-0.111
-266.282	800.000	-0.073	0.270
-265.267	800.000	0.098	0.308
-264.253	-141.434	0.123	0.012
-263.238	190.169	-0.253	0.374
-262.224	-136.533	0.225	-0.026
-261.209	-176.915	-0.326	0.008
-260.195	-200.000	0.042	0.303
-259.180	615.403	-0.083	0.206
-258.165	-123.412	0.329	-0.052
-257.151	338.742	0.154	-0.295
-256.136	222.868	0.126	-0.200
-255.122	-51.808	0.213	-0.097
-254.107	-55.138	-0.187	0.083
-253.092	208.288	0.035	0.054
-252.078	7.699	0.091	0.067
-251.063	-53.227	-0.175	-0.079
-250.049	-125.607	0.256	0.038
-249.034	709.525	-0.172	0.448
-248.019	140.093	0.194	-0.251
-247.005	-68.541	-0.187	0.071
-245.990	-29.019	0.365	-0.206
-244.976	-200.000	-0.001	-0.242
-243.961	-52.428	0.153	-0.070
-242.946	228.814	-0.133	0.213
-241.932	16.836	-0.136	0.106
-240.917	-145.617	-0.198	-0.017
-239.903	-200.000	-0.054	0.369
-238.888	-30.472	0.079	-0.044
-237.873	800.000	-0.049	0.164
-236.859	-80.680	-0.100	-0.033
-235.844	160.542	-0.104	0.143
-234.830	-98.599	0.188	-0.047
-233.815	-200.000	0.015	0.247
-232.800	58.377	-0.291	0.281
-231.786	140.578	-0.112	-0.146
-230.771	83.302	-0.135	0.145
-229.757	800.000	0.039	0.134
-228.742	129.043	0.103	0.129
-227.727	66.695	0.098	-0.098
-226.713	-18.393	0.086	-0.053
-225.698	261.008	-0.131	0.224
-224.684	-49.895	0.197	-0.092
-223.669	151.784	0.401	-0.538
-222.655	144.396	0.166	-0.218
-221.640	294.368	-0.195	-0.351
-220.625	-88.303	0.313	-0.092
-219.611	-135.266	-0.237	-0.028
-218.596	-34.605	0.289	0.155
-217.582	89.927	0.112	-0.124
-216.567	223.956	-0.046	0.072
-215.552	-84.116	-0.090	-0.028
-214.538	-51.916	-0.136	-0.062
-213.523	82.967	0.100	-0.107
-212.509	-101.211	0.108	-0.026
-211.494	-200.000	-0.014	0.095
-210.479	126.925	0.205	0.255
-209.465	2.656	-0.289	0.206
-208.450	-200.000	-0.025	-0.116
-207.436	114.863	0.156	-0.187
-206.421	101.471	0.167	-0.191
-205.406	-200.000	0.004	0.051
-204.392	147.243	-0.155	0.205
-203.377	-116.203	0.304	0.055
-202.363	50.382	-0.142	0.132
-201.348	192.819	0.167	0.247
-200.333	-200.000	-0.094	-0.417
-199.319	-196.600	0.122	-0.001
-198.304	573.893	-0.054	0.129
-197.290	800.000	-0.058	0.186
-196.275	-200.000	0.067	0.394
-195.260	-65.964	-0.100	0.039
-194.246	-103.348	-0.376	-0.087
-193.231	461.151	0.040	-0.088
-192.217	175.434	0.184	0.262
-191.202	-98.075	0.135	0.034
-190.187	-22.178	-0.171	0.102
-189.173	11.606	0.169	-0.127
-188.158	-63.467	-0.330	-0.133
-187.144	-200.000	-0.023	0.126
-186.129	228.339	0.222	-0.355
-185.114	-44.955	0.109	-0.053
-184.100	-62.237	0.314	0.128
-183.085	225.675	0.081	-0.128
-182.071	-19.772	-0.276	0.167
-181.056	-110.920	0.496	-0.100
-180.042	84.882	-0.225	0.242
-179.027	118.800	-0.032	-0.038
-178.012	121.074	-0.116	0.142
-176.998	286.506	0.065	-0.115
-175.983	86.727	-0.035	-0.038
-174.969	800.000	0.040	-0.163
-173.954	800.000	0.057	0.164
-172.939	-102.691	-0.309	0.072
-171.925	24.097	-0.128	0.104
-170.910	442.412	0.084	0.181
-169.896	-46.986	0.154	-0.074
-168.881	-200.000	-0.010	0.141
-167.866	246.158	0.232	-0.384
-166.852	93.122	-0.310	-0.343
-165.837	-200.000	0.000	-0.112
-164.823	83.605	-0.208	0.223
-163.808	-71.838	-0.060	0.022
-162.793	-200.000	-0.002	-0.242
-161.779	50.456	0.079	-0.074
-160.764	-121.089	-0.381	0.063
-159.750	-170.494	0.176	-0.006
-158.735	24.340	-0.127	0.103
-157.720	-9.537	0.252	0.165
-156.706	50.993	0.195	0.181
-155.691	-67.691	-0.541	0.208
-154.677	-200.000	0.000	-0.011
-153.662	-200.000	0.003	-0.084
-152.647	-200.000	0.028	0.174
-151.633	-200.000	0.026	0.409
-150.618	-101.541	0.229	0.055
-149.604	-25.987	-0.170	-0.098
-148.589	203.604	0.151	-0.229
-147.574	105.584	-0.096	-0.111
-146.560	227.784	0.141	0.225
-145.545	22.771	-0.432	0.347
-144.531	161.801	0.038	-0.052
-143.516	-123.207	0.384	-0.060
-142.502	26.737	0.242	0.199
-141.487	-48.061	-0.200	-0.095
-140.472	-61.398	-0.298	0.123
-139.458	180.915	0.218	0.314
-138.443	702.729	-0.026	0.066
-137.429	-84.369	0.475	-0.147
-136.414	-200.000	-0.015	-0.117
-135.399	613.500	0.099	-0.242
-134.385	-200.000	0.049	-0.301
-133.370	-200.000	0.002	0.019
-132.356	800.000	0.080	0.230
-131.341	45.027	0.255	-0.230
-130.326	-67.501	-0.325	-0.125
-129.312	-113.767	-0.207	0.039
-128.297	-99.534	0.325	0.080
-127.283	800.000	0.015	-0.047
-126.268	-85.442	0.258	-0.079
-125.253	21.455	-0.138	-0.110
-124.239	40.766	0.096	-0.085
-123.224	-82.835	-0.051	-0.016
-122.210	39.360	-0.321	-0.282
-121.195	265.879	0.075	0.129
