DTS Sentinel unit serial number:	SN413079Multiplexer serial number:	ORYXHardware model number:	OX4-SRSoftware version number:	ORYX F/W v4.00 Oryx Data Collector v3.7.2.0data status	okinstallation	princeton_trtdifferential loss correction	single-endedforward channel	channel 4reverse channel	N/Adate	2019/09/18time	19:01:35forward acquisition time	60.00reverse acquisition time	0.00gamma	496.2192k internal	0.2304k external	0.2304temperature offset calibration	1.0022default loss term (dB/km)	0.3790temperature slope calibration	1.0000multiplexer offset coefficient	1.0000multiplexer slope coefficient	1.0000fibre end	0.00T internal ref (°C)	35.91T ext. ref 1 (°C)	0.93T ext. ref 2 (°C)	25.01length (m)	temperature (°C)	Stokes	anti-Stokes-747.200	227.073	0.155	0.257
-746.185	-200.000	0.031	0.521
-745.171	3.739	-0.103	0.076
-744.156	124.678	-0.200	0.257
-743.142	383.228	0.127	0.265
-742.127	-200.000	-0.017	0.359
-741.112	66.232	-0.117	-0.121
-740.098	800.000	-0.112	0.487
-739.083	199.691	0.040	-0.063
-738.069	800.000	-0.062	0.174
-737.054	-121.232	-0.218	0.037
-736.039	46.994	0.295	0.280
-735.025	-118.933	0.223	0.040
-734.010	529.404	-0.149	0.359
-732.996	1.361	0.146	0.107
-731.981	-182.988	-0.223	-0.004
-730.966	800.000	-0.066	0.185
-729.952	-200.000	-0.030	0.312
-728.937	-76.419	-0.157	-0.056
-727.923	75.027	0.098	0.105
-726.908	11.601	-0.314	-0.245
-725.894	336.218	-0.031	-0.061
-724.879	138.085	0.171	-0.228
-723.864	339.560	-0.122	0.241
-722.850	88.991	0.091	0.103
-721.835	-200.000	-0.049	-0.364
-720.821	-200.000	0.009	0.105
-719.806	108.751	-0.272	0.331
-718.791	-24.327	-0.206	0.125
-717.777	73.649	0.053	0.057
-716.762	128.771	-0.297	-0.386
-715.748	-94.941	0.210	0.058
-714.733	-56.231	-0.436	0.197
-713.718	-84.412	0.064	-0.021
-712.704	148.346	-0.091	0.125
-711.689	-200.000	-0.019	-0.457
-710.675	92.144	0.079	-0.091
-709.660	800.000	0.038	0.117
-708.645	-162.526	-0.141	-0.007
-707.631	-84.236	0.462	-0.149
-706.616	-118.012	-0.226	0.041
-705.602	-24.884	-0.124	-0.075
-704.587	164.577	0.221	-0.316
-703.572	800.000	0.047	0.174
-702.558	-200.000	-0.019	0.099
-701.543	205.303	-0.165	-0.261
-700.529	124.384	-0.170	-0.217
-699.514	800.000	0.055	0.210
-698.499	139.347	0.079	-0.105
-697.485	43.700	0.407	-0.378
-696.470	-64.292	-0.438	0.181
-695.456	211.115	0.089	0.143
-694.441	-67.731	-0.103	-0.041
-693.426	-200.000	0.023	0.156
-692.412	-171.513	0.050	0.002
-691.397	-58.042	0.243	0.108
-690.383	122.556	-0.039	0.049
-689.368	-96.102	0.087	-0.023
-688.354	-69.209	0.288	0.112
-687.339	-200.000	0.064	-0.299
-686.324	266.233	0.186	-0.329
-685.310	-200.000	0.035	0.226
-684.295	-200.000	0.011	-0.300
-683.281	183.694	-0.118	-0.177
-682.266	-2.157	-0.463	0.330
-681.251	-23.039	-0.283	-0.173
-680.237	361.684	0.048	-0.098
-679.222	-28.516	-0.265	-0.155
-678.208	192.051	-0.035	-0.054
-677.193	-200.000	0.000	-0.054
-676.178	-200.000	0.013	-0.299
-675.164	67.959	0.225	0.233
-674.149	-200.000	-0.009	0.107
-673.135	518.670	0.060	-0.143
-672.120	800.000	-0.020	0.057
-671.105	-81.597	0.131	-0.044
-670.091	-37.915	0.155	0.084
-669.076	3.160	0.128	0.095
-668.062	196.242	-0.105	-0.162
-667.047	-14.843	-0.191	0.125
-666.032	62.748	0.417	0.423
-665.018	-128.378	-0.139	-0.020
-664.003	8.319	0.110	0.084
-662.989	98.398	0.154	0.180
-661.974	-200.000	0.044	0.265
-660.959	-58.443	-0.247	-0.109
-659.945	-44.998	0.143	0.072
-658.930	217.840	0.140	-0.227
-657.916	-7.976	0.130	0.089
-656.901	800.000	0.088	0.296
-655.886	268.493	0.186	-0.331
-654.872	-107.304	-0.165	-0.037
-653.857	-99.102	-0.132	0.034
-652.843	800.000	-0.051	-0.148
-651.828	74.710	0.087	0.093
-650.814	800.000	-0.039	0.123
-649.799	5.456	0.288	0.215
-648.784	-200.000	-0.007	-0.132
-647.770	800.000	-0.033	-0.110
-646.755	-20.283	-0.178	-0.111
-645.741	-87.347	-0.118	-0.036
-644.726	-3.314	0.265	0.187
-643.711	681.825	-0.010	0.025
-642.697	-200.000	-0.223	-0.001
-641.682	28.359	-0.122	-0.104
-640.668	-178.830	-0.388	-0.009
-639.653	800.000	0.046	-0.187
-638.638	456.975	0.077	0.173
-637.624	-145.373	0.176	-0.016
-636.609	614.737	-0.110	-0.279
-635.595	130.063	-0.044	-0.057
-634.580	86.722	0.106	-0.119
-633.565	-200.000	0.002	0.230
-632.551	-33.950	0.077	-0.043
-631.536	-72.436	-0.254	-0.095
-630.522	-118.903	0.344	0.061
-629.507	800.000	0.090	0.331
-628.492	-200.000	-0.009	-0.097
-627.478	347.879	0.118	-0.235
-626.463	10.344	-0.092	0.071
-625.449	-200.000	0.012	-0.127
-624.434	237.194	-0.127	0.213
-623.419	243.799	-0.197	-0.334
-622.405	91.324	-0.137	-0.156
-621.390	-200.000	0.051	0.282
-620.376	-93.200	-0.188	-0.053
-619.361	26.296	0.265	-0.224
-618.346	190.550	0.112	0.171
-617.332	-24.336	0.274	-0.166
-616.317	-89.749	-0.109	-0.032
-615.303	800.000	-0.078	0.308
-614.288	-117.011	-0.311	0.058
-613.273	-41.352	-0.169	0.088
-612.259	-59.150	-0.328	-0.143
-611.244	-141.855	-0.509	0.052
-610.230	424.149	0.169	0.369
-609.215	125.809	-0.196	-0.251
-608.201	800.000	0.149	0.472
-607.186	-68.746	-0.022	-0.009
-606.171	800.000	-0.113	0.377
-605.157	-22.235	-0.503	-0.309
-604.142	6.591	0.165	0.124
-603.128	7.652	0.204	0.154
-602.113	-200.000	-0.011	0.488
-601.098	-151.090	-0.194	0.015
-600.084	202.804	0.172	-0.269
-599.069	199.928	0.180	-0.279
-598.055	180.612	-0.031	-0.046
-597.040	199.707	-0.108	0.168
-596.025	-31.983	0.025	0.014
-595.011	141.700	0.216	-0.289
-593.996	42.583	-0.118	-0.108
-592.982	31.062	-0.171	-0.149
-591.967	-115.483	0.034	-0.007
-590.952	800.000	-0.005	0.019
-589.938	40.343	-0.096	0.088
-588.923	800.000	-0.077	0.258
-587.909	-29.359	-0.235	-0.136
-586.894	800.000	0.061	0.208
-585.879	-200.000	-0.067	0.394
-584.865	-200.000	0.011	-0.182
-583.850	800.000	-0.049	-0.139
-582.836	67.990	0.193	-0.200
-581.821	-99.829	-0.267	0.067
-580.806	-140.588	0.474	-0.050
-579.792	56.391	-0.133	0.131
-578.777	-200.000	-0.036	-0.253
-577.763	239.007	0.119	-0.199
-576.748	173.274	-0.234	0.341
-575.733	-109.481	-0.297	-0.064
-574.719	-62.420	-0.115	-0.048
-573.704	724.350	-0.102	-0.275
-572.690	552.704	-0.116	-0.283
-571.675	-152.785	0.242	-0.017
-570.661	800.000	0.027	0.091
-569.646	-18.518	0.196	0.124
-568.631	31.148	0.197	-0.171
-567.617	99.672	0.083	0.097
-566.602	-116.508	-0.369	-0.069
-565.588	98.303	-0.063	-0.074
-564.573	-200.000	-0.025	-0.139
-563.558	800.000	0.064	-0.184
-562.544	-200.000	-0.024	0.321
-561.529	-200.000	-0.026	0.324
-560.515	800.000	-0.128	-0.411
-559.500	728.248	-0.132	-0.357
-558.485	-78.778	0.069	-0.024
-557.471	-35.347	-0.163	0.089
-556.456	-77.158	-0.484	-0.170
-555.442	-200.000	0.072	-0.376
-554.427	-43.911	-0.171	-0.087
-553.412	33.570	-0.056	0.049
-552.398	-3.052	-0.193	-0.136
-551.383	-186.761	-0.332	0.005
-550.369	-37.847	-0.062	-0.033
-549.354	5.738	-0.120	-0.090
-548.339	60.594	0.120	-0.120
-547.325	-104.659	-0.060	-0.014
-546.310	-86.977	0.378	-0.117
-545.296	800.000	-0.059	0.187
-544.281	-58.045	0.518	0.228
-543.266	318.226	0.156	-0.299
-542.252	135.821	-0.040	-0.053
-541.237	50.939	0.118	-0.113
-540.223	170.041	0.181	0.262
-539.208	231.515	0.112	-0.185
-538.193	259.065	0.194	-0.338
-537.179	48.078	-0.174	-0.164
-536.164	25.213	-0.167	-0.140
-535.150	551.534	0.104	-0.253
-534.135	94.266	-0.094	-0.107
-533.121	169.805	-0.181	-0.262
-532.106	-7.575	-0.243	-0.166
-531.091	782.523	0.117	-0.323
-530.077	-96.098	-0.339	-0.091
-529.062	167.890	-0.113	0.163
-528.048	-61.615	-0.191	0.081
-527.033	-185.894	-0.220	-0.003
-526.018	323.938	-0.171	0.330
-525.004	800.000	-0.042	-0.160
-523.989	-149.285	-0.115	0.009
-522.975	-132.781	0.239	0.031
-521.960	201.529	0.195	-0.303
-520.945	-83.603	0.355	0.114
-519.931	-100.381	0.351	0.088
-518.916	800.000	0.055	0.214
-517.902	-140.225	0.297	0.031
-516.887	253.515	-0.170	0.294
-515.872	167.312	-0.311	-0.445
-514.858	-107.783	-0.352	-0.077
-513.843	472.493	0.179	0.408
-512.829	-113.440	-0.140	-0.028
-511.814	-74.218	0.278	0.101
-510.799	58.641	0.151	0.149
-509.785	800.000	0.011	-0.034
-508.770	138.183	-0.298	-0.395
-507.756	59.562	-0.075	0.075
-506.741	-95.099	0.414	0.113
-505.726	-200.000	-0.003	0.228
-504.712	-200.000	-0.034	-0.285
-503.697	-200.000	0.022	0.387
-502.683	-15.145	0.043	0.028
-501.668	-76.715	-0.129	0.045
-500.653	-200.000	-0.003	0.213
-499.639	93.281	0.261	0.298
-498.624	-53.100	0.252	-0.117
-497.610	162.216	-0.099	0.140
-496.595	33.696	-0.026	-0.023
-495.581	800.000	0.090	-0.306
-494.566	-200.000	-0.002	-0.159
-493.551	247.962	-0.154	0.262
-492.537	621.385	0.176	0.446
-491.522	-200.000	0.021	-0.433
-490.508	-200.000	0.008	0.190
-489.493	75.889	0.150	-0.160
-488.478	800.000	0.084	0.277
-487.464	195.193	-0.102	0.157
-486.449	72.922	-0.039	0.041
-485.435	-29.462	-0.379	-0.218
-484.420	-78.357	-0.068	-0.023
-483.405	250.879	0.079	0.135
-482.391	-141.731	-0.096	0.010
-481.376	157.457	0.092	0.128
-480.362	635.875	0.112	-0.287
-479.347	800.000	-0.036	0.122
-478.332	-33.928	0.044	0.024
-477.318	800.000	0.029	0.100
-476.303	123.355	-0.274	-0.346
-475.289	-3.176	0.114	0.080
-474.274	158.220	0.155	0.217
-473.259	800.000	0.054	0.161
-472.245	-45.475	-0.206	0.103
-471.230	39.824	-0.280	0.253
-470.216	21.445	-0.086	-0.071
-469.201	-94.802	-0.167	-0.046
-468.186	-18.594	0.289	-0.182
-467.172	-200.000	0.006	-0.069
-466.157	-196.693	-0.061	0.000
-465.143	259.874	0.051	0.088
-464.128	145.177	-0.176	0.237
-463.113	800.000	-0.051	0.225
-462.099	441.935	-0.046	-0.102
-461.084	-157.604	0.070	0.004
-460.070	58.666	-0.220	-0.217
-459.055	66.399	-0.261	-0.267
-458.040	-200.000	-0.009	-0.337
-457.026	800.000	-0.069	-0.290
-456.011	-109.115	0.189	-0.040
-454.997	-114.728	-0.207	-0.040
-453.982	-200.000	0.030	0.284
-452.968	-2.518	0.143	0.100
-451.953	-200.000	0.042	-0.247
-450.938	374.305	-0.154	0.316
-449.924	67.860	0.227	0.234
-448.909	-153.459	-0.305	-0.021
-447.895	-35.127	-0.182	-0.100
-446.880	139.419	-0.208	-0.276
-445.865	249.755	-0.041	0.070
-444.851	-157.648	-0.207	-0.012
-443.836	-144.497	-0.191	-0.018
-442.822	235.972	0.174	0.290
-441.807	104.632	0.179	0.212
-440.792	57.134	-0.123	-0.120
-439.778	-161.641	-0.312	-0.016
-438.763	-63.824	0.128	-0.053
-437.749	175.597	-0.253	0.369
-436.734	6.084	0.156	0.116
-435.719	211.099	-0.080	-0.126
-434.705	-200.000	-0.012	0.069
-433.690	9.808	-0.170	-0.130
-432.676	200.142	0.202	0.312
-431.661	800.000	-0.091	0.268
-430.646	-113.157	-0.366	-0.073
-429.632	-108.509	-0.093	-0.020
-428.617	221.951	0.020	0.033
-427.603	-200.000	0.029	-0.180
-426.588	-200.000	-0.026	-0.260
-425.573	64.216	0.209	-0.211
-424.559	29.437	0.200	0.171
-423.544	89.955	0.125	0.140
-422.530	66.879	0.080	-0.081
-421.515	-200.000	-0.001	0.268
-420.500	21.291	-0.141	0.115
-419.486	-200.000	-0.046	-0.308
-418.471	-22.341	0.303	-0.184
-417.457	309.091	-0.071	-0.133
-416.442	238.142	-0.108	-0.180
-415.428	-168.419	0.426	0.016
-414.413	800.000	-0.110	-0.479
-413.398	-200.000	0.006	0.176
-412.384	279.391	-0.090	-0.161
-411.369	-90.364	-0.261	-0.076
-410.355	-83.238	-0.456	0.147
-409.340	156.745	0.276	-0.383
-408.325	82.698	0.166	-0.181
-407.311	354.199	-0.088	-0.176
-406.296	33.805	-0.240	0.210
-405.282	-118.370	0.218	-0.039
-404.267	-53.397	0.325	0.149
-403.252	124.246	-0.122	0.154
-402.238	800.000	0.065	0.285
-401.223	-52.342	-0.107	0.050
-400.209	-72.508	0.350	0.130
-399.194	32.536	-0.079	-0.069
-398.179	800.000	-0.061	0.210
-397.165	-172.908	0.344	-0.011
-396.150	-42.775	0.077	0.039
-395.136	-200.000	0.245	-0.001
-394.121	-200.000	-0.034	-0.326
-393.106	800.000	0.089	-0.251
-392.092	256.676	0.058	-0.101
-391.077	592.477	-0.050	-0.124
-390.063	-71.417	-0.300	-0.113
-389.048	-78.025	-0.120	0.042
-388.033	37.137	-0.117	0.104
-387.019	175.489	0.042	0.061
-386.004	458.871	-0.054	-0.121
-384.990	800.000	-0.017	-0.059
-383.975	78.492	0.073	0.078
-382.960	-1.544	0.298	0.211
-381.946	517.864	0.159	-0.375
-380.931	-200.000	0.033	-0.510
-379.917	-200.000	-0.004	-0.147
-378.902	-85.886	-0.116	-0.036
-377.888	673.052	-0.092	-0.240
-376.873	-171.875	0.262	0.009
-375.858	-200.000	0.014	-0.167
-374.844	-200.000	0.069	0.427
-373.829	-200.000	-0.031	0.285
-372.815	342.886	0.160	-0.315
-371.800	287.070	0.104	0.189
-370.785	33.906	-0.208	0.181
-369.771	93.800	0.342	-0.389
-368.756	486.831	0.131	0.301
-367.742	3.495	-0.226	0.165
-366.727	-200.000	-0.049	-0.253
-365.712	53.821	-0.211	0.203
-364.698	501.699	0.091	-0.210
-363.683	-123.898	0.187	0.030
-362.669	-189.632	0.132	-0.002
-361.654	95.055	-0.090	0.103
-360.639	-141.186	-0.147	-0.015
-359.625	-172.044	-0.148	0.005
-358.610	-162.714	0.167	-0.008
-357.596	59.545	-0.205	-0.203
-356.581	90.847	0.192	0.216
-355.566	-107.518	-0.101	-0.022
-354.552	-200.000	0.004	-0.061
-353.537	-200.000	0.049	-0.217
-352.523	203.653	0.353	0.548
-351.508	71.642	0.205	0.213
-350.493	-114.275	-0.351	0.068
-349.479	229.232	0.102	0.166
-348.464	-145.931	-0.126	-0.011
-347.450	114.108	0.168	-0.205
-346.435	-30.776	0.311	-0.176
-345.420	705.874	-0.046	0.122
-344.406	38.372	-0.098	0.088
-343.391	197.447	-0.088	0.135
-342.377	-47.892	-0.346	0.168
-341.362	25.777	0.154	0.129
-340.348	363.240	-0.124	0.250
-339.333	-43.093	-0.095	-0.048
-338.318	191.571	0.205	-0.309
-337.304	259.646	0.053	-0.092
-336.289	117.241	0.157	0.194
-335.275	-90.008	0.179	-0.052
-334.260	-82.866	-0.212	-0.069
-333.245	-62.153	-0.204	0.085
-332.231	-200.000	0.039	-0.298
-331.216	-43.612	-0.128	-0.064
-330.202	800.000	-0.046	0.138
-329.187	86.708	0.180	-0.199
-328.172	-102.608	-0.263	0.063
-327.158	730.222	-0.048	0.127
-326.143	-159.054	0.039	0.002
-325.129	86.844	0.412	0.455
-324.114	-200.000	0.057	0.324
-323.099	17.875	0.238	0.190
-322.085	-91.764	0.347	0.099
-321.070	-200.000	0.021	-0.154
-320.056	-200.000	-0.023	0.333
-319.041	-58.933	-0.159	-0.069
-318.026	392.351	0.028	0.058
-317.012	-200.000	0.021	-0.308
-315.997	-137.724	-0.473	-0.053
-314.983	-26.033	0.435	0.256
-313.968	-200.000	-0.032	-0.279
-312.953	-66.148	0.117	0.047
-311.939	267.180	0.208	-0.364
-310.924	561.258	0.051	-0.124
-309.910	-58.204	-0.165	-0.072
-308.895	-32.946	0.338	0.188
-307.880	146.719	-0.072	0.097
-306.866	109.298	-0.278	0.333
-305.851	339.413	0.046	-0.089
-304.837	576.290	0.035	0.084
-303.822	800.000	0.053	-0.165
-302.807	-118.853	-0.151	-0.027
-301.793	501.431	-0.114	-0.262
-300.778	14.260	0.359	0.280
-299.764	-200.000	0.047	0.284
-298.749	-168.956	-0.196	-0.007
-297.735	-200.000	0.039	0.299
-296.720	-157.300	-0.315	0.019
-295.705	-82.811	-0.126	0.041
-294.691	800.000	0.049	0.181
-293.676	-56.871	-0.286	-0.127
-292.662	314.227	-0.113	0.212
-291.647	-141.738	-0.381	0.038
-290.632	-23.913	-0.319	-0.191
-289.618	-75.188	0.131	-0.047
-288.603	73.120	0.044	0.046
-287.589	-0.871	0.103	-0.073
-286.574	800.000	-0.054	-0.169
-285.559	221.514	-0.202	0.325
-284.545	9.345	-0.066	0.050
-283.530	-200.000	-0.023	0.283
-282.516	800.000	-0.073	-0.259
-281.501	635.082	0.100	-0.253
-280.486	-200.000	0.025	0.236
-279.472	-163.960	-0.407	0.019
-278.457	-78.839	0.122	0.042
-277.443	385.953	-0.107	-0.222
-276.428	800.000	0.093	-0.354
-275.413	-16.656	0.207	-0.131
-274.399	-118.043	-0.409	-0.073
-273.384	-18.591	-0.172	0.107
-272.370	145.092	0.129	0.172
-271.355	-96.840	-0.286	-0.075
-270.340	-200.000	-0.009	0.177
-269.326	-57.418	0.325	-0.143
-268.311	-191.041	0.206	0.002
-267.297	120.504	0.047	0.058
-266.282	800.000	-0.035	0.125
-265.267	28.870	0.232	0.196
-264.253	45.704	0.226	0.208
-263.238	44.336	0.154	-0.141
-262.224	-82.488	-0.251	0.081
-261.209	-52.183	0.190	0.088
-260.195	603.489	0.037	-0.091
-259.180	-200.000	-0.028	-0.131
-258.165	-157.521	0.073	0.004
-257.151	-200.000	-0.004	-0.035
-256.136	-122.550	0.511	0.083
-255.122	-200.000	0.028	-0.407
-254.107	-162.630	0.074	0.004
-253.092	320.833	-0.134	-0.254
-252.078	37.067	-0.093	-0.082
-251.063	29.372	0.449	0.381
-250.049	800.000	0.090	-0.284
-249.034	-13.391	0.025	-0.016
-248.019	-53.030	0.173	0.079
-247.005	370.566	0.042	-0.086
-245.990	-200.000	-0.019	0.387
-244.976	-121.814	0.023	-0.004
-243.961	91.660	0.125	0.141
-242.946	800.000	-0.098	0.280
-241.932	-70.520	-0.219	0.083
-240.917	800.000	-0.068	0.266
-239.903	-200.000	-0.010	-0.054
-238.888	184.331	-0.136	-0.202
-237.873	-68.673	0.362	-0.140
-236.859	567.919	0.090	0.217
-235.844	-48.225	0.073	0.035
-234.830	800.000	0.027	-0.091
-233.815	-164.252	-0.331	0.015
-232.800	-0.733	0.183	0.130
-231.786	25.619	0.072	-0.060
-230.771	-6.667	0.339	0.230
-229.757	243.566	-0.238	0.399
-228.742	149.268	-0.165	0.222
-227.727	800.000	-0.091	-0.313
-226.713	15.633	-0.093	-0.073
-225.698	-200.000	0.024	-0.336
-224.684	-200.000	-0.030	-0.276
-223.669	236.687	0.174	0.287
-222.655	-157.794	-0.318	0.019
-221.640	-29.160	0.228	-0.131
-220.625	175.990	0.317	-0.459
-219.611	-0.343	0.145	-0.103
-218.596	164.583	0.100	0.141
-217.582	178.181	0.239	-0.347
-216.567	-86.961	0.156	0.047
-215.552	-200.000	0.004	-0.090
-214.538	-200.000	-0.013	-0.079
-213.523	99.655	0.052	-0.060
-212.509	800.000	-0.062	-0.218
-211.494	-200.000	0.020	-0.190
-210.479	105.487	0.166	0.196
-209.465	800.000	0.082	0.309
-208.450	175.378	0.171	0.247
-207.436	-97.783	-0.086	-0.022
-206.421	257.811	-0.055	-0.095
-205.406	-20.897	0.105	-0.064
-204.392	369.644	0.011	0.022
-203.377	800.000	-0.066	0.208
-202.363	-2.598	-0.110	-0.077
-201.348	191.236	0.059	0.088
-200.333	-77.354	-0.156	-0.054
-199.319	-27.019	0.128	0.075
-198.304	-19.352	-0.163	-0.100
-197.290	464.548	0.030	-0.068
-196.275	181.991	-0.041	0.060
-195.260	87.754	-0.048	-0.053
-194.246	-53.989	0.163	-0.074
-193.231	-200.000	0.000	-0.289
-192.217	800.000	0.023	-0.070
-191.202	-16.662	0.296	0.187
-190.187	-200.000	-0.015	-0.158
-189.173	-200.000	-0.020	0.132
-188.158	318.474	-0.081	0.153
-187.144	570.105	-0.133	-0.321
-186.129	-37.262	0.204	0.108
-185.114	171.344	0.064	0.091
-184.100	84.467	0.079	0.086
-183.085	-200.000	0.009	0.412
-182.071	92.139	0.260	-0.291
-181.056	-200.000	0.007	-0.141
-180.042	-200.000	0.014	0.133
-179.027	800.000	-0.085	0.329
-178.012	182.987	-0.188	0.276
-176.998	40.831	-0.164	0.148
-175.983	-67.575	0.151	-0.059
-174.969	-200.000	-0.014	-0.234
-173.954	22.401	-0.325	-0.264
-172.939	8.927	0.088	-0.066
-171.925	-86.919	0.178	-0.054
-170.910	-115.536	-0.235	-0.044
-169.896	800.000	0.126	0.442
-168.881	-200.000	-0.026	0.164
-167.866	-200.000	0.006	-0.079
-166.852	27.457	-0.149	0.125
-165.837	-162.454	0.400	0.020
-164.823	-56.908	-0.114	-0.050
-163.808	-153.736	0.331	0.023
-162.793	-172.059	0.606	-0.020
-161.779	-43.240	-0.074	0.037
-160.764	-64.874	-0.221	0.089
-159.750	-46.273	-0.065	-0.032
-158.735	34.259	-0.100	0.086
-157.720	-78.004	0.343	0.117
-156.706	-200.000	-0.038	-0.176
-155.691	-112.136	-0.050	0.010
-154.677	-200.000	-0.043	-0.310
-153.662	-200.000	-0.004	0.188
-152.647	102.508	0.264	0.307
-151.633	-18.069	0.094	0.059
-150.618	-83.452	-0.186	-0.059
-149.604	82.722	-0.236	-0.255
-148.589	-200.000	-0.053	-0.299
-147.574	-117.666	0.400	-0.072
-146.560	-22.033	-0.444	0.268
-145.545	800.000	-0.092	-0.336
-144.531	173.639	-0.151	0.217
-143.516	248.623	0.215	-0.361
-142.502	5.231	0.261	0.191
-141.487	-9.838	0.104	0.069
-140.472	108.943	0.049	-0.059
-139.458	800.000	0.122	0.342
-138.443	-64.195	0.259	0.105
-137.429	-105.838	0.519	0.117
-136.414	-177.015	0.216	0.005
-135.399	800.000	-0.058	-0.172
-134.385	-54.235	0.453	0.204
-133.370	550.021	0.229	-0.546
-132.356	800.000	-0.040	-0.167
-131.341	800.000	0.019	0.052
-130.326	-103.886	-0.147	0.034
-129.312	38.612	0.068	-0.060
-128.297	-200.000	-0.016	-0.314
-127.283	-200.000	0.039	-0.300
-126.268	135.752	-0.204	-0.264
-125.253	-77.202	-0.103	0.036
-124.239	-46.466	0.234	-0.114
-123.224	-200.000	0.014	-0.076
-122.210	800.000	-0.166	0.538
-121.195	175.294	-0.067	0.097
-120.180	149.534	0.086	0.116
