DTS Sentinel unit serial number:	SN413079Multiplexer serial number:	ORYXHardware model number:	OX4-SRSoftware version number:	ORYX F/W v4.00 Oryx Data Collector v3.7.2.0data status	okinstallation	princeton_trtdifferential loss correction	single-endedforward channel	channel 4reverse channel	N/Adate	2019/09/18time	10:29:35forward acquisition time	60.00reverse acquisition time	0.00gamma	496.2192k internal	0.2316k external	0.2316temperature offset calibration	0.9988default loss term (dB/km)	0.3790temperature slope calibration	1.0000multiplexer offset coefficient	1.0000multiplexer slope coefficient	1.0000fibre end	0.00T internal ref (°C)	28.33T ext. ref 1 (°C)	0.35T ext. ref 2 (°C)	25.00length (m)	temperature (°C)	Stokes	anti-Stokes-747.200	134.308	-0.059	0.078
-746.185	496.135	-0.238	0.554
-745.171	46.289	0.137	0.129
-744.156	-200.000	-0.035	0.303
-743.142	-83.354	0.276	-0.090
-742.127	188.600	0.091	0.137
-741.112	232.094	0.096	-0.159
-740.098	255.482	-0.172	0.298
-739.083	-200.000	0.017	0.101
-738.069	-122.991	-0.153	0.025
-737.054	-11.151	-0.083	0.055
-736.039	800.000	-0.033	0.111
-735.025	15.395	0.137	0.109
-734.010	-95.184	-0.163	0.044
-732.996	77.026	-0.078	-0.084
-731.981	-198.739	-0.187	-0.001
-730.966	-200.000	-0.008	-0.098
-729.952	261.113	-0.206	0.360
-728.937	622.199	0.078	-0.199
-727.923	-160.336	-0.076	0.004
-726.908	-22.619	-0.071	0.043
-725.894	47.774	-0.075	0.071
-724.879	-66.776	0.478	-0.191
-723.864	13.604	0.126	-0.099
-722.850	-200.000	0.048	-0.339
-721.835	-100.896	-0.298	0.074
-720.821	-112.624	-0.197	-0.040
-719.806	510.630	0.138	-0.324
-718.791	32.840	-0.211	0.185
-717.777	-87.826	-0.225	-0.069
-716.762	190.340	0.163	-0.247
-715.748	-145.186	-0.039	-0.004
-714.733	67.620	-0.025	-0.026
-713.718	-200.000	0.036	0.187
-712.704	-24.451	0.215	0.130
-711.689	57.996	-0.103	-0.102
-710.675	7.264	0.140	0.106
-709.660	109.858	-0.335	-0.406
-708.645	-129.994	0.163	0.023
-707.631	139.459	-0.109	-0.146
-706.616	-200.000	-0.009	-0.425
-705.602	800.000	0.069	-0.225
-704.587	-26.886	-0.092	-0.054
-703.572	-162.289	-0.270	0.014
-702.558	-200.000	-0.057	-0.355
-701.543	770.109	0.127	0.351
-700.529	-93.283	0.325	0.091
-699.514	389.712	0.163	-0.341
-698.499	-63.495	-0.438	-0.182
-697.485	-200.000	-0.020	0.260
-696.470	-170.011	-0.324	-0.012
-695.456	409.174	-0.112	0.241
-694.441	-73.445	0.088	0.032
-693.426	800.000	0.109	-0.354
-692.412	-200.000	-0.015	0.365
-691.397	-39.267	-0.398	0.211
-690.383	22.596	-0.155	-0.128
-689.368	-69.933	-0.319	-0.123
-688.354	340.444	-0.117	0.231
-687.339	800.000	-0.065	-0.217
-686.324	225.713	0.141	0.231
-685.310	-13.475	-0.118	0.077
-684.295	53.628	0.067	0.065
-683.281	-200.000	-0.032	0.184
-682.266	-31.892	-0.218	0.124
-681.251	800.000	-0.041	0.142
-680.237	800.000	-0.130	-0.412
-679.222	-25.794	0.409	-0.244
-678.208	-0.134	-0.240	0.173
-677.193	81.136	-0.102	-0.111
-676.178	-200.000	0.018	0.305
-675.164	-109.550	-0.325	0.069
-674.149	-123.184	0.211	-0.034
-673.135	-101.406	-0.089	-0.022
-672.120	25.394	-0.199	-0.167
-671.105	-2.071	0.136	-0.097
-670.091	-81.532	0.059	0.019
-669.076	343.715	-0.024	0.048
-668.062	603.650	-0.072	-0.180
-667.047	-70.850	0.298	-0.113
-666.032	-52.266	-0.099	-0.046
-665.018	800.000	0.052	0.215
-664.003	760.476	0.107	0.293
-662.989	-120.101	-0.274	-0.047
-661.974	-200.000	-0.037	0.201
-660.959	522.757	-0.065	0.154
-659.945	-52.982	-0.550	-0.256
-658.930	-39.365	-0.079	-0.042
-657.916	50.207	-0.297	0.283
-656.901	244.559	-0.097	-0.165
-655.886	635.810	0.095	0.242
-654.872	-98.204	-0.316	-0.082
-653.857	16.856	0.111	-0.089
-652.843	129.369	-0.104	0.134
-651.828	800.000	-0.101	0.334
-650.814	-23.304	-0.287	0.174
-649.799	-86.859	-0.210	0.065
-648.784	-200.000	-0.018	0.087
-647.770	-200.000	0.093	-0.000
-646.755	-122.683	-0.093	0.015
-645.741	-120.543	0.317	-0.054
-644.726	686.114	0.081	-0.214
-643.711	-95.986	-0.180	-0.048
-642.697	-200.000	-0.051	-0.284
-641.682	-200.000	-0.029	-0.158
-640.668	-200.000	0.015	0.278
-639.653	24.463	0.020	-0.016
-638.638	46.405	0.100	0.094
-637.624	800.000	-0.082	-0.309
-636.609	-163.407	0.306	-0.015
-635.595	800.000	-0.025	-0.102
-634.580	-58.341	0.142	-0.062
-633.565	-200.000	0.033	-0.201
-632.551	-161.909	0.151	-0.008
-631.536	-50.908	0.211	0.100
-630.522	407.726	-0.111	-0.237
-629.507	-58.148	-0.170	0.075
-628.492	-200.000	0.031	0.241
-627.478	-144.870	0.364	-0.034
-626.463	-53.756	-0.169	-0.078
-625.449	-125.697	-0.171	-0.026
-624.434	200.794	0.148	-0.230
-623.419	800.000	-0.087	0.303
-622.405	-32.475	-0.138	0.077
-621.390	-200.000	-0.027	-0.131
-620.376	-125.988	0.298	-0.045
-619.361	-200.000	-0.077	0.527
-618.346	-28.177	0.226	0.132
-617.332	242.297	-0.124	0.209
-616.317	-200.000	0.028	-0.256
-615.303	-126.250	0.065	0.010
-614.288	358.492	-0.064	0.130
-613.273	108.233	-0.177	0.213
-612.259	-59.434	0.200	0.087
-611.244	-39.722	-0.014	0.007
-610.230	219.982	0.007	-0.012
-609.215	800.000	-0.068	0.217
-608.201	171.908	-0.068	-0.098
-607.186	-123.548	0.275	0.044
-606.171	18.277	0.207	-0.167
-605.157	375.013	0.061	0.124
-604.142	30.757	-0.207	-0.178
-603.128	699.603	0.149	-0.394
-602.113	-82.337	-0.134	-0.044
-601.098	83.760	-0.077	-0.085
-600.084	800.000	-0.041	-0.137
-599.069	-61.303	-0.292	0.124
-598.055	-37.330	-0.243	0.131
-597.040	588.447	-0.055	0.137
-596.025	72.186	0.114	0.120
-595.011	-200.000	-0.004	-0.073
-593.996	-95.978	-0.143	0.038
-592.982	-5.318	0.229	0.158
-591.967	227.334	0.063	-0.103
-590.952	-200.000	0.012	0.156
-589.938	209.166	0.060	-0.094
-588.923	-16.161	-0.131	0.084
-587.909	158.746	-0.104	0.145
-586.894	-117.752	-0.181	0.033
-585.879	-200.000	-0.026	0.194
-584.865	800.000	-0.031	-0.101
-583.850	42.844	-0.279	0.256
-582.836	142.208	0.175	-0.234
-581.821	-14.155	-0.106	0.069
-580.806	-200.000	0.066	0.392
-579.792	-154.267	0.238	-0.016
-578.777	800.000	0.113	-0.341
-577.763	-200.000	0.007	-0.126
-576.748	-56.399	-0.165	-0.074
-575.733	-200.000	0.005	0.047
-574.719	60.252	0.346	-0.344
-573.704	-200.000	0.021	0.171
-572.690	386.880	-0.179	-0.373
-571.675	635.598	-0.108	-0.276
-570.661	41.444	0.154	-0.140
-569.646	-61.825	0.091	-0.038
-568.631	720.854	-0.132	-0.354
-567.617	800.000	0.039	0.123
-566.602	-18.057	0.162	-0.102
-565.588	-101.194	-0.177	0.043
-564.573	-23.961	-0.224	0.135
-563.558	-65.426	-0.167	-0.067
-562.544	-74.880	-0.231	-0.083
-561.529	-106.919	0.289	0.064
-560.515	-52.212	0.328	-0.153
-559.500	47.374	-0.072	-0.067
-558.485	-23.790	0.181	0.109
-557.471	62.860	0.155	0.156
-556.456	102.102	-0.230	0.271
-555.442	-200.000	-0.004	-0.197
-554.427	326.471	0.023	0.044
-553.412	800.000	0.023	-0.066
-552.398	-200.000	-0.029	0.197
-551.383	800.000	-0.096	-0.330
-550.369	800.000	-0.038	-0.117
-549.354	800.000	0.049	0.153
-548.339	-2.329	0.131	0.093
-547.325	299.285	0.239	-0.442
-546.310	-14.934	0.153	0.098
-545.296	-104.385	0.024	-0.006
-544.281	-171.632	0.026	-0.001
-543.266	241.685	-0.095	-0.160
-542.252	-36.751	-0.271	-0.146
-541.237	-90.271	0.163	0.048
-540.223	100.229	-0.175	-0.204
-539.208	-19.587	-0.047	-0.029
-538.193	-134.947	-0.084	-0.010
-537.179	-200.000	-0.015	0.109
-536.164	302.870	-0.078	-0.145
-535.150	-181.339	0.299	0.006
-534.135	129.071	0.106	0.136
-533.121	-71.072	-0.289	-0.109
-532.106	-200.000	0.041	-0.248
-531.091	78.616	-0.185	-0.199
-530.077	-30.403	0.093	-0.053
-529.062	-94.301	-0.149	-0.041
-528.048	108.243	-0.247	-0.296
-527.033	-133.917	-0.102	-0.013
-526.018	323.563	0.038	0.072
-525.004	3.558	-0.032	-0.024
-523.989	800.000	0.121	0.500
-522.975	281.434	-0.058	0.104
-521.960	149.984	-0.067	-0.091
-520.945	-28.289	-0.143	-0.083
-519.931	-30.160	0.160	0.091
-518.916	582.175	0.028	0.070
-517.902	-57.590	0.287	0.126
-516.887	191.586	-0.050	-0.075
-515.872	-74.192	0.269	-0.098
-514.858	800.000	-0.008	-0.024
-513.843	156.891	-0.095	0.132
-512.829	372.012	-0.111	0.226
-511.814	-137.428	-0.188	0.021
-510.799	238.514	0.020	-0.034
-509.785	800.000	-0.041	0.122
-508.770	-200.000	-0.014	-0.158
-507.756	-200.000	0.055	0.289
-506.741	337.740	0.116	-0.226
-505.726	87.241	-0.104	-0.115
-504.712	23.713	0.041	0.034
-503.697	112.417	-0.095	0.115
-502.683	-23.474	-0.112	-0.067
-501.668	-120.813	0.086	0.015
-500.653	-51.837	-0.141	0.066
-499.639	43.549	0.298	0.273
-498.624	-31.192	-0.373	0.211
-497.610	414.497	0.063	-0.134
-496.595	183.499	0.182	-0.269
-495.581	161.525	-0.212	-0.298
-494.566	261.251	0.185	0.321
-493.551	800.000	-0.041	0.120
-492.537	-76.762	0.346	0.121
-491.522	105.489	0.166	-0.197
-490.508	323.938	0.055	-0.105
-489.493	-63.921	0.217	-0.089
-488.478	-39.077	-0.136	-0.072
-487.464	28.264	0.162	0.138
-486.449	-42.596	0.179	-0.092
-485.435	339.500	0.038	-0.074
-484.420	507.283	-0.105	0.244
-483.405	320.866	0.167	-0.319
-482.391	205.386	0.224	-0.349
-481.376	-126.167	0.167	-0.025
-480.362	266.801	-0.093	-0.163
-479.347	-200.000	0.045	0.260
-478.332	800.000	-0.084	0.365
-477.318	-107.986	0.078	-0.017
-476.303	-200.000	0.040	-0.292
-475.289	-200.000	0.023	0.417
-474.274	34.004	-0.077	0.067
-473.259	93.942	-0.179	0.203
-472.245	-119.256	-0.089	-0.016
-471.230	-29.224	-0.120	-0.069
-470.216	-88.866	-0.255	-0.076
-469.201	-200.000	-0.010	-0.161
-468.186	3.803	0.218	-0.160
-467.172	-93.158	0.203	0.057
-466.157	5.477	0.114	0.084
-465.143	800.000	-0.068	-0.231
-464.128	350.257	-0.071	0.141
-463.113	-104.731	-0.189	0.044
-462.099	245.229	0.149	0.252
-461.084	6.612	0.041	-0.030
-460.070	-121.913	-0.269	0.044
-459.055	392.653	-0.150	-0.313
-458.040	-21.673	0.142	0.086
-457.026	168.252	0.225	-0.321
-456.011	-47.702	-0.182	0.088
-454.997	151.172	0.163	0.222
-453.982	-200.000	0.027	-0.323
-452.968	-28.204	0.221	-0.128
-451.953	-51.498	-0.167	0.078
-450.938	-200.000	0.047	0.412
-449.924	800.000	0.081	0.268
-448.909	239.149	-0.122	-0.203
-447.895	-56.342	0.227	0.101
-446.880	354.438	-0.079	0.158
-445.865	800.000	0.092	0.368
-444.851	-59.406	-0.134	0.058
-443.836	-57.978	-0.230	-0.101
-442.822	123.901	0.199	0.250
-441.807	26.549	0.055	0.046
-440.792	-111.128	-0.303	0.062
-439.778	-196.705	-0.069	-0.000
-438.763	800.000	-0.070	0.289
-437.749	-200.000	0.010	0.279
-436.734	291.151	0.057	-0.104
-435.719	-12.996	-0.230	0.150
-434.705	-200.000	0.048	0.413
-433.690	-89.302	-0.129	-0.038
-432.676	-107.974	0.216	-0.047
-431.661	346.005	-0.100	-0.197
-430.646	800.000	0.012	0.040
-429.632	-142.120	0.331	-0.033
-428.617	-48.163	-0.379	-0.183
-427.603	26.646	-0.072	0.060
-426.588	-7.313	-0.175	0.118
-425.573	-30.643	0.183	-0.104
-424.559	-13.106	0.344	0.223
-423.544	-68.065	0.116	0.045
-422.530	-200.000	0.027	-0.270
-421.515	-104.479	0.332	-0.077
-420.500	-66.353	-0.121	-0.048
-419.486	-126.930	-0.108	-0.016
-418.471	564.554	-0.009	0.022
-417.457	-200.000	-0.008	-0.213
-416.442	80.959	0.105	-0.114
-415.428	-18.406	-0.124	0.078
-414.413	800.000	-0.061	-0.255
-413.398	-123.965	0.166	0.026
-412.384	-200.000	-0.041	0.275
-411.369	183.213	-0.055	0.081
-410.355	-55.547	-0.142	-0.063
-409.340	101.510	0.142	0.166
-408.325	54.995	0.192	0.186
-407.311	85.485	0.084	-0.093
-406.296	-200.000	0.011	0.229
-405.282	-77.794	-0.547	-0.189
-404.267	-56.547	-0.329	0.146
-403.252	181.172	0.194	0.285
-402.238	-80.276	0.317	-0.106
-401.223	251.110	0.205	-0.348
-400.209	-95.818	0.267	0.071
-399.194	-155.070	-0.240	-0.016
-398.179	-144.322	-0.274	0.026
-397.165	800.000	-0.058	-0.223
-396.150	-157.120	0.266	-0.016
-395.136	487.109	0.132	-0.300
-394.121	37.502	0.226	0.201
-393.106	-71.560	0.342	-0.128
-392.092	101.459	-0.298	0.347
-391.077	-22.762	-0.264	0.159
-390.063	139.100	-0.061	-0.081
-389.048	53.182	0.173	0.166
-388.033	182.870	0.055	0.081
-387.019	52.508	-0.104	-0.099
-386.004	-27.653	-0.196	-0.114
-384.990	-21.740	-0.183	0.111
-383.975	800.000	0.022	-0.088
-382.960	729.832	-0.190	-0.507
-381.946	-200.000	-0.010	0.203
-380.931	-96.258	0.096	0.025
-379.917	800.000	0.056	-0.229
-378.902	-130.168	0.444	0.060
-377.888	-18.184	-0.167	-0.104
-376.873	171.785	0.193	0.277
-375.858	-87.780	0.230	-0.069
-374.844	-200.000	0.072	-0.360
-373.829	-200.000	0.005	0.160
-372.815	13.170	0.105	0.081
-371.800	800.000	-0.034	0.122
-370.785	113.129	-0.232	-0.281
-369.771	-173.576	0.203	0.006
-368.756	-200.000	0.023	0.403
-367.742	800.000	-0.012	0.046
-366.727	-44.184	-0.158	-0.079
-365.712	-66.343	0.165	0.066
-364.698	-29.779	-0.297	-0.169
-363.683	148.775	0.112	0.151
-362.669	155.336	-0.203	-0.279
-361.654	-50.224	-0.110	-0.052
-360.639	-200.000	-0.018	-0.102
-359.625	400.202	-0.014	0.029
-358.610	-111.705	-0.105	-0.021
-357.596	-136.204	-0.271	0.032
-356.581	443.516	0.196	0.429
-355.566	205.582	0.112	0.173
-354.552	-52.994	0.074	-0.034
-353.537	-46.497	-0.301	-0.147
-352.523	800.000	0.013	-0.053
-351.508	-200.000	-0.011	-0.058
-350.493	-119.802	-0.322	0.055
-349.479	800.000	0.052	-0.145
-348.464	93.073	-0.308	-0.347
-347.450	-148.052	-0.097	-0.008
-346.435	-68.902	-0.444	0.171
-345.420	-182.912	-0.140	-0.003
-344.406	201.188	0.126	0.194
-343.391	23.621	0.367	-0.301
-342.377	120.154	0.214	0.265
-341.362	-65.819	-0.297	0.118
-340.348	-57.827	-0.248	0.108
-339.333	112.351	-0.153	-0.185
-338.318	-200.000	0.023	0.122
-337.304	-124.512	-0.191	-0.030
-336.289	69.501	0.138	-0.142
-335.275	-52.296	0.215	0.099
-334.260	73.308	0.223	0.232
-333.245	-41.223	0.134	0.069
-332.231	225.983	-0.056	0.091
-331.216	-77.680	-0.224	-0.077
-330.202	13.340	-0.111	-0.085
-329.187	76.686	0.149	0.157
-328.172	800.000	0.068	0.271
-327.158	541.306	-0.130	-0.308
-326.143	166.924	0.049	0.069
-325.129	-175.020	-0.218	-0.006
-324.114	183.888	0.154	0.227
-323.099	173.288	-0.197	-0.283
-322.085	27.208	0.086	-0.072
-321.070	379.276	-0.118	-0.242
-320.056	800.000	-0.083	0.312
-319.041	197.691	-0.219	-0.333
-318.026	-200.000	0.044	-0.285
-317.012	-200.000	-0.009	-0.117
-315.997	-114.134	-0.113	0.022
-314.983	800.000	-0.051	-0.143
-313.968	-50.245	-0.189	0.089
-312.953	81.078	-0.214	-0.230
-311.939	97.420	-0.123	0.141
-310.924	-71.776	-0.208	-0.077
-309.910	-31.154	0.198	0.111
-308.895	-35.685	-0.240	0.129
-307.880	-75.882	-0.143	0.051
-306.866	-23.000	0.191	0.114
-305.851	-29.146	0.354	0.202
-304.837	-200.000	-0.050	0.392
-303.822	23.033	0.107	0.088
-302.807	676.040	0.059	-0.151
-301.793	-200.000	-0.018	0.113
-300.778	-35.597	-0.124	0.067
-299.764	-47.588	0.469	-0.227
-298.749	13.757	0.123	-0.095
-297.735	-200.000	-0.086	-0.400
-296.720	584.889	-0.086	0.209
-295.705	1.952	-0.192	-0.138
-294.691	5.001	-0.143	-0.105
-293.676	-200.000	0.037	0.183
-292.662	-200.000	0.002	-0.066
-291.647	-161.237	-0.184	-0.010
-290.632	-200.000	0.039	0.186
-289.618	-115.955	0.130	-0.024
-288.603	408.473	-0.041	-0.087
-287.589	-51.311	-0.480	-0.223
-286.574	136.565	0.014	0.018
-285.559	25.058	0.280	0.231
-284.545	-200.000	0.007	-0.100
-283.530	427.077	-0.118	0.254
-282.516	-200.000	-0.003	-0.186
-281.501	800.000	0.127	-0.436
-280.486	-200.000	0.023	0.123
-279.472	385.289	-0.149	0.306
-278.457	55.529	0.119	0.114
-277.443	800.000	-0.026	-0.077
-276.428	-47.295	0.281	0.136
-275.413	-38.259	-0.111	-0.059
-274.399	-123.903	0.261	-0.041
-273.384	-120.170	-0.439	0.075
-272.370	800.000	-0.060	0.198
-271.355	-200.000	-0.017	0.159
-270.340	-33.524	-0.070	-0.038
-269.326	221.469	0.069	0.110
-268.311	456.414	0.042	-0.093
-267.297	-59.707	-0.275	0.117
-266.282	-131.487	0.513	0.067
-265.267	546.604	-0.052	0.125
-264.253	-7.258	0.054	0.036
-263.238	-156.518	-0.441	-0.027
-262.224	-200.000	0.018	0.212
-261.209	69.475	-0.173	0.177
-260.195	-200.000	0.001	-0.247
-259.180	372.762	0.121	-0.245
-258.165	-60.671	0.346	0.146
-257.151	-67.495	0.226	0.088
-256.136	488.092	0.021	0.048
-255.122	-124.022	0.249	-0.039
-254.107	-91.650	0.215	-0.061
-253.092	-93.335	0.195	0.054
-252.078	-44.039	-0.190	0.095
-251.063	193.716	-0.017	0.026
-250.049	-145.690	-0.244	-0.022
-249.034	139.488	0.117	-0.153
-248.019	-200.000	-0.029	0.175
-247.005	14.565	-0.281	0.218
-245.990	-90.862	0.304	-0.087
-244.976	-15.383	-0.086	-0.054
-243.961	-40.212	0.252	-0.130
-242.946	315.987	0.053	-0.099
-241.932	-200.000	0.025	0.167
-240.917	3.643	0.269	0.195
-239.903	-91.746	-0.162	-0.046
-238.888	188.645	-0.135	-0.200
-237.873	-8.345	-0.454	0.304
-236.859	293.765	0.080	0.145
-235.844	-200.000	0.013	0.285
-234.830	132.129	-0.131	0.168
-233.815	-160.488	0.234	-0.012
-232.800	-162.025	-0.311	-0.016
-231.786	121.218	0.083	-0.103
-230.771	-101.964	0.067	0.016
-229.757	-132.072	-0.253	-0.033
-228.742	54.451	0.079	-0.076
-227.727	-132.828	-0.306	0.039
-226.713	435.477	-0.018	-0.040
-225.698	252.509	0.139	-0.236
-224.684	-14.414	0.268	0.171
-223.669	-200.000	-0.003	-0.157
-222.655	296.972	0.197	0.358
-221.640	-166.961	0.091	-0.004
-220.625	800.000	0.079	0.234
-219.611	-137.289	0.103	0.012
-218.596	88.499	0.280	-0.309
-217.582	25.448	0.128	0.105
-216.567	526.275	-0.114	-0.267
-215.552	-154.474	0.256	-0.017
-214.538	-30.067	-0.341	0.193
-213.523	6.410	-0.181	0.133
-212.509	-200.000	-0.016	0.125
-211.494	800.000	0.007	0.026
-210.479	214.391	0.138	-0.217
-209.465	-18.721	-0.066	-0.041
-208.450	-7.772	0.112	-0.075
-207.436	-200.000	-0.001	0.080
-206.421	-171.595	0.204	-0.007
-205.406	-200.000	0.056	0.343
-204.392	49.469	-0.088	-0.082
-203.377	22.546	0.194	0.157
-202.363	800.000	-0.058	0.250
-201.348	-174.222	-0.145	0.004
-200.333	233.457	0.061	-0.100
-199.319	702.048	-0.112	-0.293
-198.304	8.596	0.149	-0.111
-197.290	498.143	-0.148	0.339
-196.275	58.535	0.119	0.116
-195.260	-200.000	0.036	-0.215
-194.246	155.148	0.203	-0.277
-193.231	21.283	-0.227	0.183
-192.217	-161.832	0.123	0.006
-191.202	-200.000	0.010	-0.360
-190.187	175.281	0.081	0.116
-189.173	17.665	-0.184	0.145
-188.158	159.084	0.227	0.312
-187.144	-90.475	-0.329	-0.094
-186.129	117.371	-0.076	-0.092
-185.114	800.000	-0.059	-0.218
-184.100	-117.063	0.171	-0.031
-183.085	72.602	-0.258	-0.266
-182.071	152.346	0.122	-0.165
-181.056	143.397	-0.080	0.105
-180.042	-122.357	-0.256	0.041
-179.027	-43.569	-0.210	0.105
-178.012	-142.383	0.316	0.031
-176.998	-107.004	-0.256	-0.056
-175.983	649.319	-0.112	0.284
-174.969	-158.884	0.210	-0.012
-173.954	-106.392	-0.498	0.110
-172.939	-200.000	0.036	0.260
-171.925	-200.000	0.009	-0.198
-170.910	22.090	0.349	-0.282
-169.896	10.789	-0.254	0.192
-168.881	233.495	-0.020	0.033
-167.866	-200.000	0.064	-0.425
-166.852	-111.100	0.115	-0.023
-165.837	-138.564	0.117	0.013
-164.823	531.160	-0.160	-0.374
-163.808	-23.540	0.217	-0.129
-162.793	-54.416	0.325	-0.146
-161.779	-200.000	0.013	-0.260
-160.764	-200.000	-0.096	-0.510
-159.750	205.934	-0.097	-0.150
-158.735	371.283	0.029	0.058
-157.720	-128.259	0.299	0.042
-156.706	-75.229	-0.175	-0.062
-155.691	-93.216	-0.090	0.025
-154.677	-6.553	0.296	0.200
-153.662	691.596	0.019	-0.050
-152.647	-17.892	0.159	-0.099
-151.633	-110.270	-0.228	0.047
-150.618	-88.116	0.103	-0.031
-149.604	75.861	-0.052	0.055
-148.589	-130.505	-0.297	0.040
-147.574	41.069	0.210	0.188
-146.560	530.769	0.068	-0.159
-145.545	-124.935	0.253	-0.039
-144.531	-200.000	-0.009	-0.113
-143.516	800.000	-0.020	-0.065
-142.502	-102.773	-0.215	-0.051
-141.487	-200.000	0.044	0.204
-140.472	-109.589	0.161	-0.033
-139.458	800.000	0.012	-0.038
-138.443	-200.000	0.014	-0.095
-137.429	47.911	-0.335	-0.309
-136.414	244.921	0.083	-0.138
-135.399	48.611	-0.127	-0.118
-134.385	-147.139	-0.137	-0.012
-133.370	522.925	0.073	-0.169
-132.356	4.230	-0.136	0.099
-131.341	564.837	0.097	0.233
-130.326	-164.255	0.316	-0.014
-129.312	52.637	-0.085	0.080
-128.297	-121.023	0.119	0.020
-127.283	-185.153	0.124	0.002
-126.268	682.385	-0.033	0.086
-125.253	-200.000	-0.070	0.361
-124.239	372.581	-0.138	-0.278
-123.224	487.813	0.120	-0.272
-122.210	605.915	-0.079	0.195
