DTS Sentinel unit serial number:	SN413079Multiplexer serial number:	ORYXHardware model number:	OX4-SRSoftware version number:	ORYX F/W v4.00 Oryx Data Collector v3.7.2.0data status	okinstallation	princeton_trtdifferential loss correction	single-endedforward channel	channel 4reverse channel	N/Adate	2019/09/12time	23:41:35forward acquisition time	60.00reverse acquisition time	0.00gamma	496.2192k internal	0.2317k external	0.2317temperature offset calibration	1.0178default loss term (dB/km)	0.3790temperature slope calibration	1.0000multiplexer offset coefficient	1.0000multiplexer slope coefficient	1.0000fibre end	0.00T internal ref (°C)	28.87T ext. ref 1 (°C)	3.79T ext. ref 2 (°C)	23.53length (m)	temperature (°C)	Stokes	anti-Stokes-747.200	29.406	0.181	0.156
-746.185	144.925	-0.173	0.234
-745.171	800.000	0.047	0.141
-744.156	82.935	-0.372	0.410
-743.142	574.883	0.053	-0.131
-742.127	391.178	-0.097	-0.204
-741.112	-70.793	-0.114	0.044
-740.098	240.021	0.089	0.150
-739.083	-200.000	0.009	0.104
-738.069	800.000	-0.044	0.192
-737.054	-200.000	-0.044	-0.208
-736.039	-200.000	0.024	0.156
-735.025	16.921	0.303	0.243
-734.010	-36.694	-0.082	-0.045
-732.996	-100.700	0.308	-0.077
-731.981	-110.873	0.311	0.065
-730.966	25.458	-0.150	-0.126
-729.952	-24.173	-0.165	0.100
-728.937	734.106	-0.105	0.285
-727.923	-90.090	-0.129	0.038
-726.908	-69.734	0.038	-0.015
-725.894	-158.322	-0.152	-0.009
-724.879	-93.431	0.418	0.117
-723.864	279.767	-0.044	-0.079
-722.850	-4.901	0.311	0.217
-721.835	154.941	-0.090	0.125
-720.821	191.662	0.049	-0.075
-719.806	131.626	-0.204	0.265
-718.791	283.248	-0.106	0.192
-717.777	176.907	-0.169	-0.249
-716.762	-200.000	0.093	0.491
-715.748	-111.550	0.074	0.015
-714.733	-73.540	0.203	-0.075
-713.718	-126.704	-0.306	0.046
-712.704	800.000	-0.005	0.022
-711.689	800.000	0.114	0.458
-710.675	29.797	-0.251	-0.217
-709.660	51.477	-0.241	0.232
-708.645	22.271	0.259	-0.214
-707.631	428.655	0.025	-0.056
-706.616	102.790	0.210	-0.249
-705.602	-200.000	-0.022	-0.292
-704.587	-200.000	-0.025	-0.163
-703.572	-114.035	-0.123	-0.024
-702.558	131.229	0.154	0.200
-701.543	800.000	0.070	-0.265
-700.529	-200.000	0.001	-0.085
-699.514	-46.844	0.287	0.142
-698.499	38.631	-0.141	-0.127
-697.485	285.627	-0.141	-0.257
-696.470	-200.000	0.023	-0.150
-695.456	-28.092	-0.095	-0.056
-694.441	-138.052	0.171	0.019
-693.426	-200.000	-0.032	-0.178
-692.412	261.427	-0.073	0.127
-691.397	-153.329	-0.294	-0.021
-690.383	-200.000	0.020	-0.261
-689.368	0.362	-0.263	-0.190
-688.354	-38.479	0.168	0.090
-687.339	800.000	0.007	0.022
-686.324	-200.000	-0.020	0.301
-685.310	800.000	0.129	-0.360
-684.295	-40.397	0.043	-0.023
-683.281	247.539	-0.088	0.151
-682.266	196.567	0.148	-0.228
-681.251	389.063	-0.074	0.155
-680.237	-60.111	0.279	-0.120
-679.222	781.110	-0.140	0.388
-678.208	621.039	-0.121	-0.307
-677.193	-50.176	0.188	0.090
-676.178	324.173	0.071	0.138
-675.164	-116.800	-0.206	-0.038
-674.149	130.541	0.083	-0.108
-673.135	-200.000	-0.008	-0.194
-672.120	62.734	-0.117	-0.118
-671.105	-200.000	0.027	0.144
-670.091	-200.000	-0.006	-0.138
-669.076	348.313	-0.015	-0.030
-668.062	800.000	-0.074	0.233
-667.047	-42.215	0.192	0.099
-666.032	-102.900	0.338	-0.081
-665.018	-200.000	-0.026	0.263
-664.003	-200.000	-0.012	0.249
-662.989	-200.000	-0.007	-0.158
-661.974	-200.000	0.008	-0.153
-660.959	-61.300	0.202	-0.086
-659.945	-117.864	0.345	0.063
-658.930	800.000	-0.065	-0.266
-657.916	-26.002	0.419	0.249
-656.901	13.666	0.199	-0.156
-655.886	-45.006	0.253	0.127
-654.872	-88.070	0.187	-0.057
-653.857	-14.495	-0.219	-0.142
-652.843	516.200	0.042	0.099
-651.828	59.542	0.228	0.227
-650.814	-200.000	0.007	0.389
-649.799	-67.515	-0.086	0.034
-648.784	-200.000	-0.002	-0.364
-647.770	4.701	-0.168	-0.124
-646.755	109.970	0.070	0.085
-645.741	-21.045	-0.481	0.297
-644.726	-13.803	-0.176	-0.115
-643.711	-152.105	0.415	-0.030
-642.697	-200.000	-0.019	0.264
-641.682	-200.000	0.026	-0.143
-640.668	67.854	-0.068	0.070
-639.653	-200.000	-0.002	0.024
-638.638	-113.789	-0.324	-0.064
-637.624	-200.000	-0.004	-0.071
-636.609	-59.684	0.164	-0.071
-635.595	-48.429	-0.219	0.106
-634.580	21.033	0.131	-0.107
-633.565	189.394	0.133	-0.201
-632.551	800.000	0.029	0.099
-631.536	-200.000	-0.023	-0.135
-630.522	129.762	-0.119	-0.153
-629.507	-108.925	-0.173	0.037
-628.492	0.087	0.119	0.086
-627.478	-70.173	0.088	0.034
-626.463	329.659	-0.055	0.108
-625.449	400.001	0.065	-0.137
-624.434	79.696	0.167	0.181
-623.419	-200.000	0.004	0.260
-622.405	-89.125	0.392	-0.117
-621.390	299.683	0.087	-0.162
-620.376	-69.366	0.220	0.085
-619.361	260.376	-0.096	-0.168
-618.346	-200.000	0.035	0.191
-617.332	457.666	0.139	0.312
-616.317	-140.472	-0.283	-0.030
-615.303	-100.779	0.283	-0.070
-614.288	-133.666	0.271	-0.034
-613.273	-67.405	-0.056	-0.022
-612.259	-57.940	-0.294	0.130
-611.244	-44.768	0.439	-0.221
-610.230	265.491	-0.033	0.058
-609.215	370.896	0.061	0.124
-608.201	-200.000	-0.009	-0.146
-607.186	99.772	0.280	-0.326
-606.171	62.509	0.182	0.183
-605.157	-160.264	0.300	-0.016
-604.142	-54.426	0.097	0.044
-603.128	-152.040	-0.174	-0.013
-602.113	-137.666	-0.159	-0.018
-601.098	-99.627	-0.496	-0.125
-600.084	572.382	-0.110	0.269
-599.069	-3.600	0.380	-0.266
-598.055	-183.288	-0.282	0.005
-597.040	-200.000	0.015	-0.077
-596.025	1.272	-0.093	-0.067
-595.011	102.594	0.167	-0.197
-593.996	68.511	0.200	-0.207
-592.982	-58.983	-0.176	-0.077
-591.967	-200.000	-0.236	-0.001
-590.952	-128.996	0.248	0.035
-589.938	-144.699	0.175	0.016
-588.923	-64.030	-0.339	-0.140
-587.909	76.824	0.240	0.257
-586.894	-86.939	-0.467	-0.143
-585.879	49.009	0.087	0.082
-584.865	-200.000	-0.034	-0.169
-583.850	359.467	0.163	-0.329
-582.836	-35.465	-0.242	0.133
-581.821	-200.000	0.024	0.364
-580.806	800.000	0.055	-0.162
-579.792	-65.985	0.324	0.130
-578.777	-63.988	-0.218	0.090
-577.763	145.483	0.063	-0.085
-576.748	16.626	-0.222	-0.176
-575.733	225.340	0.099	0.162
-574.719	450.026	-0.104	0.231
-573.704	10.635	-0.209	-0.160
-572.690	691.275	0.042	0.110
-571.675	-110.806	0.105	0.022
-570.661	-74.919	0.116	0.042
-569.646	-78.957	0.278	-0.095
-568.631	-11.793	-0.290	0.192
-567.617	-128.807	-0.037	0.005
-566.602	-134.852	0.192	0.023
-565.588	173.505	-0.106	-0.154
-564.573	-200.000	0.007	0.186
-563.558	-157.459	0.102	0.006
-562.544	540.064	0.055	0.131
-561.529	-172.439	0.119	0.004
-560.515	800.000	0.051	0.188
-559.500	305.561	-0.070	0.131
-558.485	800.000	0.072	0.267
-557.471	748.495	-0.084	-0.227
-556.456	-21.941	0.165	0.101
-555.442	-42.858	-0.165	-0.084
-554.427	-82.558	-0.098	0.032
-553.412	513.003	-0.138	0.322
-552.398	-107.163	0.112	-0.025
-551.383	52.243	0.016	-0.015
-550.369	-73.974	-0.262	-0.096
-549.354	-149.366	0.055	0.004
-548.339	8.826	0.275	-0.208
-547.325	-24.965	-0.297	-0.177
-546.310	353.512	0.097	0.194
-545.296	107.157	0.266	0.318
-544.281	-98.717	-0.118	-0.030
-543.266	-42.473	0.075	0.038
-542.252	-200.000	0.040	-0.210
-541.237	213.899	-0.185	-0.295
-540.223	-113.193	0.213	0.042
-539.208	-119.065	-0.428	0.075
-538.193	121.803	-0.073	-0.092
-537.179	-119.565	0.098	-0.017
-536.164	-60.686	-0.063	-0.027
-535.150	-200.000	-0.036	-0.378
-534.135	292.099	-0.077	-0.141
-533.121	-200.000	0.015	0.240
-532.106	23.018	-0.050	0.041
-531.091	-48.852	-0.195	-0.094
-530.077	-113.785	-0.343	-0.067
-529.062	-86.162	-0.168	0.052
-528.048	656.743	0.049	-0.128
-527.033	112.548	-0.033	0.040
-526.018	800.000	-0.093	0.366
-525.004	-79.809	0.125	-0.042
-523.989	58.338	-0.379	0.373
-522.975	557.655	-0.131	0.317
-521.960	-58.813	-0.092	0.040
-520.945	69.891	-0.286	-0.296
-519.931	419.877	-0.073	0.156
-518.916	384.323	-0.046	-0.095
-517.902	-122.046	0.289	0.048
-516.887	-200.000	-0.000	-0.463
-515.872	26.089	-0.116	-0.097
-514.858	-22.878	-0.249	0.151
-513.843	104.533	0.144	0.171
-512.829	128.464	-0.052	0.066
-511.814	-102.665	0.367	0.088
-510.799	-38.428	0.257	0.137
-509.785	-85.815	0.257	-0.080
-508.770	-143.618	-0.309	0.029
-507.756	516.781	0.090	0.212
-506.741	-200.000	0.038	0.191
-505.726	685.316	-0.027	0.070
-504.712	-83.986	-0.060	0.019
-503.697	-87.880	0.166	-0.050
-502.683	-84.978	-0.191	0.060
-501.668	100.587	0.181	-0.211
-500.653	58.707	-0.058	-0.057
-499.639	-200.000	0.028	-0.164
-498.624	-97.207	0.317	0.083
-497.610	-17.687	0.147	0.092
-496.595	-148.837	0.328	-0.027
-495.581	-109.995	0.215	0.045
-494.566	-76.788	0.397	-0.139
-493.551	-80.768	-0.282	-0.094
-492.537	-5.858	0.207	-0.142
-491.522	44.277	-0.097	-0.089
-490.508	8.285	-0.269	-0.203
-489.493	34.263	0.076	-0.067
-488.478	200.840	-0.126	0.195
-487.464	555.176	0.075	-0.180
-486.449	119.960	0.225	-0.279
-485.435	-200.000	0.077	-0.345
-484.420	-107.937	0.293	0.064
-483.405	432.678	0.131	-0.284
-482.391	140.029	-0.035	-0.046
-481.376	-84.272	0.308	0.098
-480.362	141.338	0.077	0.102
-479.347	-29.450	-0.060	0.035
-478.332	-99.142	-0.388	-0.098
-477.318	-200.000	0.032	-0.518
-476.303	-200.000	0.014	0.172
-475.289	-106.960	-0.544	-0.121
-474.274	-144.407	0.149	0.014
-473.259	25.025	-0.148	0.123
-472.245	-91.831	-0.332	0.094
-471.230	-79.417	0.059	-0.020
-470.216	2.794	-0.191	0.139
-469.201	-96.452	0.201	-0.053
-468.186	-200.000	-0.029	0.161
-467.172	-54.608	0.286	-0.130
-466.157	65.253	-0.097	0.098
-465.143	-200.000	-0.011	-0.071
-464.128	-200.000	-0.010	-0.232
-463.113	-132.397	-0.360	-0.047
-462.099	-200.000	-0.068	0.323
-461.084	-116.687	-0.212	0.039
-460.070	800.000	-0.078	0.261
-459.055	148.372	-0.145	-0.196
-458.040	184.753	0.215	-0.320
-457.026	-200.000	-0.028	-0.223
-456.011	313.217	0.073	-0.138
-454.997	19.581	0.228	0.184
-453.982	-91.346	0.086	-0.025
-452.968	800.000	0.060	0.184
-451.953	312.378	-0.035	0.067
-450.938	-118.605	-0.344	0.061
-449.924	-200.000	0.042	0.264
-448.909	-42.462	-0.021	-0.011
-447.895	-41.357	0.166	-0.086
-446.880	-103.491	0.371	0.087
-445.865	-113.586	-0.091	0.018
-444.851	-148.304	0.171	0.014
-443.836	800.000	-0.063	0.202
-442.822	-200.000	-0.046	0.381
-441.807	-200.000	-0.024	-0.179
-440.792	-108.835	0.330	0.071
-439.778	-158.944	0.298	-0.017
-438.763	-200.000	0.005	-0.057
-437.749	-200.000	0.021	0.118
-436.734	49.366	-0.071	-0.067
-435.719	-35.805	-0.451	-0.244
-434.705	-28.781	0.149	-0.086
-433.690	-144.934	-0.306	-0.028
-432.676	800.000	0.053	0.184
-431.661	-47.069	0.073	0.036
-430.646	-59.951	0.048	-0.020
-429.632	217.544	-0.048	-0.077
-428.617	-9.540	0.318	0.212
-427.603	-34.621	0.334	-0.183
-426.588	46.017	0.106	0.098
-425.573	13.974	-0.220	-0.172
-424.559	-114.912	0.112	-0.021
-423.544	-64.053	0.143	0.058
-422.530	506.585	-0.104	-0.242
-421.515	-200.000	-0.027	-0.357
-420.500	-24.787	0.131	0.078
-419.486	-103.298	-0.161	0.038
-418.471	-200.000	0.006	0.166
-417.457	-200.000	-0.020	0.190
-416.442	800.000	0.028	0.108
-415.428	-167.390	0.142	-0.006
-414.413	-200.000	0.026	-0.189
-413.398	48.929	0.234	0.220
-412.384	518.234	0.091	0.212
-411.369	332.411	-0.010	0.020
-410.355	213.350	-0.129	0.204
-409.340	689.957	0.078	-0.203
-408.325	16.353	-0.098	0.077
-407.311	-88.759	-0.105	0.031
-406.296	-136.559	-0.306	0.035
-405.282	165.878	0.131	-0.185
-404.267	92.691	0.035	-0.040
-403.252	-97.059	-0.069	-0.018
-402.238	800.000	0.185	0.654
-401.223	800.000	0.020	0.071
-400.209	-6.919	0.242	-0.164
-399.194	26.513	0.045	-0.037
-398.179	47.501	0.164	0.153
-397.165	800.000	0.063	0.174
-396.150	65.268	-0.154	0.156
-395.136	-200.000	-0.010	0.073
-394.121	159.467	0.096	-0.134
-393.106	-35.684	0.070	-0.038
-392.092	-106.642	-0.172	-0.038
-391.077	-200.000	0.016	-0.290
-390.063	-147.819	0.240	0.020
-389.048	167.765	-0.106	-0.151
-388.033	54.210	-0.157	-0.151
-387.019	-131.369	-0.066	-0.009
-386.004	800.000	-0.083	0.254
-384.990	-33.741	-0.140	-0.077
-383.975	168.266	-0.309	0.440
-382.960	66.798	-0.076	0.077
-381.946	-41.928	0.320	0.164
-380.931	-200.000	-0.008	-0.171
-379.917	25.511	0.131	-0.109
-378.902	-104.507	0.155	0.036
-377.888	-200.000	-0.006	-0.063
-376.873	108.079	0.276	0.328
-375.858	-117.909	0.177	-0.032
-374.844	-75.691	0.115	0.041
-373.829	292.597	0.062	-0.112
-372.815	800.000	-0.098	0.281
-371.800	-10.471	-0.304	-0.201
-370.785	-141.058	0.250	-0.026
-369.771	800.000	0.109	-0.336
-368.756	-133.564	0.262	0.033
-367.742	41.877	-0.144	0.130
-366.727	133.457	0.159	0.205
-365.712	-79.620	0.391	0.131
-364.698	-67.747	0.190	0.074
-363.683	21.387	0.018	0.015
-362.669	-43.400	0.316	-0.159
-361.654	-200.000	0.015	0.166
-360.639	-200.000	0.005	-0.056
-359.625	-134.575	0.357	-0.043
-358.610	-200.000	0.002	-0.194
-357.596	82.793	0.091	-0.098
-356.581	166.689	-0.210	0.297
-355.566	112.314	0.197	-0.237
-354.552	-79.644	0.080	0.027
-353.537	-39.842	-0.255	-0.133
-352.523	-85.972	-0.108	0.033
-351.508	-8.530	0.229	0.153
-350.493	-113.099	-0.095	0.019
-349.479	-89.087	-0.223	-0.066
-348.464	378.887	-0.105	0.215
-347.450	103.485	0.087	-0.101
-346.435	-158.073	-0.323	0.019
-345.420	800.000	0.028	0.085
-344.406	800.000	-0.026	0.084
-343.391	-200.000	0.091	-0.488
-342.377	209.852	-0.042	-0.066
-341.362	113.518	0.160	0.194
-340.348	-81.843	0.232	-0.076
-339.333	800.000	0.066	-0.247
-338.318	37.646	0.070	0.062
-337.304	610.764	-0.031	0.076
-336.289	800.000	0.047	-0.148
-335.275	171.696	-0.102	-0.146
-334.260	-46.388	-0.130	-0.064
-333.245	-138.538	-0.320	0.035
-332.231	-200.000	0.009	0.104
-331.216	32.773	0.220	-0.190
-330.202	-200.000	0.014	0.333
-329.187	15.795	0.193	-0.151
-328.172	-66.214	-0.278	0.110
-327.158	-67.706	-0.119	0.046
-326.143	177.072	-0.219	-0.317
-325.129	299.690	-0.087	0.160
-324.114	-11.207	-0.185	-0.122
-323.099	-200.000	0.084	0.438
-322.085	216.753	0.067	-0.105
-321.070	243.445	-0.083	-0.139
-320.056	800.000	-0.052	-0.170
-319.041	21.193	0.316	0.255
-318.026	9.361	0.396	0.298
-317.012	649.204	-0.118	0.300
-315.997	-68.740	0.006	0.002
-314.983	800.000	-0.062	0.177
-313.968	-89.893	0.308	-0.090
-312.953	142.195	-0.163	0.216
-311.939	135.362	-0.080	0.103
-310.924	447.433	-0.100	-0.218
-309.910	-200.000	-0.037	-0.208
-308.895	-159.525	0.182	-0.010
-307.880	800.000	0.019	0.075
-306.866	-65.422	-0.325	0.130
-305.851	-200.000	0.031	-0.251
-304.837	-91.530	0.229	0.065
-303.822	-86.744	-0.166	-0.050
-302.807	26.477	-0.221	-0.184
-301.793	133.229	-0.073	0.094
-300.778	127.533	-0.226	-0.285
-299.764	41.691	-0.105	0.095
-298.749	-200.000	-0.037	-0.245
-297.735	-177.342	-0.292	-0.007
-296.720	-149.858	0.148	0.012
-295.705	800.000	-0.025	-0.069
-294.691	523.216	-0.131	0.306
-293.676	399.435	0.066	-0.138
-292.662	35.341	-0.290	-0.253
-291.647	-200.000	-0.002	-0.162
-290.632	345.329	-0.160	-0.313
-289.618	800.000	0.057	0.194
-288.603	-90.330	-0.125	-0.036
-287.589	-200.000	0.027	-0.159
-286.574	-6.595	0.253	-0.171
-285.559	385.677	0.167	0.343
-284.545	-200.000	0.022	-0.294
-283.530	13.989	-0.230	-0.178
-282.516	247.066	0.137	-0.230
-281.501	-73.591	0.019	-0.007
-280.486	21.963	-0.112	-0.091
-279.472	199.347	0.143	-0.219
-278.457	-185.606	0.159	-0.002
-277.443	-143.812	-0.245	-0.023
-276.428	800.000	0.017	0.058
-275.413	-70.747	0.170	0.064
-274.399	28.992	-0.248	0.209
-273.384	-108.750	-0.318	-0.068
-272.370	-200.000	0.005	-0.107
-271.355	146.188	-0.190	-0.254
-270.340	800.000	-0.014	0.043
-269.326	800.000	-0.052	0.152
-268.311	-5.283	0.241	0.165
-267.297	67.228	-0.298	0.302
-266.282	-21.887	0.104	0.063
-265.267	-112.185	0.194	-0.039
-264.253	-200.000	-0.046	0.338
-263.238	590.690	0.186	0.455
-262.224	-200.000	-0.051	0.245
-261.209	-107.210	-0.070	0.015
-260.195	57.186	0.101	0.098
-259.180	28.402	-0.112	0.094
-258.165	-166.246	0.233	0.010
-257.151	-53.638	-0.281	0.127
-256.136	-14.513	-0.026	-0.016
-255.122	-115.650	0.465	-0.087
-254.107	800.000	-0.056	-0.218
-253.092	-26.882	-0.277	-0.160
-252.078	336.171	0.052	-0.100
-251.063	-68.811	0.257	0.099
-250.049	-93.624	0.092	-0.025
-249.034	-200.000	0.012	-0.092
-248.019	-105.205	-0.133	-0.030
-247.005	66.826	0.184	0.186
-245.990	-6.002	-0.321	0.218
-244.976	30.101	0.049	-0.041
-243.961	649.543	0.065	0.165
-242.946	-200.000	-0.040	-0.209
-241.932	-32.041	-0.169	-0.094
-240.917	427.203	-0.045	-0.096
-239.903	-200.000	0.001	-0.125
-238.888	-94.187	-0.158	0.043
-237.873	-81.511	-0.070	0.023
-236.859	140.293	0.318	0.417
-235.844	-200.000	0.004	0.087
-234.830	-17.028	-0.196	0.123
-233.815	-112.080	-0.321	-0.064
-232.800	-154.498	-0.318	-0.021
-231.786	-200.000	0.003	0.025
-230.771	-124.399	-0.279	0.043
-229.757	-63.176	-0.169	-0.069
-228.742	54.019	-0.196	0.187
-227.727	13.021	0.161	0.123
-226.713	-121.746	0.331	-0.054
-225.698	799.447	-0.017	0.046
-224.684	372.888	0.120	-0.242
-223.669	177.672	-0.039	0.056
-222.655	672.994	-0.035	-0.091
-221.640	438.590	0.137	-0.297
-220.625	-200.000	0.009	-0.075
-219.611	109.875	-0.140	-0.167
-218.596	-200.000	0.027	-0.175
-217.582	-69.468	0.161	0.061
-216.567	-15.895	-0.100	-0.063
-215.552	-52.046	0.309	-0.142
-214.538	-200.000	-0.009	0.142
-213.523	-200.000	-0.024	0.277
-212.509	-139.679	0.041	-0.004
-211.494	800.000	-0.050	0.186
-210.479	68.751	-0.168	0.171
-209.465	-200.000	-0.067	-0.299
-208.450	-124.603	0.138	0.021
-207.436	800.000	0.062	-0.218
-206.421	800.000	0.080	-0.281
-205.406	7.579	0.075	0.056
-204.392	-136.466	0.131	-0.015
-203.377	-200.000	0.017	0.140
-202.363	-9.804	0.067	0.044
-201.348	492.200	0.099	0.224
-200.333	-127.097	0.233	-0.034
-199.319	229.000	-0.041	0.066
-198.304	800.000	0.044	-0.129
-197.290	121.095	0.080	-0.098
-196.275	213.905	0.117	-0.184
-195.260	800.000	0.002	-0.007
-194.246	-114.524	-0.239	-0.045
-193.231	-46.242	0.196	0.095
-192.217	20.345	0.370	0.296
-191.202	-194.377	0.221	0.002
-190.187	296.299	-0.064	-0.116
-189.173	-118.284	-0.147	0.026
-188.158	410.245	-0.117	-0.245
-187.144	-110.572	-0.460	0.094
-186.129	-200.000	0.037	-0.336
-185.114	699.953	-0.117	-0.305
-184.100	800.000	-0.055	-0.162
-183.085	332.449	-0.069	-0.132
-182.071	-48.283	-0.061	-0.029
-181.056	-200.000	0.118	0.683
-180.042	-129.387	0.399	-0.055
-179.027	-88.544	-0.245	0.072
-178.012	-111.447	0.263	-0.053
-176.998	-132.751	-0.303	-0.038
-175.983	65.347	-0.261	-0.262
-174.969	-200.000	-0.078	-0.430
-173.954	445.802	-0.040	-0.088
-172.939	-83.336	-0.187	-0.059
-171.925	-152.816	-0.293	0.021
-170.910	-200.000	0.001	0.023
-169.896	-27.889	-0.237	0.136
-168.881	-193.244	-0.172	-0.001
-167.866	48.855	0.266	0.247
-166.852	270.111	0.120	0.208
-165.837	425.308	0.165	0.352
-164.823	184.506	-0.183	0.269
-163.808	239.462	-0.045	-0.075
-162.793	292.985	-0.125	0.227
-161.779	800.000	-0.095	0.292
-160.764	-80.152	-0.195	-0.065
-159.750	-114.971	0.259	-0.049
-158.735	-200.000	-0.040	-0.287
-157.720	-35.212	-0.150	-0.081
-156.706	-200.000	0.049	0.279
-155.691	-21.501	-0.187	-0.113
-154.677	-114.484	-0.190	0.036
-153.662	-193.090	-0.058	-0.001
-152.647	371.780	-0.112	-0.225
-151.633	-50.146	0.153	-0.072
-150.618	235.181	-0.118	0.193
-149.604	159.044	0.099	-0.136
-148.589	-200.000	-0.057	-0.346
-147.574	386.241	-0.049	-0.101
-146.560	20.953	0.097	-0.078
-145.545	228.516	-0.155	0.249
-144.531	800.000	-0.029	-0.110
-143.516	253.906	0.140	0.237
-142.502	-145.381	-0.352	0.031
-141.487	-200.000	0.028	0.312
-140.472	-157.855	0.162	0.009
-139.458	-200.000	0.005	0.106
-138.443	-29.173	-0.291	0.165
-137.429	-200.000	-0.043	0.402
-136.414	407.913	-0.069	-0.145
-135.399	-188.425	0.126	0.002
-134.385	-200.000	0.040	-0.258
-133.370	-68.724	0.108	0.041
-132.356	637.188	0.042	-0.105
-131.341	-200.000	-0.014	0.203
-130.326	-133.973	0.411	-0.050
-129.312	157.788	0.104	0.143
-128.297	-200.000	0.077	-0.341
-127.283	545.140	0.063	-0.149
-126.268	627.189	0.062	-0.156
-125.253	129.697	-0.204	0.258
-124.239	-35.697	-0.204	0.109
-123.224	-200.000	-0.014	-0.192
-122.210	-69.918	0.060	0.023
