DTS Sentinel unit serial number:	SN413079Multiplexer serial number:	ORYXHardware model number:	OX4-SRSoftware version number:	ORYX F/W v4.00 Oryx Data Collector v3.7.2.0data status	okinstallation	princeton_trtdifferential loss correction	single-endedforward channel	channel 4reverse channel	N/Adate	2019/09/17time	05:57:35forward acquisition time	60.00reverse acquisition time	0.00gamma	496.2192k internal	0.2315k external	0.2315temperature offset calibration	0.9982default loss term (dB/km)	0.3790temperature slope calibration	1.0000multiplexer offset coefficient	1.0000multiplexer slope coefficient	1.0000fibre end	0.00T internal ref (°C)	28.81T ext. ref 1 (°C)	0.14T ext. ref 2 (°C)	22.46length (m)	temperature (°C)	Stokes	anti-Stokes-747.200	-60.235	-0.204	-0.088
-746.185	-62.071	0.323	0.137
-745.171	-116.815	0.316	0.059
-744.156	-188.014	-0.268	0.004
-743.142	-69.347	0.054	0.021
-742.127	236.102	0.185	0.310
-741.112	46.678	-0.141	-0.133
-740.098	-33.227	0.206	0.116
-739.083	15.516	0.043	0.034
-738.069	-200.000	-0.246	0.001
-737.054	-118.002	-0.298	0.054
-736.039	-200.000	0.085	-0.419
-735.025	125.536	0.189	0.242
-734.010	378.987	-0.185	-0.383
-732.996	432.029	0.130	-0.287
-731.981	10.954	0.187	-0.145
-730.966	237.028	0.077	-0.130
-729.952	133.941	0.185	-0.243
-728.937	12.646	-0.212	-0.166
-727.923	-200.000	-0.084	-0.421
-726.908	800.000	-0.067	-0.247
-725.894	-96.236	0.263	-0.071
-724.879	-98.082	-0.371	0.097
-723.864	-83.272	-0.106	-0.034
-722.850	-47.091	0.157	-0.078
-721.835	-19.937	-0.112	0.070
-720.821	-37.207	0.221	0.120
-719.806	338.610	-0.092	-0.182
-718.791	-37.368	-0.191	0.103
-717.777	-37.164	-0.335	0.182
-716.762	-200.000	-0.026	-0.291
-715.748	53.709	0.090	-0.087
-714.733	-0.083	0.032	0.023
-713.718	-21.755	-0.182	0.112
-712.704	-200.000	0.021	-0.401
-711.689	499.819	-0.036	0.084
-710.675	-92.009	-0.347	0.099
-709.660	-108.181	-0.138	0.030
-708.645	21.431	-0.207	0.171
-707.631	189.734	-0.136	-0.207
-706.616	145.662	0.323	-0.437
-705.602	-159.844	0.527	-0.029
-704.587	23.745	0.169	0.141
-703.572	-57.050	0.232	0.103
-702.558	-103.330	0.192	-0.046
-701.543	324.906	0.072	0.139
-700.529	-182.777	0.247	-0.005
-699.514	-89.137	-0.285	-0.085
-698.499	-137.853	-0.208	-0.024
-697.485	-105.799	0.393	0.090
-696.470	-66.007	-0.290	0.117
-695.456	-112.119	-0.064	-0.013
-694.441	-115.475	0.225	-0.043
-693.426	-17.923	-0.421	0.267
-692.412	161.795	-0.084	0.119
-691.397	140.487	-0.043	-0.058
-690.383	-89.497	-0.195	0.058
-689.368	107.314	-0.124	0.149
-688.354	-99.541	-0.255	0.065
-687.339	761.074	0.120	-0.329
-686.324	-138.712	-0.466	-0.052
-685.310	37.766	0.208	-0.187
-684.295	-157.342	-0.089	0.005
-683.281	-53.059	-0.206	-0.096
-682.266	-200.000	-0.007	-0.304
-681.251	-53.191	-0.028	0.013
-680.237	-28.920	-0.411	-0.239
-679.222	379.617	-0.074	0.153
-678.208	-46.780	0.009	-0.005
-677.193	116.387	-0.167	0.207
-676.178	-29.035	-0.130	-0.075
-675.164	-49.425	0.126	-0.061
-674.149	-200.000	0.058	-0.352
-673.135	-48.752	-0.281	0.136
-672.120	61.454	-0.058	-0.058
-671.105	-62.168	0.095	0.040
-670.091	53.579	0.161	0.156
-669.076	-18.317	-0.161	-0.102
-668.062	306.139	0.219	0.412
-667.047	4.576	0.227	0.168
-666.032	-137.972	0.076	-0.009
-665.018	160.010	0.221	0.310
-664.003	570.919	-0.181	0.446
-662.989	525.366	-0.013	-0.031
-661.974	-54.031	-0.163	-0.075
-660.959	172.289	0.122	-0.177
-659.945	-130.481	0.155	-0.021
-658.930	583.329	0.127	-0.314
-657.916	62.349	-0.090	0.091
-656.901	-18.588	-0.191	-0.120
-655.886	-48.767	-0.222	-0.107
-654.872	-200.000	-0.030	-0.151
-653.857	49.616	-0.076	-0.072
-652.843	-14.783	0.032	0.021
-651.828	-200.000	-0.003	0.120
-650.814	-52.378	-0.282	-0.132
-649.799	-38.216	-0.228	-0.122
-648.784	-200.000	0.013	-0.239
-647.770	-16.717	0.423	0.271
-646.755	-87.725	-0.275	-0.084
-645.741	176.003	-0.214	-0.313
-644.726	800.000	0.105	-0.417
-643.711	615.480	-0.094	0.238
-642.697	-200.000	0.025	-0.210
-641.682	324.190	-0.097	0.186
-640.668	800.000	0.062	-0.236
-639.653	-107.048	0.173	-0.038
-638.638	800.000	-0.045	-0.175
-637.624	50.368	-0.309	-0.295
-636.609	548.180	0.096	0.231
-635.595	-200.000	0.002	-0.094
-634.580	-73.863	0.241	-0.088
-633.565	-28.629	-0.359	0.209
-632.551	-28.381	-0.332	-0.193
-631.536	-64.176	-0.222	-0.091
-630.522	-161.379	-0.376	-0.020
-629.507	-64.669	0.098	-0.040
-628.492	22.734	-0.133	-0.110
-627.478	88.603	0.156	-0.175
-626.463	557.413	-0.040	0.098
-625.449	-75.304	-0.228	0.082
-624.434	800.000	0.077	-0.297
-623.419	-200.000	0.022	-0.137
-622.405	-200.000	0.052	0.231
-621.390	-117.339	0.206	-0.038
-620.376	60.084	-0.059	-0.058
-619.361	-161.928	0.423	-0.022
-618.346	42.015	-0.254	0.232
-617.332	800.000	0.155	-0.462
-616.317	800.000	0.028	-0.097
-615.303	183.118	-0.131	0.195
-614.288	-75.200	-0.356	0.128
-613.273	74.747	-0.112	0.119
-612.259	800.000	0.102	-0.337
-611.244	-3.958	0.139	-0.097
-610.230	-200.000	0.017	-0.202
-609.215	-138.717	-0.390	0.043
-608.201	800.000	-0.037	0.158
-607.186	720.272	-0.134	0.360
-606.171	79.576	-0.181	-0.196
-605.157	-200.000	0.046	-0.251
-604.142	-149.493	-0.149	-0.012
-603.128	172.872	-0.122	-0.177
-602.113	-91.236	-0.148	-0.043
-601.098	800.000	-0.067	-0.222
-600.084	-75.223	0.200	0.072
-599.069	304.629	-0.041	0.076
-598.055	-128.334	-0.169	-0.024
-597.040	800.000	0.100	-0.348
-596.025	-122.805	-0.378	0.062
-595.011	-200.000	-0.041	-0.250
-593.996	24.861	-0.227	-0.190
-592.982	-92.292	-0.148	-0.042
-591.967	35.642	-0.240	-0.213
-590.952	110.462	-0.219	-0.265
-589.938	81.440	0.030	-0.033
-588.923	81.635	0.160	0.175
-587.909	230.746	0.038	0.063
-586.894	129.059	0.092	0.118
-585.879	-74.954	0.378	-0.136
-584.865	-200.000	-0.023	-0.380
-583.850	-146.706	-0.200	-0.017
-582.836	-68.160	-0.180	0.071
-581.821	68.317	0.081	0.083
-580.806	72.051	0.130	0.136
-579.792	800.000	-0.037	-0.134
-578.777	32.695	0.327	-0.284
-577.763	-37.722	-0.040	0.022
-576.748	-60.838	-0.368	0.157
-575.733	77.051	0.173	-0.185
-574.719	800.000	-0.033	-0.144
-573.704	-49.360	0.140	0.067
-572.690	800.000	-0.007	0.022
-571.675	-55.149	-0.253	-0.115
-570.661	259.256	-0.047	-0.081
-569.646	-139.314	-0.182	0.020
-568.631	256.776	0.229	-0.395
-567.617	800.000	-0.071	0.269
-566.602	-200.000	0.092	0.436
-565.588	20.370	-0.434	0.353
-564.573	-70.360	0.042	0.016
-563.558	-27.474	-0.184	0.107
-562.544	226.009	-0.229	-0.373
-561.529	101.358	-0.193	-0.226
-560.515	447.756	0.138	-0.305
-559.500	-160.296	-0.135	-0.007
-558.485	-8.833	-0.304	0.205
-557.471	-5.879	-0.124	-0.085
-556.456	-159.633	-0.364	0.020
-555.442	75.928	0.414	0.441
-554.427	188.999	0.222	0.334
-553.412	184.106	0.164	-0.244
-552.398	263.012	0.139	0.243
-551.383	15.659	-0.012	-0.009
-550.369	-200.000	0.026	-0.130
-549.354	-47.477	-0.176	0.086
-548.339	800.000	0.055	-0.168
-547.325	23.595	0.149	0.123
-546.310	-80.110	-0.156	-0.053
-545.296	19.859	0.160	0.130
-544.281	-149.919	0.167	0.013
-543.266	256.124	-0.186	0.320
-542.252	-200.000	-0.013	-0.264
-541.237	486.266	0.138	0.317
-540.223	158.204	0.149	-0.207
-539.208	-200.000	0.059	-0.358
-538.193	43.994	-0.185	-0.170
-537.179	48.220	0.356	-0.335
-536.164	-26.555	0.137	0.080
-535.150	-51.548	0.209	-0.098
-534.135	800.000	-0.068	-0.239
-533.121	39.257	0.301	-0.271
-532.106	800.000	0.067	0.230
-531.091	53.934	0.203	0.197
-530.077	167.496	-0.037	-0.052
-529.062	-115.907	0.156	0.029
-528.048	133.655	0.184	0.239
-527.033	36.966	-0.189	-0.168
-526.018	-132.173	-0.324	0.042
-525.004	-111.537	-0.072	0.015
-523.989	-11.881	0.066	0.043
-522.975	6.790	-0.149	0.111
-521.960	-157.837	0.362	-0.022
-520.945	-200.000	0.086	-0.384
-519.931	-200.000	-0.014	-0.130
-518.916	800.000	0.026	0.087
-517.902	-200.000	0.014	0.197
-516.887	-200.000	-0.014	0.115
-515.872	259.613	-0.169	0.293
-514.858	-19.655	0.327	0.203
-513.843	6.111	-0.200	0.149
-512.829	333.944	-0.174	0.338
-511.814	-131.185	-0.110	0.015
-510.799	-62.258	0.284	-0.119
-509.785	-101.104	0.212	0.052
-508.770	800.000	0.020	0.086
-507.756	301.101	0.164	-0.305
-506.741	-200.000	-0.018	0.355
-505.726	-200.000	0.013	-0.163
-504.712	-200.000	-0.018	0.359
-503.697	-200.000	0.024	0.129
-502.683	-69.254	0.077	-0.030
-501.668	268.892	0.167	0.293
-500.653	-200.000	0.010	-0.156
-499.639	-79.680	-0.288	0.097
-498.624	-66.396	0.223	-0.089
-497.610	171.273	-0.055	0.079
-496.595	-200.000	-0.041	0.453
-495.581	378.538	0.035	0.071
-494.566	800.000	0.054	0.214
-493.551	-163.458	0.104	-0.005
-492.537	-44.066	0.007	-0.004
-491.522	-152.526	0.232	0.017
-490.508	-21.440	0.121	0.074
-489.493	-200.000	-0.068	-0.395
-488.478	-200.000	-0.012	-0.135
-487.464	216.999	0.177	-0.283
-486.449	212.696	-0.168	-0.266
-485.435	-142.284	-0.370	-0.037
-484.420	-117.191	0.063	0.012
-483.405	162.542	0.203	-0.285
-482.391	299.287	0.226	-0.417
-481.376	8.861	-0.265	-0.200
-480.362	800.000	-0.061	-0.209
-479.347	333.510	0.062	0.121
-478.332	256.859	0.135	0.233
-477.318	-100.930	0.195	0.048
-476.303	800.000	0.020	-0.069
-475.289	162.134	-0.116	-0.163
-474.274	-89.693	0.217	0.064
-473.259	768.147	-0.154	-0.420
-472.245	-47.651	0.023	0.011
-471.230	253.455	0.152	0.261
-470.216	103.655	-0.095	0.111
-469.201	-171.768	0.381	-0.013
-468.186	336.402	0.072	0.140
-467.172	-200.000	0.107	0.656
-466.157	-200.000	0.006	-0.150
-465.143	10.461	0.181	-0.138
-464.128	-114.411	-0.324	-0.062
-463.113	138.413	-0.071	-0.093
-462.099	703.090	-0.064	0.169
-461.084	-76.732	0.186	-0.065
-460.070	-200.000	0.029	-0.140
-459.055	800.000	0.012	0.039
-458.040	-200.000	0.065	-0.309
-457.026	-104.709	-0.461	0.106
-456.011	107.669	-0.198	-0.236
-454.997	-200.000	-0.019	-0.128
-453.982	-200.000	-0.054	0.256
-452.968	303.883	0.131	-0.244
-451.953	16.758	0.229	0.181
-450.938	800.000	-0.036	0.145
-449.924	-73.110	0.149	0.055
-448.909	-200.000	0.026	0.126
-447.895	4.613	0.253	0.186
-446.880	-200.000	-0.032	0.357
-445.865	-131.659	0.288	0.038
-444.851	-67.915	0.267	-0.104
-443.836	-42.636	-0.159	-0.081
-442.822	-77.287	0.249	-0.087
-441.807	-120.238	-0.172	0.029
-440.792	166.035	0.102	-0.144
-439.778	218.589	0.137	-0.219
-438.763	-200.000	-0.004	0.157
-437.749	-111.985	-0.340	-0.069
-436.734	405.664	-0.068	-0.144
-435.719	-39.373	0.360	-0.189
-434.705	-116.895	-0.254	0.047
-433.690	229.532	0.226	0.369
-432.676	424.027	-0.064	-0.139
-431.661	-113.609	0.493	-0.096
-430.646	-200.000	0.005	-0.345
-429.632	162.352	-0.095	-0.133
-428.617	-200.000	-0.012	-0.157
-427.603	96.208	0.168	0.192
-426.588	24.565	0.180	0.149
-425.573	-62.383	0.264	-0.110
-424.559	437.279	-0.054	0.117
-423.544	93.703	-0.125	-0.142
-422.530	-80.182	-0.133	-0.045
-421.515	-116.572	-0.228	0.042
-420.500	23.533	0.074	0.061
-419.486	93.918	0.072	-0.081
-418.471	-86.493	-0.360	0.111
-417.457	-200.000	0.019	0.127
-416.442	158.982	0.088	-0.123
-415.428	408.590	0.138	0.292
-414.413	150.468	-0.099	0.135
-413.398	458.362	-0.129	-0.287
-412.384	-95.182	0.107	0.029
-411.369	303.912	-0.085	0.157
-410.355	251.973	0.121	0.206
-409.340	-0.792	0.142	-0.100
-408.325	462.937	0.111	-0.248
-407.311	233.428	0.069	-0.114
-406.296	42.920	0.136	-0.124
-405.282	733.513	0.081	-0.216
-404.267	32.743	-0.304	0.263
-403.252	235.661	-0.053	0.087
-402.238	800.000	0.043	-0.168
-401.223	-177.001	-0.198	0.005
-400.209	125.811	0.086	-0.108
-399.194	352.190	0.056	0.112
-398.179	800.000	-0.054	-0.176
-397.165	698.790	-0.175	0.461
-396.150	-117.812	0.282	-0.051
-395.136	-114.390	0.203	-0.039
-394.121	-120.291	0.409	-0.070
-393.106	800.000	0.075	0.230
-392.092	18.740	0.335	0.268
-391.077	133.409	0.182	-0.235
-390.063	464.783	-0.112	-0.250
-389.048	-45.245	-0.303	-0.151
-388.033	-45.271	-0.144	0.071
-387.019	-58.950	0.096	-0.042
-386.004	-169.627	-0.067	-0.002
-384.990	-200.000	-0.082	0.396
-383.975	800.000	0.097	0.281
-382.960	-66.334	-0.236	-0.094
-381.946	-200.000	0.053	-0.388
-380.931	-200.000	0.037	-0.176
-379.917	800.000	0.036	0.103
-378.902	-150.913	-0.329	-0.025
-377.888	322.222	-0.048	-0.091
-376.873	-114.285	0.238	-0.046
-375.858	800.000	0.050	0.169
-374.844	33.517	-0.258	-0.224
-373.829	9.334	-0.143	-0.108
-372.815	-200.000	0.030	-0.183
-371.800	-200.000	-0.037	0.473
-370.785	-150.443	0.125	-0.010
-369.771	244.150	-0.048	-0.080
-368.756	800.000	0.075	-0.281
-367.742	500.296	0.110	-0.254
-366.727	-61.369	-0.319	-0.134
-365.712	-200.000	0.033	0.254
-364.698	303.130	-0.117	0.216
-363.683	108.797	-0.066	0.079
-362.669	-71.287	-0.257	0.096
-361.654	-200.000	-0.022	-0.096
-360.639	800.000	-0.053	-0.227
-359.625	-49.687	-0.299	-0.142
-358.610	-200.000	0.003	-0.046
-357.596	-138.838	0.133	0.014
-356.581	205.708	-0.163	-0.254
-355.566	-133.661	0.113	0.014
-354.552	163.215	0.106	-0.149
-353.537	-155.535	-0.160	0.010
-352.523	282.321	-0.087	-0.155
-351.508	-147.104	-0.084	0.007
-350.493	319.081	-0.134	0.253
-349.479	-200.000	0.010	0.198
-348.464	44.274	-0.049	0.045
-347.450	-62.354	-0.138	0.057
-346.435	482.364	-0.081	0.183
-345.420	-200.000	0.011	0.169
-344.406	-72.620	-0.207	0.076
-343.391	-133.085	0.015	0.002
-342.377	21.544	0.171	-0.139
-341.362	10.193	0.146	0.111
-340.348	1.087	-0.233	-0.167
-339.333	-33.631	-0.294	0.162
-338.318	-89.063	-0.253	0.075
-337.304	-149.761	-0.056	-0.004
-336.289	222.517	-0.146	0.234
-335.275	80.723	0.030	0.032
-334.260	47.081	-0.153	-0.142
-333.245	85.862	-0.112	-0.122
-332.231	55.377	-0.127	0.122
-331.216	800.000	0.035	0.109
-330.202	134.805	0.101	-0.131
-329.187	-39.976	0.332	-0.173
-328.172	325.785	-0.175	-0.334
-327.158	-36.557	-0.170	-0.091
-326.143	-122.445	0.244	-0.040
-325.129	-35.104	-0.229	0.125
-324.114	339.273	0.044	0.086
-323.099	-134.611	0.188	-0.023
-322.085	47.531	0.191	0.177
-321.070	-4.503	-0.143	0.098
-320.056	233.651	0.091	0.149
-319.041	-154.340	-0.178	-0.012
-318.026	396.531	0.147	-0.306
-317.012	800.000	0.024	0.082
-315.997	-200.000	0.040	0.177
-314.983	-18.645	0.078	-0.049
-313.968	-69.732	-0.096	-0.037
-312.953	-55.039	0.153	0.068
-311.939	30.413	-0.125	0.106
-310.924	800.000	-0.089	0.370
-309.910	800.000	0.096	-0.377
-308.895	800.000	0.110	0.333
-307.880	272.231	0.060	0.105
-306.866	800.000	0.045	0.188
-305.851	82.560	-0.196	0.212
-304.837	-2.226	-0.100	-0.070
-303.822	90.947	0.154	0.172
-302.807	-200.000	0.076	-0.456
-301.793	800.000	-0.025	-0.082
-300.778	163.940	0.199	-0.279
-299.764	-64.577	-0.181	0.073
-298.749	-59.204	0.062	0.027
-297.735	31.454	0.175	-0.150
-296.720	236.341	0.082	0.136
-295.705	-200.000	-0.009	0.099
-294.691	-28.210	-0.176	-0.102
-293.676	-200.000	-0.065	0.312
-292.662	-200.000	-0.009	0.085
-291.647	-200.000	0.001	-0.346
-290.632	-124.645	-0.141	-0.022
-289.618	800.000	-0.101	0.384
-288.603	92.966	-0.134	0.151
-287.589	-147.951	-0.212	-0.018
-286.574	-200.000	-0.022	0.125
-285.559	-24.358	0.202	-0.120
-284.545	-200.000	-0.011	0.343
-283.530	220.595	-0.042	-0.067
-282.516	800.000	0.133	0.523
-281.501	699.408	0.063	-0.164
-280.486	54.927	0.034	-0.033
-279.472	-200.000	-0.016	-0.181
-278.457	653.186	0.132	-0.336
-277.443	-112.163	0.159	-0.032
-276.428	-145.357	0.224	-0.020
-275.413	174.517	-0.093	0.134
-274.399	530.174	-0.065	-0.154
-273.384	-11.312	0.163	0.107
-272.370	10.084	-0.350	0.265
-271.355	-140.666	0.208	0.021
-270.340	73.308	-0.247	-0.257
-269.326	-200.000	0.034	0.370
-268.311	98.739	0.008	-0.009
-267.297	-30.093	-0.107	0.060
-266.282	3.032	-0.091	0.066
-265.267	-200.000	-0.010	0.066
-264.253	-200.000	-0.020	-0.150
-263.238	-200.000	-0.047	0.257
-262.224	-200.000	0.040	0.310
-261.209	-79.189	-0.051	0.017
-260.195	430.350	0.104	0.224
-259.180	800.000	0.026	0.077
-258.165	-6.777	0.163	0.110
-257.151	189.447	-0.090	0.134
-256.136	-1.410	-0.148	-0.104
-255.122	1.147	-0.119	0.085
-254.107	302.668	0.150	0.276
-253.092	-109.137	0.064	0.014
-252.078	118.683	-0.121	0.149
-251.063	635.882	0.092	-0.232
-250.049	17.528	0.470	-0.371
-249.034	-74.948	-0.258	0.092
-248.019	-200.000	-0.050	0.229
-247.005	-87.302	0.374	-0.113
-245.990	244.527	0.074	-0.123
-244.976	-135.385	-0.436	0.052
-243.961	7.005	-0.184	-0.137
-242.946	800.000	0.017	0.049
-241.932	75.266	0.167	0.175
-240.917	3.590	0.118	-0.086
-239.903	-112.273	-0.207	0.041
-238.888	-117.197	0.279	0.050
-237.873	-38.739	-0.339	-0.177
-236.859	129.976	0.034	-0.044
-235.844	-200.000	0.021	-0.507
-234.830	634.765	0.107	-0.270
-233.815	-200.000	0.039	0.189
-232.800	-41.873	-0.053	0.027
-231.786	-57.383	0.063	0.028
-230.771	-200.000	-0.033	0.189
-229.757	140.240	0.165	-0.216
-228.742	-22.230	-0.233	-0.140
-227.727	-117.806	-0.148	0.026
-226.713	-147.498	-0.259	-0.022
-225.698	-73.096	-0.104	-0.038
-224.684	-102.199	-0.314	-0.075
-223.669	-12.952	0.124	0.080
-222.655	301.339	-0.127	-0.233
-221.640	-179.294	0.092	0.002
-220.625	-127.007	0.191	0.028
-219.611	-132.434	0.083	0.011
-218.596	-200.000	-0.038	0.295
-217.582	-130.007	0.288	-0.039
-216.567	42.934	-0.128	0.116
-215.552	-200.000	-0.006	-0.268
-214.538	-142.810	-0.225	0.022
-213.523	-200.000	0.003	0.119
-212.509	-74.370	0.297	-0.106
-211.494	-200.000	0.007	0.235
-210.479	3.207	0.185	0.134
-209.465	499.229	0.103	-0.237
-208.450	388.306	-0.015	0.030
-207.436	-122.628	-0.369	0.059
-206.421	444.290	0.182	0.397
-205.406	-153.876	-0.222	0.015
-204.392	-85.510	-0.133	0.041
-203.377	424.603	-0.009	-0.020
-202.363	-200.000	0.035	-0.298
-201.348	29.186	-0.350	-0.295
-200.333	800.000	-0.085	-0.298
-199.319	-200.000	0.039	-0.368
-198.304	76.281	0.229	-0.241
-197.290	-2.599	-0.067	0.047
-196.275	-200.000	0.036	0.362
-195.260	-137.712	-0.153	0.017
-194.246	650.277	0.059	0.151
-193.231	-200.000	-0.004	0.215
-192.217	-142.294	0.392	0.038
-191.202	146.356	0.163	0.216
-190.187	138.812	0.168	-0.218
-189.173	-155.308	-0.209	0.013
-188.158	61.111	-0.185	-0.183
-187.144	-158.347	0.532	0.031
-186.129	-94.601	0.335	-0.090
-185.114	800.000	0.039	-0.158
-184.100	800.000	0.019	-0.070
-183.085	751.138	0.014	0.038
-182.071	262.518	0.088	-0.152
-181.056	62.630	-0.097	0.096
-180.042	-137.393	-0.137	0.015
-179.027	-76.690	-0.090	-0.031
-178.012	-200.000	-0.024	0.249
-176.998	-200.000	0.052	0.360
-175.983	800.000	-0.053	0.155
-174.969	-1.046	-0.271	0.190
-173.954	7.321	-0.176	-0.130
-172.939	189.467	0.196	0.292
-171.925	50.124	0.045	0.043
-170.910	-200.000	0.049	0.245
-169.896	-23.256	0.368	0.219
-168.881	656.929	-0.114	-0.290
-167.866	768.204	-0.081	0.219
-166.852	468.040	0.140	0.310
-165.837	-158.214	0.288	-0.017
-164.823	13.384	-0.159	-0.122
-163.808	344.033	0.040	-0.077
-162.793	36.095	-0.164	0.143
-161.779	139.451	0.242	0.316
-160.764	214.574	0.087	0.136
-159.750	23.680	-0.182	0.148
-158.735	58.156	0.191	0.185
-157.720	800.000	0.027	0.074
-156.706	800.000	-0.087	-0.299
-155.691	-52.006	0.227	0.105
-154.677	-182.682	0.318	0.006
-153.662	85.069	-0.193	0.210
-152.647	342.712	0.177	0.343
-151.633	-34.097	0.268	0.146
-150.618	-106.146	0.175	-0.039
-149.604	343.178	-0.056	-0.109
-148.589	-140.009	0.170	0.018
-147.574	172.684	-0.319	0.455
-146.560	-42.132	0.149	0.075
-145.545	-104.177	0.149	0.034
-144.531	541.158	-0.006	-0.013
-143.516	2.427	0.218	0.156
-142.502	-165.306	0.213	-0.009
-141.487	-125.908	-0.456	-0.068
-140.472	-61.628	-0.128	0.053
-139.458	701.248	-0.132	0.343
-138.443	-200.000	-0.059	0.262
-137.429	65.471	0.209	0.209
-136.414	-16.973	-0.098	-0.061
-135.399	120.532	-0.145	0.178
-134.385	-200.000	0.010	0.063
-133.370	83.627	-0.189	-0.204
-132.356	-135.659	0.136	0.016
-131.341	-34.789	0.303	0.164
-130.326	800.000	0.079	0.339
-129.312	-200.000	0.007	0.063
-128.297	-200.000	-0.011	-0.148
-127.283	516.323	0.038	0.089
-126.268	-200.000	-0.006	-0.140
-125.253	602.805	0.035	-0.086
-124.239	-133.316	0.211	0.026
-123.224	100.496	-0.196	-0.225
-122.210	652.827	0.092	0.234
-121.195	-12.734	-0.230	0.148
