DTS Sentinel unit serial number:	SN413079Multiplexer serial number:	ORYXHardware model number:	OX4-SRSoftware version number:	ORYX F/W v4.00 Oryx Data Collector v3.7.2.0data status	okinstallation	princeton_trtdifferential loss correction	single-endedforward channel	channel 4reverse channel	N/Adate	2019/09/18time	13:53:35forward acquisition time	60.00reverse acquisition time	0.00gamma	496.2192k internal	0.2302k external	0.2302temperature offset calibration	0.9997default loss term (dB/km)	0.3790temperature slope calibration	1.0000multiplexer offset coefficient	1.0000multiplexer slope coefficient	1.0000fibre end	0.00T internal ref (°C)	34.55T ext. ref 1 (°C)	0.65T ext. ref 2 (°C)	29.72length (m)	temperature (°C)	Stokes	anti-Stokes-747.200	-110.706	-0.197	-0.041
-746.185	456.138	-0.088	0.199
-745.171	-148.953	0.388	0.032
-744.156	-200.000	0.009	-0.198
-743.142	-22.965	0.234	0.144
-742.127	23.000	-0.164	-0.137
-741.112	-200.000	-0.002	0.016
-740.098	-46.715	-0.510	-0.255
-739.083	-200.000	0.078	0.475
-738.069	-200.000	-0.039	0.425
-737.054	-33.540	0.172	-0.097
-736.039	359.626	-0.143	0.291
-735.025	408.132	0.038	-0.082
-734.010	70.598	-0.086	0.091
-732.996	-200.000	0.002	-0.169
-731.981	437.190	0.111	0.246
-730.966	-200.000	-0.032	-0.236
-729.952	-112.252	-0.399	0.082
-728.937	126.168	-0.232	0.299
-727.923	-84.496	-0.320	-0.103
-726.908	800.000	-0.081	-0.282
-725.894	-103.329	-0.168	0.040
-724.879	-200.000	0.002	0.300
-723.864	68.415	-0.105	-0.110
-722.850	-89.808	-0.142	-0.042
-721.835	-141.768	-0.390	0.040
-720.821	-101.229	-0.272	-0.068
-719.806	57.869	-0.082	-0.081
-718.791	-64.822	0.085	0.035
-717.777	-200.000	-0.034	-0.416
-716.762	-200.000	0.024	-0.299
-715.748	-53.394	-0.027	-0.012
-714.733	261.724	-0.091	-0.160
-713.718	155.705	-0.017	0.024
-712.704	64.139	-0.274	0.280
-711.689	800.000	-0.060	0.178
-710.675	-90.222	-0.374	-0.111
-709.660	800.000	0.084	-0.360
-708.645	288.944	-0.075	-0.138
-707.631	800.000	-0.068	-0.221
-706.616	-53.732	0.370	0.172
-705.602	-22.886	-0.236	-0.145
-704.587	800.000	-0.070	-0.279
-703.572	-194.233	0.199	0.002
-702.558	800.000	-0.043	-0.178
-701.543	-144.837	0.376	0.035
-700.529	-126.887	-0.407	-0.061
-699.514	-47.423	-0.143	-0.071
-698.499	-200.000	0.006	0.081
-697.485	-124.696	-0.083	-0.013
-696.470	-200.000	0.047	-0.268
-695.456	147.449	0.155	-0.212
-694.441	-32.285	0.096	0.055
-693.426	-132.363	0.224	-0.029
-692.412	331.360	0.070	-0.138
-691.397	126.793	-0.164	0.212
-690.383	126.906	0.042	0.054
-689.368	246.835	-0.092	0.158
-688.354	-200.000	-0.021	-0.205
-687.339	800.000	-0.103	0.296
-686.324	224.983	-0.296	-0.487
-685.310	574.471	-0.104	-0.258
-684.295	-32.507	-0.205	0.116
-683.281	-200.000	0.058	0.287
-682.266	800.000	-0.045	-0.181
-681.251	53.808	-0.088	-0.086
-680.237	-88.318	-0.295	-0.090
-679.222	79.438	0.177	-0.193
-678.208	109.341	-0.094	-0.115
-677.193	-69.512	-0.068	0.027
-676.178	87.482	0.207	0.233
-675.164	-200.000	0.026	0.179
-674.149	800.000	0.058	0.163
-673.135	66.851	-0.193	0.200
-672.120	-200.000	0.017	0.281
-671.105	-200.000	-0.040	-0.295
-670.091	-102.329	-0.295	0.072
-669.076	-200.000	-0.047	0.309
-668.062	-124.415	0.512	-0.081
-667.047	-121.751	-0.205	-0.034
-666.032	-165.275	-0.126	0.006
-665.018	621.211	0.082	-0.211
-664.003	123.413	0.190	0.242
-662.989	145.318	0.190	0.258
-661.974	-200.000	-0.002	0.291
-660.959	-102.108	0.081	0.020
-659.945	-200.000	0.017	-0.221
-658.930	112.124	0.136	0.167
-657.916	-200.000	-0.020	-0.219
-656.901	383.857	-0.219	-0.457
-655.886	-200.000	0.021	0.138
-654.872	-200.000	-0.044	0.204
-653.857	207.353	-0.171	-0.271
-652.843	332.903	-0.019	-0.038
-651.828	-200.000	0.006	0.053
-650.814	-200.000	0.025	-0.238
-649.799	-2.943	-0.161	0.114
-648.784	-162.756	-0.108	0.005
-647.770	281.170	0.207	-0.376
-646.755	-200.000	0.014	0.124
-645.741	-64.347	-0.227	-0.094
-644.726	-16.274	0.214	-0.138
-643.711	-103.408	-0.062	0.015
-642.697	800.000	0.111	-0.317
-641.682	546.470	-0.049	-0.118
-640.668	33.579	-0.054	0.048
-639.653	-200.000	0.050	0.282
-638.638	268.158	0.104	0.185
-637.624	81.201	-0.098	0.108
-636.609	-200.000	0.007	0.237
-635.595	-44.719	-0.258	-0.130
-634.580	-106.068	0.022	0.005
-633.565	33.348	0.122	-0.107
-632.551	-155.563	-0.273	0.018
-631.536	-187.205	-0.290	-0.004
-630.522	800.000	-0.046	0.140
-629.507	48.913	-0.231	-0.220
-628.492	800.000	-0.107	0.383
-627.478	-164.069	-0.306	0.014
-626.463	-122.387	0.375	-0.062
-625.449	-87.566	0.127	0.039
-624.434	-90.666	-0.139	0.041
-623.419	449.734	0.059	-0.132
-622.405	23.016	0.232	0.193
-621.390	54.280	-0.115	-0.112
-620.376	222.852	-0.109	-0.178
-619.361	-189.522	-0.126	0.001
-618.346	-200.000	0.003	-0.028
-617.332	-200.000	0.043	-0.263
-616.317	-162.258	0.587	0.030
-615.303	-39.211	-0.038	-0.020
-614.288	75.384	-0.068	0.073
-613.273	149.987	-0.123	0.169
-612.259	201.996	-0.173	-0.271
-611.244	-90.712	0.307	0.090
-610.230	800.000	-0.098	-0.328
-609.215	58.090	0.165	0.164
-608.201	-119.146	-0.300	-0.053
-607.186	-58.385	0.191	-0.084
-606.171	20.956	-0.193	0.159
-605.157	-200.000	-0.027	0.337
-604.142	11.024	0.117	0.091
-603.128	306.648	0.045	0.085
-602.113	-200.000	-0.004	0.098
-601.098	-14.014	0.058	0.038
-600.084	73.158	0.207	0.219
-599.069	217.023	-0.200	0.323
-598.055	800.000	-0.075	0.268
-597.040	-200.000	-0.021	0.152
-596.025	108.846	0.191	-0.231
-595.011	97.862	0.217	-0.253
-593.996	18.975	-0.223	0.181
-592.982	-92.711	-0.289	0.082
-591.967	527.811	-0.047	-0.111
-590.952	-200.000	0.023	-0.118
-589.938	-200.000	0.003	-0.123
-588.923	-23.380	0.054	0.033
-587.909	-99.557	0.109	0.028
-586.894	800.000	-0.091	0.283
-585.879	-31.895	-0.110	0.063
-584.865	-200.000	-0.092	-0.432
-583.850	-26.431	0.259	-0.154
-582.836	60.554	-0.180	0.180
-581.821	69.094	0.133	-0.139
-580.806	-11.646	-0.092	-0.061
-579.792	-121.802	-0.279	0.047
-578.777	-200.000	0.011	0.189
-577.763	-200.000	0.006	-0.410
-576.748	-1.955	0.099	0.071
-575.733	-101.901	0.081	0.020
-574.719	-128.813	-0.417	-0.059
-573.704	-15.826	0.091	0.059
-572.690	-123.954	0.227	0.036
-571.675	741.564	0.045	-0.123
-570.661	-89.771	0.089	-0.026
-569.646	-200.000	-0.007	0.204
-568.631	101.763	0.138	0.162
-567.617	-46.299	-0.238	0.118
-566.602	175.980	-0.124	-0.183
-565.588	-174.374	-0.498	-0.015
-564.573	36.333	-0.240	0.214
-563.558	321.537	-0.142	0.273
-562.544	4.269	0.140	0.104
-561.529	-68.319	-0.115	-0.045
-560.515	-200.000	0.032	-0.236
-559.500	-60.874	-0.339	0.145
-558.485	312.988	-0.144	-0.273
-557.471	-27.537	-0.397	-0.233
-556.456	42.032	-0.144	-0.132
-555.442	86.999	-0.117	-0.131
-554.427	13.101	-0.325	-0.254
-553.412	279.995	-0.079	-0.143
-552.398	-24.815	-0.133	-0.080
-551.383	156.978	0.137	-0.192
-550.369	800.000	-0.008	-0.028
-549.354	-200.000	0.002	0.209
-548.339	800.000	0.062	-0.175
-547.325	-58.806	-0.221	-0.097
-546.310	20.276	0.041	-0.034
-545.296	83.807	0.225	-0.248
-544.281	307.308	0.145	0.272
-543.266	139.171	-0.054	-0.072
-542.252	-106.746	0.165	-0.037
-541.237	80.650	0.129	-0.140
-540.223	372.055	0.060	-0.124
-539.208	-68.080	-0.135	0.053
-538.193	35.053	0.202	0.179
-537.179	649.651	0.074	0.191
-536.164	800.000	0.066	-0.249
-535.150	-46.634	0.053	-0.026
-534.135	272.350	-0.092	-0.164
-533.121	16.555	-0.071	0.057
-532.106	-119.243	-0.059	0.010
-531.091	333.322	-0.180	-0.352
-530.077	-147.779	0.249	-0.021
-529.062	-200.000	0.007	-0.032
-528.048	-200.000	-0.014	-0.222
-527.033	22.390	0.251	-0.207
-526.018	5.466	0.191	-0.143
-525.004	-62.299	-0.219	-0.092
-523.989	80.030	0.112	0.122
-522.975	-59.184	0.451	-0.196
-521.960	-39.640	-0.191	-0.101
-520.945	-200.000	0.053	-0.261
-519.931	7.529	-0.081	-0.061
-518.916	411.261	-0.024	-0.051
-517.902	755.717	0.102	0.278
-516.887	160.056	0.048	0.068
-515.872	15.886	-0.270	0.215
-514.858	-11.552	0.110	0.073
-513.843	105.261	-0.038	0.046
-512.829	-90.168	0.055	-0.016
-511.814	-200.000	-0.050	-0.420
-510.799	800.000	0.077	0.297
-509.785	-117.884	0.100	0.018
-508.770	83.648	-0.100	-0.110
-507.756	26.000	-0.065	0.055
-506.741	-97.102	0.038	-0.010
-505.726	-65.188	0.092	0.038
-504.712	-39.414	0.166	-0.088
-503.697	-200.000	0.080	0.420
-502.683	800.000	0.094	0.360
-501.668	249.008	0.100	0.170
-500.653	-75.339	0.145	0.052
-499.639	-61.576	0.156	-0.066
-498.624	-19.787	0.097	0.061
-497.610	184.604	0.092	0.138
-496.595	-21.171	-0.200	-0.124
-495.581	21.691	-0.074	-0.060
-494.566	80.792	0.107	-0.117
-493.551	67.899	0.344	-0.355
-492.537	22.095	-0.237	-0.195
-491.522	216.518	-0.004	0.007
-490.508	75.521	0.299	-0.319
-489.493	-133.670	-0.176	0.022
-488.478	-68.498	-0.205	0.080
-487.464	-61.939	-0.130	-0.055
-486.449	-123.891	-0.262	0.042
-485.435	35.074	-0.023	-0.021
-484.420	-13.687	0.074	-0.048
-483.405	461.165	-0.051	0.115
-482.391	647.214	0.066	-0.170
-481.376	-200.000	0.003	-0.201
-480.362	-200.000	-0.005	-0.159
-479.347	377.874	0.221	0.455
-478.332	-3.645	-0.383	0.268
-477.318	-75.437	0.356	-0.128
-476.303	87.512	-0.272	0.304
-475.289	-30.561	-0.096	0.055
-474.274	-78.203	0.329	0.114
-473.259	638.296	-0.062	0.158
-472.245	-143.966	0.257	0.024
-471.230	175.617	-0.269	-0.393
-470.216	800.000	0.039	-0.158
-469.201	1.055	0.462	0.334
-468.186	-48.843	-0.316	-0.153
-467.172	74.924	0.167	-0.177
-466.157	-94.193	0.078	0.021
-465.143	-22.969	0.229	-0.139
-464.128	-200.000	-0.012	0.435
-463.113	-65.832	0.223	0.090
-462.099	-200.000	-0.018	-0.263
-461.084	800.000	0.020	-0.055
-460.070	239.003	0.059	-0.099
-459.055	-109.591	-0.101	0.022
-458.040	93.321	0.075	-0.086
-457.026	38.613	-0.065	0.058
-456.011	800.000	-0.093	0.364
-454.997	-200.000	-0.024	0.194
-453.982	457.742	-0.043	0.096
-452.968	-103.473	-0.213	-0.050
-451.953	-200.000	-0.019	0.128
-450.938	40.914	0.193	0.175
-449.924	-141.890	0.062	0.006
-448.909	42.410	-0.087	-0.080
-447.895	-200.000	-0.000	0.138
-446.880	67.679	0.199	-0.205
-445.865	-200.000	-0.014	-0.103
-444.851	-15.675	0.139	0.090
-443.836	-12.274	0.279	0.184
-442.822	-82.209	-0.118	-0.039
-441.807	359.466	-0.075	-0.151
-440.792	-103.734	-0.240	-0.057
-439.778	-121.575	-0.224	0.037
-438.763	-200.000	0.048	0.307
-437.749	-200.000	-0.016	0.081
-436.734	-200.000	-0.047	0.539
-435.719	-132.939	-0.333	0.043
-434.705	-39.311	0.097	-0.051
-433.690	-146.704	-0.089	0.008
-432.676	-39.012	-0.265	0.141
-431.661	337.112	0.065	0.127
-430.646	-200.000	-0.008	-0.123
-429.632	-157.729	-0.198	-0.012
-428.617	22.253	0.170	0.140
-427.603	-83.121	-0.122	-0.039
-426.588	94.614	0.136	0.156
-425.573	320.824	0.128	0.244
-424.559	-62.616	-0.219	0.092
-423.544	-200.000	-0.025	0.358
-422.530	202.343	0.071	0.111
-421.515	64.053	-0.087	0.089
-420.500	-143.255	0.249	-0.024
-419.486	-122.480	-0.188	-0.031
-418.471	-166.205	0.206	0.009
-417.457	-5.541	0.155	0.107
-416.442	402.321	0.056	-0.119
-415.428	-72.549	0.099	0.037
-414.413	-23.063	-0.210	-0.127
-413.398	-200.000	-0.013	-0.201
-412.384	415.058	0.054	-0.117
-411.369	98.342	0.150	0.174
-410.355	800.000	-0.021	-0.080
-409.340	800.000	0.092	0.275
-408.325	327.667	-0.090	-0.173
-407.311	-200.000	-0.005	-0.225
-406.296	-58.839	0.241	-0.105
-405.282	33.274	0.155	0.135
-404.267	-3.333	0.382	-0.267
-403.252	800.000	0.081	0.229
-402.238	800.000	-0.077	-0.327
-401.223	800.000	-0.026	-0.085
-400.209	85.935	0.134	-0.149
-399.194	533.871	-0.163	0.389
-398.179	-54.778	0.126	0.057
-397.165	-200.000	-0.005	-0.370
-396.150	-101.207	0.219	0.054
-395.136	800.000	0.106	0.323
-394.121	800.000	-0.015	0.042
-393.106	-22.597	0.076	0.046
-392.092	-168.025	0.148	0.006
-391.077	-142.568	-0.140	-0.014
-390.063	-200.000	-0.042	-0.215
-389.048	-94.705	0.144	0.039
-388.033	260.256	-0.109	-0.189
-387.019	800.000	0.066	-0.230
-386.004	225.188	0.039	0.064
-384.990	-147.339	-0.324	-0.028
-383.975	221.780	0.125	-0.201
-382.960	-132.280	-0.353	0.046
-381.946	-107.215	0.331	-0.073
-380.931	34.389	0.194	0.170
-379.917	9.504	-0.304	0.231
-378.902	535.180	0.082	0.195
-377.888	-96.980	0.135	0.036
-376.873	132.563	0.155	0.200
-375.858	128.197	0.146	-0.186
-374.844	-64.812	0.064	-0.026
-373.829	-62.869	0.384	0.160
-372.815	-33.914	-0.166	-0.092
-371.800	-200.000	0.057	0.284
-370.785	98.939	-0.170	-0.197
-369.771	-200.000	0.024	-0.174
-368.756	4.763	-0.133	-0.098
-367.742	800.000	-0.072	0.205
-366.727	800.000	0.017	0.058
-365.712	14.587	-0.099	-0.077
-364.698	63.842	-0.262	-0.264
-363.683	269.553	0.090	0.159
-362.669	-28.128	0.114	0.066
-361.654	71.295	0.286	-0.298
-360.639	-200.000	-0.012	-0.270
-359.625	84.169	-0.231	0.253
-358.610	-57.770	-0.206	0.091
-357.596	167.643	0.066	-0.094
-356.581	165.905	-0.100	0.143
-355.566	800.000	0.068	-0.269
-354.552	-134.081	-0.191	-0.024
-353.537	-200.000	0.001	0.150
-352.523	-200.000	0.030	-0.164
-351.508	-200.000	-0.008	0.099
-350.493	-50.285	-0.201	-0.095
-349.479	109.722	-0.127	-0.153
-348.464	-50.016	0.217	0.103
-347.450	133.438	0.061	-0.079
-346.435	60.188	-0.206	0.204
-345.420	-111.717	0.380	0.077
-344.406	-78.269	0.131	-0.045
-343.391	391.791	0.205	0.428
-342.377	72.057	-0.108	-0.112
-341.362	-43.936	-0.079	0.040
-340.348	-44.723	0.071	-0.036
-339.333	167.603	-0.105	-0.150
-338.318	-154.513	0.339	0.023
-337.304	-74.752	-0.239	-0.086
-336.289	108.576	-0.173	0.207
-335.275	165.351	-0.194	-0.275
-334.260	-157.940	-0.213	-0.013
-333.245	420.013	0.058	0.124
-332.231	-99.801	0.159	0.040
-331.216	800.000	-0.058	-0.176
-330.202	-200.000	0.022	-0.138
-329.187	800.000	-0.157	-0.456
-328.172	-28.602	-0.178	0.103
-327.158	-111.047	0.058	0.012
-326.143	60.704	0.354	0.352
-325.129	-200.000	0.010	-0.103
-324.114	800.000	-0.088	-0.270
-323.099	-155.658	-0.245	-0.016
-322.085	501.197	-0.048	-0.111
-321.070	-95.891	0.289	-0.077
-320.056	-152.584	-0.174	-0.012
-319.041	-200.000	-0.031	-0.208
-318.026	22.381	-0.188	-0.154
-317.012	800.000	0.098	0.273
-315.997	558.760	0.108	0.261
-314.983	-39.455	-0.075	0.040
-313.968	-73.237	-0.384	-0.141
-312.953	64.668	0.129	-0.130
-311.939	122.444	0.076	-0.095
-310.924	-200.000	0.001	-0.077
-309.910	563.215	-0.146	0.354
-308.895	-121.992	-0.169	0.028
-307.880	180.831	-0.283	-0.417
-306.866	19.436	-0.384	0.309
-305.851	800.000	-0.100	-0.294
-304.837	118.651	-0.081	-0.101
-303.822	366.387	0.100	-0.202
-302.807	-200.000	0.016	0.107
-301.793	165.619	-0.122	-0.172
-300.778	-200.000	-0.025	-0.201
-299.764	54.029	-0.237	-0.228
-298.749	-200.000	0.158	0.001
-297.735	-200.000	-0.019	0.156
-296.720	81.991	0.220	-0.239
-295.705	89.621	-0.114	-0.127
-294.691	603.440	-0.078	0.195
-293.676	-82.199	0.280	0.091
-292.662	-73.939	0.107	0.039
-291.647	151.849	-0.090	-0.122
-290.632	683.477	0.054	-0.140
-289.618	-159.166	-0.400	-0.023
-288.603	259.752	-0.169	-0.293
-287.589	-61.449	0.079	0.033
-286.574	378.790	0.117	-0.240
-285.559	80.794	-0.148	0.160
-284.545	-200.000	0.009	0.309
-283.530	386.465	-0.034	-0.069
-282.516	-33.898	-0.223	0.123
-281.501	32.088	-0.064	0.055
-280.486	-22.352	0.215	0.131
-279.472	-200.000	0.004	-0.155
-278.457	177.663	-0.032	0.047
-277.443	-70.357	-0.463	0.176
-276.428	108.702	0.246	0.294
-275.413	319.061	-0.122	-0.231
-274.399	-200.000	0.004	0.090
-273.384	-89.894	0.190	0.056
-272.370	-200.000	0.287	0.001
-271.355	-200.000	-0.001	0.277
-270.340	-200.000	-0.015	-0.233
-269.326	219.733	0.137	0.220
-268.311	2.865	-0.202	0.147
-267.297	-37.604	0.297	-0.158
-266.282	-168.725	-0.329	-0.012
-265.267	112.263	-0.180	-0.218
-264.253	-200.000	0.028	0.133
-263.238	81.323	-0.127	0.137
-262.224	800.000	-0.086	0.277
-261.209	21.314	0.248	0.201
-260.195	239.536	0.177	0.295
-259.180	-26.109	0.105	0.062
-258.165	290.947	-0.193	0.351
-257.151	129.186	-0.013	-0.016
-256.136	26.077	-0.271	0.226
-255.122	-14.542	0.030	-0.020
-254.107	-200.000	0.014	-0.265
-253.092	800.000	0.082	-0.242
-252.078	212.798	-0.147	-0.232
-251.063	-93.593	-0.120	-0.033
-250.049	-49.657	0.333	-0.159
-249.034	-42.939	0.168	-0.085
-248.019	-200.000	-0.030	-0.131
-247.005	-147.393	0.121	0.010
-245.990	215.861	0.070	0.112
-244.976	-200.000	0.013	-0.214
-243.961	-200.000	0.030	-0.156
-242.946	402.310	0.276	-0.580
-241.932	253.576	0.050	0.085
-240.917	-147.401	-0.151	-0.013
-239.903	-95.533	-0.431	0.115
-238.888	266.507	0.121	0.212
-237.873	111.161	0.265	0.319
-236.859	157.179	-0.112	-0.155
-235.844	-71.196	-0.225	-0.084
-234.830	71.182	0.238	-0.247
-233.815	-200.000	0.008	0.082
-232.800	-200.000	-0.041	0.247
-231.786	-159.022	0.236	-0.013
-230.771	-26.438	-0.147	-0.086
-229.757	107.033	0.120	0.142
-228.742	24.500	0.077	-0.064
-227.727	308.916	-0.163	-0.305
-226.713	-121.112	-0.063	0.011
-225.698	25.083	0.030	0.025
-224.684	-104.557	0.259	-0.060
-223.669	15.076	-0.156	-0.122
-222.655	38.845	0.192	-0.172
-221.640	85.973	-0.099	-0.109
-220.625	-48.480	-0.192	-0.092
-219.611	800.000	0.032	0.093
-218.596	75.492	0.137	-0.144
-217.582	3.165	-0.244	0.177
-216.567	800.000	-0.078	0.327
-215.552	-34.845	0.129	-0.070
-214.538	-142.444	0.298	-0.029
-213.523	-66.375	-0.024	0.010
-212.509	-57.814	0.081	0.035
-211.494	-114.595	0.155	0.030
-210.479	-109.589	0.256	-0.054
-209.465	-46.772	-0.361	0.177
-208.450	-83.592	-0.202	-0.064
-207.436	363.256	-0.042	-0.084
-206.421	101.825	-0.147	-0.171
-205.406	80.254	-0.022	0.023
-204.392	-200.000	-0.058	0.310
-203.377	-59.363	0.166	-0.071
-202.363	32.126	0.190	-0.163
-201.348	-165.546	-0.513	0.022
-200.333	244.482	0.247	-0.414
-199.319	677.361	-0.085	0.222
-198.304	-68.637	-0.093	-0.036
-197.290	-132.071	-0.073	-0.010
-196.275	389.634	0.165	-0.340
-195.260	-200.000	-0.004	-0.229
-194.246	800.000	0.026	-0.106
-193.231	-22.747	0.222	-0.134
-192.217	-15.498	0.161	0.103
-191.202	174.489	0.153	0.221
-190.187	-137.127	-0.019	-0.002
-189.173	141.897	0.186	-0.246
-188.158	-200.000	0.025	0.120
-187.144	53.075	-0.089	0.085
-186.129	-12.913	0.236	0.153
-185.114	428.599	0.119	-0.256
-184.100	-187.602	-0.192	0.003
-183.085	262.904	-0.112	-0.194
-182.071	126.407	0.063	0.079
-181.056	-200.000	-0.306	-0.000
-180.042	49.169	0.160	0.150
-179.027	559.075	0.017	0.041
-178.012	-200.000	-0.062	0.319
-176.998	800.000	0.170	0.496
-175.983	-32.286	0.443	-0.247
-174.969	800.000	0.096	0.358
-173.954	-97.516	0.209	0.054
-172.939	-68.072	-0.232	0.090
-171.925	5.103	0.039	0.029
-170.910	-16.650	-0.150	0.095
-169.896	140.879	0.143	0.189
-168.881	189.064	0.097	0.145
-167.866	-20.647	0.182	-0.111
-166.852	-200.000	0.032	0.257
-165.837	-200.000	0.030	0.363
-164.823	-23.306	-0.248	-0.148
-163.808	-200.000	0.029	-0.319
-162.793	-200.000	-0.013	-0.209
-161.779	-90.425	0.138	-0.040
-160.764	60.112	0.084	0.083
-159.750	-200.000	0.006	0.203
-158.735	22.909	-0.234	0.191
-157.720	800.000	0.129	0.504
-156.706	-200.000	0.024	-0.264
-155.691	-56.902	0.300	0.132
-154.677	155.075	0.165	-0.226
-153.662	271.500	0.128	0.225
-152.647	-84.147	-0.405	0.128
-151.633	-86.723	0.215	0.066
-150.618	443.411	-0.087	-0.190
-149.604	-200.000	0.034	-0.183
-148.589	-30.059	-0.118	-0.067
-147.574	-51.670	0.294	0.137
-146.560	-6.840	-0.090	0.061
-145.545	-200.000	-0.014	0.206
-144.531	-108.375	-0.212	-0.045
-143.516	-200.000	0.010	-0.090
-142.502	-200.000	0.016	-0.230
-141.487	461.625	-0.140	-0.310
-140.472	85.926	0.157	-0.171
-139.458	-73.096	0.264	0.096
-138.443	-125.163	0.341	-0.052
-137.429	-18.114	0.144	0.090
-136.414	602.326	-0.089	0.221
-135.399	61.122	-0.072	0.072
-134.385	327.491	0.056	-0.107
-133.370	136.466	-0.118	0.153
-132.356	800.000	0.020	0.069
-131.341	-200.000	0.183	-0.001
-130.326	217.242	-0.104	0.165
-129.312	-200.000	-0.073	-0.442
-128.297	-200.000	-0.023	0.269
-127.283	512.349	-0.163	0.377
-126.268	-103.949	0.176	-0.041
-125.253	580.055	0.082	0.200
-124.239	800.000	-0.010	-0.037
-123.224	-70.497	0.534	0.201
-122.210	-200.000	-0.014	-0.300
-121.195	-200.000	0.023	0.209
