DTS Sentinel unit serial number:	SN413079Multiplexer serial number:	ORYXHardware model number:	OX4-SRSoftware version number:	ORYX F/W v4.00 Oryx Data Collector v3.7.2.0data status	okinstallation	princeton_trtdifferential loss correction	single-endedforward channel	channel 4reverse channel	N/Adate	2019/09/19time	07:13:34forward acquisition time	60.00reverse acquisition time	0.00gamma	496.2192k internal	0.2339k external	0.2339temperature offset calibration	1.0023default loss term (dB/km)	0.3790temperature slope calibration	1.0000multiplexer offset coefficient	1.0000multiplexer slope coefficient	1.0000fibre end	0.00T internal ref (°C)	19.06T ext. ref 1 (°C)	0.55T ext. ref 2 (°C)	13.44length (m)	temperature (°C)	Stokes	anti-Stokes-747.200	-99.749	0.126	0.032
-746.185	-200.000	0.017	-0.302
-745.171	-109.799	0.157	-0.033
-744.156	-200.000	-0.045	0.297
-743.142	-200.000	0.055	-0.259
-742.127	13.852	-0.236	0.184
-741.112	4.247	0.154	-0.113
-740.098	204.519	-0.109	0.169
-739.083	-71.584	-0.199	0.075
-738.069	168.226	-0.177	0.252
-737.054	-70.508	-0.448	-0.170
-736.039	-200.000	-0.094	-0.457
-735.025	-123.385	0.202	-0.032
-734.010	-22.271	-0.157	-0.096
-732.996	187.580	-0.161	-0.241
-731.981	800.000	0.047	0.179
-730.966	-49.015	-0.184	-0.088
-729.952	168.940	-0.152	-0.217
-728.937	182.533	0.189	0.280
-727.923	800.000	-0.085	0.282
-726.908	333.053	-0.236	0.456
-725.894	-79.900	-0.284	0.096
-724.879	-30.651	-0.063	-0.036
-723.864	24.412	-0.167	0.138
-722.850	-150.186	0.268	0.021
-721.835	213.045	0.104	-0.165
-720.821	-200.000	0.002	-0.260
-719.806	-25.037	0.074	0.044
-718.791	256.085	-0.133	0.228
-717.777	22.865	-0.258	0.212
-716.762	-0.992	-0.086	-0.061
-715.748	-82.825	-0.097	0.031
-714.733	88.547	-0.111	-0.124
-713.718	12.993	-0.129	0.100
-712.704	-61.645	-0.179	-0.075
-711.689	-200.000	0.017	-0.216
-710.675	-200.000	-0.004	-0.154
-709.660	65.714	-0.282	0.286
-708.645	-72.532	0.020	0.008
-707.631	-200.000	0.050	0.346
-706.616	180.056	0.140	-0.205
-705.602	-127.864	0.270	0.039
-704.587	196.150	0.077	0.117
-703.572	800.000	-0.048	0.143
-702.558	-143.517	0.137	-0.013
-701.543	-152.117	0.343	0.025
-700.529	800.000	-0.042	-0.168
-699.514	-62.033	-0.175	-0.073
-698.499	-3.436	0.221	-0.154
-697.485	41.991	-0.010	-0.009
-696.470	447.082	0.146	-0.323
-695.456	-1.645	-0.211	-0.149
-694.441	-143.695	-0.209	0.020
-693.426	-35.001	-0.290	-0.158
-692.412	-30.290	-0.129	0.074
-691.397	18.022	-0.249	-0.198
-690.383	-24.198	0.125	-0.075
-689.368	-157.209	-0.098	0.006
-688.354	21.879	0.252	-0.205
-687.339	506.622	-0.141	0.328
-686.324	103.641	-0.195	-0.229
-685.310	73.037	0.151	0.158
-684.295	-23.299	-0.185	-0.111
-683.281	-28.555	0.278	0.160
-682.266	-177.276	0.077	-0.002
-681.251	94.591	-0.205	-0.233
-680.237	-200.000	-0.021	0.295
-679.222	-15.169	0.028	-0.018
-678.208	425.321	-0.174	-0.374
-677.193	-63.629	-0.439	-0.180
-676.178	-73.416	-0.439	0.160
-675.164	-155.582	-0.156	-0.010
-674.149	313.487	-0.109	-0.205
-673.135	-142.174	-0.070	-0.007
-672.120	213.948	0.060	-0.095
-671.105	-125.238	-0.178	-0.027
-670.091	17.406	-0.096	-0.076
-669.076	-16.496	0.358	-0.227
-668.062	-25.639	-0.033	0.020
-667.047	-4.773	-0.264	-0.182
-666.032	800.000	0.077	0.236
-665.018	-81.907	-0.083	-0.027
-664.003	-18.896	-0.102	0.063
-662.989	14.066	0.176	0.137
-661.974	73.860	0.178	-0.186
-660.959	379.482	0.039	0.081
-659.945	-24.302	-0.095	-0.056
-658.930	191.845	0.057	0.087
-657.916	-200.000	0.024	-0.169
-656.901	418.373	0.137	0.294
-655.886	166.784	0.147	0.209
-654.872	556.227	-0.168	-0.404
-653.857	-131.444	0.239	-0.032
-652.843	800.000	-0.022	-0.063
-651.828	-26.692	-0.037	-0.021
-650.814	347.650	0.143	-0.282
-649.799	371.592	0.159	-0.322
-648.784	37.648	-0.143	-0.127
-647.770	-97.195	0.178	0.046
-646.755	15.860	-0.173	-0.136
-645.741	28.525	-0.109	-0.092
-644.726	253.117	-0.100	0.170
-643.711	372.152	0.081	-0.165
-642.697	177.472	-0.043	-0.062
-641.682	-10.768	-0.137	0.090
-640.668	192.150	-0.128	-0.192
-639.653	-179.175	-0.246	-0.005
-638.638	-97.545	-0.429	0.111
-637.624	-62.187	-0.112	-0.047
-636.609	-69.823	-0.137	0.052
-635.595	66.589	-0.232	0.235
-634.580	-178.496	0.140	-0.003
-633.565	295.291	0.030	-0.054
-632.551	800.000	0.142	-0.466
-631.536	-122.786	-0.164	0.026
-630.522	21.164	-0.087	-0.071
-629.507	-13.237	-0.093	0.060
-628.492	296.534	0.141	0.259
-627.478	-21.838	-0.377	0.229
-626.463	-200.000	-0.024	-0.175
-625.449	400.761	-0.171	-0.359
-624.434	-200.000	0.055	0.390
-623.419	-170.059	0.276	0.010
-622.405	-161.380	-0.468	-0.024
-621.390	-132.830	0.171	0.022
-620.376	-53.723	0.449	-0.205
-619.361	-200.000	0.006	0.225
-618.346	800.000	-0.023	0.064
-617.332	-96.954	0.184	-0.048
-616.317	-76.706	0.144	0.050
-615.303	-93.228	-0.188	0.052
-614.288	485.748	0.122	-0.278
-613.273	-32.230	-0.189	0.105
-612.259	-97.399	0.067	0.018
-611.244	-71.036	0.271	-0.102
-610.230	800.000	-0.001	0.004
-609.215	108.846	-0.046	0.054
-608.201	608.477	-0.039	-0.097
-607.186	228.631	-0.036	0.059
-606.171	184.673	0.103	0.152
-605.157	-101.328	-0.377	0.092
-604.142	300.282	0.213	0.391
-603.128	23.523	-0.239	0.196
-602.113	244.517	0.034	-0.058
-601.098	-37.580	0.290	-0.154
-600.084	-50.261	0.231	0.109
-599.069	26.639	0.141	-0.118
-598.055	296.398	-0.120	-0.218
-597.040	-196.395	-0.042	-0.000
-596.025	-88.054	-0.252	-0.075
-595.011	-38.842	-0.250	-0.131
-593.996	198.715	-0.272	-0.416
-592.982	152.001	0.171	0.233
-591.967	704.615	-0.019	-0.050
-590.952	69.537	-0.091	0.093
-589.938	10.224	-0.205	-0.155
-588.923	191.764	0.139	0.208
-587.909	624.610	-0.063	0.157
-586.894	101.131	0.056	0.064
-585.879	309.966	0.060	-0.111
-584.865	800.000	-0.044	-0.122
-583.850	-96.789	-0.126	-0.033
-582.836	-24.176	0.256	-0.152
-581.821	-200.000	-0.052	-0.282
-580.806	677.820	0.079	-0.205
-579.792	-174.561	0.146	0.004
-578.777	-61.486	-0.126	0.053
-577.763	66.106	0.232	0.234
-576.748	170.359	0.096	-0.136
-575.733	800.000	0.017	-0.063
-574.719	407.337	-0.031	-0.066
-573.704	-85.401	0.397	-0.123
-572.690	27.159	-0.163	-0.136
-571.675	-37.274	0.101	-0.054
-570.661	-200.000	-0.030	-0.195
-569.646	-200.000	0.026	-0.307
-568.631	-200.000	0.062	0.297
-567.617	-60.254	-0.328	0.139
-566.602	-200.000	0.029	-0.182
-565.588	124.505	-0.097	-0.122
-564.573	315.420	-0.123	0.232
-563.558	290.561	-0.068	-0.123
-562.544	-200.000	0.016	-0.100
-561.529	8.567	0.263	-0.197
-560.515	-173.095	-0.456	0.014
-559.500	-33.495	0.217	-0.120
-558.485	-68.034	-0.056	-0.022
-557.471	-46.150	-0.146	-0.072
-556.456	113.089	0.253	-0.306
-555.442	-70.029	0.263	-0.100
-554.427	72.761	0.250	-0.260
-553.412	88.602	-0.122	-0.135
-552.398	800.000	-0.019	-0.057
-551.383	410.304	-0.053	-0.112
-550.369	127.189	-0.159	0.201
-549.354	-157.797	-0.306	-0.018
-548.339	173.310	-0.016	0.024
-547.325	-36.659	-0.390	-0.209
-546.310	-200.000	-0.042	0.696
-545.296	501.815	0.086	-0.198
-544.281	-200.000	0.046	0.203
-543.266	117.857	-0.014	0.017
-542.252	-76.273	-0.296	0.104
-541.237	-200.000	-0.028	-0.155
-540.223	-171.845	-0.146	0.005
-539.208	37.142	-0.089	-0.078
-538.193	-157.218	-0.231	0.014
-537.179	-137.458	-0.369	-0.041
-536.164	800.000	0.022	-0.088
-535.150	-162.664	-0.255	-0.012
-534.135	180.346	0.190	0.278
-533.121	800.000	-0.059	-0.251
-532.106	157.620	-0.164	-0.226
-531.091	122.851	-0.156	-0.194
-530.077	-3.019	-0.126	-0.087
-529.062	222.639	-0.102	0.164
-528.048	160.642	-0.248	0.345
-527.033	-59.575	-0.434	0.185
-526.018	712.073	-0.109	0.286
-525.004	-19.930	0.043	0.027
-523.989	-102.554	-0.090	-0.021
-522.975	-58.659	0.533	-0.230
-521.960	70.461	0.266	-0.273
-520.945	-177.484	-0.311	0.008
-519.931	730.025	0.029	-0.077
-518.916	-154.659	0.264	-0.017
-517.902	357.074	-0.072	-0.142
-516.887	800.000	-0.033	-0.111
-515.872	-200.000	-0.039	-0.305
-514.858	18.311	-0.205	0.162
-513.843	-38.067	0.258	-0.136
-512.829	-71.390	0.077	0.029
-511.814	-200.000	0.002	-0.284
-510.799	31.762	0.089	0.076
-509.785	75.546	0.148	0.155
-508.770	-200.000	-0.015	-0.074
-507.756	-5.136	-0.091	-0.062
-506.741	-144.872	-0.525	-0.048
-505.726	-75.790	0.233	0.082
-504.712	800.000	-0.130	-0.364
-503.697	-94.544	-0.330	-0.089
-502.683	-200.000	-0.005	0.167
-501.668	-73.861	0.311	0.112
-500.653	-200.000	-0.053	-0.256
-499.639	-200.000	-0.065	0.310
-498.624	-151.454	0.114	-0.008
-497.610	-104.684	0.113	-0.026
-496.595	45.186	-0.088	0.081
-495.581	-200.000	0.018	-0.079
-494.566	-92.273	-0.141	-0.040
-493.551	67.236	-0.187	-0.190
-492.537	-200.000	0.049	0.239
-491.522	-200.000	0.017	-0.141
-490.508	9.140	0.047	0.035
-489.493	166.809	-0.059	-0.083
-488.478	129.758	-0.358	-0.454
-487.464	-125.324	0.280	-0.042
-486.449	-42.837	-0.184	0.093
-485.435	-200.000	-0.065	-0.304
-484.420	129.518	-0.120	-0.152
-483.405	750.129	-0.068	-0.183
-482.391	740.596	-0.162	0.432
-481.376	-200.000	0.056	0.346
-480.362	800.000	-0.057	0.232
-479.347	305.576	-0.107	0.197
-478.332	-26.959	-0.301	0.175
-477.318	38.069	0.205	-0.181
-476.303	237.669	0.179	-0.294
-475.289	-29.769	0.093	0.053
-474.274	-161.344	0.101	-0.005
-473.259	191.463	-0.138	-0.206
-472.245	10.811	0.209	-0.158
-471.230	-61.749	0.151	0.063
-470.216	-79.978	0.429	-0.143
-469.201	28.503	0.200	0.168
-468.186	203.412	-0.198	-0.304
-467.172	81.324	-0.215	0.230
-466.157	-92.830	-0.369	0.102
-465.143	111.695	0.064	-0.076
-464.128	97.794	0.058	0.067
-463.113	65.775	0.056	0.057
-462.099	-107.167	-0.164	0.036
-461.084	-12.380	-0.223	-0.145
-460.070	30.431	-0.075	0.064
-459.055	49.646	-0.015	0.014
-458.040	-137.523	0.304	-0.034
-457.026	-49.668	-0.327	0.154
-456.011	-30.945	-0.086	0.048
-454.997	-88.524	-0.530	0.157
-453.982	278.197	0.094	0.166
-452.968	-200.000	0.027	-0.215
-451.953	800.000	-0.049	0.135
-450.938	-167.489	-0.463	-0.018
-449.924	-88.005	-0.130	-0.039
-448.909	-124.756	-0.206	0.032
-447.895	42.777	0.133	-0.120
-446.880	-200.000	0.070	0.428
-445.865	-173.701	0.075	-0.002
-444.851	272.967	0.059	-0.103
-443.836	-200.000	0.020	-0.253
-442.822	45.595	-0.315	0.288
-441.807	770.330	0.051	0.138
-440.792	432.864	-0.168	-0.361
-439.778	-18.976	-0.130	0.080
-438.763	622.461	-0.045	0.113
-437.749	-200.000	0.000	0.322
-436.734	479.586	0.251	0.564
-435.719	-200.000	-0.069	-0.345
-434.705	800.000	-0.141	0.404
-433.690	-65.965	-0.420	0.166
-432.676	59.449	-0.275	0.268
-431.661	32.151	0.100	-0.085
-430.646	-70.106	0.120	-0.045
-429.632	388.598	-0.172	-0.352
-428.617	-200.000	-0.012	-0.127
-427.603	-200.000	0.020	0.117
-426.588	-74.539	0.341	-0.122
-425.573	303.641	0.057	-0.105
-424.559	800.000	-0.068	-0.205
-423.544	230.513	0.141	0.229
-422.530	-52.768	0.009	-0.004
-421.515	-142.122	-0.119	0.012
-420.500	-27.737	0.115	0.066
-419.486	-110.216	0.046	-0.009
-418.471	71.279	0.174	-0.178
-417.457	166.736	0.206	0.290
-416.442	164.718	-0.259	-0.362
-415.428	-62.580	0.199	0.082
-414.413	351.918	0.074	-0.144
-413.398	-102.128	0.271	0.064
-412.384	200.883	0.119	-0.182
-411.369	-129.555	0.214	-0.029
-410.355	39.060	-0.139	0.123
-409.340	-83.670	0.262	0.083
-408.325	-146.306	-0.306	-0.027
-407.311	-200.000	-0.001	0.286
-406.296	90.344	-0.270	-0.299
-405.282	-79.386	0.112	0.038
-404.267	66.616	0.160	0.161
-403.252	386.114	0.026	-0.053
-402.238	36.830	0.253	0.221
-401.223	185.784	0.023	-0.034
-400.209	-78.592	0.184	-0.062
-399.194	46.065	-0.073	0.067
-398.179	81.534	-0.134	-0.143
-397.165	-10.311	0.178	-0.117
-396.150	-200.000	-0.006	-0.074
-395.136	688.769	-0.084	0.216
-394.121	459.450	0.130	0.286
-393.106	45.848	-0.093	0.085
-392.092	-200.000	0.039	-0.177
-391.077	-53.783	0.144	0.065
-390.063	-200.000	0.017	-0.304
-389.048	-122.652	-0.150	-0.024
-388.033	-73.969	0.049	0.018
-387.019	-61.920	0.253	0.105
-386.004	-200.000	-0.001	0.246
-384.990	-30.022	0.111	0.063
-383.975	78.003	0.171	-0.180
-382.960	-29.078	-0.199	0.113
-381.946	7.024	0.295	0.218
-380.931	299.461	0.039	0.071
-379.917	-2.211	-0.106	0.074
-378.902	24.452	0.111	-0.091
-377.888	7.914	0.091	-0.067
-376.873	277.974	-0.125	-0.221
-375.858	-200.000	-0.014	0.343
-374.844	612.070	-0.047	-0.117
-373.829	-96.066	0.152	-0.040
-372.815	88.296	-0.186	0.204
-371.800	115.380	0.127	-0.153
-370.785	800.000	0.121	0.342
-369.771	385.234	0.129	0.262
-368.756	-200.000	0.042	0.462
-367.742	-200.000	-0.004	0.137
-366.727	-75.923	0.048	-0.017
-365.712	-101.088	-0.189	0.046
-364.698	-200.000	0.016	-0.154
-363.683	800.000	-0.022	-0.074
-362.669	614.652	0.161	-0.399
-361.654	800.000	0.030	0.089
-360.639	-133.398	-0.286	0.036
-359.625	-113.318	0.409	0.079
-358.610	680.409	-0.102	0.264
-357.596	-140.727	0.359	-0.037
-356.581	-137.184	-0.040	0.004
-355.566	-76.143	-0.302	0.105
-354.552	-172.515	0.233	0.007
-353.537	-59.010	-0.138	0.059
-352.523	-200.000	-0.003	-0.051
-351.508	800.000	0.068	0.232
-350.493	-89.947	0.189	-0.054
-349.479	244.699	-0.129	-0.214
-348.464	800.000	-0.054	0.178
-347.450	-64.555	0.115	-0.046
-346.435	481.735	-0.049	-0.110
-345.420	-99.116	0.316	0.079
-344.406	-200.000	-0.027	-0.271
-343.391	398.122	-0.105	0.217
-342.377	237.911	0.055	-0.090
-341.362	421.940	-0.082	0.174
-340.348	410.053	0.057	-0.120
-339.333	276.321	-0.092	0.161
-338.318	548.936	0.097	0.230
-337.304	-143.408	-0.322	0.030
-336.289	227.284	-0.084	0.135
-335.275	274.929	0.117	-0.205
-334.260	281.679	0.094	-0.167
-333.245	358.116	-0.172	0.338
-332.231	-122.649	0.430	0.069
-331.216	39.187	0.348	-0.307
-330.202	-76.816	-0.329	-0.114
-329.187	98.283	0.336	-0.382
-328.172	151.338	-0.133	0.178
-327.158	-29.226	0.194	-0.110
-326.143	-146.191	-0.381	0.033
-325.129	21.645	-0.040	0.032
-324.114	-19.705	0.335	0.204
-323.099	-111.092	-0.141	-0.028
-322.085	-75.439	0.345	0.121
-321.070	-200.000	0.004	0.052
-320.056	-200.000	0.086	0.377
-319.041	-118.639	-0.283	-0.049
-318.026	-90.376	0.329	0.094
-317.012	-161.053	-0.161	0.008
-315.997	-113.362	0.153	-0.030
-314.983	287.539	-0.156	-0.278
-313.968	-117.629	0.273	-0.049
-312.953	307.438	-0.064	0.117
-311.939	-150.498	-0.139	-0.011
-310.924	256.726	-0.211	-0.357
-309.910	-84.237	0.262	-0.082
-308.895	-143.425	0.170	-0.016
-307.880	792.539	-0.191	-0.518
-306.866	15.632	0.461	-0.358
-305.851	-95.698	-0.347	-0.091
-304.837	203.285	0.047	-0.072
-303.822	-99.849	-0.042	0.010
-302.807	139.321	0.041	0.053
-301.793	586.219	-0.092	0.223
-300.778	123.688	0.317	-0.393
-299.764	-128.924	0.356	0.049
-298.749	-199.759	0.181	0.001
-297.735	-71.640	0.236	0.087
-296.720	800.000	0.018	0.066
-295.705	-200.000	0.064	0.330
-294.691	-112.051	-0.371	-0.074
-293.676	33.820	0.118	-0.101
-292.662	800.000	0.045	0.135
-291.647	-132.560	-0.239	-0.030
-290.632	-200.000	-0.056	-0.289
-289.618	336.688	-0.043	0.083
-288.603	-86.179	0.062	0.019
-287.589	-200.000	-0.078	-0.344
-286.574	29.247	-0.178	-0.149
-285.559	-160.399	-0.213	0.011
-284.545	416.900	0.202	0.425
-283.530	-59.007	-0.047	0.020
-282.516	426.974	-0.095	0.201
-281.501	50.224	0.137	0.128
-280.486	-30.753	0.320	-0.178
-279.472	48.250	0.131	0.121
-278.457	446.637	0.158	0.341
-277.443	-181.418	-0.146	0.003
-276.428	-136.010	0.570	-0.066
-275.413	-28.312	-0.373	0.212
-274.399	162.084	0.061	-0.084
-273.384	36.639	-0.178	0.155
-272.370	-110.632	0.356	0.072
-271.355	800.000	0.121	0.443
-270.340	201.747	0.034	0.051
-269.326	-86.508	-0.102	-0.031
-268.311	93.088	-0.050	-0.056
-267.297	52.176	-0.279	-0.262
-266.282	-7.118	0.258	0.173
-265.267	434.173	0.096	-0.205
-264.253	183.522	0.056	0.082
-263.238	95.884	-0.243	-0.273
-262.224	-5.261	0.178	0.120
-261.209	145.351	0.078	-0.102
-260.195	20.756	-0.150	-0.120
-259.180	323.839	-0.100	0.188
-258.165	-93.641	0.225	-0.061
-257.151	207.665	0.239	0.368
-256.136	-200.000	-0.008	-0.385
-255.122	-200.000	-0.026	-0.145
-254.107	-57.833	-0.379	-0.163
-253.092	-91.706	0.174	0.049
-252.078	178.793	0.112	-0.162
-251.063	-98.524	-0.106	0.027
-250.049	-200.000	-0.002	0.036
-249.034	194.670	-0.313	0.467
-248.019	-200.000	-0.016	0.481
-247.005	305.067	0.104	-0.190
-245.990	-10.577	0.167	-0.108
-244.976	800.000	0.036	-0.115
-243.961	-200.000	-0.004	0.240
-242.946	505.352	-0.056	0.127
-241.932	253.108	0.102	0.172
-240.917	800.000	-0.015	-0.057
-239.903	532.969	0.064	-0.149
-238.888	-200.000	-0.102	-0.000
-237.873	28.427	0.212	0.176
-236.859	800.000	-0.082	0.228
-235.844	-54.097	-0.165	-0.074
-234.830	800.000	-0.082	-0.317
-233.815	-64.527	0.030	0.012
-232.800	413.687	0.147	0.308
-231.786	-110.856	0.150	0.030
-230.771	35.202	0.124	0.107
-229.757	75.598	-0.013	0.013
-228.742	-90.924	-0.319	-0.090
-227.727	-200.000	-0.015	-0.261
-226.713	800.000	-0.068	0.200
-225.698	41.160	0.175	-0.155
-224.684	-69.991	0.071	0.026
-223.669	-73.782	0.353	-0.126
-222.655	259.602	-0.029	-0.049
-221.640	-62.925	-0.205	0.083
-220.625	-43.349	0.243	0.121
-219.611	-200.000	-0.037	0.368
-218.596	-117.276	0.242	0.043
-217.582	-68.080	0.101	-0.039
-216.567	-200.000	-0.043	-0.346
-215.552	-124.858	0.032	-0.005
-214.538	-121.252	0.262	0.043
-213.523	223.503	-0.161	-0.254
-212.509	-126.833	-0.140	0.020
-211.494	-80.463	-0.377	0.124
-210.479	5.839	0.197	0.143
-209.465	7.724	0.263	0.194
-208.450	-97.173	0.261	-0.067
-207.436	-8.605	-0.418	-0.275
-206.421	-139.604	0.255	0.027
-205.406	12.026	0.227	-0.171
-204.392	264.131	0.147	0.250
-203.377	800.000	0.097	-0.285
-202.363	800.000	0.048	-0.141
-201.348	221.566	-0.153	0.242
-200.333	-32.087	-0.124	0.068
-199.319	226.341	-0.161	0.257
-198.304	-200.000	0.051	0.298
-197.290	21.815	-0.212	-0.169
-196.275	434.141	-0.058	-0.123
-195.260	800.000	-0.149	-0.438
-194.246	249.965	-0.048	0.080
-193.231	-200.000	-0.031	0.399
-192.217	-16.195	-0.200	-0.125
-191.202	761.592	0.106	-0.282
-190.187	148.394	0.039	0.052
-189.173	297.048	0.082	0.148
-188.158	-28.951	-0.071	0.040
-187.144	164.149	-0.184	-0.255
-186.129	800.000	-0.027	-0.084
-185.114	129.274	-0.060	-0.075
-184.100	437.186	-0.134	0.287
-183.085	492.214	0.025	-0.056
-182.071	253.748	0.093	0.155
-181.056	800.000	0.109	0.354
-180.042	549.310	0.076	0.179
-179.027	352.657	0.039	-0.075
-178.012	800.000	-0.117	-0.402
-176.998	-200.000	0.074	0.351
-175.983	83.402	-0.077	-0.082
-174.969	-200.000	0.004	-0.052
-173.954	-200.000	0.019	0.212
-172.939	-148.524	-0.078	-0.006
-171.925	-200.000	-0.032	-0.214
-170.910	-200.000	-0.033	-0.286
-169.896	504.755	0.026	-0.059
-168.881	-169.267	-0.118	-0.004
-167.866	-200.000	0.010	0.154
-166.852	800.000	0.071	0.192
-165.837	-24.328	0.319	0.186
-164.823	-17.907	0.163	-0.100
-163.808	-129.879	0.321	0.043
-162.793	-200.000	-0.019	0.158
-161.779	-193.646	0.108	0.001
-160.764	79.429	-0.232	0.244
-159.750	800.000	0.059	0.224
-158.735	-156.171	0.489	-0.030
-157.720	-50.013	0.121	-0.056
-156.706	-122.205	-0.175	-0.028
-155.691	-49.500	0.347	-0.162
-154.677	-200.000	-0.002	0.043
-153.662	-103.109	0.187	-0.043
-152.647	-145.641	-0.259	-0.023
-151.633	48.141	0.127	-0.116
-150.618	613.199	-0.135	0.330
-149.604	-153.402	-0.166	0.011
-148.589	450.472	0.069	-0.149
-147.574	-45.937	-0.260	-0.126
-146.560	-45.244	0.128	-0.062
-145.545	-200.000	-0.010	0.214
-144.531	-5.110	-0.398	-0.268
-143.516	220.628	0.157	-0.247
-142.502	6.417	0.209	-0.152
-141.487	-41.103	-0.111	-0.056
-140.472	-105.228	0.060	0.013
-139.458	-200.000	-0.029	-0.179
-138.443	-23.659	0.106	0.062
-137.429	-40.182	-0.261	0.133
-136.414	-200.000	0.008	-0.127
-135.399	150.920	-0.075	0.100
-134.385	-200.000	-0.003	-0.048
-133.370	-45.143	-0.353	0.172
-132.356	-109.874	-0.317	-0.065
-131.341	-83.185	0.082	-0.026
-130.326	-160.450	0.240	-0.013
-129.312	-60.396	-0.099	0.041
-128.297	36.469	-0.247	-0.213
-127.283	-68.232	0.008	0.003
-126.268	-131.036	0.143	-0.019
-125.253	-42.414	0.570	0.285
-124.239	-164.810	0.155	-0.007
-123.224	134.004	0.221	-0.280
-122.210	-200.000	0.005	0.034
