DTS Sentinel unit serial number:	SN413079Multiplexer serial number:	ORYXHardware model number:	OX4-SRSoftware version number:	ORYX F/W v4.00 Oryx Data Collector v3.7.2.0data status	okinstallation	princeton_trtdifferential loss correction	single-endedforward channel	channel 4reverse channel	N/Adate	2019/09/16time	11:49:35forward acquisition time	60.00reverse acquisition time	0.00gamma	496.2192k internal	0.2294k external	0.2294temperature offset calibration	0.9950default loss term (dB/km)	0.3790temperature slope calibration	1.0000multiplexer offset coefficient	1.0000multiplexer slope coefficient	1.0000fibre end	0.00T internal ref (°C)	38.31T ext. ref 1 (°C)	13.08T ext. ref 2 (°C)	35.70length (m)	temperature (°C)	Stokes	anti-Stokes-747.200	-91.985	-0.185	0.054
-746.185	261.697	-0.051	-0.091
-745.171	488.670	-0.094	0.220
-744.156	-97.675	-0.399	0.106
-743.142	-28.047	0.146	-0.086
-742.127	-121.759	0.275	0.046
-741.112	97.902	0.036	0.042
-740.098	-18.178	0.227	-0.146
-739.083	107.631	0.153	0.187
-738.069	800.000	0.092	0.273
-737.054	32.077	-0.072	0.064
-736.039	-29.114	-0.116	0.068
-735.025	-13.899	0.359	-0.237
-734.010	-200.000	-0.303	0.001
-732.996	117.159	-0.154	-0.193
-731.981	86.929	0.138	0.156
-730.966	75.133	0.225	-0.242
-729.952	-144.967	-0.084	0.008
-728.937	-200.000	-0.032	-0.202
-727.923	47.658	0.161	-0.153
-726.908	-46.626	0.072	0.036
-725.894	114.760	0.059	0.074
-724.879	-9.286	-0.357	-0.244
-723.864	69.490	0.101	0.106
-722.850	-200.000	-0.029	0.163
-721.835	-200.000	0.042	-0.206
-720.821	-84.969	0.242	-0.077
-719.806	-200.000	-0.007	-0.157
-718.791	-14.913	-0.328	0.215
-717.777	359.911	0.071	-0.145
-716.762	64.147	-0.106	-0.109
-715.748	138.714	-0.134	-0.179
-714.733	161.897	0.043	-0.062
-713.718	800.000	0.090	0.269
-712.704	676.414	0.092	0.245
-711.689	-200.000	0.067	-0.344
-710.675	89.343	-0.180	0.205
-709.660	-67.358	0.167	-0.067
-708.645	-25.639	-0.037	0.022
-707.631	54.072	-0.125	-0.123
-706.616	800.000	-0.049	0.221
-705.602	-86.036	-0.270	-0.085
-704.587	-124.947	-0.168	0.026
-703.572	-99.109	-0.250	0.065
-702.558	-106.931	0.231	-0.052
-701.543	-200.000	0.008	-0.080
-700.529	-179.341	-0.306	0.007
-699.514	448.066	0.117	0.262
-698.499	-37.085	0.075	0.041
-697.485	54.297	0.370	-0.364
-696.470	162.117	-0.086	0.122
-695.456	-42.354	0.238	0.124
-694.441	-39.178	-0.140	-0.075
-693.426	153.222	0.086	-0.120
-692.412	-200.000	0.000	-0.007
-691.397	-123.116	0.022	0.004
-690.383	-200.000	0.039	-0.256
-689.368	-10.872	0.109	0.073
-688.354	800.000	-0.105	-0.313
-687.339	-200.000	-0.011	-0.158
-686.324	-200.000	-0.024	-0.160
-685.310	-82.885	0.064	-0.021
-684.295	493.584	0.073	0.170
-683.281	42.388	-0.129	-0.120
-682.266	54.997	0.270	-0.266
-681.251	105.381	-0.189	-0.228
-680.237	-27.920	0.136	-0.080
-679.222	-42.297	0.430	-0.224
-678.208	-200.000	-0.003	0.106
-677.193	65.960	0.299	0.309
-676.178	-63.705	0.025	-0.010
-675.164	-141.231	-0.050	0.005
-674.149	67.852	0.146	-0.152
-673.135	188.885	0.162	0.248
-672.120	-67.351	0.196	-0.078
-671.105	-1.222	-0.164	0.118
-670.091	-156.209	-0.219	0.014
-669.076	-200.000	-0.036	0.418
-668.062	168.637	-0.215	-0.313
-667.047	-200.000	0.062	-0.383
-666.032	12.828	-0.108	0.085
-665.018	3.735	0.184	-0.137
-664.003	-118.104	-0.207	-0.038
-662.989	-66.296	-0.270	-0.110
-661.974	363.684	0.130	0.266
-660.959	710.235	0.055	-0.147
-659.945	-36.546	0.234	-0.128
-658.930	122.575	0.044	-0.056
-657.916	800.000	0.076	0.223
-656.901	176.309	0.083	0.124
-655.886	-51.668	-0.118	-0.056
-654.872	-121.867	0.119	-0.020
-653.857	-200.000	-0.011	-0.161
-652.843	800.000	0.066	0.208
-651.828	-127.842	0.035	-0.005
-650.814	800.000	-0.080	0.315
-649.799	-8.451	-0.329	0.226
-648.784	3.986	0.198	0.148
-647.770	15.122	-0.376	0.300
-646.755	-200.000	0.002	0.029
-645.741	270.241	0.051	-0.091
-644.726	-149.990	-0.312	-0.025
-643.711	214.583	0.032	-0.052
-642.697	-39.159	-0.160	-0.085
-641.682	134.066	-0.127	-0.168
-640.668	-154.680	0.397	-0.027
-639.653	71.819	-0.192	0.203
-638.638	-108.873	0.138	-0.030
-637.624	283.712	0.143	-0.261
-636.609	539.851	0.090	-0.217
-635.595	-112.720	0.132	0.027
-634.580	38.738	0.163	-0.149
-633.565	-72.167	-0.116	0.044
-632.551	-200.000	-0.026	-0.124
-631.536	-200.000	-0.005	0.189
-630.522	231.552	-0.137	0.229
-629.507	76.984	0.075	-0.081
-628.492	-10.628	0.108	0.073
-627.478	696.205	0.096	0.258
-626.463	88.334	-0.080	0.091
-625.449	168.739	-0.053	-0.076
-624.434	7.949	-0.227	-0.173
-623.419	-200.000	0.001	-0.005
-622.405	-86.913	-0.273	0.085
-621.390	-55.223	0.137	-0.063
-620.376	137.538	0.133	0.178
-619.361	408.136	0.105	0.226
-618.346	-200.000	-0.011	0.122
-617.332	197.590	0.159	0.247
-616.317	-94.689	-0.259	-0.072
-615.303	244.751	-0.154	-0.264
-614.288	36.676	0.100	-0.090
-613.273	-117.631	0.083	-0.015
-612.259	-200.000	0.006	-0.054
-611.244	-46.034	-0.248	0.124
-610.230	128.632	0.340	-0.441
-609.215	476.077	-0.010	-0.022
-608.201	-92.010	0.121	0.035
-607.186	401.480	-0.146	0.312
-606.171	426.589	-0.083	-0.181
-605.157	-200.000	0.064	-0.294
-604.142	-200.000	-0.008	-0.098
-603.128	466.765	-0.080	0.181
-602.113	800.000	0.139	-0.474
-601.098	-189.650	0.195	-0.002
-600.084	800.000	-0.033	0.143
-599.069	-187.511	-0.059	-0.001
-598.055	-64.822	-0.146	0.060
-597.040	295.735	0.093	-0.173
-596.025	-113.315	0.170	0.034
-595.011	104.086	0.074	0.088
-593.996	229.917	0.066	0.110
-592.982	-66.445	-0.382	-0.154
-591.967	600.705	-0.063	-0.159
-590.952	-77.718	-0.191	0.067
-589.938	114.824	-0.099	-0.123
-588.923	800.000	0.096	0.403
-587.909	-1.707	0.167	-0.119
-586.894	-165.660	0.248	0.011
-585.879	-147.479	-0.223	-0.019
-584.865	482.696	-0.179	-0.412
-583.850	800.000	-0.158	-0.456
-582.836	554.096	0.091	0.222
-581.821	-46.709	-0.214	-0.106
-580.806	-112.173	-0.359	0.073
-579.792	148.047	0.189	-0.259
-578.777	18.993	0.312	0.254
-577.763	-114.536	-0.454	0.089
-576.748	112.062	0.254	-0.312
-575.733	800.000	-0.073	0.236
-574.719	-118.709	0.130	-0.023
-573.704	-200.000	0.008	0.056
-572.690	-88.234	-0.428	-0.130
-571.675	329.549	-0.104	-0.203
-570.661	-200.000	-0.020	-0.167
-569.646	-69.598	0.446	0.174
-568.631	-31.891	-0.061	0.035
-567.617	-4.653	-0.206	0.144
-566.602	-112.308	-0.211	-0.043
-565.588	65.176	0.204	0.209
-564.573	-86.160	0.531	0.166
-563.558	-109.459	0.210	0.045
-562.544	-144.907	0.474	-0.044
-561.529	307.947	-0.221	0.418
-560.515	-200.000	-0.026	-0.333
-559.500	800.000	0.052	0.169
-558.485	50.631	-0.106	-0.102
-557.471	51.757	0.103	0.099
-556.456	-110.969	0.026	0.005
-555.442	-40.306	-0.173	-0.091
-554.427	204.297	0.148	0.233
-553.412	-200.000	0.003	0.022
-552.398	-42.240	-0.051	0.026
-551.383	9.814	-0.123	0.095
-550.369	83.708	0.155	-0.172
-549.354	-192.264	0.465	-0.004
-548.339	454.160	0.076	0.171
-547.325	-9.826	-0.424	-0.286
-546.310	147.293	0.191	-0.261
-545.296	771.636	0.190	0.525
-544.281	-22.044	0.194	-0.120
-543.266	800.000	-0.050	0.198
-542.252	551.249	-0.134	0.326
-541.237	-64.445	0.324	0.134
-540.223	-200.000	0.017	0.342
-539.208	800.000	-0.096	0.317
-538.193	40.593	-0.052	-0.048
-537.179	47.962	0.067	0.064
-536.164	743.006	0.063	0.173
-535.150	-200.000	0.080	0.403
-534.135	132.126	0.156	0.204
-533.121	-30.800	0.123	-0.070
-532.106	800.000	0.062	0.198
-531.091	567.067	0.130	-0.321
-530.077	-200.000	-0.003	-0.134
-529.062	-133.555	0.245	-0.031
-528.048	-43.465	-0.106	-0.054
-527.033	-120.675	0.294	-0.050
-526.018	-128.152	0.064	-0.009
-525.004	-200.000	0.033	0.235
-523.989	-86.948	0.171	0.053
-522.975	-46.639	-0.115	-0.057
-521.960	705.183	-0.060	-0.161
-520.945	35.986	-0.143	-0.128
-519.931	188.657	0.079	-0.120
-518.916	589.783	0.156	0.391
-517.902	371.167	-0.070	0.144
-516.887	-11.998	0.187	-0.124
-515.872	-118.227	-0.204	0.037
-514.858	800.000	-0.089	-0.322
-513.843	137.009	0.144	-0.191
-512.829	104.925	-0.080	-0.095
-511.814	-47.867	-0.188	-0.092
-510.799	77.229	0.072	-0.078
-509.785	-187.355	0.484	0.007
-508.770	186.455	-0.057	-0.086
-507.756	92.077	-0.166	-0.190
-506.741	376.353	-0.113	-0.233
-505.726	247.626	0.124	0.212
-504.712	-32.435	0.202	-0.114
-503.697	-168.166	0.297	0.012
-502.683	-200.000	-0.022	-0.337
-501.668	122.262	0.042	0.053
-500.653	-35.713	-0.056	-0.031
-499.639	195.454	0.061	0.093
-498.624	800.000	0.036	-0.143
-497.610	83.911	0.125	-0.138
-496.595	-15.059	-0.238	0.155
-495.581	-200.000	0.010	-0.240
-494.566	270.826	-0.022	0.039
-493.551	82.352	0.136	0.149
-492.537	72.315	-0.128	0.135
-491.522	442.246	0.086	0.191
-490.508	-78.638	0.257	-0.089
-489.493	-83.680	-0.110	-0.036
-488.478	110.764	-0.171	-0.209
-487.464	-111.584	-0.102	0.021
-486.449	88.433	-0.064	-0.072
-485.435	-200.000	0.017	0.239
-484.420	-47.184	-0.258	-0.127
-483.405	-200.000	0.012	-0.274
-482.391	-200.000	-0.013	0.126
-481.376	-185.641	0.111	-0.002
-480.362	166.226	0.174	-0.250
-479.347	18.175	0.022	-0.017
-478.332	-43.009	0.134	0.069
-477.318	800.000	-0.063	-0.255
-476.303	-200.000	-0.014	0.085
-475.289	-160.723	0.317	0.017
-474.274	-200.000	-0.021	0.122
-473.259	-89.998	-0.220	0.065
-472.245	158.052	0.117	0.163
-471.230	-83.322	-0.298	-0.097
-470.216	-200.000	-0.023	0.288
-469.201	249.614	0.142	0.244
-468.186	-125.932	0.046	-0.007
-467.172	-106.340	0.131	0.030
-466.157	164.180	-0.099	0.141
-465.143	203.839	0.132	0.206
-464.128	133.489	0.243	-0.318
-463.113	-142.364	-0.346	0.035
-462.099	800.000	-0.133	0.373
-461.084	16.538	-0.165	0.132
-460.070	57.493	-0.117	0.115
-459.055	-71.143	-0.053	0.020
-458.040	800.000	0.076	0.296
-457.026	26.832	-0.084	0.072
-456.011	363.895	-0.106	-0.215
-454.997	200.814	-0.194	0.301
-453.982	-27.785	-0.065	-0.038
-452.968	243.747	0.072	0.122
-451.953	-200.000	0.013	-0.197
-450.938	-61.988	-0.165	-0.070
-449.924	112.374	-0.088	0.107
-448.909	-135.037	0.072	-0.009
-447.895	-119.073	-0.439	-0.078
-446.880	-200.000	0.020	0.254
-445.865	-200.000	-0.005	0.026
-444.851	-2.896	0.248	0.175
-443.836	-143.650	0.297	-0.029
-442.822	18.598	0.215	-0.174
-441.807	-200.000	-0.028	-0.301
-440.792	-200.000	0.028	-0.418
-439.778	800.000	-0.042	0.152
-438.763	-107.455	-0.212	-0.047
-437.749	255.811	0.059	-0.102
-436.734	132.962	-0.075	-0.098
-435.719	-47.862	-0.096	-0.047
-434.705	800.000	-0.079	0.284
-433.690	91.602	0.090	0.102
-432.676	800.000	-0.031	0.094
-431.661	-189.573	-0.087	0.001
-430.646	37.838	0.236	-0.212
-429.632	771.798	0.072	-0.199
-428.617	265.512	0.239	-0.421
-427.603	244.724	0.059	0.099
-426.588	305.188	0.053	0.099
-425.573	-200.000	-0.018	-0.084
-424.559	-200.000	-0.005	0.246
-423.544	706.674	-0.075	-0.199
-422.530	214.398	0.064	0.103
-421.515	-200.000	0.024	-0.221
-420.500	800.000	0.136	0.386
-419.486	8.229	0.144	0.109
-418.471	-86.996	-0.018	-0.006
-417.457	-200.000	-0.006	-0.123
-416.442	-200.000	-0.039	0.195
-415.428	-83.113	-0.174	0.057
-414.413	-200.000	0.070	-0.381
-413.398	-69.234	-0.222	0.086
-412.384	-47.642	-0.027	-0.013
-411.369	82.145	0.221	0.242
-410.355	-20.474	0.249	0.154
-409.340	162.159	-0.156	-0.220
-408.325	56.305	0.189	0.186
-407.311	-89.890	-0.132	0.039
-406.296	-34.379	-0.181	-0.100
-405.282	70.936	-0.042	-0.044
-404.267	27.458	0.342	0.291
-403.252	-200.000	-0.038	0.417
-402.238	-40.259	0.120	-0.063
-401.223	-200.000	-0.018	0.356
-400.209	-200.000	0.052	0.419
-399.194	67.311	-0.252	0.259
-398.179	2.709	0.099	-0.073
-397.165	-94.631	0.102	-0.028
-396.150	-200.000	0.017	-0.186
-395.136	-7.091	-0.188	-0.128
-394.121	800.000	0.089	-0.380
-393.106	69.731	0.121	0.126
-392.092	-86.935	0.072	-0.022
-391.077	81.180	0.137	-0.150
-390.063	410.301	-0.037	-0.079
-389.048	58.968	0.098	-0.097
-388.033	-200.000	-0.038	-0.375
-387.019	104.379	-0.184	-0.218
-386.004	293.940	0.032	-0.059
-384.990	67.702	-0.043	-0.044
-383.975	-7.967	-0.278	-0.189
-382.960	-200.000	-0.089	0.405
-381.946	210.457	-0.080	-0.127
-380.931	319.905	-0.136	-0.260
-379.917	110.014	-0.075	0.091
-378.902	-24.048	-0.268	-0.161
-377.888	800.000	0.048	-0.194
-376.873	-164.908	0.134	0.006
-375.858	-44.404	-0.052	-0.026
-374.844	-67.490	0.095	-0.038
-373.829	-26.629	-0.259	0.153
-372.815	414.965	-0.080	0.171
-371.800	-32.377	0.186	-0.105
-370.785	-25.451	0.105	0.062
-369.771	-37.663	0.160	-0.086
-368.756	-119.794	-0.197	0.034
-367.742	-125.618	-0.220	-0.034
-366.727	-65.288	-0.382	0.155
-365.712	155.786	0.179	0.248
-364.698	-48.394	0.136	0.066
-363.683	-156.249	-0.280	-0.018
-362.669	-77.704	-0.115	-0.040
-361.654	-5.822	0.046	-0.032
-360.639	-93.401	0.166	0.046
-359.625	-7.977	-0.239	-0.162
-358.610	800.000	0.031	0.105
-357.596	-47.800	-0.237	0.116
-356.581	104.787	-0.015	-0.018
-355.566	-113.159	0.047	-0.009
-354.552	227.744	-0.153	-0.251
-353.537	800.000	0.022	-0.081
-352.523	716.326	-0.032	-0.085
-351.508	31.269	-0.153	-0.133
-350.493	-71.804	0.285	-0.107
-349.479	-26.613	0.096	-0.057
-348.464	42.719	-0.270	-0.247
-347.450	-72.938	-0.066	0.025
-346.435	-139.454	-0.204	-0.022
-345.420	-73.414	-0.141	0.052
-344.406	171.686	-0.107	-0.155
-343.391	73.426	0.290	-0.306
-342.377	-106.964	-0.168	0.038
-341.362	153.686	0.181	0.249
-340.348	-136.492	-0.203	0.024
-339.333	8.623	0.175	0.132
-338.318	118.085	0.219	-0.271
-337.304	-102.730	0.189	0.045
-336.289	156.153	-0.140	-0.195
-335.275	-66.666	-0.074	0.029
-334.260	725.676	0.020	0.054
-333.245	314.653	0.039	0.073
-332.231	800.000	-0.044	0.137
-331.216	-176.551	-0.313	0.008
-330.202	-120.647	-0.141	-0.024
-329.187	-12.225	-0.159	0.105
-328.172	70.646	0.164	0.171
-327.158	431.065	-0.057	-0.125
-326.143	-200.000	-0.037	0.332
-325.129	-35.844	-0.317	0.173
-324.114	20.612	-0.403	-0.328
-323.099	307.632	-0.183	-0.343
-322.085	-200.000	0.008	0.270
-321.070	-200.000	-0.027	0.176
-320.056	-101.875	-0.204	-0.050
-319.041	78.606	-0.111	0.119
-318.026	16.510	-0.201	-0.160
-317.012	-82.404	0.042	0.014
-315.997	312.393	0.171	-0.322
-314.983	-33.809	-0.117	-0.065
-313.968	371.371	-0.068	-0.139
-312.953	-161.772	0.205	0.010
-311.939	30.099	0.233	-0.200
-310.924	-41.831	0.178	-0.092
-309.910	-200.000	0.008	0.084
-308.895	-49.066	0.057	-0.028
-307.880	-139.542	-0.096	0.010
-306.866	800.000	-0.078	0.250
-305.851	86.690	0.168	0.186
-304.837	-119.047	0.253	0.045
-303.822	-200.000	0.047	-0.224
-302.807	800.000	0.025	-0.103
-301.793	-137.209	0.219	0.025
-300.778	29.741	0.147	-0.126
-299.764	-22.572	0.337	-0.205
-298.749	107.650	-0.105	-0.126
-297.735	379.995	0.189	-0.390
-296.720	-127.097	-0.226	-0.033
-295.705	112.554	0.113	-0.137
-294.691	138.014	-0.168	-0.221
-293.676	243.671	0.203	0.343
-292.662	-200.000	-0.021	-0.096
-291.647	45.296	-0.080	0.074
-290.632	118.259	-0.094	-0.116
-289.618	-71.542	-0.265	0.100
-288.603	-200.000	-0.030	-0.455
-287.589	-200.000	-0.009	0.246
-286.574	46.409	-0.057	-0.053
-285.559	-200.000	0.041	0.243
-284.545	101.872	-0.075	0.088
-283.530	-200.000	0.016	0.101
-282.516	36.618	0.222	0.197
-281.501	259.993	-0.150	-0.260
-280.486	-79.339	0.080	-0.027
-279.472	497.398	-0.076	0.177
-278.457	-36.796	-0.234	-0.126
-277.443	-44.625	0.174	-0.087
-276.428	-76.444	0.333	0.117
-275.413	-45.342	0.037	0.019
-274.399	666.552	0.068	-0.175
-273.384	92.633	0.159	-0.180
-272.370	-54.259	-0.291	-0.133
-271.355	-12.512	0.255	0.167
-270.340	5.844	0.218	0.162
-269.326	307.291	0.099	-0.184
-268.311	-44.138	0.107	-0.054
-267.297	101.224	-0.141	0.165
-266.282	-48.350	0.080	-0.039
-265.267	122.840	0.155	-0.195
-264.253	800.000	-0.030	0.103
-263.238	206.342	0.191	0.299
-262.224	-152.667	0.103	0.007
-261.209	128.922	-0.040	-0.051
-260.195	177.672	0.179	0.262
-259.180	-111.874	0.117	0.024
-258.165	-131.764	-0.112	0.015
-257.151	250.010	0.028	0.048
-256.136	87.190	-0.096	-0.107
-255.122	4.322	0.107	-0.079
-254.107	147.347	-0.165	-0.222
-253.092	-111.113	0.432	-0.089
-252.078	-45.017	-0.167	-0.083
-251.063	-14.244	0.220	0.142
-250.049	177.411	0.077	-0.112
-249.034	-127.109	0.032	0.005
-248.019	156.663	0.076	0.105
-247.005	0.314	0.136	0.097
-245.990	624.422	-0.078	0.198
-244.976	799.790	0.155	-0.429
-243.961	535.880	0.125	-0.298
-242.946	94.683	-0.246	0.281
-241.932	800.000	-0.047	-0.207
-240.917	-103.724	-0.333	0.078
-239.903	8.421	-0.266	0.201
-238.888	-200.000	0.016	-0.084
-237.873	483.652	-0.065	-0.148
-236.859	-200.000	-0.054	0.268
-235.844	415.356	0.068	0.146
-234.830	-11.172	-0.086	-0.057
-233.815	122.923	-0.123	0.155
-232.800	-110.529	-0.266	0.055
-231.786	-200.000	-0.047	-0.284
-230.771	800.000	0.063	0.221
-229.757	-64.637	-0.329	0.134
-228.742	-100.967	0.065	-0.016
-227.727	-92.282	-0.140	-0.040
-226.713	69.739	0.102	-0.105
-225.698	-200.000	0.027	0.146
-224.684	-163.612	-0.282	0.013
-223.669	-129.677	-0.121	-0.017
-222.655	10.271	0.375	0.286
-221.640	-200.000	0.002	0.130
-220.625	800.000	0.015	0.050
-219.611	800.000	0.038	0.158
-218.596	800.000	-0.065	0.224
-217.582	175.598	0.034	0.050
-216.567	-103.420	-0.168	0.040
-215.552	-12.943	0.080	0.052
-214.538	113.296	-0.116	-0.141
-213.523	-115.190	0.228	0.043
-212.509	-87.901	0.100	0.030
-211.494	-96.813	0.201	-0.053
-210.479	-62.947	0.140	0.058
-209.465	-200.000	-0.007	0.269
-208.450	800.000	0.040	-0.164
-207.436	-20.881	-0.296	-0.182
-206.421	793.692	0.110	0.302
-205.406	107.666	0.123	0.147
-204.392	-161.673	0.333	0.017
-203.377	246.552	-0.108	-0.183
-202.363	159.921	0.048	-0.066
-201.348	48.246	0.201	-0.188
-200.333	-200.000	0.245	0.000
-199.319	-84.939	0.559	0.175
-198.304	110.562	0.048	0.058
-197.290	-200.000	-0.126	0.000
-196.275	800.000	-0.041	0.156
-195.260	421.253	-0.103	-0.221
-194.246	-91.210	0.201	0.058
-193.231	-12.448	0.061	0.040
-192.217	-98.260	0.063	0.016
-191.202	-136.902	-0.277	-0.032
-190.187	95.008	-0.237	0.270
-189.173	-135.281	-0.144	0.017
-188.158	90.565	-0.082	0.092
-187.144	296.531	0.037	0.068
-186.129	-2.616	0.092	-0.064
-185.114	-133.511	-0.088	0.011
-184.100	85.276	-0.180	-0.198
-183.085	800.000	-0.073	-0.232
-182.071	197.872	0.130	0.199
-181.056	-155.768	-0.231	-0.015
-180.042	518.776	-0.125	-0.292
-179.027	-200.000	-0.005	-0.065
-178.012	800.000	0.115	-0.334
-176.998	67.154	0.091	-0.093
-175.983	506.807	0.122	0.283
-174.969	15.297	0.234	0.184
-173.954	-41.365	-0.204	0.105
-172.939	-20.548	0.187	-0.115
-171.925	270.652	-0.126	0.221
-170.910	79.190	-0.229	0.245
-169.896	413.357	0.039	-0.082
-168.881	-152.901	0.240	-0.017
-167.866	258.899	-0.030	0.052
-166.852	167.670	0.128	-0.182
-165.837	-200.000	-0.077	-0.398
-164.823	70.136	-0.249	-0.257
-163.808	68.847	-0.123	-0.126
-162.793	115.301	-0.103	0.126
-161.779	144.195	-0.169	-0.225
-160.764	251.769	-0.079	0.135
-159.750	-200.000	0.014	-0.118
-158.735	269.047	-0.166	0.292
-157.720	-119.480	0.171	-0.030
-156.706	370.999	0.032	0.065
-155.691	-200.000	-0.037	0.181
-154.677	421.834	-0.194	-0.416
-153.662	-84.289	-0.186	0.059
-152.647	-106.211	-0.367	-0.082
-151.633	-200.000	-0.037	0.264
-150.618	66.627	-0.200	-0.204
-149.604	800.000	0.115	0.460
-148.589	800.000	0.019	-0.072
-147.574	-200.000	0.016	0.290
-146.560	-200.000	0.002	0.023
-145.545	104.596	-0.088	-0.104
-144.531	-200.000	0.000	0.082
-143.516	158.620	0.132	0.183
-142.502	-200.000	0.001	0.310
-141.487	-6.884	-0.179	-0.122
-140.472	66.820	-0.231	-0.235
-139.458	156.525	-0.096	-0.132
-138.443	50.451	-0.192	-0.181
-137.429	-91.607	-0.090	-0.026
-136.414	580.761	-0.091	-0.222
-135.399	156.806	-0.062	-0.086
-134.385	-50.079	0.147	-0.070
-133.370	-200.000	-0.076	-0.347
-132.356	-200.000	0.001	0.165
-131.341	-110.002	0.157	-0.033
-130.326	366.575	-0.070	0.140
-129.312	-98.213	0.258	0.066
-128.297	0.763	0.199	0.142
-127.283	-55.749	-0.103	0.046
-126.268	-112.634	-0.198	0.039
-125.253	-102.310	0.380	0.091
-124.239	-86.853	0.235	0.072
-123.224	-84.520	0.437	-0.138
-122.210	-18.513	-0.098	0.061
-121.195	-124.352	0.210	-0.033
