DTS Sentinel unit serial number:	SN413079Multiplexer serial number:	ORYXHardware model number:	OX4-SRSoftware version number:	ORYX F/W v4.00 Oryx Data Collector v3.7.2.0data status	okinstallation	princeton_trtdifferential loss correction	single-endedforward channel	channel 4reverse channel	N/Adate	2019/09/18time	07:13:35forward acquisition time	60.00reverse acquisition time	0.00gamma	496.2192k internal	0.2333k external	0.2333temperature offset calibration	0.9998default loss term (dB/km)	0.3790temperature slope calibration	1.0000multiplexer offset coefficient	1.0000multiplexer slope coefficient	1.0000fibre end	0.00T internal ref (°C)	23.19T ext. ref 1 (°C)	0.19T ext. ref 2 (°C)	17.31length (m)	temperature (°C)	Stokes	anti-Stokes-747.200	-136.059	0.213	0.025
-746.185	-108.987	-0.282	0.060
-745.171	193.220	-0.240	-0.366
-744.156	535.853	-0.041	-0.097
-743.142	-48.169	-0.020	-0.010
-742.127	449.716	-0.112	0.249
-741.112	-200.000	0.018	-0.127
-740.098	-29.856	-0.425	-0.243
-739.083	156.607	0.220	0.305
-738.069	43.855	0.111	0.102
-737.054	-200.000	-0.016	0.097
-736.039	25.100	-0.256	0.213
-735.025	342.394	0.228	0.448
-734.010	800.000	0.058	-0.198
-732.996	-111.378	-0.148	0.030
-731.981	109.018	-0.320	0.385
-730.966	-96.088	-0.209	0.056
-729.952	-78.981	0.234	-0.080
-728.937	-17.594	-0.163	0.103
-727.923	-200.000	-0.035	-0.174
-726.908	257.101	-0.144	0.250
-725.894	240.223	-0.113	0.189
-724.879	800.000	-0.094	-0.332
-723.864	800.000	0.013	-0.042
-722.850	-200.000	-0.006	-0.164
-721.835	22.880	0.130	-0.107
-720.821	230.104	-0.186	0.305
-719.806	-56.946	-0.071	-0.031
-718.791	-53.271	-0.270	-0.124
-717.777	-122.244	0.079	0.013
-716.762	-31.059	-0.242	0.137
-715.748	37.270	0.137	0.122
-714.733	-73.453	-0.216	0.079
-713.718	-12.136	-0.056	-0.037
-712.704	13.166	-0.301	-0.234
-711.689	-106.047	0.234	0.053
-710.675	-200.000	-0.025	0.273
-709.660	-28.573	-0.204	0.118
-708.645	325.322	-0.014	-0.028
-707.631	-14.564	0.106	-0.068
-706.616	-200.000	0.035	-0.288
-705.602	405.581	0.106	-0.223
-704.587	800.000	0.067	-0.248
-703.572	800.000	0.035	-0.123
-702.558	103.231	0.120	-0.141
-701.543	-70.162	-0.206	0.078
-700.529	49.542	-0.150	0.142
-699.514	-65.602	-0.510	-0.205
-698.499	-200.000	0.012	-0.094
-697.485	-200.000	0.001	-0.210
-696.470	-3.714	0.182	0.127
-695.456	-92.664	-0.225	0.063
-694.441	-200.000	-0.017	0.212
-693.426	-200.000	0.090	-0.575
-692.412	115.229	0.136	-0.166
-691.397	-15.129	-0.189	-0.122
-690.383	123.408	-0.229	-0.288
-689.368	800.000	-0.020	0.074
-688.354	51.044	0.061	-0.058
-687.339	61.097	-0.370	0.369
-686.324	-27.031	-0.187	0.110
-685.310	-55.383	0.275	0.124
-684.295	53.889	-0.110	0.106
-683.281	-200.000	0.007	0.089
-682.266	222.067	0.065	0.105
-681.251	800.000	0.040	0.162
-680.237	364.929	0.053	0.106
-679.222	800.000	0.073	-0.286
-678.208	63.377	0.041	0.041
-677.193	310.672	-0.060	0.113
-676.178	-73.311	-0.278	0.102
-675.164	142.393	-0.086	-0.114
-674.149	-200.000	-0.026	0.147
-673.135	5.981	0.194	0.144
-672.120	800.000	-0.058	0.241
-671.105	100.653	-0.168	-0.196
-670.091	-153.303	-0.220	-0.015
-669.076	-32.291	-0.073	0.041
-668.062	95.932	-0.070	0.080
-667.047	-141.506	-0.134	-0.014
-666.032	520.979	-0.107	-0.250
-665.018	-200.000	-0.002	0.010
-664.003	-127.510	-0.415	-0.060
-662.989	-200.000	0.014	-0.209
-661.974	-171.941	-0.102	0.003
-660.959	-12.456	-0.157	-0.103
-659.945	-50.850	-0.063	0.030
-658.930	-45.355	0.335	-0.166
-657.916	800.000	0.068	-0.218
-656.901	-130.452	-0.048	0.006
-655.886	38.831	-0.198	-0.177
-654.872	304.554	0.087	-0.162
-653.857	800.000	0.023	0.090
-652.843	67.073	0.088	0.090
-651.828	-119.209	-0.162	0.028
-650.814	25.355	-0.206	-0.172
-649.799	53.759	-0.108	-0.103
-648.784	-127.002	0.256	0.038
-647.770	-200.000	-0.022	-0.234
-646.755	201.851	0.085	0.132
-645.741	-66.123	0.080	0.032
-644.726	116.882	-0.259	-0.318
-643.711	-72.380	0.211	0.078
-642.697	-86.679	0.233	0.071
-641.682	-200.000	-0.053	-0.355
-640.668	-88.656	-0.134	-0.040
-639.653	-123.813	0.048	0.008
-638.638	183.017	-0.125	-0.185
-637.624	800.000	0.113	-0.314
-636.609	-200.000	0.031	-0.151
-635.595	-113.182	-0.215	-0.042
-634.580	-106.067	0.258	-0.058
-633.565	164.363	0.149	-0.211
-632.551	-200.000	0.002	-0.213
-631.536	-38.077	-0.148	0.079
-630.522	-200.000	0.023	0.283
-629.507	392.090	0.063	-0.131
-628.492	85.901	-0.046	0.050
-627.478	631.722	-0.053	-0.133
-626.463	131.417	0.056	0.072
-625.449	-200.000	0.046	0.423
-624.434	-181.988	-0.155	0.003
-623.419	5.385	-0.136	0.101
-622.405	800.000	0.069	0.261
-621.390	225.513	-0.012	0.019
-620.376	-200.000	0.001	-0.029
-619.361	-45.967	-0.290	0.143
-618.346	-3.039	-0.221	0.154
-617.332	800.000	0.011	0.035
-616.317	135.150	0.099	0.128
-615.303	351.619	-0.037	-0.074
-614.288	-53.091	0.305	0.140
-613.273	-200.000	-0.016	0.329
-612.259	255.055	0.167	-0.285
-611.244	-200.000	0.045	0.290
-610.230	351.096	-0.075	0.149
-609.215	-121.644	0.114	0.019
-608.201	-200.000	0.008	-0.105
-607.186	-148.776	-0.279	0.023
-606.171	800.000	0.009	0.036
-605.157	6.486	-0.248	-0.184
-604.142	-200.000	-0.031	-0.252
-603.128	800.000	-0.097	0.285
-602.113	-89.926	-0.281	-0.082
-601.098	-14.311	0.117	0.076
-600.084	633.690	-0.043	0.110
-599.069	511.032	-0.084	-0.195
-598.055	-40.312	0.276	-0.143
-597.040	-187.327	0.303	-0.004
-596.025	350.521	-0.026	-0.051
-595.011	115.153	-0.073	-0.089
-593.996	-140.856	-0.209	0.021
-592.982	119.060	-0.252	0.312
-591.967	-168.473	0.350	-0.013
-590.952	343.835	-0.095	0.186
-589.938	736.988	0.049	0.132
-588.923	800.000	0.069	-0.245
-587.909	-200.000	-0.036	-0.231
-586.894	-155.811	0.392	0.025
-585.879	48.135	-0.093	0.086
-584.865	40.302	0.065	0.059
-583.850	129.409	-0.193	0.247
-582.836	-146.631	0.298	0.026
-581.821	-74.135	-0.288	-0.104
-580.806	800.000	0.042	-0.132
-579.792	800.000	-0.105	-0.324
-578.777	-15.032	-0.189	0.121
-577.763	200.385	-0.014	0.021
-576.748	-200.000	0.002	0.061
-575.733	-34.339	-0.130	-0.071
-574.719	-7.155	-0.153	-0.103
-573.704	287.477	0.029	0.052
-572.690	76.974	0.186	-0.197
-571.675	-200.000	-0.043	-0.242
-570.661	-104.059	0.047	0.011
-569.646	800.000	0.094	0.390
-568.631	-16.240	-0.212	0.134
-567.617	-71.172	0.073	-0.027
-566.602	-200.000	0.014	0.163
-565.588	661.676	-0.084	-0.215
-564.573	-133.151	-0.079	-0.010
-563.558	111.544	-0.155	-0.187
-562.544	-26.110	-0.241	-0.141
-561.529	441.110	0.157	0.342
-560.515	800.000	0.071	0.242
-559.500	-81.411	0.044	0.014
-558.485	474.480	0.060	-0.135
-557.471	800.000	-0.037	0.160
-556.456	-64.602	0.162	0.066
-555.442	-149.825	0.716	0.056
-554.427	-75.817	-0.201	0.071
-553.412	-69.911	0.094	-0.036
-552.398	-200.000	-0.025	0.186
-551.383	290.638	-0.222	-0.402
-550.369	123.128	0.155	-0.194
-549.354	-200.000	0.025	-0.171
-548.339	363.007	-0.157	-0.314
-547.325	-200.000	0.048	0.238
-546.310	-1.471	0.105	0.074
-545.296	-120.618	0.250	-0.042
-544.281	-125.575	0.271	0.041
-543.266	-28.206	-0.075	0.043
-542.252	-190.350	-0.087	0.001
-541.237	588.913	-0.135	-0.332
-540.223	-168.254	-0.129	-0.005
-539.208	800.000	-0.051	0.197
-538.193	-64.030	0.293	-0.119
-537.179	-3.911	0.232	0.161
-536.164	31.195	-0.136	-0.117
-535.150	800.000	0.028	-0.109
-534.135	-101.262	0.170	0.041
-533.121	-20.940	-0.217	-0.132
-532.106	-200.000	0.008	-0.091
-531.091	-200.000	-0.001	0.229
-530.077	252.804	-0.092	-0.156
-529.062	268.393	0.103	0.180
-528.048	-200.000	-0.002	0.021
-527.033	-165.868	-0.003	0.000
-526.018	490.963	0.095	-0.218
-525.004	-200.000	-0.001	-0.150
-523.989	-67.069	-0.256	0.101
-522.975	-200.000	-0.040	0.276
-521.960	208.491	-0.138	0.215
-520.945	800.000	0.102	-0.296
-519.931	103.548	0.054	0.063
-518.916	-139.434	-0.216	0.023
-517.902	-112.157	0.293	-0.059
-516.887	743.842	-0.019	-0.052
-515.872	-125.910	0.343	0.052
-514.858	-200.000	0.005	-0.246
-513.843	2.398	-0.417	-0.300
-512.829	97.910	0.157	-0.180
-511.814	-87.745	-0.214	-0.064
-510.799	-53.532	-0.059	-0.027
-509.785	755.779	-0.021	-0.058
-508.770	189.658	-0.190	-0.284
-507.756	61.802	0.117	-0.116
-506.741	503.227	0.120	-0.277
-505.726	-101.895	0.318	0.076
-504.712	-78.927	-0.108	0.037
-503.697	275.698	0.217	0.384
-502.683	-200.000	-0.015	0.094
-501.668	530.376	-0.163	-0.383
-500.653	-62.096	-0.180	-0.075
-499.639	-17.323	-0.082	-0.052
-498.624	-61.826	0.231	-0.096
-497.610	-14.556	-0.185	0.118
-496.595	147.080	0.091	-0.122
-495.581	-135.900	-0.166	0.019
-494.566	154.065	0.111	-0.152
-493.551	-99.438	-0.337	0.085
-492.537	156.437	0.182	-0.250
-491.522	-50.391	0.267	-0.126
-490.508	-80.554	-0.178	-0.059
-489.493	-200.000	0.058	0.408
-488.478	-77.945	-0.177	0.061
-487.464	268.974	0.227	-0.397
-486.449	-200.000	-0.044	0.266
-485.435	-100.606	-0.033	0.008
-484.420	389.743	-0.099	-0.204
-483.405	171.693	0.053	0.076
-482.391	297.581	-0.094	-0.172
-481.376	217.676	0.082	-0.130
-480.362	800.000	0.124	-0.395
-479.347	352.159	-0.083	-0.163
-478.332	-49.960	0.378	0.178
-477.318	-21.817	0.071	-0.043
-476.303	-200.000	0.003	0.117
-475.289	189.289	0.057	-0.085
-474.274	103.853	-0.021	0.025
-473.259	214.591	0.023	0.036
-472.245	-200.000	0.002	0.049
-471.230	-97.723	-0.222	-0.057
-470.216	236.139	-0.150	-0.247
-469.201	-17.050	-0.351	-0.220
-468.186	-200.000	-0.015	0.396
-467.172	-3.195	-0.116	0.080
-466.157	800.000	-0.043	0.174
-465.143	21.537	-0.176	-0.142
-464.128	780.924	-0.037	-0.100
-463.113	140.458	-0.115	-0.151
-462.099	53.944	-0.144	0.137
-461.084	213.470	-0.044	-0.070
-460.070	-200.000	0.008	0.127
-459.055	800.000	-0.086	0.315
-458.040	-153.171	0.226	-0.016
-457.026	800.000	0.134	0.393
-456.011	-105.475	-0.181	-0.041
-454.997	106.299	0.273	0.322
-453.982	107.775	-0.050	0.059
-452.968	93.062	-0.169	-0.190
-451.953	800.000	-0.050	-0.185
-450.938	26.679	-0.397	0.330
-449.924	800.000	-0.070	0.302
-448.909	-108.877	0.181	-0.038
-447.895	196.962	-0.248	0.375
-446.880	-200.000	-0.046	0.239
-445.865	364.097	0.100	0.200
-444.851	-102.067	-0.217	-0.052
-443.836	55.260	0.220	-0.212
-442.822	-96.358	-0.193	0.051
-441.807	-28.652	0.239	0.137
-440.792	180.505	-0.002	-0.004
-439.778	800.000	-0.015	-0.063
-438.763	23.911	-0.210	0.172
-437.749	-128.644	-0.160	0.023
-436.734	-10.806	0.416	-0.273
-435.719	143.499	-0.151	-0.199
-434.705	378.844	-0.046	-0.093
-433.690	-83.466	0.172	0.055
-432.676	328.095	0.123	0.234
-431.661	225.532	0.209	-0.336
-430.646	-200.000	-0.065	-0.435
-429.632	-92.918	-0.096	0.027
-428.617	11.051	-0.016	-0.012
-427.603	-200.000	0.022	0.329
-426.588	777.409	0.063	-0.172
-425.573	160.977	-0.113	-0.157
-424.559	83.020	-0.180	-0.195
-423.544	-110.467	-0.338	0.070
-422.530	-200.000	0.035	0.207
-421.515	-200.000	0.060	-0.351
-420.500	1.396	-0.091	0.065
-419.486	87.231	-0.068	0.075
-418.471	-13.680	-0.130	-0.084
-417.457	-76.748	0.212	-0.074
-416.442	-200.000	0.013	0.175
-415.428	665.224	0.087	0.223
-414.413	-6.307	-0.030	-0.020
-413.398	800.000	0.034	-0.145
-412.384	-200.000	0.037	0.206
-411.369	153.795	0.165	-0.225
-410.355	-99.731	-0.439	0.109
-409.340	2.387	0.034	-0.024
-408.325	-200.000	0.015	-0.210
-407.311	345.846	-0.187	0.364
-406.296	-67.291	0.219	0.085
-405.282	-111.821	0.114	0.023
-404.267	80.638	-0.189	-0.203
-403.252	509.027	0.073	0.169
-402.238	800.000	-0.044	0.148
-401.223	65.546	0.151	0.152
-400.209	-167.558	-0.329	-0.013
-399.194	388.531	-0.109	-0.223
-398.179	-200.000	0.163	-0.000
-397.165	-178.840	-0.127	-0.003
-396.150	114.282	0.175	-0.211
-395.136	175.544	0.099	0.142
-394.121	-97.352	-0.073	0.019
-393.106	-135.334	-0.358	0.043
-392.092	-46.444	0.009	-0.004
-391.077	185.811	0.146	0.215
-390.063	800.000	-0.078	-0.258
-389.048	-94.982	0.208	-0.056
-388.033	-200.000	-0.031	0.165
-387.019	510.911	-0.084	-0.195
-386.004	351.865	0.213	-0.418
-384.990	193.906	-0.200	0.300
-383.975	-132.268	-0.264	0.034
-382.960	-76.719	0.118	-0.041
-381.946	-76.740	0.190	0.066
-380.931	-200.000	0.019	0.089
-379.917	-200.000	-0.023	0.164
-378.902	-14.736	-0.081	-0.052
-377.888	-31.542	-0.244	0.136
-376.873	-200.000	-0.368	-0.000
-375.858	-161.188	-0.120	-0.006
-374.844	800.000	0.111	0.314
-373.829	-200.000	-0.019	0.128
-372.815	-200.000	-0.012	-0.076
-371.800	155.430	0.067	-0.092
-370.785	-138.871	0.277	-0.030
-369.771	-200.000	0.005	-0.319
-368.756	23.777	0.204	-0.167
-367.742	-200.000	-0.021	-0.244
-366.727	-10.249	0.203	-0.134
-365.712	-200.000	0.014	0.093
-364.698	789.778	-0.038	0.103
-363.683	-31.905	0.217	0.121
-362.669	276.263	-0.093	0.163
-361.654	-149.459	0.223	0.018
-360.639	471.950	0.017	-0.037
-359.625	409.038	0.046	0.096
-358.610	702.107	0.208	0.541
-357.596	-200.000	-0.036	-0.189
-356.581	-180.617	-0.217	0.004
-355.566	-200.000	0.006	-0.081
-354.552	4.792	-0.274	-0.199
-353.537	285.639	-0.085	-0.153
-352.523	384.658	-0.047	-0.097
-351.508	37.320	0.206	0.181
-350.493	-71.417	0.017	0.006
-349.479	-31.446	0.223	0.124
-348.464	-53.859	-0.110	0.050
-347.450	-200.000	-0.014	-0.097
-346.435	-135.391	-0.068	-0.008
-345.420	-200.000	0.062	-0.546
-344.406	-115.065	0.285	-0.054
-343.391	-132.189	-0.193	0.025
-342.377	-25.589	-0.054	-0.032
-341.362	96.193	-0.134	0.152
-340.348	84.700	-0.226	-0.245
-339.333	-80.254	0.123	0.041
-338.318	60.151	0.278	0.272
-337.304	29.281	-0.247	-0.207
-336.289	-39.953	0.101	0.052
-335.275	-116.052	0.247	-0.045
-334.260	-200.000	-0.056	0.382
-333.245	-200.000	-0.031	-0.339
-332.231	737.960	-0.078	-0.208
-331.216	4.958	0.119	-0.087
-330.202	-75.434	0.043	-0.015
-329.187	199.696	-0.141	-0.215
-328.172	246.175	0.079	0.131
-327.158	-32.894	-0.141	-0.078
-326.143	495.059	-0.135	0.307
-325.129	221.291	-0.030	-0.047
-324.114	30.449	-0.362	-0.306
-323.099	186.164	-0.074	0.109
-322.085	-35.517	-0.176	-0.095
-321.070	-105.353	-0.204	-0.046
-320.056	471.507	0.099	0.220
-319.041	-200.000	0.016	0.207
-318.026	800.000	0.010	0.031
-317.012	-200.000	-0.099	0.456
-315.997	800.000	-0.060	0.246
-314.983	159.886	-0.087	-0.119
-313.968	800.000	-0.051	0.214
-312.953	-200.000	0.008	0.239
-311.939	669.987	0.017	0.044
-310.924	-200.000	-0.088	0.533
-309.910	-62.296	0.224	0.092
-308.895	-200.000	0.032	0.165
-307.880	-41.146	0.191	-0.098
-306.866	116.569	0.040	-0.048
-305.851	344.635	-0.106	-0.205
-304.837	-91.981	0.106	-0.030
-303.822	-119.183	-0.147	-0.025
-302.807	424.177	0.069	-0.146
-301.793	119.921	0.136	-0.166
-300.778	-200.000	-0.050	0.217
-299.764	752.836	-0.086	-0.228
-298.749	-37.176	0.107	-0.057
-297.735	64.584	0.022	0.022
-296.720	-134.462	0.253	-0.031
-295.705	22.313	0.148	-0.119
-294.691	-200.000	-0.001	0.024
-293.676	71.507	0.192	0.197
-292.662	-195.792	-0.201	-0.001
-291.647	43.246	-0.389	-0.351
-290.632	-59.506	0.237	-0.101
-289.618	-112.580	-0.234	0.046
-288.603	-177.809	0.227	0.005
-287.589	-36.217	-0.241	0.128
-286.574	11.287	0.086	-0.065
-285.559	180.268	0.117	0.170
-284.545	-51.522	-0.133	-0.061
-283.530	46.015	0.174	-0.159
-282.516	800.000	-0.056	-0.158
-281.501	800.000	0.085	-0.358
-280.486	16.999	0.094	0.074
-279.472	-137.910	0.357	0.039
-278.457	-61.610	0.312	-0.129
-277.443	-86.292	-0.165	0.050
-276.428	-78.063	-0.202	0.069
-275.413	800.000	-0.062	-0.180
-274.399	800.000	-0.119	-0.385
-273.384	-134.914	-0.148	-0.018
-272.370	58.163	0.260	0.251
-271.355	326.578	-0.130	-0.246
-270.340	-135.436	0.274	-0.032
-269.326	-200.000	-0.015	0.109
-268.311	5.774	-0.166	0.121
-267.297	599.586	-0.130	0.318
-266.282	-200.000	0.012	0.492
-265.267	800.000	0.043	-0.128
-264.253	-33.103	0.494	0.270
-263.238	-144.063	-0.124	-0.011
-262.224	764.852	0.064	0.173
-261.209	74.760	0.311	0.323
-260.195	-39.361	0.255	-0.132
-259.180	-200.000	-0.007	0.186
-258.165	-163.410	0.251	-0.012
-257.151	-59.403	-0.182	-0.077
-256.136	544.550	0.056	0.132
-255.122	-82.942	-0.093	0.029
-254.107	138.010	-0.044	-0.057
-253.092	50.910	0.157	-0.146
-252.078	-7.286	-0.277	0.185
-251.063	-30.244	-0.122	-0.068
-250.049	258.695	0.251	-0.427
-249.034	473.763	0.031	-0.069
-248.019	-200.000	0.048	-0.301
-247.005	201.552	-0.084	0.128
-245.990	-200.000	-0.058	0.271
-244.976	-90.471	0.099	0.028
-243.961	146.142	0.067	-0.089
-242.946	-200.000	-0.036	0.188
-241.932	800.000	-0.105	-0.345
-240.917	-35.736	0.237	-0.126
-239.903	118.687	-0.244	-0.297
-238.888	27.978	-0.272	0.226
-237.873	-34.732	-0.346	0.187
-236.859	-200.000	0.004	0.113
-235.844	237.432	-0.128	-0.208
-234.830	127.240	0.092	-0.115
-233.815	-200.000	-0.013	-0.284
-232.800	-83.121	0.191	-0.061
-231.786	800.000	-0.031	-0.117
-230.771	344.663	-0.152	0.293
-229.757	413.092	0.221	0.463
-228.742	-200.000	-0.014	-0.105
-227.727	534.524	-0.106	0.247
-226.713	56.733	0.158	0.152
-225.698	460.189	-0.064	-0.139
-224.684	55.926	-0.035	-0.033
-223.669	472.646	-0.110	0.243
-222.655	-130.527	-0.233	0.031
-221.640	-8.180	-0.156	0.104
-220.625	-76.290	0.166	0.058
-219.611	-200.000	0.003	0.212
-218.596	800.000	0.028	0.085
-217.582	-71.598	-0.381	0.140
-216.567	-200.000	0.021	-0.165
-215.552	-200.000	0.032	-0.239
-214.538	167.482	0.087	-0.122
-213.523	-200.000	-0.057	0.310
-212.509	-200.000	-0.025	-0.113
-211.494	121.791	0.115	0.141
-210.479	-23.874	-0.163	0.096
-209.465	11.907	0.291	0.220
-208.450	-35.417	0.041	-0.022
-207.436	38.090	0.132	0.116
-206.421	-99.950	0.277	-0.068
-205.406	-200.000	0.000	-0.157
-204.392	-87.597	0.217	-0.065
-203.377	-12.970	-0.080	-0.051
-202.363	-200.000	-0.034	-0.160
-201.348	-128.356	0.139	0.019
-200.333	124.294	-0.128	0.158
-199.319	-200.000	-0.015	-0.111
-198.304	-21.875	0.055	-0.033
-197.290	-147.061	-0.356	0.030
-196.275	-43.412	0.133	0.066
-195.260	143.892	0.076	0.100
-194.246	130.940	-0.109	-0.138
-193.231	342.591	-0.052	0.100
-192.217	-200.000	0.008	0.052
-191.202	46.500	0.069	0.063
-190.187	-24.771	0.426	-0.249
-189.173	200.749	0.175	0.265
-188.158	800.000	-0.016	-0.045
-187.144	-57.356	0.124	0.054
-186.129	-200.000	0.035	0.336
-185.114	544.074	-0.143	0.336
-184.100	377.868	0.174	0.351
-183.085	-60.608	0.224	0.094
-182.071	-200.000	0.038	-0.337
-181.056	-200.000	-0.003	-0.109
-180.042	-167.904	-0.285	-0.011
-179.027	-200.000	0.020	-0.129
-178.012	-100.047	0.430	-0.105
-176.998	-200.000	-0.002	-0.440
-175.983	-200.000	-0.014	-0.333
-174.969	-200.000	0.026	-0.222
-173.954	-177.206	0.117	-0.003
-172.939	-135.405	0.232	-0.027
-171.925	-122.880	-0.295	0.047
-170.910	62.177	0.242	0.238
-169.896	-38.036	-0.206	-0.107
-168.881	-59.345	0.304	-0.128
-167.866	-47.038	-0.078	0.037
-166.852	-20.251	-0.078	0.048
-165.837	-71.835	0.214	0.078
-164.823	-14.505	0.188	0.119
-163.808	-124.004	-0.273	-0.042
-162.793	-127.791	-0.261	0.037
-161.779	19.778	0.323	0.255
-160.764	349.082	-0.093	-0.180
-159.750	330.274	-0.126	0.238
-158.735	162.720	0.144	-0.199
-157.720	-157.780	-0.344	-0.020
-156.706	-200.000	-0.047	0.218
-155.691	-200.000	-0.026	0.175
-154.677	800.000	-0.021	-0.062
-153.662	242.607	-0.140	0.230
-152.647	-69.778	0.411	0.154
-151.633	155.967	-0.208	-0.282
-150.618	69.520	0.289	0.293
-149.604	-200.000	0.267	-0.001
-148.589	-151.396	-0.042	-0.003
-147.574	53.717	-0.117	0.110
-146.560	800.000	-0.101	0.284
-145.545	13.373	0.132	0.101
-144.531	-119.522	-0.299	0.051
-143.516	81.835	0.284	0.302
-142.502	-148.137	-0.297	-0.024
-141.487	-148.877	0.054	0.004
-140.472	41.874	-0.049	0.043
-139.458	-200.000	0.031	0.136
-138.443	-121.891	-0.033	-0.005
-137.429	-118.770	0.104	-0.018
-136.414	-82.227	0.087	-0.028
-135.399	211.866	0.142	0.219
-134.385	-200.000	-0.030	0.195
-133.370	-25.855	-0.326	0.188
-132.356	-75.021	0.263	0.092
-131.341	-77.737	0.072	0.025
-130.326	520.893	0.069	0.159
-129.312	-200.000	-0.020	-0.272
-128.297	-200.000	-0.000	-0.024
-127.283	193.788	-0.102	0.152
-126.268	127.655	0.041	0.051
-125.253	598.548	-0.066	-0.160
-124.239	-23.171	0.212	0.125
-123.224	462.434	-0.042	-0.092
