DTS Sentinel unit serial number:	SN413079Multiplexer serial number:	ORYXHardware model number:	OX4-SRSoftware version number:	ORYX F/W v4.00 Oryx Data Collector v3.7.2.0data status	okinstallation	princeton_trtdifferential loss correction	single-endedforward channel	channel 4reverse channel	N/Adate	2019/09/12time	14:39:11forward acquisition time	60.00reverse acquisition time	0.00gamma	496.2192k internal	0.2291k external	0.2291temperature offset calibration	1.0084default loss term (dB/km)	0.3790temperature slope calibration	1.0000multiplexer offset coefficient	1.0000multiplexer slope coefficient	1.0000fibre end	0.00T internal ref (°C)	40.12T ext. ref 1 (°C)	2.28T ext. ref 2 (°C)	36.79length (m)	temperature (°C)	Stokes	anti-Stokes-747.200	-132.656	0.200	-0.026
-746.185	-39.380	-0.226	0.122
-745.171	324.795	0.195	0.381
-744.156	567.553	0.175	0.436
-743.142	6.625	0.221	-0.168
-742.127	-66.551	-0.159	0.065
-741.112	-161.484	0.031	0.002
-740.098	-200.000	0.050	0.432
-739.083	150.816	0.172	0.240
-738.069	800.000	-0.134	0.433
-737.054	-136.519	0.138	-0.016
-736.039	-151.141	0.093	-0.007
-735.025	-165.699	0.241	0.011
-734.010	800.000	-0.075	-0.236
-732.996	-18.154	-0.285	-0.182
-731.981	-58.057	0.124	0.055
-730.966	43.082	-0.342	-0.320
-729.952	466.420	0.133	0.304
-728.937	-41.200	-0.236	-0.125
-727.923	205.564	-0.150	0.239
-726.908	800.000	0.062	-0.207
-725.894	800.000	0.104	-0.394
-724.879	50.761	0.175	-0.169
-723.864	45.999	-0.193	-0.182
-722.850	-152.218	0.158	0.012
-721.835	-29.220	0.254	0.149
-720.821	296.218	0.099	0.186
-719.806	-120.378	0.256	-0.045
-718.791	-49.683	-0.225	-0.110
-717.777	-161.250	0.259	0.014
-716.762	84.494	0.224	0.251
-715.748	-115.615	0.356	0.068
-714.733	61.255	-0.164	-0.167
-713.718	-68.913	0.087	-0.034
-712.704	-165.703	-0.362	-0.016
-711.689	132.404	0.128	0.169
-710.675	-200.000	0.005	-0.179
-709.660	-124.212	0.359	-0.058
-708.645	71.807	0.183	0.195
-707.631	800.000	0.124	-0.444
-706.616	5.131	-0.200	-0.151
-705.602	-200.000	0.103	-0.539
-704.587	442.106	-0.124	-0.276
-703.572	-120.983	0.216	0.037
-702.558	521.657	0.141	0.338
-701.543	229.268	-0.082	0.137
-700.529	-65.863	0.074	-0.030
-699.514	-166.070	0.135	0.006
-698.499	800.000	-0.055	-0.175
-697.485	-10.162	0.315	-0.214
-696.470	60.319	0.070	-0.071
-695.456	800.000	0.093	-0.394
-694.441	-200.000	-0.078	-0.357
-693.426	742.873	-0.020	0.054
-692.412	-139.426	0.294	-0.032
-691.397	-26.078	-0.247	0.148
-690.383	219.876	0.110	0.181
-689.368	456.598	-0.142	-0.322
-688.354	243.691	-0.041	0.071
-687.339	587.779	-0.156	0.392
-686.324	169.145	-0.242	0.353
-685.310	-110.240	0.261	-0.056
-684.295	96.218	0.236	0.276
-683.281	205.669	0.098	-0.155
-682.266	66.442	-0.204	0.212
-681.251	-110.711	-0.481	0.102
-680.237	-162.797	0.116	-0.006
-679.222	-150.324	0.095	-0.007
-678.208	-175.743	0.442	0.012
-677.193	441.858	0.159	-0.357
-676.178	174.309	-0.071	0.106
-675.164	481.664	-0.141	0.326
-674.149	800.000	-0.063	0.187
-673.135	89.270	-0.214	-0.244
-672.120	-5.534	0.302	0.212
-671.105	-102.263	-0.211	0.052
-670.091	-200.000	0.025	-0.260
-669.076	-81.744	0.063	-0.021
-668.062	70.734	0.128	0.135
-667.047	-179.022	0.108	0.002
-666.032	460.123	-0.040	-0.092
-665.018	800.000	0.086	-0.248
-664.003	10.884	0.296	-0.231
-662.989	800.000	-0.117	-0.399
-661.974	356.350	0.074	-0.150
-660.959	-200.000	-0.045	-0.360
-659.945	-140.630	0.100	-0.011
-658.930	-200.000	0.028	-0.243
-657.916	69.250	-0.163	0.171
-656.901	800.000	-0.055	0.162
-655.886	112.259	-0.153	-0.188
-654.872	149.460	0.227	0.313
-653.857	736.471	0.158	-0.432
-652.843	-200.000	0.003	-0.250
-651.828	-98.141	-0.291	-0.076
-650.814	-200.000	0.036	-0.178
-649.799	17.617	-0.280	0.227
-648.784	800.000	-0.021	-0.067
-647.770	800.000	0.064	-0.271
-646.755	800.000	-0.052	0.150
-645.741	-200.000	-0.014	-0.185
-644.726	-78.868	-0.188	0.065
-643.711	59.584	-0.225	-0.227
-642.697	-71.938	-0.028	0.011
-641.682	-200.000	-0.044	-0.278
-640.668	139.801	0.218	0.293
-639.653	-62.626	-0.139	0.059
-638.638	-57.369	0.524	-0.235
-637.624	123.487	-0.191	-0.245
-636.609	-200.000	-0.031	-0.374
-635.595	-200.000	-0.027	-0.406
-634.580	266.864	-0.198	-0.353
-633.565	-22.738	-0.088	-0.054
-632.551	203.564	-0.207	-0.326
-631.536	-36.415	-0.107	-0.059
-630.522	-58.223	-0.107	-0.047
-629.507	-133.242	-0.406	0.052
-628.492	-59.830	-0.144	0.063
-627.478	34.682	0.164	-0.146
-626.463	-93.159	-0.302	0.085
-625.449	518.805	-0.020	0.049
-624.434	-82.640	-0.146	-0.048
-623.419	-190.570	-0.218	-0.002
-622.405	-103.917	-0.187	0.045
-621.390	800.000	-0.051	0.150
-620.376	271.930	0.143	0.257
-619.361	800.000	0.022	0.082
-618.346	139.826	0.190	0.255
-617.332	-200.000	0.023	-0.131
-616.317	800.000	-0.082	0.252
-615.303	-36.796	-0.181	0.099
-614.288	-91.596	-0.256	-0.074
-613.273	116.071	-0.137	-0.171
-612.259	800.000	-0.071	-0.202
-611.244	341.153	-0.138	-0.274
-610.230	-93.366	-0.512	-0.145
-609.215	-71.637	-0.263	0.100
-608.201	165.377	-0.065	0.093
-607.186	-200.000	-0.053	-0.242
-606.171	-200.000	-0.019	-0.106
-605.157	-106.612	0.131	0.030
-604.142	-200.000	-0.010	0.127
-603.128	-5.494	0.232	-0.162
-602.113	192.061	-0.021	-0.032
-601.098	15.778	0.108	-0.086
-600.084	-49.614	0.431	0.209
-599.069	25.480	-0.106	-0.089
-598.055	-200.000	0.082	0.381
-597.040	129.676	-0.136	0.176
-596.025	800.000	0.017	-0.055
-595.011	-51.462	-0.195	-0.093
-593.996	184.411	-0.038	-0.058
-592.982	-33.887	0.351	0.197
-591.967	-76.744	-0.231	-0.082
-590.952	84.390	-0.005	0.005
-589.938	-45.291	0.359	-0.182
-588.923	12.438	0.091	0.071
-587.909	-39.563	0.091	-0.049
-586.894	-114.448	0.198	0.039
-585.879	148.602	-0.067	-0.092
-584.865	33.950	-0.236	0.209
-583.850	55.776	0.142	0.140
-582.836	-200.000	-0.009	0.164
-581.821	72.546	0.146	-0.155
-580.806	-200.000	0.023	0.225
-579.792	574.173	0.016	0.040
-578.777	281.961	-0.173	0.316
-577.763	75.415	0.252	0.270
-576.748	-200.000	0.003	-0.221
-575.733	453.811	0.051	0.114
-574.719	476.494	-0.114	-0.263
-573.704	-94.085	-0.312	-0.087
-572.690	-200.000	-0.031	0.235
-571.675	800.000	0.143	-0.443
-570.661	46.392	-0.091	-0.086
-569.646	-200.000	-0.027	0.283
-568.631	-200.000	0.045	-0.410
-567.617	-110.518	0.250	0.053
-566.602	-200.000	-0.014	0.116
-565.588	-161.702	0.262	0.014
-564.573	474.995	0.143	0.328
-563.558	94.248	-0.153	0.177
-562.544	531.215	0.031	-0.075
-561.529	237.047	-0.097	0.163
-560.515	800.000	-0.051	-0.146
-559.500	162.513	-0.141	0.201
-558.485	758.541	-0.087	-0.241
-557.471	158.914	-0.162	-0.229
-556.456	800.000	-0.028	-0.100
-555.442	800.000	0.093	-0.375
-554.427	-200.000	0.028	0.191
-553.412	-99.876	0.382	-0.097
-552.398	-52.488	0.132	-0.062
-551.383	165.243	-0.084	-0.121
-550.369	98.709	-0.202	-0.237
-549.354	311.019	-0.149	-0.283
-548.339	62.252	-0.020	-0.021
-547.325	-200.000	-0.020	0.098
-546.310	-107.921	0.184	-0.041
-545.296	49.910	0.258	-0.247
-544.281	-200.000	-0.009	0.243
-543.266	-136.414	-0.374	-0.044
-542.252	-181.639	-0.300	0.006
-541.237	-134.851	-0.225	-0.028
-540.223	800.000	-0.065	0.270
-539.208	-166.047	-0.150	0.006
-538.193	800.000	-0.053	-0.162
-537.179	-200.000	-0.011	-0.109
-536.164	375.712	-0.032	0.066
-535.150	-43.884	-0.252	-0.129
-534.135	236.377	-0.048	-0.081
-533.121	237.205	0.330	0.555
-532.106	-39.727	0.354	0.188
-531.091	753.561	-0.059	0.162
-530.077	-200.000	0.070	0.318
-529.062	277.331	0.170	-0.308
-528.048	-49.603	-0.282	0.136
-527.033	800.000	-0.091	0.348
-526.018	28.808	0.183	-0.157
-525.004	0.682	0.140	-0.101
-523.989	38.450	-0.441	-0.399
-522.975	-44.451	0.061	-0.031
-521.960	-200.000	0.004	-0.223
-520.945	-199.885	-0.081	0.000
-519.931	800.000	0.087	-0.263
-518.916	-15.749	0.291	-0.188
-517.902	42.533	0.098	-0.091
-516.887	800.000	-0.063	-0.211
-515.872	41.564	-0.098	0.090
-514.858	-7.779	0.479	0.328
-513.843	-24.090	0.185	0.112
-512.829	-173.837	0.115	-0.003
-511.814	440.104	0.052	0.115
-510.799	297.983	0.205	-0.381
-509.785	388.510	0.090	-0.188
-508.770	16.590	0.025	-0.020
-507.756	126.751	-0.163	0.209
-506.741	17.103	0.149	-0.120
-505.726	83.965	0.136	0.151
-504.712	-200.000	0.022	0.130
-503.697	287.738	-0.148	-0.271
-502.683	-160.905	-0.052	0.003
-501.668	-200.000	-0.013	0.217
-500.653	464.301	-0.156	-0.353
-499.639	-200.000	-0.083	-0.473
-498.624	-36.465	0.051	-0.028
-497.610	-47.799	0.440	0.216
-496.595	241.025	-0.161	-0.273
-495.581	-154.823	-0.165	0.011
-494.566	-200.000	0.019	-0.324
-493.551	800.000	0.068	-0.215
-492.537	561.588	0.134	-0.328
-491.522	51.754	0.054	0.052
-490.508	-12.116	-0.068	0.045
-489.493	-200.000	-0.102	-0.000
-488.478	214.780	-0.214	0.344
-487.464	218.236	0.224	0.363
-486.449	-152.921	-0.168	-0.012
-485.435	800.000	-0.086	-0.345
-484.420	655.668	-0.012	0.032
-483.405	125.045	0.204	-0.261
-482.391	-106.806	-0.196	0.044
-481.376	800.000	-0.113	0.344
-480.362	124.153	-0.078	-0.099
-479.347	193.630	-0.015	-0.023
-478.332	-166.576	0.238	0.010
-477.318	123.928	-0.083	-0.106
-476.303	-200.000	0.008	-0.053
-475.289	-28.089	0.267	0.156
-474.274	400.707	-0.167	-0.355
-473.259	-200.000	-0.021	0.188
-472.245	117.937	-0.091	0.114
-471.230	-21.323	0.063	0.039
-470.216	-98.397	0.467	0.121
-469.201	185.307	0.057	-0.085
-468.186	14.448	-0.057	-0.045
-467.172	-83.811	-0.159	-0.051
-466.157	-38.407	0.292	-0.156
-465.143	800.000	-0.067	-0.195
-464.128	69.215	-0.207	-0.216
-463.113	321.206	-0.080	-0.154
-462.099	-200.000	-0.004	-0.029
-461.084	68.732	-0.029	0.030
-460.070	-200.000	0.012	0.087
-459.055	800.000	-0.031	-0.118
-458.040	-200.000	-0.040	0.190
-457.026	-179.934	-0.350	-0.008
-456.011	207.980	0.117	0.185
-454.997	-200.000	-0.025	-0.176
-453.982	-200.000	-0.027	0.346
-452.968	20.692	-0.205	-0.168
-451.953	-129.496	-0.164	-0.023
-450.938	270.486	0.187	-0.334
-449.924	-200.000	-0.045	-0.402
-448.909	281.314	-0.211	-0.383
-447.895	525.151	0.093	-0.221
-446.880	257.718	0.004	-0.007
-445.865	-100.357	-0.035	0.009
-444.851	37.065	0.280	0.251
-443.836	98.214	0.189	-0.221
-442.822	800.000	-0.114	0.389
-441.807	200.846	-0.100	-0.156
-440.792	-49.877	-0.237	-0.114
-439.778	453.967	-0.103	0.231
-438.763	-200.000	-0.006	-0.116
-437.749	67.063	-0.132	0.136
-436.734	447.020	-0.058	-0.130
-435.719	-200.000	-0.046	-0.361
-434.705	-185.370	0.275	0.004
-433.690	-193.920	-0.057	-0.000
-432.676	21.732	0.244	-0.201
-431.661	115.272	-0.161	0.199
-430.646	41.997	0.093	-0.086
-429.632	419.322	0.108	-0.233
-428.617	-112.219	-0.194	-0.039
-427.603	-23.133	0.126	0.077
-426.588	-123.442	-0.275	-0.044
-425.573	-81.518	0.315	0.105
-424.559	-77.865	-0.186	0.065
-423.544	-97.425	-0.133	-0.035
-422.530	800.000	-0.028	-0.122
-421.515	88.822	0.088	0.099
-420.500	-37.563	0.325	-0.175
-419.486	-24.179	0.033	0.020
-418.471	-108.660	-0.347	-0.075
-417.457	4.975	-0.167	-0.124
-416.442	50.815	0.084	0.080
-415.428	227.793	-0.169	0.278
-414.413	363.755	-0.182	0.369
-413.398	265.815	0.096	0.169
-412.384	-182.722	-0.120	0.002
-411.369	-167.532	-0.115	-0.005
-410.355	76.223	0.040	0.043
-409.340	335.373	-0.096	0.189
-408.325	299.182	0.098	0.182
-407.311	728.977	-0.111	0.301
-406.296	-89.717	-0.270	0.080
-405.282	294.411	-0.150	-0.277
-404.267	-76.958	-0.182	0.064
-403.252	7.946	0.258	0.196
-402.238	-8.916	0.115	-0.078
-401.223	-78.174	-0.064	0.022
-400.209	-87.187	0.508	0.156
-399.194	182.100	-0.120	-0.178
-398.179	56.600	0.309	-0.304
-397.165	-141.583	0.226	-0.023
-396.150	136.476	-0.081	0.107
-395.136	-110.597	-0.121	-0.025
-394.121	522.982	0.063	-0.150
-393.106	-173.419	0.183	0.006
-392.092	-22.581	-0.222	0.135
-391.077	-163.130	-0.135	-0.007
-390.063	-94.398	-0.185	0.051
-389.048	264.187	0.168	0.295
-388.033	-97.435	0.330	-0.087
-387.019	275.969	-0.093	0.167
-386.004	-101.270	-0.193	-0.048
-384.990	498.410	-0.085	0.199
-383.975	-200.000	-0.035	0.222
-382.960	800.000	-0.054	0.206
-381.946	155.036	-0.100	-0.139
-380.931	-1.840	-0.198	0.141
-379.917	-82.985	0.284	-0.093
-378.902	755.042	-0.176	0.482
-377.888	-39.885	0.466	0.245
-376.873	264.311	-0.219	-0.384
-375.858	-200.000	-0.013	0.144
-374.844	26.340	0.058	-0.049
-373.829	149.193	0.061	-0.084
-372.815	11.598	-0.262	-0.203
-371.800	-200.000	-0.013	0.198
-370.785	46.278	0.166	-0.156
-369.771	-200.000	0.034	0.241
-368.756	1.461	-0.242	-0.176
-367.742	-69.825	0.127	-0.049
-366.727	44.692	0.027	0.025
-365.712	145.632	-0.090	0.122
-364.698	-181.087	0.105	-0.002
-363.683	205.992	0.115	0.180
-362.669	-109.896	-0.239	-0.051
-361.654	732.453	-0.080	-0.217
-360.639	-157.263	0.098	-0.006
-359.625	-106.662	-0.124	0.028
-358.610	-141.569	0.265	-0.027
-357.596	-22.377	-0.122	-0.075
-356.581	37.684	-0.152	-0.136
-355.566	-109.759	0.198	0.042
-354.552	41.867	-0.315	0.288
-353.537	800.000	0.025	-0.111
-352.523	57.806	-0.169	0.167
-351.508	748.270	-0.088	0.240
-350.493	-91.516	0.313	0.090
-349.479	-200.000	0.008	-0.251
-348.464	707.153	0.180	-0.480
-347.450	-87.440	-0.254	-0.077
-346.435	-200.000	-0.005	0.176
-345.420	-177.442	0.372	-0.009
-344.406	-68.357	-0.053	-0.021
-343.391	-178.696	0.072	-0.002
-342.377	73.591	-0.209	0.221
-341.362	-200.000	0.079	-0.350
-340.348	-200.000	-0.010	-0.342
-339.333	34.240	-0.105	0.092
-338.318	-150.724	-0.200	-0.015
-337.304	63.460	0.241	0.244
-336.289	-97.610	0.273	-0.071
-335.275	75.109	0.098	0.104
-334.260	77.582	0.034	0.037
-333.245	17.975	0.080	0.065
-332.231	-32.103	0.179	0.101
-331.216	-200.000	0.069	0.442
-330.202	800.000	-0.049	-0.183
-329.187	-200.000	-0.022	0.101
-328.172	10.043	-0.226	0.173
-327.158	274.829	0.191	-0.341
-326.143	-124.600	0.183	0.029
-325.129	115.975	-0.231	0.285
-324.114	84.542	-0.278	0.306
-323.099	148.673	0.097	-0.132
-322.085	-56.517	0.206	-0.092
-321.070	-114.720	0.234	-0.045
-320.056	687.125	0.080	0.210
-319.041	157.178	-0.201	0.279
-318.026	188.732	-0.012	0.019
-317.012	-80.709	0.256	0.086
-315.997	-200.000	-0.023	-0.136
-314.983	800.000	0.085	0.288
-313.968	126.318	0.114	0.145
-312.953	323.595	-0.152	-0.292
-311.939	157.038	0.119	0.166
-310.924	35.869	0.233	-0.206
-309.910	800.000	0.036	0.118
-308.895	157.024	0.071	-0.099
-307.880	95.005	-0.261	-0.299
-306.866	133.743	-0.160	0.209
-305.851	-200.000	-0.019	0.110
-304.837	165.232	-0.067	-0.095
-303.822	-16.905	0.195	0.124
-302.807	96.164	-0.087	-0.100
-301.793	-200.000	-0.006	-0.100
-300.778	60.014	0.096	-0.096
-299.764	696.787	-0.129	-0.341
-298.749	141.787	-0.188	-0.250
-297.735	-98.757	0.210	0.054
-296.720	-28.300	-0.118	0.068
-295.705	-171.417	0.191	-0.006
-294.691	215.902	0.184	0.295
-293.676	75.852	-0.118	0.126
-292.662	128.170	0.131	0.167
-291.647	-41.008	0.334	0.174
-290.632	-200.000	-0.003	0.291
-289.618	23.768	-0.060	-0.049
-288.603	-133.647	0.166	-0.021
-287.589	-200.000	0.066	-0.332
-286.574	7.693	-0.332	-0.250
-285.559	-157.383	-0.223	-0.014
-284.545	-16.144	-0.194	0.124
-283.530	-124.361	0.293	0.046
-282.516	77.420	0.348	0.372
-281.501	106.394	-0.113	-0.134
-280.486	127.180	-0.168	0.214
-279.472	-56.091	-0.372	0.167
-278.457	-107.359	0.073	0.016
-277.443	-49.313	0.216	-0.104
-276.428	-200.000	0.073	-0.353
-275.413	58.255	0.079	-0.077
-274.399	159.599	0.044	-0.062
-273.384	-168.931	0.064	-0.002
-272.370	238.497	-0.200	-0.333
-271.355	-82.852	0.189	-0.061
-270.340	-66.978	0.134	0.053
-269.326	800.000	0.033	-0.104
-268.311	395.061	0.143	0.299
-267.297	730.305	-0.028	-0.075
-266.282	-41.266	0.288	-0.149
-265.267	-33.856	-0.150	0.083
-264.253	-133.439	0.094	-0.012
-263.238	-28.010	0.218	0.127
-262.224	313.066	-0.136	-0.257
-261.209	67.746	-0.094	-0.097
-260.195	-48.926	0.225	0.108
-259.180	140.269	0.133	-0.176
-258.165	800.000	-0.047	0.157
-257.151	382.084	0.133	-0.274
-256.136	-0.906	-0.354	0.252
-255.122	800.000	-0.031	0.129
-254.107	4.308	-0.162	-0.119
-253.092	-18.918	-0.205	0.128
-252.078	312.214	0.090	0.170
-251.063	114.709	0.258	0.316
-250.049	167.445	0.276	0.393
-249.034	-150.096	0.302	0.024
-248.019	-164.184	0.380	0.018
-247.005	355.095	0.168	0.336
-245.990	74.706	0.178	0.188
-244.976	48.805	-0.304	-0.287
-243.961	146.910	0.250	0.338
-242.946	-51.895	0.100	0.047
-241.932	-15.254	-0.061	0.039
-240.917	103.833	0.114	0.134
-239.903	-67.215	-0.042	-0.016
-238.888	-149.802	0.088	0.007
-237.873	81.240	-0.145	0.157
-236.859	297.632	-0.129	0.237
-235.844	-200.000	-0.003	-0.199
-234.830	-200.000	-0.002	0.129
-233.815	-111.922	-0.236	-0.048
-232.800	-29.800	-0.203	0.116
-231.786	-152.267	0.313	-0.023
-230.771	84.184	0.156	0.171
-229.757	-101.311	0.229	-0.056
-228.742	26.120	-0.166	0.139
-227.727	-200.000	-0.066	-0.294
-226.713	800.000	-0.057	-0.212
-225.698	139.155	-0.084	-0.111
-224.684	800.000	0.033	0.132
-223.669	-170.703	0.265	0.009
-222.655	418.257	0.158	0.338
-221.640	-3.192	0.274	-0.192
-220.625	-200.000	-0.026	-0.152
-219.611	-87.270	0.308	0.094
-218.596	-47.041	-0.212	0.104
-217.582	108.634	-0.241	0.288
-216.567	-52.351	-0.287	-0.133
-215.552	-200.000	0.020	0.161
-214.538	72.175	0.058	-0.061
-213.523	122.031	0.108	-0.135
-212.509	192.792	0.074	-0.112
-211.494	800.000	-0.013	0.046
-210.479	-65.233	-0.109	0.044
-209.465	340.516	-0.207	0.405
-208.450	-87.034	0.180	0.055
-207.436	-90.722	0.152	-0.044
-206.421	-200.000	-0.043	-0.232
-205.406	-200.000	-0.018	-0.122
-204.392	-48.618	-0.220	-0.106
-203.377	182.665	-0.110	-0.163
-202.363	-187.429	-0.328	0.004
-201.348	317.723	-0.094	0.178
-200.333	61.285	0.177	-0.176
-199.319	316.738	-0.198	0.374
-198.304	190.217	0.230	0.347
-197.290	-30.786	-0.239	-0.135
-196.275	-181.173	-0.266	0.005
-195.260	800.000	0.091	0.373
-194.246	-103.898	0.151	0.035
-193.231	-173.650	-0.179	-0.005
-192.217	-200.000	0.026	-0.186
-191.202	779.701	0.041	0.112
-190.187	101.046	0.361	0.421
-189.173	-159.966	-0.403	0.022
-188.158	240.969	0.091	-0.152
-187.144	800.000	-0.026	-0.093
-186.129	-10.718	-0.104	-0.069
-185.114	-168.476	0.123	0.005
-184.100	-50.420	0.083	-0.039
-183.085	-91.531	0.470	0.134
-182.071	-109.430	-0.145	-0.031
-181.056	-26.858	0.293	-0.172
-180.042	-200.000	-0.049	-0.000
-179.027	-200.000	0.007	-0.123
-178.012	800.000	-0.106	0.306
-176.998	800.000	-0.148	-0.500
-175.983	-151.205	0.224	-0.017
-174.969	-102.229	-0.277	0.067
-173.954	-64.240	-0.058	0.024
-172.939	-41.186	-0.148	-0.076
-171.925	-92.562	-0.103	-0.029
-170.910	657.444	0.038	0.097
-169.896	-61.380	0.058	-0.024
-168.881	-152.675	0.112	0.008
-167.866	514.959	0.027	0.064
-166.852	69.123	0.144	-0.148
-165.837	-85.128	-0.246	0.077
-164.823	-90.816	0.192	0.055
-163.808	299.508	0.093	-0.171
-162.793	-115.424	-0.188	0.036
-161.779	-200.000	-0.021	0.230
-160.764	-200.000	-0.039	0.274
-159.750	-158.337	0.197	-0.011
-158.735	350.504	-0.032	0.063
-157.720	-29.266	-0.155	-0.089
-156.706	-120.405	-0.269	0.046
-155.691	-200.000	-0.016	-0.169
-154.677	-13.829	0.369	0.238
-153.662	-58.447	0.245	0.107
-152.647	-200.000	-0.032	-0.235
-151.633	167.690	0.094	0.133
-150.618	-41.161	-0.262	0.135
-149.604	800.000	-0.086	0.246
-148.589	-76.469	-0.206	-0.072
-147.574	-90.695	0.176	-0.051
-146.560	625.314	-0.040	-0.100
-145.545	211.546	-0.079	-0.124
-144.531	-48.749	0.353	-0.169
-143.516	185.127	-0.079	0.117
-142.502	800.000	0.049	-0.158
-141.487	-200.000	0.009	0.146
-140.472	227.670	0.172	-0.280
-139.458	561.321	0.160	-0.387
-138.443	-200.000	-0.004	0.067
-137.429	-47.145	-0.261	-0.127
-136.414	-200.000	-0.044	0.295
-135.399	775.841	-0.073	-0.198
-134.385	-200.000	-0.001	0.348
-133.370	-68.570	0.183	0.071
-132.356	144.309	0.149	0.199
-131.341	-103.511	0.052	-0.012
-130.326	95.915	-0.091	0.103
-129.312	538.883	-0.228	0.543
-128.297	-59.598	0.341	-0.146
-127.283	132.156	0.162	0.208
-126.268	29.086	0.131	-0.111
-125.253	-16.455	0.144	-0.091
-124.239	-143.258	0.190	-0.018
-123.224	240.306	-0.090	0.150
-122.210	173.952	0.211	0.305
