DTS Sentinel unit serial number:	SN413079Multiplexer serial number:	ORYXHardware model number:	OX4-SRSoftware version number:	ORYX F/W v4.00 Oryx Data Collector v3.7.2.0data status	okinstallation	princeton_trtdifferential loss correction	single-endedforward channel	channel 4reverse channel	N/Adate	2019/09/18time	14:57:35forward acquisition time	60.00reverse acquisition time	0.00gamma	496.2192k internal	0.2299k external	0.2299temperature offset calibration	1.0003default loss term (dB/km)	0.3790temperature slope calibration	1.0000multiplexer offset coefficient	1.0000multiplexer slope coefficient	1.0000fibre end	0.00T internal ref (°C)	35.19T ext. ref 1 (°C)	0.72T ext. ref 2 (°C)	29.95length (m)	temperature (°C)	Stokes	anti-Stokes-747.200	43.155	0.102	0.095
-746.185	-200.000	-0.027	0.254
-745.171	-200.000	0.027	-0.203
-744.156	-95.530	-0.146	0.040
-743.142	134.676	0.111	0.147
-742.127	-35.778	-0.249	0.138
-741.112	-200.000	-0.012	-0.272
-740.098	-160.667	-0.242	-0.013
-739.083	-5.122	-0.203	-0.142
-738.069	-170.188	0.180	0.006
-737.054	-200.000	0.014	-0.314
-736.039	-88.029	-0.250	0.077
-735.025	-61.194	0.220	0.095
-734.010	-29.763	-0.358	0.208
-732.996	-10.612	0.144	-0.097
-731.981	-86.114	-0.348	-0.110
-730.966	-15.850	0.162	0.105
-729.952	-101.165	-0.267	-0.067
-728.937	-10.084	-0.143	-0.097
-727.923	-7.186	0.223	0.154
-726.908	-200.000	0.005	-0.228
-725.894	11.842	-0.154	0.120
-724.879	-57.912	-0.260	0.116
-723.864	-78.443	0.105	-0.037
-722.850	-72.446	-0.218	0.082
-721.835	-77.612	-0.213	-0.075
-720.821	601.183	-0.106	-0.269
-719.806	-163.825	0.023	-0.001
-718.791	148.239	-0.250	-0.344
-717.777	-200.000	0.025	-0.215
-716.762	-136.805	-0.113	0.013
-715.748	-122.098	0.097	0.016
-714.733	250.881	-0.175	-0.303
-713.718	12.004	0.375	0.294
-712.704	82.801	0.055	0.061
-711.689	-121.707	-0.341	0.058
-710.675	-135.745	0.169	-0.020
-709.660	204.194	-0.244	-0.386
-708.645	-162.034	-0.132	-0.007
-707.631	17.706	0.238	0.193
-706.616	-121.123	0.073	0.012
-705.602	86.100	0.113	0.127
-704.587	800.000	-0.185	0.534
-703.572	6.530	-0.204	-0.154
-702.558	-81.823	0.242	0.081
-701.543	216.223	0.074	-0.119
-700.529	-200.000	-0.093	0.429
-699.514	800.000	0.082	-0.302
-698.499	-139.816	-0.331	-0.036
-697.485	5.975	0.289	-0.218
-696.470	-175.798	-0.226	-0.006
-695.456	152.913	0.121	-0.169
-694.441	-128.117	-0.107	0.016
-693.426	129.600	-0.117	0.152
-692.412	-8.228	-0.057	0.039
-691.397	-115.258	-0.153	0.030
-690.383	-95.253	-0.210	-0.058
-689.368	-38.554	0.344	0.185
-688.354	-125.545	0.180	0.028
-687.339	-47.276	0.014	0.007
-686.324	-200.000	0.018	-0.301
-685.310	59.177	0.157	-0.157
-684.295	800.000	-0.087	-0.297
-683.281	-200.000	0.040	-0.229
-682.266	-200.000	-0.039	0.217
-681.251	28.381	-0.127	-0.109
-680.237	-200.000	0.030	0.305
-679.222	-154.072	-0.398	-0.028
-678.208	-200.000	-0.009	0.180
-677.193	-52.958	0.149	0.070
-676.178	-200.000	-0.028	0.137
-675.164	-26.764	0.315	-0.187
-674.149	-141.484	0.067	-0.007
-673.135	800.000	0.018	-0.078
-672.120	4.180	-0.169	-0.126
-671.105	551.212	-0.128	0.314
-670.091	114.585	-0.174	0.216
-669.076	75.949	-0.270	0.290
-668.062	-84.949	-0.141	-0.045
-667.047	-109.185	-0.053	0.011
-666.032	-200.000	-0.011	0.395
-665.018	-80.277	-0.285	0.097
-664.003	255.626	-0.140	0.243
-662.989	432.080	-0.182	0.401
-661.974	85.849	0.037	-0.042
-660.959	-40.649	0.173	-0.091
-659.945	144.438	-0.309	0.420
-658.930	-107.333	-0.275	-0.062
-657.916	-95.515	-0.171	0.047
-656.901	511.977	-0.137	0.325
-655.886	-54.480	0.365	-0.168
-654.872	-93.073	-0.227	0.064
-653.857	-87.165	0.093	0.029
-652.843	-22.205	-0.368	-0.227
-651.828	-108.373	-0.290	-0.063
-650.814	-142.090	-0.278	-0.028
-649.799	-39.961	-0.249	-0.132
-648.784	-13.202	0.126	-0.083
-647.770	29.861	-0.167	-0.145
-646.755	800.000	-0.049	0.194
-645.741	-46.240	-0.234	-0.117
-644.726	92.254	-0.278	0.318
-643.711	800.000	-0.006	-0.025
-642.697	800.000	0.054	0.163
-641.682	-91.012	0.311	-0.091
-640.668	378.910	0.108	0.225
-639.653	390.583	-0.081	-0.171
-638.638	213.723	0.157	-0.252
-637.624	-200.000	0.024	-0.120
-636.609	72.840	-0.348	0.370
-635.595	-90.245	0.282	0.083
-634.580	-97.255	-0.307	-0.081
-633.565	-200.000	-0.056	-0.267
-632.551	-43.688	-0.207	0.106
-631.536	-67.607	0.208	0.083
-630.522	51.490	-0.177	-0.171
-629.507	621.304	-0.076	0.193
-628.492	800.000	0.096	0.377
-627.478	599.954	0.016	-0.040
-626.463	-19.884	0.145	-0.091
-625.449	-200.000	0.014	0.097
-624.434	-119.236	0.221	0.039
-623.419	-177.565	0.081	-0.002
-622.405	-126.154	0.109	0.017
-621.390	-200.000	0.013	0.064
-620.376	65.358	-0.249	-0.256
-619.361	-200.000	-0.019	-0.228
-618.346	-127.146	-0.246	-0.037
-617.332	323.623	0.242	-0.468
-616.317	-200.000	0.093	-0.505
-615.303	440.431	0.087	0.194
-614.288	54.398	0.156	0.153
-613.273	266.478	-0.223	-0.395
-612.259	239.641	-0.275	-0.464
-611.244	-34.343	0.233	0.130
-610.230	-64.371	-0.147	-0.061
-609.215	-137.418	0.320	-0.037
-608.201	-128.865	-0.233	-0.033
-607.186	-116.338	-0.113	0.021
-606.171	256.844	-0.023	0.040
-605.157	17.165	-0.210	-0.169
-604.142	530.038	0.102	-0.244
-603.128	-79.908	0.226	-0.077
-602.113	-67.887	0.184	-0.073
-601.098	-182.791	0.126	-0.002
-600.084	-25.285	-0.209	-0.126
-599.069	-200.000	-0.022	0.254
-598.055	265.991	0.071	0.126
-597.040	-200.000	0.005	-0.521
-596.025	-128.390	-0.076	0.011
-595.011	-200.000	-0.024	0.139
-593.996	-120.768	-0.529	0.091
-592.982	-180.635	-0.388	0.008
-591.967	64.223	0.228	-0.233
-590.952	-11.788	-0.264	-0.176
-589.938	-139.155	0.348	0.038
-588.923	221.494	0.124	0.202
-587.909	211.722	-0.084	-0.135
-586.894	528.983	-0.159	-0.380
-585.879	-21.287	-0.227	-0.141
-584.865	188.868	-0.198	-0.300
-583.850	-168.907	-0.217	0.008
-582.836	207.107	0.178	0.281
-581.821	800.000	-0.105	0.452
-580.806	-74.552	-0.149	0.055
-579.792	55.222	-0.056	-0.055
-578.777	507.634	-0.094	0.221
-577.763	-200.000	-0.003	0.152
-576.748	-116.314	0.072	0.013
-575.733	-121.246	-0.359	-0.061
-574.719	-200.000	0.016	-0.114
-573.704	-200.000	0.020	-0.103
-572.690	149.213	-0.035	0.048
-571.675	-110.751	0.294	0.061
-570.661	496.543	-0.093	0.216
-569.646	-149.471	-0.228	-0.018
-568.631	422.940	0.050	-0.108
-567.617	-200.000	0.013	0.429
-566.602	-138.822	0.307	0.034
-565.588	36.251	-0.107	-0.096
-564.573	-200.000	0.001	0.237
-563.558	800.000	-0.035	0.115
-562.544	-200.000	-0.001	-0.143
-561.529	-200.000	0.025	-0.185
-560.515	800.000	0.049	0.139
-559.500	29.802	-0.072	0.062
-558.485	-200.000	0.013	-0.197
-557.471	-52.578	-0.239	-0.112
-556.456	-57.383	-0.365	0.163
-555.442	-75.541	-0.182	-0.066
-554.427	-79.174	0.108	0.037
-553.412	800.000	-0.066	-0.190
-552.398	86.870	-0.052	0.058
-551.383	88.935	-0.066	-0.074
-550.369	-29.472	-0.345	-0.200
-549.354	-120.199	0.140	0.024
-548.339	358.182	0.034	0.069
-547.325	-200.000	0.000	-0.047
-546.310	272.426	-0.170	-0.303
-545.296	12.560	0.083	-0.065
-544.281	38.483	-0.090	0.081
-543.266	58.544	-0.097	0.096
-542.252	-200.000	-0.014	-0.239
-541.237	-25.452	-0.102	0.061
-540.223	187.806	-0.072	0.109
-539.208	-200.000	-0.018	0.211
-538.193	800.000	-0.049	-0.210
-537.179	638.308	-0.048	-0.124
-536.164	-200.000	-0.028	0.205
-535.150	-200.000	0.002	0.132
-534.135	7.104	0.148	-0.112
-533.121	11.053	-0.168	-0.130
-532.106	735.433	-0.083	0.226
-531.091	115.254	0.170	0.211
-530.077	210.004	-0.184	-0.292
-529.062	-45.992	0.169	-0.084
-528.048	-13.294	0.142	-0.093
-527.033	-116.252	-0.070	-0.013
-526.018	-48.982	-0.175	0.085
-525.004	-200.000	-0.005	-0.077
-523.989	-194.899	0.258	-0.002
-522.975	-200.000	0.041	-0.214
-521.960	-163.780	-0.118	-0.006
-520.945	-80.981	-0.150	0.050
-519.931	-133.856	0.424	0.053
-518.916	-126.055	-0.425	-0.064
-517.902	-47.801	-0.137	0.067
-516.887	-86.736	0.370	-0.114
-515.872	612.370	0.040	0.101
-514.858	-5.517	-0.065	0.045
-513.843	38.030	0.073	0.065
-512.829	119.978	-0.170	0.213
-511.814	-85.625	0.027	0.009
-510.799	800.000	0.050	0.202
-509.785	-200.000	-0.030	0.412
-508.770	-200.000	-0.003	0.030
-507.756	800.000	0.061	-0.196
-506.741	-200.000	-0.025	-0.114
-505.726	-44.035	0.105	0.054
-504.712	34.576	-0.270	-0.238
-503.697	167.015	0.177	0.254
-502.683	101.975	0.117	-0.139
-501.668	552.531	0.140	-0.339
-500.653	186.544	0.128	0.193
-499.639	-52.689	0.122	-0.057
-498.624	331.056	-0.080	-0.157
-497.610	-116.966	0.077	0.014
-496.595	96.911	0.220	0.255
-495.581	-4.648	-0.091	0.064
-494.566	44.624	0.180	0.168
-493.551	157.303	-0.040	-0.055
-492.537	90.464	-0.047	0.054
-491.522	-87.825	0.153	-0.047
-490.508	-200.000	-0.000	-0.136
-489.493	33.550	-0.138	0.121
-488.478	139.625	0.120	0.159
-487.464	-76.455	-0.264	0.094
-486.449	-200.000	-0.085	0.510
-485.435	140.758	0.148	0.198
-484.420	675.340	0.045	-0.119
-483.405	-12.669	-0.273	-0.180
-482.391	-15.019	0.062	0.040
-481.376	-151.690	-0.095	0.007
-480.362	-145.369	0.039	0.004
-479.347	-122.018	0.209	0.035
-478.332	-200.000	0.033	0.158
-477.318	-200.000	0.022	-0.209
-476.303	207.617	0.094	0.148
-475.289	-121.088	0.264	0.045
-474.274	-131.218	0.278	-0.037
-473.259	-200.000	-0.032	0.306
-472.245	684.073	0.126	0.331
-471.230	-63.001	-0.400	-0.167
-470.216	-200.000	0.060	0.383
-469.201	-200.000	-0.002	0.350
-468.186	-162.528	-0.318	0.016
-467.172	155.343	-0.057	-0.079
-466.157	-25.083	-0.034	-0.020
-465.143	800.000	-0.111	0.327
-464.128	-136.624	-0.516	-0.060
-463.113	-86.574	-0.089	0.028
-462.099	51.969	0.101	0.097
-461.084	-134.148	0.238	0.030
-460.070	-109.560	-0.358	0.076
-459.055	-55.728	-0.238	0.107
-458.040	-7.368	-0.131	-0.090
-457.026	162.720	-0.131	0.185
-456.011	800.000	-0.104	0.308
-454.997	234.424	-0.053	0.089
-453.982	29.442	0.262	-0.225
-452.968	-26.178	0.070	-0.042
-451.953	8.021	-0.219	-0.166
-450.938	454.899	-0.097	-0.217
-449.924	427.086	-0.190	0.414
-448.909	342.096	0.195	-0.385
-447.895	35.945	-0.163	-0.145
-446.880	-93.830	-0.128	0.036
-445.865	105.493	0.016	0.019
-444.851	-157.036	0.336	0.021
-443.836	543.863	-0.099	0.238
-442.822	601.307	-0.175	0.438
-441.807	-11.965	0.283	0.187
-440.792	-200.000	-0.018	-0.176
-439.778	-200.000	-0.020	-0.173
-438.763	212.620	-0.163	-0.259
-437.749	1.135	0.283	0.205
-436.734	-97.677	-0.207	0.054
-435.719	800.000	0.052	-0.147
-434.705	-200.000	0.074	-0.398
-433.690	-200.000	-0.018	0.146
-432.676	-200.000	-0.023	0.238
-431.661	-160.254	0.271	-0.015
-430.646	10.607	-0.081	0.062
-429.632	-200.000	-0.174	-0.001
-428.617	76.567	-0.044	0.047
-427.603	-200.000	-0.001	-0.052
-426.588	-60.501	-0.212	0.091
-425.573	612.773	-0.069	0.174
-424.559	218.381	-0.109	0.175
-423.544	-200.000	0.001	-0.121
-422.530	-88.185	0.161	0.049
-421.515	-200.000	0.002	-0.077
-420.500	109.308	-0.110	0.132
-419.486	-91.010	0.076	0.022
-418.471	118.443	0.160	0.199
-417.457	800.000	-0.111	-0.415
-416.442	-96.901	0.290	-0.077
-415.428	392.133	0.039	0.081
-414.413	266.189	0.110	0.193
-413.398	-200.000	0.015	0.234
-412.384	188.232	-0.042	0.064
-411.369	-200.000	-0.039	-0.315
-410.355	800.000	-0.062	0.229
-409.340	-200.000	-0.014	0.114
-408.325	-94.422	-0.277	-0.076
-407.311	722.781	-0.100	-0.267
-406.296	332.873	-0.046	-0.090
-405.282	-200.000	0.043	-0.448
-404.267	-129.274	0.140	-0.020
-403.252	-64.624	0.219	0.090
-402.238	-16.610	0.166	-0.106
-401.223	245.158	0.208	-0.353
-400.209	-70.448	0.251	0.096
-399.194	-114.258	-0.012	-0.002
-398.179	44.846	-0.252	0.233
-397.165	-135.859	0.211	0.025
-396.150	-144.065	-0.133	0.013
-395.136	-200.000	0.033	0.196
-394.121	315.166	0.058	-0.109
-393.106	-184.967	-0.175	0.003
-392.092	-200.000	-0.016	0.099
-391.077	-200.000	-0.024	-0.249
-390.063	-200.000	0.051	-0.235
-389.048	-200.000	0.000	0.094
-388.033	-76.612	0.313	0.111
-387.019	-81.826	0.276	-0.091
-386.004	-115.468	0.146	-0.028
-384.990	193.272	0.178	-0.271
-383.975	-88.602	-0.498	0.149
-382.960	231.275	0.061	0.100
-381.946	66.103	-0.301	-0.308
-380.931	-200.000	0.056	0.298
-379.917	141.004	-0.033	-0.044
-378.902	-84.112	0.219	-0.070
-377.888	-5.882	-0.293	-0.202
-376.873	439.953	-0.213	0.468
-375.858	-200.000	-0.043	0.344
-374.844	8.519	0.122	0.092
-373.829	96.140	-0.080	0.092
-372.815	-158.551	-0.120	0.007
-371.800	253.077	0.198	-0.340
-370.785	-13.824	-0.146	-0.095
-369.771	800.000	-0.185	-0.571
-368.756	800.000	-0.011	0.047
-367.742	-65.477	0.012	0.005
-366.727	27.158	0.166	0.140
-365.712	530.438	0.014	0.034
-364.698	-200.000	0.029	0.184
-363.683	-95.516	-0.113	0.030
-362.669	2.210	0.170	0.124
-361.654	-119.351	0.450	0.079
-360.639	-200.000	0.006	-0.025
-359.625	228.316	-0.126	-0.207
-358.610	-162.307	-0.037	-0.002
-357.596	-200.000	-0.118	-0.001
-356.581	-77.453	-0.186	-0.065
-355.566	-200.000	-0.078	-0.361
-354.552	-149.119	0.287	0.023
-353.537	195.774	-0.123	-0.187
-352.523	-73.053	-0.086	0.032
-351.508	-68.452	0.230	-0.089
-350.493	-200.000	-0.005	0.082
-349.479	522.866	0.047	-0.112
-348.464	-31.767	-0.266	0.150
-347.450	-40.541	0.300	-0.157
-346.435	529.733	0.046	0.108
-345.420	23.962	0.358	-0.296
-344.406	17.468	-0.178	-0.142
-343.391	-160.349	0.421	0.023
-342.377	-200.000	0.025	0.132
-341.362	-94.393	0.208	0.057
-340.348	800.000	-0.009	0.029
-339.333	111.430	0.103	0.124
-338.318	329.197	-0.096	0.186
-337.304	-200.000	-0.022	0.216
-336.289	-0.898	0.254	-0.181
-335.275	746.958	-0.149	0.403
-334.260	120.300	-0.159	0.198
-333.245	321.911	-0.095	0.182
-332.231	-28.527	-0.072	0.042
-331.216	-200.000	-0.010	0.099
-330.202	14.562	0.069	-0.054
-329.187	-200.000	-0.026	-0.447
-328.172	61.748	0.259	-0.259
-327.158	146.432	0.095	-0.128
-326.143	400.294	-0.100	-0.210
-325.129	-17.184	-0.047	0.030
-324.114	800.000	0.051	-0.186
-323.099	-200.000	-0.034	0.357
-322.085	39.295	-0.203	0.183
-321.070	-155.686	-0.262	-0.017
-320.056	199.450	0.096	0.147
-319.041	87.088	0.155	0.172
-318.026	105.385	-0.130	0.154
-317.012	-99.421	0.410	0.104
-315.997	-143.147	0.172	0.017
-314.983	145.465	0.244	0.327
-313.968	-120.309	0.146	-0.025
-312.953	-95.672	-0.396	-0.106
-311.939	-200.000	0.004	-0.220
-310.924	16.137	0.250	0.198
-309.910	-200.000	-0.007	0.062
-308.895	187.599	-0.149	0.223
-307.880	-131.181	0.450	-0.060
-306.866	779.941	-0.104	-0.284
-305.851	-31.747	0.292	0.164
-304.837	580.379	0.271	0.665
-303.822	-103.162	0.308	0.073
-302.807	-15.007	0.035	-0.022
-301.793	-12.265	0.294	-0.193
-300.778	-66.313	-0.241	-0.096
-299.764	-188.829	0.089	-0.001
-298.749	298.392	0.041	0.075
-297.735	-33.697	0.116	0.064
-296.720	97.906	0.217	-0.250
-295.705	-11.487	0.152	-0.100
-294.691	-33.600	0.142	0.078
-293.676	733.479	-0.019	-0.051
-292.662	-200.000	0.128	0.000
-291.647	121.806	-0.065	0.081
-290.632	-200.000	-0.065	0.286
-289.618	797.409	-0.119	0.328
-288.603	-200.000	0.044	-0.309
-287.589	95.815	0.199	-0.228
-286.574	-200.000	-0.021	0.332
-285.559	-100.151	0.115	-0.029
-284.545	-155.023	-0.091	0.006
-283.530	-158.641	-0.568	-0.033
-282.516	15.848	0.400	0.316
-281.501	-92.855	0.150	-0.042
-280.486	402.820	-0.083	-0.176
-279.472	-128.022	0.237	0.034
-278.457	-58.439	-0.315	-0.137
-277.443	90.056	0.229	-0.256
-276.428	-200.000	-0.010	0.272
-275.413	-35.430	-0.169	0.092
-274.399	-48.455	0.113	0.054
-273.384	97.581	-0.215	0.248
-272.370	-34.899	0.073	0.040
-271.355	800.000	0.028	0.096
-270.340	-44.466	-0.105	0.053
-269.326	241.978	0.118	-0.198
-268.311	-14.973	0.099	0.063
-267.297	-101.136	0.091	-0.022
-266.282	-75.402	-0.322	-0.115
-265.267	178.579	-0.241	0.352
-264.253	800.000	-0.052	0.206
-263.238	156.014	-0.058	-0.081
-262.224	-200.000	-0.002	-0.225
-261.209	-200.000	0.001	-0.051
-260.195	800.000	-0.040	0.125
-259.180	50.462	0.288	0.272
-258.165	-200.000	0.034	-0.148
-257.151	-20.753	0.190	-0.116
-256.136	379.140	-0.126	-0.258
-255.122	410.218	0.046	-0.098
-254.107	106.021	-0.072	0.085
-253.092	27.917	-0.138	0.116
-252.078	21.753	0.071	0.058
-251.063	179.771	0.135	-0.199
-250.049	-90.202	-0.288	-0.084
-249.034	-200.000	-0.001	-0.279
-248.019	-139.906	-0.221	-0.023
-247.005	-200.000	-0.018	0.166
-245.990	-26.134	0.350	0.206
-244.976	45.148	-0.065	0.060
-243.961	14.900	-0.153	-0.120
-242.946	-133.924	-0.291	0.036
-241.932	226.002	0.155	0.251
-240.917	18.087	0.194	-0.155
-239.903	489.380	-0.047	0.108
-238.888	-99.637	-0.246	0.062
-237.873	92.498	0.047	-0.053
-236.859	-99.819	0.283	-0.071
-235.844	22.902	-0.277	0.227
-234.830	-200.000	-0.006	0.117
-233.815	16.005	-0.041	0.032
-232.800	-153.196	0.340	-0.024
-231.786	-200.000	0.013	0.273
-230.771	800.000	-0.054	-0.201
-229.757	-49.516	-0.074	0.035
-228.742	-148.383	0.355	-0.029
-227.727	185.695	0.079	0.118
-226.713	-150.338	-0.189	-0.015
-225.698	-65.111	-0.300	0.121
-224.684	800.000	0.109	-0.312
-223.669	380.990	-0.087	-0.178
-222.655	34.546	-0.168	-0.147
-221.640	-200.000	-0.029	-0.293
-220.625	484.340	0.023	0.052
-219.611	122.264	0.170	-0.212
-218.596	33.928	-0.161	-0.140
-217.582	457.350	0.057	0.127
-216.567	-107.167	0.065	-0.014
-215.552	-200.000	-0.004	-0.191
-214.538	-134.645	-0.076	-0.009
-213.523	-73.439	-0.045	-0.016
-212.509	-200.000	0.012	-0.243
-211.494	346.583	-0.078	-0.154
-210.479	528.728	0.094	-0.222
-209.465	-43.324	0.201	-0.102
-208.450	-200.000	-0.044	-0.193
-207.436	-14.974	-0.336	-0.215
-206.421	-200.000	-0.028	-0.148
-205.406	-200.000	0.033	0.207
-204.392	174.133	0.118	0.170
-203.377	800.000	-0.077	0.321
-202.363	77.745	-0.050	-0.053
-201.348	-106.144	-0.442	0.099
-200.333	-200.000	0.019	-0.197
-199.319	-103.875	0.299	0.070
-198.304	-72.438	0.449	0.166
-197.290	-106.302	0.076	0.017
-196.275	88.655	-0.121	-0.134
-195.260	-99.953	0.220	0.055
-194.246	-32.661	-0.274	-0.152
-193.231	453.147	-0.041	-0.091
-192.217	-72.181	-0.189	0.070
-191.202	-151.916	-0.127	-0.009
-190.187	-200.000	0.004	-0.407
-189.173	-200.000	0.014	-0.148
-188.158	-54.312	-0.043	-0.019
-187.144	269.399	0.036	0.063
-186.129	-200.000	-0.001	0.281
-185.114	-58.730	-0.092	0.040
-184.100	109.628	0.059	-0.071
-183.085	30.735	0.227	0.194
-182.071	-200.000	-0.019	0.241
-181.056	-109.061	0.334	-0.071
-180.042	22.503	0.207	0.169
-179.027	-168.157	0.213	-0.008
-178.012	-52.213	0.262	-0.121
-176.998	112.006	0.121	0.146
-175.983	263.805	-0.056	0.096
-174.969	-200.000	0.006	-0.162
-173.954	-73.528	0.074	0.027
-172.939	-200.000	-0.037	-0.293
-171.925	-200.000	-0.017	-0.112
-170.910	11.747	-0.070	0.053
-169.896	-79.031	-0.222	0.075
-168.881	-18.981	0.085	-0.053
-167.866	71.673	-0.169	-0.175
-166.852	-200.000	-0.033	-0.231
-165.837	-30.205	-0.091	0.051
-164.823	-99.612	-0.122	0.031
-163.808	-160.658	-0.097	0.005
-162.793	164.721	0.138	-0.194
-161.779	800.000	-0.082	-0.238
-160.764	114.753	-0.290	0.352
-159.750	41.441	0.090	0.082
-158.735	44.476	0.181	-0.166
-157.720	33.969	-0.224	-0.194
-156.706	23.052	0.198	-0.162
-155.691	-57.197	-0.083	-0.036
-154.677	-51.995	0.117	-0.054
-153.662	-117.882	0.348	-0.062
-152.647	195.839	0.091	-0.138
-151.633	-28.889	0.295	0.169
-150.618	270.511	-0.075	0.132
-149.604	-97.624	0.077	0.020
-148.589	-200.000	-0.004	0.089
-147.574	7.796	0.373	-0.279
-146.560	17.965	0.214	0.170
-145.545	-200.000	-0.024	0.317
-144.531	-29.599	0.226	0.129
-143.516	103.748	-0.065	-0.076
-142.502	800.000	-0.047	-0.162
-141.487	-88.229	0.202	0.060
-140.472	-80.088	-0.099	-0.033
-139.458	-200.000	-0.023	0.263
-138.443	-59.069	0.150	0.065
-137.429	500.482	-0.073	0.167
-136.414	-89.124	0.240	-0.071
-135.399	800.000	0.077	-0.226
-134.385	-200.000	0.040	-0.227
-133.370	-104.050	0.113	-0.026
-132.356	-200.000	0.005	-0.083
-131.341	2.697	0.145	-0.105
-130.326	-154.736	0.379	-0.025
-129.312	-200.000	0.011	-0.425
-128.297	-53.731	-0.362	-0.165
-127.283	169.774	0.138	0.196
-126.268	57.985	0.199	0.194
-125.253	-116.139	0.422	-0.078
-124.239	-200.000	0.055	-0.264
-123.224	-28.877	0.138	0.079
-122.210	327.102	0.176	0.336
