DTS Sentinel unit serial number:	SN413079Multiplexer serial number:	ORYXHardware model number:	OX4-SRSoftware version number:	ORYX F/W v4.00 Oryx Data Collector v3.7.2.0data status	okinstallation	princeton_trtdifferential loss correction	single-endedforward channel	channel 4reverse channel	N/Adate	2019/09/15time	06:21:35forward acquisition time	60.00reverse acquisition time	0.00gamma	496.2192k internal	0.2311k external	0.2311temperature offset calibration	1.0037default loss term (dB/km)	0.3790temperature slope calibration	1.0000multiplexer offset coefficient	1.0000multiplexer slope coefficient	1.0000fibre end	0.00T internal ref (°C)	30.50T ext. ref 1 (°C)	4.84T ext. ref 2 (°C)	25.29length (m)	temperature (°C)	Stokes	anti-Stokes-747.200	21.619	0.241	0.199
-746.185	172.077	-0.079	0.116
-745.171	-99.934	-0.309	0.078
-744.156	-84.365	0.120	0.038
-743.142	80.198	0.140	-0.153
-742.127	103.296	-0.144	-0.172
-741.112	-129.372	-0.159	-0.022
-740.098	39.774	0.384	0.350
-739.083	116.354	0.049	0.061
-738.069	-200.000	-0.072	0.365
-737.054	151.269	0.062	-0.085
-736.039	-73.587	0.206	0.076
-735.025	98.486	0.137	0.160
-734.010	-119.360	-0.389	0.069
-732.996	-29.478	-0.092	-0.053
-731.981	3.584	-0.243	-0.180
-730.966	-10.383	0.382	-0.257
-729.952	386.718	-0.051	-0.107
-728.937	445.303	-0.112	-0.248
-727.923	44.922	0.045	-0.042
-726.908	90.819	0.236	-0.268
-725.894	123.701	-0.290	-0.370
-724.879	-200.000	-0.048	-0.219
-723.864	82.537	-0.161	-0.178
-722.850	-200.000	-0.019	-0.283
-721.835	800.000	-0.100	0.286
-720.821	-21.770	0.124	-0.077
-719.806	-178.103	-0.131	0.003
-718.791	33.578	-0.207	-0.183
-717.777	-69.019	0.060	-0.023
-716.762	-104.198	-0.112	0.026
-715.748	144.053	-0.156	0.212
-714.733	-134.050	-0.173	0.022
-713.718	-27.859	-0.190	0.112
-712.704	-121.941	-0.203	-0.034
-711.689	-143.334	-0.217	0.021
-710.675	172.275	0.187	-0.272
-709.660	800.000	0.011	-0.048
-708.645	-140.488	0.351	0.037
-707.631	-9.606	0.202	-0.136
-706.616	-65.873	-0.150	-0.061
-705.602	15.265	-0.188	-0.150
-704.587	224.154	0.072	-0.118
-703.572	-41.709	-0.117	-0.061
-702.558	304.784	-0.142	-0.267
-701.543	-56.451	-0.163	0.073
-700.529	23.881	-0.263	-0.220
-699.514	-31.140	0.252	-0.144
-698.499	85.993	0.174	-0.194
-697.485	-104.764	-0.294	0.069
-696.470	795.389	0.094	-0.263
-695.456	-34.951	0.098	-0.054
-694.441	-96.356	0.259	-0.070
-693.426	-58.897	0.308	-0.135
-692.412	6.376	-0.273	0.205
-691.397	-130.992	0.306	-0.041
-690.383	317.191	-0.245	-0.469
-689.368	-14.857	-0.256	0.167
-688.354	734.441	-0.098	-0.265
-687.339	-167.405	0.174	-0.007
-686.324	-152.195	0.064	0.005
-685.310	101.694	-0.214	0.252
-684.295	168.441	0.219	-0.315
-683.281	-61.995	-0.410	-0.173
-682.266	-34.586	0.202	-0.112
-681.251	-200.000	-0.067	-0.349
-680.237	63.669	-0.194	-0.197
-679.222	-200.000	-0.021	-0.481
-678.208	-200.000	-0.013	-0.092
-677.193	-200.000	-0.196	-0.000
-676.178	-20.030	-0.116	0.072
-675.164	-196.217	-0.206	-0.001
-674.149	-51.031	-0.275	-0.131
-673.135	66.453	-0.205	0.211
-672.120	800.000	0.051	0.205
-671.105	800.000	-0.068	-0.251
-670.091	-200.000	0.032	0.165
-669.076	-79.022	-0.029	0.010
-668.062	-152.561	-0.146	-0.011
-667.047	-107.371	-0.376	0.083
-666.032	-200.000	-0.003	-0.113
-665.018	100.169	0.076	-0.089
-664.003	-200.000	0.011	-0.060
-662.989	-63.439	0.067	0.028
-661.974	-42.873	-0.103	-0.053
-660.959	16.099	-0.115	0.092
-659.945	-65.610	-0.189	-0.077
-658.930	-86.255	-0.129	0.040
-657.916	197.784	-0.194	0.300
-656.901	200.735	0.229	-0.357
-655.886	42.506	-0.178	0.164
-654.872	253.482	-0.173	0.299
-653.857	202.918	-0.214	0.334
-652.843	-200.000	0.032	-0.163
-651.828	-9.907	0.240	-0.162
-650.814	-41.847	-0.128	0.066
-649.799	-74.258	-0.243	-0.089
-648.784	-110.190	0.280	0.059
-647.770	-136.927	0.095	0.011
-646.755	-42.310	-0.274	0.141
-645.741	234.486	-0.172	-0.287
-644.726	-169.504	-0.312	-0.012
-643.711	229.566	-0.135	-0.223
-642.697	-58.721	-0.202	-0.088
-641.682	606.579	-0.130	0.328
-640.668	-200.000	0.045	0.408
-639.653	-68.180	-0.074	-0.029
-638.638	-200.000	0.051	-0.242
-637.624	690.928	0.045	0.118
-636.609	193.815	0.175	0.268
-635.595	-31.805	0.160	-0.091
-634.580	-116.816	-0.123	0.023
-633.565	112.567	-0.210	-0.257
-632.551	146.039	-0.066	-0.089
-631.536	-142.262	0.450	0.045
-630.522	800.000	-0.073	0.243
-629.507	8.596	-0.113	-0.086
-628.492	-88.091	0.337	0.102
-627.478	-81.573	0.257	-0.085
-626.463	-116.640	0.243	0.045
-625.449	-16.749	-0.064	0.041
-624.434	-70.700	-0.153	-0.059
-623.419	-95.006	0.088	0.024
-622.405	-200.000	-0.078	0.456
-621.390	-177.711	-0.131	0.003
-620.376	570.598	0.084	-0.206
-619.361	322.057	-0.112	0.215
-618.346	393.235	0.033	-0.069
-617.332	305.890	0.017	-0.032
-616.317	-114.209	-0.161	0.031
-615.303	-50.903	-0.146	0.069
-614.288	-200.000	-0.061	-0.282
-613.273	75.539	0.181	-0.193
-612.259	-113.395	-0.219	0.043
-611.244	109.995	-0.065	0.079
-610.230	-33.037	-0.240	-0.135
-609.215	-76.817	0.191	-0.068
-608.201	-65.923	-0.419	0.169
-607.186	182.739	-0.068	-0.102
-606.171	-47.895	0.198	-0.097
-605.157	-189.467	0.382	-0.004
-604.142	233.895	-0.067	-0.112
-603.128	-72.455	-0.148	-0.055
-602.113	-59.733	-0.185	-0.080
-601.098	-62.953	-0.296	0.123
-600.084	-200.000	0.008	-0.349
-599.069	33.837	0.278	-0.244
-598.055	-200.000	0.048	0.278
-597.040	-71.560	0.289	0.109
-596.025	-61.057	-0.122	0.052
-595.011	76.209	0.249	-0.266
-593.996	45.537	-0.230	-0.214
-592.982	209.055	-0.072	-0.113
-591.967	39.212	0.301	0.272
-590.952	-24.856	-0.146	0.088
-589.938	-200.000	0.008	-0.217
-588.923	-128.360	0.319	-0.046
-587.909	137.020	0.088	0.116
-586.894	800.000	-0.080	0.331
-585.879	-192.926	0.191	-0.002
-584.865	209.682	-0.142	-0.225
-583.850	167.523	0.049	0.070
-582.836	138.873	0.281	-0.372
-581.821	-200.000	0.018	-0.207
-580.806	-200.000	-0.040	-0.232
-579.792	-114.768	0.105	0.020
-578.777	391.572	-0.042	0.088
-577.763	-115.632	0.410	-0.078
-576.748	-200.000	0.011	-0.217
-575.733	167.135	-0.319	0.456
-574.719	-123.070	0.133	0.022
-573.704	-12.165	0.200	0.132
-572.690	728.445	-0.005	0.014
-571.675	800.000	0.069	0.297
-570.661	753.425	-0.116	0.317
-569.646	-148.071	-0.091	0.008
-568.631	-100.142	0.239	-0.060
-567.617	336.171	-0.205	0.402
-566.602	-200.000	0.001	0.148
-565.588	-39.176	-0.240	-0.127
-564.573	-179.816	-0.121	0.003
-563.558	52.284	0.166	0.159
-562.544	800.000	0.102	-0.290
-561.529	78.173	-0.232	-0.250
-560.515	118.608	0.155	0.193
-559.500	225.725	0.071	0.115
-558.485	-200.000	0.002	-0.194
-557.471	800.000	-0.044	-0.192
-556.456	-82.296	-0.250	0.082
-555.442	-105.514	0.109	-0.025
-554.427	-84.652	0.092	-0.029
-553.412	-88.005	0.017	0.005
-552.398	393.556	0.090	-0.189
-551.383	169.348	-0.118	-0.170
-550.369	-200.000	-0.005	-0.164
-549.354	-92.700	-0.371	-0.105
-548.339	-102.891	0.394	-0.094
-547.325	800.000	-0.033	0.098
-546.310	-200.000	0.003	0.056
-545.296	16.041	-0.155	-0.123
-544.281	56.730	-0.089	0.088
-543.266	66.805	0.284	-0.291
-542.252	291.031	-0.105	-0.192
-541.237	301.625	-0.059	0.110
-540.223	108.546	-0.256	0.308
-539.208	-200.000	0.011	0.066
-538.193	92.799	-0.340	0.387
-537.179	800.000	0.038	-0.147
-536.164	84.051	0.080	0.088
-535.150	-53.445	-0.448	-0.207
-534.135	110.149	-0.308	-0.373
-533.121	613.489	0.089	0.226
-532.106	770.819	-0.048	-0.132
-531.091	-11.719	0.337	-0.223
-530.077	-100.861	0.240	0.059
-529.062	-91.728	-0.301	-0.086
-528.048	84.345	0.129	-0.142
-527.033	246.091	-0.078	-0.132
-526.018	-102.868	-0.396	-0.095
-525.004	-200.000	0.022	-0.103
-523.989	-126.316	-0.462	0.069
-522.975	-36.818	-0.266	-0.144
-521.960	-200.000	-0.028	0.141
-520.945	-30.013	0.155	-0.089
-519.931	-27.532	0.205	-0.120
-518.916	714.222	-0.073	0.196
-517.902	235.888	-0.125	-0.208
-516.887	99.174	0.070	0.081
-515.872	-68.295	0.171	-0.067
-514.858	-31.849	0.123	0.069
-513.843	800.000	0.050	-0.192
-512.829	-28.150	0.169	0.098
-511.814	-200.000	-0.037	0.189
-510.799	493.734	0.148	0.341
-509.785	71.443	-0.031	0.032
-508.770	-200.000	0.003	0.259
-507.756	-19.871	0.094	-0.058
-506.741	185.965	0.064	0.096
-505.726	800.000	0.023	-0.082
-504.712	165.953	0.164	-0.234
-503.697	-200.000	-0.037	0.302
-502.683	85.774	-0.187	0.206
-501.668	324.953	-0.220	-0.424
-500.653	-153.612	-0.270	0.019
-499.639	-200.000	0.021	-0.227
-498.624	-90.624	-0.075	0.022
-497.610	77.222	0.073	-0.078
-496.595	798.965	0.110	-0.306
-495.581	34.231	-0.138	-0.121
-494.566	-150.354	-0.089	-0.007
-493.551	571.804	-0.050	0.121
-492.537	340.169	0.072	0.141
-491.522	-84.971	-0.339	0.107
-490.508	167.683	-0.119	0.170
-489.493	88.443	-0.153	0.171
-488.478	-16.943	0.225	-0.143
-487.464	69.861	-0.077	-0.080
-486.449	-200.000	0.105	0.583
-485.435	-73.101	-0.211	0.078
-484.420	-200.000	0.049	0.353
-483.405	-44.649	0.111	0.056
-482.391	-87.277	0.351	-0.107
-481.376	124.436	0.113	-0.143
-480.362	-31.725	-0.211	0.119
-479.347	231.167	0.046	-0.076
-478.332	171.590	-0.155	0.223
-477.318	-200.000	-0.003	0.041
-476.303	436.299	0.025	0.054
-475.289	-147.953	0.527	-0.044
-474.274	18.508	-0.260	-0.209
-473.259	544.841	0.110	-0.265
-472.245	51.397	0.157	-0.150
-471.230	-65.878	0.124	-0.050
-470.216	-133.049	-0.259	0.033
-469.201	204.925	0.129	-0.202
-468.186	530.597	-0.146	0.346
-467.172	-173.207	-0.163	0.005
-466.157	-30.044	0.130	-0.074
-465.143	-87.631	0.050	0.015
-464.128	769.048	-0.016	-0.045
-463.113	33.254	0.208	-0.181
-462.099	108.034	0.026	-0.031
-461.084	109.967	-0.071	0.086
-460.070	279.617	0.037	-0.067
-459.055	81.076	-0.262	-0.284
-458.040	0.061	-0.301	0.215
-457.026	-181.359	0.275	0.005
-456.011	20.065	-0.434	0.351
-454.997	800.000	-0.020	0.056
-453.982	800.000	0.028	0.089
-452.968	-76.461	0.141	-0.050
-451.953	-116.400	0.158	0.029
-450.938	-14.769	-0.275	-0.177
-449.924	-64.776	-0.135	-0.055
-448.909	1.076	-0.108	-0.078
-447.895	-61.623	-0.084	-0.036
-446.880	-136.268	-0.136	-0.016
-445.865	667.459	0.058	0.151
-444.851	-34.852	0.141	-0.077
-443.836	-138.279	0.012	-0.001
-442.822	800.000	0.075	0.226
-441.807	566.770	0.043	0.106
-440.792	-88.059	-0.369	-0.111
-439.778	-117.378	-0.183	-0.033
-438.763	-63.536	-0.151	-0.062
-437.749	-169.598	-0.424	0.015
-436.734	-36.389	0.197	-0.106
-435.719	27.478	0.085	0.072
-434.705	-30.499	0.070	0.040
-433.690	-200.000	-0.085	-0.387
-432.676	668.442	0.083	0.216
-431.661	-200.000	0.007	-0.272
-430.646	-68.953	-0.487	-0.188
-429.632	-128.397	0.250	-0.036
-428.617	800.000	-0.017	-0.071
-427.603	-142.723	-0.249	0.024
-426.588	-33.194	-0.249	0.138
-425.573	-200.000	-0.006	0.238
-424.559	98.171	-0.269	-0.310
-423.544	-77.669	0.201	0.070
-422.530	-200.000	-0.003	0.187
-421.515	-200.000	0.028	-0.122
-420.500	-200.000	-0.037	-0.214
-419.486	25.881	0.203	-0.170
-418.471	-36.567	0.396	-0.214
-417.457	72.245	0.105	-0.110
-416.442	-125.360	-0.135	-0.021
-415.428	166.094	-0.127	0.181
-414.413	101.211	0.103	0.120
-413.398	-122.957	0.322	0.052
-412.384	-141.084	0.202	-0.021
-411.369	9.851	-0.119	0.090
-410.355	-122.705	0.455	0.074
-409.340	-200.000	-0.033	-0.197
-408.325	800.000	-0.041	0.155
-407.311	-144.025	0.283	-0.027
-406.296	-200.000	-0.036	-0.179
-405.282	297.705	-0.110	0.202
-404.267	-152.307	-0.247	0.018
-403.252	-45.050	-0.128	0.064
-402.238	189.862	0.155	0.234
-401.223	-200.000	0.008	0.062
-400.209	-83.727	0.200	0.064
-399.194	800.000	0.083	0.272
-398.179	400.753	-0.074	-0.156
-397.165	-200.000	0.025	-0.249
-396.150	800.000	0.046	-0.154
-395.136	-167.026	0.077	0.003
-394.121	-6.193	0.205	0.140
-393.106	-200.000	0.036	-0.192
-392.092	-26.257	-0.112	0.066
-391.077	125.994	0.148	-0.187
-390.063	139.670	0.117	0.155
-389.048	584.286	0.087	0.215
-388.033	-54.300	0.342	-0.155
-387.019	-23.548	0.165	-0.099
-386.004	297.946	0.117	-0.215
-384.990	-200.000	0.077	-0.341
-383.975	-14.288	-0.070	0.045
-382.960	-191.061	0.232	0.002
-381.946	-6.325	0.033	0.023
-380.931	800.000	-0.088	-0.368
-379.917	369.900	-0.071	0.144
-378.902	755.973	-0.023	-0.062
-377.888	102.756	0.111	0.130
-376.873	345.090	0.113	0.222
-375.858	-97.229	-0.316	-0.083
-374.844	800.000	0.038	-0.114
-373.829	800.000	-0.086	0.344
-372.815	119.487	-0.150	0.185
-371.800	178.055	0.113	-0.165
-370.785	800.000	-0.028	-0.086
-369.771	-53.355	0.055	-0.025
-368.756	-56.625	-0.155	-0.069
-367.742	30.975	-0.198	0.170
-366.727	120.858	0.310	-0.386
-365.712	-81.272	-0.290	0.096
-364.698	212.865	-0.183	-0.289
-363.683	346.915	-0.071	0.140
-362.669	95.231	0.264	0.300
-361.654	778.453	-0.038	-0.105
-360.639	707.845	-0.036	-0.096
-359.625	24.194	-0.220	0.182
-358.610	800.000	-0.041	0.146
-357.596	-94.677	0.077	-0.021
-356.581	-121.003	-0.156	-0.026
-355.566	-9.338	0.172	0.115
-354.552	-124.477	0.160	0.025
-353.537	-10.823	0.149	0.098
-352.523	800.000	0.036	-0.157
-351.508	24.894	0.253	-0.210
-350.493	87.185	-0.029	-0.032
-349.479	19.404	-0.092	0.074
-348.464	-200.000	0.040	-0.258
-347.450	119.782	-0.288	-0.356
-346.435	51.816	0.119	0.113
-345.420	194.306	-0.157	0.237
-344.406	146.626	-0.177	0.238
-343.391	183.802	-0.159	0.234
-342.377	-200.000	-0.018	0.084
-341.362	-200.000	-0.009	0.143
-340.348	-42.754	0.128	-0.065
-339.333	-92.113	-0.205	0.058
-338.318	800.000	-0.012	0.049
-337.304	-93.877	0.311	-0.086
-336.289	800.000	-0.060	0.228
-335.275	-191.138	-0.206	-0.002
-334.260	267.972	0.014	-0.024
-333.245	50.990	0.118	-0.112
-332.231	-110.287	-0.079	0.016
-331.216	-23.140	-0.077	-0.046
-330.202	-200.000	0.001	0.019
-329.187	123.040	0.170	0.212
-328.172	145.341	0.175	0.234
-327.158	7.953	0.107	-0.080
-326.143	800.000	-0.033	0.112
-325.129	-200.000	-0.008	0.247
-324.114	554.681	-0.142	-0.341
-323.099	-142.733	0.330	0.032
-322.085	39.292	0.263	0.235
-321.070	55.633	-0.266	-0.257
-320.056	-82.792	-0.100	0.032
-319.041	-200.000	-0.015	0.188
-318.026	349.142	0.140	0.276
-317.012	152.503	-0.082	-0.111
-315.997	-200.000	0.005	-0.114
-314.983	-185.859	-0.153	-0.002
-313.968	-200.000	0.017	-0.203
-312.953	-200.000	0.035	-0.371
-311.939	-124.944	0.278	0.043
-310.924	-32.678	0.164	0.091
-309.910	193.476	-0.116	-0.175
-308.895	-107.764	-0.081	-0.018
-307.880	35.575	0.259	0.227
-306.866	-71.276	-0.235	-0.088
-305.851	-108.807	-0.212	-0.045
-304.837	-112.167	0.118	0.024
-303.822	-200.000	-0.007	0.085
-302.807	-50.540	0.346	-0.163
-301.793	-92.053	-0.139	0.039
-300.778	-200.000	-0.017	0.227
-299.764	139.361	-0.137	-0.180
-298.749	73.209	-0.158	-0.165
-297.735	98.053	0.119	-0.137
-296.720	41.422	-0.034	-0.030
-295.705	-200.000	-0.035	0.401
-294.691	800.000	0.073	0.218
-293.676	-83.622	0.137	-0.044
-292.662	-200.000	-0.004	0.242
-291.647	193.549	-0.135	-0.204
-290.632	-200.000	-0.038	-0.219
-289.618	72.398	0.155	-0.161
-288.603	800.000	0.040	-0.109
-287.589	270.571	-0.050	0.087
-286.574	-99.645	0.207	0.052
-285.559	68.351	0.087	0.089
-284.545	800.000	0.050	0.187
-283.530	49.295	0.303	-0.284
-282.516	-200.000	-0.058	0.288
-281.501	32.148	-0.135	-0.116
-280.486	-120.747	0.183	0.031
-279.472	-4.018	-0.246	-0.170
-278.457	-139.286	-0.324	-0.035
-277.443	-47.372	0.153	0.074
-276.428	319.178	0.061	0.115
-275.413	371.011	-0.143	0.290
-274.399	800.000	0.052	-0.155
-273.384	-43.133	-0.318	-0.161
-272.370	-95.721	-0.163	0.044
-271.355	119.646	0.220	-0.272
-270.340	190.108	0.148	0.221
-269.326	-102.060	0.302	0.073
-268.311	180.598	0.119	0.174
-267.297	-12.995	0.327	-0.212
-266.282	-200.000	0.032	-0.166
-265.267	-134.729	-0.261	0.032
-264.253	113.219	0.284	0.343
-263.238	36.516	-0.226	0.198
-262.224	-5.332	-0.076	-0.052
-261.209	-36.045	-0.219	-0.118
-260.195	-81.005	0.136	0.045
-259.180	215.065	0.258	0.407
-258.165	800.000	0.113	-0.380
-257.151	-59.273	0.454	-0.195
-256.136	-17.332	-0.263	0.165
-255.122	48.735	0.262	-0.245
-254.107	-7.515	0.187	-0.126
-253.092	-96.798	0.242	-0.063
-252.078	-200.000	0.056	0.243
-251.063	-122.658	0.251	-0.041
-250.049	85.622	-0.137	0.150
-249.034	-73.930	0.198	0.071
-248.019	64.177	-0.332	0.333
-247.005	449.186	0.068	-0.150
-245.990	128.972	-0.200	0.253
-244.976	-200.000	0.021	0.120
-243.961	-200.000	0.029	-0.313
-242.946	-36.863	-0.218	0.117
-241.932	-164.414	-0.066	-0.003
-240.917	37.917	0.047	-0.042
-239.903	22.405	0.219	0.178
-238.888	-28.654	-0.302	-0.173
-237.873	85.903	0.061	0.067
-236.859	322.994	0.067	-0.126
-235.844	-200.000	0.004	0.221
-234.830	-85.137	-0.315	-0.098
-233.815	18.827	0.052	-0.041
-232.800	260.089	0.031	0.053
-231.786	800.000	0.100	0.325
-230.771	544.538	0.111	-0.265
-229.757	800.000	0.080	-0.289
-228.742	70.199	0.283	-0.291
-227.727	-200.000	0.013	0.227
-226.713	-51.373	-0.374	-0.174
-225.698	98.148	0.186	-0.212
-224.684	-200.000	0.009	0.242
-223.669	-25.418	0.314	0.185
-222.655	800.000	-0.074	0.212
-221.640	-76.615	0.341	-0.119
-220.625	-67.434	-0.066	-0.026
-219.611	61.671	-0.220	-0.217
-218.596	-70.320	-0.205	-0.077
-217.582	-27.274	0.146	-0.084
-216.567	-171.759	-0.374	0.012
-215.552	-9.491	-0.088	0.059
-214.538	-13.340	0.172	-0.111
-213.523	159.287	-0.062	-0.086
-212.509	-200.000	-0.034	-0.346
-211.494	-200.000	-0.037	0.265
-210.479	-200.000	0.009	-0.143
-209.465	-78.003	-0.041	-0.014
-208.450	800.000	0.017	0.055
-207.436	261.410	0.041	-0.070
-206.421	-200.000	0.018	-0.201
-205.406	-118.874	0.035	0.006
-204.392	123.393	-0.099	0.123
-203.377	174.899	-0.083	0.120
-202.363	800.000	0.102	-0.373
-201.348	-200.000	-0.023	0.130
-200.333	-167.209	-0.235	-0.009
-199.319	-140.626	0.189	-0.019
-198.304	-185.410	0.348	-0.005
-197.290	-200.000	0.029	0.217
-196.275	-114.123	0.045	-0.009
-195.260	-9.816	-0.184	0.122
-194.246	253.608	0.156	-0.264
-193.231	-49.699	-0.166	-0.078
-192.217	621.251	-0.208	0.520
-191.202	-123.911	-0.326	0.051
-190.187	-158.687	-0.337	-0.019
-189.173	-200.000	0.026	0.282
-188.158	-71.449	-0.054	-0.020
-187.144	-103.955	-0.101	0.023
-186.129	800.000	-0.076	0.212
-185.114	-11.986	0.072	0.047
-184.100	-200.000	0.024	0.124
-183.085	249.763	-0.175	0.294
-182.071	61.023	0.136	0.134
-181.056	-200.000	-0.011	-0.058
-180.042	107.424	0.219	-0.258
-179.027	-200.000	-0.018	-0.350
-178.012	104.416	0.026	-0.031
-176.998	312.107	-0.341	0.636
-175.983	-200.000	0.026	0.408
-174.969	-130.478	0.328	0.044
-173.954	83.662	-0.218	-0.236
-172.939	64.591	0.016	0.016
-171.925	800.000	0.059	-0.167
-170.910	-87.089	0.319	-0.096
-169.896	-66.539	0.133	0.053
-168.881	69.125	-0.131	-0.134
-167.866	33.534	0.194	-0.167
-166.852	80.658	0.273	0.292
-165.837	800.000	0.063	0.202
-164.823	60.689	-0.054	-0.053
-163.808	-200.000	0.043	0.280
-162.793	-3.233	0.039	0.027
-161.779	-61.447	0.205	0.085
-160.764	-200.000	0.012	-0.077
-159.750	-200.000	-0.004	-0.211
-158.735	-200.000	0.021	-0.204
-157.720	800.000	0.028	0.090
-156.706	-127.944	-0.342	0.049
-155.691	236.631	0.128	-0.210
-154.677	-74.519	-0.114	-0.041
-153.662	-29.716	-0.302	0.171
-152.647	118.872	-0.051	0.062
-151.633	-200.000	0.001	-0.083
-150.618	211.458	0.057	-0.089
-149.604	258.934	-0.093	0.160
-148.589	-200.000	0.013	0.171
-147.574	-200.000	0.001	0.144
-146.560	382.548	0.086	-0.175
-145.545	-200.000	-0.047	-0.227
-144.531	144.226	-0.235	0.311
-143.516	122.899	-0.067	-0.083
-142.502	4.850	-0.141	-0.102
-141.487	360.928	0.180	0.358
-140.472	800.000	0.058	0.205
-139.458	-34.942	0.109	0.059
-138.443	-49.260	0.087	0.041
-137.429	48.236	0.262	0.243
-136.414	36.405	-0.235	-0.205
-135.399	124.104	0.093	0.116
-134.385	28.129	-0.046	0.038
-133.370	151.060	-0.313	-0.422
-132.356	-87.282	0.128	0.039
-131.341	79.636	-0.161	-0.171
-130.326	-55.315	0.195	-0.087
-129.312	-164.935	0.031	0.001
-128.297	-36.123	-0.342	-0.183
-127.283	-200.000	-0.019	0.290
-126.268	744.030	-0.124	0.330
-125.253	-200.000	0.016	-0.273
-124.239	-96.737	0.408	-0.106
-123.224	-44.717	0.311	-0.154
-122.210	-200.000	0.209	-0.001
-121.195	7.902	0.193	0.143
