DTS Sentinel unit serial number:	SN413079Multiplexer serial number:	ORYXHardware model number:	OX4-SRSoftware version number:	ORYX F/W v4.00 Oryx Data Collector v3.7.2.0data status	okinstallation	princeton_trtdifferential loss correction	single-endedforward channel	channel 4reverse channel	N/Adate	2019/09/15time	17:25:35forward acquisition time	60.00reverse acquisition time	0.00gamma	496.2192k internal	0.2275k external	0.2275temperature offset calibration	0.9925default loss term (dB/km)	0.3790temperature slope calibration	1.0000multiplexer offset coefficient	1.0000multiplexer slope coefficient	1.0000fibre end	0.00T internal ref (°C)	44.80T ext. ref 1 (°C)	6.11T ext. ref 2 (°C)	40.13length (m)	temperature (°C)	Stokes	anti-Stokes-747.200	-17.297	-0.262	0.170
-746.185	-56.135	0.118	0.054
-745.171	1.432	0.244	-0.181
-744.156	-135.549	-0.197	0.024
-743.142	-200.000	-0.065	-0.323
-742.127	68.142	-0.199	0.210
-741.112	800.000	-0.066	-0.295
-740.098	782.791	0.170	0.480
-739.083	334.394	0.035	-0.071
-738.069	416.093	-0.124	-0.272
-737.054	-91.814	0.032	0.009
-736.039	-150.413	-0.207	-0.016
-735.025	-173.413	0.012	-0.000
-734.010	800.000	0.080	-0.236
-732.996	800.000	-0.106	-0.459
-731.981	51.372	0.183	0.179
-730.966	-80.267	0.336	-0.116
-729.952	-200.000	0.029	-0.303
-728.937	144.325	-0.184	-0.253
-727.923	-126.921	0.236	-0.036
-726.908	-14.115	-0.349	0.232
-725.894	-11.896	0.239	0.161
-724.879	43.342	-0.123	0.116
-723.864	-151.522	0.215	-0.016
-722.850	508.471	0.173	-0.413
-721.835	-159.951	0.245	0.014
-720.821	30.157	-0.250	-0.220
-719.806	800.000	-0.040	-0.152
-718.791	31.384	-0.279	-0.247
-717.777	635.062	-0.016	-0.042
-716.762	-200.000	-0.004	-0.129
-715.748	567.938	0.137	0.344
-714.733	-200.000	0.039	-0.230
-713.718	798.049	0.053	-0.149
-712.704	-5.405	-0.097	0.068
-711.689	-143.098	0.228	0.023
-710.675	81.526	-0.085	0.094
-709.660	800.000	0.105	-0.388
-708.645	-200.000	-0.007	-0.114
-707.631	41.476	0.034	0.031
-706.616	-68.544	0.185	0.074
-705.602	-200.000	-0.024	-0.126
-704.587	-200.000	-0.030	0.233
-703.572	-148.264	0.323	-0.027
-702.558	-69.452	-0.334	0.132
-701.543	-121.410	0.278	0.048
-700.529	-200.000	0.026	0.172
-699.514	130.044	-0.078	-0.102
-698.499	43.631	-0.153	0.144
-697.485	290.043	0.088	-0.164
-696.470	96.117	-0.064	0.075
-695.456	516.215	-0.153	-0.368
-694.441	-200.000	0.047	-0.351
-693.426	384.234	0.052	-0.110
-692.412	-200.000	-0.015	-0.199
-691.397	-36.833	0.211	0.117
-690.383	234.579	0.219	-0.372
-689.368	-200.000	0.031	-0.327
-688.354	-0.185	0.378	-0.276
-687.339	-120.278	-0.261	-0.046
-686.324	16.341	-0.143	0.116
-685.310	800.000	0.046	0.187
-684.295	346.565	0.206	0.416
-683.281	-194.997	0.209	0.002
-682.266	-113.644	0.447	-0.090
-681.251	182.313	-0.113	-0.171
-680.237	181.556	-0.103	0.156
-679.222	-200.000	0.063	-0.402
-678.208	-200.000	0.005	0.219
-677.193	-200.000	-0.021	-0.253
-676.178	-2.544	0.128	-0.092
-675.164	-66.630	-0.048	-0.020
-674.149	-200.000	0.001	-0.234
-673.135	285.044	0.039	-0.073
-672.120	-166.700	-0.134	0.006
-671.105	-99.622	-0.249	-0.064
-670.091	-40.738	-0.143	0.076
-669.076	-55.737	-0.190	-0.087
-668.062	-51.577	-0.122	0.058
-667.047	-14.936	0.137	-0.091
-666.032	402.974	-0.084	-0.181
-665.018	93.848	-0.088	0.102
-664.003	111.944	0.139	-0.173
-662.989	275.874	-0.149	0.271
-661.974	-3.240	-0.099	0.071
-660.959	-175.673	0.413	0.011
-659.945	101.243	-0.058	-0.069
-658.930	377.222	-0.064	-0.135
-657.916	-117.932	-0.255	0.047
-656.901	-129.206	-0.124	-0.018
-655.886	-4.027	0.112	0.080
-654.872	284.333	-0.130	-0.240
-653.857	-200.000	0.029	0.265
-652.843	800.000	0.063	-0.272
-651.828	97.328	-0.231	0.272
-650.814	800.000	-0.130	-0.374
-649.799	8.813	-0.141	0.109
-648.784	-113.493	-0.151	-0.030
-647.770	427.619	0.101	-0.224
-646.755	442.309	0.174	-0.392
-645.741	-146.441	0.151	-0.014
-644.726	779.159	0.102	-0.287
-643.711	-120.400	0.214	-0.037
-642.697	-200.000	-0.000	0.253
-641.682	-106.908	0.109	0.025
-640.668	57.831	0.329	0.331
-639.653	268.886	-0.168	0.304
-638.638	-9.656	-0.048	0.033
-637.624	-160.521	-0.332	-0.018
-636.609	-74.661	-0.140	0.052
-635.595	-200.000	-0.027	0.320
-634.580	119.970	-0.077	-0.098
-633.565	-131.212	-0.370	-0.051
-632.551	609.522	-0.038	-0.097
-631.536	-105.215	0.125	0.029
-630.522	695.928	-0.104	0.281
-629.507	800.000	-0.072	0.257
-628.492	144.444	-0.105	0.144
-627.478	306.562	0.144	0.274
-626.463	-73.859	0.231	0.086
-625.449	118.722	0.135	-0.172
-624.434	-200.000	-0.030	-0.184
-623.419	-200.000	-0.065	-0.310
-622.405	514.511	0.020	0.047
-621.390	-148.514	-0.105	0.009
-620.376	55.276	-0.201	-0.199
-619.361	800.000	0.110	-0.355
-618.346	-121.172	-0.319	0.055
-617.332	446.098	0.144	0.326
-616.317	438.339	-0.054	0.121
-615.303	-92.679	-0.108	-0.031
-614.288	-14.110	0.030	-0.020
-613.273	-6.768	0.097	-0.068
-612.259	-91.515	0.243	-0.071
-611.244	9.899	0.101	0.079
-610.230	-200.000	-0.029	0.193
-609.215	359.433	0.149	-0.305
-608.201	-200.000	0.023	-0.367
-607.186	636.736	-0.144	-0.374
-606.171	-81.542	-0.337	0.114
-605.157	-200.000	0.019	-0.143
-604.142	-22.980	0.282	0.174
-603.128	-28.468	0.120	-0.071
-602.113	-1.883	-0.309	-0.223
-601.098	-71.498	0.093	0.036
-600.084	32.159	0.037	-0.033
-599.069	20.089	-0.210	0.174
-598.055	-72.932	-0.211	-0.080
-597.040	-108.857	0.154	0.034
-596.025	-200.000	0.062	-0.294
-595.011	132.915	-0.171	-0.226
-593.996	-87.975	-0.075	0.023
-592.982	-144.170	-0.083	-0.008
-591.967	39.411	-0.125	0.115
-590.952	14.484	-0.116	0.093
-589.938	-2.003	-0.277	-0.200
-588.923	794.692	0.029	-0.081
-587.909	800.000	-0.103	0.314
-586.894	47.631	0.123	-0.118
-585.879	-21.296	-0.332	-0.208
-584.865	-86.244	-0.284	0.090
-583.850	361.641	-0.102	-0.210
-582.836	65.255	-0.266	-0.275
-581.821	-15.139	-0.126	0.083
-580.806	-9.566	-0.143	0.098
-579.792	-156.091	-0.096	0.006
-578.777	58.162	0.167	0.167
-577.763	-109.128	-0.285	0.062
-576.748	493.334	0.063	0.148
-575.733	119.669	-0.092	-0.116
-574.719	224.216	0.131	0.216
-573.704	37.453	0.175	0.159
-572.690	250.308	-0.065	-0.114
-571.675	-200.000	-0.001	0.174
-570.661	-27.665	-0.042	-0.025
-569.646	448.399	0.192	-0.433
-568.631	-200.000	0.003	-0.335
-567.617	159.961	-0.158	0.225
-566.602	-7.638	-0.296	-0.205
-565.588	206.199	0.076	-0.121
-564.573	531.843	0.040	0.097
-563.558	44.518	0.256	0.241
-562.544	800.000	-0.069	-0.308
-561.529	-104.172	-0.432	0.103
-560.515	-61.841	-0.234	0.100
-559.500	671.249	-0.013	0.035
-558.485	9.154	0.177	-0.137
-557.471	800.000	-0.027	-0.110
-556.456	-200.000	0.022	0.584
-555.442	294.776	0.059	-0.111
-554.427	238.993	-0.172	-0.293
-553.412	800.000	-0.085	0.248
-552.398	235.582	0.213	0.359
-551.383	106.285	0.193	0.234
-550.369	12.420	-0.106	-0.084
-549.354	180.471	-0.085	0.127
-548.339	11.251	-0.102	-0.080
-547.325	-36.552	0.297	-0.164
-546.310	652.002	0.136	-0.358
-545.296	-29.169	0.521	0.306
-544.281	51.726	-0.154	0.150
-543.266	84.345	-0.141	0.158
-542.252	88.143	-0.044	-0.050
-541.237	-200.000	0.042	0.215
-540.223	800.000	-0.106	-0.343
-539.208	-200.000	-0.015	0.320
-538.193	499.221	0.094	0.221
-537.179	800.000	-0.034	-0.136
-536.164	262.177	-0.032	0.057
-535.150	-151.660	0.071	-0.005
-534.135	-22.590	0.376	-0.232
-533.121	-5.782	-0.175	-0.123
-532.106	-123.123	0.236	0.039
-531.091	-101.383	-0.146	0.037
-530.077	-121.377	0.152	-0.026
-529.062	123.992	0.179	-0.230
-528.048	-41.479	-0.136	-0.071
-527.033	-200.000	0.012	0.147
-526.018	310.683	0.061	0.117
-525.004	-200.000	-0.036	0.209
-523.989	-34.417	-0.026	0.014
-522.975	-21.843	0.068	0.042
-521.960	64.075	0.271	-0.279
-520.945	-200.000	-0.006	-0.047
-519.931	251.850	0.187	-0.325
-518.916	-95.295	-0.082	-0.023
-517.902	-200.000	0.043	-0.237
-516.887	95.384	-0.144	0.168
-515.872	148.491	-0.119	0.164
-514.858	-198.234	0.260	-0.002
-513.843	-200.000	-0.030	-0.175
-512.829	12.270	-0.276	0.217
-511.814	393.592	-0.240	0.510
-510.799	114.593	0.290	0.361
-509.785	38.875	0.242	0.221
-508.770	-136.516	-0.185	-0.022
-507.756	-17.621	0.220	0.141
-506.741	62.344	0.121	-0.124
-505.726	-85.281	-0.411	0.131
-504.712	234.263	-0.097	-0.163
-503.697	-159.350	0.112	-0.006
-502.683	336.255	0.131	-0.260
-501.668	800.000	0.055	-0.191
-500.653	-67.971	0.334	-0.133
-499.639	87.636	-0.292	-0.331
-498.624	140.201	-0.191	-0.257
-497.610	-200.000	0.011	-0.278
-496.595	77.901	0.111	-0.121
-495.581	117.795	-0.095	0.120
-494.566	-89.849	-0.097	0.029
-493.551	51.188	-0.110	0.107
-492.537	-163.558	0.086	0.004
-491.522	-20.886	0.073	-0.046
-490.508	-76.973	0.045	-0.016
-489.493	293.525	-0.116	0.217
-488.478	-56.671	0.100	0.045
-487.464	-200.000	0.053	0.338
-486.449	216.211	0.194	-0.316
-485.435	159.955	0.108	-0.154
-484.420	-137.312	0.262	0.030
-483.405	26.422	0.030	0.025
-482.391	800.000	0.082	-0.268
-481.376	-49.243	-0.240	0.117
-480.362	89.341	-0.035	-0.040
-479.347	-55.641	-0.273	-0.125
-478.332	227.175	-0.058	-0.096
-477.318	-200.000	0.050	0.280
-476.303	139.652	0.111	-0.150
-475.289	-8.001	0.067	0.046
-474.274	92.375	-0.120	-0.138
-473.259	-108.751	-0.243	0.053
-472.245	56.947	-0.082	-0.081
-471.230	-65.429	-0.216	-0.089
-470.216	-200.000	0.063	-0.298
-469.201	800.000	0.117	-0.339
-468.186	-121.545	-0.306	-0.052
-467.172	-142.888	0.318	-0.031
-466.157	-200.000	0.027	-0.323
-465.143	10.738	-0.266	0.207
-464.128	-104.467	0.236	0.056
-463.113	2.889	0.121	-0.090
-462.099	-48.399	-0.138	-0.068
-461.084	652.313	-0.079	-0.206
-460.070	-72.683	0.272	0.102
-459.055	-87.930	0.294	0.090
-458.040	-44.266	-0.292	0.149
-457.026	242.939	-0.099	0.170
-456.011	141.473	-0.108	0.146
-454.997	-75.193	0.277	0.101
-453.982	-96.549	-0.323	-0.087
-452.968	-200.000	0.017	-0.292
-451.953	-81.017	0.078	0.026
-450.938	-110.897	-0.269	-0.056
-449.924	800.000	0.056	-0.176
-448.909	-200.000	-0.019	-0.173
-447.895	371.844	-0.040	-0.084
-446.880	174.738	0.095	-0.140
-445.865	-104.657	0.183	-0.043
-444.851	-155.753	0.275	0.018
-443.836	800.000	0.103	0.312
-442.822	-200.000	0.019	-0.270
-441.807	-168.853	-0.151	-0.006
-440.792	464.190	-0.144	0.327
-439.778	-82.733	0.159	0.053
-438.763	109.357	-0.126	-0.154
-437.749	-25.223	0.220	-0.132
-436.734	55.072	0.182	0.179
-435.719	-200.000	-0.019	0.178
-434.705	8.225	0.225	-0.172
-433.690	-144.977	0.505	-0.047
-432.676	590.301	-0.010	-0.024
-431.661	800.000	0.048	0.167
-430.646	123.446	0.192	0.245
-429.632	145.154	-0.106	-0.145
-428.617	643.121	0.051	0.132
-427.603	17.371	0.199	0.161
-426.588	373.071	-0.148	-0.307
-425.573	-200.000	0.033	0.372
-424.559	252.021	0.096	0.167
-423.544	-136.689	0.136	0.016
-422.530	-200.000	-0.008	-0.140
-421.515	-136.571	0.311	0.037
-420.500	800.000	0.050	0.174
-419.486	-44.263	-0.277	0.142
-418.471	58.725	-0.201	0.201
-417.457	800.000	0.051	-0.221
-416.442	-29.808	0.133	-0.077
-415.428	-196.866	-0.146	0.001
-414.413	15.909	0.156	-0.125
-413.398	574.829	0.020	-0.051
-412.384	0.728	0.179	-0.130
-411.369	-61.431	-0.218	0.094
-410.355	-69.556	0.236	-0.092
-409.340	220.938	-0.063	0.104
-408.325	-104.458	0.107	0.025
-407.311	-200.000	-0.024	-0.319
-406.296	800.000	-0.056	-0.176
-405.282	800.000	-0.051	0.144
-404.267	-142.052	-0.081	-0.008
-403.252	357.019	-0.082	-0.166
-402.238	-146.399	-0.048	-0.004
-401.223	36.585	0.159	-0.142
-400.209	-43.622	0.158	0.081
-399.194	-84.348	-0.062	-0.020
-398.179	-200.000	0.015	-0.151
-397.165	-92.344	0.072	-0.021
-396.150	-138.738	0.195	0.022
-395.136	-22.309	0.179	-0.111
-394.121	-43.314	-0.188	-0.097
-393.106	-45.800	-0.269	0.135
-392.092	262.603	-0.160	0.282
-391.077	-176.475	-0.231	-0.006
-390.063	171.101	0.155	-0.227
-389.048	800.000	0.054	0.213
-388.033	800.000	-0.029	0.102
-387.019	-61.812	0.205	0.087
-386.004	-12.297	0.083	-0.055
-384.990	68.708	-0.138	0.144
-383.975	-66.744	-0.098	0.039
-382.960	-68.686	-0.093	0.037
-381.946	-200.000	0.015	0.357
-380.931	51.108	-0.085	0.082
-379.917	114.643	-0.179	0.221
-378.902	-200.000	0.022	0.244
-377.888	-5.663	-0.167	0.116
-376.873	-45.445	-0.091	-0.046
-375.858	-200.000	-0.065	0.328
-374.844	21.763	0.145	0.120
-373.829	293.580	0.035	0.066
-372.815	280.534	0.169	0.308
-371.800	-93.903	0.440	0.123
-370.785	-83.013	-0.417	-0.136
-369.771	-200.000	-0.050	0.388
-368.756	800.000	0.062	-0.208
-367.742	-125.460	-0.376	-0.058
-366.727	364.144	0.079	-0.162
-365.712	-143.798	0.331	0.032
-364.698	-200.000	-0.012	-0.127
-363.683	-52.160	0.088	0.041
-362.669	-79.834	-0.229	-0.078
-361.654	-19.607	0.131	0.083
-360.639	7.262	0.116	-0.088
-359.625	181.539	0.205	-0.307
-358.610	-200.000	-0.004	0.434
-357.596	-200.000	-0.014	0.065
-356.581	800.000	-0.045	-0.140
-355.566	-38.145	-0.073	-0.039
-354.552	-200.000	0.003	0.237
-353.537	-33.627	-0.196	-0.110
-352.523	-20.240	0.153	0.095
-351.508	-155.296	-0.144	-0.009
-350.493	-29.631	-0.160	0.093
-349.479	701.262	-0.125	0.334
-348.464	109.670	0.077	0.093
-347.450	800.000	-0.063	0.277
-346.435	90.892	-0.050	-0.057
-345.420	-121.660	-0.350	0.059
-344.406	-187.250	-0.195	0.003
-343.391	800.000	0.037	-0.129
-342.377	-27.451	-0.196	-0.116
-341.362	-30.645	0.092	-0.053
-340.348	-25.629	0.032	-0.019
-339.333	-30.707	0.348	0.200
-338.318	-51.736	0.085	0.040
-337.304	-73.612	-0.314	-0.116
-336.289	99.730	0.242	0.284
-335.275	800.000	-0.044	0.143
-334.260	147.419	0.245	0.334
-333.245	202.829	0.284	0.445
-332.231	53.224	0.159	0.155
-331.216	-200.000	-0.030	0.174
-330.202	-139.884	0.171	0.018
-329.187	206.771	0.062	0.099
-328.172	-66.588	0.327	-0.132
-327.158	-200.000	-0.050	-0.468
-326.143	-94.740	-0.135	0.037
-325.129	258.372	-0.167	0.292
-324.114	-169.530	0.147	0.005
-323.099	-29.729	0.194	0.112
-322.085	-85.115	0.334	-0.106
-321.070	76.769	0.164	-0.177
-320.056	48.581	0.096	0.091
-319.041	519.912	-0.049	0.115
-318.026	24.500	0.224	-0.188
-317.012	-119.456	0.069	-0.012
-315.997	-200.000	-0.015	-0.407
-314.983	800.000	-0.102	-0.335
-313.968	-137.122	0.153	0.018
-312.953	-90.571	0.238	-0.070
-311.939	-130.065	-0.290	-0.040
-310.924	250.862	0.176	0.303
-309.910	39.634	-0.068	-0.062
-308.895	-11.708	0.248	0.165
-307.880	85.497	0.149	-0.166
-306.866	-148.723	-0.212	0.017
-305.851	147.274	-0.140	-0.191
-304.837	366.937	0.057	-0.117
-303.822	-88.820	0.084	-0.025
-302.807	177.064	-0.162	-0.240
-301.793	52.274	0.294	-0.285
-300.778	800.000	-0.051	-0.215
-299.764	-57.986	-0.221	-0.098
-298.749	-30.604	0.338	0.194
-297.735	-109.293	-0.323	-0.069
-296.720	-102.915	-0.112	-0.027
-295.705	-40.399	0.069	-0.036
-294.691	139.248	-0.108	0.144
-293.676	-87.702	-0.458	0.140
-292.662	800.000	0.068	-0.249
-291.647	-0.890	-0.098	0.070
-290.632	800.000	0.121	0.464
-289.618	286.110	0.085	0.156
-288.603	-200.000	0.004	0.059
-287.589	435.320	-0.137	-0.302
-286.574	111.397	-0.015	-0.018
-285.559	52.919	0.292	-0.283
-284.545	48.370	0.232	-0.220
-283.530	-81.315	-0.018	0.006
-282.516	-200.000	-0.105	-0.609
-281.501	-11.503	-0.268	0.179
-280.486	444.133	0.148	-0.329
-279.472	-40.936	0.151	0.079
-278.457	-31.770	-0.358	0.203
-277.443	178.541	-0.056	0.083
-276.428	-112.204	-0.488	-0.099
-275.413	29.104	-0.152	-0.130
-274.399	-200.000	0.009	-0.286
-273.384	-146.604	0.243	-0.021
-272.370	239.938	0.120	-0.203
-271.355	72.168	-0.171	0.181
-270.340	265.834	-0.184	-0.325
-269.326	-200.000	0.067	-0.355
-268.311	800.000	-0.051	0.143
-267.297	144.720	-0.168	-0.227
-266.282	80.264	-0.117	-0.128
-265.267	24.302	0.332	-0.277
-264.253	113.655	-0.127	0.157
-263.238	258.890	0.160	-0.279
-262.224	-18.249	-0.164	-0.104
-261.209	244.390	0.164	0.279
-260.195	-14.906	0.035	-0.023
-259.180	131.220	-0.149	-0.194
-258.165	800.000	0.054	0.200
-257.151	80.182	-0.191	0.208
-256.136	240.667	-0.011	0.019
-255.122	800.000	-0.075	-0.305
-254.107	2.280	0.276	-0.202
-253.092	198.741	-0.152	0.236
-252.078	-83.597	0.152	0.049
-251.063	800.000	0.035	-0.145
-250.049	72.878	0.172	-0.182
-249.034	-13.307	-0.150	0.098
-248.019	26.498	-0.217	0.184
-247.005	73.704	0.027	0.029
-245.990	91.301	0.102	-0.116
-244.976	-170.042	0.132	0.005
-243.961	-170.714	-0.283	0.010
-242.946	582.458	0.074	0.183
-241.932	-200.000	-0.001	0.027
-240.917	496.006	0.054	-0.125
-239.903	181.407	-0.134	0.200
-238.888	-122.184	0.212	-0.035
-237.873	800.000	0.078	-0.263
-236.859	400.823	0.004	-0.009
-235.844	421.585	-0.075	-0.163
-234.830	193.966	0.081	0.125
-233.815	-102.709	-0.078	0.019
-232.800	218.481	-0.107	0.172
-231.786	-200.000	0.006	-0.160
-230.771	246.048	-0.102	-0.174
-229.757	-200.000	0.003	-0.144
-228.742	-47.929	0.397	-0.194
-227.727	113.330	0.073	0.090
-226.713	21.817	-0.231	0.190
-225.698	-139.039	-0.263	-0.029
-224.684	18.913	-0.101	-0.082
-223.669	800.000	0.058	0.184
-222.655	45.796	-0.393	-0.367
-221.640	-200.000	0.030	0.416
-220.625	74.850	-0.053	0.056
-219.611	-200.000	0.000	-0.189
-218.596	163.390	-0.017	0.024
-217.582	-25.202	-0.171	-0.102
-216.567	-200.000	0.085	0.385
-215.552	733.011	-0.077	-0.209
-214.538	-135.004	0.188	0.023
-213.523	-200.000	0.028	0.160
-212.509	-46.343	0.182	0.090
-211.494	-200.000	0.011	0.062
-210.479	-23.823	-0.355	0.215
-209.465	-200.000	0.044	0.218
-208.450	-200.000	0.040	-0.237
-207.436	118.894	-0.154	0.192
-206.421	-200.000	-0.072	0.363
-205.406	-142.359	-0.458	0.046
-204.392	135.398	-0.065	-0.085
-203.377	53.054	-0.102	0.099
-202.363	-182.900	0.126	-0.002
-201.348	316.476	0.033	0.063
-200.333	49.690	0.048	0.046
-199.319	237.908	0.094	-0.157
-198.304	256.456	-0.063	0.109
-197.290	71.625	0.093	0.098
-196.275	-59.560	0.338	-0.147
-195.260	396.055	0.098	0.206
-194.246	279.742	0.044	0.079
-193.231	800.000	-0.047	0.158
-192.217	-200.000	-0.035	-0.154
-191.202	54.967	-0.193	0.188
-190.187	-200.000	0.039	0.291
-189.173	84.827	0.061	0.067
-188.158	-106.667	-0.234	-0.053
-187.144	-160.805	-0.246	-0.013
-186.129	116.773	0.121	0.149
-185.114	-200.000	0.017	0.084
-184.100	-200.000	-0.044	-0.223
-183.085	19.153	-0.217	0.176
-182.071	-157.581	-0.171	-0.010
-181.056	55.372	0.214	-0.208
-180.042	-200.000	-0.043	-0.194
-179.027	-88.941	-0.152	-0.046
-178.012	366.533	0.083	-0.169
-176.998	118.972	-0.085	0.106
-175.983	-200.000	-0.033	0.175
-174.969	-13.474	0.229	-0.150
-173.954	-178.702	0.216	0.005
-172.939	218.889	0.153	-0.247
-171.925	40.867	-0.365	0.332
-170.910	96.211	0.171	0.197
-169.896	-100.498	0.122	0.030
-168.881	271.035	0.073	-0.129
-167.866	-200.000	0.001	0.226
-166.852	95.699	0.047	-0.054
-165.837	411.832	0.010	0.022
-164.823	678.681	-0.047	-0.123
-163.808	-78.857	-0.205	-0.070
-162.793	105.026	0.082	-0.098
-161.779	-13.011	0.182	0.119
-160.764	-200.000	0.019	0.329
-159.750	-200.000	0.007	-0.081
-158.735	-32.683	-0.085	-0.048
-157.720	144.878	-0.116	-0.156
-156.706	-33.164	0.339	0.189
-155.691	9.096	0.190	0.145
-154.677	111.640	0.287	-0.349
-153.662	-9.717	0.167	-0.112
-152.647	800.000	0.078	0.260
-151.633	329.590	-0.159	0.307
-150.618	127.478	0.012	-0.015
-149.604	-200.000	-0.038	-0.261
-148.589	-200.000	0.014	0.113
-147.574	49.512	-0.141	0.133
-146.560	-6.521	-0.140	0.096
-145.545	576.794	-0.137	0.337
-144.531	184.913	-0.165	0.246
-143.516	40.938	-0.226	0.205
-142.502	-200.000	0.004	0.032
-141.487	345.825	0.045	-0.089
-140.472	-10.720	0.383	-0.255
-139.458	800.000	-0.031	0.111
-138.443	-169.699	0.153	-0.006
-137.429	372.279	0.109	0.223
-136.414	-91.509	-0.226	0.065
-135.399	-125.630	-0.006	-0.001
-134.385	299.020	-0.150	-0.278
-133.370	-117.259	-0.118	-0.022
-132.356	-200.000	0.029	0.228
-131.341	185.455	-0.152	0.227
-130.326	-115.513	-0.227	-0.043
-129.312	800.000	0.092	0.277
-128.297	412.797	-0.225	0.482
-127.283	298.208	0.112	0.208
-126.268	-200.000	-0.015	0.498
-125.253	141.366	-0.163	-0.217
-124.239	-200.000	-0.009	-0.113
-123.224	-200.000	-0.011	-0.084
-122.210	-200.000	0.014	0.239
-121.195	-200.000	0.007	0.190
