DTS Sentinel unit serial number:	SN413079Multiplexer serial number:	ORYXHardware model number:	OX4-SRSoftware version number:	ORYX F/W v4.00 Oryx Data Collector v3.7.2.0data status	okinstallation	princeton_trtdifferential loss correction	single-endedforward channel	channel 4reverse channel	N/Adate	2019/09/15time	18:57:35forward acquisition time	60.00reverse acquisition time	0.00gamma	496.2192k internal	0.2285k external	0.2285temperature offset calibration	0.9919default loss term (dB/km)	0.3790temperature slope calibration	1.0000multiplexer offset coefficient	1.0000multiplexer slope coefficient	1.0000fibre end	0.00T internal ref (°C)	42.41T ext. ref 1 (°C)	7.00T ext. ref 2 (°C)	32.31length (m)	temperature (°C)	Stokes	anti-Stokes-747.200	50.328	0.176	0.171
-746.185	-140.902	-0.228	0.024
-745.171	193.112	-0.183	0.284
-744.156	35.524	-0.187	0.168
-743.142	201.196	0.198	0.313
-742.127	163.007	0.108	-0.155
-741.112	-200.000	0.006	-0.226
-740.098	633.878	-0.081	0.211
-739.083	513.476	0.122	-0.292
-738.069	-56.767	-0.317	0.144
-737.054	-200.000	0.021	-0.179
-736.039	98.064	-0.083	-0.098
-735.025	50.330	0.164	0.159
-734.010	-85.614	0.297	-0.095
-732.996	777.432	-0.084	-0.235
-731.981	20.743	-0.237	0.197
-730.966	-95.721	0.044	0.012
-729.952	-137.579	0.336	0.039
-728.937	-98.777	-0.064	0.017
-727.923	-184.085	-0.120	-0.002
-726.908	-200.000	-0.018	-0.358
-725.894	-86.456	0.052	-0.016
-724.879	622.494	0.086	-0.223
-723.864	-60.538	0.273	-0.119
-722.850	124.730	-0.187	0.242
-721.835	-25.403	0.151	-0.092
-720.821	-200.000	-0.040	0.267
-719.806	-66.551	-0.276	0.112
-718.791	-200.000	0.052	0.257
-717.777	-141.611	0.198	-0.020
-716.762	800.000	-0.022	0.069
-715.748	-3.877	0.020	0.014
-714.733	55.938	-0.047	0.047
-713.718	18.540	0.195	-0.160
-712.704	-30.361	-0.168	0.098
-711.689	225.170	0.165	-0.273
-710.675	388.467	-0.110	-0.234
-709.660	-156.479	0.172	-0.011
-708.645	344.502	-0.072	-0.145
-707.631	-191.989	0.346	0.003
-706.616	-75.174	-0.293	0.107
-705.602	-84.448	0.173	0.056
-704.587	111.411	0.114	0.141
-703.572	-133.997	-0.089	-0.011
-702.558	388.035	0.162	0.344
-701.543	-151.327	0.353	-0.027
-700.529	199.815	-0.039	-0.061
-699.514	800.000	-0.050	-0.150
-698.499	-2.848	-0.145	0.104
-697.485	35.808	0.089	0.080
-696.470	-200.000	-0.003	-0.032
-695.456	-129.462	-0.244	-0.035
-694.441	-51.036	0.465	-0.223
-693.426	-200.000	0.016	-0.252
-692.412	-2.307	-0.165	0.119
-691.397	-200.000	0.017	-0.135
-690.383	-109.910	0.114	0.024
-689.368	-89.401	-0.129	0.039
-688.354	793.650	-0.027	0.076
-687.339	94.600	-0.197	-0.229
-686.324	99.327	-0.201	-0.239
-685.310	-86.642	-0.206	0.065
-684.295	-200.000	0.002	0.021
-683.281	-60.915	0.187	0.081
-682.266	-5.240	-0.030	0.021
-681.251	160.966	0.153	-0.218
-680.237	-77.471	0.190	-0.068
-679.222	401.847	-0.037	0.080
-678.208	-155.884	0.102	-0.007
-677.193	728.719	-0.049	0.134
-676.178	2.912	0.293	-0.218
-675.164	800.000	0.106	0.314
-674.149	9.886	0.248	0.193
-673.135	605.731	-0.067	-0.170
-672.120	459.664	-0.157	-0.358
-671.105	2.443	-0.033	0.025
-670.091	-30.040	-0.185	0.108
-669.076	-65.862	-0.061	0.025
-668.062	70.979	-0.190	-0.201
-667.047	684.856	0.055	0.147
-666.032	358.000	0.043	0.087
-665.018	75.377	-0.136	0.146
-664.003	-200.000	-0.088	0.627
-662.989	94.010	0.343	0.398
-661.974	-130.072	0.415	0.058
-660.959	-73.337	0.220	-0.082
-659.945	96.267	0.141	-0.165
-658.930	352.763	-0.114	-0.232
-657.916	-112.281	0.331	-0.068
-656.901	-200.000	-0.006	-0.217
-655.886	-200.000	-0.018	-0.216
-654.872	-200.000	0.009	-0.401
-653.857	-134.891	-0.200	-0.025
-652.843	-17.881	-0.225	0.144
-651.828	-200.000	0.018	-0.189
-650.814	800.000	-0.035	0.116
-649.799	-200.000	-0.050	0.324
-648.784	-200.000	0.010	0.181
-647.770	-160.890	-0.416	0.022
-646.755	140.570	-0.290	0.392
-645.741	-54.190	-0.331	0.154
-644.726	-100.116	-0.065	-0.016
-643.711	800.000	-0.063	-0.196
-642.697	-84.760	-0.329	-0.106
-641.682	-200.000	-0.017	-0.168
-640.668	111.516	0.234	0.289
-639.653	800.000	0.064	-0.223
-638.638	-51.889	0.184	0.087
-637.624	157.829	0.110	0.156
-636.609	-200.000	-0.049	-0.408
-635.595	153.995	-0.104	0.146
-634.580	-57.991	-0.114	-0.051
-633.565	-200.000	-0.066	0.326
-632.551	744.566	-0.097	0.266
-631.536	-200.000	-0.016	-0.322
-630.522	-200.000	-0.018	0.238
-629.507	275.224	-0.027	0.049
-628.492	40.432	-0.393	-0.361
-627.478	-108.847	-0.068	0.015
-626.463	135.441	-0.055	-0.073
-625.449	698.383	-0.071	-0.190
-624.434	-28.397	-0.348	-0.205
-623.419	-200.000	-0.008	0.075
-622.405	170.145	-0.101	0.148
-621.390	273.680	-0.130	-0.235
-620.376	33.349	0.106	-0.094
-619.361	-37.735	-0.163	-0.089
-618.346	-200.000	0.001	0.015
-617.332	424.790	-0.069	-0.151
-616.317	800.000	0.014	-0.049
-615.303	-200.000	-0.431	0.000
-614.288	-25.890	0.327	-0.197
-613.273	-200.000	0.039	0.232
-612.259	726.633	0.091	-0.247
-611.244	434.362	0.124	-0.274
-610.230	79.205	0.288	-0.315
-609.215	-150.159	0.375	-0.030
-608.201	-53.628	-0.304	-0.142
-607.186	251.255	0.102	0.177
-606.171	513.898	-0.041	0.097
-605.157	-107.142	0.114	-0.026
-604.142	-200.000	0.040	0.188
-603.128	-75.259	0.313	0.114
-602.113	-132.490	0.066	-0.009
-601.098	619.660	0.063	-0.160
-600.084	71.314	-0.288	0.305
-599.069	-91.424	-0.275	-0.080
-598.055	-109.692	0.231	-0.050
-597.040	-61.773	0.210	-0.090
-596.025	-149.429	-0.265	-0.021
-595.011	-160.004	0.099	-0.005
-593.996	-47.707	-0.333	-0.165
-592.982	-166.226	0.124	-0.005
-591.967	-44.045	0.246	-0.126
-590.952	-200.000	-0.047	-0.227
-589.938	11.793	-0.219	-0.172
-588.923	282.774	-0.067	-0.123
-587.909	5.145	0.274	-0.206
-586.894	2.320	-0.084	-0.062
-585.879	-94.905	0.221	-0.061
-584.865	-39.917	0.385	0.205
-583.850	-8.016	-0.208	0.143
-582.836	120.724	-0.060	-0.077
-581.821	-89.945	-0.363	0.108
-580.806	31.789	0.065	0.057
-579.792	10.121	0.192	-0.149
-578.777	-147.089	-0.245	-0.021
-577.763	-136.033	-0.167	-0.020
-576.748	-200.000	0.030	-0.145
-575.733	72.358	-0.164	-0.175
-574.719	-109.812	-0.304	-0.065
-573.704	149.891	0.249	0.344
-572.690	231.536	-0.147	0.246
-571.675	156.728	-0.149	-0.211
-570.661	7.992	0.246	-0.188
-569.646	38.799	-0.128	-0.117
-568.631	99.640	0.127	0.150
-567.617	800.000	0.024	0.094
-566.602	-0.230	0.126	-0.092
-565.588	27.310	0.097	-0.083
-564.573	193.566	-0.254	0.392
-563.558	-134.190	0.280	0.035
-562.544	800.000	0.093	0.265
-561.529	3.923	-0.085	-0.063
-560.515	800.000	-0.164	0.492
-559.500	378.574	-0.048	0.100
-558.485	0.460	-0.226	0.165
-557.471	301.056	-0.057	0.107
-556.456	800.000	-0.041	0.136
-555.442	-200.000	0.021	0.172
-554.427	-12.161	0.247	0.165
-553.412	132.427	-0.139	0.182
-552.398	-37.727	-0.159	0.087
-551.383	800.000	0.043	-0.170
-550.369	140.259	-0.120	-0.161
-549.354	800.000	-0.050	0.207
-548.339	-162.692	0.526	-0.026
-547.325	-163.870	0.555	0.026
-546.310	-158.393	-0.125	0.007
-545.296	-146.845	0.089	-0.008
-544.281	-133.784	-0.233	-0.030
-543.266	-9.133	-0.115	0.078
-542.252	-200.000	0.007	0.179
-541.237	-1.741	0.266	-0.191
-540.223	-8.763	-0.204	-0.139
-539.208	-200.000	-0.043	0.267
-538.193	-33.001	-0.175	0.099
-537.179	-200.000	0.023	-0.139
-536.164	800.000	0.034	0.113
-535.150	-200.000	-0.008	-0.157
-534.135	800.000	-0.035	-0.149
-533.121	87.462	0.217	-0.244
-532.106	451.476	-0.012	-0.028
-531.091	170.820	-0.134	0.196
-530.077	1.629	0.199	-0.146
-529.062	174.440	-0.186	-0.273
-528.048	96.062	0.226	0.263
-527.033	-150.410	0.455	0.036
-526.018	800.000	-0.083	-0.251
-525.004	-200.000	-0.003	-0.258
-523.989	-115.527	0.084	0.016
-522.975	-70.561	-0.322	-0.124
-521.960	-200.000	0.030	-0.209
-520.945	168.566	0.085	-0.124
-519.931	29.046	-0.133	-0.115
-518.916	-53.348	0.106	-0.050
-517.902	-141.921	0.235	0.024
-516.887	48.521	0.069	0.065
-515.872	-54.656	-0.104	0.048
-514.858	-116.246	0.392	0.074
-513.843	-200.000	-0.008	0.075
-512.829	-153.387	0.298	0.021
-511.814	-200.000	0.063	0.306
-510.799	603.760	-0.046	-0.117
-509.785	-88.135	0.164	0.050
-508.770	800.000	0.127	-0.399
-507.756	587.945	0.055	-0.138
-506.741	71.307	-0.117	-0.123
-505.726	-88.795	-0.162	-0.049
-504.712	-144.030	0.366	-0.035
-503.697	-168.192	0.279	-0.011
-502.683	107.687	-0.156	-0.189
-501.668	-26.565	0.236	0.140
-500.653	88.749	-0.079	0.090
-499.639	-58.008	-0.253	-0.112
-498.624	492.703	-0.042	-0.098
-497.610	224.295	0.112	0.183
-496.595	-65.244	0.157	0.064
-495.581	176.056	0.123	-0.182
-494.566	-126.779	-0.374	-0.056
-493.551	-10.605	-0.068	0.046
-492.537	47.470	-0.199	-0.189
-491.522	419.174	0.142	-0.309
-490.508	-77.479	0.143	0.050
-489.493	108.723	0.060	0.073
-488.478	-26.258	-0.073	0.044
-487.464	-159.804	-0.178	0.010
-486.449	-200.000	-0.022	0.108
-485.435	191.154	-0.174	-0.267
-484.420	175.598	0.084	0.124
-483.405	10.955	0.153	-0.119
-482.391	114.082	-0.165	0.203
-481.376	-200.000	0.056	0.258
-480.362	-169.315	-0.064	0.002
-479.347	23.325	-0.273	-0.228
-478.332	71.522	-0.179	-0.189
-477.318	-53.163	0.295	-0.138
-476.303	110.696	0.280	-0.342
-475.289	-200.000	0.008	0.266
-474.274	201.751	0.063	-0.098
-473.259	800.000	0.076	-0.219
-472.245	800.000	-0.125	-0.366
-471.230	-200.000	0.037	0.469
-470.216	78.969	0.128	-0.139
-469.201	800.000	-0.040	-0.147
-468.186	332.151	0.126	-0.247
-467.172	126.507	0.136	0.175
-466.157	-200.000	0.002	0.147
-465.143	-153.327	-0.216	-0.015
-464.128	57.596	0.168	0.167
-463.113	564.611	0.129	0.317
-462.099	12.587	-0.403	0.316
-461.084	-59.569	-0.157	0.068
-460.070	138.167	-0.037	-0.049
-459.055	800.000	0.055	0.227
-458.040	-69.060	-0.088	-0.034
-457.026	17.479	-0.294	-0.237
-456.011	-146.160	0.405	-0.036
-454.997	138.212	0.190	-0.253
-453.982	-92.992	0.147	0.042
-452.968	-200.000	-0.069	0.383
-451.953	-43.439	-0.113	-0.058
-450.938	-104.930	0.266	-0.062
-449.924	-79.075	-0.194	-0.067
-448.909	432.583	-0.084	-0.184
-447.895	-200.000	-0.037	-0.424
-446.880	-6.910	-0.071	-0.049
-445.865	133.984	0.073	0.096
-444.851	-81.630	0.118	-0.039
-443.836	175.240	0.084	0.123
-442.822	-200.000	-0.021	-0.302
-441.807	-74.716	-0.173	0.063
-440.792	-93.319	0.281	-0.079
-439.778	466.660	0.158	0.358
-438.763	800.000	0.027	0.097
-437.749	72.566	-0.178	-0.188
-436.734	-200.000	-0.016	-0.148
-435.719	-200.000	0.025	0.216
-434.705	731.997	0.071	0.192
-433.690	531.831	-0.128	-0.306
-432.676	667.106	-0.040	-0.105
-431.661	-163.824	-0.132	0.006
-430.646	-61.022	0.455	-0.195
-429.632	-21.135	-0.272	-0.169
-428.617	-171.034	-0.142	-0.005
-427.603	-200.000	-0.032	-0.202
-426.588	502.246	-0.070	0.163
-425.573	-129.463	0.192	-0.027
-424.559	-101.450	0.194	-0.048
-423.544	205.764	0.054	0.085
-422.530	57.175	0.098	0.097
-421.515	-95.454	0.347	0.094
-420.500	-96.843	0.407	0.108
-419.486	441.790	-0.062	0.138
-418.471	-43.685	0.352	0.180
-417.457	192.363	0.063	0.097
-416.442	189.158	-0.069	-0.105
-415.428	-6.628	0.193	0.133
-414.413	-169.796	-0.089	-0.003
-413.398	800.000	0.032	0.126
-412.384	-200.000	-0.019	-0.196
-411.369	-173.852	-0.148	-0.004
-410.355	62.674	0.065	0.065
-409.340	-200.000	0.008	0.061
-408.325	-200.000	-0.058	-0.267
-407.311	-189.312	-0.122	-0.001
-406.296	287.576	0.134	0.246
-405.282	43.432	-0.294	0.273
-404.267	-77.029	0.122	0.043
-403.252	24.448	0.216	-0.181
-402.238	102.996	0.139	-0.165
-401.223	800.000	-0.103	-0.292
-400.209	800.000	0.046	-0.198
-399.194	-180.031	-0.330	-0.007
-398.179	-12.606	-0.228	-0.151
-397.165	-106.930	0.133	-0.030
-396.150	31.329	0.077	0.067
-395.136	69.526	0.090	-0.094
-394.121	-92.324	0.237	0.068
-393.106	-16.434	0.268	-0.172
-392.092	-109.796	0.438	0.093
-391.077	125.666	0.089	0.113
-390.063	85.967	0.110	0.123
-389.048	-200.000	0.046	-0.296
-388.033	-200.000	0.202	0.000
-387.019	800.000	0.062	0.248
-386.004	377.467	-0.085	0.177
-384.990	269.694	-0.161	0.287
-383.975	-161.264	-0.243	-0.013
-382.960	17.258	-0.214	-0.172
-381.946	800.000	-0.062	-0.255
-380.931	-89.945	0.185	-0.055
-379.917	-146.104	0.091	0.008
-378.902	-179.372	-0.147	0.003
-377.888	81.758	-0.123	-0.135
-376.873	80.916	0.153	0.167
-375.858	800.000	0.086	0.274
-374.844	469.816	0.071	0.161
-373.829	519.299	-0.024	0.058
-372.815	19.808	0.135	0.110
-371.800	46.315	0.149	-0.139
-370.785	233.300	0.234	-0.389
-369.771	-137.891	0.064	-0.007
-368.756	523.969	-0.079	-0.187
-367.742	-166.790	-0.220	-0.009
-366.727	-27.494	-0.185	0.109
-365.712	-0.764	0.169	0.121
-364.698	-88.827	0.256	0.077
-363.683	380.214	-0.062	-0.128
-362.669	211.205	-0.156	0.248
-361.654	-133.839	0.231	0.029
-360.639	-200.000	-0.019	0.092
-359.625	-2.422	-0.158	0.112
-358.610	800.000	-0.075	0.217
-357.596	-200.000	0.045	0.240
-356.581	149.675	-0.120	0.165
-355.566	-200.000	0.033	-0.263
-354.552	-56.847	0.102	0.046
-353.537	-18.967	-0.362	-0.227
-352.523	380.881	-0.150	-0.312
-351.508	-73.238	0.145	0.054
-350.493	-194.376	0.094	0.001
-349.479	-200.000	0.031	0.415
-348.464	104.794	0.146	0.174
-347.450	-200.000	-0.021	-0.169
-346.435	-109.417	0.087	-0.019
-345.420	24.351	-0.116	-0.097
-344.406	-200.000	0.042	0.282
-343.391	261.472	-0.115	0.201
-342.377	-200.000	-0.053	0.451
-341.362	-200.000	-0.014	0.096
-340.348	24.141	0.285	-0.238
-339.333	456.711	0.043	0.096
-338.318	-146.686	-0.239	0.021
-337.304	-10.078	-0.208	0.140
-336.289	302.596	-0.130	0.244
-335.275	-200.000	0.012	0.157
-334.260	155.728	-0.060	-0.084
-333.245	289.289	-0.078	-0.143
-332.231	79.646	-0.182	-0.197
-331.216	-200.000	0.026	0.157
-330.202	-35.159	-0.180	-0.099
-329.187	800.000	-0.054	-0.207
-328.172	435.832	-0.121	-0.266
-327.158	800.000	0.041	-0.156
-326.143	458.532	-0.060	0.135
-325.129	123.229	-0.143	-0.181
-324.114	157.678	-0.165	0.231
-323.099	38.190	-0.135	0.121
-322.085	-200.000	-0.006	0.231
-321.070	620.040	-0.111	-0.282
-320.056	-184.886	-0.104	0.002
-319.041	48.403	-0.089	0.084
-318.026	800.000	-0.098	0.326
-317.012	800.000	0.041	-0.115
-315.997	-131.774	-0.100	0.013
-314.983	722.226	-0.134	0.359
-313.968	-200.000	0.004	-0.109
-312.953	-200.000	-0.005	-0.083
-311.939	-91.351	0.322	0.093
-310.924	219.054	-0.046	0.075
-309.910	-95.819	0.224	0.060
-308.895	-153.334	-0.357	-0.025
-307.880	103.641	-0.211	-0.250
-306.866	-200.000	-0.021	0.283
-305.851	-200.000	-0.031	-0.155
-304.837	58.775	0.076	-0.075
-303.822	136.380	0.163	-0.215
-302.807	-164.429	-0.280	-0.013
-301.793	-97.060	-0.360	0.095
-300.778	-34.164	0.166	0.092
-299.764	-69.075	-0.102	-0.040
-298.749	-69.941	0.095	0.037
-297.735	-200.000	-0.047	0.275
-296.720	71.567	-0.079	0.082
-295.705	50.505	0.155	-0.148
-294.691	-25.647	0.155	-0.092
-293.676	144.217	-0.135	0.182
-292.662	211.077	-0.154	-0.245
-291.647	-10.965	0.185	0.123
-290.632	11.712	0.136	0.105
-289.618	-200.000	-0.032	0.301
-288.603	-2.250	0.043	0.030
-287.589	295.931	-0.119	0.220
-286.574	-200.000	-0.012	-0.094
-285.559	-144.801	0.212	0.020
-284.545	800.000	0.073	0.297
-283.530	-169.177	0.158	-0.006
-282.516	320.502	0.174	0.333
-281.501	-46.823	-0.332	-0.164
-280.486	178.333	0.086	0.127
-279.472	-35.874	-0.045	-0.024
-278.457	30.818	-0.134	0.116
-277.443	-30.207	0.101	-0.058
-276.428	800.000	-0.063	-0.270
-275.413	-200.000	0.020	-0.166
-274.399	348.908	0.115	0.229
-273.384	-71.845	-0.399	0.150
-272.370	-77.806	-0.151	-0.053
-271.355	-40.553	-0.114	-0.060
-270.340	-200.000	0.005	-0.234
-269.326	255.311	0.109	-0.188
-268.311	324.747	-0.108	-0.208
-267.297	-79.206	-0.247	-0.084
-266.282	20.373	0.150	-0.122
-265.267	348.603	0.090	-0.180
-264.253	100.725	0.126	-0.147
-263.238	-32.245	-0.185	0.104
-262.224	68.450	0.130	0.134
-261.209	-130.422	-0.130	-0.018
-260.195	-99.297	-0.248	0.063
-259.180	800.000	-0.042	0.156
-258.165	34.449	0.309	0.272
-257.151	-200.000	-0.092	-0.511
-256.136	-82.438	-0.117	-0.038
-255.122	-121.674	-0.290	0.048
-254.107	98.573	-0.171	-0.199
-253.092	-200.000	-0.014	-0.145
-252.078	253.760	-0.255	-0.438
-251.063	-115.134	-0.204	0.039
-250.049	-41.864	0.222	0.115
-249.034	-7.663	-0.132	0.090
-248.019	271.919	0.087	-0.154
-247.005	-64.417	0.200	0.082
-245.990	-118.072	0.313	-0.056
-244.976	-152.310	0.226	-0.016
-243.961	-200.000	0.004	0.143
-242.946	274.139	-0.053	0.095
-241.932	156.601	-0.116	-0.161
-240.917	267.154	0.161	0.284
-239.903	-35.996	-0.205	0.112
-238.888	800.000	0.067	0.211
-237.873	583.532	-0.078	-0.193
-236.859	298.882	-0.090	0.166
-235.844	34.932	0.181	0.159
-234.830	93.260	-0.115	-0.131
-233.815	-200.000	-0.070	-0.480
-232.800	-200.000	0.025	-0.125
-231.786	800.000	0.040	-0.138
-230.771	67.891	0.154	-0.158
-229.757	-47.539	0.187	-0.091
-228.742	-200.000	0.010	-0.182
-227.727	800.000	0.097	0.318
-226.713	322.799	-0.039	-0.074
-225.698	-200.000	-0.004	-0.204
-224.684	-54.708	0.032	0.014
-223.669	-200.000	0.001	0.180
-222.655	176.089	-0.083	0.121
-221.640	-200.000	0.046	0.203
-220.625	-91.272	-0.142	0.041
-219.611	37.508	-0.038	0.034
-218.596	-146.855	0.113	0.010
-217.582	800.000	-0.118	0.336
-216.567	-200.000	-0.008	0.191
-215.552	647.448	0.042	-0.107
-214.538	-143.348	0.388	0.037
-213.523	-96.193	-0.169	0.045
-212.509	669.239	-0.111	-0.290
-211.494	-200.000	0.032	-0.203
-210.479	800.000	0.053	-0.164
-209.465	-200.000	-0.008	-0.060
-208.450	-53.503	0.286	-0.132
-207.436	-200.000	0.026	-0.297
-206.421	800.000	0.072	0.217
-205.406	185.385	-0.138	0.206
-204.392	0.464	0.285	0.205
-203.377	102.439	-0.062	-0.073
-202.363	409.909	-0.013	-0.028
-201.348	429.673	-0.128	0.278
-200.333	-78.003	-0.188	0.065
-199.319	112.602	-0.120	0.146
-198.304	-34.780	-0.071	0.039
-197.290	-200.000	-0.074	-0.440
-196.275	800.000	0.109	0.427
-195.260	271.463	0.114	0.202
-194.246	800.000	0.122	0.359
-193.231	56.101	-0.166	0.162
-192.217	-84.196	0.098	-0.031
-191.202	26.683	0.235	-0.198
-190.187	-33.014	0.270	-0.150
-189.173	471.716	-0.118	-0.267
-188.158	-90.458	0.193	0.056
-187.144	-76.159	-0.022	-0.008
-186.129	-142.260	-0.301	0.030
-185.114	-200.000	0.053	-0.284
-184.100	-124.771	0.145	-0.023
-183.085	126.066	-0.279	-0.354
-182.071	800.000	0.108	0.422
-181.056	34.450	0.288	0.253
-180.042	-48.620	-0.346	0.167
-179.027	-24.775	-0.218	-0.130
-178.012	508.599	0.070	-0.163
-176.998	-200.000	-0.012	-0.267
-175.983	-200.000	-0.040	-0.277
-174.969	-39.664	-0.236	0.124
-173.954	-60.683	0.370	0.157
-172.939	182.708	0.145	0.215
-171.925	46.569	-0.113	0.105
-170.910	-79.888	-0.220	0.074
-169.896	-192.028	0.395	-0.004
-168.881	-200.000	0.090	0.410
-167.866	70.716	0.142	-0.147
-166.852	800.000	-0.056	0.178
-165.837	-15.399	0.209	0.134
-164.823	119.347	-0.128	0.159
-163.808	-108.696	-0.217	0.047
-162.793	-84.795	-0.424	-0.134
-161.779	-200.000	0.005	0.149
-160.764	800.000	-0.014	-0.053
-159.750	51.031	0.079	-0.075
-158.735	-200.000	0.028	-0.191
-157.720	144.970	0.162	-0.218
-156.706	-38.850	0.092	-0.049
-155.691	134.357	-0.087	0.114
-154.677	-95.474	0.069	0.019
-153.662	800.000	0.023	0.092
-152.647	22.349	0.070	-0.058
-151.633	565.768	0.021	-0.051
-150.618	800.000	-0.059	0.228
-149.604	800.000	0.087	0.290
-148.589	-42.843	-0.127	-0.065
-147.574	126.056	0.164	0.208
-146.560	314.597	-0.062	0.117
-145.545	33.706	0.112	-0.098
-144.531	-118.192	0.275	-0.049
-143.516	-200.000	-0.009	-0.292
-142.502	135.915	0.119	-0.155
-141.487	98.239	0.080	0.092
-140.472	-200.000	0.007	-0.066
-139.458	-127.928	-0.297	0.043
-138.443	-35.318	0.216	0.118
-137.429	-38.242	0.282	-0.150
-136.414	-123.085	0.350	0.056
-135.399	-112.329	0.409	-0.082
-134.385	-200.000	0.002	0.078
-133.370	4.517	0.053	-0.039
-132.356	-139.169	0.255	-0.028
-131.341	242.773	0.171	0.287
-130.326	-121.058	-0.106	-0.018
-129.312	-54.589	-0.143	-0.065
-128.297	800.000	-0.109	0.334
-127.283	-85.137	-0.092	0.029
-126.268	-59.878	0.044	-0.019
-125.253	-200.000	0.039	-0.171
-124.239	105.551	0.224	0.265
-123.224	-127.502	-0.213	-0.031
-122.210	-37.524	-0.070	-0.037
-121.195	-200.000	0.008	-0.063
