DTS Sentinel unit serial number:	SN413079Multiplexer serial number:	ORYXHardware model number:	OX4-SRSoftware version number:	ORYX F/W v4.00 Oryx Data Collector v3.7.2.0data status	okinstallation	princeton_trtdifferential loss correction	single-endedforward channel	channel 4reverse channel	N/Adate	2019/09/11time	14:47:10forward acquisition time	60.00reverse acquisition time	0.00gamma	496.2192k internal	0.2279k external	0.2279temperature offset calibration	1.0007default loss term (dB/km)	0.3790temperature slope calibration	1.0000multiplexer offset coefficient	1.0000multiplexer slope coefficient	1.0000fibre end	0.00T internal ref (°C)	42.50T ext. ref 1 (°C)	0.92T ext. ref 2 (°C)	38.19length (m)	temperature (°C)	Stokes	anti-Stokes-747.200	-165.133	0.116	0.005
-746.185	169.589	-0.083	0.122
-745.171	90.321	0.310	0.357
-744.156	-10.747	-0.075	0.051
-743.142	52.364	0.175	-0.172
-742.127	-102.359	-0.403	0.099
-741.112	800.000	-0.067	-0.205
-740.098	-200.000	0.047	0.293
-739.083	-74.581	-0.251	0.093
-738.069	686.740	-0.095	0.255
-737.054	750.694	-0.015	-0.041
-736.039	-60.320	0.020	0.009
-735.025	330.855	-0.049	-0.097
-734.010	364.551	-0.186	-0.385
-732.996	-66.146	0.129	0.053
-731.981	778.382	0.070	-0.198
-730.966	16.300	-0.172	-0.139
-729.952	-200.000	-0.061	-0.441
-728.937	206.808	-0.092	-0.148
-727.923	-62.738	-0.077	0.033
-726.908	-200.000	0.038	0.246
-725.894	800.000	-0.128	-0.475
-724.879	800.000	0.065	-0.289
-723.864	800.000	-0.059	-0.198
-722.850	-200.000	0.019	0.156
-721.835	64.464	0.090	0.093
-720.821	-200.000	0.232	0.001
-719.806	-30.029	0.163	-0.095
-718.791	-116.051	0.160	0.031
-717.777	-32.587	0.165	-0.094
-716.762	-83.663	0.096	0.032
-715.748	-127.995	0.156	0.023
-714.733	-39.242	-0.256	-0.138
-713.718	57.889	-0.138	-0.139
-712.704	-102.754	-0.023	-0.006
-711.689	6.318	-0.336	-0.256
-710.675	193.216	-0.336	-0.523
-709.660	192.455	-0.093	0.145
-708.645	193.895	-0.098	0.152
-707.631	13.693	0.172	0.137
-706.616	-186.073	0.271	0.004
-705.602	14.730	0.215	-0.173
-704.587	-127.348	-0.274	-0.041
-703.572	800.000	0.144	-0.416
-702.558	-73.119	-0.333	-0.125
-701.543	88.631	-0.358	-0.410
-700.529	84.641	-0.091	-0.102
-699.514	-133.565	-0.115	0.015
-698.499	7.469	0.006	-0.004
-697.485	-200.000	-0.090	0.461
-696.470	373.857	-0.080	-0.168
-695.456	-77.877	-0.179	0.064
-694.441	-99.007	0.253	-0.066
-693.426	-52.398	-0.256	0.122
-692.412	800.000	-0.054	-0.182
-691.397	-40.964	-0.142	-0.075
-690.383	31.138	-0.245	0.216
-689.368	64.844	0.357	-0.371
-688.354	-200.000	-0.004	0.025
-687.339	800.000	-0.040	0.172
-686.324	117.315	-0.055	0.070
-685.310	86.867	-0.051	-0.057
-684.295	-200.000	0.008	-0.174
-683.281	-200.000	0.054	0.251
-682.266	-200.000	0.039	0.192
-681.251	223.458	-0.041	-0.069
-680.237	-200.000	-0.031	0.199
-679.222	593.884	-0.041	0.103
-678.208	-21.427	-0.343	0.215
-677.193	88.392	0.098	-0.112
-676.178	-59.180	-0.302	-0.134
-675.164	91.715	-0.316	-0.365
-674.149	-175.008	-0.479	0.014
-673.135	-40.430	0.189	0.101
-672.120	-129.706	-0.546	0.077
-671.105	306.845	-0.138	-0.264
-670.091	14.414	-0.111	0.089
-669.076	-200.000	-0.044	-0.225
-668.062	-200.000	0.054	0.335
-667.047	-146.148	-0.293	0.027
-666.032	-96.634	0.205	0.055
-665.018	-108.811	-0.458	-0.101
-664.003	278.773	-0.053	0.098
-662.989	101.850	-0.197	0.236
-661.974	196.477	0.057	0.090
-660.959	-14.095	-0.126	0.084
-659.945	-200.000	-0.076	0.345
-658.930	-163.532	-0.213	-0.010
-657.916	-2.166	-0.183	-0.132
-656.901	-200.000	0.041	-0.197
-655.886	650.268	0.010	0.026
-654.872	800.000	0.072	-0.242
-653.857	583.232	-0.091	-0.230
-652.843	-200.000	-0.021	-0.168
-651.828	-200.000	-0.033	-0.199
-650.814	800.000	0.078	-0.320
-649.799	-200.000	0.040	-0.269
-648.784	143.696	0.100	0.137
-647.770	-137.786	-0.169	-0.019
-646.755	-200.000	-0.064	-0.328
-645.741	-106.549	-0.306	-0.070
-644.726	241.650	-0.107	-0.183
-643.711	-200.000	-0.039	-0.215
-642.697	764.974	-0.047	-0.131
-641.682	21.240	0.126	0.105
-640.668	-105.455	0.149	-0.035
-639.653	-57.581	0.259	-0.117
-638.638	-135.862	0.410	-0.050
-637.624	-200.000	0.006	0.176
-636.609	22.461	-0.308	0.258
-635.595	-111.896	-0.418	0.087
-634.580	1.915	0.068	-0.050
-633.565	-200.000	-0.003	-0.268
-632.551	-40.968	-0.262	-0.139
-631.536	800.000	0.056	0.196
-630.522	-36.577	-0.138	0.076
-629.507	39.425	0.147	-0.134
-628.492	545.643	0.064	0.157
-627.478	800.000	0.125	-0.406
-626.463	-200.000	-0.019	0.130
-625.449	800.000	0.058	0.184
-624.434	185.574	-0.280	0.427
-623.419	-52.217	-0.249	-0.118
-622.405	-200.000	0.023	-0.167
-621.390	127.294	0.378	0.491
-620.376	-200.000	0.004	-0.180
-619.361	-109.368	-0.283	0.061
-618.346	800.000	-0.082	0.328
-617.332	95.442	-0.068	0.079
-616.317	800.000	0.044	0.146
-615.303	-110.701	-0.378	0.080
-614.288	8.799	-0.414	-0.320
-613.273	509.848	0.075	0.178
-612.259	-30.858	-0.109	-0.063
-611.244	-34.956	-0.136	-0.076
-610.230	524.966	-0.082	0.197
-609.215	800.000	0.007	0.022
-608.201	-100.847	0.207	-0.052
-607.186	250.030	0.066	0.115
-606.171	-106.449	-0.105	-0.024
-605.157	-101.939	0.110	-0.027
-604.142	-30.178	0.167	-0.097
-603.128	-200.000	0.003	-0.183
-602.113	-200.000	0.019	-0.095
-601.098	-3.793	0.307	0.218
-600.084	-112.923	0.451	0.091
-599.069	-117.361	0.256	-0.047
-598.055	238.251	-0.100	-0.169
-597.040	261.173	-0.058	0.103
-596.025	-200.000	-0.006	-0.060
-595.011	35.149	-0.087	0.078
-593.996	-87.824	0.185	-0.057
-592.982	275.681	0.116	0.210
-591.967	19.400	-0.027	0.023
-590.952	-19.171	0.230	-0.146
-589.938	95.195	-0.137	-0.159
-588.923	800.000	0.110	-0.311
-587.909	800.000	0.106	0.339
-586.894	131.132	-0.098	-0.129
-585.879	35.068	0.080	-0.072
-584.865	-141.956	0.301	-0.031
-583.850	48.877	0.070	0.067
-582.836	-22.795	-0.148	0.091
-581.821	75.989	0.197	0.213
-580.806	49.516	-0.267	0.257
-579.792	-200.000	-0.023	-0.345
-578.777	84.415	0.173	-0.194
-577.763	211.222	0.062	-0.101
-576.748	165.745	-0.343	-0.496
-575.733	800.000	-0.031	-0.113
-574.719	-61.416	0.100	0.043
-573.704	135.886	-0.155	-0.207
-572.690	-4.536	0.091	0.064
-571.675	233.019	-0.123	-0.207
-570.661	-41.608	-0.152	-0.080
-569.646	-200.000	-0.002	0.095
-568.631	-200.000	-0.009	-0.225
-567.617	-200.000	0.003	0.054
-566.602	-89.723	0.380	0.114
-565.588	138.484	0.044	0.059
-564.573	-72.464	-0.282	0.107
-563.558	6.502	-0.223	-0.169
-562.544	607.309	-0.159	-0.404
-561.529	-92.085	0.358	0.104
-560.515	485.674	-0.176	-0.409
-559.500	-56.974	0.185	-0.083
-558.485	130.200	0.106	0.138
-557.471	39.136	-0.296	0.271
-556.456	-138.504	0.449	0.050
-555.442	-84.818	0.193	0.062
-554.427	-102.655	0.166	0.041
-553.412	-20.838	-0.233	0.146
-552.398	38.089	-0.189	-0.172
-551.383	800.000	0.074	0.291
-550.369	382.191	-0.102	-0.214
-549.354	34.361	0.210	0.187
-548.339	166.251	-0.101	0.146
-547.325	104.409	0.260	-0.313
-546.310	-115.730	0.339	-0.065
-545.296	177.061	-0.260	-0.387
-544.281	-29.515	-0.571	-0.334
-543.266	-200.000	0.005	0.135
-542.252	126.258	-0.244	-0.316
-541.237	-37.320	-0.124	-0.068
-540.223	-0.486	0.129	0.094
-539.208	-13.202	0.023	0.015
-538.193	248.719	-0.090	-0.156
-537.179	800.000	0.104	0.331
-536.164	-200.000	0.031	0.564
-535.150	800.000	0.026	0.097
-534.135	-120.104	-0.108	-0.019
-533.121	103.589	0.081	0.098
-532.106	-157.366	0.188	-0.012
-531.091	72.247	-0.171	0.182
-530.077	-200.000	0.009	0.248
-529.062	136.252	0.119	0.158
-528.048	-71.144	-0.100	0.038
-527.033	-98.678	0.110	0.029
-526.018	-152.430	0.280	0.021
-525.004	-200.000	-0.013	0.117
-523.989	203.208	-0.120	-0.189
-522.975	-45.950	-0.231	-0.116
-521.960	800.000	-0.090	-0.271
-520.945	-80.552	0.254	0.086
-519.931	92.313	0.138	-0.159
-518.916	-172.557	0.106	0.003
-517.902	3.470	-0.225	-0.168
-516.887	-150.717	0.181	0.014
-515.872	-163.189	0.143	-0.007
-514.858	302.753	-0.076	-0.143
-513.843	800.000	-0.074	0.244
-512.829	800.000	-0.073	-0.320
-511.814	800.000	-0.028	-0.122
-510.799	-101.953	0.095	-0.023
-509.785	-200.000	0.011	-0.113
-508.770	-3.035	-0.151	0.108
-507.756	-200.000	-0.020	-0.126
-506.741	313.183	0.103	0.198
-505.726	-83.000	-0.251	-0.083
-504.712	589.825	-0.106	-0.266
-503.697	-20.328	-0.087	0.055
-502.683	135.768	0.102	0.136
-501.668	53.607	-0.243	-0.238
-500.653	-96.639	-0.180	-0.048
-499.639	285.704	-0.123	-0.225
-498.624	-81.837	0.407	-0.136
-497.610	-118.281	0.137	0.025
-496.595	-71.900	0.070	-0.027
-495.581	-118.744	0.299	-0.054
-494.566	-35.000	0.289	-0.161
-493.551	-190.112	-0.230	0.003
-492.537	-120.435	0.304	0.053
-491.522	800.000	0.030	0.091
-490.508	-25.913	0.072	-0.043
-489.493	-200.000	0.012	0.064
-488.478	17.428	0.235	0.190
-487.464	-109.129	0.046	0.010
-486.449	-75.036	0.007	-0.003
-485.435	207.535	0.123	0.195
-484.420	612.227	0.229	0.584
-483.405	-200.000	0.019	0.245
-482.391	-200.000	-0.070	0.392
-481.376	-27.289	-0.282	0.167
-480.362	-112.178	0.169	-0.034
-479.347	60.789	0.119	0.120
-478.332	111.197	0.111	0.136
-477.318	305.047	0.046	0.087
-476.303	69.323	-0.274	0.287
-475.289	10.211	0.205	-0.159
-474.274	-200.000	0.009	-0.216
-473.259	597.911	-0.131	0.330
-472.245	-104.062	-0.178	-0.042
-471.230	-160.998	-0.093	0.005
-470.216	167.173	0.044	-0.064
-469.201	-200.000	0.295	0.000
-468.186	96.773	0.273	0.318
-467.172	-58.156	-0.287	-0.127
-466.157	93.574	-0.103	-0.119
-465.143	-200.000	-0.042	-0.256
-464.128	-136.951	-0.040	-0.005
-463.113	177.181	0.145	-0.215
-462.099	-32.721	-0.126	0.072
-461.084	125.180	-0.278	0.357
-460.070	-109.219	-0.301	0.065
-459.055	262.448	-0.181	-0.319
-458.040	-200.000	-0.016	0.089
-457.026	-54.213	0.294	0.136
-456.011	-32.433	-0.302	0.172
-454.997	-63.924	0.231	0.096
-453.982	-107.455	0.082	-0.018
-452.968	800.000	0.072	-0.210
-451.953	-53.601	-0.182	-0.085
-450.938	-200.000	0.030	-0.257
-449.924	57.878	-0.213	0.212
-448.909	-111.855	-0.209	0.043
-447.895	-200.000	0.376	-0.002
-446.880	-200.000	-0.011	0.164
-445.865	-28.448	-0.084	0.049
-444.851	373.398	-0.027	0.056
-443.836	169.295	-0.172	0.250
-442.822	800.000	0.025	-0.089
-441.807	-200.000	0.076	0.393
-440.792	250.127	-0.065	0.113
-439.778	-33.735	0.179	-0.101
-438.763	-200.000	-0.020	-0.132
-437.749	-40.016	0.184	-0.098
-436.734	26.003	0.079	-0.067
-435.719	-200.000	0.004	-0.045
-434.705	438.804	0.082	-0.182
-433.690	-55.838	0.021	0.009
-432.676	-87.808	0.290	0.089
-431.661	8.941	0.174	-0.134
-430.646	76.178	-0.204	0.219
-429.632	-76.465	-0.240	0.086
-428.617	-200.000	-0.008	0.104
-427.603	-127.311	0.229	0.034
-426.588	-200.000	-0.231	0.001
-425.573	198.391	-0.124	-0.193
-424.559	800.000	0.072	0.257
-423.544	800.000	0.081	-0.280
-422.530	556.748	0.060	0.148
-421.515	-21.663	0.261	-0.162
-420.500	-132.027	0.307	0.041
-419.486	-150.695	-0.039	0.003
-418.471	-17.606	0.119	0.076
-417.457	-39.607	0.253	0.134
-416.442	236.341	-0.038	0.064
-415.428	-47.915	0.134	0.066
-414.413	-92.311	-0.110	-0.031
-413.398	539.568	-0.058	0.141
-412.384	15.555	-0.368	0.294
-411.369	-71.369	-0.192	0.073
-410.355	800.000	0.032	0.096
-409.340	-200.000	0.020	0.574
-408.325	-164.453	-0.152	0.007
-407.311	-98.162	0.256	0.067
-406.296	-84.160	-0.033	-0.011
-405.282	1.449	0.043	0.031
-404.267	-77.289	0.090	-0.032
-403.252	-120.954	-0.256	0.044
-402.238	-110.314	0.177	0.037
-401.223	-63.998	-0.165	0.069
-400.209	-159.205	0.024	-0.001
-399.194	-27.835	-0.287	0.169
-398.179	800.000	0.064	-0.230
-397.165	-73.573	-0.157	0.058
-396.150	-66.147	-0.082	0.033
-395.136	-200.000	-0.025	-0.130
-394.121	-157.383	-0.291	-0.018
-393.106	300.992	0.240	0.449
-392.092	-198.379	0.364	-0.002
-391.077	-158.483	-0.383	-0.022
-390.063	288.702	-0.126	0.231
-389.048	227.765	0.201	-0.332
-388.033	-98.389	0.233	0.061
-387.019	174.264	-0.223	0.327
-386.004	-27.073	-0.188	0.111
-384.990	120.923	0.237	0.299
-383.975	109.083	-0.094	0.114
-382.960	-165.863	0.170	0.007
-381.946	-109.835	0.029	0.006
-380.931	34.017	0.336	-0.297
-379.917	-9.704	0.314	-0.212
-378.902	383.492	-0.172	-0.359
-377.888	-158.537	-0.269	-0.016
-376.873	35.092	-0.152	0.135
-375.858	-5.534	-0.131	-0.091
-374.844	-69.863	-0.287	-0.111
-373.829	-200.000	-0.010	-0.336
-372.815	75.613	-0.232	0.249
-371.800	669.899	-0.116	0.304
-370.785	295.698	0.152	0.283
-369.771	-120.523	-0.200	0.034
-368.756	-99.283	-0.198	-0.051
-367.742	410.573	0.026	0.056
-366.727	162.498	0.143	0.203
-365.712	270.041	-0.118	0.211
-364.698	108.069	0.108	-0.131
-363.683	7.617	-0.190	-0.144
-362.669	-200.000	0.063	-0.435
-361.654	26.071	0.279	-0.237
-360.639	-3.543	-0.177	-0.125
-359.625	47.389	0.099	0.094
-358.610	800.000	-0.141	0.400
-357.596	-23.850	-0.230	0.140
-356.581	224.411	-0.228	0.373
-355.566	119.047	-0.178	0.223
-354.552	110.357	-0.125	-0.152
-353.537	-111.186	-0.457	0.095
-352.523	204.225	-0.041	-0.065
-351.508	-113.987	-0.302	-0.059
-350.493	-72.505	0.153	0.057
-349.479	17.954	-0.220	-0.177
-348.464	-200.000	-0.023	-0.105
-347.450	-200.000	-0.060	-0.289
-346.435	375.476	-0.069	-0.142
-345.420	800.000	0.119	0.466
-344.406	-200.000	0.014	-0.268
-343.391	320.911	-0.093	-0.180
-342.377	-87.618	0.118	-0.036
-341.362	-200.000	0.022	0.327
-340.348	142.889	0.053	-0.071
-339.333	-200.000	0.414	0.001
-338.318	-55.509	-0.380	0.173
-337.304	-149.174	0.240	-0.019
-336.289	176.639	-0.080	-0.118
-335.275	-60.382	-0.126	0.054
-334.260	483.725	-0.105	-0.241
-333.245	68.057	0.154	0.160
-332.231	-200.000	-0.013	-0.107
-331.216	800.000	0.071	0.224
-330.202	-111.349	0.290	-0.060
-329.187	283.340	0.054	-0.098
-328.172	327.614	0.121	0.236
-327.158	384.239	0.223	0.465
-326.143	-10.948	0.064	-0.043
-325.129	29.263	0.264	0.227
-324.114	145.020	0.109	-0.148
-323.099	87.319	0.103	-0.116
-322.085	-200.000	0.027	-0.314
-321.070	-200.000	-0.004	0.145
-320.056	75.769	-0.205	0.220
-319.041	303.240	0.152	-0.285
-318.026	53.352	-0.091	-0.088
-317.012	-54.446	-0.080	-0.037
-315.997	-35.000	-0.081	0.045
-314.983	65.507	-0.259	0.265
-313.968	-200.000	-0.018	0.260
-312.953	-170.857	0.212	0.007
-311.939	-44.307	-0.342	0.174
-310.924	0.355	-0.071	-0.051
-309.910	-104.247	-0.262	0.061
-308.895	-200.000	-0.046	-0.301
-307.880	80.373	0.128	0.139
-306.866	-200.000	0.070	-0.312
-305.851	65.413	0.049	-0.050
-304.837	-200.000	-0.041	0.227
-303.822	-150.782	0.100	-0.008
-302.807	-200.000	-0.025	0.131
-301.793	-144.429	0.089	0.008
-300.778	-24.696	-0.280	-0.168
-299.764	800.000	-0.035	0.129
-298.749	513.829	-0.024	-0.056
-297.735	-152.986	-0.483	-0.034
-296.720	-38.723	-0.143	-0.076
-295.705	-59.707	0.165	-0.071
-294.691	-200.000	-0.025	-0.515
-293.676	-74.656	0.190	0.069
-292.662	-200.000	0.057	0.255
-291.647	-31.525	-0.071	0.040
-290.632	99.033	0.060	-0.070
-289.618	320.738	-0.044	-0.084
-288.603	-200.000	0.029	0.445
-287.589	-95.550	0.165	0.045
-286.574	203.671	-0.091	-0.143
-285.559	-122.198	-0.259	0.043
-284.545	800.000	-0.065	0.256
-283.530	-200.000	-0.001	-0.138
-282.516	158.375	0.244	0.342
-281.501	311.107	0.168	0.319
-280.486	-34.676	0.267	0.148
-279.472	186.677	-0.084	0.127
-278.457	26.903	0.081	0.069
-277.443	208.085	-0.018	0.028
-276.428	300.951	-0.031	0.058
-275.413	25.199	-0.155	0.130
-274.399	-158.992	-0.296	0.017
-273.384	-132.506	-0.359	-0.047
-272.370	-48.886	0.101	0.049
-271.355	-200.000	0.018	0.138
-270.340	50.126	-0.161	-0.154
-269.326	-43.743	0.472	-0.240
-268.311	-92.442	-0.173	-0.049
-267.297	404.798	0.128	-0.273
-266.282	-25.693	0.090	0.054
-265.267	116.698	0.170	-0.211
-264.253	-7.742	0.309	-0.211
-263.238	-85.749	0.206	-0.065
-262.224	-13.189	0.114	0.075
-261.209	-71.558	-0.136	-0.051
-260.195	-200.000	0.020	-0.126
-259.180	-22.214	-0.236	0.145
-258.165	-200.000	-0.003	-0.247
-257.151	-200.000	0.025	-0.134
-256.136	-200.000	-0.017	0.358
-255.122	248.461	-0.049	-0.085
-254.107	-200.000	-0.101	-0.450
-253.092	428.476	-0.065	0.141
-252.078	-13.157	0.224	-0.147
-251.063	-122.904	0.036	-0.006
-250.049	388.619	-0.070	-0.145
-249.034	800.000	-0.092	-0.297
-248.019	-88.084	0.142	-0.043
-247.005	-110.082	-0.114	-0.024
-245.990	344.792	0.132	0.261
-244.976	-83.901	0.047	-0.015
-243.961	-200.000	-0.019	-0.126
-242.946	48.621	0.209	-0.198
-241.932	-77.776	0.428	-0.149
-240.917	-31.027	-0.074	0.042
-239.903	-126.011	-0.516	-0.078
-238.888	-111.154	-0.125	-0.026
-237.873	-56.491	0.096	0.043
-236.859	709.544	0.041	-0.109
-235.844	-59.907	0.122	-0.053
-234.830	667.177	-0.040	0.104
-233.815	410.760	0.088	-0.188
-232.800	362.709	-0.102	-0.206
-231.786	-79.130	-0.365	-0.125
-230.771	-11.874	0.246	0.163
-229.757	783.577	-0.137	0.378
-228.742	431.844	-0.052	0.115
-227.727	-69.361	0.083	0.032
-226.713	15.943	-0.352	-0.280
-225.698	-81.076	0.170	0.057
-224.684	-16.375	-0.156	0.100
-223.669	-7.375	0.075	-0.051
-222.655	349.264	0.154	-0.307
-221.640	-200.000	0.008	0.373
-220.625	353.153	0.135	-0.269
-219.611	83.045	-0.091	-0.100
-218.596	-42.277	-0.308	-0.159
-217.582	-200.000	0.076	0.363
-216.567	-162.084	0.090	-0.005
-215.552	-48.863	0.320	0.155
-214.538	-200.000	0.005	-0.302
-213.523	800.000	-0.059	0.220
-212.509	39.341	-0.201	0.181
-211.494	-77.049	0.125	-0.044
-210.479	-79.871	0.119	-0.040
-209.465	208.857	-0.050	-0.078
-208.450	226.060	0.130	-0.213
-207.436	-116.244	0.032	0.006
-206.421	-86.231	0.225	0.070
-205.406	125.079	0.044	0.056
-204.392	-111.258	0.465	-0.096
-203.377	800.000	0.027	0.083
-202.363	269.553	0.052	-0.091
-201.348	-60.842	0.072	0.031
-200.333	121.226	0.177	0.223
-199.319	583.088	0.095	0.235
-198.304	-88.882	-0.175	0.052
-197.290	-200.000	0.010	0.124
-196.275	-120.769	-0.326	-0.056
-195.260	-200.000	0.009	-0.151
-194.246	149.475	-0.146	0.200
-193.231	-36.012	0.165	-0.090
-192.217	50.687	-0.119	-0.113
-191.202	-188.842	-0.125	-0.002
-190.187	-161.930	0.104	-0.005
-189.173	-55.807	0.258	0.116
-188.158	-69.465	0.457	-0.176
-187.144	-119.382	0.403	-0.071
-186.129	141.702	-0.063	0.085
-185.114	800.000	-0.041	0.176
-184.100	800.000	-0.025	-0.094
-183.085	-113.662	-0.139	0.027
-182.071	-120.365	0.086	0.015
-181.056	-200.000	0.005	-0.086
-180.042	22.864	-0.212	-0.175
-179.027	-156.503	0.101	0.006
-178.012	-200.000	0.004	0.334
-176.998	13.544	-0.368	0.288
-175.983	-200.000	0.049	-0.282
-174.969	-200.000	0.042	-0.205
-173.954	-200.000	-0.014	-0.136
-172.939	404.081	0.136	-0.289
-171.925	800.000	0.038	-0.133
-170.910	64.293	-0.173	-0.175
-169.896	57.579	-0.299	0.294
-168.881	-200.000	0.023	-0.155
-167.866	-200.000	0.007	-0.459
-166.852	139.131	0.155	-0.205
-165.837	-107.943	-0.094	0.021
-164.823	-111.239	0.181	-0.037
-163.808	800.000	-0.078	-0.232
-162.793	-200.000	0.002	-0.294
-161.779	-91.612	0.077	-0.022
-160.764	-92.431	0.058	0.017
-159.750	-200.000	0.035	-0.282
-158.735	-66.364	-0.144	0.058
-157.720	179.613	0.021	0.031
-156.706	-55.925	-0.203	-0.091
-155.691	-200.000	0.038	-0.310
-154.677	-108.330	-0.083	-0.018
-153.662	66.981	-0.174	0.179
-152.647	-15.450	-0.156	0.100
-151.633	-52.403	0.367	-0.171
-150.618	217.720	-0.006	-0.009
-149.604	-60.427	-0.087	-0.037
-148.589	563.812	0.062	0.152
-147.574	-200.000	0.016	-0.359
-146.560	-33.694	0.217	0.121
-145.545	40.105	0.122	-0.110
-144.531	-200.000	0.005	-0.129
-143.516	586.996	-0.037	0.092
-142.502	6.680	-0.075	-0.056
-141.487	190.623	0.055	0.083
-140.472	800.000	-0.019	-0.068
-139.458	-104.073	0.466	-0.109
-138.443	-175.799	-0.194	-0.005
-137.429	-151.441	-0.022	0.002
-136.414	89.159	-0.161	0.180
-135.399	50.867	0.229	0.218
-134.385	513.564	-0.105	0.246
-133.370	800.000	-0.036	-0.136
-132.356	-92.373	0.266	-0.075
-131.341	-62.740	-0.174	0.072
-130.326	-63.534	0.144	0.060
-129.312	800.000	-0.065	0.279
-128.297	124.050	0.102	0.128
-127.283	-148.233	0.387	-0.032
-126.268	-200.000	0.006	-0.158
-125.253	18.404	0.052	0.041
-124.239	-59.208	-0.079	0.034
-123.224	800.000	0.057	0.173
-122.210	800.000	0.055	-0.191
