DTS Sentinel unit serial number:	SN413079Multiplexer serial number:	ORYXHardware model number:	OX4-SRSoftware version number:	ORYX F/W v4.00 Oryx Data Collector v3.7.2.0data status	okinstallation	princeton_trtdifferential loss correction	single-endedforward channel	channel 4reverse channel	N/Adate	2019/09/12time	11:07:10forward acquisition time	60.00reverse acquisition time	0.00gamma	496.2192k internal	0.2292k external	0.2292temperature offset calibration	1.0072default loss term (dB/km)	0.3790temperature slope calibration	1.0000multiplexer offset coefficient	1.0000multiplexer slope coefficient	1.0000fibre end	0.00T internal ref (°C)	38.64T ext. ref 1 (°C)	1.97T ext. ref 2 (°C)	35.60length (m)	temperature (°C)	Stokes	anti-Stokes-747.200	-82.664	-0.319	-0.106
-746.185	226.433	-0.232	0.385
-745.171	182.399	-0.125	0.189
-744.156	-112.002	-0.280	-0.058
-743.142	-200.000	0.000	-0.013
-742.127	-200.000	0.006	0.392
-741.112	-3.370	0.158	-0.112
-740.098	-37.982	-0.071	-0.039
-739.083	41.785	-0.181	-0.168
-738.069	800.000	0.038	0.150
-737.054	-129.510	-0.330	-0.047
-736.039	-52.544	0.185	0.087
-735.025	483.747	0.157	0.366
-734.010	-20.104	-0.270	-0.170
-732.996	79.928	-0.056	-0.061
-731.981	-189.255	-0.502	-0.006
-730.966	284.595	-0.169	0.311
-729.952	129.495	0.164	-0.215
-728.937	-2.518	-0.260	-0.186
-727.923	98.752	-0.118	0.140
-726.908	352.207	-0.101	-0.204
-725.894	258.229	0.077	-0.136
-724.879	-184.701	-0.304	-0.005
-723.864	40.861	0.126	0.116
-722.850	-200.000	0.008	0.217
-721.835	-52.506	-0.125	-0.059
-720.821	3.198	0.064	0.048
-719.806	261.602	-0.083	0.147
-718.791	569.613	-0.167	-0.415
-717.777	800.000	0.033	-0.126
-716.762	-200.000	0.008	0.343
-715.748	72.429	0.285	0.304
-714.733	-176.071	-0.211	0.006
-713.718	-200.000	0.023	0.331
-712.704	-200.000	-0.035	-0.179
-711.689	109.965	-0.234	-0.287
-710.675	-158.292	-0.200	0.012
-709.660	412.625	-0.049	0.106
-708.645	-9.403	0.090	-0.061
-707.631	-189.342	0.259	0.003
-706.616	18.096	0.097	0.079
-705.602	-69.968	-0.347	-0.135
-704.587	-200.000	-0.016	-0.126
-703.572	-97.270	0.068	-0.018
-702.558	159.054	-0.029	0.041
-701.543	800.000	-0.017	0.056
-700.529	-114.534	-0.052	-0.010
-699.514	-200.000	-0.053	-0.254
-698.499	-200.000	0.078	0.390
-697.485	359.299	-0.103	-0.211
-696.470	-200.000	-0.023	-0.136
-695.456	294.355	-0.068	0.128
-694.441	-45.456	0.019	-0.010
-693.426	-137.225	0.071	-0.008
-692.412	255.399	0.087	0.153
-691.397	434.309	0.047	0.104
-690.383	-200.000	-0.029	0.355
-689.368	60.135	0.065	-0.066
-688.354	-200.000	0.001	-0.048
-687.339	-95.300	-0.074	0.020
-686.324	34.007	-0.062	0.055
-685.310	-170.681	-0.420	0.015
-684.295	-200.000	0.060	-0.353
-683.281	-69.883	0.097	-0.038
-682.266	-151.848	-0.156	-0.012
-681.251	-151.692	0.398	-0.030
-680.237	-46.153	-0.229	-0.115
-679.222	-108.829	-0.153	-0.034
-678.208	-81.689	0.253	-0.085
-677.193	-200.000	-0.063	-0.297
-676.178	-107.379	0.470	0.105
-675.164	-185.689	0.164	-0.003
-674.149	-153.873	0.042	-0.003
-673.135	-200.000	-0.002	-0.024
-672.120	-200.000	0.047	-0.485
-671.105	36.800	-0.254	-0.229
-670.091	90.541	-0.244	-0.278
-669.076	220.974	0.060	0.098
-668.062	-57.136	-0.233	-0.105
-667.047	-117.781	-0.154	-0.028
-666.032	-112.996	-0.215	0.043
-665.018	800.000	0.017	-0.070
-664.003	653.166	0.099	-0.258
-662.989	-112.541	0.130	0.026
-661.974	-200.000	-0.026	-0.118
-660.959	-35.869	0.067	-0.037
-659.945	-68.471	-0.408	-0.161
-658.930	800.000	0.043	0.161
-657.916	-130.692	-0.184	0.025
-656.901	688.782	0.024	0.064
-655.886	-64.519	0.089	-0.037
-654.872	28.007	-0.133	-0.114
-653.857	-200.000	0.001	-0.060
-652.843	772.969	0.072	0.200
-651.828	800.000	0.040	-0.156
-650.814	800.000	-0.027	-0.114
-649.799	800.000	0.092	-0.286
-648.784	78.089	0.249	-0.271
-647.770	-200.000	0.012	0.227
-646.755	252.600	0.040	0.070
-645.741	11.329	0.245	-0.191
-644.726	33.237	0.229	-0.203
-643.711	-200.000	-0.011	-0.063
-642.697	800.000	0.121	0.360
-641.682	-200.000	-0.008	-0.396
-640.668	-200.000	0.027	0.270
-639.653	-18.484	-0.069	0.044
-638.638	-157.868	-0.138	0.008
-637.624	-200.000	0.025	0.181
-636.609	51.874	-0.179	0.174
-635.595	2.993	-0.312	0.231
-634.580	-200.000	-0.005	0.224
-633.565	42.729	-0.145	-0.135
-632.551	800.000	-0.032	-0.105
-631.536	-139.422	0.057	0.006
-630.522	-165.423	-0.306	-0.014
-629.507	-141.016	0.267	0.028
-628.492	185.475	-0.163	0.246
-627.478	-200.000	0.058	0.510
-626.463	800.000	0.010	0.032
-625.449	13.269	-0.185	-0.146
-624.434	56.250	0.040	0.039
-623.419	357.113	-0.144	-0.293
-622.405	118.534	-0.077	-0.097
-621.390	800.000	0.101	-0.296
-620.376	-29.459	0.238	-0.139
-619.361	-2.103	0.124	0.088
-618.346	129.388	0.287	0.373
-617.332	-70.684	-0.287	-0.111
-616.317	-7.827	-0.258	-0.177
-615.303	-84.672	0.159	-0.051
-614.288	-50.603	0.279	-0.134
-613.273	800.000	-0.042	0.155
-612.259	-106.676	0.198	0.045
-611.244	-200.000	0.018	-0.135
-610.230	-49.302	0.291	-0.141
-609.215	194.211	-0.051	-0.079
-608.201	211.968	0.131	-0.210
-607.186	800.000	0.028	-0.120
-606.171	309.520	-0.057	-0.109
-605.157	-72.719	0.155	0.058
-604.142	-15.132	-0.101	-0.066
-603.128	338.664	0.082	0.162
-602.113	-118.738	-0.277	0.050
-601.098	69.565	-0.179	0.187
-600.084	800.000	0.009	0.027
-599.069	-200.000	0.044	0.273
-598.055	95.947	-0.190	-0.221
-597.040	-103.339	-0.197	-0.047
-596.025	800.000	-0.114	-0.385
-595.011	759.530	0.040	-0.110
-593.996	333.838	0.064	-0.125
-592.982	255.663	-0.091	-0.159
-591.967	-134.642	-0.160	0.020
-590.952	133.568	0.051	-0.067
-589.938	-200.000	-0.041	-0.331
-588.923	249.064	0.126	0.217
-587.909	-200.000	-0.057	0.350
-586.894	712.833	-0.034	-0.090
-585.879	-200.000	0.028	-0.149
-584.865	-108.319	-0.121	-0.027
-583.850	-200.000	-0.033	0.172
-582.836	258.205	0.158	-0.277
-581.821	433.212	0.096	0.212
-580.806	50.817	0.141	-0.136
-579.792	-130.291	0.179	-0.025
-578.777	93.791	0.284	0.327
-577.763	280.651	-0.085	-0.155
-576.748	79.183	0.252	-0.274
-575.733	-83.570	0.264	-0.086
-574.719	224.277	0.057	0.093
-573.704	558.334	-0.139	0.340
-572.690	-61.845	-0.338	-0.144
-571.675	-10.798	-0.269	-0.181
-570.661	3.419	-0.063	-0.047
-569.646	-164.621	-0.325	0.015
-568.631	-129.048	-0.185	0.026
-567.617	-200.000	-0.030	0.205
-566.602	7.543	-0.277	-0.210
-565.588	-5.059	-0.344	-0.241
-564.573	-129.901	0.246	0.034
-563.558	-198.270	0.276	0.002
-562.544	121.520	-0.141	-0.179
-561.529	145.302	-0.126	0.171
-560.515	-91.663	0.142	0.041
-559.500	-81.806	0.189	-0.063
-558.485	-121.962	0.169	0.028
-557.471	-53.908	0.240	0.111
-556.456	-200.000	0.012	-0.309
-555.442	-59.402	-0.311	0.136
-554.427	642.246	-0.042	-0.108
-553.412	107.075	-0.012	0.015
-552.398	-112.356	-0.040	0.008
-551.383	800.000	-0.134	0.399
-550.369	126.803	-0.122	-0.156
-549.354	-126.956	-0.159	-0.024
-548.339	43.037	-0.150	-0.139
-547.325	-158.246	-0.488	0.029
-546.310	-137.320	0.365	-0.042
-545.296	-24.428	-0.164	-0.099
-544.281	534.034	0.151	-0.363
-543.266	-71.668	0.159	0.060
-542.252	-42.154	-0.108	-0.056
-541.237	44.411	-0.211	-0.197
-540.223	172.490	0.040	-0.058
-539.208	800.000	0.042	-0.175
-538.193	-200.000	0.026	-0.298
-537.179	41.446	-0.206	0.189
-536.164	800.000	-0.007	-0.027
-535.150	211.006	0.105	-0.167
-534.135	-90.351	0.146	-0.043
-533.121	-110.467	0.127	0.027
-532.106	-37.787	0.202	0.109
-531.091	-78.025	0.313	-0.109
-530.077	-133.228	-0.215	-0.028
-529.062	-200.000	-0.068	-0.000
-528.048	29.890	-0.294	0.254
-527.033	380.755	-0.077	0.161
-526.018	40.543	-0.409	0.374
-525.004	-73.585	-0.129	0.048
-523.989	-200.000	0.021	0.335
-522.975	-77.492	-0.135	0.047
-521.960	107.553	0.098	0.119
-520.945	-8.504	-0.272	0.185
-519.931	346.532	0.097	-0.193
-518.916	-149.581	-0.276	0.022
-517.902	-130.840	0.297	0.040
-516.887	52.588	-0.120	-0.116
-515.872	-110.447	0.158	0.033
-514.858	800.000	-0.108	0.338
-513.843	234.876	-0.065	0.108
-512.829	201.314	-0.084	0.131
-511.814	32.281	0.106	0.093
-510.799	-136.839	0.081	0.009
-509.785	204.080	-0.228	0.358
-508.770	576.069	0.109	0.271
-507.756	-200.000	-0.039	0.285
-506.741	-61.635	-0.363	-0.154
-505.726	-122.329	0.222	0.037
-504.712	-200.000	0.021	-0.409
-503.697	94.286	-0.172	-0.198
-502.683	-190.015	0.404	0.005
-501.668	-36.467	0.171	0.094
-500.653	-200.000	0.000	-0.036
-499.639	-132.473	-0.435	-0.057
-498.624	12.316	-0.073	-0.057
-497.610	800.000	-0.070	0.205
-496.595	800.000	0.043	-0.130
-495.581	-48.536	-0.321	-0.156
-494.566	-117.040	0.063	0.012
-493.551	800.000	0.118	0.497
-492.537	-36.138	-0.183	0.100
-491.522	49.043	0.083	-0.079
-490.508	-152.114	0.215	0.016
-489.493	294.612	0.064	-0.119
-488.478	-25.782	-0.188	-0.112
-487.464	-177.327	-0.176	-0.004
-486.449	-84.500	0.248	-0.079
-485.435	-187.257	0.255	-0.004
-484.420	-22.417	0.352	-0.216
-483.405	594.775	0.090	0.226
-482.391	-93.835	-0.249	-0.069
-481.376	-200.000	-0.006	0.098
-480.362	-4.834	0.141	-0.099
-479.347	192.747	0.090	-0.138
-478.332	-62.742	0.065	-0.027
-477.318	-200.000	0.036	-0.366
-476.303	-103.275	-0.268	0.064
-475.289	189.454	0.081	0.122
-474.274	73.886	-0.090	-0.096
-473.259	523.385	0.057	-0.137
-472.245	-13.468	0.172	0.113
-471.230	-26.534	-0.251	-0.149
-470.216	-136.277	-0.305	0.036
-469.201	328.440	0.136	0.265
-468.186	-200.000	-0.389	0.000
-467.172	97.216	-0.280	-0.325
-466.157	150.301	0.081	-0.111
-465.143	-200.000	-0.038	0.175
-464.128	131.027	0.054	-0.070
-463.113	800.000	-0.128	0.511
-462.099	-87.875	-0.253	-0.077
-461.084	404.968	0.017	0.035
-460.070	87.473	-0.238	-0.267
-459.055	40.950	-0.234	-0.214
-458.040	-200.000	-0.017	0.126
-457.026	800.000	-0.004	0.013
-456.011	102.387	-0.111	0.131
-454.997	-169.284	0.332	-0.012
-453.982	-172.827	0.136	0.004
-452.968	56.016	0.191	0.187
-451.953	-200.000	0.039	0.222
-450.938	-200.000	0.003	-0.025
-449.924	-129.242	-0.036	-0.005
-448.909	213.393	0.175	-0.280
-447.895	-87.091	0.174	-0.054
-446.880	456.910	0.117	0.262
-445.865	-12.837	0.142	-0.093
-444.851	166.729	0.168	-0.241
-443.836	-200.000	-0.021	0.104
-442.822	627.612	-0.041	-0.104
-441.807	-155.694	-0.389	0.025
-440.792	578.159	-0.130	0.321
-439.778	632.009	0.076	-0.196
-438.763	-82.981	-0.347	-0.113
-437.749	800.000	0.103	0.291
-436.734	-75.224	0.257	0.093
-435.719	-200.000	-0.009	-0.067
-434.705	-152.111	-0.120	-0.009
-433.690	-39.095	0.255	0.136
-432.676	331.885	-0.072	-0.140
-431.661	-200.000	0.016	-0.112
-430.646	-106.986	0.191	0.043
-429.632	55.843	0.282	0.277
-428.617	551.914	0.112	0.272
-427.603	-200.000	-0.007	0.138
-426.588	1.946	-0.210	0.153
-425.573	-57.090	-0.318	0.142
-424.559	-200.000	0.038	0.203
-423.544	-29.818	-0.155	0.090
-422.530	-100.058	0.230	0.058
-421.515	212.854	0.122	-0.195
-420.500	-5.681	-0.090	-0.063
-419.486	800.000	0.047	-0.175
-418.471	800.000	-0.055	0.177
-417.457	-147.359	-0.256	-0.022
-416.442	723.505	-0.085	-0.230
-415.428	182.286	-0.092	0.137
-414.413	-102.590	-0.200	0.048
-413.398	342.452	0.107	-0.211
-412.384	76.101	-0.086	0.092
-411.369	-66.033	0.078	-0.031
-410.355	-157.548	0.308	-0.019
-409.340	464.296	0.076	0.172
-408.325	127.007	0.128	-0.164
-407.311	6.319	-0.055	-0.041
-406.296	-200.000	0.008	-0.043
-405.282	-123.064	0.270	-0.044
-404.267	77.871	-0.031	0.034
-403.252	-31.966	0.095	-0.054
-402.238	800.000	-0.073	-0.233
-401.223	-134.953	-0.449	-0.055
-400.209	-47.975	-0.153	-0.075
-399.194	-38.099	0.116	-0.062
-398.179	-120.183	-0.153	-0.026
-397.165	-200.000	-0.010	0.227
-396.150	-69.930	0.354	0.136
-395.136	800.000	0.220	-0.649
-394.121	-48.248	0.239	0.117
-393.106	-104.582	0.139	0.032
-392.092	-101.302	0.094	-0.023
-391.077	595.543	-0.037	-0.093
-390.063	-125.150	-0.183	-0.028
-389.048	508.057	-0.059	-0.138
-388.033	-20.956	-0.296	-0.183
-387.019	800.000	-0.087	-0.290
-386.004	221.700	0.060	-0.097
-384.990	61.895	-0.158	-0.159
-383.975	27.047	-0.111	0.094
-382.960	601.907	0.039	0.097
-381.946	134.174	-0.148	-0.193
-380.931	81.738	-0.098	0.107
-379.917	260.115	0.274	0.477
-378.902	143.335	0.170	-0.228
-377.888	-118.467	-0.210	0.038
-376.873	-13.662	-0.262	-0.171
-375.858	-73.274	0.276	-0.102
-374.844	103.931	-0.237	-0.281
-373.829	-200.000	0.021	-0.150
-372.815	-200.000	0.044	-0.260
-371.800	-170.910	-0.285	0.010
-370.785	-200.000	0.029	-0.383
-369.771	-53.665	-0.030	-0.014
-368.756	-35.224	0.344	-0.189
-367.742	-117.067	0.187	-0.034
-366.727	10.529	-0.138	0.106
-365.712	163.351	-0.325	-0.461
-364.698	-94.645	0.217	0.059
-363.683	-200.000	0.015	-0.308
-362.669	466.234	0.031	0.071
-361.654	123.196	0.237	-0.300
-360.639	-78.798	-0.126	0.043
-359.625	800.000	0.018	-0.061
-358.610	-62.424	-0.174	0.073
-357.596	-50.811	0.040	0.019
-356.581	800.000	-0.170	0.474
-355.566	-123.528	0.171	0.027
-354.552	-122.258	0.528	-0.087
-353.537	709.978	-0.136	0.364
-352.523	-200.000	0.005	-0.050
-351.508	-75.990	-0.046	-0.017
-350.493	800.000	0.025	0.095
-349.479	-36.011	0.213	-0.116
-348.464	232.164	-0.123	-0.203
-347.450	-200.000	-0.013	-0.331
-346.435	-200.000	-0.011	0.145
-345.420	548.426	-0.040	-0.097
-344.406	141.551	0.101	0.135
-343.391	779.516	-0.110	0.303
-342.377	575.306	0.106	-0.261
-341.362	-99.262	-0.229	0.058
-340.348	-87.325	0.263	-0.080
-339.333	187.728	-0.151	0.227
-338.318	-48.704	-0.120	0.058
-337.304	16.726	0.056	0.045
-336.289	-26.482	0.072	-0.042
-335.275	-4.895	-0.153	0.106
-334.260	800.000	-0.100	-0.339
-333.245	800.000	-0.056	0.172
-332.231	141.514	-0.101	0.135
-331.216	56.222	0.190	-0.186
-330.202	-114.341	-0.216	-0.042
-329.187	-11.889	-0.122	-0.080
-328.172	-16.689	-0.086	-0.055
-327.158	389.481	-0.051	0.107
-326.143	462.929	0.022	-0.050
-325.129	40.170	0.034	-0.031
-324.114	-180.894	0.350	-0.007
-323.099	133.053	-0.085	0.110
-322.085	26.936	0.166	0.140
-321.070	-43.453	0.393	0.200
-320.056	218.568	-0.079	-0.127
-319.041	800.000	0.064	-0.251
-318.026	-154.402	0.081	-0.005
-317.012	800.000	0.155	0.461
-315.997	726.696	-0.151	0.404
-314.983	34.591	-0.082	0.072
-313.968	316.138	0.123	0.235
-312.953	251.256	-0.094	0.161
-311.939	129.361	-0.095	0.122
-310.924	800.000	0.020	0.072
-309.910	222.134	0.186	0.301
-308.895	800.000	0.041	0.181
-307.880	-131.694	-0.049	-0.007
-306.866	215.712	-0.183	-0.292
-305.851	800.000	-0.100	0.349
-304.837	-16.785	0.023	0.015
-303.822	148.423	-0.101	-0.138
-302.807	7.846	0.345	0.260
-301.793	-13.295	0.063	0.041
-300.778	78.368	-0.093	-0.100
-299.764	-67.335	0.133	0.053
-298.749	142.067	0.121	0.161
-297.735	-84.855	0.187	-0.059
-296.720	15.217	-0.216	0.170
-295.705	800.000	-0.023	-0.101
-294.691	256.065	0.072	-0.124
-293.676	195.450	-0.128	0.196
-292.662	800.000	-0.081	0.285
-291.647	-45.858	-0.252	-0.125
-290.632	75.007	0.264	0.280
-289.618	6.840	-0.150	-0.113
-288.603	-200.000	-0.014	-0.201
-287.589	-76.015	-0.055	0.020
-286.574	-50.480	-0.325	0.154
-285.559	-143.496	0.179	0.017
-284.545	-30.184	0.113	0.065
-283.530	92.667	0.140	0.159
-282.516	103.701	0.100	0.118
-281.501	42.770	-0.250	0.228
-280.486	433.840	0.058	0.127
-279.472	0.351	0.020	-0.014
-278.457	-79.874	-0.073	0.025
-277.443	-51.594	0.185	-0.087
-276.428	-200.000	0.036	-0.183
-275.413	286.815	0.083	0.151
-274.399	800.000	0.034	-0.125
-273.384	-200.000	0.002	-0.083
-272.370	-91.620	0.179	-0.051
-271.355	-200.000	-0.003	-0.044
-270.340	381.452	0.088	-0.182
-269.326	520.486	-0.095	-0.225
-268.311	-140.555	0.292	-0.030
-267.297	263.447	-0.174	0.305
-266.282	-57.289	0.042	0.019
-265.267	-193.463	0.102	0.001
-264.253	-43.478	0.102	0.052
-263.238	-100.576	0.077	0.019
-262.224	24.065	0.346	0.286
-261.209	143.291	-0.018	0.025
-260.195	371.906	-0.042	-0.087
-259.180	-110.213	0.195	-0.041
-258.165	-129.832	0.260	-0.036
-257.151	-106.309	0.365	0.082
-256.136	-175.603	0.265	-0.007
-255.122	121.176	0.220	-0.275
-254.107	719.257	-0.063	0.167
-253.092	75.082	0.057	0.060
-252.078	-200.000	-0.011	0.149
-251.063	56.186	0.058	0.056
-250.049	-200.000	-0.011	0.070
-249.034	-200.000	-0.034	-0.204
-248.019	153.245	-0.236	-0.324
-247.005	-200.000	0.043	0.314
-245.990	-148.883	0.119	0.010
-244.976	-114.448	0.311	0.060
-243.961	508.881	-0.099	-0.232
-242.946	353.710	0.129	-0.256
-241.932	397.596	-0.037	0.078
-240.917	-60.918	-0.168	-0.071
-239.903	-9.551	-0.086	-0.057
-238.888	200.235	0.080	-0.124
-237.873	169.910	-0.123	-0.176
-236.859	-200.000	-0.044	0.288
-235.844	800.000	-0.054	-0.178
-234.830	-200.000	-0.006	0.216
-233.815	-5.169	-0.243	-0.167
-232.800	-200.000	-0.016	-0.353
-231.786	128.587	0.247	-0.316
-230.771	-200.000	0.008	0.149
-229.757	-37.446	-0.280	0.150
-228.742	-165.399	0.196	0.009
-227.727	-30.035	0.074	-0.042
-226.713	432.373	0.074	0.161
-225.698	384.060	-0.090	0.187
-224.684	-172.033	0.050	-0.002
-223.669	-200.000	0.068	0.366
-222.655	63.281	0.262	-0.264
-221.640	-200.000	0.000	0.289
-220.625	800.000	-0.106	0.304
-219.611	-51.387	0.241	-0.113
-218.596	800.000	-0.097	0.353
-217.582	263.510	0.052	0.091
-216.567	574.240	-0.090	-0.220
-215.552	-127.297	-0.280	0.041
-214.538	-18.736	-0.046	-0.029
-213.523	-164.582	-0.151	0.007
-212.509	-200.000	-0.016	-0.300
-211.494	-102.107	0.057	0.014
-210.479	-41.623	0.203	0.105
-209.465	96.391	0.369	0.423
-208.450	-200.000	-0.021	-0.112
-207.436	-2.420	0.188	-0.132
-206.421	100.760	-0.126	0.147
-205.406	-24.972	-0.171	-0.102
-204.392	-29.229	0.258	-0.148
-203.377	-200.000	0.031	-0.247
-202.363	-154.191	-0.219	-0.015
-201.348	-198.220	0.136	0.001
-200.333	18.946	0.214	0.172
-199.319	3.783	-0.236	0.172
-198.304	-38.646	-0.417	0.220
-197.290	52.986	-0.142	-0.136
-196.275	-20.741	-0.220	0.135
-195.260	-26.126	-0.473	0.278
-194.246	-105.034	0.059	0.013
-193.231	367.631	0.115	0.233
-192.217	-98.889	0.343	-0.087
-191.202	16.632	-0.428	-0.339
-190.187	800.000	0.016	0.065
-189.173	8.322	-0.367	0.276
-188.158	-122.128	0.371	-0.061
-187.144	62.723	0.068	0.068
-186.129	800.000	-0.037	-0.153
-185.114	543.649	0.222	-0.530
-184.100	800.000	0.048	0.143
-183.085	3.214	0.225	-0.164
-182.071	397.020	-0.006	-0.012
-181.056	92.151	-0.121	0.136
-180.042	-200.000	0.034	-0.180
-179.027	-200.000	0.089	-0.446
-178.012	55.756	0.163	-0.158
-176.998	-42.405	-0.350	-0.179
-175.983	-89.067	-0.215	0.064
-174.969	-164.023	-0.333	0.015
-173.954	34.512	0.242	0.212
-172.939	33.040	0.455	0.394
-171.925	90.626	0.224	0.251
-170.910	-57.273	0.159	0.070
-169.896	-93.057	0.081	-0.023
-168.881	-78.847	0.066	-0.022
-167.866	64.677	-0.126	-0.127
-166.852	-74.875	-0.199	-0.071
-165.837	800.000	0.072	-0.225
-164.823	-65.360	0.095	-0.038
-163.808	-111.108	-0.098	0.020
-162.793	-200.000	-0.036	0.204
-161.779	74.612	-0.087	0.092
-160.764	-75.489	-0.126	-0.045
-159.750	-40.326	0.181	-0.094
-158.735	247.392	-0.182	-0.307
-157.720	-200.000	0.121	0.000
-156.706	106.808	-0.163	-0.193
-155.691	789.739	0.126	0.347
-154.677	70.974	0.171	0.177
-153.662	-77.323	-0.417	0.145
-152.647	-200.000	-0.040	-0.252
-151.633	450.884	-0.030	-0.066
-150.618	800.000	0.093	-0.280
-149.604	226.019	-0.082	-0.132
-148.589	-158.098	0.206	-0.012
-147.574	-41.072	-0.203	0.105
-146.560	-20.413	-0.256	0.157
-145.545	-200.000	-0.036	-0.211
-144.531	76.500	-0.192	-0.204
-143.516	800.000	0.034	0.139
-142.502	-98.585	-0.385	-0.098
-141.487	425.141	-0.061	-0.131
-140.472	-113.759	-0.173	-0.034
-139.458	460.879	-0.120	-0.267
-138.443	-196.102	0.120	-0.001
-137.429	42.912	0.161	0.147
-136.414	92.197	-0.133	0.150
-135.399	23.805	-0.202	-0.166
-134.385	118.357	-0.163	0.201
-133.370	800.000	-0.036	0.140
-132.356	-116.598	0.261	0.048
-131.341	-200.000	-0.429	0.000
-130.326	448.272	0.046	0.101
-129.312	119.044	-0.140	0.173
-128.297	-200.000	-0.016	0.182
-127.283	-200.000	0.003	0.037
-126.268	251.590	-0.079	-0.134
-125.253	-200.000	-0.052	0.316
-124.239	-165.718	0.074	-0.003
-123.224	195.176	-0.011	-0.016
-122.210	-11.104	0.028	-0.018
