DTS Sentinel unit serial number:	SN413079Multiplexer serial number:	ORYXHardware model number:	OX4-SRSoftware version number:	ORYX F/W v4.00 Oryx Data Collector v3.7.2.0data status	okinstallation	princeton_trtdifferential loss correction	single-endedforward channel	channel 4reverse channel	N/Adate	2019/09/14time	11:25:35forward acquisition time	60.00reverse acquisition time	0.00gamma	496.2192k internal	0.2295k external	0.2295temperature offset calibration	1.0154default loss term (dB/km)	0.3790temperature slope calibration	1.0000multiplexer offset coefficient	1.0000multiplexer slope coefficient	1.0000fibre end	0.00T internal ref (°C)	36.75T ext. ref 1 (°C)	4.54T ext. ref 2 (°C)	32.73length (m)	temperature (°C)	Stokes	anti-Stokes-747.200	-78.313	0.279	-0.098
-746.185	-37.634	0.161	0.088
-745.171	-125.462	0.089	0.014
-744.156	-102.504	-0.111	0.027
-743.142	800.000	0.066	0.203
-742.127	800.000	0.079	0.348
-741.112	42.974	0.075	-0.070
-740.098	-200.000	0.007	0.148
-739.083	-147.109	-0.243	-0.021
-738.069	624.628	0.060	-0.153
-737.054	191.195	-0.091	-0.139
-736.039	-165.899	-0.372	-0.016
-735.025	-25.915	-0.132	0.080
-734.010	-43.335	-0.174	-0.090
-732.996	-38.311	-0.329	-0.178
-731.981	-200.000	-0.062	-0.364
-730.966	27.748	0.038	-0.033
-729.952	-200.000	-0.027	0.183
-728.937	-28.831	-0.334	0.196
-727.923	-200.000	0.021	0.252
-726.908	3.175	-0.225	-0.167
-725.894	800.000	0.038	0.123
-724.879	10.396	0.118	-0.092
-723.864	269.519	-0.151	0.271
-722.850	115.223	-0.099	-0.123
-721.835	43.152	-0.150	0.140
-720.821	66.829	0.189	-0.197
-719.806	92.841	-0.151	-0.174
-718.791	-200.000	-0.030	-0.184
-717.777	-113.192	-0.146	0.029
-716.762	-98.949	0.352	-0.091
-715.748	-10.582	-0.106	-0.072
-714.733	800.000	-0.108	-0.332
-713.718	2.625	-0.218	-0.161
-712.704	-68.985	-0.264	-0.104
-711.689	-181.172	0.117	0.002
-710.675	-200.000	-0.030	-0.281
-709.660	-13.177	-0.054	0.036
-708.645	800.000	-0.037	-0.146
-707.631	-147.043	-0.158	-0.014
-706.616	74.394	0.146	-0.157
-705.602	-200.000	-0.006	0.137
-704.587	-45.148	0.101	-0.051
-703.572	385.776	-0.143	-0.300
-702.558	800.000	0.028	-0.107
-701.543	113.205	0.165	0.204
-700.529	-200.000	0.003	-0.311
-699.514	470.779	0.032	0.072
-698.499	-72.088	-0.181	0.069
-697.485	-200.000	0.003	-0.106
-696.470	71.082	-0.104	-0.110
-695.456	-55.629	0.073	0.033
-694.441	38.898	0.113	-0.103
-693.426	-200.000	-0.153	0.000
-692.412	19.015	0.223	-0.183
-691.397	33.457	-0.261	-0.231
-690.383	-200.000	-0.025	0.172
-689.368	131.577	-0.260	-0.341
-688.354	800.000	0.028	-0.088
-687.339	5.117	-0.218	-0.164
-686.324	-130.198	0.202	-0.028
-685.310	800.000	-0.165	-0.536
-684.295	-161.403	-0.213	0.011
-683.281	162.282	0.075	-0.107
-682.266	-200.000	0.064	-0.411
-681.251	800.000	-0.037	-0.127
-680.237	347.392	0.060	-0.120
-679.222	-200.000	-0.065	-0.327
-678.208	800.000	-0.137	0.438
-677.193	-200.000	-0.041	0.377
-676.178	800.000	-0.084	-0.237
-675.164	-200.000	0.021	-0.324
-674.149	-200.000	0.012	-0.113
-673.135	328.460	-0.144	-0.282
-672.120	800.000	0.085	-0.248
-671.105	761.963	0.054	0.150
-670.091	399.091	-0.152	0.325
-669.076	-200.000	-0.011	0.241
-668.062	-200.000	-0.008	-0.196
-667.047	-137.516	-0.229	-0.026
-666.032	-42.969	-0.327	-0.169
-665.018	800.000	0.063	0.248
-664.003	-32.018	0.251	0.143
-662.989	174.041	-0.312	-0.460
-661.974	-123.324	0.546	0.089
-660.959	-86.243	0.170	0.053
-659.945	-71.923	-0.420	-0.159
-658.930	121.751	0.064	-0.081
-657.916	-200.000	-0.002	0.190
-656.901	-134.832	0.247	-0.031
-655.886	766.278	-0.022	-0.060
-654.872	-200.000	-0.000	-0.113
-653.857	122.379	-0.156	-0.198
-652.843	-200.000	-0.035	0.190
-651.828	166.721	0.045	0.065
-650.814	193.363	0.113	-0.174
-649.799	-200.000	-0.025	-0.210
-648.784	84.623	0.105	0.117
-647.770	-45.618	-0.438	-0.221
-646.755	385.581	0.080	0.169
-645.741	-83.762	-0.185	-0.060
-644.726	-37.091	-0.261	0.142
-643.711	800.000	-0.072	0.310
-642.697	102.724	-0.152	-0.181
-641.682	-12.279	0.101	0.067
-640.668	321.190	0.174	-0.337
-639.653	120.739	0.087	-0.110
-638.638	287.781	0.014	-0.026
-637.624	-24.215	-0.049	0.030
-636.609	-200.000	-0.078	-0.413
-635.595	-97.743	0.169	-0.045
-634.580	-26.854	0.171	0.102
-633.565	164.710	0.138	0.198
-632.551	-47.598	-0.158	-0.078
-631.536	800.000	0.060	-0.259
-630.522	93.243	-0.140	-0.161
-629.507	84.990	-0.203	-0.227
-628.492	56.273	0.167	0.165
-627.478	-200.000	0.020	0.112
-626.463	409.700	0.022	-0.047
-625.449	64.104	0.182	0.187
-624.434	-82.773	-0.142	-0.047
-623.419	23.029	-0.109	0.091
-622.405	57.303	-0.117	0.116
-621.390	-108.929	0.099	0.021
-620.376	-200.000	-0.018	0.362
-619.361	-149.079	-0.200	-0.016
-618.346	-19.774	0.219	0.138
-617.332	-200.000	-0.006	-0.058
-616.317	746.755	-0.079	0.217
-615.303	800.000	-0.046	0.136
-614.288	-5.310	-0.039	-0.027
-613.273	66.795	-0.091	-0.094
-612.259	-111.952	-0.153	0.031
-611.244	-121.021	-0.132	-0.023
-610.230	-69.202	-0.456	0.178
-609.215	-22.050	-0.366	-0.226
-608.201	79.907	0.323	0.353
-607.186	-165.672	0.009	0.000
-606.171	800.000	-0.061	0.194
-605.157	-81.352	0.089	-0.030
-604.142	-115.541	-0.112	0.021
-603.128	800.000	0.042	-0.180
-602.113	-200.000	-0.002	-0.190
-601.098	75.408	-0.248	-0.266
-600.084	-53.554	0.186	-0.086
-599.069	52.024	0.146	-0.141
-598.055	-114.172	-0.577	-0.113
-597.040	282.275	0.113	0.206
-596.025	469.975	-0.127	-0.291
-595.011	-120.232	0.140	-0.024
-593.996	83.740	0.111	-0.123
-592.982	-85.399	-0.349	0.111
-591.967	53.487	-0.073	0.071
-590.952	781.799	0.079	0.220
-589.938	-200.000	0.065	0.463
-588.923	800.000	-0.010	0.039
-587.909	-93.684	0.220	0.062
-586.894	291.190	-0.139	-0.258
-585.879	23.899	-0.051	-0.043
-584.865	-200.000	-0.030	-0.262
-583.850	281.057	-0.121	-0.219
-582.836	657.635	0.138	-0.360
-581.821	414.246	0.075	-0.163
-580.806	401.826	-0.160	0.341
-579.792	800.000	-0.116	-0.397
-578.777	-40.805	-0.114	0.060
-577.763	800.000	-0.017	0.056
-576.748	39.251	0.149	0.136
-575.733	800.000	-0.009	-0.035
-574.719	-200.000	-0.031	0.276
-573.704	-86.169	0.048	-0.015
-572.690	132.305	-0.013	-0.017
-571.675	9.936	-0.259	-0.200
-570.661	247.691	0.028	0.048
-569.646	-94.152	-0.343	-0.095
-568.631	-15.795	-0.127	-0.082
-567.617	43.977	-0.174	-0.161
-566.602	-200.000	-0.022	-0.562
-565.588	-200.000	-0.007	0.214
-564.573	236.159	0.097	0.162
-563.558	-24.745	-0.138	0.083
-562.544	288.467	-0.150	-0.277
-561.529	-43.874	-0.432	0.221
-560.515	-56.359	-0.249	0.112
-559.500	115.252	0.157	-0.194
-558.485	-200.000	0.009	-0.164
-557.471	800.000	0.061	0.222
-556.456	91.198	0.168	-0.192
-555.442	63.720	0.271	-0.276
-554.427	201.481	-0.194	0.303
-553.412	44.152	-0.044	-0.041
-552.398	-72.945	-0.147	0.055
-551.383	-97.424	0.094	0.025
-550.369	-200.000	0.003	-0.071
-549.354	527.344	0.115	-0.274
-548.339	25.228	0.218	-0.184
-547.325	-200.000	-0.086	-0.409
-546.310	-129.121	0.200	0.028
-545.296	189.621	0.154	0.235
-544.281	-126.091	0.087	-0.013
-543.266	66.268	0.071	-0.073
-542.252	57.231	0.089	-0.088
-541.237	-200.000	0.005	0.324
-540.223	-55.573	-0.131	0.060
-539.208	-80.232	-0.250	-0.085
-538.193	-107.722	-0.156	0.035
-537.179	598.415	-0.087	-0.218
-536.164	-198.053	0.043	0.000
-535.150	-200.000	0.011	0.211
-534.135	-18.219	0.182	-0.116
-533.121	-101.391	0.335	-0.083
-532.106	800.000	-0.107	0.356
-531.091	-92.926	0.272	0.077
-530.077	-199.541	-0.177	-0.001
-529.062	142.814	-0.188	0.253
-528.048	-200.000	0.022	0.144
-527.033	-129.295	-0.159	0.022
-526.018	223.791	-0.033	-0.054
-525.004	22.032	0.354	-0.293
-523.989	159.410	0.247	-0.348
-522.975	-200.000	-0.020	0.132
-521.960	-35.736	0.062	-0.034
-520.945	-20.612	-0.302	0.188
-519.931	-2.145	-0.179	0.128
-518.916	-11.860	0.236	0.157
-517.902	-128.476	-0.212	0.031
-516.887	-200.000	0.052	0.307
-515.872	800.000	0.143	0.411
-514.858	-200.000	-0.029	0.140
-513.843	800.000	-0.147	0.460
-512.829	112.561	0.158	0.194
-511.814	-78.987	0.248	0.086
-510.799	-3.916	0.298	0.209
-509.785	354.410	-0.091	-0.183
-508.770	211.165	0.080	-0.127
-507.756	493.398	-0.090	-0.210
-506.741	562.229	0.030	-0.074
-505.726	33.024	-0.109	-0.096
-504.712	3.150	-0.083	0.061
-503.697	767.149	-0.081	0.224
-502.683	166.919	-0.155	0.223
-501.668	471.683	0.154	-0.350
-500.653	-200.000	-0.025	-0.201
-499.639	800.000	-0.153	0.429
-498.624	-10.319	-0.152	0.102
-497.610	-200.000	-0.007	0.123
-496.595	-40.921	0.183	0.096
-495.581	108.105	0.247	-0.298
-494.566	-62.236	-0.207	0.087
-493.551	210.334	-0.049	-0.079
-492.537	118.342	0.166	-0.207
-491.522	-85.986	0.263	0.082
-490.508	800.000	0.062	0.239
-489.493	65.210	0.209	-0.214
-488.478	190.360	0.146	0.221
-487.464	361.735	-0.072	0.147
-486.449	-200.000	-0.020	-0.121
-485.435	-200.000	-0.060	-0.286
-484.420	-169.680	0.299	0.011
-483.405	-24.605	-0.213	0.128
-482.391	163.443	0.216	0.308
-481.376	-200.000	-0.021	-0.143
-480.362	-3.744	-0.133	-0.093
-479.347	748.460	0.076	-0.206
-478.332	-164.618	-0.188	-0.009
-477.318	1.164	-0.054	-0.039
-476.303	118.526	0.189	-0.236
-475.289	254.299	-0.098	-0.169
-474.274	-200.000	0.073	0.419
-473.259	328.919	0.137	-0.266
-472.245	370.225	-0.073	0.149
-471.230	79.882	-0.138	-0.150
-470.216	-200.000	0.004	-0.024
-469.201	-200.000	-0.001	-0.188
-468.186	55.266	-0.280	-0.274
-467.172	20.523	-0.116	0.095
-466.157	800.000	0.097	0.280
-465.143	800.000	0.053	0.228
-464.128	499.235	0.099	0.232
-463.113	191.120	0.077	0.116
-462.099	496.846	-0.057	-0.133
-461.084	-41.323	-0.088	0.046
-460.070	67.028	-0.278	0.287
-459.055	800.000	-0.110	-0.431
-458.040	-62.552	0.228	-0.096
-457.026	316.007	0.131	0.249
-456.011	70.559	0.174	-0.181
-454.997	-38.522	0.130	-0.069
-453.982	-164.579	-0.307	-0.014
-452.968	-75.571	-0.256	-0.092
-451.953	288.844	0.081	0.149
-450.938	-200.000	-0.181	-0.000
-449.924	800.000	0.069	0.213
-448.909	-105.075	0.163	0.038
-447.895	174.696	0.114	-0.166
-446.880	124.179	0.157	0.200
-445.865	-200.000	0.010	-0.266
-444.851	-200.000	-0.046	-0.282
-443.836	645.296	0.098	-0.253
-442.822	800.000	0.089	0.328
-441.807	-200.000	-0.076	-0.444
-440.792	-68.978	0.033	-0.013
-439.778	51.589	-0.144	-0.138
-438.763	153.135	0.131	0.180
-437.749	800.000	0.044	-0.175
-436.734	27.245	-0.143	-0.121
-435.719	800.000	0.088	-0.290
-434.705	-42.566	0.369	-0.190
-433.690	-200.000	0.073	0.346
-432.676	-200.000	-0.024	-0.216
-431.661	54.435	-0.243	0.236
-430.646	-41.193	0.325	0.169
-429.632	800.000	-0.061	0.222
-428.617	-200.000	0.015	-0.351
-427.603	124.891	-0.039	-0.050
-426.588	-80.209	0.147	0.050
-425.573	404.989	0.074	0.157
-424.559	108.425	0.143	-0.172
-423.544	126.129	-0.045	0.057
-422.530	-200.000	-0.002	0.306
-421.515	-82.760	0.076	0.025
-420.500	238.706	0.088	-0.148
-419.486	-68.574	0.175	-0.068
-418.471	309.313	-0.177	0.335
-417.457	-200.000	-0.009	0.136
-416.442	159.870	-0.162	-0.228
-415.428	-153.379	-0.139	0.010
-414.413	322.096	0.042	0.080
-413.398	800.000	-0.074	-0.219
-412.384	-83.695	0.052	-0.017
-411.369	91.376	0.253	-0.286
-410.355	260.185	0.131	0.229
-409.340	-18.235	-0.124	0.078
-408.325	800.000	0.063	0.265
-407.311	204.728	-0.166	0.260
-406.296	-200.000	-0.022	0.124
-405.282	-50.454	0.207	0.099
-404.267	690.061	-0.013	-0.035
-403.252	223.308	-0.137	0.222
-402.238	363.119	0.089	0.181
-401.223	38.436	0.039	0.035
-400.209	1.415	-0.112	0.081
-399.194	42.795	0.129	-0.119
-398.179	-200.000	-0.027	0.277
-397.165	-177.551	0.331	0.008
-396.150	-165.175	0.303	-0.014
-395.136	-107.725	0.119	-0.026
-394.121	-42.048	0.216	0.111
-393.106	-200.000	0.031	0.291
-392.092	-44.358	-0.262	0.132
-391.077	391.265	-0.190	-0.399
-390.063	259.216	0.137	0.239
-389.048	150.343	-0.042	-0.058
-388.033	-139.733	0.079	-0.008
-387.019	-134.731	0.179	-0.022
-386.004	-128.829	-0.095	0.013
-384.990	370.670	-0.035	-0.071
-383.975	-200.000	-0.045	-0.317
-382.960	-200.000	0.013	0.096
-381.946	-30.905	-0.339	0.193
-380.931	8.590	0.335	0.254
-379.917	-42.985	0.241	0.123
-378.902	800.000	-0.020	-0.087
-377.888	-93.120	-0.253	0.071
-376.873	-200.000	0.001	-0.065
-375.858	106.100	-0.006	-0.007
-374.844	653.402	-0.134	-0.347
-373.829	50.000	0.073	-0.069
-372.815	59.948	0.210	0.209
-371.800	-72.583	-0.053	-0.020
-370.785	800.000	0.022	-0.063
-369.771	-138.314	0.364	-0.041
-368.756	508.224	-0.088	0.206
-367.742	-200.000	-0.037	0.294
-366.727	-95.467	-0.438	-0.118
-365.712	800.000	-0.057	0.175
-364.698	-119.253	-0.077	0.013
-363.683	-200.000	-0.014	-0.325
-362.669	-88.501	0.050	0.015
-361.654	196.138	0.246	0.377
-360.639	-77.009	0.191	-0.067
-359.625	127.485	-0.117	0.150
-358.610	106.972	-0.152	0.182
-357.596	-17.874	0.468	0.296
-356.581	-65.936	-0.101	-0.041
-355.566	66.398	-0.161	0.164
-354.552	800.000	-0.025	-0.087
-353.537	-200.000	-0.009	-0.115
-352.523	186.325	-0.127	0.190
-351.508	-197.442	0.266	-0.002
-350.493	-130.765	0.226	0.031
-349.479	31.998	0.140	0.121
-348.464	-48.328	0.370	-0.180
-347.450	121.252	0.043	-0.054
-346.435	44.877	0.007	-0.007
-345.420	-200.000	0.037	0.303
-344.406	-63.273	0.168	0.070
-343.391	-42.938	-0.149	0.076
-342.377	-110.978	0.181	0.037
-341.362	12.110	0.077	0.060
-340.348	-200.000	0.025	0.205
-339.333	155.031	-0.178	0.246
-338.318	-200.000	0.004	-0.472
-337.304	14.784	-0.245	0.193
-336.289	-200.000	-0.002	0.024
-335.275	8.588	0.261	-0.197
-334.260	429.720	0.071	0.153
-333.245	-200.000	0.063	-0.526
-332.231	-122.176	-0.351	0.058
-331.216	-200.000	0.024	0.306
-330.202	722.834	0.081	0.218
-329.187	-106.214	-0.057	0.013
-328.172	77.881	-0.032	-0.034
-327.158	62.074	0.141	-0.142
-326.143	-56.616	0.277	0.123
-325.129	800.000	0.080	0.267
-324.114	-30.983	0.167	0.095
-323.099	-200.000	0.050	0.373
-322.085	140.856	0.236	0.314
-321.070	-125.771	-0.206	0.031
-320.056	-26.262	-0.260	-0.154
-319.041	27.921	0.115	0.097
-318.026	32.704	-0.222	-0.193
-317.012	145.213	-0.207	0.278
-315.997	23.777	0.266	-0.221
-314.983	220.497	0.225	-0.363
-313.968	-114.921	-0.060	0.011
-312.953	-15.904	-0.167	0.107
-311.939	800.000	-0.083	0.331
-310.924	-93.915	-0.057	0.016
-309.910	302.691	0.125	-0.232
-308.895	-108.234	0.200	-0.043
-307.880	-67.504	-0.145	0.057
-306.866	-70.174	-0.241	-0.092
-305.851	-90.792	-0.285	0.083
-304.837	465.989	0.066	0.148
-303.822	159.519	-0.076	-0.106
-302.807	-85.575	-0.179	0.056
-301.793	419.169	0.060	-0.129
-300.778	-87.566	0.299	0.091
-299.764	85.663	-0.370	-0.409
-298.749	437.290	0.051	-0.112
-297.735	-79.490	-0.101	0.034
-296.720	-200.000	-0.014	0.103
-295.705	800.000	0.067	0.222
-294.691	-107.029	-0.104	0.023
-293.676	-139.366	-0.118	-0.013
-292.662	-147.049	-0.126	-0.011
-291.647	472.387	-0.144	0.325
-290.632	57.449	0.095	-0.093
-289.618	374.825	-0.148	-0.304
-288.603	-36.539	0.286	-0.155
-287.589	-200.000	0.006	0.048
-286.574	42.876	0.262	0.240
-285.559	-2.768	-0.421	0.296
-284.545	-122.885	0.155	0.025
-283.530	-106.390	0.190	-0.043
-282.516	-200.000	0.002	0.039
-281.501	800.000	0.048	-0.189
-280.486	333.248	-0.074	0.143
-279.472	-1.030	0.347	-0.246
-278.457	-122.870	0.354	-0.057
-277.443	-96.111	0.158	0.042
-276.428	-137.964	-0.239	-0.027
-275.413	-4.554	-0.149	-0.103
-274.399	-165.961	-0.174	-0.007
-273.384	110.139	-0.039	-0.048
-272.370	-90.862	-0.139	0.040
-271.355	-161.524	0.319	0.016
-270.340	-18.093	-0.274	0.172
-269.326	-54.395	-0.373	0.170
-268.311	-200.000	-0.034	0.419
-267.297	-200.000	0.035	0.290
-266.282	800.000	0.102	-0.351
-265.267	146.485	0.224	0.301
-264.253	115.781	-0.013	0.016
-263.238	13.455	0.199	-0.155
-262.224	71.673	-0.159	-0.166
-261.209	-45.766	0.117	-0.058
-260.195	-24.069	-0.333	0.200
-259.180	-200.000	0.004	-0.133
-258.165	45.126	0.193	-0.178
-257.151	-121.167	0.171	0.029
-256.136	104.264	0.041	0.049
-255.122	772.501	-0.042	0.116
-254.107	-200.000	-0.007	-0.089
-253.092	32.161	-0.167	-0.145
-252.078	344.792	0.069	-0.135
-251.063	22.209	0.096	-0.079
-250.049	-142.212	0.105	-0.010
-249.034	150.680	-0.254	-0.346
-248.019	79.750	-0.144	-0.155
-247.005	-200.000	0.005	-0.220
-245.990	80.354	-0.268	-0.290
-244.976	-93.370	-0.233	0.065
-243.961	2.788	-0.191	0.139
-242.946	800.000	-0.069	-0.208
-241.932	-200.000	0.074	-0.337
-240.917	800.000	-0.070	0.282
-239.903	-200.000	-0.065	-0.350
-238.888	-200.000	-0.023	-0.201
-237.873	-8.810	-0.139	0.093
-236.859	-1.570	0.125	0.088
-235.844	-200.000	-0.050	-0.356
-234.830	237.189	0.111	-0.185
-233.815	800.000	-0.112	-0.437
-232.800	-91.452	-0.065	-0.019
-231.786	-200.000	0.031	0.297
-230.771	113.894	-0.141	-0.172
-229.757	-19.021	0.046	-0.029
-228.742	-1.089	-0.147	0.104
-227.727	25.769	-0.173	-0.145
-226.713	-37.062	-0.279	-0.150
-225.698	-200.000	0.022	-0.141
-224.684	445.148	-0.039	-0.087
-223.669	99.666	-0.156	-0.180
-222.655	127.822	0.235	-0.299
-221.640	-55.121	0.286	-0.129
-220.625	-200.000	0.001	-0.021
-219.611	-200.000	-0.024	0.108
-218.596	-200.000	0.024	0.133
-217.582	-101.874	-0.055	-0.013
-216.567	48.000	-0.223	-0.209
-215.552	162.382	-0.218	0.306
-214.538	800.000	0.038	-0.143
-213.523	3.761	-0.053	-0.038
-212.509	-26.450	-0.254	-0.149
-211.494	14.261	-0.139	-0.108
-210.479	105.331	0.013	-0.016
-209.465	361.449	-0.085	-0.170
-208.450	-200.000	-0.072	0.384
-207.436	88.625	-0.257	-0.286
-206.421	-99.476	0.260	0.066
-205.406	-15.834	0.297	0.190
-204.392	800.000	0.048	0.178
-203.377	48.093	0.090	-0.085
-202.363	-128.251	0.350	-0.050
-201.348	-31.246	0.362	-0.204
-200.333	-200.000	-0.013	-0.294
-199.319	-136.567	-0.040	-0.005
-198.304	-67.610	-0.178	-0.070
-197.290	-22.895	0.185	-0.112
-196.275	-37.297	0.167	0.089
-195.260	104.350	0.287	0.338
-194.246	-6.951	0.256	0.174
-193.231	173.605	-0.039	-0.056
-192.217	720.265	0.070	0.187
-191.202	-200.000	0.005	0.508
-190.187	291.183	-0.107	0.195
-189.173	11.130	0.386	0.295
-188.158	-35.785	0.096	0.052
-187.144	800.000	0.138	-0.436
-186.129	-37.013	0.083	0.045
-185.114	203.888	-0.077	0.119
-184.100	-36.116	-0.204	-0.110
-183.085	-108.609	0.268	0.057
-182.071	320.456	0.107	-0.203
-181.056	427.737	-0.101	-0.218
-180.042	-138.751	-0.210	-0.023
-179.027	-133.797	0.090	0.011
-178.012	-117.812	-0.097	-0.017
-176.998	-109.792	-0.117	-0.024
-175.983	-37.191	0.130	-0.070
-174.969	-200.000	0.025	0.497
-173.954	-2.645	0.181	0.127
-172.939	-76.195	0.271	0.095
-171.925	15.912	0.079	-0.062
-170.910	-97.416	-0.042	-0.011
-169.896	-33.690	-0.197	0.109
-168.881	800.000	-0.068	-0.205
-167.866	-85.438	0.234	-0.073
-166.852	-75.724	-0.097	-0.035
-165.837	-181.372	-0.204	-0.004
-164.823	-79.714	0.178	-0.060
-163.808	176.038	0.149	0.216
-162.793	-137.350	-0.130	-0.015
-161.779	516.054	0.164	-0.384
-160.764	-65.200	-0.219	-0.088
-159.750	173.640	-0.198	-0.286
-158.735	-200.000	-0.008	-0.147
-157.720	80.426	-0.062	-0.066
-156.706	-125.166	0.054	-0.008
-155.691	112.708	0.105	-0.128
-154.677	-92.432	-0.286	-0.080
-153.662	-200.000	-0.025	0.284
-152.647	-19.084	-0.204	-0.127
-151.633	-101.965	0.216	-0.052
-150.618	-200.000	0.025	0.138
-149.604	117.996	0.050	0.062
-148.589	142.186	0.132	-0.175
-147.574	-49.948	-0.355	-0.168
-146.560	19.969	-0.261	0.210
-145.545	-200.000	-0.051	0.291
-144.531	-200.000	-0.004	0.137
-143.516	-109.003	-0.250	0.053
-142.502	79.486	0.235	-0.251
-141.487	416.393	-0.050	0.107
-140.472	800.000	0.082	0.334
-139.458	359.326	0.132	0.264
-138.443	-130.123	-0.187	-0.026
-137.429	55.013	-0.114	0.110
-136.414	35.003	0.082	0.072
-135.399	63.744	0.178	0.179
-134.385	584.683	-0.046	0.114
-133.370	172.030	0.207	-0.297
-132.356	0.501	-0.173	-0.123
-131.341	-200.000	-0.026	-0.151
-130.326	-94.153	0.248	0.068
-129.312	-43.663	-0.248	0.125
-128.297	-60.288	-0.039	0.016
-127.283	800.000	-0.097	0.396
-126.268	-16.586	-0.211	0.134
-125.253	-183.084	-0.092	0.002
-124.239	80.898	0.084	0.090
-123.224	135.237	0.152	0.198
-122.210	38.224	-0.030	0.027
