DTS Sentinel unit serial number:	SN413079Multiplexer serial number:	ORYXHardware model number:	OX4-SRSoftware version number:	ORYX F/W v4.00 Oryx Data Collector v3.7.2.0data status	okinstallation	princeton_trtdifferential loss correction	single-endedforward channel	channel 4reverse channel	N/Adate	2019/09/16time	13:49:35forward acquisition time	60.00reverse acquisition time	0.00gamma	496.2192k internal	0.2285k external	0.2285temperature offset calibration	0.9934default loss term (dB/km)	0.3790temperature slope calibration	1.0000multiplexer offset coefficient	1.0000multiplexer slope coefficient	1.0000fibre end	0.00T internal ref (°C)	42.31T ext. ref 1 (°C)	13.94T ext. ref 2 (°C)	38.37length (m)	temperature (°C)	Stokes	anti-Stokes-747.200	-134.248	-0.161	-0.020
-746.185	-200.000	-0.034	0.260
-745.171	-112.830	-0.276	-0.056
-744.156	61.543	-0.159	0.162
-743.142	14.553	0.183	0.146
-742.127	648.114	-0.114	0.298
-741.112	-167.820	0.297	0.012
-740.098	754.268	-0.042	0.116
-739.083	85.927	0.163	-0.184
-738.069	-87.619	-0.113	-0.035
-737.054	86.066	-0.189	0.213
-736.039	328.805	-0.198	0.390
-735.025	-104.451	0.228	-0.054
-734.010	-75.939	-0.236	-0.086
-732.996	335.448	0.231	-0.459
-731.981	-98.463	0.155	0.041
-730.966	194.084	0.022	0.033
-729.952	-200.000	-0.041	-0.480
-728.937	118.975	-0.139	0.177
-727.923	80.113	-0.142	0.156
-726.908	134.555	-0.058	-0.077
-725.894	400.729	0.096	-0.207
-724.879	-108.698	-0.223	-0.049
-723.864	-127.039	0.094	-0.014
-722.850	-153.207	-0.318	-0.023
-721.835	-71.671	-0.399	0.153
-720.821	558.244	0.079	-0.196
-719.806	-54.174	0.149	-0.069
-718.791	-200.000	0.001	-0.143
-717.777	-72.578	-0.196	0.074
-716.762	-51.818	-0.282	-0.135
-715.748	-29.654	0.236	-0.138
-714.733	-200.000	-0.191	-0.000
-713.718	-173.361	-0.166	-0.005
-712.704	-121.388	0.303	0.052
-711.689	-2.423	0.049	0.035
-710.675	75.718	-0.063	-0.068
-709.660	20.625	0.144	-0.120
-708.645	-200.000	0.008	0.157
-707.631	559.246	-0.108	0.267
-706.616	54.784	-0.216	-0.213
-705.602	-43.627	0.148	-0.076
-704.587	-67.466	0.219	-0.088
-703.572	360.643	-0.139	-0.285
-702.558	93.157	-0.121	-0.140
-701.543	800.000	-0.042	0.136
-700.529	19.838	-0.144	0.119
-699.514	13.214	-0.166	0.132
-698.499	15.299	0.281	-0.226
-697.485	54.664	-0.244	-0.241
-696.470	-200.000	-0.048	-0.250
-695.456	-200.000	0.020	-0.101
-694.441	-194.882	0.300	0.002
-693.426	-86.729	-0.225	-0.071
-692.412	-200.000	-0.016	0.084
-691.397	-22.909	-0.199	0.123
-690.383	800.000	-0.122	-0.345
-689.368	-47.205	0.402	0.201
-688.354	23.546	0.353	-0.298
-687.339	112.486	0.125	-0.155
-686.324	0.633	-0.156	0.114
-685.310	431.562	-0.172	0.382
-684.295	-125.085	-0.097	-0.015
-683.281	30.468	0.104	-0.091
-682.266	800.000	-0.080	-0.237
-681.251	25.906	0.215	0.183
-680.237	-200.000	-0.015	0.230
-679.222	-200.000	0.001	-0.413
-678.208	-174.569	-0.284	0.008
-677.193	-200.000	-0.043	0.466
-676.178	-138.065	0.264	0.030
-675.164	-52.223	-0.309	-0.147
-674.149	-169.043	-0.147	-0.006
-673.135	-120.896	-0.119	0.020
-672.120	161.485	0.193	0.276
-671.105	-155.473	-0.092	0.006
-670.091	366.002	0.174	-0.360
-669.076	-152.856	-0.155	-0.011
-668.062	183.412	-0.129	0.195
-667.047	116.174	-0.183	-0.230
-666.032	-88.475	0.299	0.091
-665.018	24.608	-0.224	0.190
-664.003	202.107	-0.155	0.244
-662.989	-52.525	0.351	0.166
-661.974	-196.162	-0.189	0.001
-660.959	153.954	0.301	-0.422
-659.945	-20.781	-0.087	-0.054
-658.930	235.939	-0.147	0.249
-657.916	-200.000	-0.069	0.394
-656.901	-3.262	0.187	0.133
-655.886	-51.800	0.290	0.138
-654.872	58.289	0.102	0.103
-653.857	218.680	-0.052	0.085
-652.843	62.798	-0.195	-0.199
-651.828	-164.121	-0.075	0.004
-650.814	-200.000	-0.077	0.372
-649.799	76.886	-0.178	-0.193
-648.784	-113.014	0.378	-0.076
-647.770	-70.434	0.273	-0.106
-646.755	800.000	0.054	-0.166
-645.741	800.000	-0.070	-0.259
-644.726	205.500	0.076	-0.120
-643.711	-141.431	0.223	-0.023
-642.697	800.000	-0.042	-0.156
-641.682	-86.474	-0.371	0.117
-640.668	-128.680	0.090	0.013
-639.653	800.000	0.099	-0.285
-638.638	-200.000	0.011	0.109
-637.624	558.360	-0.031	-0.077
-636.609	58.759	0.071	0.071
-635.595	-86.418	0.050	0.016
-634.580	-29.274	0.386	0.226
-633.565	-200.000	0.010	0.163
-632.551	275.823	-0.065	-0.117
-631.536	-49.910	0.167	-0.081
-630.522	-98.721	-0.052	-0.013
-629.507	-138.704	-0.386	0.043
-628.492	-200.000	0.018	-0.297
-627.478	800.000	0.050	0.170
-626.463	565.262	-0.102	-0.253
-625.449	510.491	0.080	-0.190
-624.434	397.808	0.081	-0.173
-623.419	-121.117	0.196	-0.034
-622.405	-51.221	-0.072	0.035
-621.390	-200.000	0.029	-0.230
-620.376	-7.805	-0.107	-0.074
-619.361	-71.935	-0.283	-0.108
-618.346	-101.887	0.149	-0.037
-617.332	-200.000	0.005	-0.153
-616.317	-86.020	-0.103	0.033
-615.303	64.337	0.265	0.273
-614.288	213.453	-0.133	-0.215
-613.273	800.000	-0.021	-0.084
-612.259	-16.582	0.212	0.137
-611.244	85.403	0.091	-0.102
-610.230	489.281	0.094	0.219
-609.215	280.220	0.025	-0.045
-608.201	10.744	0.027	0.021
-607.186	800.000	0.075	0.271
-606.171	-169.737	0.093	0.003
-605.157	-200.000	-0.022	-0.203
-604.142	43.439	0.233	0.217
-603.128	147.490	-0.154	0.212
-602.113	-53.893	-0.099	-0.046
-601.098	-139.187	0.323	0.036
-600.084	-4.729	-0.409	0.288
-599.069	-18.569	-0.179	-0.114
-598.055	-131.424	0.147	0.020
-597.040	-200.000	0.054	-0.532
-596.025	800.000	-0.098	0.318
-595.011	115.776	0.094	-0.118
-593.996	-71.685	0.324	0.123
-592.982	-9.962	-0.258	0.175
-591.967	-111.601	0.464	-0.096
-590.952	-14.356	-0.216	0.142
-589.938	-167.870	0.189	0.008
-588.923	-46.714	0.079	0.039
-587.909	251.104	0.042	-0.073
-586.894	-78.869	0.175	0.061
-585.879	800.000	0.007	-0.023
-584.865	-200.000	-0.024	-0.108
-583.850	-57.184	-0.257	0.115
-582.836	4.370	0.207	0.155
-581.821	-90.820	-0.205	0.060
-580.806	-149.778	-0.311	0.025
-579.792	800.000	0.063	0.198
-578.777	-101.436	-0.237	-0.059
-577.763	-82.501	-0.299	0.099
-576.748	-129.688	-0.249	0.035
-575.733	-120.817	0.262	0.045
-574.719	-158.354	-0.045	-0.003
-573.704	-128.564	-0.084	-0.012
-572.690	194.127	-0.146	0.226
-571.675	-200.000	0.033	0.179
-570.661	170.842	-0.182	-0.266
-569.646	278.657	-0.075	0.136
-568.631	116.389	-0.115	-0.144
-567.617	-10.341	0.157	0.106
-566.602	-51.902	-0.045	-0.021
-565.588	-157.004	0.278	0.017
-564.573	324.459	-0.018	-0.034
-563.558	126.011	-0.307	0.396
-562.544	-3.996	-0.070	0.049
-561.529	-190.495	-0.431	0.005
-560.515	130.723	-0.196	0.256
-559.500	800.000	-0.069	0.308
-558.485	800.000	0.018	-0.069
-557.471	-120.335	0.189	-0.033
-556.456	46.640	0.117	-0.111
-555.442	13.236	0.068	-0.054
-554.427	-131.887	0.089	-0.012
-553.412	89.255	-0.047	0.053
-552.398	50.443	-0.299	-0.288
-551.383	-43.136	0.391	-0.202
-550.369	800.000	0.043	-0.182
-549.354	-61.284	-0.228	0.098
-548.339	800.000	0.029	0.107
-547.325	-82.819	-0.256	-0.084
-546.310	503.970	0.167	0.394
-545.296	-44.835	0.207	0.105
-544.281	-71.534	0.280	0.107
-543.266	-159.685	-0.321	-0.018
-542.252	191.737	0.052	-0.080
-541.237	477.547	0.014	0.032
-540.223	-200.000	0.013	0.140
-539.208	800.000	0.090	0.277
-538.193	-200.000	-0.010	0.068
-537.179	-102.757	-0.128	0.031
-536.164	754.333	-0.038	-0.105
-535.150	17.274	0.195	-0.158
-534.135	-180.973	0.094	-0.002
-533.121	-200.000	-0.049	0.223
-532.106	-200.000	-0.003	0.082
-531.091	-29.659	0.223	0.129
-530.077	-52.430	-0.168	0.079
-529.062	-74.610	0.156	0.057
-528.048	-63.905	-0.218	-0.091
-527.033	800.000	-0.078	-0.240
-526.018	-125.995	-0.095	0.015
-525.004	-21.019	0.096	-0.060
-523.989	-200.000	-0.035	-0.204
-522.975	-99.589	0.083	-0.021
-521.960	-49.913	0.151	-0.073
-520.945	79.104	0.074	-0.081
-519.931	-117.878	-0.188	-0.034
-518.916	-11.599	-0.240	-0.160
-517.902	644.385	-0.025	-0.066
-516.887	-1.207	0.238	-0.171
-515.872	-108.829	-0.308	-0.067
-514.858	-178.844	0.186	0.004
-513.843	-134.752	-0.161	-0.020
-512.829	44.774	0.216	-0.202
-511.814	-92.388	-0.233	-0.067
-510.799	-200.000	0.013	-0.270
-509.785	-153.277	-0.190	-0.013
-508.770	-200.000	0.006	0.132
-507.756	-116.231	0.139	0.026
-506.741	72.001	0.068	-0.072
-505.726	579.246	-0.082	0.203
-504.712	-200.000	-0.021	-0.152
-503.697	-34.331	0.110	-0.062
-502.683	100.836	-0.185	-0.219
-501.668	800.000	0.066	0.264
-500.653	-200.000	0.002	0.103
-499.639	-93.314	-0.259	-0.073
-498.624	373.253	0.175	0.362
-497.610	261.790	0.167	-0.294
-496.595	-171.608	0.168	0.006
-495.581	-200.000	0.005	0.077
-494.566	-140.426	-0.259	-0.027
-493.551	-182.303	-0.181	0.003
-492.537	-68.947	-0.067	0.026
-491.522	-33.201	0.300	0.169
-490.508	-15.548	-0.159	0.103
-489.493	149.123	0.189	0.259
-488.478	-28.480	0.111	0.065
-487.464	-200.000	0.052	0.535
-486.449	205.255	0.106	-0.167
-485.435	42.088	0.089	-0.082
-484.420	-200.000	-0.018	0.383
-483.405	24.989	-0.132	-0.111
-482.391	-200.000	0.016	-0.116
-481.376	-200.000	-0.020	-0.227
-480.362	-91.399	-0.166	-0.048
-479.347	-1.032	0.155	-0.112
-478.332	-134.508	0.322	-0.040
-477.318	-107.291	0.100	-0.022
-476.303	800.000	-0.075	0.279
-475.289	298.984	0.172	0.322
-474.274	51.806	0.142	0.137
-473.259	-200.000	0.014	0.067
-472.245	-78.581	0.103	0.036
-471.230	800.000	-0.135	-0.400
-470.216	125.335	0.178	0.228
-469.201	-200.000	-0.036	0.218
-468.186	-88.429	0.099	-0.030
-467.172	800.000	0.082	0.242
-466.157	-200.000	-0.064	0.311
-465.143	138.914	-0.292	0.389
-464.128	-200.000	0.013	-0.294
-463.113	-168.704	-0.046	0.002
-462.099	710.062	-0.071	-0.191
-461.084	-200.000	0.020	-0.090
-460.070	-169.842	0.113	-0.004
-459.055	6.401	-0.172	0.130
-458.040	-168.095	-0.266	-0.011
-457.026	85.723	0.251	0.280
-456.011	-109.321	0.230	-0.049
-454.997	800.000	0.070	0.244
-453.982	-200.000	0.039	0.254
-452.968	13.703	-0.234	-0.184
-451.953	324.013	-0.093	-0.181
-450.938	-133.047	-0.068	-0.009
-449.924	-123.348	-0.130	0.021
-448.909	-142.619	0.351	0.035
-447.895	274.124	-0.155	-0.278
-446.880	-170.187	0.144	-0.005
-445.865	-144.385	0.308	0.029
-444.851	800.000	0.214	-0.634
-443.836	-39.271	-0.192	0.102
-442.822	-17.266	-0.303	0.194
-441.807	-96.997	0.416	0.111
-440.792	146.727	-0.203	-0.277
-439.778	125.423	-0.205	-0.262
-438.763	-48.325	0.015	0.008
-437.749	-170.851	0.081	-0.003
-436.734	75.515	0.122	-0.131
-435.719	-145.793	-0.157	-0.014
-434.705	172.441	0.092	-0.134
-433.690	144.585	-0.167	-0.227
-432.676	-58.654	-0.435	-0.191
-431.661	-109.413	-0.291	-0.063
-430.646	-48.604	0.341	0.166
-429.632	140.017	-0.287	0.384
-428.617	-200.000	-0.047	0.260
-427.603	392.072	-0.075	-0.159
-426.588	-114.064	-0.317	-0.062
-425.573	-112.869	0.350	0.070
-424.559	-95.010	-0.260	-0.071
-423.544	-200.000	-0.064	-0.299
-422.530	-90.282	0.119	-0.035
-421.515	-33.938	0.153	-0.085
-420.500	-200.000	-0.007	0.358
-419.486	-116.670	0.282	0.052
-418.471	800.000	0.061	0.205
-417.457	-128.536	-0.377	-0.054
-416.442	-125.218	0.021	-0.003
-415.428	-200.000	0.054	-0.250
-414.413	-18.978	0.080	-0.051
-413.398	144.519	-0.136	0.184
-412.384	98.671	-0.162	0.189
-411.369	-30.736	-0.250	0.144
-410.355	-93.277	-0.293	-0.082
-409.340	-121.915	-0.474	-0.079
-408.325	-200.000	-0.034	0.242
-407.311	-127.268	0.081	-0.012
-406.296	-200.000	-0.035	-0.323
-405.282	-47.130	0.073	0.036
-404.267	394.887	0.105	-0.221
-403.252	66.520	0.045	0.047
-402.238	88.297	-0.065	-0.073
-401.223	184.972	0.032	-0.047
-400.209	-200.000	-0.025	0.139
-399.194	-200.000	0.010	0.054
-398.179	0.123	-0.053	0.038
-397.165	136.869	0.161	0.214
-396.150	496.368	0.022	-0.052
-395.136	-126.868	0.276	-0.041
-394.121	139.808	0.116	0.155
-393.106	340.923	-0.122	-0.242
-392.092	46.427	-0.092	-0.086
-391.077	800.000	-0.012	-0.035
-390.063	416.753	0.122	-0.264
-389.048	577.798	-0.111	0.274
-388.033	275.001	-0.061	-0.109
-387.019	-200.000	-0.047	0.358
-386.004	-200.000	-0.006	0.224
-384.990	380.691	0.118	0.246
-383.975	-64.576	-0.053	-0.022
-382.960	569.246	0.083	-0.205
-381.946	189.526	0.092	0.140
-380.931	-82.178	-0.422	0.139
-379.917	-200.000	0.029	0.218
-378.902	-117.995	0.111	0.020
-377.888	173.359	-0.225	0.328
-376.873	-75.406	-0.340	-0.123
-375.858	-68.169	0.422	0.166
-374.844	64.259	0.071	-0.072
-373.829	-93.822	-0.104	0.029
-372.815	-123.650	0.128	-0.021
-371.800	119.129	0.227	-0.284
-370.785	57.004	-0.132	-0.130
-369.771	213.683	-0.168	-0.268
-368.756	109.338	0.133	0.161
-367.742	2.133	-0.015	0.011
-366.727	426.485	-0.212	0.462
-365.712	800.000	0.026	0.097
-364.698	469.624	0.113	-0.256
-363.683	8.345	0.052	-0.039
-362.669	800.000	-0.016	-0.072
-361.654	800.000	-0.126	-0.540
-360.639	-111.154	0.147	0.031
-359.625	800.000	0.033	0.105
-358.610	-101.479	0.330	-0.081
-357.596	-159.093	0.295	-0.017
-356.581	540.601	0.047	-0.112
-355.566	65.993	-0.077	-0.079
-354.552	-63.456	0.334	-0.139
-353.537	-200.000	-0.013	0.063
-352.523	575.365	0.047	-0.115
-351.508	-125.284	-0.078	0.012
-350.493	590.434	0.104	-0.258
-349.479	31.284	0.035	0.031
-348.464	-200.000	0.010	-0.059
-347.450	-89.039	0.262	0.078
-346.435	-200.000	0.026	-0.163
-345.420	9.760	0.322	-0.247
-344.406	800.000	0.167	-0.593
-343.391	-200.000	-0.016	0.143
-342.377	-200.000	-0.011	-0.092
-341.362	-200.000	0.000	0.394
-340.348	45.476	-0.296	0.276
-339.333	-155.775	0.450	0.029
-338.318	-95.897	-0.272	-0.073
-337.304	109.709	0.041	0.050
-336.289	82.905	-0.133	-0.146
-335.275	71.167	-0.222	0.232
-334.260	548.020	-0.083	-0.201
-333.245	15.385	0.133	-0.106
-332.231	-67.910	0.175	0.069
-331.216	-200.000	-0.010	0.335
-330.202	-186.888	-0.147	-0.002
-329.187	-26.024	-0.058	-0.034
-328.172	65.178	-0.062	-0.063
-327.158	-200.000	-0.031	0.144
-326.143	-95.079	0.180	-0.049
-325.129	-200.000	0.009	-0.084
-324.114	-53.156	-0.668	0.310
-323.099	-164.730	0.120	-0.005
-322.085	359.109	-0.124	-0.251
-321.070	67.155	0.069	0.071
-320.056	-176.298	-0.298	-0.008
-319.041	6.072	-0.260	-0.195
-318.026	-155.841	-0.276	0.018
-317.012	74.548	0.294	0.312
-315.997	603.797	0.074	-0.186
-314.983	218.087	-0.130	0.210
-313.968	58.774	0.108	0.107
-312.953	260.165	0.259	-0.452
-311.939	178.053	-0.044	0.065
-310.924	-122.425	0.107	-0.018
-309.910	-86.973	-0.547	-0.168
-308.895	-200.000	0.047	0.211
-307.880	-200.000	-0.002	0.484
-306.866	31.353	-0.124	0.108
-305.851	-150.780	-0.470	0.036
-304.837	-200.000	0.044	0.263
-303.822	50.963	0.245	0.234
-302.807	598.225	-0.043	0.108
-301.793	-200.000	-0.015	-0.485
-300.778	-178.135	0.186	-0.004
-299.764	-135.480	0.112	-0.013
-298.749	13.744	0.197	-0.155
-297.735	273.514	-0.118	-0.210
-296.720	6.571	0.095	0.071
-295.705	-200.000	-0.087	0.417
-294.691	299.676	-0.097	-0.180
-293.676	73.998	-0.114	0.121
-292.662	288.898	0.098	-0.179
-291.647	800.000	-0.105	-0.317
-290.632	141.020	-0.106	0.141
-289.618	-169.790	0.285	-0.010
-288.603	-182.198	0.117	-0.002
-287.589	-15.429	0.255	-0.164
-286.574	-47.377	-0.371	-0.182
-285.559	262.904	-0.073	-0.127
-284.545	800.000	-0.051	-0.167
-283.530	619.217	0.180	-0.457
-282.516	-200.000	0.016	-0.317
-281.501	117.354	0.083	-0.103
-280.486	-40.823	-0.328	-0.171
-279.472	-68.753	-0.211	-0.082
-278.457	-54.740	0.089	-0.041
-277.443	-74.642	-0.150	0.054
-276.428	315.641	-0.142	-0.270
-275.413	-200.000	-0.000	0.016
-274.399	-200.000	0.011	-0.156
-273.384	-108.808	-0.099	0.021
-272.370	-200.000	-0.034	0.211
-271.355	256.143	-0.161	0.279
-270.340	-8.007	0.082	0.055
-269.326	-126.995	-0.010	0.001
-268.311	-200.000	0.025	-0.141
-267.297	-200.000	0.029	0.253
-266.282	-200.000	-0.049	-0.257
-265.267	-200.000	-0.047	0.307
-264.253	104.338	0.109	-0.129
-263.238	-143.416	-0.248	0.024
-262.224	505.969	0.120	0.281
-261.209	222.003	-0.046	-0.074
-260.195	727.308	0.182	-0.490
-259.180	-28.011	0.123	-0.072
-258.165	-200.000	-0.020	0.097
-257.151	-60.340	0.304	0.130
-256.136	-132.442	0.445	0.058
-255.122	136.589	-0.152	0.199
-254.107	7.885	0.145	-0.109
-253.092	58.812	-0.119	-0.118
-252.078	158.571	0.002	-0.003
-251.063	-87.359	0.516	0.158
-250.049	743.676	0.066	0.178
-249.034	-200.000	-0.009	0.230
-248.019	-62.635	-0.107	0.045
-247.005	493.858	0.064	-0.147
-245.990	-162.844	0.211	0.010
-244.976	-56.275	0.276	-0.124
-243.961	179.768	-0.056	-0.083
-242.946	-144.503	0.159	0.015
-241.932	-123.054	-0.155	-0.025
-240.917	800.000	0.056	0.208
-239.903	-112.647	-0.167	-0.033
-238.888	-52.764	0.243	0.113
-237.873	-1.769	0.191	-0.135
-236.859	47.728	0.215	0.202
-235.844	-51.901	0.059	0.028
-234.830	438.936	-0.092	0.202
-233.815	-27.231	-0.324	-0.190
-232.800	-200.000	0.025	0.129
-231.786	-50.457	0.158	-0.075
-230.771	800.000	-0.061	-0.224
-229.757	800.000	-0.114	0.379
-228.742	-200.000	-0.004	0.207
-227.727	-200.000	0.002	0.130
-226.713	29.061	0.098	0.084
-225.698	58.593	0.053	0.052
-224.684	-59.171	0.171	0.074
-223.669	-90.223	-0.103	0.030
-222.655	381.844	-0.135	-0.280
-221.640	-92.945	0.147	0.041
-220.625	176.196	-0.198	-0.289
-219.611	-99.571	0.188	0.048
-218.596	-83.523	0.085	0.027
-217.582	-20.651	-0.207	0.128
-216.567	-137.841	-0.098	0.011
-215.552	94.816	-0.205	0.235
-214.538	571.654	-0.059	0.144
-213.523	-144.204	0.334	-0.031
-212.509	-200.000	0.007	0.144
-211.494	-58.197	-0.309	-0.135
-210.479	221.922	0.115	-0.186
-209.465	74.467	-0.365	-0.386
-208.450	66.270	-0.167	-0.171
-207.436	31.305	0.201	0.173
-206.421	-157.501	0.236	-0.014
-205.406	-37.530	-0.202	0.108
-204.392	-85.114	-0.269	0.085
-203.377	-161.245	0.281	-0.015
-202.363	114.983	-0.107	0.132
-201.348	-88.085	0.265	-0.080
-200.333	800.000	-0.123	-0.447
-199.319	-117.348	-0.197	-0.036
-198.304	-200.000	-0.000	0.234
-197.290	800.000	-0.063	-0.191
-196.275	-200.000	0.022	0.189
-195.260	-63.655	-0.124	0.051
-194.246	-60.595	-0.187	0.080
-193.231	36.716	-0.222	-0.198
-192.217	-200.000	-0.020	0.111
-191.202	89.089	0.067	0.075
-190.187	78.599	-0.152	-0.163
-189.173	800.000	-0.043	-0.126
-188.158	-159.158	0.293	0.017
-187.144	45.017	-0.346	0.321
-186.129	-22.626	0.296	-0.180
-185.114	15.313	0.146	0.115
-184.100	-34.174	-0.270	-0.149
-183.085	-89.273	0.321	-0.095
-182.071	46.998	-0.266	-0.248
-181.056	-132.555	-0.353	0.045
-180.042	27.458	0.181	0.153
-179.027	-101.442	0.114	-0.028
-178.012	-69.012	-0.123	0.048
-176.998	185.309	0.129	0.192
-175.983	-84.683	-0.037	0.012
-174.969	503.221	0.124	0.288
-173.954	-200.000	0.014	-0.194
-172.939	59.089	0.117	-0.115
-171.925	227.914	-0.178	0.291
-170.910	104.647	0.209	-0.247
-169.896	-138.345	-0.175	-0.019
-168.881	-6.415	0.244	-0.167
-167.866	-200.000	0.010	-0.087
-166.852	-200.000	-0.018	0.125
-165.837	-127.006	0.312	0.046
-164.823	52.212	-0.091	0.087
-163.808	-48.979	0.118	0.057
-162.793	141.683	0.217	0.289
-161.779	194.024	0.074	-0.112
-160.764	-160.300	0.112	0.006
-159.750	-67.042	-0.163	-0.065
-158.735	-200.000	-0.018	0.132
-157.720	157.372	-0.228	-0.317
-156.706	283.304	-0.107	-0.192
-155.691	9.244	0.056	-0.043
-154.677	133.825	-0.052	0.067
-153.662	30.254	-0.274	-0.235
-152.647	800.000	-0.042	0.179
-151.633	-88.368	0.407	0.122
-150.618	-200.000	0.028	0.146
-149.604	22.684	-0.047	-0.039
-148.589	190.611	-0.235	-0.354
-147.574	-84.551	0.179	-0.057
-146.560	599.615	-0.108	-0.269
-145.545	-48.938	0.243	0.117
-144.531	-39.986	-0.257	0.135
-143.516	31.921	-0.358	0.310
-142.502	231.827	0.205	0.337
-141.487	-200.000	-0.091	0.402
-140.472	-200.000	-0.021	-0.155
-139.458	-80.525	-0.146	-0.049
-138.443	-18.629	0.444	-0.278
-137.429	-110.277	0.256	0.053
-136.414	-96.167	0.198	-0.053
-135.399	-164.140	-0.294	-0.014
-134.385	-59.379	0.422	-0.182
-133.370	159.592	0.287	0.400
-132.356	-135.899	0.198	-0.023
-131.341	-8.264	-0.256	-0.172
-130.326	-200.000	0.041	0.337
-129.312	289.728	0.215	0.391
-128.297	-54.929	0.318	-0.144
-127.283	-54.714	-0.247	0.112
-126.268	-200.000	-0.003	-0.016
-125.253	-200.000	0.010	0.203
-124.239	77.297	0.173	0.184
-123.224	-104.202	0.272	0.063
-122.210	-200.000	-0.014	0.340
