DTS Sentinel unit serial number:	SN413079Multiplexer serial number:	ORYXHardware model number:	OX4-SRSoftware version number:	ORYX F/W v4.00 Oryx Data Collector v3.7.2.0data status	okinstallation	princeton_trtdifferential loss correction	single-endedforward channel	channel 4reverse channel	N/Adate	2019/09/13time	21:01:35forward acquisition time	60.00reverse acquisition time	0.00gamma	496.2192k internal	0.2319k external	0.2319temperature offset calibration	1.0122default loss term (dB/km)	0.3790temperature slope calibration	1.0000multiplexer offset coefficient	1.0000multiplexer slope coefficient	1.0000fibre end	0.00T internal ref (°C)	28.62T ext. ref 1 (°C)	3.02T ext. ref 2 (°C)	23.36length (m)	temperature (°C)	Stokes	anti-Stokes-747.200	423.962	-0.015	-0.033
-746.185	-120.049	-0.324	0.056
-745.171	-22.295	0.091	-0.056
-744.156	-200.000	-0.007	0.340
-743.142	-200.000	-0.013	-0.071
-742.127	-13.064	-0.155	0.102
-741.112	-52.291	-0.169	0.079
-740.098	-69.714	-0.124	0.048
-739.083	47.923	0.018	-0.017
-738.069	-68.482	-0.184	0.072
-737.054	-200.000	0.028	0.341
-736.039	-42.653	-0.397	-0.204
-735.025	-101.162	-0.263	0.065
-734.010	-41.239	-0.234	-0.122
-732.996	78.815	-0.091	-0.099
-731.981	407.495	-0.120	0.256
-730.966	232.705	-0.115	-0.191
-729.952	513.601	0.102	0.240
-728.937	-45.535	-0.452	-0.226
-727.923	-186.712	-0.450	0.006
-726.908	-200.000	0.024	-0.336
-725.894	-40.377	-0.248	0.130
-724.879	-200.000	0.083	0.367
-723.864	32.960	0.057	0.050
-722.850	52.979	-0.039	-0.038
-721.835	231.434	0.127	0.211
-720.821	49.907	0.103	-0.098
-719.806	112.777	-0.204	-0.250
-718.791	252.536	-0.143	-0.246
-717.777	-33.195	-0.416	-0.233
-716.762	-44.139	0.277	0.140
-715.748	-61.997	0.102	0.043
-714.733	-101.127	-0.386	0.095
-713.718	-200.000	0.012	0.197
-712.704	-200.000	0.061	-0.397
-711.689	-160.262	0.228	-0.012
-710.675	800.000	-0.056	-0.205
-709.660	-27.641	0.358	-0.210
-708.645	-22.902	-0.368	-0.224
-707.631	-111.951	-0.208	0.042
-706.616	647.850	-0.219	-0.566
-705.602	-54.945	0.307	0.140
-704.587	15.967	-0.153	0.121
-703.572	593.060	-0.206	-0.513
-702.558	75.223	0.118	-0.125
-701.543	135.770	0.142	0.186
-700.529	24.893	0.187	0.157
-699.514	800.000	0.056	-0.217
-698.499	-84.616	-0.371	-0.118
-697.485	5.458	-0.255	-0.190
-696.470	15.769	-0.131	-0.104
-695.456	705.206	0.119	-0.317
-694.441	-86.062	-0.245	-0.077
-693.426	-78.960	-0.228	0.078
-692.412	375.379	0.085	0.174
-691.397	-109.020	0.141	0.030
-690.383	-200.000	0.033	-0.522
-689.368	-200.000	0.017	-0.329
-688.354	-200.000	-0.014	0.090
-687.339	-116.366	-0.149	0.028
-686.324	-200.000	0.017	-0.096
-685.310	31.479	0.275	-0.239
-684.295	246.664	0.170	-0.289
-683.281	0.953	-0.208	0.151
-682.266	-200.000	-0.027	0.267
-681.251	-20.239	-0.168	0.104
-680.237	800.000	-0.120	0.412
-679.222	531.350	0.149	0.355
-678.208	800.000	-0.095	0.273
-677.193	-71.877	-0.263	-0.099
-676.178	-70.300	0.235	0.090
-675.164	-97.070	0.355	-0.094
-674.149	531.714	-0.150	-0.357
-673.135	800.000	0.065	-0.251
-672.120	-200.000	-0.026	-0.303
-671.105	204.995	0.150	-0.235
-670.091	-90.053	-0.383	-0.113
-669.076	-112.681	-0.339	-0.068
-668.062	81.451	0.098	-0.106
-667.047	-103.371	0.278	-0.066
-666.032	-69.343	0.114	-0.044
-665.018	-83.198	-0.016	0.005
-664.003	48.874	0.150	0.142
-662.989	-200.000	0.007	0.173
-661.974	-200.000	0.021	-0.242
-660.959	-98.998	0.128	-0.033
-659.945	800.000	-0.063	0.218
-658.930	800.000	-0.068	-0.207
-657.916	-125.374	-0.266	0.041
-656.901	-47.975	0.282	-0.138
-655.886	-116.958	-0.411	0.076
-654.872	-95.785	-0.161	-0.043
-653.857	-195.528	-0.142	0.001
-652.843	-44.438	-0.158	-0.080
-651.828	1.639	-0.232	0.168
-650.814	-105.195	-0.160	0.037
-649.799	-200.000	-0.008	0.453
-648.784	-76.325	-0.301	0.107
-647.770	800.000	0.017	0.053
-646.755	-137.311	0.280	-0.032
-645.741	256.675	-0.189	-0.326
-644.726	800.000	0.095	-0.294
-643.711	120.945	-0.075	-0.094
-642.697	20.675	-0.207	0.169
-641.682	170.086	-0.078	-0.112
-640.668	-17.329	-0.366	-0.232
-639.653	31.145	-0.090	0.078
-638.638	-65.974	-0.113	0.046
-637.624	73.700	-0.151	0.159
-636.609	-172.221	-0.161	0.005
-635.595	105.985	0.051	-0.060
-634.580	83.301	-0.164	0.179
-633.565	-47.755	0.103	0.050
-632.551	153.234	0.119	0.165
-631.536	54.014	-0.209	-0.202
-630.522	82.677	0.174	0.190
-629.507	-200.000	0.045	0.341
-628.492	120.248	0.070	-0.087
-627.478	-169.624	-0.182	-0.007
-626.463	-136.876	-0.245	0.028
-625.449	47.261	-0.030	-0.028
-624.434	119.097	-0.223	-0.278
-623.419	800.000	-0.046	0.154
-622.405	-107.737	0.157	0.034
-621.390	175.146	0.050	0.073
-620.376	60.920	-0.158	-0.158
-619.361	-200.000	-0.008	-0.240
-618.346	-10.263	-0.306	0.204
-617.332	96.007	-0.033	0.038
-616.317	-200.000	-0.006	0.263
-615.303	33.609	0.201	-0.176
-614.288	-200.000	-0.020	-0.196
-613.273	178.615	0.068	0.100
-612.259	129.177	0.174	-0.223
-611.244	286.921	-0.072	-0.131
-610.230	30.930	-0.199	0.172
-609.215	-200.000	-0.005	0.273
-608.201	-164.984	-0.264	-0.012
-607.186	-200.000	0.044	-0.273
-606.171	-200.000	0.021	-0.111
-605.157	25.448	0.098	0.082
-604.142	4.940	0.225	0.166
-603.128	31.814	0.223	-0.193
-602.113	289.001	-0.030	0.054
-601.098	222.836	-0.132	0.214
-600.084	64.580	0.148	-0.151
-599.069	-37.891	0.061	0.033
-598.055	387.891	0.149	0.310
-597.040	-200.000	0.037	-0.219
-596.025	604.140	0.097	-0.243
-595.011	800.000	0.040	0.141
-593.996	-84.809	0.147	-0.046
-592.982	800.000	0.145	-0.423
-591.967	-200.000	0.008	0.142
-590.952	233.872	0.161	-0.266
-589.938	150.527	-0.019	-0.026
-588.923	-126.226	-0.050	-0.008
-587.909	-61.410	0.243	0.103
-586.894	-126.259	-0.086	0.013
-585.879	-122.586	0.293	-0.048
-584.865	-82.181	-0.156	-0.051
-583.850	-59.607	-0.032	0.014
-582.836	48.912	0.243	0.229
-581.821	-35.510	-0.211	-0.115
-580.806	539.240	0.096	0.230
-579.792	-99.298	0.149	0.038
-578.777	247.168	0.210	-0.357
-577.763	-200.000	-0.001	0.102
-576.748	-61.068	-0.257	0.109
-575.733	-163.752	-0.293	0.014
-574.719	-179.445	-0.357	0.008
-573.704	-200.000	0.058	-0.440
-572.690	21.393	-0.217	-0.178
-571.675	257.400	-0.057	0.099
-570.661	117.933	0.130	0.161
-569.646	30.452	-0.235	0.202
-568.631	-149.288	0.106	0.008
-567.617	-12.421	0.167	0.110
-566.602	-125.548	-0.157	0.024
-565.588	800.000	-0.074	0.237
-564.573	19.059	-0.313	-0.252
-563.558	800.000	-0.105	0.366
-562.544	491.344	-0.111	0.255
-561.529	-16.519	0.231	0.147
-560.515	-75.136	-0.039	-0.014
-559.500	179.235	0.062	-0.091
-558.485	800.000	0.133	0.397
-557.471	523.832	-0.061	-0.144
-556.456	800.000	0.132	0.409
-555.442	-154.173	0.319	0.022
-554.427	123.832	-0.112	-0.142
-553.412	-43.235	-0.221	-0.112
-552.398	37.185	0.168	0.149
-551.383	-66.914	-0.107	-0.043
-550.369	-200.000	0.022	-0.244
-549.354	-116.842	-0.328	0.060
-548.339	-63.838	0.135	-0.056
-547.325	800.000	0.155	-0.455
-546.310	-152.965	-0.153	-0.011
-545.296	-200.000	-0.036	-0.219
-544.281	-49.401	0.267	-0.128
-543.266	490.865	-0.139	0.320
-542.252	-11.201	-0.194	-0.128
-541.237	-98.786	0.087	0.022
-540.223	-162.827	-0.240	0.012
-539.208	800.000	0.066	-0.227
-538.193	-4.883	0.238	-0.165
-537.179	-200.000	0.036	0.262
-536.164	-200.000	0.019	-0.150
-535.150	23.316	0.070	0.058
-534.135	-117.157	0.136	-0.025
-533.121	250.173	-0.128	0.217
-532.106	236.670	0.148	-0.246
-531.091	154.246	0.191	-0.263
-530.077	22.837	-0.312	0.257
-529.062	-56.614	0.414	0.184
-528.048	-149.710	-0.312	-0.025
-527.033	-52.964	-0.171	-0.079
-526.018	-200.000	0.002	0.303
-525.004	800.000	0.087	0.358
-523.989	-83.875	-0.304	-0.097
-522.975	359.158	0.043	-0.087
-521.960	-95.222	0.268	0.072
-520.945	506.509	-0.078	-0.182
-519.931	800.000	0.055	-0.216
-518.916	-200.000	0.041	0.297
-517.902	-124.465	-0.239	0.037
-516.887	362.839	-0.038	-0.076
-515.872	-76.779	0.493	-0.173
-514.858	252.391	-0.091	-0.155
-513.843	-116.763	-0.202	0.037
-512.829	800.000	-0.150	0.570
-511.814	112.689	0.221	-0.268
-510.799	800.000	-0.084	0.286
-509.785	86.367	0.077	-0.085
-508.770	13.537	-0.155	-0.121
-507.756	-94.707	-0.549	-0.150
-506.741	75.719	0.234	-0.248
-505.726	156.854	0.084	0.116
-504.712	-200.000	-0.015	0.069
-503.697	294.567	-0.132	-0.242
-502.683	-156.980	-0.225	-0.014
-501.668	292.400	0.051	0.093
-500.653	-141.442	-0.067	-0.007
-499.639	-200.000	-0.011	0.051
-498.624	410.366	0.097	-0.207
-497.610	85.688	-0.037	-0.041
-496.595	-12.529	0.369	-0.241
-495.581	-52.752	-0.208	0.096
-494.566	-42.364	0.106	-0.054
-493.551	114.609	0.132	0.161
-492.537	359.196	0.098	0.197
-491.522	-200.000	-0.038	-0.236
-490.508	46.674	-0.068	0.063
-489.493	-29.727	-0.100	-0.057
-488.478	19.754	-0.226	0.182
-487.464	638.994	0.087	0.221
-486.449	-69.597	-0.128	-0.049
-485.435	-196.185	0.429	0.003
-484.420	-200.000	-0.003	0.526
-483.405	79.229	-0.308	0.330
-482.391	190.801	0.201	0.303
-481.376	-145.479	0.096	0.009
-480.362	800.000	0.081	-0.317
-479.347	374.894	-0.249	-0.508
-478.332	-200.000	-0.002	-0.252
-477.318	800.000	-0.105	0.316
-476.303	33.815	-0.074	0.064
-475.289	-168.511	0.373	0.014
-474.274	-81.178	0.311	0.103
-473.259	-200.000	-0.057	-0.320
-472.245	175.394	-0.141	0.204
-471.230	365.560	-0.189	0.381
-470.216	12.274	0.268	-0.207
-469.201	13.148	-0.197	-0.153
-468.186	-200.000	-0.008	-0.130
-467.172	-46.949	0.138	-0.067
-466.157	800.000	0.082	-0.276
-465.143	-163.945	-0.054	0.003
-464.128	-69.267	0.279	-0.107
-463.113	299.361	-0.065	0.120
-462.099	344.553	-0.026	0.050
-461.084	800.000	0.036	0.128
-460.070	800.000	-0.081	-0.343
-459.055	-200.000	-0.011	0.052
-458.040	-200.000	0.102	-0.000
-457.026	-151.754	-0.194	0.014
-456.011	53.637	0.033	-0.032
-454.997	-146.957	0.249	-0.021
-453.982	-200.000	-0.013	0.459
-452.968	-30.515	0.151	0.085
-451.953	-89.899	-0.168	0.049
-450.938	-144.786	0.053	0.005
-449.924	61.678	0.093	-0.093
-448.909	20.805	-0.264	0.214
-447.895	-50.616	0.103	-0.048
-446.880	647.801	-0.063	0.160
-445.865	-200.000	0.220	0.001
-444.851	301.862	-0.140	0.258
-443.836	-104.725	-0.186	0.043
-442.822	358.058	0.167	0.333
-441.807	-88.251	-0.223	-0.067
-440.792	-153.964	-0.059	0.004
-439.778	-200.000	-0.010	0.267
-438.763	183.449	0.229	0.339
-437.749	-18.181	-0.150	-0.094
-436.734	206.786	0.041	0.064
-435.719	800.000	-0.080	-0.268
-434.705	-133.484	-0.489	0.061
-433.690	-91.134	0.164	0.047
-432.676	-109.767	0.254	-0.053
-431.661	-200.000	-0.011	-0.347
-430.646	344.728	0.057	-0.112
-429.632	-107.501	0.338	0.074
-428.617	-3.376	-0.294	-0.204
-427.603	-0.218	0.120	-0.086
-426.588	144.265	-0.064	0.085
-425.573	-49.979	0.260	-0.123
-424.559	-200.000	-0.037	0.231
-423.544	63.499	0.023	0.023
-422.530	28.672	0.200	-0.169
-421.515	31.890	0.048	0.042
-420.500	-150.797	0.439	0.033
-419.486	-200.000	0.007	-0.190
-418.471	-73.118	0.173	0.063
-417.457	-79.935	-0.099	-0.033
-416.442	239.447	0.151	0.250
-415.428	-103.785	0.475	-0.111
-414.413	-31.372	0.379	-0.213
-413.398	-50.095	-0.108	-0.051
-412.384	-110.928	0.105	0.022
-411.369	800.000	-0.053	-0.227
-410.355	-134.739	-0.100	0.012
-409.340	314.387	0.063	-0.118
-408.325	442.252	-0.119	-0.261
-407.311	148.093	-0.233	-0.314
-406.296	-145.582	-0.124	-0.011
-405.282	676.902	0.135	-0.351
-404.267	800.000	-0.043	0.165
-403.252	-34.239	0.116	-0.063
-402.238	72.601	-0.034	0.036
-401.223	-200.000	-0.069	0.360
-400.209	163.813	0.176	0.247
-399.194	40.903	0.112	-0.101
-398.179	262.750	-0.222	-0.385
-397.165	112.088	-0.289	-0.348
-396.150	28.544	-0.130	-0.110
-395.136	202.534	0.143	0.220
-394.121	44.295	-0.221	0.203
-393.106	-133.951	0.158	0.020
-392.092	58.272	-0.174	-0.170
-391.077	-113.328	-0.391	-0.077
-390.063	800.000	-0.065	-0.202
-389.048	116.165	0.138	-0.168
-388.033	-72.381	0.364	-0.134
-387.019	-172.006	-0.417	-0.013
-386.004	800.000	0.032	0.120
-384.990	167.432	-0.095	0.135
-383.975	432.835	0.069	-0.149
-382.960	-11.193	0.250	-0.164
-381.946	-200.000	-0.013	0.272
-380.931	-47.178	0.086	-0.042
-379.917	242.786	0.050	-0.083
-378.902	98.111	-0.160	-0.184
-377.888	-0.227	0.221	0.157
-376.873	6.654	0.225	-0.167
-375.858	-126.629	-0.255	0.038
-374.844	39.727	-0.062	0.056
-373.829	432.101	0.036	-0.077
-372.815	401.960	0.150	-0.313
-371.800	94.494	0.023	0.026
-370.785	-200.000	0.012	0.199
-369.771	800.000	0.047	-0.202
-368.756	-155.063	0.189	0.012
-367.742	-9.069	0.337	-0.225
-366.727	-200.000	0.021	0.143
-365.712	-55.546	-0.230	-0.103
-364.698	-21.500	-0.262	-0.159
-363.683	-200.000	-0.024	0.247
-362.669	800.000	-0.051	0.198
-361.654	800.000	-0.086	-0.272
-360.639	433.495	0.181	-0.392
-359.625	-47.145	-0.418	0.203
-358.610	-28.994	-0.235	0.134
-357.596	344.408	0.013	0.024
-356.581	-200.000	0.035	0.280
-355.566	-111.796	-0.038	-0.008
-354.552	2.511	-0.050	-0.036
-353.537	100.901	0.301	-0.349
-352.523	424.035	0.087	0.187
-351.508	-99.956	0.457	0.114
-350.493	-150.004	-0.318	0.025
-349.479	47.710	0.277	-0.258
-348.464	516.751	0.079	-0.183
-347.450	479.557	0.069	-0.156
-346.435	-12.016	-0.403	0.263
-345.420	-200.000	-0.034	-0.438
-344.406	-200.000	-0.007	-0.075
-343.391	-200.000	0.006	-0.143
-342.377	216.729	-0.294	0.465
-341.362	800.000	-0.045	0.164
-340.348	9.983	-0.214	0.162
-339.333	-200.000	0.030	0.480
-338.318	-152.136	0.020	-0.001
-337.304	800.000	-0.035	-0.124
-336.289	-59.836	0.125	-0.053
-335.275	-28.344	0.190	-0.109
-334.260	-13.976	-0.327	-0.210
-333.245	216.799	0.171	0.271
-332.231	-141.107	0.317	0.032
-331.216	17.937	-0.105	0.083
-330.202	800.000	0.033	0.127
-329.187	-114.518	-0.079	-0.015
-328.172	-103.320	0.147	-0.034
-327.158	650.191	-0.129	-0.329
-326.143	-169.737	0.185	-0.007
-325.129	469.443	-0.089	0.199
-324.114	273.471	-0.032	-0.057
-323.099	27.221	0.218	0.182
-322.085	187.517	0.032	-0.047
-321.070	-143.579	-0.199	-0.019
-320.056	678.618	0.071	-0.185
-319.041	-200.000	0.016	-0.353
-318.026	-200.000	0.026	0.257
-317.012	-200.000	0.076	0.339
-315.997	-25.375	-0.218	0.129
-314.983	105.360	-0.122	-0.144
-313.968	-87.210	-0.036	0.011
-312.953	229.511	0.136	-0.221
-311.939	239.037	-0.128	0.212
-310.924	-35.842	0.456	-0.246
-309.910	-41.556	0.173	0.088
-308.895	52.123	-0.127	-0.120
-307.880	147.955	0.104	0.140
-306.866	-154.348	-0.255	-0.017
-305.851	-58.255	0.201	0.087
-304.837	-135.861	0.182	-0.021
-303.822	-1.854	0.106	-0.074
-302.807	-200.000	-0.033	0.205
-301.793	636.601	-0.078	0.196
-300.778	104.137	0.080	0.094
-299.764	800.000	0.051	-0.150
-298.749	-19.216	0.157	0.097
-297.735	-62.300	0.074	-0.031
-296.720	-141.345	-0.246	0.025
-295.705	-114.056	0.092	-0.018
-294.691	490.970	-0.118	0.269
-293.676	800.000	-0.060	-0.177
-292.662	-200.000	0.034	0.165
-291.647	-147.278	-0.226	-0.019
-290.632	174.959	-0.176	-0.253
-289.618	5.791	-0.140	-0.103
-288.603	-71.664	0.406	0.151
-287.589	95.463	0.144	-0.163
-286.574	-23.584	0.159	-0.095
-285.559	-134.617	-0.092	-0.011
-284.545	-35.208	-0.010	-0.005
-283.530	-200.000	0.004	0.191
-282.516	-117.306	-0.160	0.029
-281.501	592.673	-0.081	0.198
-280.486	56.931	0.196	0.190
-279.472	236.231	0.058	0.095
-278.457	290.122	0.029	-0.053
-277.443	-200.000	0.001	0.029
-276.428	-195.551	0.287	0.002
-275.413	165.708	0.106	-0.149
-274.399	800.000	-0.102	-0.391
-273.384	-200.000	0.065	-0.307
-272.370	-29.107	0.071	0.041
-271.355	-122.953	0.098	0.016
-270.340	-60.145	-0.272	-0.115
-269.326	-200.000	-0.180	-0.000
-268.311	87.733	0.129	0.141
-267.297	-200.000	0.003	-0.250
-266.282	-200.000	0.010	0.104
-265.267	-126.456	-0.166	-0.024
-264.253	-8.867	-0.106	0.071
-263.238	800.000	-0.120	0.410
-262.224	449.194	-0.100	-0.219
-261.209	37.883	0.067	-0.059
-260.195	-113.459	-0.183	-0.036
-259.180	45.253	-0.337	0.308
-258.165	32.785	-0.441	0.379
-257.151	-108.914	-0.717	-0.152
-256.136	-200.000	-0.034	-0.197
-255.122	63.937	-0.284	-0.283
-254.107	-200.000	-0.012	-0.085
-253.092	20.713	-0.075	0.060
-252.078	120.113	0.181	-0.223
-251.063	433.805	-0.018	0.038
-250.049	-200.000	0.043	-0.249
-249.034	65.496	0.178	-0.179
-248.019	-200.000	0.000	0.066
-247.005	134.710	-0.205	-0.264
-245.990	288.457	-0.090	0.162
-244.976	-4.196	-0.132	0.091
-243.961	-155.736	0.524	0.033
-242.946	164.050	0.088	-0.122
-241.932	-63.783	0.232	-0.094
-240.917	-200.000	0.002	-0.051
-239.903	-0.250	-0.107	-0.076
-238.888	-108.667	-0.003	-0.001
-237.873	-77.166	-0.094	-0.033
-236.859	-121.087	0.275	-0.046
-235.844	81.088	-0.110	-0.118
-234.830	52.697	0.048	-0.045
-233.815	12.909	-0.127	-0.097
-232.800	-200.000	-0.023	0.212
-231.786	126.256	0.125	0.156
-230.771	127.154	-0.181	0.227
-229.757	-134.403	-0.258	-0.031
-228.742	-200.000	-0.002	0.083
-227.727	-66.474	-0.210	0.083
-226.713	-200.000	-0.049	0.227
-225.698	21.876	-0.347	-0.280
-224.684	-43.429	0.180	-0.090
-223.669	33.745	0.089	0.076
-222.655	-200.000	0.026	0.130
-221.640	800.000	-0.066	0.267
-220.625	221.562	-0.050	0.080
-219.611	341.351	0.109	0.212
-218.596	15.919	0.225	-0.176
-217.582	-18.862	0.025	-0.015
-216.567	92.824	-0.234	0.262
-215.552	-200.000	-0.162	-0.000
-214.538	-197.165	-0.190	0.001
-213.523	53.105	0.085	-0.081
-212.509	-36.002	-0.085	0.046
-211.494	-114.013	0.216	-0.041
-210.479	800.000	-0.083	-0.329
-209.465	-144.372	-0.251	-0.023
-208.450	685.602	0.047	0.123
-207.436	496.660	0.138	-0.315
-206.421	-121.518	0.098	-0.016
-205.406	-45.901	-0.335	0.164
-204.392	36.546	0.140	-0.123
-203.377	781.935	0.038	-0.102
-202.363	-136.717	0.395	-0.045
-201.348	-31.011	0.218	0.122
-200.333	-52.990	0.263	0.120
-199.319	-77.310	0.031	0.011
-198.304	800.000	0.073	0.281
-197.290	800.000	-0.023	0.092
-196.275	-200.000	-0.025	-0.217
-195.260	800.000	0.091	-0.304
-194.246	565.234	-0.078	-0.188
-193.231	552.753	0.131	0.311
-192.217	-200.000	-0.070	0.331
-191.202	83.284	-0.086	-0.093
-190.187	-200.000	0.021	-0.174
-189.173	-45.376	-0.088	-0.043
-188.158	225.295	0.142	0.228
-187.144	-62.790	0.151	0.062
-186.129	2.881	0.318	0.228
-185.114	-200.000	0.019	-0.232
-184.100	-102.597	-0.108	0.026
-183.085	1.931	0.252	-0.180
-182.071	61.079	-0.282	-0.277
-181.056	-200.000	0.008	0.057
-180.042	-105.307	0.322	-0.073
-179.027	575.230	-0.107	0.258
-178.012	-200.000	-0.001	0.027
-176.998	-26.394	-0.190	0.110
-175.983	-145.979	-0.301	-0.026
-174.969	-200.000	0.051	0.228
-173.954	78.154	-0.028	-0.030
-172.939	-75.350	0.233	-0.082
-171.925	206.473	0.125	0.193
-170.910	-53.507	-0.062	0.028
-169.896	146.181	0.198	-0.262
-168.881	-200.000	0.028	0.218
-167.866	800.000	0.083	0.339
-166.852	-122.044	0.163	0.026
-165.837	-24.985	-0.099	-0.058
-164.823	82.696	0.198	-0.213
-163.808	800.000	-0.041	-0.161
-162.793	-56.387	-0.139	-0.061
-161.779	212.956	-0.083	0.130
-160.764	-197.768	-0.076	0.000
-159.750	-7.045	0.089	-0.060
-158.735	619.897	-0.053	0.132
-157.720	12.485	0.132	-0.101
-156.706	-23.591	0.355	0.211
-155.691	47.956	0.133	0.123
-154.677	-23.590	-0.162	-0.096
-153.662	-121.839	0.240	0.039
-152.647	180.914	-0.281	0.407
-151.633	-165.973	-0.052	-0.002
-150.618	-135.910	-0.027	-0.003
-149.604	800.000	-0.071	0.233
-148.589	114.119	0.084	0.101
-147.574	97.881	0.062	-0.070
-146.560	260.573	-0.288	0.492
-145.545	482.823	-0.134	0.300
-144.531	-200.000	0.025	0.116
-143.516	-200.000	0.063	0.327
-142.502	725.718	0.052	-0.136
-141.487	-200.000	-0.084	0.384
-140.472	-200.000	0.045	0.314
-139.458	-127.009	-0.196	-0.028
-138.443	-200.000	-0.011	0.231
-137.429	800.000	0.049	-0.171
-136.414	-200.000	-0.023	-0.541
-135.399	114.913	0.187	-0.225
-134.385	36.206	0.300	-0.261
-133.370	-2.054	-0.207	0.143
-132.356	-200.000	0.007	-0.212
-131.341	-55.877	0.439	-0.194
-130.326	-28.796	-0.214	-0.122
-129.312	-89.562	0.251	0.073
-128.297	-153.958	-0.430	-0.029
-127.283	32.378	0.180	0.153
-126.268	800.000	-0.054	0.176
-125.253	-200.000	-0.020	0.113
-124.239	-98.433	0.244	0.062
-123.224	15.710	-0.065	-0.050
-122.210	91.646	-0.183	0.203
