DTS Sentinel unit serial number:	SN413079Multiplexer serial number:	ORYXHardware model number:	OX4-SRSoftware version number:	ORYX F/W v4.00 Oryx Data Collector v3.7.2.0data status	okinstallation	princeton_trtdifferential loss correction	single-endedforward channel	channel 4reverse channel	N/Adate	2019/09/18time	23:53:34forward acquisition time	60.00reverse acquisition time	0.00gamma	496.2192k internal	0.2336k external	0.2336temperature offset calibration	1.0030default loss term (dB/km)	0.3790temperature slope calibration	1.0000multiplexer offset coefficient	1.0000multiplexer slope coefficient	1.0000fibre end	0.00T internal ref (°C)	23.25T ext. ref 1 (°C)	0.76T ext. ref 2 (°C)	16.05length (m)	temperature (°C)	Stokes	anti-Stokes-747.200	-111.763	0.031	0.006
-746.185	-107.082	0.298	0.066
-745.171	278.123	0.175	0.312
-744.156	238.211	0.115	0.191
-743.142	471.925	-0.035	-0.080
-742.127	-200.000	0.070	0.349
-741.112	-108.862	-0.263	0.056
-740.098	208.286	0.182	-0.285
-739.083	-3.647	0.283	0.197
-738.069	290.224	-0.124	-0.227
-737.054	-38.392	-0.229	0.122
-736.039	-118.688	-0.251	0.044
-735.025	-200.000	-0.028	0.255
-734.010	-29.580	0.279	-0.160
-732.996	416.445	0.103	-0.220
-731.981	800.000	0.109	-0.377
-730.966	-200.000	0.005	-0.164
-729.952	800.000	0.036	-0.139
-728.937	-139.366	-0.153	0.016
-727.923	21.066	0.242	-0.197
-726.908	121.787	-0.223	-0.279
-725.894	-200.000	0.038	-0.255
-724.879	-68.771	0.103	-0.040
-723.864	800.000	0.075	-0.277
-722.850	250.752	0.183	0.313
-721.835	-73.449	0.399	-0.146
-720.821	800.000	0.060	0.175
-719.806	113.241	-0.257	-0.312
-718.791	-136.441	-0.441	-0.051
-717.777	-85.512	-0.128	0.040
-716.762	33.492	-0.006	-0.005
-715.748	61.335	0.220	0.219
-714.733	-82.342	-0.100	-0.033
-713.718	-200.000	-0.000	-0.088
-712.704	-84.584	0.279	-0.088
-711.689	-64.987	0.138	0.056
-710.675	-29.210	-0.183	-0.105
-709.660	90.697	-0.060	0.068
-708.645	800.000	0.079	0.287
-707.631	-117.311	0.148	0.027
-706.616	32.271	-0.096	0.083
-705.602	800.000	-0.084	0.252
-704.587	66.207	0.120	0.122
-703.572	74.037	-0.218	-0.230
-702.558	109.133	0.188	-0.226
-701.543	-200.000	-0.004	0.339
-700.529	183.680	0.120	-0.178
-699.514	-200.000	-0.007	-0.034
-698.499	-47.440	-0.191	-0.093
-697.485	-196.026	0.202	-0.001
-696.470	-200.000	0.041	-0.211
-695.456	-200.000	0.004	-0.073
-694.441	-24.475	0.165	-0.098
-693.426	-47.962	-0.050	0.024
-692.412	-111.048	-0.523	0.108
-691.397	-67.116	-0.207	0.082
-690.383	77.461	0.111	0.118
-689.368	-47.785	0.153	-0.074
-688.354	-129.806	-0.097	0.013
-687.339	-60.573	0.066	0.028
-686.324	46.641	0.107	0.100
-685.310	-200.000	-0.011	0.062
-684.295	126.961	0.077	0.097
-683.281	-156.654	-0.312	-0.019
-682.266	-116.133	-0.245	-0.046
-681.251	-200.000	-0.001	0.177
-680.237	35.272	0.236	-0.207
-679.222	139.048	0.226	0.297
-678.208	-200.000	0.023	-0.201
-677.193	-82.053	-0.221	-0.072
-676.178	-49.748	-0.224	0.107
-675.164	-200.000	0.026	0.115
-674.149	800.000	0.026	0.096
-673.135	-200.000	-0.018	-0.381
-672.120	-15.795	-0.203	-0.130
-671.105	58.174	0.216	-0.212
-670.091	-67.549	0.246	0.097
-669.076	49.774	-0.106	-0.100
-668.062	181.092	-0.053	-0.078
-667.047	800.000	-0.097	0.280
-666.032	800.000	0.060	-0.175
-665.018	459.878	0.136	0.302
-664.003	-128.294	-0.177	-0.025
-662.989	279.737	-0.044	-0.078
-661.974	650.716	-0.062	-0.159
-660.959	-109.772	-0.212	-0.045
-659.945	705.657	-0.126	0.333
-658.930	-141.022	0.088	-0.009
-657.916	170.264	-0.058	0.083
-656.901	-155.373	-0.150	-0.010
-655.886	99.675	0.024	-0.028
-654.872	-200.000	-0.005	-0.163
-653.857	-200.000	0.008	0.170
-652.843	210.877	-0.115	-0.181
-651.828	-200.000	-0.013	0.065
-650.814	-10.815	-0.111	-0.074
-649.799	72.719	-0.378	-0.395
-648.784	7.818	0.288	-0.216
-647.770	-61.113	-0.097	-0.041
-646.755	-116.038	0.121	-0.022
-645.741	362.907	0.166	-0.334
-644.726	-75.459	-0.219	0.078
-643.711	-124.638	-0.210	0.033
-642.697	11.855	-0.276	0.212
-641.682	-88.001	0.261	0.078
-640.668	-200.000	-0.024	0.127
-639.653	-200.000	-0.009	-0.183
-638.638	-200.000	0.026	-0.124
-637.624	-127.968	-0.263	0.038
-636.609	66.868	0.046	-0.047
-635.595	-3.272	0.103	-0.072
-634.580	61.318	-0.085	0.085
-633.565	141.876	-0.219	0.290
-632.551	-123.071	-0.284	-0.046
-631.536	-200.000	-0.008	-0.301
-630.522	-138.160	-0.043	0.005
-629.507	800.000	-0.101	-0.308
-628.492	-32.982	-0.193	0.107
-627.478	419.251	0.066	0.141
-626.463	161.184	-0.055	-0.076
-625.449	47.194	-0.144	0.134
-624.434	800.000	0.043	-0.134
-623.419	64.247	-0.158	-0.159
-622.405	277.058	-0.062	-0.110
-621.390	120.710	0.055	0.069
-620.376	800.000	-0.170	0.483
-619.361	-73.094	-0.071	-0.026
-618.346	114.065	0.198	-0.241
-617.332	800.000	0.146	0.406
-616.317	-200.000	0.000	-0.121
-615.303	800.000	0.073	-0.311
-614.288	9.524	0.218	-0.165
-613.273	-64.361	-0.279	-0.114
-612.259	-126.080	-0.094	-0.014
-611.244	-155.505	-0.115	-0.007
-610.230	-200.000	0.015	0.447
-609.215	224.733	0.109	0.176
-608.201	670.246	-0.211	-0.546
-607.186	-200.000	0.007	-0.038
-606.171	-184.189	-0.586	0.010
-605.157	-200.000	-0.015	-0.079
-604.142	258.051	-0.176	-0.303
-603.128	309.674	0.018	-0.034
-602.113	800.000	0.083	0.230
-601.098	155.615	-0.293	-0.402
-600.084	800.000	-0.152	-0.460
-599.069	-173.138	0.126	-0.004
-598.055	-24.468	0.022	-0.013
-597.040	-200.000	-0.021	-0.206
-596.025	-53.823	-0.190	0.086
-595.011	-200.000	-0.006	0.161
-593.996	800.000	-0.095	0.332
-592.982	44.639	0.298	0.274
-591.967	94.817	-0.049	-0.055
-590.952	-57.883	0.117	-0.051
-589.938	-25.569	0.139	-0.082
-588.923	-44.229	-0.084	0.042
-587.909	91.096	-0.246	-0.275
-586.894	-172.918	0.316	0.010
-585.879	77.188	-0.036	-0.038
-584.865	125.203	-0.026	0.033
-583.850	-179.802	0.161	0.003
-582.836	8.753	-0.140	-0.105
-581.821	-71.127	-0.208	0.078
-580.806	-15.545	0.392	-0.250
-579.792	-200.000	0.007	-0.370
-578.777	-56.350	0.080	0.036
-577.763	-38.451	0.033	-0.017
-576.748	91.443	-0.230	0.258
-575.733	8.723	-0.190	0.143
-574.719	-140.510	0.061	-0.006
-573.704	529.575	0.040	-0.095
-572.690	-156.395	0.190	0.012
-571.675	-113.607	-0.133	-0.026
-570.661	-200.000	0.022	-0.107
-569.646	37.157	0.099	-0.088
-568.631	-61.791	-0.292	-0.122
-567.617	-93.064	-0.231	0.064
-566.602	-168.596	-0.293	0.011
-565.588	133.885	0.339	-0.438
-564.573	67.395	-0.224	-0.228
-563.558	-2.518	0.025	0.018
-562.544	-132.540	-0.121	0.016
-561.529	800.000	0.123	0.397
-560.515	230.574	0.166	0.271
-559.500	60.277	0.154	-0.152
-558.485	-113.545	-0.216	0.042
-557.471	-105.326	-0.090	-0.020
-556.456	-152.055	-0.300	0.022
-555.442	460.326	-0.026	0.057
-554.427	36.232	-0.150	-0.132
-553.412	-70.864	0.051	-0.019
-552.398	292.811	0.080	-0.145
-551.383	-200.000	-0.004	-0.155
-550.369	-12.074	-0.257	0.168
-549.354	60.093	-0.036	0.035
-548.339	205.918	-0.145	0.225
-547.325	800.000	-0.061	-0.232
-546.310	-102.135	-0.166	0.040
-545.296	-200.000	-0.013	0.212
-544.281	800.000	-0.062	-0.175
-543.266	5.924	0.332	0.245
-542.252	-200.000	-0.037	0.289
-541.237	-66.239	-0.465	-0.185
-540.223	117.375	-0.166	-0.204
-539.208	-106.629	0.048	-0.011
-538.193	-47.374	-0.142	-0.069
-537.179	239.125	-0.059	0.098
-536.164	-123.473	-0.080	-0.013
-535.150	361.134	-0.059	0.117
-534.135	12.181	-0.077	-0.059
-533.121	800.000	0.065	0.208
-532.106	298.427	0.064	0.118
-531.091	-97.752	-0.166	0.043
-530.077	40.920	0.162	-0.145
-529.062	13.765	-0.100	-0.077
-528.048	-55.881	0.244	0.108
-527.033	-200.000	-0.023	0.459
-526.018	395.443	-0.124	0.257
-525.004	-193.281	-0.316	-0.003
-523.989	800.000	0.114	0.465
-522.975	-200.000	-0.013	-0.061
-521.960	-200.000	0.021	-0.257
-520.945	-159.923	0.371	0.020
-519.931	-200.000	0.038	-0.188
-518.916	-200.000	0.034	-0.167
-517.902	292.621	0.155	-0.281
-516.887	-70.459	0.342	-0.129
-515.872	57.316	0.024	-0.023
-514.858	-200.000	0.001	-0.074
-513.843	-200.000	0.011	0.226
-512.829	38.267	0.262	-0.232
-511.814	58.609	0.049	-0.048
-510.799	-127.312	0.175	0.025
-509.785	80.199	-0.029	0.031
-508.770	-135.073	0.129	0.015
-507.756	-120.714	-0.294	-0.049
-506.741	-21.448	0.153	-0.093
-505.726	238.061	-0.068	-0.113
-504.712	-129.851	0.453	-0.062
-503.697	-117.599	0.187	0.034
-502.683	-200.000	0.029	-0.196
-501.668	16.987	0.221	0.174
-500.653	593.494	0.139	0.341
-499.639	-200.000	0.013	0.317
-498.624	-101.245	0.385	-0.093
-497.610	-125.880	0.175	0.026
-496.595	35.701	0.184	-0.161
-495.581	-123.228	0.388	0.062
-494.566	-200.000	-0.020	0.181
-493.551	-180.857	-0.081	0.002
-492.537	9.546	-0.248	0.187
-491.522	-136.070	-0.037	-0.004
-490.508	-200.000	0.035	-0.286
-489.493	-200.000	0.009	0.233
-488.478	213.869	-0.209	0.329
-487.464	39.780	0.144	0.128
-486.449	1.686	-0.123	-0.088
-485.435	267.041	-0.070	-0.121
-484.420	242.320	-0.161	-0.268
-483.405	-200.000	-0.056	-0.260
-482.391	368.795	-0.176	0.355
-481.376	800.000	0.059	0.201
-480.362	-68.606	-0.232	0.089
-479.347	-200.000	-0.039	-0.277
-478.332	-193.357	-0.143	0.001
-477.318	-129.578	-0.145	-0.020
-476.303	-200.000	0.004	0.062
-475.289	216.987	-0.065	0.103
-474.274	-200.000	0.054	0.452
-473.259	-70.948	-0.179	0.067
-472.245	354.802	0.177	0.350
-471.230	-120.825	-0.281	-0.047
-470.216	3.052	0.273	-0.197
-469.201	24.456	0.152	-0.125
-468.186	-2.714	0.179	-0.124
-467.172	123.791	0.149	-0.186
-466.157	-169.113	-0.267	-0.010
-465.143	-200.000	-0.082	-0.388
-464.128	-45.040	0.151	-0.075
-463.113	-98.801	0.102	-0.026
-462.099	425.831	-0.065	-0.140
-461.084	-104.351	0.061	0.014
-460.070	-200.000	-0.040	-0.202
-459.055	552.395	0.052	-0.123
-458.040	17.463	0.253	-0.200
-457.026	-200.000	0.016	-0.419
-456.011	-200.000	-0.020	-0.108
-454.997	800.000	0.063	-0.249
-453.982	800.000	-0.019	-0.076
-452.968	-200.000	0.001	-0.013
-451.953	-28.529	0.377	-0.216
-450.938	-200.000	-0.043	-0.202
-449.924	-54.251	0.043	-0.020
-448.909	23.191	-0.148	-0.121
-447.895	-200.000	0.012	0.431
-446.880	381.223	-0.028	0.058
-445.865	215.317	0.120	0.189
-444.851	11.550	-0.103	0.079
-443.836	168.121	0.020	0.028
-442.822	-10.768	0.337	0.221
-441.807	-200.000	-0.037	0.416
-440.792	79.610	-0.136	-0.145
-439.778	33.811	0.080	-0.069
-438.763	-71.264	0.176	0.066
-437.749	-200.000	-0.007	-0.202
-436.734	15.719	-0.179	-0.140
-435.719	-200.000	0.059	-0.320
-434.705	-0.520	0.289	0.204
-433.690	-94.856	-0.340	0.091
-432.676	-98.955	-0.116	-0.029
-431.661	800.000	-0.103	-0.355
-430.646	-12.842	0.160	0.103
-429.632	-71.156	-0.101	-0.037
-428.617	-200.000	0.023	0.211
-427.603	37.658	0.214	0.188
-426.588	-200.000	-0.069	0.000
-425.573	-200.000	0.004	-0.288
-424.559	750.377	-0.029	-0.078
-423.544	206.703	-0.142	-0.220
-422.530	17.937	-0.266	0.210
-421.515	-140.819	0.156	-0.016
-420.500	-117.137	-0.222	0.040
-419.486	800.000	0.123	0.377
-418.471	23.571	-0.341	-0.278
-417.457	75.091	-0.137	0.143
-416.442	-89.756	-0.280	-0.081
-415.428	96.643	0.050	0.057
-414.413	-87.200	0.089	-0.027
-413.398	-200.000	0.029	0.476
-412.384	-2.526	-0.336	-0.233
-411.369	-200.000	0.011	-0.292
-410.355	342.252	0.044	-0.085
-409.340	-48.962	0.056	0.027
-408.325	63.001	0.202	0.200
-407.311	136.023	0.186	0.241
-406.296	-0.602	0.030	-0.021
-405.282	-200.000	0.010	0.262
-404.267	616.905	0.090	-0.223
-403.252	33.375	0.358	0.308
-402.238	23.681	-0.212	0.173
-401.223	22.023	0.069	0.056
-400.209	-162.618	0.122	-0.006
-399.194	-109.958	0.135	-0.028
-398.179	384.056	-0.078	-0.159
-397.165	-78.348	-0.268	0.091
-396.150	800.000	0.101	-0.280
-395.136	234.627	0.049	-0.080
-394.121	598.542	0.060	-0.148
-393.106	-200.000	0.047	-0.319
-392.092	-147.808	0.154	0.013
-391.077	-200.000	-0.003	-0.026
-390.063	551.330	0.024	-0.057
-389.048	63.966	-0.195	0.194
-388.033	-200.000	0.003	-0.399
-387.019	-102.380	-0.204	-0.048
-386.004	27.427	0.163	0.136
-384.990	-200.000	0.032	0.198
-383.975	265.718	0.096	0.166
-382.960	89.091	0.050	-0.055
-381.946	58.175	0.206	0.200
-380.931	-124.221	-0.113	0.018
-379.917	-24.942	-0.271	0.159
-378.902	-68.463	-0.143	-0.055
-377.888	-85.465	0.256	-0.079
-376.873	179.835	0.116	-0.168
-375.858	-51.149	-0.093	0.043
-374.844	-55.299	0.102	0.045
-373.829	37.184	0.082	0.072
-372.815	-101.514	-0.310	-0.075
-371.800	6.279	0.218	0.160
-370.785	620.437	0.068	-0.169
-369.771	197.472	-0.074	-0.112
-368.756	-176.432	0.368	-0.009
-367.742	-200.000	0.002	0.034
-366.727	79.932	0.196	-0.208
-365.712	-200.000	-0.006	0.093
-364.698	-76.146	0.322	0.112
-363.683	73.414	0.303	-0.314
-362.669	-129.529	0.092	-0.013
-361.654	-51.623	0.272	-0.126
-360.639	664.812	0.083	-0.213
-359.625	-200.000	-0.009	-0.091
-358.610	407.039	-0.097	-0.203
-357.596	-24.419	-0.060	-0.035
-356.581	-33.877	-0.089	0.049
-355.566	195.138	-0.106	0.159
-354.552	-27.125	-0.319	0.184
-353.537	190.261	0.107	0.159
-352.523	206.058	-0.234	-0.360
-351.508	201.223	0.282	-0.429
-350.493	85.442	-0.182	-0.198
-349.479	-52.856	-0.199	-0.091
-348.464	92.078	-0.275	-0.306
-347.450	800.000	-0.130	0.443
-346.435	70.890	0.102	0.104
-345.420	-63.673	-0.177	0.072
-344.406	-88.103	-0.166	0.049
-343.391	-183.094	-0.355	-0.006
-342.377	11.304	-0.177	0.134
-341.362	17.277	-0.247	0.194
-340.348	162.076	-0.016	-0.022
-339.333	800.000	0.033	0.123
-338.318	-200.000	0.048	-0.222
-337.304	430.635	-0.030	0.064
-336.289	-58.027	0.145	-0.063
-335.275	40.611	-0.086	0.076
-334.260	-200.000	0.100	-0.536
-333.245	-90.117	-0.042	-0.012
-332.231	-82.854	0.133	-0.042
-331.216	-107.738	-0.388	0.084
-330.202	159.921	0.151	-0.208
-329.187	-200.000	0.019	-0.179
-328.172	-200.000	-0.010	-0.188
-327.158	-88.138	-0.075	-0.022
-326.143	-200.000	0.051	0.000
-325.129	-88.750	0.239	0.070
-324.114	230.895	0.025	0.040
-323.099	174.720	-0.083	0.119
-322.085	800.000	0.097	0.329
-321.070	-177.630	0.130	0.003
-320.056	325.055	-0.079	0.149
-319.041	31.788	-0.081	0.068
-318.026	31.444	-0.103	-0.088
-317.012	-200.000	-0.041	-0.192
-315.997	-137.303	-0.424	0.047
-314.983	800.000	-0.047	0.152
-313.968	-141.533	0.356	-0.036
-312.953	-142.240	-0.178	-0.017
-311.939	108.391	0.197	0.232
-310.924	73.220	-0.231	-0.238
-309.910	166.926	0.256	0.359
-308.895	-60.940	-0.501	0.209
-307.880	-200.000	-0.023	-0.154
-306.866	474.512	-0.138	-0.308
-305.851	34.471	0.128	-0.110
-304.837	245.756	-0.241	-0.401
-303.822	23.561	0.076	-0.062
-302.807	278.187	-0.136	0.239
-301.793	-120.883	-0.395	0.066
-300.778	-18.247	-0.132	0.081
-299.764	800.000	-0.075	0.235
-298.749	-139.592	0.190	0.020
-297.735	-100.549	-0.241	0.059
-296.720	-200.000	-0.036	0.193
-295.705	-200.000	0.009	0.293
-294.691	-35.412	-0.401	-0.215
-293.676	-93.451	-0.179	-0.049
-292.662	289.518	0.196	0.351
-291.647	800.000	-0.046	0.130
-290.632	-200.000	-0.001	0.210
-289.618	45.648	-0.113	-0.103
-288.603	-200.000	-0.004	-0.224
-287.589	126.915	0.109	0.136
-286.574	-86.525	-0.191	0.058
-285.559	129.816	0.155	-0.196
-284.545	107.320	-0.028	0.033
-283.530	800.000	-0.086	0.279
-282.516	-101.096	0.266	-0.064
-281.501	25.837	-0.307	0.252
-280.486	11.072	0.203	0.153
-279.472	-17.124	-0.201	-0.125
-278.457	-60.441	0.255	0.107
-277.443	64.794	-0.101	-0.100
-276.428	-43.434	0.101	-0.051
-275.413	36.282	0.203	-0.176
-274.399	-34.545	-0.191	0.103
-273.384	161.248	0.185	0.255
-272.370	-23.785	0.378	0.223
-271.355	3.327	0.412	0.296
-270.340	-200.000	0.010	-0.044
-269.326	404.808	0.141	0.293
-268.311	130.182	0.144	0.182
-267.297	-200.000	0.019	-0.087
-266.282	-84.002	0.233	-0.073
-265.267	13.788	0.078	-0.059
-264.253	-200.000	0.014	0.158
-263.238	-200.000	0.016	-0.226
-262.224	-78.163	0.103	0.035
-261.209	-52.707	-0.059	0.027
-260.195	83.509	0.246	-0.264
-259.180	-200.000	0.023	0.144
-258.165	-37.536	-0.136	0.071
-257.151	-200.000	0.035	0.276
-256.136	-154.246	-0.018	0.001
-255.122	800.000	0.026	-0.082
-254.107	378.415	0.134	-0.271
-253.092	-200.000	-0.028	-0.154
-252.078	-200.000	0.033	0.161
-251.063	257.791	0.045	-0.077
-250.049	137.235	0.115	0.147
-249.034	-166.899	-0.093	0.004
-248.019	-66.370	-0.175	0.069
-247.005	3.310	-0.158	0.114
-245.990	800.000	0.058	0.170
-244.976	-200.000	-0.050	0.217
-243.961	800.000	0.062	-0.241
-242.946	-24.180	0.211	-0.124
-241.932	11.494	0.223	0.168
-240.917	-24.258	0.266	0.156
-239.903	-200.000	0.000	0.088
-238.888	-92.161	0.267	-0.074
-237.873	-200.000	-0.045	-0.322
-236.859	-193.451	-0.250	0.002
-235.844	133.302	0.080	-0.102
-234.830	-122.219	0.309	-0.050
-233.815	-200.000	0.018	0.083
-232.800	31.069	-0.274	-0.231
-231.786	-56.106	0.144	-0.063
-230.771	-157.097	-0.150	-0.009
-229.757	72.526	0.189	0.194
-228.742	-141.799	0.139	-0.014
-227.727	-117.274	0.221	-0.039
-226.713	222.279	-0.167	-0.264
-225.698	-9.319	0.223	-0.147
-224.684	-200.000	-0.007	-0.291
-223.669	13.005	0.157	0.120
-222.655	-110.238	0.065	0.013
-221.640	-200.000	0.191	0.000
-220.625	800.000	-0.039	-0.134
-219.611	471.273	0.106	0.234
-218.596	1.542	-0.110	0.078
-217.582	-86.424	-0.104	0.031
-216.567	12.047	-0.132	-0.100
-215.552	-96.637	0.144	-0.037
-214.538	-177.799	-0.065	0.002
-213.523	-200.000	0.007	0.090
-212.509	89.930	0.178	-0.196
-211.494	-129.292	0.073	0.010
-210.479	-200.000	0.005	0.325
-209.465	-162.172	-0.196	-0.010
-208.450	-50.492	-0.332	-0.154
-207.436	92.216	0.102	0.113
-206.421	-80.229	-0.186	-0.061
-205.406	-80.879	0.197	-0.064
-204.392	4.377	-0.156	-0.113
-203.377	-200.000	-0.018	0.168
-202.363	-60.162	-0.153	-0.064
-201.348	215.932	-0.075	0.118
-200.333	365.443	0.063	-0.124
-199.319	-77.529	0.346	-0.118
-198.304	105.870	0.068	-0.079
-197.290	-72.787	0.238	0.086
-196.275	-119.830	-0.271	0.046
-195.260	735.067	-0.136	0.359
-194.246	210.269	-0.124	0.192
-193.231	-60.723	-0.252	0.105
-192.217	-41.491	0.344	0.174
-191.202	24.930	-0.116	-0.095
-190.187	-156.755	-0.263	0.016
-189.173	167.114	0.124	0.173
-188.158	230.160	0.072	0.116
-187.144	-103.118	0.118	0.027
-186.129	-138.792	0.118	0.013
-185.114	-20.185	0.074	0.045
-184.100	650.232	-0.105	-0.263
-183.085	-200.000	-0.009	0.066
-182.071	-69.248	0.160	-0.060
-181.056	91.354	0.127	-0.140
-180.042	646.947	-0.158	0.396
-179.027	800.000	-0.091	0.363
-178.012	349.331	-0.062	-0.120
-176.998	-23.830	0.160	0.094
-175.983	-39.220	-0.331	0.171
-174.969	-127.825	0.341	0.048
-173.954	-36.238	0.375	0.199
-172.939	4.297	0.261	-0.188
-171.925	-200.000	0.078	-0.396
-170.910	788.691	0.067	0.180
-169.896	81.188	0.121	0.129
-168.881	-200.000	-0.010	-0.257
-167.866	-98.227	0.028	0.007
-166.852	-80.993	-0.311	0.101
-165.837	128.553	0.104	0.131
-164.823	153.911	0.099	-0.133
-163.808	48.837	-0.108	-0.099
-162.793	648.693	-0.005	-0.012
-161.779	-2.013	0.283	0.195
-160.764	-108.469	-0.182	-0.039
-159.750	55.251	-0.237	0.225
-158.735	-77.383	0.049	0.017
-157.720	-40.197	0.304	0.155
-156.706	-69.831	-0.100	-0.038
-155.691	106.893	0.055	0.064
-154.677	76.741	-0.067	0.070
-153.662	-25.850	0.374	0.216
-152.647	415.106	0.126	0.263
-151.633	362.785	-0.137	0.270
-150.618	71.713	0.222	-0.227
-149.604	800.000	0.048	-0.174
-148.589	-109.919	0.256	0.053
-147.574	-97.673	0.429	0.109
-146.560	-200.000	-0.002	-0.301
-145.545	-40.722	-0.137	-0.069
-144.531	-40.958	0.234	0.119
-143.516	-161.055	0.293	-0.015
-142.502	53.152	-0.155	0.145
-141.487	-200.000	0.013	-0.168
-140.472	-10.673	0.385	-0.250
-139.458	38.385	-0.122	0.106
-138.443	800.000	0.024	0.067
-137.429	29.312	0.220	0.183
-136.414	-200.000	-0.243	-0.000
-135.399	221.190	0.146	0.230
-134.385	-98.531	-0.430	0.108
-133.370	531.582	0.087	0.201
-132.356	-200.000	0.003	-0.034
-131.341	263.925	0.172	-0.293
-130.326	2.543	0.271	0.192
-129.312	-43.460	-0.272	-0.135
-128.297	130.657	0.023	0.029
-127.283	96.659	0.109	0.123
-126.268	223.854	-0.235	0.372
-125.253	-70.260	0.116	0.043
-124.239	-119.040	0.343	-0.059
-123.224	393.227	-0.130	0.264
-122.210	8.839	0.200	0.148
-121.195	800.000	0.068	0.248
