DTS Sentinel unit serial number:	SN413079Multiplexer serial number:	ORYXHardware model number:	OX4-SRSoftware version number:	ORYX F/W v4.00 Oryx Data Collector v3.7.2.0data status	okinstallation	princeton_trtdifferential loss correction	single-endedforward channel	channel 4reverse channel	N/Adate	2019/09/16time	10:49:34forward acquisition time	60.00reverse acquisition time	0.00gamma	496.2192k internal	0.2298k external	0.2298temperature offset calibration	0.9959default loss term (dB/km)	0.3790temperature slope calibration	1.0000multiplexer offset coefficient	1.0000multiplexer slope coefficient	1.0000fibre end	0.00T internal ref (°C)	36.31T ext. ref 1 (°C)	12.69T ext. ref 2 (°C)	34.49length (m)	temperature (°C)	Stokes	anti-Stokes-747.200	-200.000	-0.014	-0.147
-746.185	-200.000	-0.030	0.255
-745.171	327.001	0.112	0.219
-744.156	-9.805	-0.142	0.096
-743.142	-200.000	0.005	0.246
-742.127	-200.000	0.055	0.328
-741.112	-128.409	0.109	0.016
-740.098	501.847	-0.058	0.136
-739.083	-200.000	-0.038	-0.269
-738.069	-16.456	-0.080	0.052
-737.054	-116.305	-0.463	0.088
-736.039	-180.405	-0.170	0.004
-735.025	800.000	0.010	0.029
-734.010	128.971	-0.270	-0.352
-732.996	76.776	0.115	0.125
-731.981	-200.000	-0.012	-0.141
-730.966	227.156	-0.164	-0.272
-729.952	105.193	-0.228	-0.275
-728.937	390.389	0.097	-0.204
-727.923	699.625	-0.106	-0.283
-726.908	-37.442	0.166	0.090
-725.894	-137.266	0.220	-0.025
-724.879	-115.936	0.061	-0.012
-723.864	122.491	-0.266	0.339
-722.850	-78.077	0.047	0.017
-721.835	-58.352	-0.197	0.088
-720.821	-109.063	0.138	-0.030
-719.806	-91.407	-0.225	-0.066
-718.791	126.766	0.033	0.043
-717.777	-22.040	-0.174	0.108
-716.762	-200.000	0.028	-0.318
-715.748	-200.000	-0.041	0.432
-714.733	405.592	-0.109	-0.235
-713.718	-39.296	-0.215	-0.115
-712.704	599.662	-0.065	-0.165
-711.689	155.451	0.054	-0.076
-710.675	142.501	-0.102	-0.138
-709.660	-148.166	0.218	-0.018
-708.645	32.591	0.054	-0.048
-707.631	60.862	-0.237	-0.240
-706.616	-112.196	0.312	-0.064
-705.602	-125.246	-0.308	-0.048
-704.587	10.739	-0.219	-0.171
-703.572	-200.000	0.002	-0.192
-702.558	104.593	-0.030	-0.036
-701.543	-200.000	-0.006	-0.271
-700.529	-200.000	-0.024	0.220
-699.514	96.513	0.192	0.223
-698.499	104.401	-0.079	0.095
-697.485	-76.134	0.099	0.035
-696.470	-109.412	-0.205	0.044
-695.456	-70.626	-0.237	-0.091
-694.441	800.000	0.011	-0.036
-693.426	-200.000	-0.060	-0.418
-692.412	308.767	0.144	-0.274
-691.397	274.844	-0.020	-0.036
-690.383	75.331	0.076	0.082
-689.368	-97.094	-0.267	0.071
-688.354	-29.590	-0.246	0.143
-687.339	800.000	0.087	0.269
-686.324	41.510	-0.127	-0.117
-685.310	-138.186	0.232	-0.026
-684.295	800.000	0.040	0.140
-683.281	167.418	-0.070	0.101
-682.266	-85.819	-0.456	-0.144
-681.251	15.735	0.303	-0.243
-680.237	800.000	0.050	0.193
-679.222	-141.308	0.336	-0.035
-678.208	10.844	0.206	-0.160
-677.193	-50.880	0.307	0.147
-676.178	-158.640	0.030	-0.002
-675.164	-66.930	-0.188	0.076
-674.149	177.203	0.046	0.069
-673.135	-200.000	-0.022	-0.299
-672.120	-200.000	-0.030	-0.192
-671.105	-200.000	-0.046	-0.237
-670.091	800.000	0.079	-0.309
-669.076	-200.000	-0.010	-0.170
-668.062	58.830	-0.083	0.083
-667.047	470.538	0.198	0.454
-666.032	101.490	0.061	0.072
-665.018	12.397	-0.080	-0.063
-664.003	262.152	-0.094	0.167
-662.989	32.211	0.108	-0.095
-661.974	800.000	-0.169	-0.526
-660.959	121.325	0.114	-0.144
-659.945	-31.354	-0.182	-0.104
-658.930	800.000	0.072	-0.209
-657.916	393.396	0.006	-0.013
-656.901	-78.104	0.223	-0.078
-655.886	-61.068	0.147	-0.063
-654.872	-76.441	0.164	-0.059
-653.857	-120.094	-0.183	0.032
-652.843	201.284	-0.163	-0.256
-651.828	-70.031	-0.092	0.036
-650.814	-88.156	-0.338	-0.103
-649.799	699.830	0.064	0.172
-648.784	-200.000	0.014	-0.155
-647.770	13.038	0.327	0.257
-646.755	-56.119	0.429	0.195
-645.741	-55.365	-0.147	0.067
-644.726	-107.321	-0.385	0.086
-643.711	251.692	0.200	-0.347
-642.697	-111.581	-0.246	-0.051
-641.682	361.890	0.114	0.233
-640.668	800.000	0.053	-0.211
-639.653	1.019	-0.190	0.139
-638.638	20.171	0.134	-0.110
-637.624	617.730	0.061	0.156
-636.609	340.172	0.155	0.307
-635.595	106.681	0.054	0.065
-634.580	457.542	-0.078	0.176
-633.565	-74.688	0.097	-0.035
-632.551	-111.643	-0.088	-0.018
-631.536	-200.000	0.001	0.095
-630.522	27.150	-0.268	-0.229
-629.507	800.000	-0.014	0.044
-628.492	-101.011	0.051	0.013
-627.478	147.914	0.048	-0.066
-626.463	-65.458	0.246	0.100
-625.449	731.152	-0.042	-0.113
-624.434	-110.444	-0.235	-0.050
-623.419	-200.000	-0.038	-0.263
-622.405	-200.000	0.008	-0.152
-621.390	-93.968	0.124	0.035
-620.376	179.834	-0.280	0.417
-619.361	-11.059	0.205	-0.137
-618.346	-200.000	0.008	0.165
-617.332	-148.168	0.158	0.013
-616.317	56.171	-0.188	-0.185
-615.303	-90.130	-0.192	0.057
-614.288	290.604	0.073	-0.134
-613.273	-23.822	0.068	0.042
-612.259	244.444	-0.084	-0.143
-611.244	46.698	0.150	-0.141
-610.230	-85.659	-0.138	0.044
-609.215	-162.846	-0.062	-0.003
-608.201	405.376	0.059	-0.126
-607.186	42.294	-0.140	0.129
-606.171	210.301	0.205	0.328
-605.157	203.007	0.202	0.317
-604.142	31.985	0.107	0.093
-603.128	800.000	0.079	0.237
-602.113	-128.270	0.257	-0.037
-601.098	45.172	-0.445	-0.417
-600.084	228.260	0.064	-0.106
-599.069	-98.998	-0.111	0.029
-598.055	-178.863	-0.268	-0.006
-597.040	349.643	0.133	0.267
-596.025	-200.000	0.007	0.058
-595.011	397.272	0.070	0.149
-593.996	-21.626	0.019	-0.012
-592.982	-96.613	-0.109	-0.029
-591.967	-182.882	-0.282	-0.005
-590.952	20.615	-0.282	-0.232
-589.938	343.565	0.196	-0.389
-588.923	-139.203	0.168	-0.018
-587.909	-39.071	-0.137	-0.073
-586.894	14.265	0.220	0.174
-585.879	763.119	0.081	-0.224
-584.865	-115.663	0.286	0.054
-583.850	-20.627	-0.147	-0.091
-582.836	-200.000	0.070	-0.316
-581.821	-189.743	-0.111	-0.001
-580.806	-200.000	-0.009	-0.243
-579.792	17.295	0.160	0.129
-578.777	800.000	0.037	0.146
-577.763	-200.000	0.003	0.057
-576.748	-139.103	-0.344	0.038
-575.733	800.000	-0.082	0.303
-574.719	625.445	-0.231	0.590
-573.704	-200.000	0.012	-0.086
-572.690	-200.000	-0.013	0.105
-571.675	-200.000	-0.003	-0.022
-570.661	-200.000	0.031	-0.252
-569.646	329.503	0.081	0.158
-568.631	127.165	0.201	0.259
-567.617	587.577	0.053	-0.133
-566.602	4.134	-0.289	0.214
-565.588	800.000	0.105	0.325
-564.573	-4.683	-0.088	-0.062
-563.558	-29.789	0.291	0.168
-562.544	800.000	0.148	0.465
-561.529	84.364	-0.089	-0.098
-560.515	-132.717	-0.054	0.007
-559.500	-171.781	0.190	-0.006
-558.485	-200.000	-0.007	0.110
-557.471	331.349	-0.081	-0.158
-556.456	-200.000	0.003	-0.288
-555.442	280.878	0.088	-0.160
-554.427	-55.665	-0.288	-0.131
-553.412	202.850	0.241	-0.377
-552.398	54.146	-0.193	0.188
-551.383	-200.000	-0.007	0.253
-550.369	-119.267	-0.335	0.059
-549.354	467.974	0.199	0.452
-548.339	-200.000	-0.024	-0.115
-547.325	154.279	-0.070	0.098
-546.310	-4.483	0.296	-0.207
-545.296	-127.961	0.238	0.035
-544.281	-79.945	-0.084	-0.029
-543.266	-200.000	-0.032	0.229
-542.252	25.452	-0.179	0.151
-541.237	-50.200	-0.477	0.228
-540.223	12.563	0.180	-0.141
-539.208	787.643	-0.102	-0.284
-538.193	639.239	-0.032	-0.083
-537.179	49.728	0.128	-0.122
-536.164	740.612	-0.030	0.082
-535.150	125.507	0.281	0.359
-534.135	213.761	-0.046	0.073
-533.121	32.988	0.099	-0.086
-532.106	-73.077	-0.299	-0.111
-531.091	800.000	0.011	-0.038
-530.077	-131.394	0.121	-0.016
-529.062	-123.374	-0.123	-0.020
-528.048	134.218	-0.003	0.004
-527.033	6.343	0.129	-0.097
-526.018	-51.120	0.106	0.050
-525.004	-50.883	0.103	-0.049
-523.989	333.051	-0.076	-0.149
-522.975	-111.183	-0.271	-0.056
-521.960	-200.000	-0.019	0.137
-520.945	800.000	0.068	-0.227
-519.931	-137.874	-0.301	-0.034
-518.916	463.637	0.092	-0.208
-517.902	-57.735	0.167	-0.074
-516.887	-50.320	0.193	0.092
-515.872	-112.706	-0.092	0.019
-514.858	23.803	-0.121	0.101
-513.843	114.009	0.117	0.144
-512.829	-4.092	0.323	-0.226
-511.814	27.945	0.258	0.220
-510.799	-75.010	-0.195	0.071
-509.785	13.920	-0.110	-0.086
-508.770	81.290	-0.095	-0.104
-507.756	566.515	0.057	0.140
-506.741	99.615	0.170	-0.199
-505.726	-4.292	-0.022	-0.015
-504.712	66.788	-0.264	0.272
-503.697	-179.165	0.226	0.005
-502.683	7.719	-0.200	-0.151
-501.668	-200.000	-0.016	-0.171
-500.653	-200.000	0.021	-0.285
-499.639	252.494	-0.078	-0.135
-498.624	-27.807	-0.197	-0.115
-497.610	46.029	0.124	0.116
-496.595	23.765	0.357	0.297
-495.581	-167.740	-0.198	0.008
-494.566	800.000	0.073	-0.287
-493.551	-27.239	0.064	0.038
-492.537	299.479	-0.240	-0.447
-491.522	170.909	0.187	-0.270
-490.508	-32.013	-0.190	0.108
-489.493	-200.000	0.013	0.123
-488.478	-50.558	-0.166	-0.079
-487.464	-200.000	0.025	-0.139
-486.449	-8.685	-0.172	0.117
-485.435	-104.781	-0.083	-0.019
-484.420	27.516	-0.084	-0.072
-483.405	-87.580	0.182	-0.056
-482.391	321.811	0.169	-0.325
-481.376	-24.846	0.341	0.205
-480.362	67.631	0.028	0.029
-479.347	-72.438	-0.437	-0.163
-478.332	-116.997	-0.249	0.046
-477.318	12.094	0.279	-0.217
-476.303	-16.940	-0.102	0.065
-475.289	-14.924	-0.183	-0.118
-474.274	800.000	-0.087	-0.334
-473.259	-112.688	0.269	-0.054
-472.245	-200.000	-0.020	-0.328
-471.230	420.987	0.041	-0.089
-470.216	-200.000	0.035	0.331
-469.201	-57.509	-0.349	0.155
-468.186	800.000	-0.080	0.289
-467.172	59.164	-0.062	-0.061
-466.157	-76.366	-0.248	0.088
-465.143	251.988	-0.065	0.111
-464.128	98.243	-0.256	0.298
-463.113	84.734	-0.319	-0.353
-462.099	-49.920	-0.389	-0.186
-461.084	-115.254	0.165	0.031
-460.070	329.276	0.083	-0.161
-459.055	-200.000	-0.019	-0.099
-458.040	106.782	0.171	0.204
-457.026	260.948	0.168	-0.293
-456.011	800.000	0.098	-0.278
-454.997	-121.583	-0.435	-0.073
-453.982	-105.956	0.340	-0.077
-452.968	196.302	-0.127	-0.195
-451.953	-92.086	-0.373	0.107
-450.938	-135.841	-0.410	-0.049
-449.924	48.197	-0.098	-0.093
-448.909	736.924	0.145	-0.393
-447.895	358.342	0.115	0.231
-446.880	-116.071	-0.301	-0.056
-445.865	406.871	0.057	-0.121
-444.851	-57.421	-0.551	-0.244
-443.836	800.000	-0.073	0.250
-442.822	92.490	0.086	0.098
-441.807	-130.269	-0.394	-0.054
-440.792	345.808	0.057	0.112
-439.778	15.575	-0.180	-0.143
-438.763	52.542	-0.062	-0.060
-437.749	-200.000	-0.005	0.216
-436.734	148.989	-0.167	0.228
-435.719	103.828	-0.213	0.252
-434.705	232.961	-0.140	-0.232
-433.690	86.843	0.162	0.180
-432.676	313.133	0.045	0.085
-431.661	341.513	0.119	0.235
-430.646	476.303	0.101	0.230
-429.632	226.008	0.039	0.065
-428.617	158.685	0.186	0.261
-427.603	83.544	-0.095	-0.105
-426.588	-150.976	0.046	0.003
-425.573	-200.000	-0.001	0.010
-424.559	-89.301	0.112	0.033
-423.544	247.743	0.090	0.153
-422.530	-182.073	0.302	-0.006
-421.515	-142.507	0.050	-0.005
-420.500	-200.000	0.012	-0.197
-419.486	117.566	0.284	-0.352
-418.471	-151.220	-0.153	-0.012
-417.457	265.760	0.153	-0.269
-416.442	-23.881	0.148	-0.089
-415.428	102.830	-0.012	0.014
-414.413	-38.177	-0.264	0.141
-413.398	-172.601	0.199	-0.006
-412.384	134.208	-0.115	0.150
-411.369	471.856	0.076	-0.172
-410.355	10.106	0.060	0.046
-409.340	23.075	0.216	-0.178
-408.325	132.709	-0.109	-0.142
-407.311	800.000	-0.074	0.275
-406.296	30.396	-0.181	-0.156
-405.282	228.934	-0.099	0.162
-404.267	800.000	-0.070	0.240
-403.252	-46.625	-0.195	-0.096
-402.238	-61.460	-0.277	-0.117
-401.223	99.487	0.154	-0.179
-400.209	-156.067	0.366	0.023
-399.194	-77.805	-0.372	-0.129
-398.179	800.000	-0.066	-0.194
-397.165	-200.000	-0.015	0.295
-396.150	1.399	-0.305	0.221
-395.136	59.850	0.067	-0.067
-394.121	-125.140	-0.351	0.054
-393.106	7.651	-0.024	-0.018
-392.092	-150.461	-0.224	-0.017
-391.077	-44.359	-0.027	-0.014
-390.063	178.257	0.038	-0.056
-389.048	37.079	0.337	-0.301
-388.033	637.879	-0.138	-0.354
-387.019	-98.754	0.481	-0.123
-386.004	-143.574	0.316	0.030
-384.990	-65.902	-0.241	-0.097
-383.975	-200.000	0.009	-0.202
-382.960	175.142	0.064	-0.094
-381.946	-82.741	0.050	0.016
-380.931	458.580	0.103	0.230
-379.917	-53.137	0.143	-0.066
-378.902	148.168	-0.157	0.213
-377.888	161.608	0.335	0.472
-376.873	189.926	-0.131	-0.198
-375.858	-55.448	-0.198	-0.089
-374.844	392.733	0.136	0.284
-373.829	-12.767	-0.403	-0.264
-372.815	-6.816	-0.148	0.101
-371.800	-142.379	-0.045	0.005
-370.785	-180.219	0.208	-0.004
-369.771	376.119	0.086	0.176
-368.756	362.642	-0.053	-0.107
-367.742	222.812	-0.126	0.203
-366.727	800.000	0.034	-0.148
-365.712	-140.113	0.382	-0.040
-364.698	53.564	0.106	0.102
-363.683	18.905	-0.137	0.111
-362.669	268.549	0.180	0.317
-361.654	-127.471	-0.202	-0.029
-360.639	-200.000	0.016	0.295
-359.625	-183.306	-0.197	0.003
-358.610	800.000	0.053	-0.223
-357.596	98.436	-0.267	-0.310
-356.581	-200.000	0.057	-0.279
-355.566	-200.000	-0.024	-0.229
-354.552	188.321	0.068	0.102
-353.537	-200.000	0.017	-0.228
-352.523	62.495	0.269	0.271
-351.508	800.000	-0.080	0.299
-350.493	-106.064	-0.239	0.054
-349.479	-200.000	-0.004	0.252
-348.464	45.321	0.218	0.202
-347.450	106.825	-0.105	0.126
-346.435	-200.000	0.001	0.199
-345.420	800.000	0.056	-0.203
-344.406	-69.924	0.016	0.006
-343.391	800.000	0.108	-0.322
-342.377	287.006	0.234	-0.424
-341.362	800.000	0.035	-0.152
-340.348	-107.124	-0.179	0.040
-339.333	-200.000	0.021	-0.182
-338.318	800.000	-0.090	-0.275
-337.304	-50.520	-0.185	-0.087
-336.289	35.298	0.064	0.056
-335.275	682.637	-0.108	-0.283
-334.260	-135.459	0.224	0.027
-333.245	65.516	0.291	0.296
-332.231	-55.802	-0.044	0.020
-331.216	311.552	-0.147	0.276
-330.202	-200.000	-0.061	0.440
-329.187	677.450	0.007	0.019
-328.172	-0.839	0.436	0.310
-327.158	331.821	0.063	-0.121
-326.143	-124.354	-0.104	0.016
-325.129	204.342	-0.038	-0.059
-324.114	-76.096	-0.137	0.049
-323.099	-2.418	0.181	0.127
-322.085	169.204	-0.062	0.089
-321.070	-75.336	-0.211	0.076
-320.056	-61.647	0.092	-0.039
-319.041	39.310	0.272	-0.244
-318.026	792.095	-0.053	-0.147
-317.012	230.553	-0.166	-0.272
-315.997	800.000	-0.061	-0.189
-314.983	563.194	0.057	-0.138
-313.968	424.368	-0.085	-0.183
-312.953	188.481	-0.024	0.037
-311.939	485.485	0.042	-0.096
-310.924	402.045	0.010	0.022
-309.910	-157.643	-0.325	0.019
-308.895	268.962	0.158	-0.278
-307.880	361.568	0.015	-0.030
-306.866	-181.015	-0.167	-0.003
-305.851	-200.000	-0.009	-0.344
-304.837	112.810	0.139	-0.169
-303.822	-200.000	0.004	0.025
-302.807	-112.750	0.097	0.019
-301.793	-27.725	0.092	0.053
-300.778	92.602	0.124	-0.141
-299.764	295.412	0.082	0.150
-298.749	-200.000	-0.007	-0.054
-297.735	137.761	0.100	0.131
-296.720	552.974	0.131	-0.316
-295.705	37.618	0.224	0.200
-294.691	-44.173	-0.148	0.074
-293.676	-131.031	0.243	-0.033
-292.662	239.459	0.080	0.134
-291.647	649.184	0.073	0.188
-290.632	-200.000	0.005	-0.108
-289.618	-200.000	0.026	0.134
-288.603	519.526	-0.052	-0.122
-287.589	800.000	0.115	-0.348
-286.574	629.169	0.058	-0.147
-285.559	-156.758	-0.236	0.015
-284.545	-4.294	-0.070	-0.049
-283.530	-200.000	-0.040	-0.299
-282.516	-43.235	-0.336	-0.171
-281.501	153.915	0.037	0.051
-280.486	18.653	-0.243	0.195
-279.472	183.904	0.131	-0.194
-278.457	101.439	0.047	-0.055
-277.443	13.500	0.089	-0.069
-276.428	-180.318	-0.231	-0.005
-275.413	-95.160	-0.231	0.062
-274.399	-7.672	-0.145	-0.098
-273.384	800.000	-0.033	0.115
-272.370	608.828	-0.047	0.118
-271.355	27.058	0.116	0.098
-270.340	-100.640	0.276	0.068
-269.326	206.534	-0.048	0.075
-268.311	-14.196	0.188	-0.121
-267.297	-200.000	0.352	0.000
-266.282	-59.434	0.198	0.085
-265.267	131.490	-0.084	0.108
-264.253	-133.406	0.036	0.005
-263.238	25.294	0.296	-0.247
-262.224	48.189	-0.153	0.143
-261.209	-144.253	-0.158	-0.015
-260.195	155.306	0.333	-0.459
-259.180	-69.504	-0.222	0.085
-258.165	-161.516	0.284	-0.015
-257.151	2.382	0.172	-0.125
-256.136	-37.409	-0.125	0.067
-255.122	-51.908	-0.472	0.220
-254.107	-200.000	0.048	0.422
-253.092	-24.466	0.082	-0.049
-252.078	-38.528	0.327	-0.173
-251.063	789.770	-0.021	0.059
-250.049	110.270	-0.214	0.258
-249.034	-200.000	-0.042	0.199
-248.019	800.000	-0.027	-0.090
-247.005	398.159	-0.167	-0.350
-245.990	800.000	-0.003	-0.011
-244.976	-154.701	-0.263	-0.017
-243.961	-200.000	-0.012	0.114
-242.946	-200.000	0.002	0.031
-241.932	55.200	0.116	-0.113
-240.917	4.724	0.128	0.094
-239.903	-105.306	0.185	-0.042
-238.888	-200.000	-0.063	0.302
-237.873	149.397	0.197	0.267
-236.859	200.695	-0.095	-0.147
-235.844	32.700	0.216	0.187
-234.830	220.319	0.178	-0.285
-233.815	-200.000	-0.019	0.136
-232.800	-119.764	-0.248	-0.043
-231.786	-55.176	0.236	0.106
-230.771	-4.240	-0.026	-0.018
-229.757	26.778	0.107	-0.089
-228.742	125.165	0.090	-0.113
-227.727	321.185	0.020	-0.038
-226.713	99.623	0.166	0.192
-225.698	-104.767	0.111	0.026
-224.684	-104.042	-0.482	-0.112
-223.669	-15.733	-0.263	0.168
-222.655	800.000	0.028	-0.122
-221.640	248.277	-0.123	0.208
-220.625	404.518	-0.021	-0.044
-219.611	-200.000	-0.019	0.089
-218.596	58.384	0.239	-0.235
-217.582	-200.000	0.016	-0.099
-216.567	-200.000	0.038	0.296
-215.552	-95.678	0.331	0.089
-214.538	92.429	-0.173	-0.195
-213.523	327.278	-0.072	0.137
-212.509	-200.000	0.091	0.409
-211.494	800.000	0.108	0.307
-210.479	-113.444	-0.143	-0.028
-209.465	64.161	0.179	0.180
-208.450	-104.512	0.072	0.017
-207.436	99.493	0.144	0.167
-206.421	341.034	-0.122	-0.238
-205.406	161.582	0.121	0.169
-204.392	-109.829	0.322	-0.068
-203.377	-106.524	0.048	-0.011
-202.363	72.100	0.134	-0.139
-201.348	-142.075	0.318	0.032
-200.333	-118.629	0.251	0.044
-199.319	-69.926	-0.175	-0.067
-198.304	800.000	0.068	-0.244
-197.290	-200.000	-0.019	0.264
-196.275	255.101	-0.192	0.328
-195.260	-63.054	0.184	-0.076
-194.246	22.428	0.284	0.232
-193.231	53.406	-0.165	0.158
-192.217	435.365	0.155	-0.337
-191.202	-26.769	0.384	-0.225
-190.187	800.000	-0.087	-0.337
-189.173	704.079	-0.082	0.217
-188.158	-154.201	0.330	0.022
-187.144	367.183	-0.055	0.111
-186.129	58.212	-0.279	0.274
-185.114	-119.650	0.215	0.037
-184.100	-200.000	0.020	0.113
-183.085	-17.269	-0.104	0.065
-182.071	10.528	0.044	-0.033
-181.056	264.011	0.023	0.041
-180.042	-166.055	0.114	-0.005
-179.027	-115.561	-0.056	0.011
-178.012	-200.000	0.014	0.063
-176.998	800.000	0.079	0.267
-175.983	-200.000	-0.052	0.272
-174.969	-200.000	-0.013	0.142
-173.954	412.562	-0.083	-0.176
-172.939	-63.993	-0.505	-0.206
-171.925	-200.000	-0.013	0.159
-170.910	-53.323	-0.119	-0.054
-169.896	-129.676	0.378	-0.052
-168.881	-74.551	0.147	0.053
-167.866	-75.793	-0.454	0.161
-166.852	-200.000	0.005	0.073
-165.837	-43.730	-0.202	0.101
-164.823	-163.700	-0.343	-0.016
-163.808	258.599	0.135	-0.233
-162.793	-15.416	0.138	-0.088
-161.779	14.966	-0.179	0.140
-160.764	-79.025	0.281	-0.095
-159.750	128.448	0.091	0.116
-158.735	-200.000	-0.027	-0.154
-157.720	-168.171	-0.294	-0.011
-156.706	-148.178	0.391	0.032
-155.691	800.000	0.074	0.219
-154.677	-177.023	0.152	-0.004
-153.662	-142.735	-0.505	0.049
-152.647	3.836	0.166	-0.121
-151.633	-104.747	0.073	-0.017
-150.618	271.495	-0.134	-0.236
-149.604	-183.858	-0.147	-0.002
-148.589	800.000	0.121	-0.360
-147.574	425.544	-0.058	0.124
-146.560	19.236	-0.066	0.053
-145.545	-118.681	-0.257	0.045
-144.531	701.894	0.079	-0.207
-143.516	-200.000	0.014	0.221
-142.502	-79.001	0.086	0.029
-141.487	51.065	0.195	-0.184
-140.472	335.022	0.078	0.150
-139.458	294.814	-0.027	-0.049
-138.443	4.148	0.379	0.276
-137.429	-3.955	0.164	0.114
-136.414	-200.000	0.014	0.076
-135.399	14.636	-0.070	-0.054
-134.385	544.110	0.043	-0.102
-133.370	-91.538	0.158	0.045
-132.356	-46.183	-0.201	0.099
-131.341	214.406	0.131	-0.207
-130.326	-200.000	0.009	0.154
-129.312	-8.553	0.291	0.195
-128.297	-59.351	-0.146	0.063
-127.283	-52.477	0.261	0.120
-126.268	74.780	0.066	-0.069
-125.253	-133.081	0.294	0.037
-124.239	231.613	0.160	0.261
-123.224	-86.113	0.192	0.059
-122.210	147.217	-0.166	-0.222
-121.195	65.821	0.245	-0.248
