DTS Sentinel unit serial number:	SN413079Multiplexer serial number:	ORYXHardware model number:	OX4-SRSoftware version number:	ORYX F/W v4.00 Oryx Data Collector v3.7.2.0data status	okinstallation	princeton_trtdifferential loss correction	single-endedforward channel	channel 4reverse channel	N/Adate	2019/09/15time	23:57:35forward acquisition time	60.00reverse acquisition time	0.00gamma	496.2192k internal	0.2323k external	0.2323temperature offset calibration	0.9961default loss term (dB/km)	0.3790temperature slope calibration	1.0000multiplexer offset coefficient	1.0000multiplexer slope coefficient	1.0000fibre end	0.00T internal ref (°C)	27.87T ext. ref 1 (°C)	9.35T ext. ref 2 (°C)	21.84length (m)	temperature (°C)	Stokes	anti-Stokes-747.200	-200.000	0.029	0.213
-746.185	-111.425	-0.077	0.016
-745.171	-76.990	-0.204	0.072
-744.156	-54.010	-0.233	0.107
-743.142	-200.000	-0.034	-0.217
-742.127	-200.000	-0.018	0.192
-741.112	-78.263	0.325	-0.113
-740.098	-51.873	-0.228	-0.107
-739.083	-60.840	-0.137	-0.059
-738.069	-200.000	0.042	0.239
-737.054	488.568	0.044	-0.101
-736.039	-200.000	-0.020	-0.292
-735.025	-20.915	0.025	-0.016
-734.010	-200.000	0.042	0.225
-732.996	51.106	-0.164	0.157
-731.981	800.000	-0.023	0.079
-730.966	146.180	0.185	0.250
-729.952	-97.846	-0.474	-0.124
-728.937	328.854	-0.127	-0.247
-727.923	800.000	-0.097	-0.273
-726.908	788.933	0.094	-0.261
-725.894	157.775	-0.198	0.277
-724.879	777.234	0.130	-0.359
-723.864	136.489	0.053	0.070
-722.850	205.035	-0.262	-0.410
-721.835	73.155	0.098	-0.103
-720.821	-200.000	-0.015	-0.193
-719.806	-42.305	-0.441	0.227
-718.791	271.951	0.106	0.188
-717.777	-200.000	-0.033	0.225
-716.762	-200.000	0.010	0.096
-715.748	63.632	0.110	0.111
-714.733	-18.101	-0.101	-0.064
-713.718	-97.942	-0.248	-0.065
-712.704	-109.831	0.336	-0.071
-711.689	-101.916	-0.136	0.033
-710.675	701.054	-0.026	0.070
-709.660	101.065	-0.048	0.056
-708.645	40.773	-0.437	-0.397
-707.631	306.788	-0.149	-0.279
-706.616	72.977	-0.187	-0.197
-705.602	-149.501	0.111	-0.009
-704.587	74.367	0.035	-0.037
-703.572	350.122	-0.024	-0.048
-702.558	501.916	0.106	0.246
-701.543	-55.255	-0.442	0.200
-700.529	-109.911	0.389	0.082
-699.514	49.598	-0.269	-0.256
-698.499	637.270	0.219	-0.560
-697.485	-113.731	0.186	0.036
-696.470	800.000	0.121	-0.426
-695.456	-200.000	-0.030	0.170
-694.441	-191.729	0.364	-0.004
-693.426	246.540	-0.188	0.320
-692.412	-130.434	0.268	0.037
-691.397	-200.000	-0.022	0.222
-690.383	-200.000	0.008	0.114
-689.368	-105.477	0.298	0.068
-688.354	156.964	0.108	-0.150
-687.339	-19.506	-0.273	-0.171
-686.324	-29.513	-0.213	0.123
-685.310	-137.324	0.104	0.012
-684.295	11.492	-0.147	-0.114
-683.281	-55.868	-0.079	0.035
-682.266	-200.000	0.017	0.346
-681.251	3.351	-0.180	-0.132
-680.237	58.208	-0.226	-0.223
-679.222	495.286	-0.092	0.212
-678.208	-200.000	0.023	0.335
-677.193	-92.597	0.070	0.020
-676.178	217.659	-0.024	-0.038
-675.164	-200.000	0.021	0.405
-674.149	54.668	-0.228	0.222
-673.135	-200.000	0.032	-0.186
-672.120	382.555	0.077	-0.159
-671.105	-150.371	-0.409	0.032
-670.091	292.855	-0.073	0.134
-669.076	-200.000	0.055	0.312
-668.062	-200.000	0.024	0.262
-667.047	-139.760	0.266	-0.028
-666.032	-200.000	0.036	-0.240
-665.018	24.095	0.134	-0.111
-664.003	78.481	-0.137	-0.147
-662.989	-200.000	-0.027	-0.188
-661.974	-81.708	-0.133	-0.044
-660.959	-146.044	0.042	0.004
-659.945	45.601	0.034	-0.031
-658.930	-13.011	-0.256	-0.167
-657.916	-102.085	0.369	-0.090
-656.901	44.644	-0.257	0.238
-655.886	800.000	0.029	-0.093
-654.872	-86.119	0.274	-0.085
-653.857	28.833	0.192	0.164
-652.843	199.979	-0.061	-0.095
-651.828	325.341	-0.084	-0.161
-650.814	-200.000	-0.080	-0.514
-649.799	-114.938	0.111	0.021
-648.784	160.129	-0.152	0.213
-647.770	92.062	-0.109	-0.124
-646.755	344.526	-0.156	0.307
-645.741	-101.783	0.167	-0.041
-644.726	-65.284	0.229	-0.093
-643.711	296.559	0.155	-0.287
-642.697	-40.906	-0.139	-0.072
-641.682	122.491	0.146	0.183
-640.668	330.482	0.062	-0.120
-639.653	-66.482	-0.019	0.007
-638.638	193.519	-0.171	0.261
-637.624	-121.386	0.366	-0.061
-636.609	296.684	-0.040	-0.074
-635.595	-89.139	-0.157	-0.047
-634.580	-108.442	0.207	-0.045
-633.565	-200.000	-0.039	0.184
-632.551	0.823	-0.305	0.220
-631.536	37.743	-0.207	-0.185
-630.522	800.000	-0.086	0.273
-629.507	-200.000	-0.002	0.077
-628.492	-31.172	0.083	0.047
-627.478	-200.000	-0.011	0.118
-626.463	-83.476	-0.547	-0.176
-625.449	-136.523	-0.335	0.039
-624.434	-15.366	0.393	-0.253
-623.419	30.679	-0.182	-0.156
-622.405	-42.531	0.183	-0.094
-621.390	-7.839	-0.097	0.066
-620.376	-114.104	-0.270	-0.052
-619.361	88.019	-0.160	0.179
-618.346	287.030	0.049	-0.090
-617.332	-200.000	-0.040	0.310
-616.317	-30.072	0.287	-0.164
-615.303	-19.700	-0.291	0.181
-614.288	-53.297	-0.105	0.048
-613.273	214.691	0.036	-0.057
-612.259	-11.740	-0.066	-0.044
-611.244	324.922	0.079	-0.152
-610.230	99.361	-0.030	0.035
-609.215	165.720	-0.167	-0.238
-608.201	-200.000	-0.015	-0.181
-607.186	259.900	0.063	0.109
-606.171	255.545	-0.017	-0.029
-605.157	-113.700	-0.500	0.098
-604.142	165.076	-0.139	0.198
-603.128	-95.920	-0.039	0.010
-602.113	216.453	-0.151	0.242
-601.098	-2.517	0.010	-0.007
-600.084	-81.170	0.451	0.150
-599.069	261.266	0.140	0.243
-598.055	1.545	-0.117	-0.084
-597.040	0.376	0.391	-0.280
-596.025	-64.501	-0.072	-0.029
-595.011	-200.000	0.022	-0.187
-593.996	-119.955	-0.191	-0.033
-592.982	41.060	0.083	0.075
-591.967	-168.229	0.324	-0.013
-590.952	-54.510	-0.196	-0.089
-589.938	-77.805	0.189	0.066
-588.923	419.388	0.102	0.220
-587.909	-145.123	-0.273	-0.025
-586.894	289.364	0.124	-0.226
-585.879	322.618	0.081	0.155
-584.865	-8.377	-0.324	-0.219
-583.850	298.768	-0.142	0.263
-582.836	-134.868	-0.188	-0.023
-581.821	800.000	-0.118	0.342
-580.806	-152.202	0.168	-0.012
-579.792	800.000	0.024	-0.104
-578.777	-200.000	0.043	0.231
-577.763	104.704	-0.334	-0.395
-576.748	-200.000	-0.000	0.005
-575.733	-48.163	0.099	-0.048
-574.719	-57.316	0.207	0.091
-573.704	-171.244	-0.273	0.009
-572.690	-200.000	-0.059	-0.490
-571.675	187.934	0.192	-0.288
-570.661	-130.407	-0.424	0.058
-569.646	800.000	-0.046	-0.169
-568.631	800.000	-0.027	-0.109
-567.617	7.867	0.101	-0.076
-566.602	-200.000	0.011	0.135
-565.588	772.498	-0.038	-0.103
-564.573	40.246	0.030	-0.027
-563.558	800.000	-0.109	-0.316
-562.544	-75.190	0.126	-0.045
-561.529	100.470	-0.199	0.232
-560.515	-28.297	-0.296	0.171
-559.500	-119.053	0.207	0.036
-558.485	-87.904	-0.325	-0.098
-557.471	494.105	0.067	-0.155
-556.456	-200.000	0.013	0.143
-555.442	-72.421	0.184	0.068
-554.427	-6.052	-0.123	0.084
-553.412	-94.816	0.229	0.062
-552.398	-200.000	0.015	0.067
-551.383	-200.000	0.005	-0.125
-550.369	800.000	0.031	0.110
-549.354	-50.639	-0.292	0.138
-548.339	800.000	0.066	-0.209
-547.325	98.247	-0.179	-0.206
-546.310	-118.118	0.110	-0.020
-545.296	47.766	-0.156	-0.146
-544.281	89.907	0.058	-0.065
-543.266	-46.386	-0.079	0.039
-542.252	800.000	0.086	0.319
-541.237	-133.073	-0.129	-0.016
-540.223	51.012	0.204	-0.194
-539.208	-100.243	-0.251	-0.063
-538.193	-160.312	-0.128	0.007
-537.179	360.203	0.085	0.170
-536.164	-49.227	0.102	0.049
-535.150	-90.747	0.236	-0.068
-534.135	-99.102	0.166	-0.042
-533.121	-40.509	0.448	-0.233
-532.106	-116.092	0.192	0.036
-531.091	-113.415	-0.159	-0.031
-530.077	61.761	0.345	-0.345
-529.062	-30.262	0.061	0.035
-528.048	79.725	0.128	0.137
-527.033	369.244	0.099	-0.200
-526.018	-22.804	-0.276	-0.167
-525.004	528.823	0.112	-0.264
-523.989	131.249	-0.080	-0.102
-522.975	-75.681	-0.127	-0.045
-521.960	116.811	0.104	-0.127
-520.945	-114.722	-0.206	0.039
-519.931	-6.776	0.336	-0.229
-518.916	276.615	0.024	-0.043
-517.902	-62.942	-0.183	-0.076
-516.887	-125.856	-0.175	0.026
-515.872	-21.149	0.174	-0.106
-514.858	199.521	0.124	0.190
-513.843	-63.675	-0.238	-0.098
-512.829	-186.111	-0.373	-0.005
-511.814	-103.811	0.155	-0.036
-510.799	101.680	0.116	-0.135
-509.785	-125.407	-0.279	-0.043
-508.770	-78.715	-0.214	-0.073
-507.756	-61.478	-0.135	0.057
-506.741	-125.352	0.483	0.074
-505.726	-119.829	0.128	-0.022
-504.712	-109.462	0.214	0.045
-503.697	-58.006	0.211	0.092
-502.683	1.845	-0.370	0.267
-501.668	32.984	-0.177	0.153
-500.653	-200.000	0.021	0.250
-499.639	109.185	0.165	-0.198
-498.624	800.000	-0.070	0.227
-497.610	-200.000	-0.013	0.151
-496.595	180.910	-0.197	0.290
-495.581	-130.418	-0.360	-0.049
-494.566	197.626	-0.067	0.102
-493.551	-15.329	-0.188	0.120
-492.537	94.427	0.126	-0.143
-491.522	413.877	0.034	-0.073
-490.508	488.663	0.035	-0.081
-489.493	-20.337	0.244	0.150
-488.478	-200.000	-0.037	0.184
-487.464	-200.000	0.041	0.188
-486.449	45.397	0.120	0.110
-485.435	-84.328	0.265	0.084
-484.420	800.000	-0.038	-0.148
-483.405	-62.703	-0.366	-0.152
-482.391	-85.437	-0.362	-0.113
-481.376	-193.900	-0.293	0.002
-480.362	-144.406	-0.205	0.019
-479.347	83.780	0.098	0.107
-478.332	99.472	-0.092	-0.107
-477.318	-200.000	0.000	0.086
-476.303	180.183	-0.103	-0.151
-475.289	132.850	0.140	0.180
-474.274	-69.032	-0.151	-0.058
-473.259	-13.455	0.101	0.065
-472.245	-17.831	0.365	-0.229
-471.230	-200.000	0.030	0.224
-470.216	35.670	0.218	-0.192
-469.201	-200.000	0.020	-0.333
-468.186	-33.264	0.372	-0.206
-467.172	-62.389	-0.103	0.043
-466.157	293.847	-0.097	-0.178
-465.143	499.229	0.017	-0.040
-464.128	-200.000	0.063	-0.413
-463.113	99.556	0.124	0.143
-462.099	158.682	0.002	0.003
-461.084	91.646	-0.160	-0.180
-460.070	-80.277	0.265	0.089
-459.055	-62.347	-0.316	-0.132
-458.040	165.800	-0.134	0.189
-457.026	408.508	-0.080	-0.170
-456.011	-162.822	0.216	-0.011
-454.997	800.000	0.092	0.324
-453.982	615.687	-0.103	-0.258
-452.968	800.000	-0.010	-0.035
-451.953	197.329	-0.213	0.324
-450.938	-200.000	-0.024	-0.211
-449.924	-200.000	-0.014	-0.128
-448.909	-200.000	-0.031	0.136
-447.895	-168.883	-0.186	0.007
-446.880	55.645	0.126	-0.122
-445.865	-164.046	-0.249	-0.012
-444.851	6.491	-0.329	0.244
-443.836	240.941	-0.166	0.277
-442.822	800.000	0.013	-0.039
-441.807	322.401	0.123	0.233
-440.792	-200.000	0.017	0.178
-439.778	800.000	0.056	-0.159
-438.763	-200.000	0.006	0.124
-437.749	-21.263	-0.322	-0.196
-436.734	-200.000	-0.029	-0.400
-435.719	-147.484	0.051	-0.004
-434.705	800.000	-0.056	-0.203
-433.690	-200.000	-0.013	0.280
-432.676	387.804	-0.150	-0.309
-431.661	800.000	0.080	-0.304
-430.646	7.636	-0.133	-0.100
-429.632	-200.000	0.008	0.065
-428.617	62.239	-0.067	0.067
-427.603	-89.441	-0.047	-0.014
-426.588	454.136	-0.046	0.102
-425.573	123.769	-0.180	0.225
-424.559	210.718	0.064	0.100
-423.544	-200.000	-0.104	0.495
-422.530	-89.067	-0.226	-0.067
-421.515	-31.682	0.149	-0.083
-420.500	61.411	0.088	-0.088
-419.486	-106.258	0.119	-0.027
-418.471	-37.707	-0.204	0.108
-417.457	-200.000	0.019	0.141
-416.442	-87.036	-0.329	0.100
-415.428	-126.228	0.208	-0.031
-414.413	-92.402	0.174	0.049
-413.398	123.019	-0.149	-0.186
-412.384	-200.000	0.012	-0.235
-411.369	209.729	0.215	-0.335
-410.355	56.379	-0.392	0.380
-409.340	-156.985	0.161	0.010
-408.325	112.351	0.251	-0.302
-407.311	-99.598	-0.218	-0.055
-406.296	-200.000	-0.004	-0.197
-405.282	800.000	0.013	0.041
-404.267	-160.711	-0.217	0.011
-403.252	130.480	0.046	-0.059
-402.238	-200.000	-0.024	-0.123
-401.223	800.000	-0.112	-0.316
-400.209	-54.649	0.133	0.060
-399.194	-200.000	0.038	0.347
-398.179	-62.163	0.114	0.047
-397.165	40.209	0.219	0.196
-396.150	311.526	0.075	0.140
-395.136	220.550	0.076	0.122
-394.121	-15.242	0.195	-0.125
-393.106	-200.000	-0.021	-0.218
-392.092	30.147	-0.232	0.198
-391.077	-200.000	0.080	-0.388
-390.063	-52.526	-0.087	-0.040
-389.048	20.279	0.222	0.179
-388.033	161.109	0.081	0.112
-387.019	-200.000	-0.034	0.273
-386.004	-21.642	-0.290	-0.176
-384.990	-68.793	0.205	-0.079
-383.975	-155.706	0.468	0.030
-382.960	-24.185	0.182	0.108
-381.946	800.000	0.059	-0.166
-380.931	-82.705	-0.044	-0.014
-379.917	73.273	0.064	-0.067
-378.902	392.809	0.231	-0.479
-377.888	-200.000	-0.038	0.252
-376.873	207.439	-0.113	0.176
-375.858	3.354	0.098	0.071
-374.844	87.286	-0.159	-0.175
-373.829	-85.730	0.168	-0.052
-372.815	105.123	-0.063	-0.074
-371.800	-132.438	-0.560	0.072
-370.785	-200.000	-0.186	0.000
-369.771	19.979	0.167	0.134
-368.756	231.844	0.269	0.440
-367.742	110.791	-0.037	-0.044
-366.727	312.557	-0.045	0.084
-365.712	-92.568	-0.283	-0.079
-364.698	292.699	0.137	-0.249
-363.683	-18.709	-0.032	0.020
-362.669	-69.971	-0.140	0.053
-361.654	-170.993	0.072	0.002
-360.639	-200.000	-0.035	-0.242
-359.625	79.855	-0.086	-0.092
-358.610	-130.351	0.216	-0.029
-357.596	66.889	-0.304	-0.308
-356.581	614.674	-0.098	-0.245
-355.566	-200.000	-0.010	0.086
-354.552	-111.458	-0.080	-0.016
-353.537	-176.000	-0.345	-0.009
-352.523	-178.165	0.340	-0.008
-351.508	-77.139	-0.263	-0.091
-350.493	108.580	-0.225	-0.268
-349.479	32.753	-0.312	0.268
-348.464	19.072	0.129	0.103
-347.450	-200.000	0.020	-0.149
-346.435	-157.771	0.332	0.020
-345.420	107.344	0.163	0.193
-344.406	-144.353	-0.157	-0.015
-343.391	-200.000	-0.007	0.092
-342.377	800.000	-0.012	0.047
-341.362	729.414	0.054	0.144
-340.348	15.520	-0.222	0.173
-339.333	1.448	0.166	0.119
-338.318	36.771	-0.125	-0.110
-337.304	-200.000	0.092	-0.452
-336.289	-124.840	-0.069	0.011
-335.275	-171.658	0.314	0.010
-334.260	3.656	0.084	0.061
-333.245	35.415	0.056	-0.049
-332.231	-3.535	-0.290	-0.200
-331.216	-200.000	-0.049	-0.339
-330.202	554.100	0.011	-0.027
-329.187	-105.832	0.070	0.016
-328.172	-200.000	0.008	-0.121
-327.158	519.968	-0.052	-0.121
-326.143	-103.667	0.220	-0.051
-325.129	-181.525	-0.226	0.004
-324.114	-15.371	0.245	-0.155
-323.099	84.089	0.174	0.189
-322.085	-200.000	-0.009	-0.084
-321.070	-101.673	0.253	0.061
-320.056	456.296	-0.076	-0.167
-319.041	220.510	-0.195	-0.311
-318.026	-182.616	-0.326	-0.006
-317.012	76.042	0.012	0.013
-315.997	-146.190	0.338	0.030
-314.983	88.446	-0.117	-0.130
-313.968	-200.000	-0.035	0.228
-312.953	16.747	0.223	-0.176
-311.939	-14.100	-0.211	0.136
-310.924	185.582	-0.038	-0.056
-309.910	-153.721	0.363	0.025
-308.895	-129.543	-0.049	0.007
-307.880	-96.546	0.235	-0.061
-306.866	739.670	-0.243	0.647
-305.851	-173.541	-0.224	0.007
-304.837	800.000	-0.116	0.373
-303.822	800.000	-0.065	-0.213
-302.807	185.626	-0.008	-0.012
-301.793	-49.534	0.184	0.087
-300.778	-7.936	0.040	-0.027
-299.764	800.000	0.045	0.143
-298.749	55.260	-0.151	0.145
-297.735	-200.000	-0.067	-0.416
-296.720	72.896	0.097	-0.101
-295.705	622.502	-0.083	0.208
-294.691	-199.484	0.185	-0.001
-293.676	800.000	0.077	0.230
-292.662	4.741	0.017	-0.012
-291.647	334.153	0.074	0.143
-290.632	-150.769	-0.154	-0.012
-289.618	800.000	0.017	0.050
-288.603	-52.718	-0.129	0.059
-287.589	793.332	-0.068	0.186
-286.574	48.251	-0.195	-0.181
-285.559	800.000	-0.015	-0.055
-284.545	62.865	-0.102	0.101
-283.530	32.215	0.416	0.356
-282.516	133.283	0.184	-0.236
-281.501	-65.521	0.317	0.126
-280.486	43.818	0.040	0.037
-279.472	254.140	-0.131	-0.222
-278.457	0.357	0.187	-0.133
-277.443	11.884	-0.221	0.169
-276.428	-0.124	0.385	0.272
-275.413	-165.393	0.236	0.010
-274.399	243.050	0.164	-0.273
-273.384	271.945	0.115	0.201
-272.370	800.000	-0.050	-0.178
-271.355	-200.000	-0.036	0.386
-270.340	419.756	-0.060	0.127
-269.326	22.135	0.346	-0.280
-268.311	-30.589	0.203	0.114
-267.297	193.345	0.156	0.234
-266.282	188.146	0.101	0.150
-265.267	-87.949	-0.269	0.080
-264.253	40.226	0.225	0.201
-263.238	-12.467	0.288	0.186
-262.224	-49.164	-0.237	-0.112
-261.209	56.068	-0.083	0.080
-260.195	-172.677	0.384	0.012
-259.180	177.357	0.085	0.123
-258.165	-119.073	0.342	-0.059
-257.151	-145.041	-0.226	-0.020
-256.136	-89.806	0.334	-0.097
-255.122	-159.315	-0.256	-0.014
-254.107	-16.920	-0.155	0.097
-253.092	-70.015	0.233	-0.088
-252.078	-91.589	0.265	0.075
-251.063	261.237	-0.215	0.370
-250.049	-200.000	0.002	0.060
-249.034	-29.541	-0.176	-0.100
-248.019	-200.000	-0.012	0.166
-247.005	25.496	0.238	0.196
-245.990	32.119	0.069	-0.059
-244.976	427.951	0.338	-0.723
-243.961	-49.866	0.260	0.122
-242.946	74.940	-0.194	0.203
-241.932	238.454	0.137	0.226
-240.917	43.693	-0.281	-0.255
-239.903	-200.000	-0.027	0.156
-238.888	192.684	-0.249	0.373
-237.873	-182.426	-0.264	0.005
-236.859	12.958	-0.351	-0.269
-235.844	800.000	-0.091	0.312
-234.830	246.770	-0.103	0.173
-233.815	-136.911	0.239	-0.027
-232.800	95.785	-0.183	-0.206
-231.786	37.161	0.235	0.206
-230.771	228.169	0.060	-0.096
-229.757	-43.123	-0.062	-0.031
-228.742	800.000	0.046	0.182
-227.727	-84.641	-0.106	0.033
-226.713	-12.568	0.151	-0.098
-225.698	800.000	-0.079	0.281
-224.684	-76.997	-0.276	-0.095
-223.669	-200.000	0.032	-0.155
-222.655	-200.000	0.049	-0.526
-221.640	-119.745	0.288	-0.049
-220.625	60.989	-0.300	0.295
-219.611	800.000	0.042	0.135
-218.596	800.000	-0.072	0.219
-217.582	383.339	-0.154	0.314
-216.567	60.636	0.125	-0.123
-215.552	202.493	-0.253	-0.387
-214.538	-200.000	0.014	0.167
-213.523	-102.035	0.085	0.020
-212.509	362.241	-0.178	0.353
-211.494	-76.829	-0.166	-0.057
-210.479	-100.408	0.167	-0.041
-209.465	-122.639	0.486	0.078
-208.450	-124.774	-0.081	-0.012
-207.436	800.000	0.015	-0.052
-206.421	800.000	0.104	0.364
-205.406	-109.973	-0.428	0.089
-204.392	470.697	-0.021	-0.047
-203.377	330.573	-0.144	0.274
-202.363	85.845	-0.153	-0.166
-201.348	114.654	-0.100	0.120
-200.333	-96.497	-0.337	-0.088
-199.319	-138.092	0.187	0.021
-198.304	-200.000	-0.040	0.208
-197.290	30.886	-0.134	-0.113
-196.275	-17.692	0.283	0.176
-195.260	800.000	0.133	-0.411
-194.246	116.240	0.011	-0.014
-193.231	411.400	-0.158	0.331
-192.217	-22.890	0.179	-0.107
-191.202	-154.499	0.273	0.018
-190.187	559.146	0.091	0.217
-189.173	-200.000	0.006	0.041
-188.158	-200.000	-0.016	-0.136
-187.144	677.933	0.102	-0.263
-186.129	-127.877	-0.257	-0.037
-185.114	-31.668	0.081	-0.045
-184.100	-85.589	0.396	-0.122
-183.085	382.210	0.080	-0.163
-182.071	297.992	-0.101	0.183
-181.056	800.000	0.070	-0.273
-180.042	-76.233	0.223	0.078
-179.027	-85.063	-0.180	0.056
-178.012	149.673	0.104	0.140
-176.998	800.000	0.052	-0.191
-175.983	-200.000	0.027	-0.157
-174.969	283.710	0.095	0.168
-173.954	85.885	-0.092	0.100
-172.939	24.007	0.104	0.085
-171.925	-54.334	-0.346	0.155
-170.910	91.852	0.240	0.267
-169.896	-114.782	0.039	-0.007
-168.881	-37.065	0.250	-0.132
-167.866	-200.000	0.011	0.274
-166.852	-200.000	0.027	-0.138
-165.837	800.000	0.046	0.136
-164.823	-87.010	0.224	-0.067
-163.808	41.305	-0.046	0.041
-162.793	396.764	0.030	-0.061
-161.779	-4.444	0.237	-0.161
-160.764	-17.638	0.094	-0.059
-159.750	-200.000	0.009	-0.193
-158.735	-59.962	-0.147	-0.062
-157.720	-113.518	0.436	-0.084
-156.706	180.657	-0.125	0.181
-155.691	-90.764	0.234	0.067
-154.677	37.131	-0.163	0.143
-153.662	-200.000	-0.095	-0.437
-152.647	-38.491	0.259	-0.135
-151.633	-137.435	0.240	-0.027
-150.618	-66.913	0.168	0.065
-149.604	-200.000	-0.033	-0.355
-148.589	-18.477	-0.399	-0.246
-147.574	-123.856	0.295	0.046
-146.560	-200.000	0.023	-0.241
-145.545	-157.859	0.297	-0.017
-144.531	-200.000	-0.013	-0.164
-143.516	-200.000	0.006	0.275
-142.502	-200.000	0.007	-0.173
-141.487	800.000	0.045	0.175
-140.472	309.561	-0.216	0.399
-139.458	-112.829	0.122	0.024
-138.443	-49.040	0.249	0.117
-137.429	-158.889	-0.213	-0.012
-136.414	60.346	0.154	0.150
-135.399	35.887	0.148	0.129
-134.385	-59.210	-0.107	-0.046
-133.370	77.654	0.244	0.256
-132.356	466.980	-0.090	0.199
-131.341	-200.000	-0.005	-0.024
-130.326	172.936	0.130	-0.185
-129.312	800.000	0.064	-0.211
-128.297	-200.000	0.007	-0.160
-127.283	-133.494	-0.222	0.027
-126.268	-200.000	0.004	-0.376
-125.253	-179.694	0.263	-0.006
-124.239	-26.142	0.310	0.180
-123.224	-30.104	0.164	0.092
-122.210	57.934	-0.169	0.163
-121.195	-71.565	0.266	-0.098
