DTS Sentinel unit serial number:	SN413079Multiplexer serial number:	ORYXHardware model number:	OX4-SRSoftware version number:	ORYX F/W v4.00 Oryx Data Collector v3.7.2.0data status	okinstallation	princeton_trtdifferential loss correction	single-endedforward channel	channel 4reverse channel	N/Adate	2019/09/12time	19:45:19forward acquisition time	15.00reverse acquisition time	0.00gamma	496.2192k internal	0.2310k external	0.2310temperature offset calibration	1.0169default loss term (dB/km)	0.3790temperature slope calibration	1.0000multiplexer offset coefficient	1.0000multiplexer slope coefficient	1.0000fibre end	0.00T internal ref (°C)	32.00T ext. ref 1 (°C)	3.52T ext. ref 2 (°C)	26.52length (m)	temperature (°C)	Stokes	anti-Stokes-747.200	-73.855	0.562	-0.207
-746.185	-157.841	-0.553	0.033
-745.171	84.472	-0.396	-0.440
-744.156	90.422	-0.323	-0.368
-743.142	143.783	-0.530	-0.718
-742.127	-93.199	-0.423	-0.119
-741.112	37.147	0.466	0.419
-740.098	800.000	-0.078	-0.241
-739.083	-200.000	-0.102	0.465
-738.069	747.405	-0.245	0.670
-737.054	-74.960	-0.609	0.222
-736.039	190.526	-0.240	-0.366
-735.025	384.232	-0.373	-0.780
-734.010	-80.979	0.538	-0.181
-732.996	30.346	-0.345	-0.299
-731.981	-200.000	-0.159	-0.943
-730.966	310.916	0.349	-0.664
-729.952	-114.112	0.612	0.120
-728.937	-200.000	-0.025	-0.797
-727.923	-120.418	-1.272	-0.220
-726.908	29.059	-0.841	-0.724
-725.894	-200.000	0.011	-0.502
-724.879	-200.000	-0.181	-1.004
-723.864	-200.000	-0.056	-0.681
-722.850	-133.001	0.404	0.052
-721.835	-13.452	0.637	-0.419
-720.821	771.588	-0.107	0.296
-719.806	317.888	0.315	0.604
-718.791	321.587	0.251	0.485
-717.777	156.537	-0.489	-0.685
-716.762	149.301	0.517	-0.710
-715.748	-124.931	-0.469	0.073
-714.733	89.203	0.274	-0.310
-713.718	-133.516	-0.424	0.054
-712.704	727.478	0.382	-1.033
-711.689	415.322	-0.052	-0.113
-710.675	-200.000	0.127	0.742
-709.660	800.000	0.131	0.456
-708.645	-61.787	-0.284	-0.121
-707.631	-18.163	0.447	0.284
-706.616	-200.000	-0.020	0.316
-705.602	310.457	0.085	0.161
-704.587	-95.179	0.592	-0.162
-703.572	800.000	-0.258	-1.026
-702.558	82.439	0.258	-0.284
-701.543	47.458	0.420	-0.397
-700.529	76.674	-0.457	0.491
-699.514	-71.377	-0.544	0.207
-698.499	-139.722	0.541	-0.058
-697.485	292.612	0.593	-1.095
-696.470	478.820	0.177	-0.407
-695.456	-200.000	0.060	0.701
-694.441	77.203	-0.378	-0.408
-693.426	800.000	0.379	-1.072
-692.412	-146.736	-0.845	-0.074
-691.397	-42.234	-0.115	0.060
-690.383	-29.266	0.241	0.140
-689.368	128.743	0.295	0.381
-688.354	758.411	0.154	0.423
-687.339	781.144	0.239	0.663
-686.324	195.224	-0.476	-0.733
-685.310	71.078	-0.383	0.402
-684.295	163.132	0.425	-0.605
-683.281	-190.600	0.619	-0.007
-682.266	-55.777	0.296	0.134
-681.251	101.702	0.300	-0.355
-680.237	-200.000	0.028	-0.255
-679.222	90.678	-0.328	-0.373
-678.208	331.065	-0.167	0.325
-677.193	-45.856	0.643	0.321
-676.178	800.000	-0.083	-0.349
-675.164	44.857	-0.218	-0.203
-674.149	178.262	-0.130	0.193
-673.135	109.416	-0.154	-0.187
-672.120	-22.862	-0.256	0.156
-671.105	-102.315	0.377	-0.092
-670.091	-107.635	-0.229	-0.051
-669.076	-26.916	0.112	-0.066
-668.062	-200.000	-0.034	0.495
-667.047	230.881	0.529	-0.877
-666.032	-173.284	-0.564	-0.017
-665.018	-157.602	1.695	-0.103
-664.003	106.190	-0.502	0.602
-662.989	169.432	0.350	-0.506
-661.974	-74.449	-0.678	0.248
-660.959	-23.746	-0.540	0.328
-659.945	-200.000	0.055	0.526
-658.930	242.397	-0.530	0.898
-657.916	36.112	-0.483	0.430
-656.901	-200.000	0.018	-0.454
-655.886	185.716	0.199	0.299
-654.872	241.914	0.414	0.701
-653.857	-200.000	-0.095	-0.645
-652.843	220.117	-0.268	0.435
-651.828	-14.775	-0.027	0.018
-650.814	194.180	0.431	-0.661
-649.799	800.000	-0.070	0.267
-648.784	217.205	0.140	-0.226
-647.770	-77.777	0.251	0.088
-646.755	800.000	-0.183	-0.676
-645.741	288.030	-0.198	-0.362
-644.726	-41.541	0.084	0.044
-643.711	-74.451	-0.055	-0.020
-642.697	-200.000	0.088	-0.551
-641.682	160.048	0.090	0.127
-640.668	25.659	0.405	-0.341
-639.653	800.000	0.232	-0.697
-638.638	32.037	0.526	-0.459
-637.624	20.644	0.211	0.173
-636.609	-200.000	-0.089	-0.844
-635.595	-137.080	-0.147	0.017
-634.580	800.000	0.093	0.304
-633.565	-200.000	-0.048	-0.689
-632.551	800.000	0.271	0.982
-631.536	-96.668	-0.600	0.160
-630.522	212.637	-0.035	0.055
-629.507	800.000	-0.073	-0.272
-628.492	17.809	-0.322	-0.259
-627.478	445.897	0.093	-0.206
-626.463	-97.661	0.181	0.047
-625.449	224.994	0.392	-0.641
-624.434	-75.938	-0.344	-0.123
-623.419	-66.714	0.479	-0.192
-622.405	-200.000	-0.066	-0.363
-621.390	138.760	-0.149	0.197
-620.376	135.105	-0.060	0.079
-619.361	800.000	-0.192	-0.582
-618.346	-54.871	0.289	-0.132
-617.332	470.953	0.517	-1.176
-616.317	-86.214	0.400	-0.125
-615.303	190.183	-0.282	0.428
-614.288	65.112	0.535	0.546
-613.273	-42.230	-0.280	-0.145
-612.259	-162.584	0.263	-0.013
-611.244	-72.485	-0.484	-0.181
-610.230	-200.000	0.161	0.797
-609.215	-9.895	0.275	0.185
-608.201	-96.092	-0.196	-0.053
-607.186	-200.000	0.159	0.892
-606.171	-103.577	-0.919	0.218
-605.157	800.000	0.067	-0.285
-604.142	800.000	0.181	0.702
-603.128	53.476	-0.398	0.386
-602.113	255.431	0.150	0.259
-601.098	-93.068	1.033	-0.291
-600.084	800.000	-0.161	0.458
-599.069	-37.696	-0.398	-0.214
-598.055	-139.900	-0.878	-0.094
-597.040	-200.000	0.090	0.906
-596.025	-200.000	0.217	-0.978
-595.011	-8.058	0.801	0.545
-593.996	800.000	0.077	0.309
-592.982	97.797	0.370	0.429
-591.967	200.525	-0.160	0.248
-590.952	-66.831	-0.871	-0.348
-589.938	800.000	0.063	-0.233
-588.923	-2.681	0.261	0.184
-587.909	139.585	-0.267	-0.355
-586.894	-141.816	0.309	-0.031
-585.879	-49.882	-0.596	0.286
-584.865	73.376	-0.105	0.111
-583.850	-166.469	0.423	0.018
-582.836	-96.117	0.717	0.192
-581.821	495.041	0.115	-0.266
-580.806	800.000	-0.211	-0.721
-579.792	-121.151	0.721	-0.122
-578.777	55.031	0.335	-0.326
-577.763	-200.000	0.026	-0.451
-576.748	-102.307	0.512	-0.124
-575.733	-51.011	-0.196	0.093
-574.719	339.922	-0.166	0.327
-573.704	-200.000	-0.014	-0.361
-572.690	-96.091	-0.569	0.153
-571.675	61.227	0.302	-0.302
-570.661	-96.177	-0.592	-0.158
-569.646	788.130	0.244	-0.675
-568.631	98.325	-0.108	-0.126
-567.617	155.897	-0.409	-0.569
-566.602	606.057	0.331	-0.833
-565.588	-119.971	-0.664	-0.115
-564.573	-159.342	-0.349	-0.020
-563.558	506.144	-0.186	-0.435
-562.544	83.830	-0.338	-0.372
-561.529	800.000	-0.192	0.636
-560.515	-97.385	0.592	-0.156
-559.500	-200.000	-0.036	-0.481
-558.485	-53.164	0.207	-0.096
-557.471	-121.814	-0.251	0.042
-556.456	-28.564	-0.472	-0.274
-555.442	627.261	-0.240	-0.610
-554.427	-29.827	-0.863	0.496
-553.412	316.881	0.041	-0.078
-552.398	540.359	0.224	0.538
-551.383	96.628	-0.376	0.434
-550.369	-115.962	-0.500	-0.094
-549.354	-22.202	0.704	0.430
-548.339	114.578	-0.428	0.526
-547.325	800.000	-0.135	-0.405
-546.310	800.000	-0.174	-0.498
-545.296	27.591	0.084	-0.071
-544.281	-49.693	0.315	-0.151
-543.266	62.792	-0.472	0.476
-542.252	10.870	0.466	-0.359
-541.237	-170.892	-0.579	-0.020
-540.223	549.175	-0.153	0.370
-539.208	647.715	-0.323	-0.832
-538.193	27.516	-0.524	0.444
-537.179	-80.298	0.746	0.251
-536.164	-36.745	0.590	0.319
-535.150	-200.000	0.103	0.880
-534.135	-108.719	-0.417	0.090
-533.121	-200.000	0.002	-0.574
-532.106	-129.528	-0.946	0.132
-531.091	189.538	0.272	0.411
-530.077	800.000	-0.134	-0.499
-529.062	5.624	-0.687	-0.512
-528.048	753.464	0.382	1.041
-527.033	120.388	0.088	-0.110
-526.018	265.957	-0.310	-0.545
-525.004	-88.233	-0.155	0.047
-523.989	27.376	-0.335	-0.283
-522.975	800.000	0.118	-0.348
-521.960	-94.553	0.838	-0.230
-520.945	-45.822	-0.853	-0.424
-519.931	-200.000	-0.002	-0.425
-518.916	-187.702	0.625	-0.008
-517.902	-11.860	0.289	0.191
-516.887	50.818	-0.363	-0.346
-515.872	10.750	0.352	0.270
-514.858	14.570	-0.309	-0.243
-513.843	-114.097	-0.311	-0.061
-512.829	31.089	-0.668	0.576
-511.814	-89.996	0.596	-0.175
-510.799	-45.903	0.362	-0.180
-509.785	62.664	0.345	-0.347
-508.770	-105.541	0.430	-0.098
-507.756	-28.612	0.962	0.558
-506.741	-132.136	0.212	-0.028
-505.726	-200.000	0.022	0.210
-504.712	-104.776	-0.195	0.045
-503.697	-25.485	0.159	-0.095
-502.683	128.201	-0.543	-0.695
-501.668	-28.069	-0.250	0.146
-500.653	800.000	0.164	0.722
-499.639	-164.996	-0.408	-0.018
-498.624	-109.343	-0.146	0.031
-497.610	800.000	-0.059	0.190
-496.595	-8.143	0.048	-0.032
-495.581	134.039	0.563	0.733
-494.566	-200.000	-0.025	0.510
-493.551	-90.704	-0.715	0.208
-492.537	-69.542	-0.482	-0.186
-491.522	38.266	0.376	0.337
-490.508	192.150	-0.110	0.167
-489.493	62.646	-0.175	0.176
-488.478	-66.383	-0.903	0.361
-487.464	-130.396	-0.878	-0.120
-486.449	-200.000	0.110	-0.876
-485.435	-13.406	0.616	-0.402
-484.420	687.772	0.411	-1.082
-483.405	-23.356	0.375	-0.227
-482.391	250.672	-0.146	0.250
-481.376	50.687	-0.593	0.564
-480.362	247.582	0.211	0.359
-479.347	125.452	0.311	0.394
-478.332	-36.208	0.217	0.118
-477.318	-147.518	0.845	0.072
-476.303	-174.258	0.170	-0.005
-475.289	180.875	0.021	0.032
-474.274	-200.000	0.013	0.631
-473.259	-93.052	-0.650	0.182
-472.245	673.904	-0.122	-0.318
-471.230	-200.000	0.021	-0.096
-470.216	-121.551	0.387	-0.065
-469.201	168.499	0.141	0.201
-468.186	800.000	-0.082	0.310
-467.172	199.705	0.664	1.023
-466.157	42.483	-0.976	0.892
-465.143	-143.311	0.948	0.091
-464.128	-95.792	0.910	0.244
-463.113	22.015	-0.551	-0.451
-462.099	-200.000	0.584	-0.003
-461.084	31.942	0.510	-0.441
-460.070	-122.164	-0.578	0.095
-459.055	49.549	-0.690	0.653
-458.040	-70.492	0.766	0.291
-457.026	157.227	-0.182	-0.253
-456.011	-142.058	0.602	-0.060
-454.997	-133.077	0.293	0.037
-453.982	172.457	-0.310	0.448
-452.968	279.194	0.401	-0.718
-451.953	116.073	-0.427	0.526
-450.938	-55.985	-0.528	-0.236
-449.924	-200.000	-0.108	0.645
-448.909	-145.463	0.731	0.066
-447.895	-21.766	-0.099	-0.060
-446.880	-117.205	1.243	-0.227
-445.865	-200.000	-0.112	0.745
-444.851	-121.253	0.671	0.113
-443.836	134.369	0.270	-0.351
-442.822	163.353	-0.109	-0.154
-441.807	312.543	-0.439	0.828
-440.792	-83.037	0.573	0.185
-439.778	329.042	0.381	0.735
-438.763	54.184	0.659	-0.636
-437.749	7.284	0.566	-0.424
-436.734	168.763	-0.354	0.507
-435.719	800.000	0.043	-0.140
-434.705	-65.484	0.357	-0.144
-433.690	170.601	-0.515	0.740
-432.676	800.000	-0.032	-0.095
-431.661	270.658	0.436	0.769
-430.646	8.622	-0.443	0.334
-429.632	502.120	0.362	0.839
-428.617	47.633	-0.495	-0.463
-427.603	6.557	0.199	-0.149
-426.588	-41.623	0.225	-0.116
-425.573	-92.609	-0.369	-0.104
-424.559	0.898	-0.653	-0.470
-423.544	-58.151	-0.964	0.421
-422.530	-12.809	0.461	0.301
-421.515	-200.000	-0.100	0.594
-420.500	-29.224	-0.618	0.355
-419.486	-180.544	0.390	-0.008
-418.471	135.862	0.375	-0.490
-417.457	-87.870	0.687	-0.207
-416.442	308.040	0.308	-0.576
-415.428	-190.119	0.753	-0.008
-414.413	-200.000	0.025	-0.442
-413.398	-30.342	0.292	-0.166
-412.384	-106.370	0.394	-0.088
-411.369	-101.528	-0.359	-0.087
-410.355	-88.491	-0.835	-0.250
-409.340	-84.281	0.367	0.117
-408.325	-200.000	-0.014	1.041
-407.311	291.293	-0.108	0.197
-406.296	-119.960	-0.621	0.107
-405.282	322.425	0.273	-0.521
-404.267	-200.000	0.064	0.819
-403.252	121.068	-0.534	0.666
-402.238	-166.259	0.955	-0.040
-401.223	-149.961	0.144	0.011
-400.209	185.162	-0.245	0.364
-399.194	-200.000	-0.040	-0.266
-398.179	-200.000	0.019	-0.292
-397.165	61.851	0.428	-0.427
-396.150	-126.235	0.143	0.021
-395.136	82.351	0.116	0.127
-394.121	-26.269	-0.256	-0.151
-393.106	-64.942	0.898	0.364
-392.092	-200.000	-0.043	0.399
-391.077	-200.000	-0.071	-0.450
-390.063	-200.000	0.023	-0.295
-389.048	131.948	0.453	0.584
-388.033	1.742	-0.156	0.112
-387.019	-200.000	0.030	0.396
-386.004	-200.000	-0.037	0.274
-384.990	346.382	0.167	0.330
-383.975	-19.257	0.720	0.448
-382.960	-95.155	0.722	0.195
-381.946	66.401	-0.504	-0.513
-380.931	-183.776	-0.304	0.005
-379.917	-200.000	-0.104	0.753
-378.902	-200.000	-0.068	-0.477
-377.888	-156.101	-0.639	-0.040
-376.873	800.000	0.060	-0.179
-375.858	-56.217	-0.665	-0.296
-374.844	-131.899	-0.651	0.085
-373.829	149.526	0.303	-0.410
-372.815	-121.027	-0.198	0.033
-371.800	-73.602	0.784	0.286
-370.785	-200.000	-0.030	-0.217
-369.771	74.384	-0.219	-0.230
-368.756	135.935	-0.299	-0.389
-367.742	-114.601	0.093	0.018
-366.727	375.822	0.064	0.131
-365.712	-110.698	-0.265	0.055
-364.698	101.289	-0.226	-0.263
-363.683	392.816	0.135	-0.280
-362.669	-200.000	-0.031	0.397
-361.654	800.000	-0.163	0.567
-360.639	-95.752	-0.439	0.117
-359.625	-141.381	0.686	0.070
-358.610	-135.338	0.536	-0.064
-357.596	-164.484	0.839	0.038
-356.581	267.992	0.200	-0.350
-355.566	87.834	-0.110	0.122
-354.552	-175.173	0.681	0.019
-353.537	238.273	-0.548	0.911
-352.523	-35.999	0.482	0.261
-351.508	309.591	0.755	-1.413
-350.493	-163.504	-0.632	0.030
-349.479	-80.683	0.564	-0.188
-348.464	-46.461	0.876	0.430
-347.450	-200.000	-0.052	-0.726
-346.435	0.903	-0.293	-0.210
-345.420	-89.715	-0.490	-0.144
-344.406	-123.090	-0.371	0.060
-343.391	37.979	0.581	-0.517
-342.377	100.151	0.340	-0.395
-341.362	-123.518	-0.416	-0.066
-340.348	69.463	0.031	0.032
-339.333	-200.000	0.255	1.184
-338.318	3.353	-0.077	-0.056
-337.304	-100.638	-0.577	-0.143
-336.289	2.249	0.735	-0.531
-335.275	-138.110	-0.409	0.045
-334.260	-200.000	-0.089	0.934
-333.245	-28.011	-0.701	-0.406
-332.231	243.791	-0.127	-0.213
-331.216	-200.000	-0.048	0.254
-330.202	800.000	-0.256	-0.835
-329.187	-104.979	0.500	0.115
-328.172	-103.468	0.642	-0.151
-327.158	-114.067	0.514	-0.099
-326.143	-157.049	-0.495	0.030
-325.129	-139.637	-0.718	0.076
-324.114	-105.278	0.236	0.054
-323.099	-11.369	0.796	0.524
-322.085	357.009	0.319	0.635
-321.070	-13.657	0.136	-0.088
-320.056	-2.506	-0.788	-0.552
-319.041	-37.041	-0.334	-0.179
-318.026	142.643	-0.347	-0.461
-317.012	-21.435	0.311	0.189
-315.997	145.787	-0.043	-0.058
-314.983	195.841	0.450	0.683
-313.968	111.140	-0.817	-0.983
-312.953	800.000	-0.292	0.976
-311.939	48.397	0.282	-0.264
-310.924	0.663	0.446	-0.318
-309.910	-66.690	0.238	0.094
-308.895	-110.765	0.675	-0.139
-307.880	-200.000	-0.029	-1.232
-306.866	-200.000	-0.048	0.635
-305.851	107.894	-0.266	0.316
-304.837	800.000	0.150	0.582
-303.822	-141.001	0.334	0.034
-302.807	1.669	0.527	0.379
-301.793	561.414	0.115	-0.277
-300.778	330.818	-0.193	-0.372
-299.764	148.759	0.171	0.230
-298.749	-200.000	0.003	-0.133
-297.735	-111.820	0.670	0.135
-296.720	11.072	0.165	-0.126
-295.705	403.588	-0.105	-0.220
-294.691	141.347	0.539	0.712
-293.676	-200.000	-0.014	-0.450
-292.662	-3.585	-0.568	-0.394
-291.647	-118.569	-0.711	-0.126
-290.632	-200.000	-0.026	0.519
-289.618	-63.863	-0.795	0.325
-288.603	271.938	0.178	-0.313
-287.589	-120.762	-0.409	-0.069
-286.574	800.000	0.161	-0.461
-285.559	-200.000	0.018	1.172
-284.545	-117.776	0.938	-0.168
-283.530	-17.193	-0.523	0.329
-282.516	-184.299	-0.879	0.014
-281.501	-101.834	0.591	-0.143
-280.486	119.012	0.338	0.417
-279.472	-26.239	-0.351	0.205
-278.457	-200.000	-0.033	0.143
-277.443	310.660	-0.270	-0.505
-276.428	12.344	-0.770	0.592
-275.413	-38.369	-0.550	-0.290
-274.399	-200.000	0.026	-0.854
-273.384	-66.084	0.380	0.151
-272.370	145.523	0.462	0.617
-271.355	-200.000	0.034	-0.544
-270.340	800.000	0.224	0.899
-269.326	243.189	0.530	0.886
-268.311	-153.035	0.719	0.050
-267.297	65.620	-0.294	0.297
-266.282	685.207	0.171	-0.445
-265.267	-8.352	-0.521	-0.349
-264.253	20.786	0.207	-0.167
-263.238	177.336	-0.274	-0.398
-262.224	8.066	-1.289	-0.964
-261.209	316.579	-0.506	0.953
-260.195	-116.305	-0.963	0.178
-259.180	800.000	0.095	-0.294
-258.165	800.000	0.112	-0.432
-257.151	129.365	-0.428	-0.545
-256.136	-79.289	-1.099	-0.371
-255.122	240.407	0.242	0.402
-254.107	-102.141	-0.357	0.086
-253.092	756.442	0.224	0.604
-252.078	422.727	-0.137	-0.293
-251.063	4.111	-0.092	-0.067
-250.049	-128.402	-0.197	-0.028
-249.034	228.668	0.409	0.664
-248.019	-74.573	0.514	0.184
-247.005	25.847	1.100	0.914
-245.990	-62.138	-0.497	0.207
-244.976	47.925	0.198	0.185
-243.961	-200.000	0.104	0.843
-242.946	642.420	-0.183	0.464
-241.932	-20.366	-0.803	-0.492
-240.917	-106.247	-0.881	0.197
-239.903	-108.279	-0.991	0.213
-238.888	742.532	0.204	-0.547
-237.873	17.122	0.905	-0.714
-236.859	-100.531	-0.378	0.093
-235.844	-30.064	0.340	0.192
-234.830	-120.567	0.902	0.152
-233.815	-200.000	-0.051	0.305
-232.800	-73.699	0.480	0.174
-231.786	-140.725	-0.528	-0.054
-230.771	37.208	-0.293	-0.258
-229.757	-83.537	-0.994	0.317
-228.742	223.281	0.172	0.276
-227.727	-162.103	1.636	0.082
-226.713	-200.000	0.022	-0.635
-225.698	43.478	0.041	-0.038
-224.684	-200.000	-0.055	-0.275
-223.669	5.377	-0.123	-0.090
-222.655	800.000	-0.073	0.274
-221.640	-180.842	-0.946	0.019
-220.625	800.000	0.095	-0.353
-219.611	19.926	-0.191	0.153
-218.596	-200.000	0.095	0.528
-217.582	-128.955	-0.817	0.114
-216.567	51.918	-0.339	0.321
-215.552	-200.000	0.002	-0.045
-214.538	346.504	0.310	-0.606
-213.523	-22.781	0.221	-0.133
-212.509	-170.627	-0.660	0.023
-211.494	312.587	-0.258	0.481
-210.479	0.810	-0.429	-0.305
-209.465	-32.690	-0.402	-0.222
-208.450	-200.000	0.003	-0.687
-207.436	-50.085	-0.615	-0.290
-206.421	44.027	0.204	0.186
-205.406	-200.000	0.091	0.742
-204.392	-200.000	0.088	-0.600
-203.377	658.201	-0.243	-0.622
-202.363	-200.000	-0.093	-0.429
-201.348	-200.000	-0.056	0.275
-200.333	-39.201	-0.481	0.251
-199.319	-30.854	0.210	0.118
-198.304	-95.488	0.741	-0.198
-197.290	-200.000	-0.029	-0.579
-196.275	-200.000	-0.030	-0.262
-195.260	252.491	-0.521	-0.883
-194.246	131.111	-0.440	0.562
-193.231	-200.000	-0.020	0.343
-192.217	346.856	0.245	-0.479
-191.202	-17.962	0.396	-0.247
-190.187	37.629	0.368	-0.325
-189.173	-49.146	0.975	-0.463
-188.158	-198.842	0.557	0.003
-187.144	110.191	-0.446	-0.532
-186.129	-73.939	-0.620	-0.224
-185.114	-33.834	0.214	-0.117
-184.100	-200.000	0.003	0.293
-183.085	-200.000	0.176	-0.768
-182.071	-200.000	0.066	0.861
-181.056	800.000	-0.104	0.365
-180.042	-143.607	0.676	-0.064
-179.027	427.617	0.316	-0.677
-178.012	-200.000	0.028	-0.240
-176.998	580.368	-0.040	0.098
-175.983	-45.928	-0.362	0.177
-174.969	-23.187	-0.360	0.215
-173.954	-200.000	-0.037	0.378
-172.939	800.000	0.156	0.556
-171.925	-200.000	0.049	-0.357
-170.910	226.306	0.532	-0.857
-169.896	369.062	-0.370	-0.743
-168.881	79.993	-0.434	-0.464
-167.866	-200.000	0.147	-1.421
-166.852	-86.651	-0.333	-0.101
-165.837	-200.000	-0.006	0.291
-164.823	-29.197	-0.241	0.137
-163.808	-200.000	0.114	0.950
-162.793	51.748	0.099	-0.094
-161.779	-100.165	0.761	0.188
-160.764	-17.523	-0.426	0.266
-159.750	-88.237	-0.994	0.295
-158.735	249.068	-0.453	0.762
-157.720	-200.000	0.001	0.316
-156.706	209.699	-0.267	0.415
-155.691	680.577	-0.361	-0.933
-154.677	-200.000	-0.067	0.412
-153.662	359.175	0.133	-0.264
-152.647	30.908	-0.653	-0.555
-151.633	-47.931	0.441	0.212
-150.618	-73.358	0.993	-0.360
-149.604	-0.593	0.282	-0.199
-148.589	-88.207	-0.608	-0.181
-147.574	55.710	0.570	-0.548
-146.560	-91.916	-0.731	0.206
-145.545	-11.085	0.980	-0.642
-144.531	-40.831	-0.843	0.433
-143.516	514.194	0.081	0.186
-142.502	-47.760	-0.323	0.155
-141.487	800.000	0.068	-0.215
-140.472	-93.882	-0.979	-0.267
-139.458	147.154	-0.202	0.270
-138.443	15.720	-0.670	0.523
-137.429	-127.036	-0.691	-0.101
-136.414	-67.254	-0.237	-0.092
-135.399	245.525	-0.210	0.350
-134.385	79.061	0.246	0.262
-133.370	15.782	-0.420	-0.328
-132.356	-109.389	-1.247	-0.262
-131.341	517.630	0.034	0.079
-130.326	800.000	-0.201	0.685
-129.312	-127.460	0.259	0.037
-128.297	169.947	0.216	0.306
-127.283	45.618	0.422	-0.387
-126.268	125.123	-0.733	0.916
-125.253	291.315	0.315	-0.569
-124.239	-170.855	-0.623	-0.021
-123.224	-56.801	0.105	-0.046
-122.210	3.017	-0.326	0.235
