DTS Sentinel unit serial number:	SN413079Multiplexer serial number:	ORYXHardware model number:	OX4-SRSoftware version number:	ORYX F/W v4.00 Oryx Data Collector v3.7.2.0data status	okinstallation	princeton_trtdifferential loss correction	single-endedforward channel	channel 4reverse channel	N/Adate	2019/09/17time	23:37:35forward acquisition time	60.00reverse acquisition time	0.00gamma	496.2192k internal	0.2332k external	0.2332temperature offset calibration	0.9995default loss term (dB/km)	0.3790temperature slope calibration	1.0000multiplexer offset coefficient	1.0000multiplexer slope coefficient	1.0000fibre end	0.00T internal ref (°C)	24.17T ext. ref 1 (°C)	0.17T ext. ref 2 (°C)	17.55length (m)	temperature (°C)	Stokes	anti-Stokes-747.200	-5.856	-0.134	-0.093
-746.185	109.372	-0.058	0.070
-745.171	-96.834	-0.080	0.021
-744.156	-155.506	-0.090	-0.006
-743.142	219.755	0.163	-0.263
-742.127	-39.878	-0.291	-0.153
-741.112	63.435	0.191	0.192
-740.098	-200.000	-0.027	0.275
-739.083	-200.000	-0.008	0.149
-738.069	-77.855	-0.510	0.177
-737.054	135.925	-0.154	0.202
-736.039	670.137	0.027	-0.071
-735.025	-154.491	0.164	0.011
-734.010	-200.000	-0.005	0.149
-732.996	800.000	-0.133	0.439
-731.981	-69.465	0.201	0.077
-730.966	-190.682	-0.459	0.005
-729.952	126.983	0.138	-0.176
-728.937	98.863	-0.140	0.162
-727.923	299.976	-0.054	0.100
-726.908	800.000	-0.117	-0.375
-725.894	41.830	-0.181	-0.165
-724.879	-138.173	0.083	-0.009
-723.864	2.108	-0.150	-0.109
-722.850	-119.975	0.264	0.046
-721.835	154.408	-0.350	-0.483
-720.821	-142.464	-0.022	-0.002
-719.806	262.239	-0.099	-0.172
-718.791	351.254	0.077	-0.154
-717.777	194.591	-0.123	0.187
-716.762	297.686	0.245	0.453
-715.748	52.692	0.262	-0.251
-714.733	-140.159	-0.384	0.041
-713.718	-79.941	0.174	-0.059
-712.704	-200.000	0.008	-0.058
-711.689	670.357	-0.100	-0.260
-710.675	-200.000	-0.048	-0.227
-709.660	19.009	0.172	-0.139
-708.645	282.744	0.162	0.293
-707.631	-131.945	-0.240	-0.032
-706.616	651.694	-0.092	-0.237
-705.602	-200.000	0.046	-0.227
-704.587	483.923	0.073	-0.168
-703.572	-138.184	0.207	0.023
-702.558	-200.000	-0.002	0.051
-701.543	-81.467	-0.235	-0.078
-700.529	-200.000	0.008	0.112
-699.514	-154.439	-0.091	0.006
-698.499	-200.000	0.066	-0.303
-697.485	748.699	0.074	-0.199
-696.470	-126.049	-0.127	0.019
-695.456	-200.000	0.009	-0.141
-694.441	134.827	0.172	-0.224
-693.426	-200.000	-0.042	-0.241
-692.412	-149.182	-0.141	0.011
-691.397	-25.978	-0.185	0.109
-690.383	135.505	-0.136	-0.178
-689.368	-32.020	0.118	-0.066
-688.354	-200.000	-0.027	0.159
-687.339	106.890	0.101	0.120
-686.324	-19.113	-0.375	-0.234
-685.310	292.985	-0.141	-0.258
-684.295	-200.000	0.012	0.398
-683.281	591.783	0.088	0.217
-682.266	-7.855	0.186	0.126
-681.251	800.000	0.072	0.223
-680.237	89.518	-0.019	-0.022
-679.222	203.473	-0.168	-0.260
-678.208	-200.000	-0.040	0.196
-677.193	398.601	-0.126	0.266
-676.178	208.800	-0.185	-0.291
-675.164	257.868	-0.075	-0.129
-674.149	800.000	0.011	-0.047
-673.135	-147.429	-0.226	-0.019
-672.120	800.000	0.139	0.437
-671.105	-43.298	-0.309	0.157
-670.091	-200.000	-0.014	0.215
-669.076	-43.907	-0.083	-0.042
-668.062	153.508	0.142	-0.195
-667.047	-171.200	-0.248	0.008
-666.032	71.071	0.096	0.100
-665.018	-200.000	0.054	-0.240
-664.003	-200.000	0.024	0.194
-662.989	265.876	-0.050	-0.088
-661.974	-125.828	0.115	0.017
-660.959	88.693	-0.271	-0.302
-659.945	99.512	0.122	-0.142
-658.930	324.654	0.066	0.125
-657.916	800.000	0.075	-0.252
-656.901	-200.000	0.028	0.400
-655.886	15.784	0.226	-0.178
-654.872	23.950	-0.103	-0.085
-653.857	133.988	-0.182	-0.237
-652.843	-85.051	-0.453	-0.142
-651.828	154.120	-0.052	-0.071
-650.814	36.450	0.175	0.154
-649.799	39.937	-0.296	0.267
-648.784	800.000	-0.020	-0.079
-647.770	-13.949	0.393	0.254
-646.755	-49.539	-0.085	0.041
-645.741	800.000	-0.121	-0.361
-644.726	-137.461	0.249	0.028
-643.711	23.039	0.173	-0.142
-642.697	118.918	0.194	0.241
-641.682	800.000	0.022	0.063
-640.668	150.115	-0.144	0.195
-639.653	264.988	0.087	-0.152
-638.638	244.933	0.041	0.069
-637.624	472.411	-0.144	-0.324
-636.609	-200.000	-0.032	0.183
-635.595	800.000	0.101	-0.288
-634.580	-20.909	-0.260	0.160
-633.565	-110.870	-0.260	-0.054
-632.551	-10.911	-0.272	0.180
-631.536	-3.987	0.262	0.182
-630.522	115.790	-0.168	-0.206
-629.507	-147.041	-0.171	-0.015
-628.492	178.868	0.190	0.278
-627.478	228.772	-0.045	-0.073
-626.463	-39.989	0.107	-0.056
-625.449	800.000	-0.085	-0.240
-624.434	-77.794	0.097	-0.033
-623.419	779.436	0.035	0.094
-622.405	276.073	-0.018	0.033
-621.390	62.652	-0.293	-0.293
-620.376	-27.969	0.227	0.132
-619.361	800.000	-0.039	0.111
-618.346	183.216	-0.049	0.073
-617.332	800.000	-0.028	0.118
-616.317	167.094	0.174	-0.247
-615.303	275.388	-0.122	-0.217
-614.288	-62.382	0.278	-0.116
-613.273	44.432	0.163	-0.150
-612.259	-71.016	0.364	0.137
-611.244	-48.338	0.148	-0.071
-610.230	-200.000	0.015	0.167
-609.215	-161.057	-0.206	-0.011
-608.201	29.983	-0.324	-0.277
-607.186	-112.646	-0.068	0.014
-606.171	-86.441	0.275	0.084
-605.157	-128.460	-0.114	0.016
-604.142	53.425	0.209	-0.200
-603.128	-200.000	0.019	0.306
-602.113	-40.817	-0.075	-0.039
-601.098	-40.001	0.214	-0.112
-600.084	-200.000	-0.020	-0.115
-599.069	601.936	-0.040	0.098
-598.055	10.672	-0.252	-0.192
-597.040	80.371	-0.271	0.291
-596.025	361.432	-0.105	0.210
-595.011	800.000	-0.045	-0.138
-593.996	800.000	-0.050	-0.180
-592.982	139.580	0.248	-0.327
-591.967	-173.684	0.082	-0.002
-590.952	-47.058	-0.183	-0.089
-589.938	625.590	-0.080	-0.201
-588.923	-200.000	0.016	0.120
-587.909	-15.198	-0.289	0.185
-586.894	232.285	0.048	0.079
-585.879	-176.358	0.054	0.001
-584.865	800.000	0.026	-0.116
-583.850	-122.252	0.150	-0.025
-582.836	-200.000	0.028	-0.213
-581.821	-115.105	0.069	-0.013
-580.806	-200.000	-0.010	-0.391
-579.792	800.000	-0.024	-0.081
-578.777	-22.614	0.126	0.076
-577.763	-100.622	0.203	-0.050
-576.748	496.397	0.110	0.254
-575.733	-144.023	-0.317	-0.030
-574.719	800.000	-0.034	0.144
-573.704	655.404	0.102	0.261
-572.690	-157.464	-0.173	0.010
-571.675	-125.362	-0.017	-0.003
-570.661	388.562	-0.088	-0.182
-569.646	-200.000	-0.046	0.207
-568.631	800.000	0.022	0.093
-567.617	-30.355	-0.091	0.051
-566.602	-200.000	0.001	-0.135
-565.588	-57.278	-0.231	0.102
-564.573	800.000	-0.046	-0.191
-563.558	196.611	-0.058	-0.088
-562.544	59.960	-0.033	0.033
-561.529	-96.963	0.177	-0.046
-560.515	213.254	0.228	-0.360
-559.500	106.809	-0.209	0.248
-558.485	-96.565	0.266	-0.070
-557.471	19.395	-0.180	0.144
-556.456	483.514	-0.075	-0.169
-555.442	228.858	0.026	0.042
-554.427	701.078	-0.085	0.223
-553.412	-78.264	-0.126	0.043
-552.398	95.816	-0.145	-0.165
-551.383	-162.943	-0.093	-0.005
-550.369	155.551	0.080	-0.110
-549.354	12.334	-0.159	-0.122
-548.339	135.884	-0.060	0.078
-547.325	-109.693	0.163	0.034
-546.310	108.126	0.219	-0.261
-545.296	789.457	-0.081	-0.221
-544.281	-74.149	0.091	-0.033
-543.266	107.846	-0.051	0.060
-542.252	545.601	0.067	-0.161
-541.237	75.799	0.088	0.093
-540.223	143.457	-0.119	0.158
-539.208	16.240	-0.180	-0.142
-538.193	528.529	0.100	0.235
-537.179	-156.917	-0.348	0.021
-536.164	-200.000	0.008	0.370
-535.150	172.680	0.321	-0.461
-534.135	-10.750	0.073	-0.048
-533.121	73.895	0.053	-0.056
-532.106	16.028	-0.139	-0.109
-531.091	64.400	0.048	-0.048
-530.077	-200.000	0.005	0.206
-529.062	-200.000	-0.011	0.124
-528.048	-92.471	-0.321	0.090
-527.033	-121.066	0.151	0.025
-526.018	28.956	0.179	-0.152
-525.004	-128.199	-0.556	-0.079
-523.989	597.523	-0.074	-0.183
-522.975	-121.578	-0.446	0.074
-521.960	96.363	0.180	-0.205
-520.945	-142.218	-0.098	0.010
-519.931	594.366	-0.060	-0.148
-518.916	800.000	-0.031	0.100
-517.902	-15.193	0.164	0.105
-516.887	-85.452	-0.133	-0.041
-515.872	-99.546	-0.241	-0.060
-514.858	-200.000	0.009	-0.364
-513.843	68.679	-0.152	-0.156
-512.829	-118.832	-0.236	-0.041
-511.814	-88.584	0.357	-0.106
-510.799	270.372	0.115	-0.202
-509.785	314.384	-0.080	-0.151
-508.770	-136.470	-0.160	-0.018
-507.756	-33.189	0.081	0.045
-506.741	171.610	-0.107	0.154
-505.726	112.167	0.111	-0.134
-504.712	-200.000	0.017	-0.293
-503.697	30.962	-0.069	-0.059
-502.683	-200.000	-0.016	0.083
-501.668	-200.000	-0.008	-0.060
-500.653	-37.083	-0.309	0.165
-499.639	-128.757	-0.145	0.020
-498.624	316.495	-0.052	-0.098
-497.610	3.878	-0.407	0.296
-496.595	-38.807	0.056	0.029
-495.581	43.722	0.357	0.325
-494.566	-200.000	0.001	-0.099
-493.551	-153.227	0.317	-0.022
-492.537	141.361	0.060	0.080
-491.522	10.838	0.274	0.208
-490.508	28.207	0.190	-0.160
-489.493	-200.000	-0.043	-0.215
-488.478	126.819	0.110	-0.139
-487.464	-41.513	-0.335	-0.172
-486.449	205.861	0.173	-0.268
-485.435	562.994	0.050	0.120
-484.420	255.787	-0.146	0.249
-483.405	-131.616	-0.167	-0.022
-482.391	-151.730	0.090	-0.007
-481.376	9.386	0.233	0.176
-480.362	10.288	0.208	0.158
-479.347	-47.261	-0.072	0.035
-478.332	-200.000	-0.005	0.112
-477.318	-34.800	0.295	0.161
-476.303	404.389	-0.036	-0.075
-475.289	749.756	-0.122	0.326
-474.274	-120.550	-0.315	-0.053
-473.259	-84.103	-0.227	-0.072
-472.245	96.721	-0.039	0.044
-471.230	43.645	0.185	0.168
-470.216	205.412	-0.227	-0.351
-469.201	800.000	-0.057	-0.236
-468.186	5.549	0.260	0.191
-467.172	370.019	0.049	-0.100
-466.157	18.928	0.302	0.241
-465.143	36.236	-0.036	0.032
-464.128	9.664	0.045	0.034
-463.113	170.357	0.114	0.162
-462.099	-20.205	-0.113	0.069
-461.084	800.000	-0.081	-0.297
-460.070	54.551	0.149	-0.143
-459.055	29.598	-0.190	0.161
-458.040	800.000	0.104	-0.414
-457.026	-55.162	0.177	-0.079
-456.011	-200.000	0.045	-0.290
-454.997	29.996	-0.083	-0.071
-453.982	-90.610	-0.284	0.082
-452.968	263.158	-0.035	0.061
-451.953	495.930	-0.124	0.284
-450.938	-120.187	0.050	-0.009
-449.924	-200.000	-0.048	0.318
-448.909	-200.000	-0.003	0.300
-447.895	-27.299	-0.165	0.096
-446.880	55.233	-0.140	-0.134
-445.865	-12.662	0.176	-0.114
-444.851	-83.488	0.131	0.042
-443.836	-164.985	-0.587	0.026
-442.822	-52.779	0.372	-0.170
-441.807	-200.000	-0.001	0.088
-440.792	105.764	0.157	-0.185
-439.778	-200.000	-0.033	0.163
-438.763	104.063	-0.112	0.130
-437.749	-56.177	0.023	-0.010
-436.734	233.702	0.132	0.216
-435.719	671.756	-0.076	-0.197
-434.705	-200.000	-0.009	0.166
-433.690	800.000	-0.060	0.258
-432.676	-200.000	0.023	0.159
-431.661	800.000	-0.091	0.387
-430.646	175.432	-0.197	-0.284
-429.632	152.210	-0.168	-0.228
-428.617	-140.628	-0.237	-0.024
-427.603	-92.918	0.321	-0.089
-426.588	10.916	0.066	0.050
-425.573	-27.729	-0.082	0.048
-424.559	91.220	-0.091	0.102
-423.544	311.600	0.046	-0.085
-422.530	97.486	-0.067	0.077
-421.515	299.419	-0.072	-0.131
-420.500	674.452	-0.073	-0.187
-419.486	-200.000	-0.047	0.209
-418.471	-137.204	0.396	0.045
-417.457	-200.000	0.033	-0.246
-416.442	-165.299	0.159	-0.007
-415.428	-200.000	0.041	-0.212
-414.413	23.285	0.123	-0.100
-413.398	800.000	-0.143	-0.542
-412.384	34.497	0.176	0.152
-411.369	-114.354	0.257	0.049
-410.355	-200.000	-0.031	-0.314
-409.340	73.323	0.339	0.352
-408.325	-28.924	-0.465	-0.265
-407.311	69.359	-0.251	-0.256
-406.296	-200.000	-0.002	-0.331
-405.282	-103.044	0.351	-0.083
-404.267	-200.000	-0.027	-0.290
-403.252	18.583	-0.251	0.199
-402.238	-200.000	0.023	0.157
-401.223	800.000	0.032	0.106
-400.209	70.163	0.138	-0.141
-399.194	-41.131	-0.048	-0.025
-398.179	-33.431	-0.054	-0.029
-397.165	397.463	-0.051	-0.105
-396.150	374.824	-0.061	0.122
-395.136	137.683	0.170	0.221
-394.121	-9.514	0.107	-0.071
-393.106	-85.852	-0.070	0.021
-392.092	-100.561	-0.319	-0.078
-391.077	458.453	-0.077	0.170
-390.063	297.021	0.181	0.330
-389.048	-23.263	0.064	-0.038
-388.033	11.864	0.119	0.090
-387.019	185.835	0.123	-0.182
-386.004	261.193	0.219	0.375
-384.990	-64.389	0.206	-0.083
-383.975	-177.162	0.142	-0.004
-382.960	-200.000	-0.002	-0.162
-381.946	27.891	-0.358	-0.299
-380.931	-200.000	-0.015	-0.084
-379.917	150.310	-0.067	-0.090
-378.902	800.000	-0.151	-0.414
-377.888	173.035	-0.099	-0.142
-376.873	800.000	-0.040	0.118
-375.858	-200.000	-0.058	-0.256
-374.844	99.186	-0.178	0.204
-373.829	-116.355	-0.233	-0.043
-372.815	0.945	-0.101	-0.072
-371.800	-77.779	0.423	-0.145
-370.785	800.000	0.058	0.200
-369.771	-54.767	-0.275	0.123
-368.756	-43.337	0.058	0.029
-367.742	-130.887	0.512	0.068
-366.727	800.000	-0.010	0.041
-365.712	-29.320	-0.340	0.193
-364.698	-114.313	0.309	-0.059
-363.683	-200.000	-0.018	-0.103
-362.669	451.938	-0.095	0.207
-361.654	-76.290	-0.081	-0.028
-360.639	-45.618	0.277	0.136
-359.625	-117.146	-0.126	-0.023
-358.610	365.335	0.050	0.099
-357.596	-39.750	-0.051	0.026
-356.581	151.681	0.394	0.532
-355.566	-41.426	-0.106	0.054
-354.552	296.433	0.036	0.065
-353.537	-60.669	0.238	0.100
-352.523	45.203	-0.040	-0.037
-351.508	90.141	-0.118	-0.131
-350.493	-200.000	-0.009	0.144
-349.479	63.329	-0.193	0.192
-348.464	-8.200	0.139	-0.092
-347.450	248.987	0.150	-0.252
-346.435	-72.986	-0.100	-0.036
-345.420	295.536	-0.057	0.102
-344.406	-42.008	0.244	-0.124
-343.391	4.522	0.206	0.149
-342.377	-200.000	0.052	-0.275
-341.362	-11.724	0.140	0.091
-340.348	-200.000	0.005	0.401
-339.333	-9.022	0.119	-0.079
-338.318	69.544	-0.261	-0.266
-337.304	239.454	-0.094	0.155
-336.289	29.410	-0.257	0.217
-335.275	-90.571	0.210	0.060
-334.260	-200.000	-0.037	0.230
-333.245	395.135	-0.049	-0.102
-332.231	127.577	-0.077	-0.097
-331.216	129.921	0.186	0.235
-330.202	-200.000	-0.025	-0.170
-329.187	-78.317	-0.290	-0.098
-328.172	126.296	-0.054	-0.067
-327.158	38.973	-0.167	0.147
-326.143	-172.934	0.239	0.007
-325.129	-200.000	0.029	-0.239
-324.114	-59.521	0.103	-0.044
-323.099	122.143	-0.195	-0.241
-322.085	-151.765	0.268	-0.019
-321.070	-135.851	0.130	-0.015
-320.056	-116.195	0.173	0.032
-319.041	-8.904	-0.029	-0.019
-318.026	-165.585	0.250	-0.011
-317.012	-102.764	-0.078	0.018
-315.997	-89.527	0.088	0.026
-314.983	-200.000	0.010	0.270
-313.968	800.000	-0.048	-0.148
-312.953	194.954	0.012	0.018
-311.939	-104.371	0.114	0.026
-310.924	-24.710	0.155	-0.091
-309.910	-0.924	-0.154	-0.108
-308.895	-95.865	-0.075	0.020
-307.880	-80.850	-0.331	0.109
-306.866	19.462	0.156	-0.124
-305.851	-148.188	-0.447	0.037
-304.837	204.104	0.174	-0.266
-303.822	-174.323	0.137	0.004
-302.807	800.000	0.030	0.097
-301.793	-200.000	0.017	0.294
-300.778	-90.027	-0.262	-0.076
-299.764	-113.554	0.246	-0.048
-298.749	-200.000	-0.027	-0.176
-297.735	120.217	0.102	0.125
-296.720	134.912	-0.169	0.217
-295.705	800.000	0.080	0.224
-294.691	297.100	0.088	0.159
-293.676	800.000	-0.063	0.218
-292.662	29.229	0.278	0.233
-291.647	511.043	-0.032	0.074
-290.632	-125.693	-0.168	0.025
-289.618	-31.816	-0.125	0.069
-288.603	800.000	0.034	0.133
-287.589	800.000	-0.043	0.158
-286.574	-163.600	-0.263	-0.012
-285.559	-107.812	-0.210	0.045
-284.545	-125.291	-0.265	0.040
-283.530	59.694	-0.091	-0.089
-282.516	-88.348	-0.188	-0.056
-281.501	764.711	0.062	-0.167
-280.486	800.000	0.024	0.101
-279.472	361.947	0.162	-0.320
-278.457	-2.878	0.278	-0.192
-277.443	748.826	-0.079	-0.210
-276.428	17.813	-0.213	0.167
-275.413	22.552	0.159	-0.128
-274.399	208.944	-0.185	0.287
-273.384	-112.410	-0.156	-0.031
-272.370	-11.277	0.126	-0.082
-271.355	277.803	-0.073	0.128
-270.340	265.184	-0.056	0.096
-269.326	-99.176	0.011	0.003
-268.311	-109.330	0.156	0.033
-267.297	772.624	-0.058	0.155
-266.282	29.553	0.068	-0.057
-265.267	83.256	-0.193	-0.207
-264.253	516.389	-0.196	0.452
-263.238	-164.820	0.641	-0.028
-262.224	-200.000	-0.012	-0.093
-261.209	-34.443	0.197	-0.107
-260.195	-26.593	0.137	-0.079
-259.180	800.000	-0.055	0.174
-258.165	638.801	0.098	0.245
-257.151	134.105	-0.163	-0.208
-256.136	-178.632	-0.178	0.004
-255.122	-197.225	-0.365	0.002
-254.107	-63.594	-0.342	0.139
-253.092	800.000	-0.033	0.109
-252.078	428.545	0.065	0.139
-251.063	-67.035	-0.220	0.086
-250.049	-115.667	0.295	0.055
-249.034	42.357	0.150	0.135
-248.019	-135.808	-0.157	0.018
-247.005	-100.874	0.407	-0.099
-245.990	127.473	0.061	0.077
-244.976	-83.619	0.127	0.040
-243.961	-35.145	0.059	0.032
-242.946	-164.175	-0.220	-0.010
-241.932	-149.010	0.152	0.012
-240.917	-125.822	-0.180	0.027
-239.903	32.198	0.115	-0.098
-238.888	36.563	0.218	0.190
-237.873	800.000	-0.041	-0.146
-236.859	-108.933	0.369	-0.078
-235.844	-200.000	0.022	0.213
-234.830	170.988	-0.162	0.229
-233.815	379.859	0.073	-0.148
-232.800	-142.873	0.304	-0.029
-231.786	800.000	-0.040	0.108
-230.771	-24.593	0.233	0.137
-229.757	39.286	-0.221	0.195
-228.742	-119.082	0.300	-0.052
-227.727	-153.801	-0.109	-0.007
-226.713	137.078	0.194	0.250
-225.698	-83.450	-0.088	0.028
-224.684	800.000	0.049	-0.134
-223.669	-100.296	0.116	0.028
-222.655	-200.000	0.042	0.316
-221.640	-200.000	0.014	0.211
-220.625	428.664	0.036	-0.077
-219.611	-33.846	0.293	0.159
-218.596	646.706	-0.059	-0.147
-217.582	439.455	-0.124	-0.267
-216.567	-200.000	0.066	-0.326
-215.552	615.007	0.049	0.121
-214.538	-177.502	0.163	0.004
-213.523	800.000	0.064	-0.225
-212.509	-3.604	-0.186	-0.127
-211.494	777.709	-0.019	0.052
-210.479	19.580	0.145	0.115
-209.465	-131.409	0.185	-0.024
-208.450	-85.281	-0.139	-0.043
-207.436	497.992	-0.067	-0.151
-206.421	800.000	0.016	-0.057
-205.406	800.000	-0.081	-0.312
-204.392	-59.212	0.207	0.088
-203.377	-200.000	-0.062	0.276
-202.363	36.977	-0.060	0.053
-201.348	-200.000	-0.000	-0.332
-200.333	-200.000	0.007	-0.177
-199.319	686.404	0.137	0.352
-198.304	584.890	-0.089	0.215
-197.290	-98.473	0.385	0.097
-196.275	213.626	0.202	-0.315
-195.260	-58.948	0.239	-0.102
-194.246	-200.000	-0.004	0.216
-193.231	-53.430	-0.283	0.128
-192.217	-200.000	-0.002	0.102
-191.202	26.824	-0.089	-0.074
-190.187	91.778	-0.045	-0.050
-189.173	57.571	-0.210	0.202
-188.158	-117.440	0.185	0.033
-187.144	-100.511	-0.046	0.011
-186.129	-69.458	-0.217	-0.082
-185.114	-45.888	0.131	-0.064
-184.100	333.401	0.048	0.091
-183.085	263.248	-0.043	-0.073
-182.071	38.365	0.281	0.246
-181.056	117.385	-0.293	0.354
-180.042	31.111	-0.243	-0.205
-179.027	-38.453	-0.411	-0.214
-178.012	-200.000	0.009	-0.208
-176.998	-200.000	-0.001	0.042
-175.983	10.988	0.262	-0.197
-174.969	-123.076	-0.212	-0.033
-173.954	487.266	-0.080	-0.180
-172.939	-154.896	0.325	0.021
-171.925	233.640	0.134	-0.216
-170.910	-200.000	-0.020	0.396
-169.896	82.843	-0.295	-0.315
-168.881	-77.380	0.050	-0.017
-167.866	-28.983	-0.190	0.107
-166.852	105.201	-0.221	0.257
-165.837	-29.547	-0.081	-0.046
-164.823	-57.211	0.173	-0.075
-163.808	124.245	-0.205	0.253
-162.793	28.408	0.126	-0.105
-161.779	-30.620	0.267	0.149
-160.764	34.691	0.048	0.041
-159.750	-3.448	-0.356	-0.244
-158.735	-104.575	0.401	0.091
-157.720	-98.847	0.053	0.013
-156.706	800.000	-0.066	-0.185
-155.691	-6.627	-0.158	0.105
-154.677	233.822	0.112	0.181
-153.662	82.604	0.115	-0.123
-152.647	316.097	-0.058	0.107
-151.633	95.043	0.089	-0.100
-150.618	-125.667	0.251	-0.037
-149.604	-58.252	0.210	0.090
-148.589	150.436	-0.059	-0.079
-147.574	-125.729	-0.152	-0.023
-146.560	-200.000	-0.027	-0.196
-145.545	129.870	0.138	-0.173
-144.531	-86.390	0.284	-0.086
-143.516	-200.000	0.031	-0.144
-142.502	228.746	-0.061	0.098
-141.487	153.761	0.129	-0.174
-140.472	-127.454	-0.504	-0.072
-139.458	246.304	-0.091	0.151
-138.443	-84.588	-0.182	-0.056
-137.429	-200.000	0.053	-0.269
-136.414	557.573	-0.015	-0.036
-135.399	800.000	-0.037	-0.156
-134.385	-200.000	-0.005	-0.246
-133.370	-116.438	-0.322	0.058
-132.356	67.234	0.292	-0.292
-131.341	800.000	0.065	-0.269
-130.326	-200.000	-0.015	0.094
-129.312	-200.000	0.036	0.165
-128.297	98.242	0.109	0.124
-127.283	-120.072	-0.234	0.039
-126.268	800.000	-0.055	-0.177
-125.253	691.739	0.096	-0.246
-124.239	282.683	-0.125	-0.220
-123.224	-200.000	0.020	-0.196
-122.210	-115.449	0.231	-0.043
