DTS Sentinel unit serial number:	SN413079Multiplexer serial number:	ORYXHardware model number:	OX4-SRSoftware version number:	ORYX F/W v4.00 Oryx Data Collector v3.7.2.0data status	okinstallation	princeton_trtdifferential loss correction	single-endedforward channel	channel 4reverse channel	N/Adate	2019/09/16time	13:29:35forward acquisition time	60.00reverse acquisition time	0.00gamma	496.2192k internal	0.2287k external	0.2287temperature offset calibration	0.9937default loss term (dB/km)	0.3790temperature slope calibration	1.0000multiplexer offset coefficient	1.0000multiplexer slope coefficient	1.0000fibre end	0.00T internal ref (°C)	41.73T ext. ref 1 (°C)	13.81T ext. ref 2 (°C)	39.71length (m)	temperature (°C)	Stokes	anti-Stokes-747.200	-181.639	0.551	0.011
-746.185	459.840	-0.148	0.338
-745.171	-200.000	0.003	-0.153
-744.156	-30.274	0.089	0.052
-743.142	101.826	-0.032	-0.038
-742.127	-200.000	-0.029	0.464
-741.112	73.394	-0.011	0.011
-740.098	195.253	-0.143	0.223
-739.083	800.000	0.038	-0.155
-738.069	238.986	-0.065	-0.112
-737.054	145.669	0.042	0.058
-736.039	-3.223	-0.228	0.163
-735.025	-6.472	0.238	0.166
-734.010	71.328	0.165	-0.176
-732.996	38.965	-0.201	-0.184
-731.981	-200.000	-0.048	-0.319
-730.966	-66.721	-0.125	-0.051
-729.952	-85.202	-0.106	-0.034
-728.937	-104.554	0.099	-0.023
-727.923	-92.687	0.192	-0.055
-726.908	-182.174	-0.133	-0.003
-725.894	194.673	-0.125	-0.195
-724.879	193.166	-0.168	0.260
-723.864	-200.000	-0.041	-0.296
-722.850	529.520	-0.107	-0.260
-721.835	-200.000	-0.051	-0.273
-720.821	27.101	-0.143	0.123
-719.806	-31.690	-0.394	-0.226
-718.791	133.814	-0.160	-0.212
-717.777	564.491	-0.069	-0.172
-716.762	-132.902	0.181	0.024
-715.748	420.776	0.124	-0.273
-714.733	-28.228	-0.199	-0.118
-713.718	-200.000	-0.015	-0.266
-712.704	674.064	0.102	-0.272
-711.689	344.562	-0.068	0.137
-710.675	-148.569	0.240	-0.020
-709.660	-200.000	-0.034	0.317
-708.645	93.617	0.076	-0.088
-707.631	-19.059	0.222	0.142
-706.616	-143.593	-0.253	-0.025
-705.602	76.920	0.298	0.324
-704.587	103.700	-0.027	-0.032
-703.572	294.103	-0.175	0.328
-702.558	67.231	0.064	0.067
-701.543	-124.517	0.167	0.027
-700.529	-200.000	0.012	-0.474
-699.514	-141.845	-0.071	-0.007
-698.499	-200.000	0.031	0.366
-697.485	200.897	0.095	-0.150
-696.470	-32.542	-0.194	0.111
-695.456	-63.043	-0.116	0.049
-694.441	-9.682	-0.105	0.072
-693.426	-70.873	-0.305	0.118
-692.412	-102.844	0.174	-0.042
-691.397	-200.000	-0.026	0.205
-690.383	-190.331	-0.308	-0.003
-689.368	-95.337	-0.416	-0.115
-688.354	58.800	-0.201	0.203
-687.339	303.157	-0.122	0.230
-686.324	11.635	0.227	-0.178
-685.310	-44.560	0.097	0.050
-684.295	97.563	-0.194	0.228
-683.281	-141.063	-0.252	0.026
-682.266	51.963	-0.251	0.244
-681.251	800.000	0.135	0.502
-680.237	-142.970	-0.166	-0.017
-679.222	-93.048	-0.183	-0.052
-678.208	800.000	0.044	-0.124
-677.193	81.858	0.127	0.140
-676.178	-200.000	-0.021	-0.126
-675.164	138.448	0.082	0.110
-674.149	116.077	-0.134	0.168
-673.135	-106.092	0.253	-0.058
-672.120	426.039	-0.061	0.134
-671.105	-91.295	-0.357	0.104
-670.091	540.579	0.066	-0.162
-669.076	-200.000	-0.054	-0.299
-668.062	21.794	0.418	0.348
-667.047	-91.748	0.310	-0.090
-666.032	34.017	0.228	-0.203
-665.018	-193.898	-0.224	0.002
-664.003	-160.244	-0.243	0.013
-662.989	101.612	0.129	-0.154
-661.974	-10.613	-0.266	0.180
-660.959	-200.000	-0.043	0.372
-659.945	600.990	-0.134	-0.341
-658.930	-200.000	-0.026	0.281
-657.916	163.394	0.087	0.125
-656.901	-9.293	-0.051	-0.035
-655.886	-151.797	0.278	0.021
-654.872	1.803	-0.162	0.120
-653.857	135.262	-0.308	0.409
-652.843	110.165	0.208	-0.256
-651.828	551.193	-0.088	0.215
-650.814	-56.840	0.181	0.082
-649.799	-7.935	0.249	-0.172
-648.784	3.151	-0.222	0.165
-647.770	-200.000	-0.006	-0.284
-646.755	-170.246	-0.189	-0.007
-645.741	-97.906	-0.081	0.021
-644.726	28.918	0.075	-0.065
-643.711	312.083	0.072	-0.138
-642.697	-57.592	-0.195	0.087
-641.682	402.658	-0.034	0.072
-640.668	-200.000	-0.020	0.171
-639.653	-63.456	0.178	0.075
-638.638	86.840	0.047	-0.053
-637.624	-77.378	-0.143	-0.051
-636.609	63.546	0.330	-0.338
-635.595	666.753	-0.037	-0.098
-634.580	299.153	0.068	-0.129
-633.565	-200.000	-0.030	0.187
-632.551	-154.151	0.163	-0.011
-631.536	-125.298	-0.136	0.021
-630.522	62.449	0.114	-0.116
-629.507	115.720	-0.125	0.156
-628.492	-115.738	-0.290	0.055
-627.478	-200.000	0.024	-0.156
-626.463	-11.527	-0.235	-0.158
-625.449	-146.738	0.283	0.025
-624.434	-181.946	0.451	-0.009
-623.419	-83.088	-0.201	-0.066
-622.405	88.268	-0.223	-0.252
-621.390	-60.519	-0.251	0.109
-620.376	-135.269	0.247	0.030
-619.361	10.044	0.081	-0.063
-618.346	-75.076	0.312	-0.114
-617.332	138.573	-0.108	0.145
-616.317	800.000	0.056	0.199
-615.303	217.321	0.143	0.233
-614.288	23.123	-0.082	0.069
-613.273	589.219	0.102	0.256
-612.259	173.603	-0.168	-0.247
-611.244	-89.774	-0.146	0.044
-610.230	477.509	0.113	0.261
-609.215	-123.755	0.278	-0.045
-608.201	-200.000	0.076	0.354
-607.186	-122.260	0.290	0.048
-606.171	59.085	0.123	0.124
-605.157	27.806	0.104	-0.089
-604.142	-118.789	-0.088	-0.016
-603.128	-87.454	0.188	-0.058
-602.113	24.912	0.117	-0.099
-601.098	-200.000	-0.005	-0.273
-600.084	-35.810	0.119	0.066
-599.069	800.000	-0.005	0.015
-598.055	800.000	-0.031	-0.095
-597.040	-81.183	0.324	-0.109
-596.025	59.225	-0.188	-0.189
-595.011	50.956	-0.124	0.120
-593.996	800.000	-0.051	0.202
-592.982	418.405	0.041	0.089
-591.967	-37.764	0.332	-0.180
-590.952	-200.000	-0.027	-0.341
-589.938	15.027	-0.137	0.109
-588.923	229.024	-0.279	0.464
-587.909	170.616	0.168	-0.245
-586.894	-200.000	-0.045	-0.298
-585.879	800.000	-0.067	0.227
-584.865	-14.688	-0.042	0.027
-583.850	27.923	0.300	-0.258
-582.836	-54.812	-0.319	-0.147
-581.821	-200.000	-0.001	-0.230
-580.806	-37.418	-0.374	-0.203
-579.792	-200.000	0.004	-0.017
-578.777	-153.190	-0.258	-0.018
-577.763	-91.684	0.162	0.047
-576.748	-200.000	-0.016	0.074
-575.733	128.276	-0.127	0.165
-574.719	-200.000	-0.043	-0.475
-573.704	-158.807	0.201	-0.012
-572.690	-200.000	-0.039	0.337
-571.675	44.540	-0.116	0.108
-570.661	-53.202	0.260	-0.122
-569.646	14.291	0.378	0.301
-568.631	-200.000	-0.037	0.312
-567.617	-29.107	-0.261	-0.153
-566.602	-115.516	-0.429	0.082
-565.588	163.841	0.029	0.041
-564.573	52.257	0.064	-0.062
-563.558	-46.784	-0.133	0.066
-562.544	17.898	-0.100	-0.081
-561.529	-121.538	-0.081	0.014
-560.515	191.380	-0.167	-0.257
-559.500	-175.834	-0.332	-0.009
-558.485	800.000	-0.047	0.208
-557.471	-66.198	0.304	-0.123
-556.456	-48.803	-0.190	0.093
-555.442	-200.000	0.010	-0.077
-554.427	800.000	0.067	-0.191
-553.412	301.685	-0.164	0.308
-552.398	79.287	0.069	-0.076
-551.383	142.685	0.143	0.194
-550.369	54.287	-0.253	0.248
-549.354	277.493	-0.158	-0.285
-548.339	251.699	-0.122	0.212
-547.325	-103.246	-0.415	0.100
-546.310	-91.947	-0.276	0.080
-545.296	-200.000	0.042	0.210
-544.281	497.099	-0.105	-0.246
-543.266	-200.000	-0.003	0.060
-542.252	-104.699	0.092	0.022
-541.237	91.287	-0.303	0.347
-540.223	-181.238	-0.032	-0.001
-539.208	569.589	-0.025	-0.062
-538.193	365.940	-0.089	0.182
-537.179	800.000	-0.095	0.414
-536.164	800.000	-0.105	0.394
-535.150	-34.734	-0.064	0.035
-534.135	105.840	-0.066	-0.080
-533.121	-2.901	0.067	0.048
-532.106	-72.348	-0.143	-0.054
-531.091	48.562	-0.241	0.230
-530.077	-107.846	-0.182	0.040
-529.062	5.924	0.227	-0.171
-528.048	-37.344	0.216	-0.118
-527.033	347.985	-0.059	-0.118
-526.018	21.418	-0.109	0.090
-525.004	73.934	0.227	-0.242
-523.989	-158.832	-0.248	-0.014
-522.975	45.441	-0.295	-0.277
-521.960	-63.312	0.305	-0.128
-520.945	201.103	0.138	-0.216
-519.931	800.000	-0.083	-0.306
-518.916	-94.883	0.309	0.085
-517.902	282.914	0.091	0.167
-516.887	-138.288	-0.210	0.024
-515.872	-148.800	0.156	0.013
-514.858	-200.000	-0.066	0.328
-513.843	-51.946	0.114	-0.054
-512.829	-114.042	-0.096	0.019
-511.814	-16.192	-0.149	0.096
-510.799	54.228	0.251	-0.246
-509.785	-200.000	0.037	0.464
-508.770	368.314	0.121	-0.249
-507.756	-200.000	0.019	0.208
-506.741	18.035	-0.100	0.081
-505.726	87.956	0.061	0.069
-504.712	-26.151	-0.042	0.025
-503.697	20.978	0.043	-0.036
-502.683	-172.163	0.286	-0.009
-501.668	-24.498	-0.207	-0.125
-500.653	90.262	-0.218	0.248
-499.639	-200.000	-0.007	-0.167
-498.624	-142.234	0.413	0.042
-497.610	-115.784	0.263	-0.050
-496.595	800.000	-0.062	-0.263
-495.581	201.871	-0.276	-0.433
-494.566	-137.120	-0.316	-0.037
-493.551	619.003	0.073	0.186
-492.537	-200.000	0.043	0.195
-491.522	-128.827	0.243	-0.035
-490.508	800.000	-0.078	0.345
-489.493	-200.000	0.034	-0.198
-488.478	629.827	-0.052	-0.134
-487.464	-58.432	0.374	-0.165
-486.449	-95.302	0.043	0.012
-485.435	800.000	0.051	-0.143
-484.420	195.009	0.061	0.094
-483.405	82.028	0.165	0.182
-482.391	409.212	0.081	-0.174
-481.376	369.950	0.033	0.068
-480.362	800.000	-0.067	0.254
-479.347	-200.000	-0.057	0.506
-478.332	800.000	0.086	0.313
-477.318	800.000	-0.152	0.515
-476.303	30.819	0.330	0.287
-475.289	105.243	-0.047	0.057
-474.274	-200.000	-0.015	-0.196
-473.259	286.237	0.257	-0.470
-472.245	-77.844	0.237	-0.083
-471.230	800.000	-0.007	0.022
-470.216	380.586	-0.188	-0.392
-469.201	198.234	-0.048	0.075
-468.186	366.882	0.172	-0.352
-467.172	34.566	-0.251	0.222
-466.157	-117.120	-0.306	-0.057
-465.143	160.426	-0.180	-0.255
-464.128	-200.000	0.015	-0.232
-463.113	-170.417	0.216	0.008
-462.099	-64.603	-0.334	-0.137
-461.084	257.145	0.024	-0.041
-460.070	-107.681	0.092	0.020
-459.055	800.000	-0.096	-0.334
-458.040	-111.595	0.393	0.081
-457.026	-200.000	0.023	0.211
-456.011	-82.770	0.212	0.069
-454.997	716.205	0.040	-0.108
-453.982	88.655	0.027	0.031
-452.968	-200.000	0.015	-0.149
-451.953	-41.929	-0.381	0.198
-450.938	-15.361	0.165	0.107
-449.924	477.118	0.127	-0.291
-448.909	-200.000	0.000	0.091
-447.895	-151.641	0.139	0.010
-446.880	-111.837	-0.166	0.034
-445.865	146.449	0.196	0.266
-444.851	-165.547	0.115	-0.005
-443.836	76.083	-0.068	-0.073
-442.822	80.791	0.157	-0.171
-441.807	30.569	-0.213	0.184
-440.792	-200.000	0.003	-0.149
-439.778	99.835	-0.057	-0.066
-438.763	-123.892	-0.119	-0.019
-437.749	-45.377	0.119	-0.060
-436.734	304.012	-0.111	-0.208
-435.719	253.535	0.073	0.126
-434.705	-56.095	0.145	-0.066
-433.690	64.198	-0.239	-0.243
-432.676	94.731	0.248	0.286
-431.661	249.333	-0.059	-0.102
-430.646	-149.409	-0.048	-0.004
-429.632	686.513	-0.076	-0.200
-428.617	541.142	-0.115	-0.277
-427.603	239.890	0.173	-0.293
-426.588	236.697	-0.121	0.202
-425.573	-21.489	0.187	0.116
-424.559	-47.029	0.224	0.111
-423.544	-128.373	-0.194	-0.028
-422.530	127.374	0.118	-0.151
-421.515	-200.000	-0.005	0.301
-420.500	49.171	0.106	-0.101
-419.486	-53.940	-0.448	-0.207
-418.471	-78.520	0.112	-0.039
-417.457	800.000	0.036	0.126
-416.442	-14.922	-0.336	0.218
-415.428	-143.684	-0.125	0.012
-414.413	795.408	0.073	-0.205
-413.398	268.777	-0.093	-0.165
-412.384	-134.197	-0.301	-0.038
-411.369	-51.011	-0.248	0.118
-410.355	362.287	0.136	0.277
-409.340	491.185	0.094	0.217
-408.325	-63.677	0.079	0.033
-407.311	101.695	0.086	-0.101
-406.296	-31.298	0.252	-0.143
-405.282	-200.000	0.054	0.248
-404.267	31.180	-0.011	-0.010
-403.252	608.217	-0.018	0.046
-402.238	75.379	0.267	-0.285
-401.223	-59.206	0.460	0.200
-400.209	138.984	0.133	-0.177
-399.194	-98.410	-0.289	-0.075
-398.179	142.658	0.082	0.111
-397.165	-200.000	0.009	-0.348
-396.150	800.000	-0.036	-0.122
-395.136	-69.662	-0.555	-0.215
-394.121	-70.154	-0.336	0.129
-393.106	-74.989	0.123	-0.045
-392.092	-200.000	-0.024	0.206
-391.077	-200.000	-0.042	0.293
-390.063	800.000	-0.095	-0.309
-389.048	71.457	0.113	-0.119
-388.033	-66.178	-0.201	0.081
-387.019	-45.384	-0.178	0.089
-386.004	-130.391	-0.061	-0.008
-384.990	800.000	0.025	0.070
-383.975	-178.850	-0.441	-0.010
-382.960	111.990	-0.261	-0.319
-381.946	270.404	0.206	0.367
-380.931	-200.000	-0.005	0.207
-379.917	-200.000	0.000	0.157
-378.902	-43.481	0.066	-0.034
-377.888	-73.659	-0.100	0.037
-376.873	225.216	0.208	0.341
-375.858	49.081	-0.133	0.126
-374.844	-200.000	-0.009	0.087
-373.829	800.000	0.031	0.135
-372.815	-200.000	0.024	-0.279
-371.800	-67.327	-0.043	-0.017
-370.785	37.736	0.130	0.117
-369.771	-100.514	0.121	0.030
-368.756	86.377	0.210	-0.234
-367.742	-124.414	0.196	0.031
-366.727	-200.000	0.032	-0.217
-365.712	-46.845	-0.158	-0.078
-364.698	-39.030	0.498	0.265
-363.683	800.000	0.024	0.071
-362.669	800.000	-0.067	0.208
-361.654	5.533	0.123	0.092
-360.639	800.000	0.009	0.028
-359.625	399.001	0.096	0.204
-358.610	83.876	-0.024	-0.026
-357.596	-138.660	-0.063	-0.007
-356.581	3.867	0.068	-0.050
-355.566	654.537	0.066	0.172
-354.552	-133.844	-0.054	-0.007
-353.537	-200.000	0.011	-0.324
-352.523	114.412	0.159	0.196
-351.508	70.213	0.116	0.122
-350.493	74.271	0.139	0.148
-349.479	-200.000	0.038	-0.387
-348.464	800.000	-0.085	0.330
-347.450	33.268	-0.138	-0.121
-346.435	170.369	-0.228	0.330
-345.420	570.861	0.074	0.182
-344.406	-200.000	0.107	-0.523
-343.391	800.000	-0.119	-0.339
-342.377	-82.390	-0.072	-0.024
-341.362	488.802	0.039	0.091
-340.348	67.231	0.142	-0.146
-339.333	780.486	-0.058	-0.159
-338.318	-106.485	0.303	0.068
-337.304	800.000	-0.014	-0.054
-336.289	212.674	-0.071	0.113
-335.275	-0.218	0.169	0.121
-334.260	-152.078	-0.275	0.020
-333.245	271.679	-0.117	0.208
-332.231	-27.169	-0.148	0.087
-331.216	390.983	-0.206	-0.431
-330.202	-57.332	0.119	-0.053
-329.187	-200.000	-0.018	0.433
-328.172	-200.000	0.046	-0.331
-327.158	404.346	0.073	-0.155
-326.143	-200.000	0.014	-0.193
-325.129	489.121	-0.076	-0.176
-324.114	-22.247	-0.166	0.102
-323.099	69.111	0.084	0.087
-322.085	98.753	-0.126	0.146
-321.070	-200.000	-0.016	0.146
-320.056	-200.000	-0.003	0.102
-319.041	41.825	0.157	0.143
-318.026	228.799	0.033	-0.054
-317.012	183.078	-0.102	-0.151
-315.997	-22.793	0.224	0.137
-314.983	-42.276	-0.136	-0.070
-313.968	-185.732	0.333	-0.005
-312.953	800.000	-0.032	-0.110
-311.939	-113.010	0.626	0.125
-310.924	554.229	-0.026	0.063
-309.910	-188.318	0.104	0.001
-308.895	-41.509	0.090	0.047
-307.880	100.575	-0.096	-0.113
-306.866	-42.980	0.402	0.206
-305.851	327.858	0.197	-0.382
-304.837	34.568	-0.139	-0.122
-303.822	53.174	-0.180	-0.174
-302.807	685.894	0.095	0.251
-301.793	-163.092	-0.186	0.009
-300.778	-1.320	0.154	-0.109
-299.764	-200.000	-0.007	0.243
-298.749	-200.000	-0.016	0.124
-297.735	-100.995	-0.195	0.048
-296.720	-200.000	0.035	-0.185
-295.705	-200.000	-0.020	-0.120
-294.691	87.364	0.186	-0.208
-293.676	571.525	0.068	0.167
-292.662	-49.325	-0.055	-0.026
-291.647	-9.521	-0.084	0.057
-290.632	-128.465	0.224	0.032
-289.618	213.655	0.089	0.142
-288.603	-200.000	-0.001	0.080
-287.589	-200.000	0.069	0.348
-286.574	-200.000	-0.010	-0.136
-285.559	-157.526	-0.113	0.007
-284.545	64.642	-0.044	-0.045
-283.530	-19.941	0.250	0.155
-282.516	45.984	0.080	-0.074
-281.501	-22.088	0.154	-0.094
-280.486	-61.493	0.382	-0.162
-279.472	-39.103	0.454	0.240
-278.457	800.000	0.087	-0.331
-277.443	-30.611	-0.420	-0.239
-276.428	-200.000	-0.035	-0.314
-275.413	233.701	0.162	0.268
-274.399	-75.163	-0.242	0.087
-273.384	-200.000	-0.001	-0.579
-272.370	-138.453	0.220	0.024
-271.355	5.039	-0.357	-0.265
-270.340	-64.091	-0.288	-0.119
-269.326	523.553	-0.151	0.358
-268.311	-200.000	0.020	-0.207
-267.297	800.000	0.075	-0.217
-266.282	-166.233	-0.232	0.010
-265.267	133.884	0.126	0.164
-264.253	-169.407	0.111	0.004
-263.238	28.182	-0.229	-0.195
-262.224	429.713	-0.091	0.198
-261.209	-104.732	-0.174	0.040
-260.195	-164.209	0.312	0.014
-259.180	-128.039	-0.111	-0.016
-258.165	-37.044	-0.110	-0.059
-257.151	-190.636	-0.288	0.003
-256.136	-86.120	0.041	-0.013
-255.122	-81.994	0.296	-0.097
-254.107	-200.000	-0.029	0.187
-253.092	-66.497	0.053	-0.021
-252.078	-22.827	0.127	0.077
-251.063	-58.159	0.200	0.088
-250.049	92.735	-0.055	0.062
-249.034	328.363	0.136	0.263
-248.019	-26.999	0.236	0.139
-247.005	-5.925	0.111	0.076
-245.990	-200.000	-0.044	-0.250
-244.976	20.585	0.039	-0.031
-243.961	2.899	0.083	-0.060
-242.946	62.203	-0.099	-0.100
-241.932	-200.000	0.052	-0.282
-240.917	504.925	-0.082	-0.192
-239.903	-2.110	0.059	-0.042
-238.888	-23.865	-0.428	0.258
-237.873	446.099	-0.174	0.384
-236.859	-200.000	-0.090	0.652
-235.844	-45.785	-0.098	0.049
-234.830	800.000	-0.070	0.199
-233.815	-131.642	0.198	-0.026
-232.800	-59.397	-0.287	0.124
-231.786	-84.006	-0.291	0.093
-230.771	800.000	0.054	-0.233
-229.757	-200.000	0.033	0.232
-228.742	-200.000	-0.006	0.314
-227.727	-27.288	-0.067	0.039
-226.713	-56.551	-0.137	-0.061
-225.698	147.929	-0.144	0.195
-224.684	-125.867	-0.162	0.025
-223.669	-142.318	-0.106	0.010
-222.655	-21.356	-0.226	0.138
-221.640	-8.125	0.120	-0.081
-220.625	80.951	0.159	-0.172
-219.611	-200.000	-0.066	-0.385
-218.596	36.644	-0.187	-0.166
-217.582	-100.133	0.307	-0.077
-216.567	800.000	-0.066	0.195
-215.552	-131.115	0.093	0.012
-214.538	-200.000	0.029	-0.179
-213.523	473.237	-0.042	0.095
-212.509	-15.082	0.103	-0.066
-211.494	-70.184	0.122	-0.047
-210.479	227.186	-0.251	-0.409
-209.465	19.646	0.057	0.046
-208.450	-109.695	-0.174	0.037
-207.436	393.651	-0.073	-0.154
-206.421	800.000	-0.067	-0.212
-205.406	245.807	0.156	0.263
-204.392	524.409	0.154	-0.364
-203.377	12.879	-0.129	0.100
-202.363	53.399	0.214	-0.206
-201.348	148.472	-0.081	-0.110
-200.333	-107.181	-0.200	-0.044
-199.319	-128.891	-0.240	0.034
-198.304	326.585	-0.156	-0.300
-197.290	49.142	-0.031	0.029
-196.275	-43.509	0.059	-0.030
-195.260	509.131	0.028	-0.066
-194.246	-200.000	0.015	-0.200
-193.231	-200.000	0.011	0.135
-192.217	-193.363	-0.050	0.000
-191.202	-143.763	0.260	0.025
-190.187	6.774	-0.184	-0.137
-189.173	746.644	-0.060	0.162
-188.158	800.000	-0.080	0.241
-187.144	-101.933	0.283	-0.069
-186.129	196.792	0.122	0.186
-185.114	800.000	-0.064	-0.197
-184.100	269.614	0.091	-0.161
-183.085	551.912	-0.044	-0.105
-182.071	224.658	0.143	-0.232
-181.056	-125.474	-0.098	0.015
-180.042	800.000	-0.065	-0.184
-179.027	124.593	-0.161	-0.203
-178.012	-121.769	0.261	-0.043
-176.998	-200.000	0.100	0.512
-175.983	-23.650	-0.385	0.232
-174.969	-47.583	-0.302	0.147
-173.954	-200.000	-0.018	-0.226
-172.939	286.274	0.076	-0.137
-171.925	-153.065	0.099	0.007
-170.910	-200.000	0.062	0.366
-169.896	-200.000	0.057	0.363
-168.881	-110.876	-0.145	-0.030
-167.866	68.152	0.014	-0.014
-166.852	89.234	-0.124	0.138
-165.837	-113.016	0.475	-0.094
-164.823	800.000	0.125	-0.364
-163.808	500.708	0.035	-0.081
-162.793	255.973	-0.054	0.093
-161.779	-45.224	-0.139	-0.069
-160.764	-95.984	-0.125	0.033
-159.750	230.494	0.150	-0.246
-158.735	211.325	0.186	-0.293
-157.720	60.841	0.175	0.174
-156.706	411.104	0.124	0.264
-155.691	13.131	-0.350	0.272
-154.677	46.762	0.240	0.223
-153.662	45.773	-0.109	0.101
-152.647	32.937	-0.059	0.052
-151.633	612.036	-0.045	-0.112
-150.618	242.681	0.147	-0.246
-149.604	18.152	-0.021	0.017
-148.589	31.420	0.328	-0.283
-147.574	-200.000	-0.029	-0.391
-146.560	-200.000	0.064	0.000
-145.545	-200.000	0.003	0.197
-144.531	125.415	0.032	-0.040
-143.516	-17.963	0.174	-0.110
-142.502	-107.171	0.256	0.056
-141.487	320.819	-0.070	-0.133
-140.472	127.176	-0.037	-0.046
-139.458	669.852	-0.094	0.244
-138.443	218.908	0.141	0.225
-137.429	9.784	-0.198	0.151
-136.414	-170.912	0.103	0.004
-135.399	221.744	-0.268	0.431
-134.385	800.000	0.107	0.418
-133.370	52.428	0.282	0.270
-132.356	800.000	0.077	-0.329
-131.341	-8.575	-0.164	-0.110
-130.326	3.817	0.036	0.026
-129.312	92.621	-0.291	-0.329
-128.297	223.860	0.115	0.186
-127.283	-13.473	-0.133	-0.086
-126.268	-68.563	-0.125	0.049
-125.253	-200.000	0.024	0.437
-124.239	74.755	-0.234	0.247
-123.224	161.121	-0.152	-0.213
-122.210	800.000	0.111	0.450
-121.195	9.906	-0.069	-0.052
