DTS Sentinel unit serial number:	SN413079Multiplexer serial number:	ORYXHardware model number:	OX4-SRSoftware version number:	ORYX F/W v4.00 Oryx Data Collector v3.7.2.0data status	okinstallation	princeton_trtdifferential loss correction	single-endedforward channel	channel 4reverse channel	N/Adate	2019/09/11time	22:31:11forward acquisition time	60.00reverse acquisition time	0.00gamma	496.2192k internal	0.2307k external	0.2307temperature offset calibration	1.0077default loss term (dB/km)	0.3790temperature slope calibration	1.0000multiplexer offset coefficient	1.0000multiplexer slope coefficient	1.0000fibre end	0.00T internal ref (°C)	35.06T ext. ref 1 (°C)	1.80T ext. ref 2 (°C)	29.44length (m)	temperature (°C)	Stokes	anti-Stokes-747.200	-88.532	-0.272	-0.082
-746.185	-104.332	-0.467	0.110
-745.171	296.762	0.109	0.202
-744.156	-200.000	0.009	0.051
-743.142	-59.967	0.315	0.137
-742.127	800.000	0.079	0.249
-741.112	-71.948	-0.026	0.010
-740.098	-168.613	-0.207	0.008
-739.083	56.622	0.216	-0.214
-738.069	343.458	-0.086	0.171
-737.054	47.819	0.238	0.226
-736.039	227.185	0.011	0.019
-735.025	-0.214	0.331	0.240
-734.010	95.216	-0.110	0.127
-732.996	-26.782	-0.178	0.106
-731.981	572.419	-0.107	-0.265
-730.966	-31.096	0.103	-0.059
-729.952	194.775	0.167	-0.258
-728.937	-148.670	0.116	-0.010
-727.923	246.987	0.168	-0.287
-726.908	51.583	-0.042	-0.041
-725.894	-200.000	0.042	-0.382
-724.879	420.672	-0.022	0.048
-723.864	44.119	-0.240	-0.223
-722.850	-33.786	0.095	-0.053
-721.835	627.886	-0.137	-0.352
-720.821	-61.492	-0.223	-0.095
-719.806	-200.000	0.054	-0.271
-718.791	748.722	-0.133	0.364
-717.777	254.497	-0.031	-0.053
-716.762	263.304	0.127	-0.223
-715.748	-200.000	0.023	-0.104
-714.733	-200.000	0.017	-0.286
-713.718	800.000	0.060	-0.206
-712.704	-200.000	-0.033	-0.195
-711.689	-200.000	-0.097	-0.499
-710.675	628.641	0.059	-0.152
-709.660	145.521	0.189	0.257
-708.645	717.855	-0.092	0.249
-707.631	173.051	0.071	-0.104
-706.616	224.966	-0.198	0.325
-705.602	41.789	-0.116	-0.107
-704.587	-200.000	-0.010	0.142
-703.572	245.492	-0.014	0.023
-702.558	263.375	-0.082	-0.144
-701.543	-18.599	0.153	-0.097
-700.529	-104.307	0.247	-0.058
-699.514	-93.656	-0.129	0.036
-698.499	208.100	-0.149	-0.236
-697.485	-70.671	-0.081	0.031
-696.470	-72.485	0.327	0.123
-695.456	-200.000	-0.286	0.000
-694.441	140.503	0.052	0.070
-693.426	4.282	0.108	0.080
-692.412	-200.000	0.013	-0.080
-691.397	-70.727	-0.212	0.081
-690.383	129.434	-0.015	-0.019
-689.368	-142.443	-0.293	0.029
-688.354	-168.558	-0.317	0.012
-687.339	91.054	-0.170	-0.193
-686.324	121.592	0.045	-0.057
-685.310	-134.927	-0.042	0.005
-684.295	-35.504	-0.360	-0.198
-683.281	217.666	0.064	-0.103
-682.266	-120.691	0.130	0.022
-681.251	-138.522	-0.332	-0.037
-680.237	7.810	0.263	-0.200
-679.222	800.000	0.114	0.338
-678.208	491.832	-0.103	-0.240
-677.193	-104.650	-0.116	0.027
-676.178	-200.000	0.034	0.241
-675.164	342.588	0.096	0.190
-674.149	-5.259	-0.139	0.097
-673.135	-133.101	-0.327	-0.042
-672.120	112.316	0.264	-0.324
-671.105	-69.783	-0.170	0.066
-670.091	-200.000	0.013	0.098
-669.076	-200.000	0.055	-0.247
-668.062	2.431	0.100	0.073
-667.047	-156.168	0.156	-0.010
-666.032	-22.461	-0.193	0.118
-665.018	-137.982	0.274	0.031
-664.003	17.040	0.256	0.206
-662.989	-200.000	-0.025	0.210
-661.974	139.963	-0.184	0.246
-660.959	-1.821	-0.045	-0.032
-659.945	-200.000	0.039	-0.188
-658.930	800.000	0.063	-0.223
-657.916	31.421	0.165	0.143
-656.901	-200.000	0.058	0.302
-655.886	-187.019	0.495	0.007
-654.872	800.000	0.027	0.090
-653.857	594.873	0.078	-0.195
-652.843	-92.221	-0.432	-0.124
-651.828	64.932	-0.067	-0.068
-650.814	-40.436	0.118	0.062
-649.799	-85.450	-0.324	-0.102
-648.784	-73.047	0.410	-0.152
-647.770	800.000	-0.029	-0.112
-646.755	-200.000	-0.038	-0.208
-645.741	59.156	0.180	-0.180
-644.726	342.674	0.142	-0.282
-643.711	-200.000	0.028	-0.323
-642.697	-32.956	-0.144	-0.081
-641.682	-200.000	-0.018	-0.133
-640.668	217.386	0.127	0.206
-639.653	-200.000	-0.001	-0.040
-638.638	-200.000	-0.014	-0.104
-637.624	-135.669	-0.195	0.023
-636.609	38.159	-0.094	0.084
-635.595	41.745	0.057	0.052
-634.580	660.417	-0.103	-0.269
-633.565	-200.000	-0.029	0.513
-632.551	160.816	0.213	0.301
-631.536	-159.790	-0.140	0.008
-630.522	-142.974	0.088	-0.009
-629.507	24.456	-0.084	-0.070
-628.492	800.000	-0.072	-0.271
-627.478	-200.000	0.062	0.337
-626.463	-200.000	0.040	0.305
-625.449	73.497	-0.255	0.270
-624.434	-10.754	-0.176	0.118
-623.419	-62.241	0.274	-0.116
-622.405	-64.312	0.108	0.045
-621.390	-180.781	-0.278	0.006
-620.376	121.023	0.253	0.318
-619.361	115.846	0.233	-0.289
-618.346	-54.099	-0.075	-0.034
-617.332	99.076	0.355	0.415
-616.317	-200.000	0.048	0.330
-615.303	205.723	0.178	-0.280
-614.288	-52.973	-0.142	-0.066
-613.273	127.577	-0.103	0.132
-612.259	-62.419	0.150	0.063
-611.244	14.022	-0.303	0.239
-610.230	-19.016	0.172	-0.108
-609.215	42.972	-0.089	-0.082
-608.201	128.599	0.094	-0.121
-607.186	86.080	-0.042	-0.047
-606.171	-23.246	-0.206	0.126
-605.157	-26.446	0.286	-0.169
-604.142	-125.347	0.294	0.045
-603.128	800.000	0.068	-0.269
-602.113	-200.000	0.039	-0.302
-601.098	23.129	0.048	-0.040
-600.084	-147.230	0.186	0.016
-599.069	159.575	-0.082	-0.116
-598.055	-43.432	0.181	-0.092
-597.040	-139.313	0.118	-0.013
-596.025	-175.973	-0.476	-0.013
-595.011	354.685	0.179	0.359
-593.996	-200.000	-0.015	0.000
-592.982	-66.985	0.059	-0.024
-591.967	168.915	-0.155	0.223
-590.952	-53.671	0.229	-0.106
-589.938	90.947	0.186	-0.211
-588.923	-200.000	0.003	-0.438
-587.909	-176.238	-0.134	0.004
-586.894	-92.206	-0.294	-0.084
-585.879	97.449	0.119	-0.139
-584.865	153.300	-0.184	-0.254
-583.850	-0.729	0.154	-0.110
-582.836	-183.453	0.251	0.004
-581.821	111.853	0.171	-0.208
-580.806	19.698	-0.113	0.092
-579.792	177.503	0.103	0.151
-578.777	254.904	-0.071	-0.123
-577.763	-93.780	-0.210	-0.058
-576.748	305.255	-0.030	-0.056
-575.733	430.164	-0.021	0.046
-574.719	-97.104	-0.287	-0.076
-573.704	18.203	0.180	-0.145
-572.690	1.738	0.166	-0.121
-571.675	183.702	-0.111	-0.166
-570.661	211.590	0.058	0.092
-569.646	156.148	0.111	0.155
-568.631	-200.000	-0.048	0.348
-567.617	-126.854	-0.214	0.032
-566.602	-13.554	0.218	-0.143
-565.588	800.000	0.056	-0.176
-564.573	274.714	-0.038	-0.067
-563.558	-200.000	-0.052	0.330
-562.544	-127.008	0.230	0.034
-561.529	155.629	0.168	-0.233
-560.515	150.041	-0.089	-0.122
-559.500	-200.000	-0.024	-0.302
-558.485	130.937	0.254	0.329
-557.471	-106.656	0.260	0.058
-556.456	41.089	-0.238	0.217
-555.442	13.718	0.160	0.126
-554.427	-180.224	0.298	0.006
-553.412	-9.820	0.150	-0.101
-552.398	-53.488	-0.210	0.097
-551.383	-200.000	-0.059	-0.383
-550.369	-168.519	0.183	-0.007
-549.354	-82.910	-0.407	-0.132
-548.339	-105.542	-0.308	-0.071
-547.325	-145.491	-0.257	0.023
-546.310	800.000	-0.014	0.061
-545.296	-60.067	0.085	-0.037
-544.281	-43.018	-0.143	-0.073
-543.266	800.000	0.025	-0.097
-542.252	84.072	0.133	0.147
-541.237	-165.172	-0.323	-0.014
-540.223	-133.090	0.134	0.017
-539.208	-200.000	0.023	-0.341
-538.193	737.360	0.032	-0.086
-537.179	-200.000	-0.008	-0.111
-536.164	-110.509	-0.068	-0.014
-535.150	111.656	0.119	0.145
-534.135	20.971	0.139	-0.114
-533.121	144.228	0.025	-0.033
-532.106	-165.033	0.094	-0.004
-531.091	-49.560	0.105	0.051
-530.077	-200.000	-0.015	0.127
-529.062	20.532	-0.188	-0.154
-528.048	-200.000	0.024	0.116
-527.033	68.172	-0.283	0.292
-526.018	800.000	0.027	0.109
-525.004	-200.000	-0.032	0.525
-523.989	115.974	-0.149	0.184
-522.975	-200.000	0.022	0.365
-521.960	67.797	-0.084	-0.087
-520.945	-200.000	-0.022	0.119
-519.931	-113.260	0.172	0.034
-518.916	46.335	-0.276	-0.258
-517.902	-53.729	0.309	0.142
-516.887	657.543	0.063	-0.163
-515.872	-86.733	0.118	-0.036
-514.858	70.033	-0.106	0.110
-513.843	-39.805	-0.156	-0.082
-512.829	-26.385	0.301	0.178
-511.814	347.385	0.080	0.159
-510.799	-200.000	0.014	0.311
-509.785	-155.949	0.226	0.014
-508.770	-47.692	-0.177	-0.087
-507.756	800.000	-0.197	-0.559
-506.741	-160.794	-0.106	-0.006
-505.726	-76.487	-0.496	0.176
-504.712	-47.855	-0.358	0.175
-503.697	305.858	0.075	0.141
-502.683	-200.000	-0.022	0.301
-501.668	-37.982	0.276	0.147
-500.653	77.515	-0.100	0.107
-499.639	82.673	-0.048	-0.052
-498.624	-66.232	0.138	-0.055
-497.610	-81.918	-0.335	0.111
-496.595	24.862	0.331	0.276
-495.581	-132.714	0.093	-0.012
-494.566	-87.851	0.122	-0.037
-493.551	-200.000	0.063	-0.383
-492.537	39.699	-0.132	0.120
-491.522	-88.783	-0.019	0.006
-490.508	-19.478	-0.143	-0.089
-489.493	-200.000	-0.070	0.343
-488.478	241.147	-0.067	-0.113
-487.464	-200.000	0.000	-0.090
-486.449	-134.395	0.210	0.026
-485.435	127.226	0.139	-0.177
-484.420	-184.038	-0.248	-0.004
-483.405	-200.000	0.017	-0.166
-482.391	-45.598	0.229	-0.114
-481.376	-200.000	-0.039	-0.244
-480.362	61.841	0.177	0.178
-479.347	-72.946	0.174	-0.064
-478.332	182.086	0.128	-0.190
-477.318	678.570	0.104	0.273
-476.303	-200.000	0.005	0.126
-475.289	-129.510	0.169	-0.024
-474.274	419.615	0.073	0.156
-473.259	-68.831	-0.309	0.120
-472.245	-200.000	-0.005	-0.327
-471.230	91.670	-0.100	-0.113
-470.216	299.157	0.088	0.163
-469.201	19.373	-0.068	-0.055
-468.186	-184.406	0.234	0.004
-467.172	-106.975	0.423	0.094
-466.157	109.364	0.229	0.275
-465.143	-200.000	-0.022	0.097
-464.128	307.116	-0.189	-0.354
-463.113	-200.000	-0.049	-0.435
-462.099	-166.321	0.273	0.012
-461.084	-167.729	-0.233	-0.009
-460.070	18.203	0.103	-0.082
-459.055	-200.000	0.025	0.194
-458.040	-91.563	-0.108	-0.031
-457.026	-185.553	-0.053	-0.001
-456.011	-101.478	-0.258	-0.063
-454.997	83.675	0.164	-0.179
-453.982	800.000	-0.027	-0.092
-452.968	800.000	0.052	-0.209
-451.953	77.556	0.155	-0.166
-450.938	800.000	-0.045	0.188
-449.924	-12.219	-0.197	0.130
-448.909	-200.000	0.010	-0.225
-447.895	687.705	-0.076	-0.199
-446.880	800.000	0.156	0.512
-445.865	25.570	0.235	0.197
-444.851	-103.182	0.142	-0.034
-443.836	332.633	-0.102	-0.197
-442.822	638.890	0.075	0.192
-441.807	164.729	0.034	-0.048
-440.792	-5.281	-0.281	-0.194
-439.778	-24.202	0.005	0.003
-438.763	61.317	0.275	-0.275
-437.749	-0.276	0.183	0.131
-436.734	-200.000	0.038	-0.202
-435.719	-37.861	-0.120	0.064
-434.705	-58.446	0.159	-0.069
-433.690	800.000	-0.104	-0.297
-432.676	278.554	-0.116	0.208
-431.661	-143.482	-0.061	-0.006
-430.646	-83.641	-0.372	0.119
-429.632	122.019	-0.259	-0.325
-428.617	-90.176	0.492	-0.144
-427.603	305.800	0.048	0.089
-426.588	-70.878	-0.195	-0.074
-425.573	-200.000	-0.005	-0.110
-424.559	67.415	0.129	0.132
-423.544	6.034	0.110	-0.082
-422.530	-200.000	-0.000	0.121
-421.515	-200.000	-0.054	-0.409
-420.500	-176.643	0.222	-0.006
-419.486	-2.896	0.081	-0.057
-418.471	357.382	-0.016	-0.033
-417.457	407.647	-0.082	0.174
-416.442	-31.905	0.188	-0.106
-415.428	-129.916	-0.481	0.066
-414.413	-33.458	0.214	0.119
-413.398	-200.000	-0.018	0.337
-412.384	26.950	-0.054	0.045
-411.369	73.593	-0.207	0.218
-410.355	-56.286	-0.137	-0.061
-409.340	-200.000	0.000	0.129
-408.325	165.773	0.185	-0.263
-407.311	-200.000	0.073	-0.385
-406.296	-165.924	0.219	-0.009
-405.282	-146.926	0.155	-0.013
-404.267	99.989	-0.253	-0.294
-403.252	-35.869	0.262	-0.143
-402.238	-200.000	0.009	-0.131
-401.223	116.210	0.063	-0.078
-400.209	-7.616	-0.104	0.071
-399.194	-14.559	0.133	0.086
-398.179	139.634	0.049	0.065
-397.165	-200.000	0.020	0.103
-396.150	-200.000	0.016	-0.233
-395.136	-51.005	0.321	0.151
-394.121	-1.059	-0.134	-0.095
-393.106	139.937	-0.209	-0.276
-392.092	-124.506	0.368	-0.057
-391.077	-1.508	0.301	0.213
-390.063	-40.775	-0.284	0.147
-389.048	-200.000	0.103	0.548
-388.033	-184.309	0.049	-0.001
-387.019	-56.799	0.035	0.016
-386.004	50.881	-0.109	-0.104
-384.990	32.049	0.441	0.381
-383.975	800.000	0.146	0.447
-382.960	-135.768	0.246	0.029
-381.946	-200.000	-0.017	-0.089
-380.931	-98.744	-0.267	0.068
-379.917	400.890	0.121	0.255
-378.902	267.909	-0.087	0.153
-377.888	-167.068	-0.347	0.014
-376.873	208.584	-0.154	-0.241
-375.858	-89.660	0.250	0.073
-374.844	-113.162	-0.259	-0.051
-373.829	253.168	-0.046	-0.079
-372.815	486.932	-0.037	-0.084
-371.800	411.222	-0.009	0.019
-370.785	-47.658	-0.305	0.148
-369.771	-41.464	-0.259	-0.134
-368.756	-200.000	0.017	-0.353
-367.742	-132.401	-0.191	0.025
-366.727	-60.727	-0.276	0.117
-365.712	-135.443	0.074	-0.009
-364.698	-45.423	-0.159	-0.079
-363.683	100.032	-0.084	-0.098
-362.669	-25.353	0.111	-0.066
-361.654	4.311	0.333	0.245
-360.639	-55.520	-0.277	0.124
-359.625	616.859	-0.105	0.265
-358.610	-51.258	0.109	-0.051
-357.596	159.659	-0.067	-0.094
-356.581	-59.864	-0.617	-0.265
-355.566	-200.000	0.009	0.349
-354.552	-8.403	0.211	-0.142
-353.537	114.895	-0.083	0.102
-352.523	-56.244	0.208	0.093
-351.508	14.707	-0.272	0.213
-350.493	-200.000	0.002	-0.046
-349.479	-135.987	-0.123	-0.014
-348.464	-200.000	-0.024	0.179
-347.450	-94.305	0.171	-0.047
-346.435	4.026	-0.157	0.115
-345.420	-93.860	0.322	-0.089
-344.406	69.616	0.058	-0.060
-343.391	-200.000	0.056	-0.347
-342.377	328.958	-0.102	0.197
-341.362	295.999	0.037	0.068
-340.348	-57.443	0.272	-0.120
-339.333	-122.494	0.022	0.004
-338.318	-47.049	-0.142	-0.069
-337.304	49.925	-0.075	0.071
-336.289	457.661	0.062	0.138
-335.275	-200.000	-0.034	-0.153
-334.260	168.011	-0.126	-0.179
-333.245	-200.000	-0.021	-0.155
-332.231	647.119	0.095	0.242
-331.216	154.761	0.163	0.224
-330.202	30.758	-0.083	0.071
-329.187	-28.866	-0.195	0.112
-328.172	-72.134	0.038	0.014
-327.158	-60.142	-0.060	-0.026
-326.143	-200.000	-0.033	-0.179
-325.129	226.050	0.076	0.123
-324.114	-140.646	-0.183	0.019
-323.099	-56.969	0.218	0.096
-322.085	108.816	-0.092	0.110
-321.070	189.947	-0.202	-0.303
-320.056	-79.692	-0.279	-0.094
-319.041	684.917	-0.067	-0.176
-318.026	-50.108	0.202	-0.095
-317.012	-200.000	-0.008	0.134
-315.997	64.948	0.213	0.215
-314.983	-14.773	0.181	0.116
-313.968	-105.368	0.266	-0.060
-312.953	20.683	-0.198	0.160
-311.939	-7.383	-0.231	-0.156
-310.924	5.957	0.081	-0.060
-309.910	-200.000	0.233	-0.001
-308.895	-200.000	0.019	0.110
-307.880	3.049	-0.310	0.225
-306.866	242.211	-0.165	-0.276
-305.851	-200.000	-0.055	0.301
-304.837	-34.793	0.016	0.009
-303.822	87.744	-0.048	-0.053
-302.807	-132.571	0.151	-0.019
-301.793	194.914	-0.073	-0.110
-300.778	-200.000	0.013	0.067
-299.764	-200.000	-0.037	-0.257
-298.749	-94.312	0.280	0.077
-297.735	304.346	-0.186	0.345
-296.720	-200.000	-0.008	0.193
-295.705	800.000	-0.025	0.072
-294.691	68.699	-0.225	-0.230
-293.676	-200.000	0.048	0.227
-292.662	-105.455	0.088	-0.020
-291.647	800.000	0.244	0.770
-290.632	-52.522	-0.286	-0.132
-289.618	-15.480	-0.140	0.089
-288.603	-53.638	0.151	0.069
-287.589	-155.302	0.290	0.019
-286.574	1.908	0.058	-0.042
-285.559	150.821	-0.082	-0.112
-284.545	150.036	-0.258	0.349
-283.530	-25.378	0.200	0.118
-282.516	-200.000	0.001	0.071
-281.501	800.000	0.070	-0.243
-280.486	-86.746	-0.172	-0.052
-279.472	-200.000	0.004	-0.152
-278.457	-144.032	-0.174	0.016
-277.443	-124.557	-0.235	-0.036
-276.428	63.224	-0.076	-0.076
-275.413	-126.108	0.139	-0.021
-274.399	84.393	-0.327	0.357
-273.384	-43.267	-0.108	0.054
-272.370	-108.769	-0.056	0.012
-271.355	-63.016	-0.338	-0.139
-270.340	-107.136	-0.156	-0.034
-269.326	19.196	-0.209	-0.167
-268.311	800.000	-0.169	-0.637
-267.297	230.288	0.240	0.391
-266.282	800.000	0.055	0.228
-265.267	130.860	0.065	-0.084
-264.253	800.000	0.125	-0.400
-263.238	-152.961	-0.305	0.022
-262.224	800.000	-0.045	0.165
-261.209	-5.231	-0.192	0.132
-260.195	-83.591	0.075	-0.024
-259.180	-51.709	-0.191	-0.089
-258.165	-135.501	0.489	-0.058
-257.151	-200.000	-0.011	0.113
-256.136	800.000	0.055	0.224
-255.122	-200.000	0.020	-0.100
-254.107	2.345	-0.082	-0.059
-253.092	527.197	0.121	0.285
-252.078	800.000	0.073	-0.283
-251.063	104.164	-0.054	-0.063
-250.049	-156.112	-0.164	-0.010
-249.034	428.976	-0.018	-0.038
-248.019	-122.497	-0.114	-0.018
-247.005	55.611	0.218	0.210
-245.990	800.000	0.054	-0.175
-244.976	754.669	-0.093	-0.251
-243.961	-200.000	0.014	-0.233
-242.946	800.000	0.019	-0.068
-241.932	29.037	-0.294	0.249
-240.917	-49.065	-0.019	-0.009
-239.903	-200.000	-0.026	0.245
-238.888	176.946	0.047	0.069
-237.873	-91.207	0.016	-0.005
-236.859	-58.561	0.057	0.025
-235.844	28.659	0.058	-0.049
-234.830	-41.473	-0.092	-0.047
-233.815	-200.000	-0.042	0.230
-232.800	-52.435	-0.171	0.079
-231.786	471.057	-0.079	0.178
-230.771	39.508	0.261	0.233
-229.757	-200.000	0.013	-0.320
-228.742	153.060	0.261	-0.356
-227.727	-23.677	-0.386	0.231
-226.713	-169.298	-0.299	0.011
-225.698	49.449	-0.066	-0.062
-224.684	77.622	0.144	-0.153
-223.669	-83.837	0.083	-0.026
-222.655	-200.000	-0.031	0.397
-221.640	800.000	-0.038	0.139
-220.625	301.147	-0.193	-0.355
-219.611	121.395	0.060	0.074
-218.596	-61.036	0.114	0.048
-217.582	-200.000	0.015	0.314
-216.567	15.537	0.121	0.095
-215.552	-38.653	-0.126	0.066
-214.538	-137.055	0.161	0.018
-213.523	-200.000	-0.048	-0.227
-212.509	800.000	0.057	-0.242
-211.494	207.580	-0.137	-0.213
-210.479	261.667	0.136	-0.235
-209.465	800.000	0.041	0.116
-208.450	26.732	-0.097	-0.081
-207.436	-83.664	-0.302	0.096
-206.421	160.063	0.182	-0.253
-205.406	-113.879	-0.082	-0.016
-204.392	603.680	0.170	0.422
-203.377	560.186	-0.067	-0.161
-202.363	-17.299	-0.161	-0.101
-201.348	-117.315	0.356	0.064
-200.333	-35.985	0.172	-0.092
-199.319	-200.000	0.008	-0.078
-198.304	254.792	-0.136	-0.232
-197.290	800.000	0.066	-0.240
-196.275	-170.172	-0.172	0.006
-195.260	-200.000	0.046	0.224
-194.246	-11.330	-0.126	0.083
-193.231	199.450	0.078	0.119
-192.217	211.295	0.134	-0.211
-191.202	180.016	0.138	0.201
-190.187	98.044	0.084	0.096
-189.173	195.847	-0.080	-0.122
-188.158	-14.273	0.222	-0.142
-187.144	665.321	0.028	0.073
-186.129	169.921	-0.004	-0.006
-185.114	31.680	-0.092	0.079
-184.100	-12.705	-0.084	0.055
-183.085	22.089	0.328	-0.266
-182.071	2.576	-0.052	-0.038
-181.056	800.000	0.018	-0.052
-180.042	147.007	-0.093	-0.125
-179.027	-130.894	-0.256	0.034
-178.012	-74.035	0.117	-0.042
-176.998	-66.833	0.280	0.110
-175.983	16.751	-0.177	0.139
-174.969	800.000	-0.097	0.304
-173.954	529.428	0.036	-0.086
-172.939	-162.237	0.276	-0.014
-171.925	-200.000	0.029	-0.262
-170.910	123.334	-0.047	-0.059
-169.896	-200.000	-0.007	0.400
-168.881	55.207	-0.205	0.197
-167.866	99.013	-0.157	0.180
-166.852	-161.881	-0.208	0.010
-165.837	27.194	-0.211	0.176
-164.823	-200.000	-0.058	-0.390
-163.808	228.024	0.097	0.158
-162.793	85.090	-0.122	-0.134
-161.779	-48.548	0.236	-0.113
-160.764	36.420	0.093	-0.082
-159.750	137.679	0.248	-0.323
-158.735	-200.000	0.009	0.085
-157.720	-114.543	-0.149	0.028
-156.706	65.195	-0.114	0.115
-155.691	165.605	0.132	-0.185
-154.677	-200.000	-0.023	0.231
-153.662	345.597	-0.126	-0.246
-152.647	-143.596	0.329	-0.031
-151.633	-200.000	0.023	0.152
-150.618	-200.000	0.009	-0.162
-149.604	-200.000	0.000	-0.196
-148.589	-27.938	0.255	0.147
-147.574	-14.911	0.114	-0.073
-146.560	83.603	0.026	-0.028
-145.545	-28.702	0.154	-0.088
-144.531	-200.000	-0.020	0.190
-143.516	-200.000	0.031	0.296
-142.502	242.311	0.093	0.155
-141.487	-200.000	-0.059	-0.282
-140.472	255.325	-0.152	0.259
-139.458	800.000	0.004	0.013
-138.443	800.000	-0.085	-0.303
-137.429	-58.279	-0.131	-0.057
-136.414	-130.922	-0.083	-0.011
-135.399	147.238	-0.105	-0.141
-134.385	800.000	-0.087	0.272
-133.370	53.837	-0.127	0.121
-132.356	-200.000	0.006	-0.033
-131.341	-103.156	-0.090	-0.021
-130.326	-200.000	0.018	-0.108
-129.312	442.307	0.054	0.117
-128.297	118.781	-0.275	-0.337
-127.283	-130.392	0.142	-0.019
-126.268	800.000	-0.102	0.419
-125.253	19.652	0.088	0.070
-124.239	-53.688	0.179	0.081
-123.224	99.319	0.142	-0.163
-122.210	-104.464	-0.044	-0.010
