DTS Sentinel unit serial number:	SN413079Multiplexer serial number:	ORYXHardware model number:	OX4-SRSoftware version number:	ORYX F/W v4.00 Oryx Data Collector v3.7.2.0data status	okinstallation	princeton_trtdifferential loss correction	single-endedforward channel	channel 4reverse channel	N/Adate	2019/09/15time	22:17:35forward acquisition time	60.00reverse acquisition time	0.00gamma	496.2192k internal	0.2320k external	0.2320temperature offset calibration	0.9950default loss term (dB/km)	0.3790temperature slope calibration	1.0000multiplexer offset coefficient	1.0000multiplexer slope coefficient	1.0000fibre end	0.00T internal ref (°C)	29.44T ext. ref 1 (°C)	8.66T ext. ref 2 (°C)	22.82length (m)	temperature (°C)	Stokes	anti-Stokes-747.200	5.230	0.182	0.136
-746.185	117.301	0.169	0.210
-745.171	2.731	0.227	0.167
-744.156	-90.391	0.301	-0.088
-743.142	43.903	-0.266	-0.246
-742.127	-200.000	-0.038	0.184
-741.112	429.067	-0.056	-0.122
-740.098	294.313	0.108	0.200
-739.083	134.160	0.061	0.080
-738.069	187.301	-0.162	0.244
-737.054	36.434	-0.127	-0.113
-736.039	-137.362	-0.082	0.009
-735.025	143.422	0.248	-0.334
-734.010	-57.358	0.269	0.120
-732.996	153.053	-0.180	-0.249
-731.981	-126.977	0.043	0.006
-730.966	651.861	0.082	-0.212
-729.952	-200.000	-0.037	0.297
-728.937	-200.000	-0.035	-0.213
-727.923	318.988	-0.166	0.318
-726.908	243.807	0.142	-0.242
-725.894	627.799	0.102	0.261
-724.879	-200.000	0.007	-0.062
-723.864	800.000	0.115	-0.481
-722.850	-60.132	-0.145	0.063
-721.835	800.000	0.094	0.287
-720.821	-13.297	0.204	-0.133
-719.806	211.606	-0.086	0.137
-718.791	66.541	-0.240	-0.247
-717.777	-200.000	-0.006	0.102
-716.762	45.315	-0.217	0.202
-715.748	-78.248	0.089	-0.031
-714.733	-200.000	-0.002	-0.124
-713.718	800.000	-0.109	0.347
-712.704	32.618	0.123	-0.108
-711.689	-92.484	0.128	0.036
-710.675	31.329	0.263	-0.228
-709.660	-200.000	-0.006	-0.252
-708.645	115.087	-0.050	-0.061
-707.631	24.437	0.176	0.147
-706.616	-19.708	0.268	-0.168
-705.602	-79.015	-0.329	-0.113
-704.587	-110.486	-0.320	-0.067
-703.572	-4.305	-0.230	0.161
-702.558	-34.652	0.081	0.045
-701.543	180.764	-0.049	0.073
-700.529	722.383	-0.025	0.067
-699.514	800.000	-0.111	-0.314
-698.499	496.970	-0.069	0.161
-697.485	-75.960	0.130	0.047
-696.470	-200.000	0.033	0.217
-695.456	29.726	-0.255	-0.219
-694.441	662.580	0.108	-0.282
-693.426	371.355	0.063	-0.129
-692.412	-95.864	-0.230	-0.062
-691.397	-58.747	-0.385	0.168
-690.383	-200.000	-0.011	0.187
-689.368	85.288	0.104	0.115
-688.354	-75.387	-0.307	0.111
-687.339	-21.777	-0.172	-0.106
-686.324	77.069	0.016	-0.017
-685.310	156.519	0.245	0.341
-684.295	36.563	-0.143	0.127
-683.281	350.625	-0.076	0.152
-682.266	-92.870	-0.120	-0.034
-681.251	-23.971	-0.166	0.100
-680.237	-161.087	0.142	-0.007
-679.222	491.501	0.041	-0.095
-678.208	189.397	0.305	0.461
-677.193	-34.380	0.073	0.041
-676.178	-200.000	-0.035	-0.283
-675.164	625.283	-0.125	-0.318
-674.149	-200.000	0.009	-0.381
-673.135	597.670	-0.173	0.431
-672.120	-105.867	0.111	0.025
-671.105	-160.760	-0.252	-0.013
-670.091	85.211	-0.204	0.226
-669.076	28.268	0.276	0.235
-668.062	4.598	-0.499	0.369
-667.047	-200.000	-0.081	-0.371
-666.032	-63.282	0.284	-0.118
-665.018	29.016	0.372	-0.318
-664.003	-13.679	0.254	-0.166
-662.989	398.349	0.136	-0.286
-661.974	13.700	0.179	-0.140
-660.959	783.661	-0.115	-0.318
-659.945	800.000	-0.043	-0.138
-658.930	-200.000	0.000	0.032
-657.916	167.475	0.067	-0.097
-656.901	-87.541	-0.258	-0.079
-655.886	20.527	-0.279	-0.227
-654.872	-38.130	0.404	-0.216
-653.857	-200.000	0.039	0.203
-652.843	-60.054	-0.149	0.064
-651.828	-130.522	-0.063	0.009
-650.814	-200.000	-0.005	0.075
-649.799	39.405	-0.355	0.320
-648.784	17.817	0.057	-0.046
-647.770	-200.000	-0.033	-0.152
-646.755	769.446	-0.153	-0.421
-645.741	72.100	0.148	0.156
-644.726	-200.000	0.020	-0.109
-643.711	-79.038	-0.193	0.066
-642.697	-67.086	-0.323	-0.128
-641.682	800.000	-0.085	0.265
-640.668	-25.762	-0.225	0.134
-639.653	-24.514	-0.089	-0.053
-638.638	730.346	0.089	-0.240
-637.624	-200.000	0.059	0.376
-636.609	-43.840	0.300	-0.152
-635.595	-115.285	-0.108	0.021
-634.580	90.514	-0.222	0.250
-633.565	800.000	-0.042	-0.134
-632.551	-200.000	0.013	-0.128
-631.536	-125.404	-0.070	0.011
-630.522	-200.000	0.039	0.324
-629.507	-200.000	-0.013	-0.085
-628.492	-27.849	0.270	-0.157
-627.478	-24.397	0.146	-0.088
-626.463	111.480	-0.325	0.394
-625.449	-200.000	0.002	-0.167
-624.434	-200.000	-0.038	0.273
-623.419	800.000	0.049	0.155
-622.405	800.000	-0.079	-0.222
-621.390	-112.011	0.267	0.054
-620.376	343.405	-0.140	0.275
-619.361	401.096	-0.064	0.134
-618.346	106.227	0.066	-0.078
-617.332	10.646	-0.234	0.180
-616.317	8.614	-0.159	-0.121
-615.303	-200.000	-0.065	-0.336
-614.288	236.667	0.168	0.279
-613.273	223.731	0.113	-0.183
-612.259	-118.613	0.305	0.054
-611.244	800.000	-0.093	-0.311
-610.230	355.968	-0.123	0.246
-609.215	542.656	0.040	0.095
-608.201	-90.342	-0.435	0.127
-607.186	-127.126	-0.316	0.046
-606.171	-200.000	-0.047	0.371
-605.157	74.957	-0.098	-0.104
-604.142	-4.262	-0.039	0.027
-603.128	64.116	-0.201	-0.203
-602.113	-200.000	-0.002	-0.266
-601.098	-142.785	0.295	0.029
-600.084	167.203	0.182	0.259
-599.069	800.000	0.108	0.383
-598.055	-48.827	-0.180	0.087
-597.040	800.000	-0.078	-0.269
-596.025	73.288	-0.411	0.433
-595.011	-75.899	0.445	0.158
-593.996	-15.416	-0.241	-0.155
-592.982	40.016	-0.119	-0.108
-591.967	-17.740	0.347	-0.219
-590.952	321.195	-0.055	0.105
-589.938	-200.000	0.028	-0.210
-588.923	800.000	-0.053	0.214
-587.909	800.000	0.022	-0.075
-586.894	5.255	-0.250	0.186
-585.879	544.549	-0.089	0.215
-584.865	-124.152	0.124	-0.019
-583.850	-31.019	0.241	0.137
-582.836	-200.000	-0.008	-0.114
-581.821	168.114	-0.161	0.230
-580.806	-200.000	0.001	-0.221
-579.792	-74.134	0.141	-0.051
-578.777	33.596	0.041	-0.036
-577.763	-200.000	-0.006	-0.057
-576.748	800.000	-0.123	-0.353
-575.733	-6.504	0.335	-0.229
-574.719	800.000	0.021	0.064
-573.704	-34.732	-0.202	0.111
-572.690	-133.270	-0.252	-0.032
-571.675	-164.531	-0.390	0.018
-570.661	147.651	0.191	-0.258
-569.646	800.000	0.063	-0.230
-568.631	-20.962	-0.202	-0.124
-567.617	93.384	-0.086	-0.098
-566.602	233.572	-0.046	0.077
-565.588	41.309	-0.216	-0.196
-564.573	16.600	-0.364	-0.289
-563.558	800.000	-0.064	-0.184
-562.544	-164.097	-0.218	-0.010
-561.529	113.074	0.141	-0.171
-560.515	800.000	0.059	0.208
-559.500	12.949	0.132	0.103
-558.485	-145.664	-0.062	0.006
-557.471	60.476	0.298	-0.296
-556.456	271.069	-0.105	-0.185
-555.442	-200.000	0.067	0.321
-554.427	229.760	0.304	-0.498
-553.412	-29.307	0.150	-0.086
-552.398	482.366	-0.063	0.144
-551.383	318.278	0.041	0.077
-550.369	-17.535	0.134	-0.085
-549.354	333.462	-0.026	0.050
-548.339	800.000	-0.049	0.179
-547.325	160.479	-0.101	-0.141
-546.310	116.666	-0.180	0.222
-545.296	-200.000	-0.051	0.456
-544.281	442.063	-0.038	-0.084
-543.266	321.999	-0.166	-0.317
-542.252	226.448	0.248	0.404
-541.237	712.408	-0.188	-0.500
-540.223	-47.733	0.178	0.087
-539.208	310.690	0.128	0.240
-538.193	40.437	0.088	-0.080
-537.179	-118.534	-0.358	0.063
-536.164	800.000	0.175	-0.549
-535.150	120.302	0.014	0.017
-534.135	203.708	0.204	-0.316
-533.121	800.000	-0.082	-0.333
-532.106	238.853	0.070	-0.117
-531.091	196.600	-0.147	-0.225
-530.077	32.939	0.335	-0.291
-529.062	-178.497	0.167	0.004
-528.048	800.000	-0.093	0.266
-527.033	800.000	0.034	0.097
-526.018	117.265	-0.093	-0.114
-525.004	53.301	-0.074	-0.071
-523.989	198.204	-0.135	-0.206
-522.975	-76.391	-0.346	0.122
-521.960	89.149	-0.070	-0.078
-520.945	61.998	0.218	-0.218
-519.931	-200.000	-0.045	-0.375
-518.916	465.897	-0.053	0.118
-517.902	39.025	-0.082	-0.074
-516.887	800.000	0.084	0.270
-515.872	200.765	0.085	0.132
-514.858	-89.738	0.255	-0.075
-513.843	800.000	-0.013	-0.040
-512.829	-11.849	-0.098	-0.064
-511.814	-57.044	0.336	-0.148
-510.799	-113.836	0.156	0.030
-509.785	349.653	0.151	0.300
-508.770	-77.048	-0.137	0.048
-507.756	350.021	-0.125	0.248
-506.741	341.236	0.132	-0.258
-505.726	800.000	-0.030	-0.111
-504.712	-147.264	0.130	-0.011
-503.697	27.438	0.200	-0.168
-502.683	-200.000	-0.040	-0.363
-501.668	29.604	-0.089	-0.076
-500.653	673.634	0.031	0.082
-499.639	-200.000	0.031	0.313
-498.624	800.000	-0.101	0.288
-497.610	-48.347	0.335	-0.162
-496.595	-58.995	0.076	0.033
-495.581	-132.035	-0.127	0.017
-494.566	-35.747	-0.240	0.130
-493.551	-98.919	0.220	0.056
-492.537	-108.840	-0.218	0.047
-491.522	-51.445	0.030	-0.014
-490.508	406.991	-0.079	0.168
-489.493	-200.000	-0.010	0.064
-488.478	-46.679	0.026	0.013
-487.464	-41.094	-0.495	-0.256
-486.449	-50.578	-0.285	0.135
-485.435	-111.251	-0.044	0.009
-484.420	177.785	0.142	0.208
-483.405	97.189	0.133	0.153
-482.391	-120.479	0.052	-0.009
-481.376	-21.327	0.401	0.245
-480.362	160.209	0.142	0.198
-479.347	800.000	0.069	0.288
-478.332	-200.000	0.036	-0.293
-477.318	669.086	-0.062	0.161
-476.303	114.917	0.095	0.116
-475.289	238.769	0.186	0.310
-474.274	-200.000	0.029	-0.246
-473.259	800.000	0.098	-0.347
-472.245	-68.200	-0.223	-0.087
-471.230	-47.000	-0.123	0.060
-470.216	16.530	-0.126	-0.100
-469.201	-166.274	-0.058	-0.002
-468.186	624.597	0.116	-0.294
-467.172	25.487	0.219	0.182
-466.157	89.891	-0.237	-0.265
-465.143	-188.282	0.335	0.004
-464.128	276.962	-0.142	-0.253
-463.113	-200.000	0.018	-0.244
-462.099	240.843	-0.061	-0.102
-461.084	-34.707	-0.209	0.114
-460.070	-132.650	0.232	0.030
-459.055	177.532	-0.142	0.208
-458.040	-40.657	0.131	0.068
-457.026	0.534	0.146	0.104
-456.011	393.408	-0.054	0.112
-454.997	26.794	0.224	0.188
-453.982	220.151	0.197	0.316
-452.968	506.779	-0.058	-0.135
-451.953	68.251	0.130	-0.133
-450.938	410.401	0.152	-0.322
-449.924	-160.527	0.095	0.005
-448.909	299.607	-0.053	-0.098
-447.895	-77.982	-0.111	0.038
-446.880	89.942	-0.096	0.107
-445.865	800.000	-0.141	-0.391
-444.851	-34.494	-0.373	-0.204
-443.836	383.297	-0.046	0.095
-442.822	-200.000	0.061	0.354
-441.807	138.455	0.053	0.070
-440.792	-30.461	-0.154	-0.087
-439.778	-56.006	0.190	0.085
-438.763	192.807	0.041	-0.062
-437.749	-100.606	0.115	0.028
-436.734	10.842	0.055	-0.042
-435.719	-164.079	0.169	-0.008
-434.705	-101.436	0.175	0.043
-433.690	-0.286	-0.076	0.054
-432.676	-61.217	0.148	0.062
-431.661	800.000	-0.152	0.583
-430.646	-28.611	-0.203	0.117
-429.632	-90.174	-0.127	0.037
-428.617	44.787	-0.126	0.115
-427.603	-200.000	0.011	-0.237
-426.588	-200.000	-0.057	0.533
-425.573	-177.418	0.536	-0.013
-424.559	43.908	0.055	-0.050
-423.544	800.000	-0.115	-0.422
-422.530	-30.158	-0.358	0.203
-421.515	-141.542	-0.191	0.019
-420.500	-101.151	-0.163	-0.040
-419.486	223.449	-0.165	0.267
-418.471	128.731	0.095	-0.121
-417.457	235.163	0.296	-0.487
-416.442	23.851	-0.218	-0.179
-415.428	266.990	0.084	-0.147
-414.413	12.141	-0.008	-0.006
-413.398	566.891	0.061	0.148
-412.384	-69.719	0.205	0.078
-411.369	-122.946	0.137	-0.022
-410.355	-23.243	0.148	0.089
-409.340	-31.654	0.290	-0.162
-408.325	-200.000	-0.028	0.154
-407.311	-136.418	-0.128	0.015
-406.296	-119.221	0.095	-0.017
-405.282	-94.038	0.077	-0.021
-404.267	-100.125	0.465	0.115
-403.252	-39.686	-0.250	0.130
-402.238	-139.462	0.233	0.025
-401.223	-200.000	0.038	-0.179
-400.209	-77.760	-0.157	-0.054
-399.194	-88.205	-0.331	-0.099
-398.179	108.492	-0.215	0.256
-397.165	-59.042	-0.038	-0.016
-396.150	25.139	0.298	0.247
-395.136	260.117	0.092	-0.158
-394.121	268.624	0.139	0.243
-393.106	-89.006	-0.309	0.091
-392.092	-44.476	0.204	0.102
-391.077	114.619	-0.105	0.128
-390.063	150.671	-0.161	-0.218
-389.048	800.000	-0.106	-0.325
-388.033	514.566	-0.095	-0.220
-387.019	73.766	0.268	-0.280
-386.004	-11.411	-0.229	-0.151
-384.990	-20.356	0.134	0.082
-383.975	632.843	-0.034	0.087
-382.960	35.761	0.080	0.070
-381.946	-163.061	-0.187	0.009
-380.931	288.991	0.060	-0.109
-379.917	-109.683	-0.149	0.031
-378.902	-144.673	-0.117	0.011
-377.888	-84.701	-0.224	0.070
-376.873	234.960	-0.244	-0.402
-375.858	340.476	-0.149	0.291
-374.844	-200.000	-0.001	0.386
-373.829	58.433	0.164	-0.161
-372.815	-96.193	0.185	0.049
-371.800	-76.398	0.109	-0.038
-370.785	316.211	0.173	0.326
-369.771	-111.723	0.079	-0.016
-368.756	213.690	0.105	0.165
-367.742	302.930	-0.163	-0.300
-366.727	119.162	-0.037	-0.045
-365.712	95.245	0.094	0.107
-364.698	515.713	0.055	0.127
-363.683	182.119	0.087	-0.128
-362.669	800.000	-0.125	-0.390
-361.654	34.313	-0.058	0.051
-360.639	92.266	-0.065	0.073
-359.625	-121.731	0.129	0.021
-358.610	-32.679	0.066	0.037
-357.596	-175.129	-0.030	0.001
-356.581	-153.925	0.167	-0.011
-355.566	28.158	0.109	-0.092
-354.552	78.405	-0.291	-0.310
-353.537	-200.000	0.011	0.047
-352.523	-200.000	-0.029	-0.373
-351.508	111.787	0.205	0.246
-350.493	-200.000	-0.043	-0.204
-349.479	-200.000	-0.016	0.246
-348.464	168.536	-0.128	0.182
-347.450	-65.545	0.276	-0.111
-346.435	800.000	0.131	-0.363
-345.420	-9.771	0.147	0.097
-344.406	503.675	-0.099	0.228
-343.391	-46.413	0.108	-0.053
-342.377	10.245	-0.162	0.123
-341.362	800.000	0.036	-0.103
-340.348	-200.000	0.070	-0.354
-339.333	568.348	0.016	-0.038
-338.318	76.176	-0.081	-0.086
-337.304	-112.709	-0.422	0.084
-336.289	-53.090	0.265	-0.121
-335.275	99.103	0.086	0.099
-334.260	-15.691	-0.358	0.227
-333.245	275.015	-0.264	-0.466
-332.231	-79.279	0.339	0.114
-331.216	37.856	-0.171	0.151
-330.202	-26.594	0.108	0.063
-329.187	-200.000	0.018	-0.098
-328.172	800.000	0.002	0.008
-327.158	-21.922	-0.322	0.195
-326.143	243.234	0.105	0.176
-325.129	116.500	0.172	-0.210
-324.114	234.082	-0.168	0.276
-323.099	-75.204	-0.146	-0.052
-322.085	18.577	0.098	-0.078
-321.070	-128.151	-0.317	0.045
-320.056	-72.961	0.226	0.083
-319.041	135.308	0.219	0.284
-318.026	372.600	0.034	0.068
-317.012	-99.683	-0.303	0.076
-315.997	169.551	-0.011	-0.016
-314.983	-75.733	-0.058	-0.021
-313.968	-200.000	-0.026	0.201
-312.953	-60.616	0.114	-0.048
-311.939	164.463	-0.135	0.189
-310.924	-200.000	-0.016	-0.084
-309.910	282.180	-0.104	-0.186
-308.895	-105.986	0.403	-0.090
-307.880	316.172	-0.078	-0.146
-306.866	41.131	0.249	0.224
-305.851	2.810	-0.314	-0.227
-304.837	-75.652	0.086	-0.030
-303.822	24.109	0.382	0.313
-302.807	-148.064	-0.538	-0.044
-301.793	-29.869	-0.141	0.080
-300.778	1.683	0.033	-0.023
-299.764	-200.000	0.058	-0.294
-298.749	-132.719	0.582	0.074
-297.735	141.102	-0.219	-0.287
-296.720	6.133	0.240	0.177
-295.705	-32.249	0.143	-0.079
-294.691	-102.402	0.329	0.078
-293.676	66.016	0.020	-0.020
-292.662	-64.155	0.019	0.008
-291.647	442.414	0.188	0.410
-290.632	-200.000	-0.006	-0.104
-289.618	800.000	-0.078	0.243
-288.603	-82.530	-0.260	-0.084
-287.589	-200.000	0.029	0.132
-286.574	-78.386	0.321	-0.109
-285.559	-200.000	0.010	0.064
-284.545	117.964	-0.088	0.108
-283.530	-100.849	0.267	0.065
-282.516	-200.000	0.056	0.384
-281.501	-75.200	0.282	-0.100
-280.486	800.000	-0.049	-0.166
-279.472	-99.449	0.177	0.044
-278.457	67.667	0.130	0.131
-277.443	96.449	0.148	0.169
-276.428	314.130	0.153	0.286
-275.413	-200.000	0.052	0.367
-274.399	15.191	0.263	0.205
-273.384	800.000	-0.047	0.175
-272.370	800.000	0.024	-0.085
-271.355	242.756	-0.119	0.198
-270.340	-200.000	0.010	0.210
-269.326	316.870	-0.043	0.082
-268.311	-200.000	0.020	0.104
-267.297	-200.000	0.018	0.291
-266.282	-200.000	-0.019	0.156
-265.267	-145.404	-0.149	-0.013
-264.253	-11.831	-0.218	-0.142
-263.238	-200.000	0.066	0.317
-262.224	250.657	-0.088	0.149
-261.209	129.234	0.158	0.200
-260.195	-172.723	0.226	-0.007
-259.180	506.976	-0.054	0.124
-258.165	-69.406	-0.185	-0.070
-257.151	5.241	0.280	0.204
-256.136	87.991	0.084	-0.092
-255.122	-166.463	0.356	-0.015
-254.107	-87.671	-0.415	0.124
-253.092	-158.100	0.346	-0.020
-252.078	-73.512	-0.200	-0.072
-251.063	-200.000	-0.005	-0.052
-250.049	45.394	0.102	-0.094
-249.034	-200.000	0.022	-0.183
-248.019	51.226	-0.174	-0.164
-247.005	59.324	0.122	-0.119
-245.990	263.288	-0.189	-0.326
-244.976	-200.000	-0.044	0.200
-243.961	-105.087	0.270	-0.061
-242.946	-200.000	0.001	-0.348
-241.932	228.719	0.090	0.146
-240.917	-200.000	0.006	0.126
-239.903	12.734	-0.124	-0.095
-238.888	-38.240	0.186	-0.098
-237.873	46.249	-0.250	-0.229
-236.859	-200.000	-0.039	-0.325
-235.844	-200.000	0.176	-0.000
-234.830	48.061	-0.015	-0.014
-233.815	31.253	-0.131	-0.112
-232.800	-6.114	-0.083	0.056
-231.786	-200.000	0.001	0.066
-230.771	-200.000	0.009	-0.208
-229.757	-3.884	-0.173	-0.119
-228.742	-71.006	-0.085	0.032
-227.727	-147.980	-0.024	0.002
-226.713	-115.664	0.200	0.037
-225.698	-149.435	0.067	-0.005
-224.684	507.824	0.126	-0.290
-223.669	-3.184	-0.316	-0.218
-222.655	-44.619	0.182	-0.090
-221.640	-33.730	0.153	-0.084
-220.625	-161.434	-0.197	-0.010
-219.611	426.454	-0.143	-0.305
-218.596	-200.000	-0.019	0.167
-217.582	630.589	0.115	-0.287
-216.567	800.000	-0.044	0.128
-215.552	800.000	0.010	-0.032
-214.538	-39.303	-0.280	-0.145
-213.523	-18.543	-0.184	0.114
-212.509	181.772	-0.103	-0.150
-211.494	-116.328	0.212	0.039
-210.479	-200.000	0.032	-0.433
-209.465	115.558	-0.066	-0.080
-208.450	-143.029	-0.061	0.006
-207.436	174.758	0.095	-0.136
-206.421	-98.254	0.180	-0.046
-205.406	-85.598	0.481	0.148
-204.392	-200.000	-0.011	-0.076
-203.377	3.979	-0.008	-0.006
-202.363	-1.590	0.116	-0.081
-201.348	49.219	-0.072	0.067
-200.333	52.446	0.166	0.157
-199.319	-200.000	-0.048	-0.213
-198.304	229.958	0.127	-0.206
-197.290	-50.985	-0.273	0.127
-196.275	694.892	-0.038	-0.099
-195.260	121.616	0.092	-0.113
-194.246	-78.749	0.032	0.011
-193.231	-156.652	0.311	0.019
-192.217	443.804	0.063	0.137
-191.202	-46.029	-0.130	-0.064
-190.187	682.683	-0.099	0.255
-189.173	656.285	0.103	0.263
-188.158	141.615	-0.255	-0.334
-187.144	510.357	-0.032	0.073
-186.129	-115.383	-0.243	0.045
-185.114	95.212	0.113	0.127
-184.100	116.935	-0.207	-0.251
-183.085	404.137	0.083	-0.173
-182.071	800.000	0.031	0.108
-181.056	-200.000	0.017	-0.170
-180.042	-200.000	-0.026	0.176
-179.027	-91.351	-0.302	0.085
-178.012	392.542	-0.126	-0.259
-176.998	800.000	0.060	-0.238
-175.983	13.880	-0.281	0.216
-174.969	-200.000	-0.005	-0.091
-173.954	2.970	0.215	0.155
-172.939	267.900	-0.038	-0.066
-171.925	624.300	0.104	0.259
-170.910	-134.484	-0.290	-0.035
-169.896	-200.000	0.014	0.164
-168.881	351.580	-0.052	0.102
-167.866	768.450	0.088	-0.238
-166.852	800.000	-0.061	0.234
-165.837	727.414	0.122	0.322
-164.823	112.489	0.171	0.205
-163.808	105.540	0.074	0.087
-162.793	10.924	-0.410	-0.310
-161.779	800.000	0.157	0.457
-160.764	-200.000	-0.006	0.387
-159.750	-200.000	-0.196	0.001
-158.735	16.188	0.067	-0.052
-157.720	744.617	0.029	0.076
-156.706	-105.085	-0.333	-0.075
-155.691	5.916	-0.259	0.189
-154.677	83.572	-0.081	-0.087
-153.662	-200.000	0.029	-0.368
-152.647	-171.050	0.307	-0.010
-151.633	-64.919	-0.036	0.014
-150.618	345.212	0.173	-0.336
-149.604	-122.004	0.069	-0.011
-148.589	-43.108	0.095	-0.047
-147.574	-86.733	-0.364	0.110
-146.560	246.716	0.018	-0.031
-145.545	49.234	0.296	0.275
-144.531	209.901	0.144	-0.223
-143.516	-84.789	-0.259	-0.080
-142.502	366.642	0.130	-0.260
-141.487	-51.609	0.078	-0.036
-140.472	52.973	0.127	0.120
-139.458	-200.000	0.016	0.221
-138.443	30.616	0.146	-0.123
-137.429	308.324	0.238	0.438
-136.414	-52.063	0.309	0.142
-135.399	205.427	-0.203	0.311
-134.385	800.000	0.026	-0.106
-133.370	-132.123	0.255	-0.033
-132.356	248.134	-0.292	0.488
-131.341	108.696	0.111	0.131
-130.326	-124.042	-0.238	-0.037
-129.312	-16.974	-0.076	-0.047
-128.297	-179.556	-0.319	-0.007
-127.283	23.847	0.165	-0.135
-126.268	182.090	0.056	-0.082
-125.253	-77.203	0.346	-0.119
-124.239	-200.000	0.031	-0.363
-123.224	-47.807	0.103	-0.049
-122.210	-200.000	-0.022	0.229
-121.195	207.484	-0.023	-0.036
-120.180	-131.637	-0.043	-0.006
