DTS Sentinel unit serial number:	SN413079Multiplexer serial number:	ORYXHardware model number:	OX4-SRSoftware version number:	ORYX F/W v4.00 Oryx Data Collector v3.7.2.0data status	okinstallation	princeton_trtdifferential loss correction	single-endedforward channel	channel 4reverse channel	N/Adate	2019/09/14time	09:01:35forward acquisition time	60.00reverse acquisition time	0.00gamma	496.2192k internal	0.2310k external	0.2310temperature offset calibration	1.0130default loss term (dB/km)	0.3790temperature slope calibration	1.0000multiplexer offset coefficient	1.0000multiplexer slope coefficient	1.0000fibre end	0.00T internal ref (°C)	29.98T ext. ref 1 (°C)	3.73T ext. ref 2 (°C)	28.32length (m)	temperature (°C)	Stokes	anti-Stokes-747.200	737.295	-0.048	0.131
-746.185	-70.235	-0.317	0.122
-745.171	-138.657	0.251	-0.028
-744.156	-53.835	0.091	0.042
-743.142	154.952	-0.082	0.115
-742.127	-200.000	-0.020	0.240
-741.112	-55.653	0.459	0.209
-740.098	-200.000	0.110	0.529
-739.083	-0.096	0.101	-0.073
-738.069	800.000	-0.040	-0.119
-737.054	-200.000	-0.022	0.152
-736.039	-200.000	0.019	-0.132
-735.025	-25.331	-0.158	-0.095
-734.010	-18.958	-0.090	-0.057
-732.996	-31.466	-0.203	-0.116
-731.981	-113.900	-0.126	0.025
-730.966	417.009	0.122	-0.264
-729.952	94.827	-0.183	-0.211
-728.937	-48.289	-0.241	-0.118
-727.923	34.892	0.091	-0.081
-726.908	-9.814	-0.207	-0.140
-725.894	116.018	0.096	0.119
-724.879	-24.981	-0.275	-0.165
-723.864	61.825	-0.106	-0.108
-722.850	104.744	0.179	-0.214
-721.835	-160.509	-0.097	0.005
-720.821	-88.217	-0.356	-0.108
-719.806	-138.475	0.140	0.016
-718.791	-200.000	0.028	-0.351
-717.777	-27.299	-0.260	-0.153
-716.762	189.435	0.100	-0.152
-715.748	-99.402	0.413	-0.105
-714.733	-108.689	0.177	-0.038
-713.718	-200.000	-0.057	-0.284
-712.704	437.583	0.031	0.068
-711.689	93.472	-0.086	-0.099
-710.675	-13.581	0.212	-0.139
-709.660	-55.990	-0.379	-0.171
-708.645	6.685	-0.233	-0.176
-707.631	-133.677	0.243	-0.031
-706.616	800.000	0.063	-0.217
-705.602	35.737	0.136	-0.121
-704.587	349.090	0.175	0.351
-703.572	216.040	-0.083	0.134
-702.558	-42.160	0.298	0.155
-701.543	222.962	-0.126	0.206
-700.529	-171.164	0.070	-0.002
-699.514	-30.823	-0.270	0.155
-698.499	73.291	0.079	0.084
-697.485	-42.140	-0.286	0.148
-696.470	90.070	0.062	-0.070
-695.456	373.783	0.100	0.205
-694.441	85.466	0.120	-0.134
-693.426	-200.000	0.017	-0.103
-692.412	241.108	-0.045	-0.076
-691.397	40.696	0.173	0.158
-690.383	-200.000	0.002	0.042
-689.368	16.428	0.141	0.113
-688.354	602.993	0.054	-0.137
-687.339	-200.000	-0.018	0.322
-686.324	-200.000	-0.025	0.309
-685.310	-200.000	0.014	0.069
-684.295	174.505	-0.051	0.075
-683.281	-110.070	-0.114	0.024
-682.266	-169.350	-0.322	0.012
-681.251	183.565	-0.057	0.086
-680.237	800.000	-0.052	0.205
-679.222	-200.000	0.026	-0.138
-678.208	-122.276	0.165	0.027
-677.193	3.061	-0.313	0.230
-676.178	800.000	-0.021	0.084
-675.164	800.000	-0.160	-0.461
-674.149	800.000	-0.072	0.239
-673.135	11.821	0.275	-0.214
-672.120	2.870	-0.270	-0.198
-671.105	-120.781	-0.244	-0.042
-670.091	106.853	0.247	-0.297
-669.076	-128.866	0.224	-0.032
-668.062	-99.931	0.074	0.019
-667.047	-48.065	0.142	0.070
-666.032	400.686	-0.231	0.491
-665.018	65.886	0.114	-0.117
-664.003	97.147	-0.127	-0.148
-662.989	-198.966	0.145	0.001
-661.974	-7.125	0.070	-0.048
-660.959	-60.347	0.127	0.055
-659.945	-150.705	-0.456	0.035
-658.930	-49.332	0.193	-0.093
-657.916	2.162	0.217	-0.159
-656.901	-66.658	-0.090	0.036
-655.886	287.895	0.080	0.147
-654.872	-147.071	0.231	-0.020
-653.857	-200.000	-0.060	0.311
-652.843	2.275	-0.102	-0.075
-651.828	220.758	-0.054	-0.088
-650.814	-5.943	0.204	-0.141
-649.799	-137.645	-0.203	0.023
-648.784	2.706	0.105	0.077
-647.770	800.000	-0.087	0.332
-646.755	88.555	0.192	0.216
-645.741	-200.000	0.049	0.463
-644.726	800.000	-0.048	0.147
-643.711	-103.314	-0.486	-0.116
-642.697	-56.419	-0.337	0.151
-641.682	-160.030	0.208	-0.011
-640.668	307.884	0.064	0.121
-639.653	-75.243	-0.135	-0.049
-638.638	101.426	0.175	0.206
-637.624	800.000	-0.039	0.112
-636.609	-9.546	0.241	-0.163
-635.595	-58.210	-0.340	-0.150
-634.580	-11.578	-0.047	-0.031
-633.565	800.000	0.075	0.259
-632.551	13.553	-0.254	-0.199
-631.536	-200.000	-0.021	-0.114
-630.522	-74.003	-0.187	-0.069
-629.507	76.656	-0.044	0.047
-628.492	800.000	0.168	-0.544
-627.478	-51.798	-0.346	-0.163
-626.463	119.291	0.342	-0.427
-625.449	-117.269	-0.334	-0.061
-624.434	-92.970	0.067	0.019
-623.419	257.283	0.027	-0.047
-622.405	-116.077	-0.328	0.062
-621.390	-200.000	0.006	0.222
-620.376	272.017	-0.130	0.231
-619.361	-3.137	0.151	0.106
-618.346	-114.956	-0.119	-0.023
-617.332	-200.000	-0.014	-0.196
-616.317	113.990	0.175	0.215
-615.303	221.602	0.078	0.126
-614.288	800.000	0.005	-0.016
-613.273	14.438	0.183	-0.145
-612.259	-200.000	0.031	0.237
-611.244	-60.146	0.203	0.087
-610.230	-77.297	-0.495	0.174
-609.215	87.132	-0.183	-0.204
-608.201	-150.621	0.199	-0.015
-607.186	-173.923	0.298	0.009
-606.171	106.325	-0.153	-0.183
-605.157	-200.000	-0.001	-0.036
-604.142	-92.656	-0.305	0.086
-603.128	-63.898	0.111	0.046
-602.113	241.360	0.003	0.006
-601.098	-113.655	0.203	-0.040
-600.084	-21.410	-0.171	-0.105
-599.069	179.409	-0.048	-0.071
-598.055	-74.236	0.174	0.064
-597.040	766.535	0.097	0.267
-596.025	235.457	0.087	-0.146
-595.011	-131.652	-0.254	0.034
-593.996	-200.000	-0.059	0.357
-592.982	13.005	-0.135	-0.106
-591.967	-61.472	0.234	0.099
-590.952	-139.956	-0.263	-0.028
-589.938	34.164	-0.414	0.364
-588.923	-200.000	0.027	-0.298
-587.909	119.297	0.050	0.063
-586.894	107.731	0.059	-0.070
-585.879	-200.000	-0.019	-0.216
-584.865	-42.697	-0.269	-0.138
-583.850	-54.911	-0.162	-0.074
-582.836	-60.740	0.262	0.112
-581.821	450.580	-0.124	0.277
-580.806	55.250	-0.192	-0.188
-579.792	-29.683	-0.039	0.022
-578.777	800.000	0.054	-0.179
-577.763	-120.201	0.114	-0.020
-576.748	-145.607	0.130	-0.012
-575.733	-200.000	0.013	-0.201
-574.719	560.309	-0.135	0.329
-573.704	-200.000	0.049	-0.218
-572.690	-200.000	-0.019	-0.147
-571.675	-102.382	-0.019	0.005
-570.661	-25.202	-0.142	0.085
-569.646	393.478	0.157	-0.329
-568.631	-69.689	0.064	-0.025
-567.617	-34.116	-0.149	0.082
-566.602	-19.151	0.201	0.126
-565.588	-54.878	-0.122	0.056
-564.573	-52.513	0.263	0.123
-563.558	-200.000	-0.004	0.214
-562.544	172.702	-0.157	0.228
-561.529	800.000	-0.084	0.322
-560.515	160.215	-0.143	0.201
-559.500	62.495	0.252	-0.254
-558.485	80.481	-0.261	0.284
-557.471	-42.819	-0.174	0.089
-556.456	-55.991	0.140	0.063
-555.442	-200.000	-0.020	-0.118
-554.427	-200.000	0.056	-0.338
-553.412	-43.854	0.483	0.245
-552.398	92.302	-0.092	0.104
-551.383	-68.128	0.303	-0.119
-550.369	65.738	-0.322	0.329
-549.354	-200.000	0.001	-0.194
-548.339	-72.546	-0.311	-0.116
-547.325	-200.000	-0.026	0.305
-546.310	-200.000	-0.025	-0.146
-545.296	-99.457	-0.057	-0.014
-544.281	324.858	-0.080	-0.153
-543.266	-15.979	-0.202	-0.129
-542.252	63.733	0.163	0.165
-541.237	800.000	0.023	-0.078
-540.223	-200.000	-0.005	0.209
-539.208	800.000	-0.036	0.130
-538.193	-200.000	-0.007	-0.199
-537.179	86.331	0.184	0.204
-536.164	691.714	-0.104	0.274
-535.150	-54.490	-0.288	-0.131
-534.135	-43.816	0.291	-0.147
-533.121	800.000	-0.061	0.204
-532.106	-134.666	-0.054	0.007
-531.091	365.894	-0.097	0.197
-530.077	-51.075	-0.197	-0.093
-529.062	-116.455	0.415	0.077
-528.048	151.974	0.022	0.030
-527.033	189.238	-0.096	0.145
-526.018	-200.000	0.061	-0.369
-525.004	-147.681	-0.066	-0.006
-523.989	-6.930	0.177	-0.121
-522.975	-19.208	0.138	-0.086
-521.960	-200.000	0.029	-0.142
-520.945	-20.249	0.079	-0.049
-519.931	800.000	-0.023	0.072
-518.916	-200.000	0.021	0.214
-517.902	-200.000	0.086	-0.542
-516.887	17.386	-0.162	-0.130
-515.872	-21.289	0.044	-0.027
-514.858	111.542	-0.054	0.066
-513.843	-33.317	-0.309	-0.172
-512.829	81.101	-0.158	0.172
-511.814	-115.676	-0.189	0.036
-510.799	800.000	0.047	0.156
-509.785	-153.144	-0.246	-0.017
-508.770	-133.493	0.186	-0.024
-507.756	-107.690	0.195	-0.043
-506.741	-28.879	-0.237	-0.137
-505.726	374.302	-0.073	0.149
-504.712	-200.000	0.034	0.466
-503.697	56.763	0.272	-0.267
-502.683	-200.000	-0.004	-0.050
-501.668	32.296	0.126	0.109
-500.653	10.477	-0.123	0.094
-499.639	200.651	0.113	0.175
-498.624	61.300	-0.095	-0.095
-497.610	-200.000	-0.009	0.099
-496.595	-15.535	0.162	-0.104
-495.581	-34.222	-0.045	-0.025
-494.566	332.629	-0.091	-0.176
-493.551	800.000	-0.032	-0.093
-492.537	-200.000	0.008	-0.038
-491.522	164.556	-0.293	-0.416
-490.508	-200.000	-0.078	-0.345
-489.493	-123.801	0.141	-0.022
-488.478	15.076	-0.352	-0.277
-487.464	67.784	-0.174	-0.179
-486.449	-200.000	0.023	0.338
-485.435	-67.176	0.430	0.170
-484.420	-32.765	0.285	-0.159
-483.405	800.000	-0.054	-0.163
-482.391	142.663	0.147	0.197
-481.376	66.956	-0.095	0.097
-480.362	17.284	0.196	0.156
-479.347	36.964	-0.203	-0.180
-478.332	-200.000	-0.012	0.082
-477.318	-124.202	-0.218	0.034
-476.303	-5.066	0.232	0.161
-475.289	38.244	-0.098	0.088
-474.274	-200.000	-0.004	-0.227
-473.259	141.131	-0.196	-0.260
-472.245	457.444	0.150	-0.335
-471.230	-200.000	-0.058	-0.345
-470.216	-200.000	-0.003	-0.186
-469.201	-52.411	0.250	0.116
-468.186	-111.074	0.165	-0.034
-467.172	-131.003	0.440	0.059
-466.157	-172.671	0.167	0.005
-465.143	-200.000	0.003	-0.107
-464.128	-25.800	0.155	-0.092
-463.113	-200.000	-0.007	-0.097
-462.099	398.055	-0.068	0.144
-461.084	146.961	0.092	0.124
-460.070	186.144	-0.046	0.068
-459.055	227.898	-0.039	0.063
-458.040	2.150	0.128	-0.093
-457.026	17.804	0.236	-0.188
-456.011	800.000	-0.049	-0.159
-454.997	-66.964	0.163	-0.065
-453.982	-33.757	-0.281	-0.156
-452.968	149.803	-0.013	0.018
-451.953	153.942	0.196	0.270
-450.938	185.706	0.154	0.230
-449.924	-37.479	-0.329	-0.176
-448.909	-27.440	0.267	-0.156
-447.895	800.000	0.102	-0.285
-446.880	-81.987	-0.179	-0.059
-445.865	771.460	-0.044	0.121
-444.851	-136.738	0.256	0.030
-443.836	-135.273	-0.129	0.015
-442.822	-141.436	0.241	0.024
-441.807	-8.682	-0.205	0.138
-440.792	-11.285	0.191	0.126
-439.778	-112.265	-0.268	0.054
-438.763	-200.000	0.030	0.204
-437.749	-53.527	-0.203	-0.093
-436.734	-42.751	-0.146	0.074
-435.719	-92.879	0.300	-0.084
-434.705	-200.000	0.020	-0.300
-433.690	207.429	0.058	0.091
-432.676	-200.000	0.026	-0.318
-431.661	-73.816	-0.347	-0.127
-430.646	-22.891	-0.366	-0.221
-429.632	-142.060	0.288	-0.029
-428.617	-108.022	-0.175	0.038
-427.603	72.423	0.072	0.076
-426.588	-160.750	-0.248	0.013
-425.573	114.268	0.187	-0.228
-424.559	-200.000	-0.001	0.037
-423.544	208.054	0.053	0.084
-422.530	269.971	0.113	0.198
-421.515	-97.187	0.166	0.044
-420.500	800.000	0.079	0.254
-419.486	-21.536	0.097	-0.059
-418.471	-200.000	0.029	-0.305
-417.457	116.023	-0.071	-0.087
-416.442	-80.910	0.410	-0.136
-415.428	-82.136	-0.162	0.053
-414.413	-51.850	0.143	-0.067
-413.398	151.215	0.099	-0.135
-412.384	-200.000	-0.001	-0.157
-411.369	-30.196	-0.110	0.062
-410.355	-200.000	0.027	0.185
-409.340	-200.000	0.026	-0.194
-408.325	-94.052	-0.143	0.039
-407.311	300.607	-0.038	-0.069
-406.296	-50.225	-0.068	0.032
-405.282	-80.094	-0.335	-0.112
-404.267	483.107	0.060	-0.137
-403.252	-89.760	0.080	-0.023
-402.238	-200.000	0.018	-0.163
-401.223	-123.193	0.039	0.006
-400.209	167.458	0.162	0.231
-399.194	-147.131	0.124	0.011
-398.179	55.622	-0.183	-0.178
-397.165	-200.000	0.023	-0.171
-396.150	-122.162	-0.093	0.015
-395.136	-57.045	0.300	-0.132
-394.121	-200.000	-0.045	-0.210
-393.106	800.000	-0.065	0.204
-392.092	-52.448	0.184	0.085
-391.077	-200.000	0.060	0.367
-390.063	-15.786	0.152	-0.097
-389.048	-56.041	0.302	0.135
-388.033	67.090	0.148	-0.151
-387.019	-126.915	-0.178	-0.026
-386.004	-200.000	-0.033	-0.258
-384.990	62.966	-0.149	0.149
-383.975	-19.706	0.355	0.220
-382.960	-200.000	0.019	0.416
-381.946	149.631	0.194	0.263
-380.931	199.426	-0.123	0.188
-379.917	-200.000	-0.014	0.139
-378.902	26.182	-0.420	-0.351
-377.888	230.858	-0.130	-0.213
-376.873	-13.311	0.124	-0.081
-375.858	-200.000	-0.002	0.039
-374.844	-94.576	0.283	-0.077
-373.829	-200.000	0.015	-0.211
-372.815	-40.264	0.148	0.077
-371.800	800.000	-0.057	0.233
-370.785	646.478	0.148	0.378
-369.771	-117.382	0.116	-0.021
-368.756	-200.000	0.030	-0.366
-367.742	-131.770	0.191	0.025
-366.727	-8.857	0.200	-0.134
-365.712	369.743	-0.061	0.123
-364.698	-93.576	-0.111	0.031
-363.683	800.000	-0.089	0.324
-362.669	-200.000	-0.045	-0.203
-361.654	12.155	-0.092	0.071
-360.639	-30.810	-0.202	0.114
-359.625	-90.792	-0.413	-0.119
-358.610	13.118	0.253	0.196
-357.596	800.000	0.059	0.182
-356.581	-83.750	0.123	-0.039
-355.566	-153.936	-0.150	0.010
-354.552	39.121	-0.095	-0.085
-353.537	-38.938	0.422	0.222
-352.523	160.455	0.124	-0.174
-351.508	535.302	0.123	-0.291
-350.493	-109.873	-0.376	0.079
-349.479	58.569	0.437	0.429
-348.464	341.067	0.063	-0.123
-347.450	-75.862	-0.040	0.014
-346.435	3.525	-0.312	-0.228
-345.420	-115.092	-0.169	0.032
-344.406	127.854	-0.113	-0.144
-343.391	-64.054	-0.184	0.075
-342.377	188.709	-0.136	-0.204
-341.362	-138.295	0.372	0.041
-340.348	176.117	0.082	0.119
-339.333	-24.884	0.173	-0.103
-338.318	286.657	0.158	0.286
-337.304	-59.763	-0.406	-0.174
-336.289	118.250	-0.029	0.036
-335.275	800.000	-0.018	-0.075
-334.260	32.691	-0.129	0.111
-333.245	130.578	-0.259	0.332
-332.231	550.279	-0.029	-0.069
-331.216	-10.836	-0.177	-0.117
-330.202	800.000	0.080	0.254
-329.187	-49.827	0.161	-0.076
-328.172	800.000	0.070	0.205
-327.158	-39.635	-0.240	0.126
-326.143	-200.000	-0.009	0.181
-325.129	72.777	0.167	0.174
-324.114	581.749	0.027	0.066
-323.099	-80.247	-0.387	-0.129
-322.085	90.081	-0.138	-0.155
-321.070	-143.426	0.238	0.023
-320.056	-91.411	0.205	0.059
-319.041	-29.094	-0.120	0.069
-318.026	228.654	0.097	0.158
-317.012	-200.000	0.035	0.203
-315.997	-17.772	-0.131	-0.082
-314.983	-200.000	0.023	-0.210
-313.968	-200.000	-0.017	-0.223
-312.953	296.931	0.143	-0.263
-311.939	368.036	0.124	0.250
-310.924	111.238	-0.318	0.382
-309.910	800.000	0.025	-0.074
-308.895	117.903	0.135	-0.166
-307.880	171.859	0.189	-0.272
-306.866	-70.232	0.157	-0.060
-305.851	577.998	0.034	-0.083
-304.837	160.673	-0.072	0.100
-303.822	-154.305	-0.180	-0.012
-302.807	73.147	-0.171	0.179
-301.793	-68.964	0.198	-0.076
-300.778	195.573	-0.257	-0.390
-299.764	-91.685	0.385	-0.109
-298.749	800.000	-0.050	0.155
-297.735	-200.000	-0.035	0.156
-296.720	142.191	0.205	-0.271
-295.705	-127.018	-0.277	-0.041
-294.691	108.220	0.181	-0.215
-293.676	800.000	0.085	-0.266
-292.662	-91.197	0.155	0.044
-291.647	-116.993	0.401	-0.073
-290.632	117.201	0.057	0.069
-289.618	800.000	0.045	0.197
-288.603	21.354	0.216	0.175
-287.589	36.586	0.026	0.023
-286.574	-118.324	-0.101	0.018
-285.559	-68.936	-0.232	-0.089
-284.545	279.547	0.075	0.134
-283.530	-193.173	0.107	0.001
-282.516	-158.781	-0.120	-0.007
-281.501	-182.588	0.322	-0.006
-280.486	-92.942	-0.066	-0.018
-279.472	443.906	-0.064	-0.140
-278.457	-200.000	-0.054	0.270
-277.443	93.985	-0.285	0.322
-276.428	39.906	-0.246	-0.220
-275.413	-20.252	-0.035	-0.021
-274.399	36.250	-0.396	-0.348
-273.384	-59.922	0.247	0.105
-272.370	24.671	0.253	0.209
-271.355	-104.894	-0.269	-0.062
-270.340	-117.435	0.570	0.103
-269.326	-200.000	0.019	-0.256
-268.311	-200.000	-0.001	0.069
-267.297	-30.556	-0.292	0.165
-266.282	-40.821	0.154	0.079
-265.267	6.523	0.160	0.119
-264.253	-25.521	0.181	-0.107
-263.238	-36.559	-0.271	0.145
-262.224	112.793	0.098	-0.118
-261.209	533.800	0.120	0.282
-260.195	800.000	-0.014	0.054
-259.180	-94.643	-0.157	-0.043
-258.165	-110.678	-0.158	0.033
-257.151	32.319	-0.095	0.082
-256.136	-200.000	-0.028	-0.171
-255.122	43.739	-0.213	0.194
-254.107	-200.000	-0.006	-0.058
-253.092	800.000	-0.099	-0.272
-252.078	61.136	0.102	-0.101
-251.063	-75.009	0.274	-0.098
-250.049	-153.172	0.232	-0.016
-249.034	-200.000	-0.006	-0.028
-248.019	334.279	0.124	-0.239
-247.005	81.603	0.067	0.073
-245.990	16.192	-0.104	-0.082
-244.976	74.478	-0.211	-0.221
-243.961	-19.542	0.061	-0.038
-242.946	2.117	-0.133	-0.096
-241.932	-200.000	0.003	0.267
-240.917	-103.850	0.146	-0.034
-239.903	-200.000	-0.010	-0.299
-238.888	12.474	0.054	0.042
-237.873	-200.000	0.029	0.479
-236.859	-200.000	-0.031	-0.523
-235.844	55.541	-0.150	-0.144
-234.830	800.000	-0.036	0.150
-233.815	-9.859	-0.291	-0.193
-232.800	91.660	0.211	-0.236
-231.786	-144.851	-0.166	-0.015
-230.771	-15.659	-0.180	0.114
-229.757	-59.042	0.342	0.147
-228.742	-106.059	0.053	-0.012
-227.727	580.591	-0.136	0.331
-226.713	32.436	0.150	-0.129
-225.698	-34.708	-0.290	-0.158
-224.684	-44.109	0.187	-0.093
-223.669	-161.125	0.252	-0.013
-222.655	800.000	-0.070	-0.226
-221.640	86.029	-0.207	-0.227
-220.625	-102.499	0.061	0.014
-219.611	-42.714	0.204	-0.103
-218.596	-61.211	-0.319	-0.134
-217.582	-71.875	-0.061	-0.023
-216.567	-97.093	-0.119	0.031
-215.552	-200.000	-0.061	0.342
-214.538	549.530	0.064	0.152
-213.523	-200.000	-0.022	0.287
-212.509	-200.000	-0.036	0.166
-211.494	21.185	-0.273	0.221
-210.479	-130.272	-0.304	-0.041
-209.465	-135.935	-0.538	0.063
-208.450	-152.641	0.304	0.022
-207.436	5.326	-0.216	0.158
-206.421	536.623	0.139	-0.327
-205.406	-80.029	0.145	0.048
-204.392	186.861	-0.152	0.225
-203.377	-75.760	0.255	-0.090
-202.363	307.365	0.185	-0.342
-201.348	-19.170	0.133	0.082
-200.333	-81.300	0.215	-0.071
-199.319	800.000	0.040	0.166
-198.304	-114.101	-0.198	0.038
-197.290	-47.342	0.169	0.082
-196.275	-66.702	-0.183	-0.072
-195.260	-200.000	0.016	0.099
-194.246	-101.478	0.196	0.047
-193.231	-92.349	-0.184	0.052
-192.217	-160.794	0.137	-0.007
-191.202	-26.336	0.271	0.158
-190.187	-200.000	0.015	0.175
-189.173	686.512	0.053	0.138
-188.158	-142.659	-0.280	0.027
-187.144	589.308	0.070	0.171
-186.129	-6.510	0.059	-0.040
-185.114	-200.000	-0.075	-0.348
-184.100	800.000	0.091	0.292
-183.085	-199.304	0.221	0.001
-182.071	-85.112	0.222	-0.069
-181.056	-200.000	0.014	0.213
-180.042	354.686	-0.102	0.201
-179.027	30.326	-0.182	0.154
-178.012	-200.000	0.039	0.377
-176.998	103.811	0.055	-0.064
-175.983	81.227	-0.164	0.176
-174.969	800.000	0.052	-0.162
-173.954	-8.099	-0.135	-0.090
-172.939	145.653	-0.218	-0.290
-171.925	-114.249	-0.102	-0.020
-170.910	85.789	-0.133	0.145
-169.896	458.692	0.102	0.226
-168.881	-200.000	0.018	-0.113
-167.866	460.650	-0.094	-0.208
-166.852	229.748	0.122	-0.197
-165.837	-200.000	-0.009	-0.169
-164.823	-200.000	-0.020	-0.363
-163.808	800.000	-0.096	0.327
-162.793	455.432	-0.116	0.256
-161.779	-125.377	0.072	-0.011
-160.764	260.599	0.120	0.205
-159.750	260.162	-0.065	-0.111
-158.735	117.950	0.021	0.026
-157.720	800.000	0.053	-0.228
-156.706	-200.000	0.025	0.113
-155.691	800.000	-0.103	-0.381
-154.677	-50.444	0.252	-0.118
-153.662	-64.385	0.263	-0.106
-152.647	-200.000	-0.024	0.210
-151.633	539.859	0.092	0.218
-150.618	295.390	0.048	0.087
-149.604	579.450	-0.124	-0.301
-148.589	-93.069	-0.259	-0.072
-147.574	77.575	-0.049	0.052
-146.560	-195.849	-0.192	-0.001
-145.545	800.000	-0.011	0.035
-144.531	-70.667	0.253	0.095
-143.516	277.969	0.111	0.195
-142.502	252.672	-0.111	-0.188
-141.487	-200.000	0.028	0.317
-140.472	-125.352	-0.240	0.036
-139.458	522.315	0.108	-0.251
-138.443	-76.216	0.124	-0.043
-137.429	36.078	0.343	0.299
-136.414	258.575	-0.185	-0.315
-135.399	-200.000	-0.024	0.309
-134.385	466.940	-0.058	-0.128
-133.370	-200.000	-0.048	-0.225
-132.356	170.534	-0.163	-0.232
-131.341	-111.705	-0.192	-0.039
-130.326	69.118	0.172	0.175
-129.312	-104.800	-0.147	0.033
-128.297	800.000	-0.069	-0.196
-127.283	-200.000	-0.047	-0.215
-126.268	735.230	-0.087	-0.230
-125.253	102.419	-0.072	0.083
-124.239	214.636	-0.084	0.133
-123.224	800.000	-0.123	0.402
-122.210	-70.042	-0.142	0.053
