DTS Sentinel unit serial number:	SN413079Multiplexer serial number:	ORYXHardware model number:	OX4-SRSoftware version number:	ORYX F/W v4.00 Oryx Data Collector v3.7.2.0data status	okinstallation	princeton_trtdifferential loss correction	single-endedforward channel	channel 4reverse channel	N/Adate	2019/09/13time	23:21:35forward acquisition time	60.00reverse acquisition time	0.00gamma	496.2192k internal	0.2323k external	0.2323temperature offset calibration	1.0135default loss term (dB/km)	0.3790temperature slope calibration	1.0000multiplexer offset coefficient	1.0000multiplexer slope coefficient	1.0000fibre end	0.00T internal ref (°C)	26.98T ext. ref 1 (°C)	3.19T ext. ref 2 (°C)	20.93length (m)	temperature (°C)	Stokes	anti-Stokes-747.200	800.000	-0.019	0.072
-746.185	240.483	-0.017	-0.028
-745.171	197.136	0.145	-0.223
-744.156	425.264	0.047	0.103
-743.142	33.869	-0.170	0.149
-742.127	429.012	0.080	-0.175
-741.112	679.981	0.107	-0.281
-740.098	-14.895	0.202	0.131
-739.083	87.274	0.164	-0.183
-738.069	446.912	0.057	-0.127
-737.054	193.782	0.108	0.164
-736.039	342.680	-0.023	-0.045
-735.025	18.682	-0.159	0.129
-734.010	-200.000	-0.026	-0.144
-732.996	800.000	-0.096	-0.325
-731.981	-200.000	0.006	-0.060
-730.966	319.692	0.122	-0.233
-729.952	-93.751	-0.484	-0.135
-728.937	37.956	0.126	-0.113
-727.923	62.381	-0.173	-0.175
-726.908	205.185	-0.034	-0.054
-725.894	147.046	0.173	-0.234
-724.879	-200.000	0.064	-0.369
-723.864	255.645	0.091	0.157
-722.850	4.031	-0.182	0.134
-721.835	-200.000	-0.066	-0.442
-720.821	179.916	-0.320	0.473
-719.806	-93.731	0.372	-0.104
-718.791	-200.000	0.059	-0.281
-717.777	800.000	0.106	0.306
-716.762	-200.000	-0.026	0.208
-715.748	-52.760	0.086	0.040
-714.733	-122.868	-0.318	0.052
-713.718	623.186	-0.153	0.389
-712.704	-119.626	-0.114	-0.020
-711.689	238.265	0.076	-0.128
-710.675	-72.228	0.106	-0.040
-709.660	127.832	-0.103	-0.132
-708.645	-77.571	0.116	0.041
-707.631	-100.240	-0.286	-0.072
-706.616	-14.972	-0.189	0.122
-705.602	498.919	0.121	-0.281
-704.587	-152.967	-0.567	0.040
-703.572	366.798	-0.034	0.069
-702.558	415.347	0.161	-0.345
-701.543	-150.909	-0.231	0.018
-700.529	-116.563	-0.283	0.053
-699.514	138.671	0.183	0.242
-698.499	800.000	-0.021	-0.077
-697.485	-135.405	0.091	-0.011
-696.470	-200.000	-0.003	-0.226
-695.456	-70.512	-0.409	-0.156
-694.441	142.473	-0.105	-0.140
-693.426	-128.683	-0.399	0.057
-692.412	132.944	-0.131	0.170
-691.397	-47.922	0.210	0.103
-690.383	-200.000	-0.017	0.340
-689.368	-170.003	-0.248	-0.009
-688.354	-54.117	0.244	0.112
-687.339	800.000	-0.083	-0.292
-686.324	-131.144	0.183	-0.025
-685.310	-94.179	-0.296	0.082
-684.295	66.270	-0.207	0.212
-683.281	-19.982	0.108	-0.067
-682.266	-56.398	-0.258	-0.116
-681.251	800.000	-0.028	-0.111
-680.237	-200.000	0.064	0.337
-679.222	800.000	0.099	0.349
-678.208	362.178	-0.100	-0.203
-677.193	-41.395	-0.181	0.094
-676.178	-78.497	-0.204	-0.071
-675.164	46.233	-0.158	-0.147
-674.149	125.767	0.024	-0.031
-673.135	47.411	0.044	0.042
-672.120	-76.977	-0.115	-0.041
-671.105	800.000	0.020	-0.075
-670.091	-46.206	-0.108	0.053
-669.076	-200.000	0.008	0.201
-668.062	-200.000	0.002	0.031
-667.047	93.402	0.252	-0.287
-666.032	-29.011	0.216	-0.125
-665.018	-175.863	-0.165	0.004
-664.003	-153.151	-0.135	-0.010
-662.989	-22.870	-0.167	-0.101
-661.974	-200.000	-0.038	0.231
-660.959	-70.998	-0.270	0.102
-659.945	-131.093	-0.072	0.010
-658.930	115.528	0.044	0.054
-657.916	246.883	-0.081	0.138
-656.901	-200.000	0.028	-0.134
-655.886	129.525	-0.183	0.235
-654.872	-134.960	0.387	-0.047
-653.857	222.668	0.020	-0.033
-652.843	163.622	0.064	0.091
-651.828	-200.000	-0.028	-0.243
-650.814	126.723	0.346	-0.441
-649.799	4.008	-0.367	0.270
-648.784	-200.000	0.000	0.238
-647.770	4.636	0.228	0.168
-646.755	44.260	-0.123	-0.114
-645.741	420.281	-0.070	0.151
-644.726	-16.570	0.339	0.216
-643.711	777.826	-0.045	-0.123
-642.697	-98.206	0.040	0.010
-641.682	-124.263	-0.193	-0.030
-640.668	181.235	0.120	-0.177
-639.653	-32.149	0.022	0.012
-638.638	-21.282	-0.418	0.257
-637.624	800.000	0.053	0.202
-636.609	42.993	-0.168	-0.154
-635.595	-143.338	-0.323	0.031
-634.580	800.000	0.040	-0.149
-633.565	129.321	-0.070	0.090
-632.551	123.249	-0.186	-0.235
-631.536	755.298	-0.059	-0.160
-630.522	0.286	0.143	-0.103
-629.507	72.621	-0.381	-0.399
-628.492	800.000	0.061	0.258
-627.478	800.000	-0.050	-0.148
-626.463	342.724	-0.047	0.092
-625.449	-143.523	-0.404	0.039
-624.434	-148.558	0.346	-0.028
-623.419	-16.931	0.093	-0.059
-622.405	-19.215	-0.483	0.301
-621.390	586.329	0.051	0.126
-620.376	-143.379	-0.247	-0.024
-619.361	32.295	0.228	-0.198
-618.346	157.544	0.223	0.310
-617.332	-116.919	0.321	-0.059
-616.317	173.702	-0.146	0.212
-615.303	-200.000	0.010	-0.186
-614.288	-200.000	-0.039	0.239
-613.273	282.096	0.145	-0.262
-612.259	-161.027	-0.088	-0.005
-611.244	68.149	0.161	0.166
-610.230	-61.697	0.174	-0.073
-609.215	483.424	-0.172	-0.394
-608.201	-29.580	-0.105	-0.060
-607.186	-114.617	0.306	0.059
-606.171	50.849	-0.088	-0.084
-605.157	103.847	0.135	0.160
-604.142	138.821	0.043	-0.057
-603.128	-114.572	-0.308	-0.059
-602.113	7.220	0.092	-0.069
-601.098	-50.637	0.041	0.019
-600.084	-92.690	-0.272	0.077
-599.069	-77.410	0.392	-0.137
-598.055	800.000	-0.036	0.121
-597.040	-66.347	-0.238	0.095
-596.025	660.006	0.139	0.360
-595.011	8.363	-0.167	-0.126
-593.996	-200.000	-0.019	0.111
-592.982	-104.476	-0.203	0.047
-591.967	239.115	0.088	0.148
-590.952	363.787	0.140	0.282
-589.938	-200.000	0.020	0.195
-588.923	-200.000	0.039	0.185
-587.909	752.857	-0.091	0.246
-586.894	-50.370	-0.196	-0.093
-585.879	-200.000	-0.031	0.261
-584.865	-49.310	0.163	-0.078
-583.850	-105.512	0.126	-0.029
-582.836	-20.138	0.122	-0.076
-581.821	-183.320	0.218	0.004
-580.806	-79.783	-0.174	-0.059
-579.792	-200.000	0.043	-0.230
-578.777	-114.853	-0.264	-0.050
-577.763	202.315	-0.095	0.147
-576.748	-200.000	0.031	-0.210
-575.733	-166.535	-0.180	0.008
-574.719	86.471	-0.127	-0.140
-573.704	0.825	-0.122	0.088
-572.690	800.000	0.045	0.155
-571.675	324.091	-0.072	0.138
-570.661	-200.000	-0.021	0.292
-569.646	-106.179	0.110	0.025
-568.631	-200.000	-0.090	0.420
-567.617	-20.793	-0.180	0.111
-566.602	-3.305	0.316	0.221
-565.588	-200.000	-0.046	-0.356
-564.573	586.742	-0.126	0.310
-563.558	-132.469	0.262	0.034
-562.544	51.060	-0.107	0.102
-561.529	-200.000	0.056	-0.271
-560.515	-102.723	0.319	-0.076
-559.500	648.228	0.053	0.137
-558.485	-60.436	-0.163	-0.070
-557.471	150.925	0.038	0.052
-556.456	-126.692	-0.296	-0.044
-555.442	-9.773	0.371	-0.247
-554.427	-168.942	-0.146	-0.005
-553.412	35.913	0.180	-0.159
-552.398	383.085	-0.111	-0.229
-551.383	-200.000	-0.038	0.171
-550.369	556.968	0.108	0.260
-549.354	363.611	-0.110	0.221
-548.339	391.155	-0.021	-0.044
-547.325	-56.620	-0.147	-0.065
-546.310	110.345	0.095	0.115
-545.296	182.601	0.027	-0.040
-544.281	163.003	0.163	-0.230
-543.266	307.954	-0.193	-0.361
-542.252	157.573	0.096	0.133
-541.237	11.488	0.117	0.090
-540.223	-200.000	-0.033	-0.337
-539.208	-43.570	0.189	-0.095
-538.193	800.000	-0.051	0.193
-537.179	61.289	0.201	-0.200
-536.164	194.143	0.057	-0.087
-535.150	299.223	-0.074	0.136
-534.135	-156.304	0.088	-0.005
-533.121	800.000	-0.049	0.156
-532.106	154.291	0.100	0.138
-531.091	115.449	0.104	-0.127
-530.077	-109.876	-0.530	0.111
-529.062	-200.000	-0.023	0.108
-528.048	17.492	-0.071	-0.056
-527.033	157.032	0.185	-0.257
-526.018	670.052	0.054	0.141
-525.004	-200.000	0.035	-0.220
-523.989	30.212	0.052	0.044
-522.975	9.571	-0.174	-0.132
-521.960	800.000	0.104	0.291
-520.945	-111.268	-0.225	-0.046
-519.931	205.163	0.068	0.105
-518.916	-138.641	-0.176	0.019
-517.902	54.587	0.097	0.094
-516.887	342.219	0.165	-0.322
-515.872	-200.000	0.036	-0.182
-514.858	9.896	-0.057	-0.043
-513.843	-200.000	-0.018	-0.334
-512.829	161.445	-0.089	-0.125
-511.814	-200.000	-0.017	-0.104
-510.799	-200.000	0.054	0.240
-509.785	359.975	0.241	0.482
-508.770	150.297	0.035	0.048
-507.756	234.839	0.153	-0.253
-506.741	800.000	0.013	-0.056
-505.726	30.709	-0.169	-0.145
-504.712	-74.147	0.216	-0.078
-503.697	-102.509	-0.101	-0.024
-502.683	788.067	-0.054	0.148
-501.668	-200.000	-0.016	0.163
-500.653	-45.988	-0.193	0.095
-499.639	-59.195	0.293	-0.126
-498.624	301.221	0.161	-0.297
-497.610	-200.000	0.026	-0.210
-496.595	11.856	0.100	0.077
-495.581	149.677	-0.098	-0.133
-494.566	-200.000	-0.043	-0.216
-493.551	92.342	0.186	-0.209
-492.537	-23.450	0.159	0.095
-491.522	-30.457	0.247	0.140
-490.508	-200.000	0.011	-0.073
-489.493	-179.593	0.150	0.003
-488.478	166.324	-0.106	0.150
-487.464	32.245	0.256	-0.221
-486.449	22.792	0.192	-0.157
-485.435	104.440	-0.241	0.284
-484.420	-144.858	-0.145	-0.013
-483.405	410.992	-0.090	0.191
-482.391	161.768	0.167	0.234
-481.376	-74.395	-0.320	0.115
-480.362	-200.000	0.050	-0.229
-479.347	-29.598	-0.072	0.041
-478.332	-8.416	-0.206	0.138
-477.318	-35.065	-0.213	0.116
-476.303	13.722	0.101	-0.078
-475.289	-9.945	0.247	0.164
-474.274	800.000	-0.048	0.158
-473.259	47.008	-0.108	0.100
-472.245	-47.251	-0.133	-0.065
-471.230	-66.075	-0.281	-0.112
-470.216	-73.021	0.212	-0.078
-469.201	-200.000	-0.004	0.057
-468.186	30.782	0.225	0.193
-467.172	-50.085	-0.335	-0.158
-466.157	-105.251	-0.199	0.045
-465.143	-146.342	0.239	0.021
-464.128	-121.658	0.188	0.031
-463.113	-16.622	-0.142	-0.090
-462.099	170.259	0.123	-0.176
-461.084	-200.000	0.008	-0.057
-460.070	-102.345	-0.102	0.024
-459.055	-112.159	-0.127	-0.025
-458.040	129.419	0.046	0.058
-457.026	-69.692	-0.273	0.104
-456.011	35.811	-0.211	0.185
-454.997	-200.000	0.007	0.083
-453.982	75.441	-0.222	0.234
-452.968	-111.638	0.168	0.034
-451.953	-200.000	0.021	-0.210
-450.938	-33.639	-0.393	-0.217
-449.924	354.154	-0.096	-0.191
-448.909	237.296	-0.048	0.080
-447.895	-200.000	-0.050	0.283
-446.880	-2.503	-0.031	-0.022
-445.865	516.160	0.025	0.058
-444.851	3.054	-0.068	-0.049
-443.836	-119.530	-0.016	-0.003
-442.822	-7.503	-0.093	-0.063
-441.807	-29.201	-0.198	0.114
-440.792	176.624	0.111	-0.161
-439.778	11.930	-0.403	-0.309
-438.763	-200.000	0.006	0.069
-437.749	-28.167	0.260	0.150
-436.734	300.259	-0.089	0.164
-435.719	-200.000	0.027	-0.227
-434.705	107.140	0.112	-0.133
-433.690	25.871	0.106	0.088
-432.676	-135.262	-0.245	-0.029
-431.661	140.181	-0.158	-0.208
-430.646	-86.126	-0.214	-0.066
-429.632	188.362	-0.048	-0.072
-428.617	-200.000	0.076	0.375
-427.603	70.137	-0.234	-0.241
-426.588	203.648	-0.137	0.212
-425.573	-94.364	-0.153	0.042
-424.559	-92.771	-0.090	0.025
-423.544	197.544	0.140	0.213
-422.530	-119.003	-0.127	0.022
-421.515	800.000	-0.021	0.074
-420.500	800.000	0.078	-0.310
-419.486	-135.384	0.337	-0.040
-418.471	-69.619	-0.339	0.129
-417.457	-91.165	0.353	0.101
-416.442	41.128	-0.185	-0.166
-415.428	-6.959	0.149	0.101
-414.413	-200.000	-0.043	-0.190
-413.398	800.000	0.041	0.146
-412.384	30.874	0.131	0.112
-411.369	-81.112	0.296	0.098
-410.355	-133.317	-0.345	-0.043
-409.340	565.542	0.075	-0.181
-408.325	24.258	0.197	0.162
-407.311	151.999	-0.100	0.136
-406.296	40.395	-0.109	0.098
-405.282	-11.136	-0.128	-0.084
-404.267	-50.881	-0.111	-0.052
-403.252	31.168	0.216	-0.185
-402.238	800.000	0.093	-0.293
-401.223	229.065	0.273	0.445
-400.209	97.096	-0.046	0.053
-399.194	-73.329	-0.189	-0.069
-398.179	76.557	-0.115	0.121
-397.165	-40.818	0.143	0.074
-396.150	394.264	0.066	0.136
-395.136	12.575	0.098	-0.075
-394.121	-70.891	0.018	0.007
-393.106	688.404	-0.027	-0.071
-392.092	227.812	-0.014	0.022
-391.077	-11.554	0.184	0.121
-390.063	-200.000	-0.032	-0.143
-389.048	52.822	0.110	0.105
-388.033	-200.000	0.048	-0.259
-387.019	585.639	-0.110	0.270
-386.004	-61.214	-0.193	-0.081
-384.990	-107.299	0.323	-0.071
-383.975	46.232	0.107	0.099
-382.960	-200.000	-0.020	0.126
-381.946	-200.000	-0.068	-0.364
-380.931	114.405	-0.156	0.189
-379.917	-87.122	0.274	-0.083
-378.902	-200.000	0.042	-0.196
-377.888	-200.000	-0.003	-0.070
-376.873	41.212	0.242	0.218
-375.858	-84.781	0.337	0.106
-374.844	84.906	0.081	0.088
-373.829	800.000	0.043	-0.168
-372.815	103.843	-0.258	-0.302
-371.800	-4.286	-0.198	-0.136
-370.785	-200.000	-0.039	-0.186
-369.771	182.977	0.219	-0.322
-368.756	162.420	0.105	0.147
-367.742	-115.970	0.147	-0.027
-366.727	-63.723	0.322	-0.131
-365.712	-200.000	-0.005	-0.025
-364.698	-14.729	-0.080	0.051
-363.683	-15.720	-0.262	-0.166
-362.669	-200.000	0.013	0.082
-361.654	-105.630	0.358	-0.081
-360.639	289.819	-0.050	0.091
-359.625	800.000	0.043	-0.181
-358.610	15.573	0.028	0.022
-357.596	-87.723	-0.176	0.053
-356.581	-108.367	0.083	-0.018
-355.566	800.000	0.119	-0.402
-354.552	195.090	-0.075	-0.113
-353.537	-75.635	0.503	0.178
-352.523	168.308	-0.226	0.321
-351.508	-185.926	-0.040	0.001
-350.493	-159.791	-0.162	0.009
-349.479	-70.154	0.278	-0.105
-348.464	-32.373	-0.083	0.046
-347.450	184.380	0.155	0.229
-346.435	175.223	-0.122	-0.176
-345.420	-200.000	-0.088	0.520
-344.406	-200.000	-0.007	0.066
-343.391	-5.881	-0.133	0.091
-342.377	40.852	-0.180	0.162
-341.362	-69.351	-0.402	0.153
-340.348	-96.335	0.253	0.067
-339.333	570.989	0.152	-0.367
-338.318	10.516	-0.052	0.039
-337.304	96.134	-0.139	-0.158
-336.289	800.000	-0.040	-0.122
-335.275	-59.864	-0.080	-0.034
-334.260	-200.000	0.037	0.187
-333.245	236.070	0.132	-0.217
-332.231	800.000	0.099	-0.393
-331.216	-18.636	0.271	0.168
-330.202	800.000	-0.097	0.332
-329.187	175.476	0.070	0.102
-328.172	325.818	-0.071	0.135
-327.158	-117.119	0.289	-0.052
-326.143	800.000	-0.015	0.042
-325.129	-139.771	0.460	-0.049
-324.114	-87.142	0.400	0.121
-323.099	402.781	-0.022	-0.047
-322.085	44.110	0.375	-0.342
-321.070	800.000	0.036	0.121
-320.056	221.509	0.103	0.164
-319.041	-29.610	0.345	-0.196
-318.026	-200.000	0.020	-0.155
-317.012	800.000	0.038	0.112
-315.997	800.000	-0.074	-0.247
-314.983	387.328	0.178	-0.365
-313.968	-65.674	-0.105	0.042
-312.953	-200.000	0.018	-0.247
-311.939	-200.000	0.010	-0.170
-310.924	-200.000	0.011	0.164
-309.910	-65.963	-0.124	0.049
-308.895	130.886	0.040	0.051
-307.880	-168.995	-0.309	-0.011
-306.866	111.765	-0.073	-0.088
-305.851	176.509	0.070	0.101
-304.837	800.000	0.041	0.119
-303.822	-200.000	-0.011	0.092
-302.807	111.358	0.183	0.219
-301.793	-84.127	0.137	-0.043
-300.778	439.873	-0.091	-0.197
-299.764	-200.000	0.047	-0.506
-298.749	-200.000	-0.012	-0.155
-297.735	-200.000	0.075	-0.333
-296.720	800.000	0.053	-0.178
-295.705	-59.123	0.061	0.026
-294.691	462.950	-0.048	0.106
-293.676	-27.994	0.580	-0.333
-292.662	-200.000	0.021	-0.123
-291.647	-200.000	0.006	-0.048
-290.632	-111.790	-0.112	-0.022
-289.618	-176.598	-0.112	-0.003
-288.603	105.598	-0.135	0.158
-287.589	-200.000	0.007	-0.091
-286.574	800.000	0.041	0.127
-285.559	-37.732	-0.173	0.091
-284.545	-17.062	0.216	0.135
-283.530	-94.732	-0.078	-0.021
-282.516	-139.149	0.208	0.022
-281.501	800.000	0.110	0.329
-280.486	-82.671	0.169	-0.054
-279.472	-59.082	-0.250	-0.107
-278.457	38.438	0.298	-0.263
-277.443	-86.862	0.217	-0.066
-276.428	-200.000	0.004	-0.194
-275.413	94.157	0.163	-0.184
-274.399	-200.000	-0.082	0.400
-273.384	-200.000	0.007	0.212
-272.370	-200.000	0.057	0.257
-271.355	-88.993	-0.055	-0.016
-270.340	-48.067	-0.029	-0.014
-269.326	-70.275	0.344	0.129
-268.311	-200.000	0.022	-0.133
-267.297	-31.675	0.324	0.180
-266.282	-200.000	0.017	-0.141
-265.267	315.523	-0.140	0.262
-264.253	-200.000	0.034	0.296
-263.238	-124.596	0.156	-0.024
-262.224	-60.122	0.390	0.165
-261.209	-200.000	0.002	-0.273
-260.195	5.137	0.339	-0.248
-259.180	800.000	0.044	-0.133
-258.165	98.454	-0.147	0.168
-257.151	95.795	0.075	-0.084
-256.136	332.574	-0.025	0.048
-255.122	-31.408	-0.131	-0.073
-254.107	-75.903	-0.161	-0.056
-253.092	-200.000	0.066	-0.295
-252.078	-200.000	0.007	0.054
-251.063	-137.344	0.234	0.026
-250.049	-200.000	0.052	0.324
-249.034	53.779	-0.110	0.105
-248.019	253.198	0.098	0.166
-247.005	-139.812	-0.113	0.012
-245.990	109.498	-0.144	0.171
-244.976	557.661	0.067	0.160
-243.961	-120.486	-0.199	0.034
-242.946	800.000	0.102	-0.403
-241.932	-139.983	-0.149	0.016
-240.917	114.776	-0.167	0.202
-239.903	-200.000	-0.019	0.103
-238.888	87.322	0.136	-0.148
-237.873	-93.324	0.331	0.091
-236.859	-129.313	-0.065	-0.009
-235.844	-123.151	0.489	0.078
-234.830	-83.127	-0.190	0.060
-233.815	40.871	-0.173	-0.155
-232.800	-200.000	-0.014	0.169
-231.786	-134.572	0.064	-0.008
-230.771	-64.715	-0.202	-0.081
-229.757	-200.000	-0.005	-0.250
-228.742	82.216	0.093	-0.100
-227.727	400.586	-0.235	0.489
-226.713	-15.317	0.287	0.182
-225.698	308.852	-0.191	0.353
-224.684	-200.000	0.001	0.007
-223.669	-200.000	0.022	0.145
-222.655	-200.000	-0.013	-0.351
-221.640	-93.191	0.312	-0.086
-220.625	-153.678	0.028	0.002
-219.611	123.385	-0.284	0.353
-218.596	-57.270	-0.222	-0.097
-217.582	-200.000	-0.007	-0.106
-216.567	21.595	-0.089	0.072
-215.552	8.639	0.168	-0.125
-214.538	-200.000	0.062	0.331
-213.523	-103.186	0.089	-0.021
-212.509	61.648	0.231	-0.227
-211.494	-200.000	-0.040	-0.177
-210.479	-172.696	-0.159	-0.005
-209.465	80.077	-0.253	0.270
-208.450	-73.382	-0.289	0.104
-207.436	-200.000	0.017	-0.260
-206.421	21.007	-0.203	0.163
-205.406	216.306	0.147	-0.231
-204.392	135.840	-0.153	-0.197
-203.377	-46.999	-0.093	0.045
-202.363	-127.781	-0.066	-0.009
-201.348	-200.000	-0.005	-0.194
-200.333	-91.911	-0.180	-0.050
-199.319	-129.882	-0.266	-0.036
-198.304	-59.833	-0.167	0.071
-197.290	240.502	-0.091	-0.151
-196.275	1.760	-0.143	-0.102
-195.260	-200.000	0.056	-0.276
-194.246	324.504	-0.152	-0.288
-193.231	98.423	-0.153	0.174
-192.217	-140.369	0.074	-0.008
-191.202	-200.000	0.031	-0.335
-190.187	-200.000	0.006	0.238
-189.173	-200.000	0.030	-0.159
-188.158	800.000	-0.064	0.190
-187.144	17.836	-0.280	0.220
-186.129	-65.802	0.007	0.003
-185.114	166.268	0.051	0.072
-184.100	329.474	-0.293	-0.557
-183.085	16.927	-0.245	-0.192
-182.071	142.247	0.136	0.178
-181.056	134.568	0.072	0.093
-180.042	800.000	-0.033	0.127
-179.027	-164.702	-0.080	0.004
-178.012	111.774	-0.204	-0.243
-176.998	-125.355	-0.114	0.017
-175.983	48.863	-0.106	0.098
-174.969	214.997	0.261	0.409
-173.954	-54.568	-0.044	-0.020
-172.939	570.818	0.059	0.141
-171.925	263.546	0.105	0.179
-170.910	-200.000	-0.017	-0.151
-169.896	-60.263	-0.199	0.084
-168.881	-200.000	-0.019	-0.107
-167.866	6.816	-0.403	-0.296
-166.852	73.824	-0.171	0.177
-165.837	121.600	-0.071	0.087
-164.823	7.006	-0.079	-0.058
-163.808	-71.968	0.329	0.121
-162.793	246.942	-0.163	-0.271
-161.779	81.356	-0.105	-0.112
-160.764	800.000	0.048	0.139
-159.750	7.570	-0.275	-0.203
-158.735	800.000	0.077	0.318
-157.720	-16.229	0.220	-0.138
-156.706	-67.942	0.364	0.140
-155.691	-76.439	-0.053	-0.018
-154.677	800.000	-0.064	-0.270
-153.662	119.702	-0.104	0.128
-152.647	121.352	0.138	0.170
-151.633	-43.041	-0.225	-0.112
-150.618	-158.700	-0.121	-0.007
-149.604	-136.784	-0.363	-0.041
-148.589	-200.000	0.042	0.203
-147.574	437.655	-0.131	0.281
-146.560	-44.659	0.132	0.065
-145.545	559.111	0.083	0.197
-144.531	39.190	-0.219	-0.194
-143.516	-157.941	0.214	0.012
-142.502	387.601	0.165	0.337
-141.487	118.572	0.115	-0.140
-140.472	800.000	-0.030	0.124
-139.458	67.756	-0.106	0.107
-138.443	-10.284	0.054	-0.035
-137.429	-37.744	-0.262	-0.137
-136.414	273.520	0.165	0.287
-135.399	800.000	0.044	-0.165
-134.385	72.107	-0.265	0.272
-133.370	86.278	0.292	-0.317
-132.356	147.894	0.327	-0.434
-131.341	-121.991	-0.294	-0.048
-130.326	-106.525	0.119	0.026
-129.312	-39.591	-0.062	-0.032
-128.297	-117.924	-0.305	0.054
-127.283	-36.317	0.178	0.094
-126.268	800.000	0.094	-0.314
-125.253	114.488	0.042	-0.051
-124.239	459.652	0.072	-0.158
-123.224	-33.638	0.194	0.106
-122.210	-96.713	0.144	-0.037
-121.195	-123.238	0.157	-0.025
