DTS Sentinel unit serial number:	SN413079Multiplexer serial number:	ORYXHardware model number:	OX4-SRSoftware version number:	ORYX F/W v4.00 Oryx Data Collector v3.7.2.0data status	okinstallation	princeton_trtdifferential loss correction	single-endedforward channel	channel 4reverse channel	N/Adate	2019/09/12time	07:11:11forward acquisition time	60.00reverse acquisition time	0.00gamma	496.2192k internal	0.2307k external	0.2307temperature offset calibration	1.0065default loss term (dB/km)	0.3790temperature slope calibration	1.0000multiplexer offset coefficient	1.0000multiplexer slope coefficient	1.0000fibre end	0.00T internal ref (°C)	32.19T ext. ref 1 (°C)	1.62T ext. ref 2 (°C)	27.99length (m)	temperature (°C)	Stokes	anti-Stokes-747.200	644.867	-0.036	-0.093
-746.185	-28.299	0.144	0.084
-745.171	800.000	-0.049	0.146
-744.156	800.000	0.108	0.381
-743.142	800.000	0.075	0.273
-742.127	-108.318	-0.318	0.070
-741.112	-61.384	0.200	-0.086
-740.098	88.067	-0.178	0.201
-739.083	-169.343	0.268	-0.010
-738.069	-144.578	-0.341	0.032
-737.054	-30.801	0.215	-0.124
-736.039	420.591	-0.036	-0.079
-735.025	800.000	0.022	0.096
-734.010	-25.956	0.210	0.126
-732.996	46.206	0.257	0.242
-731.981	800.000	0.047	-0.192
-730.966	169.038	-0.234	-0.339
-729.952	224.867	-0.123	-0.202
-728.937	800.000	-0.102	0.353
-727.923	130.316	-0.135	-0.176
-726.908	13.870	-0.200	0.158
-725.894	-187.316	-0.434	-0.006
-724.879	-132.663	-0.104	-0.014
-723.864	-65.873	0.196	-0.080
-722.850	-136.586	-0.377	-0.044
-721.835	672.140	-0.139	-0.366
-720.821	-200.000	0.042	-0.296
-719.806	-32.791	0.081	-0.046
-718.791	800.000	0.045	-0.140
-717.777	800.000	0.037	0.125
-716.762	-200.000	-0.019	-0.133
-715.748	81.105	-0.096	0.105
-714.733	-116.227	0.227	0.043
-713.718	116.895	0.114	0.142
-712.704	-98.554	-0.155	-0.040
-711.689	139.281	-0.094	0.125
-710.675	1.394	0.120	0.088
-709.660	-102.901	0.193	0.047
-708.645	390.696	-0.112	0.236
-707.631	-200.000	-0.045	-0.403
-706.616	-130.868	0.244	-0.033
-705.602	-128.412	-0.223	0.032
-704.587	-4.889	-0.129	0.090
-703.572	1.110	-0.094	-0.068
-702.558	57.661	0.103	-0.102
-701.543	-57.008	0.107	-0.048
-700.529	542.105	0.078	-0.189
-699.514	-200.000	0.002	0.150
-698.499	-39.517	0.216	-0.115
-697.485	9.388	-0.126	0.097
-696.470	-75.868	0.155	0.056
-695.456	-92.523	-0.034	0.010
-694.441	-75.420	0.152	-0.055
-693.426	-200.000	0.010	-0.086
-692.412	-141.269	-0.270	0.028
-691.397	-79.772	-0.091	-0.031
-690.383	-8.542	0.117	0.080
-689.368	-77.182	0.105	0.037
-688.354	800.000	-0.036	0.156
-687.339	6.828	-0.151	0.114
-686.324	9.031	-0.103	0.079
-685.310	-200.000	-0.029	-0.157
-684.295	-128.578	0.261	-0.037
-683.281	-200.000	-0.039	0.182
-682.266	94.493	-0.230	-0.265
-681.251	-200.000	0.006	-0.034
-680.237	-133.374	0.188	0.024
-679.222	-200.000	0.003	-0.204
-678.208	-200.000	-0.301	0.001
-677.193	-200.000	-0.009	-0.080
-676.178	-82.509	0.303	0.100
-675.164	50.365	-0.080	0.077
-674.149	45.122	0.152	0.142
-673.135	-76.897	0.313	-0.111
-672.120	-200.000	-0.045	0.332
-671.105	800.000	-0.030	0.085
-670.091	103.097	-0.090	-0.107
-669.076	-200.000	-0.039	-0.244
-668.062	-0.931	0.197	0.142
-667.047	-200.000	0.037	-0.291
-666.032	197.321	0.029	0.044
-665.018	7.021	-0.190	0.143
-664.003	800.000	0.066	0.240
-662.989	187.018	0.016	-0.024
-661.974	-200.000	-0.010	-0.207
-660.959	-18.465	0.031	0.019
-659.945	-24.457	0.258	-0.156
-658.930	800.000	0.027	0.076
-657.916	-118.731	-0.274	0.049
-656.901	800.000	0.072	-0.210
-655.886	-129.699	0.284	0.040
-654.872	62.185	-0.161	-0.163
-653.857	132.555	-0.150	0.196
-652.843	-88.160	0.069	-0.021
-651.828	-200.000	-0.025	-0.174
-650.814	98.471	0.182	0.213
-649.799	38.835	-0.212	-0.192
-648.784	-200.000	-0.007	0.066
-647.770	131.553	0.148	-0.192
-646.755	-72.320	0.237	-0.089
-645.741	-200.000	0.028	0.141
-644.726	84.176	-0.150	-0.166
-643.711	100.782	0.146	-0.171
-642.697	-41.290	0.214	-0.112
-641.682	239.153	-0.035	0.060
-640.668	-23.446	0.046	-0.028
-639.653	-150.417	-0.134	0.010
-638.638	103.417	-0.128	0.152
-637.624	25.746	0.142	-0.120
-636.609	343.488	-0.154	-0.306
-635.595	28.882	-0.087	-0.074
-634.580	-69.255	-0.114	-0.044
-633.565	40.575	-0.252	-0.230
-632.551	6.621	-0.095	0.071
-631.536	-99.144	0.342	0.087
-630.522	369.368	0.105	-0.216
-629.507	-11.435	-0.196	-0.131
-628.492	1.419	0.155	-0.113
-627.478	-33.658	0.268	0.150
-626.463	202.558	-0.043	0.068
-625.449	586.284	-0.169	0.421
-624.434	-200.000	0.032	-0.295
-623.419	568.015	0.088	-0.216
-622.405	-155.911	0.201	-0.013
-621.390	800.000	-0.015	0.053
-620.376	-74.378	0.316	0.115
-619.361	201.818	-0.185	-0.288
-618.346	81.153	-0.219	-0.239
-617.332	-200.000	0.052	-0.375
-616.317	2.141	0.119	-0.087
-615.303	474.273	-0.149	-0.339
-614.288	-157.790	-0.346	-0.021
-613.273	-120.136	-0.174	-0.030
-612.259	11.960	-0.266	0.207
-611.244	-9.888	-0.074	-0.050
-610.230	22.348	-0.187	-0.154
-609.215	-46.964	-0.066	0.033
-608.201	-200.000	-0.019	-0.261
-607.186	-66.120	0.310	0.125
-606.171	800.000	-0.145	-0.444
-605.157	99.194	0.117	-0.136
-604.142	800.000	0.048	-0.180
-603.128	-200.000	-0.023	-0.186
-602.113	-95.418	-0.373	-0.101
-601.098	-65.584	0.055	0.022
-600.084	800.000	-0.018	-0.054
-599.069	50.610	-0.058	-0.056
-598.055	-129.055	-0.122	0.017
-597.040	-200.000	0.002	0.022
-596.025	295.158	-0.127	-0.235
-595.011	36.911	-0.221	-0.198
-593.996	30.409	0.214	-0.185
-592.982	246.019	0.077	0.131
-591.967	-33.227	-0.372	-0.208
-590.952	-18.239	-0.355	-0.225
-589.938	-200.000	-0.012	0.099
-588.923	800.000	0.063	-0.240
-587.909	7.737	-0.270	-0.204
-586.894	11.598	0.180	-0.139
-585.879	-73.878	-0.066	-0.024
-584.865	-102.621	-0.123	0.030
-583.850	168.384	0.088	0.127
-582.836	91.301	-0.103	0.117
-581.821	-36.824	-0.337	-0.183
-580.806	-200.000	-0.087	0.392
-579.792	-104.103	-0.191	-0.045
-578.777	671.665	0.097	-0.253
-577.763	31.158	0.174	0.150
-576.748	168.079	0.051	0.073
-575.733	-83.526	0.030	-0.010
-574.719	-200.000	-0.032	0.148
-573.704	207.728	0.082	-0.130
-572.690	-200.000	-0.001	0.192
-571.675	800.000	0.032	0.103
-570.661	211.537	0.203	0.322
-569.646	800.000	-0.081	-0.316
-568.631	-103.146	-0.212	0.051
-567.617	116.408	-0.093	0.115
-566.602	-36.897	-0.349	0.189
-565.588	183.061	0.071	-0.107
-564.573	-99.928	0.246	0.062
-563.558	73.867	0.326	0.345
-562.544	40.873	-0.190	0.173
-561.529	60.827	-0.060	0.060
-560.515	-112.747	-0.232	0.047
-559.500	-35.035	0.141	-0.077
-558.485	147.146	-0.176	-0.239
-557.471	-70.586	0.328	0.125
-556.456	-136.152	-0.338	-0.040
-555.442	-200.000	0.026	-0.253
-554.427	-91.158	0.074	-0.021
-553.412	-14.231	-0.105	-0.068
-552.398	331.507	0.174	-0.338
-551.383	-83.039	0.242	-0.079
-550.369	-66.880	-0.302	-0.120
-549.354	-0.263	0.174	-0.125
-548.339	-114.757	-0.535	0.103
-547.325	59.454	0.067	-0.067
-546.310	-200.000	0.006	-0.073
-545.296	-104.109	-0.016	-0.004
-544.281	227.934	0.136	0.224
-543.266	81.632	-0.129	-0.141
-542.252	-100.489	0.090	-0.022
-541.237	-97.324	-0.184	0.048
-540.223	440.061	-0.084	-0.185
-539.208	226.878	-0.060	0.098
-538.193	252.040	-0.118	0.203
-537.179	-86.047	-0.179	0.056
-536.164	-200.000	0.094	0.450
-535.150	138.136	0.191	-0.252
-534.135	-61.070	0.188	-0.080
-533.121	-200.000	-0.003	-0.098
-532.106	99.857	0.159	-0.185
-531.091	-200.000	0.010	0.252
-530.077	124.736	0.058	-0.074
-529.062	-55.787	-0.303	0.136
-528.048	-0.426	-0.401	0.288
-527.033	286.220	0.090	-0.163
-526.018	205.086	0.081	-0.126
-525.004	-17.877	0.245	0.155
-523.989	358.472	0.057	-0.114
-522.975	800.000	0.031	-0.088
-521.960	48.513	0.099	-0.094
-520.945	282.114	-0.051	0.092
-519.931	-160.415	-0.292	0.016
-518.916	65.862	-0.132	0.135
-517.902	138.780	0.261	-0.346
-516.887	57.250	-0.023	0.022
-515.872	-23.484	-0.201	0.122
-514.858	-200.000	-0.037	0.176
-513.843	-200.000	0.004	-0.147
-512.829	36.316	0.022	-0.019
-511.814	-6.651	0.114	0.078
-510.799	194.725	0.231	-0.353
-509.785	-31.696	-0.100	-0.057
-508.770	-149.478	-0.280	0.022
-507.756	-200.000	-0.011	0.205
-506.741	65.216	0.161	0.164
-505.726	-18.310	-0.235	0.148
-504.712	-200.000	-0.021	-0.241
-503.697	-114.195	0.097	0.019
-502.683	62.446	0.149	0.150
-501.668	-51.435	-0.262	-0.124
-500.653	-200.000	-0.047	0.478
-499.639	-200.000	-0.002	-0.175
-498.624	-126.197	0.081	0.012
-497.610	-99.782	-0.343	0.086
-496.595	61.431	-0.097	-0.097
-495.581	-200.000	0.028	0.285
-494.566	-9.478	-0.206	-0.138
-493.551	-200.000	0.004	-0.255
-492.537	75.549	-0.079	0.084
-491.522	58.888	0.016	0.016
-490.508	-142.907	0.127	0.012
-489.493	-150.530	0.167	0.013
-488.478	-168.581	0.310	-0.012
-487.464	135.900	-0.216	-0.283
-486.449	-200.000	-0.061	-0.386
-485.435	215.729	-0.106	-0.170
-484.420	800.000	0.086	0.290
-483.405	55.458	-0.224	-0.218
-482.391	-67.957	0.146	-0.057
-481.376	562.145	0.043	-0.106
-480.362	-164.136	-0.258	0.012
-479.347	-200.000	0.001	-0.175
-478.332	136.163	0.293	0.384
-477.318	-136.815	-0.090	0.010
-476.303	-200.000	0.004	0.130
-475.289	493.375	-0.096	0.222
-474.274	138.993	-0.032	0.042
-473.259	-200.000	-0.020	-0.332
-472.245	127.140	0.113	-0.144
-471.230	-87.265	0.064	-0.020
-470.216	131.736	0.192	-0.248
-469.201	-200.000	0.012	-0.105
-468.186	126.997	0.159	0.203
-467.172	-27.915	0.087	0.051
-466.157	-180.229	0.360	-0.008
-465.143	-168.498	0.056	-0.002
-464.128	488.770	0.063	-0.144
-463.113	142.098	-0.068	-0.091
-462.099	-49.357	-0.187	0.090
-461.084	417.649	0.128	-0.275
-460.070	-19.681	-0.350	-0.217
-459.055	-200.000	0.022	0.135
-458.040	-5.098	0.235	0.163
-457.026	800.000	0.099	0.378
-456.011	800.000	-0.147	-0.495
-454.997	800.000	0.023	0.091
-453.982	-200.000	-0.015	0.307
-452.968	-76.806	-0.061	-0.022
-451.953	-200.000	-0.048	0.325
-450.938	170.465	0.057	0.082
-449.924	80.715	0.222	0.241
-448.909	-18.412	-0.017	0.010
-447.895	-118.275	-0.044	0.008
-446.880	-110.941	-0.206	0.043
-445.865	-89.651	-0.098	-0.029
-444.851	319.466	-0.119	-0.227
-443.836	52.649	0.024	-0.023
-442.822	-77.977	0.083	0.029
-441.807	132.200	0.059	0.076
-440.792	-200.000	0.034	-0.368
-439.778	-200.000	-0.004	-0.075
-438.763	597.500	0.075	-0.188
-437.749	-200.000	-0.005	0.061
-436.734	-200.000	0.028	-0.199
-435.719	167.493	-0.138	-0.197
-434.705	73.680	-0.226	0.238
-433.690	-52.949	0.225	0.104
-432.676	-200.000	0.013	0.144
-431.661	479.892	-0.067	-0.152
-430.646	-39.243	0.241	-0.127
-429.632	800.000	0.072	-0.207
-428.617	-200.000	-0.029	-0.330
-427.603	-200.000	-0.004	0.054
-426.588	379.756	0.121	0.249
-425.573	100.188	0.244	-0.284
-424.559	44.196	0.055	-0.051
-423.544	800.000	-0.094	-0.274
-422.530	432.786	-0.116	0.253
-421.515	-39.195	0.134	0.071
-420.500	-200.000	-0.022	0.162
-419.486	257.893	0.120	-0.208
-418.471	-17.602	0.029	0.018
-417.457	352.759	-0.111	0.220
-416.442	-81.390	-0.243	0.080
-415.428	329.429	0.163	0.316
-414.413	800.000	0.081	-0.289
-413.398	-200.000	-0.025	-0.245
-412.384	-6.026	-0.279	-0.191
-411.369	-11.754	0.158	0.104
-410.355	800.000	-0.044	0.161
-409.340	232.192	-0.079	-0.130
-408.325	-173.850	0.297	-0.009
-407.311	-200.000	-0.025	0.128
-406.296	349.441	-0.067	-0.132
-405.282	36.764	-0.248	0.220
-404.267	-200.000	0.015	0.326
-403.252	469.645	-0.130	0.292
-402.238	-200.000	-0.024	-0.193
-401.223	800.000	0.075	-0.214
-400.209	66.145	0.056	0.057
-399.194	-135.859	0.245	-0.029
-398.179	-71.542	0.272	-0.102
-397.165	-146.219	0.207	-0.018
-396.150	-47.178	0.389	-0.190
-395.136	-77.340	0.064	0.022
-394.121	800.000	-0.041	0.113
-393.106	-200.000	-0.016	-0.171
-392.092	386.104	0.102	0.211
-391.077	-119.970	0.159	-0.027
-390.063	-75.777	0.384	0.136
-389.048	-23.706	0.279	0.168
-388.033	800.000	0.029	-0.095
-387.019	-52.587	0.176	0.081
-386.004	-21.758	0.136	-0.083
-384.990	161.368	-0.234	0.328
-383.975	110.314	-0.111	0.134
-382.960	128.706	-0.125	-0.160
-381.946	800.000	-0.069	0.269
-380.931	93.814	0.077	-0.087
-379.917	800.000	-0.035	0.133
-378.902	573.576	0.097	-0.238
-377.888	-100.084	-0.079	-0.020
-376.873	-69.966	0.265	-0.101
-375.858	236.431	0.267	-0.443
-374.844	13.763	-0.413	0.322
-373.829	-127.996	0.285	-0.041
-372.815	-25.529	-0.066	-0.039
-371.800	142.075	-0.154	-0.204
-370.785	800.000	0.134	-0.371
-369.771	-101.439	-0.035	-0.009
-368.756	-102.427	0.289	-0.069
-367.742	-149.803	0.073	0.006
-366.727	-34.167	-0.140	0.077
-365.712	607.699	-0.072	0.179
-364.698	-107.592	-0.347	0.076
-363.683	-20.961	0.063	0.039
-362.669	-97.007	-0.338	0.089
-361.654	-36.077	-0.113	-0.061
-360.639	30.927	0.217	-0.187
-359.625	-67.751	-0.106	0.041
-358.610	488.528	-0.034	-0.079
-357.596	-128.738	0.100	-0.014
-356.581	47.800	0.105	0.098
-355.566	-200.000	0.020	-0.100
-354.552	-58.945	0.160	-0.069
-353.537	47.427	0.314	0.293
-352.523	-152.869	-0.285	-0.020
-351.508	-16.607	0.258	-0.164
-350.493	339.700	-0.040	0.078
-349.479	-29.096	-0.099	-0.057
-348.464	8.782	0.210	-0.159
-347.450	-200.000	-0.005	0.075
-346.435	-89.576	-0.114	0.034
-345.420	-37.995	-0.273	0.145
-344.406	-200.000	-0.002	-0.049
-343.391	-45.791	-0.167	0.083
-342.377	132.446	0.110	0.142
-341.362	35.306	-0.377	0.331
-340.348	477.990	-0.093	0.211
-339.333	-76.906	-0.033	-0.011
-338.318	-200.000	0.078	0.537
-337.304	-28.098	0.164	0.095
-336.289	39.154	-0.299	-0.268
-335.275	800.000	0.028	-0.102
-334.260	-131.782	-0.168	0.022
-333.245	27.409	-0.329	0.277
-332.231	57.429	-0.066	-0.064
-331.216	499.908	0.112	0.258
-330.202	34.938	0.122	-0.107
-329.187	-21.323	0.118	0.072
-328.172	-118.066	0.282	-0.050
-327.158	93.039	-0.143	0.162
-326.143	324.054	0.071	0.136
-325.129	-200.000	-0.003	0.312
-324.114	-101.479	0.031	0.008
-323.099	254.537	-0.032	-0.054
-322.085	-47.449	-0.113	-0.055
-321.070	466.071	0.082	-0.183
-320.056	-2.935	-0.179	-0.125
-319.041	147.726	-0.191	-0.257
-318.026	385.523	0.089	-0.184
-317.012	390.724	-0.055	-0.114
-315.997	19.158	0.104	-0.083
-314.983	456.373	0.063	0.140
-313.968	5.445	-0.345	0.254
-312.953	-65.334	-0.052	0.021
-311.939	800.000	-0.061	0.190
-310.924	-79.112	0.510	0.173
-309.910	-106.621	-0.467	-0.104
-308.895	800.000	-0.048	0.142
-307.880	195.824	0.150	-0.229
-306.866	20.186	0.114	0.092
-305.851	68.682	0.049	-0.050
-304.837	-159.449	0.113	-0.006
-303.822	-180.146	-0.062	0.001
-302.807	488.917	0.069	0.158
-301.793	1.206	0.147	-0.105
-300.778	800.000	-0.027	-0.111
-299.764	-26.624	0.194	-0.114
-298.749	-200.000	0.089	-0.486
-297.735	800.000	0.056	0.168
-296.720	38.482	0.053	0.047
-295.705	-64.395	-0.327	0.133
-294.691	-77.870	0.123	-0.042
-293.676	194.183	-0.121	0.183
-292.662	-44.536	0.118	-0.059
-291.647	58.607	-0.102	-0.100
-290.632	800.000	0.022	0.071
-289.618	-39.376	0.300	0.157
-288.603	-99.600	-0.038	0.009
-287.589	-200.000	0.014	0.157
-286.574	62.023	0.177	0.177
-285.559	342.924	-0.090	0.176
-284.545	10.068	0.020	-0.015
-283.530	5.751	0.229	0.169
-282.516	108.786	-0.070	0.083
-281.501	3.929	0.110	0.081
-280.486	-119.857	-0.130	-0.022
-279.472	101.975	-0.071	0.083
-278.457	157.966	0.151	-0.210
-277.443	-95.158	0.364	-0.098
-276.428	-61.610	-0.365	-0.153
-275.413	-200.000	0.001	0.252
-274.399	105.942	-0.071	0.084
-273.384	-124.738	-0.333	-0.051
-272.370	62.944	0.211	0.211
-271.355	220.243	-0.097	0.155
-270.340	800.000	-0.053	-0.203
-269.326	105.795	0.243	-0.287
-268.311	81.225	0.097	0.104
-267.297	-200.000	-0.009	0.103
-266.282	7.299	0.085	0.063
-265.267	-92.774	0.308	0.086
-264.253	32.563	0.087	-0.075
-263.238	-155.053	-0.140	0.009
-262.224	-200.000	-0.060	0.297
-261.209	-200.000	-0.017	-0.168
-260.195	-200.000	-0.039	0.249
-259.180	-13.456	0.227	-0.147
-258.165	-50.227	-0.244	0.115
-257.151	404.828	-0.105	-0.221
-256.136	83.514	0.243	-0.264
-255.122	50.951	0.190	0.180
-254.107	26.628	0.166	0.139
-253.092	188.874	-0.050	-0.074
-252.078	-200.000	-0.060	0.264
-251.063	350.223	0.149	0.294
-250.049	-39.560	0.181	-0.094
-249.034	-200.000	0.039	0.307
-248.019	-11.203	-0.029	-0.019
-247.005	222.177	0.139	-0.222
-245.990	-122.399	0.228	0.037
-244.976	-8.050	-0.347	0.234
-243.961	-125.771	-0.220	0.033
-242.946	204.864	-0.128	0.199
-241.932	408.478	-0.151	0.319
-240.917	-64.381	0.222	0.090
-239.903	-65.903	-0.081	0.032
-238.888	474.837	0.044	0.099
-237.873	-5.677	0.201	0.137
-236.859	81.352	-0.233	0.251
-235.844	-22.674	0.086	0.052
-234.830	-34.844	0.217	-0.118
-233.815	-200.000	0.039	-0.175
-232.800	800.000	-0.083	-0.254
-231.786	-200.000	0.003	-0.290
-230.771	334.112	0.214	0.412
-229.757	261.143	-0.123	-0.213
-228.742	-200.000	0.026	-0.180
-227.727	-11.930	0.270	-0.177
-226.713	800.000	0.008	0.030
-225.698	-74.922	0.316	-0.113
-224.684	800.000	0.072	0.222
-223.669	-200.000	0.014	0.161
-222.655	238.644	-0.103	-0.170
-221.640	-48.302	-0.239	0.115
-220.625	-51.844	-0.057	0.026
-219.611	57.343	0.217	-0.211
-218.596	800.000	-0.077	0.216
-217.582	72.772	0.107	-0.112
-216.567	-64.384	-0.123	0.050
-215.552	-153.088	0.181	0.013
-214.538	75.368	-0.148	-0.156
-213.523	-200.000	0.078	0.471
-212.509	-200.000	-0.033	-0.164
-211.494	-200.000	0.016	-0.091
-210.479	-47.097	0.190	-0.092
-209.465	646.169	0.048	-0.121
-208.450	31.379	-0.099	-0.084
-207.436	-61.452	-0.160	0.067
-206.421	800.000	0.053	0.202
-205.406	-150.192	0.103	0.008
-204.392	162.715	0.075	-0.105
-203.377	-27.152	0.250	-0.145
-202.363	126.726	0.173	0.218
-201.348	800.000	0.083	0.244
-200.333	-200.000	-0.004	0.121
-199.319	108.709	-0.242	0.287
-198.304	-200.000	0.002	-0.067
-197.290	800.000	-0.070	-0.303
-196.275	-81.888	-0.032	0.010
-195.260	9.800	0.081	-0.061
-194.246	352.317	-0.074	0.147
-193.231	55.438	0.129	0.124
-192.217	-200.000	0.035	0.271
-191.202	800.000	-0.146	0.506
-190.187	-200.000	0.000	0.166
-189.173	-200.000	-0.009	-0.069
-188.158	474.857	0.080	-0.179
-187.144	-200.000	0.066	-0.296
-186.129	-180.734	-0.162	-0.003
-185.114	800.000	0.044	0.121
-184.100	-82.289	0.188	0.061
-183.085	-7.440	-0.138	0.093
-182.071	68.542	0.104	0.106
-181.056	-152.761	-0.072	-0.005
-180.042	38.724	-0.288	0.255
-179.027	-112.188	0.200	0.040
-178.012	-153.532	-0.308	0.021
-176.998	-73.075	-0.281	0.103
-175.983	-200.000	-0.020	0.201
-174.969	-200.000	-0.001	-0.118
-173.954	-51.021	0.083	-0.039
-172.939	-70.607	0.029	0.011
-171.925	-76.552	-0.079	0.027
-170.910	-135.157	-0.223	-0.027
-169.896	35.089	0.065	0.057
-168.881	84.242	0.085	0.093
-167.866	800.000	-0.049	-0.178
-166.852	527.090	-0.046	0.108
-165.837	9.120	-0.293	0.220
-164.823	646.041	-0.111	-0.283
-163.808	800.000	-0.107	0.302
-162.793	-93.050	0.367	0.102
-161.779	20.974	-0.254	-0.205
-160.764	-200.000	0.006	-0.627
-159.750	-92.153	-0.133	-0.037
-158.735	-200.000	0.037	0.262
-157.720	46.697	-0.143	-0.132
-156.706	260.999	0.126	0.217
-155.691	-175.004	0.188	-0.005
-154.677	25.269	-0.213	0.176
-153.662	-40.447	0.114	-0.059
-152.647	156.864	0.203	0.279
-151.633	30.356	0.062	0.052
-150.618	-129.686	0.251	-0.034
-149.604	-9.869	-0.329	0.218
-148.589	108.452	-0.148	0.175
-147.574	-136.179	0.210	0.024
-146.560	387.979	0.014	0.029
-145.545	-57.236	0.194	-0.085
-144.531	-6.199	0.107	-0.072
-143.516	-142.410	0.201	-0.020
-142.502	-7.495	-0.486	-0.327
-141.487	307.993	0.138	-0.256
-140.472	800.000	-0.085	0.259
-139.458	-115.729	0.393	0.073
-138.443	800.000	0.082	0.291
-137.429	-166.613	0.312	0.013
-136.414	483.028	-0.133	0.301
-135.399	-164.993	-0.141	-0.006
-134.385	25.173	0.166	0.137
-133.370	-52.897	-0.223	0.102
-132.356	800.000	0.051	0.147
-131.341	495.626	-0.077	0.175
-130.326	-71.905	0.365	-0.135
-129.312	403.181	-0.139	-0.290
-128.297	-75.897	-0.052	-0.018
-127.283	195.189	-0.155	0.233
-126.268	585.253	-0.095	-0.231
-125.253	-200.000	-0.035	-0.155
-124.239	42.436	0.309	-0.279
-123.224	143.521	-0.093	0.123
-122.210	800.000	-0.109	0.319
-121.195	-75.829	-0.074	-0.026
-120.180	-6.204	-0.228	-0.155
