DTS Sentinel unit serial number:	SN413079Multiplexer serial number:	ORYXHardware model number:	OX4-SRSoftware version number:	ORYX F/W v4.00 Oryx Data Collector v3.7.2.0data status	okinstallation	princeton_trtdifferential loss correction	single-endedforward channel	channel 4reverse channel	N/Adate	2019/09/12time	22:17:35forward acquisition time	60.00reverse acquisition time	0.00gamma	496.2192k internal	0.2315k external	0.2315temperature offset calibration	1.0176default loss term (dB/km)	0.3790temperature slope calibration	1.0000multiplexer offset coefficient	1.0000multiplexer slope coefficient	1.0000fibre end	0.00T internal ref (°C)	29.87T ext. ref 1 (°C)	3.74T ext. ref 2 (°C)	24.43length (m)	temperature (°C)	Stokes	anti-Stokes-747.200	800.000	-0.065	-0.282
-746.185	-27.809	0.205	-0.121
-745.171	707.645	-0.085	-0.228
-744.156	306.625	0.098	0.185
-743.142	-125.116	0.220	-0.034
-742.127	273.175	-0.030	-0.054
-741.112	69.460	-0.235	-0.245
-740.098	-200.000	0.019	0.128
-739.083	78.944	0.030	-0.033
-738.069	800.000	-0.063	-0.183
-737.054	120.840	0.015	-0.019
-736.039	-196.749	-0.125	0.001
-735.025	-200.000	0.041	0.280
-734.010	800.000	0.129	-0.391
-732.996	295.016	-0.127	-0.236
-731.981	319.080	-0.066	-0.127
-730.966	800.000	-0.064	0.282
-729.952	-121.253	-0.270	0.046
-728.937	520.846	0.048	0.115
-727.923	-38.719	-0.147	-0.079
-726.908	-39.827	0.119	0.063
-725.894	135.512	-0.253	0.334
-724.879	607.781	0.057	-0.144
-723.864	8.912	-0.134	-0.102
-722.850	245.889	0.028	0.048
-721.835	800.000	-0.017	0.069
-720.821	-200.000	-0.025	0.150
-719.806	-200.000	-0.058	-0.467
-718.791	365.068	0.080	-0.163
-717.777	99.501	-0.230	-0.270
-716.762	104.038	0.283	-0.337
-715.748	-19.188	0.151	-0.095
-714.733	-195.792	0.196	-0.001
-713.718	150.482	0.208	0.286
-712.704	-142.399	0.198	0.020
-711.689	-12.631	0.089	-0.059
-710.675	-200.000	0.041	-0.182
-709.660	-156.070	-0.179	-0.011
-708.645	-95.104	-0.378	-0.103
-707.631	-89.333	-0.076	0.023
-706.616	-157.858	-0.182	0.011
-705.602	381.285	-0.131	0.271
-704.587	285.474	0.214	-0.391
-703.572	618.043	0.075	-0.190
-702.558	42.521	0.400	-0.368
-701.543	-29.379	-0.270	0.156
-700.529	135.359	-0.035	0.046
-699.514	114.845	0.099	-0.122
-698.499	567.373	0.121	-0.297
-697.485	672.363	-0.059	-0.154
-696.470	-39.210	0.359	-0.191
-695.456	-106.868	-0.216	0.048
-694.441	205.064	-0.046	-0.073
-693.426	-34.745	0.184	0.102
-692.412	-130.500	-0.180	0.025
-691.397	574.680	0.164	0.405
-690.383	250.151	-0.090	0.155
-689.368	44.832	-0.294	-0.274
-688.354	-200.000	0.027	0.273
-687.339	-103.244	-0.126	-0.030
-686.324	73.399	0.151	0.159
-685.310	-112.523	-0.259	0.052
-684.295	-44.984	0.076	0.038
-683.281	24.770	-0.159	0.133
-682.266	764.264	0.046	-0.126
-681.251	-31.718	-0.087	-0.050
-680.237	-2.524	-0.133	-0.094
-679.222	-200.000	0.018	0.191
-678.208	-70.637	0.262	0.100
-677.193	-78.848	0.172	-0.059
-676.178	680.946	0.128	-0.336
-675.164	800.000	0.033	-0.105
-674.149	-104.693	0.435	0.101
-673.135	66.918	-0.106	-0.109
-672.120	248.434	0.127	0.217
-671.105	-10.789	-0.161	0.108
-670.091	315.850	0.034	-0.065
-669.076	-89.748	-0.173	0.051
-668.062	-200.000	-0.036	0.252
-667.047	-19.192	0.231	0.145
-666.032	47.222	0.463	-0.435
-665.018	-200.000	0.009	-0.397
-664.003	-131.265	0.197	0.026
-662.989	682.683	0.017	0.045
-661.974	-122.315	0.139	0.023
-660.959	201.822	0.153	0.238
-659.945	-60.436	-0.207	0.089
-658.930	352.518	0.134	0.267
-657.916	458.879	0.069	0.155
-656.901	23.261	-0.184	-0.153
-655.886	800.000	-0.139	-0.443
-654.872	-28.299	0.197	0.115
-653.857	-200.000	-0.010	-0.367
-652.843	159.804	0.055	-0.077
-651.828	-200.000	0.011	-0.108
-650.814	-117.721	-0.360	-0.065
-649.799	-109.815	0.095	0.020
-648.784	40.098	-0.105	0.096
-647.770	100.112	-0.183	0.215
-646.755	66.552	0.117	-0.121
-645.741	199.773	0.193	-0.298
-644.726	-69.370	-0.171	0.066
-643.711	800.000	-0.017	-0.064
-642.697	-113.981	-0.328	0.064
-641.682	-97.696	-0.016	-0.004
-640.668	215.323	-0.201	0.323
-639.653	8.106	-0.104	-0.079
-638.638	-66.918	-0.277	0.111
-637.624	56.281	-0.082	-0.081
-636.609	-133.693	0.330	0.042
-635.595	69.811	0.173	-0.180
-634.580	-88.107	0.509	-0.154
-633.565	800.000	0.051	0.152
-632.551	-53.427	0.087	-0.040
-631.536	-16.315	-0.034	-0.022
-630.522	-2.781	0.159	-0.112
-629.507	350.487	0.149	0.298
-628.492	111.229	0.027	-0.033
-627.478	-120.920	0.284	-0.048
-626.463	-200.000	0.013	-0.240
-625.449	-15.023	-0.137	-0.088
-624.434	-200.000	0.000	-0.132
-623.419	-200.000	0.010	-0.226
-622.405	-102.386	-0.273	-0.066
-621.390	-147.063	0.044	0.004
-620.376	367.601	0.064	0.130
-619.361	-102.212	0.283	-0.069
-618.346	-144.073	-0.263	0.025
-617.332	90.331	0.183	-0.207
-616.317	-87.496	0.230	0.070
-615.303	246.703	-0.064	0.108
-614.288	30.855	-0.121	-0.104
-613.273	-26.259	-0.224	0.133
-612.259	-122.295	-0.348	0.057
-611.244	-58.740	0.135	0.059
-610.230	-200.000	0.045	-0.215
-609.215	-200.000	0.024	-0.182
-608.201	712.965	-0.026	0.069
-607.186	643.824	-0.141	-0.362
-606.171	168.550	-0.099	-0.142
-605.157	-200.000	0.008	0.252
-604.142	-140.603	0.103	0.011
-603.128	-144.645	-0.171	0.016
-602.113	110.890	-0.096	0.116
-601.098	800.000	0.069	-0.270
-600.084	-137.782	-0.031	-0.003
-599.069	-70.051	0.115	0.044
-598.055	-4.864	-0.091	-0.063
-597.040	-42.689	-0.291	0.149
-596.025	-34.107	0.039	-0.022
-595.011	87.123	-0.174	0.193
-593.996	-112.970	-0.075	-0.015
-592.982	-44.897	-0.298	-0.149
-591.967	-25.796	-0.177	-0.105
-590.952	53.757	0.249	0.241
-589.938	-200.000	-0.009	0.049
-588.923	800.000	0.050	0.219
-587.909	800.000	-0.031	0.099
-586.894	-121.207	0.485	0.082
-585.879	64.297	-0.253	-0.256
-584.865	-200.000	0.056	0.274
-583.850	421.261	-0.033	-0.071
-582.836	26.219	0.177	-0.149
-581.821	-75.039	0.076	-0.027
-580.806	236.949	0.043	0.072
-579.792	205.480	0.146	-0.228
-578.777	40.642	-0.254	-0.231
-577.763	-200.000	0.041	-0.218
-576.748	800.000	-0.067	0.200
-575.733	-200.000	0.036	0.450
-574.719	-144.151	0.361	0.034
-573.704	537.764	-0.264	-0.631
-572.690	656.227	-0.053	-0.136
-571.675	324.583	-0.128	-0.245
-570.661	-200.000	-0.023	-0.263
-569.646	800.000	0.066	0.224
-568.631	-195.671	-0.191	0.001
-567.617	704.839	-0.062	-0.165
-566.602	34.301	-0.106	0.093
-565.588	66.699	-0.286	-0.293
-564.573	542.863	-0.056	-0.134
-563.558	-125.136	0.063	-0.010
-562.544	314.913	0.204	0.387
-561.529	54.418	0.197	-0.191
-560.515	-200.000	-0.027	0.130
-559.500	-200.000	0.006	-0.055
-558.485	19.681	-0.114	-0.093
-557.471	-100.247	0.304	0.076
-556.456	11.391	0.212	0.163
-555.442	-135.656	-0.416	0.050
-554.427	-200.000	0.060	0.355
-553.412	-31.961	-0.190	-0.107
-552.398	-200.000	-0.043	0.484
-551.383	-200.000	-0.025	0.348
-550.369	-200.000	-0.017	-0.366
-549.354	143.063	-0.022	-0.030
-548.339	-63.018	-0.283	-0.118
-547.325	-70.309	-0.265	0.101
-546.310	26.090	0.250	-0.209
-545.296	-200.000	0.040	0.277
-544.281	46.098	-0.247	0.230
-543.266	632.078	0.111	0.283
-542.252	-200.000	0.063	-0.627
-541.237	-54.748	-0.276	-0.125
-540.223	100.750	-0.165	0.192
-539.208	-91.325	0.255	-0.073
-538.193	-62.102	-0.229	-0.096
-537.179	113.007	-0.229	-0.279
-536.164	-109.636	0.127	-0.027
-535.150	-200.000	0.014	0.154
-534.135	-109.427	0.145	0.031
-533.121	186.531	-0.136	0.203
-532.106	-136.456	0.218	0.025
-531.091	800.000	-0.044	-0.151
-530.077	-77.059	-0.114	0.040
-529.062	-14.699	0.116	0.075
-528.048	86.128	0.128	0.142
-527.033	-143.266	0.336	0.032
-526.018	74.389	-0.155	-0.163
-525.004	-95.217	-0.105	-0.029
-523.989	3.680	0.200	0.147
-522.975	-132.083	-0.249	-0.033
-521.960	696.420	-0.120	-0.317
-520.945	136.293	0.105	-0.137
-519.931	-20.481	-0.084	0.052
-518.916	-200.000	-0.018	-0.325
-517.902	-39.639	-0.361	0.190
-516.887	230.586	-0.129	0.212
-515.872	-107.949	-0.233	0.051
-514.858	11.777	-0.083	0.064
-513.843	0.201	0.115	0.082
-512.829	-55.254	-0.206	-0.093
-511.814	7.769	-0.201	0.152
-510.799	-146.111	-0.287	0.025
-509.785	-32.606	-0.346	0.193
-508.770	-136.634	0.224	0.026
-507.756	800.000	0.113	0.381
-506.741	59.824	-0.180	0.178
-505.726	800.000	0.058	-0.164
-504.712	-65.233	-0.092	-0.037
-503.697	-165.807	-0.173	-0.007
-502.683	-139.780	-0.267	0.028
-501.668	-200.000	-0.096	-0.572
-500.653	-25.562	-0.218	0.129
-499.639	-57.527	0.171	0.075
-498.624	-150.955	0.197	0.015
-497.610	126.909	-0.009	0.011
-496.595	-200.000	0.002	-0.094
-495.581	251.108	0.126	-0.216
-494.566	-26.558	0.220	0.129
-493.551	-1.239	0.299	-0.212
-492.537	-188.710	-0.292	-0.004
-491.522	24.350	0.209	-0.173
-490.508	-149.126	0.142	-0.011
-489.493	167.005	0.099	0.140
-488.478	800.000	0.104	0.422
-487.464	-20.695	-0.355	-0.218
-486.449	49.883	-0.184	-0.174
-485.435	-200.000	-0.015	0.086
-484.420	800.000	-0.045	0.148
-483.405	51.521	-0.136	-0.129
-482.391	90.555	0.059	-0.066
-481.376	-135.332	0.175	0.021
-480.362	202.290	-0.075	-0.116
-479.347	1.658	-0.149	0.108
-478.332	650.664	0.066	0.169
-477.318	-89.412	-0.319	0.094
-476.303	284.898	-0.045	0.082
-475.289	40.846	-0.242	0.219
-474.274	-54.004	0.123	0.056
-473.259	-19.679	0.341	-0.212
-472.245	-51.520	0.148	-0.069
-471.230	265.627	0.031	-0.055
-470.216	109.534	-0.092	0.111
-469.201	-200.000	0.018	0.202
-468.186	-16.720	-0.114	-0.073
-467.172	-150.773	-0.279	0.021
-466.157	-132.291	-0.357	-0.046
-465.143	83.115	0.075	0.082
-464.128	-47.423	-0.263	-0.128
-463.113	-200.000	-0.019	-0.130
-462.099	-142.508	0.103	-0.010
-461.084	-114.155	0.035	0.007
-460.070	-96.782	0.048	0.013
-459.055	-200.000	-0.002	0.405
-458.040	-16.165	-0.296	-0.189
-457.026	-45.267	0.049	0.024
-456.011	-80.211	0.112	-0.037
-454.997	-86.634	0.078	-0.024
-453.982	-200.000	0.012	-0.052
-452.968	800.000	-0.049	-0.193
-451.953	-103.027	0.138	0.033
-450.938	800.000	-0.073	0.303
-449.924	-97.231	0.176	0.046
-448.909	571.282	-0.086	0.211
-447.895	49.816	0.206	0.195
-446.880	-66.919	0.142	0.056
-445.865	194.651	-0.127	0.193
-444.851	-200.000	0.025	-0.155
-443.836	-14.739	0.203	-0.131
-442.822	-100.820	0.126	-0.031
-441.807	100.820	-0.071	-0.083
-440.792	-200.000	-0.032	-0.505
-439.778	-167.360	0.145	-0.006
-438.763	800.000	0.006	-0.020
-437.749	-109.089	0.406	-0.086
-436.734	317.929	0.102	0.193
-435.719	-110.634	0.177	0.037
-434.705	34.920	-0.121	-0.106
-433.690	800.000	0.037	-0.155
-432.676	-172.361	-0.156	-0.005
-431.661	322.167	-0.114	-0.218
-430.646	-29.653	-0.088	-0.050
-429.632	-104.226	-0.361	-0.084
-428.617	204.432	0.059	-0.091
-427.603	-147.902	-0.176	-0.015
-426.588	-200.000	-0.002	0.140
-425.573	-200.000	-0.017	-0.093
-424.559	59.839	-0.085	-0.084
-423.544	800.000	-0.088	0.291
-422.530	-74.595	-0.282	-0.102
-421.515	-35.256	0.440	0.239
-420.500	-200.000	0.053	-0.441
-419.486	-33.597	-0.065	-0.036
-418.471	38.395	-0.198	-0.176
-417.457	800.000	-0.015	-0.062
-416.442	125.772	0.119	0.151
-415.428	-21.310	0.259	0.158
-414.413	-5.980	-0.036	-0.025
-413.398	-44.509	-0.038	-0.019
-412.384	-200.000	-0.077	0.450
-411.369	330.335	0.043	-0.083
-410.355	306.403	-0.103	0.192
-409.340	150.118	-0.135	0.183
-408.325	800.000	-0.100	-0.278
-407.311	212.838	-0.169	-0.266
-406.296	230.883	0.178	0.292
-405.282	42.848	0.306	-0.278
-404.267	586.685	0.038	0.094
-403.252	10.720	-0.104	-0.079
-402.238	-79.400	0.344	-0.116
-401.223	-200.000	0.014	0.216
-400.209	-30.814	0.023	-0.013
-399.194	192.409	-0.075	0.113
-398.179	96.612	0.087	0.100
-397.165	-166.995	0.389	-0.016
-396.150	-76.636	-0.052	-0.018
-395.136	616.050	0.178	-0.446
-394.121	-45.269	-0.362	-0.180
-393.106	-71.243	0.056	0.021
-392.092	800.000	0.048	-0.153
-391.077	-200.000	0.063	-0.317
-390.063	579.059	-0.185	0.451
-389.048	160.333	-0.080	-0.112
-388.033	-200.000	0.013	0.084
-387.019	-134.323	0.327	0.040
-386.004	47.960	-0.185	-0.173
-384.990	800.000	-0.096	-0.399
-383.975	-200.000	-0.068	-0.315
-382.960	-154.711	0.241	0.016
-381.946	-200.000	0.009	-0.248
-380.931	-106.505	0.222	0.049
-379.917	271.266	-0.041	0.072
-378.902	78.964	-0.148	0.158
-377.888	53.149	0.129	-0.123
-376.873	777.399	0.017	-0.046
-375.858	139.912	-0.082	-0.108
-374.844	17.942	-0.074	0.059
-373.829	206.116	0.242	0.375
-372.815	-200.000	-0.012	0.133
-371.800	208.336	-0.053	0.082
-370.785	800.000	0.133	-0.424
-369.771	149.447	-0.107	-0.145
-368.756	-189.794	-0.322	0.004
-367.742	15.113	0.215	0.168
-366.727	-102.863	-0.044	0.010
-365.712	-200.000	0.031	0.208
-364.698	13.332	0.367	0.284
-363.683	619.272	0.110	0.275
-362.669	13.981	-0.199	-0.154
-361.654	-2.593	-0.051	0.036
-360.639	-137.932	0.276	0.031
-359.625	136.859	0.239	-0.312
-358.610	528.230	0.112	0.265
-357.596	-106.317	-0.254	0.057
-356.581	-200.000	0.012	0.330
-355.566	127.525	0.093	0.117
-354.552	262.334	0.093	-0.161
-353.537	18.633	-0.351	-0.280
-352.523	51.564	-0.184	0.174
-351.508	-25.750	-0.148	-0.087
-350.493	-108.648	0.054	0.012
-349.479	-9.609	-0.137	-0.091
-348.464	-165.621	-0.146	0.006
-347.450	274.878	-0.140	0.247
-346.435	800.000	0.030	0.122
-345.420	-59.763	-0.038	-0.016
-344.406	-5.630	0.052	0.036
-343.391	-7.432	0.233	-0.157
-342.377	17.749	0.320	0.254
-341.362	349.223	0.141	0.278
-340.348	43.065	-0.258	-0.235
-339.333	800.000	0.012	-0.043
-338.318	-200.000	0.024	0.142
-337.304	-200.000	-0.045	0.260
-336.289	24.019	0.324	-0.267
-335.275	-200.000	-0.000	-0.245
-334.260	-65.444	0.115	-0.046
-333.245	260.455	0.162	0.280
-332.231	-50.539	-0.372	-0.175
-331.216	-96.330	0.161	-0.043
-330.202	-107.565	-0.208	0.045
-329.187	-134.568	-0.501	-0.061
-328.172	16.179	0.240	-0.188
-327.158	-100.246	0.346	0.086
-326.143	-91.009	0.211	-0.061
-325.129	309.587	0.218	-0.406
-324.114	147.985	0.055	-0.074
-323.099	-200.000	0.002	-0.093
-322.085	-200.000	0.070	0.000
-321.070	-49.786	0.206	0.098
-320.056	-156.874	-0.165	-0.010
-319.041	117.834	-0.163	-0.200
-318.026	-200.000	0.036	-0.160
-317.012	-30.682	-0.217	0.122
-315.997	6.870	-0.075	0.055
-314.983	-200.000	-0.017	0.275
-313.968	148.838	-0.171	0.230
-312.953	-200.000	-0.028	-0.473
-311.939	-102.545	0.393	0.093
-310.924	457.964	0.039	0.086
-309.910	-43.437	0.095	-0.048
-308.895	-35.720	-0.276	-0.149
-307.880	800.000	-0.084	-0.267
-306.866	800.000	0.023	0.069
-305.851	348.426	0.106	-0.208
-304.837	-69.166	0.189	-0.072
-303.822	146.090	0.040	0.053
-302.807	248.148	0.065	-0.109
-301.793	44.228	-0.020	0.019
-300.778	-32.715	0.127	-0.070
-299.764	-38.646	0.129	0.068
-298.749	303.325	-0.095	0.175
-297.735	478.301	0.111	-0.250
-296.720	407.410	0.116	-0.244
-295.705	222.784	0.013	0.021
-294.691	68.907	-0.119	-0.122
-293.676	26.571	0.109	-0.091
-292.662	-179.316	-0.131	0.003
-291.647	-85.146	-0.139	0.043
-290.632	800.000	0.072	0.203
-289.618	474.218	0.175	0.392
-288.603	-54.304	0.099	0.045
-287.589	156.688	0.161	-0.222
-286.574	-26.976	0.247	0.143
-285.559	364.076	-0.159	0.318
-284.545	120.771	-0.101	0.125
-283.530	-176.605	-0.015	0.000
-282.516	-200.000	0.024	-0.235
-281.501	-70.903	0.146	-0.055
-280.486	-93.564	0.356	-0.098
-279.472	-116.676	0.132	0.024
-278.457	800.000	0.052	0.166
-277.443	49.542	-0.330	-0.309
-276.428	-83.194	0.355	0.114
-275.413	-28.227	-0.185	-0.107
-274.399	-200.000	0.046	0.269
-273.384	120.195	-0.216	0.267
-272.370	-68.707	0.068	0.026
-271.355	289.262	0.111	0.200
-270.340	75.108	-0.022	-0.023
-269.326	-26.978	0.232	0.135
-268.311	-200.000	0.022	0.118
-267.297	255.913	-0.059	0.100
-266.282	8.311	0.239	0.179
-265.267	84.747	-0.292	-0.319
-264.253	132.784	0.072	0.092
-263.238	340.711	0.024	-0.047
-262.224	131.441	0.202	-0.258
-261.209	-200.000	-0.020	0.117
-260.195	-200.000	-0.010	0.070
-259.180	-200.000	0.044	-0.243
-258.165	-81.027	-0.156	0.051
-257.151	800.000	0.017	0.052
-256.136	-200.000	-0.037	-0.281
-255.122	-200.000	-0.074	-0.431
-254.107	214.046	-0.302	-0.475
-253.092	242.435	0.143	0.238
-252.078	-104.195	-0.158	-0.036
-251.063	-110.835	0.505	-0.103
-250.049	32.079	0.069	0.059
-249.034	450.226	-0.007	0.014
-248.019	800.000	-0.071	-0.234
-247.005	181.123	0.107	0.156
-245.990	-68.142	-0.214	-0.083
-244.976	-97.899	0.103	0.026
-243.961	110.887	0.151	-0.180
-242.946	82.915	-0.118	-0.127
-241.932	-186.799	-0.049	-0.001
-240.917	-89.893	-0.071	-0.021
-239.903	800.000	0.070	-0.233
-238.888	157.882	-0.153	0.211
-237.873	-200.000	0.028	0.153
-236.859	800.000	-0.041	0.115
-235.844	-200.000	0.032	0.249
-234.830	-67.212	-0.234	0.092
-233.815	-16.083	-0.324	0.204
-232.800	-98.566	0.093	0.024
-231.786	-25.681	0.282	0.165
-230.771	-200.000	0.002	-0.185
-229.757	-30.776	-0.089	-0.050
-228.742	800.000	0.075	0.288
-227.727	597.366	-0.145	0.358
-226.713	-69.811	-0.031	0.012
-225.698	118.940	0.108	0.133
-224.684	21.370	0.219	0.176
-223.669	471.270	0.075	-0.167
-222.655	-200.000	-0.011	0.073
-221.640	5.000	-0.193	0.141
-220.625	224.950	0.186	0.299
-219.611	800.000	-0.052	-0.169
-218.596	-82.236	0.115	0.037
-217.582	-9.170	0.149	0.099
-216.567	800.000	-0.056	0.238
-215.552	-52.778	0.130	-0.059
-214.538	-157.363	0.101	0.006
-213.523	-41.885	0.082	-0.042
-212.509	-10.980	-0.218	0.143
-211.494	-54.814	-0.332	-0.149
-210.479	-200.000	-0.012	-0.114
-209.465	-87.662	-0.175	-0.052
-208.450	-89.888	-0.312	-0.091
-207.436	-200.000	-0.003	-0.092
-206.421	-200.000	0.002	-0.165
-205.406	-80.210	-0.166	0.055
-204.392	-200.000	0.025	-0.379
-203.377	-200.000	-0.030	-0.302
-202.363	-53.737	0.281	-0.127
-201.348	800.000	0.086	-0.322
-200.333	175.697	-0.057	0.082
-199.319	70.048	-0.295	-0.302
-198.304	-84.778	0.156	-0.049
-197.290	-200.000	0.025	0.146
-196.275	800.000	0.075	0.315
-195.260	287.453	-0.130	0.233
-194.246	-62.334	0.094	0.039
-193.231	-200.000	-0.088	0.502
-192.217	-2.207	-0.153	0.107
-191.202	84.161	0.170	0.185
-190.187	-143.253	-0.422	-0.040
-189.173	-98.339	0.212	-0.054
-188.158	214.789	-0.188	0.296
-187.144	-86.413	-0.389	-0.119
-186.129	-73.186	0.188	-0.068
-185.114	-120.650	-0.272	0.046
-184.100	408.562	0.125	-0.263
-183.085	-82.218	0.167	0.054
-182.071	-200.000	0.018	-0.082
-181.056	800.000	0.073	0.260
-180.042	338.308	-0.095	0.183
-179.027	-102.538	0.322	0.076
-178.012	-200.000	-0.009	-0.159
-176.998	-64.352	0.156	0.063
-175.983	29.023	0.128	0.108
-174.969	-33.310	0.440	-0.241
-173.954	-184.853	-0.276	-0.004
-172.939	-200.000	0.000	-0.221
-171.925	-71.178	0.193	-0.072
-170.910	-200.000	0.014	-0.291
-169.896	-181.846	0.170	0.003
-168.881	357.062	0.063	0.125
-167.866	81.002	-0.201	-0.215
-166.852	800.000	0.040	-0.169
-165.837	-134.130	0.225	0.028
-164.823	262.935	-0.060	0.103
-163.808	18.141	0.233	0.184
-162.793	309.488	0.159	0.294
-161.779	128.296	0.122	0.154
-160.764	800.000	0.044	0.133
-159.750	-200.000	-0.024	0.137
-158.735	-153.320	-0.371	-0.026
-157.720	53.661	0.189	-0.180
-156.706	185.592	0.133	-0.196
-155.691	800.000	-0.106	0.343
-154.677	800.000	0.086	0.313
-153.662	-200.000	0.001	0.437
-152.647	-125.882	0.260	0.039
-151.633	315.056	-0.224	0.417
-150.618	-200.000	0.080	-0.350
-149.604	-200.000	-0.032	-0.180
-148.589	285.468	-0.128	0.229
-147.574	162.410	0.162	0.224
-146.560	710.886	0.055	0.144
-145.545	-135.092	-0.197	-0.023
-144.531	-84.469	-0.117	0.037
-143.516	44.892	-0.050	-0.046
-142.502	10.057	-0.093	-0.070
-141.487	-93.835	0.283	0.077
-140.472	800.000	0.100	0.300
-139.458	231.968	-0.061	-0.099
-138.443	-19.680	-0.183	0.112
-137.429	33.261	0.180	0.154
-136.414	800.000	0.144	-0.481
-135.399	47.042	-0.051	-0.047
-134.385	-167.661	0.089	-0.003
-133.370	-172.268	-0.184	-0.006
-132.356	110.879	0.126	0.150
-131.341	31.206	0.157	0.133
-130.326	-200.000	0.019	-0.111
-129.312	-9.607	0.286	-0.189
-128.297	-15.365	-0.104	0.066
-127.283	251.942	-0.090	-0.152
-126.268	-113.515	0.012	-0.002
-125.253	1.274	0.075	0.053
-124.239	-11.787	0.243	0.158
-123.224	-125.609	0.103	-0.015
-122.210	-86.552	0.304	-0.092
-121.195	-165.729	-0.204	0.009
