DTS Sentinel unit serial number:	SN413079Multiplexer serial number:	ORYXHardware model number:	OX4-SRSoftware version number:	ORYX F/W v4.00 Oryx Data Collector v3.7.2.0data status	okinstallation	princeton_trtdifferential loss correction	single-endedforward channel	channel 4reverse channel	N/Adate	2019/09/16time	19:49:35forward acquisition time	60.00reverse acquisition time	0.00gamma	496.2192k internal	0.2309k external	0.2309temperature offset calibration	0.9966default loss term (dB/km)	0.3790temperature slope calibration	1.0000multiplexer offset coefficient	1.0000multiplexer slope coefficient	1.0000fibre end	0.00T internal ref (°C)	33.77T ext. ref 1 (°C)	0.08T ext. ref 2 (°C)	26.84length (m)	temperature (°C)	Stokes	anti-Stokes-747.200	-200.000	-0.005	0.045
-746.185	-200.000	-0.004	-0.077
-745.171	74.322	0.055	0.058
-744.156	97.094	-0.294	0.343
-743.142	-200.000	-0.003	-0.021
-742.127	248.390	-0.144	0.248
-741.112	800.000	0.082	-0.247
-740.098	363.650	0.174	0.355
-739.083	262.417	-0.082	0.144
-738.069	-200.000	0.031	0.230
-737.054	163.706	0.153	0.218
-736.039	270.659	-0.167	-0.298
-735.025	190.940	0.317	0.485
-734.010	-154.315	0.190	0.013
-732.996	-126.749	-0.058	-0.009
-731.981	-200.000	-0.015	0.178
-730.966	-34.194	0.304	0.169
-729.952	-200.000	0.043	-0.311
-728.937	800.000	0.028	-0.080
-727.923	13.833	0.159	-0.126
-726.908	-163.201	-0.063	-0.003
-725.894	308.461	0.072	0.137
-724.879	-171.872	-0.398	-0.013
-723.864	-67.106	-0.129	0.052
-722.850	-200.000	0.096	-0.529
-721.835	353.996	0.103	-0.207
-720.821	-200.000	-0.017	-0.234
-719.806	-200.000	-0.000	-0.128
-718.791	-200.000	0.032	0.224
-717.777	52.485	-0.139	0.135
-716.762	149.307	-0.122	-0.167
-715.748	51.418	0.253	-0.244
-714.733	-53.464	-0.333	-0.154
-713.718	230.704	-0.188	-0.313
-712.704	-61.924	0.115	-0.049
-711.689	3.237	-0.232	-0.171
-710.675	172.660	-0.047	-0.069
-709.660	-34.368	-0.124	0.069
-708.645	800.000	-0.069	-0.206
-707.631	-60.739	0.218	0.094
-706.616	-17.342	-0.245	-0.156
-705.602	-164.122	0.220	0.010
-704.587	163.566	-0.101	-0.145
-703.572	9.159	-0.074	-0.056
-702.558	-200.000	-0.018	-0.177
-701.543	-165.186	0.250	-0.011
-700.529	61.727	0.273	0.275
-699.514	-81.820	-0.374	-0.124
-698.499	-29.136	-0.170	0.099
-697.485	-49.016	-0.340	-0.165
-696.470	-200.000	-0.021	-0.128
-695.456	186.677	0.136	-0.205
-694.441	77.085	0.051	-0.054
-693.426	-42.694	-0.127	0.066
-692.412	-168.466	-0.164	-0.006
-691.397	105.584	-0.069	-0.082
-690.383	-60.665	-0.215	0.092
-689.368	-200.000	0.000	0.143
-688.354	335.203	-0.169	-0.332
-687.339	24.959	-0.375	-0.316
-686.324	-154.156	-0.189	0.013
-685.310	319.813	-0.087	0.167
-684.295	101.393	-0.155	0.183
-683.281	298.364	-0.075	0.140
-682.266	-200.000	0.036	-0.231
-681.251	61.609	-0.193	-0.195
-680.237	-83.122	0.206	-0.067
-679.222	-170.144	-0.303	0.011
-678.208	173.252	-0.059	0.086
-677.193	558.145	0.076	0.187
-676.178	-18.414	-0.357	-0.226
-675.164	164.421	0.274	-0.391
-674.149	-200.000	0.035	-0.313
-673.135	800.000	-0.043	0.183
-672.120	8.238	-0.255	0.194
-671.105	-200.000	-0.029	-0.346
-670.091	627.615	0.078	-0.199
-669.076	-200.000	0.042	0.293
-668.062	-2.908	0.159	-0.113
-667.047	11.401	0.312	-0.242
-666.032	-200.000	0.021	-0.281
-665.018	95.082	0.247	-0.285
-664.003	-146.122	0.204	-0.018
-662.989	800.000	-0.061	0.236
-661.974	-79.161	-0.254	0.087
-660.959	338.662	-0.082	-0.162
-659.945	-65.899	-0.281	0.114
-658.930	790.019	-0.048	-0.133
-657.916	-63.733	-0.276	0.114
-656.901	-141.293	0.250	0.026
-655.886	-25.783	-0.216	-0.129
-654.872	59.017	-0.186	0.185
-653.857	2.483	-0.247	-0.181
-652.843	54.659	-0.350	0.341
-651.828	800.000	0.049	0.181
-650.814	33.047	-0.245	-0.215
-649.799	-32.148	-0.212	0.120
-648.784	-200.000	-0.046	-0.396
-647.770	46.834	0.207	0.195
-646.755	33.458	-0.101	-0.088
-645.741	46.078	0.129	-0.121
-644.726	31.969	-0.124	0.108
-643.711	-51.718	0.193	-0.091
-642.697	25.958	0.154	-0.130
-641.682	246.499	-0.122	-0.209
-640.668	-62.982	0.176	-0.074
-639.653	554.148	0.044	0.108
-638.638	-124.686	-0.321	0.050
-637.624	-200.000	0.045	-0.247
-636.609	162.695	0.066	-0.094
-635.595	218.324	0.104	-0.168
-634.580	-49.447	-0.041	0.020
-633.565	46.980	0.174	-0.164
-632.551	666.800	-0.064	0.167
-631.536	-200.000	-0.030	-0.345
-630.522	800.000	-0.108	-0.369
-629.507	661.664	0.009	-0.022
-628.492	-81.129	-0.023	0.008
-627.478	393.578	0.112	0.236
-626.463	-200.000	0.007	0.144
-625.449	-21.655	-0.139	0.086
-624.434	154.219	0.206	0.286
-623.419	68.064	0.089	0.092
-622.405	-138.244	0.365	0.041
-621.390	10.783	-0.214	0.165
-620.376	800.000	-0.028	-0.096
-619.361	45.726	0.230	-0.215
-618.346	293.361	-0.118	0.217
-617.332	95.743	-0.100	0.116
-616.317	23.013	0.141	-0.117
-615.303	20.985	0.518	-0.425
-614.288	83.126	-0.105	-0.116
-613.273	-200.000	0.018	-0.230
-612.259	-59.312	0.208	-0.090
-611.244	-200.000	-0.039	0.366
-610.230	-147.439	0.196	-0.017
-609.215	-12.281	-0.138	0.091
-608.201	-34.079	0.226	-0.125
-607.186	18.891	0.289	0.234
-606.171	-200.000	-0.035	0.242
-605.157	302.874	-0.046	-0.086
-604.142	592.671	0.023	-0.058
-603.128	-146.102	-0.117	0.010
-602.113	-46.785	-0.268	-0.132
-601.098	546.430	-0.127	-0.308
-600.084	-157.547	-0.362	0.022
-599.069	-15.080	-0.298	0.193
-598.055	-7.375	0.035	-0.024
-597.040	88.607	0.096	-0.108
-596.025	-46.200	-0.360	-0.179
-595.011	-55.904	-0.219	-0.099
-593.996	-200.000	0.040	-0.329
-592.982	800.000	-0.032	-0.108
-591.967	-83.135	0.276	0.090
-590.952	-194.150	-0.130	0.001
-589.938	-23.211	0.254	0.154
-588.923	800.000	-0.068	-0.222
-587.909	-105.589	-0.099	0.023
-586.894	-127.082	0.260	-0.039
-585.879	-200.000	-0.002	-0.038
-584.865	-102.407	-0.149	0.036
-583.850	785.092	0.097	-0.269
-582.836	800.000	-0.071	-0.233
-581.821	-200.000	0.005	-0.281
-580.806	-200.000	0.048	0.313
-579.792	-29.148	-0.265	0.153
-578.777	800.000	0.094	-0.297
-577.763	221.651	-0.143	0.231
-576.748	106.920	-0.074	0.089
-575.733	67.513	0.191	0.197
-574.719	-23.755	0.273	-0.165
-573.704	-54.768	-0.054	0.024
-572.690	105.177	-0.107	-0.128
-571.675	30.491	-0.079	-0.068
-570.661	-56.143	0.222	-0.100
-569.646	180.520	0.122	-0.181
-568.631	800.000	0.067	0.288
-567.617	554.567	-0.135	0.328
-566.602	60.678	-0.165	0.164
-565.588	-200.000	0.013	-0.317
-564.573	-200.000	-0.008	-0.055
-563.558	-17.516	0.269	0.171
-562.544	-92.332	-0.024	-0.007
-561.529	-200.000	-0.009	-0.150
-560.515	-200.000	0.003	-0.089
-559.500	405.586	0.181	0.384
-558.485	155.023	0.188	0.261
-557.471	-200.000	0.008	-0.266
-556.456	71.378	-0.013	-0.014
-555.442	-200.000	-0.085	-0.514
-554.427	-80.927	0.197	-0.066
-553.412	-75.460	0.181	0.065
-552.398	-34.630	-0.198	0.109
-551.383	-103.739	0.357	-0.084
-550.369	-200.000	-0.008	0.051
-549.354	-52.361	0.316	0.147
-548.339	137.626	-0.168	-0.221
-547.325	-81.521	-0.270	-0.089
-546.310	-120.980	-0.190	0.032
-545.296	280.179	0.107	0.193
-544.281	-180.547	-0.327	-0.007
-543.266	-200.000	-0.021	0.132
-542.252	87.195	-0.150	-0.167
-541.237	800.000	-0.076	0.315
-540.223	-200.000	0.045	0.291
-539.208	800.000	-0.055	-0.236
-538.193	-34.356	0.041	0.023
-537.179	104.989	-0.154	0.183
-536.164	288.651	-0.232	0.423
-535.150	-169.924	0.125	0.005
-534.135	-183.553	0.109	-0.002
-533.121	-200.000	-0.029	0.332
-532.106	800.000	-0.080	0.225
-531.091	-137.481	-0.203	-0.023
-530.077	-69.827	-0.050	0.019
-529.062	-80.862	-0.280	-0.094
-528.048	296.941	-0.090	-0.167
-527.033	130.488	0.186	0.241
-526.018	-38.971	0.169	-0.090
-525.004	90.894	-0.035	0.040
-523.989	-167.212	0.094	-0.004
-522.975	-200.000	0.014	-0.144
-521.960	-200.000	0.040	-0.352
-520.945	66.644	-0.212	0.217
-519.931	800.000	0.097	-0.305
-518.916	-75.236	0.300	0.108
-517.902	146.842	0.248	0.336
-516.887	-118.670	-0.099	-0.018
-515.872	-119.748	-0.204	0.036
-514.858	-200.000	-0.007	-0.334
-513.843	-200.000	0.005	-0.223
-512.829	-79.318	0.127	-0.043
-511.814	-200.000	-0.020	-0.210
-510.799	-30.800	-0.365	-0.208
-509.785	-134.132	-0.283	-0.035
-508.770	-132.246	0.233	0.030
-507.756	4.732	-0.206	0.153
-506.741	800.000	-0.037	-0.127
-505.726	-173.676	0.122	-0.004
-504.712	-39.311	0.218	-0.115
-503.697	-86.590	-0.292	0.090
-502.683	-32.335	0.206	-0.116
-501.668	-24.450	-0.054	-0.033
-500.653	-28.105	0.243	0.142
-499.639	-55.241	-0.179	0.081
-498.624	-200.000	0.008	0.094
-497.610	-200.000	-0.028	0.135
-496.595	-58.507	-0.148	-0.065
-495.581	335.915	-0.102	-0.200
-494.566	800.000	0.071	0.304
-493.551	14.535	0.200	-0.157
-492.537	-38.520	0.228	0.121
-491.522	87.201	0.081	0.090
-490.508	-200.000	-0.091	0.439
-489.493	30.232	-0.109	0.094
-488.478	792.016	0.024	-0.065
-487.464	-146.127	-0.149	-0.013
-486.449	-200.000	-0.055	-0.276
-485.435	18.970	-0.263	0.212
-484.420	-82.193	0.292	0.096
-483.405	-29.506	0.376	0.216
-482.391	-11.306	-0.061	-0.040
-481.376	135.546	0.177	-0.231
-480.362	113.846	-0.156	0.190
-479.347	484.938	0.072	-0.164
-478.332	-57.200	-0.145	0.064
-477.318	441.481	-0.068	0.149
-476.303	-62.389	-0.201	0.084
-475.289	-9.777	-0.235	0.158
-474.274	621.107	-0.156	0.395
-473.259	-44.514	0.250	0.126
-472.245	-200.000	0.048	-0.310
-471.230	-96.678	0.433	0.114
-470.216	364.164	-0.099	-0.199
-469.201	-14.535	0.369	0.238
-468.186	393.303	0.148	0.309
-467.172	9.695	0.260	0.198
-466.157	32.640	0.169	0.147
-465.143	-92.236	-0.117	0.033
-464.128	-99.666	0.348	0.088
-463.113	800.000	0.100	-0.295
-462.099	800.000	0.066	-0.237
-461.084	98.496	-0.012	-0.014
-460.070	727.850	0.028	-0.075
-459.055	230.194	0.068	0.112
-458.040	238.114	0.178	-0.296
-457.026	-144.847	0.179	-0.016
-456.011	800.000	0.085	-0.294
-454.997	-69.486	-0.120	0.046
-453.982	-110.287	0.323	0.067
-452.968	800.000	-0.046	0.127
-451.953	-166.473	0.207	-0.009
-450.938	-175.022	0.099	-0.003
-449.924	230.396	0.091	-0.150
-448.909	-57.890	0.178	0.078
-447.895	42.454	-0.084	-0.077
-446.880	546.112	-0.047	-0.114
-445.865	133.669	0.197	0.256
-444.851	-81.774	-0.160	0.053
-443.836	-200.000	-0.069	-0.357
-442.822	64.491	0.086	0.087
-441.807	-200.000	-0.013	0.092
-440.792	800.000	-0.075	0.215
-439.778	92.259	0.310	-0.351
-438.763	-79.266	-0.210	0.071
-437.749	-200.000	0.040	-0.277
-436.734	-200.000	0.014	-0.084
-435.719	-16.252	0.115	0.074
-434.705	-125.370	0.279	0.043
-433.690	167.684	0.005	0.007
-432.676	12.414	0.243	0.188
-431.661	-200.000	-0.029	0.134
-430.646	331.061	0.041	-0.079
-429.632	-200.000	-0.048	0.320
-428.617	-90.832	0.245	-0.071
-427.603	497.654	-0.105	0.242
-426.588	27.174	0.173	0.146
-425.573	4.500	-0.322	0.237
-424.559	-84.854	0.198	0.062
-423.544	249.188	0.066	-0.112
-422.530	-200.000	-0.033	0.310
-421.515	109.940	0.043	0.052
-420.500	-200.000	0.018	-0.288
-419.486	79.798	0.068	-0.073
-418.471	781.999	-0.081	-0.221
-417.457	-200.000	0.004	0.077
-416.442	253.577	-0.084	-0.144
-415.428	-57.322	0.069	-0.031
-414.413	-105.025	0.198	-0.045
-413.398	-125.626	0.100	0.015
-412.384	67.193	-0.170	0.174
-411.369	104.183	0.150	-0.177
-410.355	-3.560	0.124	0.087
-409.340	-200.000	-0.043	0.189
-408.325	50.582	-0.083	-0.079
-407.311	558.179	-0.144	0.348
-406.296	-167.238	-0.213	0.009
-405.282	-200.000	0.080	-0.428
-404.267	-126.531	0.163	0.024
-403.252	297.749	-0.130	-0.239
-402.238	92.943	-0.255	-0.289
-401.223	197.647	-0.217	0.332
-400.209	132.506	0.055	-0.071
-399.194	-200.000	0.012	-0.181
-398.179	-117.257	0.510	0.093
-397.165	470.716	0.018	0.041
-396.150	800.000	0.052	0.170
-395.136	-170.442	0.062	-0.002
-394.121	75.332	0.025	0.027
-393.106	-200.000	-0.323	-0.000
-392.092	-99.672	0.213	-0.054
-391.077	731.326	-0.134	-0.358
-390.063	-200.000	-0.049	0.372
-389.048	23.776	-0.095	-0.079
-388.033	-50.904	-0.324	0.153
-387.019	60.416	-0.177	-0.176
-386.004	-200.000	-0.067	-0.377
-384.990	100.264	-0.100	0.116
-383.975	-200.000	-0.012	0.323
-382.960	-200.000	0.023	-0.317
-381.946	-93.626	-0.051	-0.014
-380.931	220.945	0.090	0.144
-379.917	46.814	-0.163	0.152
-378.902	-104.470	-0.318	0.074
-377.888	-200.000	-0.055	-0.404
-376.873	-200.000	-0.013	-0.098
-375.858	26.142	0.262	0.219
-374.844	-7.760	0.160	-0.108
-373.829	-200.000	0.027	-0.126
-372.815	279.043	-0.098	-0.174
-371.800	-89.804	-0.086	-0.025
-370.785	-108.464	-0.543	0.117
-369.771	341.047	-0.187	-0.366
-368.756	-200.000	0.051	0.321
-367.742	-200.000	-0.004	0.253
-366.727	-113.542	0.286	0.056
-365.712	125.628	0.122	-0.154
-364.698	-200.000	0.040	-0.301
-363.683	-180.731	-0.278	0.006
-362.669	800.000	0.053	-0.150
-361.654	-165.499	-0.207	-0.009
-360.639	-35.806	0.091	0.049
-359.625	-106.779	-0.223	-0.050
-358.610	54.446	-0.182	-0.175
-357.596	189.029	0.085	0.127
-356.581	800.000	-0.074	-0.289
-355.566	-200.000	-0.034	-0.350
-354.552	86.700	-0.066	-0.072
-353.537	105.523	0.051	0.060
-352.523	-200.000	0.032	-0.198
-351.508	77.334	0.112	-0.119
-350.493	533.446	0.026	-0.061
-349.479	-131.068	-0.126	-0.017
-348.464	-71.613	0.162	-0.060
-347.450	-200.000	-0.020	0.322
-346.435	800.000	0.050	0.185
-345.420	352.729	-0.135	-0.268
-344.406	320.650	-0.033	0.062
-343.391	-50.533	-0.202	0.095
-342.377	38.471	-0.079	-0.071
-341.362	-200.000	-0.035	-0.196
-340.348	92.784	0.146	0.165
-339.333	-74.230	-0.176	-0.064
-338.318	-15.457	-0.105	-0.067
-337.304	800.000	-0.100	0.331
-336.289	329.172	-0.011	-0.021
-335.275	-61.180	-0.097	-0.041
-334.260	-66.393	0.165	0.066
-333.245	-200.000	-0.026	-0.295
-332.231	800.000	0.037	-0.120
-331.216	-200.000	-0.077	-0.342
-330.202	86.835	-0.200	0.221
-329.187	-200.000	0.016	0.342
-328.172	800.000	-0.091	-0.387
-327.158	-81.827	-0.142	-0.047
-326.143	-2.013	-0.053	-0.037
-325.129	-143.333	-0.088	-0.008
-324.114	-107.684	0.087	0.019
-323.099	-24.019	0.094	0.056
-322.085	800.000	-0.039	0.145
-321.070	800.000	0.066	0.211
-320.056	-141.383	-0.361	-0.037
-319.041	336.237	-0.091	-0.176
-318.026	-200.000	0.002	0.692
-317.012	-13.095	-0.123	-0.080
-315.997	96.386	0.096	0.109
-314.983	-200.000	0.201	-0.000
-313.968	38.991	-0.055	-0.050
-312.953	131.268	0.028	0.036
-311.939	-50.502	-0.305	-0.144
-310.924	-200.000	0.062	-0.371
-309.910	-111.812	0.262	0.053
-308.895	-78.289	-0.261	0.089
-307.880	-49.108	0.155	0.074
-306.866	49.776	-0.357	0.336
-305.851	85.233	0.140	0.153
-304.837	122.358	-0.027	-0.034
-303.822	800.000	-0.069	0.203
-302.807	-83.979	-0.243	0.077
-301.793	-123.833	-0.288	-0.045
-300.778	-200.000	0.018	-0.250
-299.764	-35.278	-0.303	-0.165
-298.749	83.074	0.149	0.162
-297.735	256.577	0.084	-0.143
-296.720	242.530	0.116	-0.194
-295.705	21.072	-0.231	-0.187
-294.691	56.223	-0.235	0.228
-293.676	272.010	0.165	-0.291
-292.662	62.274	0.217	-0.216
-291.647	268.765	-0.120	0.210
-290.632	-200.000	-0.027	-0.144
-289.618	-88.647	0.263	-0.078
-288.603	800.000	0.042	0.117
-287.589	-88.267	-0.230	-0.069
-286.574	-36.456	-0.145	-0.078
-285.559	-39.377	0.301	-0.158
-284.545	319.486	0.166	0.315
-283.530	800.000	-0.020	0.058
-282.516	800.000	-0.028	-0.078
-281.501	-200.000	-0.003	0.227
-280.486	82.324	-0.220	0.238
-279.472	496.745	0.104	-0.240
-278.457	-173.153	0.169	-0.005
-277.443	-76.584	0.090	-0.032
-276.428	756.309	-0.100	-0.270
-275.413	47.774	0.215	-0.200
-274.399	-191.243	0.091	0.001
-273.384	-34.557	-0.165	0.090
-272.370	-29.858	-0.318	0.181
-271.355	756.789	0.116	0.313
-270.340	-200.000	0.004	0.027
-269.326	-148.613	0.112	0.009
-268.311	64.849	0.215	-0.216
-267.297	-69.990	-0.111	-0.042
-266.282	-41.381	0.132	0.068
-265.267	11.129	0.129	0.099
-264.253	800.000	-0.037	0.153
-263.238	-200.000	0.004	0.029
-262.224	6.260	0.194	-0.143
-261.209	198.279	0.177	-0.269
-260.195	283.523	0.087	-0.157
-259.180	-105.122	-0.047	0.011
-258.165	653.575	-0.023	-0.060
-257.151	83.407	0.256	0.278
-256.136	-142.591	-0.187	0.018
-255.122	-73.751	-0.194	0.070
-254.107	-11.140	-0.082	-0.054
-253.092	-47.183	0.268	0.130
-252.078	103.921	-0.225	0.263
-251.063	-139.925	0.164	-0.017
-250.049	44.684	0.308	-0.282
-249.034	523.699	-0.046	-0.107
-248.019	800.000	0.022	-0.079
-247.005	-160.024	-0.286	-0.016
-245.990	739.847	0.160	-0.428
-244.976	168.018	0.119	-0.169
-243.961	77.950	-0.137	-0.145
-242.946	-16.041	-0.284	-0.180
-241.932	-78.229	0.138	-0.047
-240.917	238.621	-0.041	-0.067
-239.903	109.834	0.249	-0.297
-238.888	-83.331	-0.366	-0.117
-237.873	258.950	-0.262	0.450
-236.859	91.977	-0.141	0.158
-235.844	-150.543	0.077	-0.006
-234.830	31.051	0.303	0.258
-233.815	176.725	0.161	0.233
-232.800	-84.809	-0.220	0.069
-231.786	13.616	0.128	0.099
-230.771	-66.296	-0.394	0.156
-229.757	-55.345	-0.164	0.073
-228.742	442.090	-0.109	0.238
-227.727	14.155	0.212	0.164
-226.713	-113.737	-0.137	0.027
-225.698	-47.753	0.289	0.139
-224.684	-200.000	-0.003	0.026
-223.669	-171.893	0.294	0.010
-222.655	15.110	-0.079	-0.062
-221.640	-49.033	-0.195	0.093
-220.625	0.418	-0.267	0.190
-219.611	-6.148	0.108	0.074
-218.596	-187.993	0.189	0.002
-217.582	302.187	0.098	-0.180
-216.567	-18.349	-0.045	-0.028
-215.552	532.428	0.192	0.452
-214.538	21.769	0.118	0.096
-213.523	800.000	-0.034	-0.134
-212.509	-50.378	0.108	0.051
-211.494	31.736	0.134	0.115
-210.479	800.000	-0.041	-0.141
-209.465	609.172	0.086	-0.215
-208.450	-200.000	-0.011	0.085
-207.436	107.478	0.117	-0.138
-206.421	-79.198	-0.259	0.087
-205.406	165.013	0.278	-0.391
-204.392	256.758	0.089	-0.152
-203.377	274.236	-0.215	0.378
-202.363	-68.541	0.165	0.064
-201.348	79.022	-0.205	0.219
-200.333	-200.000	0.010	-0.072
-199.319	65.550	-0.158	-0.159
-198.304	800.000	-0.013	0.037
-197.290	-200.000	-0.002	0.059
-196.275	-49.223	0.494	-0.235
-195.260	145.643	0.087	0.115
-194.246	-200.000	0.069	0.517
-193.231	513.181	-0.132	0.306
-192.217	150.489	-0.169	0.228
-191.202	39.342	0.112	-0.099
-190.187	-200.000	0.015	0.118
-189.173	-200.000	0.022	0.167
-188.158	-200.000	-0.002	-0.022
-187.144	800.000	0.013	-0.054
-186.129	22.669	-0.297	-0.242
-185.114	279.537	0.039	0.070
-184.100	-84.372	-0.147	0.046
-183.085	203.806	-0.036	-0.056
-182.071	-200.000	0.031	-0.204
-181.056	204.124	0.149	-0.229
-180.042	46.499	0.142	0.131
-179.027	-12.843	-0.214	-0.139
-178.012	800.000	-0.092	0.305
-176.998	252.708	-0.128	-0.217
-175.983	800.000	-0.065	-0.201
-174.969	-67.398	-0.140	0.055
-173.954	75.527	0.198	-0.208
-172.939	-200.000	-0.002	0.129
-171.925	800.000	-0.063	0.183
-170.910	-200.000	0.010	0.255
-169.896	-138.581	-0.239	0.026
-168.881	24.757	-0.331	0.272
-167.866	-200.000	0.004	0.164
-166.852	-200.000	-0.010	-0.135
-165.837	68.131	0.261	-0.265
-164.823	-200.000	-0.007	0.242
-163.808	-113.219	0.173	0.034
-162.793	178.347	0.208	-0.301
-161.779	47.402	0.272	0.252
-160.764	800.000	0.037	0.157
-159.750	199.755	-0.164	0.250
-158.735	-200.000	-0.043	0.229
-157.720	-0.073	-0.241	0.170
-156.706	-200.000	-0.043	-0.325
-155.691	-76.560	0.151	-0.053
-154.677	-137.216	-0.163	0.018
-153.662	238.989	-0.063	-0.104
-152.647	50.653	-0.169	-0.158
-151.633	-120.244	-0.381	0.065
-150.618	-93.848	-0.254	-0.069
-149.604	-200.000	-0.016	0.405
-148.589	216.603	-0.105	-0.167
-147.574	-55.941	0.233	0.103
-146.560	-88.089	0.220	-0.065
-145.545	-200.000	-0.003	-0.257
-144.531	112.613	0.073	-0.087
-143.516	-200.000	-0.024	-0.153
-142.502	-54.399	0.163	0.073
-141.487	31.277	0.158	0.135
-140.472	800.000	0.048	0.192
-139.458	-200.000	0.004	-0.133
-138.443	-26.695	-0.173	0.101
-137.429	-59.922	-0.203	-0.086
-136.414	-89.280	-0.195	-0.057
-135.399	52.488	-0.325	0.308
-134.385	37.126	-0.086	0.075
-133.370	-104.467	0.233	-0.054
-132.356	112.489	-0.199	0.239
-131.341	575.779	0.127	0.306
-130.326	-200.000	0.004	0.086
-129.312	800.000	0.070	0.198
-128.297	-79.195	0.261	0.088
-127.283	739.841	0.092	0.245
-126.268	57.588	-0.121	0.118
-125.253	599.843	0.101	-0.249
-124.239	7.453	0.300	0.222
-123.224	170.722	-0.202	0.286
-122.210	390.373	0.217	0.446
-121.195	414.474	-0.116	0.246
