DTS Sentinel unit serial number:	SN413079Multiplexer serial number:	ORYXHardware model number:	OX4-SRSoftware version number:	ORYX F/W v4.00 Oryx Data Collector v3.7.2.0data status	okinstallation	princeton_trtdifferential loss correction	single-endedforward channel	channel 4reverse channel	N/Adate	2019/09/17time	04:45:35forward acquisition time	60.00reverse acquisition time	0.00gamma	496.2192k internal	0.2312k external	0.2312temperature offset calibration	0.9978default loss term (dB/km)	0.3790temperature slope calibration	1.0000multiplexer offset coefficient	1.0000multiplexer slope coefficient	1.0000fibre end	0.00T internal ref (°C)	29.58T ext. ref 1 (°C)	0.14T ext. ref 2 (°C)	24.01length (m)	temperature (°C)	Stokes	anti-Stokes-747.200	179.885	-0.048	-0.072
-746.185	-187.678	-0.283	0.004
-745.171	-200.000	0.028	0.264
-744.156	151.497	0.211	0.292
-743.142	-68.395	-0.188	0.074
-742.127	125.383	-0.111	0.142
-741.112	-153.115	-0.056	-0.004
-740.098	-200.000	0.009	0.308
-739.083	-23.372	0.091	0.056
-738.069	14.661	0.185	0.146
-737.054	800.000	0.048	0.188
-736.039	179.866	-0.187	-0.278
-735.025	193.777	-0.004	0.005
-734.010	-37.372	-0.384	-0.208
-732.996	-200.000	-0.021	0.271
-731.981	-15.845	0.248	0.160
-730.966	800.000	-0.088	-0.282
-729.952	-101.148	0.225	-0.056
-728.937	16.981	0.175	0.140
-727.923	-200.000	-0.024	-0.218
-726.908	-117.691	0.441	-0.081
-725.894	-200.000	0.037	-0.289
-724.879	204.709	0.032	0.050
-723.864	-106.411	0.436	0.099
-722.850	800.000	-0.088	0.247
-721.835	800.000	0.060	-0.215
-720.821	85.542	0.169	0.189
-719.806	789.726	0.127	0.354
-718.791	-200.000	-0.031	0.378
-717.777	0.135	-0.105	-0.076
-716.762	-45.960	0.197	0.099
-715.748	-200.000	-0.009	0.221
-714.733	-176.274	-0.301	-0.008
-713.718	-200.000	0.069	0.361
-712.704	800.000	-0.052	0.169
-711.689	150.159	-0.074	-0.102
-710.675	214.665	-0.087	-0.139
-709.660	217.430	0.094	0.152
-708.645	-121.856	0.282	-0.047
-707.631	-200.000	-0.006	-0.046
-706.616	113.611	-0.143	0.176
-705.602	-200.000	-0.016	-0.350
-704.587	800.000	-0.010	0.035
-703.572	131.581	-0.157	-0.205
-702.558	131.179	0.144	-0.187
-701.543	-134.751	-0.242	0.030
-700.529	2.471	0.219	-0.160
-699.514	505.900	0.053	-0.124
-698.499	-100.329	0.347	-0.087
-697.485	-166.786	-0.232	-0.010
-696.470	-61.653	0.259	-0.110
-695.456	-122.140	0.262	0.043
-694.441	-32.546	0.090	-0.051
-693.426	-15.460	-0.159	0.103
-692.412	-54.795	-0.324	-0.148
-691.397	-200.000	-0.082	0.369
-690.383	800.000	0.035	0.131
-689.368	187.846	-0.146	-0.221
-688.354	-140.649	0.308	-0.032
-687.339	-164.995	-0.169	-0.008
-686.324	97.132	0.055	0.064
-685.310	800.000	0.031	-0.116
-684.295	-31.066	-0.121	-0.069
-683.281	-200.000	0.009	0.045
-682.266	-85.142	-0.283	0.090
-681.251	-80.719	0.044	-0.015
-680.237	-200.000	0.039	-0.191
-679.222	-115.350	-0.406	0.078
-678.208	496.367	-0.107	-0.250
-677.193	-200.000	-0.029	-0.198
-676.178	-96.927	0.172	-0.046
-675.164	639.879	-0.041	-0.106
-674.149	627.399	0.079	-0.202
-673.135	39.100	0.269	0.243
-672.120	125.810	0.034	0.044
-671.105	-200.000	0.011	-0.138
-670.091	800.000	0.051	-0.206
-669.076	-60.280	0.162	-0.070
-668.062	28.163	0.268	-0.229
-667.047	-37.277	-0.280	-0.152
-666.032	3.864	0.196	-0.145
-665.018	800.000	0.038	0.152
-664.003	66.833	0.161	-0.165
-662.989	-53.036	0.277	0.129
-661.974	-200.000	-0.001	-0.148
-660.959	800.000	0.012	-0.040
-659.945	304.296	0.043	-0.081
-658.930	-26.708	0.264	0.156
-657.916	-33.828	-0.267	0.149
-656.901	-149.517	0.207	0.017
-655.886	-78.629	0.214	0.074
-654.872	53.508	0.258	-0.250
-653.857	129.778	0.156	-0.201
-652.843	99.159	0.218	-0.255
-651.828	27.058	-0.152	-0.129
-650.814	265.087	0.031	0.055
-649.799	800.000	0.078	0.311
-648.784	-82.278	-0.062	-0.020
-647.770	-154.206	-0.267	-0.018
-646.755	678.909	0.095	0.250
-645.741	-17.120	0.220	-0.140
-644.726	33.854	0.130	-0.114
-643.711	35.234	-0.341	0.302
-642.697	64.813	-0.015	0.015
-641.682	-200.000	-0.008	0.105
-640.668	-200.000	-0.002	-0.008
-639.653	-68.829	-0.164	0.064
-638.638	-200.000	-0.038	-0.451
-637.624	671.568	0.073	-0.192
-636.609	307.247	-0.130	0.246
-635.595	51.449	0.080	-0.077
-634.580	-125.202	-0.172	0.027
-633.565	196.365	-0.032	-0.049
-632.551	-200.000	-0.042	-0.282
-631.536	51.493	-0.323	-0.310
-630.522	710.677	0.096	-0.256
-629.507	800.000	0.039	0.127
-628.492	766.304	0.019	-0.051
-627.478	228.764	0.037	-0.061
-626.463	522.007	-0.112	0.267
-625.449	587.258	0.068	0.168
-624.434	-34.170	0.492	0.273
-623.419	-88.244	0.357	0.108
-622.405	800.000	-0.012	-0.054
-621.390	75.393	0.259	0.276
-620.376	266.610	-0.110	-0.195
-619.361	-76.136	0.255	0.091
-618.346	61.519	0.033	-0.033
-617.332	346.914	0.096	-0.191
-616.317	-129.971	0.228	-0.032
-615.303	-13.721	0.242	0.158
-614.288	-200.000	-0.039	0.428
-613.273	-200.000	0.005	-0.334
-612.259	672.861	-0.037	-0.097
-611.244	-133.094	-0.128	0.016
-610.230	12.663	-0.183	-0.143
-609.215	31.530	0.139	-0.120
-608.201	398.524	-0.028	0.059
-607.186	45.386	0.141	0.131
-606.171	-200.000	-0.011	0.187
-605.157	-112.960	-0.326	0.065
-604.142	91.069	-0.351	-0.397
-603.128	-128.522	-0.108	0.015
-602.113	166.786	0.170	-0.244
-601.098	-200.000	0.045	-0.234
-600.084	-64.636	0.140	0.057
-599.069	-121.242	0.241	0.041
-598.055	-65.602	-0.100	-0.040
-597.040	17.347	0.059	-0.047
-596.025	-200.000	0.018	0.193
-595.011	-4.537	-0.150	-0.105
-593.996	206.545	0.058	0.092
-592.982	800.000	-0.082	-0.261
-591.967	247.259	-0.067	0.114
-590.952	112.990	-0.167	-0.205
-589.938	-175.688	0.254	-0.007
-588.923	123.166	-0.275	0.347
-587.909	-54.135	0.388	-0.178
-586.894	145.166	-0.254	0.343
-585.879	26.959	0.029	-0.024
-584.865	-200.000	0.199	-0.000
-583.850	-122.444	-0.219	-0.036
-582.836	-68.623	0.163	-0.063
-581.821	-103.941	-0.263	-0.062
-580.806	166.916	-0.202	-0.289
-579.792	33.567	0.143	-0.125
-578.777	2.160	0.279	-0.203
-577.763	435.929	-0.089	-0.195
-576.748	-100.533	0.503	-0.125
-575.733	44.393	-0.204	0.189
-574.719	-134.644	0.198	-0.024
-573.704	-91.191	0.338	0.098
-572.690	-90.045	0.213	0.063
-571.675	16.361	-0.106	0.084
-570.661	26.898	-0.298	0.252
-569.646	-140.311	-0.140	-0.015
-568.631	-115.513	-0.156	0.030
-567.617	-96.026	-0.232	-0.062
-566.602	-132.952	-0.264	-0.034
-565.588	229.263	0.161	-0.265
-564.573	-117.236	-0.287	-0.053
-563.558	-41.198	-0.102	-0.053
-562.544	-123.380	0.203	-0.033
-561.529	-42.309	-0.350	-0.180
-560.515	47.147	-0.114	-0.107
-559.500	114.095	-0.135	-0.165
-558.485	291.228	-0.060	-0.110
-557.471	-69.527	0.187	-0.072
-556.456	-79.352	-0.375	-0.128
-555.442	-4.443	0.388	-0.270
-554.427	-28.207	-0.072	0.042
-553.412	-200.000	-0.061	-0.290
-552.398	-51.290	0.434	0.204
-551.383	-200.000	-0.018	0.109
-550.369	-200.000	0.001	0.032
-549.354	800.000	-0.045	-0.142
-548.339	-39.218	0.031	0.016
-547.325	0.366	-0.159	0.114
-546.310	295.815	-0.094	-0.173
-545.296	208.712	0.204	0.322
-544.281	-200.000	-0.083	0.456
-543.266	-200.000	-0.002	-0.148
-542.252	-48.737	0.116	-0.056
-541.237	-51.485	0.181	-0.085
-540.223	371.318	0.017	-0.035
-539.208	-45.676	0.118	0.059
-538.193	-200.000	-0.006	0.252
-537.179	-35.072	-0.135	-0.074
-536.164	64.775	0.145	-0.147
-535.150	-94.187	0.035	-0.010
-534.135	11.533	-0.134	0.103
-533.121	123.753	-0.088	0.111
-532.106	-200.000	0.017	-0.284
-531.091	13.548	0.157	0.123
-530.077	800.000	-0.024	-0.085
-529.062	307.601	-0.012	0.022
-528.048	-51.103	-0.214	0.101
-527.033	-54.574	0.389	-0.177
-526.018	-183.645	0.407	0.007
-525.004	18.118	-0.179	-0.144
-523.989	800.000	-0.149	-0.434
-522.975	-80.587	0.264	0.089
-521.960	53.037	-0.233	0.225
-520.945	800.000	0.114	0.346
-519.931	-200.000	-0.040	0.212
-518.916	800.000	-0.080	-0.349
-517.902	-200.000	-0.050	-0.218
-516.887	2.410	-0.168	0.122
-515.872	-200.000	-0.011	-0.098
-514.858	-62.598	-0.240	-0.100
-513.843	280.650	-0.128	0.230
-512.829	47.509	0.117	-0.109
-511.814	800.000	0.021	0.068
-510.799	124.786	0.147	0.186
-509.785	52.019	0.201	0.193
-508.770	-134.133	-0.107	-0.013
-507.756	-169.894	-0.462	0.017
-506.741	-52.816	0.244	0.113
-505.726	-42.062	0.281	0.145
-504.712	86.360	-0.157	-0.173
-503.697	800.000	-0.026	0.109
-502.683	-200.000	0.036	0.211
-501.668	86.264	-0.104	-0.115
-500.653	723.851	-0.121	-0.323
-499.639	87.866	0.064	-0.072
-498.624	82.740	-0.169	-0.184
-497.610	-102.795	0.339	0.081
-496.595	-10.016	0.274	0.183
-495.581	-70.445	-0.293	0.112
-494.566	797.662	-0.084	0.231
-493.551	83.448	-0.187	0.205
-492.537	-34.900	-0.351	0.192
-491.522	-154.641	-0.100	0.007
-490.508	61.604	-0.022	0.022
-489.493	16.216	-0.193	0.153
-488.478	27.404	-0.135	0.114
-487.464	-100.591	-0.033	-0.008
-486.449	-149.279	-0.357	0.029
-485.435	330.638	-0.026	-0.051
-484.420	-95.035	-0.116	-0.032
-483.405	-49.050	-0.105	0.050
-482.391	166.687	-0.050	0.071
-481.376	800.000	0.037	-0.109
-480.362	-200.000	0.037	-0.252
-479.347	-18.669	-0.111	-0.070
-478.332	-200.000	0.016	0.086
-477.318	-52.384	0.243	0.113
-476.303	-200.000	0.065	0.333
-475.289	-55.895	-0.121	0.054
-474.274	-48.704	-0.472	-0.227
-473.259	-15.667	-0.108	0.069
-472.245	78.025	-0.111	-0.119
-471.230	-139.398	-0.206	-0.022
-470.216	102.601	0.132	-0.155
-469.201	43.001	-0.206	0.189
-468.186	-20.369	0.155	0.096
-467.172	35.926	-0.112	0.099
-466.157	-200.000	0.028	0.536
-465.143	61.125	-0.177	-0.177
-464.128	-200.000	-0.012	-0.134
-463.113	57.425	0.140	-0.138
-462.099	135.126	-0.191	0.249
-461.084	-200.000	0.061	0.295
-460.070	23.770	-0.161	0.133
-459.055	800.000	0.006	0.023
-458.040	240.260	0.075	-0.126
-457.026	-172.175	-0.263	0.008
-456.011	-200.000	-0.031	-0.184
-454.997	246.565	-0.070	-0.119
-453.982	70.173	0.292	-0.303
-452.968	800.000	0.057	-0.173
-451.953	560.542	-0.063	-0.152
-450.938	5.390	0.190	0.141
-449.924	727.671	-0.059	-0.157
-448.909	-200.000	0.003	0.381
-447.895	139.034	0.193	0.255
-446.880	800.000	0.036	-0.149
-445.865	792.994	0.024	-0.066
-444.851	-85.555	0.247	0.077
-443.836	286.762	-0.092	0.166
-442.822	366.331	-0.076	-0.153
-441.807	800.000	-0.103	-0.353
-440.792	-200.000	0.034	-0.265
-439.778	49.583	-0.238	-0.224
-438.763	-0.813	-0.076	-0.054
-437.749	-98.045	0.131	-0.034
-436.734	800.000	0.025	-0.088
-435.719	-154.135	0.392	0.027
-434.705	255.042	-0.059	0.101
-433.690	-123.567	-0.197	0.031
-432.676	57.871	-0.278	0.272
-431.661	-200.000	0.015	-0.185
-430.646	676.605	0.075	-0.196
-429.632	-48.037	-0.046	0.022
-428.617	121.517	0.091	-0.114
-427.603	395.504	0.140	-0.292
-426.588	-80.870	-0.147	-0.049
-425.573	126.450	-0.075	0.095
-424.559	99.644	-0.094	0.109
-423.544	800.000	0.077	-0.278
-422.530	-24.177	0.259	0.155
-421.515	-200.000	-0.013	0.113
-420.500	-98.974	0.197	0.050
-419.486	-10.466	-0.142	-0.094
-418.471	-188.552	0.331	-0.004
-417.457	-103.677	0.175	0.041
-416.442	-99.888	-0.037	-0.009
-415.428	-58.045	-0.192	-0.084
-414.413	-109.127	0.263	0.056
-413.398	-71.183	-0.409	0.154
-412.384	-200.000	0.005	0.151
-411.369	-200.000	-0.060	-0.519
-410.355	113.979	-0.098	0.119
-409.340	-3.167	0.100	-0.070
-408.325	-109.957	0.115	0.024
-407.311	-19.977	0.351	0.217
-406.296	-200.000	0.016	0.174
-405.282	-172.782	-0.340	0.011
-404.267	79.995	-0.097	-0.105
-403.252	667.009	0.092	-0.239
-402.238	146.556	-0.079	-0.107
-401.223	-25.532	0.226	0.134
-400.209	262.560	-0.024	0.042
-399.194	-92.528	0.254	0.071
-398.179	101.824	0.165	-0.192
-397.165	521.673	0.062	-0.145
-396.150	357.490	0.130	0.259
-395.136	-200.000	-0.029	0.249
-394.121	-38.369	0.149	-0.079
-393.106	646.784	0.107	-0.273
-392.092	-113.602	-0.271	0.053
-391.077	38.537	-0.101	-0.090
-390.063	47.190	-0.023	0.021
-389.048	-200.000	0.001	-0.054
-388.033	-66.351	0.356	-0.142
-387.019	-72.124	0.262	0.097
-386.004	-27.280	-0.082	-0.048
-384.990	-12.669	0.180	-0.118
-383.975	-200.000	-0.006	0.162
-382.960	28.254	0.077	0.065
-381.946	800.000	0.100	-0.343
-380.931	-153.286	-0.116	0.008
-379.917	276.198	0.082	-0.145
-378.902	128.248	0.053	0.067
-377.888	217.408	0.117	-0.187
-376.873	-98.888	0.034	0.009
-375.858	566.239	0.072	0.176
-374.844	74.788	0.121	-0.127
-373.829	800.000	-0.100	0.294
-372.815	68.968	0.022	0.023
-371.800	-142.950	0.296	0.029
-370.785	-200.000	0.018	-0.101
-369.771	66.271	0.070	-0.071
-368.756	-12.769	0.218	0.142
-367.742	20.410	0.187	0.151
-366.727	-200.000	0.015	0.068
-365.712	-18.881	0.297	0.185
-364.698	89.201	0.082	0.092
-363.683	-157.228	-0.209	0.013
-362.669	-163.049	0.136	-0.007
-361.654	167.508	0.119	-0.170
-360.639	-191.476	0.112	0.001
-359.625	318.670	0.120	0.227
-358.610	-103.816	0.262	-0.061
-357.596	-16.328	-0.105	0.067
-356.581	-66.286	-0.208	0.083
-355.566	-200.000	-0.020	-0.148
-354.552	-200.000	0.005	-0.116
-353.537	676.170	0.054	-0.141
-352.523	-200.000	0.046	0.261
-351.508	258.682	-0.205	-0.353
-350.493	28.242	-0.030	-0.025
-349.479	-200.000	0.003	-0.179
-348.464	-38.425	0.157	0.083
-347.450	-131.815	-0.075	0.010
-346.435	-119.274	0.311	-0.054
-345.420	523.779	0.040	-0.094
-344.406	106.746	0.132	0.157
-343.391	800.000	-0.098	-0.270
-342.377	-3.708	0.135	0.094
-341.362	152.677	-0.220	0.300
-340.348	49.184	0.087	-0.082
-339.333	316.149	0.051	-0.096
-338.318	-142.610	-0.008	-0.001
-337.304	800.000	0.071	0.236
-336.289	176.399	0.215	0.311
-335.275	-200.000	-0.066	-0.351
-334.260	506.554	-0.019	-0.044
-333.245	110.001	-0.025	0.030
-332.231	87.843	0.255	0.282
-331.216	-16.937	0.147	-0.093
-330.202	-55.763	-0.215	-0.096
-329.187	18.267	-0.156	-0.125
-328.172	-109.277	-0.164	0.035
-327.158	45.143	0.079	-0.073
-326.143	-25.577	-0.196	-0.116
-325.129	-200.000	0.223	-0.001
-324.114	-79.874	0.155	0.052
-323.099	129.485	0.171	-0.218
-322.085	202.081	-0.190	0.293
-321.070	-180.411	0.277	-0.006
-320.056	-69.289	0.053	-0.020
-319.041	-63.128	0.168	-0.069
-318.026	-200.000	0.001	0.159
-317.012	447.863	-0.064	-0.140
-315.997	-79.417	-0.439	-0.148
-314.983	-90.008	0.213	0.062
-313.968	-155.185	-0.338	-0.022
-312.953	-91.113	0.086	-0.025
-311.939	-128.072	-0.071	0.010
-310.924	-124.211	-0.282	-0.044
-309.910	354.514	-0.084	0.166
-308.895	800.000	-0.065	0.272
-307.880	153.128	-0.198	-0.270
-306.866	508.200	-0.029	-0.067
-305.851	140.456	0.174	0.230
-304.837	800.000	0.013	-0.051
-303.822	503.972	-0.102	0.236
-302.807	118.831	-0.067	0.083
-301.793	-84.757	-0.265	0.083
-300.778	247.358	-0.094	0.158
-299.764	800.000	-0.047	-0.181
-298.749	70.129	-0.189	0.194
-297.735	-200.000	-0.035	-0.154
-296.720	430.155	-0.085	0.183
-295.705	-200.000	0.001	0.030
-294.691	800.000	-0.098	0.269
-293.676	94.682	0.144	-0.164
-292.662	-200.000	0.013	-0.143
-291.647	339.691	-0.137	-0.267
-290.632	71.924	-0.077	-0.080
-289.618	-135.702	-0.198	-0.023
-288.603	-142.397	-0.297	-0.029
-287.589	-66.886	-0.357	0.141
-286.574	-123.383	0.337	0.054
-285.559	765.034	0.065	0.176
-284.545	-48.407	-0.183	0.088
-283.530	-168.815	-0.145	0.005
-282.516	-97.296	0.296	-0.077
-281.501	800.000	-0.056	0.155
-280.486	800.000	-0.017	-0.055
-279.472	315.963	-0.155	0.292
-278.457	-173.358	-0.269	-0.008
-277.443	286.744	0.092	0.166
-276.428	208.220	0.047	-0.073
-275.413	800.000	-0.074	0.210
-274.399	-60.121	-0.168	0.072
-273.384	403.302	0.057	0.119
-272.370	139.307	-0.121	-0.158
-271.355	-4.598	0.260	-0.179
-270.340	800.000	0.100	-0.278
-269.326	507.953	-0.170	-0.393
-268.311	-200.000	0.002	-0.077
-267.297	88.582	-0.174	-0.193
-266.282	265.635	0.053	0.092
-265.267	-36.860	-0.092	0.049
-264.253	-17.655	0.250	-0.156
-263.238	-200.000	0.017	0.111
-262.224	23.537	0.105	0.086
-261.209	134.052	0.080	0.103
-260.195	360.569	-0.162	-0.323
-259.180	-43.330	0.180	0.091
-258.165	307.609	0.049	0.091
-257.151	800.000	0.049	0.161
-256.136	-60.748	0.072	-0.030
-255.122	-199.672	-0.191	0.001
-254.107	84.827	-0.322	0.351
-253.092	515.451	-0.103	0.238
-252.078	-200.000	0.082	0.398
-251.063	-200.000	0.022	0.157
-250.049	48.696	-0.168	0.157
-249.034	86.069	-0.073	-0.080
-248.019	66.613	0.353	-0.358
-247.005	118.439	-0.216	-0.265
-245.990	768.164	0.055	0.148
-244.976	-200.000	-0.006	0.282
-243.961	-9.247	-0.146	0.097
-242.946	-28.520	0.113	0.065
-241.932	23.247	0.278	0.227
-240.917	-126.154	0.080	0.012
-239.903	-88.315	-0.218	0.065
-238.888	-101.551	-0.173	-0.042
-237.873	800.000	-0.071	0.252
-236.859	-118.476	-0.085	0.015
-235.844	-166.101	-0.252	-0.011
-234.830	-79.262	0.242	-0.082
-233.815	166.112	-0.012	-0.017
-232.800	-200.000	0.172	0.000
-231.786	-200.000	0.012	-0.259
-230.771	-72.371	0.112	-0.041
-229.757	-200.000	-0.000	-0.176
-228.742	73.709	-0.031	-0.032
-227.727	-59.696	-0.168	-0.072
-226.713	800.000	0.032	-0.111
-225.698	-84.348	-0.153	0.048
-224.684	-113.061	-0.077	-0.015
-223.669	-72.134	0.248	-0.091
-222.655	204.429	-0.053	0.081
-221.640	-87.326	0.180	-0.054
-220.625	-200.000	-0.015	-0.221
-219.611	-111.958	0.246	-0.049
-218.596	162.047	-0.043	0.059
-217.582	-36.907	-0.067	0.036
-216.567	-179.225	-0.185	0.004
-215.552	-42.759	0.329	0.166
-214.538	-27.207	0.391	0.226
-213.523	-10.268	0.132	0.087
-212.509	257.428	0.137	-0.234
-211.494	15.613	-0.071	0.055
-210.479	626.360	-0.145	0.363
-209.465	58.820	0.020	0.020
-208.450	-145.844	0.113	-0.010
-207.436	110.436	0.215	-0.257
-206.421	-56.287	0.307	0.136
-205.406	-177.776	-0.253	-0.006
-204.392	192.707	-0.176	0.264
-203.377	-200.000	0.029	0.277
-202.363	-200.000	0.056	0.285
-201.348	-161.011	-0.183	0.010
-200.333	-54.914	-0.004	0.002
-199.319	-23.049	0.460	-0.275
-198.304	-120.193	0.152	0.026
-197.290	-200.000	-0.073	-0.489
-196.275	-200.000	-0.013	0.072
-195.260	-178.178	0.090	0.002
-194.246	-149.513	-0.054	-0.004
-193.231	-152.091	-0.262	0.019
-192.217	800.000	0.033	0.122
-191.202	-29.376	0.184	0.104
-190.187	19.494	-0.150	-0.119
-189.173	-200.000	-0.019	-0.090
-188.158	800.000	-0.054	-0.209
-187.144	800.000	0.051	0.162
-186.129	-13.594	0.101	0.065
-185.114	-200.000	0.036	0.234
-184.100	58.019	-0.182	0.177
-183.085	-200.000	0.046	0.490
-182.071	434.968	-0.230	0.496
-181.056	-39.738	0.211	0.110
-180.042	209.826	0.029	0.044
-179.027	-141.414	-0.478	0.048
-178.012	56.684	-0.101	0.097
-176.998	-15.489	0.100	-0.064
-175.983	-200.000	-0.013	-0.320
-174.969	-52.970	0.094	0.043
-173.954	-30.376	0.162	0.091
-172.939	-148.574	0.102	-0.008
-171.925	-200.000	-0.006	-0.369
-170.910	-185.554	-0.357	0.005
-169.896	131.179	0.236	-0.301
-168.881	-98.631	-0.309	-0.078
-167.866	311.107	0.151	0.281
-166.852	800.000	0.104	-0.395
-165.837	800.000	0.014	-0.055
-164.823	-46.645	-0.145	-0.070
-163.808	115.918	-0.058	-0.071
-162.793	-94.408	-0.189	-0.051
-161.779	173.888	0.232	0.332
-160.764	-35.826	-0.314	-0.169
-159.750	210.142	0.031	-0.048
-158.735	436.080	0.088	-0.190
-157.720	54.755	0.034	-0.033
-156.706	-84.384	-0.141	-0.044
-155.691	-129.702	-0.060	-0.008
-154.677	800.000	0.022	-0.074
-153.662	297.334	-0.113	-0.206
-152.647	-48.459	0.242	-0.116
-151.633	-9.812	0.222	-0.147
-150.618	-174.083	-0.221	0.006
-149.604	27.515	-0.203	0.169
-148.589	-135.038	0.277	0.033
-147.574	800.000	-0.117	0.357
-146.560	800.000	0.155	0.446
-145.545	477.122	-0.071	-0.160
-144.531	-160.100	0.193	0.010
-143.516	432.694	-0.111	0.239
-142.502	-58.886	-0.198	0.085
-141.487	-96.382	-0.277	-0.073
-140.472	78.381	-0.038	-0.041
-139.458	800.000	-0.082	-0.229
-138.443	-200.000	0.056	0.293
-137.429	203.239	0.119	-0.182
-136.414	-62.043	-0.248	0.103
-135.399	25.616	0.197	-0.162
-134.385	-200.000	0.017	0.145
-133.370	-145.834	0.097	0.009
-132.356	432.220	-0.083	0.178
-131.341	-200.000	0.050	-0.390
-130.326	15.473	-0.065	-0.051
-129.312	-146.949	0.177	0.015
-128.297	83.832	-0.084	0.090
-127.283	-101.696	0.331	0.079
-126.268	-129.860	0.052	0.007
-125.253	800.000	-0.037	-0.136
-124.239	-200.000	-0.010	-0.230
-123.224	89.528	0.065	0.072
-122.210	29.058	0.259	0.218
-121.195	32.188	-0.089	0.076
