DTS Sentinel unit serial number:	SN413079Multiplexer serial number:	ORYXHardware model number:	OX4-SRSoftware version number:	ORYX F/W v4.00 Oryx Data Collector v3.7.2.0data status	okinstallation	princeton_trtdifferential loss correction	single-endedforward channel	channel 4reverse channel	N/Adate	2019/09/11time	14:43:10forward acquisition time	60.00reverse acquisition time	0.00gamma	496.2192k internal	0.2279k external	0.2279temperature offset calibration	1.0007default loss term (dB/km)	0.3790temperature slope calibration	1.0000multiplexer offset coefficient	1.0000multiplexer slope coefficient	1.0000fibre end	0.00T internal ref (°C)	42.41T ext. ref 1 (°C)	0.91T ext. ref 2 (°C)	37.88length (m)	temperature (°C)	Stokes	anti-Stokes-747.200	167.427	0.264	0.386
-746.185	-200.000	-0.018	0.539
-745.171	100.667	0.170	0.203
-744.156	224.366	-0.283	0.470
-743.142	-82.240	0.263	0.088
-742.127	749.348	0.051	0.142
-741.112	-2.893	0.093	-0.067
-740.098	-200.000	0.008	0.240
-739.083	22.867	-0.323	-0.272
-738.069	800.000	0.028	0.081
-737.054	-54.476	0.083	-0.039
-736.039	-169.590	-0.213	-0.008
-735.025	-80.020	-0.495	0.171
-734.010	340.220	-0.185	-0.371
-732.996	229.078	0.061	0.102
-731.981	-141.776	-0.056	-0.006
-730.966	-165.861	0.104	-0.005
-729.952	-67.469	0.180	0.073
-728.937	800.000	-0.091	-0.367
-727.923	375.259	-0.108	-0.226
-726.908	800.000	-0.032	0.105
-725.894	-200.000	-0.001	-0.576
-724.879	783.018	0.115	-0.323
-723.864	-174.766	-0.306	0.009
-722.850	-200.000	-0.038	-0.343
-721.835	-200.000	-0.005	0.168
-720.821	123.388	-0.130	-0.168
-719.806	-200.000	-0.054	-0.262
-718.791	800.000	0.072	0.324
-717.777	800.000	-0.009	0.029
-716.762	-105.077	-0.231	0.054
-715.748	75.446	-0.197	-0.213
-714.733	458.984	-0.128	-0.293
-713.718	800.000	-0.034	0.129
-712.704	-122.943	0.018	-0.003
-711.689	38.489	0.016	0.015
-710.675	800.000	-0.042	0.121
-709.660	26.913	-0.098	0.085
-708.645	107.471	-0.055	-0.067
-707.631	-200.000	0.002	-0.204
-706.616	800.000	-0.063	-0.198
-705.602	800.000	0.071	0.286
-704.587	800.000	0.149	0.547
-703.572	-200.000	0.016	0.263
-702.558	-96.723	-0.203	0.055
-701.543	-169.375	-0.342	0.013
-700.529	800.000	0.037	0.131
-699.514	332.720	0.075	-0.148
-698.499	-200.000	0.003	0.018
-697.485	-194.006	-0.211	0.002
-696.470	-71.976	0.300	-0.115
-695.456	-200.000	-0.006	0.123
-694.441	-200.000	0.002	0.279
-693.426	133.158	0.157	0.208
-692.412	42.067	-0.073	0.068
-691.397	-118.366	-0.456	-0.083
-690.383	744.465	-0.016	-0.045
-689.368	-62.684	0.086	0.037
-688.354	19.350	-0.179	0.148
-687.339	-112.710	-0.075	-0.015
-686.324	-9.003	0.283	-0.195
-685.310	150.759	0.064	0.089
-684.295	-200.000	-0.074	0.517
-683.281	-25.125	-0.140	-0.085
-682.266	276.153	-0.019	0.035
-681.251	-132.346	0.362	0.048
-680.237	196.447	-0.119	0.186
-679.222	173.236	-0.145	0.215
-678.208	800.000	0.097	0.331
-677.193	32.525	-0.050	-0.044
-676.178	-197.591	-0.071	-0.000
-675.164	-141.441	-0.224	0.023
-674.149	142.636	-0.118	0.162
-673.135	290.514	0.115	-0.214
-672.120	-200.000	0.015	0.134
-671.105	253.818	0.191	-0.335
-670.091	-109.823	-0.113	-0.024
-669.076	-1.723	-0.135	-0.098
-668.062	-200.000	-0.040	0.250
-667.047	-179.903	-0.089	0.002
-666.032	-178.586	0.119	-0.003
-665.018	-127.725	-0.242	-0.036
-664.003	-200.000	-0.021	0.259
-662.989	134.862	-0.177	0.236
-661.974	800.000	0.081	0.311
-660.959	-136.817	0.448	-0.053
-659.945	234.701	0.118	0.199
-658.930	-42.579	-0.244	-0.127
-657.916	514.106	0.081	-0.195
-656.901	88.759	-0.208	-0.238
-655.886	74.892	-0.240	-0.259
-654.872	663.729	-0.061	-0.162
-653.857	-47.168	0.250	-0.125
-652.843	48.339	0.149	0.143
-651.828	-200.000	-0.029	0.242
-650.814	58.888	0.124	0.125
-649.799	-29.128	-0.425	-0.250
-648.784	-68.999	-0.190	-0.075
-647.770	800.000	-0.054	-0.215
-646.755	114.822	-0.161	0.201
-645.741	-95.195	0.242	-0.067
-644.726	153.497	0.085	-0.119
-643.711	78.266	0.276	0.302
-642.697	262.165	-0.020	-0.036
-641.682	162.308	-0.056	0.080
-640.668	-96.668	-0.144	-0.039
-639.653	4.751	-0.134	0.101
-638.638	40.258	0.122	-0.113
-637.624	-15.661	-0.329	-0.215
-636.609	310.826	0.175	-0.337
-635.595	-17.218	-0.293	-0.189
-634.580	800.000	-0.066	-0.192
-633.565	-159.354	0.139	-0.008
-632.551	-200.000	-0.022	0.105
-631.536	-108.518	-0.058	0.013
-630.522	-185.564	-0.106	0.002
-629.507	-33.823	-0.262	-0.148
-628.492	-138.180	-0.140	0.016
-627.478	-120.096	-0.188	-0.033
-626.463	-119.967	0.048	-0.008
-625.449	-165.848	0.215	-0.009
-624.434	-147.606	0.100	0.009
-623.419	105.477	-0.041	0.049
-622.405	-200.000	0.028	0.169
-621.390	-141.688	0.346	0.036
-620.376	-102.839	-0.291	0.071
-619.361	-200.000	-0.014	0.077
-618.346	-200.000	-0.009	0.317
-617.332	800.000	0.058	0.216
-616.317	800.000	-0.079	-0.344
-615.303	-200.000	0.010	0.142
-614.288	63.014	0.302	0.310
-613.273	-200.000	0.060	-0.358
-612.259	112.129	0.104	0.129
-611.244	-91.231	-0.117	-0.034
-610.230	2.963	-0.046	-0.034
-609.215	-76.062	-0.250	0.090
-608.201	184.813	0.076	0.115
-607.186	-98.612	-0.088	-0.023
-606.171	89.751	-0.082	0.094
-605.157	10.790	0.106	-0.082
-604.142	800.000	-0.060	-0.201
-603.128	73.877	-0.078	-0.084
-602.113	-186.062	0.294	-0.004
-601.098	591.584	-0.013	0.032
-600.084	-91.245	-0.038	0.011
-599.069	-0.825	-0.123	-0.089
-598.055	-200.000	-0.001	-0.146
-597.040	237.098	0.132	-0.224
-596.025	158.931	-0.252	0.359
-595.011	-40.050	-0.066	0.035
-593.996	-36.502	-0.195	-0.108
-592.982	190.436	0.112	-0.172
-591.967	800.000	-0.071	-0.264
-590.952	-97.660	0.119	0.032
-589.938	226.487	0.143	0.237
-588.923	-200.000	-0.061	-0.355
-587.909	-200.000	-0.020	0.241
-586.894	-174.736	0.348	0.010
-585.879	45.596	0.259	-0.245
-584.865	384.333	-0.081	-0.171
-583.850	-170.712	-0.328	0.012
-582.836	-200.000	0.020	-0.357
-581.821	800.000	0.029	0.088
-580.806	-12.211	0.424	-0.284
-579.792	-91.435	0.186	-0.054
-578.777	317.084	0.099	0.192
-577.763	-74.096	-0.305	-0.113
-576.748	-48.755	-0.155	0.076
-575.733	-89.956	-0.094	-0.028
-574.719	120.381	0.121	0.154
-573.704	655.822	0.137	-0.359
-572.690	-158.146	-0.168	0.010
-571.675	-85.189	0.104	0.033
-570.661	-9.166	0.203	0.139
-569.646	-61.242	-0.337	-0.145
-568.631	157.501	0.190	0.269
-567.617	-47.695	0.097	-0.048
-566.602	-200.000	-0.023	0.329
-565.588	-57.587	-0.089	-0.040
-564.573	-87.226	0.462	-0.143
-563.558	39.700	0.182	-0.167
-562.544	44.513	0.046	-0.043
-561.529	117.122	-0.194	0.244
-560.515	-63.804	-0.433	0.181
-559.500	260.599	-0.076	-0.134
-558.485	-141.796	-0.252	-0.026
-557.471	-5.975	0.164	0.114
-556.456	273.312	-0.053	0.097
-555.442	29.289	-0.119	-0.103
-554.427	43.548	0.194	-0.181
-553.412	-31.894	-0.026	-0.015
-552.398	134.328	0.132	0.175
-551.383	189.133	-0.098	0.151
-550.369	-173.063	0.104	-0.003
-549.354	618.103	-0.049	-0.126
-548.339	339.038	-0.105	0.209
-547.325	-121.604	-0.083	0.014
-546.310	119.110	-0.104	0.131
-545.296	-84.819	0.087	-0.028
-544.281	800.000	-0.043	0.135
-543.266	119.595	-0.072	-0.091
-542.252	-200.000	0.014	0.134
-541.237	148.647	0.183	0.253
-540.223	-76.981	-0.170	-0.061
-539.208	-200.000	0.005	-0.153
-538.193	439.583	0.111	-0.249
-537.179	386.779	-0.139	0.294
-536.164	470.737	-0.047	0.108
-535.150	40.002	0.118	0.108
-534.135	-25.996	0.057	-0.034
-533.121	800.000	0.099	-0.353
-532.106	800.000	-0.034	-0.137
-531.091	-136.689	0.278	-0.033
-530.077	505.621	-0.058	0.138
-529.062	-60.724	0.263	-0.114
-528.048	75.135	0.135	0.145
-527.033	163.424	-0.179	0.257
-526.018	800.000	-0.112	0.326
-525.004	14.956	-0.132	0.106
-523.989	-188.680	0.165	0.002
-522.975	37.975	0.151	-0.137
-521.960	800.000	-0.074	-0.251
-520.945	800.000	0.025	-0.091
-519.931	382.298	-0.029	0.060
-518.916	26.038	-0.066	0.056
-517.902	80.416	-0.311	-0.342
-516.887	102.951	0.220	-0.263
-515.872	-19.939	0.159	0.100
-514.858	-185.734	0.117	0.002
-513.843	6.799	0.565	0.429
-512.829	-62.133	-0.079	-0.033
-511.814	527.886	0.152	0.366
-510.799	-200.000	-0.039	0.283
-509.785	132.935	-0.147	-0.193
-508.770	82.815	-0.176	0.196
-507.756	11.783	-0.220	0.172
-506.741	-88.498	-0.034	-0.010
-505.726	-200.000	0.082	0.450
-504.712	14.165	-0.144	0.115
-503.697	52.972	-0.158	-0.154
-502.683	-44.363	-0.094	0.048
-501.668	47.577	0.154	0.146
-500.653	-17.224	-0.078	-0.050
-499.639	37.950	-0.206	-0.186
-498.624	-200.000	0.011	0.173
-497.610	-133.430	-0.423	-0.054
-496.595	800.000	-0.053	-0.221
-495.581	318.164	-0.093	0.180
-494.566	-169.005	-0.046	-0.002
-493.551	-200.000	-0.057	0.386
-492.537	-200.000	0.030	0.424
-491.522	-200.000	0.061	0.280
-490.508	-100.805	-0.162	0.041
-489.493	-194.450	0.182	-0.001
-488.478	338.041	-0.039	-0.078
-487.464	800.000	-0.053	-0.212
-486.449	-30.440	-0.098	-0.057
-485.435	-46.315	0.181	-0.090
-484.420	-121.824	0.420	-0.071
-483.405	240.521	-0.057	0.097
-482.391	24.533	-0.083	0.070
-481.376	-200.000	0.015	0.200
-480.362	-130.935	-0.329	0.045
-479.347	-65.812	-0.398	0.162
-478.332	-200.000	-0.040	0.215
-477.318	-67.699	0.113	-0.045
-476.303	148.774	-0.083	-0.114
-475.289	-200.000	0.057	-0.365
-474.274	-109.606	-0.161	0.035
-473.259	-200.000	-0.028	0.259
-472.245	125.317	0.125	0.160
-471.230	-101.510	0.504	0.125
-470.216	708.087	0.062	-0.167
-469.201	-110.651	0.326	0.069
-468.186	742.105	-0.038	-0.104
-467.172	172.619	-0.059	0.086
-466.157	-200.000	-0.012	-0.155
-465.143	-78.871	-0.288	-0.100
-464.128	46.766	0.250	-0.236
-463.113	-28.276	-0.183	0.107
-462.099	-6.100	-0.102	0.071
-461.084	34.703	0.161	-0.143
-460.070	77.729	0.050	-0.054
-459.055	-125.950	-0.367	0.056
-458.040	-143.172	0.582	0.057
-457.026	151.380	-0.119	0.165
-456.011	800.000	-0.076	0.236
-454.997	329.860	0.077	-0.152
-453.982	800.000	-0.091	-0.405
-452.968	-200.000	-0.012	0.258
-451.953	-45.195	-0.145	-0.073
-450.938	-152.425	0.304	0.022
-449.924	-133.668	0.015	-0.002
-448.909	10.927	0.396	0.308
-447.895	-96.318	0.075	0.020
-446.880	-91.559	-0.417	-0.121
-445.865	-114.639	-0.172	-0.034
-444.851	-29.086	-0.374	-0.218
-443.836	363.787	-0.182	-0.371
-442.822	365.455	-0.159	-0.326
-441.807	1.291	-0.275	-0.201
-440.792	-150.697	-0.128	-0.010
-439.778	-200.000	-0.005	-0.154
-438.763	-73.082	0.194	0.072
-437.749	-200.000	-0.008	-0.042
-436.734	-200.000	-0.014	-0.140
-435.719	175.316	-0.062	0.091
-434.705	-200.000	-0.082	-0.434
-433.690	60.326	-0.106	0.106
-432.676	800.000	-0.060	0.191
-431.661	-200.000	0.000	0.151
-430.646	-200.000	-0.018	-0.167
-429.632	-200.000	-0.023	-0.209
-428.617	-200.000	0.044	0.201
-427.603	800.000	-0.049	-0.148
-426.588	-26.036	0.115	0.069
-425.573	-44.502	-0.368	-0.187
-424.559	335.622	0.159	-0.313
-423.544	-88.176	0.159	-0.048
-422.530	-84.648	0.184	-0.059
-421.515	-122.523	0.150	-0.025
-420.500	72.988	-0.177	0.188
-419.486	-45.661	-0.163	-0.082
-418.471	-61.375	-0.116	0.049
-417.457	-200.000	0.049	0.493
-416.442	-200.000	0.040	0.350
-415.428	-200.000	-0.062	0.291
-414.413	81.722	-0.130	0.143
-413.398	800.000	0.063	0.231
-412.384	148.938	0.107	0.147
-411.369	118.584	-0.085	0.107
-410.355	-200.000	-0.015	0.070
-409.340	-164.299	0.089	0.004
-408.325	-200.000	0.030	0.227
-407.311	-152.315	-0.311	-0.023
-406.296	-126.273	-0.441	0.067
-405.282	-123.428	0.257	0.042
-404.267	-121.792	0.051	-0.009
-403.252	-175.191	0.222	0.006
-402.238	-164.747	-0.304	-0.014
-401.223	89.671	0.103	0.117
-400.209	80.836	0.255	-0.279
-399.194	69.960	0.098	-0.103
-398.179	-13.757	-0.419	-0.276
-397.165	-41.882	0.027	-0.014
-396.150	-200.000	-0.004	-0.324
-395.136	-76.352	-0.079	0.028
-394.121	-46.511	-0.162	-0.081
-393.106	-113.455	-0.086	0.017
-392.092	-3.262	0.110	0.078
-391.077	404.588	0.140	0.300
-390.063	456.588	0.064	-0.144
-389.048	-97.764	0.199	-0.052
-388.033	-155.951	0.218	-0.014
-387.019	-117.682	-0.195	0.036
-386.004	-130.381	0.357	-0.049
-384.990	280.222	-0.103	-0.187
-383.975	-6.194	-0.138	-0.096
-382.960	-200.000	0.007	0.185
-381.946	109.039	0.182	-0.220
-380.931	125.181	-0.065	0.084
-379.917	-64.820	0.188	0.077
-378.902	-5.434	0.234	0.163
-377.888	31.658	0.182	-0.158
-376.873	177.490	0.144	0.213
-375.858	-200.000	0.022	-0.224
-374.844	53.516	-0.147	0.143
-373.829	-74.527	-0.179	-0.066
-372.815	-118.304	0.211	-0.038
-371.800	-95.309	0.221	-0.060
-370.785	-153.954	-0.180	-0.012
-369.771	-16.469	-0.088	-0.057
-368.756	-2.666	-0.232	-0.165
-367.742	-200.000	0.008	0.053
-366.727	-200.000	0.002	-0.298
-365.712	800.000	-0.057	-0.245
-364.698	74.337	0.077	0.082
-363.683	-106.725	0.235	-0.053
-362.669	-2.137	0.200	-0.143
-361.654	-56.147	-0.214	0.096
-360.639	800.000	-0.054	0.223
-359.625	11.273	-0.167	-0.129
-358.610	95.368	-0.132	-0.153
-357.596	-168.108	-0.349	-0.014
-356.581	-173.122	0.229	0.007
-355.566	-200.000	0.048	0.312
-354.552	800.000	0.068	0.198
-353.537	-148.080	-0.055	-0.005
-352.523	-86.972	-0.455	-0.141
-351.508	-200.000	0.007	-0.216
-350.493	341.432	0.182	-0.361
-349.479	83.369	0.182	-0.201
-348.464	-56.104	0.076	0.034
-347.450	308.853	-0.065	0.124
-346.435	-186.272	-0.304	0.004
-345.420	-149.078	0.051	0.004
-344.406	-104.492	-0.200	0.047
-343.391	800.000	-0.021	-0.086
-342.377	-127.913	0.058	-0.008
-341.362	-94.677	-0.228	-0.063
-340.348	-200.000	-0.022	0.356
-339.333	-51.949	-0.051	-0.024
-338.318	91.482	0.238	0.270
-337.304	800.000	0.100	0.337
-336.289	-50.547	-0.023	-0.011
-335.275	16.301	0.152	0.121
-334.260	-200.000	0.016	0.179
-333.245	-200.000	-0.001	-0.060
-332.231	157.472	0.270	-0.379
-331.216	-68.919	0.253	-0.099
-330.202	-200.000	-0.011	0.068
-329.187	269.328	-0.074	-0.132
-328.172	-200.000	-0.050	-0.253
-327.158	-81.950	-0.047	0.016
-326.143	800.000	0.061	-0.204
-325.129	32.289	0.224	0.196
-324.114	-121.638	0.181	-0.030
-323.099	37.169	0.018	0.017
-322.085	-44.073	0.219	0.111
-321.070	-10.415	0.183	-0.123
-320.056	387.017	0.096	-0.200
-319.041	-200.000	-0.017	-0.094
-318.026	179.819	-0.162	0.240
-317.012	800.000	0.021	-0.080
-315.997	36.834	0.347	-0.310
-314.983	-200.000	-0.020	-0.139
-313.968	800.000	-0.119	0.339
-312.953	800.000	0.041	-0.147
-311.939	-52.813	0.290	-0.135
-310.924	191.230	0.260	0.396
-309.910	-52.351	-0.175	0.082
-308.895	22.162	-0.250	0.207
-307.880	-200.000	-0.008	-0.131
-306.866	-72.255	-0.194	-0.073
-305.851	-200.000	-0.031	-0.297
-304.837	230.038	0.289	-0.478
-303.822	-93.549	-0.278	-0.078
-302.807	446.344	-0.071	0.158
-301.793	800.000	-0.044	0.146
-300.778	-109.933	0.297	0.063
-299.764	44.776	0.291	0.270
-298.749	-106.091	0.223	0.051
-297.735	25.981	-0.290	0.245
-296.720	436.959	0.106	-0.233
-295.705	-12.821	0.056	-0.037
-294.691	-200.000	-0.016	-0.175
-293.676	-139.605	-0.229	0.025
-292.662	14.246	0.182	-0.144
-291.647	-200.000	-0.028	0.171
-290.632	-200.000	0.080	-0.474
-289.618	-200.000	-0.086	-0.384
-288.603	245.720	0.068	-0.116
-287.589	-73.431	-0.235	-0.087
-286.574	198.926	0.178	0.275
-285.559	293.011	-0.215	-0.396
-284.545	-200.000	-0.016	0.322
-283.530	-14.272	0.361	0.235
-282.516	-49.653	-0.066	0.032
-281.501	-97.975	-0.360	-0.094
-280.486	223.847	-0.026	0.043
-279.472	-1.111	-0.245	0.175
-278.457	-64.021	-0.189	0.078
-277.443	-94.010	0.112	0.031
-276.428	43.694	-0.059	-0.055
-275.413	800.000	-0.079	-0.236
-274.399	800.000	-0.093	-0.371
-273.384	-200.000	0.064	-0.377
-272.370	13.629	-0.256	0.201
-271.355	199.173	0.116	-0.180
-270.340	-200.000	0.010	0.287
-269.326	-200.000	-0.010	0.104
-268.311	-66.665	-0.348	0.139
-267.297	122.454	0.093	0.118
-266.282	800.000	-0.045	0.165
-265.267	-200.000	-0.031	0.194
-264.253	89.806	-0.040	-0.046
-263.238	-94.889	0.074	0.020
-262.224	800.000	0.033	0.134
-261.209	-200.000	-0.008	-0.173
-260.195	170.087	-0.202	0.292
-259.180	-200.000	0.012	0.068
-258.165	-131.793	-0.194	0.026
-257.151	-88.036	0.250	-0.076
-256.136	284.986	0.099	-0.181
-255.122	-36.855	0.207	0.112
-254.107	-200.000	-0.032	0.154
-253.092	327.749	0.246	0.477
-252.078	221.327	-0.120	-0.195
-251.063	8.084	-0.054	0.041
-250.049	800.000	-0.083	0.234
-249.034	-50.633	0.448	-0.213
-248.019	-167.856	0.242	0.010
-247.005	-73.666	0.201	-0.074
-245.990	-42.692	0.186	0.096
-244.976	128.817	-0.194	-0.250
-243.961	-200.000	0.042	0.242
-242.946	-86.018	0.211	-0.066
-241.932	-81.689	0.134	-0.044
-240.917	-200.000	-0.063	0.359
-239.903	408.043	-0.037	-0.080
-238.888	-103.155	0.114	-0.027
-237.873	-25.361	0.222	-0.132
-236.859	-53.528	0.131	0.061
-235.844	32.280	-0.309	0.269
-234.830	-200.000	-0.011	0.157
-233.815	-50.257	0.187	-0.089
-232.800	256.832	0.266	-0.460
-231.786	-200.000	-0.033	-0.277
-230.771	800.000	0.013	-0.048
-229.757	-112.296	-0.245	0.050
-228.742	371.984	0.069	0.142
-227.727	-60.366	0.344	-0.147
-226.713	90.232	-0.203	0.229
-225.698	-200.000	-0.025	-0.176
-224.684	-132.232	0.203	0.027
-223.669	24.615	0.126	-0.105
-222.655	-134.934	0.129	-0.016
-221.640	-73.029	0.222	0.082
-220.625	-22.151	-0.197	0.121
-219.611	32.949	-0.404	-0.353
-218.596	-200.000	-0.002	0.251
-217.582	29.909	0.104	0.089
-216.567	759.523	0.126	0.344
-215.552	800.000	-0.027	0.118
-214.538	-51.615	0.254	0.120
-213.523	-74.468	0.070	0.026
-212.509	-190.321	-0.119	-0.001
-211.494	-200.000	-0.033	0.155
-210.479	-182.165	-0.430	-0.008
-209.465	192.699	-0.242	0.369
-208.450	800.000	-0.037	0.125
-207.436	-39.122	0.089	-0.047
-206.421	-200.000	0.005	0.096
-205.406	-33.797	0.248	-0.138
-204.392	-200.000	-0.015	-0.097
-203.377	-83.118	-0.060	-0.020
-202.363	92.772	-0.127	0.145
-201.348	782.200	-0.078	0.216
-200.333	338.161	0.063	-0.123
-199.319	-63.177	0.377	0.157
-198.304	-200.000	-0.069	0.570
-197.290	133.351	-0.104	0.136
-196.275	-127.532	-0.167	-0.024
-195.260	-101.456	0.165	0.040
-194.246	395.366	-0.126	-0.266
-193.231	-200.000	0.013	-0.298
-192.217	76.588	0.132	-0.141
-191.202	35.933	0.224	0.198
-190.187	-160.127	-0.368	-0.020
-189.173	98.379	-0.121	-0.140
-188.158	234.251	0.125	0.207
-187.144	-200.000	-0.003	0.254
-186.129	-16.438	0.151	-0.096
-185.114	-13.500	0.154	-0.101
-184.100	800.000	0.022	-0.069
-183.085	800.000	-0.113	-0.353
-182.071	800.000	0.121	-0.460
-181.056	-75.394	-0.056	-0.020
-180.042	23.929	0.270	0.224
-179.027	-122.565	-0.179	0.029
-178.012	245.769	-0.162	-0.274
-176.998	122.669	-0.035	-0.044
-175.983	333.103	0.075	0.145
-174.969	453.659	-0.037	0.084
-173.954	-200.000	0.046	0.230
-172.939	-200.000	0.023	-0.196
-171.925	800.000	-0.027	0.092
-170.910	-19.051	0.134	-0.084
-169.896	-110.151	0.071	-0.015
-168.881	128.814	0.082	-0.105
-167.866	89.908	0.026	0.029
-166.852	137.339	-0.350	0.460
-165.837	-76.877	-0.282	0.099
-164.823	238.134	0.294	-0.491
-163.808	-87.559	0.255	-0.078
-162.793	394.810	-0.086	-0.181
-161.779	386.449	0.129	-0.267
-160.764	-2.922	-0.402	0.283
-159.750	13.245	-0.107	-0.084
-158.735	-29.934	0.111	0.063
-157.720	-144.596	0.182	-0.017
-156.706	289.010	0.098	0.178
-155.691	-200.000	-0.052	-0.284
-154.677	-114.075	-0.309	-0.060
-153.662	516.613	-0.060	-0.140
-152.647	800.000	0.057	-0.191
-151.633	69.623	0.016	0.016
-150.618	800.000	-0.046	0.143
-149.604	-43.183	0.195	-0.099
-148.589	-200.000	-0.047	0.212
-147.574	83.863	-0.192	-0.210
-146.560	-154.636	0.312	-0.021
-145.545	800.000	0.082	0.241
-144.531	-144.601	-0.086	-0.008
-143.516	-109.806	-0.285	-0.060
-142.502	-43.751	0.600	0.304
-141.487	-56.976	0.160	0.071
-140.472	476.279	0.093	0.212
-139.458	-132.139	0.023	-0.003
-138.443	-145.786	-0.203	0.018
-137.429	-170.631	-0.085	-0.003
-136.414	-200.000	0.034	0.216
-135.399	160.612	-0.142	0.199
-134.385	747.306	-0.032	-0.085
-133.370	800.000	-0.034	0.102
-132.356	665.017	-0.083	0.216
-131.341	624.272	-0.147	0.373
-130.326	-200.000	0.016	0.089
-129.312	-93.462	-0.196	0.055
-128.297	-156.150	0.080	-0.005
-127.283	-152.557	0.346	-0.025
-126.268	87.465	-0.185	0.206
-125.253	-200.000	-0.006	0.146
-124.239	-200.000	0.017	0.183
-123.224	800.000	0.050	-0.166
