DTS Sentinel unit serial number:	SN413079Multiplexer serial number:	ORYXHardware model number:	OX4-SRSoftware version number:	ORYX F/W v4.00 Oryx Data Collector v3.7.2.0data status	okinstallation	princeton_trtdifferential loss correction	single-endedforward channel	channel 4reverse channel	N/Adate	2019/09/13time	02:45:35forward acquisition time	60.00reverse acquisition time	0.00gamma	496.2192k internal	0.2320k external	0.2320temperature offset calibration	1.0193default loss term (dB/km)	0.3790temperature slope calibration	1.0000multiplexer offset coefficient	1.0000multiplexer slope coefficient	1.0000fibre end	0.00T internal ref (°C)	27.44T ext. ref 1 (°C)	4.01T ext. ref 2 (°C)	22.24length (m)	temperature (°C)	Stokes	anti-Stokes-747.200	-18.918	0.096	-0.061
-746.185	270.411	0.242	0.431
-745.171	-22.039	0.380	0.234
-744.156	68.342	-0.392	0.406
-743.142	-92.978	-0.144	-0.041
-742.127	106.927	-0.083	-0.099
-741.112	58.339	-0.148	-0.146
-740.098	-135.526	-0.097	0.012
-739.083	800.000	0.056	0.234
-738.069	110.919	-0.187	0.228
-737.054	15.646	0.241	0.192
-736.039	-13.149	-0.035	0.023
-735.025	-115.353	0.133	-0.025
-734.010	-200.000	0.021	-0.201
-732.996	20.372	0.073	-0.059
-731.981	444.290	-0.098	0.217
-730.966	-86.297	0.109	0.034
-729.952	-75.750	-0.086	-0.031
-728.937	-75.859	0.321	0.115
-727.923	-200.000	0.010	0.062
-726.908	-116.552	-0.448	0.084
-725.894	-200.000	0.003	0.419
-724.879	200.518	0.074	0.115
-723.864	-200.000	0.063	-0.388
-722.850	-47.770	-0.247	0.121
-721.835	-69.691	0.205	0.079
-720.821	30.413	-0.305	-0.264
-719.806	92.889	0.253	-0.288
-718.791	800.000	-0.114	-0.318
-717.777	-90.555	-0.142	-0.042
-716.762	-53.819	-0.386	0.178
-715.748	2.046	0.204	-0.149
-714.733	-200.000	-0.043	-0.249
-713.718	28.176	-0.170	0.145
-712.704	48.313	0.178	-0.168
-711.689	-118.068	-0.320	0.058
-710.675	-87.848	-0.146	0.045
-709.660	-74.316	0.077	-0.028
-708.645	-112.002	-0.135	0.027
-707.631	172.829	-0.169	0.246
-706.616	-80.257	0.084	-0.028
-705.602	-200.000	0.009	-0.124
-704.587	27.551	0.109	-0.093
-703.572	43.966	0.179	-0.165
-702.558	-29.790	-0.105	-0.060
-701.543	800.000	0.032	0.117
-700.529	9.784	0.168	-0.129
-699.514	800.000	-0.042	0.186
-698.499	-83.079	0.072	0.023
-697.485	134.571	0.327	0.428
-696.470	182.313	-0.226	0.337
-695.456	474.550	0.040	-0.092
-694.441	227.818	0.129	0.212
-693.426	-26.626	0.096	0.057
-692.412	-66.919	0.223	-0.089
-691.397	-200.000	-0.046	-0.224
-690.383	-200.000	0.002	-0.365
-689.368	145.298	-0.139	-0.188
-688.354	800.000	-0.068	-0.253
-687.339	45.160	0.159	-0.148
-686.324	-66.162	0.130	0.052
-685.310	342.458	0.153	0.303
-684.295	-159.384	0.193	-0.011
-683.281	301.043	0.040	-0.075
-682.266	325.006	0.114	-0.219
-681.251	-67.815	0.337	0.133
-680.237	-200.000	0.020	0.411
-679.222	-200.000	-0.004	-0.107
-678.208	39.151	0.090	-0.082
-677.193	800.000	-0.098	-0.278
-676.178	37.500	0.271	0.243
-675.164	102.880	-0.066	-0.078
-674.149	34.286	-0.262	0.231
-673.135	-90.941	-0.119	0.035
-672.120	172.597	-0.323	-0.468
-671.105	-99.479	0.076	0.019
-670.091	-150.279	0.249	-0.019
-669.076	-132.544	0.031	0.004
-668.062	84.145	0.066	-0.073
-667.047	-68.085	-0.154	-0.061
-666.032	-200.000	-0.023	0.224
-665.018	-79.830	0.059	-0.020
-664.003	-47.736	-0.458	0.224
-662.989	-91.084	0.398	0.115
-661.974	139.287	-0.163	0.217
-660.959	-18.181	-0.145	-0.091
-659.945	160.099	0.143	-0.201
-658.930	525.360	-0.163	0.386
-657.916	25.408	-0.392	0.329
-656.901	287.926	0.154	0.281
-655.886	80.118	0.062	0.067
-654.872	-200.000	0.025	0.186
-653.857	-47.458	-0.163	0.080
-652.843	-200.000	0.064	0.478
-651.828	800.000	-0.037	-0.116
-650.814	185.557	-0.039	-0.059
-649.799	-109.188	-0.164	0.035
-648.784	-200.000	0.004	-0.329
-647.770	403.615	-0.058	-0.122
-646.755	-130.867	-0.064	-0.009
-645.741	124.590	0.173	-0.220
-644.726	-140.380	0.106	0.011
-643.711	-62.668	-0.177	0.074
-642.697	337.704	-0.133	-0.261
-641.682	-137.062	0.177	0.020
-640.668	635.707	-0.126	-0.322
-639.653	-200.000	-0.012	0.348
-638.638	21.589	-0.185	0.151
-637.624	-48.054	-0.315	0.153
-636.609	-20.657	-0.212	-0.131
-635.595	-118.788	-0.377	0.067
-634.580	102.026	-0.133	0.156
-633.565	-51.237	-0.182	-0.086
-632.551	160.225	0.163	-0.229
-631.536	98.012	0.144	-0.167
-630.522	-46.068	0.482	-0.239
-629.507	11.965	0.162	0.125
-628.492	-200.000	-0.003	0.091
-627.478	-114.254	0.253	0.049
-626.463	514.414	-0.026	0.062
-625.449	-13.270	-0.241	-0.158
-624.434	151.944	0.238	-0.327
-623.419	734.644	-0.071	0.191
-622.405	250.078	0.089	0.152
-621.390	121.442	0.205	0.257
-620.376	90.914	-0.138	0.156
-619.361	-16.472	0.209	0.133
-618.346	241.958	-0.071	0.119
-617.332	-38.895	-0.217	-0.115
-616.317	-200.000	-0.005	-0.202
-615.303	-93.434	0.294	0.082
-614.288	669.737	0.066	-0.172
-613.273	-200.000	0.009	-0.178
-612.259	-116.503	0.101	0.019
-611.244	-200.000	-0.076	0.598
-610.230	-78.213	-0.147	0.051
-609.215	-130.820	0.261	0.035
-608.201	152.508	-0.137	-0.188
-607.186	800.000	-0.042	0.153
-606.171	-200.000	-0.018	-0.234
-605.157	-128.518	-0.187	0.027
-604.142	81.991	-0.158	0.173
-603.128	766.232	-0.057	0.157
-602.113	213.291	-0.200	-0.318
-601.098	-40.677	-0.258	-0.135
-600.084	246.221	-0.064	-0.108
-599.069	-200.000	0.023	-0.304
-598.055	68.720	-0.162	0.167
-597.040	-38.722	-0.189	0.100
-596.025	-53.597	-0.393	-0.181
-595.011	800.000	0.068	-0.257
-593.996	-11.835	-0.160	-0.106
-592.982	-125.074	0.098	0.015
-591.967	-162.274	-0.544	0.027
-590.952	-20.194	-0.188	-0.117
-589.938	-48.591	-0.320	-0.155
-588.923	-67.492	-0.025	0.010
-587.909	-48.457	0.338	0.163
-586.894	-70.802	-0.131	0.050
-585.879	-200.000	0.013	0.182
-584.865	312.416	0.135	0.255
-583.850	-14.051	-0.104	-0.068
-582.836	85.969	-0.107	-0.119
-581.821	-161.279	0.131	0.007
-580.806	800.000	0.041	0.129
-579.792	-26.408	-0.333	-0.196
-578.777	-136.937	0.348	0.040
-577.763	-200.000	-0.006	0.070
-576.748	-113.801	0.222	-0.043
-575.733	-199.350	0.113	-0.001
-574.719	-25.074	-0.098	-0.058
-573.704	-145.168	-0.348	-0.032
-572.690	-200.000	-0.052	0.000
-571.675	-59.469	0.136	0.059
-570.661	153.966	-0.186	0.256
-569.646	-110.731	0.188	0.039
-568.631	-45.204	0.430	0.214
-567.617	-200.000	0.039	-0.238
-566.602	-75.073	-0.243	-0.087
-565.588	800.000	0.033	0.091
-564.573	-90.818	0.124	-0.036
-563.558	-200.000	-0.024	0.151
-562.544	181.255	0.046	0.069
-561.529	-73.923	0.207	-0.076
-560.515	-200.000	-0.030	0.252
-559.500	5.686	-0.237	-0.176
-558.485	-80.826	0.212	0.071
-557.471	-82.211	-0.174	-0.057
-556.456	46.469	0.232	-0.216
-555.442	-0.960	-0.290	0.206
-554.427	-74.048	0.257	0.094
-553.412	-50.959	-0.303	0.143
-552.398	-51.429	-0.163	-0.076
-551.383	-53.789	-0.155	-0.071
-550.369	124.855	-0.098	-0.123
-549.354	800.000	-0.055	-0.180
-548.339	67.973	-0.120	-0.124
-547.325	-159.781	-0.013	0.001
-546.310	-200.000	-0.007	0.158
-545.296	-110.899	-0.263	0.054
-544.281	469.842	-0.062	0.140
-543.266	120.907	0.125	-0.157
-542.252	-88.706	-0.293	0.088
-541.237	449.802	0.052	-0.115
-540.223	-200.000	0.033	-0.157
-539.208	800.000	-0.108	0.351
-538.193	-200.000	-0.260	0.001
-537.179	180.056	-0.040	-0.058
-536.164	-50.560	-0.397	-0.188
-535.150	800.000	0.205	-0.678
-534.135	-3.482	0.039	0.027
-533.121	-71.097	0.072	-0.027
-532.106	0.061	0.273	-0.195
-531.091	438.994	0.022	-0.048
-530.077	-142.163	0.338	-0.034
-529.062	800.000	0.019	-0.061
-528.048	-86.204	0.233	-0.072
-527.033	800.000	0.077	0.330
-526.018	-200.000	0.015	-0.115
-525.004	-70.972	-0.278	-0.105
-523.989	-200.000	-0.011	0.488
-522.975	253.388	-0.097	0.166
-521.960	-200.000	0.023	-0.220
-520.945	-82.530	0.154	0.050
-519.931	131.943	0.069	-0.089
-518.916	616.107	-0.050	-0.125
-517.902	-127.654	0.232	-0.034
-516.887	-63.709	-0.131	-0.054
-515.872	800.000	-0.029	-0.082
-514.858	87.469	0.123	0.137
-513.843	800.000	0.120	-0.447
-512.829	-124.778	0.232	-0.036
-511.814	-98.459	-0.131	0.034
-510.799	190.183	-0.159	-0.240
-509.785	-126.927	0.194	0.029
-508.770	-175.319	0.194	-0.005
-507.756	-200.000	-0.013	0.200
-506.741	-149.895	0.424	-0.033
-505.726	222.812	-0.133	0.215
-504.712	114.518	-0.071	-0.087
-503.697	23.418	-0.061	-0.050
-502.683	117.853	-0.175	0.216
-501.668	-24.133	-0.122	-0.073
-500.653	-62.008	-0.181	-0.076
-499.639	800.000	-0.068	0.207
-498.624	-109.478	0.162	-0.034
-497.610	27.708	0.225	0.190
-496.595	36.215	-0.145	0.128
-495.581	3.994	-0.242	-0.177
-494.566	-200.000	0.026	0.355
-493.551	73.078	-0.122	0.128
-492.537	-56.705	-0.366	0.162
-491.522	-200.000	0.035	0.163
-490.508	-200.000	0.045	-0.211
-489.493	8.209	0.225	-0.169
-488.478	191.642	0.205	0.310
-487.464	-200.000	0.275	-0.001
-486.449	800.000	0.103	-0.429
-485.435	15.342	-0.148	0.116
-484.420	-142.211	0.259	-0.026
-483.405	800.000	0.024	0.077
-482.391	-140.835	-0.188	0.019
-481.376	800.000	0.041	-0.133
-480.362	206.732	-0.020	0.031
-479.347	-177.713	-0.396	-0.010
-478.332	-123.935	0.257	0.040
-477.318	120.025	-0.106	0.132
-476.303	136.821	0.150	-0.196
-475.289	12.283	0.202	-0.156
-474.274	800.000	-0.136	-0.593
-473.259	800.000	0.022	0.073
-472.245	-48.593	0.334	0.161
-471.230	-118.840	-0.410	-0.072
-470.216	-90.481	0.411	-0.119
-469.201	97.299	0.256	-0.294
-468.186	-93.957	-0.217	-0.060
-467.172	96.972	0.042	0.048
-466.157	547.512	-0.132	-0.316
-465.143	-150.636	-0.193	0.015
-464.128	-21.131	-0.118	-0.072
-463.113	-200.000	0.055	-0.271
-462.099	563.627	-0.065	-0.158
-461.084	-71.192	0.555	0.208
-460.070	-200.000	0.027	-0.232
-459.055	433.399	-0.095	0.206
-458.040	-30.919	0.391	-0.221
-457.026	-113.260	-0.423	-0.083
-456.011	-200.000	0.001	0.155
-454.997	-84.875	0.165	-0.052
-453.982	-119.199	-0.258	0.045
-452.968	800.000	-0.074	-0.228
-451.953	206.140	0.063	-0.099
-450.938	800.000	-0.057	0.248
-449.924	109.316	0.193	-0.231
-448.909	-90.405	-0.018	-0.005
-447.895	-60.260	0.101	-0.043
-446.880	-140.266	0.550	0.058
-445.865	144.235	-0.222	0.296
-444.851	-99.231	-0.126	0.032
-443.836	325.009	0.077	0.146
-442.822	800.000	0.077	0.334
-441.807	-200.000	0.005	0.032
-440.792	-52.339	0.174	0.081
-439.778	-119.803	0.280	0.048
-438.763	-66.909	-0.299	0.118
-437.749	134.498	0.159	-0.206
-436.734	-78.454	-0.051	0.018
-435.719	-122.889	-0.174	0.028
-434.705	800.000	0.097	-0.279
-433.690	143.985	0.139	0.186
-432.676	87.411	-0.085	0.094
-431.661	-200.000	0.005	-0.087
-430.646	800.000	0.089	0.389
-429.632	14.786	-0.126	0.098
-428.617	102.199	-0.074	-0.087
-427.603	-62.402	0.228	0.095
-426.588	800.000	-0.205	-0.627
-425.573	800.000	-0.037	-0.133
-424.559	18.905	-0.177	0.142
-423.544	800.000	-0.114	0.391
-422.530	-75.393	-0.394	-0.140
-421.515	-142.874	-0.180	0.017
-420.500	-200.000	0.303	-0.001
-419.486	226.572	-0.085	0.138
-418.471	-108.610	0.215	0.046
-417.457	54.203	-0.144	0.138
-416.442	-200.000	0.032	0.206
-415.428	-99.726	-0.157	0.039
-414.413	459.204	-0.072	-0.160
-413.398	8.847	0.008	0.006
-412.384	256.264	0.216	-0.369
-411.369	800.000	-0.061	0.236
-410.355	-7.255	0.422	0.286
-409.340	360.093	0.149	0.299
-408.325	-74.857	-0.184	0.066
-407.311	-200.000	-0.005	-0.232
-406.296	716.395	-0.100	0.266
-405.282	800.000	0.115	0.441
-404.267	-200.000	-0.041	0.233
-403.252	-37.017	-0.073	0.039
-402.238	-200.000	0.007	0.098
-401.223	14.184	0.196	0.152
-400.209	48.634	-0.173	0.162
-399.194	250.513	-0.078	-0.132
-398.179	-79.831	0.161	-0.054
-397.165	60.082	0.173	0.170
-396.150	-79.169	0.188	0.064
-395.136	-10.500	-0.153	0.101
-394.121	-57.901	0.252	-0.110
-393.106	146.467	-0.150	-0.201
-392.092	800.000	0.034	0.103
-391.077	185.102	-0.066	-0.097
-390.063	-200.000	-0.040	0.254
-389.048	95.040	-0.131	-0.149
-388.033	800.000	-0.088	0.246
-387.019	-3.508	0.294	0.204
-386.004	-96.090	-0.255	0.068
-384.990	451.487	0.054	0.119
-383.975	-200.000	-0.035	-0.255
-382.960	264.266	-0.154	-0.267
-381.946	-79.022	-0.155	-0.053
-380.931	-118.829	-0.244	0.043
-379.917	106.874	-0.187	-0.221
-378.902	800.000	0.008	-0.025
-377.888	800.000	0.061	0.204
-376.873	194.878	-0.138	-0.208
-375.858	25.297	0.027	0.023
-374.844	153.448	0.206	-0.281
-373.829	-200.000	0.008	-0.154
-372.815	-19.802	-0.290	0.179
-371.800	14.545	-0.173	0.135
-370.785	-7.854	0.192	-0.129
-369.771	-78.161	0.346	0.119
-368.756	205.427	-0.123	-0.190
-367.742	4.113	0.161	-0.118
-366.727	-200.000	-0.001	0.337
-365.712	67.322	-0.132	-0.134
-364.698	-166.897	0.225	-0.009
-363.683	800.000	0.033	-0.116
-362.669	800.000	0.073	-0.260
-361.654	200.117	-0.174	-0.267
-360.639	22.418	0.060	0.049
-359.625	337.942	-0.120	0.233
-358.610	-89.916	0.347	0.101
-357.596	36.868	0.241	0.212
-356.581	-94.751	0.245	0.066
-355.566	-48.643	0.061	0.029
-354.552	-7.122	0.101	0.068
-353.537	669.293	-0.028	-0.071
-352.523	-93.738	0.216	0.059
-351.508	-15.550	-0.194	0.124
-350.493	800.000	0.127	-0.366
-349.479	-200.000	-0.008	-0.492
-348.464	148.169	-0.195	-0.263
-347.450	136.256	0.041	-0.053
-346.435	451.496	0.055	0.120
-345.420	3.328	-0.049	0.035
-344.406	-200.000	-0.050	0.305
-343.391	-149.072	-0.151	0.012
-342.377	-87.548	-0.028	0.008
-341.362	-58.414	-0.264	-0.114
-340.348	-143.025	0.306	-0.030
-339.333	219.974	-0.059	0.094
-338.318	-42.830	-0.051	0.026
-337.304	-60.387	0.186	-0.079
-336.289	-200.000	-0.042	0.215
-335.275	72.149	0.225	0.233
-334.260	800.000	0.040	-0.111
-333.245	800.000	-0.076	-0.292
-332.231	-29.143	-0.421	-0.240
-331.216	159.580	-0.106	-0.147
-330.202	-200.000	0.056	0.247
-329.187	-1.126	0.120	0.085
-328.172	26.275	-0.053	-0.044
-327.158	-71.314	0.242	-0.090
-326.143	800.000	-0.114	0.350
-325.129	34.333	-0.126	-0.109
-324.114	-105.636	0.432	-0.097
-323.099	-141.171	0.320	0.033
-322.085	-68.702	-0.137	0.053
-321.070	83.189	-0.284	-0.307
-320.056	800.000	0.143	0.611
-319.041	-107.957	-0.226	0.049
-318.026	146.697	0.126	0.169
-317.012	44.378	-0.281	-0.256
-315.997	800.000	0.059	0.174
-314.983	116.375	-0.257	0.313
-313.968	-25.528	-0.060	-0.035
-312.953	276.313	0.099	0.176
-311.939	-12.266	0.091	-0.059
-310.924	-200.000	-0.022	-0.282
-309.910	-53.446	0.183	0.083
-308.895	-200.000	-0.031	-0.148
-307.880	-1.309	-0.377	-0.265
-306.866	467.354	0.129	-0.288
-305.851	800.000	0.020	0.062
-304.837	800.000	0.064	0.232
-303.822	175.341	0.234	0.337
-302.807	800.000	-0.014	-0.040
-301.793	-200.000	-0.023	0.201
-300.778	43.942	0.154	-0.140
-299.764	10.952	-0.147	0.111
-298.749	-91.232	-0.183	0.052
-297.735	19.598	-0.031	-0.025
-296.720	-200.000	0.052	0.316
-295.705	68.917	-0.150	0.153
-294.691	-200.000	0.020	-0.127
-293.676	-150.337	0.223	0.017
-292.662	-200.000	-0.043	-0.389
-291.647	-200.000	-0.003	0.326
-290.632	-151.846	0.079	-0.006
-289.618	-145.661	-0.252	0.022
-288.603	73.168	0.322	-0.335
-287.589	-45.047	0.133	0.066
-286.574	61.831	0.179	-0.177
-285.559	-200.000	0.007	-0.073
-284.545	197.682	0.227	-0.345
-283.530	274.336	0.228	-0.401
-282.516	-200.000	0.014	-0.355
-281.501	-68.761	0.144	-0.055
-280.486	193.943	-0.093	0.140
-279.472	33.480	-0.320	-0.276
-278.457	483.850	-0.176	-0.398
-277.443	96.600	0.090	-0.102
-276.428	381.373	0.146	0.297
-275.413	89.988	0.107	0.118
-274.399	-200.000	-0.027	0.452
-273.384	-161.286	-0.144	-0.007
-272.370	-170.491	-0.182	-0.006
-271.355	-200.000	-0.004	0.303
-270.340	-66.704	-0.086	0.034
-269.326	42.146	0.142	0.128
-268.311	800.000	-0.045	-0.127
-267.297	130.073	-0.177	0.225
-266.282	48.653	0.111	0.103
-265.267	-200.000	0.114	0.556
-264.253	800.000	-0.084	0.316
-263.238	-200.000	0.051	0.266
-262.224	-79.988	-0.364	-0.121
-261.209	-108.423	-0.007	-0.001
-260.195	-47.124	-0.242	0.117
-259.180	0.465	0.445	-0.315
-258.165	-37.812	-0.117	0.062
-257.151	358.785	0.078	-0.155
-256.136	-34.807	0.393	-0.213
-255.122	-101.998	-0.230	-0.055
-254.107	800.000	-0.049	0.159
-253.092	-104.249	-0.080	-0.019
-252.078	-95.980	0.381	-0.101
-251.063	-120.628	0.203	0.034
-250.049	-36.348	-0.084	-0.045
-249.034	-75.513	0.279	0.098
-248.019	-78.796	0.119	0.040
-247.005	-93.725	-0.064	0.018
-245.990	-200.000	-0.071	-0.351
-244.976	152.929	-0.112	-0.151
-243.961	-76.617	0.276	-0.096
-242.946	-56.839	0.265	-0.116
-241.932	-109.228	0.280	0.059
-240.917	-200.000	0.036	-0.000
-239.903	115.825	-0.290	0.352
-238.888	693.174	0.117	0.304
-237.873	322.965	-0.135	-0.255
-236.859	-200.000	-0.008	-0.108
-235.844	589.897	-0.093	0.227
-234.830	-69.115	-0.229	-0.087
-233.815	111.337	-0.150	0.179
-232.800	800.000	-0.031	-0.096
-231.786	-123.451	0.638	-0.101
-230.771	-200.000	0.001	-0.064
-229.757	-57.997	0.132	-0.057
-228.742	-200.000	-0.037	0.174
-227.727	-71.829	-0.305	-0.113
-226.713	-95.453	0.064	0.017
-225.698	-68.100	0.275	0.106
-224.684	-87.021	-0.107	0.032
-223.669	-32.624	-0.085	-0.047
-222.655	-65.439	-0.274	0.109
-221.640	774.150	0.079	0.214
-220.625	3.687	-0.263	-0.190
-219.611	197.810	-0.109	0.165
-218.596	-111.435	0.318	0.064
-217.582	-79.937	-0.201	-0.067
-216.567	-80.272	0.174	-0.058
-215.552	205.841	-0.069	-0.106
-214.538	764.258	0.065	0.174
-213.523	-200.000	-0.006	0.100
-212.509	-143.614	-0.434	0.041
-211.494	-21.650	-0.056	0.034
-210.479	109.034	0.187	-0.221
-209.465	-116.327	-0.484	-0.089
-208.450	-91.849	-0.103	-0.029
-207.436	-200.000	-0.024	-0.170
-206.421	211.422	0.075	-0.116
-205.406	210.151	0.242	-0.376
-204.392	259.208	-0.078	-0.133
-203.377	-64.633	0.173	-0.070
-202.363	-165.672	0.100	-0.004
-201.348	472.788	0.125	-0.278
-200.333	434.808	-0.031	0.067
-199.319	-92.663	0.122	-0.034
-198.304	-12.333	0.120	0.078
-197.290	-143.620	-0.250	-0.024
-196.275	-54.606	0.103	0.046
-195.260	-88.441	0.165	-0.049
-194.246	-60.479	-0.031	-0.013
-193.231	800.000	0.078	-0.302
-192.217	-200.000	0.027	-0.178
-191.202	323.104	-0.068	0.129
-190.187	-85.053	-0.265	0.082
-189.173	-142.005	0.151	0.015
-188.158	284.115	0.065	0.115
-187.144	-200.000	-0.013	0.110
-186.129	-102.480	0.140	-0.033
-185.114	182.750	0.092	0.135
-184.100	748.484	0.025	-0.066
-183.085	-11.168	0.203	0.133
-182.071	-200.000	-0.029	-0.144
-181.056	206.026	-0.262	0.404
-180.042	196.543	-0.116	0.175
-179.027	58.939	-0.166	0.161
-178.012	163.792	-0.052	0.073
-176.998	-133.848	-0.006	0.001
-175.983	61.583	-0.055	-0.054
-174.969	-18.331	-0.116	-0.072
-173.954	-179.993	0.141	-0.003
-172.939	164.390	0.154	-0.214
-171.925	-85.714	0.152	0.047
-170.910	83.616	-0.075	0.081
-169.896	181.197	0.129	0.187
-168.881	800.000	0.109	-0.366
-167.866	-200.000	-0.061	-0.281
-166.852	-166.133	-0.051	0.002
-165.837	138.233	0.095	0.124
-164.823	800.000	-0.085	-0.246
-163.808	-74.701	0.357	0.127
-162.793	-98.193	0.077	0.019
-161.779	-119.273	0.328	-0.056
-160.764	-70.831	-0.096	0.036
-159.750	-91.356	-0.305	-0.086
-158.735	-121.580	0.256	0.042
-157.720	-90.540	-0.207	-0.059
-156.706	105.054	0.200	0.233
-155.691	-142.502	0.029	-0.003
-154.677	-99.048	-0.140	0.035
-153.662	-200.000	-0.008	0.208
-152.647	81.914	-0.386	0.413
-151.633	800.000	-0.112	0.376
-150.618	250.318	-0.135	0.227
-149.604	-41.060	-0.306	0.156
-148.589	13.833	0.055	0.042
-147.574	-200.000	-0.011	0.205
-146.560	202.923	-0.138	-0.211
-145.545	101.339	-0.102	0.118
-144.531	-111.135	-0.237	-0.048
-143.516	-200.000	-0.037	-0.273
-142.502	34.058	0.196	0.168
-141.487	-119.522	-0.195	0.033
-140.472	460.981	-0.122	0.268
-139.458	-33.745	-0.153	-0.083
-138.443	-106.846	0.299	0.066
-137.429	-112.927	-0.266	0.052
-136.414	584.471	0.040	0.098
-135.399	-76.734	-0.301	0.104
-134.385	-200.000	-0.043	0.199
-133.370	-41.174	0.294	0.150
-132.356	-44.510	0.392	0.193
-131.341	-200.000	0.003	0.069
-130.326	-109.520	-0.273	0.057
-129.312	82.519	-0.268	-0.287
-128.297	-75.637	0.266	-0.093
-127.283	-90.205	-0.390	-0.112
-126.268	800.000	-0.126	0.368
-125.253	69.622	-0.166	0.169
-124.239	-200.000	0.024	-0.268
-123.224	122.673	-0.174	0.214
-122.210	-55.013	-0.080	-0.036
-121.195	-200.000	-0.079	-0.399
