DTS Sentinel unit serial number:	SN413079Multiplexer serial number:	ORYXHardware model number:	OX4-SRSoftware version number:	ORYX F/W v4.00 Oryx Data Collector v3.7.2.0data status	okinstallation	princeton_trtdifferential loss correction	single-endedforward channel	channel 4reverse channel	N/Adate	2019/09/15time	16:01:35forward acquisition time	60.00reverse acquisition time	0.00gamma	496.2192k internal	0.2278k external	0.2278temperature offset calibration	0.9945default loss term (dB/km)	0.3790temperature slope calibration	1.0000multiplexer offset coefficient	1.0000multiplexer slope coefficient	1.0000fibre end	0.00T internal ref (°C)	42.78T ext. ref 1 (°C)	5.32T ext. ref 2 (°C)	40.28length (m)	temperature (°C)	Stokes	anti-Stokes-747.200	800.000	-0.125	0.501
-746.185	-200.000	-0.043	0.286
-745.171	440.564	-0.066	-0.148
-744.156	-200.000	0.026	0.125
-743.142	800.000	0.098	0.320
-742.127	7.108	-0.303	0.233
-741.112	419.310	-0.073	-0.161
-740.098	768.591	-0.090	0.251
-739.083	-14.683	-0.149	0.098
-738.069	-118.755	0.190	0.034
-737.054	-67.856	-0.192	-0.077
-736.039	-200.000	0.051	-0.436
-735.025	190.452	0.183	0.283
-734.010	-200.000	0.007	-0.186
-732.996	-134.061	-0.449	-0.057
-731.981	-15.431	-0.024	-0.016
-730.966	-79.693	-0.139	0.048
-729.952	90.809	0.208	0.239
-728.937	-200.000	0.038	-0.185
-727.923	-27.566	-0.051	0.031
-726.908	17.081	-0.181	-0.148
-725.894	28.861	0.005	-0.004
-724.879	64.088	0.155	-0.160
-723.864	-145.455	0.456	0.042
-722.850	-123.834	0.100	-0.016
-721.835	218.264	0.063	-0.104
-720.821	-200.000	0.067	0.328
-719.806	-101.356	-0.140	0.035
-718.791	230.010	-0.244	-0.411
-717.777	800.000	-0.010	-0.038
-716.762	-153.039	0.136	-0.010
-715.748	178.815	0.162	0.244
-714.733	-200.000	-0.004	0.171
-713.718	93.607	-0.118	0.137
-712.704	-38.662	0.066	0.036
-711.689	39.146	-0.184	-0.169
-710.675	177.692	-0.068	-0.102
-709.660	800.000	0.107	0.343
-708.645	241.709	0.184	0.317
-707.631	-200.000	0.060	-0.386
-706.616	-40.938	0.373	-0.199
-705.602	-109.368	0.233	-0.051
-704.587	-127.784	-0.237	-0.035
-703.572	79.779	-0.202	-0.224
-702.558	764.427	-0.097	0.270
-701.543	75.627	-0.079	-0.086
-700.529	-9.458	0.159	0.109
-699.514	-79.574	0.339	-0.118
-698.499	-189.159	0.187	-0.002
-697.485	112.513	0.097	0.121
-696.470	-70.999	-0.079	0.031
-695.456	107.155	-0.170	-0.207
-694.441	33.156	0.236	0.210
-693.426	36.613	0.271	-0.246
-692.412	-131.913	0.224	-0.030
-691.397	-200.000	-0.012	-0.153
-690.383	800.000	-0.068	-0.289
-689.368	362.540	0.146	-0.302
-688.354	-137.228	-0.396	-0.046
-687.339	134.745	0.174	0.233
-686.324	-15.905	-0.082	-0.054
-685.310	-81.420	0.235	-0.079
-684.295	-198.619	-0.165	-0.001
-683.281	135.177	0.129	-0.172
-682.266	-78.445	-0.121	-0.043
-681.251	155.774	0.147	0.208
-680.237	-57.254	-0.184	0.083
-679.222	-200.000	-0.002	0.150
-678.208	-200.000	-0.002	-0.007
-677.193	114.121	0.124	-0.155
-676.178	68.113	0.095	0.100
-675.164	115.609	-0.067	0.085
-674.149	-129.365	0.214	-0.031
-673.135	44.584	-0.252	-0.238
-672.120	53.508	-0.061	-0.060
-671.105	-78.031	0.247	-0.087
-670.091	-86.799	-0.178	-0.056
-669.076	78.298	0.147	-0.161
-668.062	-133.511	0.044	0.006
-667.047	-137.441	-0.141	0.016
-666.032	208.479	0.057	0.091
-665.018	250.729	-0.047	-0.082
-664.003	-81.216	-0.191	0.065
-662.989	800.000	0.023	-0.083
-661.974	-37.834	0.096	0.052
-660.959	-23.200	-0.146	-0.090
-659.945	742.219	0.106	-0.294
-658.930	-159.559	0.232	-0.013
-657.916	74.997	0.086	0.093
-656.901	-27.969	0.163	-0.097
-655.886	75.837	0.143	0.155
-654.872	-200.000	-0.022	-0.152
-653.857	175.000	0.193	0.287
-652.843	-47.446	-0.068	0.034
-651.828	-200.000	0.003	-0.284
-650.814	403.920	0.042	-0.090
-649.799	74.381	0.072	-0.077
-648.784	-200.000	0.049	0.250
-647.770	-54.496	-0.119	-0.055
-646.755	-31.860	0.116	0.066
-645.741	-89.305	0.216	-0.065
-644.726	-106.638	-0.281	-0.064
-643.711	-65.262	-0.156	-0.064
-642.697	449.017	-0.069	0.156
-641.682	786.019	-0.092	-0.260
-640.668	800.000	0.063	-0.265
-639.653	55.642	0.234	-0.233
-638.638	800.000	-0.096	-0.279
-637.624	-11.920	0.159	0.107
-636.609	-111.265	-0.162	0.034
-635.595	-92.646	0.058	-0.017
-634.580	-88.618	0.317	-0.097
-633.565	-200.000	-0.011	0.114
-632.551	590.373	-0.137	-0.346
-631.536	411.861	-0.101	0.219
-630.522	-77.067	-0.172	0.062
-629.507	239.064	0.118	0.202
-628.492	-136.459	0.368	0.044
-627.478	445.087	-0.139	0.313
-626.463	-69.111	-0.229	0.091
-625.449	-71.136	0.209	-0.081
-624.434	169.537	0.120	-0.176
-623.419	-166.506	-0.140	0.006
-622.405	60.277	0.109	0.110
-621.390	227.627	0.136	-0.226
-620.376	420.963	-0.121	-0.266
-619.361	-77.097	-0.353	-0.126
-618.346	800.000	-0.080	-0.296
-617.332	-200.000	0.064	0.315
-616.317	154.739	0.118	0.167
-615.303	170.524	-0.076	0.111
-614.288	-96.018	0.200	-0.055
-613.273	84.036	0.006	-0.007
-612.259	56.778	0.180	0.179
-611.244	-200.000	-0.015	0.155
-610.230	-117.711	-0.253	-0.047
-609.215	300.895	0.097	0.184
-608.201	-77.202	0.116	0.041
-607.186	249.106	0.119	-0.206
-606.171	-200.000	0.065	-0.562
-605.157	3.694	-0.080	0.060
-604.142	2.050	-0.322	-0.238
-603.128	-75.819	0.073	-0.026
-602.113	15.932	-0.199	-0.161
-601.098	-58.174	0.055	-0.024
-600.084	-114.829	-0.429	-0.084
-599.069	-48.852	-0.070	0.034
-598.055	-166.424	-0.087	-0.004
-597.040	-200.000	-0.002	-0.226
-596.025	800.000	-0.025	-0.096
-595.011	800.000	-0.084	-0.262
-593.996	-200.000	0.020	-0.108
-592.982	800.000	0.097	-0.407
-591.967	-170.063	0.192	-0.007
-590.952	-45.845	-0.169	0.085
-589.938	-93.010	-0.186	-0.053
-588.923	-165.479	0.277	-0.012
-587.909	-97.888	0.074	0.020
-586.894	366.936	0.105	-0.216
-585.879	800.000	-0.012	0.041
-584.865	-200.000	-0.046	0.250
-583.850	-42.157	-0.089	0.047
-582.836	-200.000	-0.021	0.136
-581.821	800.000	0.022	-0.085
-580.806	-200.000	-0.052	-0.339
-579.792	-179.436	0.272	-0.006
-578.777	143.175	0.301	-0.410
-577.763	-200.000	0.001	-0.052
-576.748	795.940	0.073	0.207
-575.733	-76.278	-0.146	-0.052
-574.719	-129.478	-0.030	0.004
-573.704	388.913	0.065	0.137
-572.690	-200.000	0.025	-0.385
-571.675	-200.000	-0.070	-0.519
-570.661	137.392	0.131	-0.175
-569.646	-47.699	0.251	-0.124
-568.631	54.984	-0.038	-0.037
-567.617	118.773	-0.089	-0.112
-566.602	-8.370	-0.096	-0.066
-565.588	-200.000	0.060	-0.395
-564.573	11.696	-0.143	-0.113
-563.558	800.000	0.088	-0.286
-562.544	-93.003	0.306	-0.087
-561.529	-155.642	-0.131	-0.009
-560.515	489.057	-0.070	-0.164
-559.500	-85.867	-0.270	0.086
-558.485	-200.000	0.045	0.349
-557.471	0.022	0.301	0.219
-556.456	46.079	-0.100	0.094
-555.442	-200.000	0.032	-0.161
-554.427	-130.704	0.018	-0.002
-553.412	132.303	-0.215	0.283
-552.398	-200.000	-0.026	0.348
-551.383	-77.780	0.294	0.104
-550.369	-200.000	-0.026	0.128
-549.354	254.884	0.160	0.280
-548.339	446.854	0.129	-0.291
-547.325	-72.767	0.196	0.074
-546.310	-23.758	-0.128	0.079
-545.296	800.000	0.050	-0.214
-544.281	-109.153	0.365	-0.079
-543.266	-122.881	-0.102	0.017
-542.252	2.788	-0.143	0.106
-541.237	587.851	0.070	0.175
-540.223	-200.000	-0.018	-0.082
-539.208	800.000	-0.024	0.084
-538.193	69.214	-0.067	0.071
-537.179	138.990	-0.045	-0.060
-536.164	-47.927	-0.454	0.224
-535.150	157.625	-0.113	0.159
-534.135	-200.000	0.008	-0.081
-533.121	17.006	0.086	-0.069
-532.106	-200.000	0.020	0.097
-531.091	186.215	0.030	-0.046
-530.077	-38.966	-0.194	0.104
-529.062	-25.209	0.230	0.139
-528.048	184.883	-0.013	0.020
-527.033	83.367	-0.097	-0.108
-526.018	-200.000	0.016	-0.272
-525.004	-115.837	-0.419	0.080
-523.989	-200.000	0.042	0.349
-522.975	399.915	0.089	0.191
-521.960	-54.224	-0.150	0.070
-520.945	-96.506	-0.175	-0.047
-519.931	-135.574	-0.278	-0.034
-518.916	-200.000	-0.003	-0.101
-517.902	117.418	-0.028	-0.035
-516.887	31.968	-0.051	0.045
-515.872	800.000	0.056	0.218
-514.858	-200.000	0.008	-0.284
-513.843	800.000	0.031	0.089
-512.829	-135.317	-0.248	-0.030
-511.814	119.895	0.170	-0.215
-510.799	149.634	-0.169	-0.234
-509.785	155.084	-0.094	0.132
-508.770	138.894	0.113	-0.152
-507.756	-44.616	-0.381	0.194
-506.741	-42.104	-0.357	0.186
-505.726	800.000	-0.065	-0.190
-504.712	-79.801	0.421	0.145
-503.697	-200.000	0.015	-0.233
-502.683	72.767	-0.126	0.134
-501.668	2.728	0.182	-0.135
-500.653	-200.000	-0.022	0.125
-499.639	-66.609	0.114	-0.046
-498.624	800.000	0.074	-0.255
-497.610	-8.133	-0.118	-0.081
-496.595	-33.640	-0.248	-0.140
-495.581	126.124	0.099	-0.128
-494.566	360.567	0.120	-0.244
-493.551	-200.000	0.003	-0.134
-492.537	800.000	-0.023	0.075
-491.522	800.000	-0.020	-0.079
-490.508	171.797	0.224	0.327
-489.493	-200.000	-0.042	-0.293
-488.478	291.531	-0.078	0.145
-487.464	-44.588	-0.204	-0.104
-486.449	633.030	0.056	-0.144
-485.435	-53.763	0.234	-0.109
-484.420	800.000	0.058	-0.254
-483.405	610.725	-0.036	0.093
-482.391	-200.000	-0.033	0.196
-481.376	-97.317	-0.036	-0.010
-480.362	-178.914	0.284	-0.007
-479.347	800.000	-0.033	-0.099
-478.332	-113.452	-0.163	-0.032
-477.318	138.304	0.156	0.208
-476.303	-9.381	0.009	-0.006
-475.289	174.673	0.047	0.070
-474.274	107.804	-0.058	-0.070
-473.259	-118.448	-0.106	-0.019
-472.245	-43.711	-0.214	0.110
-471.230	-60.427	-0.383	-0.166
-470.216	723.801	0.152	-0.411
-469.201	1.539	-0.108	-0.079
-468.186	54.852	-0.105	0.103
-467.172	38.709	0.054	-0.049
-466.157	-200.000	-0.015	0.312
-465.143	-64.424	-0.496	-0.206
-464.128	800.000	0.054	-0.218
-463.113	-70.896	-0.044	-0.017
-462.099	-90.087	-0.418	0.124
-461.084	800.000	0.055	0.172
-460.070	172.676	-0.212	-0.310
-459.055	568.835	-0.173	0.429
-458.040	-200.000	-0.011	0.063
-457.026	48.335	-0.245	-0.233
-456.011	-94.678	-0.199	0.055
-454.997	69.626	-0.138	-0.145
-453.982	-200.000	-0.007	-0.160
-452.968	708.930	-0.073	-0.196
-451.953	-137.522	0.203	0.023
-450.938	-142.694	-0.361	0.036
-449.924	800.000	-0.056	0.206
-448.909	300.032	-0.103	0.193
-447.895	-63.829	0.315	-0.131
-446.880	635.972	-0.036	0.092
-445.865	-117.942	-0.395	-0.072
-444.851	97.400	0.110	0.128
-443.836	383.202	0.104	0.217
-442.822	88.359	-0.306	0.346
-441.807	-200.000	-0.026	0.162
-440.792	-200.000	-0.007	0.174
-439.778	104.868	0.162	-0.194
-438.763	409.930	0.053	-0.115
-437.749	237.168	-0.056	-0.094
-436.734	-97.789	-0.179	0.047
-435.719	-200.000	0.028	-0.159
-434.705	133.025	0.168	-0.221
-433.690	-63.234	0.112	-0.047
-432.676	-90.929	-0.063	0.018
-431.661	-66.387	-0.314	-0.127
-430.646	800.000	-0.057	-0.216
-429.632	-133.495	-0.248	-0.032
-428.617	47.658	-0.061	-0.058
-427.603	90.416	0.036	-0.041
-426.588	224.872	0.110	0.181
-425.573	329.955	0.109	0.213
-424.559	-15.453	0.139	-0.090
-423.544	93.104	0.170	0.196
-422.530	458.918	0.136	-0.308
-421.515	78.419	0.121	-0.132
-420.500	-41.617	0.202	0.106
-419.486	-144.380	-0.475	0.045
-418.471	45.705	-0.093	0.088
-417.457	55.156	-0.417	-0.410
-416.442	-122.716	-0.118	0.019
-415.428	591.935	0.078	0.197
-414.413	1.506	-0.098	-0.071
-413.398	800.000	0.044	0.141
-412.384	800.000	0.066	0.239
-411.369	-200.000	-0.004	0.213
-410.355	-200.000	0.024	0.116
-409.340	800.000	0.023	-0.083
-408.325	25.457	-0.119	0.100
-407.311	-194.312	-0.094	-0.001
-406.296	369.295	-0.136	0.280
-405.282	800.000	-0.017	0.070
-404.267	-200.000	0.028	0.308
-403.252	800.000	-0.048	-0.189
-402.238	800.000	0.016	0.046
-401.223	67.713	-0.309	0.321
-400.209	800.000	0.074	-0.245
-399.194	273.791	0.066	-0.118
-398.179	156.279	-0.096	0.134
-397.165	-200.000	-0.007	0.215
-396.150	1.159	-0.054	0.039
-395.136	119.311	-0.249	-0.313
-394.121	-200.000	0.049	-0.354
-393.106	144.712	-0.097	-0.132
-392.092	307.960	-0.124	-0.234
-391.077	-200.000	-0.064	-0.486
-390.063	642.857	-0.241	0.625
-389.048	-26.594	0.367	0.218
-388.033	-70.218	-0.182	-0.070
-387.019	-164.951	-0.184	-0.008
-386.004	-50.764	-0.126	-0.060
-384.990	-91.031	0.079	0.023
-383.975	-86.163	-0.380	0.119
-382.960	-1.180	0.218	0.157
-381.946	-128.657	0.281	0.040
-380.931	-200.000	0.022	0.219
-379.917	-102.076	-0.220	-0.054
-378.902	265.042	-0.035	-0.062
-377.888	436.430	-0.151	0.334
-376.873	111.727	0.225	-0.276
-375.858	-146.732	-0.062	0.005
-374.844	-23.600	-0.094	-0.058
-373.829	-200.000	-0.016	-0.118
-372.815	800.000	-0.059	0.190
-371.800	163.021	0.141	0.201
-370.785	87.265	-0.202	-0.226
-369.771	74.826	-0.194	-0.208
-368.756	-151.056	0.219	0.017
-367.742	174.606	-0.175	0.257
-366.727	152.948	0.154	-0.214
-365.712	800.000	-0.034	-0.142
-364.698	-148.404	-0.023	0.002
-363.683	-155.657	0.174	-0.011
-362.669	-117.934	0.157	0.029
-361.654	189.680	0.152	-0.231
-360.639	-200.000	-0.043	0.260
-359.625	-91.584	-0.076	0.022
-358.610	-200.000	-0.014	-0.104
-357.596	211.415	-0.148	-0.236
-356.581	753.282	-0.068	-0.187
-355.566	-115.117	0.026	0.005
-354.552	-200.000	-0.009	-0.058
-353.537	188.213	0.122	-0.185
-352.523	-200.000	-0.041	0.202
-351.508	259.216	-0.120	-0.210
-350.493	81.813	0.197	-0.217
-349.479	20.066	0.197	0.161
-348.464	-200.000	-0.024	0.200
-347.450	800.000	-0.121	0.374
-346.435	-200.000	-0.067	-0.425
-345.420	800.000	0.036	0.104
-344.406	98.931	-0.150	-0.175
-343.391	-200.000	-0.054	0.252
-342.377	-29.257	0.238	0.139
-341.362	100.951	0.165	-0.195
-340.348	-87.213	-0.281	-0.086
-339.333	70.790	-0.081	-0.085
-338.318	-13.820	0.267	0.175
-337.304	800.000	-0.106	0.298
-336.289	-165.797	0.126	-0.006
-335.275	555.383	-0.069	-0.168
-334.260	233.961	-0.119	-0.198
-333.245	-200.000	-0.020	-0.104
-332.231	-80.434	0.221	0.075
-331.216	-125.315	-0.093	-0.014
-330.202	-53.093	0.140	0.065
-329.187	130.623	0.048	0.062
-328.172	110.552	0.180	0.219
-327.158	800.000	0.020	-0.064
-326.143	237.378	0.103	-0.173
-325.129	-8.214	-0.087	-0.059
-324.114	-200.000	-0.051	0.259
-323.099	146.897	0.114	0.156
-322.085	37.425	0.157	0.141
-321.070	163.433	0.066	0.094
-320.056	-45.236	-0.258	-0.130
-319.041	335.629	-0.040	-0.078
-318.026	149.917	0.077	0.105
-317.012	800.000	-0.062	-0.178
-315.997	-200.000	-0.007	-0.129
-314.983	-101.100	0.235	0.058
-313.968	800.000	-0.037	-0.119
-312.953	32.755	0.206	0.180
-311.939	116.534	-0.158	-0.196
-310.924	-200.000	-0.030	-0.187
-309.910	800.000	0.091	0.367
-308.895	800.000	0.051	-0.175
-307.880	-200.000	0.047	0.348
-306.866	800.000	0.022	0.088
-305.851	-200.000	0.005	0.241
-304.837	-90.507	0.351	0.103
-303.822	800.000	-0.054	0.172
-302.807	-200.000	-0.045	0.259
-301.793	176.841	0.078	-0.115
-300.778	-50.946	0.134	0.064
-299.764	-200.000	0.068	0.339
-298.749	138.683	0.116	-0.154
-297.735	-200.000	0.060	0.280
-296.720	68.916	-0.064	0.066
-295.705	-200.000	0.016	0.082
-294.691	506.127	-0.065	0.151
-293.676	-200.000	0.022	0.200
-292.662	-200.000	-0.011	-0.213
-291.647	45.547	0.103	0.097
-290.632	-111.400	0.387	-0.080
-289.618	-13.019	0.037	-0.024
-288.603	93.670	0.362	0.415
-287.589	693.187	-0.118	0.314
-286.574	-123.157	-0.263	0.043
-285.559	-60.918	-0.299	-0.128
-284.545	-59.158	0.219	-0.095
-283.530	-115.218	-0.234	-0.045
-282.516	28.961	0.100	0.086
-281.501	749.024	0.034	0.092
-280.486	59.704	-0.290	0.289
-279.472	800.000	-0.033	-0.127
-278.457	-200.000	-0.032	-0.175
-277.443	-200.000	-0.016	0.283
-276.428	94.149	-0.094	-0.108
-275.413	84.631	0.028	0.031
-274.399	-200.000	0.001	0.403
-273.384	-55.821	-0.114	-0.051
-272.370	-17.357	0.274	0.174
-271.355	343.179	0.157	-0.312
-270.340	-13.049	-0.234	-0.154
-269.326	138.623	-0.081	0.108
-268.311	800.000	-0.042	0.160
-267.297	-119.811	-0.217	-0.038
-266.282	714.261	0.091	0.243
-265.267	-200.000	0.022	0.524
-264.253	33.658	0.181	-0.159
-263.238	77.042	0.146	-0.157
-262.224	4.768	0.330	-0.245
-261.209	-200.000	-0.014	0.352
-260.195	-126.532	0.083	-0.013
-259.180	-93.542	0.046	-0.013
-258.165	-200.000	0.040	-0.197
-257.151	93.017	0.167	-0.190
-256.136	95.777	0.030	0.035
-255.122	48.276	0.179	0.169
-254.107	-44.049	0.193	0.098
-253.092	-200.000	-0.072	0.443
-252.078	-200.000	-0.018	-0.136
-251.063	40.225	0.295	0.268
-250.049	-200.000	-0.021	-0.234
-249.034	800.000	0.048	-0.169
-248.019	532.496	0.117	-0.280
-247.005	48.115	-0.249	-0.235
-245.990	385.981	0.038	-0.078
-244.976	-160.829	0.277	0.015
-243.961	-200.000	0.013	-0.252
-242.946	-24.248	-0.059	0.036
-241.932	-112.475	-0.329	-0.066
-240.917	152.249	-0.104	0.143
-239.903	-200.000	0.044	0.328
-238.888	56.243	-0.134	-0.131
-237.873	-50.145	0.357	-0.170
-236.859	-20.658	-0.119	-0.074
-235.844	-200.000	-0.041	0.197
-234.830	-103.836	-0.120	0.028
-233.815	-51.962	0.201	0.094
-232.800	800.000	0.091	0.339
-231.786	-24.855	-0.085	-0.051
-230.771	750.665	0.141	0.384
-229.757	-200.000	0.006	-0.192
-228.742	137.206	0.206	-0.273
-227.727	-200.000	0.032	0.236
-226.713	-94.068	0.221	-0.061
-225.698	-54.910	-0.404	0.184
-224.684	-118.447	0.321	-0.057
-223.669	-3.008	-0.195	-0.137
-222.655	800.000	0.077	-0.221
-221.640	52.534	-0.098	-0.094
-220.625	-200.000	0.005	0.102
-219.611	3.114	-0.247	0.181
-218.596	48.866	-0.162	-0.154
-217.582	138.518	0.101	0.133
-216.567	-200.000	0.037	0.303
-215.552	59.046	0.061	-0.060
-214.538	-200.000	-0.008	0.061
-213.523	-10.503	0.309	0.206
-212.509	-87.057	0.260	-0.080
-211.494	-57.920	0.095	0.042
-210.479	800.000	0.032	-0.136
-209.465	166.008	-0.101	-0.144
-208.450	94.607	0.133	0.152
-207.436	-106.109	0.562	0.127
-206.421	400.943	0.112	0.236
-205.406	82.637	-0.045	0.049
-204.392	-136.271	0.205	-0.024
-203.377	-200.000	-0.026	-0.154
-202.363	659.954	-0.105	0.273
-201.348	-200.000	0.058	0.353
-200.333	-154.444	-0.221	0.015
-199.319	-92.407	0.326	-0.092
-198.304	12.391	-0.078	0.060
-197.290	-200.000	0.001	-0.021
-196.275	-115.389	0.369	0.070
-195.260	-162.248	0.416	-0.021
-194.246	-34.864	0.134	-0.074
-193.231	800.000	0.040	0.166
-192.217	185.741	0.132	0.198
-191.202	93.796	-0.212	0.242
-190.187	135.219	0.067	-0.087
-189.173	-146.142	0.271	0.024
-188.158	78.462	-0.055	-0.060
-187.144	800.000	-0.046	-0.170
-186.129	643.176	-0.049	-0.127
-185.114	-112.579	-0.201	-0.040
-184.100	-27.557	-0.186	0.109
-183.085	22.176	0.214	-0.176
-182.071	215.919	-0.128	-0.204
-181.056	-200.000	-0.019	0.270
-180.042	-200.000	-0.025	-0.181
-179.027	265.625	0.085	0.150
-178.012	800.000	-0.048	0.184
-176.998	186.351	-0.207	-0.310
-175.983	261.126	-0.031	0.054
-174.969	-105.079	-0.032	-0.007
-173.954	194.850	-0.037	0.056
-172.939	462.583	-0.068	0.152
-171.925	265.597	0.177	-0.311
-170.910	335.474	0.108	0.210
-169.896	-120.701	0.233	-0.040
-168.881	-200.000	0.056	0.274
-167.866	-47.034	0.026	0.013
-166.852	74.505	0.240	-0.254
-165.837	-49.634	0.128	-0.061
-164.823	27.471	0.166	-0.141
-163.808	469.677	-0.139	0.315
-162.793	-200.000	-0.012	-0.186
-161.779	-58.340	0.135	-0.059
-160.764	29.552	0.163	-0.140
-159.750	77.062	-0.201	0.215
-158.735	78.255	0.205	-0.220
-157.720	219.344	0.106	0.171
-156.706	800.000	-0.046	-0.192
-155.691	-164.029	0.497	0.023
-154.677	-112.429	-0.084	0.017
-153.662	56.321	-0.365	-0.357
-152.647	-1.604	-0.098	0.070
-151.633	-9.371	-0.187	0.126
-150.618	-200.000	0.011	0.121
-149.604	800.000	0.079	-0.342
-148.589	-149.971	-0.154	-0.012
-147.574	33.352	0.220	0.192
-146.560	-200.000	0.029	-0.173
-145.545	-52.170	0.429	0.200
-144.531	-180.065	0.066	0.001
-143.516	800.000	0.053	0.199
-142.502	-200.000	-0.001	0.031
-141.487	46.773	0.187	0.175
-140.472	-56.835	0.126	-0.056
-139.458	-104.702	0.322	0.075
-138.443	-75.500	0.217	0.078
-137.429	-85.734	0.133	0.041
-136.414	-43.176	0.092	0.047
-135.399	-21.818	-0.171	0.105
-134.385	800.000	0.149	-0.484
-133.370	610.743	0.049	-0.124
-132.356	122.407	-0.197	0.247
-131.341	-73.427	-0.102	0.037
-130.326	-41.500	0.040	-0.021
-129.312	-64.910	-0.163	-0.066
-128.297	419.014	-0.050	-0.109
-127.283	-11.606	0.201	-0.133
-126.268	-177.952	-0.325	0.008
-125.253	-200.000	-0.030	-0.189
-124.239	-29.278	-0.230	-0.133
-123.224	8.585	-0.258	-0.196
-122.210	-0.378	0.117	-0.083
