DTS Sentinel unit serial number:	SN413079Multiplexer serial number:	ORYXHardware model number:	OX4-SRSoftware version number:	ORYX F/W v4.00 Oryx Data Collector v3.7.2.0data status	okinstallation	princeton_trtdifferential loss correction	single-endedforward channel	channel 4reverse channel	N/Adate	2019/09/12time	19:59:19forward acquisition time	15.00reverse acquisition time	0.00gamma	496.2192k internal	0.2310k external	0.2310temperature offset calibration	1.0149default loss term (dB/km)	0.3790temperature slope calibration	1.0000multiplexer offset coefficient	1.0000multiplexer slope coefficient	1.0000fibre end	0.00T internal ref (°C)	31.75T ext. ref 1 (°C)	3.38T ext. ref 2 (°C)	26.29length (m)	temperature (°C)	Stokes	anti-Stokes-747.200	-200.000	0.108	0.786
-746.185	409.453	-0.051	-0.109
-745.171	468.762	0.059	0.133
-744.156	800.000	0.137	-0.393
-743.142	800.000	0.181	0.606
-742.127	208.470	0.276	-0.439
-741.112	636.503	0.345	-0.889
-740.098	-69.294	-0.133	-0.052
-739.083	-59.495	0.244	0.106
-738.069	-15.120	0.497	0.323
-737.054	-200.000	0.115	-1.190
-736.039	-112.700	-0.366	-0.074
-735.025	-6.825	0.406	0.280
-734.010	22.486	0.435	0.361
-732.996	-184.402	-0.831	-0.014
-731.981	-2.319	0.651	-0.463
-730.966	300.446	-0.142	0.266
-729.952	800.000	0.399	-1.235
-728.937	49.464	-0.479	-0.458
-727.923	60.384	0.428	0.429
-726.908	-90.689	1.262	-0.370
-725.894	289.308	-0.341	-0.627
-724.879	-85.361	-0.575	0.182
-723.864	4.381	0.783	0.583
-722.850	-200.000	-0.119	0.001
-721.835	730.974	-0.211	0.571
-720.821	-200.000	-0.010	-0.309
-719.806	-198.737	-0.534	0.003
-718.791	-8.579	-0.496	0.338
-717.777	-3.432	0.484	0.342
-716.762	699.488	0.098	0.263
-715.748	-200.000	0.026	-0.543
-714.733	-143.415	-0.786	0.076
-713.718	-86.578	-0.229	-0.071
-712.704	-200.000	0.030	0.187
-711.689	29.698	-0.416	0.359
-710.675	470.772	0.057	-0.130
-709.660	205.461	-0.166	0.261
-708.645	60.227	0.230	0.231
-707.631	-9.990	-0.386	0.260
-706.616	-127.716	0.823	0.121
-705.602	800.000	0.288	-0.964
-704.587	800.000	-0.020	-0.074
-703.572	-49.850	0.867	-0.418
-702.558	532.414	-0.332	-0.796
-701.543	517.409	0.290	0.687
-700.529	165.124	-0.368	0.527
-699.514	-200.000	-0.095	-1.276
-698.499	-135.096	-0.266	-0.032
-697.485	-89.351	-0.609	0.182
-696.470	-200.000	0.038	-0.380
-695.456	14.840	0.320	0.253
-694.441	-49.691	0.504	0.243
-693.426	-200.000	0.067	-0.508
-692.412	-158.189	0.149	0.009
-691.397	47.309	-0.303	0.286
-690.383	84.373	-0.334	-0.370
-689.368	-72.583	0.569	0.213
-688.354	-200.000	0.047	0.253
-687.339	96.120	-0.274	-0.318
-686.324	485.972	-0.436	-1.008
-685.310	-200.000	-0.032	-0.391
-684.295	64.643	0.301	-0.308
-683.281	-157.422	-0.252	-0.015
-682.266	-90.536	0.355	0.104
-681.251	176.473	0.398	-0.587
-680.237	800.000	-0.288	-0.911
-679.222	314.134	-0.218	-0.416
-678.208	-55.750	-0.391	-0.177
-677.193	-87.553	0.898	0.275
-676.178	9.786	-1.039	0.798
-675.164	-200.000	0.027	0.493
-674.149	306.071	-0.053	-0.100
-673.135	21.328	-0.115	0.095
-672.120	800.000	-0.491	-1.534
-671.105	312.369	0.302	-0.574
-670.091	71.940	0.906	0.954
-669.076	-55.239	-0.478	-0.218
-668.062	161.532	-0.216	0.306
-667.047	-4.113	-0.669	-0.469
-666.032	86.764	-0.279	-0.311
-665.018	-110.105	-0.563	-0.119
-664.003	-23.343	0.410	-0.250
-662.989	-59.405	-0.513	-0.223
-661.974	197.501	0.308	-0.477
-660.959	292.013	-0.596	-1.099
-659.945	92.420	-0.191	-0.217
-658.930	-54.412	-0.423	0.194
-657.916	-152.057	-0.402	-0.030
-656.901	533.139	0.168	-0.402
-655.886	69.187	-0.342	-0.356
-654.872	7.047	-0.568	-0.429
-653.857	-40.903	0.226	0.118
-652.843	383.042	-0.286	-0.595
-651.828	33.531	0.634	0.558
-650.814	325.220	-0.576	1.115
-649.799	23.243	-0.477	0.396
-648.784	103.441	-0.091	0.108
-647.770	105.963	0.379	-0.454
-646.755	-115.192	-0.044	0.008
-645.741	-66.546	1.071	-0.430
-644.726	-173.402	-0.218	-0.007
-643.711	47.269	-0.271	-0.255
-642.697	-200.000	0.024	-0.116
-641.682	-28.742	-0.687	-0.400
-640.668	63.009	-0.737	0.746
-639.653	800.000	-0.066	0.189
-638.638	259.627	0.212	-0.370
-637.624	179.802	0.208	0.308
-636.609	8.560	-0.307	-0.234
-635.595	-200.000	0.026	-0.311
-634.580	-200.000	0.012	0.468
-633.565	51.913	0.056	0.054
-632.551	-131.695	-0.464	-0.062
-631.536	-200.000	-0.020	-0.454
-630.522	85.616	0.751	0.835
-629.507	68.299	0.228	0.236
-628.492	70.642	-0.310	0.325
-627.478	175.606	0.460	-0.674
-626.463	219.500	-0.091	-0.147
-625.449	-200.000	-0.036	-0.370
-624.434	526.412	0.049	-0.117
-623.419	107.141	-0.165	-0.198
-622.405	458.022	-0.042	0.094
-621.390	-29.586	-0.411	-0.237
-620.376	-18.760	-0.809	-0.510
-619.361	-200.000	0.005	0.548
-618.346	114.797	0.579	0.713
-617.332	-73.706	0.804	-0.296
-616.317	-170.198	0.458	-0.016
-615.303	800.000	0.158	0.461
-614.288	-0.351	-0.705	-0.506
-613.273	800.000	-0.153	-0.584
-612.259	-1.652	0.342	-0.244
-611.244	582.784	-0.283	0.701
-610.230	73.171	-0.449	-0.474
-609.215	-164.323	0.629	-0.029
-608.201	-92.198	-0.654	-0.186
-607.186	-79.612	-0.972	-0.331
-606.171	-200.000	0.084	-0.997
-605.157	40.719	0.288	-0.262
-604.142	61.573	-0.368	0.370
-603.128	800.000	0.364	1.091
-602.113	-73.917	-0.203	0.074
-601.098	-200.000	-0.031	-0.172
-600.084	-44.056	1.148	-0.582
-599.069	-78.379	-1.362	-0.472
-598.055	11.277	-0.214	-0.166
-597.040	-23.461	0.493	0.299
-596.025	521.069	0.199	-0.471
-595.011	-101.110	-0.504	-0.125
-593.996	-122.310	-0.656	0.108
-592.982	-46.443	-0.237	0.117
-591.967	96.670	-0.351	-0.406
-590.952	74.092	-0.462	-0.489
-589.938	239.136	-0.092	0.155
-588.923	-40.636	0.111	-0.058
-587.909	800.000	-0.158	-0.536
-586.894	-50.105	-0.316	0.151
-585.879	-39.974	0.222	-0.117
-584.865	229.893	-0.311	-0.513
-583.850	66.337	-0.672	-0.689
-582.836	-33.281	0.485	-0.271
-581.821	280.738	0.340	0.613
-580.806	-150.322	0.586	-0.046
-579.792	-88.590	-0.438	0.132
-578.777	-200.000	-0.055	0.331
-577.763	-121.563	-0.596	0.100
-576.748	-29.828	-0.275	-0.158
-575.733	-200.000	-0.009	0.057
-574.719	-200.000	0.008	0.147
-573.704	37.318	0.579	0.518
-572.690	800.000	-0.207	-0.596
-571.675	535.707	0.049	-0.116
-570.661	-123.691	-0.532	-0.085
-569.646	-81.744	-0.442	-0.146
-568.631	-200.000	0.094	-0.456
-567.617	800.000	-0.276	-0.788
-566.602	-200.000	-0.037	-0.700
-565.588	800.000	-0.289	-0.864
-564.573	-51.740	-0.366	0.172
-563.558	89.795	-0.067	0.076
-562.544	-200.000	0.021	-0.740
-561.529	-115.807	-0.374	-0.071
-560.515	24.807	0.933	0.780
-559.500	778.314	0.133	-0.366
-558.485	688.119	-0.060	-0.158
-557.471	800.000	-0.105	-0.300
-556.456	-70.614	-0.508	-0.194
-555.442	-80.527	0.492	0.165
-554.427	-200.000	-0.044	-0.275
-553.412	-200.000	0.081	0.516
-552.398	622.975	0.205	0.522
-551.383	-200.000	0.174	1.148
-550.369	-25.053	-0.441	0.264
-549.354	80.830	-0.536	-0.583
-548.339	8.291	0.623	0.472
-547.325	43.488	-0.127	0.117
-546.310	117.539	0.690	0.855
-545.296	189.504	0.316	0.477
-544.281	403.642	0.211	-0.447
-543.266	-8.656	-0.559	-0.378
-542.252	-148.105	-0.205	-0.017
-541.237	2.163	-0.255	-0.186
-540.223	-200.000	-0.073	-0.557
-539.208	-125.275	-0.197	0.030
-538.193	8.148	-0.501	0.379
-537.179	-160.152	-0.719	-0.039
-536.164	-200.000	0.083	0.984
-535.150	256.347	0.322	0.557
-534.135	-200.000	-0.061	-0.355
-533.121	206.525	-0.195	0.305
-532.106	-138.642	0.419	-0.046
-531.091	-200.000	-0.070	0.570
-530.077	-96.290	-0.354	0.095
-529.062	800.000	-0.279	-0.995
-528.048	-200.000	-0.057	-0.323
-527.033	-200.000	-0.014	0.077
-526.018	-52.838	0.547	-0.254
-525.004	23.052	-0.630	0.520
-523.989	-94.417	-0.716	-0.197
-522.975	-41.864	-0.265	-0.137
-521.960	637.286	-0.198	0.508
-520.945	-55.328	0.411	-0.186
-519.931	504.439	0.452	-1.053
-518.916	800.000	0.250	-0.887
-517.902	800.000	-0.137	0.457
-516.887	-105.930	0.061	0.014
-515.872	-200.000	0.025	0.406
-514.858	800.000	-0.174	0.767
-513.843	-200.000	-0.081	-0.520
-512.829	800.000	-0.059	-0.231
-511.814	5.480	0.521	-0.387
-510.799	-75.967	0.786	0.280
-509.785	800.000	0.073	-0.276
-508.770	138.920	0.363	-0.479
-507.756	145.214	-0.533	-0.718
-506.741	-200.000	0.071	0.722
-505.726	-113.439	-0.758	0.150
-504.712	-79.918	0.324	0.110
-503.697	-54.970	0.727	0.330
-502.683	-200.000	-0.012	-0.256
-501.668	439.218	-0.110	-0.242
-500.653	-61.565	0.288	-0.121
-499.639	-200.000	-0.051	-0.289
-498.624	546.642	-0.209	-0.503
-497.610	-200.000	-0.051	-0.345
-496.595	345.103	-0.093	-0.184
-495.581	-200.000	0.046	-0.668
-494.566	-110.135	-0.570	-0.120
-493.551	142.794	0.265	-0.354
-492.537	-174.072	-0.949	0.028
-491.522	-200.000	0.074	-0.626
-490.508	800.000	0.182	0.574
-489.493	-50.386	0.518	0.246
-488.478	-200.000	-0.068	0.799
-487.464	-44.352	0.446	-0.224
-486.449	-133.059	0.359	-0.046
-485.435	800.000	0.156	0.593
-484.420	-48.483	0.369	-0.179
-483.405	99.046	0.483	0.561
-482.391	88.348	0.431	0.481
-481.376	17.552	0.242	0.193
-480.362	21.150	0.027	-0.022
-479.347	-200.000	-0.199	-1.267
-478.332	-86.974	-0.788	-0.241
-477.318	-71.777	-0.508	0.190
-476.303	-66.246	0.423	-0.169
-475.289	33.322	0.385	0.335
-474.274	43.362	0.603	-0.554
-473.259	800.000	-0.040	-0.150
-472.245	-7.509	0.298	0.203
-471.230	0.428	-0.081	0.058
-470.216	-59.754	0.251	0.108
-469.201	-66.711	0.511	-0.203
-468.186	-200.000	-0.005	-0.027
-467.172	-200.000	0.648	0.002
-466.157	193.215	-0.108	0.163
-465.143	-9.632	0.277	0.185
-464.128	270.729	0.374	-0.661
-463.113	137.456	-0.283	0.372
-462.099	52.509	0.642	0.616
-461.084	-53.062	-0.366	-0.169
-460.070	-95.292	-0.522	0.141
-459.055	-49.307	-0.307	-0.147
-458.040	-39.219	0.751	0.396
-457.026	-56.912	0.288	0.128
-456.011	-200.000	-0.082	0.931
-454.997	191.240	-0.142	-0.214
-453.982	411.283	-0.430	0.917
-452.968	267.395	-0.135	-0.238
-451.953	204.475	-0.174	0.270
-450.938	-200.000	0.032	0.402
-449.924	471.321	0.254	0.573
-448.909	-9.030	-0.527	0.354
-447.895	149.664	0.429	-0.584
-446.880	227.164	0.274	0.448
-445.865	-28.492	-0.205	0.118
-444.851	800.000	0.024	-0.104
-443.836	145.521	0.353	0.475
-442.822	-129.725	0.954	0.132
-441.807	105.066	-0.175	0.208
-440.792	-111.147	0.670	0.138
-439.778	175.458	0.596	-0.867
-438.763	-77.419	-0.702	0.245
-437.749	-200.000	-0.060	0.278
-436.734	450.272	-0.340	0.752
-435.719	-74.075	1.127	0.410
-434.705	-146.811	1.218	0.105
-433.690	-26.103	0.960	0.566
-432.676	-200.000	0.031	0.138
-431.661	117.913	0.185	-0.229
-430.646	-110.542	0.521	0.108
-429.632	2.571	-0.624	0.453
-428.617	169.729	0.354	0.507
-427.603	-31.140	0.277	0.157
-426.588	79.755	0.295	0.317
-425.573	-88.574	0.075	0.022
-424.559	-200.000	-0.033	0.359
-423.544	64.517	-0.322	0.325
-422.530	800.000	-0.159	-0.650
-421.515	17.281	-0.093	0.074
-420.500	-67.999	0.254	-0.099
-419.486	-148.194	0.111	-0.009
-418.471	-174.857	0.370	-0.010
-417.457	259.522	-0.408	0.706
-416.442	-200.000	0.069	0.632
-415.428	143.352	-0.538	-0.719
-414.413	-92.119	-0.663	0.188
-413.398	255.127	0.212	-0.364
-412.384	258.579	0.331	-0.572
-411.369	27.817	0.808	0.682
-410.355	111.802	-0.148	0.179
-409.340	556.962	0.030	0.072
-408.325	800.000	0.021	-0.065
-407.311	-200.000	-0.078	0.570
-406.296	-76.187	0.109	0.039
-405.282	26.785	-0.365	-0.306
-404.267	-125.154	0.857	0.132
-403.252	-20.621	0.581	-0.358
-402.238	-166.323	-0.298	-0.013
-401.223	478.486	0.346	0.786
-400.209	-27.102	-0.368	-0.215
-399.194	800.000	-0.209	0.690
-398.179	-180.197	-0.273	-0.006
-397.165	-79.470	-0.464	0.157
-396.150	-92.439	0.323	-0.091
-395.136	415.623	-0.324	-0.691
-394.121	-200.000	-0.059	0.375
-393.106	-200.000	-0.020	-1.016
-392.092	-200.000	-0.103	-0.649
-391.077	514.174	0.263	0.615
-390.063	-99.018	-0.399	-0.101
-389.048	147.701	0.404	-0.545
-388.033	69.989	-0.312	0.322
-387.019	-82.959	0.404	0.130
-386.004	-54.562	0.893	0.405
-384.990	317.122	-0.336	0.637
-383.975	548.821	-0.138	0.332
-382.960	-200.000	0.014	-0.591
-381.946	200.702	-0.375	-0.577
-380.931	160.251	-0.238	-0.333
-379.917	-42.577	0.594	-0.303
-378.902	76.192	0.277	-0.294
-377.888	-200.000	0.024	-0.187
-376.873	334.119	0.340	-0.658
-375.858	800.000	0.257	-0.956
-374.844	10.168	0.564	-0.429
-373.829	-200.000	0.092	0.471
-372.815	800.000	-0.058	0.171
-371.800	800.000	-0.280	1.027
-370.785	-29.269	-0.228	0.131
-369.771	800.000	-0.119	-0.466
-368.756	-7.883	0.095	0.064
-367.742	-48.425	-0.546	0.263
-366.727	-200.000	-0.021	-0.351
-365.712	62.716	0.416	0.416
-364.698	94.321	0.262	-0.297
-363.683	274.636	-0.205	-0.363
-362.669	115.424	0.431	0.527
-361.654	-200.000	-0.047	-0.404
-360.639	16.967	-0.359	0.284
-359.625	446.219	0.073	0.160
-358.610	-99.653	0.697	-0.175
-357.596	-130.085	0.476	0.065
-356.581	-200.000	0.019	-0.269
-355.566	-157.487	-0.341	-0.020
-354.552	-200.000	-0.025	-0.697
-353.537	800.000	0.230	0.744
-352.523	104.651	0.710	-0.836
-351.508	-161.152	0.378	0.020
-350.493	160.598	0.227	0.316
-349.479	-170.477	-0.555	-0.019
-348.464	-200.000	-0.004	0.426
-347.450	116.259	0.309	0.378
-346.435	171.468	-0.270	-0.387
-345.420	-134.210	-0.405	-0.050
-344.406	-190.615	-1.058	-0.011
-343.391	-200.000	-0.433	0.001
-342.377	37.615	0.137	0.122
-341.362	94.401	0.141	0.160
-340.348	468.817	0.216	0.484
-339.333	56.753	-0.369	0.359
-338.318	153.088	0.377	0.516
-337.304	-200.000	0.035	-0.388
-336.289	768.355	0.200	-0.544
-335.275	-200.000	0.088	-0.663
-334.260	800.000	0.143	0.528
-333.245	-200.000	0.040	0.504
-332.231	800.000	-0.190	-0.698
-331.216	-84.824	-0.653	0.205
-330.202	155.873	-0.130	-0.180
-329.187	11.901	0.412	0.316
-328.172	329.207	-0.263	-0.505
-327.158	590.147	-0.113	0.278
-326.143	-57.984	-0.559	0.244
-325.129	-66.992	0.884	-0.348
-324.114	305.663	-0.256	-0.475
-323.099	800.000	-0.082	-0.247
-322.085	10.239	-0.456	0.347
-321.070	396.012	0.303	0.632
-320.056	-80.537	0.534	0.178
-319.041	-82.874	-0.501	0.161
-318.026	30.058	-0.499	0.425
-317.012	800.000	-0.119	0.508
-315.997	154.974	-0.418	0.574
-314.983	-150.107	0.089	-0.007
-313.968	-200.000	0.155	0.809
-312.953	-116.308	1.083	0.200
-311.939	-200.000	0.137	0.705
-310.924	294.512	0.129	0.236
-309.910	11.693	-0.554	0.425
-308.895	-200.000	0.141	0.740
-307.880	-80.782	0.621	0.206
-306.866	-200.000	0.091	0.642
-305.851	-200.000	-0.056	0.316
-304.837	256.576	-0.224	-0.384
-303.822	-200.000	0.029	0.499
-302.807	-200.000	-0.061	0.461
-301.793	-94.204	-0.440	-0.120
-300.778	18.496	0.347	0.277
-299.764	-62.644	-0.731	0.303
-298.749	-21.202	0.432	0.264
-297.735	-40.352	1.147	-0.595
-296.720	-200.000	0.007	0.902
-295.705	-72.874	-0.377	0.138
-294.691	212.083	-0.473	-0.743
-293.676	-88.208	0.509	-0.152
-292.662	-92.465	-0.222	0.062
-291.647	155.660	-0.477	0.655
-290.632	-200.000	-0.026	0.506
-289.618	33.659	0.350	0.303
-288.603	-66.494	0.475	0.188
-287.589	48.611	-0.246	0.230
-286.574	40.985	-0.472	0.425
-285.559	279.024	-0.055	0.098
-284.545	8.886	0.373	-0.280
-283.530	81.887	-0.379	-0.409
-282.516	-200.000	0.134	-1.070
-281.501	-83.332	0.063	0.020
-280.486	235.035	-0.430	0.708
-279.472	46.361	-0.538	0.498
-278.457	325.602	-0.270	-0.515
-277.443	-10.928	0.387	-0.255
-276.428	-49.873	0.454	-0.215
-275.413	103.099	0.479	-0.559
-274.399	66.826	-0.507	0.515
-273.384	174.294	0.450	0.649
-272.370	307.115	0.117	-0.218
-271.355	-155.701	0.284	-0.018
-270.340	-200.000	-0.035	-0.321
-269.326	-113.347	1.409	0.276
-268.311	32.239	0.360	-0.310
-267.297	89.816	0.337	-0.375
-266.282	-81.265	0.316	0.104
-265.267	1.721	0.262	-0.188
-264.253	-32.091	-0.814	0.454
-263.238	-200.000	-0.016	0.143
-262.224	-200.000	-0.114	0.542
-261.209	800.000	-0.321	-1.111
-260.195	-186.806	-0.561	0.008
-259.180	632.121	0.242	-0.610
-258.165	-200.000	-0.004	0.381
-257.151	-102.447	-0.704	0.168
-256.136	-200.000	-0.152	0.703
-255.122	-41.854	-0.386	0.197
-254.107	208.010	-0.200	-0.312
-253.092	194.521	-0.281	-0.425
-252.078	-164.018	-0.845	0.039
-251.063	800.000	-0.212	0.740
-250.049	-145.585	-0.423	0.038
-249.034	-200.000	0.069	0.852
-248.019	88.052	0.091	0.100
-247.005	-74.659	-0.850	0.305
-245.990	-200.000	0.058	-0.377
-244.976	155.309	-0.315	-0.432
-243.961	-17.482	-0.710	0.445
-242.946	-126.295	0.775	-0.115
-241.932	136.359	0.051	0.066
-240.917	-161.943	-0.113	0.006
-239.903	-49.996	0.276	-0.130
-238.888	800.000	-0.366	-1.038
-237.873	40.459	-0.232	-0.208
-236.859	37.876	-0.333	0.295
-235.844	187.355	-0.445	0.661
-234.830	-156.625	0.540	0.033
-233.815	-200.000	0.067	-0.638
-232.800	800.000	0.334	-1.145
-231.786	84.916	-0.321	-0.350
-230.771	-59.286	0.444	-0.190
-229.757	304.319	0.288	-0.533
-228.742	7.173	0.863	0.641
-227.727	800.000	-0.154	-0.591
-226.713	76.213	0.401	-0.422
-225.698	-200.000	0.059	0.541
-224.684	498.892	0.175	-0.402
-223.669	-184.838	1.075	-0.017
-222.655	354.317	-0.242	-0.478
-221.640	-86.806	0.472	0.144
-220.625	-9.293	-0.926	-0.615
-219.611	191.321	-0.371	-0.555
-218.596	404.133	0.199	-0.417
-217.582	28.432	-0.315	-0.265
-216.567	-200.000	-0.025	0.575
-215.552	103.292	0.479	0.559
-214.538	-31.036	-0.346	-0.194
-213.523	-100.009	-0.552	-0.137
-212.509	175.568	0.248	-0.357
-211.494	-90.733	-0.467	-0.134
-210.479	-84.957	-0.656	0.205
-209.465	90.134	0.153	0.170
-208.450	80.042	-0.110	0.117
-207.436	-163.092	-0.624	0.030
-206.421	-43.682	0.445	-0.223
-205.406	20.981	0.280	0.226
-204.392	44.479	-0.500	-0.457
-203.377	-128.719	-0.394	0.055
-202.363	553.921	-0.094	-0.225
-201.348	-51.846	0.533	-0.247
-200.333	100.768	-0.496	-0.573
-199.319	-135.401	0.605	-0.072
-198.304	-200.000	-0.008	-0.041
-197.290	253.426	-0.558	-0.948
-196.275	-76.012	0.632	0.222
-195.260	30.810	-0.292	-0.248
-194.246	-83.426	-1.000	-0.318
-193.231	239.486	-0.099	-0.163
-192.217	93.593	0.279	-0.314
-191.202	42.092	-0.390	0.352
-190.187	-113.248	0.335	0.066
-189.173	-200.000	-0.041	0.349
-188.158	-138.998	0.228	-0.025
-187.144	-66.417	0.104	0.041
-186.129	-200.000	0.124	1.121
-185.114	-138.315	0.776	0.085
-184.100	-200.000	0.029	-1.177
-183.085	270.444	0.203	0.355
-182.071	-200.000	-0.131	0.869
-181.056	800.000	0.226	0.628
-180.042	-71.229	-0.336	-0.125
-179.027	118.356	0.119	0.146
-178.012	-77.842	-0.410	-0.141
-176.998	-200.000	-0.167	-0.759
-175.983	800.000	0.143	-0.459
-174.969	-53.195	-1.084	0.494
-173.954	-125.044	0.071	-0.011
-172.939	-89.779	-0.592	-0.172
-171.925	148.335	0.506	0.679
-170.910	-200.000	0.183	-1.026
-169.896	-100.611	0.700	-0.172
-168.881	-108.860	-0.614	-0.130
-167.866	601.746	0.141	0.348
-166.852	225.483	0.260	-0.418
-165.837	-56.555	0.450	-0.198
-164.823	74.496	-0.504	-0.526
-163.808	-47.111	-0.283	-0.137
-162.793	-87.173	0.403	0.121
-161.779	41.403	-0.146	-0.131
-160.764	-87.351	-0.655	-0.197
-159.750	28.081	-0.397	0.333
-158.735	-36.347	0.224	0.120
-157.720	-200.000	0.063	-0.643
-156.706	58.466	-0.098	-0.096
-155.691	-200.000	-0.084	0.429
-154.677	-32.772	0.614	-0.339
-153.662	-200.000	-0.025	-0.176
-152.647	234.822	-0.412	0.674
-151.633	-200.000	0.004	0.357
-150.618	-62.157	0.451	0.187
-149.604	286.246	-0.681	1.219
-148.589	-23.774	-0.246	-0.146
-147.574	54.084	-0.216	0.206
-146.560	31.793	-0.478	0.408
-145.545	-31.425	-0.155	-0.087
-144.531	-40.770	0.159	0.082
-143.516	-87.866	-0.496	0.148
-142.502	379.064	-0.391	0.794
-141.487	322.921	-0.385	0.729
-140.472	33.748	-0.131	-0.113
-139.458	95.647	0.360	0.408
-138.443	19.636	0.241	0.192
-137.429	-200.000	0.100	-0.588
-136.414	-78.072	-0.512	-0.175
-135.399	-200.000	0.017	-0.469
-134.385	-65.637	0.167	-0.066
-133.370	-125.246	0.741	0.112
-132.356	-200.000	-0.011	0.635
-131.341	-77.446	-0.077	0.026
-130.326	-101.734	0.325	-0.078
-129.312	230.004	0.189	-0.306
-128.297	152.336	0.357	0.484
-127.283	-82.575	-0.530	0.170
-126.268	-69.051	-0.422	0.161
-125.253	-24.924	-0.342	0.201
-124.239	484.347	0.026	0.059
-123.224	82.263	-0.666	0.716
-122.210	-93.342	-0.276	-0.076
-121.195	69.172	-0.163	-0.167
