DTS Sentinel unit serial number:	SN413079Multiplexer serial number:	ORYXHardware model number:	OX4-SRSoftware version number:	ORYX F/W v4.00 Oryx Data Collector v3.7.2.0data status	okinstallation	princeton_trtdifferential loss correction	single-endedforward channel	channel 4reverse channel	N/Adate	2019/09/16time	06:29:34forward acquisition time	60.00reverse acquisition time	0.00gamma	496.2192k internal	0.2320k external	0.2320temperature offset calibration	0.9984default loss term (dB/km)	0.3790temperature slope calibration	1.0000multiplexer offset coefficient	1.0000multiplexer slope coefficient	1.0000fibre end	0.00T internal ref (°C)	27.39T ext. ref 1 (°C)	11.38T ext. ref 2 (°C)	21.75length (m)	temperature (°C)	Stokes	anti-Stokes-747.200	-108.769	0.107	-0.023
-746.185	47.757	-0.156	0.147
-745.171	-200.000	0.022	0.516
-744.156	137.325	-0.141	0.187
-743.142	23.722	0.124	-0.104
-742.127	-37.772	-0.221	0.119
-741.112	-133.797	-0.236	-0.030
-740.098	-200.000	-0.012	0.284
-739.083	-117.057	0.122	-0.023
-738.069	38.200	0.066	-0.060
-737.054	315.949	-0.115	0.218
-736.039	38.575	-0.102	-0.092
-735.025	15.404	0.097	0.077
-734.010	-200.000	-0.068	-0.304
-732.996	800.000	-0.082	-0.235
-731.981	72.333	-0.165	-0.174
-730.966	-200.000	0.330	0.000
-729.952	180.353	0.157	0.233
-728.937	-135.755	-0.496	-0.059
-727.923	48.499	-0.156	0.147
-726.908	-188.217	-0.332	0.004
-725.894	347.552	0.085	-0.168
-724.879	-112.124	0.213	0.043
-723.864	-148.293	0.206	0.017
-722.850	134.699	-0.315	0.414
-721.835	800.000	-0.024	0.089
-720.821	145.240	-0.183	0.248
-719.806	-76.775	0.266	0.094
-718.791	-128.109	0.097	-0.014
-717.777	-200.000	0.003	-0.143
-716.762	-200.000	-0.034	-0.316
-715.748	147.996	0.217	0.295
-714.733	-134.487	-0.429	-0.053
-713.718	-118.687	0.227	0.041
-712.704	-58.087	0.088	0.039
-711.689	144.076	0.147	0.198
-710.675	-40.841	0.137	-0.072
-709.660	61.962	-0.067	0.068
-708.645	-16.251	0.055	0.035
-707.631	800.000	0.057	-0.158
-706.616	493.155	0.040	0.092
-705.602	121.177	0.155	0.195
-704.587	-102.491	-0.164	0.040
-703.572	25.978	0.431	-0.363
-702.558	-142.305	-0.127	-0.013
-701.543	-200.000	0.021	0.265
-700.529	-87.931	-0.212	-0.064
-699.514	10.764	0.166	0.128
-698.499	646.707	-0.016	-0.040
-697.485	-17.857	0.268	0.170
-696.470	41.104	0.101	-0.092
-695.456	-17.890	0.126	0.080
-694.441	-200.000	-0.184	-0.000
-693.426	800.000	0.065	-0.243
-692.412	376.410	-0.050	-0.103
-691.397	-95.160	0.285	-0.077
-690.383	-200.000	-0.039	-0.289
-689.368	6.978	-0.155	-0.116
-688.354	-52.917	0.248	-0.115
-687.339	-175.414	0.310	-0.009
-686.324	176.895	0.119	-0.174
-685.310	-143.817	0.130	-0.012
-684.295	800.000	-0.098	0.311
-683.281	-177.924	0.107	0.003
-682.266	800.000	-0.009	0.032
-681.251	-61.420	0.304	-0.129
-680.237	-200.000	-0.040	0.182
-679.222	800.000	0.061	0.262
-678.208	-166.181	0.049	-0.002
-677.193	-140.044	0.452	-0.048
-676.178	265.503	0.151	-0.266
-675.164	673.439	-0.089	-0.233
-674.149	80.149	0.103	-0.112
-673.135	-124.804	-0.203	-0.032
-672.120	50.214	-0.259	-0.247
-671.105	555.102	0.057	0.138
-670.091	-34.745	0.228	-0.125
-669.076	-200.000	-0.005	0.175
-668.062	-96.933	-0.177	0.047
-667.047	499.257	-0.086	-0.199
-666.032	-129.698	0.037	0.005
-665.018	-90.836	-0.218	0.063
-664.003	118.530	-0.178	-0.221
-662.989	135.801	0.133	0.175
-661.974	-200.000	0.008	0.092
-660.959	-200.000	-0.058	-0.298
-659.945	255.107	-0.208	-0.359
-658.930	-154.131	0.029	0.002
-657.916	-17.008	0.160	0.102
-656.901	-200.000	0.018	0.198
-655.886	-117.889	-0.111	0.020
-654.872	-85.970	-0.192	0.060
-653.857	-200.000	0.063	0.511
-652.843	800.000	0.075	0.318
-651.828	-83.804	-0.503	-0.162
-650.814	-21.139	0.170	0.105
-649.799	362.784	-0.195	-0.395
-648.784	-18.203	0.237	-0.149
-647.770	-39.268	-0.113	0.060
-646.755	800.000	-0.012	-0.044
-645.741	18.191	0.277	-0.223
-644.726	-200.000	-0.011	0.194
-643.711	104.654	0.155	-0.184
-642.697	731.849	-0.090	-0.242
-641.682	526.728	0.104	-0.247
-640.668	735.782	-0.029	0.078
-639.653	-15.110	-0.178	-0.115
-638.638	-200.000	-0.003	0.179
-637.624	-161.178	-0.551	-0.029
-636.609	-28.533	0.267	-0.155
-635.595	-143.907	0.256	0.024
-634.580	-200.000	0.063	0.309
-633.565	800.000	-0.017	0.056
-632.551	64.173	-0.239	-0.242
-631.536	-117.741	-0.231	-0.042
-630.522	-60.702	0.194	-0.083
-629.507	567.703	0.139	-0.339
-628.492	174.587	-0.029	-0.042
-627.478	184.333	0.118	0.175
-626.463	145.501	0.141	-0.190
-625.449	224.180	0.077	-0.125
-624.434	208.236	0.190	-0.300
-623.419	22.331	-0.254	0.209
-622.405	-20.525	0.071	0.044
-621.390	55.398	-0.100	0.098
-620.376	49.131	-0.057	-0.053
-619.361	-95.142	-0.099	-0.027
-618.346	39.481	0.189	0.170
-617.332	-48.683	0.178	-0.086
-616.317	-200.000	-0.020	0.138
-615.303	85.439	-0.111	-0.123
-614.288	-23.917	-0.355	0.214
-613.273	340.009	-0.033	0.064
-612.259	140.028	0.225	-0.299
-611.244	-163.173	0.226	0.011
-610.230	-129.762	-0.315	0.044
-609.215	308.131	-0.146	0.274
-608.201	-13.697	-0.229	-0.149
-607.186	140.796	-0.088	0.118
-606.171	176.693	-0.289	-0.423
-605.157	217.815	0.114	0.182
-604.142	264.370	0.132	0.231
-603.128	123.799	-0.263	-0.332
-602.113	-48.083	0.162	0.079
-601.098	23.972	-0.046	-0.038
-600.084	97.638	0.107	-0.123
-599.069	800.000	-0.101	0.280
-598.055	205.608	-0.175	0.273
-597.040	-94.194	0.077	0.021
-596.025	-26.620	0.359	0.211
-595.011	-78.366	0.207	0.071
-593.996	2.935	0.275	0.200
-592.982	108.172	0.156	0.187
-591.967	800.000	0.050	-0.157
-590.952	205.737	0.072	-0.113
-589.938	-200.000	0.050	0.273
-588.923	-200.000	0.000	-0.071
-587.909	285.207	0.079	-0.142
-586.894	-41.136	-0.075	0.039
-585.879	-200.000	-0.031	-0.178
-584.865	-101.508	0.022	0.005
-583.850	-200.000	-0.038	-0.204
-582.836	-6.018	0.145	-0.100
-581.821	199.130	-0.119	0.183
-580.806	-200.000	0.004	-0.074
-579.792	-200.000	0.016	-0.080
-578.777	-123.191	-0.329	0.053
-577.763	-50.352	-0.280	0.133
-576.748	432.578	-0.068	0.147
-575.733	-120.854	0.270	-0.046
-574.719	-200.000	0.021	0.206
-573.704	-163.448	0.198	-0.009
-572.690	11.096	0.297	-0.228
-571.675	425.595	-0.092	-0.198
-570.661	165.228	-0.054	0.076
-569.646	-56.346	-0.130	0.058
-568.631	-200.000	0.021	0.291
-567.617	145.023	-0.163	-0.220
-566.602	800.000	-0.043	0.169
-565.588	-200.000	-0.068	-0.328
-564.573	287.243	-0.026	0.047
-563.558	-200.000	0.005	0.051
-562.544	-200.000	-0.034	-0.343
-561.529	122.829	0.016	-0.020
-560.515	-46.984	0.274	0.134
-559.500	124.918	-0.301	0.381
-558.485	-200.000	-0.055	0.452
-557.471	354.870	-0.090	0.179
-556.456	-146.882	-0.052	-0.004
-555.442	-200.000	0.025	-0.289
-554.427	800.000	0.058	-0.221
-553.412	-133.177	-0.285	-0.036
-552.398	741.249	-0.039	-0.105
-551.383	110.973	-0.011	0.014
-550.369	-172.837	-0.279	0.009
-549.354	-68.645	0.240	0.093
-548.339	-200.000	0.002	0.044
-547.325	57.455	-0.043	-0.042
-546.310	800.000	-0.056	0.213
-545.296	480.604	-0.148	-0.337
-544.281	66.534	-0.093	-0.095
-543.266	66.891	0.060	0.062
-542.252	129.124	-0.207	0.266
-541.237	800.000	0.111	0.307
-540.223	-159.240	-0.121	-0.007
-539.208	-200.000	0.002	0.092
-538.193	-130.389	-0.135	-0.018
-537.179	5.356	-0.258	-0.191
-536.164	226.274	0.006	0.010
-535.150	800.000	-0.065	-0.184
-534.135	-31.962	0.392	-0.220
-533.121	97.744	-0.065	0.075
-532.106	239.127	0.140	-0.234
-531.091	-48.739	-0.088	-0.042
-530.077	-51.016	0.027	0.013
-529.062	-200.000	0.017	-0.173
-528.048	40.805	0.207	-0.187
-527.033	-200.000	-0.025	-0.193
-526.018	-73.037	0.087	0.032
-525.004	-200.000	0.022	-0.211
-523.989	-162.646	-0.147	0.007
-522.975	800.000	-0.058	-0.183
-521.960	-200.000	-0.013	-0.142
-520.945	-85.017	-0.225	0.071
-519.931	540.443	-0.137	-0.328
-518.916	6.637	-0.014	-0.010
-517.902	-94.478	0.102	0.028
-516.887	52.362	0.027	-0.026
-515.872	-96.808	0.094	0.025
-514.858	209.157	0.059	0.092
-513.843	-52.419	0.389	0.181
-512.829	-200.000	0.039	-0.192
-511.814	-102.127	-0.282	-0.068
-510.799	-5.063	-0.125	0.086
-509.785	-84.429	0.447	0.141
-508.770	514.147	0.026	0.062
-507.756	800.000	0.045	-0.161
-506.741	17.648	0.193	-0.153
-505.726	24.175	-0.306	-0.253
-504.712	142.779	0.124	-0.165
-503.697	-160.188	-0.154	-0.008
-502.683	-127.685	0.064	-0.009
-501.668	355.911	-0.108	0.216
-500.653	-49.603	0.191	0.091
-499.639	574.433	0.148	0.362
-498.624	-88.827	0.210	-0.063
-497.610	-118.019	-0.019	-0.003
-496.595	-62.214	-0.393	0.164
-495.581	76.381	-0.239	0.254
-494.566	800.000	0.081	-0.246
-493.551	-200.000	0.035	0.227
-492.537	194.541	-0.151	0.229
-491.522	722.046	0.025	0.067
-490.508	-158.401	0.137	-0.008
-489.493	59.536	-0.038	-0.038
-488.478	99.130	0.112	-0.129
-487.464	-0.450	-0.353	0.251
-486.449	-14.022	0.155	-0.100
-485.435	-200.000	0.054	0.453
-484.420	-93.743	-0.170	0.047
-483.405	611.435	-0.160	-0.399
-482.391	368.710	0.179	0.363
-481.376	800.000	-0.052	-0.204
-480.362	262.880	0.093	-0.161
-479.347	86.961	0.282	-0.312
-478.332	-24.808	0.229	-0.136
-477.318	226.575	0.132	-0.215
-476.303	-18.750	0.058	0.036
-475.289	-23.899	0.178	0.107
-474.274	800.000	-0.049	0.211
-473.259	82.432	-0.181	-0.196
-472.245	630.992	-0.100	-0.252
-471.230	-200.000	0.012	0.505
-470.216	-82.214	0.071	-0.023
-469.201	-103.876	0.280	0.065
-468.186	-200.000	-0.051	-0.341
-467.172	800.000	-0.006	-0.018
-466.157	-54.484	0.209	-0.095
-465.143	800.000	0.034	0.138
-464.128	15.058	-0.190	0.149
-463.113	388.907	0.073	0.151
-462.099	-199.007	-0.146	0.001
-461.084	-200.000	0.005	0.086
-460.070	32.821	-0.333	-0.288
-459.055	430.988	0.030	-0.065
-458.040	224.465	-0.175	-0.282
-457.026	800.000	0.067	-0.235
-456.011	-47.566	0.242	-0.118
-454.997	-118.073	0.120	-0.021
-453.982	32.387	-0.126	0.109
-452.968	-81.574	0.318	-0.104
-451.953	53.023	0.069	0.066
-450.938	-92.819	0.186	0.052
-449.924	141.933	-0.052	0.069
-448.909	-77.218	-0.138	0.048
-447.895	800.000	-0.079	0.293
-446.880	302.214	0.248	0.458
-445.865	-200.000	0.056	0.356
-444.851	-200.000	0.003	-0.077
-443.836	-17.741	-0.053	-0.033
-442.822	-96.910	0.131	0.034
-441.807	-20.287	-0.318	0.196
-440.792	25.649	0.370	-0.307
-439.778	-7.153	0.132	-0.090
-438.763	60.384	0.070	-0.069
-437.749	-200.000	0.034	-0.206
-436.734	116.538	-0.154	-0.188
-435.719	29.286	0.154	-0.130
-434.705	296.146	0.137	0.250
-433.690	-68.098	0.086	0.034
-432.676	85.285	-0.016	-0.018
-431.661	234.384	-0.127	0.209
-430.646	42.694	0.061	-0.055
-429.632	-200.000	0.048	0.259
-428.617	152.107	-0.109	0.148
-427.603	1.004	-0.199	-0.142
-426.588	99.048	-0.113	-0.130
-425.573	-74.092	0.138	0.050
-424.559	-143.177	-0.502	0.048
-423.544	800.000	-0.036	0.112
-422.530	-200.000	0.125	-0.572
-421.515	-105.892	-0.201	-0.045
-420.500	798.323	-0.105	-0.288
-419.486	245.249	-0.037	-0.062
-418.471	52.178	-0.108	-0.103
-417.457	-200.000	0.011	0.187
-416.442	100.701	0.063	0.074
-415.428	-6.950	0.350	0.237
-414.413	22.227	-0.127	0.103
-413.398	-1.579	-0.170	-0.120
-412.384	-200.000	-0.048	0.370
-411.369	28.177	-0.182	0.153
-410.355	-96.186	0.199	0.053
-409.340	-57.908	0.144	-0.063
-408.325	-200.000	-0.005	0.133
-407.311	20.245	-0.142	-0.114
-406.296	136.914	0.257	-0.335
-405.282	550.771	-0.104	-0.249
-404.267	28.084	-0.232	-0.195
-403.252	-100.183	-0.382	0.095
-402.238	-200.000	0.042	-0.454
-401.223	-47.032	-0.052	-0.025
-400.209	-82.006	-0.088	0.029
-399.194	393.563	0.051	0.105
-398.179	332.335	-0.086	-0.165
-397.165	-117.106	0.279	0.051
-396.150	-127.204	-0.177	0.026
-395.136	-52.217	0.517	0.239
-394.121	-23.281	0.221	-0.132
-393.106	9.249	-0.497	-0.375
-392.092	-109.603	-0.183	0.039
-391.077	161.663	0.156	0.217
-390.063	-82.451	0.058	0.019
-389.048	236.258	0.086	0.141
-388.033	-69.175	-0.291	-0.112
-387.019	106.301	-0.167	0.197
-386.004	157.176	-0.025	-0.035
-384.990	-200.000	0.016	0.087
-383.975	-200.000	0.028	0.220
-382.960	119.812	0.153	0.190
-381.946	-200.000	0.013	-0.338
-380.931	-18.350	-0.087	0.054
-379.917	-200.000	-0.002	-0.062
-378.902	360.980	0.024	-0.048
-377.888	800.000	-0.009	0.033
-376.873	16.190	-0.058	-0.046
-375.858	265.541	-0.082	0.142
-374.844	-2.109	-0.161	0.112
-373.829	-162.380	-0.293	0.014
-372.815	-200.000	0.029	-0.181
-371.800	-132.932	0.234	0.030
-370.785	239.183	0.075	-0.124
-369.771	690.315	0.122	0.318
-368.756	-200.000	-0.059	0.449
-367.742	-91.975	0.056	0.016
-366.727	-200.000	0.037	0.273
-365.712	105.068	0.048	-0.056
-364.698	-190.209	-0.328	0.004
-363.683	30.984	-0.129	-0.110
-362.669	-200.000	0.011	-0.061
-361.654	-4.013	-0.236	0.163
-360.639	30.624	-0.211	-0.180
-359.625	-55.290	0.161	-0.072
-358.610	7.518	0.152	-0.113
-357.596	-56.559	0.086	0.038
-356.581	-200.000	0.010	0.116
-355.566	800.000	-0.032	0.096
-354.552	-181.544	0.133	0.003
-353.537	-200.000	0.082	-0.365
-352.523	615.547	0.070	-0.175
-351.508	-200.000	0.009	0.195
-350.493	-79.794	0.290	0.097
-349.479	434.565	-0.049	0.105
-348.464	60.491	0.075	0.074
-347.450	-200.000	0.021	-0.164
-346.435	-200.000	-0.018	-0.169
-345.420	-124.733	-0.320	-0.049
-344.406	-48.228	0.139	0.067
-343.391	-139.918	0.209	-0.022
-342.377	255.541	0.176	0.300
-341.362	-175.677	0.082	0.002
-340.348	-18.573	-0.362	-0.225
-339.333	-200.000	0.054	-0.260
-338.318	800.000	-0.024	-0.100
-337.304	-9.236	0.111	-0.074
-336.289	135.003	-0.074	0.096
-335.275	-91.927	-0.327	0.092
-334.260	692.510	0.140	-0.366
-333.245	-200.000	0.032	0.166
-332.231	800.000	0.025	0.083
-331.216	-58.722	0.199	-0.086
-330.202	504.330	-0.069	-0.160
-329.187	-92.519	0.465	0.130
-328.172	-62.033	-0.172	0.071
-327.158	800.000	0.115	0.347
-326.143	-124.377	0.193	-0.030
-325.129	-13.452	0.167	0.108
-324.114	133.168	0.113	-0.145
-323.099	-51.350	-0.358	0.167
-322.085	65.571	0.023	-0.023
-321.070	-200.000	0.042	0.227
-320.056	392.383	0.064	0.133
-319.041	69.356	-0.065	0.067
-318.026	96.414	-0.155	-0.177
-317.012	702.911	0.061	-0.160
-315.997	-64.680	0.306	-0.123
-314.983	-200.000	-0.052	-0.258
-313.968	-40.743	0.390	0.201
-312.953	-139.363	0.234	0.025
-311.939	-120.152	0.347	-0.059
-310.924	-96.607	-0.176	-0.046
-309.910	50.725	-0.073	-0.068
-308.895	800.000	-0.123	-0.530
-307.880	267.056	-0.203	0.353
-306.866	19.913	0.035	0.028
-305.851	-200.000	0.002	0.183
-304.837	-131.887	-0.142	-0.018
-303.822	-108.601	0.186	0.040
-302.807	-128.922	0.192	-0.027
-301.793	16.723	-0.194	0.153
-300.778	-107.619	0.375	0.082
-299.764	-29.758	0.378	0.214
-298.749	265.378	0.102	0.177
-297.735	-200.000	-0.014	0.080
-296.720	212.067	0.152	0.237
-295.705	-86.191	-0.109	-0.033
-294.691	800.000	0.037	-0.151
-293.676	392.442	-0.047	-0.097
-292.662	-7.374	-0.242	0.163
-291.647	333.457	-0.064	-0.123
-290.632	267.983	0.152	0.264
-289.618	160.775	-0.103	0.143
-288.603	-200.000	0.054	0.431
-287.589	6.521	-0.186	-0.137
-286.574	-98.736	0.154	-0.039
-285.559	800.000	-0.063	0.271
-284.545	117.720	0.100	0.122
-283.530	-5.606	-0.097	-0.066
-282.516	188.784	0.100	0.149
-281.501	-38.188	-0.149	0.078
-280.486	-200.000	0.071	-0.351
-279.472	25.596	0.141	0.117
-278.457	-145.783	-0.350	0.031
-277.443	10.242	-0.214	0.162
-276.428	800.000	-0.131	-0.418
-275.413	-200.000	-0.033	0.196
-274.399	-133.424	-0.158	-0.020
-273.384	-123.799	-0.207	0.033
-272.370	-200.000	-0.034	0.544
-271.355	-200.000	0.021	0.146
-270.340	642.027	0.174	0.439
-269.326	14.148	-0.108	-0.083
-268.311	-200.000	0.027	0.190
-267.297	-62.186	0.094	0.039
-266.282	-200.000	-0.000	-0.140
-265.267	57.048	0.197	0.191
-264.253	-132.319	-0.290	0.037
-263.238	-20.881	-0.269	-0.164
-262.224	-200.000	0.080	-0.632
-261.209	-77.603	0.074	0.025
-260.195	360.923	0.073	0.145
-259.180	-139.484	-0.104	0.011
-258.165	84.944	0.180	0.196
-257.151	139.439	-0.046	-0.060
-256.136	-21.770	0.195	-0.118
-255.122	199.308	-0.126	-0.192
-254.107	115.258	0.215	0.260
-253.092	-105.991	-0.143	0.032
-252.078	88.536	-0.040	-0.044
-251.063	772.840	0.076	-0.205
-250.049	-123.031	0.293	-0.047
-249.034	-200.000	-0.005	0.285
-248.019	-136.121	-0.416	-0.048
-247.005	219.402	0.187	0.297
-245.990	41.577	0.129	0.116
-244.976	105.870	-0.034	0.040
-243.961	41.050	0.112	0.100
-242.946	140.438	0.127	0.166
-241.932	-200.000	0.005	0.255
-240.917	-200.000	0.001	0.041
-239.903	-200.000	0.032	0.164
-238.888	800.000	0.086	-0.336
-237.873	-200.000	0.000	0.137
-236.859	32.201	0.139	0.119
-235.844	231.564	0.013	-0.020
-234.830	21.986	0.151	0.122
-233.815	-86.275	-0.121	-0.037
-232.800	-168.241	-0.157	-0.006
-231.786	99.083	-0.091	-0.104
-230.771	251.558	-0.032	0.054
-229.757	-74.951	0.091	-0.032
-228.742	-200.000	0.006	0.238
-227.727	64.142	0.012	-0.012
-226.713	-200.000	-0.016	0.112
-225.698	59.123	-0.109	-0.107
-224.684	-200.000	0.030	0.288
-223.669	-32.449	0.276	-0.152
-222.655	-113.773	-0.160	-0.031
-221.640	-200.000	0.007	-0.234
-220.625	-91.087	0.415	0.118
-219.611	-63.375	-0.395	0.161
-218.596	-160.820	0.312	0.016
-217.582	-63.641	-0.074	0.030
-216.567	-200.000	0.007	0.142
-215.552	62.317	-0.115	0.114
-214.538	-200.000	-0.030	-0.203
-213.523	-81.061	-0.249	0.082
-212.509	-200.000	-0.017	-0.163
-211.494	-88.225	-0.321	-0.095
-210.479	-90.853	0.340	0.097
-209.465	-120.130	-0.122	-0.021
-208.450	-150.274	-0.102	-0.008
-207.436	-65.635	0.188	-0.075
-206.421	423.478	-0.164	-0.350
-205.406	-33.301	0.077	-0.042
-204.392	-200.000	-0.018	-0.218
-203.377	-54.344	-0.173	0.078
-202.363	800.000	-0.180	-0.509
-201.348	-145.706	-0.223	-0.020
-200.333	800.000	-0.029	0.106
-199.319	-200.000	-0.026	-0.316
-198.304	-22.679	0.131	-0.079
-197.290	-13.398	0.116	-0.075
-196.275	800.000	-0.031	-0.134
-195.260	6.390	-0.217	-0.160
-194.246	-172.523	-0.191	0.006
-193.231	-88.426	-0.352	0.104
-192.217	24.366	0.168	0.137
-191.202	800.000	-0.032	0.118
-190.187	800.000	-0.057	-0.166
-189.173	64.492	-0.142	0.142
-188.158	-47.214	-0.161	0.077
-187.144	26.623	0.302	-0.250
-186.129	151.204	0.256	-0.344
-185.114	652.678	0.019	-0.048
-184.100	-27.791	0.159	0.091
-183.085	65.068	-0.182	0.182
-182.071	202.444	0.139	0.212
-181.056	104.090	0.095	-0.111
-180.042	-200.000	-0.011	-0.218
-179.027	-72.814	0.248	0.090
-178.012	115.361	0.252	0.304
-176.998	-200.000	0.040	-0.258
-175.983	800.000	-0.067	0.246
-174.969	-200.000	-0.060	0.274
-173.954	36.272	-0.278	0.242
-172.939	234.850	0.038	-0.063
-171.925	296.176	-0.131	0.238
-170.910	-104.464	-0.284	-0.065
-169.896	-52.478	-0.326	-0.149
-168.881	169.455	-0.073	0.103
-167.866	223.221	-0.135	-0.215
-166.852	14.581	-0.132	0.102
-165.837	-200.000	0.018	-0.097
-164.823	-37.523	-0.142	0.075
-163.808	-200.000	-0.024	-0.200
-162.793	-13.339	0.188	0.121
-161.779	-157.456	0.216	-0.013
-160.764	-125.319	0.158	0.024
-159.750	800.000	-0.083	-0.272
-158.735	116.652	-0.164	-0.199
-157.720	-63.819	0.290	0.117
-156.706	-200.000	-0.061	-0.380
-155.691	-200.000	0.039	0.200
-154.677	-124.490	0.339	-0.052
-153.662	800.000	-0.135	-0.467
-152.647	-54.760	0.040	0.018
-151.633	412.732	-0.045	0.095
-150.618	800.000	-0.020	0.084
-149.604	80.975	0.502	0.535
-148.589	-120.716	0.121	0.020
-147.574	158.706	0.225	-0.308
-146.560	-91.934	0.108	-0.030
-145.545	-200.000	-0.012	0.127
-144.531	-200.000	0.012	0.427
-143.516	-94.013	0.287	-0.078
-142.502	134.056	-0.182	-0.233
-141.487	800.000	0.066	0.270
-140.472	-200.000	-0.021	-0.261
-139.458	-55.802	0.313	-0.138
-138.443	-38.746	0.297	-0.155
-137.429	-4.357	-0.073	0.050
-136.414	800.000	-0.055	0.163
-135.399	224.587	0.059	-0.094
-134.385	165.111	-0.083	0.115
-133.370	169.692	0.075	0.105
-132.356	16.222	-0.300	-0.233
-131.341	467.071	0.088	-0.194
-130.326	800.000	-0.043	0.168
-129.312	510.989	-0.018	0.041
-128.297	424.207	0.019	0.041
-127.283	800.000	-0.133	-0.391
-126.268	-161.899	0.179	-0.009
-125.253	-164.894	0.435	-0.019
-124.239	-137.941	-0.337	0.037
-123.224	-20.917	0.530	0.320
-122.210	-200.000	0.001	-0.283
-121.195	-200.000	-0.041	-0.369
