DTS Sentinel unit serial number:	SN413079Multiplexer serial number:	ORYXHardware model number:	OX4-SRSoftware version number:	ORYX F/W v4.00 Oryx Data Collector v3.7.2.0data status	okinstallation	princeton_trtdifferential loss correction	single-endedforward channel	channel 4reverse channel	N/Adate	2019/09/13time	01:29:34forward acquisition time	60.00reverse acquisition time	0.00gamma	496.2192k internal	0.2318k external	0.2318temperature offset calibration	1.0169default loss term (dB/km)	0.3790temperature slope calibration	1.0000multiplexer offset coefficient	1.0000multiplexer slope coefficient	1.0000fibre end	0.00T internal ref (°C)	27.81T ext. ref 1 (°C)	3.72T ext. ref 2 (°C)	22.48length (m)	temperature (°C)	Stokes	anti-Stokes-747.200	-200.000	0.068	0.390
-746.185	198.440	0.161	0.249
-745.171	800.000	-0.038	-0.111
-744.156	55.201	0.164	-0.161
-743.142	-200.000	-0.048	-0.369
-742.127	800.000	-0.028	0.117
-741.112	-200.000	0.027	0.138
-740.098	-103.287	-0.562	0.134
-739.083	-40.339	-0.114	-0.060
-738.069	-2.283	-0.238	-0.169
-737.054	-168.640	-0.228	-0.009
-736.039	-89.432	-0.273	0.081
-735.025	800.000	0.070	-0.277
-734.010	59.820	-0.199	0.199
-732.996	-171.730	-0.143	-0.005
-731.981	-129.550	-0.232	0.032
-730.966	334.630	-0.089	-0.174
-729.952	66.033	0.278	-0.285
-728.937	115.275	-0.192	0.237
-727.923	535.869	-0.067	-0.161
-726.908	-93.483	-0.272	0.076
-725.894	-23.895	0.325	0.196
-724.879	-44.450	0.096	-0.049
-723.864	-123.670	-0.204	-0.033
-722.850	-100.781	-0.070	-0.017
-721.835	-200.000	0.036	-0.166
-720.821	118.008	0.069	-0.086
-719.806	-8.292	-0.320	-0.217
-718.791	148.408	-0.065	0.089
-717.777	95.130	-0.147	0.169
-716.762	-200.000	0.005	0.185
-715.748	-200.000	-0.036	0.194
-714.733	104.217	-0.242	-0.287
-713.718	-200.000	-0.047	-0.350
-712.704	280.287	0.065	-0.118
-711.689	-80.503	-0.282	-0.095
-710.675	14.838	-0.060	0.047
-709.660	-28.586	-0.155	0.090
-708.645	727.759	-0.079	0.213
-707.631	800.000	-0.050	-0.173
-706.616	-200.000	-0.069	-0.425
-705.602	-24.834	0.099	-0.059
-704.587	-108.670	0.298	-0.064
-703.572	64.633	0.072	0.073
-702.558	-200.000	-0.013	-0.128
-701.543	61.221	0.079	-0.079
-700.529	-65.359	-0.136	-0.055
-699.514	71.290	0.173	0.182
-698.499	185.856	0.183	-0.275
-697.485	-200.000	0.029	-0.176
-696.470	-113.716	-0.142	0.028
-695.456	82.435	0.276	-0.302
-694.441	800.000	0.052	-0.155
-693.426	-16.511	0.288	0.184
-692.412	-4.686	0.083	-0.058
-691.397	97.734	0.047	0.055
-690.383	-200.000	0.028	-0.197
-689.368	-103.442	0.301	0.072
-688.354	56.829	0.180	0.177
-687.339	-118.340	-0.195	0.035
-686.324	-200.000	0.035	0.305
-685.310	800.000	0.044	0.192
-684.295	-98.627	-0.172	0.044
-683.281	273.222	0.041	-0.073
-682.266	82.575	0.231	0.253
-681.251	236.545	0.082	-0.137
-680.237	-200.000	-0.057	0.258
-679.222	360.813	0.113	0.228
-678.208	800.000	-0.039	-0.155
-677.193	-105.551	-0.176	0.040
-676.178	169.607	-0.221	-0.318
-675.164	-132.504	-0.068	-0.009
-674.149	116.773	0.073	0.091
-673.135	338.955	0.114	0.224
-672.120	-18.217	-0.291	-0.184
-671.105	113.661	0.196	0.240
-670.091	800.000	0.050	0.148
-669.076	32.855	0.129	0.112
-668.062	49.978	-0.178	-0.169
-667.047	623.528	-0.144	-0.367
-666.032	-44.283	-0.174	0.088
-665.018	10.121	0.022	-0.017
-664.003	-200.000	0.008	-0.289
-662.989	115.151	0.052	0.064
-661.974	-107.740	-0.030	-0.007
-660.959	-29.548	-0.076	-0.044
-659.945	28.228	-0.058	0.049
-658.930	242.302	0.059	-0.099
-657.916	111.989	0.139	-0.169
-656.901	51.414	-0.057	-0.054
-655.886	-173.167	-0.312	0.010
-654.872	461.034	-0.237	-0.533
-653.857	-21.076	0.175	-0.108
-652.843	-7.321	0.189	-0.129
-651.828	-200.000	0.028	0.239
-650.814	-18.255	-0.119	-0.075
-649.799	26.959	-0.250	-0.212
-648.784	-200.000	0.025	0.258
-647.770	-200.000	0.012	0.166
-646.755	-200.000	0.017	-0.176
-645.741	800.000	0.012	-0.046
-644.726	-2.709	0.081	0.057
-643.711	-200.000	-0.022	0.101
-642.697	-3.598	0.089	-0.062
-641.682	35.799	-0.125	-0.111
-640.668	-86.480	-0.039	0.012
-639.653	59.608	0.224	0.223
-638.638	800.000	-0.057	-0.166
-637.624	-200.000	-0.020	0.152
-636.609	800.000	-0.008	-0.023
-635.595	-200.000	-0.006	0.082
-634.580	65.225	-0.190	-0.193
-633.565	-200.000	0.007	-0.168
-632.551	-200.000	0.004	-0.168
-631.536	232.564	-0.125	-0.207
-630.522	-171.372	-0.103	-0.003
-629.507	67.268	0.188	0.193
-628.492	80.947	0.240	-0.261
-627.478	-19.800	0.057	0.036
-626.463	800.000	-0.113	0.450
-625.449	-64.082	0.415	0.171
-624.434	158.057	-0.100	0.139
-623.419	-6.729	0.050	-0.034
-622.405	193.080	-0.136	0.207
-621.390	526.521	-0.159	0.378
-620.376	-22.874	-0.186	0.113
-619.361	252.309	-0.093	-0.159
-618.346	123.806	0.061	-0.077
-617.332	-69.891	-0.155	0.060
-616.317	-200.000	0.011	0.062
-615.303	-31.718	-0.281	-0.159
-614.288	-92.714	0.154	-0.043
-613.273	51.970	-0.075	-0.072
-612.259	-163.585	-0.085	-0.004
-611.244	-200.000	0.030	0.256
-610.230	-80.980	0.107	0.036
-609.215	-138.252	-0.399	0.044
-608.201	372.854	-0.089	-0.181
-607.186	285.124	0.044	-0.080
-606.171	110.346	-0.126	0.153
-605.157	-200.000	0.028	0.164
-604.142	-200.000	-0.080	-0.456
-603.128	-146.101	-0.097	0.009
-602.113	-2.561	0.105	0.074
-601.098	800.000	-0.063	-0.264
-600.084	-154.732	-0.048	-0.003
-599.069	-168.562	0.340	0.013
-598.055	-137.642	0.171	0.019
-597.040	77.180	0.055	-0.059
-596.025	-146.245	0.184	-0.016
-595.011	-25.467	-0.111	-0.066
-593.996	-200.000	0.029	-0.289
-592.982	495.238	-0.153	-0.353
-591.967	73.855	-0.109	0.115
-590.952	-200.000	-0.044	-0.241
-589.938	-14.952	-0.175	-0.113
-588.923	-144.405	-0.221	0.021
-587.909	-200.000	0.001	-0.136
-586.894	244.818	-0.150	0.254
-585.879	225.472	0.204	-0.333
-584.865	-9.598	-0.083	0.056
-583.850	-77.809	-0.212	0.074
-582.836	114.665	-0.149	-0.183
-581.821	800.000	-0.032	0.094
-580.806	-126.278	-0.105	0.016
-579.792	-186.268	-0.685	-0.010
-578.777	-200.000	0.017	-0.079
-577.763	-51.137	-0.132	0.062
-576.748	-200.000	0.045	-0.226
-575.733	-112.487	-0.187	-0.038
-574.719	-84.985	-0.302	-0.095
-573.704	-76.652	0.189	0.067
-572.690	252.614	-0.046	0.079
-571.675	-200.000	-0.042	0.000
-570.661	351.321	-0.052	-0.103
-569.646	250.842	-0.053	-0.091
-568.631	-55.268	-0.110	-0.050
-567.617	-10.311	-0.138	0.092
-566.602	194.131	0.143	0.218
-565.588	-44.156	-0.326	0.164
-564.573	157.299	0.276	-0.383
-563.558	14.377	0.093	0.073
-562.544	-200.000	0.045	0.230
-561.529	-92.559	0.074	0.021
-560.515	72.969	0.164	0.172
-559.500	-124.316	-0.201	-0.031
-558.485	193.181	-0.259	0.393
-557.471	-55.594	0.253	0.114
-556.456	27.220	0.266	-0.224
-555.442	-17.963	0.240	-0.151
-554.427	-143.929	0.063	0.006
-553.412	-171.254	-0.116	-0.004
-552.398	-13.595	-0.149	-0.097
-551.383	-200.000	0.006	-0.112
-550.369	107.183	-0.130	0.155
-549.354	-53.462	0.075	-0.034
-548.339	68.333	-0.422	0.434
-547.325	-200.000	-0.046	0.211
-546.310	-200.000	0.003	-0.087
-545.296	-200.000	-0.020	0.145
-544.281	-25.096	0.081	0.048
-543.266	800.000	-0.114	-0.411
-542.252	104.047	0.243	-0.287
-541.237	-195.000	0.046	-0.000
-540.223	800.000	-0.007	0.023
-539.208	409.693	0.016	0.034
-538.193	-45.308	0.130	0.065
-537.179	-200.000	0.013	0.148
-536.164	703.416	-0.111	-0.294
-535.150	-74.106	0.417	-0.152
-534.135	-181.581	0.046	0.001
-533.121	-150.567	0.240	-0.018
-532.106	206.222	-0.132	-0.207
-531.091	122.557	0.031	0.039
-530.077	15.662	0.192	-0.152
-529.062	326.887	-0.045	-0.087
-528.048	-200.000	-0.004	-0.405
-527.033	213.423	0.162	-0.257
-526.018	3.521	-0.162	0.119
-525.004	-90.734	0.066	-0.019
-523.989	-200.000	-0.006	-0.054
-522.975	-112.629	-0.181	-0.036
-521.960	-12.488	-0.139	-0.091
-520.945	-200.000	0.009	-0.292
-519.931	800.000	0.012	-0.039
-518.916	-200.000	0.015	-0.076
-517.902	11.130	-0.237	0.182
-516.887	-57.329	-0.294	0.130
-515.872	656.912	-0.092	0.236
-514.858	-90.276	0.145	-0.042
-513.843	-63.453	0.347	-0.143
-512.829	-139.011	-0.397	-0.043
-511.814	361.184	0.213	0.428
-510.799	15.682	-0.053	0.042
-509.785	-27.434	0.345	-0.201
-508.770	800.000	-0.133	-0.381
-507.756	800.000	-0.052	-0.162
-506.741	308.992	-0.045	0.084
-505.726	118.990	-0.197	0.244
-504.712	-200.000	-0.008	0.078
-503.697	-200.000	-0.001	-0.179
-502.683	-200.000	-0.032	0.208
-501.668	81.344	-0.112	0.122
-500.653	393.528	0.050	-0.105
-499.639	-114.726	0.070	0.013
-498.624	24.172	0.141	-0.117
-497.610	-72.432	0.280	0.104
-496.595	37.245	0.288	-0.256
-495.581	-173.150	0.149	-0.005
-494.566	273.005	-0.089	0.158
-493.551	-49.063	0.095	-0.046
-492.537	-46.762	0.300	-0.147
-491.522	400.927	0.051	-0.108
-490.508	7.343	0.093	-0.070
-489.493	-158.659	0.129	-0.007
-488.478	748.267	-0.067	-0.182
-487.464	-85.011	0.205	0.064
-486.449	373.155	0.107	0.218
-485.435	16.514	0.150	0.119
-484.420	-200.000	0.030	0.222
-483.405	-65.508	-0.086	0.034
-482.391	-200.000	0.012	0.339
-481.376	189.019	0.131	0.196
-480.362	-181.705	-0.157	-0.003
-479.347	341.754	-0.193	-0.378
-478.332	-22.378	0.232	-0.141
-477.318	113.225	-0.197	-0.239
-476.303	126.356	0.265	-0.336
-475.289	-200.000	0.044	-0.417
-474.274	197.237	-0.137	-0.209
-473.259	-84.756	0.108	-0.034
-472.245	-194.938	0.300	0.002
-471.230	598.273	0.061	0.152
-470.216	79.994	0.101	-0.109
-469.201	800.000	-0.080	-0.338
-468.186	-200.000	0.003	-0.043
-467.172	-35.747	-0.263	0.142
-466.157	138.658	-0.116	0.152
-465.143	-45.663	-0.150	-0.074
-464.128	-80.283	-0.098	-0.033
-463.113	26.216	-0.107	0.090
-462.099	800.000	-0.116	0.443
-461.084	197.379	-0.099	0.151
-460.070	-200.000	0.034	0.181
-459.055	148.225	0.249	0.336
-458.040	-8.018	-0.320	0.216
-457.026	-85.499	-0.380	0.118
-456.011	305.676	-0.049	-0.092
-454.997	-200.000	0.027	0.143
-453.982	284.161	-0.095	0.171
-452.968	183.304	-0.076	0.112
-451.953	-69.938	-0.302	0.115
-450.938	518.190	0.037	0.086
-449.924	579.903	0.032	-0.079
-448.909	-200.000	-0.032	0.220
-447.895	346.656	0.048	0.095
-446.880	800.000	0.088	-0.273
-445.865	-106.680	0.482	0.107
-444.851	53.471	-0.174	-0.167
-443.836	-118.156	0.153	0.027
-442.822	99.838	-0.140	0.163
-441.807	-58.648	-0.198	0.086
-440.792	-82.388	0.155	0.050
-439.778	26.251	0.066	0.056
-438.763	-169.815	-0.115	0.004
-437.749	473.836	-0.080	0.179
-436.734	800.000	0.104	0.307
-435.719	113.065	-0.113	0.136
-434.705	-200.000	-0.011	-0.273
-433.690	-139.013	0.150	-0.016
-432.676	279.640	-0.025	0.044
-431.661	317.303	-0.204	-0.386
-430.646	-200.000	0.077	0.513
-429.632	516.528	-0.021	0.050
-428.617	405.944	0.141	-0.297
-427.603	-8.291	0.258	0.174
-426.588	-73.154	0.299	-0.110
-425.573	-66.181	0.317	-0.126
-424.559	-67.507	0.197	-0.077
-423.544	-65.884	0.068	-0.027
-422.530	-3.479	0.236	0.164
-421.515	-200.000	-0.018	-0.276
-420.500	-102.979	0.043	0.010
-419.486	-200.000	-0.009	0.301
-418.471	-108.537	0.452	0.097
-417.457	706.977	-0.135	0.357
-416.442	-142.250	-0.096	0.009
-415.428	800.000	0.043	0.180
-414.413	-200.000	-0.001	0.094
-413.398	18.214	0.102	-0.082
-412.384	-51.510	0.084	0.039
-411.369	3.070	0.097	0.071
-410.355	-184.731	0.130	-0.002
-409.340	0.311	-0.293	0.209
-408.325	-135.246	0.177	0.021
-407.311	-85.421	0.405	-0.126
-406.296	47.194	-0.166	0.154
-405.282	-67.547	-0.096	-0.037
-404.267	507.320	0.045	-0.105
-403.252	800.000	0.048	0.146
-402.238	-42.360	-0.296	-0.151
-401.223	-19.030	-0.284	-0.176
-400.209	-150.137	-0.254	-0.020
-399.194	-24.662	-0.136	0.081
-398.179	96.919	-0.148	0.169
-397.165	800.000	-0.101	0.310
-396.150	53.855	0.087	0.084
-395.136	-152.151	-0.173	-0.013
-394.121	800.000	-0.078	-0.267
-393.106	-200.000	0.030	0.446
-392.092	334.729	0.154	0.297
-391.077	-63.885	0.125	0.051
-390.063	-200.000	0.000	-0.102
-389.048	-82.128	0.154	-0.050
-388.033	168.116	-0.128	-0.181
-387.019	-104.373	0.149	-0.034
-386.004	800.000	0.086	-0.339
-384.990	800.000	-0.049	-0.204
-383.975	-49.833	0.145	0.069
-382.960	-2.623	-0.211	-0.148
-381.946	94.131	-0.166	-0.188
-380.931	800.000	0.139	0.499
-379.917	36.431	0.355	0.312
-378.902	800.000	0.099	0.387
-377.888	-47.528	-0.182	0.088
-376.873	-147.782	-0.241	0.020
-375.858	433.114	0.173	-0.374
-374.844	-130.518	0.077	0.010
-373.829	9.088	-0.246	-0.185
-372.815	-91.261	-0.257	-0.073
-371.800	94.501	0.101	-0.115
-370.785	-200.000	0.008	-0.067
-369.771	800.000	-0.019	-0.062
-368.756	-200.000	0.005	-0.271
-367.742	800.000	-0.030	0.107
-366.727	-103.679	-0.094	0.022
-365.712	-154.733	-0.215	0.014
-364.698	-43.396	-0.108	0.055
-363.683	75.614	-0.278	-0.292
-362.669	-51.677	-0.200	0.093
-361.654	-112.609	0.208	0.041
-360.639	-172.168	0.280	0.009
-359.625	296.821	0.031	-0.058
-358.610	-40.030	-0.055	0.029
-357.596	109.981	-0.045	-0.054
-356.581	92.625	0.069	-0.077
-355.566	-23.141	0.268	-0.161
-354.552	-91.521	0.158	-0.045
-353.537	-110.028	0.144	0.030
-352.523	-60.974	0.130	-0.055
-351.508	-125.858	0.337	-0.051
-350.493	-118.377	-0.319	-0.056
-349.479	325.141	-0.107	0.204
-348.464	800.000	0.039	0.150
-347.450	-198.527	-0.368	0.002
-346.435	-130.331	0.046	-0.006
-345.420	-200.000	-0.051	0.273
-344.406	800.000	0.017	0.048
-343.391	800.000	-0.060	-0.164
-342.377	58.369	-0.213	-0.208
-341.362	-200.000	0.034	-0.210
-340.348	800.000	-0.027	0.110
-339.333	-34.926	-0.089	-0.048
-338.318	12.014	-0.166	-0.127
-337.304	-140.144	0.407	-0.043
-336.289	-153.544	-0.245	0.017
-335.275	800.000	0.112	-0.350
-334.260	-137.567	0.237	0.027
-333.245	-63.392	-0.149	0.061
-332.231	-200.000	0.013	0.184
-331.216	63.398	0.242	-0.242
-330.202	-23.118	-0.100	0.060
-329.187	-199.939	-0.180	0.001
-328.172	-15.210	0.181	0.115
-327.158	-20.892	0.113	-0.069
-326.143	-7.849	-0.159	-0.107
-325.129	-200.000	0.023	0.125
-324.114	-200.000	-0.013	-0.254
-323.099	34.397	-0.281	0.244
-322.085	800.000	-0.079	0.277
-321.070	197.914	-0.246	-0.374
-320.056	-96.925	0.353	-0.092
-319.041	215.085	-0.160	0.252
-318.026	-200.000	-0.054	-0.355
-317.012	17.111	-0.192	0.151
-315.997	-122.085	-0.378	0.062
-314.983	538.641	0.115	0.272
-313.968	-160.251	0.271	-0.015
-312.953	-32.396	-0.014	-0.008
-311.939	-200.000	0.060	0.341
-310.924	29.480	0.043	-0.037
-309.910	34.402	-0.241	0.209
-308.895	-200.000	-0.010	0.252
-307.880	-200.000	0.019	0.133
-306.866	-95.341	-0.094	0.025
-305.851	-146.086	0.384	0.034
-304.837	77.455	-0.074	0.078
-303.822	-61.870	-0.254	-0.106
-302.807	-200.000	-0.039	0.191
-301.793	-34.560	0.048	0.026
-300.778	377.583	0.094	-0.190
-299.764	-200.000	-0.049	0.330
-298.749	-41.009	-0.310	-0.159
-297.735	483.597	-0.016	0.035
-296.720	405.870	-0.061	0.128
-295.705	800.000	0.071	0.287
-294.691	-111.563	0.376	0.076
-293.676	167.228	0.102	-0.144
-292.662	-174.662	-0.352	0.010
-291.647	800.000	-0.092	-0.272
-290.632	309.027	-0.178	-0.331
-289.618	242.454	0.343	-0.570
-288.603	124.444	0.166	0.208
-287.589	-200.000	0.008	0.082
-286.574	279.978	-0.063	-0.112
-285.559	-200.000	0.057	0.270
-284.545	-200.000	0.005	0.066
-283.530	2.314	-0.160	-0.115
-282.516	680.680	0.090	0.233
-281.501	800.000	-0.040	-0.162
-280.486	43.288	-0.274	-0.249
-279.472	3.355	0.377	0.273
-278.457	606.211	-0.116	0.287
-277.443	-107.634	-0.263	0.057
-276.428	-200.000	0.005	0.050
-275.413	-200.000	0.015	0.114
-274.399	2.581	0.193	0.139
-273.384	800.000	-0.100	-0.300
-272.370	152.970	-0.106	0.144
-271.355	91.731	-0.091	-0.102
-270.340	800.000	-0.092	0.312
-269.326	55.932	0.224	-0.215
-268.311	-124.478	0.207	-0.032
-267.297	166.333	0.271	-0.381
-266.282	-200.000	-0.001	-0.030
-265.267	217.282	0.097	0.154
-264.253	-68.894	0.193	-0.074
-263.238	-143.414	-0.081	0.008
-262.224	2.544	0.263	-0.189
-261.209	-114.182	0.249	0.048
-260.195	130.897	0.179	-0.228
-259.180	74.912	0.036	0.038
-258.165	-47.213	-0.343	-0.166
-257.151	53.384	-0.104	0.099
-256.136	15.982	-0.074	0.058
-255.122	72.552	-0.050	-0.052
-254.107	-14.389	0.241	0.154
-253.092	533.562	0.071	-0.167
-252.078	-129.168	-0.107	0.015
-251.063	800.000	0.036	-0.137
-250.049	800.000	0.076	-0.279
-249.034	-30.173	-0.141	-0.080
-248.019	42.642	0.349	0.315
-247.005	98.779	0.135	0.154
-245.990	-134.339	0.258	0.031
-244.976	-83.770	0.143	0.045
-243.961	-200.000	0.022	0.133
-242.946	-29.719	-0.309	-0.175
-241.932	38.885	0.145	-0.129
-240.917	-200.000	-0.089	0.558
-239.903	800.000	0.048	-0.160
-238.888	-43.537	-0.069	0.034
-237.873	800.000	0.023	-0.081
-236.859	83.717	0.119	-0.129
-235.844	565.274	0.042	-0.101
-234.830	313.729	-0.152	0.284
-233.815	800.000	-0.016	0.062
-232.800	38.504	0.199	-0.176
-231.786	-29.790	0.261	0.147
-230.771	20.781	-0.154	0.123
-229.757	-200.000	0.046	0.292
-228.742	-77.740	0.065	-0.022
-227.727	146.869	-0.208	0.277
-226.713	116.896	0.115	0.140
-225.698	-200.000	0.000	0.162
-224.684	-200.000	-0.058	-0.424
-223.669	-70.283	-0.143	0.054
-222.655	-57.307	-0.112	-0.049
-221.640	800.000	0.022	0.076
-220.625	22.161	0.344	0.278
-219.611	306.814	0.135	0.250
-218.596	-189.566	0.289	-0.003
-217.582	-200.000	0.036	-0.201
-216.567	-200.000	-0.042	0.337
-215.552	-200.000	-0.038	0.434
-214.538	800.000	-0.038	0.139
-213.523	-105.853	-0.382	0.086
-212.509	622.349	0.147	-0.366
-211.494	-187.090	0.250	-0.003
-210.479	-139.608	-0.221	0.023
-209.465	-167.202	-0.269	-0.011
-208.450	147.276	-0.239	-0.319
-207.436	-99.481	0.232	-0.058
-206.421	800.000	0.032	-0.112
-205.406	442.661	-0.027	0.059
-204.392	12.243	-0.114	0.087
-203.377	-200.000	-0.008	-0.103
-202.363	-62.910	-0.134	-0.055
-201.348	647.377	0.131	-0.331
-200.333	30.197	-0.029	0.024
-199.319	-200.000	-0.023	0.183
-198.304	337.150	0.064	-0.124
-197.290	205.733	0.114	-0.176
-196.275	222.221	0.057	-0.091
-195.260	800.000	-0.059	0.182
-194.246	-179.365	0.267	-0.006
-193.231	-50.327	-0.143	0.067
-192.217	-131.739	0.269	0.035
-191.202	-17.575	0.195	-0.122
-190.187	731.032	-0.148	-0.391
-189.173	413.416	-0.105	0.222
-188.158	-32.163	-0.148	0.082
-187.144	800.000	0.108	-0.311
-186.129	-36.338	0.094	0.050
-185.114	-89.395	-0.147	0.043
-184.100	-92.736	0.169	-0.047
-183.085	800.000	0.029	0.095
-182.071	-28.149	-0.315	-0.180
-181.056	-67.148	0.208	0.081
-180.042	138.142	-0.242	0.315
-179.027	75.467	0.149	-0.155
-178.012	-115.947	0.205	0.038
-176.998	94.828	0.050	-0.057
-175.983	-31.689	0.117	0.065
-174.969	-141.328	-0.152	0.015
-173.954	-16.956	0.179	0.112
-172.939	800.000	-0.017	0.070
-171.925	244.228	-0.075	0.124
-170.910	-200.000	0.045	-0.198
-169.896	7.131	0.327	-0.242
-168.881	-119.463	0.239	-0.041
-167.866	-26.905	-0.093	0.054
-166.852	-200.000	0.002	-0.185
-165.837	-117.881	0.039	-0.007
-164.823	79.669	0.169	0.180
-163.808	39.050	-0.148	-0.131
-162.793	7.115	-0.304	-0.224
-161.779	-151.308	0.200	-0.015
-160.764	-97.894	0.151	0.039
-159.750	-179.761	-0.192	0.004
-158.735	-52.933	-0.250	-0.114
-157.720	800.000	-0.168	-0.537
-156.706	800.000	0.098	-0.301
-155.691	800.000	-0.130	0.372
-154.677	25.765	-0.139	0.115
-153.662	15.298	0.171	-0.133
-152.647	-135.437	-0.227	-0.027
-151.633	-200.000	0.012	-0.078
-150.618	128.497	-0.162	-0.204
-149.604	622.379	-0.022	0.056
-148.589	-200.000	-0.053	0.328
-147.574	-200.000	0.014	0.143
-146.560	-200.000	0.002	0.008
-145.545	-15.935	-0.073	0.046
-144.531	-64.955	-0.031	0.012
-143.516	-138.189	0.358	0.039
-142.502	-102.166	0.228	-0.054
-141.487	-19.266	-0.172	-0.106
-140.472	-200.000	0.003	-0.077
-139.458	-104.759	0.172	-0.039
-138.443	-120.996	0.113	0.019
-137.429	800.000	0.077	-0.249
-136.414	-66.352	0.161	0.063
-135.399	47.015	-0.135	0.124
-134.385	-158.597	-0.169	-0.010
-133.370	-19.385	0.159	0.097
-132.356	60.724	0.201	0.197
-131.341	-200.000	0.001	0.161
-130.326	-109.485	-0.266	0.055
-129.312	800.000	-0.022	-0.092
-128.297	-200.000	0.020	0.129
-127.283	80.716	-0.087	0.093
-126.268	-82.903	-0.292	-0.093
-125.253	6.119	0.044	0.032
-124.239	185.032	0.054	0.079
-123.224	-160.759	0.208	-0.011
-122.210	-200.000	-0.005	0.076
-121.195	800.000	-0.103	-0.308
