DTS Sentinel unit serial number:	SN413079Multiplexer serial number:	ORYXHardware model number:	OX4-SRSoftware version number:	ORYX F/W v4.00 Oryx Data Collector v3.7.2.0data status	okinstallation	princeton_trtdifferential loss correction	single-endedforward channel	channel 4reverse channel	N/Adate	2019/09/15time	23:25:35forward acquisition time	60.00reverse acquisition time	0.00gamma	496.2192k internal	0.2322k external	0.2322temperature offset calibration	0.9960default loss term (dB/km)	0.3790temperature slope calibration	1.0000multiplexer offset coefficient	1.0000multiplexer slope coefficient	1.0000fibre end	0.00T internal ref (°C)	28.25T ext. ref 1 (°C)	9.15T ext. ref 2 (°C)	22.10length (m)	temperature (°C)	Stokes	anti-Stokes-747.200	3.830	0.012	-0.009
-746.185	-200.000	0.091	0.528
-745.171	-200.000	0.092	0.428
-744.156	103.089	-0.131	0.156
-743.142	-200.000	0.053	-0.328
-742.127	-200.000	-0.046	0.518
-741.112	7.456	0.148	0.112
-740.098	266.161	-0.305	0.538
-739.083	24.958	0.050	0.042
-738.069	-38.679	0.160	0.085
-737.054	-164.946	-0.495	-0.022
-736.039	-174.669	-0.267	0.008
-735.025	-108.162	-0.226	0.049
-734.010	22.261	-0.104	-0.086
-732.996	-200.000	-0.009	0.153
-731.981	581.268	-0.042	-0.105
-730.966	88.303	0.120	-0.135
-729.952	-31.068	0.248	0.142
-728.937	-29.568	0.108	-0.062
-727.923	-89.250	-0.483	-0.144
-726.908	-31.347	0.405	0.230
-725.894	600.897	0.138	0.346
-724.879	46.522	-0.125	0.117
-723.864	-68.569	-0.016	-0.006
-722.850	47.252	-0.088	0.082
-721.835	800.000	-0.045	-0.139
-720.821	-200.000	0.016	-0.209
-719.806	-194.166	-0.315	0.003
-718.791	158.503	0.035	0.048
-717.777	-85.417	0.171	0.054
-716.762	-200.000	0.114	0.000
-715.748	-200.000	-0.039	-0.408
-714.733	245.163	0.045	0.076
-713.718	800.000	0.012	-0.038
-712.704	666.251	0.022	-0.058
-711.689	71.947	0.095	0.100
-710.675	-83.882	-0.230	-0.074
-709.660	-200.000	-0.025	0.200
-708.645	-163.471	0.311	-0.015
-707.631	37.458	-0.133	0.119
-706.616	52.430	-0.426	0.411
-705.602	-200.000	0.015	0.129
-704.587	-47.208	-0.099	-0.049
-703.572	237.005	0.045	0.075
-702.558	-200.000	0.042	-0.206
-701.543	-58.834	-0.269	-0.117
-700.529	413.391	-0.128	-0.275
-699.514	91.101	-0.223	-0.252
-698.499	709.812	-0.026	0.068
-697.485	755.752	-0.100	-0.273
-696.470	-108.285	0.314	0.068
-695.456	-67.315	-0.152	0.060
-694.441	95.146	0.102	-0.117
-693.426	-68.967	-0.131	-0.051
-692.412	23.843	0.081	-0.067
-691.397	-114.755	-0.205	0.039
-690.383	-9.883	-0.074	-0.049
-689.368	-34.557	0.201	-0.111
-688.354	161.915	-0.148	-0.209
-687.339	152.100	-0.041	-0.057
-686.324	427.009	-0.064	0.140
-685.310	-136.329	-0.218	-0.026
-684.295	-31.136	0.332	-0.189
-683.281	80.710	0.178	-0.193
-682.266	391.518	-0.033	-0.068
-681.251	-200.000	0.000	0.036
-680.237	-55.829	0.131	0.059
-679.222	-69.680	0.139	0.054
-678.208	800.000	-0.051	0.216
-677.193	-65.926	-0.050	0.020
-676.178	800.000	0.038	0.109
-675.164	21.246	-0.074	-0.061
-674.149	-136.487	0.201	-0.024
-673.135	-200.000	0.008	0.034
-672.120	-200.000	0.005	-0.208
-671.105	170.124	-0.159	0.229
-670.091	-200.000	-0.038	-0.365
-669.076	33.352	0.073	-0.064
-668.062	-200.000	0.035	0.216
-667.047	61.164	-0.266	0.267
-666.032	-9.963	0.137	-0.091
-665.018	70.151	0.081	-0.085
-664.003	247.708	-0.213	-0.362
-662.989	159.689	0.058	-0.081
-661.974	-145.043	0.124	0.011
-660.959	-89.895	-0.338	0.100
-659.945	-200.000	-0.008	-0.409
-658.930	-147.546	0.235	0.020
-657.916	-4.857	-0.098	-0.068
-656.901	-200.000	-0.001	0.173
-655.886	5.597	0.232	-0.173
-654.872	-9.178	0.049	0.033
-653.857	-135.486	0.453	-0.054
-652.843	800.000	0.094	-0.290
-651.828	-68.117	-0.358	-0.140
-650.814	93.749	-0.209	-0.238
-649.799	12.074	-0.109	-0.084
-648.784	147.614	0.108	-0.147
-647.770	-144.541	0.249	-0.023
-646.755	-70.143	-0.109	0.042
-645.741	-155.011	0.271	0.018
-644.726	800.000	-0.054	0.206
-643.711	800.000	0.131	0.454
-642.697	424.922	0.143	-0.310
-641.682	-20.965	0.198	0.122
-640.668	-133.812	0.286	0.036
-639.653	17.681	-0.275	-0.220
-638.638	-200.000	-0.001	-0.356
-637.624	-200.000	0.037	0.286
-636.609	800.000	-0.124	-0.422
-635.595	-200.000	0.042	-0.217
-634.580	143.642	-0.198	0.265
-633.565	-120.284	0.258	0.044
-632.551	-147.205	-0.241	-0.021
-631.536	85.461	-0.113	0.125
-630.522	312.668	-0.048	0.090
-629.507	-170.587	0.014	-0.001
-628.492	95.213	-0.225	-0.257
-627.478	800.000	-0.076	-0.244
-626.463	-146.585	0.113	0.010
-625.449	135.289	0.070	-0.092
-624.434	132.433	-0.105	-0.136
-623.419	46.380	-0.175	0.163
-622.405	238.069	0.059	0.098
-621.390	748.766	0.057	0.156
-620.376	-184.108	0.138	0.002
-619.361	18.173	0.075	0.060
-618.346	-200.000	0.047	-0.555
-617.332	415.014	0.122	-0.262
-616.317	195.025	-0.060	0.092
-615.303	0.639	0.100	-0.072
-614.288	-56.214	-0.303	0.136
-613.273	800.000	0.041	-0.178
-612.259	295.627	0.126	0.233
-611.244	-94.565	-0.200	-0.055
-610.230	292.006	-0.133	-0.243
-609.215	42.177	-0.219	0.200
-608.201	46.140	-0.054	0.050
-607.186	224.477	-0.186	-0.302
-606.171	-28.654	0.092	-0.053
-605.157	788.528	-0.135	-0.373
-604.142	53.255	-0.132	0.127
-603.128	800.000	-0.010	0.043
-602.113	159.594	-0.074	0.103
-601.098	800.000	0.078	0.271
-600.084	45.844	-0.191	0.177
-599.069	-56.209	0.141	0.063
-598.055	105.021	0.080	-0.095
-597.040	725.531	0.127	-0.341
-596.025	357.297	-0.057	-0.115
-595.011	800.000	0.137	-0.401
-593.996	800.000	-0.060	0.187
-592.982	800.000	0.065	0.244
-591.967	36.125	0.105	0.093
-590.952	254.647	0.166	-0.286
-589.938	376.837	-0.074	0.152
-588.923	-200.000	-0.014	-0.230
-587.909	85.973	0.147	-0.162
-586.894	58.697	-0.179	0.177
-585.879	665.077	0.038	-0.098
-584.865	84.120	0.230	0.252
-583.850	800.000	-0.103	0.395
-582.836	84.436	0.066	0.072
-581.821	785.685	-0.054	-0.149
-580.806	54.512	0.159	-0.154
-579.792	166.267	-0.087	0.124
-578.777	-200.000	0.077	-0.423
-577.763	-150.801	0.340	-0.026
-576.748	11.640	-0.137	0.106
-575.733	16.542	-0.205	-0.163
-574.719	-74.886	-0.437	0.157
-573.704	800.000	-0.029	0.117
-572.690	800.000	-0.035	-0.144
-571.675	43.314	-0.186	-0.170
-570.661	646.530	0.127	-0.325
-569.646	-3.828	-0.247	0.172
-568.631	207.427	-0.166	-0.259
-567.617	-37.941	0.322	-0.172
-566.602	87.388	-0.304	-0.337
-565.588	-200.000	-0.023	-0.120
-564.573	-118.347	-0.166	0.030
-563.558	262.595	-0.126	-0.219
-562.544	-200.000	-0.041	0.238
-561.529	-124.689	0.226	-0.035
-560.515	128.575	0.145	-0.185
-559.500	800.000	0.113	-0.438
-558.485	-200.000	0.075	-0.380
-557.471	-128.399	-0.249	0.036
-556.456	-83.740	-0.189	-0.060
-555.442	-50.791	-0.144	-0.068
-554.427	43.012	0.177	0.162
-553.412	-200.000	0.033	-0.449
-552.398	-166.587	0.261	-0.011
-551.383	33.014	-0.220	0.191
-550.369	-200.000	-0.028	0.198
-549.354	68.213	0.226	0.232
-548.339	-62.311	0.400	0.167
-547.325	393.282	0.093	0.195
-546.310	35.412	0.166	0.146
-545.296	-200.000	-0.013	0.102
-544.281	-200.000	0.018	0.147
-543.266	-200.000	0.062	0.329
-542.252	160.202	0.050	-0.071
-541.237	46.758	0.224	0.209
-540.223	-1.581	-0.122	0.086
-539.208	55.034	-0.183	0.177
-538.193	-16.080	0.098	0.063
-537.179	391.643	0.025	0.051
-536.164	-9.513	-0.297	0.199
-535.150	79.146	-0.163	0.175
-534.135	-9.228	0.089	-0.060
-533.121	-142.575	0.165	-0.016
-532.106	-89.881	0.111	-0.033
-531.091	59.464	-0.339	0.334
-530.077	-176.703	-0.130	-0.003
-529.062	29.294	0.346	-0.294
-528.048	-200.000	-0.021	-0.187
-527.033	800.000	-0.089	-0.388
-526.018	-100.819	-0.187	-0.046
-525.004	315.497	-0.140	-0.265
-523.989	136.918	-0.161	-0.210
-522.975	57.215	0.118	0.115
-521.960	145.415	0.141	-0.189
-520.945	431.810	-0.086	0.187
-519.931	-71.919	0.086	0.032
-518.916	800.000	-0.101	-0.281
-517.902	-79.228	0.053	0.018
-516.887	46.528	0.153	0.142
-515.872	-54.811	0.214	-0.097
-514.858	66.413	-0.109	0.111
-513.843	493.325	-0.154	0.355
-512.829	-8.370	0.055	0.037
-511.814	504.595	0.054	-0.125
-510.799	-72.314	-0.356	0.132
-509.785	290.128	-0.070	-0.128
-508.770	800.000	-0.169	-0.493
-507.756	336.509	-0.146	0.284
-506.741	-75.247	-0.146	0.052
-505.726	158.614	0.067	-0.093
-504.712	141.895	0.075	-0.099
-503.697	77.762	-0.215	-0.230
-502.683	-26.068	-0.283	0.166
-501.668	65.409	-0.043	0.044
-500.653	329.004	0.102	0.196
-499.639	-59.038	0.211	-0.091
-498.624	-8.213	0.099	-0.067
-497.610	84.011	-0.181	-0.198
-496.595	103.442	-0.075	0.088
-495.581	-90.054	0.105	-0.030
-494.566	-43.046	-0.155	0.079
-493.551	58.060	0.154	-0.151
-492.537	-38.125	-0.225	0.120
-491.522	-200.000	0.018	-0.481
-490.508	800.000	0.016	0.049
-489.493	-200.000	0.027	0.158
-488.478	204.015	0.166	-0.257
-487.464	116.997	-0.052	0.064
-486.449	768.834	-0.039	0.105
-485.435	81.788	0.237	0.257
-484.420	-44.104	-0.457	0.229
-483.405	349.526	0.154	0.305
-482.391	-61.333	-0.170	-0.071
-481.376	-67.650	-0.349	-0.137
-480.362	-121.320	0.313	-0.052
-479.347	57.773	0.160	0.157
-478.332	228.706	-0.082	-0.133
-477.318	-17.675	0.235	0.147
-476.303	219.001	0.194	0.310
-475.289	800.000	-0.133	0.432
-474.274	-71.905	-0.326	-0.121
-473.259	-104.052	-0.164	0.038
-472.245	-200.000	0.025	0.129
-471.230	-27.936	0.162	0.094
-470.216	1.127	-0.222	0.159
-469.201	-90.139	0.148	0.043
-468.186	359.472	0.084	-0.167
-467.172	-91.227	-0.306	-0.088
-466.157	102.763	-0.118	0.138
-465.143	-6.094	-0.188	-0.128
-464.128	-200.000	-0.054	-0.336
-463.113	75.296	0.073	0.077
-462.099	-76.287	0.087	-0.030
-461.084	106.713	0.058	0.069
-460.070	91.279	-0.174	-0.195
-459.055	143.357	-0.213	-0.283
-458.040	294.856	-0.059	0.108
-457.026	-173.478	0.303	0.009
-456.011	-137.688	-0.133	-0.015
-454.997	-28.389	-0.189	-0.109
-453.982	-80.929	-0.137	0.045
-452.968	87.129	-0.035	-0.038
-451.953	80.972	0.023	0.025
-450.938	-108.732	-0.093	-0.020
-449.924	18.676	0.218	0.174
-448.909	433.202	-0.108	0.235
-447.895	-152.748	0.145	0.010
-446.880	-99.235	0.118	-0.030
-445.865	-34.523	0.096	0.052
-444.851	381.837	-0.106	0.218
-443.836	723.012	0.054	0.143
-442.822	561.056	-0.101	-0.243
-441.807	308.099	-0.095	-0.177
-440.792	-138.768	-0.243	-0.026
-439.778	157.308	0.055	-0.076
-438.763	169.167	-0.095	0.136
-437.749	-43.267	-0.304	0.154
-436.734	-113.304	-0.503	-0.099
-435.719	193.437	0.133	-0.201
-434.705	99.610	0.079	-0.091
-433.690	379.034	-0.120	-0.245
-432.676	-24.217	-0.172	-0.102
-431.661	-64.240	0.072	-0.029
-430.646	-122.297	0.051	0.008
-429.632	-65.417	0.173	-0.070
-428.617	33.549	-0.287	0.249
-427.603	800.000	0.109	-0.364
-426.588	199.824	-0.101	-0.155
-425.573	6.592	-0.113	0.084
-424.559	268.039	-0.143	-0.250
-423.544	-200.000	0.023	-0.407
-422.530	800.000	0.053	-0.218
-421.515	21.617	0.204	0.165
-420.500	27.184	-0.200	-0.167
-419.486	207.649	-0.165	0.256
-418.471	180.595	0.211	0.310
-417.457	-135.266	-0.188	-0.022
-416.442	800.000	0.052	0.188
-415.428	152.371	-0.059	-0.081
-414.413	619.829	-0.042	-0.106
-413.398	19.085	-0.124	-0.099
-412.384	-71.442	0.368	0.137
-411.369	-169.590	0.231	-0.008
-410.355	-42.845	0.394	-0.200
-409.340	-111.634	0.349	0.071
-408.325	-104.819	-0.115	0.026
-407.311	532.128	0.045	-0.107
-406.296	305.684	-0.048	-0.089
-405.282	93.607	0.228	-0.258
-404.267	414.227	-0.018	-0.037
-403.252	-105.647	0.337	0.076
-402.238	-104.639	0.143	-0.033
-401.223	54.766	0.292	0.281
-400.209	-86.751	0.401	0.122
-399.194	356.730	-0.086	-0.171
-398.179	-200.000	-0.006	0.078
-397.165	30.505	0.055	-0.047
-396.150	-200.000	0.013	0.151
-395.136	-136.680	-0.324	-0.037
-394.121	-117.051	0.151	-0.027
-393.106	-200.000	-0.021	-0.104
-392.092	4.525	0.180	-0.132
-391.077	-7.458	0.104	0.070
-390.063	-200.000	0.014	-0.151
-389.048	744.038	0.177	0.474
-388.033	800.000	0.150	-0.441
-387.019	667.480	0.128	-0.329
-386.004	54.747	-0.062	0.060
-384.990	-3.748	0.490	-0.339
-383.975	192.729	0.277	0.417
-382.960	121.018	-0.046	-0.057
-381.946	24.185	-0.137	0.112
-380.931	-200.000	-0.007	0.158
-379.917	-123.377	-0.209	-0.033
-378.902	-52.799	0.119	0.055
-377.888	33.061	0.116	0.100
-376.873	-169.506	-0.161	0.006
-375.858	800.000	0.083	0.241
-374.844	117.579	0.037	0.045
-373.829	800.000	0.042	0.174
-372.815	-111.878	-0.095	-0.019
-371.800	-47.117	-0.298	-0.145
-370.785	800.000	-0.058	0.208
-369.771	800.000	0.080	0.275
-368.756	-200.000	0.026	-0.201
-367.742	244.257	0.061	-0.101
-366.727	-200.000	-0.030	-0.318
-365.712	-9.701	-0.222	0.147
-364.698	42.446	0.283	-0.256
-363.683	-200.000	-0.004	-0.134
-362.669	344.323	-0.112	0.218
-361.654	37.359	-0.148	0.131
-360.639	155.803	-0.096	-0.131
-359.625	592.588	-0.065	0.161
-358.610	-176.110	0.224	0.006
-357.596	-77.757	-0.401	-0.138
-356.581	-59.977	0.206	-0.088
-355.566	166.803	0.098	0.138
-354.552	-22.884	0.274	-0.164
-353.537	-200.000	0.084	-0.368
-352.523	481.885	-0.072	-0.162
-351.508	-6.632	0.117	0.079
-350.493	20.777	0.245	0.197
-349.479	-200.000	0.007	-0.106
-348.464	-119.432	-0.323	0.056
-347.450	299.610	-0.024	0.044
-346.435	-62.047	0.178	0.074
-345.420	6.199	-0.241	0.178
-344.406	61.942	-0.103	0.102
-343.391	-200.000	0.007	-0.258
-342.377	-169.853	-0.338	-0.012
-341.362	43.122	0.128	0.116
-340.348	-71.814	0.234	0.087
-339.333	-200.000	0.004	-0.312
-338.318	-110.317	0.396	0.082
-337.304	-134.005	-0.354	0.044
-336.289	-77.466	0.165	0.057
-335.275	-129.836	0.030	0.004
-334.260	342.989	0.078	-0.151
-333.245	185.208	0.192	-0.283
-332.231	-200.000	-0.069	-0.473
-331.216	-200.000	0.012	-0.212
-330.202	317.882	0.111	0.208
-329.187	-129.040	0.194	-0.027
-328.172	49.809	0.189	0.177
-327.158	800.000	0.043	-0.144
-326.143	173.798	-0.076	0.109
-325.129	567.075	-0.123	0.297
-324.114	54.046	0.051	-0.048
-323.099	-145.411	-0.269	-0.024
-322.085	21.119	-0.190	-0.153
-321.070	-126.910	-0.161	0.024
-320.056	-190.056	-0.101	0.001
-319.041	-89.925	-0.082	0.024
-318.026	-88.630	0.141	-0.042
-317.012	-56.061	-0.142	-0.063
-315.997	-10.371	0.256	0.169
-314.983	-70.024	-0.281	-0.106
-313.968	-143.956	0.237	0.022
-312.953	800.000	0.089	0.351
-311.939	800.000	0.060	-0.193
-310.924	800.000	-0.017	-0.056
-309.910	-200.000	0.050	0.313
-308.895	0.507	0.186	0.132
-307.880	800.000	0.074	0.215
-306.866	-147.643	0.246	0.021
-305.851	-200.000	0.007	-0.202
-304.837	581.346	0.110	0.268
-303.822	106.387	0.167	0.197
-302.807	45.317	-0.066	0.060
-301.793	800.000	0.076	-0.295
-300.778	-142.726	0.186	0.018
-299.764	-200.000	0.024	-0.119
-298.749	-174.817	0.076	-0.002
-297.735	14.764	-0.223	0.173
-296.720	83.862	0.098	-0.106
-295.705	156.760	0.049	-0.068
-294.691	-200.000	0.001	-0.100
-293.676	8.220	0.327	0.244
-292.662	-122.288	-0.334	-0.054
-291.647	800.000	-0.024	0.076
-290.632	200.432	-0.170	0.260
-289.618	-42.156	-0.133	0.067
-288.603	-125.764	0.257	0.039
-287.589	130.004	0.222	0.282
-286.574	-89.634	0.196	0.057
-285.559	800.000	-0.034	0.121
-284.545	87.413	0.173	-0.190
-283.530	268.690	-0.078	0.136
-282.516	533.242	0.105	-0.246
-281.501	725.884	-0.104	0.276
-280.486	-53.191	-0.117	-0.053
-279.472	270.032	0.112	0.195
-278.457	-109.855	0.577	-0.120
-277.443	-41.288	0.303	0.155
-276.428	208.286	-0.101	-0.156
-275.413	-200.000	0.003	-0.089
-274.399	0.385	-0.149	-0.106
-273.384	-69.082	-0.355	-0.136
-272.370	-49.412	0.058	0.027
-271.355	159.974	0.152	-0.210
-270.340	-200.000	-0.242	-0.001
-269.326	27.437	-0.102	0.085
-268.311	-68.260	0.315	-0.121
-267.297	-136.251	0.054	-0.006
-266.282	-63.718	-0.353	0.143
-265.267	-158.561	-0.154	-0.009
-264.253	-200.000	-0.050	0.342
-263.238	50.132	-0.033	-0.031
-262.224	126.639	0.184	0.231
-261.209	254.335	-0.133	-0.226
-260.195	-116.633	0.159	-0.029
-259.180	800.000	0.068	0.197
-258.165	-139.681	-0.545	0.058
-257.151	800.000	0.045	0.149
-256.136	-3.675	0.077	0.053
-255.122	377.925	-0.019	-0.038
-254.107	79.952	0.180	0.192
-253.092	800.000	-0.035	-0.111
-252.078	800.000	-0.117	-0.348
-251.063	-200.000	0.036	0.205
-250.049	-106.232	-0.110	0.024
-249.034	-200.000	-0.036	0.213
-248.019	90.697	-0.074	0.082
-247.005	255.438	0.016	0.027
-245.990	719.833	-0.051	0.135
-244.976	-26.837	-0.212	0.123
-243.961	-107.789	-0.422	0.091
-242.946	-170.881	-0.365	-0.012
-241.932	800.000	0.014	0.039
-240.917	128.722	-0.144	-0.182
-239.903	-200.000	0.012	-0.068
-238.888	-74.760	-0.237	0.084
-237.873	-200.000	-0.002	0.176
-236.859	-51.589	0.225	0.104
-235.844	-139.147	-0.093	-0.010
-234.830	695.733	0.059	0.155
-233.815	-111.763	-0.121	0.024
-232.800	-56.522	0.475	0.209
-231.786	-173.504	0.350	-0.010
-230.771	-33.868	-0.356	-0.194
-229.757	119.157	0.266	-0.326
-228.742	-46.703	0.131	0.063
-227.727	-11.646	0.115	0.075
-226.713	-200.000	0.026	0.293
-225.698	-58.625	0.152	-0.065
-224.684	-120.618	0.068	0.011
-223.669	-31.716	-0.070	0.039
-222.655	-75.845	-0.048	0.017
-221.640	-200.000	0.014	-0.147
-220.625	-200.000	0.012	-0.274
-219.611	-39.165	-0.243	0.126
-218.596	132.837	0.126	0.161
-217.582	-143.131	-0.153	-0.015
-216.567	-109.491	0.337	-0.071
-215.552	800.000	0.080	-0.302
-214.538	-62.115	0.102	0.042
-213.523	246.443	-0.078	0.130
-212.509	-59.072	0.023	0.010
-211.494	5.559	-0.117	-0.086
-210.479	15.463	-0.281	-0.218
-209.465	-162.886	0.186	-0.009
-208.450	-200.000	-0.024	0.130
-207.436	-88.097	0.206	0.061
-206.421	800.000	-0.091	0.334
-205.406	-147.709	0.173	0.014
-204.392	-57.490	0.168	-0.073
-203.377	-20.627	0.086	0.052
-202.363	162.753	-0.180	0.249
-201.348	332.595	-0.058	0.112
-200.333	800.000	0.021	0.084
-199.319	120.222	-0.090	0.110
-198.304	166.198	-0.130	-0.182
-197.290	143.902	0.062	-0.081
-196.275	-86.815	-0.133	0.040
-195.260	-130.459	0.218	0.029
-194.246	800.000	-0.032	-0.113
-193.231	139.852	0.151	-0.197
-192.217	-30.473	0.069	-0.039
-191.202	-200.000	-0.003	0.133
-190.187	-100.584	0.282	0.069
-189.173	-184.852	-0.230	-0.004
-188.158	-109.776	0.210	0.044
-187.144	96.558	0.229	0.259
-186.129	-52.486	0.049	-0.023
-185.114	5.304	-0.379	-0.276
-184.100	800.000	0.058	-0.221
-183.085	800.000	-0.064	0.215
-182.071	-117.116	-0.039	-0.007
-181.056	-173.267	0.131	0.004
-180.042	4.148	-0.210	0.152
-179.027	-200.000	0.001	0.188
-178.012	-200.000	-0.027	0.304
-176.998	20.470	0.011	0.009
-175.983	8.585	-0.117	-0.087
-174.969	-200.000	0.015	0.115
-173.954	-200.000	0.031	-0.434
-172.939	708.071	0.156	0.407
-171.925	-157.639	-0.117	-0.007
-170.910	181.578	-0.040	-0.058
-169.896	-200.000	-0.055	-0.306
-168.881	328.473	0.089	0.169
-167.866	-186.352	0.171	-0.002
-166.852	-104.168	0.285	-0.066
-165.837	-67.534	-0.157	0.061
-164.823	755.845	0.105	0.279
-163.808	-200.000	-0.010	-0.186
-162.793	136.941	-0.268	-0.346
-161.779	468.699	-0.037	0.081
-160.764	84.085	-0.187	0.202
-159.750	13.089	0.292	0.223
-158.735	800.000	-0.068	0.288
-157.720	800.000	-0.101	0.315
-156.706	-200.000	0.078	0.427
-155.691	-137.286	-0.112	0.013
-154.677	89.501	-0.114	-0.125
-153.662	40.945	-0.287	-0.256
-152.647	-61.460	-0.251	-0.104
-151.633	-39.775	-0.155	-0.080
-150.618	-16.682	0.242	-0.151
-149.604	129.385	-0.192	0.242
-148.589	288.317	-0.130	0.232
-147.574	298.980	0.090	-0.164
-146.560	572.385	0.119	-0.287
-145.545	-200.000	0.026	-0.186
-144.531	-115.878	-0.150	-0.028
-143.516	-56.991	-0.209	0.091
-142.502	-32.628	-0.054	0.030
-141.487	-85.573	-0.045	0.014
-140.472	-200.000	-0.029	0.241
-139.458	-114.782	-0.272	-0.051
-138.443	-86.323	-0.143	-0.043
-137.429	-101.773	0.097	-0.023
-136.414	0.731	-0.164	-0.116
-135.399	362.131	0.047	0.093
-134.385	-21.839	-0.196	-0.118
-133.370	-130.708	0.111	-0.015
-132.356	93.014	-0.186	0.207
-131.341	-200.000	0.021	0.185
-130.326	37.693	0.239	-0.209
-129.312	-200.000	-0.077	0.373
-128.297	275.152	0.127	-0.223
-127.283	-200.000	-0.026	-0.120
-126.268	-110.609	-0.037	-0.007
-125.253	671.800	0.024	-0.062
-124.239	23.508	0.052	0.042
-123.224	14.642	0.044	-0.034
-122.210	684.150	-0.109	-0.280
-121.195	-200.000	-0.026	0.215
-120.180	-200.000	0.018	0.276
-119.166	72.120	-0.162	0.166
