DTS Sentinel unit serial number:	SN413079Multiplexer serial number:	ORYXHardware model number:	OX4-SRSoftware version number:	ORYX F/W v4.00 Oryx Data Collector v3.7.2.0data status	okinstallation	princeton_trtdifferential loss correction	single-endedforward channel	channel 4reverse channel	N/Adate	2019/09/13time	03:53:35forward acquisition time	60.00reverse acquisition time	0.00gamma	496.2192k internal	0.2320k external	0.2320temperature offset calibration	1.0196default loss term (dB/km)	0.3790temperature slope calibration	1.0000multiplexer offset coefficient	1.0000multiplexer slope coefficient	1.0000fibre end	0.00T internal ref (°C)	27.09T ext. ref 1 (°C)	4.08T ext. ref 2 (°C)	21.37length (m)	temperature (°C)	Stokes	anti-Stokes-747.200	-151.904	0.102	-0.008
-746.185	-50.915	0.200	-0.095
-745.171	-1.187	0.331	0.236
-744.156	-43.225	0.226	0.115
-743.142	-200.000	0.008	0.297
-742.127	89.304	-0.212	0.239
-741.112	-61.818	-0.117	-0.050
-740.098	-60.277	0.151	0.065
-739.083	800.000	-0.042	0.148
-738.069	-103.415	-0.204	0.049
-737.054	310.791	0.237	-0.449
-736.039	519.656	-0.081	-0.192
-735.025	-16.387	0.146	-0.094
-734.010	800.000	-0.091	-0.340
-732.996	-139.800	-0.228	0.024
-731.981	800.000	-0.078	0.245
-730.966	-163.807	0.266	0.013
-729.952	-200.000	-0.002	0.032
-728.937	-200.000	-0.007	-0.137
-727.923	440.830	-0.114	-0.253
-726.908	-108.130	-0.199	0.044
-725.894	23.398	-0.139	-0.116
-724.879	94.986	-0.247	-0.284
-723.864	156.890	0.155	-0.217
-722.850	234.285	-0.178	0.297
-721.835	59.135	-0.182	-0.181
-720.821	16.537	-0.285	0.228
-719.806	-2.954	0.193	-0.136
-718.791	800.000	0.073	-0.233
-717.777	221.071	-0.039	-0.064
-716.762	-200.000	-0.018	-0.109
-715.748	123.668	-0.093	-0.118
-714.733	-200.000	0.004	0.091
-713.718	99.345	-0.091	-0.106
-712.704	-96.032	-0.157	0.042
-711.689	-120.266	-0.157	0.027
-710.675	-200.000	-0.073	0.367
-709.660	-49.067	-0.180	-0.087
-708.645	-200.000	0.041	0.305
-707.631	-117.473	0.197	-0.036
-706.616	-200.000	0.069	0.334
-705.602	98.225	0.304	-0.353
-704.587	-75.681	-0.169	-0.061
-703.572	165.005	-0.167	-0.238
-702.558	23.182	0.198	0.164
-701.543	800.000	-0.078	0.327
-700.529	174.537	-0.121	0.176
-699.514	-70.952	0.201	0.076
-698.499	-56.232	-0.161	-0.072
-697.485	-97.569	-0.159	-0.042
-696.470	-28.100	-0.153	-0.089
-695.456	-200.000	0.012	0.222
-694.441	126.969	-0.120	0.154
-693.426	-200.000	0.017	-0.105
-692.412	32.614	-0.157	-0.137
-691.397	233.714	0.026	-0.044
-690.383	-165.176	0.116	-0.005
-689.368	318.012	0.071	0.136
-688.354	-93.723	-0.105	-0.029
-687.339	-189.449	0.166	-0.002
-686.324	-7.741	-0.156	-0.106
-685.310	74.048	-0.146	0.154
-684.295	101.497	-0.084	0.099
-683.281	-136.476	0.049	0.006
-682.266	169.934	-0.082	-0.119
-681.251	-53.333	-0.423	-0.196
-680.237	-118.621	-0.137	0.024
-679.222	-40.982	-0.210	0.110
-678.208	115.854	0.076	-0.094
-677.193	120.552	0.054	-0.067
-676.178	-13.201	-0.212	-0.139
-675.164	800.000	0.059	-0.207
-674.149	23.588	0.285	-0.237
-673.135	555.212	-0.061	0.147
-672.120	20.245	0.100	0.082
-671.105	-200.000	0.014	0.256
-670.091	738.695	0.061	0.165
-669.076	387.401	-0.085	0.178
-668.062	436.842	0.064	0.140
-667.047	800.000	0.043	-0.132
-666.032	329.480	0.163	-0.316
-665.018	800.000	-0.042	-0.148
-664.003	508.745	0.116	-0.272
-662.989	-3.522	0.132	0.093
-661.974	474.301	-0.072	-0.163
-660.959	-71.795	-0.356	-0.134
-659.945	800.000	-0.075	-0.243
-658.930	800.000	0.054	-0.161
-657.916	800.000	0.086	0.244
-656.901	-126.363	-0.097	0.015
-655.886	-200.000	-0.061	-0.429
-654.872	54.671	0.301	-0.292
-653.857	47.709	-0.137	-0.129
-652.843	800.000	-0.091	-0.318
-651.828	-72.728	0.413	-0.153
-650.814	-58.607	-0.108	-0.047
-649.799	20.808	-0.205	-0.167
-648.784	-87.943	0.285	-0.086
-647.770	-45.553	-0.188	-0.094
-646.755	352.068	-0.081	-0.161
-645.741	396.543	-0.020	-0.041
-644.726	143.811	-0.117	0.157
-643.711	800.000	-0.026	0.108
-642.697	-200.000	0.013	-0.108
-641.682	64.719	-0.120	-0.122
-640.668	-16.436	-0.318	-0.203
-639.653	-200.000	0.011	-0.079
-638.638	572.311	0.125	-0.307
-637.624	-157.113	0.155	0.009
-636.609	50.061	-0.129	0.123
-635.595	-131.606	-0.244	-0.032
-634.580	-200.000	0.009	0.250
-633.565	-83.338	-0.196	-0.063
-632.551	36.466	0.070	-0.062
-631.536	-12.092	-0.351	0.231
-630.522	20.147	0.155	0.126
-629.507	179.340	0.210	0.309
-628.492	-90.082	-0.284	0.083
-627.478	-168.788	0.144	0.005
-626.463	-77.506	-0.233	-0.081
-625.449	-200.000	-0.029	0.282
-624.434	-51.696	0.269	-0.126
-623.419	285.923	-0.046	0.083
-622.405	-200.000	0.010	0.163
-621.390	41.081	-0.121	0.110
-620.376	-43.941	-0.305	0.154
-619.361	-165.713	-0.194	-0.008
-618.346	422.928	-0.114	-0.246
-617.332	226.461	-0.120	-0.197
-616.317	543.389	0.096	0.230
-615.303	56.574	-0.140	-0.137
-614.288	451.194	0.107	0.238
-613.273	49.994	0.130	0.124
-612.259	-153.518	-0.271	-0.019
-611.244	-95.297	0.067	-0.018
-610.230	-200.000	0.043	0.197
-609.215	99.243	-0.090	-0.105
-608.201	-122.042	-0.385	-0.064
-607.186	-200.000	-0.009	-0.293
-606.171	-56.509	-0.113	0.051
-605.157	-65.059	0.299	-0.121
-604.142	-109.424	0.535	-0.114
-603.128	800.000	0.032	0.118
-602.113	-200.000	-0.039	-0.294
-601.098	-136.182	0.254	0.030
-600.084	-65.019	-0.199	-0.081
-599.069	-1.173	-0.206	-0.146
-598.055	65.760	0.088	0.090
-597.040	425.599	0.079	0.172
-596.025	-200.000	0.018	-0.119
-595.011	-177.014	-0.253	-0.006
-593.996	800.000	0.101	-0.352
-592.982	800.000	0.052	0.189
-591.967	800.000	0.059	0.217
-590.952	-86.285	0.208	0.064
-589.938	800.000	0.077	-0.231
-588.923	451.341	-0.085	0.190
-587.909	423.485	0.068	0.147
-586.894	-56.777	-0.321	-0.143
-585.879	81.817	-0.127	0.139
-584.865	77.154	0.121	-0.129
-583.850	453.452	0.090	0.201
-582.836	157.198	0.170	-0.236
-581.821	-161.850	-0.120	-0.006
-580.806	25.409	-0.078	0.065
-579.792	800.000	-0.025	-0.100
-578.777	-200.000	-0.003	0.266
-577.763	144.899	0.126	-0.169
-576.748	-27.303	-0.191	-0.112
-575.733	150.036	0.107	-0.145
-574.719	136.201	-0.117	-0.153
-573.704	-4.766	-0.104	-0.072
-572.690	-200.000	-0.017	0.127
-571.675	-200.000	-0.007	0.258
-570.661	-45.408	-0.189	0.094
-569.646	800.000	-0.023	0.087
-568.631	800.000	-0.087	0.276
-567.617	800.000	0.039	-0.111
-566.602	-0.172	0.248	-0.177
-565.588	-103.622	-0.130	-0.031
-564.573	-177.920	0.093	-0.002
-563.558	-132.878	-0.388	0.050
-562.544	-68.382	-0.176	-0.068
-561.529	-200.000	0.039	0.363
-560.515	800.000	0.033	0.108
-559.500	-200.000	-0.035	-0.254
-558.485	1.751	-0.134	0.097
-557.471	-57.066	-0.142	-0.063
-556.456	71.360	0.276	-0.287
-555.442	76.031	-0.055	-0.058
-554.427	-200.000	0.124	0.000
-553.412	252.913	0.023	-0.039
-552.398	164.765	0.052	0.074
-551.383	-18.936	-0.085	-0.053
-550.369	-200.000	0.011	-0.149
-549.354	118.725	0.096	-0.119
-548.339	-0.165	-0.201	-0.143
-547.325	571.988	0.057	-0.139
-546.310	-84.706	0.169	0.053
-545.296	-11.929	-0.293	-0.193
-544.281	-200.000	-0.016	-0.215
-543.266	-200.000	0.073	-0.326
-542.252	101.923	-0.208	-0.243
-541.237	-127.824	0.067	-0.010
-540.223	-200.000	-0.014	-0.149
-539.208	292.197	0.108	-0.198
-538.193	6.368	0.100	0.074
-537.179	-108.130	-0.130	-0.028
-536.164	-180.035	-0.334	-0.007
-535.150	193.501	-0.114	-0.173
-534.135	-200.000	0.026	-0.118
-533.121	-62.951	-0.177	0.073
-532.106	-154.157	0.315	-0.021
-531.091	479.678	-0.149	-0.339
-530.077	57.675	0.269	-0.264
-529.062	-22.362	0.174	0.106
-528.048	-67.872	-0.470	-0.184
-527.033	-200.000	0.494	0.002
-526.018	347.659	0.134	-0.265
-525.004	622.985	0.088	0.221
-523.989	-63.796	0.304	0.125
-522.975	244.424	-0.162	-0.273
-521.960	-52.775	0.318	-0.147
-520.945	-41.321	0.142	-0.074
-519.931	-134.442	-0.089	-0.011
-518.916	-47.180	-0.236	0.115
-517.902	36.656	0.109	0.097
-516.887	43.954	-0.223	-0.205
-515.872	253.676	-0.086	-0.146
-514.858	351.296	-0.146	-0.289
-513.843	-200.000	0.038	0.199
-512.829	-67.835	-0.238	0.093
-511.814	87.355	-0.269	-0.299
-510.799	-200.000	-0.080	0.360
-509.785	-150.137	-0.179	0.014
-508.770	-12.838	-0.212	-0.138
-507.756	-97.674	-0.162	-0.042
-506.741	171.822	-0.130	0.187
-505.726	83.843	0.032	-0.035
-504.712	4.242	-0.481	-0.353
-503.697	800.000	0.060	-0.204
-502.683	50.213	-0.258	-0.244
-501.668	5.473	0.095	0.071
-500.653	56.617	0.090	-0.088
-499.639	189.642	-0.019	0.028
-498.624	480.495	-0.043	-0.099
-497.610	-6.770	-0.221	0.151
-496.595	-190.362	-0.255	0.003
-495.581	-200.000	-0.013	0.138
-494.566	-200.000	0.022	-0.232
-493.551	-114.071	-0.327	-0.063
-492.537	-152.588	0.294	-0.021
-491.522	-128.547	-0.124	-0.018
-490.508	-200.000	0.002	0.012
-489.493	594.520	-0.054	-0.135
-488.478	-0.502	-0.118	-0.084
-487.464	-0.648	0.064	0.046
-486.449	800.000	-0.024	0.077
-485.435	-10.119	-0.299	-0.198
-484.420	-73.406	0.435	0.159
-483.405	800.000	-0.032	-0.102
-482.391	215.232	-0.196	0.311
-481.376	384.083	-0.199	0.410
-480.362	114.707	-0.153	0.187
-479.347	-24.128	0.099	0.059
-478.332	800.000	0.096	0.359
-477.318	323.178	-0.062	0.117
-476.303	-91.358	-0.162	0.046
-475.289	-43.952	0.274	0.138
-474.274	349.769	-0.071	-0.141
-473.259	800.000	-0.020	-0.068
-472.245	-172.766	0.175	0.005
-471.230	29.943	-0.232	-0.198
-470.216	199.207	0.175	0.268
-469.201	654.710	-0.061	-0.156
-468.186	-200.000	-0.016	0.307
-467.172	-176.007	0.129	-0.003
-466.157	-179.699	0.150	0.003
-465.143	-105.426	-0.146	-0.033
-464.128	-200.000	0.024	0.106
-463.113	-200.000	0.038	-0.426
-462.099	-98.705	0.222	-0.057
-461.084	47.353	0.067	-0.062
-460.070	3.128	0.367	-0.267
-459.055	93.065	-0.082	0.092
-458.040	800.000	0.042	0.135
-457.026	164.742	-0.104	-0.147
-456.011	338.033	-0.088	0.171
-454.997	296.763	-0.118	-0.216
-453.982	-105.743	-0.264	0.060
-452.968	307.043	-0.126	-0.235
-451.953	-41.276	0.081	-0.042
-450.938	-200.000	-0.001	0.107
-449.924	-107.300	-0.218	-0.048
-448.909	111.592	0.032	-0.038
-447.895	476.985	0.041	0.093
-446.880	-40.242	0.126	0.066
-445.865	13.935	-0.263	0.204
-444.851	-200.000	0.023	0.197
-443.836	413.600	0.060	-0.127
-442.822	-102.327	-0.315	0.075
-441.807	78.616	-0.132	-0.141
-440.792	-67.122	0.160	-0.063
-439.778	-166.715	0.301	0.012
-438.763	0.553	0.137	0.098
-437.749	800.000	0.070	0.304
-436.734	-151.992	-0.328	-0.024
-435.719	-88.081	-0.329	0.099
-434.705	-11.443	0.321	-0.211
-433.690	549.976	-0.049	0.118
-432.676	800.000	-0.032	-0.095
-431.661	68.049	0.104	-0.106
-430.646	169.491	-0.136	-0.194
-429.632	239.864	0.060	0.099
-428.617	-200.000	0.014	0.087
-427.603	-200.000	0.018	-0.531
-426.588	-126.259	0.313	-0.047
-425.573	9.532	0.229	0.173
-424.559	-146.678	-0.137	-0.012
-423.544	201.174	0.083	-0.127
-422.530	107.998	0.121	0.144
-421.515	-14.145	0.235	-0.151
-420.500	518.221	-0.104	-0.242
-419.486	79.873	-0.171	0.183
-418.471	-107.727	-0.156	0.034
-417.457	-119.411	0.056	-0.010
-416.442	138.024	-0.235	0.307
-415.428	8.194	-0.209	-0.157
-414.413	-200.000	0.023	-0.179
-413.398	582.576	0.100	0.244
-412.384	-26.003	0.226	0.133
-411.369	-21.476	-0.265	0.161
-410.355	-200.000	0.024	0.118
-409.340	69.678	0.191	-0.197
-408.325	68.086	-0.068	0.070
-407.311	-66.927	-0.149	0.059
-406.296	-128.014	-0.070	-0.010
-405.282	299.313	-0.072	-0.133
-404.267	800.000	0.037	0.148
-403.252	6.326	-0.211	-0.156
-402.238	800.000	0.101	-0.378
-401.223	27.011	0.169	0.141
-400.209	-97.746	0.181	0.047
-399.194	203.598	-0.046	0.071
-398.179	800.000	0.051	-0.164
-397.165	800.000	-0.064	-0.252
-396.150	205.460	0.179	0.277
-395.136	-123.232	-0.259	-0.041
-394.121	-200.000	0.007	-0.037
-393.106	373.995	0.027	0.055
-392.092	800.000	-0.099	0.301
-391.077	-171.623	-0.202	0.007
-390.063	-75.155	0.165	0.059
-389.048	-140.648	0.127	-0.013
-388.033	-72.993	0.149	-0.055
-387.019	-117.532	0.157	0.028
-386.004	-200.000	0.013	0.184
-384.990	-186.540	-0.148	-0.002
-383.975	-64.965	0.288	-0.116
-382.960	101.191	-0.074	0.085
-381.946	800.000	0.073	0.313
-380.931	135.327	-0.127	-0.165
-379.917	-79.233	-0.317	0.107
-378.902	-163.943	-0.173	-0.008
-377.888	-200.000	-0.000	-0.003
-376.873	-12.271	0.172	-0.112
-375.858	-38.618	-0.222	0.117
-374.844	-200.000	-0.040	0.274
-373.829	800.000	-0.157	0.538
-372.815	99.596	-0.188	-0.217
-371.800	-61.427	-0.254	0.106
-370.785	-99.812	-0.206	-0.051
-369.771	85.896	0.227	-0.249
-368.756	800.000	-0.062	0.188
-367.742	86.104	-0.180	-0.198
-366.727	605.381	-0.199	-0.494
-365.712	800.000	0.056	0.204
-364.698	-67.804	0.151	-0.059
-363.683	279.288	-0.059	-0.105
-362.669	178.696	-0.125	0.182
-361.654	247.005	-0.130	0.219
-360.639	800.000	-0.169	-0.557
-359.625	27.410	0.120	-0.100
-358.610	452.665	0.142	0.312
-357.596	-187.605	0.235	0.003
-356.581	246.865	-0.055	0.092
-355.566	-65.076	-0.457	-0.184
-354.552	-71.663	0.152	-0.056
-353.537	-128.760	-0.325	0.046
-352.523	-148.243	0.280	0.023
-351.508	-33.820	0.154	-0.085
-350.493	28.530	0.266	0.224
-349.479	382.302	-0.131	-0.268
-348.464	-200.000	-0.012	0.359
-347.450	-200.000	-0.123	0.580
-346.435	-80.728	-0.197	0.065
-345.420	-59.247	-0.123	-0.053
-344.406	-35.210	0.134	-0.073
-343.391	-200.000	-0.016	-0.070
-342.377	-63.718	0.310	0.126
-341.362	-200.000	0.035	0.321
-340.348	-93.050	-0.299	0.083
-339.333	128.325	0.118	-0.150
-338.318	40.651	0.230	0.206
-337.304	-200.000	-0.019	-0.109
-336.289	-92.324	0.506	0.142
-335.275	-192.218	0.188	-0.002
-334.260	-5.808	0.132	-0.090
-333.245	511.493	-0.173	-0.400
-332.231	-200.000	0.020	0.196
-331.216	800.000	0.090	0.320
-330.202	17.809	0.136	-0.108
-329.187	65.441	-0.174	0.175
-328.172	-163.951	0.292	-0.014
-327.158	670.632	0.089	0.230
-326.143	-163.598	0.120	-0.006
-325.129	-59.480	-0.054	-0.023
-324.114	164.048	0.054	0.076
-323.099	-39.556	0.079	-0.041
-322.085	229.589	0.035	-0.056
-321.070	84.989	0.106	0.115
-320.056	-58.577	-0.159	0.069
-319.041	9.623	0.090	0.068
-318.026	-155.109	0.200	0.013
-317.012	206.375	-0.162	0.250
-315.997	-17.398	-0.101	-0.063
-314.983	381.102	-0.113	-0.230
-313.968	-159.164	0.344	-0.019
-312.953	-64.739	-0.095	-0.038
-311.939	152.896	-0.108	0.147
-310.924	75.236	0.234	-0.245
-309.910	800.000	0.100	-0.428
-308.895	34.846	-0.269	-0.234
-307.880	148.196	0.048	0.064
-306.866	17.015	0.048	-0.038
-305.851	-200.000	-0.033	-0.223
-304.837	85.152	-0.337	-0.367
-303.822	-129.017	-0.072	0.010
-302.807	-200.000	-0.004	-0.047
-301.793	180.544	0.028	0.040
-300.778	230.949	0.102	-0.166
-299.764	20.847	-0.100	0.080
-298.749	-10.452	-0.253	0.167
-297.735	-84.046	0.353	-0.111
-296.720	800.000	-0.041	-0.157
-295.705	-40.978	0.305	-0.156
-294.691	219.652	-0.193	0.306
-293.676	-136.703	-0.458	-0.052
-292.662	-49.006	0.261	-0.124
-291.647	800.000	0.078	-0.338
-290.632	18.730	-0.051	-0.040
-289.618	219.940	-0.149	0.237
-288.603	24.499	0.229	0.188
-287.589	19.747	0.079	-0.063
-286.574	362.992	0.209	-0.418
-285.559	-200.000	0.032	0.173
-284.545	41.253	0.116	0.104
-283.530	20.058	0.063	-0.050
-282.516	-77.029	0.207	0.072
-281.501	9.424	0.090	-0.068
-280.486	65.955	-0.018	-0.018
-279.472	3.602	0.121	0.088
-278.457	470.571	-0.122	0.272
-277.443	112.166	0.068	0.082
-276.428	-200.000	0.022	-0.110
-275.413	39.162	0.169	-0.150
-274.399	-86.396	-0.170	-0.052
-273.384	-200.000	-0.012	0.136
-272.370	244.866	-0.155	-0.259
-271.355	-36.427	0.029	-0.016
-270.340	105.696	0.120	-0.141
-269.326	579.209	-0.077	0.188
-268.311	-2.487	0.219	0.152
-267.297	-9.453	0.293	-0.194
-266.282	-24.895	0.328	-0.193
-265.267	-115.861	0.367	0.068
-264.253	-142.914	0.189	-0.018
-263.238	55.499	-0.106	-0.101
-262.224	457.316	0.161	-0.355
-261.209	-38.365	0.187	-0.098
-260.195	1.415	0.137	0.098
-259.180	273.043	0.059	-0.104
-258.165	-33.531	0.264	0.145
-257.151	-108.119	-0.467	0.100
-256.136	-67.242	0.289	0.113
-255.122	-77.856	0.378	-0.129
-254.107	-200.000	-0.024	0.282
-253.092	223.956	0.068	0.109
-252.078	-39.399	-0.235	-0.122
-251.063	553.800	-0.121	-0.288
-250.049	61.096	0.017	-0.017
-249.034	-50.034	0.064	0.030
-248.019	266.322	-0.243	0.421
-247.005	-54.777	0.214	-0.096
-245.990	90.507	-0.083	-0.092
-244.976	800.000	0.038	0.130
-243.961	800.000	0.044	0.126
-242.946	-86.154	-0.199	0.061
-241.932	-10.828	0.072	0.047
-240.917	-91.126	-0.200	-0.057
-239.903	-200.000	0.354	-0.001
-238.888	-39.860	0.070	-0.036
-237.873	-200.000	0.047	0.355
-236.859	21.553	0.257	-0.207
-235.844	-94.776	0.212	-0.057
-234.830	-33.818	-0.138	-0.075
-233.815	-58.088	0.272	0.118
-232.800	-145.401	-0.124	0.011
-231.786	-200.000	0.028	0.353
-230.771	160.061	0.215	-0.297
-229.757	160.102	-0.144	0.199
-228.742	-200.000	-0.048	0.554
-227.727	46.390	0.175	0.161
-226.713	-109.143	0.065	0.014
-225.698	30.681	0.059	0.050
-224.684	58.984	0.340	0.332
-223.669	-138.419	0.160	0.017
-222.655	-137.879	0.387	0.043
-221.640	800.000	0.019	-0.061
-220.625	47.133	-0.204	0.188
-219.611	-89.660	-0.121	-0.035
-218.596	193.786	-0.220	-0.331
-217.582	-37.485	0.151	0.080
-216.567	800.000	0.066	0.182
-215.552	-9.655	-0.085	0.056
-214.538	-1.651	0.174	0.121
-213.523	-119.871	-0.239	-0.041
-212.509	9.086	0.030	0.022
-211.494	-200.000	0.009	-0.083
-210.479	800.000	-0.051	0.142
-209.465	-12.128	0.143	-0.093
-208.450	738.228	-0.137	0.364
-207.436	-19.281	0.132	-0.081
-206.421	-59.573	-0.318	0.135
-205.406	103.164	0.131	-0.151
-204.392	-111.483	-0.160	0.032
-203.377	800.000	0.083	0.310
-202.363	337.642	-0.068	0.132
-201.348	104.441	0.053	0.062
-200.333	-83.666	0.164	-0.052
-199.319	-143.572	-0.154	0.015
-198.304	-200.000	0.009	0.114
-197.290	237.838	-0.112	0.184
-196.275	-35.862	0.187	0.100
-195.260	10.190	-0.427	0.321
-194.246	-171.576	-0.320	0.011
-193.231	-62.809	0.044	-0.018
-192.217	-126.265	0.357	-0.053
-191.202	548.390	-0.073	-0.174
-190.187	-119.058	-0.270	0.047
-189.173	201.417	-0.231	0.352
-188.158	345.829	0.038	-0.074
-187.144	-200.000	-0.017	-0.382
-186.129	-125.420	-0.326	-0.049
-185.114	82.378	-0.103	-0.110
-184.100	-200.000	-0.010	-0.221
-183.085	244.958	-0.067	-0.111
-182.071	-200.000	0.014	0.130
-181.056	49.583	0.092	-0.086
-180.042	77.127	0.376	0.395
-179.027	-7.717	0.367	0.245
-178.012	-28.849	-0.056	-0.032
-176.998	-0.792	0.157	0.110
-175.983	-159.651	0.178	0.010
-174.969	-91.570	0.110	-0.031
-173.954	-91.795	-0.183	-0.051
-172.939	3.193	0.311	-0.224
-171.925	544.985	-0.046	-0.108
-170.910	540.564	0.089	-0.209
-169.896	-77.868	0.011	-0.004
-168.881	-17.728	0.301	0.187
-167.866	-97.450	-0.070	-0.018
-166.852	-138.240	0.095	-0.010
-165.837	-200.000	0.002	0.095
-164.823	148.846	0.165	0.221
-163.808	800.000	0.090	0.246
-162.793	-39.688	-0.148	-0.077
-161.779	-200.000	-0.088	-0.000
-160.764	-38.278	-0.113	0.059
-159.750	-20.630	0.070	0.043
-158.735	6.781	0.083	0.061
-157.720	-78.628	-0.137	-0.046
-156.706	-36.142	0.221	0.118
-155.691	-17.438	0.140	-0.087
-154.677	29.071	0.184	0.154
-153.662	749.477	-0.042	0.112
-152.647	514.535	0.139	-0.321
-151.633	-21.226	0.138	-0.083
-150.618	759.049	0.135	0.362
-149.604	-200.000	-0.034	-0.220
-148.589	-96.352	-0.263	-0.069
-147.574	-125.878	-0.219	0.033
-146.560	-200.000	-0.009	0.300
-145.545	108.392	0.037	-0.043
-144.531	800.000	0.077	0.327
-143.516	244.459	-0.084	-0.139
-142.502	800.000	0.085	0.314
-141.487	-117.312	-0.037	0.007
-140.472	206.593	-0.087	-0.134
-139.458	604.498	-0.039	-0.096
-138.443	113.255	-0.111	0.133
-137.429	725.002	-0.021	-0.055
-136.414	390.441	-0.089	-0.182
-135.399	-200.000	0.022	0.124
-134.385	-45.671	0.385	0.188
-133.370	-78.442	-0.042	-0.014
-132.356	-95.705	-0.244	-0.064
-131.341	-200.000	-0.018	-0.181
-130.326	-7.116	-0.141	-0.094
-129.312	418.967	-0.237	-0.501
-128.297	228.535	0.102	-0.163
-127.283	-80.713	0.106	0.035
-126.268	-200.000	0.029	0.235
-125.253	217.685	-0.209	-0.328
-124.239	27.527	0.186	0.154
-123.224	-200.000	0.033	-0.279
-122.210	-69.314	-0.320	0.121
-121.195	403.174	-0.075	0.155
