DTS Sentinel unit serial number:	SN413079Multiplexer serial number:	ORYXHardware model number:	OX4-SRSoftware version number:	ORYX F/W v4.00 Oryx Data Collector v3.7.2.0data status	okinstallation	princeton_trtdifferential loss correction	single-endedforward channel	channel 4reverse channel	N/Adate	2019/09/13time	01:17:35forward acquisition time	60.00reverse acquisition time	0.00gamma	496.2192k internal	0.2318k external	0.2318temperature offset calibration	1.0169default loss term (dB/km)	0.3790temperature slope calibration	1.0000multiplexer offset coefficient	1.0000multiplexer slope coefficient	1.0000fibre end	0.00T internal ref (°C)	27.91T ext. ref 1 (°C)	3.70T ext. ref 2 (°C)	22.51length (m)	temperature (°C)	Stokes	anti-Stokes-747.200	-200.000	0.016	0.098
-746.185	-37.350	-0.082	0.044
-745.171	800.000	-0.026	-0.072
-744.156	800.000	0.026	0.082
-743.142	-119.168	-0.396	-0.070
-742.127	-90.226	-0.371	-0.109
-741.112	241.302	0.193	0.326
-740.098	-187.435	-0.338	0.005
-739.083	113.660	-0.222	-0.273
-738.069	-200.000	-0.055	0.601
-737.054	28.807	0.109	0.094
-736.039	10.156	-0.185	-0.142
-735.025	-200.000	0.005	-0.409
-734.010	554.203	-0.148	-0.360
-732.996	-200.000	0.014	0.208
-731.981	-110.841	0.321	-0.067
-730.966	-7.840	-0.223	0.152
-729.952	390.076	-0.144	0.302
-728.937	54.397	-0.244	-0.238
-727.923	262.711	0.061	0.108
-726.908	-135.082	-0.355	0.043
-725.894	290.419	-0.076	0.140
-724.879	33.674	0.169	-0.149
-723.864	800.000	-0.012	0.043
-722.850	18.863	0.161	-0.131
-721.835	-9.402	0.180	0.122
-720.821	-96.911	-0.132	-0.035
-719.806	-116.238	-0.191	0.036
-718.791	627.470	-0.055	0.140
-717.777	800.000	0.054	0.166
-716.762	-200.000	-0.001	0.087
-715.748	82.086	-0.081	-0.089
-714.733	180.670	0.040	0.059
-713.718	-200.000	0.034	0.266
-712.704	9.656	-0.096	-0.073
-711.689	-160.305	-0.210	-0.011
-710.675	-200.000	-0.316	0.000
-709.660	70.577	-0.102	-0.107
-708.645	-200.000	-0.015	-0.172
-707.631	136.069	0.186	-0.245
-706.616	485.542	-0.058	0.133
-705.602	-50.100	0.072	-0.035
-704.587	-112.509	-0.020	0.004
-703.572	-53.756	-0.446	0.206
-702.558	3.679	-0.029	-0.021
-701.543	-57.766	0.370	0.164
-700.529	-200.000	0.095	-0.441
-699.514	-63.534	0.104	-0.043
-698.499	800.000	0.024	-0.071
-697.485	-156.049	0.012	-0.001
-696.470	-93.800	-0.348	-0.097
-695.456	24.071	0.149	0.124
-694.441	-200.000	0.041	-0.436
-693.426	-153.713	0.342	-0.024
-692.412	6.337	0.043	-0.032
-691.397	96.356	0.325	-0.375
-690.383	146.096	-0.246	-0.333
-689.368	230.093	-0.094	-0.156
-688.354	77.246	-0.228	0.245
-687.339	-200.000	-0.047	-0.263
-686.324	-30.664	0.187	-0.107
-685.310	-200.000	0.014	0.222
-684.295	-200.000	-0.050	0.284
-683.281	190.604	0.166	0.251
-682.266	33.139	-0.291	-0.255
-681.251	118.457	-0.236	-0.294
-680.237	-147.286	-0.324	-0.028
-679.222	-10.943	0.148	0.098
-678.208	800.000	0.068	-0.286
-677.193	278.941	0.123	0.222
-676.178	-134.983	-0.352	0.043
-675.164	158.406	0.254	-0.355
-674.149	-150.813	0.109	-0.008
-673.135	92.033	0.296	0.336
-672.120	-200.000	-0.060	0.383
-671.105	384.978	0.146	0.303
-670.091	-200.000	0.046	0.319
-669.076	-16.027	-0.179	-0.115
-668.062	170.558	-0.254	-0.367
-667.047	23.699	-0.083	-0.069
-666.032	85.787	0.053	0.058
-665.018	-123.545	0.110	-0.018
-664.003	-189.792	-0.101	0.001
-662.989	217.451	0.034	-0.055
-661.974	-27.301	0.209	-0.123
-660.959	6.654	-0.207	-0.155
-659.945	291.039	-0.065	-0.119
-658.930	396.889	-0.118	0.248
-657.916	-200.000	-0.030	-0.397
-656.901	26.165	-0.185	-0.155
-655.886	-200.000	0.059	-0.308
-654.872	-86.423	0.187	-0.058
-653.857	800.000	-0.014	0.056
-652.843	-200.000	-0.008	-0.043
-651.828	217.689	-0.119	-0.191
-650.814	800.000	0.016	0.069
-649.799	-200.000	0.024	-0.400
-648.784	400.769	0.101	-0.215
-647.770	-200.000	0.032	-0.272
-646.755	287.000	0.184	-0.336
-645.741	667.596	0.122	-0.318
-644.726	165.474	0.158	0.226
-643.711	30.557	-0.062	-0.053
-642.697	74.840	-0.104	0.111
-641.682	749.041	0.153	-0.416
-640.668	800.000	0.055	-0.155
-639.653	-200.000	-0.039	0.245
-638.638	501.720	-0.185	0.429
-637.624	22.819	0.077	0.063
-636.609	-127.665	0.343	0.050
-635.595	100.146	-0.158	0.184
-634.580	800.000	-0.096	-0.273
-633.565	800.000	-0.091	0.342
-632.551	98.237	-0.029	-0.034
-631.536	326.398	0.104	0.200
-630.522	-74.530	-0.288	-0.105
-629.507	-30.972	0.249	-0.142
-628.492	0.105	0.154	-0.111
-627.478	37.007	0.169	0.151
-626.463	-149.532	0.261	-0.021
-625.449	29.169	-0.092	0.079
-624.434	-200.000	-0.051	0.359
-623.419	142.589	0.059	-0.079
-622.405	-117.118	-0.123	0.023
-621.390	-80.732	-0.194	0.065
-620.376	-87.708	0.369	-0.112
-619.361	22.096	-0.223	0.183
-618.346	-82.562	-0.221	-0.072
-617.332	800.000	0.083	-0.351
-616.317	111.651	-0.058	0.070
-615.303	-38.625	0.169	-0.090
-614.288	-200.000	-0.003	0.065
-613.273	-200.000	0.015	0.101
-612.259	407.513	0.067	0.142
-611.244	702.603	-0.044	-0.116
-610.230	325.673	-0.079	-0.153
-609.215	340.637	-0.072	0.142
-608.201	-200.000	0.006	0.062
-607.186	-18.295	-0.243	0.153
-606.171	-67.355	0.206	-0.081
-605.157	-49.060	0.156	-0.075
-604.142	434.533	-0.055	-0.120
-603.128	1.510	0.250	-0.181
-602.113	-11.911	0.187	-0.123
-601.098	-158.022	-0.233	-0.014
-600.084	16.737	0.169	-0.135
-599.069	-38.857	-0.107	-0.057
-598.055	-8.258	-0.300	0.203
-597.040	90.596	0.049	0.055
-596.025	418.420	-0.062	-0.134
-595.011	17.071	0.119	-0.095
-593.996	-150.015	0.289	0.023
-592.982	21.173	-0.103	0.084
-591.967	164.335	-0.093	-0.132
-590.952	-2.277	0.091	-0.064
-589.938	-18.109	-0.241	0.152
-588.923	800.000	0.055	-0.204
-587.909	-122.136	0.208	-0.034
-586.894	-200.000	0.003	0.130
-585.879	-176.863	0.094	-0.002
-584.865	279.367	0.057	0.102
-583.850	-200.000	-0.032	-0.293
-582.836	733.398	-0.043	-0.117
-581.821	385.030	0.199	-0.413
-580.806	-142.341	0.206	0.020
-579.792	-83.524	-0.062	-0.020
-578.777	-200.000	-0.033	-0.258
-577.763	74.157	-0.025	-0.026
-576.748	56.168	0.226	0.221
-575.733	-99.382	-0.251	-0.064
-574.719	-200.000	-0.023	-0.133
-573.704	-135.248	0.250	-0.030
-572.690	33.763	0.199	-0.174
-571.675	590.768	-0.046	0.114
-570.661	-148.165	0.132	0.011
-569.646	-200.000	0.002	-0.033
-568.631	13.907	0.101	-0.079
-567.617	315.885	-0.161	-0.305
-566.602	-35.923	0.211	-0.115
-565.588	-41.642	0.336	0.174
-564.573	486.605	-0.074	-0.169
-563.558	-106.120	-0.398	-0.090
-562.544	-33.669	-0.259	-0.143
-561.529	800.000	-0.031	-0.120
-560.515	-200.000	0.002	0.239
-559.500	497.698	-0.164	0.379
-558.485	-84.671	-0.150	-0.047
-557.471	-148.602	-0.410	-0.034
-556.456	623.683	-0.091	-0.230
-555.442	-110.880	-0.069	-0.014
-554.427	-63.117	0.135	-0.056
-553.412	-200.000	0.007	0.149
-552.398	21.070	0.342	0.279
-551.383	-62.576	0.265	-0.111
-550.369	-107.939	-0.326	0.071
-549.354	-27.414	0.388	0.227
-548.339	151.353	0.053	0.072
-547.325	-122.402	-0.346	0.057
-546.310	156.317	-0.226	-0.313
-545.296	-73.483	-0.062	0.023
-544.281	190.380	-0.079	-0.119
-543.266	138.561	-0.177	0.233
-542.252	21.599	-0.295	0.241
-541.237	34.106	0.349	0.305
-540.223	800.000	0.049	-0.182
-539.208	-24.325	0.224	0.134
-538.193	-104.350	-0.332	0.077
-537.179	551.657	-0.055	0.132
-536.164	-89.505	-0.231	-0.068
-535.150	800.000	0.059	-0.246
-534.135	800.000	0.052	0.203
-533.121	50.295	-0.025	-0.024
-532.106	-200.000	0.006	-0.187
-531.091	119.973	0.047	0.059
-530.077	57.650	0.085	-0.083
-529.062	276.467	0.038	0.069
-528.048	423.589	-0.058	-0.125
-527.033	64.173	0.122	-0.123
-526.018	-44.845	-0.214	-0.107
-525.004	-169.078	0.108	-0.004
-523.989	-56.365	-0.371	0.165
-522.975	305.916	0.068	0.127
-521.960	-58.696	-0.080	-0.035
-520.945	102.312	0.069	0.081
-519.931	-54.403	0.404	0.184
-518.916	-56.484	-0.217	0.097
-517.902	-132.695	0.368	-0.047
-516.887	-76.659	-0.229	0.080
-515.872	124.008	-0.124	-0.156
-514.858	800.000	0.024	-0.083
-513.843	144.518	0.157	0.211
-512.829	-38.302	-0.586	0.311
-511.814	-121.830	0.148	0.024
-510.799	20.907	-0.213	-0.173
-509.785	-200.000	0.013	0.218
-508.770	505.787	-0.077	-0.180
-507.756	151.918	0.094	0.129
-506.741	126.064	-0.092	0.117
-505.726	172.701	0.060	0.086
-504.712	90.839	-0.190	0.213
-503.697	800.000	-0.088	0.345
-502.683	-200.000	0.020	0.264
-501.668	-140.273	-0.285	-0.030
-500.653	800.000	0.019	-0.067
-499.639	144.300	-0.146	-0.196
-498.624	362.342	-0.159	0.320
-497.610	31.908	0.267	-0.230
-496.595	-71.439	0.090	-0.034
-495.581	147.362	0.179	-0.241
-494.566	126.177	-0.153	0.194
-493.551	108.642	-0.298	0.357
-492.537	240.258	0.156	-0.260
-491.522	172.595	0.060	-0.087
-490.508	-64.538	-0.151	0.061
-489.493	-200.000	0.011	-0.063
-488.478	120.906	-0.148	-0.185
-487.464	800.000	-0.060	0.241
-486.449	343.600	-0.266	0.521
-485.435	159.271	-0.058	0.080
-484.420	407.690	0.095	-0.200
-483.405	-143.690	-0.059	0.006
-482.391	158.083	-0.054	0.075
-481.376	28.429	-0.167	0.142
-480.362	800.000	-0.107	-0.325
-479.347	34.904	-0.282	0.247
-478.332	-200.000	0.013	-0.098
-477.318	214.379	-0.105	-0.167
-476.303	-200.000	0.015	0.116
-475.289	-61.318	-0.119	-0.050
-474.274	265.806	-0.136	-0.238
-473.259	470.847	-0.039	-0.087
-472.245	194.367	0.196	-0.298
-471.230	-62.573	-0.181	0.075
-470.216	508.435	0.020	-0.048
-469.201	-84.562	0.224	-0.071
-468.186	193.046	-0.147	-0.223
-467.172	310.891	0.070	-0.132
-466.157	-200.000	-0.261	-0.001
-465.143	324.715	-0.020	0.039
-464.128	363.190	-0.044	0.088
-463.113	-107.211	0.167	0.037
-462.099	307.294	0.030	-0.056
-461.084	286.684	0.054	-0.097
-460.070	176.011	-0.052	-0.076
-459.055	476.829	-0.029	-0.066
-458.040	-200.000	-0.035	-0.166
-457.026	800.000	0.140	0.521
-456.011	-111.682	-0.049	-0.010
-454.997	-90.099	0.183	0.053
-453.982	-55.781	0.127	-0.057
-452.968	-20.533	0.214	-0.132
-451.953	656.430	-0.044	0.112
-450.938	41.361	-0.101	-0.091
-449.924	205.483	0.024	0.037
-448.909	-95.289	-0.195	0.053
-447.895	-36.179	0.227	-0.123
-446.880	-200.000	-0.035	-0.166
-445.865	800.000	-0.069	-0.201
-444.851	-55.927	-0.111	-0.050
-443.836	193.484	-0.204	-0.308
-442.822	800.000	-0.033	0.138
-441.807	81.325	0.323	0.349
-440.792	-200.000	-0.006	0.038
-439.778	229.179	0.130	-0.212
-438.763	-200.000	-0.003	-0.227
-437.749	-146.683	0.236	0.020
-436.734	185.665	-0.249	0.370
-435.719	-119.833	-0.229	-0.039
-434.705	-200.000	0.069	-0.352
-433.690	-9.712	-0.352	0.234
-432.676	-43.937	0.176	-0.088
-431.661	9.582	0.134	-0.101
-430.646	800.000	-0.058	0.199
-429.632	190.744	0.135	-0.203
-428.617	102.350	-0.169	-0.197
-427.603	-66.862	0.258	-0.102
-426.588	800.000	0.049	-0.192
-425.573	-200.000	0.032	-0.155
-424.559	-103.942	0.279	-0.065
-423.544	800.000	-0.060	-0.234
-422.530	-200.000	0.016	-0.115
-421.515	161.659	0.164	0.229
-420.500	-62.498	0.074	0.031
-419.486	-117.717	-0.027	0.005
-418.471	7.029	-0.207	-0.154
-417.457	146.713	-0.167	0.224
-416.442	2.055	-0.492	0.355
-415.428	356.092	0.016	-0.031
-414.413	60.571	0.286	0.283
-413.398	-200.000	-0.010	-0.071
-412.384	357.137	-0.053	0.106
-411.369	-18.397	-0.242	0.151
-410.355	-68.017	-0.223	0.087
-409.340	74.687	0.128	-0.135
-408.325	-145.709	-0.153	0.014
-407.311	36.160	-0.191	-0.168
-406.296	31.798	-0.093	-0.080
-405.282	-200.000	0.002	-0.175
-404.267	-79.067	-0.254	-0.086
-403.252	-200.000	0.001	-0.198
-402.238	-59.060	-0.274	-0.118
-401.223	-98.980	-0.154	0.039
-400.209	22.698	-0.096	-0.078
-399.194	-86.905	-0.037	-0.011
-398.179	800.000	-0.040	0.120
-397.165	-109.984	0.283	-0.059
-396.150	97.297	0.149	-0.170
-395.136	476.260	-0.103	0.233
-394.121	-24.635	0.131	-0.078
-393.106	-200.000	0.047	0.316
-392.092	283.645	-0.117	0.210
-391.077	20.960	-0.327	0.265
-390.063	-25.975	-0.147	0.086
-389.048	228.392	-0.096	0.156
-388.033	-200.000	0.012	0.071
-387.019	391.314	0.068	-0.140
-386.004	800.000	0.047	-0.148
-384.990	-49.092	0.216	-0.103
-383.975	491.788	0.045	-0.103
-382.960	261.370	0.082	0.142
-381.946	267.123	0.084	-0.146
-380.931	-173.765	-0.104	0.003
-379.917	179.113	0.166	-0.243
-378.902	68.719	0.106	-0.109
-377.888	-20.079	0.105	-0.065
-376.873	51.293	0.073	0.069
-375.858	800.000	0.101	0.419
-374.844	-200.000	0.013	0.200
-373.829	111.792	0.099	-0.119
-372.815	140.240	0.148	0.195
-371.800	-200.000	-0.066	0.465
-370.785	592.776	-0.074	0.183
-369.771	4.631	0.315	-0.230
-368.756	50.595	0.092	-0.087
-367.742	49.257	-0.319	-0.299
-366.727	-42.245	0.369	0.188
-365.712	-200.000	-0.025	0.356
-364.698	-14.210	0.111	0.071
-363.683	517.975	0.036	0.085
-362.669	-122.585	0.223	0.036
-361.654	-200.000	-0.000	0.306
-360.639	113.281	0.119	0.144
-359.625	44.961	-0.182	-0.167
-358.610	-55.237	-0.343	-0.154
-357.596	-200.000	0.040	0.217
-356.581	437.639	-0.109	-0.238
-355.566	-167.793	0.090	0.004
-354.552	-158.017	0.218	-0.013
-353.537	-80.605	0.411	0.136
-352.523	-122.116	-0.163	0.027
-351.508	5.847	0.123	0.091
-350.493	13.567	-0.077	0.060
-349.479	-39.180	-0.228	-0.119
-348.464	48.238	-0.077	0.071
-347.450	425.826	0.145	0.310
-346.435	-177.196	-0.113	0.003
-345.420	-141.912	0.094	-0.009
-344.406	-73.365	-0.075	-0.027
-343.391	178.466	-0.190	-0.277
-342.377	-200.000	-0.038	0.294
-341.362	346.606	0.188	-0.368
-340.348	-200.000	0.023	-0.299
-339.333	-200.000	0.018	-0.189
-338.318	-200.000	-0.056	0.298
-337.304	-31.199	-0.054	0.030
-336.289	-44.160	0.230	-0.115
-335.275	-22.495	-0.139	-0.084
-334.260	-177.293	-0.192	0.005
-333.245	-81.180	0.145	0.048
-332.231	533.148	0.066	-0.155
-331.216	800.000	0.069	0.250
-330.202	-118.275	0.102	0.018
-329.187	-200.000	-0.020	0.213
-328.172	753.746	0.044	-0.119
-327.158	-129.782	-0.151	0.021
-326.143	-73.065	-0.336	0.123
-325.129	-126.556	-0.215	0.032
-324.114	-157.682	0.258	-0.015
-323.099	-5.465	0.123	0.084
-322.085	65.223	0.119	-0.119
-321.070	-158.242	-0.220	-0.013
-320.056	369.840	-0.166	-0.334
-319.041	86.459	0.037	-0.040
-318.026	-182.482	0.033	-0.001
-317.012	56.539	0.083	-0.080
-315.997	124.166	0.062	-0.077
-314.983	28.261	0.045	-0.037
-313.968	-81.680	0.185	0.061
-312.953	90.225	0.219	-0.243
-311.939	227.466	-0.154	-0.249
-310.924	-39.591	-0.351	-0.183
-309.910	-200.000	-0.022	-0.125
-308.895	-146.092	0.334	0.029
-307.880	38.639	0.248	0.220
-306.866	455.631	0.106	0.234
-305.851	800.000	-0.051	-0.206
-304.837	-87.173	-0.109	-0.033
-303.822	26.431	0.265	0.221
-302.807	57.039	0.089	0.087
-301.793	74.145	0.272	0.284
-300.778	800.000	0.088	0.360
-299.764	-200.000	-0.014	-0.224
-298.749	-99.033	0.266	-0.067
-297.735	-112.419	-0.281	0.056
-296.720	-29.506	-0.148	-0.084
-295.705	-91.623	-0.154	-0.044
-294.691	29.516	0.131	0.111
-293.676	148.726	0.071	-0.096
-292.662	286.268	0.076	-0.136
-291.647	-58.537	-0.255	0.110
-290.632	224.059	0.177	-0.284
-289.618	337.210	0.062	0.119
-288.603	800.000	0.057	0.174
-287.589	-109.373	0.129	-0.027
-286.574	52.948	-0.084	-0.080
-285.559	259.005	0.163	0.279
-284.545	41.372	0.423	-0.380
-283.530	-200.000	0.007	-0.036
-282.516	-163.338	0.209	0.010
-281.501	110.270	-0.031	0.038
-280.486	23.250	0.294	-0.240
-279.472	-87.564	-0.146	-0.044
-278.457	-79.470	0.342	-0.115
-277.443	-87.489	0.208	0.063
-276.428	-200.000	0.229	0.000
-275.413	-120.027	-0.193	-0.033
-274.399	45.682	-0.331	0.304
-273.384	-166.830	0.287	-0.012
-272.370	311.384	-0.093	0.173
-271.355	-155.714	0.196	-0.012
-270.340	267.187	0.193	-0.335
-269.326	-40.203	-0.229	0.119
-268.311	-200.000	0.052	0.299
-267.297	-50.607	-0.185	-0.087
-266.282	15.229	0.134	-0.104
-265.267	182.713	-0.242	0.355
-264.253	284.256	-0.035	-0.063
-263.238	-116.596	0.139	0.025
-262.224	-141.331	-0.191	0.019
-261.209	-137.722	-0.258	0.029
-260.195	312.204	-0.061	-0.113
-259.180	-200.000	-0.065	0.334
-258.165	308.987	-0.019	0.036
-257.151	-200.000	-0.005	-0.347
-256.136	-4.982	0.254	-0.174
-255.122	-40.951	0.149	0.076
-254.107	-200.000	-0.018	0.365
-253.092	763.066	0.057	0.152
-252.078	623.024	0.123	-0.307
-251.063	-200.000	0.039	0.200
-250.049	-111.867	0.164	-0.033
-249.034	215.155	-0.134	0.212
-248.019	-133.294	-0.309	0.039
-247.005	252.982	0.182	0.309
-245.990	99.340	-0.061	-0.070
-244.976	-200.000	-0.040	0.278
-243.961	-200.000	0.031	0.224
-242.946	75.987	0.210	-0.220
-241.932	800.000	-0.031	0.112
-240.917	46.389	0.227	0.209
-239.903	800.000	0.029	0.123
-238.888	205.488	-0.066	-0.101
-237.873	-70.074	0.052	0.020
-236.859	788.538	-0.073	0.200
-235.844	306.278	0.069	-0.128
-234.830	-61.791	-0.217	0.090
-233.815	-153.592	-0.251	0.017
-232.800	299.028	0.127	0.232
-231.786	183.483	-0.211	0.310
-230.771	800.000	-0.116	-0.353
-229.757	-129.272	-0.384	0.053
-228.742	-200.000	0.041	0.354
-227.727	-121.037	-0.389	-0.065
-226.713	-27.992	0.117	-0.067
-225.698	189.647	0.078	0.116
-224.684	93.112	0.095	-0.106
-223.669	800.000	-0.069	-0.197
-222.655	177.602	-0.089	-0.129
-221.640	-85.805	0.200	-0.062
-220.625	800.000	0.028	-0.095
-219.611	-200.000	-0.015	0.103
-218.596	239.856	-0.079	-0.130
-217.582	800.000	-0.048	-0.176
-216.567	18.612	0.161	0.128
-215.552	293.283	0.108	-0.196
-214.538	-200.000	0.168	0.000
-213.523	98.267	-0.271	-0.309
-212.509	19.559	0.069	-0.055
-211.494	66.870	0.084	-0.084
-210.479	-200.000	0.037	-0.372
-209.465	-200.000	-0.071	0.356
-208.450	-57.488	-0.253	0.110
-207.436	-141.386	0.271	0.027
-206.421	800.000	-0.147	-0.413
-205.406	41.593	-0.236	-0.212
-204.392	800.000	0.069	-0.225
-203.377	-200.000	0.026	0.132
-202.363	19.631	-0.201	-0.160
-201.348	254.994	-0.169	0.286
-200.333	415.674	-0.053	0.112
-199.319	151.361	-0.149	0.201
-198.304	-3.435	-0.269	0.186
-197.290	69.645	-0.057	0.058
-196.275	68.746	0.069	0.071
-195.260	9.431	0.293	-0.219
-194.246	263.398	0.027	0.047
-193.231	-108.893	0.144	0.030
-192.217	46.935	-0.095	0.088
-191.202	800.000	0.041	0.148
-190.187	-9.856	-0.257	0.169
-189.173	239.548	-0.211	0.348
-188.158	323.011	0.141	-0.266
-187.144	14.294	0.300	-0.232
-186.129	140.022	0.157	-0.205
-185.114	-101.880	-0.513	0.123
-184.100	800.000	0.094	-0.287
-183.085	-92.860	-0.159	0.044
-182.071	-117.357	0.503	0.090
-181.056	-30.412	0.351	0.197
-180.042	76.628	0.143	0.150
-179.027	800.000	-0.070	0.201
-178.012	-200.000	-0.006	-0.285
-176.998	800.000	0.107	0.365
-175.983	-171.291	-0.066	0.002
-174.969	-200.000	0.014	0.104
-173.954	800.000	-0.064	-0.253
-172.939	293.108	-0.053	-0.096
-171.925	-200.000	-0.046	-0.223
-170.910	9.519	0.074	-0.055
-169.896	0.450	-0.139	-0.098
-168.881	279.982	0.101	-0.179
-167.866	-68.051	0.298	-0.115
-166.852	73.906	0.141	0.146
-165.837	-200.000	0.008	-0.045
-164.823	31.485	0.161	-0.137
-163.808	-200.000	-0.017	0.111
-162.793	163.513	-0.104	0.145
-161.779	-98.991	-0.280	-0.070
-160.764	255.996	-0.154	-0.261
-159.750	-200.000	-0.030	0.284
-158.735	800.000	0.033	-0.090
-157.720	-60.531	0.302	-0.127
-156.706	-136.992	-0.177	-0.020
-155.691	800.000	0.036	-0.112
-154.677	61.022	0.103	-0.101
-153.662	293.970	-0.219	0.395
-152.647	-9.806	-0.143	0.094
-151.633	-107.533	0.258	0.056
-150.618	800.000	-0.074	-0.293
-149.604	800.000	-0.091	-0.261
-148.589	219.977	-0.227	0.360
-147.574	-200.000	-0.032	0.183
-146.560	55.261	0.209	0.200
-145.545	76.440	-0.356	0.373
-144.531	-93.097	-0.398	-0.110
-143.516	-140.938	0.401	-0.041
-142.502	-200.000	-0.000	0.006
-141.487	247.984	-0.229	0.382
-140.472	298.023	0.098	0.178
-139.458	800.000	0.075	-0.208
-138.443	3.876	0.118	0.085
-137.429	116.951	-0.144	0.175
-136.414	679.411	-0.062	0.160
-135.399	92.506	0.183	-0.204
-134.385	78.267	0.162	0.171
-133.370	-80.463	0.072	0.024
-132.356	-27.105	-0.145	-0.083
-131.341	-47.592	-0.208	0.100
-130.326	-200.000	-0.026	-0.156
-129.312	149.399	-0.084	0.113
-128.297	-163.883	0.173	0.008
-127.283	-72.601	0.126	0.046
-126.268	800.000	0.025	-0.101
-125.253	247.688	0.041	0.068
-124.239	-200.000	0.004	-0.080
-123.224	-185.919	0.374	0.005
-122.210	536.938	-0.017	0.040
-121.195	-26.856	-0.074	-0.042
