DTS Sentinel unit serial number:	SN413079Multiplexer serial number:	ORYXHardware model number:	OX4-SRSoftware version number:	ORYX F/W v4.00 Oryx Data Collector v3.7.2.0data status	okinstallation	princeton_trtdifferential loss correction	single-endedforward channel	channel 4reverse channel	N/Adate	2019/09/18time	08:41:35forward acquisition time	60.00reverse acquisition time	0.00gamma	496.2192k internal	0.2326k external	0.2326temperature offset calibration	0.9988default loss term (dB/km)	0.3790temperature slope calibration	1.0000multiplexer offset coefficient	1.0000multiplexer slope coefficient	1.0000fibre end	0.00T internal ref (°C)	24.56T ext. ref 1 (°C)	0.22T ext. ref 2 (°C)	20.33length (m)	temperature (°C)	Stokes	anti-Stokes-747.200	-89.194	-0.294	-0.088
-746.185	-200.000	-0.058	0.293
-745.171	76.124	0.197	0.210
-744.156	800.000	-0.074	0.312
-743.142	-99.054	-0.336	0.086
-742.127	-127.105	0.106	-0.016
-741.112	-42.590	0.278	0.143
-740.098	-200.000	0.066	0.330
-739.083	-198.255	-0.036	0.000
-738.069	-156.796	0.286	0.018
-737.054	132.697	-0.175	-0.228
-736.039	-177.924	-0.173	-0.004
-735.025	-179.349	0.329	0.007
-734.010	-34.752	-0.150	0.082
-732.996	349.419	-0.124	-0.247
-731.981	210.181	0.134	-0.212
-730.966	371.782	-0.112	0.230
-729.952	-9.312	0.250	-0.169
-728.937	800.000	0.023	-0.079
-727.923	721.911	-0.044	-0.118
-726.908	405.065	-0.033	-0.069
-725.894	-64.767	-0.177	0.072
-724.879	-28.112	0.175	-0.102
-723.864	-99.071	-0.287	-0.073
-722.850	407.012	-0.081	0.172
-721.835	-102.015	-0.085	-0.021
-720.821	-200.000	-0.012	-0.426
-719.806	-81.008	-0.250	-0.084
-718.791	-132.488	-0.196	-0.025
-717.777	800.000	-0.099	-0.306
-716.762	159.831	-0.029	0.040
-715.748	103.529	0.026	0.031
-714.733	800.000	0.046	-0.136
-713.718	-111.285	-0.110	0.023
-712.704	16.051	-0.054	0.043
-711.689	800.000	-0.039	0.148
-710.675	-46.491	-0.248	-0.123
-709.660	-80.064	0.165	0.056
-708.645	-33.943	-0.207	0.115
-707.631	-89.743	0.381	-0.112
-706.616	4.347	-0.069	-0.051
-705.602	-42.684	0.065	-0.033
-704.587	24.875	-0.163	-0.136
-703.572	195.206	-0.152	-0.233
-702.558	-200.000	-0.021	-0.137
-701.543	186.212	0.064	0.096
-700.529	-99.756	-0.154	-0.039
-699.514	-46.972	0.243	0.120
-698.499	-200.000	-0.032	0.182
-697.485	-88.703	0.063	-0.019
-696.470	227.335	-0.051	-0.083
-695.456	-123.282	-0.514	-0.083
-694.441	-200.000	-0.030	-0.249
-693.426	651.878	-0.286	-0.737
-692.412	87.616	-0.222	-0.247
-691.397	-0.549	-0.012	0.008
-690.383	610.715	0.070	-0.175
-689.368	91.666	-0.151	0.171
-688.354	124.521	0.294	-0.372
-687.339	-200.000	0.003	-0.201
-686.324	800.000	-0.079	-0.279
-685.310	-200.000	-0.051	-0.329
-684.295	-12.135	0.207	-0.136
-683.281	800.000	-0.072	-0.233
-682.266	800.000	-0.044	-0.183
-681.251	-47.859	0.105	-0.051
-680.237	-200.000	0.046	-0.344
-679.222	-200.000	-0.049	-0.219
-678.208	345.871	0.140	-0.277
-677.193	-200.000	-0.035	0.218
-676.178	-169.894	0.117	0.004
-675.164	145.328	-0.079	0.107
-674.149	337.898	-0.115	-0.225
-673.135	-70.172	-0.171	0.066
-672.120	260.586	-0.234	0.408
-671.105	-154.142	-0.304	0.021
-670.091	800.000	-0.066	0.194
-669.076	-200.000	-0.038	-0.177
-668.062	-140.237	-0.288	0.030
-667.047	17.879	-0.292	0.234
-666.032	0.318	-0.243	-0.175
-665.018	-15.802	0.265	-0.170
-664.003	800.000	0.104	-0.322
-662.989	-88.151	0.198	-0.060
-661.974	-187.611	0.094	0.001
-660.959	287.190	-0.122	0.221
-659.945	-102.766	-0.321	-0.077
-658.930	-59.377	-0.203	0.088
-657.916	12.129	-0.135	-0.105
-656.901	-167.215	-0.176	-0.007
-655.886	-200.000	-0.064	-0.292
-654.872	-105.911	-0.201	-0.046
-653.857	176.923	-0.101	-0.147
-652.843	71.346	-0.201	0.210
-651.828	37.073	0.291	0.258
-650.814	800.000	0.040	0.137
-649.799	-82.357	0.314	0.103
-648.784	800.000	0.063	-0.244
-647.770	188.672	0.221	-0.332
-646.755	32.827	0.199	-0.173
-645.741	-113.688	-0.053	-0.010
-644.726	164.239	-0.142	0.201
-643.711	-106.764	-0.077	-0.017
-642.697	76.368	0.123	0.131
-641.682	132.083	-0.119	-0.155
-640.668	-72.241	0.386	0.144
-639.653	-78.853	0.241	-0.082
-638.638	733.759	-0.083	-0.222
-637.624	-13.630	-0.112	0.073
-636.609	88.456	-0.035	0.039
-635.595	-158.695	0.276	0.016
-634.580	328.020	-0.054	0.104
-633.565	24.873	-0.152	0.127
-632.551	156.222	-0.097	0.135
-631.536	-200.000	0.007	0.030
-630.522	322.280	-0.067	-0.129
-629.507	14.953	0.194	-0.153
-628.492	397.385	-0.133	0.279
-627.478	-29.871	0.252	-0.144
-626.463	16.202	-0.153	-0.121
-625.449	-14.760	-0.011	0.007
-624.434	-23.225	-0.267	0.162
-623.419	-129.349	-0.217	-0.030
-622.405	-76.929	-0.091	-0.032
-621.390	-200.000	0.005	-0.100
-620.376	-95.332	0.342	-0.092
-619.361	-137.893	0.294	-0.033
-618.346	49.270	-0.328	-0.309
-617.332	-63.312	0.092	0.038
-616.317	800.000	0.168	-0.490
-615.303	-175.367	-0.396	0.011
-614.288	-108.041	0.344	0.075
-613.273	800.000	-0.062	0.215
-612.259	-77.124	0.111	0.039
-611.244	-200.000	0.012	-0.104
-610.230	-80.728	0.252	-0.084
-609.215	13.243	-0.400	-0.311
-608.201	800.000	0.079	0.306
-607.186	-200.000	0.011	0.262
-606.171	-125.869	-0.245	-0.037
-605.157	-200.000	-0.011	0.068
-604.142	-200.000	-0.043	0.214
-603.128	-11.250	-0.176	-0.116
-602.113	-114.228	0.229	0.044
-601.098	712.033	-0.069	-0.184
-600.084	210.046	-0.137	-0.216
-599.069	-118.520	-0.046	-0.008
-598.055	800.000	-0.063	-0.265
-597.040	-116.463	-0.274	0.051
-596.025	-20.727	0.130	-0.080
-595.011	39.768	0.072	0.065
-593.996	17.431	0.100	0.079
-592.982	42.180	-0.161	0.146
-591.967	-200.000	-0.076	0.350
-590.952	541.628	0.016	-0.039
-589.938	158.670	-0.152	-0.212
-588.923	-200.000	0.011	0.058
-587.909	-200.000	0.038	0.173
-586.894	-200.000	0.069	0.557
-585.879	-71.706	0.298	0.111
-584.865	125.376	-0.181	-0.229
-583.850	-33.621	-0.286	-0.158
-582.836	-147.986	0.104	-0.009
-581.821	-41.736	0.083	0.043
-580.806	800.000	-0.059	-0.184
-579.792	-19.704	-0.265	-0.164
-578.777	-200.000	0.029	0.222
-577.763	295.677	-0.178	-0.327
-576.748	621.821	0.107	-0.269
-575.733	344.791	-0.156	-0.308
-574.719	-109.002	0.246	-0.053
-573.704	416.612	-0.066	0.142
-572.690	226.278	-0.213	0.346
-571.675	52.076	0.195	0.186
-570.661	800.000	-0.151	0.425
-569.646	207.816	0.140	0.218
-568.631	542.549	-0.253	0.604
-567.617	800.000	-0.057	-0.225
-566.602	263.668	-0.093	-0.163
-565.588	-145.042	-0.309	-0.028
-564.573	800.000	0.123	-0.407
-563.558	-200.000	0.007	-0.121
-562.544	-76.954	0.345	0.121
-561.529	800.000	0.024	-0.071
-560.515	481.552	0.107	-0.244
-559.500	-32.080	-0.150	-0.084
-558.485	131.383	0.198	-0.255
-557.471	-36.366	0.195	0.105
-556.456	689.448	-0.087	0.227
-555.442	800.000	0.006	0.021
-554.427	-200.000	-0.005	0.237
-553.412	-200.000	0.017	0.263
-552.398	82.004	0.193	0.210
-551.383	-84.943	0.206	-0.065
-550.369	-149.984	0.269	0.021
-549.354	115.470	0.083	0.102
-548.339	-117.448	-0.344	-0.062
-547.325	43.593	-0.022	0.020
-546.310	-152.258	-0.136	0.010
-545.296	-72.861	-0.464	-0.171
-544.281	22.961	0.045	0.037
-543.266	785.516	-0.017	0.047
-542.252	250.545	0.040	0.068
-541.237	73.875	0.058	0.061
-540.223	151.248	0.083	-0.114
-539.208	-200.000	0.037	-0.387
-538.193	-200.000	-0.002	0.076
-537.179	800.000	0.038	-0.120
-536.164	-9.685	0.071	-0.048
-535.150	-200.000	-0.064	-0.281
-534.135	87.087	-0.019	0.021
-533.121	-71.408	-0.061	-0.023
-532.106	184.681	-0.130	-0.192
-531.091	-200.000	-0.051	0.318
-530.077	13.901	-0.202	0.157
-529.062	-200.000	-0.025	-0.123
-528.048	104.919	0.124	-0.146
-527.033	-113.816	0.400	-0.078
-526.018	-80.831	0.207	0.069
-525.004	146.582	0.047	0.063
-523.989	-27.150	0.187	-0.109
-522.975	328.660	0.064	0.123
-521.960	32.235	-0.128	-0.111
-520.945	-98.836	0.115	-0.029
-519.931	146.601	-0.109	0.146
-518.916	107.397	-0.168	0.200
-517.902	800.000	-0.019	0.071
-516.887	-200.000	-0.024	-0.307
-515.872	-88.951	0.130	0.038
-514.858	-143.513	0.394	-0.038
-513.843	800.000	0.071	0.205
-512.829	-30.048	-0.163	-0.092
-511.814	195.996	-0.245	-0.373
-510.799	46.879	0.105	-0.098
-509.785	492.688	-0.103	0.236
-508.770	-200.000	0.040	0.506
-507.756	83.523	-0.178	-0.194
-506.741	255.481	0.179	-0.306
-505.726	-200.000	0.031	-0.211
-504.712	90.204	0.175	0.195
-503.697	-13.028	-0.096	-0.062
-502.683	-27.085	0.381	-0.222
-501.668	-12.837	0.205	-0.133
-500.653	-181.217	-0.263	-0.005
-499.639	800.000	-0.095	0.388
-498.624	-188.655	-0.134	-0.002
-497.610	800.000	0.038	-0.151
-496.595	68.410	-0.107	0.110
-495.581	347.189	0.060	0.118
-494.566	-200.000	0.002	-0.125
-493.551	-51.120	-0.113	0.053
-492.537	715.422	-0.014	0.037
-491.522	800.000	0.032	0.123
-490.508	800.000	0.037	0.106
-489.493	-200.000	0.024	0.137
-488.478	17.023	-0.048	0.038
-487.464	-200.000	0.011	0.340
-486.449	28.433	-0.085	-0.072
-485.435	137.108	0.140	0.182
-484.420	-200.000	0.036	-0.248
-483.405	-70.131	-0.165	0.063
-482.391	-177.552	-0.291	0.007
-481.376	-31.010	0.069	0.039
-480.362	317.585	-0.163	-0.309
-479.347	15.772	-0.157	0.123
-478.332	-134.993	-0.247	0.030
-477.318	800.000	0.071	-0.288
-476.303	-93.858	-0.419	-0.115
-475.289	397.306	-0.071	-0.148
-474.274	-143.942	0.278	0.026
-473.259	-48.536	0.041	0.020
-472.245	800.000	0.063	0.204
-471.230	-14.288	-0.285	0.183
-470.216	559.729	-0.034	-0.082
-469.201	800.000	-0.051	-0.192
-468.186	-3.272	0.255	0.177
-467.172	-113.807	-0.296	0.057
-466.157	71.027	-0.099	-0.102
-465.143	280.808	-0.218	-0.390
-464.128	800.000	0.070	-0.217
-463.113	-87.039	-0.267	-0.081
-462.099	800.000	-0.052	0.165
-461.084	335.950	0.124	-0.241
-460.070	-100.791	-0.280	0.069
-459.055	-44.153	-0.270	-0.135
-458.040	-77.208	0.068	-0.023
-457.026	-14.723	-0.221	-0.142
-456.011	-98.869	-0.534	-0.135
-454.997	98.304	-0.077	-0.089
-453.982	-200.000	-0.045	-0.236
-452.968	110.389	-0.132	-0.158
-451.953	-200.000	-0.065	-0.286
-450.938	-81.519	0.365	0.120
-449.924	-98.738	-0.067	-0.017
-448.909	-132.785	0.280	-0.036
-447.895	-18.790	-0.140	0.087
-446.880	-200.000	-0.030	0.184
-445.865	289.436	-0.123	0.223
-444.851	-92.712	-0.301	0.084
-443.836	228.959	-0.091	-0.148
-442.822	-93.517	0.256	0.071
-441.807	-91.345	-0.212	-0.060
-440.792	233.137	-0.173	-0.283
-439.778	-200.000	0.031	-0.289
-438.763	-200.000	-0.042	-0.279
-437.749	-200.000	-0.004	0.060
-436.734	-165.022	0.135	0.006
-435.719	-9.975	-0.069	0.046
-434.705	64.083	-0.255	0.256
-433.690	-180.828	0.160	0.003
-432.676	-96.657	-0.304	-0.080
-431.661	-85.109	0.226	-0.070
-430.646	-200.000	-0.028	-0.126
-429.632	-30.204	-0.183	-0.104
-428.617	-200.000	0.018	0.274
-427.603	14.811	-0.031	0.024
-426.588	-98.444	-0.241	-0.061
-425.573	-95.152	-0.109	0.029
-424.559	-58.984	0.107	-0.046
-423.544	-10.644	0.022	0.015
-422.530	-146.554	-0.222	0.019
-421.515	37.863	-0.295	-0.261
-420.500	-152.205	0.357	-0.026
-419.486	-9.218	-0.264	-0.176
-418.471	-133.942	-0.173	0.021
-417.457	-200.000	-0.010	0.264
-416.442	800.000	-0.092	-0.367
-415.428	-121.680	0.141	-0.023
-414.413	372.787	-0.146	-0.296
-413.398	71.967	-0.034	0.035
-412.384	-121.775	-0.142	0.023
-411.369	55.465	0.214	-0.206
-410.355	636.360	-0.057	-0.145
-409.340	800.000	-0.091	0.322
-408.325	800.000	0.088	0.353
-407.311	107.915	0.176	0.209
-406.296	178.428	-0.069	-0.100
-405.282	42.082	-0.191	-0.173
-404.267	364.918	0.024	0.049
-403.252	-59.146	-0.356	0.153
-402.238	19.184	0.336	-0.269
-401.223	-200.000	-0.000	0.125
-400.209	-151.787	-0.192	-0.014
-399.194	800.000	0.050	0.144
-398.179	478.180	-0.098	0.220
-397.165	800.000	0.046	-0.161
-396.150	-132.206	-0.493	0.064
-395.136	478.949	-0.046	-0.104
-394.121	581.098	0.056	-0.137
-393.106	-3.840	-0.123	-0.085
-392.092	800.000	0.055	-0.215
-391.077	-91.300	-0.046	0.013
-390.063	-17.414	-0.114	-0.071
-389.048	-85.073	0.252	0.078
-388.033	-55.435	-0.235	0.105
-387.019	314.283	0.033	0.061
-386.004	-106.568	0.247	0.055
-384.990	-154.296	-0.443	-0.030
-383.975	-180.011	-0.179	-0.004
-382.960	-200.000	0.014	0.086
-381.946	246.700	-0.117	0.196
-380.931	-124.571	0.407	-0.063
-379.917	-26.835	-0.196	-0.114
-378.902	348.706	0.100	-0.195
-377.888	377.207	0.160	-0.324
-376.873	483.156	-0.090	0.203
-375.858	202.748	0.119	0.183
-374.844	-200.000	-0.005	-0.204
-373.829	-52.655	0.078	0.036
-372.815	-177.187	-0.223	-0.006
-371.800	156.108	-0.081	0.111
-370.785	320.428	-0.063	-0.120
-369.771	167.824	0.093	-0.132
-368.756	162.023	0.096	-0.134
-367.742	301.089	-0.081	0.148
-366.727	155.183	-0.183	0.250
-365.712	63.203	-0.025	0.025
-364.698	-18.014	0.069	0.043
-363.683	200.263	-0.180	0.275
-362.669	70.028	-0.275	0.282
-361.654	-33.898	0.101	-0.055
-360.639	10.682	-0.159	0.120
-359.625	-200.000	0.014	-0.116
-358.610	-13.459	-0.105	0.067
-357.596	250.840	-0.205	-0.346
-356.581	-144.104	0.396	-0.037
-355.566	-200.000	0.034	-0.154
-354.552	-173.895	-0.414	0.012
-353.537	-100.625	0.158	0.039
-352.523	-138.497	0.338	-0.037
-351.508	-53.189	0.101	-0.046
-350.493	-200.000	-0.060	-0.277
-349.479	-40.428	-0.348	-0.179
-348.464	-64.497	0.145	-0.058
-347.450	-144.958	0.632	-0.057
-346.435	88.195	0.075	-0.083
-345.420	46.240	0.237	0.218
-344.406	800.000	-0.079	-0.341
-343.391	43.130	-0.113	-0.102
-342.377	-200.000	-0.055	-0.301
-341.362	136.558	0.023	0.030
-340.348	-41.897	0.083	-0.042
-339.333	-106.205	0.055	-0.012
-338.318	48.469	0.120	0.111
-337.304	-86.296	0.136	-0.041
-336.289	-77.730	0.263	0.090
-335.275	358.212	0.125	-0.248
-334.260	-200.000	-0.016	-0.111
-333.245	116.134	-0.264	0.321
-332.231	252.553	-0.123	0.209
-331.216	-200.000	0.065	-0.412
-330.202	192.513	0.122	-0.182
-329.187	136.346	0.232	-0.300
-328.172	-153.925	-0.195	0.013
-327.158	11.426	-0.195	0.148
-326.143	-200.000	-0.006	0.216
-325.129	200.150	0.129	-0.197
-324.114	-200.000	0.020	0.112
-323.099	-135.239	0.181	0.022
-322.085	800.000	0.103	-0.379
-321.070	256.764	0.144	-0.245
-320.056	-78.881	0.310	0.105
-319.041	-0.401	-0.148	0.104
-318.026	39.515	0.170	-0.151
-317.012	446.232	0.132	0.288
-315.997	150.760	0.146	0.197
-314.983	-38.071	-0.286	-0.151
-313.968	-200.000	0.095	0.434
-312.953	-200.000	0.177	0.001
-311.939	638.212	-0.007	0.017
-310.924	144.358	-0.090	0.119
-309.910	61.283	0.138	0.136
-308.895	-13.241	-0.351	-0.226
-307.880	800.000	-0.061	-0.201
-306.866	789.618	0.087	0.236
-305.851	-12.174	0.215	0.140
-304.837	-6.337	-0.444	-0.300
-303.822	-25.812	0.078	0.045
-302.807	-200.000	0.024	0.307
-301.793	-140.023	0.259	-0.027
-300.778	800.000	-0.045	0.187
-299.764	-2.347	0.069	0.048
-298.749	-200.000	0.056	0.250
-297.735	-139.980	0.336	-0.035
-296.720	-25.548	0.054	0.032
-295.705	108.964	-0.132	0.157
-294.691	-104.109	-0.133	0.031
-293.676	-200.000	0.012	0.182
-292.662	399.773	-0.095	0.197
-291.647	-200.000	0.028	0.233
-290.632	-31.831	0.116	0.065
-289.618	448.620	-0.139	-0.304
-288.603	-114.462	0.184	0.035
-287.589	-200.000	0.053	0.339
-286.574	-39.740	0.195	-0.101
-285.559	198.140	0.022	0.033
-284.545	-29.796	-0.194	-0.110
-283.530	-67.017	0.206	-0.081
-282.516	-19.659	-0.240	-0.147
-281.501	352.723	-0.134	0.263
-280.486	-111.939	0.204	-0.041
-279.472	37.574	0.264	-0.232
-278.457	800.000	-0.024	-0.094
-277.443	134.777	0.060	-0.077
-276.428	14.791	-0.149	0.115
-275.413	-113.919	0.310	0.060
-274.399	253.934	-0.060	-0.101
-273.384	-78.680	-0.272	-0.092
-272.370	777.357	0.050	0.135
-271.355	-151.768	0.190	-0.014
-270.340	172.308	0.195	-0.278
-269.326	-200.000	0.052	0.367
-268.311	193.010	0.056	0.084
-267.297	-200.000	-0.011	0.095
-266.282	-28.459	0.331	0.189
-265.267	-97.550	0.041	0.011
-264.253	-192.048	0.271	0.003
-263.238	611.432	0.070	0.174
-262.224	-142.758	-0.054	0.005
-261.209	156.438	0.075	0.102
-260.195	129.086	-0.272	0.344
-259.180	-152.626	-0.229	0.016
-258.165	-53.601	-0.210	-0.095
-257.151	-200.000	-0.032	-0.198
-256.136	-87.871	-0.049	0.014
-255.122	150.641	0.145	0.195
-254.107	-200.000	0.042	-0.324
-253.092	454.119	0.107	-0.235
-252.078	-200.000	0.001	0.017
-251.063	341.894	-0.119	0.230
-250.049	800.000	0.028	0.103
-249.034	251.247	-0.052	0.087
-248.019	-84.551	-0.111	0.035
-247.005	-53.724	0.496	-0.224
-245.990	-200.000	0.028	-0.221
-244.976	19.696	-0.219	-0.175
-243.961	545.407	-0.054	-0.127
-242.946	-200.000	0.008	0.120
-241.932	6.656	0.125	-0.092
-240.917	800.000	-0.060	-0.172
-239.903	-43.238	0.414	-0.207
-238.888	207.614	-0.068	0.105
-237.873	-200.000	-0.017	-0.215
-236.859	80.287	0.123	0.131
-235.844	-24.327	0.386	-0.228
-234.830	-116.402	0.147	0.027
-233.815	142.207	-0.127	0.166
-232.800	-200.000	-0.022	0.338
-231.786	-60.252	-0.092	0.039
-230.771	-200.000	0.194	-0.000
-229.757	33.478	0.176	0.151
-228.742	328.269	-0.140	-0.265
-227.727	65.972	-0.132	0.132
-226.713	293.589	-0.107	-0.193
-225.698	3.442	0.276	-0.199
-224.684	-200.000	-0.054	0.446
-223.669	-167.342	0.181	-0.007
-222.655	800.000	-0.056	-0.165
-221.640	-142.284	0.147	-0.014
-220.625	-97.850	-0.352	0.090
-219.611	-18.709	-0.175	0.108
-218.596	-200.000	0.021	-0.439
-217.582	19.989	0.137	0.110
-216.567	-200.000	-0.044	0.379
-215.552	800.000	0.032	0.087
-214.538	-87.811	-0.076	0.023
-213.523	-15.338	0.174	-0.110
-212.509	123.466	-0.127	0.157
-211.494	-157.936	-0.162	-0.009
-210.479	-200.000	-0.005	-0.177
-209.465	322.405	0.113	0.212
-208.450	-123.672	0.440	0.069
-207.436	-9.806	0.114	-0.075
-206.421	800.000	0.045	0.149
-205.406	800.000	-0.063	0.183
-204.392	-14.207	-0.153	0.097
-203.377	234.897	0.114	0.186
-202.363	-200.000	-0.012	0.071
-201.348	-146.410	0.094	0.008
-200.333	26.949	-0.133	-0.110
-199.319	226.590	-0.232	0.372
-198.304	-200.000	-0.053	-0.260
-197.290	23.880	-0.076	0.062
-196.275	800.000	0.044	0.181
-195.260	-200.000	-0.021	0.092
-194.246	191.887	0.060	0.090
-193.231	-134.280	0.145	-0.018
-192.217	-200.000	0.002	0.070
-191.202	-194.596	0.163	-0.001
-190.187	-48.395	-0.178	0.085
-189.173	39.457	0.289	0.255
-188.158	-200.000	-0.017	0.326
-187.144	-85.561	0.160	-0.049
-186.129	-165.392	0.100	-0.004
-185.114	101.517	-0.042	0.048
-184.100	174.054	0.060	0.086
-183.085	334.684	0.132	-0.253
-182.071	-95.106	0.336	-0.090
-181.056	96.041	0.271	-0.305
-180.042	800.000	0.087	0.275
-179.027	52.102	-0.093	-0.087
-178.012	-200.000	-0.056	-0.600
-176.998	87.528	-0.039	0.043
-175.983	166.815	0.166	0.233
-174.969	52.672	-0.027	-0.026
-173.954	-75.472	-0.125	-0.044
-172.939	-200.000	0.054	0.329
-171.925	182.171	-0.181	0.263
-170.910	61.100	0.096	0.094
-169.896	24.815	-0.191	0.156
-168.881	-53.041	0.184	-0.084
-167.866	-97.719	0.262	0.067
-166.852	800.000	-0.079	0.267
-165.837	502.938	-0.115	-0.261
-164.823	674.282	0.129	0.329
-163.808	-200.000	-0.028	-0.166
-162.793	2.794	0.067	0.048
-161.779	207.029	-0.090	0.139
-160.764	87.028	0.069	-0.075
-159.750	-170.141	0.417	-0.015
-158.735	-3.831	0.270	0.185
-157.720	-37.722	-0.272	0.143
-156.706	52.366	0.106	0.100
-155.691	-114.226	-0.155	-0.029
-154.677	-51.473	-0.121	0.056
-153.662	-80.405	0.161	0.053
-152.647	-193.156	-0.194	0.002
-151.633	-14.621	-0.148	0.094
-150.618	-200.000	0.032	0.214
-149.604	129.046	0.081	0.102
-148.589	244.580	0.063	-0.104
-147.574	-33.005	0.132	0.072
-146.560	272.165	0.089	-0.155
-145.545	-200.000	-0.083	-0.520
-144.531	-92.614	0.270	0.075
-143.516	704.991	-0.084	0.219
-142.502	-18.855	0.266	0.163
-141.487	800.000	0.056	0.163
-140.472	128.022	0.203	0.255
-139.458	-166.676	-0.033	-0.001
-138.443	233.997	-0.199	0.323
-137.429	-80.505	0.260	-0.085
-136.414	-52.305	0.123	-0.056
-135.399	800.000	0.097	-0.275
-134.385	156.370	0.052	-0.071
-133.370	-200.000	-0.031	0.393
-132.356	25.354	0.252	0.206
-131.341	800.000	0.072	-0.243
-130.326	-200.000	0.027	-0.127
-129.312	-128.893	-0.325	0.045
-128.297	59.245	-0.076	-0.073
-127.283	-200.000	0.016	-0.258
-126.268	-200.000	0.065	0.483
-125.253	334.780	0.091	0.174
-124.239	227.364	0.047	0.075
-123.224	-109.147	0.371	-0.078
-122.210	-61.691	-0.144	-0.059
