DTS Sentinel unit serial number:	SN413079Multiplexer serial number:	ORYXHardware model number:	OX4-SRSoftware version number:	ORYX F/W v4.00 Oryx Data Collector v3.7.2.0data status	okinstallation	princeton_trtdifferential loss correction	single-endedforward channel	channel 4reverse channel	N/Adate	2019/09/18time	02:25:35forward acquisition time	60.00reverse acquisition time	0.00gamma	496.2192k internal	0.2335k external	0.2335temperature offset calibration	0.9997default loss term (dB/km)	0.3790temperature slope calibration	1.0000multiplexer offset coefficient	1.0000multiplexer slope coefficient	1.0000fibre end	0.00T internal ref (°C)	22.81T ext. ref 1 (°C)	0.17T ext. ref 2 (°C)	16.82length (m)	temperature (°C)	Stokes	anti-Stokes-747.200	800.000	0.008	0.027
-746.185	-200.000	-0.010	0.102
-745.171	-200.000	-0.001	0.056
-744.156	-66.231	-0.109	0.043
-743.142	800.000	0.080	0.302
-742.127	800.000	0.110	0.358
-741.112	-159.960	-0.181	0.010
-740.098	-161.454	-0.313	0.016
-739.083	658.571	-0.116	-0.299
-738.069	52.596	-0.351	0.337
-737.054	-80.539	-0.133	-0.045
-736.039	-200.000	-0.027	0.196
-735.025	150.358	0.315	0.430
-734.010	-200.000	-0.005	0.092
-732.996	510.573	0.097	0.225
-731.981	5.367	-0.078	-0.058
-730.966	-88.128	-0.385	-0.116
-729.952	-65.076	-0.059	-0.024
-728.937	-123.101	0.197	0.032
-727.923	62.502	-0.281	0.282
-726.908	-132.286	-0.253	-0.033
-725.894	-200.000	-0.027	-0.149
-724.879	83.300	-0.314	-0.343
-723.864	-83.374	-0.080	-0.026
-722.850	-30.634	0.211	0.120
-721.835	-200.000	-0.003	0.015
-720.821	172.331	-0.035	-0.050
-719.806	-86.890	0.100	0.031
-718.791	703.083	-0.127	-0.336
-717.777	-43.714	0.088	0.045
-716.762	211.744	0.187	0.295
-715.748	-129.394	-0.373	0.052
-714.733	800.000	-0.110	-0.370
-713.718	204.363	0.093	-0.144
-712.704	-51.379	-0.251	-0.118
-711.689	-139.663	-0.246	-0.026
-710.675	67.997	0.072	-0.074
-709.660	-131.865	-0.221	-0.029
-708.645	-200.000	0.008	0.083
-707.631	800.000	0.062	0.222
-706.616	91.542	-0.231	-0.260
-705.602	-200.000	0.020	-0.157
-704.587	-105.079	-0.092	0.021
-703.572	-200.000	0.006	-0.040
-702.558	800.000	0.029	0.098
-701.543	20.938	-0.171	0.139
-700.529	151.035	0.111	0.152
-699.514	-7.172	-0.110	-0.075
-698.499	-89.298	-0.298	0.088
-697.485	-125.074	-0.478	-0.074
-696.470	348.535	0.143	-0.283
-695.456	-200.000	-0.067	0.339
-694.441	152.416	-0.145	0.199
-693.426	-15.449	0.222	-0.142
-692.412	-141.201	-0.244	-0.025
-691.397	124.191	-0.117	0.148
-690.383	-120.943	-0.273	-0.046
-689.368	-71.142	-0.144	-0.054
-688.354	-200.000	0.007	0.276
-687.339	-200.000	0.011	-0.127
-686.324	-200.000	-0.012	-0.173
-685.310	63.840	-0.123	0.124
-684.295	18.197	-0.093	-0.075
-683.281	-56.857	0.098	-0.044
-682.266	154.681	0.066	0.090
-681.251	24.397	0.309	0.256
-680.237	-200.000	-0.037	0.368
-679.222	800.000	0.055	0.236
-678.208	64.488	-0.073	-0.073
-677.193	-112.072	-0.066	0.013
-676.178	-175.821	0.409	0.011
-675.164	92.379	-0.328	-0.371
-674.149	146.520	-0.296	0.398
-673.135	800.000	-0.049	-0.195
-672.120	-85.130	0.322	0.101
-671.105	-200.000	-0.012	-0.372
-670.091	-157.678	0.320	0.019
-669.076	-200.000	-0.006	0.230
-668.062	271.636	0.096	-0.170
-667.047	-122.784	0.281	-0.045
-666.032	30.844	-0.230	0.197
-665.018	-40.788	0.164	-0.085
-664.003	-200.000	0.031	0.238
-662.989	-200.000	-0.011	-0.203
-661.974	-200.000	0.050	0.218
-660.959	-120.280	0.306	-0.052
-659.945	-200.000	-0.050	0.248
-658.930	87.787	-0.272	-0.302
-657.916	189.196	0.045	0.068
-656.901	252.821	0.117	-0.201
-655.886	293.925	-0.152	0.278
-654.872	422.282	-0.021	-0.045
-653.857	605.260	-0.076	-0.190
-652.843	-129.657	0.403	-0.056
-651.828	800.000	0.045	-0.156
-650.814	33.689	0.063	-0.055
-649.799	-200.000	0.034	-0.414
-648.784	230.686	-0.071	0.116
-647.770	800.000	-0.042	0.179
-646.755	-58.138	-0.169	-0.074
-645.741	82.185	0.243	0.264
-644.726	-200.000	0.002	-0.071
-643.711	19.510	0.069	-0.056
-642.697	16.002	0.077	-0.061
-641.682	-96.397	0.459	-0.121
-640.668	-65.346	-0.220	0.088
-639.653	301.296	-0.097	0.179
-638.638	800.000	-0.154	0.469
-637.624	349.073	-0.054	-0.107
-636.609	-119.613	-0.108	0.019
-635.595	-200.000	0.008	0.128
-634.580	142.492	0.047	-0.063
-633.565	37.566	-0.236	0.210
-632.551	-149.778	-0.224	-0.018
-631.536	-62.423	0.115	0.048
-630.522	229.763	-0.158	-0.259
-629.507	222.074	0.088	0.141
-628.492	42.500	0.118	0.107
-627.478	-149.925	-0.241	-0.019
-626.463	246.391	-0.156	0.264
-625.449	161.849	-0.132	0.185
-624.434	205.940	-0.124	0.194
-623.419	-200.000	-0.060	0.452
-622.405	-200.000	-0.047	-0.224
-621.390	79.912	0.093	-0.100
-620.376	61.588	0.097	-0.096
-619.361	162.876	-0.114	-0.161
-618.346	-178.357	0.118	-0.003
-617.332	-114.714	-0.181	-0.035
-616.317	466.155	-0.086	-0.192
-615.303	-98.266	0.330	-0.085
-614.288	-178.659	-0.288	-0.007
-613.273	117.579	-0.115	0.141
-612.259	-200.000	0.056	0.253
-611.244	65.265	-0.205	0.207
-610.230	24.731	0.183	0.152
-609.215	160.477	-0.130	-0.182
-608.201	172.691	-0.112	0.160
-607.186	-112.879	0.273	0.054
-606.171	-126.009	0.261	0.039
-605.157	14.507	-0.105	-0.082
-604.142	-70.523	-0.290	-0.110
-603.128	-22.810	0.211	0.127
-602.113	-200.000	0.012	-0.328
-601.098	205.490	-0.146	-0.227
-600.084	-200.000	-0.008	0.069
-599.069	313.767	0.049	-0.093
-598.055	-106.151	0.039	0.009
-597.040	202.561	-0.054	0.083
-596.025	148.590	-0.196	-0.265
-595.011	-64.525	-0.098	-0.040
-593.996	462.392	-0.143	0.318
-592.982	155.939	0.059	-0.081
-591.967	-200.000	-0.005	-0.121
-590.952	800.000	0.055	0.190
-589.938	79.614	-0.099	0.106
-588.923	782.640	0.129	-0.354
-587.909	-200.000	-0.034	-0.358
-586.894	-200.000	-0.010	0.045
-585.879	1.606	0.419	0.301
-584.865	159.187	0.100	0.139
-583.850	-155.214	0.005	0.000
-582.836	-156.558	-0.184	-0.011
-581.821	-200.000	-0.003	-0.473
-580.806	800.000	0.030	-0.098
-579.792	800.000	-0.029	-0.114
-578.777	-200.000	0.052	-0.299
-577.763	-200.000	-0.031	0.138
-576.748	-119.506	-0.039	0.007
-575.733	-25.543	-0.121	-0.071
-574.719	-128.982	-0.088	0.012
-573.704	-18.232	-0.268	0.167
-572.690	800.000	-0.027	-0.101
-571.675	-118.208	0.326	-0.058
-570.661	23.698	0.226	0.186
-569.646	-151.823	-0.115	-0.008
-568.631	110.565	0.192	-0.231
-567.617	661.117	0.082	0.211
-566.602	-200.000	0.034	-0.297
-565.588	-19.699	-0.297	-0.183
-564.573	60.021	-0.096	-0.094
-563.558	-108.849	0.176	-0.038
-562.544	-99.330	0.488	0.123
-561.529	151.349	0.142	-0.193
-560.515	-33.939	-0.280	0.154
-559.500	-172.181	0.201	0.006
-558.485	-143.310	-0.186	-0.018
-557.471	39.464	0.390	-0.348
-556.456	-11.229	0.116	-0.076
-555.442	56.335	-0.133	-0.129
-554.427	153.852	0.108	-0.148
-553.412	-145.819	-0.405	0.036
-552.398	-150.354	0.249	-0.019
-551.383	366.206	0.064	0.129
-550.369	-116.175	0.064	-0.012
-549.354	-200.000	0.032	0.228
-548.339	689.960	0.046	0.120
-547.325	0.857	0.023	-0.016
-546.310	800.000	0.139	0.404
-545.296	111.544	-0.303	-0.364
-544.281	112.989	-0.152	-0.184
-543.266	48.883	0.169	0.158
-542.252	15.096	0.053	0.041
-541.237	17.850	-0.254	-0.201
-540.223	800.000	0.095	0.360
-539.208	800.000	0.013	-0.054
-538.193	-68.434	0.119	0.046
-537.179	14.190	-0.127	0.098
-536.164	-107.302	-0.130	0.028
-535.150	-200.000	0.035	-0.406
-534.135	16.037	0.112	-0.088
-533.121	-68.555	0.085	0.033
-532.106	76.272	-0.249	-0.263
-531.091	-200.000	-0.017	0.248
-530.077	-123.493	-0.270	0.043
-529.062	376.987	-0.063	0.129
-528.048	-200.000	0.031	0.145
-527.033	31.721	0.226	0.194
-526.018	101.653	-0.070	0.081
-525.004	94.145	0.131	-0.149
-523.989	-119.649	0.107	-0.018
-522.975	800.000	0.058	-0.234
-521.960	82.359	-0.185	0.200
-520.945	-23.989	0.162	-0.097
-519.931	55.787	0.189	0.183
-518.916	193.619	-0.208	-0.313
-517.902	-200.000	0.006	0.028
-516.887	-200.000	-0.046	-0.222
-515.872	-145.625	0.181	-0.016
-514.858	-152.085	-0.308	0.022
-513.843	18.068	-0.140	-0.111
-512.829	144.996	0.259	0.345
-511.814	-200.000	0.010	0.192
-510.799	-113.070	-0.314	0.062
-509.785	-37.236	-0.169	0.090
-508.770	-37.421	-0.240	-0.127
-507.756	-16.576	0.311	-0.196
-506.741	-31.187	-0.318	0.179
-505.726	-77.935	-0.231	0.079
-504.712	128.270	-0.122	-0.155
-503.697	-158.406	-0.172	-0.010
-502.683	201.970	-0.131	-0.201
-501.668	800.000	-0.123	0.400
-500.653	254.666	0.183	0.312
-499.639	-3.551	0.167	0.115
-498.624	213.202	0.089	0.140
-497.610	-200.000	0.039	-0.224
-496.595	431.005	0.054	-0.117
-495.581	-19.510	-0.094	-0.058
-494.566	-10.245	-0.033	0.022
-493.551	-48.524	0.052	0.025
-492.537	-200.000	-0.239	-0.000
-491.522	800.000	0.018	0.065
-490.508	-55.925	-0.114	-0.050
-489.493	136.818	-0.200	0.260
-488.478	17.379	0.057	-0.045
-487.464	87.352	-0.212	-0.234
-486.449	147.768	-0.205	-0.274
-485.435	-200.000	0.015	0.119
-484.420	-108.874	0.510	-0.108
-483.405	33.355	0.095	-0.082
-482.391	-13.106	0.188	-0.122
-481.376	800.000	0.064	0.235
-480.362	-41.817	0.317	-0.162
-479.347	21.229	-0.113	-0.091
-478.332	-200.000	0.021	-0.091
-477.318	-200.000	-0.013	0.210
-476.303	68.731	-0.126	-0.128
-475.289	-111.005	-0.295	0.060
-474.274	191.216	0.205	0.307
-473.259	5.459	-0.263	-0.193
-472.245	32.131	-0.055	0.047
-471.230	-144.388	0.242	-0.022
-470.216	-138.374	0.198	0.022
-469.201	-41.339	-0.079	-0.040
-468.186	-172.815	0.055	0.002
-467.172	6.206	-0.209	0.154
-466.157	-56.402	-0.233	0.103
-465.143	-200.000	0.008	-0.223
-464.128	375.179	-0.064	0.129
-463.113	151.612	-0.174	0.236
-462.099	25.326	-0.311	0.257
-461.084	-65.659	-0.114	-0.045
-460.070	-200.000	-0.037	0.227
-459.055	-101.420	-0.137	-0.033
-458.040	511.913	0.068	0.158
-457.026	-143.725	0.197	0.019
-456.011	344.513	-0.032	0.063
-454.997	425.581	-0.123	0.263
-453.982	172.456	-0.099	-0.142
-452.968	-200.000	-0.012	0.107
-451.953	268.527	-0.169	0.295
-450.938	-143.720	-0.356	0.034
-449.924	-200.000	0.016	-0.084
-448.909	800.000	0.072	-0.244
-447.895	-154.723	0.143	0.009
-446.880	-123.389	0.143	-0.023
-445.865	180.306	-0.097	-0.141
-444.851	188.053	0.114	-0.170
-443.836	-105.215	0.126	0.029
-442.822	-67.934	0.034	-0.013
-441.807	-121.789	0.057	-0.009
-440.792	-72.019	-0.123	-0.045
-439.778	58.639	-0.189	0.184
-438.763	14.161	-0.099	-0.076
-437.749	304.310	0.031	0.058
-436.734	153.659	0.059	0.081
-435.719	41.874	0.064	-0.058
-434.705	-166.698	0.166	0.007
-433.690	466.571	-0.066	0.146
-432.676	500.142	0.037	0.085
-431.661	-200.000	0.015	-0.240
-430.646	-50.533	-0.226	-0.106
-429.632	-200.000	0.024	-0.134
-428.617	-200.000	0.036	0.185
-427.603	-99.179	0.060	-0.015
-426.588	-78.611	0.183	0.062
-425.573	168.331	0.127	-0.179
-424.559	-200.000	0.161	-0.000
-423.544	-200.000	-0.011	-0.062
-422.530	-200.000	0.007	-0.193
-421.515	42.923	0.462	-0.418
-420.500	-107.123	0.158	-0.035
-419.486	-159.521	0.190	-0.010
-418.471	-200.000	0.026	-0.237
-417.457	800.000	0.119	-0.344
-416.442	408.926	0.088	0.184
-415.428	45.853	0.204	0.187
-414.413	98.630	-0.122	-0.140
-413.398	-89.891	-0.253	0.073
-412.384	-200.000	0.011	0.230
-411.369	-97.985	0.309	0.079
-410.355	800.000	-0.068	-0.218
-409.340	-65.576	0.375	-0.149
-408.325	-200.000	-0.297	0.001
-407.311	-40.871	-0.201	0.103
-406.296	-118.499	-0.063	-0.011
-405.282	-200.000	-0.016	-0.125
-404.267	185.476	0.140	-0.207
-403.252	636.299	-0.052	-0.131
-402.238	-125.796	-0.227	0.034
-401.223	-10.235	-0.283	-0.186
-400.209	743.118	0.105	0.279
-399.194	800.000	0.079	0.260
-398.179	158.277	0.052	-0.072
-397.165	284.930	0.138	0.246
-396.150	109.655	-0.118	0.140
-395.136	6.033	0.125	0.092
-394.121	139.800	-0.203	0.264
-393.106	-112.767	0.195	-0.038
-392.092	407.313	0.124	0.260
-391.077	-154.903	0.142	0.009
-390.063	-156.510	0.272	-0.017
-389.048	-9.737	-0.244	-0.161
-388.033	-200.000	-0.010	0.185
-387.019	-106.364	0.320	0.071
-386.004	-56.828	-0.270	-0.118
-384.990	63.946	0.251	0.250
-383.975	-78.110	-0.272	-0.093
-382.960	-61.095	0.353	0.148
-381.946	106.325	-0.239	-0.281
-380.931	-200.000	0.005	-0.265
-379.917	-200.000	-0.007	-0.103
-378.902	-200.000	-0.015	-0.151
-377.888	-200.000	0.049	0.282
-376.873	-57.623	0.108	0.047
-375.858	217.186	0.102	0.162
-374.844	442.014	-0.089	0.193
-373.829	-41.162	0.094	0.048
-372.815	109.783	0.072	0.085
-371.800	800.000	0.077	0.248
-370.785	456.756	-0.019	-0.041
-369.771	-2.862	-0.330	-0.228
-368.756	-39.808	0.188	0.097
-367.742	-200.000	0.038	-0.221
-366.727	-18.626	-0.145	0.089
-365.712	-118.612	0.201	-0.035
-364.698	-51.070	-0.124	0.057
-363.683	-200.000	-0.019	-0.172
-362.669	664.700	-0.144	0.368
-361.654	12.055	0.419	0.319
-360.639	-41.474	-0.100	0.051
-359.625	706.995	0.041	0.107
-358.610	1.532	-0.022	0.015
-357.596	-81.325	0.228	-0.074
-356.581	368.996	0.045	0.090
-355.566	406.971	-0.103	0.215
-354.552	-200.000	0.025	0.464
-353.537	-200.000	0.006	-0.089
-352.523	-91.789	0.155	0.043
-351.508	-200.000	0.028	-0.263
-350.493	-60.726	-0.302	0.127
-349.479	-167.767	0.360	-0.014
-348.464	37.928	0.363	-0.320
-347.450	-200.000	-0.015	-0.108
-346.435	-200.000	0.022	0.295
-345.420	-200.000	0.007	0.186
-344.406	473.018	0.098	0.217
-343.391	-115.839	-0.148	0.027
-342.377	-200.000	0.025	0.235
-341.362	-3.909	0.288	-0.197
-340.348	800.000	-0.085	0.353
-339.333	-126.770	0.106	0.015
-338.318	-169.186	0.257	-0.009
-337.304	800.000	-0.084	-0.257
-336.289	161.235	-0.258	-0.356
-335.275	-17.511	0.301	0.187
-334.260	800.000	0.046	-0.168
-333.245	467.645	-0.132	-0.292
-332.231	-97.438	0.322	-0.083
-331.216	163.900	-0.109	0.151
-330.202	183.837	-0.041	0.060
-329.187	103.803	-0.030	-0.035
-328.172	-200.000	-0.168	0.000
-327.158	800.000	-0.028	-0.094
-326.143	66.836	0.221	0.222
-325.129	-18.244	0.151	0.093
-324.114	0.765	-0.248	0.175
-323.099	800.000	0.087	-0.245
-322.085	35.541	-0.164	-0.143
-321.070	-200.000	0.025	0.190
-320.056	-32.992	-0.205	-0.112
-319.041	-127.420	0.322	0.046
-318.026	-84.356	0.166	0.052
-317.012	737.811	0.087	-0.231
-315.997	101.433	-0.062	0.071
-314.983	-77.637	-0.112	0.038
-313.968	800.000	-0.031	-0.090
-312.953	-200.000	-0.021	0.242
-311.939	204.003	0.029	-0.044
-310.924	36.357	0.114	0.099
-309.910	-68.819	-0.132	-0.050
-308.895	-200.000	0.058	-0.331
-307.880	-86.032	-0.180	-0.055
-306.866	188.667	-0.139	-0.205
-305.851	190.902	0.037	-0.056
-304.837	-92.044	-0.428	0.119
-303.822	-76.715	0.229	-0.079
-302.807	-200.000	0.047	0.374
-301.793	-89.206	0.319	0.093
-300.778	524.557	-0.074	-0.172
-299.764	-200.000	0.000	-0.618
-298.749	-137.874	-0.242	0.027
-297.735	343.383	-0.143	0.277
-296.720	800.000	-0.074	0.257
-295.705	-168.807	0.268	0.010
-294.691	-200.000	0.024	-0.174
-293.676	800.000	-0.081	0.230
-292.662	248.586	-0.129	0.216
-291.647	800.000	-0.128	-0.446
-290.632	-35.578	-0.195	0.105
-289.618	-200.000	0.013	-0.156
-288.603	-10.216	0.133	0.087
-287.589	-200.000	0.020	-0.104
-286.574	146.056	0.179	-0.237
-285.559	154.306	0.042	0.056
-284.545	17.451	0.113	-0.089
-283.530	-200.000	-0.033	0.215
-282.516	-73.884	-0.128	-0.046
-281.501	-200.000	-0.033	-0.163
-280.486	24.532	-0.012	-0.010
-279.472	-155.590	0.202	0.013
-278.457	-15.733	-0.161	0.102
-277.443	120.434	-0.035	0.043
-276.428	-98.283	-0.117	0.030
-275.413	157.894	0.100	-0.137
-274.399	394.705	0.132	-0.271
-273.384	-83.568	0.180	-0.057
-272.370	224.880	0.136	-0.217
-271.355	316.260	-0.126	0.235
-270.340	-147.994	-0.193	0.016
-269.326	284.837	-0.042	-0.074
-268.311	334.906	-0.228	0.436
-267.297	245.819	-0.138	0.230
-266.282	482.237	0.014	0.031
-265.267	-144.416	0.212	-0.019
-264.253	800.000	-0.027	-0.100
-263.238	92.551	0.151	0.168
-262.224	265.198	-0.126	-0.216
-261.209	-16.009	-0.182	0.114
-260.195	4.179	0.272	0.197
-259.180	21.109	0.226	-0.181
-258.165	-200.000	-0.054	-0.326
-257.151	-200.000	0.004	-0.063
-256.136	-63.626	0.087	0.035
-255.122	-200.000	0.041	-0.206
-254.107	-146.907	0.213	0.018
-253.092	321.841	-0.035	0.065
-252.078	216.587	0.070	0.110
-251.063	210.918	0.087	-0.134
-250.049	-144.933	0.173	0.016
-249.034	67.755	0.197	-0.199
-248.019	-174.742	-0.170	-0.005
-247.005	-36.615	-0.273	-0.144
-245.990	32.338	0.187	-0.159
-244.976	800.000	0.115	0.355
-243.961	-65.026	0.054	0.022
-242.946	-135.325	-0.307	-0.036
-241.932	-200.000	0.036	0.160
-240.917	-165.642	-0.289	0.012
-239.903	39.740	-0.124	0.110
-238.888	-200.000	0.049	0.308
-237.873	553.318	0.114	0.271
-236.859	-200.000	0.002	-0.191
-235.844	-200.000	0.005	-0.034
-234.830	201.379	0.107	0.162
-233.815	-115.424	-0.294	0.055
-232.800	-101.234	0.141	-0.034
-231.786	-101.870	0.365	0.087
-230.771	-23.895	0.220	-0.130
-229.757	34.785	0.432	-0.372
-228.742	634.883	-0.030	-0.074
-227.727	26.255	-0.245	-0.201
-226.713	-62.433	0.179	0.073
-225.698	261.978	-0.184	-0.314
-224.684	-103.825	-0.384	-0.088
-223.669	56.665	-0.149	-0.143
-222.655	376.366	-0.129	-0.259
-221.640	83.862	0.080	-0.086
-220.625	73.589	-0.286	0.295
-219.611	91.591	0.134	-0.148
-218.596	565.394	-0.081	-0.193
-217.582	800.000	-0.085	-0.359
-216.567	-36.171	-0.113	0.060
-215.552	-155.677	0.033	0.002
-214.538	-63.144	0.301	0.122
-213.523	216.226	0.147	-0.231
-212.509	8.346	0.088	-0.065
-211.494	800.000	-0.045	0.180
-210.479	-200.000	0.019	0.312
-209.465	207.544	0.125	0.191
-208.450	-31.212	-0.066	0.037
-207.436	800.000	0.016	0.048
-206.421	-200.000	-0.003	-0.252
-205.406	269.720	0.076	-0.132
-204.392	68.985	0.147	-0.149
-203.377	-53.309	0.035	-0.016
-202.363	-1.011	0.349	0.243
-201.348	-200.000	0.066	0.368
-200.333	44.168	-0.208	0.187
-199.319	-200.000	-0.019	0.152
-198.304	-110.731	-0.240	0.049
-197.290	-54.878	0.186	-0.082
-196.275	-200.000	-0.006	0.061
-195.260	86.477	0.308	-0.334
-194.246	71.446	-0.037	0.038
-193.231	-133.343	-0.260	0.032
-192.217	-200.000	-0.001	0.153
-191.202	-64.572	0.029	0.012
-190.187	579.888	0.025	0.061
-189.173	-35.055	-0.226	0.121
-188.158	-200.000	0.002	0.185
-187.144	383.037	-0.112	-0.226
-186.129	479.014	0.080	-0.177
-185.114	-200.000	-0.005	0.065
-184.100	-157.593	-0.107	0.006
-183.085	-112.711	0.305	-0.060
-182.071	-23.092	-0.368	0.218
-181.056	31.761	-0.302	-0.256
-180.042	-173.357	-0.067	0.002
-179.027	-137.605	0.213	-0.024
-178.012	309.735	-0.094	-0.173
-176.998	563.832	0.094	-0.224
-175.983	308.375	0.122	-0.223
-174.969	-200.000	0.030	-0.495
-173.954	800.000	-0.081	-0.231
-172.939	191.605	0.202	-0.300
-171.925	40.666	0.157	-0.139
-170.910	-129.413	-0.424	0.058
-169.896	-200.000	-0.007	-0.195
-168.881	140.395	0.189	-0.245
-167.866	-68.801	0.151	0.057
-166.852	-200.000	-0.022	0.450
-165.837	800.000	-0.118	-0.437
-164.823	3.106	-0.238	0.170
-163.808	800.000	-0.116	0.360
-162.793	-26.058	-0.205	-0.118
-161.779	87.384	-0.037	-0.040
-160.764	-34.469	0.353	0.190
-159.750	-121.734	0.076	-0.012
-158.735	-134.108	-0.372	-0.045
-157.720	-32.056	-0.077	-0.042
-156.706	246.935	-0.133	0.220
-155.691	-121.927	0.161	0.026
-154.677	-5.311	0.185	0.125
-153.662	-200.000	-0.036	0.259
-152.647	-59.033	-0.323	0.137
-151.633	111.013	-0.102	0.120
-150.618	-13.232	0.224	-0.143
-149.604	-65.143	-0.227	-0.090
-148.589	800.000	0.023	-0.099
-147.574	-146.932	0.403	0.034
-146.560	-200.000	-0.015	-0.096
-145.545	205.613	0.117	0.178
-144.531	-200.000	0.033	-0.221
-143.516	-35.180	0.413	-0.221
-142.502	800.000	-0.112	0.320
-141.487	-200.000	0.036	0.411
-140.472	800.000	0.092	-0.330
-139.458	800.000	0.106	-0.453
-138.443	-21.998	-0.064	-0.038
-137.429	661.730	0.058	0.147
-136.414	-142.717	-0.178	0.017
-135.399	30.250	-0.127	0.106
-134.385	356.957	0.064	-0.125
-133.370	-124.075	-0.137	0.021
-132.356	-76.095	0.098	-0.034
-131.341	19.925	0.218	-0.172
-130.326	800.000	0.131	0.409
-129.312	-151.141	0.168	0.012
-128.297	-56.765	-0.151	-0.066
-127.283	-105.306	0.278	-0.062
-126.268	-200.000	0.007	0.049
-125.253	353.539	0.129	-0.250
-124.239	120.378	0.088	-0.108
-123.224	-1.536	-0.172	-0.119
-122.210	108.961	-0.150	0.176
