DTS Sentinel unit serial number:	SN413079Multiplexer serial number:	ORYXHardware model number:	OX4-SRSoftware version number:	ORYX F/W v4.00 Oryx Data Collector v3.7.2.0data status	okinstallation	princeton_trtdifferential loss correction	single-endedforward channel	channel 4reverse channel	N/Adate	2019/09/15time	05:45:35forward acquisition time	60.00reverse acquisition time	0.00gamma	496.2192k internal	0.2311k external	0.2311temperature offset calibration	1.0039default loss term (dB/km)	0.3790temperature slope calibration	1.0000multiplexer offset coefficient	1.0000multiplexer slope coefficient	1.0000fibre end	0.00T internal ref (°C)	30.62T ext. ref 1 (°C)	4.83T ext. ref 2 (°C)	25.73length (m)	temperature (°C)	Stokes	anti-Stokes-747.200	550.481	0.162	-0.395
-746.185	-161.565	-0.454	-0.024
-745.171	-200.000	-0.022	0.353
-744.156	-186.092	-0.182	0.003
-743.142	800.000	0.019	0.065
-742.127	-83.441	-0.204	0.066
-741.112	-193.877	0.341	0.003
-740.098	-82.517	-0.105	-0.035
-739.083	-37.863	0.318	0.172
-738.069	195.556	0.141	0.218
-737.054	745.037	0.107	-0.291
-736.039	-159.499	-0.208	0.012
-735.025	-171.290	-0.359	-0.012
-734.010	-15.426	-0.205	-0.133
-732.996	800.000	-0.040	0.134
-731.981	88.741	-0.138	0.156
-730.966	-25.746	0.291	-0.174
-729.952	-151.341	0.056	0.004
-728.937	800.000	-0.118	-0.526
-727.923	125.816	-0.200	-0.256
-726.908	192.924	-0.130	0.200
-725.894	-128.815	-0.171	0.024
-724.879	-70.481	-0.290	-0.111
-723.864	117.551	-0.118	-0.147
-722.850	715.775	0.059	-0.158
-721.835	25.847	-0.145	-0.122
-720.821	38.109	0.092	-0.083
-719.806	116.649	-0.075	0.093
-718.791	-101.693	-0.191	0.047
-717.777	-28.148	-0.465	-0.273
-716.762	230.037	-0.011	0.018
-715.748	-147.153	0.343	0.030
-714.733	6.220	-0.238	-0.179
-713.718	-150.391	-0.111	0.009
-712.704	318.418	-0.118	0.227
-711.689	-19.825	-0.309	-0.193
-710.675	-166.660	0.217	-0.009
-709.660	-54.430	-0.285	0.131
-708.645	-86.878	-0.100	0.031
-707.631	716.352	-0.058	-0.156
-706.616	-200.000	-0.051	0.250
-705.602	220.462	0.014	-0.023
-704.587	-19.561	0.239	0.150
-703.572	-200.000	0.015	0.228
-702.558	56.788	0.094	0.093
-701.543	-88.575	-0.089	0.027
-700.529	97.745	0.053	-0.061
-699.514	33.762	-0.345	-0.304
-698.499	-103.830	-0.224	0.053
-697.485	800.000	-0.064	0.280
-696.470	-200.000	-0.010	-0.116
-695.456	800.000	0.115	-0.414
-694.441	800.000	0.064	0.268
-693.426	800.000	-0.047	0.207
-692.412	-15.416	0.069	0.045
-691.397	-165.198	-0.134	0.006
-690.383	102.810	0.073	-0.087
-689.368	-200.000	-0.025	-0.213
-688.354	800.000	0.090	0.329
-687.339	-10.121	0.131	0.088
-686.324	800.000	-0.085	-0.319
-685.310	-200.000	-0.025	-0.125
-684.295	179.657	-0.262	0.389
-683.281	78.498	0.139	0.150
-682.266	-76.390	-0.136	-0.048
-681.251	777.747	-0.098	-0.271
-680.237	-200.000	-0.015	0.067
-679.222	-21.931	-0.268	0.165
-678.208	-200.000	0.013	-0.085
-677.193	-168.983	-0.127	0.005
-676.178	-135.156	0.322	-0.039
-675.164	-119.979	-0.352	-0.061
-674.149	-99.621	0.021	0.005
-673.135	30.551	-0.244	-0.211
-672.120	-176.470	0.110	-0.003
-671.105	-46.472	-0.216	-0.107
-670.091	-79.590	0.164	-0.056
-669.076	-90.702	0.282	0.082
-668.062	-17.480	-0.172	-0.109
-667.047	398.515	-0.066	-0.139
-666.032	-200.000	-0.000	0.014
-665.018	289.549	-0.075	-0.138
-664.003	-43.195	0.114	-0.058
-662.989	-37.564	0.216	0.117
-661.974	-26.745	-0.160	-0.094
-660.959	-78.286	0.290	-0.101
-659.945	-75.466	0.271	-0.098
-658.930	645.454	-0.035	-0.091
-657.916	-20.230	0.295	-0.184
-656.901	39.815	0.266	0.242
-655.886	-145.856	0.194	0.017
-654.872	-123.130	-0.220	-0.036
-653.857	-110.916	0.154	0.032
-652.843	310.463	0.076	0.144
-651.828	-2.633	-0.131	-0.093
-650.814	-149.615	0.120	-0.010
-649.799	-43.353	0.078	-0.040
-648.784	124.613	-0.094	-0.120
-647.770	-108.413	-0.094	0.020
-646.755	-49.812	-0.238	0.114
-645.741	-62.411	0.299	-0.126
-644.726	-75.126	-0.234	-0.084
-643.711	70.548	-0.060	0.062
-642.697	680.729	-0.151	0.398
-641.682	-19.128	0.020	-0.012
-640.668	665.535	-0.034	0.090
-639.653	17.121	-0.048	-0.039
-638.638	249.410	-0.129	0.221
-637.624	-200.000	0.205	0.001
-636.609	-100.319	-0.224	-0.056
-635.595	66.796	-0.114	-0.118
-634.580	-180.613	-0.116	0.002
-633.565	-109.497	-0.114	-0.024
-632.551	-138.274	-0.370	-0.041
-631.536	50.714	-0.421	-0.403
-630.522	-200.000	0.064	-0.304
-629.507	789.200	0.106	0.293
-628.492	156.481	-0.123	0.172
-627.478	-118.668	0.095	-0.017
-626.463	-93.776	0.303	-0.084
-625.449	-48.414	-0.312	-0.152
-624.434	-55.280	-0.353	-0.160
-623.419	-172.528	0.290	-0.009
-622.405	77.424	0.196	-0.211
-621.390	-189.318	0.406	0.005
-620.376	-67.707	0.105	0.042
-619.361	-200.000	0.012	-0.171
-618.346	800.000	0.108	0.351
-617.332	23.914	0.092	0.076
-616.317	-37.828	-0.310	-0.166
-615.303	-101.234	-0.157	-0.039
-614.288	-24.155	-0.090	-0.054
-613.273	-25.611	-0.370	-0.221
-612.259	-148.124	0.109	0.009
-611.244	10.408	0.267	-0.205
-610.230	-3.374	0.235	-0.165
-609.215	380.786	0.134	-0.278
-608.201	-120.140	-0.172	0.030
-607.186	-61.339	-0.180	-0.077
-606.171	-94.630	-0.233	0.064
-605.157	800.000	-0.120	-0.529
-604.142	-107.740	-0.179	0.039
-603.128	-85.262	-0.112	-0.035
-602.113	-116.215	-0.124	0.023
-601.098	579.185	-0.125	0.308
-600.084	800.000	-0.015	-0.050
-599.069	-48.196	0.144	-0.070
-598.055	251.605	0.123	-0.210
-597.040	99.223	-0.285	0.333
-596.025	800.000	-0.019	0.077
-595.011	35.276	-0.175	0.155
-593.996	66.382	-0.129	-0.132
-592.982	642.193	0.019	-0.050
-591.967	-181.461	-0.363	0.007
-590.952	-91.674	0.189	-0.054
-589.938	-53.356	-0.068	-0.031
-588.923	13.122	0.226	-0.177
-587.909	543.792	-0.012	0.030
-586.894	41.424	0.023	-0.021
-585.879	4.400	-0.125	-0.093
-584.865	183.795	0.168	-0.251
-583.850	-200.000	0.046	-0.254
-582.836	77.402	-0.120	0.129
-581.821	-106.667	0.347	0.078
-580.806	118.336	-0.264	-0.328
-579.792	-200.000	-0.010	0.091
-578.777	346.811	0.158	0.314
-577.763	800.000	-0.022	0.085
-576.748	-124.684	0.108	0.017
-575.733	-200.000	-0.026	-0.114
-574.719	-79.403	-0.281	0.096
-573.704	-21.212	-0.048	0.030
-572.690	394.899	0.201	-0.423
-571.675	-90.539	0.069	-0.020
-570.661	-36.696	0.091	0.049
-569.646	-103.616	0.458	-0.108
-568.631	800.000	-0.110	0.357
-567.617	-89.218	-0.071	-0.021
-566.602	-2.523	0.321	-0.227
-565.588	-47.007	0.179	0.088
-564.573	53.137	-0.182	-0.176
-563.558	-138.465	0.458	-0.051
-562.544	150.859	-0.127	0.174
-561.529	-200.000	-0.026	-0.355
-560.515	-200.000	-0.034	-0.339
-559.500	-3.656	-0.205	-0.143
-558.485	39.201	-0.265	0.239
-557.471	143.326	0.200	-0.269
-556.456	-29.125	0.094	0.054
-555.442	326.228	-0.077	0.149
-554.427	177.175	-0.077	-0.113
-553.412	-79.697	0.148	-0.050
-552.398	-176.107	0.232	0.006
-551.383	-200.000	0.005	0.203
-550.369	159.097	-0.149	0.208
-549.354	284.516	0.230	0.416
-548.339	335.361	-0.157	0.306
-547.325	800.000	-0.127	0.542
-546.310	-116.331	0.181	-0.034
-545.296	800.000	-0.098	-0.286
-544.281	800.000	0.042	0.136
-543.266	410.399	0.048	0.102
-542.252	272.839	0.125	-0.223
-541.237	416.287	0.034	0.074
-540.223	800.000	0.092	0.386
-539.208	-98.367	-0.503	-0.130
-538.193	51.806	0.271	0.260
-537.179	-55.804	-0.256	-0.115
-536.164	-94.523	-0.293	-0.080
-535.150	215.676	0.142	0.228
-534.135	187.441	-0.164	0.246
-533.121	151.101	0.183	0.250
-532.106	85.887	-0.133	-0.147
-531.091	-200.000	0.017	-0.110
-530.077	800.000	0.067	-0.268
-529.062	271.102	0.091	-0.162
-528.048	-200.000	0.020	-0.168
-527.033	-200.000	0.010	-0.101
-526.018	20.353	-0.318	-0.259
-525.004	16.896	-0.260	0.207
-523.989	-200.000	0.026	0.219
-522.975	43.248	-0.091	-0.084
-521.960	-61.312	-0.097	-0.041
-520.945	-80.574	0.147	0.049
-519.931	25.339	0.179	-0.149
-518.916	-80.243	-0.051	-0.017
-517.902	-84.649	-0.056	0.018
-516.887	-200.000	-0.010	-0.148
-515.872	-102.349	-0.230	0.055
-514.858	-80.929	-0.118	-0.039
-513.843	800.000	-0.036	0.104
-512.829	-32.254	-0.194	-0.109
-511.814	758.373	-0.120	0.327
-510.799	128.754	-0.266	0.341
-509.785	125.193	0.208	0.264
-508.770	528.625	-0.068	-0.161
-507.756	-133.074	-0.214	-0.027
-506.741	800.000	-0.087	-0.263
-505.726	346.002	-0.200	-0.396
-504.712	369.015	0.021	-0.042
-503.697	440.996	0.104	-0.229
-502.683	-176.231	0.154	0.004
-501.668	328.146	-0.034	0.065
-500.653	-194.501	-0.080	0.001
-499.639	150.464	0.054	-0.073
-498.624	-113.493	0.142	-0.028
-497.610	0.543	-0.267	0.192
-496.595	-149.398	-0.413	0.033
-495.581	-200.000	-0.026	0.157
-494.566	398.904	-0.078	-0.165
-493.551	753.540	0.120	-0.325
-492.537	-24.201	-0.198	-0.119
-491.522	85.060	0.159	0.175
-490.508	120.174	-0.163	-0.203
-489.493	-90.100	-0.203	0.059
-488.478	145.160	-0.159	-0.214
-487.464	-200.000	0.006	0.036
-486.449	-5.165	-0.044	0.030
-485.435	-42.439	-0.166	0.085
-484.420	-200.000	-0.029	-0.159
-483.405	-200.000	-0.005	0.065
-482.391	-108.912	-0.138	0.030
-481.376	-200.000	-0.019	0.091
-480.362	-200.000	0.013	-0.212
-479.347	800.000	0.069	0.192
-478.332	32.391	-0.182	0.158
-477.318	119.542	0.028	-0.034
-476.303	30.974	0.335	0.288
-475.289	61.269	-0.202	0.202
-474.274	75.147	0.033	0.034
-473.259	135.253	0.157	0.206
-472.245	-32.825	-0.044	-0.025
-471.230	-200.000	0.022	-0.314
-470.216	115.555	0.167	0.205
-469.201	800.000	-0.033	0.112
-468.186	-68.326	-0.138	0.054
-467.172	-82.301	0.366	-0.120
-466.157	-127.848	-0.109	-0.016
-465.143	800.000	0.081	-0.228
-464.128	-29.676	-0.219	0.125
-463.113	21.659	-0.035	0.028
-462.099	32.490	0.171	0.149
-461.084	33.845	-0.238	0.208
-460.070	-200.000	0.013	-0.108
-459.055	313.092	-0.195	-0.368
-458.040	800.000	-0.026	-0.092
-457.026	83.415	-0.197	0.215
-456.011	175.475	-0.073	-0.107
-454.997	-92.805	-0.031	0.009
-453.982	-200.000	-0.036	-0.189
-452.968	-11.895	0.072	-0.047
-451.953	-200.000	-0.010	0.164
-450.938	442.040	-0.015	-0.033
-449.924	-153.183	-0.174	-0.012
-448.909	-93.441	0.141	-0.039
-447.895	-60.533	0.121	0.052
-446.880	121.670	0.212	0.266
-445.865	-200.000	0.009	0.119
-444.851	44.121	-0.029	0.027
-443.836	-98.985	-0.166	-0.042
-442.822	528.143	0.044	0.105
-441.807	-148.694	0.344	0.028
-440.792	-99.952	-0.376	-0.094
-439.778	-51.907	-0.096	-0.045
-438.763	468.215	-0.028	-0.063
-437.749	226.720	0.103	0.167
-436.734	-200.000	-0.002	-0.063
-435.719	-200.000	0.032	0.155
-434.705	-106.695	0.387	-0.086
-433.690	-115.548	0.343	-0.065
-432.676	-97.515	-0.259	-0.068
-431.661	-77.860	-0.105	0.036
-430.646	43.986	0.076	-0.070
-429.632	110.909	-0.115	-0.138
-428.617	10.260	-0.173	0.132
-427.603	125.419	-0.120	0.151
-426.588	269.998	0.100	0.177
-425.573	197.110	0.110	0.168
-424.559	-70.808	0.135	-0.051
-423.544	-34.418	0.208	-0.114
-422.530	102.937	-0.172	0.202
-421.515	-111.992	0.348	-0.070
-420.500	-56.280	-0.090	-0.040
-419.486	-200.000	-0.033	0.343
-418.471	23.440	0.202	0.166
-417.457	-5.766	0.195	0.134
-416.442	335.723	-0.129	0.250
-415.428	-165.767	0.068	-0.003
-414.413	800.000	0.025	-0.070
-413.398	228.718	0.061	0.100
-412.384	-200.000	-0.038	-0.178
-411.369	125.770	0.040	-0.050
-410.355	326.229	0.164	-0.314
-409.340	-200.000	-0.014	0.166
-408.325	342.257	-0.044	0.085
-407.311	-151.310	0.309	-0.023
-406.296	10.173	0.108	-0.083
-405.282	-144.039	-0.358	0.034
-404.267	66.868	0.049	-0.050
-403.252	-37.189	-0.105	0.057
-402.238	-200.000	-0.066	0.298
-401.223	-200.000	0.016	0.101
-400.209	201.554	-0.172	-0.265
-399.194	257.591	0.126	-0.217
-398.179	-9.528	-0.229	0.153
-397.165	64.699	0.247	0.250
-396.150	-142.317	0.266	0.026
-395.136	197.849	-0.195	0.299
-394.121	-29.658	0.150	-0.086
-393.106	221.025	-0.076	-0.122
-392.092	136.136	0.253	0.330
-391.077	800.000	0.048	0.205
-390.063	39.567	-0.144	-0.129
-389.048	407.100	-0.040	0.085
-388.033	369.718	0.048	0.098
-387.019	710.211	0.094	-0.248
-386.004	-40.930	-0.079	-0.041
-384.990	800.000	0.061	0.170
-383.975	-144.473	-0.153	-0.014
-382.960	-152.035	0.456	0.033
-381.946	-165.643	-0.337	0.015
-380.931	210.570	0.213	-0.335
-379.917	-55.712	-0.208	0.093
-378.902	800.000	-0.069	0.224
-377.888	-119.704	0.302	-0.052
-376.873	-200.000	0.020	-0.192
-375.858	125.987	0.033	0.042
-374.844	18.232	-0.435	0.347
-373.829	3.056	-0.133	0.097
-372.815	700.207	0.072	-0.190
-371.800	-35.394	-0.118	0.064
-370.785	-104.035	0.489	0.114
-369.771	800.000	-0.066	-0.288
-368.756	800.000	0.056	-0.243
-367.742	145.184	-0.074	-0.099
-366.727	-45.837	-0.248	-0.123
-365.712	35.930	-0.273	-0.240
-364.698	-38.017	0.091	0.048
-363.683	-59.303	-0.519	0.223
-362.669	-150.589	-0.342	0.026
-361.654	-51.922	0.350	-0.163
-360.639	-143.514	-0.252	0.024
-359.625	-200.000	-0.016	0.301
-358.610	-16.551	0.105	-0.067
-357.596	-143.813	0.103	0.010
-356.581	-81.343	-0.127	-0.042
-355.566	-200.000	0.036	-0.250
-354.552	211.399	-0.039	-0.061
-353.537	292.400	0.031	-0.056
-352.523	-97.692	-0.321	0.083
-351.508	-52.276	-0.128	-0.059
-350.493	-49.307	0.341	0.163
-349.479	44.618	-0.100	0.092
-348.464	528.630	0.083	-0.195
-347.450	-43.732	0.126	-0.063
-346.435	-200.000	0.046	-0.229
-345.420	-200.000	0.020	-0.411
-344.406	195.443	-0.079	0.120
-343.391	-200.000	-0.008	-0.276
-342.377	77.637	0.151	-0.161
-341.362	-122.526	0.128	-0.021
-340.348	-84.843	-0.741	-0.233
-339.333	-133.126	0.188	0.024
-338.318	-71.625	0.248	0.092
-337.304	666.718	0.086	0.222
-336.289	-153.951	0.179	0.012
-335.275	93.846	-0.083	-0.094
-334.260	520.884	0.193	0.453
-333.245	-44.159	-0.115	0.058
-332.231	63.009	0.238	-0.238
-331.216	183.173	-0.035	-0.051
-330.202	9.412	-0.199	0.151
-329.187	800.000	0.100	0.280
-328.172	-200.000	0.007	-0.068
-327.158	-57.200	0.184	-0.081
-326.143	350.869	0.043	-0.086
-325.129	675.781	-0.061	-0.158
-324.114	-0.718	0.062	0.044
-323.099	256.142	0.023	-0.040
-322.085	307.165	0.253	0.471
-321.070	703.893	0.072	-0.189
-320.056	800.000	0.079	-0.225
-319.041	-78.932	-0.137	-0.047
-318.026	-174.183	0.279	-0.008
-317.012	-85.116	0.079	0.025
-315.997	1.690	0.231	0.166
-314.983	-200.000	0.008	-0.092
-313.968	66.408	0.251	-0.255
-312.953	14.844	0.269	-0.210
-311.939	-200.000	0.005	0.197
-310.924	-119.494	0.263	0.046
-309.910	-4.457	0.312	0.215
-308.895	417.867	0.069	0.148
-307.880	325.284	-0.061	0.117
-306.866	206.910	-0.072	0.112
-305.851	-110.678	0.053	0.011
-304.837	177.913	-0.140	0.203
-303.822	113.521	-0.087	0.106
-302.807	36.355	0.216	0.190
-301.793	-200.000	-0.006	-0.295
-300.778	54.218	0.031	0.030
-299.764	492.155	-0.100	0.228
-298.749	61.530	0.105	-0.104
-297.735	22.744	-0.082	-0.067
-296.720	108.509	-0.107	-0.128
-295.705	-121.521	-0.092	0.015
-294.691	-61.250	0.253	0.107
-293.676	-86.457	0.238	-0.073
-292.662	167.228	-0.085	-0.120
-291.647	-200.000	0.013	0.396
-290.632	81.540	0.356	0.384
-289.618	-200.000	-0.007	-0.043
-288.603	-89.058	0.239	-0.070
-287.589	800.000	0.075	-0.236
-286.574	-108.985	0.159	0.034
-285.559	-200.000	0.006	-0.028
-284.545	33.845	-0.055	-0.047
-283.530	-113.852	0.207	0.040
-282.516	-122.059	0.070	0.011
-281.501	216.658	0.110	0.174
-280.486	10.873	0.124	0.095
-279.472	-200.000	-0.037	-0.457
-278.457	-4.165	-0.461	-0.319
-277.443	-145.705	0.159	-0.014
-276.428	-200.000	0.052	0.407
-275.413	-73.417	-0.148	0.054
-274.399	556.410	0.139	0.333
-273.384	158.027	0.037	0.051
-272.370	-126.549	0.349	0.052
-271.355	90.930	0.239	-0.267
-270.340	-63.901	0.190	-0.077
-269.326	-200.000	-0.000	0.029
-268.311	-58.948	-0.313	-0.135
-267.297	800.000	-0.063	-0.256
-266.282	314.207	-0.075	-0.140
-265.267	-18.409	-0.136	0.085
-264.253	114.644	-0.257	0.312
-263.238	252.820	-0.141	-0.240
-262.224	-200.000	0.047	0.240
-261.209	-200.000	0.003	-0.271
-260.195	-200.000	0.008	-0.113
-259.180	-6.091	0.272	-0.185
-258.165	11.965	-0.103	0.079
-257.151	-174.309	0.292	-0.008
-256.136	-23.880	-0.192	-0.114
-255.122	788.880	0.027	0.075
-254.107	7.671	-0.222	0.165
-253.092	-23.083	0.461	-0.277
-252.078	-110.528	0.245	-0.050
-251.063	254.415	0.094	-0.161
-250.049	-5.411	0.372	0.254
-249.034	106.452	0.074	0.087
-248.019	-200.000	0.014	-0.158
-247.005	41.011	0.309	-0.278
-245.990	610.633	0.082	-0.205
-244.976	709.969	-0.115	0.302
-243.961	-35.805	0.210	-0.113
-242.946	-153.078	-0.137	-0.010
-241.932	-39.221	-0.025	-0.013
-240.917	-101.290	0.181	0.044
-239.903	-18.751	-0.266	-0.165
-238.888	315.770	0.063	-0.119
-237.873	-37.291	-0.174	0.093
-236.859	-191.708	-0.387	-0.004
-235.844	-103.944	0.155	0.036
-234.830	-113.875	0.152	0.029
-233.815	96.629	-0.217	-0.247
-232.800	-200.000	0.004	-0.168
-231.786	-162.064	0.167	0.008
-230.771	80.606	-0.055	0.059
-229.757	-23.211	0.238	0.143
-228.742	800.000	0.079	0.335
-227.727	415.758	-0.043	-0.091
-226.713	333.656	-0.074	0.142
-225.698	-131.919	-0.334	-0.043
-224.684	49.983	0.099	0.093
-223.669	226.166	-0.108	0.175
-222.655	203.672	0.036	-0.056
-221.640	60.867	-0.248	0.244
-220.625	146.436	-0.013	0.018
-219.611	76.633	0.010	0.011
-218.596	203.870	-0.150	-0.231
-217.582	800.000	-0.075	0.225
-216.567	-61.066	-0.074	0.031
-215.552	800.000	-0.105	0.331
-214.538	147.163	-0.017	0.023
-213.523	253.061	-0.090	-0.152
-212.509	336.005	0.187	0.361
-211.494	100.154	0.070	0.080
-210.479	15.738	0.073	0.057
-209.465	-200.000	0.046	-0.380
-208.450	88.141	-0.261	-0.288
-207.436	-81.566	0.203	0.066
-206.421	-11.148	-0.014	-0.009
-205.406	-200.000	-0.011	-0.143
-204.392	424.843	0.169	0.361
-203.377	-97.585	0.159	-0.041
-202.363	521.381	-0.112	0.261
-201.348	-12.364	-0.295	0.192
-200.333	44.802	-0.147	-0.134
-199.319	123.357	-0.157	0.196
-198.304	-18.482	-0.130	-0.081
-197.290	-200.000	-0.017	0.096
-196.275	285.886	-0.081	0.145
-195.260	-100.757	0.153	0.037
-194.246	-130.039	0.163	0.022
-193.231	231.808	-0.036	-0.059
-192.217	800.000	-0.058	0.206
-191.202	-119.532	0.216	-0.037
-190.187	-200.000	0.008	-0.143
-189.173	-86.428	0.140	-0.043
-188.158	-25.750	-0.118	-0.069
-187.144	112.205	-0.130	-0.156
-186.129	-200.000	0.030	-0.243
-185.114	800.000	-0.138	-0.595
-184.100	-105.958	-0.353	0.079
-183.085	800.000	0.078	0.302
-182.071	-84.551	-0.070	-0.022
-181.056	-184.802	0.417	0.007
-180.042	190.897	-0.091	0.136
-179.027	122.850	0.136	0.169
-178.012	800.000	0.080	0.279
-176.998	800.000	-0.091	0.286
-175.983	-92.454	-0.165	0.046
-174.969	208.493	0.131	0.203
-173.954	361.468	0.047	-0.094
-172.939	-200.000	0.009	-0.134
-171.925	-110.762	-0.179	0.037
-170.910	181.570	-0.205	0.299
-169.896	-45.387	-0.223	-0.110
-168.881	-97.882	0.137	0.035
-167.866	-147.409	-0.196	0.017
-166.852	-88.464	-0.038	0.011
-165.837	-118.428	0.209	-0.037
-164.823	313.724	0.177	0.331
-163.808	181.094	0.201	-0.293
-162.793	-43.028	0.274	-0.138
-161.779	-147.396	0.014	-0.001
-160.764	-33.851	0.045	-0.024
-159.750	800.000	-0.034	0.103
-158.735	-200.000	0.031	-0.152
-157.720	-151.681	-0.125	-0.009
-156.706	-200.000	-0.009	0.096
-155.691	169.122	0.071	0.100
-154.677	198.115	0.186	-0.281
-153.662	8.831	0.225	-0.168
-152.647	64.621	-0.226	-0.226
-151.633	6.375	0.192	-0.142
-150.618	-200.000	0.006	-0.344
-149.604	-177.283	0.125	-0.003
-148.589	-200.000	0.004	0.249
-147.574	358.327	-0.125	-0.247
-146.560	75.645	-0.054	-0.057
-145.545	-104.039	-0.247	0.057
-144.531	-118.621	0.242	-0.042
-143.516	309.307	0.078	0.145
-142.502	349.083	-0.044	-0.087
-141.487	380.845	-0.139	0.283
-140.472	-82.319	0.335	0.108
-139.458	-168.756	-0.050	-0.002
-138.443	144.766	0.210	0.278
-137.429	-82.755	-0.270	0.087
-136.414	215.249	-0.090	-0.142
-135.399	800.000	-0.122	0.413
-134.385	-91.048	0.139	0.040
-133.370	-114.709	-0.186	0.035
-132.356	800.000	0.044	0.143
-131.341	-151.855	0.099	-0.007
-130.326	-200.000	0.014	0.282
-129.312	246.369	-0.037	0.062
-128.297	-11.215	-0.173	0.113
-127.283	7.063	-0.341	-0.252
-126.268	-38.586	-0.066	0.035
-125.253	-68.209	-0.435	-0.168
-124.239	-200.000	-0.004	0.178
-123.224	75.868	0.203	0.212
-122.210	-156.876	0.233	-0.014
-121.195	3.112	0.036	0.026
