DTS Sentinel unit serial number:	SN413079Multiplexer serial number:	ORYXHardware model number:	OX4-SRSoftware version number:	ORYX F/W v4.00 Oryx Data Collector v3.7.2.0data status	okinstallation	princeton_trtdifferential loss correction	single-endedforward channel	channel 4reverse channel	N/Adate	2019/09/12time	14:23:10forward acquisition time	60.00reverse acquisition time	0.00gamma	496.2192k internal	0.2292k external	0.2292temperature offset calibration	1.0086default loss term (dB/km)	0.3790temperature slope calibration	1.0000multiplexer offset coefficient	1.0000multiplexer slope coefficient	1.0000fibre end	0.00T internal ref (°C)	40.14T ext. ref 1 (°C)	2.25T ext. ref 2 (°C)	34.90length (m)	temperature (°C)	Stokes	anti-Stokes-747.200	761.326	-0.067	0.187
-746.185	-51.916	0.162	0.077
-745.171	-11.004	-0.299	0.202
-744.156	-200.000	-0.068	0.472
-743.142	220.941	-0.110	-0.181
-742.127	-71.393	-0.065	-0.025
-741.112	231.998	-0.228	0.382
-740.098	-200.000	-0.002	0.332
-739.083	121.248	-0.043	0.055
-738.069	-20.042	-0.275	0.174
-737.054	-36.889	0.250	-0.137
-736.039	15.612	0.128	-0.103
-735.025	11.324	0.285	-0.223
-734.010	-200.000	-0.332	-0.001
-732.996	800.000	-0.049	-0.184
-731.981	44.504	-0.073	0.069
-730.966	4.595	-0.162	-0.122
-729.952	632.514	0.079	-0.205
-728.937	-200.000	0.020	-0.146
-727.923	-133.506	0.237	-0.030
-726.908	-59.573	-0.294	0.129
-725.894	-62.537	0.074	-0.031
-724.879	38.412	-0.082	-0.075
-723.864	-200.000	0.000	0.082
-722.850	-181.030	-0.260	-0.005
-721.835	80.244	-0.125	-0.138
-720.821	-164.707	-0.202	0.009
-719.806	800.000	0.050	0.178
-718.791	7.374	-0.207	0.158
-717.777	-80.575	-0.202	0.069
-716.762	-4.486	-0.257	0.181
-715.748	143.915	-0.058	0.080
-714.733	-64.401	0.175	0.073
-713.718	-40.118	-0.288	0.153
-712.704	124.839	-0.133	-0.171
-711.689	-200.000	0.022	-0.305
-710.675	5.292	-0.308	-0.232
-709.660	-78.008	-0.097	-0.034
-708.645	231.756	0.025	-0.042
-707.631	-28.405	0.233	0.137
-706.616	41.181	0.391	-0.361
-705.602	-120.203	-0.159	0.028
-704.587	-19.855	-0.046	-0.029
-703.572	-200.000	0.013	-0.113
-702.558	265.247	-0.097	0.172
-701.543	-65.212	0.088	-0.036
-700.529	-92.907	-0.233	-0.066
-699.514	-32.809	0.109	-0.062
-698.499	-114.471	0.168	0.033
-697.485	-106.183	0.140	0.032
-696.470	137.327	-0.230	-0.307
-695.456	-129.062	0.337	-0.048
-694.441	701.960	0.140	0.377
-693.426	22.447	-0.160	-0.133
-692.412	57.055	0.156	0.155
-691.397	800.000	-0.173	0.511
-690.383	-129.831	0.045	-0.006
-689.368	189.999	-0.101	-0.155
-688.354	520.624	0.079	-0.188
-687.339	446.459	0.060	-0.134
-686.324	438.954	-0.142	0.316
-685.310	800.000	0.055	-0.233
-684.295	-127.296	0.227	0.034
-683.281	-81.231	0.542	-0.183
-682.266	-150.724	-0.328	0.025
-681.251	11.165	-0.092	-0.072
-680.237	58.143	0.251	0.252
-679.222	185.626	-0.084	-0.127
-678.208	800.000	-0.043	-0.159
-677.193	-105.838	0.217	0.050
-676.178	27.259	-0.259	-0.222
-675.164	-9.560	-0.257	-0.175
-674.149	-200.000	-0.039	-0.463
-673.135	-6.135	0.273	-0.190
-672.120	-1.223	-0.143	-0.103
-671.105	-200.000	-0.027	-0.172
-670.091	-200.000	-0.001	0.137
-669.076	-46.482	-0.083	-0.042
-668.062	-200.000	0.019	0.310
-667.047	-40.260	-0.186	0.099
-666.032	718.193	0.124	-0.336
-665.018	-80.915	0.188	-0.064
-664.003	73.653	0.130	-0.139
-662.989	-21.301	0.329	0.205
-661.974	-37.274	-0.243	-0.133
-660.959	4.484	-0.055	0.041
-659.945	-86.790	0.214	0.067
-658.930	-90.380	0.195	0.058
-657.916	-91.675	-0.457	-0.133
-656.901	-200.000	-0.001	0.086
-655.886	800.000	-0.106	-0.346
-654.872	591.846	0.047	0.119
-653.857	-95.694	0.214	-0.058
-652.843	-83.441	0.202	-0.066
-651.828	-200.000	0.033	-0.274
-650.814	36.811	0.067	-0.060
-649.799	520.368	0.123	-0.293
-648.784	-165.807	0.134	0.006
-647.770	126.187	-0.190	0.246
-646.755	-200.000	0.026	0.156
-645.741	800.000	-0.027	-0.078
-644.726	-37.351	0.270	0.147
-643.711	-92.439	0.215	0.062
-642.697	-68.224	-0.087	-0.034
-641.682	-131.987	0.254	0.034
-640.668	263.080	-0.207	-0.367
-639.653	252.235	-0.119	0.207
-638.638	-51.809	0.175	0.083
-637.624	52.085	-0.092	0.089
-636.609	-200.000	-0.018	-0.085
-635.595	-42.943	-0.282	0.146
-634.580	-34.827	-0.212	0.118
-633.565	-5.501	-0.210	0.147
-632.551	305.409	0.141	-0.267
-631.536	27.427	0.103	-0.088
-630.522	210.438	-0.169	0.271
-629.507	13.595	0.137	0.109
-628.492	800.000	0.083	0.345
-627.478	481.732	0.203	0.471
-626.463	58.752	-0.040	0.040
-625.449	173.972	0.088	0.129
-624.434	23.548	-0.165	0.138
-623.419	-31.451	0.270	0.155
-622.405	-126.952	0.317	0.048
-621.390	-100.692	0.027	0.007
-620.376	-76.591	0.334	0.120
-619.361	800.000	-0.044	0.132
-618.346	800.000	-0.049	-0.198
-617.332	800.000	-0.014	-0.052
-616.317	-94.399	-0.185	0.051
-615.303	266.578	0.068	-0.121
-614.288	132.188	0.055	0.072
-613.273	-200.000	0.019	-0.581
-612.259	207.824	-0.103	-0.163
-611.244	-91.493	-0.147	0.043
-610.230	495.776	-0.030	0.069
-609.215	43.279	0.068	0.063
-608.201	75.774	-0.104	0.112
-607.186	-134.017	-0.282	-0.036
-606.171	115.454	0.298	-0.371
-605.157	-14.545	0.222	0.145
-604.142	-108.795	0.213	0.046
-603.128	8.099	-0.215	0.164
-602.113	279.403	-0.090	0.164
-601.098	40.422	0.188	-0.173
-600.084	-200.000	-0.029	0.416
-599.069	745.705	-0.138	-0.378
-598.055	800.000	0.043	-0.135
-597.040	-184.766	-0.146	-0.002
-596.025	-150.155	0.153	-0.012
-595.011	-200.000	-0.037	0.196
-593.996	-200.000	0.013	0.111
-592.982	153.378	0.301	-0.420
-591.967	-45.844	-0.271	0.136
-590.952	127.330	-0.078	0.101
-589.938	-96.635	0.093	-0.025
-588.923	26.593	-0.089	0.075
-587.909	11.504	-0.129	-0.101
-586.894	73.934	-0.148	-0.158
-585.879	-100.331	-0.085	-0.021
-584.865	21.119	-0.282	0.233
-583.850	103.288	0.133	-0.158
-582.836	-81.725	-0.195	-0.065
-581.821	800.000	-0.100	-0.334
-580.806	-75.406	-0.317	0.115
-579.792	-200.000	-0.005	-0.100
-578.777	40.461	0.037	-0.034
-577.763	56.632	0.126	0.125
-576.748	-130.961	-0.373	-0.051
-575.733	28.540	-0.149	0.128
-574.719	32.163	-0.307	-0.270
-573.704	-200.000	-0.003	0.375
-572.690	-10.216	-0.241	-0.163
-571.675	-75.615	0.131	-0.047
-570.661	-144.416	-0.195	-0.018
-569.646	83.364	-0.017	0.019
-568.631	-86.406	-0.310	-0.097
-567.617	375.399	-0.068	-0.141
-566.602	-51.589	-0.410	0.194
-565.588	71.167	-0.145	-0.153
-564.573	17.659	0.146	-0.118
-563.558	-7.012	0.171	-0.118
-562.544	8.675	0.285	0.218
-561.529	1.441	-0.284	0.208
-560.515	-200.000	-0.022	0.297
-559.500	47.377	-0.246	-0.233
-558.485	-116.032	-0.262	-0.050
-557.471	366.032	-0.179	0.368
-556.456	146.273	0.055	0.075
-555.442	800.000	-0.069	-0.203
-554.427	-129.722	0.069	-0.010
-553.412	36.895	0.033	-0.029
-552.398	-113.089	-0.251	0.050
-551.383	322.150	0.076	-0.148
-550.369	-11.144	-0.114	-0.076
-549.354	-200.000	0.023	0.146
-548.339	-90.137	0.163	-0.048
-547.325	800.000	0.046	0.201
-546.310	-200.000	0.070	-0.470
-545.296	-114.566	-0.250	-0.049
-544.281	-170.467	-0.192	-0.007
-543.266	-52.851	0.136	-0.064
-542.252	-177.750	-0.242	-0.006
-541.237	800.000	-0.056	0.231
-540.223	-146.048	-0.028	0.003
-539.208	9.835	0.212	0.164
-538.193	-196.499	0.237	-0.002
-537.179	176.409	-0.114	-0.168
-536.164	-145.205	0.110	0.010
-535.150	-200.000	-0.012	0.073
-534.135	-200.000	0.081	0.623
-533.121	154.466	0.175	0.245
-532.106	120.615	-0.202	-0.255
-531.091	-200.000	-0.072	-0.000
-530.077	-200.000	-0.059	0.300
-529.062	-73.580	0.055	-0.020
-528.048	-200.000	-0.003	-0.410
-527.033	127.850	0.036	-0.047
-526.018	0.647	-0.278	-0.202
-525.004	762.876	-0.025	0.068
-523.989	54.529	0.191	0.186
-522.975	-200.000	0.003	-0.020
-521.960	251.405	-0.015	0.026
-520.945	-117.000	0.314	0.058
-519.931	2.687	-0.258	-0.190
-518.916	14.317	0.315	0.249
-517.902	-200.000	-0.065	0.291
-516.887	-27.375	-0.065	-0.038
-515.872	-200.000	-0.009	-0.099
-514.858	358.287	0.133	-0.269
-513.843	47.457	-0.138	-0.131
-512.829	-200.000	0.016	-0.286
-511.814	684.956	-0.130	0.345
-510.799	379.940	0.197	-0.410
-509.785	63.305	0.261	-0.265
-508.770	-143.022	-0.219	-0.022
-507.756	-51.472	-0.348	-0.165
-506.741	417.361	0.100	-0.217
-505.726	-58.736	0.094	-0.041
-504.712	613.409	-0.058	-0.146
-503.697	-200.000	-0.035	0.222
-502.683	-18.891	0.167	-0.106
-501.668	521.808	-0.069	-0.165
-500.653	-200.000	-0.031	0.185
-499.639	-97.912	0.085	0.022
-498.624	-94.606	-0.333	0.092
-497.610	91.998	0.063	0.072
-496.595	18.869	0.132	0.107
-495.581	-53.591	0.224	0.104
-494.566	-65.328	0.229	-0.093
-493.551	661.602	-0.011	-0.029
-492.537	-200.000	-0.000	0.028
-491.522	40.887	0.049	0.045
-490.508	259.960	0.102	0.178
-489.493	-74.826	-0.205	0.075
-488.478	-22.001	-0.489	-0.301
-487.464	-43.146	0.121	0.062
-486.449	25.946	-0.137	0.116
-485.435	-62.438	-0.160	-0.067
-484.420	217.532	0.043	-0.070
-483.405	-200.000	0.011	-0.073
-482.391	219.396	-0.208	0.337
-481.376	526.541	0.060	-0.144
-480.362	298.770	-0.179	-0.333
-479.347	-200.000	-0.044	-0.297
-478.332	72.964	0.088	-0.093
-477.318	-200.000	-0.006	0.157
-476.303	188.775	0.041	0.062
-475.289	-91.350	-0.199	0.058
-474.274	-87.838	0.160	-0.049
-473.259	-15.873	0.037	0.024
-472.245	-200.000	-0.015	0.105
-471.230	175.143	0.213	-0.312
-470.216	-79.135	0.201	0.069
-469.201	-181.852	0.375	-0.007
-468.186	-50.651	-0.174	0.083
-467.172	301.017	0.101	-0.188
-466.157	-200.000	-0.019	-0.309
-465.143	-133.760	0.550	0.069
-464.128	39.235	0.063	0.057
-463.113	800.000	-0.084	-0.272
-462.099	140.881	0.202	-0.270
-461.084	95.114	-0.170	-0.196
-460.070	-200.000	-0.004	0.057
-459.055	-147.556	0.059	-0.005
-458.040	222.665	-0.226	0.368
-457.026	-200.000	-0.045	0.246
-456.011	-76.984	0.383	0.135
-454.997	196.719	0.294	0.453
-453.982	38.963	-0.014	-0.013
-452.968	120.041	0.090	-0.113
-451.953	-70.571	-0.387	-0.148
-450.938	800.000	0.083	0.233
-449.924	269.299	-0.114	0.203
-448.909	-84.882	0.080	-0.025
-447.895	-96.536	0.227	0.061
-446.880	52.930	-0.077	0.075
-445.865	-200.000	-0.017	-0.157
-444.851	76.263	-0.044	-0.047
-443.836	-200.000	-0.002	-0.521
-442.822	2.838	-0.278	0.204
-441.807	-200.000	0.019	0.226
-440.792	-52.575	-0.106	-0.050
-439.778	-128.780	0.398	0.057
-438.763	-171.945	-0.126	0.004
-437.749	-40.361	-0.201	-0.106
-436.734	-200.000	-0.020	-0.481
-435.719	-200.000	0.039	-0.497
-434.705	312.647	0.102	-0.195
-433.690	800.000	0.044	-0.188
-432.676	-139.828	0.213	0.023
-431.661	-130.138	-0.161	-0.022
-430.646	131.970	-0.035	0.045
-429.632	26.619	-0.056	0.047
-428.617	-124.700	-0.117	-0.018
-427.603	172.164	0.037	0.054
-426.588	-52.378	0.304	-0.142
-425.573	-200.000	0.001	-0.246
-424.559	-99.883	0.067	0.017
-423.544	800.000	-0.039	-0.127
-422.530	234.007	-0.144	-0.239
-421.515	691.971	-0.049	-0.130
-420.500	1.607	-0.177	-0.129
-419.486	-200.000	-0.061	-0.313
-418.471	75.083	0.120	-0.128
-417.457	-200.000	-0.041	-0.184
-416.442	-141.785	0.168	0.017
-415.428	67.693	-0.222	-0.229
-414.413	177.322	0.106	0.156
-413.398	-95.357	-0.305	-0.083
-412.384	-30.557	-0.050	-0.029
-411.369	-132.211	-0.142	0.019
-410.355	-195.886	-0.289	0.002
-409.340	-34.228	-0.065	-0.036
-408.325	-18.329	0.192	0.121
-407.311	83.060	0.065	-0.072
-406.296	296.842	-0.211	-0.391
-405.282	31.699	0.155	0.135
-404.267	-26.495	0.125	-0.074
-403.252	-200.000	0.023	0.124
-402.238	199.670	0.179	0.277
-401.223	317.679	0.047	0.090
-400.209	800.000	0.077	-0.233
-399.194	-113.846	0.204	0.040
-398.179	173.952	0.122	0.179
-397.165	14.943	0.136	-0.108
-396.150	57.369	-0.240	0.237
-395.136	800.000	-0.044	-0.130
-394.121	38.650	0.154	0.139
-393.106	-118.051	0.332	0.060
-392.092	800.000	-0.102	-0.347
-391.077	-14.339	-0.094	-0.061
-390.063	0.169	-0.270	0.195
-389.048	-200.000	-0.060	0.355
-388.033	346.241	0.075	-0.148
-387.019	-121.343	0.028	-0.005
-386.004	-200.000	-0.014	0.351
-384.990	-119.956	-0.281	0.049
-383.975	-115.834	0.236	0.045
-382.960	22.811	0.137	0.113
-381.946	-130.585	0.249	0.034
-380.931	800.000	-0.086	-0.255
-379.917	-125.073	-0.210	0.033
-378.902	800.000	0.076	-0.227
-377.888	-4.468	0.067	-0.047
-376.873	252.440	0.122	0.210
-375.858	15.607	0.049	0.039
-374.844	-155.238	0.119	0.008
-373.829	632.237	-0.092	-0.236
-372.815	202.429	0.135	0.210
-371.800	513.123	0.096	0.226
-370.785	-32.560	-0.138	0.077
-369.771	271.513	0.107	0.190
-368.756	210.133	-0.158	-0.250
-367.742	800.000	-0.031	0.088
-366.727	800.000	-0.075	0.209
-365.712	131.776	0.084	0.109
-364.698	4.069	0.054	0.040
-363.683	800.000	0.068	0.241
-362.669	37.053	-0.035	-0.031
-361.654	800.000	0.068	-0.219
-360.639	-82.640	0.150	0.049
-359.625	289.486	0.182	-0.332
-358.610	-86.676	0.131	0.040
-357.596	-132.121	0.233	0.031
-356.581	-86.454	0.172	0.053
-355.566	-23.711	0.183	-0.110
-354.552	7.873	-0.116	0.088
-353.537	-200.000	0.023	-0.109
-352.523	-29.086	0.293	0.170
-351.508	275.497	0.106	0.190
-350.493	-200.000	0.019	0.392
-349.479	-200.000	0.009	0.129
-348.464	130.139	0.269	0.347
-347.450	124.724	0.061	0.078
-346.435	-51.625	-0.347	0.163
-345.420	-6.523	-0.004	0.003
-344.406	-81.924	-0.229	0.076
-343.391	800.000	0.021	0.078
-342.377	54.084	-0.265	-0.257
-341.362	-80.789	0.252	0.084
-340.348	-37.064	0.146	0.079
-339.333	-200.000	-0.079	-0.426
-338.318	81.330	0.256	0.278
-337.304	-200.000	0.019	0.282
-336.289	-200.000	0.021	-0.117
-335.275	-71.113	0.054	0.021
-334.260	800.000	0.041	-0.138
-333.245	-39.031	0.338	0.179
-332.231	-200.000	-0.057	-0.284
-331.216	800.000	0.032	0.113
-330.202	-100.753	-0.130	-0.032
-329.187	201.879	-0.171	-0.266
-328.172	800.000	0.089	0.258
-327.158	-48.423	-0.004	0.002
-326.143	-3.761	0.175	-0.122
-325.129	306.657	-0.022	-0.041
-324.114	-148.212	-0.203	0.017
-323.099	49.913	0.204	0.193
-322.085	25.333	0.278	0.232
-321.070	42.939	0.266	-0.244
-320.056	-72.166	0.172	0.064
-319.041	146.016	-0.025	-0.034
-318.026	-200.000	-0.004	-0.073
-317.012	800.000	-0.044	0.169
-315.997	-29.068	0.160	0.092
-314.983	66.095	-0.167	-0.170
-313.968	130.375	-0.202	0.261
-312.953	-39.091	-0.084	0.044
-311.939	-159.263	0.361	0.020
-310.924	-53.650	-0.173	0.080
-309.910	-9.929	0.202	0.135
-308.895	201.406	0.175	-0.271
-307.880	105.916	0.026	-0.031
-306.866	-88.358	0.096	0.029
-305.851	-200.000	-0.008	-0.179
-304.837	74.272	0.158	0.168
-303.822	41.300	-0.145	-0.132
-302.807	164.627	0.137	-0.195
-301.793	93.201	-0.042	0.048
-300.778	-22.544	0.198	-0.120
-299.764	180.546	-0.085	-0.125
-298.749	-40.334	-0.110	-0.057
-297.735	231.632	0.064	0.105
-296.720	116.286	0.159	0.196
-295.705	555.404	0.031	-0.076
-294.691	800.000	0.047	0.132
-293.676	-200.000	0.019	0.296
-292.662	282.946	-0.205	-0.371
-291.647	-200.000	-0.041	0.280
-290.632	-200.000	-0.512	0.001
-289.618	68.508	-0.137	-0.141
-288.603	115.209	0.159	0.195
-287.589	-126.354	0.152	-0.023
-286.574	78.747	0.255	-0.274
-285.559	-200.000	-0.001	-0.154
-284.545	-168.191	0.251	0.010
-283.530	-200.000	-0.052	-0.536
-282.516	632.070	-0.032	-0.082
-281.501	-170.819	-0.091	-0.003
-280.486	354.873	-0.313	-0.626
-279.472	2.209	-0.129	-0.093
-278.457	-200.000	0.060	-0.277
-277.443	253.313	-0.048	0.083
-276.428	-114.602	-0.079	0.015
-275.413	-112.411	-0.227	0.046
-274.399	104.339	-0.183	-0.216
-273.384	57.864	0.182	-0.179
-272.370	-200.000	-0.004	0.217
-271.355	0.672	-0.090	0.065
-270.340	188.165	-0.160	0.240
-269.326	101.911	-0.308	0.361
-268.311	-200.000	0.006	-0.168
-267.297	-64.064	0.187	-0.077
-266.282	800.000	0.007	0.027
-265.267	-7.852	-0.235	-0.160
-264.253	153.206	-0.071	0.097
-263.238	173.648	-0.053	0.077
-262.224	-137.362	0.154	0.017
-261.209	-85.999	0.456	-0.142
-260.195	-200.000	-0.041	-0.358
-259.180	-179.632	-0.294	-0.006
-258.165	-200.000	-0.012	0.216
-257.151	800.000	0.100	0.370
-256.136	29.155	0.129	0.110
-255.122	-80.525	0.359	-0.120
-254.107	319.313	-0.185	-0.352
-253.092	64.009	-0.200	0.202
-252.078	-200.000	-0.013	-0.083
-251.063	-200.000	0.059	-0.310
-250.049	109.120	0.207	0.248
-249.034	130.924	-0.216	0.278
-248.019	81.318	0.103	-0.111
-247.005	8.567	0.222	-0.168
-245.990	-64.974	-0.287	-0.116
-244.976	185.557	-0.223	-0.333
-243.961	563.646	0.166	0.404
-242.946	56.835	0.331	0.323
-241.932	658.169	-0.015	0.038
-240.917	-67.743	-0.194	-0.076
-239.903	800.000	-0.066	-0.229
-238.888	477.261	0.128	0.291
-237.873	-69.450	-0.149	0.057
-236.859	747.767	0.013	0.035
-235.844	-139.372	-0.169	-0.018
-234.830	162.573	0.066	-0.093
-233.815	-67.247	0.224	-0.088
-232.800	57.661	-0.033	-0.032
-231.786	115.161	-0.144	0.177
-230.771	-38.616	0.159	0.084
-229.757	436.111	-0.169	0.369
-228.742	-132.790	-0.240	0.031
-227.727	-200.000	0.002	-0.161
-226.713	-105.857	0.211	-0.048
-225.698	58.914	-0.041	-0.041
-224.684	-47.180	-0.322	-0.157
-223.669	-48.687	0.139	-0.067
-222.655	180.890	-0.141	-0.208
-221.640	8.111	0.085	0.064
-220.625	-37.139	0.153	0.082
-219.611	49.868	0.330	0.312
-218.596	-134.858	-0.202	0.025
-217.582	25.882	-0.266	-0.223
-216.567	-13.479	-0.119	-0.077
-215.552	-46.867	-0.189	-0.093
-214.538	19.556	0.074	-0.060
-213.523	-48.633	0.119	0.057
-212.509	800.000	-0.064	0.274
-211.494	-200.000	0.025	0.207
-210.479	800.000	-0.080	-0.232
-209.465	-106.839	0.491	0.109
-208.450	734.947	-0.056	0.151
-207.436	-138.053	-0.239	0.027
-206.421	-200.000	0.001	0.355
-205.406	-200.000	0.018	0.101
-204.392	554.958	-0.045	0.109
-203.377	2.742	0.161	0.117
-202.363	-97.666	-0.086	0.022
-201.348	-50.489	0.167	-0.079
-200.333	-116.838	0.232	-0.043
-199.319	-200.000	0.003	-0.211
-198.304	66.754	0.129	0.132
-197.290	-85.086	-0.429	-0.134
-196.275	-104.968	-0.108	0.025
-195.260	-200.000	-0.017	0.243
-194.246	800.000	0.052	0.149
-193.231	92.747	-0.109	0.123
-192.217	-75.184	-0.283	0.101
-191.202	-20.377	-0.224	0.138
-190.187	-133.825	0.080	-0.010
-189.173	25.160	-0.187	0.156
-188.158	-20.739	0.251	0.154
-187.144	-48.602	-0.344	-0.166
-186.129	74.231	0.221	0.232
-185.114	800.000	-0.078	-0.219
-184.100	-97.359	0.121	0.032
-183.085	-161.780	0.311	0.016
-182.071	-200.000	0.078	0.367
-181.056	157.988	0.254	-0.353
-180.042	-94.998	-0.099	-0.027
-179.027	202.330	0.254	0.392
-178.012	42.233	0.101	0.092
-176.998	61.681	-0.034	0.034
-175.983	31.736	-0.181	-0.156
-174.969	-200.000	0.040	0.329
-173.954	800.000	0.102	-0.365
-172.939	800.000	-0.052	0.174
-171.925	-200.000	0.006	-0.209
-170.910	-27.792	-0.009	0.005
-169.896	-200.000	-0.054	-0.469
-168.881	-69.688	0.127	0.049
-167.866	-4.283	-0.217	-0.150
-166.852	-200.000	-0.004	0.033
-165.837	-200.000	0.003	-0.141
-164.823	-108.996	0.126	-0.027
-163.808	45.331	-0.147	-0.136
-162.793	435.929	0.177	0.385
-161.779	-150.000	0.155	0.012
-160.764	-200.000	0.021	-0.213
-159.750	-200.000	-0.041	-0.212
-158.735	-198.047	0.226	0.001
-157.720	-91.464	-0.412	-0.118
-156.706	-53.735	-0.212	-0.097
-155.691	26.447	-0.088	0.073
-154.677	-86.974	-0.191	0.058
-153.662	-166.646	-0.336	-0.014
-152.647	125.232	0.126	0.159
-151.633	800.000	0.050	0.154
-150.618	-103.243	0.417	0.099
-149.604	-78.153	0.233	-0.080
-148.589	335.657	0.131	-0.254
-147.574	41.656	-0.199	-0.180
-146.560	-66.043	-0.321	-0.128
-145.545	800.000	0.118	-0.351
-144.531	-200.000	0.052	0.000
-143.516	-68.991	-0.142	-0.055
-142.502	-142.132	0.294	0.029
-141.487	-11.004	0.148	-0.098
-140.472	268.905	-0.103	-0.181
-139.458	-200.000	-0.043	0.355
-138.443	-110.933	0.226	-0.047
-137.429	-7.087	0.182	0.123
-136.414	149.207	-0.119	-0.161
-135.399	-74.351	-0.265	0.096
-134.385	-200.000	-0.016	0.096
-133.370	-200.000	-0.016	-0.221
-132.356	-27.190	0.062	-0.036
-131.341	41.573	-0.226	0.204
-130.326	-200.000	0.002	-0.109
-129.312	-9.924	0.363	-0.241
-128.297	-150.103	-0.191	0.015
-127.283	-19.723	-0.284	-0.176
-126.268	389.241	0.112	-0.231
-125.253	-45.802	-0.127	-0.063
-124.239	-200.000	0.006	0.359
-123.224	800.000	0.080	0.286
-122.210	-40.510	-0.192	0.099
-121.195	678.101	-0.095	0.246
-120.180	127.128	0.163	0.207
