DTS Sentinel unit serial number:	SN413079Multiplexer serial number:	ORYXHardware model number:	OX4-SRSoftware version number:	ORYX F/W v4.00 Oryx Data Collector v3.7.2.0data status	okinstallation	princeton_trtdifferential loss correction	single-endedforward channel	channel 4reverse channel	N/Adate	2019/09/14time	03:41:34forward acquisition time	60.00reverse acquisition time	0.00gamma	496.2192k internal	0.2322k external	0.2322temperature offset calibration	1.0132default loss term (dB/km)	0.3790temperature slope calibration	1.0000multiplexer offset coefficient	1.0000multiplexer slope coefficient	1.0000fibre end	0.00T internal ref (°C)	26.67T ext. ref 1 (°C)	3.31T ext. ref 2 (°C)	21.67length (m)	temperature (°C)	Stokes	anti-Stokes-747.200	-200.000	0.060	-0.287
-746.185	-68.621	0.303	0.119
-745.171	-200.000	-0.049	-0.244
-744.156	800.000	0.087	-0.248
-743.142	-200.000	0.013	-0.090
-742.127	38.019	0.072	0.064
-741.112	152.146	0.206	-0.284
-740.098	-124.504	0.219	-0.034
-739.083	-143.739	0.333	0.032
-738.069	-97.255	-0.242	-0.064
-737.054	75.380	-0.377	-0.402
-736.039	268.989	0.126	-0.223
-735.025	4.357	0.129	0.096
-734.010	161.218	-0.072	0.101
-732.996	-171.068	-0.070	-0.002
-731.981	800.000	0.047	-0.203
-730.966	370.334	-0.117	-0.239
-729.952	-110.177	-0.403	-0.085
-728.937	684.929	-0.044	-0.117
-727.923	0.164	0.244	0.175
-726.908	-63.083	-0.200	0.083
-725.894	-200.000	0.008	-0.173
-724.879	-200.000	0.016	0.090
-723.864	32.349	-0.378	-0.330
-722.850	-105.151	-0.422	-0.097
-721.835	-168.253	0.145	-0.006
-720.821	74.668	-0.115	-0.122
-719.806	-200.000	0.017	-0.100
-718.791	-99.820	0.112	0.028
-717.777	-102.297	-0.034	-0.008
-716.762	-68.139	0.242	0.095
-715.748	-200.000	0.048	-0.219
-714.733	-200.000	-0.013	-0.228
-713.718	-70.156	-0.219	-0.084
-712.704	-200.000	0.034	-0.385
-711.689	-72.050	-0.046	-0.017
-710.675	-44.173	0.288	0.146
-709.660	62.804	-0.165	-0.166
-708.645	-143.322	-0.304	-0.029
-707.631	-146.848	0.115	-0.010
-706.616	-16.811	0.258	-0.164
-705.602	800.000	0.045	-0.130
-704.587	532.702	0.022	-0.052
-703.572	-101.873	-0.125	0.031
-702.558	800.000	0.020	-0.065
-701.543	-200.000	0.019	-0.154
-700.529	-200.000	-0.011	0.088
-699.514	716.750	0.062	0.165
-698.499	447.182	0.094	-0.209
-697.485	-200.000	-0.037	-0.182
-696.470	31.645	-0.064	-0.055
-695.456	273.096	0.094	0.168
-694.441	41.051	-0.275	0.250
-693.426	331.871	0.120	0.233
-692.412	280.342	-0.212	0.382
-691.397	312.920	-0.025	-0.047
-690.383	-122.084	-0.278	-0.046
-689.368	-200.000	0.007	0.168
-688.354	-192.960	-0.176	0.002
-687.339	38.320	0.128	0.115
-686.324	-1.584	-0.140	-0.099
-685.310	800.000	-0.005	-0.021
-684.295	800.000	0.047	-0.166
-683.281	332.040	-0.235	0.456
-682.266	-46.888	-0.071	-0.035
-681.251	800.000	0.067	-0.290
-680.237	-79.793	0.092	0.031
-679.222	20.381	-0.113	0.092
-678.208	-136.342	0.224	-0.026
-677.193	-121.879	0.130	0.022
-676.178	-153.273	0.238	0.017
-675.164	-200.000	0.025	0.203
-674.149	-200.000	0.001	-0.060
-673.135	66.563	-0.042	0.043
-672.120	-123.968	-0.226	-0.036
-671.105	-200.000	-0.002	-0.304
-670.091	-130.272	-0.199	-0.027
-669.076	189.852	0.142	-0.214
-668.062	71.573	-0.162	0.169
-667.047	-108.388	0.277	-0.060
-666.032	-200.000	-0.037	0.177
-665.018	-200.000	0.032	-0.443
-664.003	195.714	0.192	-0.294
-662.989	-23.322	-0.253	-0.153
-661.974	-185.316	-0.036	0.001
-660.959	800.000	-0.037	-0.140
-659.945	263.202	-0.086	0.151
-658.930	14.103	0.106	-0.083
-657.916	9.349	0.436	-0.332
-656.901	548.925	-0.113	-0.272
-655.886	-33.254	0.142	-0.079
-654.872	-200.000	-0.008	0.130
-653.857	-79.257	-0.457	0.156
-652.843	326.987	-0.064	-0.124
-651.828	-73.520	-0.204	-0.075
-650.814	312.398	0.074	0.140
-649.799	-32.187	-0.131	-0.073
-648.784	227.896	0.066	-0.109
-647.770	-158.504	-0.036	-0.002
-646.755	13.939	-0.276	0.216
-645.741	6.501	-0.233	0.174
-644.726	94.684	-0.093	-0.106
-643.711	800.000	-0.033	-0.124
-642.697	18.782	0.313	-0.252
-641.682	-123.630	-0.189	-0.030
-640.668	36.392	-0.094	-0.084
-639.653	507.389	-0.018	-0.042
-638.638	-87.344	-0.272	0.083
-637.624	48.555	-0.145	-0.137
-636.609	-78.260	-0.271	-0.094
-635.595	-35.670	0.222	-0.121
-634.580	562.199	0.164	0.399
-633.565	620.360	0.112	-0.282
-632.551	209.088	-0.066	0.104
-631.536	-200.000	0.027	-0.195
-630.522	27.078	-0.119	0.100
-629.507	53.524	-0.234	0.226
-628.492	183.066	0.072	-0.107
-627.478	-200.000	0.019	-0.343
-626.463	24.232	-0.113	-0.094
-625.449	-20.379	-0.246	0.152
-624.434	139.944	0.041	0.054
-623.419	-79.926	-0.065	0.022
-622.405	-200.000	0.012	-0.102
-621.390	-12.369	-0.063	-0.041
-620.376	-104.629	-0.522	-0.121
-619.361	-108.358	-0.270	0.059
-618.346	-200.000	0.031	-0.230
-617.332	-102.710	0.126	0.030
-616.317	800.000	-0.019	0.060
-615.303	-36.544	-0.125	-0.068
-614.288	-183.549	-0.238	0.004
-613.273	-171.266	-0.245	0.008
-612.259	800.000	0.066	-0.266
-611.244	800.000	-0.100	-0.317
-610.230	-101.428	0.240	0.059
-609.215	721.871	0.152	-0.405
-608.201	642.763	0.134	-0.342
-607.186	112.709	0.117	-0.142
-606.171	-113.870	-0.378	0.074
-605.157	521.867	-0.104	-0.244
-604.142	-57.461	0.077	0.034
-603.128	-73.164	-0.193	0.071
-602.113	-117.909	0.193	0.035
-601.098	97.843	-0.106	0.123
-600.084	207.701	0.151	-0.237
-599.069	219.884	-0.131	-0.211
-598.055	472.553	0.060	0.137
-597.040	-64.895	0.187	-0.076
-596.025	-75.564	-0.142	-0.051
-595.011	586.207	0.050	-0.124
-593.996	-2.854	-0.254	0.178
-592.982	-200.000	0.001	-0.343
-591.967	-45.015	-0.151	0.075
-590.952	-180.970	-0.148	-0.003
-589.938	90.325	-0.195	0.218
-588.923	321.539	0.202	-0.386
-587.909	-61.282	-0.192	-0.081
-586.894	-84.184	0.194	-0.062
-585.879	43.359	0.221	0.202
-584.865	-149.238	0.074	-0.006
-583.850	-192.937	-0.413	-0.004
-582.836	8.885	0.235	-0.178
-581.821	556.728	-0.007	0.016
-580.806	-124.234	0.194	-0.030
-579.792	-167.658	0.189	0.008
-578.777	126.761	0.068	0.086
-577.763	-73.104	-0.268	-0.099
-576.748	-136.369	-0.090	-0.011
-575.733	800.000	-0.052	0.188
-574.719	-104.395	0.155	-0.036
-573.704	95.776	-0.164	-0.188
-572.690	-200.000	-0.008	-0.139
-571.675	-105.193	-0.335	-0.077
-570.661	23.240	-0.085	0.070
-569.646	753.458	-0.054	0.146
-568.631	299.572	0.056	0.103
-567.617	-200.000	-0.028	0.211
-566.602	117.152	0.090	-0.110
-565.588	-31.170	0.237	-0.134
-564.573	-178.995	-0.300	0.007
-563.558	-119.413	0.215	-0.038
-562.544	-137.152	-0.210	0.024
-561.529	-118.673	-0.024	-0.004
-560.515	621.990	0.164	0.413
-559.500	800.000	0.034	0.126
-558.485	800.000	-0.096	-0.280
-557.471	66.086	0.380	-0.386
-556.456	65.998	0.097	0.099
-555.442	35.109	-0.234	-0.206
-554.427	-200.000	-0.007	0.075
-553.412	-2.860	-0.241	-0.169
-552.398	800.000	0.033	0.092
-551.383	-90.378	0.365	-0.106
-550.369	800.000	0.067	0.291
-549.354	-200.000	-0.015	-0.330
-548.339	548.671	-0.069	-0.166
-547.325	149.879	-0.151	-0.205
-546.310	-66.256	-0.161	0.064
-545.296	364.599	0.007	0.013
-544.281	-57.969	-0.315	-0.138
-543.266	11.373	-0.316	-0.242
-542.252	800.000	0.070	0.220
-541.237	329.003	-0.070	-0.134
-540.223	-45.834	-0.132	-0.065
-539.208	-200.000	0.010	-0.147
-538.193	-200.000	0.055	0.275
-537.179	-26.894	0.028	0.017
-536.164	-200.000	0.002	0.276
-535.150	310.522	0.255	-0.478
-534.135	527.739	-0.134	0.316
-533.121	800.000	0.017	0.074
-532.106	-147.525	0.064	-0.005
-531.091	125.073	-0.138	-0.175
-530.077	18.419	-0.176	0.141
-529.062	-200.000	-0.013	0.218
-528.048	21.489	0.087	0.071
-527.033	176.687	-0.142	0.206
-526.018	25.787	-0.135	0.113
-525.004	800.000	0.084	-0.281
-523.989	-74.413	-0.120	-0.043
-522.975	344.493	0.170	0.335
-521.960	-95.872	0.088	0.024
-520.945	-54.333	0.207	0.094
-519.931	589.715	0.067	-0.165
-518.916	-200.000	-0.013	-0.149
-517.902	294.476	0.083	0.152
-516.887	42.368	-0.122	-0.111
-515.872	540.393	0.107	0.254
-514.858	-74.350	0.233	-0.084
-513.843	-46.121	0.193	-0.095
-512.829	-79.662	0.278	-0.094
-511.814	265.141	0.041	-0.072
-510.799	-5.786	0.389	0.266
-509.785	-121.555	0.475	-0.079
-508.770	79.093	-0.074	0.079
-507.756	11.006	0.244	-0.187
-506.741	329.653	0.078	0.150
-505.726	144.726	-0.066	0.088
-504.712	-200.000	0.025	-0.148
-503.697	157.335	-0.151	-0.209
-502.683	-200.000	0.044	-0.238
-501.668	343.037	0.038	0.074
-500.653	131.126	0.064	-0.082
-499.639	-106.682	0.060	0.013
-498.624	-1.213	0.137	0.097
-497.610	431.291	-0.084	-0.183
-496.595	-46.643	0.155	0.076
-495.581	-38.684	0.372	-0.197
-494.566	67.525	0.206	0.210
-493.551	-200.000	0.006	0.082
-492.537	5.746	-0.240	0.177
-491.522	-34.433	-0.062	0.034
-490.508	-168.668	0.374	0.014
-489.493	-200.000	-0.017	-0.118
-488.478	-151.402	-0.238	-0.018
-487.464	128.934	-0.104	-0.132
-486.449	-133.350	-0.228	0.029
-485.435	83.679	0.163	-0.178
-484.420	-111.888	0.470	0.095
-483.405	88.377	0.109	0.121
-482.391	-200.000	-0.003	-0.200
-481.376	493.184	0.106	-0.243
-480.362	274.078	-0.128	-0.227
-479.347	-100.415	-0.215	0.053
-478.332	-88.641	0.168	0.050
-477.318	-200.000	0.009	-0.145
-476.303	-200.000	0.047	0.216
-475.289	800.000	-0.088	0.257
-474.274	-200.000	-0.006	0.032
-473.259	-99.829	0.218	-0.055
-472.245	93.262	-0.270	-0.305
-471.230	-200.000	-0.005	-0.057
-470.216	-9.703	0.153	0.102
-469.201	375.525	0.083	-0.170
-468.186	778.309	-0.145	0.395
-467.172	-200.000	-0.014	0.170
-466.157	-72.214	-0.291	-0.108
-465.143	-74.604	-0.147	-0.053
-464.128	-200.000	-0.029	0.240
-463.113	-12.621	-0.091	0.060
-462.099	11.486	-0.204	-0.156
-461.084	-48.999	0.144	0.069
-460.070	-200.000	-0.054	0.310
-459.055	271.217	0.091	0.159
-458.040	800.000	0.063	0.250
-457.026	12.444	-0.203	-0.157
-456.011	-200.000	0.011	-0.340
-454.997	-22.330	-0.020	0.012
-453.982	-197.865	0.020	0.000
-452.968	800.000	-0.077	-0.301
-451.953	57.597	0.185	-0.181
-450.938	35.057	-0.233	-0.204
-449.924	311.620	0.119	0.223
-448.909	-200.000	0.013	-0.126
-447.895	239.157	0.150	-0.249
-446.880	-33.063	-0.156	-0.086
-445.865	-200.000	0.002	0.350
-444.851	-54.677	0.280	0.127
-443.836	183.808	0.155	0.229
-442.822	657.977	-0.086	0.221
-441.807	-200.000	-0.029	0.190
-440.792	218.318	0.070	-0.112
-439.778	32.826	0.137	0.118
-438.763	-187.227	0.303	0.004
-437.749	-99.633	-0.270	-0.068
-436.734	-99.250	0.237	-0.060
-435.719	422.363	0.073	-0.156
-434.705	-200.000	-0.009	0.358
-433.690	-200.000	0.045	0.215
-432.676	-135.808	-0.209	-0.025
-431.661	800.000	-0.153	-0.425
-430.646	-126.846	-0.416	-0.061
-429.632	151.342	-0.167	-0.227
-428.617	-200.000	-0.010	0.191
-427.603	800.000	0.047	0.131
-426.588	69.729	-0.051	-0.053
-425.573	800.000	-0.062	-0.196
-424.559	-110.816	0.282	0.058
-423.544	-43.156	-0.272	0.138
-422.530	762.498	0.106	0.286
-421.515	800.000	-0.054	0.230
-420.500	-115.761	0.351	0.065
-419.486	-105.046	0.072	-0.016
-418.471	-94.095	-0.271	0.074
-417.457	-200.000	-0.044	0.207
-416.442	45.190	0.161	0.148
-415.428	-119.714	-0.064	-0.011
-414.413	-71.573	-0.117	-0.044
-413.398	-200.000	-0.305	0.001
-412.384	-90.964	-0.175	-0.050
-411.369	-13.200	0.402	-0.260
-410.355	9.562	-0.040	0.031
-409.340	6.822	-0.296	-0.220
-408.325	800.000	-0.064	-0.197
-407.311	-200.000	-0.023	0.189
-406.296	92.778	-0.085	-0.095
-405.282	-125.688	0.156	0.024
-404.267	47.046	-0.150	0.139
-403.252	112.935	0.066	-0.080
-402.238	-117.680	-0.293	0.053
-401.223	48.149	-0.220	-0.205
-400.209	-200.000	0.009	0.191
-399.194	-200.000	0.006	0.049
-398.179	474.347	-0.046	0.103
-397.165	-200.000	-0.014	0.159
-396.150	-32.650	-0.197	-0.109
-395.136	-98.236	-0.140	0.036
-394.121	800.000	-0.068	0.262
-393.106	-47.658	-0.158	0.077
-392.092	167.327	-0.078	0.110
-391.077	-156.117	0.330	-0.021
-390.063	-159.904	0.105	0.006
-389.048	-152.057	-0.285	-0.021
-388.033	-97.263	0.141	0.037
-387.019	800.000	-0.033	0.117
-386.004	337.485	-0.088	-0.171
-384.990	285.156	0.241	0.433
-383.975	29.100	0.191	0.162
-382.960	-89.823	0.157	0.046
-381.946	590.331	-0.034	-0.083
-380.931	-200.000	0.001	-0.081
-379.917	-200.000	-0.049	0.231
-378.902	-200.000	0.045	0.246
-377.888	234.706	0.151	0.248
-376.873	-73.181	-0.272	-0.099
-375.858	800.000	0.101	0.411
-374.844	-124.998	0.141	-0.022
-373.829	-163.071	0.032	-0.002
-372.815	-200.000	-0.018	0.325
-371.800	-200.000	-0.002	0.203
-370.785	-35.905	0.189	-0.102
-369.771	19.662	-0.109	0.087
-368.756	-200.000	-0.024	-0.133
-367.742	-29.151	-0.248	0.141
-366.727	-171.567	0.194	-0.006
-365.712	69.538	0.238	0.244
-364.698	-115.296	0.311	0.059
-363.683	-14.394	0.173	-0.111
-362.669	-68.936	0.061	0.023
-361.654	89.493	0.083	0.092
-360.639	237.376	0.161	-0.266
-359.625	-200.000	0.002	-0.065
-358.610	359.079	-0.096	0.190
-357.596	-150.497	-0.243	-0.019
-356.581	-89.447	-0.366	0.107
-355.566	-36.220	0.274	0.147
-354.552	-48.150	-0.221	0.106
-353.537	-129.262	0.188	0.026
-352.523	-20.359	0.080	-0.049
-351.508	-48.960	0.123	0.059
-350.493	-87.770	0.153	0.046
-349.479	-200.000	0.022	-0.175
-348.464	-17.551	0.154	-0.096
-347.450	-200.000	0.012	0.082
-346.435	-180.674	-0.242	-0.005
-345.420	-200.000	-0.002	0.312
-344.406	603.131	-0.097	-0.239
-343.391	-40.165	-0.282	0.146
-342.377	-14.513	0.162	-0.104
-341.362	312.735	0.078	0.145
-340.348	101.877	0.103	-0.119
-339.333	180.415	0.175	0.255
-338.318	509.435	-0.062	0.144
-337.304	-200.000	0.000	0.029
-336.289	10.316	0.027	-0.020
-335.275	-21.466	0.125	0.076
-334.260	-63.839	0.310	0.126
-333.245	800.000	-0.017	-0.061
-332.231	305.328	0.084	0.154
-331.216	413.367	-0.091	-0.193
-330.202	453.248	0.128	-0.281
-329.187	58.610	0.260	-0.254
-328.172	800.000	0.148	0.452
-327.158	321.484	0.071	0.134
-326.143	135.077	-0.310	-0.400
-325.129	-47.861	0.103	-0.050
-324.114	-142.666	0.042	-0.004
-323.099	57.193	-0.163	0.158
-322.085	173.511	0.111	0.159
-321.070	423.754	-0.042	0.090
-320.056	-150.657	-0.529	-0.040
-319.041	-73.240	-0.189	-0.069
-318.026	363.885	-0.131	0.261
-317.012	-200.000	-0.014	0.157
-315.997	97.759	-0.079	-0.091
-314.983	-175.425	-0.239	0.006
-313.968	-61.064	0.204	0.085
-312.953	-200.000	-0.025	0.262
-311.939	-200.000	0.006	0.193
-310.924	586.723	-0.008	0.019
-309.910	85.831	-0.182	-0.199
-308.895	139.034	0.122	0.160
-307.880	-58.222	0.151	0.065
-306.866	-8.537	0.382	0.255
-305.851	-7.952	0.040	-0.027
-304.837	-161.268	0.137	0.007
-303.822	-200.000	0.030	0.132
-302.807	-71.748	-0.089	-0.033
-301.793	122.226	-0.098	-0.121
-300.778	-200.000	-0.008	-0.200
-299.764	82.401	-0.020	-0.021
-298.749	94.135	0.038	-0.043
-297.735	128.141	0.173	-0.218
-296.720	800.000	-0.048	-0.166
-295.705	-170.288	-0.283	0.010
-294.691	-200.000	-0.027	0.123
-293.676	586.827	-0.091	0.223
-292.662	-25.805	-0.058	-0.034
-291.647	251.795	0.074	-0.125
-290.632	-34.961	-0.510	-0.276
-289.618	-8.907	-0.066	-0.044
-288.603	-68.222	0.409	0.158
-287.589	640.472	0.030	-0.075
-286.574	-179.025	-0.258	0.006
-285.559	-137.443	0.290	0.033
-284.545	-39.759	0.075	-0.039
-283.530	190.663	-0.139	0.208
-282.516	800.000	0.089	-0.249
-281.501	-115.642	0.176	-0.033
-280.486	-200.000	0.258	0.001
-279.472	800.000	-0.058	0.181
-278.457	80.894	0.246	0.263
-277.443	-151.567	-0.272	0.020
-276.428	-50.426	0.133	-0.062
-275.413	-170.805	0.630	0.021
-274.399	-61.171	0.101	0.042
-273.384	-15.621	-0.263	0.166
-272.370	3.110	0.208	0.150
-271.355	-200.000	-0.045	0.226
-270.340	751.508	-0.090	-0.240
-269.326	-200.000	-0.114	-0.572
-268.311	-200.000	-0.025	-0.245
-267.297	-77.810	-0.207	-0.071
-266.282	-151.892	0.362	-0.026
-265.267	-38.944	-0.180	0.094
-264.253	3.017	-0.036	-0.026
-263.238	274.131	-0.183	-0.321
-262.224	-9.610	0.168	0.111
-261.209	207.962	-0.079	-0.122
-260.195	39.923	0.235	-0.209
-259.180	-114.054	0.251	-0.048
-258.165	-200.000	-0.059	0.319
-257.151	800.000	0.054	0.218
-256.136	800.000	-0.096	-0.347
-255.122	-200.000	0.008	-0.136
-254.107	177.521	0.077	0.111
-253.092	-36.432	0.181	-0.097
-252.078	-200.000	-0.005	-0.061
-251.063	-98.571	-0.257	0.065
-250.049	136.732	-0.121	-0.157
-249.034	-29.824	-0.251	-0.142
-248.019	800.000	0.065	0.214
-247.005	-200.000	0.001	0.090
-245.990	800.000	-0.066	0.225
-244.976	-180.453	0.232	-0.005
-243.961	101.554	0.329	0.380
-242.946	19.533	0.181	-0.144
-241.932	800.000	-0.082	-0.320
-240.917	-85.489	-0.124	-0.038
-239.903	15.890	0.273	-0.213
-238.888	-191.450	0.107	-0.001
-237.873	-33.995	-0.132	-0.072
-236.859	-19.017	0.254	0.156
-235.844	-29.245	0.049	-0.028
-234.830	-25.482	-0.311	0.182
-233.815	800.000	0.012	-0.046
-232.800	588.198	0.118	-0.288
-231.786	-108.641	0.098	0.021
-230.771	28.860	0.030	0.025
-229.757	-200.000	0.000	0.175
-228.742	454.245	0.133	0.291
-227.727	20.119	-0.288	0.230
-226.713	238.948	-0.030	0.049
-225.698	-200.000	0.076	-0.418
-224.684	94.988	0.047	0.052
-223.669	44.455	0.285	-0.259
-222.655	171.681	0.275	0.390
-221.640	-151.185	-0.187	0.014
-220.625	-147.947	0.153	-0.013
-219.611	-94.363	-0.102	0.028
-218.596	-142.339	-0.308	0.030
-217.582	42.884	-0.149	0.135
-216.567	98.822	-0.148	0.169
-215.552	344.211	-0.255	-0.494
-214.538	-5.335	0.270	0.183
-213.523	-150.548	-0.213	0.016
-212.509	-10.433	-0.075	0.049
-211.494	16.958	-0.136	0.107
-210.479	-200.000	-0.020	-0.133
-209.465	32.936	-0.022	0.019
-208.450	-27.645	0.383	0.220
-207.436	94.268	-0.096	-0.108
-206.421	-200.000	0.017	0.236
-205.406	-58.062	-0.265	-0.114
-204.392	-148.066	0.117	0.010
-203.377	-200.000	0.001	0.086
-202.363	408.471	-0.082	-0.172
-201.348	245.358	-0.187	-0.312
-200.333	516.769	0.122	0.281
-199.319	-200.000	0.032	0.262
-198.304	10.368	0.246	0.185
-197.290	-112.476	-0.249	-0.049
-196.275	13.255	-0.124	-0.095
-195.260	-153.910	0.177	0.012
-194.246	162.741	0.053	-0.074
-193.231	-31.165	-0.128	0.071
-192.217	-38.284	0.412	0.216
-191.202	4.788	-0.152	0.111
-190.187	612.906	-0.136	-0.335
-189.173	800.000	0.019	-0.053
-188.158	-200.000	0.003	-0.278
-187.144	-200.000	-0.052	-0.531
-186.129	67.202	-0.214	-0.215
-185.114	-116.957	-0.220	0.040
-184.100	800.000	-0.026	-0.088
-183.085	-200.000	0.049	-0.277
-182.071	212.362	0.169	-0.263
-181.056	44.696	0.068	0.062
-180.042	-152.023	0.089	-0.006
-179.027	-200.000	-0.054	0.259
-178.012	-200.000	0.029	-0.189
-176.998	-41.528	-0.074	0.037
-175.983	-167.384	-0.156	0.006
-174.969	-90.292	0.160	0.046
-173.954	-92.527	-0.227	0.063
-172.939	-200.000	0.003	0.053
-171.925	-82.893	-0.271	-0.086
-170.910	126.408	0.143	-0.178
-169.896	-136.088	0.236	0.027
-168.881	-77.869	0.382	0.130
-167.866	-12.742	0.117	0.076
-166.852	270.343	-0.059	0.102
-165.837	-200.000	0.061	0.291
-164.823	-144.694	0.088	-0.008
-163.808	5.745	0.087	-0.063
-162.793	-75.969	-0.247	0.086
-161.779	-70.622	-0.268	0.100
-160.764	800.000	-0.077	-0.231
-159.750	259.966	0.082	-0.140
-158.735	28.064	0.133	0.111
-157.720	66.245	0.069	-0.069
-156.706	-90.464	0.375	-0.107
-155.691	-31.843	0.166	0.092
-154.677	-138.811	-0.204	-0.022
-153.662	-33.500	-0.045	0.025
-152.647	-200.000	-0.011	0.153
-151.633	24.771	0.037	0.030
-150.618	7.611	0.108	0.080
-149.604	-117.072	0.173	-0.031
-148.589	-97.600	-0.229	-0.059
-147.574	179.133	-0.214	0.309
-146.560	-200.000	-0.013	-0.207
-145.545	800.000	-0.121	-0.399
-144.531	-30.908	-0.101	-0.056
-143.516	-164.002	-0.096	0.004
-142.502	543.391	0.072	0.169
-141.487	9.442	-0.100	0.075
-140.472	-145.288	0.109	0.010
-139.458	52.067	0.146	0.137
-138.443	-200.000	0.043	0.263
-137.429	-19.226	0.177	0.108
-136.414	800.000	0.051	-0.189
-135.399	35.364	-0.127	0.110
-134.385	346.070	0.130	0.252
-133.370	524.383	0.089	-0.207
-132.356	-200.000	-0.019	0.145
-131.341	-200.000	-0.008	-0.103
-130.326	657.813	-0.220	0.558
-129.312	800.000	0.081	0.235
-128.297	-5.234	-0.068	0.046
-127.283	-133.075	-0.205	0.026
-126.268	800.000	0.057	-0.167
-125.253	262.573	0.100	0.170
-124.239	800.000	0.088	0.311
-123.224	-200.000	0.000	0.053
-122.210	55.813	-0.160	0.153
-121.195	235.952	0.085	0.139
