DTS Sentinel unit serial number:	SN413079Multiplexer serial number:	ORYXHardware model number:	OX4-SRSoftware version number:	ORYX F/W v4.00 Oryx Data Collector v3.7.2.0data status	okinstallation	princeton_trtdifferential loss correction	single-endedforward channel	channel 4reverse channel	N/Adate	2019/09/16time	14:29:35forward acquisition time	60.00reverse acquisition time	0.00gamma	496.2192k internal	0.2287k external	0.2287temperature offset calibration	0.9937default loss term (dB/km)	0.3790temperature slope calibration	1.0000multiplexer offset coefficient	1.0000multiplexer slope coefficient	1.0000fibre end	0.00T internal ref (°C)	41.94T ext. ref 1 (°C)	14.24T ext. ref 2 (°C)	36.33length (m)	temperature (°C)	Stokes	anti-Stokes-747.200	-143.400	0.103	-0.010
-746.185	10.016	-0.388	0.302
-745.171	-163.202	0.218	-0.011
-744.156	-49.347	-0.149	0.073
-743.142	800.000	-0.039	0.162
-742.127	51.252	-0.205	0.199
-741.112	43.283	0.242	-0.226
-740.098	-200.000	0.045	-0.282
-739.083	611.474	-0.057	0.147
-738.069	41.355	-0.316	0.294
-737.054	-131.997	-0.204	-0.027
-736.039	-200.000	-0.008	0.048
-735.025	-69.431	-0.177	-0.069
-734.010	46.737	-0.236	-0.224
-732.996	-136.310	0.152	0.018
-731.981	-47.831	-0.379	-0.188
-730.966	235.932	-0.142	0.241
-729.952	314.616	0.110	-0.213
-728.937	-77.910	-0.341	0.120
-727.923	-52.091	0.132	0.063
-726.908	800.000	-0.088	-0.387
-725.894	-36.897	-0.119	0.065
-724.879	-200.000	-0.001	-0.052
-723.864	35.568	0.142	-0.127
-722.850	-24.735	-0.140	-0.085
-721.835	800.000	-0.048	0.188
-720.821	538.029	0.118	-0.288
-719.806	493.594	-0.079	0.185
-718.791	-200.000	-0.034	0.227
-717.777	-85.252	-0.209	-0.067
-716.762	798.183	0.032	0.090
-715.748	800.000	0.042	-0.136
-714.733	687.484	0.083	-0.223
-713.718	53.330	0.184	-0.181
-712.704	-45.363	0.417	0.212
-711.689	-200.000	0.064	0.348
-710.675	99.624	-0.046	0.054
-709.660	-70.686	-0.138	0.053
-708.645	800.000	0.025	-0.072
-707.631	-42.556	-0.133	0.069
-706.616	-162.703	0.235	0.012
-705.602	-115.684	0.187	0.036
-704.587	-159.235	0.040	-0.002
-703.572	-88.040	-0.517	0.159
-702.558	153.485	-0.125	0.175
-701.543	347.721	-0.069	0.140
-700.529	451.394	-0.081	-0.184
-699.514	-61.774	-0.334	-0.143
-698.499	-7.362	0.083	0.057
-697.485	-200.000	-0.007	-0.431
-696.470	-71.671	0.156	-0.060
-695.456	-119.629	-0.060	0.011
-694.441	-200.000	-0.024	0.115
-693.426	123.764	-0.158	-0.203
-692.412	-69.410	0.275	0.108
-691.397	800.000	-0.073	-0.225
-690.383	-111.229	0.497	-0.104
-689.368	165.401	0.112	-0.162
-688.354	45.569	0.123	0.116
-687.339	266.654	-0.072	-0.129
-686.324	-200.000	0.028	0.244
-685.310	370.250	0.128	-0.266
-684.295	-50.884	0.240	-0.116
-683.281	395.671	-0.113	0.242
-682.266	105.113	0.103	0.124
-681.251	139.526	0.319	-0.429
-680.237	-105.962	-0.550	0.127
-679.222	140.676	-0.130	-0.176
-678.208	-200.000	-0.013	-0.157
-677.193	-200.000	0.003	-0.156
-676.178	-95.978	0.168	0.046
-675.164	-112.889	0.010	0.002
-674.149	-162.472	0.045	0.002
-673.135	-16.868	-0.033	0.022
-672.120	151.677	-0.102	-0.142
-671.105	500.534	-0.074	0.174
-670.091	-11.314	0.136	-0.092
-669.076	-53.793	0.202	0.094
-668.062	-200.000	0.022	-0.193
-667.047	-77.663	0.052	0.018
-666.032	-200.000	-0.042	-0.334
-665.018	211.779	-0.183	-0.295
-664.003	-200.000	-0.015	-0.179
-662.989	31.343	-0.081	-0.071
-661.974	82.631	-0.145	-0.161
-660.959	-121.067	-0.298	0.051
-659.945	-200.000	0.010	-0.173
-658.930	269.832	-0.169	-0.304
-657.916	159.970	-0.141	-0.201
-656.901	-146.318	0.307	-0.027
-655.886	-18.922	0.240	0.153
-654.872	-200.000	0.006	0.155
-653.857	-44.835	0.156	0.080
-652.843	-200.000	0.015	-0.137
-651.828	-200.000	-0.002	0.243
-650.814	-92.706	-0.331	-0.095
-649.799	431.510	-0.037	0.081
-648.784	94.936	0.159	-0.185
-647.770	-65.082	0.222	-0.092
-646.755	118.257	-0.139	-0.175
-645.741	-200.000	-0.011	0.059
-644.726	-135.493	-0.419	-0.051
-643.711	-200.000	0.018	0.403
-642.697	317.192	0.061	0.118
-641.682	-143.427	-0.315	0.031
-640.668	205.847	0.045	0.071
-639.653	-119.822	-0.481	0.085
-638.638	-103.627	-0.318	-0.076
-637.624	12.631	0.125	-0.098
-636.609	800.000	-0.037	0.148
-635.595	308.495	0.048	0.091
-634.580	18.186	0.106	0.086
-633.565	-26.758	0.363	0.217
-632.551	-163.879	-0.101	-0.005
-631.536	-82.632	0.142	0.047
-630.522	800.000	-0.093	-0.262
-629.507	-23.339	-0.113	0.069
-628.492	-94.432	0.040	-0.011
-627.478	800.000	-0.106	-0.323
-626.463	19.369	-0.173	0.142
-625.449	23.934	0.116	-0.097
-624.434	-35.048	-0.099	-0.055
-623.419	457.444	0.062	-0.140
-622.405	-107.596	-0.271	-0.061
-621.390	412.585	-0.090	0.196
-620.376	92.130	-0.065	-0.074
-619.361	452.315	0.061	-0.137
-618.346	-200.000	-0.012	-0.211
-617.332	-174.721	0.059	0.002
-616.317	10.987	-0.062	0.048
-615.303	800.000	-0.060	-0.248
-614.288	-200.000	-0.013	0.120
-613.273	-9.638	0.266	-0.181
-612.259	123.680	0.137	-0.175
-611.244	-84.209	-0.204	0.066
-610.230	-200.000	-0.044	0.263
-609.215	-35.962	-0.148	0.082
-608.201	14.990	-0.425	0.339
-607.186	408.042	-0.112	-0.241
-606.171	-76.810	0.183	0.065
-605.157	-80.951	-0.055	0.019
-604.142	2.064	0.185	-0.137
-603.128	252.279	0.086	0.150
-602.113	-87.049	0.257	0.080
-601.098	79.532	-0.140	-0.153
-600.084	194.797	-0.122	0.189
-599.069	-200.000	-0.022	0.155
-598.055	133.068	-0.104	0.137
-597.040	-19.264	-0.258	-0.163
-596.025	22.948	-0.232	0.194
-595.011	-97.475	0.265	-0.070
-593.996	-200.000	0.017	0.119
-592.982	160.683	-0.195	-0.277
-591.967	-118.760	0.190	0.034
-590.952	-19.070	0.102	-0.065
-589.938	-200.000	0.011	0.107
-588.923	39.838	-0.129	0.118
-587.909	-125.001	0.152	0.024
-586.894	-84.883	0.211	-0.068
-585.879	95.615	-0.104	-0.121
-584.865	86.356	0.143	0.160
-583.850	466.846	0.127	0.290
-582.836	194.287	0.188	-0.290
-581.821	156.993	-0.412	-0.580
-580.806	34.239	-0.120	0.106
-579.792	661.867	-0.073	0.193
-578.777	-134.195	-0.327	-0.041
-577.763	156.339	0.132	-0.185
-576.748	-200.000	-0.050	-0.232
-575.733	720.325	-0.051	-0.138
-574.719	-1.285	0.083	0.060
-573.704	450.663	-0.217	0.487
-572.690	192.714	-0.023	0.036
-571.675	-200.000	-0.047	-0.267
-570.661	-140.720	0.127	0.013
-569.646	517.572	0.067	0.159
-568.631	-95.834	-0.147	-0.040
-567.617	-112.350	0.422	0.086
-566.602	-200.000	-0.014	0.176
-565.588	-100.016	-0.290	-0.074
-564.573	-126.284	0.239	0.036
-563.558	-104.348	0.132	0.031
-562.544	-107.552	-0.442	-0.098
-561.529	-200.000	-0.047	0.243
-560.515	14.257	-0.032	-0.026
-559.500	-19.942	-0.079	0.050
-558.485	115.636	-0.233	-0.290
-557.471	-200.000	0.046	-0.248
-556.456	-200.000	0.023	0.107
-555.442	-7.299	0.082	0.057
-554.427	322.921	-0.272	0.527
-553.412	11.538	0.332	0.259
-552.398	-95.656	-0.328	0.089
-551.383	-146.589	0.113	0.010
-550.369	118.300	-0.209	0.263
-549.354	-200.000	0.020	0.136
-548.339	-125.812	-0.115	-0.018
-547.325	-60.780	-0.071	0.031
-546.310	-39.799	0.154	0.082
-545.296	192.864	-0.212	-0.325
-544.281	-46.714	0.077	0.038
-543.266	68.927	-0.210	0.220
-542.252	-85.497	-0.116	0.037
-541.237	-33.384	0.080	-0.045
-540.223	-139.131	-0.170	-0.019
-539.208	-200.000	-0.001	-0.152
-538.193	-166.555	0.124	0.005
-537.179	275.796	0.027	0.048
-536.164	-98.791	0.458	-0.119
-535.150	-200.000	-0.056	-0.268
-534.135	734.234	0.085	0.232
-533.121	-105.303	-0.080	-0.019
-532.106	83.757	-0.070	-0.078
-531.091	-200.000	0.006	-0.173
-530.077	275.107	-0.126	0.226
-529.062	-200.000	0.009	0.265
-528.048	7.922	-0.268	-0.205
-527.033	-190.192	0.309	-0.003
-526.018	-200.000	-0.033	-0.226
-525.004	-200.000	-0.095	-0.475
-523.989	31.248	0.092	-0.081
-522.975	-98.095	-0.258	-0.068
-521.960	-109.698	0.309	0.066
-520.945	184.897	-0.060	-0.091
-519.931	800.000	0.092	0.286
-518.916	-53.886	0.125	0.058
-517.902	167.206	0.057	0.082
-516.887	-200.000	0.045	0.393
-515.872	-33.530	0.065	0.037
-514.858	-22.492	0.331	0.204
-513.843	-200.000	0.015	0.237
-512.829	-200.000	-0.239	0.000
-511.814	-77.669	-0.311	-0.109
-510.799	-154.800	0.129	-0.009
-509.785	-200.000	-0.037	-0.198
-508.770	-194.349	-0.082	0.001
-507.756	152.315	0.089	0.124
-506.741	-132.859	0.314	0.041
-505.726	-27.822	0.136	-0.080
-504.712	-200.000	0.027	-0.130
-503.697	39.820	-0.140	-0.127
-502.683	1.710	-0.209	-0.153
-501.668	-36.873	0.139	0.076
-500.653	449.714	0.128	0.288
-499.639	-164.269	-0.071	-0.003
-498.624	185.622	-0.220	-0.332
-497.610	642.516	-0.049	-0.126
-496.595	228.549	0.021	0.034
-495.581	-200.000	0.005	0.092
-494.566	-109.503	0.120	0.026
-493.551	-59.926	-0.456	0.198
-492.537	19.667	0.116	0.095
-491.522	-12.715	-0.408	0.270
-490.508	187.346	0.062	0.094
-489.493	-17.579	0.291	-0.186
-488.478	-29.710	-0.118	0.069
-487.464	-63.761	-0.265	0.110
-486.449	-129.415	0.120	0.017
-485.435	-120.757	0.011	-0.002
-484.420	800.000	-0.074	-0.269
-483.405	-69.001	-0.117	0.046
-482.391	800.000	-0.077	0.220
-481.376	-66.263	0.115	0.046
-480.362	-149.114	0.138	0.011
-479.347	-200.000	-0.066	0.364
-478.332	-133.574	0.075	0.010
-477.318	244.577	-0.193	0.329
-476.303	68.439	0.050	0.052
-475.289	153.440	-0.154	-0.215
-474.274	565.135	-0.160	0.395
-473.259	249.331	0.059	0.101
-472.245	52.377	0.151	0.147
-471.230	-0.888	0.170	0.122
-470.216	-200.000	-0.046	-0.233
-469.201	-56.655	0.139	-0.062
-468.186	-130.124	0.391	-0.054
-467.172	20.348	0.167	0.137
-466.157	-47.035	0.031	-0.015
-465.143	341.959	0.085	-0.168
-464.128	-44.045	-0.260	0.133
-463.113	383.195	0.092	0.192
-462.099	-43.645	-0.217	-0.111
-461.084	-200.000	0.036	0.246
-460.070	-146.630	-0.061	-0.005
-459.055	110.872	0.255	0.311
-458.040	-200.000	-0.014	0.066
-457.026	24.061	0.035	-0.029
-456.011	-200.000	0.002	0.247
-454.997	91.039	0.085	-0.096
-453.982	6.596	0.066	-0.050
-452.968	60.611	-0.259	0.261
-451.953	800.000	-0.041	-0.155
-450.938	298.891	-0.175	0.327
-449.924	80.806	-0.110	0.120
-448.909	214.724	-0.032	-0.052
-447.895	-200.000	0.036	0.386
-446.880	-200.000	-0.056	0.322
-445.865	707.432	0.066	-0.177
-444.851	-30.794	-0.267	0.153
-443.836	-115.953	0.101	0.019
-442.822	3.340	0.266	0.196
-441.807	405.495	-0.116	0.249
-440.792	59.774	-0.079	0.079
-439.778	204.666	0.137	-0.215
-438.763	-74.429	-0.211	-0.077
-437.749	-70.227	0.361	-0.139
-436.734	800.000	-0.073	-0.243
-435.719	-200.000	-0.016	-0.207
-434.705	-200.000	-0.010	0.092
-433.690	-200.000	-0.003	-0.127
-432.676	-77.235	0.086	0.030
-431.661	-46.960	-0.119	0.059
-430.646	280.948	0.196	-0.355
-429.632	67.009	0.072	0.074
-428.617	29.796	0.169	-0.146
-427.603	-125.267	-0.130	0.020
-426.588	83.189	0.220	0.243
-425.573	800.000	0.031	-0.127
-424.559	-135.666	0.096	-0.011
-423.544	-16.272	0.175	-0.113
-422.530	-99.899	-0.105	0.027
-421.515	210.188	0.103	-0.164
-420.500	-200.000	0.021	-0.147
-419.486	800.000	0.033	-0.138
-418.471	20.239	0.115	0.094
-417.457	-200.000	0.017	0.164
-416.442	55.006	0.076	0.074
-415.428	8.770	0.169	0.129
-414.413	726.215	-0.087	-0.234
-413.398	-119.719	0.336	0.059
-412.384	-200.000	-0.068	-0.000
-411.369	800.000	0.064	0.190
-410.355	-22.482	0.278	0.170
-409.340	69.198	-0.034	0.035
-408.325	59.366	-0.331	-0.330
-407.311	426.182	-0.006	0.013
-406.296	186.437	0.120	0.180
-405.282	51.565	0.232	0.224
-404.267	-159.107	-0.372	0.021
-403.252	-200.000	-0.003	-0.247
-402.238	-200.000	-0.029	-0.267
-401.223	55.948	-0.070	0.069
-400.209	-3.858	0.194	0.136
-399.194	-49.165	-0.160	0.078
-398.179	-101.523	-0.032	-0.008
-397.165	60.559	-0.156	0.156
-396.150	-200.000	-0.063	0.317
-395.136	-8.976	-0.348	-0.236
-394.121	800.000	-0.096	-0.314
-393.106	-200.000	-0.013	-0.123
-392.092	363.193	-0.073	-0.148
-391.077	49.270	0.165	-0.157
-390.063	-88.217	0.134	-0.041
-389.048	-155.358	0.177	0.012
-388.033	34.654	0.211	-0.187
-387.019	-91.398	-0.327	-0.095
-386.004	-87.298	-0.347	0.107
-384.990	-61.675	-0.323	0.137
-383.975	-200.000	-0.042	0.309
-382.960	-135.123	0.253	-0.031
-381.946	113.316	-0.091	-0.112
-380.931	173.255	0.172	-0.251
-379.917	-79.014	-0.100	0.034
-378.902	-100.356	0.064	0.016
-377.888	-200.000	-0.014	-0.198
-376.873	192.189	-0.184	-0.280
-375.858	27.707	0.221	-0.188
-374.844	800.000	0.091	-0.267
-373.829	46.955	-0.103	0.097
-372.815	800.000	0.084	0.273
-371.800	-39.326	-0.249	-0.132
-370.785	-200.000	0.030	-0.653
-369.771	95.087	0.162	-0.186
-368.756	51.866	-0.327	0.315
-367.742	-134.799	-0.086	0.011
-366.727	193.079	-0.167	-0.255
-365.712	289.068	0.135	0.247
-364.698	20.049	-0.181	0.147
-363.683	78.330	-0.043	-0.047
-362.669	800.000	-0.039	-0.112
-361.654	-33.603	-0.162	-0.090
-360.639	176.963	0.076	-0.112
-359.625	64.435	0.171	0.174
-358.610	-3.265	-0.180	0.127
-357.596	-66.130	-0.200	0.081
-356.581	800.000	-0.067	-0.225
-355.566	-200.000	-0.018	0.196
-354.552	-73.342	-0.092	-0.034
-353.537	-102.523	0.288	0.070
-352.523	-143.293	0.099	-0.010
-351.508	88.988	0.150	-0.168
-350.493	239.436	-0.171	-0.288
-349.479	-49.546	-0.150	-0.072
-348.464	-95.406	0.228	0.062
-347.450	95.897	0.116	0.133
-346.435	86.771	-0.208	-0.232
-345.420	297.088	-0.104	-0.193
-344.406	-105.385	-0.026	0.006
-343.391	-200.000	-0.041	-0.203
-342.377	57.509	-0.206	-0.203
-341.362	189.123	0.034	-0.052
-340.348	385.102	0.103	0.214
-339.333	86.944	-0.178	-0.198
-338.318	171.917	0.136	0.197
-337.304	800.000	0.029	-0.117
-336.289	170.408	-0.084	-0.122
-335.275	-58.756	-0.308	-0.135
-334.260	-16.177	-0.282	0.181
-333.245	-12.580	-0.233	0.154
-332.231	18.353	0.050	0.040
-331.216	-82.877	-0.065	-0.021
-330.202	-100.335	-0.062	-0.016
-329.187	800.000	-0.113	-0.349
-328.172	-200.000	-0.019	0.280
-327.158	-3.383	0.202	0.142
-326.143	145.819	0.175	-0.237
-325.129	-51.677	0.298	0.140
-324.114	0.747	-0.107	-0.077
-323.099	-139.966	-0.158	-0.017
-322.085	-19.915	0.185	-0.115
-321.070	-80.205	-0.159	-0.054
-320.056	161.982	0.088	-0.124
-319.041	345.378	0.097	0.192
-318.026	-105.879	0.331	0.075
-317.012	-136.152	-0.062	0.007
-315.997	316.701	-0.063	-0.119
-314.983	-118.473	-0.278	-0.050
-313.968	410.452	-0.040	0.085
-312.953	-200.000	0.029	0.155
-311.939	547.816	0.075	-0.181
-310.924	-25.939	0.130	0.077
-309.910	-200.000	0.026	0.244
-308.895	-78.799	-0.207	0.071
-307.880	90.345	-0.094	-0.106
-306.866	266.590	0.068	0.121
-305.851	800.000	0.023	0.072
-304.837	800.000	-0.061	-0.178
-303.822	-137.657	0.194	-0.022
-302.807	-10.067	0.075	-0.050
-301.793	164.687	-0.034	-0.048
-300.778	124.534	0.168	-0.213
-299.764	-119.208	0.163	-0.029
-298.749	37.409	-0.040	0.036
-297.735	46.444	-0.213	-0.200
-296.720	117.033	-0.113	0.140
-295.705	75.450	0.150	0.160
-294.691	-137.971	-0.133	0.015
-293.676	800.000	-0.048	0.181
-292.662	298.760	0.106	0.196
-291.647	-78.581	-0.071	-0.024
-290.632	290.694	0.061	0.113
-289.618	332.081	0.030	0.058
-288.603	-21.333	0.064	0.040
-287.589	229.510	-0.215	0.354
-286.574	324.661	-0.065	-0.126
-285.559	800.000	0.113	-0.425
-284.545	-200.000	0.020	-0.164
-283.530	31.089	-0.179	0.155
-282.516	-200.000	-0.008	0.239
-281.501	-200.000	-0.008	0.105
-280.486	192.355	-0.156	-0.237
-279.472	-75.672	-0.139	0.050
-278.457	137.412	0.184	-0.242
-277.443	-200.000	0.246	-0.000
-276.428	317.651	0.183	-0.349
-275.413	280.526	-0.068	-0.122
-274.399	-30.814	0.357	0.203
-273.384	-94.241	0.331	-0.091
-272.370	-42.708	-0.283	0.145
-271.355	-65.555	0.136	0.055
-270.340	-200.000	0.006	-0.098
-269.326	4.430	-0.099	0.073
-268.311	340.121	0.050	-0.098
-267.297	-87.189	-0.042	0.013
-266.282	28.338	-0.236	-0.201
-265.267	-47.028	-0.226	0.111
-264.253	-179.436	-0.311	-0.007
-263.238	-200.000	-0.044	-0.212
-262.224	-200.000	0.031	0.162
-261.209	800.000	-0.057	-0.197
-260.195	309.741	0.222	0.418
-259.180	470.189	0.126	0.285
-258.165	-200.000	-0.038	-0.232
-257.151	-200.000	0.091	0.493
-256.136	-2.049	0.148	-0.105
-255.122	-49.636	0.283	0.136
-254.107	786.286	-0.026	-0.070
-253.092	12.414	-0.139	-0.108
-252.078	-94.772	0.361	0.099
-251.063	-174.125	-0.123	-0.004
-250.049	-42.652	-0.090	-0.046
-249.034	122.180	0.118	-0.148
-248.019	-200.000	-0.012	0.146
-247.005	-200.000	-0.240	0.001
-245.990	-200.000	0.005	-0.196
-244.976	-84.702	0.107	0.034
-243.961	187.977	-0.033	-0.050
-242.946	-41.912	0.092	0.048
-241.932	204.646	0.156	0.243
-240.917	63.594	-0.068	0.069
-239.903	800.000	-0.093	-0.370
-238.888	121.824	0.155	0.194
-237.873	45.910	0.100	0.093
-236.859	373.483	-0.017	-0.035
-235.844	4.947	0.281	-0.208
-234.830	-96.623	0.116	-0.031
-233.815	210.665	-0.032	-0.050
-232.800	-200.000	-0.016	-0.097
-231.786	-143.051	0.076	0.007
-230.771	382.797	0.061	0.127
-229.757	-153.318	0.346	0.024
-228.742	34.058	-0.037	-0.032
-227.727	300.278	0.120	-0.222
-226.713	-31.486	0.246	-0.139
-225.698	-91.174	-0.241	-0.070
-224.684	-98.304	-0.190	0.049
-223.669	-123.590	0.135	-0.022
-222.655	-52.110	0.272	-0.127
-221.640	-86.535	0.279	-0.086
-220.625	121.692	0.118	0.148
-219.611	486.275	0.047	-0.109
-218.596	192.207	0.096	0.145
-217.582	-200.000	0.003	-0.106
-216.567	-12.189	0.119	0.078
-215.552	-33.938	0.271	-0.150
-214.538	-184.745	-0.253	-0.004
-213.523	-66.532	0.186	-0.074
-212.509	229.817	-0.065	-0.106
-211.494	305.185	0.091	-0.170
-210.479	-200.000	0.014	0.131
-209.465	195.297	0.059	0.091
-208.450	800.000	-0.100	-0.350
-207.436	-200.000	-0.021	0.172
-206.421	-10.349	-0.318	-0.212
-205.406	-28.599	-0.134	0.077
-204.392	293.813	-0.103	0.190
-203.377	-200.000	0.016	0.072
-202.363	800.000	-0.108	-0.330
-201.348	-70.205	0.302	0.115
-200.333	-38.479	-0.191	0.101
-199.319	331.216	-0.076	0.147
-198.304	-144.148	-0.266	-0.025
-197.290	-108.734	0.237	-0.051
-196.275	232.423	-0.091	-0.150
-195.260	-48.639	-0.111	0.053
-194.246	156.432	-0.092	0.127
-193.231	319.488	0.068	-0.129
-192.217	55.571	0.129	0.126
-191.202	228.030	-0.082	-0.134
-190.187	177.657	0.087	0.127
-189.173	-200.000	0.075	-0.366
-188.158	172.231	0.256	-0.369
-187.144	-104.343	-0.090	-0.021
-186.129	-189.484	0.323	-0.004
-185.114	40.291	0.249	0.225
-184.100	-200.000	0.009	0.124
-183.085	241.995	0.120	-0.202
-182.071	-19.565	-0.141	0.088
-181.056	-200.000	-0.065	-0.292
-180.042	-60.543	0.233	0.099
-179.027	-200.000	-0.030	-0.179
-178.012	-0.142	0.033	0.024
-176.998	-10.893	-0.074	0.049
-175.983	-71.054	0.459	0.173
-174.969	-200.000	-0.030	0.419
-173.954	-30.070	0.102	-0.058
-172.939	140.783	0.139	0.185
-171.925	273.541	-0.209	-0.371
-170.910	269.438	0.043	-0.075
-169.896	408.064	-0.195	-0.413
-168.881	26.055	0.151	0.126
-167.866	-200.000	0.030	0.179
-166.852	-200.000	0.017	0.128
-165.837	753.200	-0.060	0.161
-164.823	-200.000	0.061	-0.345
-163.808	-81.379	0.212	-0.070
-162.793	800.000	0.068	-0.237
-161.779	252.844	0.046	0.078
-160.764	-200.000	0.005	-0.184
-159.750	98.108	-0.140	0.161
-158.735	-22.355	-0.143	-0.087
-157.720	800.000	-0.068	-0.212
-156.706	-200.000	0.004	0.092
-155.691	-12.280	0.248	0.163
-154.677	43.002	0.121	0.111
-153.662	-122.138	0.260	-0.043
-152.647	760.615	0.038	0.102
-151.633	148.267	-0.148	0.200
-150.618	-200.000	0.013	0.156
-149.604	800.000	-0.044	-0.162
-148.589	-25.506	0.271	-0.160
-147.574	158.992	-0.169	-0.235
-146.560	-95.570	-0.214	0.057
-145.545	162.533	0.059	-0.082
-144.531	384.124	-0.105	0.217
-143.516	574.068	-0.115	0.280
-142.502	223.601	0.090	0.146
-141.487	-51.490	-0.194	0.091
-140.472	-65.434	0.256	-0.103
-139.458	352.934	0.162	0.321
-138.443	-173.941	0.324	0.010
-137.429	-200.000	-0.029	-0.230
-136.414	-200.000	-0.004	0.052
-135.399	800.000	0.034	0.149
-134.385	71.963	-0.057	0.060
-133.370	120.148	-0.124	0.154
-132.356	-172.588	0.176	0.006
-131.341	-200.000	-0.018	-0.096
-130.326	123.974	-0.109	0.138
-129.312	-82.632	0.169	-0.055
-128.297	800.000	-0.026	0.099
-127.283	614.786	0.054	-0.136
-126.268	800.000	-0.025	-0.096
-125.253	-131.928	-0.037	0.005
-124.239	-22.487	0.181	-0.110
-123.224	-41.631	0.155	-0.080
-122.210	41.922	-0.072	-0.066
-121.195	-96.265	0.308	0.082
