DTS Sentinel unit serial number:	SN413079Multiplexer serial number:	ORYXHardware model number:	OX4-SRSoftware version number:	ORYX F/W v4.00 Oryx Data Collector v3.7.2.0data status	okinstallation	princeton_trtdifferential loss correction	single-endedforward channel	channel 4reverse channel	N/Adate	2019/09/12time	19:09:18forward acquisition time	15.00reverse acquisition time	0.00gamma	496.2192k internal	0.2307k external	0.2307temperature offset calibration	1.0141default loss term (dB/km)	0.3790temperature slope calibration	1.0000multiplexer offset coefficient	1.0000multiplexer slope coefficient	1.0000fibre end	0.00T internal ref (°C)	32.62T ext. ref 1 (°C)	3.18T ext. ref 2 (°C)	27.21length (m)	temperature (°C)	Stokes	anti-Stokes-747.200	-84.914	0.541	0.173
-746.185	-69.199	-0.184	0.072
-745.171	800.000	-0.050	-0.161
-744.156	229.513	-0.171	0.285
-743.142	145.340	-0.064	-0.087
-742.127	229.653	0.356	-0.592
-741.112	-138.225	0.787	0.089
-740.098	-55.347	0.288	-0.131
-739.083	34.429	0.316	-0.280
-738.069	87.934	-0.504	0.568
-737.054	-94.343	-0.131	0.036
-736.039	291.644	-0.121	-0.223
-735.025	574.414	-0.175	0.434
-734.010	-34.799	0.557	0.309
-732.996	91.636	-0.410	-0.469
-731.981	-105.902	0.245	-0.056
-730.966	-59.574	0.695	0.303
-729.952	-200.000	0.038	-0.623
-728.937	13.555	-0.498	-0.393
-727.923	-10.291	-0.455	-0.307
-726.908	-134.316	-0.723	-0.090
-725.894	66.997	0.892	-0.924
-724.879	-147.320	-0.807	0.070
-723.864	17.039	0.481	0.387
-722.850	-40.666	-0.687	0.362
-721.835	-6.496	-0.469	-0.325
-720.821	-148.092	1.103	0.093
-719.806	-200.000	-0.164	-0.991
-718.791	-200.000	0.025	-0.511
-717.777	538.281	0.111	0.268
-716.762	-106.161	0.699	-0.159
-715.748	107.389	0.403	0.486
-714.733	-200.000	0.090	-0.796
-713.718	-108.634	-0.793	-0.173
-712.704	41.295	-0.466	-0.428
-711.689	94.267	-0.596	-0.688
-710.675	800.000	0.133	-0.588
-709.660	800.000	0.150	0.508
-708.645	-200.000	-0.018	0.173
-707.631	-122.367	-0.643	-0.106
-706.616	-200.000	-0.189	0.895
-705.602	48.314	-0.140	0.133
-704.587	625.871	-0.323	-0.827
-703.572	238.743	0.684	1.154
-702.558	236.905	-0.235	-0.396
-701.543	-200.000	0.074	-0.399
-700.529	-25.471	-0.324	-0.194
-699.514	800.000	-0.089	-0.366
-698.499	-36.522	-0.283	-0.155
-697.485	-1.768	0.251	-0.180
-696.470	-131.673	0.227	-0.030
-695.456	800.000	-0.239	-0.685
-694.441	-39.462	0.566	-0.301
-693.426	61.025	0.364	0.366
-692.412	800.000	-0.163	0.640
-691.397	16.220	0.394	0.315
-690.383	-60.842	-0.402	-0.173
-689.368	316.126	0.323	-0.619
-688.354	64.566	0.397	-0.406
-687.339	-200.000	0.049	-0.383
-686.324	800.000	0.204	-0.870
-685.310	100.570	0.184	0.217
-684.295	-52.844	-1.054	0.492
-683.281	-138.517	-0.166	0.019
-682.266	800.000	-0.116	-0.423
-681.251	-200.000	0.094	1.026
-680.237	149.054	0.084	-0.116
-679.222	-17.849	0.267	0.170
-678.208	190.436	-0.227	0.345
-677.193	-200.000	0.058	-1.010
-676.178	100.417	-0.301	0.355
-675.164	-200.000	-0.182	-0.816
-674.149	109.116	-0.662	0.803
-673.135	-159.138	-0.761	0.044
-672.120	656.356	0.210	-0.548
-671.105	763.850	0.309	-0.850
-670.091	-200.000	-0.043	-0.490
-669.076	124.819	0.445	0.568
-668.062	-67.176	-0.415	0.166
-667.047	-200.000	-0.009	1.039
-666.032	-2.576	-0.323	-0.229
-665.018	-200.000	0.007	0.055
-664.003	800.000	0.223	-0.800
-662.989	193.020	0.738	-1.130
-661.974	800.000	0.177	0.601
-660.959	-160.755	-0.423	0.023
-659.945	37.885	0.537	-0.484
-658.930	-5.216	-0.430	0.300
-657.916	-200.000	-0.012	-0.278
-656.901	246.562	-0.152	-0.260
-655.886	-80.068	0.382	0.130
-654.872	547.515	-0.383	-0.930
-653.857	-200.000	-0.087	-0.734
-652.843	10.206	0.309	-0.238
-651.828	0.440	0.521	-0.377
-650.814	-200.000	0.000	-0.022
-649.799	13.374	0.422	-0.331
-648.784	-78.980	-0.489	0.169
-647.770	226.363	-0.135	0.222
-646.755	-200.000	-0.068	-0.935
-645.741	322.989	-0.399	-0.771
-644.726	800.000	0.090	-0.375
-643.711	-198.910	-0.257	0.001
-642.697	-106.833	-0.600	-0.135
-641.682	741.520	-0.048	0.131
-640.668	-47.470	0.913	0.449
-639.653	-200.000	0.073	-1.316
-638.638	51.421	0.485	-0.466
-637.624	27.395	-0.369	0.314
-636.609	-78.626	-0.527	0.182
-635.595	273.505	-0.172	0.307
-634.580	-50.027	0.362	-0.174
-633.565	-200.000	-0.070	0.502
-632.551	-200.000	0.013	-0.540
-631.536	-121.792	0.228	-0.038
-630.522	-61.154	-0.908	0.388
-629.507	-200.000	-0.027	-0.579
-628.492	-74.372	0.732	-0.268
-627.478	82.510	-0.580	0.638
-626.463	-185.640	0.645	-0.010
-625.449	-76.947	0.522	0.184
-624.434	61.784	-0.471	0.475
-623.419	112.041	-0.492	0.602
-622.405	-32.666	0.662	0.373
-621.390	-60.495	0.316	-0.136
-620.376	-23.949	0.518	0.313
-619.361	443.922	-0.335	-0.744
-618.346	-172.714	-1.388	0.044
-617.332	63.137	0.084	-0.085
-616.317	-200.000	0.020	0.109
-615.303	-125.755	0.762	-0.117
-614.288	-44.982	-0.374	0.188
-613.273	363.594	0.269	-0.547
-612.259	75.136	0.142	-0.152
-611.244	-200.000	0.001	-0.167
-610.230	800.000	0.210	-0.848
-609.215	374.817	-0.163	-0.337
-608.201	-156.275	1.112	-0.071
-607.186	800.000	0.140	-0.583
-606.171	-200.000	-0.012	0.191
-605.157	-200.000	-0.063	-0.340
-604.142	-29.477	-0.339	0.196
-603.128	800.000	-0.028	-0.098
-602.113	-200.000	-0.074	-0.346
-601.098	26.331	0.229	0.193
-600.084	-81.400	-0.253	0.084
-599.069	-200.000	0.339	0.000
-598.055	-116.059	0.212	0.040
-597.040	-172.415	0.273	0.009
-596.025	-64.679	0.643	-0.263
-595.011	290.736	0.339	0.623
-593.996	-130.164	1.133	0.156
-592.982	-37.974	-0.067	-0.036
-591.967	-126.265	0.218	0.033
-590.952	-200.000	0.028	0.167
-589.938	-6.746	-0.420	-0.289
-588.923	76.495	0.445	0.477
-587.909	-84.378	-0.452	-0.144
-586.894	-200.000	0.078	0.486
-585.879	274.831	-0.230	-0.412
-584.865	-59.599	-0.189	-0.082
-583.850	165.890	0.177	-0.253
-582.836	102.355	-0.250	0.295
-581.821	42.778	-0.286	0.263
-580.806	132.099	-0.367	0.477
-579.792	264.217	-0.267	-0.470
-578.777	-156.035	0.429	0.027
-577.763	-134.465	-0.341	-0.042
-576.748	-91.022	0.556	-0.161
-575.733	284.328	0.177	0.322
-574.719	-63.448	0.343	-0.142
-573.704	544.303	-0.050	-0.121
-572.690	-200.000	-0.240	-0.000
-571.675	-44.057	-0.459	-0.233
-570.661	120.719	0.093	0.117
-569.646	-66.744	-0.433	-0.173
-568.631	228.593	0.190	0.312
-567.617	35.880	0.407	-0.362
-566.602	-200.000	-0.014	-0.759
-565.588	82.979	-0.454	-0.498
-564.573	218.407	0.277	-0.446
-563.558	35.739	0.184	0.163
-562.544	213.912	0.069	-0.111
-561.529	-133.301	-0.612	-0.078
-560.515	621.807	0.285	0.724
-559.500	34.780	0.221	0.195
-558.485	-83.404	0.400	0.129
-557.471	-140.187	-0.046	0.005
-556.456	399.857	0.298	-0.631
-555.442	-200.000	-0.140	0.772
-554.427	699.727	-0.150	0.397
-553.412	800.000	-0.149	0.658
-552.398	-200.000	-0.041	0.300
-551.383	-139.053	1.035	0.113
-550.369	68.706	0.455	-0.471
-549.354	-23.331	0.082	0.050
-548.339	372.481	0.097	-0.198
-547.325	593.070	0.243	-0.606
-546.310	17.349	-0.481	0.385
-545.296	80.600	-0.381	-0.414
-544.281	-109.434	-0.407	-0.087
-543.266	138.046	-0.316	0.417
-542.252	800.000	0.074	0.248
-541.237	55.892	-0.203	0.199
-540.223	-165.468	0.561	-0.025
-539.208	94.598	-0.780	0.895
-538.193	25.202	-0.399	-0.335
-537.179	-200.000	0.034	-0.188
-536.164	-151.646	0.656	0.049
-535.150	-183.171	-0.278	0.005
-534.135	466.150	-0.090	0.204
-533.121	183.299	0.458	-0.683
-532.106	-200.000	0.056	-1.028
-531.091	516.823	-0.084	-0.199
-530.077	-200.000	-0.012	-1.165
-529.062	243.982	-0.052	-0.089
-528.048	-200.000	-0.299	-1.475
-527.033	228.834	0.105	-0.173
-526.018	38.364	0.174	0.156
-525.004	720.328	-0.012	0.032
-523.989	-67.102	0.800	0.318
-522.975	669.150	0.204	0.531
-521.960	121.048	0.960	1.205
-520.945	-97.585	0.902	0.236
-519.931	-200.000	-0.053	0.242
-518.916	-62.492	-0.261	0.109
-517.902	117.361	0.428	0.530
-516.887	8.839	0.303	0.230
-515.872	800.000	-0.100	0.422
-514.858	-64.635	0.823	-0.336
-513.843	-67.270	-0.198	-0.078
-512.829	199.212	0.113	-0.174
-511.814	-38.687	0.953	-0.507
-510.799	-200.000	-0.013	0.194
-509.785	7.971	-0.442	0.334
-508.770	53.726	0.427	0.413
-507.756	768.664	-0.122	0.333
-506.741	-200.000	0.005	-0.650
-505.726	800.000	-0.078	-0.253
-504.712	-5.496	0.286	0.198
-503.697	-58.223	-0.482	0.211
-502.683	559.143	-0.113	-0.274
-501.668	337.839	-0.253	0.496
-500.653	258.352	0.348	0.604
-499.639	-188.116	-0.623	-0.008
-498.624	224.288	0.255	0.415
-497.610	15.377	0.503	-0.398
-496.595	-134.757	0.870	-0.106
-495.581	-19.282	-1.090	-0.681
-494.566	-200.000	-0.218	1.043
-493.551	151.217	-0.357	0.490
-492.537	287.146	0.357	0.649
-491.522	-41.686	0.257	0.133
-490.508	-200.000	-0.076	0.358
-489.493	33.588	0.246	0.215
-488.478	753.674	-0.082	-0.223
-487.464	800.000	-0.206	0.791
-486.449	-75.004	-0.249	0.090
-485.435	-122.128	-1.328	-0.219
-484.420	-200.000	0.037	0.550
-483.405	52.104	0.405	0.389
-482.391	139.495	0.298	0.395
-481.376	-99.807	0.200	0.050
-480.362	-200.000	-0.136	-0.869
-479.347	-31.725	0.619	0.350
-478.332	347.336	0.318	0.630
-477.318	205.612	-0.428	0.669
-476.303	-200.000	0.144	0.893
-475.289	406.233	-0.135	-0.286
-474.274	412.013	0.265	0.566
-473.259	106.395	0.137	0.163
-472.245	202.437	-0.162	-0.252
-471.230	-60.907	0.372	0.158
-470.216	-4.580	-0.160	0.111
-469.201	430.060	0.441	-0.959
-468.186	-17.227	1.223	-0.775
-467.172	-65.771	-0.774	-0.312
-466.157	693.038	-0.274	0.721
-465.143	162.875	-0.613	0.866
-464.128	-85.826	0.542	-0.169
-463.113	526.516	-0.193	-0.458
-462.099	800.000	-0.094	0.345
-461.084	-48.602	0.330	0.159
-460.070	-108.442	0.236	-0.051
-459.055	80.530	0.196	-0.212
-458.040	255.442	-0.214	-0.369
-457.026	23.058	-0.574	0.473
-456.011	800.000	-0.199	0.785
-454.997	-12.106	0.438	0.288
-453.982	-200.000	0.028	-0.212
-452.968	375.119	0.309	-0.633
-451.953	-52.654	0.349	-0.162
-450.938	-79.674	0.219	0.074
-449.924	-1.768	0.155	0.109
-448.909	-154.420	-0.896	0.060
-447.895	-200.000	-0.040	-0.341
-446.880	-89.207	-0.800	-0.237
-445.865	-27.625	0.278	0.162
-444.851	-93.730	-0.117	0.032
-443.836	-20.012	0.267	-0.165
-442.822	85.148	0.105	-0.116
-441.807	-19.683	0.346	0.215
-440.792	-41.850	0.120	0.062
-439.778	-200.000	0.056	-0.519
-438.763	-75.035	0.167	-0.060
-437.749	771.806	-0.130	0.357
-436.734	-21.653	-0.784	0.480
-435.719	-141.493	0.233	-0.024
-434.705	-200.000	-0.082	0.667
-433.690	800.000	-0.049	-0.188
-432.676	-110.460	1.018	0.212
-431.661	800.000	0.085	-0.267
-430.646	-21.330	-0.576	0.353
-429.632	24.257	-0.512	-0.425
-428.617	-200.000	-0.097	0.561
-427.603	-200.000	-0.032	0.547
-426.588	424.771	0.129	0.279
-425.573	566.910	-0.220	-0.535
-424.559	-200.000	0.198	-0.923
-423.544	-200.000	-0.073	-0.366
-422.530	-200.000	-0.076	0.551
-421.515	-145.933	-0.571	-0.051
-420.500	-200.000	0.035	-0.372
-419.486	47.285	-0.098	-0.092
-418.471	-58.428	0.120	-0.052
-417.457	360.052	-0.228	-0.458
-416.442	-76.873	-0.349	0.122
-415.428	69.913	0.235	-0.243
-414.413	-200.000	-0.021	0.143
-413.398	-17.128	-0.776	-0.491
-412.384	-115.668	0.497	-0.094
-411.369	292.679	0.506	-0.926
-410.355	800.000	-0.194	-0.722
-409.340	-72.762	0.567	-0.210
-408.325	-200.000	0.134	-0.594
-407.311	-91.986	-0.507	0.144
-406.296	-182.638	-0.688	-0.013
-405.282	-200.000	0.008	-0.189
-404.267	-140.780	0.232	0.024
-403.252	211.198	0.127	0.200
-402.238	9.974	-0.689	-0.525
-401.223	67.781	0.382	0.392
-400.209	107.475	-0.244	-0.291
-399.194	-200.000	0.062	-0.628
-398.179	-119.229	-0.506	-0.089
-397.165	-6.638	0.132	-0.090
-396.150	-103.158	0.289	0.069
-395.136	48.339	-0.285	-0.267
-394.121	800.000	-0.206	0.832
-393.106	800.000	0.042	-0.159
-392.092	-83.144	-0.296	0.096
-391.077	0.942	0.462	-0.332
-390.063	231.795	0.116	-0.190
-389.048	-33.408	-0.658	0.365
-388.033	148.831	0.169	0.229
-387.019	-33.827	-0.115	0.064
-386.004	-82.480	0.318	0.104
-384.990	239.883	-0.161	-0.268
-383.975	800.000	-0.123	-0.477
-382.960	195.247	0.238	-0.363
-381.946	-131.172	-0.165	0.022
-380.931	800.000	0.054	0.170
-379.917	456.688	0.186	-0.415
-378.902	-103.973	0.312	-0.073
-377.888	-86.622	0.331	0.102
-376.873	-37.230	-0.812	-0.435
-375.858	68.844	0.196	-0.202
-374.844	-128.672	-0.916	-0.130
-373.829	-126.099	0.402	0.060
-372.815	-142.266	0.166	0.016
-371.800	-13.310	0.196	-0.128
-370.785	-26.499	0.650	0.382
-369.771	-4.132	0.666	-0.462
-368.756	-120.382	0.592	-0.101
-367.742	-24.696	-0.470	0.280
-366.727	382.375	-0.311	-0.640
-365.712	155.292	0.274	-0.377
-364.698	-131.912	-0.831	0.109
-363.683	474.386	-0.146	-0.330
-362.669	-59.600	0.419	0.180
-361.654	-29.652	-0.356	-0.204
-360.639	-26.787	0.371	-0.217
-359.625	596.586	-0.260	0.645
-358.610	800.000	-0.249	-0.888
-357.596	258.129	0.330	-0.569
-356.581	-141.236	0.310	-0.032
-355.566	-9.062	-0.825	-0.553
-354.552	-40.357	-0.600	-0.312
-353.537	751.524	-0.091	0.247
-352.523	226.286	-0.341	0.554
-351.508	-200.000	0.130	0.629
-350.493	-200.000	0.043	-0.592
-349.479	-92.691	0.860	-0.241
-348.464	-155.565	0.526	-0.034
-347.450	800.000	0.081	-0.278
-346.435	48.167	0.238	-0.223
-345.420	-180.096	0.337	-0.007
-344.406	43.279	-0.335	0.306
-343.391	107.552	-0.166	-0.198
-342.377	-133.609	-0.151	0.019
-341.362	70.694	-0.977	-1.012
-340.348	-200.000	-0.059	0.404
-339.333	-85.672	-0.230	-0.071
-338.318	128.218	0.410	0.522
-337.304	800.000	-0.167	0.709
-336.289	8.107	-0.493	-0.370
-335.275	-5.593	-0.425	-0.292
-334.260	266.734	0.268	-0.468
-333.245	-67.971	0.951	0.371
-332.231	134.623	0.125	0.162
-331.216	-79.696	0.633	-0.214
-330.202	16.900	0.298	0.236
-329.187	-75.148	0.456	-0.163
-328.172	-200.000	0.006	0.239
-327.158	-200.000	-0.076	-0.567
-326.143	-18.098	0.764	-0.479
-325.129	800.000	0.040	0.139
-324.114	-159.925	-0.383	-0.021
-323.099	-200.000	-0.151	0.695
-322.085	-166.330	-0.612	-0.026
-321.070	22.248	-0.247	0.202
-320.056	-84.178	-0.263	0.083
-319.041	-18.314	0.629	0.393
-318.026	-70.625	0.627	0.237
-317.012	-200.000	0.071	-0.365
-315.997	-135.206	0.122	0.015
-314.983	-103.166	-0.333	0.079
-313.968	25.423	0.065	-0.054
-312.953	-200.000	-0.021	0.474
-311.939	-149.351	-0.259	-0.021
-310.924	734.205	-0.126	0.337
-309.910	800.000	0.008	0.028
-308.895	31.484	0.381	-0.327
-307.880	109.865	-0.157	0.188
-306.866	-25.427	-0.403	0.238
-305.851	-34.179	-0.548	-0.301
-304.837	-200.000	0.064	-0.307
-303.822	21.545	-0.398	0.323
-302.807	-74.592	0.641	-0.231
-301.793	658.536	-0.100	-0.256
-300.778	212.403	0.382	-0.602
-299.764	238.332	-0.198	0.328
-298.749	-79.018	-0.491	-0.167
-297.735	612.196	-0.180	-0.450
-296.720	-200.000	-0.080	0.857
-295.705	-117.864	-0.452	-0.081
-294.691	-26.724	-0.150	0.088
-293.676	800.000	0.112	-0.392
-292.662	-200.000	0.088	-0.528
-291.647	-88.369	-0.786	0.235
-290.632	800.000	0.073	-0.249
-289.618	-200.000	0.017	-0.153
-288.603	-67.011	-0.506	-0.199
-287.589	-121.710	-1.227	-0.203
-286.574	-200.000	-0.040	-0.610
-285.559	-69.932	0.389	0.148
-284.545	-116.983	-0.109	-0.020
-283.530	114.075	-0.371	0.451
-282.516	-45.334	-0.030	0.015
-281.501	209.100	0.243	0.380
-280.486	117.999	-0.189	0.232
-279.472	679.618	0.199	0.517
-278.457	167.905	-0.329	-0.467
-277.443	-67.529	0.109	-0.043
-276.428	-200.000	-0.623	0.000
-275.413	-60.077	-0.587	-0.250
-274.399	161.165	-0.075	0.105
-273.384	-129.106	-0.752	-0.105
-272.370	-200.000	0.236	1.169
-271.355	94.229	0.232	0.263
-270.340	100.584	0.264	-0.306
-269.326	240.105	-0.314	0.522
-268.311	-200.000	0.075	0.413
-267.297	-200.000	-0.085	0.831
-266.282	-62.837	-0.490	-0.203
-265.267	9.092	-0.668	-0.503
-264.253	84.284	-0.433	0.472
-263.238	-83.729	-0.481	-0.153
-262.224	327.515	-0.093	0.179
-261.209	-111.058	0.687	0.141
-260.195	-179.694	1.180	-0.025
-259.180	171.462	0.447	-0.639
-258.165	41.481	-0.901	0.814
-257.151	-200.000	-0.028	0.846
-256.136	-200.000	0.005	-0.061
-255.122	-37.676	0.396	0.210
-254.107	286.631	0.158	0.284
-253.092	800.000	-0.071	0.288
-252.078	-58.285	-0.581	0.252
-251.063	382.934	-0.355	-0.728
-250.049	-200.000	0.025	0.120
-249.034	-39.887	-0.291	-0.151
-248.019	-100.589	0.032	-0.008
-247.005	-60.889	0.221	0.093
-245.990	-200.000	0.081	-0.641
-244.976	-23.660	-0.420	-0.251
-243.961	-86.487	0.749	-0.229
-242.946	11.793	-0.563	-0.431
-241.932	-200.000	0.093	0.671
-240.917	-200.000	-0.021	0.156
-239.903	-200.000	-0.182	-1.480
-238.888	-66.302	0.266	-0.106
-237.873	520.890	-0.177	0.414
-236.859	266.552	-0.252	-0.439
-235.844	-200.000	-0.019	0.146
-234.830	-97.410	0.809	0.210
-233.815	-200.000	-0.056	0.416
-232.800	-200.000	-0.013	0.341
-231.786	-12.947	-0.229	0.148
-230.771	-92.194	-0.389	0.109
-229.757	-200.000	-0.058	0.371
-228.742	-200.000	0.031	0.473
-227.727	-200.000	0.086	-0.601
-226.713	63.623	0.207	-0.207
-225.698	-81.006	0.302	0.100
-224.684	289.747	-0.179	-0.323
-223.669	-200.000	-0.017	-0.258
-222.655	238.132	0.328	0.542
-221.640	-14.045	-0.425	-0.274
-220.625	-90.993	0.408	-0.117
-219.611	-133.694	0.364	0.045
-218.596	-184.707	0.220	-0.004
-217.582	21.200	0.197	0.159
-216.567	24.554	0.799	0.659
-215.552	-65.295	0.677	0.272
-214.538	188.497	-0.277	-0.413
-213.523	89.792	0.579	-0.644
-212.509	-107.026	-0.307	0.068
-211.494	-200.000	0.001	0.171
-210.479	800.000	-0.314	1.051
-209.465	33.020	0.160	-0.138
-208.450	-200.000	0.007	-0.363
-207.436	-200.000	-0.056	-0.426
-206.421	-3.352	0.362	0.251
-205.406	-200.000	0.051	-0.329
-204.392	-53.305	-0.683	0.312
-203.377	800.000	-0.168	0.556
-202.363	-105.230	0.534	0.121
-201.348	131.731	-0.083	0.106
-200.333	8.442	-0.314	0.235
-199.319	416.265	-0.262	-0.555
-198.304	63.084	0.160	0.159
-197.290	800.000	0.107	0.328
-196.275	-116.806	-0.550	0.100
-195.260	69.000	0.456	-0.466
-194.246	-23.507	0.560	0.335
-193.231	-125.997	-0.678	0.101
-192.217	-200.000	0.079	0.612
-191.202	-125.975	-0.758	0.113
-190.187	800.000	-0.265	0.799
-189.173	-147.761	0.576	-0.048
-188.158	-192.151	-0.426	0.004
-187.144	164.292	0.978	1.370
-186.129	-73.418	-0.430	-0.156
-185.114	22.245	0.393	0.320
-184.100	-33.452	-0.243	-0.134
-183.085	-200.000	0.044	-0.606
-182.071	-26.943	0.550	-0.319
-181.056	332.815	-0.328	-0.630
-180.042	-128.657	-0.771	-0.108
-179.027	219.441	-0.196	-0.312
-178.012	800.000	0.041	0.165
-176.998	50.273	0.567	0.532
-175.983	338.617	0.262	-0.507
-174.969	132.320	-0.156	-0.200
-173.954	-200.000	0.005	-0.267
-172.939	78.143	-0.298	-0.316
-171.925	92.695	0.267	-0.300
-170.910	71.570	0.359	-0.370
-169.896	-200.000	-0.097	0.459
-168.881	-200.000	-0.011	0.298
-167.866	379.608	0.251	0.511
-166.852	-127.179	-0.320	-0.047
-165.837	-200.000	0.137	-0.618
-164.823	-200.000	-0.077	0.810
-163.808	-127.278	0.819	-0.119
-162.793	-200.000	0.074	0.424
-161.779	149.211	-0.473	0.636
-160.764	27.203	-0.393	-0.328
-159.750	138.187	0.175	0.228
-158.735	66.435	-0.779	0.787
-157.720	154.442	-0.290	0.396
-156.706	-0.963	-0.162	-0.114
-155.691	27.891	-0.606	-0.507
-154.677	-15.980	-0.228	0.144
-153.662	-11.014	0.634	-0.415
-152.647	201.206	-0.475	0.726
-151.633	-200.000	0.118	-0.604
-150.618	-200.000	0.042	0.403
-149.604	800.000	0.223	0.753
-148.589	-101.544	0.300	0.072
-147.574	-157.668	-0.469	-0.028
-146.560	-200.000	0.269	-0.001
-145.545	-200.000	0.015	0.643
-144.531	189.160	-0.094	0.140
-143.516	800.000	-0.223	-0.939
-142.502	-69.907	0.379	0.144
-141.487	-122.012	-0.373	0.061
-140.472	219.948	0.314	0.500
-139.458	44.794	0.242	0.221
-138.443	-89.548	-0.239	0.070
-137.429	-127.694	0.608	0.087
-136.414	62.360	0.539	0.534
-135.399	-169.713	-0.426	-0.015
-134.385	-28.128	0.329	-0.189
-133.370	310.973	0.093	0.172
-132.356	800.000	0.125	0.413
-131.341	32.588	-0.142	-0.122
-130.326	706.449	-0.118	-0.309
-129.312	86.179	-1.046	1.143
-128.297	-198.178	1.249	-0.007
-127.283	351.195	0.179	0.351
-126.268	338.439	-0.240	-0.465
-125.253	-16.748	0.211	0.132
-124.239	318.690	0.114	0.215
-123.224	-134.301	-0.428	-0.052
-122.210	-53.200	0.714	-0.325
