DTS Sentinel unit serial number:	SN413079Multiplexer serial number:	ORYXHardware model number:	OX4-SRSoftware version number:	ORYX F/W v4.00 Oryx Data Collector v3.7.2.0data status	okinstallation	princeton_trtdifferential loss correction	single-endedforward channel	channel 4reverse channel	N/Adate	2019/09/16time	16:17:34forward acquisition time	60.00reverse acquisition time	0.00gamma	496.2192k internal	0.2291k external	0.2291temperature offset calibration	0.9935default loss term (dB/km)	0.3790temperature slope calibration	1.0000multiplexer offset coefficient	1.0000multiplexer slope coefficient	1.0000fibre end	0.00T internal ref (°C)	40.58T ext. ref 1 (°C)	15.01T ext. ref 2 (°C)	34.62length (m)	temperature (°C)	Stokes	anti-Stokes-747.200	98.780	-0.144	-0.171
-746.185	263.065	0.155	0.276
-745.171	-200.000	-0.014	-0.125
-744.156	-47.157	0.060	0.030
-743.142	280.381	0.166	-0.303
-742.127	71.684	-0.138	0.147
-741.112	-200.000	-0.034	-0.376
-740.098	7.558	0.177	0.136
-739.083	800.000	0.071	0.211
-738.069	-200.000	0.006	0.227
-737.054	357.245	-0.094	-0.193
-736.039	16.543	0.078	-0.063
-735.025	-200.000	0.010	0.199
-734.010	-14.524	-0.307	-0.202
-732.996	153.369	-0.040	-0.056
-731.981	-131.050	0.077	0.011
-730.966	-200.000	-0.017	0.089
-729.952	-32.604	-0.055	-0.031
-728.937	800.000	-0.063	-0.278
-727.923	25.204	-0.219	0.186
-726.908	-104.342	0.117	0.028
-725.894	800.000	0.087	-0.268
-724.879	38.520	-0.163	0.149
-723.864	113.737	-0.162	-0.202
-722.850	800.000	0.016	-0.057
-721.835	257.853	-0.076	-0.134
-720.821	-200.000	-0.027	0.340
-719.806	10.699	-0.072	0.057
-718.791	615.456	-0.129	0.331
-717.777	-151.488	0.039	0.003
-716.762	-200.000	-0.001	0.024
-715.748	-126.271	-0.257	0.039
-714.733	-112.891	0.128	-0.026
-713.718	-82.244	-0.251	0.084
-712.704	-119.101	-0.336	0.060
-711.689	-200.000	0.006	-0.073
-710.675	800.000	-0.097	-0.286
-709.660	171.379	-0.148	0.217
-708.645	15.496	0.081	0.065
-707.631	38.317	0.134	0.122
-706.616	800.000	0.064	0.215
-705.602	-4.800	-0.101	0.071
-704.587	380.451	-0.087	-0.182
-703.572	158.627	-0.170	0.241
-702.558	-112.858	-0.282	0.057
-701.543	-200.000	0.031	-0.340
-700.529	82.466	-0.185	0.205
-699.514	800.000	-0.058	-0.173
-698.499	-74.436	0.320	-0.118
-697.485	108.126	-0.017	0.020
-696.470	-26.555	0.057	-0.034
-695.456	104.965	-0.068	-0.081
-694.441	-75.481	-0.210	-0.077
-693.426	-58.890	0.191	-0.085
-692.412	-200.000	-0.048	-0.338
-691.397	-22.458	-0.142	0.088
-690.383	87.910	-0.210	-0.238
-689.368	-72.119	0.056	-0.021
-688.354	-97.349	-0.182	-0.048
-687.339	-200.000	0.002	0.097
-686.324	-106.070	0.249	-0.057
-685.310	-26.478	0.150	0.090
-684.295	-200.000	-0.001	-0.301
-683.281	252.641	-0.082	-0.143
-682.266	-42.313	-0.260	0.136
-681.251	800.000	-0.040	-0.153
-680.237	55.061	0.064	-0.063
-679.222	-200.000	-0.003	-0.122
-678.208	-149.635	0.517	-0.042
-677.193	5.421	0.189	0.142
-676.178	33.717	0.146	0.130
-675.164	-103.651	-0.052	-0.012
-674.149	-43.371	0.160	-0.082
-673.135	-200.000	0.040	-0.301
-672.120	-150.063	0.277	0.022
-671.105	760.572	0.071	0.195
-670.091	95.811	-0.135	-0.158
-669.076	52.870	0.207	-0.203
-668.062	48.208	0.045	-0.043
-667.047	-78.238	-0.142	0.050
-666.032	-41.450	0.213	0.112
-665.018	311.055	-0.062	0.119
-664.003	39.515	0.205	-0.188
-662.989	800.000	-0.095	0.272
-661.974	-114.283	0.099	-0.019
-660.959	-110.061	-0.368	-0.079
-659.945	-83.114	-0.361	-0.118
-658.930	18.003	-0.374	0.304
-657.916	-116.707	-0.250	0.047
-656.901	-125.223	0.484	0.076
-655.886	26.136	0.111	-0.094
-654.872	176.120	-0.135	-0.200
-653.857	-70.917	-0.185	-0.071
-652.843	-162.255	-0.125	-0.006
-651.828	324.981	-0.088	-0.171
-650.814	675.721	0.098	0.259
-649.799	-16.798	-0.306	0.197
-648.784	39.001	0.107	0.098
-647.770	-156.225	0.212	-0.014
-646.755	48.526	-0.212	0.203
-645.741	329.607	-0.102	0.201
-644.726	181.059	-0.058	0.086
-643.711	-40.040	0.133	-0.071
-642.697	-97.363	0.384	-0.102
-641.682	-31.554	-0.179	0.103
-640.668	-149.184	0.063	-0.005
-639.653	-8.118	0.243	0.167
-638.638	18.564	-0.201	-0.164
-637.624	-122.285	0.022	0.004
-636.609	-200.000	0.027	0.160
-635.595	-126.736	0.091	-0.014
-634.580	800.000	0.091	-0.290
-633.565	312.047	0.149	-0.286
-632.551	-5.998	-0.297	0.207
-631.536	-23.277	-0.119	-0.073
-630.522	-21.228	-0.317	-0.198
-629.507	-200.000	0.005	-0.142
-628.492	-200.000	-0.004	0.109
-627.478	89.870	0.182	-0.208
-626.463	-165.198	-0.221	0.010
-625.449	173.253	0.124	0.182
-624.434	-200.000	-0.060	-0.309
-623.419	-39.410	0.129	-0.069
-622.405	281.379	0.046	-0.084
-621.390	32.763	-0.165	0.146
-620.376	800.000	-0.077	-0.312
-619.361	-64.347	-0.062	-0.026
-618.346	800.000	-0.033	-0.116
-617.332	-200.000	0.029	-0.153
-616.317	38.145	0.168	0.152
-615.303	100.826	0.200	0.237
-614.288	608.051	-0.026	0.066
-613.273	77.228	0.088	-0.095
-612.259	-108.563	0.170	0.037
-611.244	302.664	-0.067	-0.126
-610.230	253.725	0.116	0.202
-609.215	-46.100	-0.240	0.120
-608.201	-200.000	-0.013	-0.129
-607.186	-200.000	-0.037	0.321
-606.171	-147.773	0.379	0.032
-605.157	77.026	-0.056	-0.061
-604.142	-76.364	0.091	0.033
-603.128	-44.996	-0.125	0.064
-602.113	262.085	-0.128	-0.227
-601.098	142.189	0.135	-0.183
-600.084	800.000	0.052	-0.175
-599.069	23.811	-0.140	-0.117
-598.055	81.941	0.029	0.032
-597.040	-200.000	-0.099	0.000
-596.025	-40.988	-0.128	-0.068
-595.011	-133.597	0.373	0.047
-593.996	-200.000	-0.004	-0.196
-592.982	-97.846	-0.353	-0.093
-591.967	-84.438	0.066	0.021
-590.952	55.400	-0.103	0.101
-589.938	170.881	0.088	0.129
-588.923	-138.795	-0.100	-0.011
-587.909	-150.689	-0.218	0.017
-586.894	-200.000	0.036	0.277
-585.879	39.579	-0.131	0.119
-584.865	-200.000	0.067	-0.423
-583.850	124.733	-0.114	0.146
-582.836	-200.000	-0.009	-0.160
-581.821	-200.000	0.001	0.191
-580.806	-4.303	-0.073	0.052
-579.792	126.051	-0.104	0.134
-578.777	135.286	-0.105	-0.139
-577.763	-78.013	-0.196	-0.069
-576.748	-109.537	-0.284	-0.061
-575.733	-91.819	-0.203	0.059
-574.719	84.648	-0.149	0.166
-573.704	-200.000	-0.015	0.122
-572.690	-61.954	-0.110	0.047
-571.675	506.355	-0.182	-0.429
-570.661	68.349	0.245	0.255
-569.646	90.009	-0.054	-0.061
-568.631	-200.000	0.001	-0.158
-567.617	-61.195	0.247	0.106
-566.602	-127.736	0.275	0.040
-565.588	300.789	0.148	0.277
-564.573	-18.343	0.147	0.093
-563.558	-129.633	0.406	-0.057
-562.544	136.771	-0.165	-0.219
-561.529	-163.376	-0.343	0.017
-560.515	-200.000	-0.000	-0.058
-559.500	-128.825	0.333	0.048
-558.485	800.000	0.042	0.152
-557.471	38.210	0.057	0.052
-556.456	11.258	-0.126	-0.098
-555.442	557.487	-0.052	0.127
-554.427	800.000	0.114	-0.323
-553.412	348.665	-0.127	0.255
-552.398	800.000	0.109	0.450
-551.383	-200.000	-0.090	0.424
-550.369	40.181	-0.077	-0.071
-549.354	-51.811	0.409	-0.194
-548.339	-182.448	-0.223	0.004
-547.325	-200.000	0.030	-0.152
-546.310	-7.094	-0.048	0.033
-545.296	-135.492	-0.363	0.044
-544.281	-140.866	-0.183	0.019
-543.266	-200.000	0.011	-0.122
-542.252	-140.188	-0.108	-0.012
-541.237	266.625	-0.081	0.144
-540.223	-172.377	-0.212	0.007
-539.208	-111.676	0.275	0.057
-538.193	-100.127	-0.070	-0.018
-537.179	-126.954	0.055	0.008
-536.164	101.001	0.175	-0.207
-535.150	-43.940	-0.171	0.088
-534.135	-146.831	-0.376	0.033
-533.121	337.185	0.087	0.171
-532.106	706.242	-0.033	-0.087
-531.091	-80.280	0.495	-0.168
-530.077	-78.863	0.147	-0.051
-529.062	192.459	0.162	-0.248
-528.048	274.662	-0.064	0.115
-527.033	-128.164	-0.210	-0.031
-526.018	77.842	0.070	0.076
-525.004	249.919	-0.042	-0.072
-523.989	475.241	0.101	-0.231
-522.975	190.891	-0.228	-0.349
-521.960	-200.000	0.020	-0.112
-520.945	-23.048	-0.162	-0.099
-519.931	131.643	-0.149	0.194
-518.916	-200.000	0.073	0.466
-517.902	-200.000	-0.008	0.155
-516.887	-184.654	0.117	-0.002
-515.872	-120.457	0.191	0.033
-514.858	24.911	-0.205	-0.173
-513.843	220.590	0.036	0.059
-512.829	-126.215	-0.201	0.031
-511.814	-117.958	0.314	-0.057
-510.799	-101.906	-0.294	0.072
-509.785	800.000	-0.053	0.196
-508.770	-200.000	0.032	0.169
-507.756	800.000	0.025	0.074
-506.741	294.947	0.117	0.217
-505.726	-26.633	-0.135	0.080
-504.712	25.842	0.071	0.060
-503.697	-200.000	-0.039	0.186
-502.683	-115.452	-0.193	0.037
-501.668	89.403	-0.200	0.226
-500.653	-9.085	-0.162	0.110
-499.639	-55.538	0.313	-0.142
-498.624	-200.000	0.039	-0.225
-497.610	530.619	-0.103	-0.246
-496.595	368.433	-0.174	-0.357
-495.581	-93.099	-0.329	0.093
-494.566	-3.197	0.038	0.027
-493.551	-64.510	0.050	0.021
-492.537	100.498	0.212	0.249
-491.522	-161.535	0.180	0.009
-490.508	207.378	-0.151	-0.239
-489.493	417.739	0.089	0.192
-488.478	-200.000	-0.043	0.203
-487.464	457.085	-0.124	0.280
-486.449	295.732	-0.175	0.324
-485.435	-184.322	-0.162	0.003
-484.420	-200.000	-0.013	0.126
-483.405	-158.356	-0.145	-0.009
-482.391	-42.921	0.214	-0.110
-481.376	-28.162	0.176	-0.103
-480.362	-200.000	0.012	-0.151
-479.347	12.666	0.164	-0.128
-478.332	-200.000	0.018	0.224
-477.318	193.367	-0.044	0.068
-476.303	-52.199	0.032	-0.015
-475.289	-157.246	-0.077	-0.005
-474.274	-157.573	-0.499	0.030
-473.259	-200.000	-0.032	-0.350
-472.245	536.926	0.095	-0.230
-471.230	-200.000	0.025	0.311
-470.216	28.543	0.171	0.146
-469.201	195.831	0.044	0.068
-468.186	33.299	0.178	0.156
-467.172	228.088	-0.076	-0.126
-466.157	638.975	-0.045	0.117
-465.143	-200.000	0.037	-0.199
-464.128	-45.876	0.177	-0.088
-463.113	-130.977	0.251	-0.034
-462.099	87.246	0.107	0.120
-461.084	187.676	0.064	-0.097
-460.070	24.839	-0.253	-0.213
-459.055	-7.291	-0.249	-0.171
-458.040	-114.385	-0.439	0.085
-457.026	414.186	0.060	0.130
-456.011	-200.000	0.009	-0.057
-454.997	20.400	0.222	0.182
-453.982	-78.452	-0.201	0.070
-452.968	-27.908	-0.101	-0.059
-451.953	-145.012	-0.443	-0.041
-450.938	-200.000	-0.037	0.231
-449.924	309.369	-0.197	0.372
-448.909	578.099	-0.077	0.190
-447.895	125.240	0.177	-0.225
-446.880	250.865	-0.072	-0.124
-445.865	-100.519	0.171	0.043
-444.851	-182.818	0.291	-0.005
-443.836	64.819	0.030	0.031
-442.822	193.139	0.107	-0.164
-441.807	-34.673	-0.130	0.072
-440.792	50.484	-0.112	0.107
-439.778	49.271	0.116	-0.110
-438.763	800.000	0.060	0.251
-437.749	-200.000	0.068	0.376
-436.734	-199.475	0.050	-0.000
-435.719	171.552	0.105	-0.153
-434.705	45.399	-0.038	-0.035
-433.690	207.030	-0.124	-0.195
-432.676	800.000	-0.100	0.327
-431.661	-10.340	-0.292	-0.196
-430.646	96.427	0.177	-0.205
-429.632	-50.507	0.175	-0.084
-428.617	294.535	0.164	-0.304
-427.603	-200.000	0.068	-0.332
-426.588	623.669	0.039	-0.099
-425.573	-200.000	-0.011	0.079
-424.559	-200.000	0.011	-0.063
-423.544	-55.760	0.254	-0.115
-422.530	-55.828	0.046	-0.021
-421.515	-131.863	-0.276	-0.036
-420.500	498.623	0.066	0.155
-419.486	85.484	0.043	0.048
-418.471	-31.219	0.142	-0.081
-417.457	294.346	-0.046	0.086
-416.442	-115.167	0.247	0.047
-415.428	590.946	-0.077	-0.193
-414.413	211.386	-0.032	-0.050
-413.398	-105.460	-0.481	0.111
-412.384	-200.000	0.071	-0.489
-411.369	248.683	-0.074	-0.127
-410.355	131.458	-0.094	-0.122
-409.340	-114.995	0.171	0.033
-408.325	226.621	0.078	-0.128
-407.311	-148.063	0.055	-0.005
-406.296	27.827	-0.331	0.282
-405.282	-26.598	0.147	0.087
-404.267	185.891	-0.125	-0.188
-403.252	681.188	0.041	0.108
-402.238	26.187	-0.055	0.047
-401.223	383.229	-0.037	0.076
-400.209	-200.000	-0.043	0.256
-399.194	-200.000	0.003	0.212
-398.179	-84.807	-0.306	-0.097
-397.165	-66.590	-0.217	0.087
-396.150	-51.617	-0.119	-0.056
-395.136	-200.000	-0.046	0.354
-394.121	-200.000	-0.037	0.335
-393.106	-86.103	-0.410	-0.128
-392.092	236.450	-0.099	0.166
-391.077	24.496	-0.238	-0.199
-390.063	-200.000	0.035	-0.406
-389.048	189.484	0.117	0.177
-388.033	82.573	0.015	0.016
-387.019	-79.347	0.299	-0.102
-386.004	-30.087	0.118	0.068
-384.990	72.058	0.344	0.362
-383.975	-129.027	0.255	-0.036
-382.960	-71.762	-0.522	0.197
-381.946	141.724	-0.089	-0.119
-380.931	800.000	0.063	0.267
-379.917	145.235	-0.227	-0.307
-378.902	88.712	0.165	-0.185
-377.888	-109.799	-0.057	-0.012
-376.873	124.126	-0.048	0.061
-375.858	-80.351	-0.224	-0.075
-374.844	-134.993	0.162	-0.020
-373.829	-63.383	0.301	-0.125
-372.815	26.283	-0.115	0.097
-371.800	-65.557	0.245	-0.099
-370.785	151.251	0.072	-0.099
-369.771	-200.000	-0.020	0.138
-368.756	-55.142	0.253	0.115
-367.742	-71.663	-0.113	-0.042
-366.727	208.199	-0.057	-0.089
-365.712	800.000	-0.079	0.298
-364.698	-200.000	0.032	0.141
-363.683	-64.447	-0.173	0.071
-362.669	-200.000	-0.018	-0.200
-361.654	-11.871	-0.159	-0.105
-360.639	-200.000	-0.014	0.222
-359.625	-107.822	0.213	0.047
-358.610	121.395	0.112	-0.140
-357.596	800.000	0.049	0.178
-356.581	175.966	0.334	0.489
-355.566	-200.000	0.007	0.045
-354.552	-38.624	-0.091	0.048
-353.537	-86.684	-0.383	-0.118
-352.523	-179.145	0.361	-0.008
-351.508	-197.266	0.214	0.001
-350.493	-200.000	0.005	-0.090
-349.479	288.560	0.239	-0.436
-348.464	102.455	0.130	0.153
-347.450	-200.000	0.007	-0.091
-346.435	-70.033	0.055	0.021
-345.420	-106.615	-0.043	0.010
-344.406	394.718	0.165	0.346
-343.391	800.000	0.080	-0.236
-342.377	-116.749	0.220	-0.041
-341.362	574.819	0.177	0.436
-340.348	-200.000	0.043	-0.350
-339.333	800.000	-0.137	-0.477
-338.318	-150.016	-0.129	0.010
-337.304	-87.135	0.201	0.062
-336.289	42.535	0.130	-0.119
-335.275	139.848	0.141	0.188
-334.260	-200.000	0.020	-0.147
-333.245	-98.353	-0.212	-0.055
-332.231	800.000	0.069	-0.209
-331.216	-47.632	0.196	-0.096
-330.202	512.304	0.119	-0.279
-329.187	-157.719	0.074	-0.004
-328.172	239.938	-0.037	0.062
-327.158	98.676	-0.110	-0.128
-326.143	174.002	-0.166	-0.241
-325.129	-81.757	-0.306	0.101
-324.114	-81.452	0.187	0.062
-323.099	-200.000	-0.036	-0.218
-322.085	-141.811	0.167	-0.017
-321.070	-27.826	0.190	0.111
-320.056	-160.255	0.199	0.011
-319.041	442.655	-0.114	0.251
-318.026	121.133	-0.114	-0.143
-317.012	-122.399	0.185	0.030
-315.997	23.287	-0.322	-0.266
-314.983	-200.000	0.091	0.584
-313.968	-15.259	-0.091	0.059
-312.953	467.028	0.056	-0.126
-311.939	423.496	-0.072	0.155
-310.924	70.491	-0.363	0.378
-309.910	233.250	-0.091	-0.150
-308.895	-51.342	-0.338	0.159
-307.880	-89.645	0.185	0.055
-306.866	-47.499	-0.152	-0.074
-305.851	800.000	0.054	0.155
-304.837	-43.540	0.248	-0.126
-303.822	445.074	-0.081	0.180
-302.807	-56.298	0.163	-0.073
-301.793	590.478	-0.169	0.419
-300.778	380.345	-0.160	0.331
-299.764	-53.847	0.186	-0.085
-298.749	800.000	-0.175	-0.545
-297.735	-200.000	0.029	-0.401
-296.720	-147.342	-0.181	0.015
-295.705	-200.000	-0.013	-0.344
-294.691	-126.158	0.172	0.026
-293.676	-160.552	-0.502	-0.027
-292.662	7.685	0.167	0.126
-291.647	-130.037	0.272	0.037
-290.632	174.420	0.227	0.331
-289.618	592.580	-0.031	0.077
-288.603	800.000	-0.080	-0.249
-287.589	119.263	0.034	-0.042
-286.574	-200.000	0.004	-0.113
-285.559	-200.000	-0.005	-0.055
-284.545	-200.000	0.035	-0.200
-283.530	2.884	-0.280	0.204
-282.516	62.966	-0.026	-0.026
-281.501	-67.241	-0.086	-0.034
-280.486	-12.065	-0.043	-0.028
-279.472	-200.000	0.032	-0.312
-278.457	-200.000	-0.023	-0.212
-277.443	43.823	-0.169	-0.156
-276.428	-46.799	0.046	0.023
-275.413	-32.587	-0.226	-0.126
-274.399	800.000	0.126	-0.398
-273.384	-200.000	0.015	0.219
-272.370	288.926	0.106	0.192
-271.355	219.287	0.094	0.151
-270.340	50.363	-0.065	-0.062
-269.326	159.207	0.148	0.207
-268.311	1.704	-0.139	0.101
-267.297	544.146	0.048	0.116
-266.282	-72.070	-0.040	-0.015
-265.267	638.169	-0.217	0.555
-264.253	587.579	0.077	-0.190
-263.238	-80.237	-0.352	0.118
-262.224	1.675	0.396	0.287
-261.209	-86.590	0.200	0.062
-260.195	50.762	-0.252	0.240
-259.180	-200.000	0.022	-0.214
-258.165	388.012	-0.222	-0.461
-257.151	89.997	-0.072	0.081
-256.136	800.000	-0.019	-0.066
-255.122	-200.000	-0.012	-0.128
-254.107	-200.000	0.049	0.350
-253.092	-200.000	0.052	-0.231
-252.078	-44.471	-0.141	-0.071
-251.063	-142.799	0.241	0.024
-250.049	228.344	0.198	-0.324
-249.034	-200.000	-0.031	-0.281
-248.019	-200.000	0.061	0.281
-247.005	48.074	0.063	-0.059
-245.990	214.049	0.262	0.416
-244.976	304.967	-0.115	0.214
-243.961	438.162	0.119	-0.261
-242.946	-58.861	0.202	0.088
-241.932	-170.618	0.227	0.008
-240.917	-107.367	0.223	0.049
-239.903	-119.902	-0.161	-0.028
-238.888	-20.245	-0.130	-0.080
-237.873	-15.231	-0.252	0.162
-236.859	800.000	0.056	-0.158
-235.844	495.822	-0.119	-0.275
-234.830	-6.457	-0.101	-0.069
-233.815	800.000	0.032	-0.091
-232.800	-132.342	0.076	0.010
-231.786	291.091	0.065	-0.118
-230.771	-82.679	0.239	0.078
-229.757	52.072	-0.052	0.050
-228.742	370.401	0.063	-0.128
-227.727	-105.907	-0.182	-0.041
-226.713	-200.000	-0.046	-0.317
-225.698	7.052	-0.235	0.176
-224.684	-200.000	-0.004	-0.174
-223.669	-200.000	0.028	-0.136
-222.655	610.578	-0.033	-0.082
-221.640	17.424	0.293	-0.234
-220.625	474.306	-0.105	-0.237
-219.611	-200.000	0.025	0.154
-218.596	-133.625	0.244	0.031
-217.582	800.000	-0.031	0.087
-216.567	352.078	0.174	-0.346
-215.552	-200.000	0.030	-0.367
-214.538	-200.000	0.044	-0.212
-213.523	-128.704	0.084	-0.012
-212.509	-36.812	0.190	-0.102
-211.494	800.000	0.068	0.281
-210.479	-2.661	-0.159	0.111
-209.465	-84.088	-0.279	0.089
-208.450	60.077	-0.074	-0.073
-207.436	47.055	0.175	0.163
-206.421	-114.747	-0.140	-0.027
-205.406	259.575	0.085	-0.148
-204.392	800.000	0.047	0.169
-203.377	800.000	-0.082	0.273
-202.363	341.960	0.088	0.173
-201.348	24.727	0.139	-0.115
-200.333	-91.880	0.190	-0.054
-199.319	-121.344	-0.141	0.024
-198.304	-200.000	0.048	0.274
-197.290	800.000	-0.092	0.298
-196.275	-78.559	0.106	0.036
-195.260	-200.000	0.000	-0.052
-194.246	800.000	-0.048	0.204
-193.231	134.187	-0.083	0.107
-192.217	292.846	0.238	0.434
-191.202	800.000	-0.079	0.340
-190.187	32.555	0.101	-0.087
-189.173	460.293	-0.057	0.127
-188.158	-147.410	-0.145	0.012
-187.144	-200.000	-0.036	-0.323
-186.129	-198.358	-0.285	0.002
-185.114	107.717	0.165	-0.197
-184.100	-200.000	0.019	-0.135
-183.085	-137.023	0.353	-0.040
-182.071	-149.418	-0.237	0.019
-181.056	139.595	-0.142	0.187
-180.042	-200.000	-0.003	-0.073
-179.027	-200.000	0.054	-0.239
-178.012	67.171	0.022	-0.023
-176.998	114.458	-0.174	-0.212
-175.983	-59.453	0.424	0.182
-174.969	-200.000	0.039	0.200
-173.954	-149.752	-0.296	-0.023
-172.939	763.932	0.110	0.299
-171.925	24.714	0.395	0.328
-170.910	-75.177	0.093	0.033
-169.896	-98.869	0.107	-0.027
-168.881	-37.314	0.182	0.097
-167.866	-40.091	-0.138	-0.072
-166.852	-51.774	-0.137	0.064
-165.837	-200.000	0.044	-0.462
-164.823	-89.179	-0.112	-0.033
-163.808	-124.656	-0.133	0.021
-162.793	-22.948	0.243	0.147
-161.779	-200.000	-0.022	-0.252
-160.764	-145.093	-0.101	0.009
-159.750	-64.932	0.309	-0.125
-158.735	800.000	0.051	-0.163
-157.720	-152.832	0.477	-0.034
-156.706	-200.000	0.028	-0.161
-155.691	255.085	0.088	-0.151
-154.677	107.348	0.130	0.155
-153.662	-60.888	-0.244	-0.103
-152.647	169.351	0.117	-0.167
-151.633	800.000	-0.035	-0.101
-150.618	-200.000	-0.022	-0.374
-149.604	-130.709	-0.367	0.049
-148.589	-43.420	-0.199	-0.101
-147.574	-131.371	-0.107	0.014
-146.560	41.614	0.129	-0.117
-145.545	-200.000	0.030	0.224
-144.531	-6.044	-0.243	0.166
-143.516	-45.558	0.294	0.145
-142.502	84.347	-0.016	-0.018
-141.487	-57.719	-0.074	0.032
-140.472	-200.000	0.002	0.055
-139.458	497.846	-0.039	-0.090
-138.443	110.035	-0.138	-0.166
-137.429	89.688	-0.242	-0.270
-136.414	800.000	0.037	-0.107
-135.399	-102.110	0.316	0.076
-134.385	55.053	0.160	-0.155
-133.370	-76.143	0.334	0.118
-132.356	800.000	0.079	-0.218
-131.341	800.000	-0.030	-0.103
-130.326	-200.000	0.025	0.246
-129.312	709.510	-0.063	0.166
-128.297	191.970	0.145	0.219
-127.283	15.194	0.051	-0.040
-126.268	73.426	0.049	-0.051
-125.253	-88.693	0.260	-0.077
-124.239	-35.025	-0.137	-0.074
-123.224	54.144	0.068	0.065
-122.210	-119.567	-0.066	-0.011
