DTS Sentinel unit serial number:	SN413079Multiplexer serial number:	ORYXHardware model number:	OX4-SRSoftware version number:	ORYX F/W v4.00 Oryx Data Collector v3.7.2.0data status	okinstallation	princeton_trtdifferential loss correction	single-endedforward channel	channel 4reverse channel	N/Adate	2019/09/16time	09:13:35forward acquisition time	60.00reverse acquisition time	0.00gamma	496.2192k internal	0.2308k external	0.2308temperature offset calibration	0.9969default loss term (dB/km)	0.3790temperature slope calibration	1.0000multiplexer offset coefficient	1.0000multiplexer slope coefficient	1.0000fibre end	0.00T internal ref (°C)	31.05T ext. ref 1 (°C)	12.12T ext. ref 2 (°C)	28.39length (m)	temperature (°C)	Stokes	anti-Stokes-747.200	287.748	0.145	0.266
-746.185	-78.840	-0.339	0.117
-745.171	-7.533	0.253	-0.174
-744.156	29.921	0.102	0.088
-743.142	-40.366	-0.395	-0.209
-742.127	-129.320	-0.211	-0.030
-741.112	38.785	0.213	-0.193
-740.098	-200.000	-0.019	0.153
-739.083	-182.890	-0.205	0.004
-738.069	-137.611	0.196	-0.022
-737.054	189.361	-0.056	0.086
-736.039	-122.206	-0.659	0.110
-735.025	-109.173	0.358	0.077
-734.010	-75.457	0.262	-0.095
-732.996	417.553	-0.075	-0.163
-731.981	141.069	0.114	-0.154
-730.966	315.396	-0.073	0.140
-729.952	36.297	-0.254	0.228
-728.937	-32.802	0.102	0.057
-727.923	800.000	-0.033	-0.143
-726.908	244.045	0.115	0.196
-725.894	-200.000	0.023	0.136
-724.879	475.092	-0.073	-0.168
-723.864	-176.578	0.053	0.001
-722.850	660.522	-0.024	0.063
-721.835	73.700	-0.245	-0.260
-720.821	158.031	-0.128	0.181
-719.806	-5.551	0.177	-0.123
-718.791	-165.296	-0.440	-0.020
-717.777	240.977	0.194	-0.328
-716.762	-200.000	-0.022	-0.260
-715.748	-125.555	-0.385	0.059
-714.733	-4.019	-0.080	0.056
-713.718	38.974	-0.178	-0.161
-712.704	453.538	-0.145	-0.326
-711.689	-157.901	-0.140	-0.008
-710.675	-200.000	0.055	0.413
-709.660	-69.195	0.353	-0.138
-708.645	-106.223	-0.103	-0.023
-707.631	247.745	-0.157	0.270
-706.616	507.349	-0.035	0.082
-705.602	-200.000	-0.015	-0.215
-704.587	-24.066	0.239	-0.145
-703.572	-95.249	-0.190	0.052
-702.558	634.029	-0.065	0.166
-701.543	-200.000	-0.049	-0.268
-700.529	236.046	-0.184	0.309
-699.514	-200.000	0.044	0.273
-698.499	247.418	0.076	0.130
-697.485	-1.669	0.171	0.122
-696.470	-200.000	0.026	-0.205
-695.456	-200.000	0.019	-0.250
-694.441	-40.736	-0.261	0.137
-693.426	-148.530	0.106	0.009
-692.412	125.768	0.178	-0.228
-691.397	-98.028	-0.198	0.052
-690.383	800.000	-0.139	0.468
-689.368	-152.330	0.145	-0.011
-688.354	-107.411	0.290	0.065
-687.339	-200.000	0.003	0.273
-686.324	-33.352	-0.287	0.161
-685.310	-4.931	-0.195	0.137
-684.295	121.279	-0.151	-0.191
-683.281	27.700	-0.232	-0.198
-682.266	47.556	-0.071	0.067
-681.251	-140.000	-0.199	-0.021
-680.237	281.772	-0.182	-0.331
-679.222	-200.000	-0.032	-0.340
-678.208	-200.000	-0.005	-0.142
-677.193	-200.000	0.060	0.279
-676.178	80.850	-0.101	0.111
-675.164	4.344	0.099	0.073
-674.149	800.000	0.097	-0.299
-673.135	-200.000	-0.004	0.135
-672.120	-114.746	-0.296	0.057
-671.105	102.296	0.210	-0.249
-670.091	-189.696	0.214	-0.002
-669.076	432.944	-0.096	0.211
-668.062	149.015	-0.246	0.337
-667.047	-200.000	0.001	0.242
-666.032	-119.549	-0.342	0.060
-665.018	-129.787	0.190	0.026
-664.003	800.000	-0.040	0.121
-662.989	800.000	0.049	0.166
-661.974	180.387	0.130	0.193
-660.959	-73.500	0.126	0.046
-659.945	211.506	-0.239	0.382
-658.930	798.868	0.063	-0.176
-657.916	-97.457	0.272	-0.072
-656.901	50.585	-0.228	-0.219
-655.886	-167.537	-0.111	0.004
-654.872	146.566	0.108	-0.147
-653.857	589.260	-0.129	0.322
-652.843	-200.000	-0.057	0.269
-651.828	800.000	0.059	0.255
-650.814	-16.489	0.155	-0.100
-649.799	-200.000	-0.021	0.145
-648.784	46.962	-0.234	-0.220
-647.770	249.299	0.067	-0.114
-646.755	80.049	0.092	0.100
-645.741	-77.329	0.299	0.105
-644.726	-71.342	0.272	-0.103
-643.711	170.569	0.067	-0.098
-642.697	-115.096	-0.064	0.012
-641.682	800.000	0.047	-0.202
-640.668	116.640	0.234	-0.291
-639.653	800.000	0.078	-0.244
-638.638	-200.000	-0.003	-0.338
-637.624	270.500	-0.097	0.172
-636.609	-200.000	-0.006	-0.156
-635.595	84.555	-0.201	0.222
-634.580	-101.730	-0.038	-0.009
-633.565	-200.000	-0.001	-0.251
-632.551	376.204	0.013	0.026
-631.536	-200.000	-0.059	0.297
-630.522	-166.720	0.206	0.009
-629.507	257.140	-0.208	0.362
-628.492	-200.000	0.049	0.279
-627.478	157.684	-0.100	-0.139
-626.463	71.904	0.120	-0.126
-625.449	449.097	0.180	0.401
-624.434	24.909	0.110	-0.092
-623.419	179.902	0.019	-0.028
-622.405	800.000	-0.048	0.152
-621.390	-200.000	-0.014	-0.168
-620.376	-200.000	-0.036	-0.187
-619.361	-200.000	-0.010	-0.182
-618.346	-200.000	0.114	0.000
-617.332	-200.000	-0.016	-0.333
-616.317	86.535	0.166	-0.185
-615.303	-200.000	0.008	-0.261
-614.288	156.178	-0.054	0.075
-613.273	-200.000	0.012	-0.223
-612.259	-200.000	-0.001	0.319
-611.244	-26.295	-0.254	0.150
-610.230	137.722	-0.025	-0.033
-609.215	-80.303	0.292	-0.099
-608.201	-168.235	0.006	-0.000
-607.186	-200.000	0.001	0.091
-606.171	196.693	0.190	-0.293
-605.157	-28.648	-0.233	-0.136
-604.142	307.780	0.042	0.079
-603.128	800.000	-0.053	0.225
-602.113	-200.000	0.008	-0.219
-601.098	58.666	0.100	-0.099
-600.084	74.069	-0.197	0.209
-599.069	-96.845	0.414	0.110
-598.055	620.662	-0.034	0.087
-597.040	-200.000	-0.010	-0.117
-596.025	205.767	0.155	0.243
-595.011	-200.000	0.019	-0.263
-593.996	28.251	-0.062	0.053
-592.982	-54.719	0.313	-0.143
-591.967	190.168	0.076	0.116
-590.952	-183.506	-0.290	0.005
-589.938	-108.952	-0.256	-0.055
-588.923	306.367	-0.228	-0.428
-587.909	-200.000	-0.063	0.355
-586.894	-113.463	-0.247	0.049
-585.879	-200.000	0.050	0.322
-584.865	-65.908	0.059	-0.024
-583.850	10.332	-0.272	-0.209
-582.836	-118.784	0.147	-0.026
-581.821	800.000	0.099	-0.381
-580.806	-131.679	-0.161	0.021
-579.792	-35.679	-0.263	0.144
-578.777	219.011	0.105	-0.170
-577.763	800.000	0.068	-0.189
-576.748	139.781	-0.103	-0.137
-575.733	213.224	-0.096	0.152
-574.719	180.156	0.240	0.355
-573.704	57.402	0.265	0.262
-572.690	-27.466	-0.231	-0.136
-571.675	-55.183	0.198	0.090
-570.661	33.120	-0.198	-0.173
-569.646	-37.043	0.096	-0.052
-568.631	-200.000	-0.010	-0.141
-567.617	-200.000	0.011	0.085
-566.602	13.511	-0.207	-0.162
-565.588	-122.517	-0.291	-0.048
-564.573	800.000	-0.070	0.244
-563.558	52.687	-0.117	-0.112
-562.544	-91.553	-0.234	0.067
-561.529	693.497	0.101	0.266
-560.515	676.769	-0.156	0.410
-559.500	800.000	-0.043	-0.187
-558.485	-34.533	0.194	0.107
-557.471	-178.630	-0.104	0.002
-556.456	-66.901	-0.017	-0.007
-555.442	51.590	-0.261	-0.251
-554.427	-146.506	-0.164	0.014
-553.412	-180.714	0.218	0.004
-552.398	537.687	-0.116	-0.278
-551.383	-200.000	0.023	-0.102
-550.369	222.262	0.155	0.252
-549.354	-4.681	-0.145	0.101
-548.339	57.228	0.394	-0.388
-547.325	586.176	-0.108	-0.269
-546.310	-129.162	-0.134	0.019
-545.296	-123.299	-0.298	-0.048
-544.281	-200.000	0.034	0.187
-543.266	653.648	-0.009	-0.024
-542.252	135.387	-0.077	-0.101
-541.237	190.720	0.159	-0.241
-540.223	-86.135	-0.284	0.088
-539.208	12.744	0.280	0.218
-538.193	-56.964	-0.276	-0.123
-537.179	-200.000	0.017	0.288
-536.164	800.000	0.063	0.253
-535.150	800.000	0.065	0.215
-534.135	800.000	0.030	0.127
-533.121	-75.523	-0.564	0.202
-532.106	-200.000	-0.023	-0.371
-531.091	-110.219	0.159	0.033
-530.077	177.116	0.130	0.191
-529.062	-20.167	-0.257	-0.159
-528.048	698.637	0.069	0.182
-527.033	19.195	-0.186	0.151
-526.018	-108.502	0.062	-0.013
-525.004	-95.339	-0.042	-0.012
-523.989	-75.899	-0.320	-0.114
-522.975	17.170	-0.202	-0.161
-521.960	73.677	-0.166	-0.175
-520.945	-6.280	-0.201	-0.138
-519.931	-200.000	0.022	0.339
-518.916	187.060	0.063	0.095
-517.902	-13.614	0.239	0.156
-516.887	-40.605	-0.240	0.125
-515.872	189.198	-0.245	0.370
-514.858	-55.481	-0.082	-0.037
-513.843	800.000	0.084	0.263
-512.829	31.894	-0.134	0.116
-511.814	14.729	-0.172	0.136
-510.799	-148.870	0.121	0.010
-509.785	-57.963	0.187	-0.082
-508.770	-8.083	-0.027	0.018
-507.756	48.268	-0.220	-0.208
-506.741	800.000	-0.030	-0.089
-505.726	50.772	0.057	-0.055
-504.712	101.049	-0.160	-0.187
-503.697	114.388	-0.046	0.057
-502.683	800.000	-0.065	-0.204
-501.668	-200.000	-0.009	-0.051
-500.653	222.999	-0.325	-0.528
-499.639	-159.653	0.087	-0.005
-498.624	-49.863	-0.243	0.116
-497.610	191.149	-0.037	0.056
-496.595	55.292	0.217	-0.211
-495.581	427.938	0.078	-0.170
-494.566	458.312	-0.122	-0.272
-493.551	800.000	-0.075	-0.280
-492.537	373.670	-0.048	-0.098
-491.522	-26.763	0.391	0.230
-490.508	-200.000	-0.007	0.259
-489.493	800.000	0.033	0.134
-488.478	-49.466	-0.044	0.021
-487.464	760.907	-0.092	0.252
-486.449	37.812	0.099	-0.088
-485.435	-200.000	-0.023	-0.236
-484.420	-139.044	0.287	-0.031
-483.405	270.509	-0.161	0.284
-482.391	800.000	0.085	0.365
-481.376	17.633	-0.151	-0.121
-480.362	-57.626	-0.244	-0.107
-479.347	-45.530	0.138	0.069
-478.332	-39.067	-0.061	0.032
-477.318	-200.000	0.050	0.311
-476.303	0.411	-0.156	0.112
-475.289	-76.827	-0.170	-0.060
-474.274	-200.000	-0.092	0.549
-473.259	37.811	0.092	-0.082
-472.245	800.000	-0.090	-0.396
-471.230	-200.000	0.296	-0.001
-470.216	800.000	0.049	-0.170
-469.201	-70.710	-0.139	0.053
-468.186	-200.000	-0.074	-0.409
-467.172	800.000	0.062	-0.187
-466.157	800.000	0.084	-0.264
-465.143	-200.000	0.007	-0.162
-464.128	218.510	0.114	-0.183
-463.113	-193.919	0.190	-0.002
-462.099	800.000	-0.082	0.263
-461.084	-200.000	-0.035	0.197
-460.070	-50.507	-0.072	0.034
-459.055	-200.000	0.010	0.288
-458.040	95.491	0.095	-0.108
-457.026	-200.000	0.069	0.399
-456.011	-200.000	-0.038	-0.234
-454.997	1.338	0.038	0.027
-453.982	71.268	-0.103	0.108
-452.968	-74.813	0.315	-0.114
-451.953	62.091	0.273	0.274
-450.938	-200.000	-0.012	0.056
-449.924	-66.313	0.161	0.064
-448.909	487.649	0.106	0.243
-447.895	-12.781	0.229	-0.150
-446.880	392.720	0.112	0.235
-445.865	523.604	-0.144	0.341
-444.851	-31.777	0.251	0.141
-443.836	800.000	0.033	-0.098
-442.822	-15.850	-0.031	0.020
-441.807	-60.788	-0.061	-0.026
-440.792	-61.155	-0.067	0.028
-439.778	130.142	0.013	0.017
-438.763	-54.010	-0.246	-0.112
-437.749	235.565	0.105	0.173
-436.734	-200.000	0.038	-0.218
-435.719	205.962	-0.115	0.180
-434.705	157.019	0.225	0.313
-433.690	-200.000	0.018	-0.163
-432.676	-200.000	0.048	0.319
-431.661	800.000	0.048	0.196
-430.646	-75.447	-0.207	0.074
-429.632	-35.226	0.029	0.016
-428.617	-200.000	-0.025	0.235
-427.603	-137.398	-0.230	-0.026
-426.588	52.507	-0.265	0.254
-425.573	-200.000	0.033	0.160
-424.559	249.329	-0.079	-0.134
-423.544	401.648	-0.077	-0.163
-422.530	-200.000	0.027	-0.227
-421.515	-157.642	-0.060	0.004
-420.500	-200.000	0.016	-0.188
-419.486	99.363	0.236	0.274
-418.471	-181.617	0.261	0.005
-417.457	-48.065	-0.356	0.173
-416.442	-27.672	-0.056	-0.033
-415.428	-200.000	0.016	0.163
-414.413	-200.000	-0.081	-0.528
-413.398	440.011	0.143	-0.312
-412.384	-200.000	0.025	-0.212
-411.369	-8.774	0.042	0.028
-410.355	800.000	-0.026	-0.090
-409.340	592.268	0.172	0.427
-408.325	-104.822	0.112	0.026
-407.311	156.147	0.081	0.112
-406.296	-33.875	-0.058	0.032
-405.282	392.252	0.096	-0.200
-404.267	126.645	-0.125	-0.158
-403.252	-65.632	-0.164	0.066
-402.238	28.418	0.169	-0.144
-401.223	-133.285	0.484	-0.061
-400.209	-25.771	-0.215	0.127
-399.194	-200.000	-0.025	-0.205
-398.179	800.000	-0.071	0.232
-397.165	-200.000	-0.032	0.255
-396.150	-200.000	0.015	0.254
-395.136	800.000	0.080	0.284
-394.121	-128.991	0.066	-0.009
-393.106	93.700	-0.189	-0.214
-392.092	-13.485	0.067	0.043
-391.077	743.277	0.107	0.287
-390.063	-200.000	-0.025	0.190
-389.048	708.550	-0.018	0.049
-388.033	-93.657	-0.210	0.058
-387.019	193.286	-0.096	-0.145
-386.004	373.970	0.080	-0.162
-384.990	-200.000	-0.010	0.176
-383.975	60.818	0.325	0.323
-382.960	-200.000	0.028	-0.125
-381.946	-56.408	0.117	-0.052
-380.931	575.377	0.067	0.164
-379.917	-200.000	0.006	0.112
-378.902	191.966	-0.244	-0.369
-377.888	-167.530	-0.049	0.002
-376.873	126.334	-0.181	0.230
-375.858	70.059	0.089	0.092
-374.844	154.200	0.198	0.273
-373.829	-163.060	0.079	-0.004
-372.815	800.000	-0.033	0.097
-371.800	-121.419	-0.351	-0.059
-370.785	800.000	-0.178	-0.564
-369.771	-200.000	-0.022	-0.178
-368.756	158.329	-0.143	0.199
-367.742	-200.000	-0.030	-0.200
-366.727	167.221	-0.065	-0.093
-365.712	-21.434	-0.061	-0.037
-364.698	800.000	-0.023	0.064
-363.683	-200.000	0.048	0.371
-362.669	572.760	-0.033	0.081
-361.654	354.750	0.073	-0.145
-360.639	-6.071	0.068	-0.047
-359.625	274.943	0.166	0.294
-358.610	-127.456	-0.025	-0.004
-357.596	48.258	-0.120	0.112
-356.581	-200.000	0.033	-0.216
-355.566	229.435	-0.005	0.008
-354.552	389.968	-0.073	0.151
-353.537	-115.641	-0.204	0.038
-352.523	800.000	-0.107	0.305
-351.508	-68.237	-0.265	-0.103
-350.493	-200.000	-0.018	-0.191
-349.479	-19.775	-0.312	0.193
-348.464	-9.153	-0.104	-0.069
-347.450	126.640	0.216	-0.273
-346.435	-79.173	0.187	-0.063
-345.420	-33.075	0.132	0.073
-344.406	-200.000	0.009	-0.077
-343.391	-121.411	-0.260	-0.043
-342.377	-58.269	0.058	0.025
-341.362	-106.613	0.079	0.018
-340.348	-200.000	-0.015	-0.175
-339.333	-57.386	-0.253	-0.111
-338.318	-50.950	0.226	-0.106
-337.304	-47.036	-0.248	0.121
-336.289	-80.974	0.399	-0.132
-335.275	67.623	0.238	-0.244
-334.260	-200.000	-0.000	-0.345
-333.245	-38.796	0.161	0.085
-332.231	115.993	0.093	-0.114
-331.216	-87.200	0.072	0.022
-330.202	71.671	-0.093	0.097
-329.187	241.863	0.142	0.237
-328.172	581.008	0.090	0.220
-327.158	320.731	-0.077	-0.146
-326.143	-26.665	0.185	0.109
-325.129	-16.766	0.154	0.098
-324.114	-55.184	0.287	-0.129
-323.099	134.754	-0.110	0.143
-322.085	223.545	-0.041	-0.066
-321.070	-200.000	0.013	-0.335
-320.056	-28.757	-0.130	0.075
-319.041	800.000	-0.036	-0.128
-318.026	-24.455	0.098	-0.058
-317.012	83.717	0.120	-0.131
-315.997	34.312	0.226	0.197
-314.983	-184.569	-0.154	-0.002
-313.968	-20.805	-0.290	0.178
-312.953	132.113	-0.194	-0.249
-311.939	-149.915	-0.284	-0.022
-310.924	800.000	-0.033	0.123
-309.910	20.902	-0.157	0.127
-308.895	112.303	0.024	-0.029
-307.880	-18.708	0.153	-0.095
-306.866	100.028	-0.265	-0.306
-305.851	2.832	0.147	0.107
-304.837	-121.855	0.460	0.076
-303.822	-69.454	0.389	0.149
-302.807	-56.079	-0.117	0.052
-301.793	64.293	-0.100	-0.101
-300.778	-83.471	-0.319	0.102
-299.764	-113.844	0.413	-0.080
-298.749	-22.481	0.040	0.024
-297.735	-176.051	-0.290	-0.008
-296.720	218.075	0.211	-0.336
-295.705	-200.000	-0.019	0.194
-294.691	94.122	-0.225	-0.255
-293.676	-112.183	-0.253	0.051
-292.662	-162.925	-0.221	0.011
-291.647	-200.000	-0.018	0.446
-290.632	-2.073	0.044	0.031
-289.618	190.771	0.186	-0.279
-288.603	-200.000	-0.293	0.000
-287.589	-74.540	0.213	-0.077
-286.574	28.193	0.313	0.264
-285.559	710.715	0.063	0.167
-284.545	161.769	-0.069	0.096
-283.530	704.973	-0.083	0.219
-282.516	273.880	-0.135	0.239
-281.501	-97.205	-0.352	-0.092
-280.486	-118.904	0.425	-0.075
-279.472	66.559	0.227	0.231
-278.457	348.436	-0.173	-0.341
-277.443	1.577	-0.121	-0.087
-276.428	-200.000	-0.043	-0.233
-275.413	280.312	0.136	0.243
-274.399	-51.102	0.183	-0.086
-273.384	-65.203	0.108	-0.043
-272.370	330.592	0.076	0.147
-271.355	-36.804	-0.197	0.106
-270.340	24.538	0.081	-0.067
-269.326	-57.662	-0.106	-0.047
-268.311	-45.384	0.133	0.066
-267.297	-158.363	0.318	0.018
-266.282	-70.190	0.167	-0.063
-265.267	-200.000	0.071	0.396
-264.253	-25.968	-0.053	0.031
-263.238	-200.000	0.004	0.139
-262.224	-78.165	0.214	0.074
-261.209	-200.000	-0.019	-0.515
-260.195	-200.000	-0.006	0.236
-259.180	96.863	-0.090	0.103
-258.165	-37.418	-0.055	-0.029
-257.151	-62.764	-0.318	-0.131
-256.136	-43.575	0.533	-0.268
-255.122	8.330	0.191	-0.143
-254.107	-200.000	-0.030	0.152
-253.092	-107.178	0.213	0.047
-252.078	-141.490	0.094	-0.009
-251.063	-49.040	-0.104	0.050
-250.049	15.856	0.090	-0.071
-249.034	-92.695	-0.312	-0.087
-248.019	-200.000	-0.041	-0.186
-247.005	800.000	0.015	-0.059
-245.990	-104.398	-0.112	-0.026
-244.976	145.986	0.164	-0.220
-243.961	184.484	-0.104	0.154
-242.946	629.264	0.017	-0.044
-241.932	800.000	0.024	-0.068
-240.917	-200.000	-0.034	-0.151
-239.903	-6.722	-0.050	-0.034
-238.888	-200.000	0.004	-0.022
-237.873	-7.066	0.164	0.111
-236.859	-85.408	-0.200	0.062
-235.844	-1.312	0.075	-0.053
-234.830	442.913	0.038	0.082
-233.815	800.000	-0.029	-0.079
-232.800	-56.788	0.208	-0.092
-231.786	-21.808	-0.215	-0.130
-230.771	-67.520	0.162	0.063
-229.757	97.564	-0.140	0.161
-228.742	224.589	-0.070	-0.113
-227.727	-200.000	0.023	0.395
-226.713	-59.811	-0.213	-0.091
-225.698	-99.480	0.204	-0.051
-224.684	493.624	0.101	0.231
-223.669	-93.157	-0.030	-0.008
-222.655	138.745	-0.111	-0.145
-221.640	-200.000	-0.033	0.240
-220.625	-12.723	0.081	-0.052
-219.611	35.094	0.148	-0.130
-218.596	207.317	0.078	-0.122
-217.582	104.107	-0.031	-0.036
-216.567	-154.881	-0.217	0.014
-215.552	-200.000	-0.001	-0.383
-214.538	-196.417	0.291	0.002
-213.523	-72.134	0.215	-0.080
-212.509	295.227	-0.105	-0.191
-211.494	800.000	-0.058	0.212
-210.479	-200.000	-0.049	-0.343
-209.465	6.010	0.304	-0.224
-208.450	449.697	0.058	0.128
-207.436	188.385	0.073	0.109
-206.421	800.000	-0.047	0.163
-205.406	800.000	-0.054	-0.207
-204.392	-1.160	0.243	0.171
-203.377	-19.665	-0.110	0.067
-202.363	-56.937	0.396	0.174
-201.348	-29.935	-0.091	0.052
-200.333	-182.853	0.345	-0.006
-199.319	-62.765	-0.081	0.033
-198.304	800.000	-0.072	-0.240
-197.290	-200.000	-0.066	-0.347
-196.275	-200.000	-0.033	-0.228
-195.260	800.000	0.035	-0.133
-194.246	56.721	0.205	-0.199
-193.231	-24.596	-0.063	0.037
-192.217	-200.000	-0.086	-0.483
-191.202	-200.000	0.051	-0.463
-190.187	335.435	-0.164	0.316
-189.173	-40.036	-0.272	-0.141
-188.158	137.343	-0.133	0.173
-187.144	-77.940	-0.042	0.015
-186.129	-200.000	0.036	-0.266
-185.114	-64.348	0.068	0.027
-184.100	334.684	-0.189	0.363
-183.085	-155.155	0.123	-0.008
-182.071	-73.377	-0.207	-0.075
-181.056	282.029	-0.121	0.215
-180.042	-108.089	0.250	-0.054
-179.027	-200.000	-0.048	-0.219
-178.012	139.387	0.040	-0.052
-176.998	-200.000	-0.017	-0.169
-175.983	138.694	0.200	0.262
-174.969	-53.213	-0.249	0.114
-173.954	22.071	0.067	-0.055
-172.939	800.000	0.070	-0.223
-171.925	-200.000	-0.003	-0.166
-170.910	-37.021	-0.144	-0.077
-169.896	-87.347	0.064	-0.019
-168.881	-0.599	0.242	0.171
-167.866	27.040	0.179	0.149
-166.852	-118.478	0.068	0.012
-165.837	47.027	0.347	0.321
-164.823	-200.000	0.077	0.348
-163.808	-15.467	0.141	-0.090
-162.793	-30.718	0.194	-0.109
-161.779	800.000	-0.110	-0.427
-160.764	200.898	0.135	-0.206
-159.750	-200.000	0.008	0.125
-158.735	699.625	0.042	-0.110
-157.720	800.000	-0.061	0.245
-156.706	800.000	0.095	0.374
-155.691	139.802	-0.195	0.255
-154.677	81.448	-0.212	0.228
-153.662	-135.209	-0.582	0.069
-152.647	-2.015	0.152	0.106
-151.633	321.014	0.100	-0.190
-150.618	800.000	0.081	0.243
-149.604	-70.960	0.164	0.061
-148.589	83.907	0.286	-0.310
-147.574	-131.290	0.420	0.055
-146.560	-9.028	0.511	-0.340
-145.545	-82.258	0.007	0.002
-144.531	361.902	0.062	-0.124
-143.516	800.000	-0.072	-0.301
-142.502	-94.448	-0.132	-0.036
-141.487	45.027	0.133	-0.122
-140.472	-200.000	-0.034	-0.251
-139.458	114.469	0.118	-0.143
-138.443	-16.312	0.026	-0.016
-137.429	-200.000	-0.007	-0.174
-136.414	-200.000	0.074	-0.558
-135.399	-65.441	-0.075	0.030
-134.385	800.000	0.097	-0.347
-133.370	-134.792	-0.155	-0.019
-132.356	30.781	-0.384	0.326
-131.341	179.706	0.197	0.286
-130.326	-200.000	0.024	0.174
-129.312	-200.000	-0.011	0.322
-128.297	312.088	-0.175	-0.326
-127.283	-36.109	0.137	0.073
-126.268	21.328	-0.094	-0.076
-125.253	362.052	-0.072	-0.143
-124.239	428.907	-0.149	0.319
-123.224	255.556	-0.143	-0.243
-122.210	-14.581	-0.302	0.192
