DTS Sentinel unit serial number:	SN413079Multiplexer serial number:	ORYXHardware model number:	OX4-SRSoftware version number:	ORYX F/W v4.00 Oryx Data Collector v3.7.2.0data status	okinstallation	princeton_trtdifferential loss correction	single-endedforward channel	channel 4reverse channel	N/Adate	2019/09/15time	08:41:34forward acquisition time	60.00reverse acquisition time	0.00gamma	496.2192k internal	0.2304k external	0.2304temperature offset calibration	1.0024default loss term (dB/km)	0.3790temperature slope calibration	1.0000multiplexer offset coefficient	1.0000multiplexer slope coefficient	1.0000fibre end	0.00T internal ref (°C)	32.03T ext. ref 1 (°C)	4.98T ext. ref 2 (°C)	29.30length (m)	temperature (°C)	Stokes	anti-Stokes-747.200	-33.968	0.196	0.110
-746.185	8.639	-0.232	0.178
-745.171	96.855	0.183	-0.214
-744.156	24.214	-0.125	-0.105
-743.142	-71.927	-0.145	0.055
-742.127	-64.179	-0.151	0.063
-741.112	-56.009	-0.079	0.036
-740.098	-200.000	0.008	0.341
-739.083	415.723	0.072	0.156
-738.069	800.000	-0.021	0.080
-737.054	-51.193	0.441	-0.210
-736.039	36.463	-0.081	-0.073
-735.025	-200.000	-0.021	-0.216
-734.010	-79.728	0.089	-0.030
-732.996	202.776	-0.158	-0.248
-731.981	230.497	0.122	0.203
-730.966	-58.187	-0.293	-0.130
-729.952	247.520	-0.123	-0.211
-728.937	-128.241	0.408	0.059
-727.923	-162.245	-0.208	0.011
-726.908	-80.179	-0.104	0.035
-725.894	-200.000	-0.006	0.090
-724.879	261.180	-0.072	-0.127
-723.864	-117.003	-0.229	0.042
-722.850	-142.682	0.268	-0.027
-721.835	800.000	0.095	-0.319
-720.821	-37.474	-0.312	-0.169
-719.806	800.000	0.048	0.204
-718.791	-50.080	-0.213	0.103
-717.777	100.111	0.187	-0.220
-716.762	246.918	-0.220	-0.377
-715.748	-84.529	-0.315	-0.101
-714.733	-186.389	0.228	0.003
-713.718	432.993	-0.121	-0.267
-712.704	-200.000	-0.008	-0.323
-711.689	-35.689	0.139	-0.077
-710.675	7.807	0.174	0.132
-709.660	-200.000	-0.032	0.212
-708.645	800.000	-0.090	-0.357
-707.631	265.360	0.074	-0.132
-706.616	306.186	-0.045	0.085
-705.602	-200.000	0.015	0.295
-704.587	9.411	-0.114	0.088
-703.572	315.265	0.074	-0.142
-702.558	-18.734	0.176	-0.111
-701.543	-90.375	-0.135	-0.040
-700.529	-71.041	0.079	-0.030
-699.514	-39.197	0.069	-0.037
-698.499	-200.000	0.036	-0.295
-697.485	63.532	-0.098	-0.100
-696.470	-19.720	0.109	0.069
-695.456	100.253	0.059	0.070
-694.441	-33.664	-0.189	-0.106
-693.426	7.227	-0.439	-0.333
-692.412	101.740	0.111	0.132
-691.397	166.523	-0.213	0.307
-690.383	224.983	-0.257	0.422
-689.368	-72.461	0.210	0.079
-688.354	-46.163	-0.074	0.037
-687.339	-3.052	-0.228	0.161
-686.324	-100.727	-0.216	-0.054
-685.310	800.000	-0.060	0.260
-684.295	-108.167	-0.246	0.054
-683.281	107.929	-0.045	-0.054
-682.266	224.057	0.208	-0.341
-681.251	-42.082	-0.309	0.161
-680.237	111.386	-0.071	0.087
-679.222	-200.000	0.013	-0.345
-678.208	-48.898	-0.174	0.085
-677.193	-79.005	0.099	-0.034
-676.178	559.129	0.108	0.265
-675.164	-200.000	0.036	0.197
-674.149	-200.000	0.002	0.013
-673.135	800.000	-0.076	-0.232
-672.120	-128.718	-0.300	-0.043
-671.105	189.066	0.086	0.130
-670.091	-97.321	-0.229	-0.061
-669.076	-200.000	0.027	-0.135
-668.062	-85.428	-0.199	0.063
-667.047	-200.000	0.010	-0.367
-666.032	165.141	0.128	-0.183
-665.018	134.499	0.240	0.317
-664.003	485.928	0.053	-0.124
-662.989	137.008	-0.223	-0.296
-661.974	2.815	0.075	0.055
-660.959	493.058	0.118	-0.276
-659.945	-200.000	0.047	-0.270
-658.930	-142.071	-0.601	0.061
-657.916	99.054	-0.080	-0.094
-656.901	-200.000	0.003	0.206
-655.886	111.955	0.287	-0.352
-654.872	-200.000	0.006	-0.122
-653.857	124.845	-0.138	-0.176
-652.843	47.005	0.074	-0.070
-651.828	97.508	-0.310	-0.361
-650.814	309.100	0.111	-0.210
-649.799	-72.680	0.335	0.125
-648.784	174.679	-0.162	0.238
-647.770	239.504	0.154	-0.260
-646.755	-200.000	-0.011	-0.109
-645.741	-152.427	0.182	-0.013
-644.726	116.731	0.146	0.182
-643.711	627.862	0.012	0.032
-642.697	-117.956	0.103	-0.019
-641.682	9.449	0.067	-0.052
-640.668	-0.277	-0.341	0.246
-639.653	-65.446	0.109	0.044
-638.638	-50.472	0.029	-0.014
-637.624	-136.352	-0.259	0.031
-636.609	-200.000	-0.015	-0.136
-635.595	39.930	-0.088	-0.080
-634.580	22.377	0.257	-0.213
-633.565	-91.413	0.258	0.075
-632.551	504.081	-0.075	0.176
-631.536	494.547	-0.140	0.327
-630.522	-1.169	-0.158	0.113
-629.507	267.894	-0.026	0.047
-628.492	-45.792	-0.124	0.062
-627.478	-60.279	-0.311	-0.134
-626.463	76.499	-0.166	-0.178
-625.449	-120.816	-0.137	-0.023
-624.434	-114.572	0.128	-0.025
-623.419	-200.000	-0.052	0.417
-622.405	800.000	-0.092	-0.394
-621.390	-73.426	0.072	-0.026
-620.376	124.148	0.091	-0.115
-619.361	372.071	0.105	-0.216
-618.346	-200.000	0.009	-0.106
-617.332	437.599	-0.039	0.086
-616.317	224.879	0.166	0.271
-615.303	-59.951	-0.575	0.249
-614.288	84.540	-0.224	0.248
-613.273	152.636	-0.122	0.169
-612.259	247.112	0.069	-0.118
-611.244	-200.000	0.020	-0.154
-610.230	-23.989	-0.168	0.102
-609.215	70.189	-0.234	-0.245
-608.201	66.904	0.116	0.120
-607.186	428.008	-0.035	0.076
-606.171	211.721	0.328	-0.523
-605.157	-200.000	-0.038	-0.290
-604.142	263.370	-0.150	0.264
-603.128	-99.571	-0.330	-0.084
-602.113	273.366	-0.045	0.080
-601.098	-130.649	0.259	0.035
-600.084	420.182	0.104	-0.225
-599.069	-155.716	0.106	0.007
-598.055	437.019	0.106	0.234
-597.040	195.254	-0.281	-0.433
-596.025	739.517	-0.072	0.195
-595.011	32.885	0.129	-0.113
-593.996	-163.325	0.179	0.009
-592.982	220.898	-0.180	-0.292
-591.967	-154.665	-0.365	-0.025
-590.952	78.840	0.134	-0.145
-589.938	-173.132	-0.078	0.002
-588.923	-200.000	0.040	0.288
-587.909	-86.694	-0.171	-0.053
-586.894	-200.000	-0.006	-0.050
-585.879	-184.890	0.309	0.005
-584.865	0.313	0.106	-0.076
-583.850	394.548	-0.163	-0.344
-582.836	65.666	-0.218	0.223
-581.821	-96.965	-0.266	-0.071
-580.806	-174.983	-0.081	-0.002
-579.792	650.890	-0.153	0.395
-578.777	-78.120	0.067	0.023
-577.763	31.011	0.049	-0.043
-576.748	138.795	-0.151	-0.201
-575.733	-200.000	0.051	-0.353
-574.719	-45.524	-0.224	0.112
-573.704	-134.401	-0.416	-0.052
-572.690	800.000	-0.072	-0.209
-571.675	-200.000	0.003	-0.085
-570.661	13.052	-0.225	0.176
-569.646	99.857	0.153	0.179
-568.631	-200.000	0.003	-0.098
-567.617	-90.577	0.166	0.049
-566.602	-57.149	-0.084	-0.037
-565.588	270.055	-0.056	0.099
-564.573	-104.209	0.189	-0.044
-563.558	-28.535	0.139	-0.081
-562.544	4.972	-0.132	0.098
-561.529	173.472	0.063	0.091
-560.515	-74.984	-0.108	-0.039
-559.500	-168.491	0.213	-0.008
-558.485	-200.000	-0.042	0.218
-557.471	33.190	-0.239	0.210
-556.456	8.892	0.333	-0.254
-555.442	-22.256	0.403	0.247
-554.427	-84.218	-0.207	0.066
-553.412	76.285	0.156	-0.167
-552.398	62.421	-0.092	-0.093
-551.383	-200.000	-0.003	-0.116
-550.369	-25.610	0.268	-0.160
-549.354	16.708	0.018	-0.014
-548.339	-108.175	0.357	-0.078
-547.325	800.000	-0.070	0.260
-546.310	-76.839	0.186	0.066
-545.296	-50.509	-0.205	0.098
-544.281	-6.407	-0.162	-0.112
-543.266	-158.469	0.077	0.005
-542.252	-121.536	0.180	-0.030
-541.237	57.933	0.134	-0.132
-540.223	-90.421	-0.153	0.045
-539.208	-99.649	-0.097	-0.025
-538.193	149.103	-0.029	-0.040
-537.179	-131.930	-0.219	-0.029
-536.164	745.299	-0.083	0.226
-535.150	-96.224	0.089	-0.024
-534.135	800.000	0.133	-0.441
-533.121	-74.923	-0.292	0.106
-532.106	-200.000	-0.006	0.061
-531.091	789.476	-0.086	-0.237
-530.077	-200.000	0.004	0.255
-529.062	433.694	0.061	0.133
-528.048	-175.668	-0.509	-0.014
-527.033	77.043	-0.080	-0.086
-526.018	800.000	-0.064	-0.228
-525.004	-200.000	0.036	0.179
-523.989	526.580	-0.100	-0.239
-522.975	800.000	0.042	-0.165
-521.960	223.971	-0.016	0.027
-520.945	18.542	-0.244	0.197
-519.931	-200.000	0.051	-0.233
-518.916	-35.397	-0.132	0.072
-517.902	-43.077	0.259	-0.132
-516.887	800.000	0.020	0.060
-515.872	-200.000	-0.005	-0.120
-514.858	252.725	0.080	-0.137
-513.843	-138.488	-0.104	-0.011
-512.829	-200.000	0.043	0.294
-511.814	689.236	-0.062	-0.163
-510.799	-148.395	-0.164	0.014
-509.785	241.166	-0.175	0.295
-508.770	-181.194	0.226	-0.005
-507.756	-10.732	-0.108	-0.072
-506.741	340.165	0.103	0.202
-505.726	67.311	-0.223	-0.229
-504.712	134.086	-0.242	0.317
-503.697	483.596	-0.101	0.231
-502.683	-38.271	-0.215	-0.115
-501.668	25.795	-0.126	0.106
-500.653	-118.599	0.226	0.040
-499.639	453.931	0.069	0.154
-498.624	167.472	0.140	0.200
-497.610	415.743	0.067	0.144
-496.595	91.135	-0.134	-0.152
-495.581	-79.389	-0.093	-0.032
-494.566	-200.000	0.001	0.178
-493.551	-200.000	0.017	0.237
-492.537	-122.945	0.180	0.029
-491.522	101.043	-0.178	0.209
-490.508	-200.000	0.006	0.110
-489.493	-9.702	0.214	0.143
-488.478	-77.017	-0.098	0.034
-487.464	26.460	-0.107	0.090
-486.449	-192.625	0.281	-0.003
-485.435	164.256	0.049	0.070
-484.420	-75.355	-0.098	-0.035
-483.405	-185.876	0.282	-0.004
-482.391	-200.000	-0.035	0.480
-481.376	-62.585	0.206	0.086
-480.362	-86.330	-0.419	0.130
-479.347	-92.895	-0.409	-0.115
-478.332	32.769	0.148	-0.129
-477.318	238.645	0.067	0.113
-476.303	246.613	-0.085	-0.145
-475.289	-33.089	0.369	-0.206
-474.274	-124.178	0.056	-0.009
-473.259	124.004	0.173	-0.218
-472.245	-51.475	0.132	-0.062
-471.230	-200.000	0.043	0.343
-470.216	-99.419	0.177	0.045
-469.201	116.491	-0.187	-0.231
-468.186	-200.000	-0.002	0.177
-467.172	-200.000	-0.007	0.033
-466.157	120.931	-0.343	-0.430
-465.143	-9.234	0.156	-0.105
-464.128	-200.000	-0.074	0.339
-463.113	-200.000	-0.002	0.338
-462.099	800.000	0.100	0.340
-461.084	335.879	0.042	-0.082
-460.070	472.732	0.087	0.198
-459.055	223.746	0.097	-0.158
-458.040	-51.663	-0.203	0.096
-457.026	-67.292	0.218	-0.087
-456.011	-29.641	0.218	0.125
-454.997	-78.702	-0.310	0.107
-453.982	297.801	-0.199	0.368
-452.968	222.320	0.099	-0.161
-451.953	800.000	0.058	-0.162
-450.938	-200.000	-0.003	-0.076
-449.924	-18.426	0.059	0.037
-448.909	40.014	-0.014	-0.013
-447.895	-60.283	0.246	0.105
-446.880	17.958	0.222	0.178
-445.865	-200.000	-0.054	0.267
-444.851	-146.297	-0.174	-0.015
-443.836	187.367	0.198	-0.297
-442.822	-104.605	0.090	0.021
-441.807	610.885	-0.117	-0.294
-440.792	8.701	-0.090	0.068
-439.778	800.000	0.115	0.369
-438.763	-200.000	0.005	0.297
-437.749	-92.798	0.238	-0.067
-436.734	131.982	0.136	0.176
-435.719	-98.545	0.204	-0.052
-434.705	76.829	0.171	0.182
-433.690	189.379	0.128	-0.194
-432.676	728.739	-0.025	0.067
-431.661	152.381	0.209	-0.287
-430.646	800.000	0.025	0.106
-429.632	775.297	-0.022	-0.062
-428.617	575.050	0.016	0.039
-427.603	794.684	0.083	0.230
-426.588	208.384	0.169	-0.266
-425.573	732.348	0.015	0.041
-424.559	-200.000	0.086	-0.450
-423.544	-200.000	0.024	-0.248
-422.530	-200.000	0.105	0.529
-421.515	-200.000	-0.028	0.142
-420.500	421.677	-0.037	0.080
-419.486	800.000	-0.060	-0.168
-418.471	199.667	0.032	-0.049
-417.457	-8.148	0.294	0.199
-416.442	800.000	0.040	0.138
-415.428	330.304	0.060	0.115
-414.413	36.471	0.232	-0.206
-413.398	519.680	0.077	-0.181
-412.384	-78.800	0.251	0.086
-411.369	-108.985	-0.034	0.007
-410.355	-74.910	0.249	-0.090
-409.340	322.420	0.049	-0.095
-408.325	101.220	0.004	0.005
-407.311	121.676	-0.092	-0.115
-406.296	800.000	-0.105	-0.303
-405.282	591.446	0.052	-0.130
-404.267	-200.000	-0.019	0.155
-403.252	-65.274	0.237	-0.096
-402.238	-59.395	0.154	0.067
-401.223	-134.285	-0.004	0.001
-400.209	50.883	0.058	-0.055
-399.194	375.412	-0.113	0.231
-398.179	106.731	0.114	-0.136
-397.165	249.294	-0.148	-0.252
-396.150	-104.514	0.223	0.052
-395.136	339.526	-0.103	-0.202
-394.121	-36.631	-0.348	0.188
-393.106	-69.381	-0.262	0.101
-392.092	-38.170	-0.255	-0.136
-391.077	140.518	0.036	0.048
-390.063	243.311	0.149	0.250
-389.048	-195.482	0.148	0.001
-388.033	-28.554	0.241	0.139
-387.019	366.089	-0.072	-0.145
-386.004	-15.138	0.192	-0.123
-384.990	-85.449	0.344	-0.108
-383.975	637.528	-0.054	-0.139
-382.960	800.000	0.072	-0.261
-381.946	259.405	-0.083	-0.143
-380.931	-29.548	-0.345	0.198
-379.917	-200.000	-0.048	0.445
-378.902	-200.000	-0.009	-0.241
-377.888	800.000	0.034	0.117
-376.873	-114.037	-0.082	-0.016
-375.858	337.467	-0.137	-0.267
-374.844	800.000	0.034	0.119
-373.829	-153.209	0.096	0.007
-372.815	800.000	0.084	0.262
-371.800	-200.000	0.008	-0.217
-370.785	-49.558	0.213	-0.102
-369.771	-140.667	-0.213	-0.022
-368.756	-200.000	-0.016	-0.086
-367.742	43.590	-0.154	-0.141
-366.727	243.663	0.165	0.278
-365.712	92.166	-0.386	0.436
-364.698	44.588	-0.151	0.139
-363.683	285.157	0.088	-0.159
-362.669	468.549	0.070	0.157
-361.654	-19.771	0.240	0.149
-360.639	-200.000	0.008	-0.110
-359.625	-200.000	0.014	-0.172
-358.610	43.946	-0.053	-0.048
-357.596	-176.080	0.205	-0.005
-356.581	-9.029	0.227	0.152
-355.566	-35.325	0.151	-0.083
-354.552	-200.000	-0.036	-0.240
-353.537	-130.559	0.095	-0.013
-352.523	12.099	0.254	-0.196
-351.508	800.000	-0.069	0.302
-350.493	433.879	0.079	-0.171
-349.479	341.165	-0.169	0.332
-348.464	-20.766	0.106	0.065
-347.450	42.245	-0.262	0.238
-346.435	-17.857	0.075	0.047
-345.420	-110.840	-0.150	-0.031
-344.406	-155.302	-0.256	0.017
-343.391	54.061	0.201	-0.194
-342.377	-200.000	0.001	-0.242
-341.362	-52.775	-0.090	0.041
-340.348	-30.479	0.266	0.151
-339.333	800.000	-0.059	0.219
-338.318	0.865	0.245	0.176
-337.304	-130.052	-0.222	-0.030
-336.289	-25.448	0.139	-0.082
-335.275	-200.000	0.011	-0.090
-334.260	-99.963	0.202	-0.051
-333.245	35.528	-0.204	0.179
-332.231	800.000	0.083	0.277
-331.216	-46.013	-0.059	0.029
-330.202	-200.000	0.013	0.111
-329.187	-200.000	-0.046	-0.227
-328.172	-127.269	-0.212	0.031
-327.158	150.842	-0.131	-0.178
-326.143	341.458	-0.064	-0.125
-325.129	-136.364	-0.340	0.040
-324.114	-80.889	0.022	0.007
-323.099	-184.512	-0.269	0.004
-322.085	232.410	0.212	-0.348
-321.070	-200.000	-0.003	-0.121
-320.056	-200.000	0.005	0.226
-319.041	343.031	0.112	0.219
-318.026	51.869	-0.174	-0.166
-317.012	-137.840	-0.224	0.025
-315.997	-200.000	-0.101	-0.667
-314.983	-139.351	0.480	0.052
-313.968	-84.659	-0.150	0.047
-312.953	800.000	-0.043	0.174
-311.939	329.306	-0.074	0.143
-310.924	-74.219	-0.060	-0.022
-309.910	-113.062	-0.247	-0.049
-308.895	-167.896	0.507	0.020
-307.880	-61.604	0.390	0.164
-306.866	-188.554	-0.173	-0.002
-305.851	-11.896	-0.260	-0.171
-304.837	-51.828	0.151	-0.070
-303.822	-74.832	-0.332	0.119
-302.807	87.749	0.140	0.156
-301.793	-27.868	0.080	0.046
-300.778	-74.334	0.155	-0.056
-299.764	-52.223	-0.203	0.094
-298.749	107.353	-0.130	-0.155
-297.735	370.460	-0.110	-0.223
-296.720	-200.000	-0.013	0.193
-295.705	-79.745	0.124	-0.042
-294.691	-200.000	-0.059	-0.284
-293.676	-53.484	0.110	-0.050
-292.662	-52.535	-0.106	-0.049
-291.647	421.936	-0.027	0.058
-290.632	65.397	-0.034	0.034
-289.618	41.312	-0.275	0.249
-288.603	-7.595	-0.297	0.201
-287.589	27.576	0.104	0.088
-286.574	316.523	-0.209	-0.394
-285.559	-200.000	-0.033	-0.280
-284.545	55.953	-0.215	-0.209
-283.530	-109.755	0.235	-0.049
-282.516	46.694	0.087	0.081
-281.501	-200.000	-0.087	-0.500
-280.486	-164.846	0.207	-0.009
-279.472	-91.571	0.213	0.061
-278.457	-98.876	0.143	-0.036
-277.443	130.809	0.228	0.292
-276.428	-200.000	-0.058	-0.407
-275.413	192.706	0.063	-0.094
-274.399	37.282	0.150	0.133
-273.384	158.272	-0.113	-0.157
-272.370	-41.762	0.282	0.145
-271.355	-53.283	-0.244	0.112
-270.340	114.221	0.200	-0.243
-269.326	60.553	-0.235	-0.232
-268.311	800.000	-0.052	0.152
-267.297	597.385	0.011	0.026
-266.282	-109.965	-0.250	0.052
-265.267	-27.609	0.142	-0.082
-264.253	1.695	-0.107	-0.077
-263.238	-200.000	0.001	0.216
-262.224	-95.042	0.459	-0.124
-261.209	800.000	-0.033	-0.101
-260.195	369.785	0.037	-0.076
-259.180	-137.659	-0.170	-0.019
-258.165	-25.822	0.140	-0.083
-257.151	34.103	0.297	-0.258
-256.136	156.053	0.228	-0.314
-255.122	59.211	-0.187	-0.184
-254.107	-200.000	0.027	-0.294
-253.092	-102.979	0.066	-0.016
-252.078	-33.983	-0.365	-0.201
-251.063	133.909	0.072	0.093
-250.049	-41.897	-0.231	0.118
-249.034	274.572	-0.119	-0.210
-248.019	-42.778	0.113	-0.057
-247.005	-126.977	0.177	0.026
-245.990	-200.000	0.009	-0.088
-244.976	-17.739	0.090	-0.057
-243.961	-51.599	0.268	0.125
-242.946	46.237	-0.050	0.046
-241.932	-87.579	-0.489	0.148
-240.917	194.996	0.164	0.249
-239.903	77.542	0.192	-0.204
-238.888	800.000	0.174	-0.551
-237.873	-119.674	0.233	-0.040
-236.859	113.492	-0.181	0.219
-235.844	-127.853	-0.118	-0.017
-234.830	99.809	0.123	0.142
-233.815	800.000	0.121	0.385
-232.800	-75.438	-0.049	0.017
-231.786	351.462	0.174	0.344
-230.771	-141.725	-0.050	-0.005
-229.757	1.575	-0.220	-0.158
-228.742	-83.195	-0.243	-0.078
-227.727	-200.000	0.025	-0.350
-226.713	-44.057	-0.052	-0.026
-225.698	437.753	0.147	0.319
-224.684	-200.000	-0.008	-0.102
-223.669	-145.896	0.065	-0.006
-222.655	-167.736	-0.189	0.007
-221.640	-162.234	-0.040	-0.002
-220.625	-101.919	-0.528	-0.127
-219.611	-200.000	-0.002	-0.166
-218.596	205.915	-0.185	0.287
-217.582	-200.000	0.008	0.437
-216.567	-30.114	0.201	0.114
-215.552	154.659	-0.273	0.374
-214.538	245.165	0.110	-0.184
-213.523	282.422	0.187	0.335
-212.509	-32.073	0.108	-0.060
-211.494	139.011	0.251	-0.329
-210.479	800.000	-0.077	-0.228
-209.465	30.906	-0.155	0.132
-208.450	-63.015	-0.337	0.139
-207.436	-32.223	-0.234	0.130
-206.421	369.907	-0.096	0.193
-205.406	662.569	0.112	-0.287
-204.392	800.000	-0.035	0.097
-203.377	-200.000	-0.001	-0.073
-202.363	75.312	-0.070	-0.073
-201.348	-89.418	0.415	-0.122
-200.333	-200.000	0.065	0.378
-199.319	225.424	-0.066	-0.107
-198.304	-180.080	-0.089	-0.002
-197.290	80.350	-0.217	0.233
-196.275	83.127	-0.118	-0.128
-195.260	-200.000	-0.027	0.124
-194.246	130.207	0.147	-0.187
-193.231	-81.549	0.127	-0.042
-192.217	-57.418	0.108	-0.047
-191.202	-102.907	-0.404	-0.096
-190.187	81.114	0.230	0.247
-189.173	-200.000	0.029	-0.329
-188.158	-200.000	-0.001	0.022
-187.144	-165.817	0.493	0.021
-186.129	37.630	-0.222	0.196
-185.114	-107.826	0.189	-0.041
-184.100	-147.473	-0.335	0.028
-183.085	-200.000	-0.026	-0.304
-182.071	-200.000	-0.012	-0.217
-181.056	6.903	-0.165	0.122
-180.042	-200.000	0.013	-0.145
-179.027	-54.287	0.248	-0.112
-178.012	-200.000	-0.015	0.116
-176.998	-200.000	0.023	0.298
-175.983	42.111	0.245	0.222
-174.969	800.000	0.062	-0.193
-173.954	-161.041	-0.404	0.021
-172.939	15.311	-0.123	-0.096
-171.925	329.725	-0.109	-0.209
-170.910	-14.519	0.110	0.070
-169.896	-148.609	0.205	0.017
-168.881	-200.000	-0.046	0.281
-167.866	-63.672	-0.165	0.068
-166.852	441.425	-0.061	0.132
-165.837	-101.524	0.489	0.119
-164.823	-200.000	0.011	0.226
-163.808	141.850	-0.077	-0.101
-162.793	378.022	-0.134	0.272
-161.779	108.465	0.113	-0.134
-160.764	-16.274	-0.100	0.063
-159.750	800.000	-0.043	-0.186
-158.735	147.557	0.198	-0.265
-157.720	19.959	0.058	0.046
-156.706	-43.258	-0.130	-0.066
-155.691	710.197	-0.101	-0.267
-154.677	-200.000	-0.035	0.312
-153.662	-43.187	0.249	0.125
-152.647	-200.000	0.007	-0.139
-151.633	800.000	-0.077	-0.253
-150.618	800.000	-0.085	-0.266
-149.604	-78.221	0.142	0.049
-148.589	-34.152	-0.215	-0.118
-147.574	-63.063	0.330	-0.136
-146.560	13.451	0.192	-0.148
-145.545	800.000	0.047	-0.151
-144.531	-109.392	0.281	0.059
-143.516	-200.000	-0.025	-0.257
-142.502	-98.739	0.222	-0.056
-141.487	-115.286	0.169	-0.032
-140.472	-52.476	0.069	-0.032
-139.458	-84.137	-0.173	0.055
-138.443	-95.172	0.126	-0.034
-137.429	20.874	-0.220	-0.178
-136.414	-200.000	0.022	-0.154
-135.399	46.608	0.110	0.102
-134.385	-113.171	0.186	-0.036
-133.370	800.000	0.020	-0.060
-132.356	-26.824	-0.228	-0.132
-131.341	128.711	-0.040	-0.051
-130.326	-32.843	-0.242	-0.134
-129.312	383.797	0.074	-0.152
-128.297	800.000	-0.022	0.074
-127.283	227.656	-0.193	0.312
-126.268	800.000	0.039	0.113
-125.253	-107.967	-0.289	-0.063
-124.239	-21.123	0.246	0.150
-123.224	-58.196	0.043	0.019
-122.210	42.468	0.152	-0.138
