DTS Sentinel unit serial number:	SN413079Multiplexer serial number:	ORYXHardware model number:	OX4-SRSoftware version number:	ORYX F/W v4.00 Oryx Data Collector v3.7.2.0data status	okinstallation	princeton_trtdifferential loss correction	single-endedforward channel	channel 4reverse channel	N/Adate	2019/09/13time	10:41:35forward acquisition time	60.00reverse acquisition time	0.00gamma	496.2192k internal	0.2305k external	0.2305temperature offset calibration	1.0192default loss term (dB/km)	0.3790temperature slope calibration	1.0000multiplexer offset coefficient	1.0000multiplexer slope coefficient	1.0000fibre end	0.00T internal ref (°C)	31.44T ext. ref 1 (°C)	4.58T ext. ref 2 (°C)	28.25length (m)	temperature (°C)	Stokes	anti-Stokes-747.200	800.000	-0.035	-0.115
-746.185	-131.978	0.200	-0.027
-745.171	-141.338	-0.456	0.047
-744.156	130.568	0.223	0.291
-743.142	4.423	-0.146	0.109
-742.127	-112.920	-0.334	-0.067
-741.112	-64.826	0.170	-0.070
-740.098	-97.753	-0.114	-0.030
-739.083	48.413	0.083	-0.079
-738.069	-15.530	-0.241	-0.157
-737.054	483.838	0.101	-0.235
-736.039	800.000	-0.116	-0.481
-735.025	-84.890	0.526	0.168
-734.010	-109.972	-0.107	0.023
-732.996	-74.427	-0.162	0.059
-731.981	471.902	0.151	0.347
-730.966	-110.251	-0.210	0.044
-729.952	33.179	-0.112	-0.099
-728.937	16.634	-0.173	0.139
-727.923	-83.899	-0.228	0.074
-726.908	-18.945	-0.102	0.065
-725.894	270.083	-0.100	-0.179
-724.879	-200.000	0.005	-0.224
-723.864	-154.431	0.200	-0.014
-722.850	694.031	0.104	-0.279
-721.835	-136.448	0.182	-0.022
-720.821	-186.288	0.065	0.001
-719.806	336.389	-0.193	-0.381
-718.791	-156.272	-0.413	0.026
-717.777	387.743	-0.046	0.098
-716.762	-180.917	-0.496	-0.010
-715.748	-128.725	-0.402	-0.058
-714.733	-139.972	-0.234	0.025
-713.718	67.077	-0.058	-0.060
-712.704	-200.000	0.020	-0.213
-711.689	800.000	-0.024	-0.105
-710.675	800.000	-0.054	0.173
-709.660	-22.242	0.152	0.094
-708.645	-80.852	-0.218	-0.073
-707.631	60.029	-0.106	0.106
-706.616	-71.305	0.071	0.027
-705.602	-151.237	0.219	-0.017
-704.587	189.526	0.121	0.185
-703.572	455.537	0.005	0.012
-702.558	371.375	0.118	-0.242
-701.543	-93.062	-0.096	-0.027
-700.529	800.000	0.056	0.184
-699.514	-50.688	-0.113	0.054
-698.499	173.499	-0.077	-0.112
-697.485	-200.000	-0.008	-0.204
-696.470	-158.030	-0.098	0.006
-695.456	-19.479	-0.081	-0.051
-694.441	604.657	0.109	0.277
-693.426	349.112	0.085	-0.170
-692.412	-121.036	0.058	0.010
-691.397	-200.000	-0.025	0.167
-690.383	-200.000	0.014	-0.091
-689.368	-144.449	0.082	-0.008
-688.354	-200.000	-0.001	-0.109
-687.339	-71.815	-0.224	-0.085
-686.324	-13.606	0.298	0.196
-685.310	70.960	-0.134	-0.141
-684.295	-114.560	0.192	-0.037
-683.281	-119.037	0.222	-0.039
-682.266	-57.624	0.139	-0.062
-681.251	-200.000	-0.004	-0.064
-680.237	-200.000	0.006	-0.124
-679.222	800.000	-0.084	-0.248
-678.208	-30.036	-0.208	-0.120
-677.193	800.000	-0.017	-0.065
-676.178	-96.993	0.138	-0.037
-675.164	169.753	-0.076	-0.111
-674.149	-200.000	-0.048	0.395
-673.135	195.425	-0.151	0.233
-672.120	263.487	0.194	0.342
-671.105	-178.283	0.293	0.007
-670.091	-164.095	-0.131	-0.006
-669.076	158.924	0.174	-0.246
-668.062	317.088	-0.092	0.177
-667.047	-200.000	-0.022	-0.292
-666.032	351.422	-0.155	-0.312
-665.018	-200.000	-0.046	-0.371
-664.003	-64.059	0.265	-0.110
-662.989	-86.240	-0.324	-0.101
-661.974	-115.432	0.250	-0.048
-660.959	224.868	0.156	0.256
-659.945	519.191	-0.066	0.157
-658.930	-134.167	-0.172	-0.022
-657.916	4.309	0.327	0.243
-656.901	46.243	-0.151	0.141
-655.886	167.340	0.069	-0.100
-654.872	1.847	0.164	-0.120
-653.857	-57.771	0.335	0.149
-652.843	-37.451	-0.320	-0.173
-651.828	800.000	0.047	-0.140
-650.814	-42.882	0.489	-0.252
-649.799	37.913	0.133	0.120
-648.784	800.000	-0.025	-0.075
-647.770	-150.246	0.173	0.014
-646.755	-200.000	-0.002	-0.194
-645.741	80.293	0.050	-0.055
-644.726	-200.000	-0.006	0.039
-643.711	-162.914	0.089	0.004
-642.697	21.911	0.220	-0.182
-641.682	-54.364	-0.294	0.135
-640.668	67.135	-0.254	-0.263
-639.653	128.001	-0.170	0.219
-638.638	-170.028	-0.177	0.006
-637.624	174.079	0.109	0.160
-636.609	-119.581	-0.155	-0.027
-635.595	-200.000	-0.037	-0.253
-634.580	-200.000	-0.057	-0.260
-633.565	31.403	0.157	-0.137
-632.551	464.101	0.104	0.236
-631.536	345.224	-0.012	-0.024
-630.522	-139.036	-0.185	-0.020
-629.507	-118.964	0.182	0.032
-628.492	111.479	0.086	0.105
-627.478	38.253	0.265	0.239
-626.463	90.548	0.147	-0.167
-625.449	180.950	0.042	0.062
-624.434	-30.093	-0.277	0.160
-623.419	-200.000	-0.006	0.104
-622.405	-200.000	0.021	0.235
-621.390	-56.698	-0.329	0.148
-620.376	-105.335	0.265	0.061
-619.361	151.376	-0.065	0.089
-618.346	21.575	-0.159	-0.131
-617.332	39.891	-0.178	-0.162
-616.317	-200.000	0.007	0.128
-615.303	-4.252	-0.485	0.340
-614.288	-114.164	0.193	0.038
-613.273	800.000	-0.056	-0.207
-612.259	72.068	0.140	0.148
-611.244	43.421	-0.274	-0.253
-610.230	-158.082	-0.317	-0.019
-609.215	-130.122	-0.148	0.020
-608.201	-149.587	-0.095	0.008
-607.186	800.000	0.139	-0.405
-606.171	800.000	0.032	-0.121
-605.157	1.448	-0.048	0.035
-604.142	55.320	0.150	0.147
-603.128	-130.323	-0.144	0.020
-602.113	10.712	-0.107	-0.083
-601.098	27.555	0.095	-0.081
-600.084	32.504	-0.276	0.241
-599.069	-161.060	0.355	-0.019
-598.055	499.925	0.070	0.163
-597.040	800.000	-0.034	-0.115
-596.025	-83.358	-0.203	-0.066
-595.011	-42.865	-0.074	-0.038
-593.996	-47.086	0.295	-0.146
-592.982	111.804	0.129	-0.158
-591.967	-58.080	0.286	0.126
-590.952	-84.546	-0.230	-0.073
-589.938	800.000	-0.059	-0.175
-588.923	-200.000	-0.016	0.186
-587.909	326.842	-0.089	-0.173
-586.894	-102.170	-0.136	0.033
-585.879	-57.666	-0.308	-0.136
-584.865	406.455	0.022	-0.047
-583.850	-200.000	-0.028	0.144
-582.836	800.000	0.089	-0.294
-581.821	766.950	0.105	-0.288
-580.806	800.000	0.042	0.137
-579.792	-164.575	0.113	0.005
-578.777	-85.752	-0.294	-0.092
-577.763	84.386	0.053	-0.059
-576.748	-90.574	-0.218	-0.064
-575.733	-0.718	0.167	0.120
-574.719	338.086	-0.035	-0.070
-573.704	-111.951	0.068	0.014
-572.690	-31.556	0.134	-0.076
-571.675	88.093	-0.189	-0.212
-570.661	-68.252	0.352	-0.138
-569.646	-200.000	0.054	0.337
-568.631	-89.325	0.274	0.082
-567.617	469.033	0.107	0.244
-566.602	213.602	-0.128	0.204
-565.588	800.000	0.115	-0.344
-564.573	85.258	-0.146	-0.162
-563.558	-67.041	0.184	0.073
-562.544	-103.625	0.233	-0.055
-561.529	439.921	0.050	-0.110
-560.515	-200.000	-0.380	0.000
-559.500	-200.000	0.007	-0.269
-558.485	72.345	0.134	-0.141
-557.471	-200.000	-0.075	0.467
-556.456	-200.000	0.009	0.054
-555.442	-165.039	-0.370	0.017
-554.427	10.351	-0.085	0.065
-553.412	-200.000	-0.002	0.035
-552.398	569.154	0.041	0.100
-551.383	-135.661	-0.344	0.041
-550.369	337.893	-0.160	-0.314
-549.354	-200.000	0.068	-0.443
-548.339	206.419	-0.226	-0.355
-547.325	579.888	-0.027	-0.068
-546.310	-81.548	-0.450	0.149
-545.296	-179.244	0.053	0.001
-544.281	24.135	-0.392	-0.326
-543.266	19.207	-0.235	-0.190
-542.252	-92.195	0.340	0.097
-541.237	160.254	0.020	-0.029
-540.223	-131.688	-0.121	0.016
-539.208	-37.347	-0.189	-0.102
-538.193	117.113	0.070	-0.087
-537.179	-26.883	-0.075	-0.044
-536.164	111.432	-0.044	-0.054
-535.150	800.000	-0.062	0.188
-534.135	148.470	0.062	-0.084
-533.121	228.836	0.151	0.249
-532.106	707.610	-0.087	0.232
-531.091	-40.212	0.070	-0.037
-530.077	558.938	-0.025	-0.062
-529.062	-0.590	-0.049	-0.035
-528.048	-131.494	0.129	-0.017
-527.033	-80.792	0.160	0.054
-526.018	277.118	0.110	0.197
-525.004	-200.000	-0.024	0.169
-523.989	269.166	0.127	-0.225
-522.975	-159.318	-0.095	0.005
-521.960	-57.993	-0.445	0.196
-520.945	138.142	0.163	-0.216
-519.931	800.000	0.101	0.314
-518.916	-92.813	0.125	0.035
-517.902	342.679	-0.034	-0.067
-516.887	573.557	0.071	-0.175
-515.872	-145.529	0.103	-0.009
-514.858	-62.010	0.199	0.084
-513.843	92.028	-0.140	-0.160
-512.829	-200.000	-0.030	0.328
-511.814	-81.153	-0.370	0.123
-510.799	-175.736	0.126	-0.003
-509.785	92.749	-0.192	0.219
-508.770	-134.698	0.096	0.012
-507.756	68.314	-0.087	-0.090
-506.741	29.303	0.224	-0.192
-505.726	59.602	-0.046	0.046
-504.712	-49.581	0.134	0.064
-503.697	-56.177	-0.232	-0.104
-502.683	569.636	-0.081	0.199
-501.668	-124.396	-0.087	0.014
-500.653	-128.407	-0.147	0.021
-499.639	-200.000	0.031	0.386
-498.624	56.560	0.146	0.143
-497.610	-127.618	0.373	-0.054
-496.595	-136.551	0.385	-0.045
-495.581	-105.272	-0.388	-0.089
-494.566	140.856	-0.067	0.089
-493.551	-145.693	0.367	0.033
-492.537	11.911	0.325	0.252
-491.522	800.000	-0.121	-0.441
-490.508	800.000	-0.053	0.207
-489.493	558.971	0.048	0.118
-488.478	-37.522	-0.264	-0.142
-487.464	-46.267	0.163	-0.081
-486.449	-83.883	0.234	-0.075
-485.435	-136.976	0.291	0.034
-484.420	-95.984	-0.236	-0.063
-483.405	-170.066	-0.209	0.007
-482.391	-5.227	0.331	-0.230
-481.376	-46.348	-0.046	-0.023
-480.362	-93.177	-0.164	-0.046
-479.347	-200.000	0.049	-0.353
-478.332	614.833	-0.063	-0.158
-477.318	93.910	0.116	-0.132
-476.303	-177.522	-0.139	0.003
-475.289	-0.181	0.044	-0.031
-474.274	530.295	-0.164	-0.391
-473.259	182.950	-0.092	0.137
-472.245	-78.795	0.156	0.054
-471.230	800.000	0.023	-0.094
-470.216	274.674	-0.044	0.078
-469.201	-63.203	0.052	0.022
-468.186	-136.319	0.252	-0.030
-467.172	18.264	-0.089	-0.071
-466.157	-148.934	0.298	0.024
-465.143	161.098	-0.091	-0.129
-464.128	130.894	-0.146	-0.189
-463.113	-119.667	0.022	-0.004
-462.099	-74.446	0.076	-0.028
-461.084	-27.306	0.434	-0.255
-460.070	800.000	0.025	0.091
-459.055	-54.476	-0.124	0.056
-458.040	-49.054	-0.178	0.086
-457.026	800.000	-0.015	-0.061
-456.011	-42.749	0.088	-0.045
-454.997	-120.542	-0.280	0.048
-453.982	800.000	-0.146	-0.455
-452.968	81.082	-0.188	0.204
-451.953	-200.000	-0.003	-0.104
-450.938	-200.000	0.402	0.002
-449.924	-112.814	-0.306	0.061
-448.909	-64.877	0.243	-0.099
-447.895	40.993	-0.005	0.004
-446.880	800.000	0.066	-0.241
-445.865	-200.000	-0.071	0.371
-444.851	-200.000	-0.025	0.473
-443.836	-145.176	-0.127	0.012
-442.822	-140.111	-0.022	0.002
-441.807	191.741	0.127	-0.192
-440.792	800.000	-0.133	0.413
-439.778	18.938	-0.101	0.081
-438.763	40.082	-0.069	0.062
-437.749	318.810	0.095	0.180
-436.734	10.474	-0.049	0.038
-435.719	-46.456	0.200	-0.099
-434.705	-28.336	0.481	-0.279
-433.690	-40.545	-0.242	0.126
-432.676	800.000	0.069	-0.226
-431.661	271.223	-0.183	0.324
-430.646	391.910	0.267	0.557
-429.632	-77.960	0.271	-0.094
-428.617	-200.000	-0.005	-0.152
-427.603	-200.000	-0.017	0.323
-426.588	190.802	-0.029	-0.044
-425.573	-200.000	0.019	-0.136
-424.559	-52.651	-0.176	0.082
-423.544	253.673	-0.098	0.167
-422.530	-181.138	-0.270	0.005
-421.515	800.000	0.036	-0.140
-420.500	-200.000	-0.059	0.282
-419.486	800.000	-0.043	0.186
-418.471	800.000	0.030	0.121
-417.457	78.510	0.169	-0.181
-416.442	800.000	0.081	0.270
-415.428	86.024	0.049	0.054
-414.413	-200.000	-0.003	0.234
-413.398	262.209	-0.187	0.326
-412.384	-53.748	-0.074	-0.034
-411.369	-104.828	0.233	-0.054
-410.355	343.966	0.030	0.060
-409.340	62.643	-0.212	-0.213
-408.325	10.699	-0.359	0.275
-407.311	-11.945	0.224	0.147
-406.296	15.202	0.254	0.200
-405.282	-200.000	-0.007	0.226
-404.267	-200.000	-0.026	0.158
-403.252	562.926	0.114	0.277
-402.238	-200.000	0.009	-0.069
-401.223	160.182	-0.132	-0.185
-400.209	581.961	-0.082	0.202
-399.194	209.174	0.229	-0.360
-398.179	800.000	-0.011	-0.032
-397.165	-158.275	-0.233	0.014
-396.150	800.000	0.093	0.277
-395.136	505.040	-0.087	0.203
-394.121	9.821	-0.110	-0.084
-393.106	55.202	0.136	0.132
-392.092	-44.475	-0.196	-0.098
-391.077	48.031	0.137	0.129
-390.063	-91.276	-0.222	0.064
-389.048	-7.335	0.103	-0.070
-388.033	189.474	-0.122	-0.184
-387.019	-41.718	-0.117	-0.060
-386.004	103.686	0.101	-0.119
-384.990	-102.155	0.183	0.044
-383.975	-120.468	-0.369	-0.063
-382.960	291.710	0.046	0.085
-381.946	-89.162	0.271	-0.080
-380.931	-15.126	-0.022	-0.014
-379.917	-80.734	-0.394	-0.131
-378.902	21.282	0.116	0.095
-377.888	-105.997	0.581	0.131
-376.873	209.674	0.033	0.053
-375.858	26.272	0.135	-0.113
-374.844	-200.000	0.013	-0.189
-373.829	77.215	0.162	0.173
-372.815	89.856	-0.163	-0.183
-371.800	-200.000	-0.015	-0.071
-370.785	-200.000	0.006	-0.041
-369.771	-25.831	0.307	0.181
-368.756	-200.000	-0.032	0.327
-367.742	39.012	-0.325	0.292
-366.727	479.828	-0.050	0.114
-365.712	-145.021	0.225	-0.021
-364.698	2.367	-0.076	-0.055
-363.683	-198.476	0.170	-0.001
-362.669	22.800	0.213	-0.175
-361.654	-42.265	-0.249	0.127
-360.639	-31.094	0.048	0.027
-359.625	-153.198	0.274	0.019
-358.610	-73.047	-0.346	0.127
-357.596	-186.948	0.102	-0.001
-356.581	325.531	0.038	0.073
-355.566	110.663	0.025	-0.030
-354.552	-146.510	-0.260	0.023
-353.537	-46.446	-0.134	0.066
-352.523	-200.000	-0.007	0.326
-351.508	86.994	-0.280	0.310
-350.493	-28.443	0.160	-0.092
-349.479	-200.000	0.085	0.000
-348.464	800.000	-0.061	0.203
-347.450	-138.872	0.385	-0.042
-346.435	361.913	-0.165	0.332
-345.420	800.000	-0.081	0.242
-344.406	-95.776	0.061	0.016
-343.391	361.598	0.180	-0.361
-342.377	-101.467	-0.079	0.019
-341.362	50.891	0.168	-0.159
-340.348	112.341	-0.123	0.149
-339.333	234.388	0.063	-0.103
-338.318	219.102	-0.089	-0.143
-337.304	-75.945	0.325	-0.115
-336.289	800.000	-0.022	-0.085
-335.275	-108.815	-0.129	0.028
-334.260	44.819	0.065	-0.060
-333.245	-156.471	0.020	-0.001
-332.231	-6.726	0.254	0.173
-331.216	366.404	0.074	-0.149
-330.202	-40.311	-0.200	-0.104
-329.187	-59.745	-0.295	-0.126
-328.172	43.629	0.158	0.144
-327.158	-77.238	0.047	0.017
-326.143	-108.764	-0.188	-0.040
-325.129	-200.000	-0.034	0.190
-324.114	172.080	-0.102	-0.147
-323.099	30.845	-0.336	-0.288
-322.085	-167.202	-0.157	-0.006
-321.070	102.786	-0.031	0.037
-320.056	-157.897	-0.078	0.005
-319.041	44.029	-0.174	-0.160
-318.026	636.997	-0.020	0.050
-317.012	134.671	0.200	-0.260
-315.997	800.000	0.064	-0.201
-314.983	-86.359	0.167	-0.051
-313.968	-8.090	0.356	0.240
-312.953	-200.000	0.055	-0.328
-311.939	286.152	0.101	-0.182
-310.924	11.083	0.090	-0.069
-309.910	-120.416	-0.491	-0.084
-308.895	99.331	0.229	-0.266
-307.880	-126.089	-0.385	-0.058
-306.866	-35.226	0.308	-0.168
-305.851	257.191	-0.170	0.292
-304.837	106.808	0.153	-0.182
-303.822	391.619	-0.082	-0.171
-302.807	-200.000	0.013	-0.079
-301.793	700.041	0.022	0.059
-300.778	-183.423	-0.047	0.001
-299.764	217.878	0.061	0.097
-298.749	241.660	0.137	-0.228
-297.735	-114.525	-0.349	0.067
-296.720	363.959	-0.135	0.271
-295.705	800.000	-0.068	-0.283
-294.691	-200.000	-0.050	0.247
-293.676	59.980	-0.036	-0.036
-292.662	-187.568	-0.028	-0.000
-291.647	2.872	0.225	0.163
-290.632	-100.562	0.138	-0.034
-289.618	-133.354	0.204	-0.026
-288.603	528.143	0.045	0.105
-287.589	550.581	-0.062	-0.148
-286.574	116.339	-0.136	-0.167
-285.559	115.696	-0.325	0.397
-284.545	-68.616	-0.192	0.074
-283.530	800.000	0.010	0.032
-282.516	194.119	0.209	-0.316
-281.501	-32.429	0.165	0.092
-280.486	36.748	0.125	-0.110
-279.472	80.353	-0.241	-0.259
-278.457	-86.698	-0.252	-0.077
-277.443	316.254	-0.114	-0.215
-276.428	-76.153	-0.387	-0.137
-275.413	114.544	0.167	-0.204
-274.399	-200.000	-0.040	-0.312
-273.384	-200.000	0.032	-0.211
-272.370	-23.896	-0.129	-0.077
-271.355	-69.036	0.414	0.159
-270.340	-200.000	-0.048	0.219
-269.326	-61.891	0.094	0.039
-268.311	338.101	-0.177	0.343
-267.297	-127.756	0.171	-0.025
-266.282	318.500	0.145	-0.274
-265.267	-62.225	-0.211	0.088
-264.253	647.749	-0.133	0.340
-263.238	-200.000	-0.069	-0.371
-262.224	800.000	0.017	-0.055
-261.209	-118.799	0.174	-0.031
-260.195	-16.772	0.282	0.178
-259.180	-37.079	0.166	-0.089
-258.165	111.116	0.159	0.191
-257.151	-65.926	0.164	0.065
-256.136	151.435	-0.204	0.277
-255.122	-30.080	-0.251	-0.143
-254.107	167.398	0.203	-0.288
-253.092	-38.322	0.139	-0.074
-252.078	75.933	0.201	0.212
-251.063	41.733	0.129	-0.117
-250.049	87.823	-0.051	0.056
-249.034	-132.713	-0.143	0.018
-248.019	-44.217	-0.222	-0.111
-247.005	-57.822	-0.056	-0.024
-245.990	-69.899	0.180	-0.068
-244.976	-50.524	0.234	0.110
-243.961	-102.503	-0.376	-0.090
-242.946	374.452	0.091	-0.185
-241.932	5.239	0.216	0.159
-240.917	-84.735	0.218	0.068
-239.903	222.837	-0.241	-0.387
-238.888	303.030	0.138	0.255
-237.873	226.700	0.150	0.243
-236.859	75.743	-0.219	-0.230
-235.844	-138.388	0.148	0.016
-234.830	-200.000	-0.004	0.103
-233.815	-38.001	0.122	0.065
-232.800	-111.634	-0.351	0.071
-231.786	-93.233	-0.258	-0.071
-230.771	-52.143	-0.350	-0.162
-229.757	681.628	0.040	-0.105
-228.742	-90.930	0.297	0.085
-227.727	129.011	0.089	0.113
-226.713	140.277	-0.059	-0.078
-225.698	556.968	-0.125	-0.300
-224.684	800.000	-0.072	-0.300
-223.669	800.000	-0.116	0.355
-222.655	34.013	-0.154	-0.133
-221.640	242.064	0.144	0.241
-220.625	-54.045	0.060	-0.027
-219.611	40.065	-0.121	0.108
-218.596	-58.031	0.120	0.052
-217.582	120.135	0.156	0.193
-216.567	-143.387	0.405	-0.039
-215.552	536.538	0.165	0.391
-214.538	-69.342	0.198	-0.076
-213.523	161.036	-0.147	0.205
-212.509	155.180	-0.133	-0.183
-211.494	-157.986	-0.261	0.015
-210.479	85.568	-0.089	0.098
-209.465	800.000	-0.051	0.207
-208.450	-104.288	0.053	0.012
-207.436	5.537	-0.121	0.089
-206.421	51.792	-0.077	0.073
-205.406	15.458	0.150	-0.117
-204.392	243.952	-0.104	0.174
-203.377	518.269	-0.088	-0.205
-202.363	-200.000	-0.005	-0.132
-201.348	212.538	0.059	-0.092
-200.333	-200.000	-0.018	0.094
-199.319	-148.997	0.219	-0.018
-198.304	-200.000	-0.138	0.001
-197.290	-113.847	-0.056	0.011
-196.275	-11.621	-0.110	0.072
-195.260	212.285	-0.203	-0.319
-194.246	58.979	0.125	0.122
-193.231	-61.563	0.287	-0.120
-192.217	-62.365	0.178	0.074
-191.202	355.201	0.049	0.097
-190.187	156.291	-0.083	-0.113
-189.173	285.508	-0.055	-0.099
-188.158	-27.919	0.198	-0.114
-187.144	-118.750	-0.277	-0.049
-186.129	-124.278	0.268	0.042
-185.114	-115.934	0.137	0.025
-184.100	-144.464	-0.039	-0.004
-183.085	654.439	-0.128	-0.327
-182.071	-200.000	0.004	-0.110
-181.056	-200.000	0.037	0.206
-180.042	701.082	-0.018	0.047
-179.027	-3.415	-0.104	-0.072
-178.012	-28.440	0.178	0.102
-176.998	69.071	0.191	-0.195
-175.983	-9.537	0.275	0.183
-174.969	-48.335	-0.096	-0.046
-173.954	-115.824	-0.298	-0.055
-172.939	800.000	-0.126	0.390
-171.925	800.000	0.053	-0.221
-170.910	-200.000	-0.026	-0.133
-169.896	-143.406	-0.073	0.007
-168.881	44.755	0.097	-0.089
-167.866	-41.579	-0.135	-0.069
-166.852	800.000	0.036	0.133
-165.837	-46.225	0.171	0.084
-164.823	-37.393	0.209	-0.111
-163.808	-200.000	-0.003	-0.031
-162.793	-143.735	0.269	-0.025
-161.779	-104.449	-0.101	0.023
-160.764	-7.746	0.080	0.054
-159.750	119.181	-0.087	-0.107
-158.735	-200.000	-0.021	0.152
-157.720	292.995	-0.093	0.169
-156.706	-54.945	0.401	0.180
-155.691	117.790	0.133	0.163
-154.677	-200.000	-0.071	0.329
-153.662	97.364	0.097	0.111
-152.647	-87.823	0.458	-0.137
-151.633	97.575	-0.190	-0.218
-150.618	-22.028	-0.361	0.218
-149.604	-99.298	0.270	0.068
-148.589	800.000	-0.048	0.193
-147.574	-9.645	0.114	-0.076
-146.560	45.348	0.162	0.149
-145.545	800.000	0.019	0.079
-144.531	193.078	-0.120	0.180
-143.516	-153.176	0.226	-0.016
-142.502	-73.303	0.174	-0.063
-141.487	350.161	-0.084	-0.165
-140.472	692.685	-0.055	-0.143
-139.458	-43.957	-0.265	0.132
-138.443	247.912	-0.142	0.239
-137.429	-189.074	-0.062	-0.001
-136.414	-200.000	-0.055	-0.322
-135.399	-200.000	-0.020	-0.275
-134.385	-50.001	0.082	-0.039
-133.370	-103.717	-0.179	-0.042
-132.356	98.901	-0.151	-0.173
-131.341	-200.000	0.009	-0.236
-130.326	103.970	0.116	0.136
-129.312	-200.000	-0.009	0.050
-128.297	-200.000	0.039	0.200
-127.283	-134.860	0.204	0.024
-126.268	11.969	0.282	-0.216
-125.253	-165.504	0.147	-0.006
-124.239	-79.373	0.112	0.038
-123.224	-200.000	0.015	0.080
-122.210	18.057	-0.108	0.086
