DTS Sentinel unit serial number:	SN413079Multiplexer serial number:	ORYXHardware model number:	OX4-SRSoftware version number:	ORYX F/W v4.00 Oryx Data Collector v3.7.2.0data status	okinstallation	princeton_trtdifferential loss correction	single-endedforward channel	channel 4reverse channel	N/Adate	2019/09/18time	08:13:35forward acquisition time	60.00reverse acquisition time	0.00gamma	496.2192k internal	0.2328k external	0.2328temperature offset calibration	0.9991default loss term (dB/km)	0.3790temperature slope calibration	1.0000multiplexer offset coefficient	1.0000multiplexer slope coefficient	1.0000fibre end	0.00T internal ref (°C)	23.91T ext. ref 1 (°C)	0.22T ext. ref 2 (°C)	19.64length (m)	temperature (°C)	Stokes	anti-Stokes-747.200	17.292	0.339	-0.271
-746.185	800.000	-0.109	0.330
-745.171	-50.166	0.484	0.231
-744.156	227.434	-0.203	0.333
-743.142	-200.000	-0.035	0.359
-742.127	173.228	0.019	0.027
-741.112	507.764	-0.165	0.386
-740.098	-200.000	0.013	0.140
-739.083	800.000	-0.043	0.145
-738.069	789.563	-0.134	0.372
-737.054	-200.000	-0.011	-0.252
-736.039	-143.381	-0.320	0.031
-735.025	-200.000	0.026	0.165
-734.010	800.000	0.058	0.218
-732.996	-146.981	-0.249	-0.022
-731.981	98.881	-0.187	0.217
-730.966	800.000	0.084	-0.268
-729.952	-182.352	-0.157	-0.003
-728.937	800.000	-0.074	0.289
-727.923	77.979	-0.152	0.164
-726.908	-92.745	-0.145	0.041
-725.894	-200.000	-0.019	-0.274
-724.879	759.657	-0.093	0.255
-723.864	-120.631	-0.222	-0.038
-722.850	75.694	-0.512	-0.544
-721.835	-200.000	-0.008	0.194
-720.821	-200.000	0.005	-0.212
-719.806	-19.778	-0.148	0.092
-718.791	22.289	-0.132	-0.109
-717.777	-104.617	-0.175	-0.041
-716.762	392.483	-0.098	-0.204
-715.748	-4.791	-0.121	0.084
-714.733	800.000	0.100	-0.319
-713.718	703.905	0.113	0.300
-712.704	-16.349	-0.175	0.112
-711.689	155.974	0.107	0.149
-710.675	-87.889	0.181	-0.055
-709.660	79.005	0.070	0.076
-708.645	-76.654	-0.355	-0.125
-707.631	287.217	-0.210	0.383
-706.616	-75.201	-0.074	0.027
-705.602	-0.805	-0.145	-0.103
-704.587	-38.599	-0.290	-0.154
-703.572	68.356	0.076	0.078
-702.558	-90.803	0.319	0.092
-701.543	243.975	-0.089	-0.150
-700.529	-97.857	-0.109	-0.028
-699.514	388.829	-0.089	-0.186
-698.499	-200.000	0.015	0.143
-697.485	-200.000	-0.001	0.128
-696.470	141.421	-0.046	0.061
-695.456	-132.406	0.496	-0.064
-694.441	-23.159	0.059	-0.036
-693.426	-200.000	-0.000	0.089
-692.412	-13.986	0.181	-0.117
-691.397	-145.321	-0.065	-0.006
-690.383	-100.413	-0.177	0.044
-689.368	207.284	-0.070	0.109
-688.354	-125.913	-0.340	0.052
-687.339	48.736	0.093	-0.087
-686.324	347.330	-0.205	-0.405
-685.310	444.304	0.155	-0.341
-684.295	-164.721	0.148	-0.007
-683.281	800.000	-0.099	-0.282
-682.266	72.725	0.144	0.151
-681.251	106.027	0.168	0.200
-680.237	-0.171	-0.048	0.035
-679.222	800.000	-0.077	-0.249
-678.208	-122.366	0.092	0.015
-677.193	-200.000	-0.030	0.325
-676.178	101.882	0.158	-0.185
-675.164	800.000	0.097	-0.419
-674.149	-200.000	0.017	0.152
-673.135	182.825	0.125	-0.185
-672.120	540.472	0.114	-0.272
-671.105	-59.759	0.191	0.082
-670.091	268.574	0.056	-0.098
-669.076	40.089	0.189	-0.171
-668.062	-200.000	0.013	-0.069
-667.047	800.000	0.065	0.199
-666.032	-195.031	-0.151	0.001
-665.018	298.237	0.034	0.062
-664.003	-200.000	0.311	0.001
-662.989	131.035	-0.214	-0.276
-661.974	265.822	0.118	-0.206
-660.959	-200.000	-0.052	-0.270
-659.945	-64.623	-0.267	-0.109
-658.930	97.048	0.077	0.089
-657.916	800.000	0.064	-0.268
-656.901	-31.562	-0.084	0.048
-655.886	-93.613	0.243	-0.067
-654.872	225.363	0.114	-0.186
-653.857	81.274	0.062	0.067
-652.843	183.847	-0.090	0.133
-651.828	20.128	-0.229	0.186
-650.814	-147.455	0.289	-0.025
-649.799	-38.594	0.181	-0.096
-648.784	-79.308	-0.593	0.201
-647.770	-90.236	0.200	-0.058
-646.755	564.509	-0.082	0.199
-645.741	-24.752	-0.120	-0.072
-644.726	-200.000	0.002	0.026
-643.711	203.680	-0.064	0.099
-642.697	24.378	-0.170	0.141
-641.682	202.183	0.050	0.078
-640.668	-108.993	0.272	-0.058
-639.653	-45.499	-0.050	0.025
-638.638	-138.190	0.361	-0.040
-637.624	800.000	-0.112	-0.385
-636.609	47.574	-0.179	-0.168
-635.595	41.187	-0.137	-0.125
-634.580	230.997	-0.030	-0.049
-633.565	26.829	-0.111	-0.093
-632.551	-59.028	-0.129	0.056
-631.536	-200.000	-0.076	-0.347
-630.522	109.763	0.084	-0.100
-629.507	-17.018	0.435	-0.275
-628.492	367.164	0.109	0.222
-627.478	-117.116	-0.181	0.033
-626.463	-52.617	0.169	-0.078
-625.449	-34.015	0.206	-0.114
-624.434	-200.000	0.011	-0.334
-623.419	-78.600	0.151	0.052
-622.405	-58.407	-0.207	0.090
-621.390	-92.093	-0.278	-0.079
-620.376	-32.094	0.113	0.064
-619.361	800.000	0.083	-0.235
-618.346	-116.514	-0.306	0.057
-617.332	79.328	-0.215	-0.231
-616.317	800.000	-0.134	0.387
-615.303	3.726	0.336	-0.246
-614.288	7.498	0.119	0.089
-613.273	-9.178	-0.234	0.157
-612.259	-200.000	0.004	0.198
-611.244	533.935	-0.104	-0.247
-610.230	57.243	0.154	-0.150
-609.215	421.247	0.098	0.212
-608.201	800.000	0.043	-0.182
-607.186	186.132	0.090	0.134
-606.171	653.881	0.115	-0.296
-605.157	-62.921	-0.297	-0.123
-604.142	24.463	-0.352	0.292
-603.128	-192.326	-0.358	0.003
-602.113	-38.409	0.145	-0.077
-601.098	18.448	-0.086	0.069
-600.084	-162.743	0.208	-0.010
-599.069	-24.876	-0.038	0.023
-598.055	-39.249	-0.307	0.161
-597.040	-200.000	0.000	-0.170
-596.025	-200.000	-0.011	0.258
-595.011	-127.132	-0.084	0.012
-593.996	409.904	0.039	0.083
-592.982	800.000	0.036	0.148
-591.967	-103.666	-0.373	0.087
-590.952	-45.153	-0.215	-0.107
-589.938	800.000	0.074	0.308
-588.923	-99.628	0.169	-0.043
-587.909	291.943	-0.054	0.099
-586.894	-49.836	-0.379	0.180
-585.879	249.932	-0.061	0.104
-584.865	307.550	0.115	-0.215
-583.850	292.608	0.121	0.221
-582.836	-82.538	-0.312	-0.101
-581.821	-27.665	0.096	0.056
-580.806	-200.000	0.009	0.184
-579.792	-200.000	-0.011	0.239
-578.777	-200.000	-0.009	0.090
-577.763	-200.000	-0.006	-0.246
-576.748	-34.078	-0.078	-0.043
-575.733	77.160	0.072	0.076
-574.719	78.836	0.183	-0.196
-573.704	800.000	-0.020	0.075
-572.690	-49.224	0.194	-0.093
-571.675	75.270	-0.129	-0.136
-570.661	75.739	0.281	-0.297
-569.646	-189.930	-0.010	-0.000
-568.631	-51.320	-0.028	0.013
-567.617	252.830	-0.067	-0.115
-566.602	-200.000	-0.065	0.314
-565.588	800.000	-0.103	-0.367
-564.573	132.695	0.161	0.208
-563.558	-200.000	0.012	0.099
-562.544	-200.000	0.008	-0.142
-561.529	-200.000	-0.060	-0.262
-560.515	3.996	0.015	-0.011
-559.500	53.683	0.210	0.201
-558.485	-200.000	0.039	0.230
-557.471	-200.000	0.045	-0.297
-556.456	-200.000	-0.020	-0.241
-555.442	9.467	-0.415	0.314
-554.427	-115.462	-0.144	0.027
-553.412	-85.036	0.023	-0.007
-552.398	-120.856	-0.343	-0.058
-551.383	492.257	-0.081	-0.186
-550.369	-112.886	-0.258	0.051
-549.354	380.269	-0.079	-0.162
-548.339	21.232	-0.021	-0.017
-547.325	-165.599	0.245	-0.011
-546.310	-107.197	-0.208	-0.046
-545.296	-200.000	0.027	-0.187
-544.281	27.916	0.121	-0.102
-543.266	800.000	-0.058	0.165
-542.252	232.791	0.109	0.180
-541.237	42.162	0.031	0.028
-540.223	-200.000	0.256	-0.000
-539.208	-88.992	0.263	-0.078
-538.193	-200.000	-0.105	-0.527
-537.179	64.463	-0.110	-0.110
-536.164	315.088	0.042	-0.078
-535.150	-154.424	0.152	-0.010
-534.135	146.379	0.201	-0.270
-533.121	16.973	-0.175	0.139
-532.106	-70.584	0.022	0.008
-531.091	132.889	0.033	0.043
-530.077	164.704	-0.226	-0.318
-529.062	-126.952	0.313	-0.046
-528.048	285.322	-0.074	0.133
-527.033	-11.161	0.324	-0.214
-526.018	-200.000	-0.016	-0.219
-525.004	800.000	0.094	-0.279
-523.989	800.000	0.161	0.466
-522.975	88.238	-0.276	-0.306
-521.960	800.000	0.068	-0.209
-520.945	-18.681	0.114	-0.071
-519.931	800.000	-0.053	0.218
-518.916	-200.000	0.046	0.322
-517.902	-143.516	0.219	0.021
-516.887	613.345	-0.159	-0.397
-515.872	37.251	0.193	0.171
-514.858	227.404	-0.158	0.256
-513.843	303.860	0.154	-0.286
-512.829	61.203	-0.195	-0.193
-511.814	800.000	-0.113	0.353
-510.799	800.000	0.102	0.286
-509.785	-30.123	0.257	0.146
-508.770	85.603	0.038	0.042
-507.756	-200.000	0.014	0.099
-506.741	-36.165	-0.158	-0.085
-505.726	-200.000	0.030	0.307
-504.712	-156.434	0.272	0.017
-503.697	77.627	-0.359	0.382
-502.683	-116.041	-0.182	-0.034
-501.668	13.005	0.247	0.191
-500.653	18.512	-0.097	-0.078
-499.639	-200.000	0.018	0.369
-498.624	-44.155	0.101	0.051
-497.610	800.000	-0.068	0.197
-496.595	31.682	-0.238	0.204
-495.581	81.336	0.106	-0.114
-494.566	158.372	-0.068	-0.094
-493.551	-200.000	0.001	-0.333
-492.537	-186.505	-0.149	0.002
-491.522	94.491	0.111	-0.126
-490.508	-200.000	-0.019	-0.129
-489.493	243.862	0.167	0.279
-488.478	-131.240	0.366	0.049
-487.464	-1.616	-0.238	0.167
-486.449	800.000	0.064	-0.281
-485.435	-200.000	0.010	-0.241
-484.420	282.581	0.139	-0.248
-483.405	800.000	-0.060	0.227
-482.391	727.704	0.050	0.132
-481.376	-162.025	-0.257	-0.013
-480.362	-75.117	-0.287	0.102
-479.347	800.000	0.106	0.292
-478.332	-120.489	-0.029	0.005
-477.318	-200.000	-0.006	0.164
-476.303	-110.830	-0.235	-0.048
-475.289	-186.321	0.225	0.003
-474.274	-182.197	0.133	-0.002
-473.259	800.000	-0.075	0.268
-472.245	8.903	-0.419	0.315
-471.230	196.156	-0.184	0.279
-470.216	-58.376	0.118	-0.051
-469.201	41.919	-0.202	-0.182
-468.186	-108.295	0.290	-0.062
-467.172	-200.000	-0.032	0.195
-466.157	-48.109	0.176	0.085
-465.143	800.000	-0.015	-0.056
-464.128	111.363	0.138	0.166
-463.113	211.559	0.106	-0.166
-462.099	-119.537	0.318	0.055
-461.084	9.709	-0.012	-0.009
-460.070	-5.316	0.083	-0.057
-459.055	754.364	-0.036	-0.097
-458.040	31.254	0.078	0.067
-457.026	212.019	0.195	0.306
-456.011	-24.023	-0.210	0.125
-454.997	93.561	-0.067	-0.075
-453.982	15.818	0.156	0.123
-452.968	-75.805	-0.317	0.112
-451.953	479.228	-0.094	-0.213
-450.938	-200.000	-0.055	0.261
-449.924	-183.177	-0.239	0.004
-448.909	-146.578	-0.228	-0.020
-447.895	-128.706	-0.041	-0.006
-446.880	172.121	-0.187	0.268
-445.865	-43.701	-0.117	-0.059
-444.851	300.834	0.109	-0.200
-443.836	362.522	0.091	0.182
-442.822	-27.319	-0.087	-0.051
-441.807	800.000	0.119	-0.330
-440.792	96.382	-0.045	0.051
-439.778	-200.000	-0.015	-0.296
-438.763	69.631	-0.030	0.031
-437.749	-200.000	-0.053	-0.304
-436.734	-200.000	-0.015	-0.294
-435.719	-29.314	-0.128	-0.073
-434.705	296.773	-0.141	0.257
-433.690	96.813	0.257	-0.293
-432.676	-78.852	-0.285	-0.097
-431.661	620.998	-0.042	0.105
-430.646	203.417	0.096	-0.148
-429.632	-88.320	-0.184	-0.055
-428.617	-22.489	0.289	0.174
-427.603	-134.614	0.168	0.020
-426.588	205.214	-0.160	-0.247
-425.573	636.749	-0.199	0.503
-424.559	-102.779	-0.026	0.006
-423.544	483.414	-0.022	-0.049
-422.530	123.484	0.115	-0.144
-421.515	-64.805	0.232	-0.094
-420.500	3.924	-0.148	0.108
-419.486	-123.496	-0.058	0.009
-418.471	327.772	0.048	-0.092
-417.457	471.593	0.229	0.512
-416.442	-58.210	0.397	-0.172
-415.428	-88.156	-0.234	0.070
-414.413	800.000	-0.066	0.217
-413.398	-108.430	0.220	-0.047
-412.384	-61.178	-0.018	0.008
-411.369	-81.929	-0.118	-0.038
-410.355	113.131	0.112	-0.135
-409.340	93.530	0.143	0.161
-408.325	-119.596	0.222	-0.038
-407.311	-200.000	0.002	0.108
-406.296	-175.591	0.175	0.005
-405.282	-47.608	-0.244	-0.118
-404.267	241.876	0.093	0.155
-403.252	26.191	0.111	-0.092
-402.238	495.939	-0.184	-0.420
-401.223	-21.439	0.189	-0.115
-400.209	-101.639	-0.089	-0.022
-399.194	-149.516	-0.090	-0.007
-398.179	-37.596	0.069	-0.037
-397.165	279.409	0.074	-0.132
-396.150	-179.542	-0.295	-0.006
-395.136	-200.000	0.094	0.518
-394.121	273.250	0.036	-0.064
-393.106	-200.000	0.021	0.150
-392.092	78.371	-0.102	0.108
-391.077	-130.776	0.219	0.029
-390.063	70.050	0.045	-0.046
-389.048	37.413	0.214	0.189
-388.033	-150.915	0.067	0.005
-387.019	533.154	-0.125	-0.293
-386.004	800.000	-0.085	-0.246
-384.990	362.866	-0.098	-0.196
-383.975	196.352	0.088	-0.133
-382.960	210.766	-0.124	0.193
-381.946	140.828	-0.201	0.264
-380.931	102.947	0.164	0.191
-379.917	-173.009	0.188	0.006
-378.902	421.973	-0.082	-0.175
-377.888	5.869	0.252	0.185
-376.873	-200.000	0.016	0.329
-375.858	-2.412	-0.348	-0.243
-374.844	-18.066	-0.115	-0.071
-373.829	-104.352	0.236	-0.054
-372.815	262.284	-0.133	-0.229
-371.800	-200.000	-0.006	0.068
-370.785	-124.511	0.171	0.026
-369.771	800.000	-0.019	0.062
-368.756	-122.278	0.005	0.001
-367.742	800.000	-0.003	0.011
-366.727	154.516	-0.119	0.162
-365.712	800.000	-0.138	-0.477
-364.698	-78.194	-0.090	0.031
-363.683	-6.665	-0.133	-0.090
-362.669	398.206	-0.013	-0.027
-361.654	191.510	0.128	-0.191
-360.639	-75.384	-0.248	0.088
-359.625	-200.000	0.008	-0.073
-358.610	572.863	-0.060	0.146
-357.596	-14.093	-0.110	0.071
-356.581	-74.517	0.253	0.091
-355.566	716.250	0.057	-0.150
-354.552	-50.704	0.244	-0.114
-353.537	-200.000	-0.023	-0.192
-352.523	144.612	-0.191	0.253
-351.508	192.437	0.054	-0.081
-350.493	517.573	0.077	-0.179
-349.479	0.702	0.196	-0.139
-348.464	-200.000	-0.004	0.232
-347.450	112.726	0.032	-0.039
-346.435	-109.156	-0.114	0.024
-345.420	-4.902	-0.286	0.195
-344.406	-24.480	0.052	0.031
-343.391	261.950	0.073	0.125
-342.377	-10.055	-0.143	-0.094
-341.362	800.000	-0.062	0.244
-340.348	-128.637	-0.213	0.030
-339.333	-154.217	0.062	-0.004
-338.318	-0.084	-0.118	-0.084
-337.304	1.461	0.271	-0.194
-336.289	77.141	-0.136	-0.143
-335.275	-200.000	0.031	0.187
-334.260	217.926	0.218	0.345
-333.245	192.535	0.034	0.051
-332.231	52.764	0.070	-0.067
-331.216	197.433	0.109	0.165
-330.202	-200.000	0.015	-0.128
-329.187	800.000	0.100	-0.412
-328.172	768.293	0.052	-0.141
-327.158	-20.689	0.147	-0.089
-326.143	138.609	-0.271	-0.352
-325.129	800.000	-0.110	0.316
-324.114	-57.868	0.256	0.111
-323.099	402.222	-0.030	-0.063
-322.085	-107.118	-0.104	-0.023
-321.070	-200.000	-0.021	-0.240
-320.056	-69.934	0.130	-0.049
-319.041	-200.000	-0.013	0.272
-318.026	-46.924	0.301	-0.146
-317.012	800.000	-0.045	-0.186
-315.997	97.776	0.029	-0.033
-314.983	-200.000	-0.022	-0.369
-313.968	-119.084	0.245	-0.043
-312.953	-91.488	0.263	0.074
-311.939	-4.695	-0.193	-0.132
-310.924	153.458	0.056	-0.075
-309.910	-65.998	0.408	-0.161
-308.895	-155.167	-0.277	0.018
-307.880	-200.000	0.024	0.284
-306.866	800.000	0.028	0.089
-305.851	136.232	-0.104	0.134
-304.837	-125.162	-0.062	0.009
-303.822	106.593	-0.089	-0.105
-302.807	-200.000	-0.008	-0.129
-301.793	321.788	0.182	-0.343
-300.778	800.000	0.024	0.105
-299.764	4.341	0.339	-0.246
-298.749	-19.802	-0.267	0.163
-297.735	-67.257	0.352	-0.137
-296.720	-76.441	0.271	-0.094
-295.705	-81.161	-0.030	0.010
-294.691	614.569	0.091	0.226
-293.676	60.081	-0.221	0.217
-292.662	-78.815	-0.318	0.107
-291.647	-137.052	0.383	-0.043
-290.632	-82.027	-0.375	0.121
-289.618	-200.000	0.073	0.522
-288.603	-35.874	-0.436	-0.233
-287.589	800.000	-0.040	0.130
-286.574	-110.457	0.076	0.016
-285.559	283.558	-0.087	-0.155
-284.545	92.618	0.056	-0.062
-283.530	150.687	-0.171	-0.230
-282.516	215.689	0.132	-0.207
-281.501	-91.688	0.090	0.025
-280.486	21.590	0.234	-0.189
-279.472	235.138	-0.170	-0.277
-278.457	277.797	-0.192	-0.338
-277.443	-200.000	-0.015	0.183
-276.428	117.825	0.250	0.304
-275.413	140.415	-0.204	0.266
-274.399	-200.000	0.016	0.294
-273.384	280.562	-0.032	-0.057
-272.370	33.183	0.183	0.157
-271.355	307.523	-0.162	0.299
-270.340	77.679	0.091	-0.096
-269.326	58.442	0.151	0.146
-268.311	61.598	-0.023	-0.022
-267.297	496.055	0.017	-0.038
-266.282	254.490	0.015	0.025
-265.267	337.883	-0.075	0.144
-264.253	-172.544	-0.153	-0.005
-263.238	-57.469	-0.164	0.071
-262.224	-92.356	0.433	0.120
-261.209	35.301	0.101	-0.088
-260.195	-1.190	0.037	0.026
-259.180	-33.832	0.267	0.145
-258.165	679.788	0.047	-0.121
-257.151	-45.300	0.350	0.172
-256.136	-55.764	0.158	0.070
-255.122	128.622	-0.084	-0.105
-254.107	539.241	0.126	-0.297
-253.092	18.350	-0.234	-0.185
-252.078	800.000	0.147	-0.504
-251.063	800.000	0.063	-0.249
-250.049	4.257	0.162	-0.117
-249.034	-13.613	-0.168	-0.107
-248.019	-5.908	-0.022	-0.015
-247.005	-10.771	-0.165	-0.108
-245.990	43.074	-0.208	-0.188
-244.976	-200.000	0.001	-0.186
-243.961	60.066	-0.173	-0.169
-242.946	800.000	0.115	0.375
-241.932	41.794	-0.130	-0.116
-240.917	-41.936	-0.133	0.067
-239.903	-58.009	0.286	-0.123
-238.888	-200.000	-0.041	-0.211
-237.873	-200.000	0.005	0.190
-236.859	800.000	0.029	0.118
-235.844	-200.000	0.023	-0.264
-234.830	-30.588	-0.025	0.014
-233.815	40.396	0.183	-0.163
-232.800	-56.485	-0.193	-0.084
-231.786	59.390	0.124	0.121
-230.771	-161.745	-0.207	0.010
-229.757	300.809	-0.100	-0.183
-228.742	-105.988	0.335	-0.075
-227.727	101.964	0.190	-0.219
-226.713	800.000	-0.067	0.275
-225.698	-80.542	0.227	0.075
-224.684	-127.767	0.078	-0.011
-223.669	-16.049	0.149	0.094
-222.655	-200.000	0.001	0.283
-221.640	800.000	-0.148	0.520
-220.625	-200.000	0.041	0.217
-219.611	-136.331	0.394	0.045
-218.596	800.000	0.055	-0.191
-217.582	1.365	0.144	0.102
-216.567	88.888	0.254	-0.279
-215.552	108.666	0.140	0.165
-214.538	-27.548	-0.195	0.112
-213.523	-200.000	0.006	0.047
-212.509	115.498	-0.204	-0.247
-211.494	800.000	0.101	0.299
-210.479	-111.418	0.253	-0.051
-209.465	800.000	0.040	0.124
-208.450	167.761	0.112	0.157
-207.436	-151.252	-0.100	0.007
-206.421	475.460	-0.066	-0.147
-205.406	800.000	-0.106	0.355
-204.392	-91.428	0.318	0.090
-203.377	175.083	0.104	-0.148
-202.363	800.000	0.072	-0.199
-201.348	297.848	-0.109	0.198
-200.333	-23.487	-0.201	-0.119
-199.319	396.563	0.109	0.225
-198.304	171.603	0.042	0.060
-197.290	-27.420	0.287	0.165
-196.275	-200.000	-0.029	-0.213
-195.260	-200.000	0.011	-0.326
-194.246	26.495	0.121	0.100
-193.231	800.000	0.039	0.128
-192.217	-165.780	-0.163	-0.007
-191.202	-68.707	0.159	-0.061
-190.187	-87.769	0.100	-0.030
-189.173	-200.000	-0.021	0.124
-188.158	-80.704	-0.316	-0.104
-187.144	103.300	-0.084	-0.097
-186.129	764.857	-0.106	-0.284
-185.114	70.791	-0.045	0.046
-184.100	234.041	0.163	0.264
-183.085	-121.233	-0.315	0.052
-182.071	61.082	-0.205	-0.201
-181.056	8.364	-0.318	0.236
-180.042	-6.154	0.084	-0.057
-179.027	20.476	0.099	-0.079
-178.012	46.392	0.323	-0.295
-176.998	742.228	-0.124	0.328
-175.983	146.845	0.165	-0.219
-174.969	800.000	-0.066	0.220
-173.954	-152.950	0.478	0.033
-172.939	-150.584	-0.204	0.015
-171.925	-88.945	-0.503	-0.147
-170.910	-91.995	-0.069	-0.019
-169.896	455.172	0.133	-0.290
-168.881	800.000	-0.071	0.299
-167.866	-37.089	-0.222	0.117
-166.852	-200.000	0.018	-0.358
-165.837	390.014	0.101	-0.206
-164.823	16.219	0.121	0.094
-163.808	-74.709	-0.469	0.166
-162.793	-26.453	-0.142	-0.082
-161.779	-134.942	-0.434	0.052
-160.764	-200.000	-0.056	0.272
-159.750	-200.000	0.016	0.089
-158.735	37.220	-0.186	0.163
-157.720	-128.231	0.031	-0.004
-156.706	4.682	-0.183	0.132
-155.691	102.585	-0.201	0.232
-154.677	800.000	-0.038	0.160
-153.662	-200.000	0.013	-0.060
-152.647	537.216	0.106	0.249
-151.633	484.147	0.169	0.378
-150.618	310.715	0.039	-0.073
-149.604	18.567	0.077	0.061
-148.589	13.982	-0.127	-0.097
-147.574	691.458	0.058	0.149
-146.560	-200.000	0.045	-0.316
-145.545	800.000	-0.083	0.264
-144.531	-200.000	-0.035	-0.473
-143.516	88.051	0.041	-0.045
-142.502	-166.704	-0.232	0.009
-141.487	-200.000	-0.109	-0.518
-140.472	800.000	-0.049	-0.146
-139.458	-105.841	-0.476	-0.106
-138.443	800.000	0.027	-0.111
-137.429	8.705	-0.407	-0.301
-136.414	-50.919	0.096	0.044
-135.399	-90.853	0.083	0.023
-134.385	-200.000	0.045	0.209
-133.370	-200.000	-0.040	0.234
-132.356	800.000	-0.112	0.428
-131.341	-93.510	-0.345	0.094
-130.326	88.892	0.156	0.171
-129.312	800.000	-0.014	0.038
-128.297	719.288	0.077	0.202
-127.283	29.199	0.435	-0.363
-126.268	3.924	-0.182	0.131
-125.253	-35.584	0.231	-0.123
-124.239	-106.709	0.037	-0.008
-123.224	261.998	0.179	0.304
-122.210	66.465	-0.215	0.214
-121.195	-101.602	0.217	0.052
-120.180	256.195	-0.164	-0.278
