DTS Sentinel unit serial number:	SN413079Multiplexer serial number:	ORYXHardware model number:	OX4-SRSoftware version number:	ORYX F/W v4.00 Oryx Data Collector v3.7.2.0data status	okinstallation	princeton_trtdifferential loss correction	single-endedforward channel	channel 4reverse channel	N/Adate	2019/09/17time	12:29:35forward acquisition time	60.00reverse acquisition time	0.00gamma	496.2192k internal	0.2303k external	0.2303temperature offset calibration	0.9990default loss term (dB/km)	0.3790temperature slope calibration	1.0000multiplexer offset coefficient	1.0000multiplexer slope coefficient	1.0000fibre end	0.00T internal ref (°C)	31.91T ext. ref 1 (°C)	0.43T ext. ref 2 (°C)	29.15length (m)	temperature (°C)	Stokes	anti-Stokes-747.200	-138.671	0.069	0.008
-746.185	-35.398	-0.220	0.122
-745.171	-4.474	-0.186	0.131
-744.156	-200.000	-0.024	0.129
-743.142	800.000	0.076	0.260
-742.127	-200.000	-0.046	0.422
-741.112	504.342	-0.075	-0.176
-740.098	269.341	-0.085	0.152
-739.083	20.485	-0.131	0.108
-738.069	-57.068	-0.203	0.091
-737.054	78.438	0.023	0.025
-736.039	-167.649	-0.449	-0.018
-735.025	225.244	0.052	0.085
-734.010	-39.048	-0.247	-0.132
-732.996	-200.000	0.016	-0.278
-731.981	-35.852	0.125	0.069
-730.966	264.993	0.043	-0.076
-729.952	-62.593	-0.224	-0.095
-728.937	800.000	0.044	-0.168
-727.923	23.094	-0.140	-0.117
-726.908	169.082	-0.215	-0.313
-725.894	69.002	-0.199	-0.208
-724.879	69.659	-0.254	-0.266
-723.864	191.429	-0.091	-0.139
-722.850	-200.000	0.021	0.375
-721.835	-47.998	-0.011	-0.005
-720.821	103.438	-0.287	-0.343
-719.806	192.389	-0.054	0.082
-718.791	800.000	-0.058	0.253
-717.777	-117.488	0.086	-0.016
-716.762	800.000	-0.063	0.199
-715.748	146.183	0.073	0.100
-714.733	611.195	0.167	-0.423
-713.718	-152.304	-0.144	0.011
-712.704	-140.364	0.092	0.010
-711.689	-32.931	0.193	-0.109
-710.675	647.584	0.160	-0.415
-709.660	285.555	-0.086	-0.158
-708.645	-97.073	0.203	-0.054
-707.631	88.274	-0.156	-0.176
-706.616	243.425	0.035	-0.060
-705.602	-200.000	-0.009	-0.363
-704.587	-145.878	0.267	-0.024
-703.572	176.069	-0.148	0.218
-702.558	665.824	-0.065	-0.171
-701.543	-65.230	0.316	0.130
-700.529	196.856	-0.144	0.223
-699.514	-60.234	0.211	0.091
-698.499	-124.744	-0.122	0.019
-697.485	55.990	0.146	-0.144
-696.470	-126.180	-0.289	0.044
-695.456	1.390	-0.086	-0.063
-694.441	-165.917	0.384	-0.017
-693.426	-111.242	0.075	0.015
-692.412	-12.864	0.075	0.050
-691.397	121.016	0.245	-0.309
-690.383	20.281	0.089	0.073
-689.368	-54.917	0.339	-0.156
-688.354	-36.512	-0.042	0.023
-687.339	5.574	0.016	-0.012
-686.324	800.000	0.127	0.455
-685.310	53.805	-0.146	0.143
-684.295	-200.000	-0.049	-0.363
-683.281	-200.000	0.006	0.171
-682.266	-76.161	-0.137	-0.049
-681.251	-200.000	-0.048	0.308
-680.237	35.030	0.276	-0.245
-679.222	-200.000	-0.039	-0.183
-678.208	800.000	-0.058	-0.234
-677.193	27.565	0.180	0.154
-676.178	-57.840	0.191	0.085
-675.164	-79.764	0.214	-0.073
-674.149	149.361	0.199	0.273
-673.135	411.808	-0.094	0.203
-672.120	126.280	-0.095	-0.122
-671.105	50.335	-0.069	0.066
-670.091	-99.126	-0.299	0.077
-669.076	274.281	0.018	-0.032
-668.062	-21.192	0.183	-0.114
-667.047	28.853	0.093	0.080
-666.032	-200.000	-0.011	-0.139
-665.018	-169.573	-0.335	0.012
-664.003	351.089	0.025	0.050
-662.989	-35.820	-0.094	0.052
-661.974	-200.000	0.045	-0.232
-660.959	97.951	0.155	-0.181
-659.945	75.980	-0.151	-0.162
-658.930	-200.000	0.026	-0.227
-657.916	-172.644	-0.358	0.011
-656.901	343.156	0.003	0.006
-655.886	-160.431	-0.376	0.020
-654.872	73.671	-0.230	-0.245
-653.857	-74.262	0.258	0.095
-652.843	-28.937	0.116	0.068
-651.828	2.832	-0.185	-0.136
-650.814	800.000	-0.035	-0.134
-649.799	-1.810	-0.263	-0.188
-648.784	221.222	-0.056	0.091
-647.770	535.362	0.027	-0.066
-646.755	4.304	0.071	0.053
-645.741	-200.000	0.010	-0.066
-644.726	-200.000	0.003	-0.073
-643.711	-43.329	-0.150	0.077
-642.697	-200.000	0.004	0.277
-641.682	370.901	-0.072	0.148
-640.668	-38.080	0.163	0.088
-639.653	-6.175	-0.085	0.059
-638.638	800.000	0.037	-0.149
-637.624	-200.000	-0.012	-0.408
-636.609	-75.700	0.068	-0.024
-635.595	800.000	0.041	0.178
-634.580	44.836	-0.059	-0.055
-633.565	-200.000	-0.014	-0.071
-632.551	-200.000	-0.028	-0.279
-631.536	800.000	-0.097	0.294
-630.522	800.000	0.092	0.313
-629.507	630.300	0.066	-0.170
-628.492	-61.810	0.337	0.143
-627.478	-80.484	-0.356	0.121
-626.463	161.950	-0.063	0.090
-625.449	-108.295	-0.064	0.014
-624.434	-170.310	0.177	-0.006
-623.419	447.605	0.065	-0.145
-622.405	-34.512	-0.292	0.162
-621.390	635.379	0.040	0.102
-620.376	-65.278	-0.118	-0.048
-619.361	142.891	0.124	0.167
-618.346	-129.262	0.317	0.045
-617.332	-155.445	-0.057	0.004
-616.317	667.502	0.056	-0.146
-615.303	609.687	-0.121	0.306
-614.288	800.000	0.045	-0.161
-613.273	800.000	0.033	0.099
-612.259	8.593	0.157	0.119
-611.244	800.000	0.066	-0.266
-610.230	-77.560	0.154	0.054
-609.215	-200.000	0.040	0.268
-608.201	-109.968	0.275	0.058
-607.186	754.174	0.190	-0.520
-606.171	287.409	0.009	0.017
-605.157	-109.834	0.279	-0.059
-604.142	70.955	0.299	0.314
-603.128	-114.072	-0.054	-0.011
-602.113	-84.974	-0.178	-0.057
-601.098	-56.931	-0.408	-0.182
-600.084	95.617	0.234	-0.271
-599.069	511.798	-0.131	-0.308
-598.055	-81.821	-0.263	-0.087
-597.040	-21.451	0.298	0.184
-596.025	116.301	0.047	-0.058
-595.011	47.486	0.151	0.143
-593.996	10.973	-0.150	-0.116
-592.982	548.184	-0.170	-0.412
-591.967	84.410	-0.148	0.164
-590.952	191.935	-0.041	-0.063
-589.938	170.377	0.039	-0.056
-588.923	-129.123	0.363	0.051
-587.909	680.268	-0.082	0.216
-586.894	800.000	0.073	0.232
-585.879	-200.000	-0.081	0.507
-584.865	-55.223	-0.196	-0.089
-583.850	224.214	0.016	0.025
-582.836	36.460	-0.070	0.063
-581.821	-148.397	-0.088	0.007
-580.806	-200.000	-0.011	0.309
-579.792	-135.020	-0.152	0.019
-578.777	-200.000	-0.001	0.011
-577.763	98.481	-0.227	0.264
-576.748	41.592	0.394	0.361
-575.733	-96.636	-0.143	-0.038
-574.719	-9.266	0.108	0.073
-573.704	102.759	-0.109	-0.129
-572.690	-161.607	-0.286	0.015
-571.675	-112.733	-0.128	0.026
-570.661	45.870	0.130	-0.122
-569.646	327.437	-0.091	0.176
-568.631	84.759	0.252	-0.280
-567.617	-50.317	0.253	0.121
-566.602	-36.304	0.381	0.208
-565.588	97.304	0.175	0.203
-564.573	-107.250	0.051	0.011
-563.558	-6.100	-0.120	-0.083
-562.544	127.796	0.065	-0.084
-561.529	298.844	-0.162	-0.301
-560.515	77.914	-0.419	-0.451
-559.500	83.534	-0.151	-0.167
-558.485	10.128	-0.109	-0.084
-557.471	-200.000	-0.000	0.031
-556.456	-30.463	0.127	0.073
-555.442	-200.000	0.011	-0.180
-554.427	-88.760	0.227	-0.068
-553.412	-39.909	-0.278	0.147
-552.398	800.000	-0.024	-0.066
-551.383	-151.536	0.142	-0.011
-550.369	-173.560	-0.079	0.002
-549.354	800.000	-0.104	0.312
-548.339	121.532	0.116	-0.146
-547.325	-117.433	-0.090	0.016
-546.310	-43.280	-0.231	0.118
-545.296	-200.000	0.011	-0.296
-544.281	-104.669	-0.338	0.079
-543.266	-200.000	-0.008	0.108
-542.252	-31.071	0.279	-0.159
-541.237	-140.986	0.290	0.030
-540.223	-200.000	0.011	0.286
-539.208	-5.572	-0.164	0.114
-538.193	-200.000	0.001	0.201
-537.179	800.000	-0.044	0.176
-536.164	-200.000	-0.010	0.083
-535.150	-63.811	0.232	-0.096
-534.135	800.000	0.015	-0.063
-533.121	268.217	0.282	-0.498
-532.106	-41.363	0.174	-0.090
-531.091	-200.000	-0.014	0.118
-530.077	387.454	0.045	0.093
-529.062	-38.584	0.144	0.077
-528.048	800.000	0.104	-0.337
-527.033	314.484	-0.064	0.123
-526.018	81.027	-0.051	-0.056
-525.004	306.445	-0.071	0.133
-523.989	-68.180	0.167	0.066
-522.975	72.310	-0.012	-0.013
-521.960	-58.162	-0.142	-0.062
-520.945	-200.000	-0.016	0.184
-519.931	1.314	0.120	0.087
-518.916	-200.000	0.010	-0.191
-517.902	26.871	-0.131	-0.111
-516.887	772.615	0.165	-0.454
-515.872	-143.710	-0.173	-0.017
-514.858	-200.000	-0.070	-0.325
-513.843	328.871	-0.067	0.130
-512.829	25.153	0.201	0.168
-511.814	-42.020	0.181	0.094
-510.799	81.140	0.115	-0.125
-509.785	800.000	-0.048	0.205
-508.770	98.814	-0.304	-0.354
-507.756	75.873	-0.054	-0.057
-506.741	24.993	-0.130	-0.109
-505.726	163.956	0.058	-0.082
-504.712	26.650	0.234	0.198
-503.697	39.236	-0.299	0.270
-502.683	-200.000	0.104	-0.494
-501.668	109.572	-0.024	-0.029
-500.653	177.693	0.029	0.043
-499.639	800.000	-0.053	0.155
-498.624	-32.673	0.407	0.229
-497.610	-63.962	-0.188	0.078
-496.595	140.354	-0.357	0.475
-495.581	-91.379	-0.199	-0.058
-494.566	-61.471	-0.354	0.150
-493.551	-200.000	0.040	0.196
-492.537	-116.393	0.139	-0.026
-491.522	-200.000	0.009	-0.084
-490.508	207.352	-0.135	0.213
-489.493	-82.402	-0.123	-0.040
-488.478	-150.251	-0.265	0.021
-487.464	-39.483	-0.343	0.181
-486.449	232.414	-0.094	0.155
-485.435	38.412	0.279	0.251
-484.420	60.137	-0.163	0.163
-483.405	-149.014	0.342	0.028
-482.391	-67.489	0.050	-0.020
-481.376	656.227	0.101	0.263
-480.362	-200.000	0.011	0.154
-479.347	79.014	0.377	0.407
-478.332	-200.000	0.035	0.397
-477.318	243.986	0.063	0.106
-476.303	20.779	-0.134	-0.110
-475.289	-6.360	-0.178	0.122
-474.274	-200.000	0.015	0.200
-473.259	611.968	-0.045	0.114
-472.245	666.742	-0.090	-0.234
-471.230	498.966	0.066	-0.153
-470.216	-105.475	0.241	0.055
-469.201	800.000	-0.044	0.185
-468.186	-200.000	0.021	0.203
-467.172	-200.000	0.012	0.077
-466.157	20.117	-0.154	-0.125
-465.143	43.063	-0.230	0.211
-464.128	355.199	0.104	-0.209
-463.113	12.598	-0.247	-0.192
-462.099	-200.000	0.009	0.229
-461.084	27.016	-0.168	0.142
-460.070	-107.411	0.087	0.019
-459.055	-52.651	0.242	-0.112
-458.040	800.000	-0.059	0.164
-457.026	-200.000	0.009	0.064
-456.011	-139.307	0.172	-0.019
-454.997	-105.216	0.279	-0.064
-453.982	9.346	0.121	-0.092
-452.968	705.705	0.074	-0.196
-451.953	-189.703	0.302	-0.003
-450.938	130.157	-0.160	0.207
-449.924	-16.680	0.111	0.071
-448.909	-134.448	-0.118	0.015
-447.895	800.000	0.044	0.153
-446.880	487.169	-0.172	-0.394
-445.865	-170.571	0.214	-0.007
-444.851	-105.429	0.120	-0.028
-443.836	-130.429	-0.241	0.033
-442.822	800.000	0.035	0.149
-441.807	800.000	0.116	-0.352
-440.792	213.448	0.044	0.069
-439.778	-111.114	-0.266	-0.055
-438.763	-200.000	-0.007	-0.079
-437.749	187.186	0.053	0.079
-436.734	27.808	-0.077	0.065
-435.719	-72.084	-0.249	0.093
-434.705	800.000	-0.096	0.282
-433.690	366.779	0.043	-0.087
-432.676	-63.961	0.145	0.059
-431.661	-160.126	0.218	-0.012
-430.646	-200.000	0.033	0.169
-429.632	-18.337	-0.139	0.088
-428.617	-200.000	0.055	-0.324
-427.603	-34.320	-0.060	-0.033
-426.588	-125.974	0.311	0.047
-425.573	-105.533	-0.234	-0.053
-424.559	-200.000	-0.081	-0.364
-423.544	-9.109	0.179	-0.121
-422.530	-200.000	-0.001	-0.179
-421.515	-200.000	0.018	0.361
-420.500	800.000	-0.079	0.253
-419.486	800.000	0.023	-0.094
-418.471	-121.957	0.201	-0.033
-417.457	163.760	-0.033	-0.046
-416.442	-173.014	-0.196	0.006
-415.428	-123.058	-0.101	-0.016
-414.413	353.372	0.053	-0.105
-413.398	-73.849	-0.240	-0.088
-412.384	-103.144	0.470	0.112
-411.369	253.410	-0.092	-0.158
-410.355	248.060	0.028	0.047
-409.340	-107.533	-0.241	0.053
-408.325	240.002	-0.162	-0.271
-407.311	178.947	0.265	-0.389
-406.296	800.000	0.089	-0.272
-405.282	204.369	-0.169	-0.263
-404.267	-157.315	0.176	-0.011
-403.252	-200.000	-0.019	0.147
-402.238	788.167	-0.048	0.132
-401.223	-105.385	0.130	0.030
-400.209	49.667	0.132	-0.125
-399.194	-142.362	-0.230	-0.023
-398.179	-200.000	-0.026	-0.182
-397.165	-200.000	0.026	0.120
-396.150	-73.615	-0.151	0.055
-395.136	-164.392	0.208	-0.010
-394.121	137.256	0.106	0.140
-393.106	123.942	-0.132	-0.167
-392.092	83.831	0.140	-0.153
-391.077	-52.654	-0.247	-0.115
-390.063	329.575	0.071	0.137
-389.048	193.569	-0.185	-0.281
-388.033	-200.000	0.027	0.194
-387.019	-200.000	0.030	-0.184
-386.004	800.000	0.093	-0.348
-384.990	-96.467	-0.210	0.056
-383.975	-200.000	0.060	-0.304
-382.960	11.429	-0.222	-0.171
-381.946	342.581	-0.040	0.079
-380.931	-62.635	-0.074	0.031
-379.917	-35.049	0.286	0.157
-378.902	-200.000	0.036	-0.306
-377.888	-99.169	-0.094	-0.024
-376.873	114.946	-0.148	-0.181
-375.858	107.647	0.377	0.450
-374.844	309.123	-0.025	-0.046
-373.829	-66.364	-0.105	0.042
-372.815	313.783	0.178	0.337
-371.800	-1.321	0.102	0.072
-370.785	219.254	-0.063	-0.101
-369.771	196.920	-0.097	-0.149
-368.756	-123.729	0.167	0.026
-367.742	248.921	-0.096	-0.162
-366.727	109.495	-0.132	0.159
-365.712	-19.683	0.084	-0.052
-364.698	-98.775	0.267	-0.068
-363.683	-76.659	-0.278	-0.098
-362.669	-68.444	-0.156	-0.061
-361.654	31.021	0.304	-0.261
-360.639	-200.000	0.001	0.070
-359.625	263.294	-0.144	0.251
-358.610	-77.800	0.199	-0.069
-357.596	74.837	0.176	0.186
-356.581	645.625	0.229	0.588
-355.566	40.072	0.115	-0.104
-354.552	-43.030	-0.059	0.030
-353.537	-200.000	-0.010	-0.479
-352.523	-176.960	-0.103	0.003
-351.508	-72.814	-0.220	0.081
-350.493	-133.628	-0.276	0.035
-349.479	117.529	0.028	0.034
-348.464	298.983	0.103	0.190
-347.450	-200.000	-0.056	0.289
-346.435	780.852	0.151	0.413
-345.420	35.467	0.134	0.118
-344.406	169.366	0.098	0.140
-343.391	-84.431	0.147	0.047
-342.377	-200.000	0.015	-0.283
-341.362	-200.000	0.023	0.411
-340.348	256.630	0.114	-0.196
-339.333	-68.332	0.201	-0.078
-338.318	-152.408	0.486	0.035
-337.304	8.288	0.145	-0.109
-336.289	69.208	-0.103	-0.106
-335.275	413.873	-0.100	0.213
-334.260	-88.100	0.173	0.052
-333.245	130.942	-0.043	-0.055
-332.231	-61.082	-0.172	0.073
-331.216	23.907	0.313	-0.259
-330.202	133.118	-0.191	-0.247
-329.187	53.193	0.049	0.047
-328.172	-92.940	-0.245	0.068
-327.158	-200.000	0.013	-0.160
-326.143	44.264	0.096	-0.089
-325.129	50.099	-0.163	0.154
-324.114	-24.523	0.071	-0.043
-323.099	-51.872	-0.256	-0.119
-322.085	-65.414	0.083	-0.033
-321.070	-12.668	-0.050	-0.033
-320.056	111.442	0.060	-0.073
-319.041	-38.080	-0.467	-0.248
-318.026	800.000	-0.067	-0.215
-317.012	362.566	-0.243	-0.489
-315.997	-200.000	0.000	0.075
-314.983	-200.000	-0.024	-0.124
-313.968	25.327	-0.108	-0.090
-312.953	-1.614	0.133	0.094
-311.939	294.755	-0.140	0.257
-310.924	-73.204	0.256	-0.094
-309.910	800.000	-0.019	0.080
-308.895	-162.198	0.290	-0.015
-307.880	800.000	-0.051	-0.215
-306.866	-149.755	-0.577	0.045
-305.851	60.487	0.092	0.091
-304.837	-83.555	0.351	0.112
-303.822	14.600	0.222	-0.174
-302.807	-86.270	-0.100	-0.031
-301.793	200.338	-0.103	-0.158
-300.778	15.906	0.118	0.093
-299.764	61.212	-0.120	-0.120
-298.749	-156.945	0.222	-0.014
-297.735	-15.960	-0.207	-0.132
-296.720	-200.000	-0.023	-0.287
-295.705	-103.727	0.249	-0.058
-294.691	-60.812	-0.103	-0.044
-293.676	-52.915	-0.234	-0.108
-292.662	23.554	0.126	-0.104
-291.647	-200.000	-0.001	0.333
-290.632	453.401	0.159	-0.351
-289.618	565.780	0.028	-0.067
-288.603	-81.482	-0.228	-0.075
-287.589	70.646	0.154	-0.160
-286.574	-37.266	0.279	0.149
-285.559	-87.094	0.184	-0.056
-284.545	56.801	-0.160	-0.155
-283.530	800.000	0.038	0.121
-282.516	221.915	-0.131	-0.210
-281.501	800.000	0.035	0.098
-280.486	-95.269	-0.223	-0.060
-279.472	55.596	0.248	0.240
-278.457	-31.134	-0.136	0.077
-277.443	-103.721	0.075	0.018
-276.428	-27.432	0.301	-0.175
-275.413	800.000	-0.073	-0.218
-274.399	-104.058	0.157	-0.037
-273.384	-133.192	-0.144	0.018
-272.370	800.000	-0.088	0.282
-271.355	-200.000	0.018	0.278
-270.340	-86.443	-0.370	0.114
-269.326	-95.604	0.236	-0.063
-268.311	-94.698	-0.384	0.104
-267.297	-200.000	0.015	-0.106
-266.282	51.412	0.016	-0.015
-265.267	171.419	0.120	-0.172
-264.253	-71.320	0.280	-0.105
-263.238	-159.661	0.224	0.012
-262.224	800.000	-0.073	0.300
-261.209	800.000	0.059	-0.195
-260.195	91.163	0.326	-0.366
-259.180	-114.127	-0.184	-0.036
-258.165	-32.313	0.221	-0.123
-257.151	0.744	0.065	0.046
-256.136	385.656	-0.112	-0.231
-255.122	288.321	0.145	0.263
-254.107	-200.000	-0.014	0.080
-253.092	-38.284	0.172	-0.091
-252.078	-165.834	-0.559	-0.024
-251.063	-44.884	0.169	0.084
-250.049	34.697	-0.296	0.258
-249.034	-200.000	0.050	-0.251
-248.019	-64.272	-0.278	-0.113
-247.005	-82.212	-0.091	0.030
-245.990	-112.686	0.196	0.039
-244.976	-75.534	-0.208	0.074
-243.961	-200.000	-0.004	0.143
-242.946	473.889	-0.068	-0.153
-241.932	106.324	0.076	0.090
-240.917	800.000	-0.025	0.099
-239.903	128.435	-0.476	-0.606
-238.888	9.411	-0.207	-0.157
-237.873	-153.395	-0.299	-0.021
-236.859	250.785	0.186	-0.316
-235.844	-41.432	-0.087	0.045
-234.830	-62.579	0.120	0.050
-233.815	-146.262	-0.085	0.007
-232.800	-200.000	0.006	-0.053
-231.786	196.892	0.112	0.171
-230.771	-9.852	-0.461	-0.306
-229.757	800.000	0.075	-0.209
-228.742	254.377	-0.115	-0.197
-227.727	14.277	0.135	0.105
-226.713	800.000	0.041	-0.126
-225.698	49.468	0.235	0.221
-224.684	409.867	0.110	0.232
-223.669	-200.000	0.005	0.236
-222.655	614.932	-0.046	0.115
-221.640	-111.082	-0.369	0.075
-220.625	-200.000	0.007	-0.126
-219.611	-50.906	0.372	-0.174
-218.596	-0.384	-0.213	-0.151
-217.582	-200.000	-0.022	-0.297
-216.567	246.882	0.229	-0.385
-215.552	-84.572	-0.190	-0.060
-214.538	47.045	0.100	0.092
-213.523	-164.488	-0.143	-0.007
-212.509	-120.613	-0.150	-0.025
-211.494	77.610	-0.032	-0.033
-210.479	-66.139	0.216	0.086
-209.465	-90.317	-0.174	-0.050
-208.450	-173.393	-0.258	0.008
-207.436	15.539	0.478	0.374
-206.421	-200.000	0.005	0.057
-205.406	139.955	0.126	0.165
-204.392	-195.162	-0.266	0.002
-203.377	-50.380	0.114	-0.053
-202.363	-141.826	0.511	-0.051
-201.348	-39.890	-0.214	0.111
-200.333	-200.000	-0.016	0.282
-199.319	-3.260	-0.076	-0.053
-198.304	800.000	-0.069	-0.191
-197.290	70.120	0.242	-0.249
-196.275	57.179	-0.009	-0.009
-195.260	170.956	0.165	0.236
-194.246	-81.354	-0.349	0.115
-193.231	427.477	-0.085	-0.183
-192.217	68.357	0.157	-0.160
-191.202	800.000	0.033	0.109
-190.187	-200.000	0.042	0.394
-189.173	-38.339	0.163	0.086
-188.158	43.012	-0.175	0.159
-187.144	-93.533	0.168	-0.046
-186.129	800.000	0.067	-0.240
-185.114	-200.000	-0.002	-0.193
-184.100	-87.743	0.077	-0.023
-183.085	-3.716	0.038	0.026
-182.071	58.685	0.148	0.145
-181.056	-65.235	-0.529	0.212
-180.042	-200.000	0.008	0.156
-179.027	44.362	0.136	-0.125
-178.012	-200.000	-0.017	0.266
-176.998	42.268	0.044	0.040
-175.983	-103.539	0.230	-0.054
-174.969	3.828	-0.115	-0.083
-173.954	-200.000	-0.096	0.463
-172.939	-43.619	0.113	-0.057
-171.925	-15.967	0.196	-0.124
-170.910	-200.000	-0.010	0.276
-169.896	-26.654	-0.223	0.130
-168.881	220.013	-0.076	-0.121
-167.866	-67.425	-0.106	-0.041
-166.852	462.050	0.086	-0.191
-165.837	800.000	-0.115	-0.421
-164.823	-133.581	-0.313	0.039
-163.808	95.339	0.194	0.220
-162.793	800.000	0.057	0.187
-161.779	-138.641	0.107	-0.012
-160.764	-98.712	-0.077	0.020
-159.750	157.290	-0.249	-0.343
-158.735	57.219	0.223	0.216
-157.720	-9.485	-0.133	0.088
-156.706	-200.000	-0.011	0.285
-155.691	46.734	-0.090	-0.083
-154.677	152.108	-0.168	-0.228
-153.662	-200.000	-0.034	0.356
-152.647	29.535	-0.326	0.276
-151.633	379.645	0.087	-0.176
-150.618	88.564	0.151	-0.167
-149.604	-72.740	0.133	0.049
-148.589	800.000	0.056	0.234
-147.574	199.184	0.097	-0.148
-146.560	-178.267	0.120	-0.003
-145.545	800.000	-0.052	-0.216
-144.531	761.491	-0.078	-0.210
-143.516	189.471	-0.062	0.092
-142.502	-200.000	0.002	0.098
-141.487	-200.000	0.364	-0.001
-140.472	401.957	-0.044	-0.091
-139.458	800.000	0.106	0.385
-138.443	-200.000	0.006	-0.363
-137.429	-55.017	-0.197	0.088
-136.414	3.493	-0.100	0.072
-135.399	-200.000	-0.006	-0.057
-134.385	-200.000	0.035	0.226
-133.370	108.327	-0.216	0.257
-132.356	639.153	-0.078	0.197
-131.341	800.000	0.032	-0.115
-130.326	153.149	0.127	0.172
-129.312	-41.491	0.386	-0.198
-128.297	-5.397	-0.399	0.272
-127.283	-66.362	0.141	0.056
-126.268	-200.000	-0.014	-0.249
-125.253	800.000	-0.061	0.179
-124.239	-120.555	0.016	0.003
-123.224	143.345	-0.238	0.315
-122.210	-188.285	0.060	0.001
-121.195	21.603	-0.164	-0.133
-120.180	37.463	-0.151	-0.133
