DTS Sentinel unit serial number:	SN413079Multiplexer serial number:	ORYXHardware model number:	OX4-SRSoftware version number:	ORYX F/W v4.00 Oryx Data Collector v3.7.2.0data status	okinstallation	princeton_trtdifferential loss correction	single-endedforward channel	channel 4reverse channel	N/Adate	2019/09/15time	20:01:35forward acquisition time	60.00reverse acquisition time	0.00gamma	496.2192k internal	0.2307k external	0.2307temperature offset calibration	0.9934default loss term (dB/km)	0.3790temperature slope calibration	1.0000multiplexer offset coefficient	1.0000multiplexer slope coefficient	1.0000fibre end	0.00T internal ref (°C)	35.59T ext. ref 1 (°C)	7.57T ext. ref 2 (°C)	26.28length (m)	temperature (°C)	Stokes	anti-Stokes-747.200	82.091	0.020	-0.022
-746.185	200.488	-0.100	0.156
-745.171	276.682	0.012	0.022
-744.156	463.217	-0.046	-0.104
-743.142	193.970	-0.247	0.380
-742.127	-155.476	-0.277	-0.018
-741.112	66.122	0.126	-0.130
-740.098	621.684	-0.018	-0.046
-739.083	161.824	-0.132	0.188
-738.069	-83.368	-0.184	0.060
-737.054	537.594	-0.076	0.184
-736.039	-69.448	-0.455	-0.177
-735.025	-168.763	0.369	0.014
-734.010	16.302	-0.132	-0.106
-732.996	-113.551	-0.223	0.044
-731.981	27.653	0.285	0.244
-730.966	-136.875	0.300	0.035
-729.952	-30.743	0.168	0.096
-728.937	-53.545	0.067	0.031
-727.923	73.547	-0.116	0.123
-726.908	-200.000	-0.018	0.209
-725.894	-1.177	-0.200	-0.144
-724.879	-74.239	-0.349	-0.128
-723.864	-200.000	0.044	-0.359
-722.850	182.410	0.051	0.076
-721.835	137.151	0.134	-0.178
-720.821	223.861	-0.076	-0.124
-719.806	-149.214	0.242	-0.020
-718.791	19.855	-0.075	0.061
-717.777	178.415	-0.138	0.204
-716.762	800.000	-0.129	-0.394
-715.748	-63.448	0.064	0.027
-714.733	-200.000	0.002	-0.024
-713.718	-141.251	-0.114	-0.012
-712.704	-60.266	-0.088	-0.038
-711.689	-2.759	-0.152	-0.108
-710.675	-87.091	-0.309	-0.095
-709.660	208.666	0.129	-0.205
-708.645	-87.918	-0.092	-0.028
-707.631	-16.639	-0.163	0.105
-706.616	23.663	0.258	0.215
-705.602	-200.000	-0.069	-0.348
-704.587	-28.920	0.123	-0.072
-703.572	-36.532	-0.186	-0.102
-702.558	288.429	-0.254	0.467
-701.543	119.363	-0.098	-0.123
-700.529	157.786	0.050	-0.070
-699.514	90.033	0.262	-0.297
-698.499	-31.606	0.217	0.123
-697.485	-200.000	-0.012	0.065
-696.470	-183.186	-0.195	-0.003
-695.456	800.000	-0.093	-0.347
-694.441	32.474	-0.184	-0.161
-693.426	-90.899	-0.155	0.045
-692.412	-4.676	0.245	-0.172
-691.397	-200.000	-0.009	-0.231
-690.383	-200.000	0.002	0.162
-689.368	800.000	0.032	-0.094
-688.354	800.000	-0.166	-0.492
-687.339	341.945	0.059	-0.118
-686.324	-176.004	0.284	-0.008
-685.310	800.000	-0.043	0.166
-684.295	81.620	0.068	0.075
-683.281	572.583	-0.049	-0.122
-682.266	-62.346	-0.088	-0.037
-681.251	90.975	-0.093	-0.106
-680.237	-200.000	-0.007	0.236
-679.222	212.936	0.147	-0.236
-678.208	-76.013	-0.100	-0.036
-677.193	-200.000	-0.048	-0.214
-676.178	-61.227	0.166	-0.071
-675.164	-123.519	-0.334	-0.054
-674.149	13.975	0.200	-0.158
-673.135	-23.641	-0.261	0.159
-672.120	114.920	-0.086	0.106
-671.105	-5.487	0.068	0.047
-670.091	293.488	0.054	0.100
-669.076	-134.386	-0.098	0.012
-668.062	80.403	0.104	-0.113
-667.047	256.060	-0.069	-0.120
-666.032	-200.000	0.034	0.218
-665.018	-200.000	0.004	-0.192
-664.003	91.272	-0.082	-0.093
-662.989	-58.604	-0.447	0.197
-661.974	-163.638	-0.144	0.007
-660.959	-24.783	0.252	-0.152
-659.945	-200.000	0.011	0.321
-658.930	-68.413	-0.396	-0.156
-657.916	39.584	0.039	0.035
-656.901	-71.168	0.116	-0.044
-655.886	-200.000	0.002	0.055
-654.872	48.885	0.142	-0.135
-653.857	-142.625	-0.206	-0.020
-652.843	-58.406	0.115	0.051
-651.828	-97.961	0.176	-0.046
-650.814	499.454	-0.138	0.323
-649.799	-165.590	0.049	-0.002
-648.784	-81.319	-0.247	-0.083
-647.770	-61.059	-0.453	-0.194
-646.755	-200.000	-0.028	0.434
-645.741	800.000	-0.146	0.409
-644.726	-200.000	0.020	0.416
-643.711	303.512	0.032	0.060
-642.697	-71.479	0.184	-0.070
-641.682	-46.888	0.051	-0.025
-640.668	483.632	-0.061	-0.140
-639.653	571.468	0.095	-0.235
-638.638	-141.127	-0.254	0.026
-637.624	800.000	0.060	0.171
-636.609	-58.074	-0.124	0.055
-635.595	800.000	0.032	-0.094
-634.580	36.853	0.142	-0.128
-633.565	-200.000	-0.006	-0.223
-632.551	230.047	0.105	-0.174
-631.536	624.970	0.111	-0.283
-630.522	-74.563	-0.408	-0.149
-629.507	351.571	-0.125	0.251
-628.492	-90.184	-0.152	-0.045
-627.478	-151.113	-0.198	0.015
-626.463	-138.160	0.101	-0.011
-625.449	-169.526	0.271	0.010
-624.434	-103.476	-0.276	-0.066
-623.419	126.248	0.099	-0.126
-622.405	117.630	-0.044	-0.055
-621.390	153.123	-0.095	-0.131
-620.376	800.000	0.030	-0.109
-619.361	161.253	0.278	-0.393
-618.346	69.515	0.217	-0.226
-617.332	-23.596	0.173	-0.105
-616.317	392.509	-0.113	0.237
-615.303	32.861	-0.239	0.209
-614.288	-30.658	-0.216	0.123
-613.273	136.324	-0.184	0.243
-612.259	-157.099	0.051	0.003
-611.244	306.060	0.099	-0.187
-610.230	-118.407	-0.044	-0.008
-609.215	-89.227	0.337	0.101
-608.201	-84.409	-0.060	-0.019
-607.186	52.594	-0.087	0.084
-606.171	-106.791	0.352	0.079
-605.157	-200.000	-0.044	-0.217
-604.142	72.133	0.208	-0.219
-603.128	113.697	-0.108	0.132
-602.113	62.044	-0.072	0.073
-601.098	352.785	-0.044	0.088
-600.084	60.219	0.209	0.209
-599.069	-90.799	0.225	-0.066
-598.055	127.032	-0.035	0.045
-597.040	800.000	-0.070	0.261
-596.025	800.000	-0.066	-0.260
-595.011	-11.390	-0.225	-0.150
-593.996	-104.875	0.290	0.067
-592.982	-74.457	-0.347	-0.126
-591.967	-53.243	-0.098	-0.046
-590.952	299.017	-0.131	-0.244
-589.938	5.158	0.345	-0.257
-588.923	-52.652	-0.328	-0.153
-587.909	608.505	-0.076	0.192
-586.894	36.614	-0.326	-0.291
-585.879	-73.709	0.298	0.110
-584.865	-81.234	-0.362	0.121
-583.850	-60.984	-0.206	0.088
-582.836	198.946	-0.067	-0.103
-581.821	114.607	-0.121	0.149
-580.806	506.183	0.018	-0.043
-579.792	-93.456	0.027	0.008
-578.777	800.000	-0.073	-0.206
-577.763	-100.617	0.139	0.035
-576.748	11.655	0.111	-0.086
-575.733	-71.557	-0.384	0.145
-574.719	261.559	-0.021	-0.037
-573.704	165.239	-0.126	-0.179
-572.690	-8.958	0.073	0.049
-571.675	-200.000	0.021	-0.229
-570.661	-84.943	0.108	0.034
-569.646	-6.838	-0.327	0.224
-568.631	-200.000	-0.011	-0.255
-567.617	-200.000	0.055	0.347
-566.602	63.033	0.135	-0.136
-565.588	-70.834	0.370	0.141
-564.573	20.342	-0.193	-0.157
-563.558	-200.000	-0.046	0.295
-562.544	-88.233	0.274	0.083
-561.529	-80.001	-0.212	0.072
-560.515	155.029	-0.196	0.273
-559.500	28.047	-0.174	-0.148
-558.485	-140.884	-0.244	-0.025
-557.471	-200.000	0.018	-0.083
-556.456	-40.934	0.093	-0.049
-555.442	-102.508	-0.056	0.014
-554.427	800.000	0.060	0.194
-553.412	-174.093	-0.244	-0.007
-552.398	108.328	-0.049	-0.060
-551.383	46.814	0.247	-0.232
-550.369	74.690	-0.270	-0.286
-549.354	485.792	0.094	0.216
-548.339	62.064	-0.245	0.246
-547.325	258.297	-0.102	0.176
-546.310	-200.000	0.008	-0.366
-545.296	82.633	0.055	0.061
-544.281	-46.447	0.178	-0.088
-543.266	-132.783	-0.100	-0.013
-542.252	-125.452	0.253	0.039
-541.237	-58.460	0.404	0.177
-540.223	-200.000	0.056	-0.379
-539.208	146.133	0.308	0.417
-538.193	29.310	-0.145	-0.124
-537.179	264.402	-0.191	-0.336
-536.164	66.394	0.126	-0.129
-535.150	-164.088	-0.282	-0.013
-534.135	-8.016	0.402	-0.273
-533.121	523.504	-0.073	-0.173
-532.106	16.050	-0.033	-0.026
-531.091	-200.000	-0.020	-0.136
-530.077	34.675	0.214	0.188
-529.062	17.381	-0.101	0.081
-528.048	-175.781	-0.195	0.005
-527.033	78.907	0.126	-0.136
-526.018	-142.364	0.317	-0.032
-525.004	-133.398	-0.133	-0.017
-523.989	-43.658	-0.139	0.071
-522.975	372.713	-0.106	0.217
-521.960	75.346	0.187	0.199
-520.945	-36.688	-0.090	0.049
-519.931	111.949	-0.130	-0.158
-518.916	302.103	-0.232	0.433
-517.902	93.828	0.189	0.216
-516.887	226.623	0.099	0.162
-515.872	35.045	0.085	0.075
-514.858	383.391	-0.076	0.157
-513.843	-29.229	0.259	-0.149
-512.829	-137.274	-0.270	0.031
-511.814	157.321	0.247	0.345
-510.799	-151.108	-0.036	0.003
-509.785	-172.518	0.067	0.002
-508.770	-200.000	0.048	-0.406
-507.756	-92.680	0.135	0.038
-506.741	311.135	-0.080	0.151
-505.726	89.622	-0.119	-0.133
-504.712	28.931	-0.438	-0.374
-503.697	-3.560	-0.318	0.223
-502.683	-68.905	0.049	-0.019
-501.668	-43.221	-0.274	0.140
-500.653	-92.429	-0.108	0.031
-499.639	206.796	0.052	-0.082
-498.624	-39.119	0.309	-0.164
-497.610	-200.000	0.024	-0.262
-496.595	800.000	0.100	-0.294
-495.581	-133.671	-0.223	0.028
-494.566	-111.913	0.262	-0.053
-493.551	328.543	0.082	-0.158
-492.537	-86.068	-0.091	-0.028
-491.522	-68.983	-0.118	-0.046
-490.508	-175.772	-0.421	-0.011
-489.493	-29.401	0.065	-0.037
-488.478	-168.134	0.126	0.005
-487.464	-18.803	0.031	0.019
-486.449	800.000	-0.080	-0.297
-485.435	-100.241	-0.144	0.036
-484.420	717.987	0.011	-0.030
-483.405	-200.000	0.008	-0.067
-482.391	64.038	0.095	0.096
-481.376	-109.716	-0.226	-0.048
-480.362	-137.842	-0.203	0.023
-479.347	-9.399	-0.314	-0.211
-478.332	172.952	-0.057	0.082
-477.318	582.355	-0.062	-0.152
-476.303	-134.380	0.286	0.035
-475.289	-109.205	0.154	-0.033
-474.274	800.000	0.048	-0.179
-473.259	-200.000	0.025	0.156
-472.245	-129.144	-0.397	0.056
-471.230	-41.001	-0.200	-0.104
-470.216	350.653	0.048	-0.096
-469.201	-59.822	0.185	0.080
-468.186	430.611	0.178	0.388
-467.172	-98.465	-0.313	-0.081
-466.157	800.000	-0.039	0.166
-465.143	153.368	-0.363	0.500
-464.128	-121.966	-0.291	-0.048
-463.113	299.048	0.071	0.132
-462.099	-117.408	-0.207	-0.038
-461.084	-120.044	0.315	-0.054
-460.070	-22.668	-0.085	-0.052
-459.055	-30.216	-0.188	0.107
-458.040	-200.000	0.027	0.203
-457.026	360.839	0.112	0.225
-456.011	-76.805	0.242	0.085
-454.997	-200.000	0.019	0.122
-453.982	-200.000	0.032	0.239
-452.968	-200.000	-0.050	0.309
-451.953	-73.243	-0.242	0.089
-450.938	-3.047	0.135	-0.094
-449.924	-104.240	-0.545	-0.127
-448.909	164.110	-0.120	-0.170
-447.895	281.494	0.094	0.169
-446.880	151.583	0.156	0.213
-445.865	-169.936	-0.224	0.008
-444.851	-109.028	0.077	0.017
-443.836	800.000	0.060	-0.191
-442.822	327.081	0.147	-0.284
-441.807	800.000	-0.081	-0.288
-440.792	15.336	-0.219	0.172
-439.778	-135.897	-0.264	-0.031
-438.763	-124.568	-0.214	-0.033
-437.749	800.000	-0.050	0.172
-436.734	-154.024	-0.229	0.016
-435.719	73.578	-0.253	0.266
-434.705	-26.951	0.269	-0.158
-433.690	-107.860	0.149	-0.033
-432.676	748.749	-0.056	-0.151
-431.661	108.370	-0.151	-0.181
-430.646	169.464	-0.173	-0.248
-429.632	37.758	-0.148	-0.132
-428.617	80.939	-0.115	0.125
-427.603	12.504	0.130	0.100
-426.588	164.237	0.105	0.149
-425.573	-30.034	0.211	-0.121
-424.559	800.000	0.017	-0.066
-423.544	-116.936	0.237	-0.044
-422.530	76.135	-0.204	-0.217
-421.515	724.311	0.045	-0.121
-420.500	800.000	0.027	0.104
-419.486	-200.000	-0.006	-0.120
-418.471	93.247	0.088	-0.100
-417.457	95.641	0.077	0.089
-416.442	-53.859	-0.251	-0.115
-415.428	152.334	0.028	0.038
-414.413	603.394	-0.103	0.257
-413.398	-108.593	0.141	0.030
-412.384	-50.781	0.286	-0.135
-411.369	85.010	-0.203	0.223
-410.355	419.288	0.134	-0.288
-409.340	-200.000	-0.019	0.114
-408.325	493.801	-0.105	0.241
-407.311	-108.201	-0.330	-0.072
-406.296	-43.434	0.188	-0.095
-405.282	-89.529	0.172	0.051
-404.267	-33.179	0.303	0.168
-403.252	211.674	0.191	0.302
-402.238	-106.410	-0.170	-0.038
-401.223	-74.691	-0.252	-0.091
-400.209	-123.986	-0.291	0.046
-399.194	116.332	0.165	0.203
-398.179	-148.309	0.046	-0.004
-397.165	-27.495	0.114	-0.067
-396.150	61.865	-0.171	-0.171
-395.136	-152.677	0.176	-0.013
-394.121	-52.068	-0.222	0.103
-393.106	-162.728	0.298	-0.015
-392.092	800.000	0.043	-0.153
-391.077	800.000	0.087	-0.318
-390.063	-200.000	-0.025	-0.123
-389.048	125.920	-0.090	0.114
-388.033	480.905	-0.081	0.183
-387.019	-124.850	0.184	-0.028
-386.004	56.395	0.163	-0.159
-384.990	313.501	0.191	-0.359
-383.975	-146.145	0.367	-0.032
-382.960	800.000	0.079	-0.223
-381.946	-159.383	-0.129	-0.007
-380.931	-83.998	0.261	0.083
-379.917	51.621	-0.031	-0.030
-378.902	-107.194	-0.107	-0.024
-377.888	-200.000	0.047	-0.230
-376.873	487.198	0.135	-0.308
-375.858	756.512	-0.135	0.366
-374.844	-20.915	-0.083	-0.051
-373.829	355.872	0.104	0.208
-372.815	-158.895	0.121	-0.007
-371.800	59.177	0.043	-0.042
-370.785	60.130	-0.048	0.048
-369.771	185.638	0.081	0.121
-368.756	-200.000	0.001	-0.100
-367.742	-64.557	0.069	-0.028
-366.727	-110.741	0.365	0.075
-365.712	-200.000	0.039	-0.204
-364.698	-134.340	-0.070	0.009
-363.683	-155.003	-0.217	0.014
-362.669	662.711	-0.069	-0.179
-361.654	457.467	0.172	-0.383
-360.639	-200.000	-0.009	-0.271
-359.625	100.307	-0.134	0.155
-358.610	512.508	0.191	-0.445
-357.596	-52.752	-0.081	0.037
-356.581	194.424	0.051	-0.078
-355.566	-200.000	-0.002	-0.072
-354.552	56.454	-0.118	0.115
-353.537	-180.888	-0.107	-0.002
-352.523	800.000	-0.022	-0.085
-351.508	-158.560	0.345	0.020
-350.493	239.943	0.192	-0.320
-349.479	-121.534	-0.127	-0.021
-348.464	800.000	0.058	-0.251
-347.450	15.510	-0.347	0.273
-346.435	625.917	0.123	-0.310
-345.420	397.396	0.063	-0.133
-344.406	-12.728	-0.218	0.142
-343.391	-14.258	-0.191	0.123
-342.377	-142.939	0.236	0.023
-341.362	122.092	0.052	0.065
-340.348	62.794	0.379	0.380
-339.333	-35.548	0.238	0.129
-338.318	800.000	-0.020	-0.059
-337.304	168.791	0.268	0.382
-336.289	800.000	0.048	-0.156
-335.275	115.386	-0.211	-0.258
-334.260	67.885	-0.046	-0.047
-333.245	36.602	-0.103	0.091
-332.231	8.299	0.095	0.071
-331.216	-119.140	0.535	-0.094
-330.202	-59.832	0.095	-0.041
-329.187	800.000	-0.061	-0.174
-328.172	800.000	0.020	-0.077
-327.158	-200.000	0.044	0.193
-326.143	-7.742	0.230	0.155
-325.129	-100.334	0.371	0.092
-324.114	63.500	-0.246	0.247
-323.099	-108.009	-0.377	0.082
-322.085	-200.000	-0.017	0.123
-321.070	437.755	0.009	0.021
-320.056	299.653	-0.058	0.107
-319.041	-130.340	-0.137	0.019
-318.026	-13.076	-0.160	0.104
-317.012	-63.103	0.077	-0.032
-315.997	7.413	-0.078	0.058
-314.983	357.031	0.122	0.243
-313.968	541.434	-0.122	0.290
-312.953	681.281	-0.066	0.173
-311.939	-81.083	-0.103	-0.034
-310.924	-80.077	0.057	-0.019
-309.910	78.128	-0.128	-0.136
-308.895	134.867	0.051	-0.066
-307.880	136.125	-0.161	0.210
-306.866	375.485	0.072	0.148
-305.851	116.954	-0.192	-0.236
-304.837	-152.499	0.403	-0.029
-303.822	32.739	0.162	-0.140
-302.807	-200.000	0.031	-0.396
-301.793	-200.000	0.001	-0.131
-300.778	-57.397	0.356	0.156
-299.764	246.066	-0.014	0.024
-298.749	43.047	-0.335	-0.305
-297.735	6.200	0.292	0.216
-296.720	176.377	0.076	-0.110
-295.705	139.751	-0.022	0.029
-294.691	-95.351	-0.093	-0.025
-293.676	299.270	-0.102	0.188
-292.662	394.435	0.174	0.362
-291.647	58.598	0.222	-0.218
-290.632	350.154	-0.060	-0.118
-289.618	465.153	0.074	-0.165
-288.603	800.000	-0.036	0.120
-287.589	41.094	-0.094	-0.084
-286.574	800.000	-0.066	0.188
-285.559	180.010	0.096	0.141
-284.545	-4.266	0.088	-0.061
-283.530	674.627	-0.080	0.208
-282.516	-12.167	0.069	-0.045
-281.501	-35.207	-0.200	0.108
-280.486	-78.037	0.061	-0.021
-279.472	-200.000	0.057	-0.333
-278.457	44.103	0.140	-0.128
-277.443	187.958	-0.118	-0.176
-276.428	-200.000	-0.002	0.284
-275.413	49.712	-0.028	0.026
-274.399	57.096	0.123	0.120
-273.384	-200.000	-0.004	-0.171
-272.370	203.566	-0.066	-0.102
-271.355	800.000	0.156	-0.467
-270.340	-58.976	-0.158	0.068
-269.326	760.756	0.120	0.325
-268.311	-200.000	-0.061	-0.274
-267.297	-148.691	0.189	-0.015
-266.282	-76.872	0.206	-0.072
-265.267	207.301	-0.091	0.142
-264.253	10.601	0.239	-0.182
-263.238	-200.000	-0.044	-0.230
-262.224	115.817	-0.005	-0.007
-261.209	-13.891	-0.112	0.072
-260.195	-93.210	-0.131	-0.036
-259.180	-200.000	-0.016	-0.377
-258.165	-90.660	0.148	0.043
-257.151	-200.000	-0.018	0.194
-256.136	14.390	-0.160	-0.125
-255.122	-200.000	0.006	-0.265
-254.107	470.134	-0.099	-0.221
-253.092	800.000	0.063	0.220
-252.078	-137.007	-0.272	-0.031
-251.063	-48.250	-0.153	-0.074
-250.049	-97.143	0.411	-0.107
-249.034	212.814	-0.139	0.219
-248.019	15.478	0.205	0.161
-247.005	-200.000	0.054	0.352
-245.990	-7.010	-0.260	-0.176
-244.976	-28.950	0.347	0.199
-243.961	800.000	-0.104	0.293
-242.946	713.762	0.041	0.109
-241.932	-116.833	-0.112	-0.021
-240.917	-153.642	-0.317	-0.022
-239.903	-120.707	-0.328	0.055
-238.888	-104.596	-0.127	-0.029
-237.873	-131.543	-0.167	-0.022
-236.859	12.940	0.205	-0.158
-235.844	42.251	-0.259	0.235
-234.830	673.478	0.054	0.139
-233.815	12.950	-0.214	-0.165
-232.800	-135.477	0.128	0.015
-231.786	-121.365	0.135	-0.022
-230.771	-80.901	0.303	0.100
-229.757	-45.131	0.091	0.045
-228.742	-98.887	-0.082	0.021
-227.727	33.209	-0.079	0.068
-226.713	576.860	0.066	-0.160
-225.698	-200.000	0.045	0.219
-224.684	18.741	-0.081	0.064
-223.669	183.785	0.155	-0.228
-222.655	24.883	0.305	-0.252
-221.640	-200.000	-0.035	-0.222
-220.625	45.903	-0.224	-0.207
-219.611	800.000	0.078	-0.285
-218.596	-168.591	0.256	0.010
-217.582	-184.844	0.164	0.003
-216.567	-47.972	-0.474	0.228
-215.552	-78.437	0.249	0.085
-214.538	-200.000	-0.026	-0.199
-213.523	141.014	0.118	0.155
-212.509	-200.000	0.006	-0.164
-211.494	122.574	0.077	-0.096
-210.479	-160.193	-0.167	-0.009
-209.465	-162.002	0.188	-0.009
-208.450	-105.773	0.119	0.027
-207.436	-200.000	0.002	-0.100
-206.421	800.000	0.049	0.160
-205.406	-200.000	0.062	0.405
-204.392	-200.000	0.041	0.294
-203.377	14.139	-0.140	-0.109
-202.363	367.170	0.261	-0.525
-201.348	-189.176	0.170	-0.002
-200.333	800.000	0.090	-0.307
-199.319	800.000	-0.128	-0.466
-198.304	77.141	-0.255	0.269
-197.290	-54.256	-0.149	-0.067
-196.275	-64.048	0.328	-0.133
-195.260	114.363	0.264	-0.320
-194.246	-91.997	0.035	-0.010
-193.231	506.975	-0.051	0.117
-192.217	-200.000	0.012	0.223
-191.202	-200.000	0.016	0.110
-190.187	-91.318	0.276	-0.078
-189.173	324.597	0.210	0.398
-188.158	-200.000	-0.025	0.112
-187.144	43.519	-0.208	0.189
-186.129	-130.730	0.276	-0.037
-185.114	-15.420	0.432	0.274
-184.100	14.391	-0.143	0.111
-183.085	56.922	0.197	0.191
-182.071	-57.223	0.133	0.058
-181.056	-42.530	-0.158	0.080
-180.042	-136.205	0.195	-0.023
-179.027	68.515	0.444	0.453
-178.012	92.793	-0.220	0.247
-176.998	800.000	0.035	-0.104
-175.983	165.087	-0.101	-0.142
-174.969	-144.124	-0.176	0.016
-173.954	-200.000	-0.017	0.183
-172.939	-33.184	0.241	0.133
-171.925	-20.408	0.095	0.058
-170.910	-96.113	0.309	-0.082
-169.896	119.727	-0.152	0.188
-168.881	-64.985	-0.172	0.069
-167.866	-27.089	0.320	0.186
-166.852	196.932	-0.121	0.184
-165.837	-7.225	-0.158	0.107
-164.823	209.618	-0.132	0.206
-163.808	-77.304	0.106	-0.037
-162.793	22.605	-0.105	0.085
-161.779	624.108	-0.066	-0.165
-160.764	23.588	-0.175	0.143
-159.750	-172.506	0.200	0.006
-158.735	-200.000	-0.019	0.168
-157.720	210.316	-0.078	-0.122
-156.706	800.000	0.003	-0.011
-155.691	-123.573	-0.065	-0.010
-154.677	-200.000	-0.039	0.374
-153.662	-108.404	-0.099	0.021
-152.647	800.000	0.043	0.124
-151.633	325.990	0.073	0.139
-150.618	-144.928	0.159	-0.014
-149.604	-190.557	0.379	0.004
-148.589	800.000	-0.027	0.098
-147.574	-200.000	-0.050	-0.404
-146.560	27.678	-0.138	-0.115
-145.545	-80.051	-0.096	0.032
-144.531	35.061	-0.146	0.127
-143.516	-73.228	-0.342	0.124
-142.502	47.193	-0.245	0.227
-141.487	97.514	-0.130	0.148
-140.472	-68.252	-0.258	-0.100
-139.458	172.417	0.037	-0.052
-138.443	800.000	0.018	0.061
-137.429	-115.862	0.062	-0.012
-136.414	-101.550	0.397	0.096
-135.399	12.953	0.135	-0.104
-134.385	139.068	-0.115	-0.150
-133.370	-92.526	0.137	0.038
-132.356	2.213	-0.244	0.175
-131.341	-199.473	-0.306	-0.002
-130.326	115.490	0.132	0.160
-129.312	-200.000	0.014	-0.075
-128.297	-96.442	0.111	-0.029
-127.283	13.316	0.246	0.189
-126.268	-190.475	-0.213	0.002
-125.253	-148.102	0.239	-0.020
-124.239	-200.000	0.028	0.152
-123.224	800.000	-0.045	-0.189
-122.210	-63.000	0.108	0.044
-121.195	-200.000	0.111	-0.567
