DTS Sentinel unit serial number:	SN413079Multiplexer serial number:	ORYXHardware model number:	OX4-SRSoftware version number:	ORYX F/W v4.00 Oryx Data Collector v3.7.2.0data status	okinstallation	princeton_trtdifferential loss correction	single-endedforward channel	channel 4reverse channel	N/Adate	2019/09/14time	04:01:34forward acquisition time	60.00reverse acquisition time	0.00gamma	496.2192k internal	0.2322k external	0.2322temperature offset calibration	1.0131default loss term (dB/km)	0.3790temperature slope calibration	1.0000multiplexer offset coefficient	1.0000multiplexer slope coefficient	1.0000fibre end	0.00T internal ref (°C)	26.69T ext. ref 1 (°C)	3.31T ext. ref 2 (°C)	21.79length (m)	temperature (°C)	Stokes	anti-Stokes-747.200	267.685	0.191	-0.338
-746.185	-29.800	-0.235	0.136
-745.171	-54.398	-0.371	-0.170
-744.156	-104.608	-0.340	0.079
-743.142	-96.809	0.379	-0.101
-742.127	509.007	-0.160	0.376
-741.112	-200.000	-0.012	0.106
-740.098	-13.129	-0.204	0.134
-739.083	22.783	0.187	-0.155
-738.069	11.412	-0.189	0.147
-737.054	-164.905	-0.152	-0.007
-736.039	85.481	-0.098	0.108
-735.025	-163.178	0.267	-0.013
-734.010	-165.039	0.165	-0.007
-732.996	26.256	-0.098	-0.082
-731.981	178.796	-0.118	-0.174
-730.966	800.000	-0.014	0.049
-729.952	6.685	-0.091	-0.068
-728.937	-200.000	-0.068	-0.448
-727.923	-74.186	-0.304	0.111
-726.908	-200.000	0.003	0.079
-725.894	429.372	-0.075	-0.164
-724.879	-78.637	0.097	0.034
-723.864	-154.672	-0.135	0.009
-722.850	800.000	0.042	-0.120
-721.835	-147.697	0.005	-0.000
-720.821	800.000	0.096	-0.294
-719.806	-200.000	-0.029	-0.418
-718.791	-79.167	0.305	0.104
-717.777	-200.000	-0.013	0.198
-716.762	8.563	-0.246	-0.187
-715.748	67.729	-0.128	0.132
-714.733	-77.963	-0.192	-0.067
-713.718	-86.365	-0.141	-0.044
-712.704	54.982	-0.235	-0.229
-711.689	-74.917	0.054	-0.019
-710.675	210.620	-0.124	-0.196
-709.660	136.048	-0.138	0.181
-708.645	-200.000	0.035	-0.261
-707.631	418.025	-0.034	-0.073
-706.616	74.620	-0.254	0.269
-705.602	-137.534	-0.189	0.021
-704.587	800.000	0.027	-0.092
-703.572	62.076	0.217	-0.219
-702.558	-30.194	-0.221	0.127
-701.543	800.000	-0.038	-0.114
-700.529	409.352	-0.117	-0.249
-699.514	-60.588	0.196	0.084
-698.499	114.311	-0.250	-0.307
-697.485	65.159	-0.253	0.258
-696.470	19.659	-0.194	0.158
-695.456	737.145	0.043	0.116
-694.441	54.770	-0.099	-0.097
-693.426	16.772	0.212	-0.169
-692.412	88.994	-0.166	0.186
-691.397	-70.222	-0.085	0.033
-690.383	800.000	0.050	-0.144
-689.368	-90.302	0.113	0.033
-688.354	-113.501	0.307	-0.061
-687.339	-141.140	-0.075	-0.008
-686.324	96.750	-0.070	0.081
-685.310	-53.312	-0.273	0.126
-684.295	192.551	-0.123	-0.187
-683.281	800.000	-0.049	0.144
-682.266	231.959	0.090	0.148
-681.251	-61.308	-0.269	0.114
-680.237	-80.136	0.216	0.073
-679.222	602.152	-0.121	-0.304
-678.208	-55.028	0.228	-0.103
-677.193	-32.838	-0.230	-0.129
-676.178	800.000	-0.149	-0.634
-675.164	456.544	-0.097	-0.216
-674.149	-88.956	0.132	0.039
-673.135	800.000	-0.034	-0.123
-672.120	-200.000	-0.015	-0.289
-671.105	-200.000	0.009	-0.289
-670.091	-200.000	-0.003	-0.020
-669.076	179.501	-0.173	0.255
-668.062	145.770	-0.271	-0.366
-667.047	147.823	-0.140	-0.191
-666.032	-163.882	-0.288	-0.014
-665.018	35.185	0.084	0.074
-664.003	-35.622	0.199	-0.109
-662.989	-200.000	-0.011	0.174
-661.974	4.194	0.024	0.018
-660.959	465.765	0.132	-0.299
-659.945	-14.595	-0.213	0.138
-658.930	314.993	-0.033	0.062
-657.916	102.444	-0.371	-0.437
-656.901	138.352	-0.041	0.054
-655.886	-123.343	0.460	-0.074
-654.872	-200.000	0.065	0.320
-653.857	-80.526	0.241	0.081
-652.843	-200.000	-0.027	0.173
-651.828	-50.502	-0.310	-0.147
-650.814	-98.459	0.020	-0.005
-649.799	-33.971	-0.188	-0.104
-648.784	-106.604	0.264	-0.059
-647.770	-74.279	-0.084	-0.031
-646.755	800.000	0.040	-0.130
-645.741	338.354	0.150	-0.294
-644.726	583.777	-0.111	-0.274
-643.711	263.167	0.263	0.460
-642.697	80.323	-0.118	0.128
-641.682	-200.000	0.001	0.110
-640.668	-167.935	-0.248	0.010
-639.653	328.549	0.041	-0.078
-638.638	298.887	0.131	0.242
-637.624	-200.000	-0.001	-0.114
-636.609	-60.751	0.096	-0.041
-635.595	-200.000	0.013	0.104
-634.580	24.841	-0.135	0.113
-633.565	-76.010	-0.223	0.079
-632.551	594.386	0.100	-0.249
-631.536	-156.834	-0.080	0.005
-630.522	-200.000	0.015	-0.120
-629.507	44.056	0.162	-0.149
-628.492	35.484	-0.153	-0.135
-627.478	200.412	-0.150	0.232
-626.463	800.000	0.058	-0.221
-625.449	-200.000	0.001	-0.238
-624.434	4.456	-0.394	-0.291
-623.419	49.953	0.121	0.115
-622.405	-11.368	-0.013	-0.009
-621.390	10.186	0.133	0.102
-620.376	-64.179	0.008	-0.003
-619.361	289.930	0.041	0.075
-618.346	-200.000	-0.035	0.174
-617.332	-200.000	-0.030	-0.142
-616.317	57.105	0.260	-0.255
-615.303	-52.934	-0.083	-0.038
-614.288	800.000	0.055	-0.160
-613.273	-26.406	0.139	-0.082
-612.259	-200.000	-0.003	-0.154
-611.244	-7.073	-0.118	-0.081
-610.230	10.139	-0.285	0.218
-609.215	429.904	-0.133	0.289
-608.201	800.000	0.040	0.126
-607.186	-36.076	-0.171	-0.093
-606.171	-149.366	-0.035	0.003
-605.157	587.876	0.105	0.260
-604.142	206.204	-0.113	0.177
-603.128	81.910	-0.079	0.086
-602.113	34.914	-0.169	0.149
-601.098	-65.994	-0.222	0.089
-600.084	-167.408	0.169	-0.007
-599.069	-52.667	-0.161	-0.074
-598.055	-30.231	-0.051	-0.029
-597.040	391.389	-0.109	0.227
-596.025	53.288	-0.185	-0.178
-595.011	-116.940	-0.468	-0.086
-593.996	-200.000	-0.031	-0.156
-592.982	-70.923	-0.127	-0.048
-591.967	669.137	-0.047	-0.121
-590.952	-200.000	0.017	-0.086
-589.938	-200.000	0.005	-0.443
-588.923	-31.214	-0.146	0.082
-587.909	60.000	-0.300	-0.298
-586.894	-200.000	-0.013	-0.112
-585.879	319.246	-0.073	-0.139
-584.865	127.064	0.109	-0.139
-583.850	615.192	0.073	0.184
-582.836	-200.000	-0.042	-0.223
-581.821	56.379	0.058	0.056
-580.806	108.446	0.116	0.139
-579.792	116.590	0.095	0.117
-578.777	776.889	0.060	-0.165
-577.763	198.295	0.087	-0.133
-576.748	238.778	0.116	0.194
-575.733	-138.079	0.159	0.018
-574.719	-122.066	-0.308	-0.051
-573.704	207.646	-0.132	-0.207
-572.690	5.721	0.095	0.070
-571.675	-101.617	-0.153	0.037
-570.661	800.000	-0.088	-0.301
-569.646	155.741	0.105	0.145
-568.631	315.428	0.141	0.267
-567.617	136.875	-0.246	-0.322
-566.602	-130.081	0.039	0.005
-565.588	-200.000	0.007	0.191
-564.573	230.103	0.014	-0.023
-563.558	18.271	0.106	-0.085
-562.544	800.000	0.077	0.242
-561.529	-48.291	-0.214	0.104
-560.515	272.916	0.098	-0.173
-559.500	800.000	-0.064	-0.228
-558.485	73.810	-0.083	-0.087
-557.471	-180.649	-0.166	-0.003
-556.456	800.000	0.078	-0.305
-555.442	-32.548	-0.375	0.209
-554.427	-200.000	0.054	0.421
-553.412	-52.395	0.238	-0.111
-552.398	-86.958	0.219	0.067
-551.383	228.306	-0.131	0.214
-550.369	423.964	-0.100	-0.215
-549.354	-6.891	-0.213	-0.145
-548.339	125.657	0.120	-0.152
-547.325	14.711	-0.123	0.096
-546.310	10.402	0.033	0.025
-545.296	151.920	0.272	0.372
-544.281	31.684	0.125	0.108
-543.266	7.428	0.061	0.045
-542.252	-140.000	0.242	-0.026
-541.237	-149.126	-0.183	-0.015
-540.223	-106.860	0.216	-0.048
-539.208	-62.359	0.112	-0.047
-538.193	260.533	-0.124	-0.214
-537.179	65.303	-0.197	0.200
-536.164	604.113	-0.078	-0.195
-535.150	222.404	-0.040	0.064
-534.135	210.159	0.087	-0.137
-533.121	-34.281	-0.239	0.131
-532.106	-200.000	-0.022	0.354
-531.091	74.094	-0.115	0.121
-530.077	-25.767	0.385	0.228
-529.062	5.813	0.015	-0.011
-528.048	-33.385	0.359	-0.199
-527.033	-69.806	-0.129	-0.049
-526.018	162.692	0.200	0.282
-525.004	800.000	0.052	0.179
-523.989	-76.046	-0.160	0.057
-522.975	227.162	0.061	0.099
-521.960	-200.000	0.027	0.196
-520.945	227.323	-0.105	-0.171
-519.931	800.000	0.049	0.159
-518.916	-200.000	0.003	0.018
-517.902	-151.743	0.255	0.019
-516.887	275.602	0.185	0.330
-515.872	-22.112	-0.157	-0.095
-514.858	-128.063	0.135	0.019
-513.843	53.578	0.087	-0.083
-512.829	-5.710	0.197	-0.135
-511.814	-95.458	0.269	-0.072
-510.799	-142.952	-0.027	0.003
-509.785	-94.092	-0.265	0.073
-508.770	-78.617	0.097	0.033
-507.756	-57.403	0.085	0.038
-506.741	347.861	-0.052	0.103
-505.726	410.410	0.029	0.061
-504.712	212.661	-0.031	-0.049
-503.697	42.792	0.177	-0.161
-502.683	111.992	-0.055	-0.066
-501.668	-200.000	-0.057	-0.303
-500.653	56.986	-0.084	0.082
-499.639	509.571	-0.124	-0.289
-498.624	-120.106	0.150	0.026
-497.610	30.184	-0.160	0.136
-496.595	93.815	-0.208	-0.236
-495.581	-120.435	-0.203	-0.034
-494.566	-78.356	0.229	-0.079
-493.551	634.445	-0.110	-0.279
-492.537	-29.326	0.173	-0.099
-491.522	125.748	0.120	0.151
-490.508	-21.552	-0.310	-0.189
-489.493	800.000	0.063	0.198
-488.478	-151.850	-0.097	0.007
-487.464	-45.566	-0.151	0.075
-486.449	800.000	0.095	0.281
-485.435	-200.000	0.009	-0.105
-484.420	-6.807	-0.140	0.095
-483.405	-157.721	0.176	0.010
-482.391	-105.199	0.308	-0.070
-481.376	476.714	0.048	-0.109
-480.362	800.000	-0.104	0.366
-479.347	800.000	-0.049	-0.149
-478.332	-109.988	-0.225	-0.047
-477.318	-79.264	0.309	-0.105
-476.303	-129.170	0.399	-0.056
-475.289	-23.329	0.060	-0.036
-474.274	130.508	-0.334	0.428
-473.259	-2.018	0.114	-0.080
-472.245	31.679	-0.342	-0.294
-471.230	-64.487	-0.207	-0.084
-470.216	10.137	0.177	-0.135
-469.201	-70.399	0.192	0.073
-468.186	137.115	0.240	0.314
-467.172	-200.000	-0.006	-0.100
-466.157	-20.402	0.333	0.205
-465.143	-26.804	0.094	-0.055
-464.128	245.659	-0.285	-0.480
-463.113	131.888	-0.138	0.178
-462.099	-99.692	-0.163	-0.041
-461.084	73.885	0.318	-0.334
-460.070	-179.148	-0.258	0.006
-459.055	-125.092	0.151	0.023
-458.040	-79.174	0.232	-0.079
-457.026	-50.593	0.412	0.194
-456.011	-62.591	-0.137	0.057
-454.997	502.865	0.086	0.199
-453.982	-108.910	0.145	-0.031
-452.968	361.318	-0.084	0.168
-451.953	217.879	-0.060	-0.095
-450.938	-113.451	-0.154	0.030
-449.924	-200.000	-0.006	-0.247
-448.909	800.000	-0.052	-0.186
-447.895	800.000	-0.048	-0.197
-446.880	-80.147	-0.234	0.078
-445.865	435.810	-0.106	0.230
-444.851	-200.000	-0.052	0.290
-443.836	-14.965	-0.218	0.140
-442.822	-116.696	0.215	-0.040
-441.807	104.186	-0.085	-0.100
-440.792	-200.000	0.023	-0.172
-439.778	800.000	0.059	-0.228
-438.763	-26.921	-0.104	0.061
-437.749	50.926	0.268	-0.253
-436.734	-47.695	0.091	-0.044
-435.719	-72.152	-0.451	-0.167
-434.705	238.675	0.081	-0.134
-433.690	228.271	0.208	0.338
-432.676	-200.000	-0.089	-0.747
-431.661	155.165	-0.110	-0.151
-430.646	186.033	-0.084	-0.124
-429.632	179.361	0.239	-0.349
-428.617	44.984	0.211	-0.194
-427.603	267.600	-0.101	-0.177
-426.588	-200.000	0.022	0.147
-425.573	-200.000	-0.018	0.172
-424.559	-36.039	-0.114	0.061
-423.544	-200.000	0.018	-0.250
-422.530	800.000	0.061	0.191
-421.515	68.469	-0.176	0.180
-420.500	-139.800	-0.324	-0.034
-419.486	96.519	0.167	0.190
-418.471	-73.119	0.285	0.104
-417.457	-33.518	0.359	-0.198
-416.442	-200.000	-0.001	0.062
-415.428	800.000	0.017	0.054
-414.413	-200.000	-0.010	0.080
-413.398	494.243	0.089	0.203
-412.384	434.277	-0.079	0.172
-411.369	-200.000	-0.045	0.210
-410.355	393.891	-0.170	0.354
-409.340	218.631	0.033	0.052
-408.325	-200.000	-0.002	0.234
-407.311	-200.000	-0.028	0.199
-406.296	-68.720	-0.281	-0.108
-405.282	800.000	0.020	-0.063
-404.267	-200.000	0.006	-0.045
-403.252	181.624	0.133	-0.194
-402.238	16.265	0.236	-0.186
-401.223	800.000	0.049	-0.146
-400.209	-62.397	-0.075	0.031
-399.194	7.806	-0.105	-0.079
-398.179	-126.621	-0.432	-0.064
-397.165	119.797	-0.091	0.113
-396.150	28.948	0.135	-0.114
-395.136	-164.119	-0.196	0.009
-394.121	-119.694	-0.292	0.050
-393.106	-127.785	-0.134	-0.019
-392.092	51.552	0.146	-0.138
-391.077	132.402	0.263	-0.338
-390.063	-149.536	0.185	0.015
-389.048	-200.000	0.014	-0.083
-388.033	-200.000	0.018	-0.180
-387.019	-36.774	-0.246	-0.132
-386.004	99.091	-0.076	0.088
-384.990	93.319	-0.103	-0.116
-383.975	-30.793	0.225	-0.127
-382.960	30.399	0.199	-0.169
-381.946	-124.314	-0.041	0.006
-380.931	-200.000	0.023	0.226
-379.917	800.000	-0.101	-0.326
-378.902	-63.052	-0.277	0.114
-377.888	42.810	0.264	0.240
-376.873	800.000	0.084	0.244
-375.858	-200.000	-0.060	0.363
-374.844	616.998	0.041	0.103
-373.829	663.132	0.081	-0.208
-372.815	-200.000	0.025	0.256
-371.800	-200.000	-0.014	-0.094
-370.785	2.898	-0.187	0.135
-369.771	-11.259	-0.077	0.051
-368.756	800.000	-0.087	0.271
-367.742	33.528	0.011	0.009
-366.727	-161.862	0.302	0.015
-365.712	-75.049	-0.225	-0.080
-364.698	-112.761	0.364	-0.072
-363.683	-29.821	-0.192	-0.109
-362.669	-200.000	0.010	-0.240
-361.654	17.848	0.267	0.211
-360.639	-88.475	-0.384	0.114
-359.625	208.700	0.073	0.114
-358.610	456.960	0.048	0.107
-357.596	-200.000	-0.055	0.297
-356.581	-34.850	-0.144	-0.078
-355.566	-131.975	-0.260	-0.034
-354.552	-83.127	0.075	-0.024
-353.537	-200.000	0.019	0.094
-352.523	-200.000	0.002	-0.223
-351.508	-27.434	-0.416	0.241
-350.493	-100.344	-0.116	0.029
-349.479	-76.848	-0.020	-0.007
-348.464	335.543	-0.041	-0.078
-347.450	25.669	-0.179	-0.148
-346.435	239.809	0.208	0.345
-345.420	-94.519	-0.474	0.128
-344.406	121.749	0.012	-0.015
-343.391	-200.000	0.017	0.287
-342.377	-144.287	-0.080	0.007
-341.362	800.000	0.077	-0.295
-340.348	228.637	-0.085	-0.138
-339.333	-138.909	0.165	-0.018
-338.318	425.328	-0.021	0.046
-337.304	-200.000	-0.069	-0.387
-336.289	29.757	0.019	0.016
-335.275	358.975	-0.055	0.109
-334.260	-71.724	0.229	0.085
-333.245	135.151	0.212	0.274
-332.231	132.224	0.071	0.091
-331.216	40.647	-0.066	0.059
-330.202	-80.712	-0.052	0.017
-329.187	41.175	-0.286	0.257
-328.172	-39.875	-0.241	0.125
-327.158	374.482	0.174	-0.352
-326.143	-132.946	0.447	-0.056
-325.129	-121.731	0.315	-0.052
-324.114	-146.745	0.093	-0.008
-323.099	179.894	0.040	-0.058
-322.085	-10.118	0.067	0.044
-321.070	72.283	0.168	-0.174
-320.056	64.826	-0.157	0.158
-319.041	-21.499	-0.076	0.046
-318.026	43.172	-0.108	-0.098
-317.012	-111.085	0.354	-0.072
-315.997	-21.656	-0.332	0.201
-314.983	-71.699	-0.182	0.068
-313.968	70.803	-0.048	0.049
-312.953	-200.000	-0.044	0.306
-311.939	-200.000	0.011	0.139
-310.924	-83.589	0.229	0.073
-309.910	800.000	-0.056	-0.217
-308.895	-108.984	0.275	-0.058
-307.880	-169.903	0.295	0.011
-306.866	-119.609	-0.088	-0.015
-305.851	-12.499	-0.226	-0.147
-304.837	-192.701	0.122	0.001
-303.822	-176.658	0.338	0.009
-302.807	-53.116	-0.160	0.073
-301.793	347.534	0.120	-0.235
-300.778	147.240	-0.264	0.353
-299.764	800.000	-0.038	0.148
-298.749	800.000	-0.027	-0.113
-297.735	195.674	0.153	0.231
-296.720	-200.000	0.021	0.378
-295.705	182.972	0.043	-0.062
-294.691	-111.842	0.048	0.010
-293.676	800.000	-0.057	0.211
-292.662	10.728	-0.131	0.100
-291.647	194.857	0.091	0.137
-290.632	-200.000	0.004	0.061
-289.618	784.114	-0.060	-0.164
-288.603	800.000	-0.045	-0.137
-287.589	143.372	0.209	-0.276
-286.574	-149.361	0.078	-0.006
-285.559	-200.000	0.018	-0.124
-284.545	-44.691	-0.207	0.103
-283.530	-200.000	-0.020	-0.117
-282.516	-116.263	0.208	0.038
-281.501	-32.688	0.349	-0.193
-280.486	-74.066	-0.105	0.038
-279.472	800.000	-0.074	0.234
-278.457	-179.589	-0.442	0.010
-277.443	27.493	0.157	0.131
-276.428	-97.805	-0.337	0.086
-275.413	-200.000	-0.032	-0.153
-274.399	254.917	0.199	-0.338
-273.384	-200.000	0.001	0.181
-272.370	-107.159	-0.316	0.069
-271.355	800.000	-0.047	-0.165
-270.340	-162.000	0.105	-0.005
-269.326	-200.000	0.017	-0.412
-268.311	28.120	0.214	0.179
-267.297	-38.996	0.137	0.071
-266.282	248.485	0.149	-0.250
-265.267	-23.569	0.295	-0.176
-264.253	-155.343	0.266	0.017
-263.238	-43.207	-0.194	-0.097
-262.224	-176.534	0.154	0.004
-261.209	92.943	-0.345	-0.386
-260.195	-200.000	0.003	0.044
-259.180	800.000	-0.085	-0.243
-258.165	-98.624	-0.204	-0.052
-257.151	30.639	0.276	-0.235
-256.136	-52.283	-0.260	-0.119
-255.122	28.225	-0.224	0.187
-254.107	-113.139	-0.085	-0.017
-253.092	-157.625	-0.080	-0.005
-252.078	-65.627	-0.044	-0.017
-251.063	-200.000	-0.034	-0.244
-250.049	136.852	0.114	-0.147
-249.034	30.430	-0.014	-0.012
-248.019	15.261	0.113	0.088
-247.005	-200.000	-0.026	0.198
-245.990	44.740	0.174	-0.159
-244.976	340.435	0.046	0.090
-243.961	-50.647	-0.218	-0.102
-242.946	9.802	-0.139	-0.105
-241.932	213.237	0.241	0.377
-240.917	218.898	0.190	0.301
-239.903	154.278	0.049	-0.066
-238.888	-44.243	-0.110	0.055
-237.873	55.741	0.074	0.071
-236.859	-24.153	0.361	0.214
-235.844	16.731	0.107	0.084
-234.830	241.305	0.181	0.300
-233.815	-200.000	0.010	-0.327
-232.800	-59.283	0.274	0.117
-231.786	-200.000	-0.019	0.199
-230.771	800.000	-0.075	-0.226
-229.757	-47.665	-0.108	0.052
-228.742	-16.882	-0.353	0.221
-227.727	206.443	0.196	0.303
-226.713	-200.000	0.019	0.300
-225.698	-200.000	-0.035	-0.193
-224.684	800.000	0.024	-0.074
-223.669	212.967	0.239	-0.374
-222.655	112.012	0.086	-0.103
-221.640	141.810	0.107	-0.140
-220.625	-23.768	-0.088	0.052
-219.611	43.287	-0.130	-0.117
-218.596	474.358	-0.100	-0.222
-217.582	-200.000	0.021	-0.112
-216.567	-94.956	-0.203	-0.054
-215.552	-200.000	0.018	-0.124
-214.538	130.633	0.112	0.142
-213.523	800.000	0.041	0.153
-212.509	179.872	0.023	-0.034
-211.494	65.092	-0.175	-0.175
-210.479	-115.651	0.291	0.054
-209.465	-200.000	0.005	0.095
-208.450	482.389	-0.113	0.253
-207.436	361.917	0.110	-0.218
-206.421	6.870	-0.181	-0.133
-205.406	-200.000	0.011	0.343
-204.392	-51.762	0.239	0.110
-203.377	-176.148	-0.196	-0.005
-202.363	-36.462	0.149	0.079
-201.348	363.369	0.101	0.200
-200.333	51.928	0.123	0.116
-199.319	-77.129	-0.151	-0.052
-198.304	-200.000	-0.004	-0.288
-197.290	-62.243	-0.147	0.061
-196.275	-200.000	-0.014	-0.140
-195.260	-200.000	0.009	-0.085
-194.246	800.000	-0.082	0.267
-193.231	-200.000	-0.017	-0.090
-192.217	800.000	-0.038	-0.130
-191.202	800.000	-0.053	0.224
-190.187	495.499	-0.047	-0.107
-189.173	-80.344	-0.234	-0.077
-188.158	70.327	0.190	0.194
-187.144	701.160	-0.140	-0.365
-186.129	-1.976	0.084	0.059
-185.114	318.582	0.096	0.179
-184.100	281.168	0.064	0.113
-183.085	-200.000	-0.042	0.273
-182.071	-200.000	0.005	-0.087
-181.056	-200.000	0.036	-0.244
-180.042	800.000	-0.040	-0.115
-179.027	-84.180	0.121	0.038
-178.012	434.962	0.112	-0.241
-176.998	-200.000	0.053	-0.235
-175.983	-200.000	-0.053	0.353
-174.969	-179.644	-0.141	-0.003
-173.954	154.049	0.262	0.354
-172.939	82.672	0.133	-0.143
-171.925	-200.000	-0.032	-0.213
-170.910	-62.749	0.097	0.040
-169.896	39.373	0.138	-0.122
-168.881	-36.320	-0.140	0.074
-167.866	588.240	0.077	0.188
-166.852	-200.000	0.051	0.458
-165.837	190.074	0.255	0.378
-164.823	800.000	0.062	0.192
-163.808	-139.774	0.443	-0.046
-162.793	-122.161	0.368	-0.060
-161.779	-200.000	-0.063	0.354
-160.764	48.444	-0.166	-0.154
-159.750	197.147	0.091	0.137
-158.735	-66.035	-0.330	-0.130
-157.720	752.943	-0.168	0.448
-156.706	116.002	-0.113	0.137
-155.691	800.000	-0.039	-0.110
-154.677	-200.000	-0.010	0.334
-153.662	-53.272	0.169	-0.076
-152.647	541.675	-0.207	-0.487
-151.633	32.009	-0.193	-0.164
-150.618	-99.451	0.389	0.097
-149.604	-100.096	0.324	-0.080
-148.589	225.614	0.136	-0.218
-147.574	-147.363	0.294	0.025
-146.560	81.727	-0.197	0.211
-145.545	800.000	-0.023	-0.073
-144.531	-2.483	0.177	-0.122
-143.516	323.858	-0.106	-0.200
-142.502	-38.653	0.086	-0.045
-141.487	-133.515	-0.225	-0.028
-140.472	-33.260	0.245	-0.134
-139.458	15.569	0.248	0.192
-138.443	-134.643	0.199	-0.024
-137.429	-200.000	0.016	-0.142
-136.414	-160.645	0.349	-0.018
-135.399	-31.422	-0.096	0.053
-134.385	58.279	-0.313	-0.303
-133.370	-200.000	0.064	-0.346
-132.356	-200.000	-0.034	0.336
-131.341	-172.657	-0.253	0.008
-130.326	-6.675	-0.263	-0.177
-129.312	16.285	-0.287	-0.224
-128.297	-200.000	-0.012	0.053
-127.283	800.000	-0.006	-0.023
-126.268	309.194	-0.026	-0.048
-125.253	-17.753	0.041	0.026
-124.239	-55.201	-0.159	0.071
-123.224	800.000	0.044	0.149
-122.210	11.011	0.259	-0.195
