DTS Sentinel unit serial number:	SN413079Multiplexer serial number:	ORYXHardware model number:	OX4-SRSoftware version number:	ORYX F/W v4.00 Oryx Data Collector v3.7.2.0data status	okinstallation	princeton_trtdifferential loss correction	single-endedforward channel	channel 4reverse channel	N/Adate	2019/09/15time	04:45:34forward acquisition time	60.00reverse acquisition time	0.00gamma	496.2192k internal	0.2311k external	0.2311temperature offset calibration	1.0036default loss term (dB/km)	0.3790temperature slope calibration	1.0000multiplexer offset coefficient	1.0000multiplexer slope coefficient	1.0000fibre end	0.00T internal ref (°C)	30.80T ext. ref 1 (°C)	4.74T ext. ref 2 (°C)	25.33length (m)	temperature (°C)	Stokes	anti-Stokes-747.200	-21.077	-0.132	-0.082
-746.185	406.578	0.079	0.168
-745.171	125.532	-0.029	0.037
-744.156	-200.000	0.097	0.551
-743.142	-0.337	-0.380	-0.274
-742.127	-112.793	0.208	0.042
-741.112	-84.054	0.244	-0.079
-740.098	-80.658	-0.215	0.073
-739.083	290.565	0.139	0.256
-738.069	800.000	-0.026	-0.112
-737.054	-34.658	0.074	-0.041
-736.039	336.243	-0.133	0.262
-735.025	-32.456	0.347	0.197
-734.010	-131.150	-0.256	-0.035
-732.996	-77.433	0.122	0.043
-731.981	-65.250	-0.192	0.078
-730.966	-139.318	-0.212	0.023
-729.952	-128.829	-0.183	0.026
-728.937	-200.000	0.038	-0.197
-727.923	-27.088	0.151	-0.089
-726.908	154.771	-0.178	-0.248
-725.894	800.000	0.098	-0.412
-724.879	11.556	0.072	-0.056
-723.864	-61.112	0.217	0.093
-722.850	-98.559	0.079	-0.020
-721.835	800.000	0.037	-0.135
-720.821	-13.848	-0.276	-0.181
-719.806	681.529	0.114	0.301
-718.791	67.472	0.099	0.102
-717.777	97.012	-0.200	0.233
-716.762	-200.000	0.002	0.248
-715.748	-200.000	0.003	0.340
-714.733	800.000	-0.060	-0.196
-713.718	-185.537	-0.028	-0.000
-712.704	204.493	-0.030	0.047
-711.689	197.762	0.087	0.135
-710.675	-32.932	0.322	-0.181
-709.660	800.000	0.013	-0.050
-708.645	-200.000	0.016	0.322
-707.631	233.456	-0.070	0.117
-706.616	-1.612	-0.108	0.077
-705.602	348.471	-0.046	-0.092
-704.587	-200.000	0.001	-0.066
-703.572	-97.607	-0.073	-0.019
-702.558	800.000	0.030	-0.133
-701.543	-200.000	0.007	0.061
-700.529	-147.515	-0.140	-0.012
-699.514	-34.275	0.236	0.131
-698.499	702.370	0.050	-0.135
-697.485	800.000	0.106	-0.349
-696.470	-200.000	0.009	-0.162
-695.456	484.664	0.069	0.160
-694.441	124.489	0.073	-0.093
-693.426	157.533	-0.243	-0.340
-692.412	313.778	-0.111	-0.211
-691.397	-200.000	0.003	-0.108
-690.383	458.865	-0.017	-0.039
-689.368	-140.924	0.162	0.017
-688.354	219.251	-0.154	0.250
-687.339	369.720	-0.115	-0.236
-686.324	-155.682	-0.278	-0.018
-685.310	81.437	-0.123	0.135
-684.295	-200.000	-0.039	-0.200
-683.281	-12.567	-0.154	0.102
-682.266	-200.000	-0.036	-0.351
-681.251	198.850	0.152	-0.235
-680.237	-13.715	-0.157	0.103
-679.222	132.830	-0.085	0.110
-678.208	57.669	-0.276	0.273
-677.193	-200.000	0.008	0.052
-676.178	-72.184	0.045	-0.017
-675.164	-200.000	-0.028	-0.175
-674.149	-200.000	-0.019	-0.263
-673.135	-54.381	-0.232	0.106
-672.120	1.790	0.321	-0.234
-671.105	334.675	0.079	-0.155
-670.091	-160.311	-0.079	-0.004
-669.076	-46.553	-0.172	-0.086
-668.062	-48.210	-0.043	-0.021
-667.047	581.646	-0.152	0.378
-666.032	77.865	0.046	-0.050
-665.018	-200.000	0.013	-0.253
-664.003	-31.836	0.158	-0.090
-662.989	-21.828	0.153	0.094
-661.974	26.904	-0.150	0.127
-660.959	-200.000	0.069	-0.310
-659.945	12.619	0.054	-0.043
-658.930	59.775	-0.135	-0.135
-657.916	-120.815	-0.091	0.016
-656.901	-200.000	-0.014	-0.192
-655.886	5.301	0.207	0.155
-654.872	-68.560	-0.420	0.165
-653.857	-170.923	0.034	-0.001
-652.843	-161.376	-0.207	0.011
-651.828	27.091	0.280	-0.238
-650.814	-71.351	0.272	-0.103
-649.799	99.999	-0.271	-0.318
-648.784	284.457	-0.059	0.107
-647.770	-76.441	0.103	0.037
-646.755	-200.000	-0.033	-0.258
-645.741	-112.097	0.245	-0.050
-644.726	-200.000	-0.000	0.041
-643.711	-29.399	0.114	0.066
-642.697	17.723	-0.193	0.156
-641.682	-200.000	-0.014	-0.156
-640.668	81.795	0.067	-0.074
-639.653	800.000	0.022	0.090
-638.638	-86.462	0.111	-0.034
-637.624	-117.239	0.274	-0.050
-636.609	800.000	-0.057	-0.237
-635.595	74.276	-0.119	0.126
-634.580	800.000	-0.058	0.208
-633.565	-2.940	-0.088	0.062
-632.551	71.968	0.215	-0.226
-631.536	-60.418	-0.313	-0.135
-630.522	436.356	0.123	-0.272
-629.507	163.516	-0.095	-0.135
-628.492	-177.288	-0.154	-0.004
-627.478	57.922	-0.091	-0.090
-626.463	-163.913	0.252	0.012
-625.449	105.288	-0.082	-0.097
-624.434	308.818	0.067	0.126
-623.419	50.705	-0.227	-0.217
-622.405	103.151	-0.145	-0.171
-621.390	115.663	0.167	0.206
-620.376	406.658	-0.112	0.239
-619.361	-44.028	0.358	0.182
-618.346	-200.000	0.011	-0.363
-617.332	-50.368	-0.194	0.092
-616.317	24.669	0.159	0.133
-615.303	4.843	0.183	0.136
-614.288	12.343	-0.135	0.105
-613.273	-200.000	0.006	-0.095
-612.259	-200.000	-0.066	-0.302
-611.244	800.000	-0.071	-0.200
-610.230	-200.000	0.023	-0.211
-609.215	-200.000	0.020	0.216
-608.201	-200.000	0.032	-0.315
-607.186	46.941	-0.132	-0.124
-606.171	-119.389	-0.051	-0.009
-605.157	800.000	-0.048	0.172
-604.142	-180.944	-0.174	-0.004
-603.128	-127.371	0.060	0.009
-602.113	245.484	-0.085	-0.145
-601.098	162.269	-0.037	0.053
-600.084	15.225	-0.051	-0.041
-599.069	-129.460	0.110	0.015
-598.055	30.341	-0.100	0.086
-597.040	-200.000	-0.033	-0.241
-596.025	-200.000	0.006	0.318
-595.011	-200.000	0.033	-0.204
-593.996	137.920	0.045	-0.060
-592.982	-125.931	-0.224	0.034
-591.967	800.000	-0.068	0.264
-590.952	187.466	0.127	0.191
-589.938	-200.000	0.011	0.282
-588.923	-37.033	-0.191	0.103
-587.909	31.316	0.100	-0.087
-586.894	78.174	0.117	-0.126
-585.879	-160.931	0.206	-0.011
-584.865	-19.652	0.300	0.188
-583.850	361.833	0.052	0.105
-582.836	20.079	-0.113	-0.092
-581.821	800.000	-0.030	0.105
-580.806	-101.082	0.082	0.020
-579.792	-154.476	-0.226	-0.015
-578.777	800.000	0.081	-0.260
-577.763	-160.221	0.139	0.008
-576.748	-21.404	-0.093	-0.057
-575.733	179.878	-0.008	-0.012
-574.719	-200.000	-0.025	0.155
-573.704	-200.000	0.016	-0.170
-572.690	-97.874	0.374	0.097
-571.675	-136.397	0.200	-0.023
-570.661	84.530	-0.148	-0.163
-569.646	-146.196	0.311	-0.028
-568.631	231.581	0.090	0.149
-567.617	-200.000	0.033	-0.231
-566.602	-145.531	-0.247	-0.022
-565.588	-66.741	-0.019	-0.008
-564.573	800.000	-0.032	0.141
-563.558	6.963	0.293	-0.220
-562.544	268.006	0.126	0.223
-561.529	-200.000	0.000	-0.149
-560.515	-42.157	-0.465	0.240
-559.500	-100.921	-0.292	0.072
-558.485	79.527	-0.141	-0.152
-557.471	59.960	0.068	-0.067
-556.456	-19.278	0.225	-0.141
-555.442	-172.058	0.191	0.006
-554.427	800.000	-0.032	0.094
-553.412	763.730	0.126	-0.346
-552.398	-56.745	0.170	0.076
-551.383	-21.913	0.183	0.112
-550.369	46.637	-0.286	0.267
-549.354	-200.000	-0.008	0.234
-548.339	18.885	-0.108	0.087
-547.325	-100.504	0.207	-0.052
-546.310	-132.928	-0.148	0.019
-545.296	-124.993	0.183	-0.028
-544.281	-71.259	-0.189	0.071
-543.266	-200.000	0.004	0.113
-542.252	-8.166	0.178	0.121
-541.237	-75.344	0.122	-0.044
-540.223	-3.804	-0.152	0.106
-539.208	-44.172	0.013	-0.006
-538.193	173.837	-0.206	0.299
-537.179	800.000	-0.029	0.118
-536.164	-41.104	0.251	-0.130
-535.150	92.041	-0.157	-0.178
-534.135	-73.533	0.358	-0.132
-533.121	800.000	0.083	0.304
-532.106	-94.631	-0.085	0.023
-531.091	-200.000	-0.035	0.269
-530.077	-144.472	-0.148	-0.014
-529.062	101.389	0.116	0.136
-528.048	45.198	-0.147	0.137
-527.033	-200.000	0.015	0.108
-526.018	-61.765	-0.392	-0.165
-525.004	95.319	-0.182	-0.209
-523.989	252.192	0.151	-0.259
-522.975	-143.972	0.507	-0.048
-521.960	145.143	-0.014	0.019
-520.945	44.463	0.112	-0.103
-519.931	-5.910	-0.141	-0.097
-518.916	-200.000	-0.033	0.311
-517.902	24.553	0.217	0.181
-516.887	-27.812	-0.194	0.113
-515.872	-11.537	0.106	-0.070
-514.858	-27.115	-0.057	0.034
-513.843	-36.525	-0.121	0.065
-512.829	20.643	0.223	-0.181
-511.814	9.321	-0.259	-0.197
-510.799	-200.000	0.043	-0.301
-509.785	-47.353	-0.168	-0.082
-508.770	-128.406	0.252	0.036
-507.756	80.944	-0.232	-0.251
-506.741	-161.376	-0.385	0.020
-505.726	-80.104	0.252	-0.085
-504.712	188.237	-0.110	0.166
-503.697	97.089	0.127	-0.146
-502.683	-13.716	-0.147	-0.096
-501.668	122.663	0.060	-0.076
-500.653	153.565	-0.127	0.175
-499.639	-104.500	-0.251	0.058
-498.624	-33.112	-0.378	0.211
-497.610	-200.000	-0.006	-0.153
-496.595	-200.000	0.009	0.079
-495.581	-73.155	-0.262	-0.096
-494.566	-200.000	0.007	-0.141
-493.551	152.509	-0.078	-0.107
-492.537	800.000	0.082	0.331
-491.522	11.034	-0.112	0.086
-490.508	-61.175	-0.138	0.059
-489.493	17.436	-0.195	0.155
-488.478	21.367	-0.238	0.194
-487.464	-132.083	0.220	-0.029
-486.449	800.000	0.069	-0.217
-485.435	800.000	-0.030	0.086
-484.420	58.648	0.259	0.256
-483.405	-47.034	-0.178	-0.087
-482.391	-134.113	0.272	0.034
-481.376	143.208	-0.115	-0.154
-480.362	-123.877	0.140	0.022
-479.347	18.074	-0.128	0.102
-478.332	135.218	0.061	0.079
-477.318	-200.000	-0.045	-0.238
-476.303	43.592	0.219	-0.202
-475.289	-95.227	0.285	0.077
-474.274	148.634	0.072	-0.098
-473.259	-39.593	-0.405	-0.213
-472.245	-51.066	0.128	0.060
-471.230	-83.500	-0.041	-0.013
-470.216	800.000	-0.065	0.196
-469.201	124.108	-0.214	-0.269
-468.186	73.049	-0.286	-0.301
-467.172	651.685	0.100	0.258
-466.157	800.000	-0.131	-0.449
-465.143	315.364	0.138	0.261
-464.128	212.629	-0.077	-0.122
-463.113	-161.991	-0.258	0.013
-462.099	-200.000	0.035	0.280
-461.084	-200.000	-0.037	-0.235
-460.070	800.000	-0.053	0.177
-459.055	2.774	0.040	-0.029
-458.040	144.007	-0.285	0.382
-457.026	153.580	-0.027	0.037
-456.011	56.473	-0.125	-0.122
-454.997	344.540	-0.084	0.165
-453.982	-36.899	0.321	0.173
-452.968	303.973	-0.061	-0.114
-451.953	-200.000	0.014	0.261
-450.938	131.673	-0.073	-0.094
-449.924	800.000	-0.077	-0.230
-448.909	800.000	0.020	0.060
-447.895	58.885	-0.121	0.120
-446.880	-200.000	-0.017	-0.234
-445.865	-36.394	0.225	0.122
-444.851	-67.989	0.037	0.015
-443.836	534.451	-0.188	-0.448
-442.822	-42.842	-0.147	-0.075
-441.807	-146.353	0.186	0.016
-440.792	38.266	-0.202	-0.181
-439.778	160.157	-0.102	-0.142
-438.763	-28.295	0.257	-0.149
-437.749	-137.363	0.200	0.023
-436.734	-83.591	-0.147	0.047
-435.719	-133.830	0.214	-0.027
-434.705	800.000	-0.024	-0.074
-433.690	-200.000	-0.042	0.284
-432.676	-94.977	-0.278	0.075
-431.661	288.319	-0.236	0.428
-430.646	34.313	-0.263	-0.230
-429.632	162.604	-0.050	0.071
-428.617	-161.569	-0.095	-0.005
-427.603	800.000	-0.036	0.155
-426.588	-9.192	0.326	-0.219
-425.573	-89.563	0.307	0.090
-424.559	73.455	0.250	0.262
-423.544	-148.787	-0.131	0.011
-422.530	-200.000	0.008	0.113
-421.515	800.000	-0.084	0.334
-420.500	33.100	0.132	0.114
-419.486	-79.526	0.435	0.147
-418.471	242.067	-0.037	0.062
-417.457	-150.695	-0.334	0.026
-416.442	53.662	-0.264	-0.254
-415.428	51.481	-0.214	0.204
-414.413	-34.273	0.292	0.161
-413.398	570.534	-0.076	0.186
-412.384	651.220	0.041	0.105
-411.369	-200.000	0.008	0.114
-410.355	111.834	0.080	0.096
-409.340	800.000	-0.073	-0.311
-408.325	-200.000	-0.041	-0.445
-407.311	-131.721	0.091	0.012
-406.296	-97.161	-0.232	0.061
-405.282	-200.000	0.020	0.143
-404.267	-144.643	-0.281	-0.026
-403.252	70.198	0.048	0.050
-402.238	-62.289	0.228	0.095
-401.223	-58.512	0.273	0.119
-400.209	9.931	0.074	0.056
-399.194	800.000	-0.142	0.412
-398.179	-78.170	-0.373	0.129
-397.165	202.022	-0.124	-0.192
-396.150	77.575	0.133	-0.142
-395.136	11.253	-0.213	0.164
-394.121	491.240	0.037	-0.084
-393.106	800.000	0.039	0.127
-392.092	-162.018	-0.279	-0.014
-391.077	-191.243	0.158	-0.002
-390.063	693.368	0.058	-0.153
-389.048	-200.000	-0.013	-0.293
-388.033	155.451	0.076	0.105
-387.019	800.000	-0.059	0.253
-386.004	-20.262	0.283	0.175
-384.990	-152.726	-0.402	-0.029
-383.975	390.515	-0.122	0.253
-382.960	-54.790	-0.065	-0.029
-381.946	97.365	-0.067	-0.077
-380.931	-131.730	-0.191	0.025
-379.917	35.469	0.121	-0.107
-378.902	152.265	-0.225	-0.308
-377.888	-200.000	0.066	-0.299
-376.873	353.657	-0.046	0.090
-375.858	225.015	0.098	-0.159
-374.844	-200.000	-0.215	-0.001
-373.829	-68.557	-0.071	-0.028
-372.815	-26.886	0.194	0.113
-371.800	-84.382	0.258	0.082
-370.785	-59.004	-0.070	0.030
-369.771	551.345	0.184	-0.441
-368.756	-176.612	0.047	0.001
-367.742	-27.016	-0.155	-0.091
-366.727	46.302	0.124	0.115
-365.712	696.024	-0.101	0.265
-364.698	800.000	0.066	-0.242
-363.683	-200.000	0.017	-0.141
-362.669	-200.000	-0.054	-0.346
-361.654	-98.826	-0.030	0.008
-360.639	-200.000	0.022	0.099
-359.625	14.465	0.172	-0.134
-358.610	-22.729	-0.148	0.089
-357.596	-176.092	-0.051	0.001
-356.581	-50.899	0.239	-0.112
-355.566	-72.086	0.218	0.081
-354.552	-179.380	-0.262	-0.006
-353.537	-40.901	0.050	0.026
-352.523	-200.000	-0.048	0.331
-351.508	6.766	-0.174	0.129
-350.493	437.498	0.117	-0.255
-349.479	-44.705	-0.272	0.136
-348.464	800.000	0.048	0.192
-347.450	-87.029	0.415	0.126
-346.435	-10.818	-0.130	0.086
-345.420	-84.797	0.219	-0.069
-344.406	256.449	0.043	-0.074
-343.391	472.214	-0.148	-0.333
-342.377	-140.977	0.328	-0.034
-341.362	-103.213	0.168	-0.040
-340.348	-75.829	0.166	-0.059
-339.333	-134.195	0.167	-0.021
-338.318	294.041	0.074	0.134
-337.304	115.618	-0.018	-0.022
-336.289	-64.909	0.072	-0.029
-335.275	-16.995	-0.129	-0.081
-334.260	-51.886	0.292	0.136
-333.245	-82.940	-0.253	-0.082
-332.231	-65.577	-0.084	-0.034
-331.216	109.803	0.113	-0.135
-330.202	-200.000	0.028	0.128
-329.187	-200.000	0.016	0.318
-328.172	-200.000	-0.011	0.094
-327.158	161.946	-0.228	0.319
-326.143	-97.337	-0.162	-0.042
-325.129	800.000	-0.076	0.234
-324.114	-32.443	0.249	0.139
-323.099	6.419	0.183	0.135
-322.085	192.490	0.125	0.188
-321.070	-29.518	-0.017	-0.010
-320.056	800.000	-0.071	0.249
-319.041	195.558	0.157	-0.239
-318.026	-74.253	-0.168	-0.060
-317.012	-186.279	0.062	0.001
-315.997	53.800	-0.209	0.201
-314.983	10.523	-0.205	-0.156
-313.968	-16.360	0.301	0.190
-312.953	261.204	-0.154	-0.267
-311.939	228.279	0.139	-0.226
-310.924	-20.606	0.118	0.072
-309.910	-94.586	-0.124	0.034
-308.895	-73.817	-0.076	-0.028
-307.880	66.382	-0.156	-0.158
-306.866	-200.000	-0.014	0.203
-305.851	-51.464	-0.367	-0.171
-304.837	-68.963	-0.214	-0.082
-303.822	-30.501	0.093	0.052
-302.807	-54.833	-0.108	0.049
-301.793	53.973	-0.069	0.066
-300.778	437.442	0.158	-0.343
-299.764	164.171	-0.227	-0.319
-298.749	4.349	0.089	0.065
-297.735	-200.000	0.015	0.129
-296.720	-80.944	-0.105	-0.035
-295.705	380.463	0.075	0.154
-294.691	-200.000	-0.003	-0.149
-293.676	547.303	-0.065	-0.156
-292.662	-200.000	0.038	-0.275
-291.647	-49.050	0.177	-0.085
-290.632	140.778	0.053	0.070
-289.618	-6.452	-0.208	-0.141
-288.603	-49.788	0.069	-0.033
-287.589	46.929	0.195	0.181
-286.574	-200.000	0.010	-0.071
-285.559	670.745	-0.032	-0.082
-284.545	85.508	0.047	-0.052
-283.530	-108.066	0.200	-0.043
-282.516	-200.000	0.022	-0.159
-281.501	165.400	-0.160	-0.226
-280.486	-31.308	-0.054	-0.030
-279.472	-137.390	-0.323	-0.036
-278.457	75.218	0.077	-0.081
-277.443	-118.980	-0.350	0.061
-276.428	-116.870	0.128	0.023
-275.413	-94.099	-0.064	0.018
-274.399	-88.242	0.190	0.057
-273.384	-99.821	-0.267	-0.067
-272.370	71.275	0.203	-0.210
-271.355	-200.000	0.036	0.166
-270.340	-200.000	0.036	0.157
-269.326	-132.314	-0.191	-0.025
-268.311	74.595	0.187	0.196
-267.297	-200.000	-0.071	-0.414
-266.282	287.047	-0.066	0.119
-265.267	57.880	0.369	-0.360
-264.253	-200.000	-0.005	-0.157
-263.238	232.988	0.100	0.163
-262.224	-115.577	-0.412	-0.077
-261.209	-40.370	0.113	0.059
-260.195	800.000	-0.065	-0.227
-259.180	575.653	0.061	-0.149
-258.165	-200.000	-0.019	-0.178
-257.151	130.566	0.159	-0.203
-256.136	800.000	-0.037	0.125
-255.122	52.653	-0.245	0.233
-254.107	-200.000	-0.028	0.132
-253.092	-149.495	0.359	0.028
-252.078	-130.455	-0.057	-0.008
-251.063	-200.000	0.005	-0.034
-250.049	209.410	0.092	-0.143
-249.034	-75.253	-0.213	-0.076
-248.019	-122.996	-0.024	0.004
-247.005	17.133	0.142	0.112
-245.990	-135.200	-0.259	0.031
-244.976	-21.505	-0.100	0.060
-243.961	95.314	0.082	0.093
-242.946	247.806	-0.100	-0.168
-241.932	800.000	0.079	0.223
-240.917	167.576	-0.046	0.065
-239.903	-73.628	0.230	0.083
-238.888	118.931	-0.243	-0.299
-237.873	764.990	-0.007	0.020
-236.859	88.647	-0.058	-0.064
-235.844	-7.919	0.248	0.166
-234.830	253.598	-0.059	0.101
-233.815	-200.000	0.093	-0.417
-232.800	-135.661	-0.309	-0.036
-231.786	-182.601	0.253	-0.005
-230.771	115.061	0.115	-0.140
-229.757	-140.691	0.284	0.029
-228.742	82.138	-0.224	-0.242
-227.727	-192.355	0.157	-0.001
-226.713	-36.870	-0.354	0.189
-225.698	-107.006	-0.063	0.014
-224.684	-172.419	0.304	-0.010
-223.669	-37.702	-0.140	-0.074
-222.655	556.254	-0.079	-0.189
-221.640	125.194	0.173	0.217
-220.625	68.096	0.141	0.143
-219.611	800.000	0.068	0.209
-218.596	3.789	0.127	-0.092
-217.582	-112.626	-0.127	0.025
-216.567	-54.465	-0.076	0.034
-215.552	66.095	0.300	0.303
-214.538	-200.000	0.001	-0.092
-213.523	-43.739	-0.105	-0.053
-212.509	-121.519	-0.240	0.040
-211.494	16.692	0.289	-0.227
-210.479	151.755	-0.229	-0.310
-209.465	800.000	0.056	0.239
-208.450	-139.332	-0.076	-0.008
-207.436	-55.014	0.167	0.075
-206.421	-91.913	-0.128	0.036
-205.406	-128.064	0.116	0.016
-204.392	-198.337	0.131	0.001
-203.377	-49.588	0.184	0.087
-202.363	340.438	0.128	-0.248
-201.348	-52.308	-0.272	0.125
-200.333	40.700	0.071	-0.064
-199.319	-40.043	-0.059	0.031
-198.304	567.342	-0.087	0.210
-197.290	135.153	-0.121	0.156
-196.275	-16.610	-0.246	-0.155
-195.260	86.160	0.149	-0.163
-194.246	-114.697	-0.148	0.028
-193.231	800.000	-0.062	0.205
-192.217	-116.078	-0.075	-0.014
-191.202	-99.907	-0.162	-0.040
-190.187	-82.625	0.279	0.090
-189.173	23.966	-0.302	0.248
-188.158	-57.675	-0.324	-0.141
-187.144	57.664	0.156	0.152
-186.129	4.347	0.164	0.119
-185.114	525.252	0.149	0.349
-184.100	16.685	0.191	0.150
-183.085	-43.857	0.136	0.068
-182.071	118.489	0.074	0.090
-181.056	-200.000	0.037	0.286
-180.042	303.579	0.131	-0.241
-179.027	-200.000	-0.001	-0.109
-178.012	-103.561	0.125	0.029
-176.998	-200.000	0.258	-0.001
-175.983	-69.237	-0.103	-0.039
-174.969	205.700	0.099	0.152
-173.954	-89.788	0.179	0.052
-172.939	125.971	-0.183	0.230
-171.925	16.174	0.153	0.120
-170.910	-122.525	0.198	-0.032
-169.896	-200.000	-0.025	-0.211
-168.881	-80.043	0.225	-0.075
-167.866	-77.579	-0.036	-0.012
-166.852	318.313	-0.117	-0.220
-165.837	78.762	0.260	-0.276
-164.823	-200.000	0.006	0.465
-163.808	-136.842	-0.031	0.004
-162.793	-56.902	-0.229	-0.100
-161.779	28.576	0.205	0.172
-160.764	-169.374	0.394	-0.014
-159.750	800.000	0.172	-0.542
-158.735	115.345	-0.088	0.106
-157.720	-103.282	0.080	-0.019
-156.706	-96.728	0.133	0.035
-155.691	800.000	0.032	0.133
-154.677	72.118	-0.052	0.054
-153.662	-153.024	-0.181	0.013
-152.647	2.283	0.381	0.274
-151.633	-67.986	0.291	-0.112
-150.618	800.000	0.074	0.225
-149.604	-103.959	0.151	0.035
-148.589	204.672	-0.145	0.224
-147.574	-153.146	-0.074	-0.005
-146.560	-47.672	0.336	-0.162
-145.545	-180.760	0.279	0.006
-144.531	-171.505	-0.355	-0.012
-143.516	219.886	-0.058	-0.092
-142.502	800.000	0.057	0.224
-141.487	66.044	-0.119	-0.119
-140.472	336.608	0.236	0.454
-139.458	800.000	0.047	-0.138
-138.443	153.654	-0.226	0.307
-137.429	-56.478	0.035	0.016
-136.414	-184.211	-0.090	-0.001
-135.399	137.221	-0.202	0.261
-134.385	-142.634	0.322	-0.031
-133.370	45.195	0.354	0.324
-132.356	486.399	-0.059	-0.134
-131.341	-17.339	-0.147	-0.092
-130.326	-106.555	0.279	0.062
-129.312	-150.851	0.249	0.019
-128.297	-176.950	-0.178	-0.004
-127.283	-200.000	-0.008	0.103
-126.268	-78.997	-0.163	-0.055
-125.253	-200.000	-0.035	0.154
-124.239	28.559	0.103	-0.086
-123.224	20.251	0.212	0.170
-122.210	119.146	0.157	0.192
-121.195	5.522	0.225	0.164
