DTS Sentinel unit serial number:	SN413079Multiplexer serial number:	ORYXHardware model number:	OX4-SRSoftware version number:	ORYX F/W v4.00 Oryx Data Collector v3.7.2.0data status	okinstallation	princeton_trtdifferential loss correction	single-endedforward channel	channel 4reverse channel	N/Adate	2019/09/16time	10:13:35forward acquisition time	60.00reverse acquisition time	0.00gamma	496.2192k internal	0.2301k external	0.2301temperature offset calibration	0.9955default loss term (dB/km)	0.3790temperature slope calibration	1.0000multiplexer offset coefficient	1.0000multiplexer slope coefficient	1.0000fibre end	0.00T internal ref (°C)	34.28T ext. ref 1 (°C)	12.47T ext. ref 2 (°C)	33.16length (m)	temperature (°C)	Stokes	anti-Stokes-747.200	-122.564	-0.212	-0.035
-746.185	22.723	-0.475	0.397
-745.171	-131.089	-0.085	0.012
-744.156	-109.296	0.015	0.003
-743.142	-78.606	-0.128	0.045
-742.127	-200.000	0.008	0.318
-741.112	111.611	0.061	-0.074
-740.098	99.549	0.152	0.179
-739.083	-172.385	-0.280	-0.009
-738.069	72.702	0.174	0.185
-737.054	432.379	0.037	-0.082
-736.039	-2.962	-0.182	0.130
-735.025	-48.480	-0.112	0.055
-734.010	-180.462	-0.217	-0.005
-732.996	-96.071	-0.168	0.046
-731.981	650.921	0.067	0.175
-730.966	11.130	0.200	-0.156
-729.952	-141.992	-0.287	-0.029
-728.937	583.909	-0.050	0.126
-727.923	-122.646	0.131	-0.022
-726.908	-166.037	0.042	-0.002
-725.894	800.000	-0.060	0.238
-724.879	-101.160	0.252	0.063
-723.864	-68.165	-0.192	-0.076
-722.850	-77.059	0.380	0.135
-721.835	74.822	0.038	-0.041
-720.821	229.176	-0.270	-0.449
-719.806	-50.749	0.192	-0.092
-718.791	-200.000	0.014	0.103
-717.777	-46.771	-0.306	0.153
-716.762	230.179	0.121	-0.201
-715.748	-98.854	-0.258	0.067
-714.733	-143.582	-0.348	0.034
-713.718	-160.456	-0.154	-0.008
-712.704	800.000	-0.116	0.362
-711.689	-31.608	0.299	-0.171
-710.675	-200.000	0.003	-0.092
-709.660	34.118	-0.079	-0.070
-708.645	516.106	0.082	-0.196
-707.631	800.000	-0.084	-0.279
-706.616	-67.434	0.143	-0.057
-705.602	86.865	-0.076	-0.085
-704.587	145.554	-0.029	0.040
-703.572	-110.179	0.174	0.037
-702.558	-200.000	0.012	0.325
-701.543	503.306	0.039	-0.093
-700.529	-93.667	0.231	0.065
-699.514	-200.000	-0.007	0.152
-698.499	-74.058	0.031	-0.012
-697.485	-200.000	0.056	-0.394
-696.470	-5.415	0.191	-0.134
-695.456	-172.484	0.161	0.005
-694.441	-200.000	-0.026	-0.357
-693.426	-77.971	0.068	0.024
-692.412	-52.436	-0.183	0.086
-691.397	-200.000	-0.052	-0.268
-690.383	-34.313	-0.206	-0.115
-689.368	14.888	-0.069	-0.055
-688.354	155.449	-0.121	-0.170
-687.339	800.000	0.081	-0.248
-686.324	-74.642	-0.191	0.070
-685.310	800.000	-0.025	-0.101
-684.295	-121.971	-0.138	-0.023
-683.281	-137.345	-0.128	-0.015
-682.266	-133.537	-0.178	0.023
-681.251	-149.469	-0.212	0.017
-680.237	-103.435	-0.256	-0.061
-679.222	800.000	-0.056	-0.192
-678.208	14.299	0.183	-0.145
-677.193	-121.309	0.172	-0.029
-676.178	-178.513	-0.393	-0.009
-675.164	286.113	-0.218	0.400
-674.149	-140.098	-0.538	-0.058
-673.135	-77.249	0.305	-0.108
-672.120	-76.347	-0.387	-0.138
-671.105	-200.000	-0.018	-0.106
-670.091	-49.474	0.221	0.107
-669.076	-87.985	0.195	0.059
-668.062	604.596	-0.084	0.212
-667.047	-200.000	0.086	-0.427
-666.032	-6.040	0.207	0.144
-665.018	-178.643	-0.159	0.004
-664.003	800.000	-0.145	-0.468
-662.989	138.954	-0.249	-0.332
-661.974	-200.000	-0.003	-0.144
-660.959	88.354	0.333	-0.376
-659.945	28.885	-0.369	-0.317
-658.930	-192.964	-0.371	-0.003
-657.916	47.605	-0.114	-0.108
-656.901	56.391	0.293	-0.289
-655.886	248.869	0.216	-0.371
-654.872	800.000	-0.086	-0.293
-653.857	-200.000	0.016	0.207
-652.843	800.000	-0.124	-0.489
-651.828	-5.608	-0.105	0.073
-650.814	-110.328	-0.241	0.051
-649.799	-200.000	0.019	-0.099
-648.784	-87.197	-0.339	0.105
-647.770	79.795	-0.188	0.205
-646.755	-43.178	-0.212	-0.109
-645.741	-45.996	-0.071	0.035
-644.726	-200.000	-0.028	-0.367
-643.711	-45.501	-0.160	0.081
-642.697	-135.551	0.015	0.002
-641.682	-98.840	0.050	-0.013
-640.668	-195.095	-0.367	0.003
-639.653	800.000	0.033	-0.131
-638.638	-95.320	-0.088	-0.024
-637.624	117.969	-0.190	-0.237
-636.609	1.954	-0.271	-0.198
-635.595	-92.365	-0.379	-0.108
-634.580	510.266	0.047	0.110
-633.565	-200.000	0.012	-0.160
-632.551	-200.000	-0.020	-0.120
-631.536	95.840	0.093	-0.108
-630.522	-200.000	-0.055	-0.255
-629.507	-199.438	0.186	0.001
-628.492	-73.467	0.212	-0.078
-627.478	-28.655	0.153	0.089
-626.463	84.452	-0.028	0.031
-625.449	622.653	-0.040	-0.102
-624.434	800.000	0.077	-0.336
-623.419	-46.801	-0.102	-0.050
-622.405	-200.000	0.006	-0.185
-621.390	800.000	0.048	-0.185
-620.376	151.596	0.141	-0.195
-619.361	-91.748	-0.116	0.033
-618.346	235.150	-0.130	0.218
-617.332	-86.568	0.192	-0.060
-616.317	-60.565	0.213	0.092
-615.303	-117.834	0.390	0.071
-614.288	-77.565	0.130	0.046
-613.273	-65.310	0.167	0.068
-612.259	-123.576	-0.075	0.012
-611.244	-169.928	0.158	0.006
-610.230	-119.802	0.350	0.061
-609.215	800.000	0.098	-0.337
-608.201	510.871	0.045	0.106
-607.186	644.566	0.063	0.162
-606.171	-200.000	-0.033	0.261
-605.157	-125.458	-0.525	0.081
-604.142	800.000	-0.070	0.294
-603.128	-116.715	-0.046	0.009
-602.113	-36.560	-0.160	-0.087
-601.098	370.349	0.077	-0.159
-600.084	-129.202	-0.100	0.014
-599.069	135.358	-0.096	0.127
-598.055	53.176	-0.238	-0.231
-597.040	-144.938	0.106	-0.010
-596.025	-200.000	-0.052	0.339
-595.011	-92.393	-0.223	-0.063
-593.996	-200.000	0.004	0.096
-592.982	16.313	-0.058	-0.046
-591.967	800.000	-0.023	0.087
-590.952	800.000	-0.070	-0.255
-589.938	-68.724	-0.131	0.051
-588.923	117.765	0.090	0.113
-587.909	-17.972	-0.161	-0.102
-586.894	28.158	-0.184	-0.157
-585.879	800.000	0.107	0.352
-584.865	800.000	0.066	0.200
-583.850	-200.000	-0.030	0.167
-582.836	-86.658	0.262	-0.081
-581.821	-48.461	0.341	-0.166
-580.806	-59.205	-0.214	0.093
-579.792	-179.148	-0.322	0.007
-578.777	139.436	-0.057	-0.076
-577.763	-200.000	-0.009	-0.054
-576.748	-200.000	0.004	0.137
-575.733	137.316	0.213	0.283
-574.719	293.882	-0.144	-0.266
-573.704	-200.000	0.019	0.201
-572.690	800.000	0.123	-0.400
-571.675	-9.359	-0.328	0.222
-570.661	-19.157	0.233	-0.147
-569.646	42.227	0.156	-0.144
-568.631	106.064	-0.103	0.123
-567.617	101.740	0.183	-0.216
-566.602	-123.443	-0.085	0.014
-565.588	4.181	-0.208	0.154
-564.573	606.479	0.114	0.289
-563.558	-101.897	-0.174	-0.043
-562.544	-200.000	0.047	-0.388
-561.529	800.000	-0.012	-0.041
-560.515	18.860	0.027	-0.022
-559.500	800.000	0.025	-0.096
-558.485	21.814	0.236	-0.195
-557.471	-200.000	-0.023	0.188
-556.456	-173.384	-0.119	0.004
-555.442	239.613	-0.180	0.304
-554.427	-200.000	0.037	0.248
-553.412	551.831	-0.103	-0.250
-552.398	-200.000	-0.002	-0.073
-551.383	-56.292	0.083	0.037
-550.369	-156.046	-0.071	0.005
-549.354	135.763	-0.118	0.156
-548.339	160.710	0.088	0.124
-547.325	658.210	0.092	-0.240
-546.310	800.000	0.010	-0.040
-545.296	281.918	0.131	0.238
-544.281	800.000	0.057	0.205
-543.266	800.000	0.072	-0.212
-542.252	-81.767	0.122	-0.040
-541.237	-2.608	-0.460	-0.325
-540.223	-120.196	0.247	-0.043
-539.208	-121.718	0.178	0.030
-538.193	-200.000	-0.018	-0.368
-537.179	-58.145	0.210	0.093
-536.164	-68.074	0.233	-0.092
-535.150	-12.385	-0.273	-0.181
-534.135	152.614	-0.134	-0.185
-533.121	-200.000	0.058	-0.282
-532.106	69.651	0.097	0.101
-531.091	529.884	-0.108	-0.259
-530.077	-200.000	0.012	-0.115
-529.062	748.275	-0.080	0.219
-528.048	-85.802	0.150	0.047
-527.033	-200.000	-0.025	-0.287
-526.018	-86.812	-0.233	-0.072
-525.004	800.000	0.039	-0.159
-523.989	800.000	-0.018	0.068
-522.975	-167.239	-0.570	0.023
-521.960	15.280	0.218	-0.173
-520.945	-130.210	-0.107	-0.015
-519.931	190.171	0.141	0.214
-518.916	-200.000	-0.010	-0.582
-517.902	800.000	-0.045	-0.169
-516.887	-38.579	-0.063	0.033
-515.872	-5.052	-0.320	-0.223
-514.858	76.586	-0.234	0.250
-513.843	-133.514	-0.181	0.023
-512.829	499.914	0.028	0.065
-511.814	-64.479	0.112	-0.046
-510.799	-22.982	-0.080	-0.049
-509.785	-200.000	0.053	0.291
-508.770	490.240	-0.142	-0.327
-507.756	-200.000	-0.003	0.154
-506.741	316.791	0.015	0.030
-505.726	-91.777	-0.215	0.062
-504.712	-68.085	0.186	-0.073
-503.697	14.024	-0.187	-0.147
-502.683	-48.442	-0.159	0.077
-501.668	481.909	-0.051	0.116
-500.653	292.835	0.110	-0.203
-499.639	-183.640	-0.226	-0.004
-498.624	-79.458	-0.103	0.035
-497.610	27.308	0.271	0.230
-496.595	157.652	-0.068	0.095
-495.581	-101.837	0.154	0.038
-494.566	-175.881	0.034	0.001
-493.551	-116.128	-0.467	-0.088
-492.537	-57.080	0.227	0.101
-491.522	411.872	0.053	-0.114
-490.508	152.639	0.083	0.115
-489.493	-83.904	-0.204	0.066
-488.478	135.789	-0.164	-0.215
-487.464	-32.828	0.148	0.083
-486.449	-33.557	0.057	0.032
-485.435	-200.000	-0.027	-0.148
-484.420	697.696	-0.099	-0.264
-483.405	205.256	0.103	-0.161
-482.391	52.580	0.170	-0.163
-481.376	123.324	0.073	-0.093
-480.362	-29.628	0.179	0.103
-479.347	-110.480	0.191	0.040
-478.332	383.140	-0.048	-0.100
-477.318	201.880	0.194	0.302
-476.303	-200.000	0.044	-0.234
-475.289	8.610	0.251	0.191
-474.274	-79.732	0.206	0.070
-473.259	-142.911	-0.190	0.019
-472.245	800.000	0.033	-0.139
-471.230	-139.777	-0.330	-0.035
-470.216	-200.000	0.040	0.261
-469.201	800.000	0.037	0.157
-468.186	-184.747	-0.176	0.003
-467.172	37.713	0.157	0.141
-466.157	-200.000	0.010	0.054
-465.143	-200.000	0.022	-0.132
-464.128	-200.000	-0.027	-0.173
-463.113	42.886	-0.198	0.182
-462.099	507.154	0.062	-0.145
-461.084	766.543	0.161	0.442
-460.070	278.961	-0.096	0.173
-459.055	-200.000	0.039	0.186
-458.040	-62.771	-0.281	0.117
-457.026	128.211	0.281	-0.361
-456.011	92.694	-0.149	0.169
-454.997	-71.941	0.347	-0.130
-453.982	-65.859	0.093	0.038
-452.968	597.719	-0.084	-0.210
-451.953	100.329	0.201	-0.235
-450.938	-83.566	-0.273	0.088
-449.924	-200.000	0.027	-0.122
-448.909	533.501	0.085	0.202
-447.895	34.689	0.024	0.021
-446.880	-128.267	-0.047	-0.007
-445.865	118.437	0.131	0.163
-444.851	43.953	0.278	0.257
-443.836	185.766	0.063	-0.095
-442.822	-66.577	-0.193	-0.077
-441.807	-32.646	-0.268	0.150
-440.792	-67.268	-0.123	0.049
-439.778	-5.593	-0.139	0.096
-438.763	-84.130	-0.273	-0.087
-437.749	800.000	0.027	-0.078
-436.734	-44.178	0.081	0.041
-435.719	-34.839	-0.193	0.106
-434.705	172.456	-0.061	-0.089
-433.690	-7.097	-0.256	-0.175
-432.676	-27.771	0.214	-0.125
-431.661	134.512	0.171	0.223
-430.646	-200.000	0.002	-0.079
-429.632	-74.439	0.182	-0.066
-428.617	227.907	-0.026	0.043
-427.603	268.418	0.040	-0.071
-426.588	55.156	-0.121	0.118
-425.573	-127.912	-0.099	0.014
-424.559	-200.000	-0.021	0.204
-423.544	-200.000	-0.053	-0.241
-422.530	-200.000	0.008	-0.347
-421.515	176.724	0.015	-0.022
-420.500	80.557	0.111	0.120
-419.486	800.000	0.144	0.476
-418.471	800.000	-0.018	-0.059
-417.457	-200.000	-0.009	-0.181
-416.442	-200.000	0.026	-0.165
-415.428	-69.262	0.184	0.071
-414.413	449.253	-0.253	0.562
-413.398	-200.000	0.005	0.105
-412.384	84.838	-0.095	-0.105
-411.369	-33.728	0.213	0.118
-410.355	132.339	-0.130	0.169
-409.340	-200.000	-0.017	0.230
-408.325	800.000	0.020	-0.069
-407.311	-32.861	0.172	0.096
-406.296	36.707	-0.088	0.078
-405.282	-200.000	0.027	0.186
-404.267	-156.079	-0.246	-0.016
-403.252	32.399	0.172	0.149
-402.238	-112.974	-0.225	-0.045
-401.223	-61.257	-0.084	-0.035
-400.209	-200.000	0.042	-0.299
-399.194	-142.505	0.146	0.014
-398.179	181.103	-0.117	0.173
-397.165	-75.831	0.088	0.031
-396.150	-46.481	-0.223	0.110
-395.136	-72.700	0.163	0.060
-394.121	-133.265	0.412	-0.052
-393.106	35.123	-0.238	-0.209
-392.092	-200.000	0.008	0.049
-391.077	-28.749	-0.170	0.098
-390.063	-200.000	-0.006	0.094
-389.048	-46.322	-0.121	0.060
-388.033	800.000	0.046	0.196
-387.019	-73.346	0.048	0.018
-386.004	-86.083	-0.406	-0.126
-384.990	-52.141	-0.461	0.215
-383.975	1.275	-0.072	-0.052
-382.960	210.175	-0.176	-0.278
-381.946	-142.031	-0.204	0.020
-380.931	374.887	0.138	0.282
-379.917	119.645	0.216	-0.270
-378.902	-33.987	-0.094	-0.052
-377.888	-94.810	-0.189	-0.051
-376.873	157.222	0.051	-0.071
-375.858	-200.000	0.035	-0.204
-374.844	-2.073	0.230	0.162
-373.829	321.566	-0.125	-0.239
-372.815	-114.202	0.254	-0.049
-371.800	189.421	0.024	0.037
-370.785	150.246	0.221	-0.301
-369.771	103.263	0.218	-0.257
-368.756	-200.000	0.004	0.090
-367.742	-169.531	0.309	-0.011
-366.727	28.605	0.126	0.107
-365.712	253.545	0.186	-0.320
-364.698	-159.148	-0.199	0.011
-363.683	33.465	-0.161	0.141
-362.669	206.673	0.090	0.140
-361.654	12.456	0.310	0.240
-360.639	-47.474	0.167	-0.081
-359.625	575.323	0.138	-0.338
-358.610	185.653	-0.169	-0.252
-357.596	-54.246	-0.213	0.097
-356.581	-100.479	0.097	0.024
-355.566	165.992	0.154	-0.219
-354.552	-200.000	-0.036	0.185
-353.537	-70.112	0.049	-0.019
-352.523	-200.000	0.024	-0.287
-351.508	800.000	-0.039	0.108
-350.493	166.473	-0.071	-0.101
-349.479	-200.000	-0.006	0.223
-348.464	800.000	-0.021	-0.062
-347.450	450.138	0.129	0.285
-346.435	232.754	0.105	-0.173
-345.420	-42.771	0.117	-0.060
-344.406	-200.000	0.021	0.203
-343.391	110.679	-0.174	0.210
-342.377	122.413	-0.192	-0.241
-341.362	36.914	0.154	-0.137
-340.348	800.000	-0.039	0.120
-339.333	-94.122	0.092	0.025
-338.318	-200.000	0.022	0.125
-337.304	-200.000	-0.074	-0.479
-336.289	-175.967	-0.095	0.003
-335.275	-200.000	-0.021	-0.099
-334.260	709.711	0.146	0.388
-333.245	-70.313	-0.196	0.075
-332.231	191.327	-0.117	0.177
-331.216	19.231	0.174	-0.140
-330.202	-58.860	0.347	-0.150
-329.187	299.329	0.078	0.144
-328.172	-149.154	-0.150	0.012
-327.158	-200.000	0.026	-0.173
-326.143	-64.941	0.411	0.167
-325.129	72.253	0.296	0.309
-324.114	145.050	0.092	0.123
-323.099	-118.888	-0.257	-0.045
-322.085	-9.510	0.084	-0.056
-321.070	-79.772	-0.201	0.068
-320.056	-120.058	0.441	0.076
-319.041	172.622	-0.176	-0.255
-318.026	79.074	0.150	-0.161
-317.012	66.995	0.354	0.362
-315.997	-0.890	0.184	0.130
-314.983	-200.000	0.010	-0.081
-313.968	-198.856	0.245	0.001
-312.953	800.000	-0.085	-0.255
-311.939	137.762	0.333	0.438
-310.924	-176.544	0.094	-0.002
-309.910	-200.000	-0.057	0.358
-308.895	204.265	0.169	-0.263
-307.880	-163.002	-0.352	0.017
-306.866	-86.071	-0.459	-0.142
-305.851	-101.808	-0.180	-0.044
-304.837	-101.310	-0.062	0.015
-303.822	-159.851	0.351	0.019
-302.807	61.697	0.169	0.169
-301.793	-200.000	-0.006	-0.202
-300.778	800.000	0.070	-0.198
-299.764	425.857	0.094	0.203
-298.749	107.748	-0.114	-0.136
-297.735	100.185	-0.137	0.159
-296.720	-45.479	-0.122	-0.060
-295.705	245.149	-0.110	0.186
-294.691	-92.991	-0.183	-0.051
-293.676	-48.633	-0.147	-0.071
-292.662	156.395	-0.035	0.048
-291.647	800.000	0.051	-0.185
-290.632	204.385	-0.173	0.269
-289.618	-200.000	0.055	-0.534
-288.603	-169.149	0.217	-0.008
-287.589	-36.449	-0.263	0.142
-286.574	-64.776	0.262	-0.106
-285.559	-85.590	-0.212	0.066
-284.545	-27.451	0.197	0.115
-283.530	-130.400	-0.205	-0.028
-282.516	16.741	0.255	-0.202
-281.501	-22.039	0.061	0.037
-280.486	294.843	0.023	0.042
-279.472	800.000	0.040	0.137
-278.457	-124.469	-0.375	-0.058
-277.443	8.931	0.270	-0.204
-276.428	-52.420	-0.188	0.087
-275.413	27.604	0.119	-0.100
-274.399	-18.313	0.203	0.127
-273.384	-200.000	0.047	-0.231
-272.370	-62.551	0.209	0.087
-271.355	33.494	-0.177	-0.154
-270.340	-0.588	0.155	-0.110
-269.326	33.056	0.155	-0.134
-268.311	-94.608	-0.283	-0.077
-267.297	800.000	-0.012	0.051
-266.282	-124.373	-0.286	-0.045
-265.267	164.335	0.085	0.120
-264.253	-45.218	-0.357	0.178
-263.238	-106.411	-0.266	-0.060
-262.224	-200.000	0.020	-0.100
-261.209	800.000	0.033	-0.121
-260.195	309.758	-0.131	-0.245
-259.180	-24.376	0.142	0.085
-258.165	-200.000	0.004	0.021
-257.151	18.262	0.149	-0.119
-256.136	-28.460	0.264	0.152
-255.122	-109.552	0.418	-0.088
-254.107	74.011	-0.116	-0.122
-253.092	-200.000	-0.002	0.203
-252.078	67.887	-0.151	0.154
-251.063	-111.658	0.053	-0.011
-250.049	-60.021	-0.156	-0.067
-249.034	175.204	-0.258	0.374
-248.019	-63.834	0.416	0.170
-247.005	800.000	0.041	0.120
-245.990	800.000	-0.038	0.129
-244.976	101.799	0.092	0.107
-243.961	-73.831	-0.478	-0.174
-242.946	-190.532	0.167	0.002
-241.932	-51.577	0.246	0.115
-240.917	326.409	-0.115	0.220
-239.903	-200.000	-0.002	0.106
-238.888	-82.798	-0.059	0.019
-237.873	-145.815	0.221	-0.020
-236.859	82.156	-0.084	-0.091
-235.844	250.415	0.159	0.270
-234.830	101.667	0.148	0.172
-233.815	-63.467	-0.077	0.032
-232.800	461.966	-0.103	0.230
-231.786	354.411	-0.049	-0.098
-230.771	-200.000	-0.027	-0.245
-229.757	214.982	0.073	-0.115
-228.742	608.423	-0.052	-0.131
-227.727	376.878	-0.193	0.393
-226.713	77.984	-0.132	-0.141
-225.698	-6.382	0.192	-0.131
-224.684	-200.000	0.013	0.213
-223.669	50.426	0.179	-0.169
-222.655	-8.122	-0.273	0.184
-221.640	180.973	-0.270	0.397
-220.625	-200.000	0.051	0.278
-219.611	-57.023	0.122	0.054
-218.596	800.000	-0.073	0.276
-217.582	63.957	-0.110	0.111
-216.567	115.627	-0.050	-0.061
-215.552	-200.000	-0.267	-0.001
-214.538	-185.257	-0.385	0.006
-213.523	345.733	-0.031	-0.060
-212.509	7.137	-0.157	-0.117
-211.494	-35.621	0.448	0.243
-210.479	247.222	-0.198	0.334
-209.465	23.549	0.372	0.305
-208.450	233.990	0.122	-0.200
-207.436	-61.884	-0.103	-0.043
-206.421	67.492	-0.164	-0.167
-205.406	-167.190	0.240	0.010
-204.392	-33.555	0.010	0.006
-203.377	131.833	-0.073	0.094
-202.363	-60.156	0.402	-0.171
-201.348	-39.744	-0.055	-0.029
-200.333	-144.909	0.151	0.014
-199.319	233.208	-0.130	-0.213
-198.304	392.945	-0.054	-0.112
-197.290	-134.423	-0.043	0.005
-196.275	15.890	0.145	-0.114
-195.260	63.794	-0.219	-0.220
-194.246	-130.288	-0.307	-0.042
-193.231	-78.006	0.191	0.066
-192.217	800.000	-0.053	-0.183
-191.202	521.810	-0.013	-0.030
-190.187	76.147	0.113	-0.119
-189.173	-130.333	-0.168	-0.023
-188.158	119.871	0.064	0.080
-187.144	800.000	0.090	0.352
-186.129	-88.702	0.104	0.031
-185.114	779.469	-0.109	0.297
-184.100	-200.000	0.001	-0.202
-183.085	-115.860	-0.257	0.048
-182.071	800.000	0.019	0.060
-181.056	-200.000	-0.050	0.283
-180.042	-25.252	0.340	-0.201
-179.027	122.686	0.234	0.292
-178.012	-200.000	-0.005	-0.050
-176.998	56.047	-0.203	-0.196
-175.983	-200.000	0.117	0.000
-174.969	-200.000	-0.019	-0.333
-173.954	343.136	0.033	0.065
-172.939	-200.000	-0.074	0.569
-171.925	800.000	-0.128	0.357
-170.910	144.503	-0.082	0.110
-169.896	800.000	0.075	-0.261
-168.881	-1.360	-0.080	0.056
-167.866	-76.738	0.148	-0.052
-166.852	-116.775	-0.207	-0.038
-165.837	-74.615	0.168	-0.060
-164.823	800.000	0.092	-0.281
-163.808	-200.000	0.003	0.156
-162.793	225.183	0.115	-0.185
-161.779	800.000	0.070	-0.267
-160.764	-69.729	0.254	-0.097
-159.750	-200.000	0.016	0.176
-158.735	1.458	0.307	0.220
-157.720	-29.743	0.179	-0.102
-156.706	800.000	0.056	0.213
-155.691	434.285	-0.055	-0.120
-154.677	63.809	-0.155	0.155
-153.662	556.723	-0.034	0.081
-152.647	-99.579	0.436	-0.109
-151.633	191.580	0.111	-0.166
-150.618	10.513	0.303	0.230
-149.604	64.107	-0.239	0.239
-148.589	-143.381	-0.178	-0.017
-147.574	-200.000	0.008	-0.350
-146.560	800.000	-0.095	-0.364
-145.545	346.376	0.125	-0.245
-144.531	246.859	-0.051	-0.086
-143.516	355.186	0.091	-0.180
-142.502	800.000	-0.013	0.056
-141.487	232.377	-0.094	-0.154
-140.472	-43.023	-0.165	-0.083
-139.458	800.000	0.008	0.027
-138.443	-124.851	0.078	-0.012
-137.429	-28.853	0.153	-0.088
-136.414	-0.329	0.252	-0.179
-135.399	476.754	0.088	-0.197
-134.385	286.019	-0.041	0.074
-133.370	64.394	0.244	-0.245
-132.356	800.000	0.089	-0.320
-131.341	-95.004	-0.035	-0.009
-130.326	444.392	0.155	0.339
-129.312	131.051	0.177	0.226
-128.297	-200.000	-0.003	0.227
-127.283	-9.965	-0.159	-0.105
-126.268	90.116	0.384	0.427
-125.253	800.000	-0.056	-0.218
-124.239	276.254	-0.069	0.122
-123.224	-200.000	0.118	-0.561
-122.210	60.684	-0.127	0.125
