DTS Sentinel unit serial number:	SN413079Multiplexer serial number:	ORYXHardware model number:	OX4-SRSoftware version number:	ORYX F/W v4.00 Oryx Data Collector v3.7.2.0data status	okinstallation	princeton_trtdifferential loss correction	single-endedforward channel	channel 4reverse channel	N/Adate	2019/09/18time	22:33:35forward acquisition time	60.00reverse acquisition time	0.00gamma	496.2192k internal	0.2333k external	0.2333temperature offset calibration	1.0033default loss term (dB/km)	0.3790temperature slope calibration	1.0000multiplexer offset coefficient	1.0000multiplexer slope coefficient	1.0000fibre end	0.00T internal ref (°C)	24.19T ext. ref 1 (°C)	0.79T ext. ref 2 (°C)	17.98length (m)	temperature (°C)	Stokes	anti-Stokes-747.200	800.000	0.015	0.051
-746.185	-36.573	-0.175	0.095
-745.171	-151.552	0.148	-0.011
-744.156	174.049	-0.245	0.356
-743.142	800.000	-0.073	0.221
-742.127	-68.337	-0.350	-0.137
-741.112	-79.188	0.231	0.079
-740.098	-200.000	-0.029	0.225
-739.083	91.679	-0.129	-0.145
-738.069	-200.000	0.029	0.311
-737.054	67.848	0.154	0.158
-736.039	179.464	0.104	-0.154
-735.025	-63.414	-0.157	-0.065
-734.010	174.245	-0.121	-0.176
-732.996	-200.000	0.012	-0.082
-731.981	800.000	-0.025	0.101
-730.966	-130.493	0.200	-0.027
-729.952	-124.423	0.094	0.015
-728.937	82.632	-0.165	-0.180
-727.923	-200.000	-0.062	-0.307
-726.908	-116.556	-0.343	0.063
-725.894	1.789	-0.215	0.156
-724.879	-200.000	-0.009	0.289
-723.864	800.000	0.048	-0.194
-722.850	-129.355	0.255	-0.036
-721.835	-6.149	-0.110	0.075
-720.821	-104.750	-0.205	-0.047
-719.806	568.780	-0.067	0.164
-718.791	11.602	-0.257	0.198
-717.777	-73.586	-0.250	-0.092
-716.762	-37.103	-0.062	-0.033
-715.748	-147.140	-0.285	0.024
-714.733	800.000	0.086	0.273
-713.718	387.120	-0.124	-0.257
-712.704	-29.166	0.260	-0.150
-711.689	42.689	-0.117	-0.107
-710.675	-90.131	-0.183	-0.053
-709.660	-40.995	-0.274	-0.142
-708.645	-112.266	0.190	-0.038
-707.631	-154.535	0.276	0.018
-706.616	800.000	0.074	-0.219
-705.602	268.506	0.173	0.304
-704.587	-161.978	-0.189	0.010
-703.572	-200.000	0.030	-0.489
-702.558	-154.771	0.171	0.011
-701.543	548.932	-0.151	-0.364
-700.529	503.243	0.060	-0.140
-699.514	1.902	-0.176	0.128
-698.499	-51.005	-0.130	0.061
-697.485	28.648	-0.052	-0.044
-696.470	351.478	-0.104	-0.206
-695.456	686.761	-0.113	0.297
-694.441	241.649	0.250	-0.420
-693.426	-164.372	0.315	0.014
-692.412	-50.536	0.208	-0.099
-691.397	-68.988	0.158	-0.061
-690.383	379.004	-0.172	-0.353
-689.368	431.536	-0.056	0.123
-688.354	-54.941	-0.219	0.099
-687.339	110.131	0.126	-0.152
-686.324	-15.249	-0.393	-0.252
-685.310	21.967	0.195	-0.159
-684.295	464.101	0.068	-0.153
-683.281	-12.972	-0.192	0.125
-682.266	-73.595	0.317	0.116
-681.251	-50.835	0.116	-0.055
-680.237	-132.977	-0.407	-0.052
-679.222	101.579	0.137	-0.160
-678.208	-28.177	0.192	0.111
-677.193	20.862	0.311	-0.253
-676.178	154.440	0.083	0.114
-675.164	38.139	-0.167	0.149
-674.149	-200.000	0.022	0.279
-673.135	-37.317	-0.271	-0.145
-672.120	-200.000	0.044	0.283
-671.105	111.318	-0.163	-0.197
-670.091	48.587	-0.152	-0.143
-669.076	800.000	0.052	-0.219
-668.062	-184.681	0.034	0.001
-667.047	-71.751	0.316	-0.118
-666.032	-109.353	-0.321	0.068
-665.018	-43.082	-0.288	0.146
-664.003	-200.000	-0.093	0.477
-662.989	362.152	0.054	0.109
-661.974	800.000	0.060	-0.179
-660.959	25.204	0.041	0.034
-659.945	-134.104	0.369	0.046
-658.930	800.000	-0.102	-0.314
-657.916	758.216	-0.095	0.257
-656.901	224.435	-0.076	0.124
-655.886	-200.000	-0.017	0.260
-654.872	-110.082	-0.272	-0.057
-653.857	4.466	-0.308	-0.226
-652.843	-55.541	-0.301	0.135
-651.828	-146.864	-0.234	-0.020
-650.814	256.418	-0.131	0.225
-649.799	-28.510	-0.244	-0.141
-648.784	-56.192	-0.126	0.056
-647.770	-161.680	-0.398	-0.020
-646.755	-106.064	-0.275	-0.062
-645.741	-46.674	0.106	0.052
-644.726	81.951	0.176	-0.191
-643.711	126.444	-0.204	0.258
-642.697	112.326	0.095	-0.115
-641.682	483.945	-0.027	-0.061
-640.668	307.484	-0.139	0.259
-639.653	7.078	-0.158	0.118
-638.638	102.281	-0.168	0.197
-637.624	-16.665	-0.216	0.137
-636.609	-103.395	0.207	-0.049
-635.595	-24.932	0.282	0.168
-634.580	-13.834	-0.312	-0.202
-633.565	-200.000	-0.015	-0.245
-632.551	471.420	-0.060	-0.135
-631.536	254.559	-0.021	-0.036
-630.522	28.574	-0.161	0.136
-629.507	10.816	0.146	-0.112
-628.492	-60.571	-0.090	-0.038
-627.478	-51.000	0.163	0.077
-626.463	-94.216	-0.291	-0.080
-625.449	84.032	-0.091	-0.099
-624.434	249.754	0.061	-0.104
-623.419	179.891	0.044	-0.065
-622.405	178.441	-0.218	0.318
-621.390	-96.460	0.171	-0.045
-620.376	243.804	0.034	0.057
-619.361	800.000	-0.063	-0.193
-618.346	-76.831	0.327	-0.115
-617.332	105.458	-0.250	-0.296
-616.317	-159.297	0.062	-0.003
-615.303	-90.637	0.066	0.019
-614.288	800.000	-0.118	0.382
-613.273	-200.000	-0.016	0.131
-612.259	-26.137	-0.029	0.017
-611.244	-102.551	-0.163	-0.039
-610.230	-119.883	0.282	0.049
-609.215	800.000	-0.104	-0.303
-608.201	52.003	0.401	-0.382
-607.186	6.539	0.124	-0.092
-606.171	800.000	-0.076	-0.249
-605.157	11.120	-0.078	0.060
-604.142	-13.641	-0.191	-0.124
-603.128	-200.000	-0.032	-0.232
-602.113	-159.605	0.402	-0.022
-601.098	800.000	-0.030	-0.105
-600.084	-79.841	-0.387	-0.130
-599.069	60.568	0.100	-0.099
-598.055	-200.000	0.016	0.217
-597.040	219.852	-0.114	-0.182
-596.025	233.154	0.064	0.105
-595.011	-129.199	0.135	0.019
-593.996	800.000	-0.056	0.191
-592.982	-173.129	-0.151	-0.005
-591.967	27.335	0.201	-0.169
-590.952	43.784	0.131	0.120
-589.938	-124.037	-0.144	0.023
-588.923	-95.286	0.113	0.031
-587.909	-36.407	-0.130	-0.070
-586.894	123.767	0.206	0.259
-585.879	-200.000	0.022	0.181
-584.865	75.996	-0.163	0.172
-583.850	-47.914	0.324	-0.157
-582.836	-147.818	-0.134	-0.011
-581.821	68.362	0.162	-0.166
-580.806	44.112	0.091	-0.084
-579.792	7.742	-0.255	0.191
-578.777	800.000	-0.053	-0.168
-577.763	-33.316	0.144	-0.079
-576.748	-30.138	-0.372	-0.211
-575.733	64.012	0.173	0.174
-574.719	-89.240	-0.245	-0.072
-573.704	-56.274	0.215	-0.096
-572.690	-104.156	0.214	-0.050
-571.675	800.000	-0.029	0.111
-570.661	-97.887	0.348	0.090
-569.646	-151.583	0.345	0.025
-568.631	-1.016	0.161	-0.114
-567.617	93.121	0.194	0.219
-566.602	-200.000	-0.021	-0.326
-565.588	-13.538	-0.332	0.215
-564.573	-112.963	0.174	-0.034
-563.558	800.000	-0.073	0.226
-562.544	15.999	0.063	-0.049
-561.529	-200.000	-0.022	-0.160
-560.515	139.453	-0.133	-0.174
-559.500	800.000	-0.063	0.258
-558.485	-200.000	0.027	-0.128
-557.471	36.806	0.041	0.036
-556.456	-200.000	-0.011	-0.114
-555.442	26.403	0.233	0.195
-554.427	-21.409	0.240	0.146
-553.412	-136.576	0.179	0.021
-552.398	128.768	-0.072	0.091
-551.383	318.311	0.077	0.145
-550.369	-200.000	0.020	0.154
-549.354	168.021	0.081	0.115
-548.339	96.229	0.203	0.232
-547.325	-200.000	0.000	-0.145
-546.310	-200.000	-0.009	-0.104
-545.296	231.026	0.113	-0.185
-544.281	81.331	0.058	-0.062
-543.266	252.060	-0.095	-0.161
-542.252	800.000	-0.026	-0.075
-541.237	683.072	0.115	0.298
-540.223	800.000	-0.034	0.115
-539.208	-74.662	0.128	-0.046
-538.193	-63.648	0.100	-0.041
-537.179	-84.451	0.001	-0.000
-536.164	-94.647	0.198	0.054
-535.150	497.260	0.095	-0.218
-534.135	171.342	-0.090	-0.129
-533.121	-147.383	-0.206	-0.017
-532.106	-200.000	0.020	0.174
-531.091	-200.000	-0.050	-0.274
-530.077	-200.000	-0.032	-0.509
-529.062	-200.000	-0.034	-0.221
-528.048	-83.638	-0.423	-0.135
-527.033	-200.000	-0.033	0.297
-526.018	527.378	-0.128	0.302
-525.004	-37.631	0.103	-0.055
-523.989	-89.636	-0.449	-0.131
-522.975	24.627	-0.267	-0.221
-521.960	77.652	0.241	0.256
-520.945	-66.744	-0.050	0.020
-519.931	66.294	-0.037	-0.037
-518.916	-200.000	-0.023	0.322
-517.902	-22.723	0.130	-0.078
-516.887	160.425	0.056	-0.078
-515.872	458.897	-0.160	-0.354
-514.858	-20.426	-0.197	-0.121
-513.843	52.942	-0.098	-0.094
-512.829	-125.053	-0.056	-0.009
-511.814	387.793	-0.064	0.133
-510.799	-200.000	0.012	-0.299
-509.785	-200.000	0.004	-0.230
-508.770	-18.449	-0.200	-0.125
-507.756	293.407	0.030	0.055
-506.741	359.907	-0.016	0.032
-505.726	-200.000	0.063	-0.331
-504.712	800.000	0.114	0.467
-503.697	-112.755	-0.370	-0.073
-502.683	-200.000	0.030	0.177
-501.668	6.417	-0.163	-0.121
-500.653	719.962	-0.022	0.060
-499.639	800.000	-0.057	0.173
-498.624	211.747	-0.113	0.178
-497.610	-200.000	-0.050	0.301
-496.595	-200.000	-0.045	-0.250
-495.581	800.000	0.070	-0.274
-494.566	-166.665	-0.106	0.004
-493.551	505.361	-0.111	-0.257
-492.537	800.000	0.065	-0.229
-491.522	-131.493	0.351	0.046
-490.508	65.835	-0.188	-0.190
-489.493	-85.088	-0.322	0.100
-488.478	-90.598	0.287	0.083
-487.464	13.672	-0.065	-0.050
-486.449	72.477	0.111	0.115
-485.435	-106.535	-0.151	0.033
-484.420	-200.000	0.011	0.234
-483.405	-34.826	-0.235	0.128
-482.391	-200.000	-0.033	-0.152
-481.376	-99.256	0.229	-0.058
-480.362	676.680	0.027	0.071
-479.347	-194.306	0.097	-0.001
-478.332	-66.931	0.166	-0.065
-477.318	-124.820	-0.194	0.030
-476.303	121.536	0.105	-0.130
-475.289	7.820	0.144	0.107
-474.274	547.339	0.053	0.125
-473.259	246.039	0.144	-0.241
-472.245	-200.000	0.014	0.139
-471.230	220.430	0.207	0.330
-470.216	-17.299	-0.387	-0.243
-469.201	405.916	0.129	0.271
-468.186	61.861	0.065	-0.064
-467.172	800.000	0.065	-0.243
-466.157	-131.030	-0.209	-0.028
-465.143	81.590	0.110	-0.119
-464.128	391.432	-0.125	-0.258
-463.113	-102.241	-0.155	-0.037
-462.099	-35.805	-0.159	0.086
-461.084	-95.087	0.367	0.099
-460.070	166.426	-0.096	0.135
-459.055	-200.000	-0.028	0.335
-458.040	-200.000	-0.020	-0.169
-457.026	-37.239	0.322	0.171
-456.011	-133.505	0.279	-0.035
-454.997	-55.210	0.132	-0.059
-453.982	-11.394	0.243	0.159
-452.968	-148.123	-0.232	0.019
-451.953	232.425	-0.127	-0.207
-450.938	154.823	-0.131	-0.179
-449.924	800.000	0.096	-0.377
-448.909	-104.440	0.194	-0.045
-447.895	71.141	0.041	0.042
-446.880	313.829	0.044	-0.082
-445.865	-28.216	-0.284	-0.163
-444.851	249.363	-0.081	0.136
-443.836	11.778	-0.149	-0.113
-442.822	240.555	0.031	0.051
-441.807	-200.000	0.032	-0.283
-440.792	-200.000	0.070	-0.315
-439.778	-200.000	0.046	0.428
-438.763	800.000	-0.076	0.282
-437.749	-200.000	-0.036	0.213
-436.734	79.728	-0.213	-0.228
-435.719	-107.519	0.358	-0.078
-434.705	161.996	-0.062	0.087
-433.690	-200.000	0.001	0.028
-432.676	-37.598	0.427	0.226
-431.661	800.000	0.028	0.089
-430.646	-77.466	0.154	0.053
-429.632	-95.121	0.171	0.046
-428.617	800.000	-0.063	-0.173
-427.603	342.590	0.100	0.195
-426.588	800.000	-0.057	0.189
-425.573	-200.000	0.074	-0.373
-424.559	-106.590	-0.343	-0.076
-423.544	354.375	-0.160	-0.316
-422.530	318.858	0.073	-0.137
-421.515	800.000	0.102	-0.327
-420.500	-34.860	-0.173	0.094
-419.486	-107.248	-0.135	-0.029
-418.471	-71.610	0.095	-0.035
-417.457	162.579	0.065	0.091
-416.442	-123.713	-0.238	-0.037
-415.428	-38.765	0.240	-0.126
-414.413	482.345	0.180	0.405
-413.398	-100.372	-0.221	-0.054
-412.384	-75.210	-0.235	-0.083
-411.369	50.404	0.239	0.224
-410.355	-31.690	0.157	0.087
-409.340	-200.000	-0.024	-0.345
-408.325	800.000	0.085	0.234
-407.311	-116.524	-0.196	0.036
-406.296	496.460	-0.100	0.227
-405.282	495.074	-0.086	0.197
-404.267	567.041	-0.113	0.272
-403.252	36.756	0.030	-0.026
-402.238	-200.000	-0.066	-0.437
-401.223	-200.000	-0.020	0.514
-400.209	34.197	-0.083	-0.072
-399.194	68.763	0.260	-0.265
-398.179	-110.983	-0.211	-0.043
-397.165	-200.000	0.010	0.148
-396.150	800.000	-0.046	-0.142
-395.136	-174.853	-0.358	-0.010
-394.121	-172.635	-0.210	-0.007
-393.106	-58.819	-0.289	0.124
-392.092	45.062	0.079	0.072
-391.077	195.302	0.032	-0.048
-390.063	738.248	-0.106	-0.281
-389.048	-104.247	0.297	-0.068
-388.033	-163.212	0.222	-0.011
-387.019	800.000	0.135	0.387
-386.004	33.575	0.194	0.167
-384.990	800.000	-0.071	-0.257
-383.975	197.236	-0.140	-0.212
-382.960	-13.808	-0.126	-0.081
-381.946	281.284	0.093	0.165
-380.931	-200.000	0.007	0.051
-379.917	-190.332	0.174	0.002
-378.902	-115.894	-0.385	0.071
-377.888	-140.627	-0.148	0.015
-376.873	-74.767	-0.042	0.015
-375.858	172.715	0.215	-0.307
-374.844	-0.994	0.038	0.026
-373.829	-87.698	0.135	0.040
-372.815	101.095	-0.122	0.141
-371.800	-200.000	0.013	-0.093
-370.785	13.743	0.297	-0.229
-369.771	27.118	-0.123	-0.103
-368.756	-59.520	0.187	-0.079
-367.742	78.479	0.133	-0.140
-366.727	239.193	0.028	0.047
-365.712	-200.000	-0.010	0.219
-364.698	-68.885	-0.077	-0.029
-363.683	-86.212	-0.226	0.069
-362.669	-105.249	-0.342	0.077
-361.654	800.000	0.099	-0.318
-360.639	-200.000	0.021	-0.199
-359.625	-80.803	-0.139	-0.046
-358.610	289.359	0.256	-0.460
-357.596	34.119	0.145	0.125
-356.581	-152.722	-0.128	0.009
-355.566	96.647	0.160	0.182
-354.552	-200.000	-0.001	0.079
-353.537	-68.622	0.093	0.036
-352.523	-148.740	0.209	-0.017
-351.508	-57.792	-0.168	0.073
-350.493	-200.000	0.013	-0.208
-349.479	800.000	-0.067	-0.274
-348.464	-90.931	-0.145	0.041
-347.450	229.142	-0.104	0.167
-346.435	293.765	0.085	-0.154
-345.420	191.703	0.131	0.196
-344.406	-200.000	0.018	0.417
-343.391	-53.277	0.155	-0.070
-342.377	30.896	-0.066	0.056
-341.362	-200.000	0.002	0.211
-340.348	-18.204	-0.352	0.218
-339.333	12.488	-0.239	-0.183
-338.318	800.000	0.065	0.228
-337.304	6.473	0.489	-0.360
-336.289	800.000	-0.033	0.096
-335.275	301.842	-0.179	0.328
-334.260	21.290	0.452	-0.363
-333.245	-120.917	-0.260	0.043
-332.231	-33.881	0.096	0.052
-331.216	-1.930	0.424	-0.295
-330.202	-77.299	-0.347	0.119
-329.187	-200.000	0.031	-0.164
-328.172	297.979	0.036	-0.066
-327.158	103.429	-0.141	0.164
-326.143	299.826	-0.045	0.082
-325.129	569.886	0.074	-0.179
-324.114	438.218	-0.083	0.179
-323.099	-94.276	0.327	0.088
-322.085	189.701	-0.026	0.038
-321.070	-200.000	-0.035	0.151
-320.056	224.711	0.338	0.541
-319.041	-200.000	0.031	-0.241
-318.026	100.673	-0.168	-0.193
-317.012	-146.417	0.127	0.011
-315.997	176.674	0.260	0.374
-314.983	800.000	-0.036	-0.106
-313.968	180.666	-0.171	0.248
-312.953	128.154	0.176	0.221
-311.939	123.591	-0.189	-0.234
-310.924	-100.453	0.169	-0.041
-309.910	-139.738	0.358	-0.038
-308.895	-49.297	-0.208	0.098
-307.880	-17.078	0.201	0.126
-306.866	-90.791	-0.211	0.060
-305.851	-31.952	0.384	0.213
-304.837	93.391	-0.089	-0.100
-303.822	-200.000	-0.010	0.115
-302.807	-200.000	0.008	0.048
-301.793	-190.642	-0.289	0.003
-300.778	-69.639	0.272	-0.103
-299.764	108.054	0.260	-0.306
-298.749	-90.086	0.121	0.035
-297.735	800.000	0.072	0.277
-296.720	302.061	-0.070	0.128
-295.705	-65.296	0.285	-0.113
-294.691	-200.000	-0.014	0.263
-293.676	-147.790	0.211	0.017
-292.662	76.331	-0.067	-0.070
-291.647	447.088	-0.157	0.341
-290.632	83.661	0.192	0.207
-289.618	-7.421	0.196	-0.131
-288.603	-200.000	-0.034	0.386
-287.589	-200.000	-0.013	-0.285
-286.574	34.687	-0.144	0.124
-285.559	418.569	-0.065	-0.137
-284.545	-88.806	0.301	0.088
-283.530	-52.828	-0.312	-0.142
-282.516	20.985	0.135	0.109
-281.501	113.656	0.041	0.049
-280.486	-65.350	-0.244	0.097
-279.472	53.490	-0.079	-0.075
-278.457	-94.685	0.092	-0.025
-277.443	635.425	0.029	-0.073
-276.428	800.000	0.033	0.119
-275.413	-200.000	0.036	-0.180
-274.399	-200.000	0.031	-0.172
-273.384	-36.181	-0.196	0.104
-272.370	16.041	-0.148	-0.115
-271.355	612.098	0.064	-0.159
-270.340	-200.000	0.059	-0.264
-269.326	94.507	-0.132	0.148
-268.311	800.000	-0.148	0.456
-267.297	-9.549	0.132	-0.087
-266.282	86.637	-0.217	-0.237
-265.267	85.192	0.136	-0.148
-264.253	800.000	0.070	0.201
-263.238	403.934	-0.069	-0.143
-262.224	8.783	-0.182	-0.135
-261.209	800.000	0.056	0.207
-260.195	-117.693	-0.397	0.071
-259.180	-108.760	-0.127	-0.027
-258.165	725.108	0.082	0.214
-257.151	-112.439	-0.286	0.056
-256.136	339.874	-0.124	0.239
-255.122	254.761	-0.110	-0.186
-254.107	-65.860	-0.171	0.068
-253.092	18.038	0.401	-0.315
-252.078	-200.000	-0.009	0.124
-251.063	197.229	0.120	-0.180
-250.049	72.461	0.160	-0.165
-249.034	191.742	-0.076	-0.114
-248.019	-9.876	-0.102	-0.067
-247.005	128.435	0.165	-0.207
-245.990	-68.337	-0.403	-0.154
-244.976	-100.089	0.252	0.062
-243.961	725.605	0.031	-0.081
-242.946	800.000	0.072	0.204
-241.932	130.312	0.058	0.073
-240.917	-35.684	-0.197	0.105
-239.903	-72.164	0.049	-0.018
-238.888	-102.765	-0.125	-0.029
-237.873	-105.557	-0.272	0.061
-236.859	287.574	-0.142	0.253
-235.844	244.202	0.247	0.409
-234.830	199.972	-0.131	0.199
-233.815	211.519	-0.191	0.296
-232.800	-81.635	-0.284	0.092
-231.786	-200.000	0.009	-0.162
-230.771	800.000	-0.060	-0.188
-229.757	-191.560	0.146	0.001
-228.742	28.635	-0.207	0.173
-227.727	-200.000	-0.096	0.424
-226.713	800.000	-0.061	-0.230
-225.698	150.822	0.201	-0.269
-224.684	-200.000	-0.054	-0.278
-223.669	106.769	-0.057	0.066
-222.655	100.738	0.219	0.251
-221.640	-136.198	0.051	0.006
-220.625	104.626	-0.184	-0.214
-219.611	-20.191	0.068	-0.041
-218.596	-127.163	-0.238	-0.034
-217.582	-200.000	0.017	0.197
-216.567	-31.548	0.239	0.132
-215.552	-105.503	0.162	0.036
-214.538	-48.912	-0.241	-0.114
-213.523	362.787	0.062	-0.122
-212.509	519.954	-0.098	0.226
-211.494	27.083	-0.123	0.101
-210.479	13.817	-0.135	0.103
-209.465	800.000	0.076	0.252
-208.450	54.547	0.220	0.209
-207.436	-200.000	0.033	-0.188
-206.421	-99.409	0.258	0.064
-205.406	657.138	-0.067	-0.170
-204.392	-27.098	0.200	0.115
-203.377	333.879	0.088	-0.167
-202.363	105.380	-0.082	0.095
-201.348	212.484	-0.070	0.109
-200.333	-127.167	-0.296	0.043
-199.319	76.751	-0.089	0.093
-198.304	428.173	-0.094	0.199
-197.290	-200.000	0.044	0.220
-196.275	-93.010	-0.024	0.007
-195.260	201.364	0.048	0.073
-194.246	99.379	-0.142	-0.162
-193.231	-84.775	-0.017	-0.005
-192.217	-20.068	-0.184	-0.112
-191.202	101.123	0.217	-0.249
-190.187	-101.030	0.272	-0.066
-189.173	783.659	-0.064	0.173
-188.158	-122.564	0.347	-0.056
-187.144	-102.231	0.079	0.019
-186.129	-98.435	-0.285	0.072
-185.114	-200.000	-0.013	0.315
-184.100	-101.560	-0.178	-0.042
-183.085	82.767	0.101	0.108
-182.071	59.015	0.209	0.202
-181.056	56.149	0.157	-0.150
-180.042	-200.000	-0.024	-0.126
-179.027	-25.080	0.075	0.044
-178.012	256.839	0.130	0.220
-176.998	285.404	0.084	-0.148
-175.983	-68.804	-0.223	-0.085
-174.969	-17.686	-0.179	-0.111
-173.954	39.853	0.233	-0.205
-172.939	-164.869	0.066	0.003
-171.925	800.000	0.005	-0.016
-170.910	-200.000	0.020	0.235
-169.896	382.298	-0.101	-0.204
-168.881	-123.897	0.382	0.059
-167.866	373.610	-0.051	-0.102
-166.852	-135.720	0.182	0.021
-165.837	-103.355	0.148	0.034
-164.823	-133.241	-0.133	0.017
-163.808	-119.849	0.103	0.017
-162.793	-126.380	0.124	0.018
-161.779	800.000	-0.089	0.323
-160.764	249.253	0.040	0.066
-159.750	28.313	0.119	0.098
-158.735	-200.000	-0.004	0.072
-157.720	-114.524	-0.149	0.028
-156.706	16.475	-0.131	-0.102
-155.691	33.246	-0.196	-0.167
-154.677	111.336	0.212	-0.251
-153.662	160.367	-0.163	-0.223
-152.647	72.650	-0.249	-0.255
-151.633	-44.983	0.191	0.094
-150.618	152.639	-0.163	-0.219
-149.604	-84.334	0.148	0.046
-148.589	-7.622	-0.262	0.174
-147.574	-155.068	-0.127	-0.008
-146.560	349.159	0.151	-0.293
-145.545	346.199	0.024	-0.047
-144.531	105.762	0.094	-0.109
-143.516	-76.600	-0.119	0.041
-142.502	-200.000	-0.010	-0.431
-141.487	-200.000	-0.011	0.086
-140.472	284.827	-0.142	-0.251
-139.458	258.315	0.031	0.052
-138.443	-55.079	0.323	0.143
-137.429	-200.000	-0.038	0.185
-136.414	72.767	0.116	-0.119
-135.399	-120.429	-0.312	-0.052
-134.385	93.694	-0.184	-0.204
-133.370	-200.000	0.044	-0.421
-132.356	-200.000	-0.010	-0.371
-131.341	264.267	0.164	0.280
-130.326	8.538	-0.211	0.156
-129.312	-134.970	0.343	0.041
-128.297	-200.000	0.033	0.145
-127.283	-35.926	0.172	0.091
-126.268	37.429	0.143	0.124
-125.253	219.524	0.051	-0.080
-124.239	-101.206	-0.340	-0.082
-123.224	-200.000	-0.023	0.198
-122.210	800.000	-0.108	0.297
-121.195	-33.375	-0.143	0.078
