DTS Sentinel unit serial number:	SN413079Multiplexer serial number:	ORYXHardware model number:	OX4-SRSoftware version number:	ORYX F/W v4.00 Oryx Data Collector v3.7.2.0data status	okinstallation	princeton_trtdifferential loss correction	single-endedforward channel	channel 4reverse channel	N/Adate	2019/09/15time	02:29:35forward acquisition time	60.00reverse acquisition time	0.00gamma	496.2192k internal	0.2308k external	0.2308temperature offset calibration	1.0036default loss term (dB/km)	0.3790temperature slope calibration	1.0000multiplexer offset coefficient	1.0000multiplexer slope coefficient	1.0000fibre end	0.00T internal ref (°C)	31.52T ext. ref 1 (°C)	4.56T ext. ref 2 (°C)	25.85length (m)	temperature (°C)	Stokes	anti-Stokes-747.200	152.918	0.057	0.080
-746.185	-33.818	0.210	-0.118
-745.171	-64.840	0.108	-0.044
-744.156	-12.837	-0.317	0.210
-743.142	606.232	0.078	0.198
-742.127	187.920	-0.124	0.189
-741.112	3.811	0.191	-0.142
-740.098	800.000	-0.028	0.121
-739.083	-29.754	0.371	-0.215
-738.069	-200.000	-0.057	0.342
-737.054	800.000	-0.150	0.442
-736.039	-112.006	-0.281	0.058
-735.025	-200.000	0.010	0.282
-734.010	-200.000	0.004	-0.203
-732.996	-124.641	-0.497	0.078
-731.981	-113.396	0.184	-0.037
-730.966	-165.760	0.211	0.009
-729.952	-64.659	0.272	0.112
-728.937	-99.865	-0.072	-0.018
-727.923	-110.529	-0.389	-0.082
-726.908	-139.352	0.226	-0.025
-725.894	-130.943	0.190	0.026
-724.879	392.215	-0.178	-0.375
-723.864	-200.000	0.013	0.307
-722.850	-47.117	-0.111	0.055
-721.835	-110.613	0.114	-0.024
-720.821	-200.000	-0.005	-0.039
-719.806	-121.715	-0.287	0.048
-718.791	156.357	0.158	0.221
-717.777	-58.940	0.385	0.169
-716.762	100.140	-0.184	-0.217
-715.748	-103.172	0.338	0.081
-714.733	-200.000	-0.041	0.323
-713.718	85.904	0.209	0.233
-712.704	144.243	-0.042	-0.057
-711.689	250.416	-0.230	0.396
-710.675	800.000	0.132	-0.406
-709.660	214.556	0.222	-0.357
-708.645	61.674	0.100	0.101
-707.631	238.857	0.067	-0.114
-706.616	264.058	0.070	-0.124
-705.602	-200.000	-0.049	-0.242
-704.587	-80.949	0.078	0.026
-703.572	-200.000	0.014	-0.359
-702.558	-173.950	0.106	0.003
-701.543	45.438	0.145	-0.136
-700.529	246.162	-0.023	-0.040
-699.514	-105.043	0.392	-0.091
-698.499	232.043	0.222	-0.370
-697.485	-168.897	0.226	0.009
-696.470	578.794	-0.111	0.277
-695.456	800.000	0.072	-0.292
-694.441	800.000	0.052	0.230
-693.426	402.563	-0.173	0.370
-692.412	692.515	-0.172	0.458
-691.397	-161.689	-0.252	0.013
-690.383	-91.288	0.363	-0.105
-689.368	-46.377	-0.172	-0.086
-688.354	-63.612	-0.469	-0.195
-687.339	27.421	-0.339	0.289
-686.324	118.866	-0.164	0.205
-685.310	6.280	0.187	0.141
-684.295	-162.293	0.295	-0.015
-683.281	-176.299	-0.230	-0.006
-682.266	200.586	-0.210	-0.327
-681.251	191.946	0.128	-0.196
-680.237	-5.099	0.134	0.094
-679.222	575.215	0.166	0.412
-678.208	-53.645	-0.405	0.188
-677.193	128.040	-0.055	-0.071
-676.178	-200.000	0.020	-0.445
-675.164	85.008	-0.117	-0.130
-674.149	-200.000	-0.060	0.407
-673.135	-200.000	-0.015	0.224
-672.120	-65.544	-0.377	0.153
-671.105	-92.254	0.209	-0.060
-670.091	-200.000	0.008	0.165
-669.076	-200.000	0.006	0.263
-668.062	-128.439	-0.185	-0.027
-667.047	-200.000	-0.014	-0.069
-666.032	-27.654	0.028	0.017
-665.018	-144.794	0.127	-0.012
-664.003	-147.464	0.186	-0.016
-662.989	-200.000	0.039	-0.263
-661.974	54.560	-0.318	-0.310
-660.959	-200.000	0.043	0.292
-659.945	-91.720	-0.117	-0.034
-658.930	-200.000	-0.026	-0.252
-657.916	-200.000	0.003	0.107
-656.901	-200.000	0.044	0.210
-655.886	-129.787	0.124	0.017
-654.872	248.145	0.201	-0.344
-653.857	-76.160	0.333	-0.119
-652.843	800.000	-0.070	-0.215
-651.828	-38.720	-0.226	0.121
-650.814	-200.000	0.001	0.262
-649.799	-36.391	-0.089	0.049
-648.784	145.367	-0.135	-0.183
-647.770	152.595	0.116	0.161
-646.755	-129.939	-0.397	0.055
-645.741	-200.000	-0.002	0.096
-644.726	-42.824	-0.332	0.171
-643.711	329.015	-0.132	0.256
-642.697	-200.000	-0.010	0.305
-641.682	243.117	-0.084	0.142
-640.668	-93.595	0.388	-0.109
-639.653	-200.000	0.012	-0.168
-638.638	155.012	-0.129	0.180
-637.624	72.457	-0.224	0.237
-636.609	-78.964	-0.538	0.185
-635.595	-200.000	-0.042	0.345
-634.580	-66.567	0.151	-0.060
-633.565	68.018	0.205	-0.212
-632.551	-200.000	-0.074	-0.336
-631.536	38.037	-0.246	-0.222
-630.522	163.430	0.205	-0.292
-629.507	84.341	-0.253	-0.280
-628.492	-200.000	-0.003	-0.374
-627.478	-54.952	-0.264	-0.121
-626.463	228.160	-0.136	-0.224
-625.449	-200.000	-0.030	-0.186
-624.434	-77.874	-0.056	0.020
-623.419	-94.075	0.051	0.014
-622.405	-200.000	-0.049	-0.322
-621.390	-47.809	-0.176	-0.086
-620.376	-200.000	0.079	-0.474
-619.361	-2.738	0.155	-0.110
-618.346	-13.539	0.190	-0.124
-617.332	-200.000	0.095	-0.507
-616.317	800.000	-0.094	-0.275
-615.303	117.189	0.270	0.335
-614.288	506.053	0.079	-0.185
-613.273	-56.222	-0.233	0.105
-612.259	-28.556	0.240	0.140
-611.244	-200.000	-0.060	-0.299
-610.230	12.720	-0.167	0.130
-609.215	800.000	0.048	-0.160
-608.201	-96.503	-0.173	-0.046
-607.186	554.167	-0.159	0.387
-606.171	-200.000	0.072	-0.360
-605.157	-6.157	-0.160	-0.111
-604.142	-200.000	-0.081	0.375
-603.128	800.000	0.101	0.380
-602.113	-144.670	0.497	0.046
-601.098	-142.115	0.479	0.048
-600.084	-23.004	-0.098	0.060
-599.069	-38.083	-0.359	-0.193
-598.055	416.958	0.120	-0.259
-597.040	300.565	-0.052	-0.097
-596.025	-200.000	-0.008	-0.223
-595.011	169.591	0.184	0.266
-593.996	-138.032	-0.058	-0.007
-592.982	-39.106	0.163	-0.087
-591.967	-76.655	-0.153	-0.054
-590.952	-200.000	0.018	-0.126
-589.938	-200.000	0.016	0.222
-588.923	242.471	-0.240	-0.406
-587.909	-171.395	0.136	0.005
-586.894	328.114	-0.124	0.241
-585.879	40.967	0.128	-0.117
-584.865	-71.831	0.290	-0.109
-583.850	-200.000	0.026	-0.230
-582.836	132.565	-0.220	-0.287
-581.821	-57.052	-0.134	0.060
-580.806	800.000	-0.032	0.092
-579.792	78.802	-0.087	-0.094
-578.777	83.866	-0.114	-0.126
-577.763	-116.711	-0.245	-0.046
-576.748	-138.765	-0.170	0.019
-575.733	-200.000	-0.030	-0.159
-574.719	-94.121	0.276	-0.076
-573.704	21.355	-0.300	0.246
-572.690	41.560	-0.049	0.045
-571.675	655.538	-0.096	0.248
-570.661	800.000	0.035	0.151
-569.646	-45.062	-0.035	-0.018
-568.631	90.169	-0.094	0.106
-567.617	-56.032	0.082	-0.037
-566.602	-24.780	-0.405	-0.243
-565.588	43.805	0.247	-0.228
-564.573	229.296	0.120	-0.197
-563.558	-200.000	0.016	0.119
-562.544	-200.000	-0.010	0.060
-561.529	543.070	0.025	-0.059
-560.515	-93.610	0.537	0.150
-559.500	-200.000	-0.003	0.114
-558.485	62.630	-0.152	-0.153
-557.471	-200.000	0.009	-0.049
-556.456	-148.142	0.104	0.009
-555.442	95.446	0.220	-0.253
-554.427	-200.000	0.023	-0.162
-553.412	800.000	0.072	-0.311
-552.398	-122.715	0.402	0.066
-551.383	98.526	0.169	0.196
-550.369	167.059	0.034	0.049
-549.354	0.473	-0.096	0.069
-548.339	-200.000	-0.046	0.366
-547.325	-200.000	0.027	0.155
-546.310	800.000	-0.021	-0.059
-545.296	-135.907	-0.123	0.015
-544.281	-200.000	0.034	0.282
-543.266	-200.000	-0.080	0.389
-542.252	800.000	-0.154	0.445
-541.237	35.077	-0.207	0.183
-540.223	-36.322	0.140	0.076
-539.208	-88.506	0.273	0.082
-538.193	30.932	-0.130	-0.112
-537.179	-67.407	-0.332	-0.131
-536.164	137.384	0.205	0.271
-535.150	-200.000	-0.022	-0.127
-534.135	-94.428	0.131	0.036
-533.121	147.242	0.127	-0.172
-532.106	591.787	0.026	0.065
-531.091	-120.546	-0.082	0.014
-530.077	575.512	0.178	0.439
-529.062	800.000	-0.035	0.133
-528.048	211.797	-0.045	-0.072
-527.033	496.288	0.132	0.305
-526.018	142.568	-0.174	0.233
-525.004	-200.000	0.011	-0.104
-523.989	68.633	-0.082	0.085
-522.975	200.411	0.180	-0.278
-521.960	50.839	-0.163	-0.156
-520.945	-7.304	-0.236	-0.161
-519.931	-79.563	0.242	-0.082
-518.916	32.304	-0.166	0.144
-517.902	-147.461	0.161	-0.014
-516.887	-43.101	0.048	0.025
-515.872	7.147	-0.279	-0.210
-514.858	800.000	0.103	0.300
-513.843	-40.401	-0.281	0.147
-512.829	-117.713	0.383	0.070
-511.814	-16.990	0.238	0.152
-510.799	-80.039	0.290	0.098
-509.785	-158.590	0.052	0.003
-508.770	-168.237	0.118	0.005
-507.756	143.287	0.262	-0.352
-506.741	-45.847	0.141	-0.070
-505.726	-6.033	-0.027	0.018
-504.712	-3.839	-0.277	0.194
-503.697	-200.000	-0.008	-0.324
-502.683	-109.351	0.102	-0.022
-501.668	-10.288	0.091	0.061
-500.653	-130.616	-0.486	0.066
-499.639	-79.493	-0.104	0.035
-498.624	151.285	0.196	0.268
-497.610	800.000	-0.064	-0.194
-496.595	-57.496	0.164	0.073
-495.581	-142.877	0.057	0.006
-494.566	-200.000	-0.030	-0.216
-493.551	266.575	0.035	0.061
-492.537	-5.781	0.261	-0.180
-491.522	800.000	0.064	-0.227
-490.508	-67.118	-0.160	-0.063
-489.493	-129.054	0.168	0.024
-488.478	715.769	-0.124	-0.332
-487.464	-118.912	0.196	-0.035
-486.449	-12.269	-0.080	-0.052
-485.435	0.193	-0.052	0.037
-484.420	180.518	-0.180	0.266
-483.405	64.114	0.156	0.158
-482.391	-31.303	-0.084	0.047
-481.376	204.979	0.065	-0.102
-480.362	9.129	0.117	0.089
-479.347	22.460	0.247	0.203
-478.332	-60.605	0.256	-0.109
-477.318	-200.000	-0.051	-0.441
-476.303	-140.630	-0.196	-0.020
-475.289	-64.996	-0.219	-0.089
-474.274	800.000	0.073	0.264
-473.259	800.000	-0.036	0.156
-472.245	-155.359	-0.220	0.014
-471.230	-57.237	-0.223	-0.099
-470.216	-5.645	0.104	-0.071
-469.201	384.968	0.137	0.285
-468.186	-200.000	0.024	0.339
-467.172	-21.844	0.127	0.078
-466.157	156.558	-0.171	0.237
-465.143	-186.427	0.274	-0.004
-464.128	-148.444	-0.067	-0.005
-463.113	-200.000	0.045	0.304
-462.099	-200.000	0.006	0.206
-461.084	-66.473	-0.471	-0.188
-460.070	-60.829	-0.088	-0.038
-459.055	-133.959	0.425	-0.053
-458.040	-89.895	-0.159	-0.047
-457.026	79.762	-0.261	-0.282
-456.011	-200.000	-0.044	-0.288
-454.997	-22.068	-0.150	-0.092
-453.982	-200.000	0.021	-0.281
-452.968	-26.804	0.218	-0.128
-451.953	800.000	-0.052	0.189
-450.938	144.189	0.012	0.016
-449.924	127.387	-0.088	-0.112
-448.909	81.945	-0.023	-0.025
-447.895	-200.000	-0.023	-0.150
-446.880	-108.912	0.248	0.053
-445.865	-153.652	-0.154	-0.011
-444.851	66.833	-0.018	0.018
-443.836	50.856	0.096	-0.091
-442.822	-33.580	0.143	0.079
-441.807	-85.150	-0.298	0.094
-440.792	43.289	-0.271	-0.249
-439.778	6.120	0.227	0.169
-438.763	-200.000	0.031	0.214
-437.749	-122.196	0.232	-0.038
-436.734	586.269	-0.098	-0.242
-435.719	-53.819	-0.325	-0.149
-434.705	800.000	0.015	-0.055
-433.690	163.991	-0.057	0.080
-432.676	218.532	0.041	0.065
-431.661	-154.392	-0.163	0.011
-430.646	218.861	0.027	-0.043
-429.632	-155.047	0.202	-0.013
-428.617	583.371	0.172	0.425
-427.603	5.064	-0.236	-0.174
-426.588	-174.044	-0.475	0.014
-425.573	-169.864	0.054	0.002
-424.559	-200.000	-0.025	0.196
-423.544	-10.866	-0.069	-0.046
-422.530	-200.000	0.029	-0.292
-421.515	-200.000	0.019	0.083
-420.500	800.000	-0.062	0.196
-419.486	-200.000	0.045	0.231
-418.471	-43.992	-0.304	0.153
-417.457	-200.000	0.035	0.256
-416.442	-76.262	-0.263	-0.093
-415.428	-125.342	-0.183	-0.028
-414.413	-8.983	-0.129	0.087
-413.398	-19.669	0.175	-0.108
-412.384	-82.399	0.303	-0.099
-411.369	530.002	0.066	-0.156
-410.355	39.856	0.197	-0.177
-409.340	-200.000	-0.015	0.073
-408.325	-146.759	0.019	0.002
-407.311	441.232	-0.086	0.188
-406.296	118.007	0.235	0.291
-405.282	800.000	0.116	-0.348
-404.267	-22.931	0.169	-0.102
-403.252	-147.503	0.410	-0.035
-402.238	67.903	-0.182	0.187
-401.223	-92.309	-0.128	0.036
-400.209	800.000	0.033	-0.102
-399.194	9.693	-0.179	0.136
-398.179	800.000	0.024	0.105
-397.165	-200.000	-0.027	0.157
-396.150	-162.302	-0.313	-0.016
-395.136	-129.788	0.215	-0.030
-394.121	-60.058	-0.361	0.155
-393.106	292.375	-0.037	0.067
-392.092	263.141	-0.027	-0.047
-391.077	-98.742	-0.167	-0.043
-390.063	28.090	-0.114	0.096
-389.048	74.595	-0.044	0.046
-388.033	-51.886	-0.270	-0.126
-387.019	-200.000	-0.012	-0.157
-386.004	574.867	0.158	-0.387
-384.990	256.135	-0.163	0.281
-383.975	-97.719	-0.198	0.051
-382.960	-125.988	-0.251	0.038
-381.946	-154.476	0.231	-0.016
-380.931	-200.000	-0.016	-0.086
-379.917	-93.723	-0.101	0.028
-378.902	-200.000	0.109	-0.496
-377.888	168.704	0.066	-0.094
-376.873	181.826	-0.121	-0.179
-375.858	-163.067	0.421	-0.020
-374.844	-71.503	0.167	0.063
-373.829	-61.846	-0.292	0.122
-372.815	-160.226	-0.156	0.008
-371.800	165.092	0.060	-0.085
-370.785	800.000	0.072	-0.267
-369.771	-66.584	-0.136	0.054
-368.756	-200.000	-0.020	0.091
-367.742	-164.363	0.257	0.012
-366.727	94.614	-0.064	-0.073
-365.712	485.679	-0.064	-0.147
-364.698	-200.000	0.008	0.196
-363.683	26.882	-0.163	-0.136
-362.669	71.517	0.263	0.274
-361.654	260.987	0.149	0.259
-360.639	800.000	-0.052	0.166
-359.625	75.516	-0.213	-0.225
-358.610	-43.474	-0.144	-0.073
-357.596	531.286	0.014	-0.032
-356.581	-132.062	0.304	-0.040
-355.566	-5.962	-0.246	-0.169
-354.552	800.000	-0.078	-0.238
-353.537	505.585	-0.062	0.143
-352.523	-200.000	0.051	-0.306
-351.508	8.882	0.137	0.103
-350.493	120.394	-0.149	0.185
-349.479	800.000	0.045	-0.168
-348.464	800.000	-0.078	-0.220
-347.450	-56.486	0.306	-0.136
-346.435	-108.710	0.445	-0.095
-345.420	124.578	-0.140	0.177
-344.406	62.741	0.334	-0.334
-343.391	143.193	0.092	-0.122
-342.377	23.081	-0.268	0.220
-341.362	-200.000	0.057	0.354
-340.348	-160.727	0.061	-0.003
-339.333	222.397	0.029	-0.047
-338.318	-19.345	-0.213	-0.132
-337.304	-200.000	-0.027	-0.310
-336.289	192.330	-0.112	0.169
-335.275	-161.759	-0.107	-0.005
-334.260	16.429	0.105	-0.083
-333.245	69.836	-0.273	-0.282
-332.231	-200.000	0.097	0.532
-331.216	-200.000	0.021	0.096
-330.202	550.326	0.094	-0.226
-329.187	-135.815	-0.219	-0.026
-328.172	78.140	0.185	0.198
-327.158	-51.174	0.445	0.209
-326.143	-200.000	-0.045	-0.217
-325.129	242.290	0.016	-0.027
-324.114	-94.451	0.284	0.078
-323.099	69.631	0.212	0.218
-322.085	800.000	-0.051	0.191
-321.070	220.948	0.103	-0.165
-320.056	103.834	-0.190	0.224
-319.041	48.548	0.061	0.057
-318.026	177.535	0.241	0.351
-317.012	187.639	0.139	-0.207
-315.997	-103.113	0.158	-0.037
-314.983	111.149	-0.207	0.250
-313.968	73.877	0.153	-0.161
-312.953	800.000	-0.083	-0.255
-311.939	682.606	0.034	0.088
-310.924	-200.000	0.009	-0.107
-309.910	-60.539	0.285	-0.121
-308.895	-147.656	0.236	-0.020
-307.880	-41.975	-0.409	0.209
-306.866	-200.000	-0.010	0.166
-305.851	800.000	-0.101	0.287
-304.837	-101.141	0.334	-0.082
-303.822	8.359	0.179	-0.135
-302.807	20.236	0.158	-0.128
-301.793	800.000	0.077	-0.281
-300.778	46.843	-0.271	-0.252
-299.764	744.535	-0.044	0.118
-298.749	800.000	-0.102	0.415
-297.735	-131.502	0.521	-0.069
-296.720	-200.000	-0.017	0.123
-295.705	349.664	0.018	0.035
-294.691	-14.766	0.079	0.051
-293.676	61.283	0.276	0.274
-292.662	-12.921	0.187	-0.121
-291.647	-66.713	0.119	0.047
-290.632	-58.202	0.137	-0.060
-289.618	-57.401	-0.153	-0.067
-288.603	-45.524	-0.026	0.013
-287.589	752.774	0.066	0.179
-286.574	-86.030	-0.465	0.143
-285.559	482.499	0.117	0.266
-284.545	355.769	0.132	0.263
-283.530	579.636	-0.079	0.194
-282.516	-93.378	0.064	0.018
-281.501	-200.000	0.000	-0.151
-280.486	-57.809	-0.247	0.108
-279.472	131.643	0.137	0.176
-278.457	800.000	-0.024	-0.097
-277.443	77.754	0.096	-0.102
-276.428	-75.135	0.079	0.028
-275.413	48.354	0.330	0.308
-274.399	800.000	-0.052	0.196
-273.384	-62.295	0.146	0.061
-272.370	356.850	-0.159	-0.317
-271.355	149.602	-0.187	-0.253
-270.340	-98.258	-0.192	-0.049
-269.326	290.669	-0.105	-0.191
-268.311	-200.000	0.031	-0.376
-267.297	54.901	-0.293	0.283
-266.282	42.033	0.045	0.041
-265.267	361.869	-0.040	0.080
-264.253	410.635	-0.126	0.266
-263.238	-200.000	0.047	0.288
-262.224	798.953	0.075	-0.206
-261.209	-200.000	-0.019	0.120
-260.195	-191.078	0.181	-0.002
-259.180	39.638	-0.179	-0.161
-258.165	-123.355	0.344	-0.055
-257.151	93.805	0.199	-0.225
-256.136	-200.000	0.092	0.000
-255.122	-200.000	0.022	0.314
-254.107	-0.768	-0.243	-0.171
-253.092	-106.910	-0.184	0.041
-252.078	-191.061	-0.367	-0.004
-251.063	-55.582	-0.280	-0.125
-250.049	72.931	-0.118	-0.123
-249.034	-200.000	-0.005	0.181
-248.019	800.000	-0.032	0.101
-247.005	-86.197	-0.186	0.057
-245.990	250.314	0.120	0.204
-244.976	16.993	-0.181	0.143
-243.961	69.849	-0.126	0.130
-242.946	121.595	-0.032	-0.040
-241.932	-102.540	-0.240	0.057
-240.917	19.931	0.219	-0.176
-239.903	-128.937	-0.239	-0.033
-238.888	-14.109	0.138	0.089
-237.873	-113.601	0.210	0.041
-236.859	-5.128	-0.123	0.085
-235.844	29.312	-0.105	0.089
-234.830	-69.067	-0.122	-0.047
-233.815	-200.000	-0.017	0.171
-232.800	800.000	0.050	0.213
-231.786	38.555	-0.206	-0.183
-230.771	-117.833	0.279	-0.050
-229.757	-200.000	-0.023	-0.251
-228.742	-5.032	-0.049	-0.034
-227.727	0.893	0.176	0.125
-226.713	648.814	-0.205	-0.521
-225.698	84.610	-0.262	-0.286
-224.684	-200.000	-0.059	-0.292
-223.669	299.916	-0.160	-0.293
-222.655	-134.424	-0.123	0.015
-221.640	-104.578	0.125	-0.029
-220.625	70.056	0.106	-0.109
-219.611	800.000	-0.061	0.202
-218.596	-68.777	-0.278	0.107
-217.582	-126.101	0.127	-0.019
-216.567	-13.794	-0.167	0.107
-215.552	-200.000	-0.014	-0.555
-214.538	-33.335	0.400	-0.220
-213.523	-127.798	-0.225	-0.032
-212.509	241.724	-0.080	0.133
-211.494	84.440	0.237	-0.258
-210.479	136.531	0.227	-0.295
-209.465	-54.837	0.205	-0.092
-208.450	55.201	-0.314	0.302
-207.436	-200.000	0.026	-0.225
-206.421	14.335	0.327	-0.254
-205.406	-21.561	-0.263	0.160
-204.392	-64.791	0.396	-0.159
-203.377	800.000	-0.067	0.190
-202.363	72.358	0.035	-0.037
-201.348	123.483	0.129	-0.161
-200.333	-162.289	-0.087	0.004
-199.319	-200.000	0.039	0.303
-198.304	428.416	-0.076	0.163
-197.290	77.275	0.279	-0.296
-196.275	-200.000	-0.001	-0.053
-195.260	-58.575	0.319	0.138
-194.246	-200.000	-0.015	-0.171
-193.231	-200.000	0.053	0.249
-192.217	-38.777	-0.082	0.043
-191.202	-200.000	0.030	0.133
-190.187	-200.000	-0.026	-0.217
-189.173	-38.300	0.131	0.069
-188.158	599.104	0.040	0.098
-187.144	458.722	0.056	0.125
-186.129	25.201	0.198	0.164
-185.114	571.798	-0.097	0.234
-184.100	116.770	-0.253	0.309
-183.085	-122.794	-0.314	0.050
-182.071	-200.000	-0.014	0.083
-181.056	110.093	0.264	-0.315
-180.042	-140.400	-0.162	0.017
-179.027	800.000	-0.101	0.296
-178.012	-200.000	-0.019	0.231
-176.998	139.418	0.184	-0.240
-175.983	-167.807	-0.166	-0.007
-174.969	-137.659	0.189	0.021
-173.954	80.123	0.208	-0.222
-172.939	-124.686	0.025	-0.004
-171.925	-194.300	-0.184	0.001
-170.910	-86.000	-0.172	-0.053
-169.896	-128.173	0.162	0.023
-168.881	44.849	0.089	0.081
-167.866	-143.574	-0.161	-0.015
-166.852	22.335	-0.055	0.044
-165.837	17.789	-0.091	0.072
-164.823	-53.168	0.181	0.082
-163.808	233.730	-0.060	0.098
-162.793	-8.873	0.489	0.326
-161.779	-74.142	0.133	-0.048
-160.764	-200.000	-0.029	0.202
-159.750	-194.648	-0.246	-0.002
-158.735	-77.312	-0.190	0.066
-157.720	4.502	0.063	0.046
-156.706	13.430	-0.147	-0.113
-155.691	-95.640	0.149	-0.040
-154.677	-200.000	-0.035	0.379
-153.662	-200.000	-0.016	-0.086
-152.647	-200.000	0.010	-0.048
-151.633	-134.758	0.394	0.048
-150.618	74.371	0.096	-0.100
-149.604	265.236	-0.048	-0.083
-148.589	-200.000	0.075	0.359
-147.574	173.094	-0.226	-0.323
-146.560	800.000	0.043	0.132
-145.545	800.000	-0.018	0.064
-144.531	-200.000	-0.001	0.014
-143.516	800.000	-0.023	0.075
-142.502	195.341	-0.166	0.250
-141.487	165.019	0.190	0.266
-140.472	196.487	-0.172	-0.259
-139.458	193.361	-0.067	-0.101
-138.443	-50.489	0.335	-0.157
-137.429	-200.000	0.053	0.304
-136.414	113.011	-0.193	0.232
-135.399	20.100	-0.091	-0.073
-134.385	-117.133	0.107	0.019
-133.370	-144.122	-0.080	-0.007
-132.356	54.105	-0.076	0.073
-131.341	800.000	-0.097	0.378
-130.326	600.429	-0.048	0.119
-129.312	-81.570	0.220	0.072
-128.297	-200.000	0.054	0.293
-127.283	126.014	-0.084	-0.105
-126.268	-64.261	0.265	-0.107
-125.253	-1.436	0.034	-0.024
-124.239	800.000	-0.081	-0.280
-123.224	-53.428	0.294	0.134
-122.210	-44.588	0.020	-0.010
