DTS Sentinel unit serial number:	SN413079Multiplexer serial number:	ORYXHardware model number:	OX4-SRSoftware version number:	ORYX F/W v4.00 Oryx Data Collector v3.7.2.0data status	okinstallation	princeton_trtdifferential loss correction	single-endedforward channel	channel 4reverse channel	N/Adate	2019/09/16time	12:45:34forward acquisition time	60.00reverse acquisition time	0.00gamma	496.2192k internal	0.2291k external	0.2291temperature offset calibration	0.9941default loss term (dB/km)	0.3790temperature slope calibration	1.0000multiplexer offset coefficient	1.0000multiplexer slope coefficient	1.0000fibre end	0.00T internal ref (°C)	40.17T ext. ref 1 (°C)	13.47T ext. ref 2 (°C)	37.15length (m)	temperature (°C)	Stokes	anti-Stokes-747.200	-200.000	-0.039	0.245
-746.185	-18.364	0.216	0.138
-745.171	185.121	0.117	0.178
-744.156	182.901	0.203	0.306
-743.142	112.207	-0.163	0.202
-742.127	-4.833	0.218	0.154
-741.112	-146.740	0.104	-0.009
-740.098	310.210	-0.068	-0.130
-739.083	219.253	0.180	0.295
-738.069	164.140	-0.042	0.060
-737.054	110.238	-0.121	-0.149
-736.039	-120.210	-0.347	0.061
-735.025	-176.907	0.067	0.002
-734.010	800.000	-0.065	-0.220
-732.996	-106.963	-0.184	0.042
-731.981	189.855	-0.052	-0.080
-730.966	387.615	-0.046	0.098
-729.952	800.000	-0.127	-0.398
-728.937	-151.900	-0.272	-0.020
-727.923	-14.309	0.193	-0.127
-726.908	84.300	-0.202	-0.226
-725.894	47.021	-0.174	-0.166
-724.879	-200.000	0.013	-0.143
-723.864	229.157	-0.119	-0.198
-722.850	123.192	0.139	-0.178
-721.835	-10.771	0.072	0.049
-720.821	82.270	-0.126	0.140
-719.806	-159.454	-0.185	-0.011
-718.791	27.208	0.169	-0.145
-717.777	-86.571	-0.417	-0.131
-716.762	-111.678	0.105	-0.022
-715.748	-120.366	-0.225	0.039
-714.733	-200.000	0.035	-0.167
-713.718	102.167	0.056	-0.067
-712.704	800.000	-0.114	-0.433
-711.689	111.037	-0.063	0.078
-710.675	-200.000	0.003	0.192
-709.660	-75.163	0.048	0.018
-708.645	800.000	-0.067	-0.273
-707.631	60.208	-0.111	-0.112
-706.616	67.990	0.073	-0.076
-705.602	9.916	-0.181	0.141
-704.587	-113.621	0.277	-0.055
-703.572	-151.529	0.251	-0.019
-702.558	369.432	-0.193	0.399
-701.543	52.786	0.176	-0.172
-700.529	9.184	0.317	-0.245
-699.514	514.270	-0.102	-0.244
-698.499	-200.000	0.048	-0.384
-697.485	-95.976	0.245	-0.067
-696.470	800.000	0.043	0.160
-695.456	-200.000	0.009	0.057
-694.441	-9.619	-0.155	-0.106
-693.426	-107.098	-0.213	0.048
-692.412	-200.000	0.001	-0.236
-691.397	-127.344	0.045	-0.007
-690.383	-200.000	0.022	-0.121
-689.368	-200.000	-0.031	0.193
-688.354	58.676	0.066	-0.066
-687.339	-159.793	0.145	-0.008
-686.324	454.643	0.038	0.085
-685.310	-200.000	-0.018	0.226
-684.295	48.077	-0.111	-0.106
-683.281	201.506	-0.146	-0.230
-682.266	-11.661	-0.261	-0.175
-681.251	156.345	0.178	-0.251
-680.237	800.000	0.086	0.280
-679.222	-51.828	-0.149	-0.071
-678.208	-92.264	-0.413	0.119
-677.193	93.978	-0.136	-0.158
-676.178	-157.466	0.175	-0.011
-675.164	-36.204	0.120	0.066
-674.149	-119.186	-0.112	0.020
-673.135	-200.000	-0.010	0.313
-672.120	-17.003	-0.384	0.247
-671.105	-162.392	-0.378	-0.019
-670.091	-130.570	0.128	0.018
-669.076	67.486	0.259	-0.270
-668.062	3.813	-0.194	-0.145
-667.047	777.205	0.012	0.033
-666.032	-47.768	0.157	-0.078
-665.018	800.000	-0.060	-0.194
-664.003	-150.642	0.214	0.017
-662.989	-147.354	0.304	0.026
-661.974	192.244	-0.092	-0.141
-660.959	-37.639	0.283	-0.154
-659.945	594.454	-0.081	0.205
-658.930	-39.860	-0.186	0.099
-657.916	800.000	0.124	0.372
-656.901	-200.000	-0.030	0.224
-655.886	-14.559	0.073	-0.048
-654.872	-161.998	-0.287	0.015
-653.857	-36.398	0.230	-0.126
-652.843	-20.334	0.247	0.155
-651.828	52.512	-0.268	-0.261
-650.814	-171.334	-0.339	-0.012
-649.799	-200.000	-0.021	0.109
-648.784	-200.000	0.015	-0.286
-647.770	46.173	-0.139	-0.132
-646.755	-200.000	0.008	-0.078
-645.741	44.757	0.224	0.210
-644.726	50.567	0.144	-0.139
-643.711	-200.000	0.031	-0.167
-642.697	800.000	-0.019	0.083
-641.682	-60.872	-0.393	-0.170
-640.668	225.298	-0.207	-0.341
-639.653	-200.000	-0.052	0.397
-638.638	548.639	-0.105	-0.255
-637.624	636.018	-0.110	-0.285
-636.609	-200.000	0.016	0.212
-635.595	-43.772	-0.165	0.085
-634.580	18.575	0.217	-0.177
-633.565	-50.087	-0.126	0.061
-632.551	36.599	0.162	-0.146
-631.536	453.522	-0.176	-0.398
-630.522	-115.715	-0.217	0.041
-629.507	107.618	-0.191	0.231
-628.492	-52.849	-0.307	0.144
-627.478	-66.436	0.349	0.141
-626.463	800.000	0.125	0.393
-625.449	-74.811	-0.131	0.048
-624.434	-187.789	-0.120	0.002
-623.419	-200.000	0.009	0.248
-622.405	-89.888	-0.335	0.100
-621.390	131.560	0.186	-0.244
-620.376	-144.819	0.096	0.009
-619.361	-13.893	-0.255	-0.168
-618.346	800.000	0.103	-0.340
-617.332	243.588	-0.050	0.086
-616.317	-200.000	-0.012	-0.099
-615.303	25.107	0.158	0.133
-614.288	800.000	-0.055	0.195
-613.273	-200.000	0.041	-0.218
-612.259	693.804	0.124	-0.332
-611.244	-31.723	-0.136	0.078
-610.230	-5.700	-0.307	-0.214
-609.215	-87.658	0.243	0.075
-608.201	23.964	0.267	-0.224
-607.186	-106.684	0.581	0.132
-606.171	-83.762	-0.078	-0.025
-605.157	-48.666	-0.235	0.115
-604.142	-194.902	-0.355	0.003
-603.128	-160.729	-0.221	-0.012
-602.113	-110.425	0.271	-0.057
-601.098	800.000	-0.102	0.348
-600.084	14.148	0.210	0.167
-599.069	-89.745	-0.267	0.080
-598.055	-200.000	-0.017	0.480
-597.040	-153.045	0.036	-0.003
-596.025	800.000	0.006	-0.016
-595.011	197.123	-0.200	0.311
-593.996	482.688	0.049	0.113
-592.982	-117.525	0.186	-0.034
-591.967	-36.196	-0.012	0.006
-590.952	-35.492	-0.114	0.063
-589.938	151.083	-0.117	-0.162
-588.923	-200.000	0.004	0.152
-587.909	10.469	0.109	-0.084
-586.894	-200.000	0.068	-0.336
-585.879	-200.000	0.073	0.549
-584.865	-125.476	0.025	0.004
-583.850	-50.909	0.421	0.201
-582.836	-72.029	0.261	0.099
-581.821	102.520	0.112	-0.134
-580.806	-27.672	0.258	0.152
-579.792	523.922	-0.135	0.322
-578.777	-200.000	-0.023	0.113
-577.763	-60.871	-0.214	-0.092
-576.748	716.986	0.188	-0.509
-575.733	-31.006	0.094	-0.054
-574.719	-11.195	-0.247	-0.165
-573.704	800.000	0.034	-0.104
-572.690	-200.000	0.013	-0.219
-571.675	-200.000	0.045	-0.356
-570.661	146.939	0.070	-0.096
-569.646	119.844	0.205	-0.258
-568.631	-200.000	0.022	0.293
-567.617	-200.000	0.010	0.047
-566.602	180.340	-0.069	-0.103
-565.588	-200.000	-0.055	0.322
-564.573	230.833	0.065	-0.108
-563.558	-177.620	-0.307	-0.008
-562.544	-200.000	-0.034	-0.263
-561.529	-85.512	0.414	-0.131
-560.515	37.171	-0.105	-0.095
-559.500	-123.256	-0.162	-0.026
-558.485	-151.099	-0.131	-0.010
-557.471	-36.582	-0.113	-0.062
-556.456	-38.115	0.156	-0.084
-555.442	-98.097	0.164	0.043
-554.427	191.181	-0.063	-0.097
-553.412	420.540	0.132	-0.288
-552.398	-200.000	-0.282	-0.001
-551.383	24.571	0.133	0.112
-550.369	-143.683	-0.219	-0.021
-549.354	-200.000	0.003	-0.075
-548.339	800.000	0.024	0.099
-547.325	101.017	0.069	0.081
-546.310	-82.342	0.103	0.034
-545.296	-200.000	-0.014	0.146
-544.281	0.076	-0.218	-0.158
-543.266	97.592	-0.046	0.054
-542.252	-7.287	0.211	0.145
-541.237	-62.546	0.144	-0.061
-540.223	-15.511	0.171	-0.111
-539.208	-200.000	-0.035	-0.240
-538.193	-55.429	0.129	-0.059
-537.179	-200.000	0.016	0.121
-536.164	-200.000	-0.003	-0.044
-535.150	-55.159	-0.279	-0.127
-534.135	396.768	0.072	0.152
-533.121	450.326	-0.124	0.279
-532.106	324.512	-0.120	0.232
-531.091	0.400	-0.099	-0.071
-530.077	-200.000	0.065	-0.503
-529.062	-200.000	0.028	-0.310
-528.048	-59.437	0.250	-0.109
-527.033	68.478	0.105	-0.109
-526.018	-82.096	-0.422	0.140
-525.004	-200.000	0.054	-0.397
-523.989	-156.534	-0.201	0.013
-522.975	-95.430	0.149	0.041
-521.960	353.668	-0.080	0.162
-520.945	204.670	-0.095	-0.149
-519.931	17.772	0.266	0.215
-518.916	-200.000	-0.018	0.220
-517.902	40.358	-0.124	0.113
-516.887	800.000	0.039	-0.114
-515.872	-200.000	-0.007	0.287
-514.858	800.000	-0.082	0.302
-513.843	41.443	-0.083	-0.076
-512.829	-128.137	-0.304	-0.044
-511.814	-82.980	-0.223	-0.073
-510.799	-200.000	0.013	0.202
-509.785	-69.470	0.243	-0.094
-508.770	-47.930	-0.436	0.214
-507.756	-31.439	0.276	0.158
-506.741	-129.577	-0.282	0.040
-505.726	-25.437	-0.044	-0.026
-504.712	-200.000	-0.015	0.157
-503.697	-5.040	-0.244	0.171
-502.683	-175.742	-0.300	-0.008
-501.668	-200.000	-0.038	0.280
-500.653	-200.000	0.010	0.285
-499.639	313.623	-0.103	-0.196
-498.624	-132.802	-0.204	-0.026
-497.610	-200.000	-0.027	0.251
-496.595	-200.000	-0.016	0.187
-495.581	-26.452	0.089	-0.053
-494.566	359.527	0.050	0.102
-493.551	31.490	-0.074	-0.064
-492.537	-140.458	-0.215	0.023
-491.522	-84.800	0.165	-0.053
-490.508	-31.561	0.170	-0.097
-489.493	62.622	-0.160	0.162
-488.478	-70.706	0.418	-0.160
-487.464	-102.005	-0.046	0.011
-486.449	-58.002	0.068	0.030
-485.435	-17.619	0.341	0.217
-484.420	150.848	0.083	-0.114
-483.405	381.596	-0.053	-0.110
-482.391	-200.000	-0.007	0.142
-481.376	800.000	0.059	-0.216
-480.362	29.727	-0.064	-0.056
-479.347	-69.763	-0.056	-0.022
-478.332	61.237	0.102	0.103
-477.318	-122.467	0.229	-0.038
-476.303	800.000	0.103	0.331
-475.289	-200.000	0.015	-0.226
-474.274	800.000	-0.041	0.172
-473.259	-74.451	-0.140	0.051
-472.245	211.010	0.126	0.201
-471.230	-42.713	0.157	0.081
-470.216	-108.218	0.130	0.029
-469.201	-65.379	-0.127	-0.052
-468.186	169.625	-0.139	-0.201
-467.172	537.374	-0.091	-0.219
-466.157	100.529	-0.052	-0.062
-465.143	-91.342	0.206	-0.060
-464.128	416.016	0.090	0.195
-463.113	22.473	0.309	-0.256
-462.099	-200.000	-0.051	-0.414
-461.084	266.467	-0.193	0.341
-460.070	-200.000	0.000	-0.232
-459.055	-107.168	-0.154	-0.034
-458.040	47.622	0.172	0.162
-457.026	706.705	-0.126	-0.338
-456.011	-196.163	-0.151	-0.001
-454.997	-79.373	-0.249	-0.085
-453.982	291.778	0.144	0.265
-452.968	92.288	0.319	0.364
-451.953	-94.457	-0.062	-0.017
-450.938	-200.000	-0.001	-0.206
-449.924	-94.411	0.368	0.102
-448.909	800.000	0.027	-0.110
-447.895	-120.482	-0.236	-0.041
-446.880	-200.000	0.032	-0.193
-445.865	-119.840	-0.372	0.065
-444.851	-200.000	-0.005	0.187
-443.836	125.181	0.078	-0.100
-442.822	-56.471	0.198	-0.089
-441.807	-78.787	-0.086	-0.030
-440.792	538.482	-0.046	-0.112
-439.778	-118.838	0.248	0.044
-438.763	-101.549	-0.134	-0.033
-437.749	-200.000	0.029	0.278
-436.734	-200.000	0.001	-0.089
-435.719	-77.366	-0.377	0.132
-434.705	-132.084	-0.170	0.022
-433.690	24.645	-0.263	0.220
-432.676	339.447	0.080	-0.157
-431.661	-0.936	-0.255	-0.183
-430.646	-80.937	0.228	0.076
-429.632	226.440	-0.032	-0.053
-428.617	163.878	0.132	0.189
-427.603	-32.358	0.104	-0.059
-426.588	-200.000	0.014	-0.162
-425.573	-200.000	-0.008	-0.253
-424.559	-200.000	0.021	0.209
-423.544	66.546	-0.111	0.114
-422.530	635.060	-0.104	-0.267
-421.515	-187.160	-0.106	0.001
-420.500	-200.000	-0.002	-0.166
-419.486	-200.000	-0.294	0.001
-418.471	-94.766	-0.174	-0.048
-417.457	-27.683	0.266	0.156
-416.442	95.042	0.137	-0.158
-415.428	-200.000	0.001	-0.041
-414.413	-200.000	0.024	0.143
-413.398	-14.589	-0.177	-0.115
-412.384	-111.096	-0.208	-0.043
-411.369	-200.000	0.030	-0.215
-410.355	370.154	-0.047	-0.096
-409.340	-200.000	0.063	0.296
-408.325	-138.938	0.397	-0.044
-407.311	-60.198	0.506	-0.218
-406.296	-64.181	-0.301	0.124
-405.282	337.687	-0.054	0.106
-404.267	109.218	0.201	-0.243
-403.252	448.999	0.084	0.187
-402.238	-105.496	-0.219	-0.050
-401.223	-9.797	0.208	0.140
-400.209	96.905	0.086	0.100
-399.194	-138.477	-0.428	-0.048
-398.179	243.628	0.064	-0.109
-397.165	-70.286	-0.108	0.041
-396.150	-200.000	-0.036	-0.189
-395.136	184.837	-0.004	-0.006
-394.121	-118.808	-0.108	-0.019
-393.106	-120.688	-0.205	0.035
-392.092	-99.468	-0.536	-0.136
-391.077	-93.127	0.124	-0.035
-390.063	383.132	-0.012	-0.024
-389.048	-200.000	0.042	0.339
-388.033	-200.000	-0.036	-0.176
-387.019	719.838	0.115	-0.309
-386.004	72.190	-0.206	0.216
-384.990	-200.000	-0.046	0.391
-383.975	198.270	0.240	0.371
-382.960	800.000	0.116	-0.382
-381.946	187.103	-0.174	0.262
-380.931	-5.008	-0.215	0.150
-379.917	-200.000	0.081	-0.466
-378.902	-200.000	-0.020	-0.103
-377.888	-16.818	-0.171	0.109
-376.873	-56.287	-0.367	0.165
-375.858	-65.867	0.256	0.103
-374.844	-40.682	-0.143	-0.075
-373.829	4.291	-0.031	-0.023
-372.815	159.052	-0.038	0.053
-371.800	800.000	-0.088	-0.253
-370.785	-200.000	0.000	0.002
-369.771	-43.004	-0.303	-0.155
-368.756	-103.015	-0.104	-0.025
-367.742	-147.260	-0.198	0.017
-366.727	-101.843	-0.301	-0.073
-365.712	-64.443	-0.406	-0.166
-364.698	800.000	0.090	0.386
-363.683	413.231	0.060	0.129
-362.669	8.343	-0.280	0.212
-361.654	-200.000	-0.056	0.383
-360.639	-16.407	0.053	-0.034
-359.625	-72.615	-0.272	0.101
-358.610	-200.000	0.006	-0.118
-357.596	182.717	0.091	-0.135
-356.581	-81.672	0.079	-0.026
-355.566	800.000	-0.040	-0.127
-354.552	-200.000	0.033	0.167
-353.537	234.965	-0.167	0.278
-352.523	-200.000	-0.036	-0.241
-351.508	25.445	-0.107	-0.090
-350.493	228.958	-0.119	0.196
-349.479	-117.266	-0.076	0.014
-348.464	171.544	0.215	0.311
-347.450	-38.972	-0.318	0.169
-346.435	708.992	-0.068	0.180
-345.420	-12.171	0.013	0.009
-344.406	-71.008	-0.403	0.153
-343.391	800.000	-0.032	-0.120
-342.377	660.430	-0.023	0.060
-341.362	-103.099	-0.061	0.015
-340.348	-79.268	0.246	-0.084
-339.333	-25.537	0.141	-0.084
-338.318	525.702	0.151	-0.357
-337.304	82.641	-0.095	0.104
-336.289	78.917	0.264	-0.285
-335.275	-200.000	-0.002	0.040
-334.260	641.757	-0.147	0.377
-333.245	-38.660	-0.206	0.110
-332.231	-124.964	-0.085	0.013
-331.216	-189.584	0.148	0.002
-330.202	56.132	0.050	0.049
-329.187	234.288	0.187	0.311
-328.172	33.344	-0.077	-0.068
-327.158	-107.979	-0.226	-0.050
-326.143	635.607	-0.071	-0.181
-325.129	-154.724	0.174	-0.012
-324.114	-94.352	0.166	-0.046
-323.099	-48.576	0.272	0.132
-322.085	-151.002	0.141	-0.011
-321.070	-34.494	0.072	-0.039
-320.056	53.510	-0.283	0.274
-319.041	312.712	0.090	0.171
-318.026	-156.300	0.416	-0.026
-317.012	-169.556	0.139	-0.005
-315.997	-95.285	0.158	-0.043
-314.983	-51.193	0.227	0.107
-313.968	49.301	0.207	0.196
-312.953	206.501	0.204	0.320
-311.939	68.960	0.215	0.222
-310.924	-101.468	0.221	0.054
-309.910	800.000	-0.053	-0.195
-308.895	207.186	-0.111	-0.174
-307.880	90.009	0.152	-0.171
-306.866	-109.565	-0.105	-0.022
-305.851	156.974	0.059	0.081
-304.837	-147.797	-0.145	0.012
-303.822	99.396	0.030	0.035
-302.807	800.000	0.072	-0.221
-301.793	-131.918	-0.131	0.017
-300.778	-44.047	0.282	-0.142
-299.764	-200.000	0.022	-0.501
-298.749	-200.000	-0.017	0.342
-297.735	-200.000	0.094	0.505
-296.720	-45.343	0.060	0.030
-295.705	477.840	0.022	0.049
-294.691	192.228	-0.039	-0.059
-293.676	-33.088	0.298	-0.166
-292.662	-98.309	0.174	-0.045
-291.647	-135.959	0.069	0.008
-290.632	-138.552	0.398	0.044
-289.618	50.593	0.124	0.118
-288.603	-96.459	-0.226	0.060
-287.589	-109.307	0.364	-0.078
-286.574	-9.420	0.275	-0.185
-285.559	-200.000	-0.007	-0.207
-284.545	245.776	-0.090	-0.153
-283.530	-102.202	-0.159	-0.038
-282.516	3.598	0.179	0.131
-281.501	147.406	-0.192	0.260
-280.486	59.358	-0.281	-0.279
-279.472	689.120	0.104	0.274
-278.457	-200.000	-0.004	-0.131
-277.443	161.145	-0.143	0.201
-276.428	-30.731	-0.151	0.086
-275.413	-167.917	0.241	-0.010
-274.399	-113.356	-0.171	0.034
-273.384	592.257	0.066	-0.165
-272.370	369.314	0.073	0.148
-271.355	-200.000	-0.006	0.294
-270.340	332.984	-0.133	0.258
-269.326	-93.270	-0.221	0.062
-268.311	-200.000	0.001	-0.164
-267.297	224.140	-0.022	0.036
-266.282	205.379	-0.165	-0.258
-265.267	751.608	0.067	-0.181
-264.253	387.070	-0.024	0.049
-263.238	59.461	-0.335	-0.332
-262.224	800.000	0.123	0.507
-261.209	-200.000	-0.027	-0.273
-260.195	1.980	-0.235	0.171
-259.180	-200.000	0.067	0.353
-258.165	-131.391	0.226	0.030
-257.151	256.644	0.109	-0.188
-256.136	-75.676	-0.397	-0.142
-255.122	274.921	-0.057	-0.101
-254.107	156.932	0.160	0.222
-253.092	800.000	-0.107	-0.365
-252.078	-200.000	-0.009	-0.163
-251.063	343.518	-0.204	0.402
-250.049	-200.000	-0.054	0.318
-249.034	8.397	-0.200	-0.151
-248.019	619.025	-0.157	-0.396
-247.005	-99.073	0.340	0.087
-245.990	-136.360	-0.196	-0.023
-244.976	800.000	-0.050	-0.143
-243.961	435.396	-0.160	0.349
-242.946	-200.000	-0.003	0.180
-241.932	-27.624	-0.191	-0.111
-240.917	-200.000	-0.018	-0.145
-239.903	-200.000	0.005	0.086
-238.888	-200.000	0.028	-0.358
-237.873	-38.236	-0.207	-0.110
-236.859	-200.000	-0.004	-0.081
-235.844	24.624	0.087	0.072
-234.830	68.981	-0.035	-0.036
-233.815	417.957	-0.047	0.101
-232.800	-200.000	0.025	-0.123
-231.786	-33.685	0.357	-0.198
-230.771	738.126	-0.076	-0.204
-229.757	399.394	-0.038	0.080
-228.742	-97.470	-0.169	-0.044
-227.727	-200.000	-0.006	0.147
-226.713	36.964	0.185	0.164
-225.698	70.493	0.172	-0.179
-224.684	-27.482	-0.103	0.060
-223.669	-200.000	0.034	-0.174
-222.655	-122.417	-0.090	0.015
-221.640	-102.223	0.126	-0.030
-220.625	-47.286	0.225	-0.110
-219.611	5.139	0.171	-0.126
-218.596	133.120	0.183	0.237
-217.582	800.000	-0.041	-0.174
-216.567	800.000	-0.074	-0.287
-215.552	-11.913	-0.205	0.135
-214.538	-39.205	-0.157	0.083
-213.523	-157.854	0.440	-0.026
-212.509	-22.495	0.433	0.263
-211.494	-200.000	0.028	-0.128
-210.479	160.832	0.030	-0.042
-209.465	-141.585	0.322	0.033
-208.450	23.337	0.098	0.081
-207.436	104.675	0.075	0.089
-206.421	-71.304	0.173	-0.065
-205.406	-19.573	0.078	-0.048
-204.392	-62.242	0.132	-0.055
-203.377	-124.881	0.214	-0.033
-202.363	-55.721	0.423	0.190
-201.348	220.346	-0.046	0.073
-200.333	-127.570	-0.319	-0.046
-199.319	800.000	0.050	-0.161
-198.304	-200.000	-0.018	-0.174
-197.290	176.535	0.252	0.368
-196.275	-200.000	-0.010	-0.252
-195.260	-192.054	-0.313	-0.003
-194.246	66.775	0.205	0.209
-193.231	144.060	0.192	-0.257
-192.217	-200.000	-0.006	-0.448
-191.202	21.307	0.445	0.362
-190.187	-75.817	-0.228	-0.081
-189.173	-31.626	0.339	0.191
-188.158	186.709	0.113	0.169
-187.144	-20.804	-0.086	0.053
-186.129	-22.059	-0.168	-0.102
-185.114	380.770	0.133	-0.274
-184.100	85.271	0.103	-0.113
-183.085	193.547	0.053	-0.081
-182.071	-15.088	-0.257	-0.165
-181.056	-34.975	0.116	-0.064
-180.042	69.376	0.099	0.103
-179.027	800.000	0.095	-0.347
-178.012	-38.775	0.124	-0.065
-176.998	-18.632	-0.229	-0.143
-175.983	43.975	-0.190	-0.175
-174.969	497.219	-0.156	0.360
-173.954	-20.185	0.190	-0.117
-172.939	-90.146	0.077	-0.023
-171.925	-72.581	0.085	0.031
-170.910	-89.636	0.296	-0.087
-169.896	-121.515	0.234	-0.039
-168.881	800.000	0.072	0.237
-167.866	800.000	-0.042	-0.142
-166.852	212.991	0.091	0.144
-165.837	-84.803	0.301	-0.095
-164.823	32.159	0.069	0.059
-163.808	-96.619	-0.193	-0.051
-162.793	-36.743	0.222	0.119
-161.779	800.000	0.079	0.226
-160.764	1.933	-0.129	0.093
-159.750	800.000	-0.046	-0.196
-158.735	-200.000	-0.058	-0.327
-157.720	640.589	0.131	0.333
-156.706	251.874	-0.049	0.083
-155.691	-15.247	-0.303	-0.194
-154.677	557.401	-0.099	-0.238
-153.662	800.000	0.037	-0.132
-152.647	277.962	0.035	0.062
-151.633	-200.000	-0.044	0.295
-150.618	800.000	-0.044	0.130
-149.604	-102.601	0.222	-0.053
-148.589	-170.454	-0.103	-0.004
-147.574	365.887	0.169	0.340
-146.560	-200.000	0.015	0.177
-145.545	-38.330	-0.107	0.057
-144.531	-56.623	-0.095	-0.042
-143.516	-200.000	-0.002	0.305
-142.502	-31.616	0.077	-0.043
-141.487	800.000	0.048	0.142
-140.472	381.714	-0.138	-0.283
-139.458	655.795	0.016	-0.040
-138.443	-163.722	0.235	0.011
-137.429	-162.029	0.132	0.007
-136.414	-200.000	0.020	-0.133
-135.399	-198.701	-0.129	0.001
-134.385	-200.000	0.050	0.231
-133.370	-88.357	0.218	0.065
-132.356	-200.000	0.053	0.367
-131.341	-103.329	-0.172	-0.041
-130.326	27.897	0.094	0.080
-129.312	-68.331	0.216	-0.084
-128.297	717.256	0.147	-0.390
-127.283	-59.662	-0.267	0.114
-126.268	215.322	0.118	-0.187
-125.253	25.364	-0.124	0.103
-124.239	-9.178	0.105	-0.070
-123.224	-137.725	0.138	-0.015
