DTS Sentinel unit serial number:	SN413079Multiplexer serial number:	ORYXHardware model number:	OX4-SRSoftware version number:	ORYX F/W v4.00 Oryx Data Collector v3.7.2.0data status	okinstallation	princeton_trtdifferential loss correction	single-endedforward channel	channel 4reverse channel	N/Adate	2019/09/15time	16:13:34forward acquisition time	60.00reverse acquisition time	0.00gamma	496.2192k internal	0.2276k external	0.2276temperature offset calibration	0.9940default loss term (dB/km)	0.3790temperature slope calibration	1.0000multiplexer offset coefficient	1.0000multiplexer slope coefficient	1.0000fibre end	0.00T internal ref (°C)	43.33T ext. ref 1 (°C)	5.42T ext. ref 2 (°C)	40.48length (m)	temperature (°C)	Stokes	anti-Stokes-747.200	-32.822	-0.216	0.124
-746.185	-37.243	0.154	0.085
-745.171	88.332	-0.213	0.244
-744.156	-200.000	0.055	0.381
-743.142	72.518	-0.215	-0.231
-742.127	-49.028	0.349	-0.172
-741.112	-163.426	0.215	0.011
-740.098	-177.252	-0.553	0.014
-739.083	110.762	0.365	0.452
-738.069	274.777	0.025	0.046
-737.054	-163.149	0.123	0.006
-736.039	-60.040	-0.376	0.166
-735.025	-194.628	0.432	-0.004
-734.010	105.777	0.317	-0.387
-732.996	-200.000	-0.040	-0.283
-731.981	131.456	-0.198	-0.262
-730.966	106.924	0.091	0.111
-729.952	-62.018	-0.088	0.038
-728.937	-135.215	-0.364	-0.045
-727.923	612.344	-0.096	0.246
-726.908	9.173	-0.319	0.248
-725.894	235.708	-0.170	0.289
-724.879	-142.624	0.156	0.016
-723.864	29.421	-0.109	0.095
-722.850	-200.000	-0.044	0.221
-721.835	80.730	-0.069	-0.076
-720.821	168.101	0.104	-0.152
-719.806	112.835	-0.012	0.015
-718.791	-68.870	0.172	0.069
-717.777	480.682	0.047	0.110
-716.762	99.643	0.072	-0.086
-715.748	-200.000	-0.031	0.167
-714.733	491.296	0.056	0.132
-713.718	-139.029	-0.091	0.010
-712.704	-200.000	0.001	0.063
-711.689	-200.000	-0.008	0.070
-710.675	487.524	-0.050	-0.118
-709.660	-200.000	0.010	-0.110
-708.645	187.673	-0.114	0.175
-707.631	198.363	-0.137	0.216
-706.616	-27.840	-0.138	-0.082
-705.602	-1.251	0.059	0.043
-704.587	57.588	0.164	0.165
-703.572	-136.130	0.217	0.026
-702.558	800.000	0.036	0.146
-701.543	108.697	0.151	-0.186
-700.529	-200.000	0.008	0.199
-699.514	554.015	-0.049	-0.122
-698.499	308.384	0.146	-0.280
-697.485	-38.450	-0.138	-0.075
-696.470	-0.859	0.199	0.145
-695.456	-14.950	-0.164	0.108
-694.441	53.011	-0.176	-0.174
-693.426	-44.752	0.180	0.092
-692.412	-200.000	0.055	-0.261
-691.397	42.556	0.298	-0.279
-690.383	-129.842	0.109	-0.015
-689.368	-200.000	-0.093	0.424
-688.354	54.538	-0.251	0.249
-687.339	-103.970	-0.582	-0.140
-686.324	-37.279	-0.160	-0.088
-685.310	-42.624	-0.180	0.094
-684.295	40.740	-0.231	-0.214
-683.281	323.098	0.016	0.032
-682.266	-14.675	-0.241	0.159
-681.251	-200.000	0.048	0.499
-680.237	-156.635	0.271	-0.017
-679.222	156.742	-0.210	0.299
-678.208	699.372	0.093	0.251
-677.193	-43.771	0.131	0.068
-676.178	-200.000	-0.032	-0.184
-675.164	258.374	-0.208	0.369
-674.149	32.532	-0.336	0.298
-673.135	-200.000	-0.035	-0.187
-672.120	8.099	0.311	-0.240
-671.105	-129.323	0.278	-0.040
-670.091	-133.712	-0.088	0.011
-669.076	-72.067	-0.227	0.087
-668.062	728.722	0.077	0.210
-667.047	57.445	-0.108	0.108
-666.032	-87.032	0.029	-0.009
-665.018	-200.000	-0.000	0.179
-664.003	-60.000	0.085	0.037
-662.989	800.000	0.034	0.117
-661.974	-200.000	-0.011	0.400
-660.959	45.655	0.122	-0.116
-659.945	45.619	0.179	0.170
-658.930	297.509	0.083	0.156
-657.916	180.008	0.205	0.309
-656.901	179.812	-0.183	-0.276
-655.886	800.000	0.068	-0.221
-654.872	24.222	0.231	0.196
-653.857	747.544	-0.073	0.201
-652.843	-200.000	-0.017	0.100
-651.828	-102.268	-0.120	0.030
-650.814	-200.000	0.001	-0.216
-649.799	625.673	0.015	0.039
-648.784	-5.778	0.097	0.069
-647.770	290.637	0.079	0.147
-646.755	-48.060	-0.185	-0.092
-645.741	259.228	-0.094	0.166
-644.726	403.639	-0.037	-0.080
-643.711	641.257	-0.050	0.132
-642.697	800.000	0.096	-0.293
-641.682	-4.215	0.079	0.056
-640.668	100.538	0.126	0.151
-639.653	9.915	-0.054	0.042
-638.638	15.640	0.119	0.096
-637.624	-46.282	-0.269	-0.136
-636.609	800.000	-0.066	0.204
-635.595	16.147	0.276	-0.223
-634.580	-200.000	-0.015	0.171
-633.565	-200.000	-0.018	0.203
-632.551	-43.719	0.143	-0.074
-631.536	8.773	0.227	-0.176
-630.522	107.560	-0.185	-0.226
-629.507	363.403	-0.141	0.291
-628.492	-163.580	-0.276	0.013
-627.478	-200.000	0.048	-0.531
-626.463	-112.504	-0.314	-0.064
-625.449	-32.905	-0.217	0.124
-624.434	-69.725	0.030	0.012
-623.419	5.484	-0.293	-0.222
-622.405	-59.278	-0.091	0.040
-621.390	123.733	0.182	0.235
-620.376	81.730	-0.161	0.179
-619.361	-200.000	-0.068	-0.334
-618.346	-12.150	0.077	0.051
-617.332	190.815	0.168	-0.259
-616.317	26.042	-0.151	-0.129
-615.303	-21.862	0.070	0.044
-614.288	-200.000	-0.026	-0.148
-613.273	29.663	-0.143	0.125
-612.259	-167.659	0.152	-0.006
-611.244	-139.817	0.053	-0.006
-610.230	118.016	0.166	0.210
-609.215	-200.000	-0.010	0.267
-608.201	223.418	0.153	-0.253
-607.186	226.083	0.162	-0.269
-606.171	-200.000	-0.004	0.055
-605.157	370.390	0.156	0.324
-604.142	800.000	-0.048	-0.147
-603.128	461.726	0.133	-0.305
-602.113	-135.182	0.349	-0.043
-601.098	800.000	0.067	0.218
-600.084	204.800	0.085	0.135
-599.069	354.672	-0.159	0.324
-598.055	229.207	-0.103	-0.172
-597.040	-136.132	-0.127	-0.015
-596.025	136.948	0.136	-0.182
-595.011	-183.869	-0.117	-0.002
-593.996	-200.000	0.014	0.108
-592.982	326.987	-0.080	-0.158
-591.967	-118.356	-0.131	0.024
-590.952	-22.822	-0.232	0.143
-589.938	-200.000	0.013	0.145
-588.923	-26.659	0.087	-0.052
-587.909	-103.145	-0.273	0.066
-586.894	-200.000	-0.005	-0.211
-585.879	-175.726	0.208	-0.006
-584.865	-61.235	0.182	0.079
-583.850	-67.015	0.138	-0.056
-582.836	689.840	0.046	-0.123
-581.821	-21.214	0.101	0.063
-580.806	110.938	0.076	0.094
-579.792	175.635	-0.122	0.181
-578.777	-200.000	0.029	0.347
-577.763	276.489	0.087	0.159
-576.748	800.000	-0.056	0.213
-575.733	-60.637	0.236	-0.102
-574.719	-21.101	-0.175	0.110
-573.704	-10.423	-0.123	-0.083
-572.690	53.416	-0.120	0.118
-571.675	-200.000	-0.010	0.340
-570.661	-132.729	0.266	0.035
-569.646	-200.000	0.023	0.350
-568.631	4.572	-0.176	-0.132
-567.617	-89.980	0.202	-0.060
-566.602	-74.838	-0.152	-0.056
-565.588	134.678	-0.166	-0.221
-564.573	-65.610	-0.175	0.072
-563.558	224.337	-0.094	0.156
-562.544	-200.000	0.000	-0.024
-561.529	119.894	0.104	0.131
-560.515	345.291	-0.124	-0.250
-559.500	800.000	-0.126	0.361
-558.485	341.189	0.244	0.488
-557.471	-200.000	0.008	0.127
-556.456	-200.000	0.061	-0.533
-555.442	202.292	0.161	-0.254
-554.427	-200.000	0.032	0.257
-553.412	-50.326	-0.244	-0.118
-552.398	-94.520	0.183	-0.051
-551.383	-200.000	0.014	-0.160
-550.369	251.821	-0.147	0.256
-549.354	176.292	0.128	0.190
-548.339	-137.522	0.238	-0.028
-547.325	-88.627	0.307	-0.093
-546.310	5.434	-0.236	0.178
-545.296	-28.482	-0.356	0.210
-544.281	-200.000	0.049	-0.320
-543.266	262.154	0.126	-0.223
-542.252	-98.881	-0.061	0.016
-541.237	-200.000	0.003	0.067
-540.223	-139.791	0.267	-0.029
-539.208	136.778	-0.109	-0.145
-538.193	393.282	0.059	-0.126
-537.179	-200.000	0.032	0.239
-536.164	129.739	-0.156	0.204
-535.150	-29.894	-0.175	0.102
-534.135	-200.000	0.009	0.042
-533.121	497.215	0.077	-0.182
-532.106	344.003	0.065	-0.130
-531.091	28.049	0.189	-0.163
-530.077	-44.656	0.109	-0.056
-529.062	234.186	0.106	-0.178
-528.048	-79.241	0.277	0.096
-527.033	-200.000	-0.005	0.054
-526.018	409.885	-0.037	-0.080
-525.004	-200.000	-0.003	0.390
-523.989	27.198	-0.122	0.105
-522.975	216.794	0.185	0.301
-521.960	-80.789	-0.317	0.107
-520.945	582.619	-0.026	0.065
-519.931	294.842	-0.136	-0.255
-518.916	102.539	0.221	-0.264
-517.902	-159.219	0.202	0.012
-516.887	110.244	-0.187	-0.230
-515.872	-68.375	0.194	-0.077
-514.858	-200.000	-0.012	-0.257
-513.843	-106.440	-0.105	0.024
-512.829	-7.481	-0.304	0.210
-511.814	84.144	-0.163	-0.182
-510.799	-200.000	-0.036	-0.423
-509.785	-99.998	-0.194	0.049
-508.770	-200.000	-0.032	0.323
-507.756	800.000	-0.087	0.266
-506.741	-200.000	0.036	-0.345
-505.726	212.161	-0.123	-0.198
-504.712	226.666	0.156	0.259
-503.697	-200.000	-0.065	-0.349
-502.683	42.022	-0.226	-0.210
-501.668	-157.329	-0.078	0.005
-500.653	-200.000	0.003	0.135
-499.639	-124.316	-0.206	-0.033
-498.624	-22.307	-0.261	0.161
-497.610	54.398	0.155	0.153
-496.595	380.752	-0.089	-0.186
-495.581	-29.671	0.065	0.038
-494.566	369.993	0.052	0.107
-493.551	-200.000	0.062	-0.338
-492.537	-148.748	-0.185	0.015
-491.522	-153.862	0.243	-0.017
-490.508	68.972	-0.152	0.159
-489.493	-133.973	0.070	-0.009
-488.478	173.501	-0.155	0.228
-487.464	238.973	-0.148	-0.252
-486.449	-87.644	-0.111	-0.034
-485.435	-200.000	-0.009	-0.189
-484.420	-102.353	0.158	-0.039
-483.405	-72.572	-0.114	0.043
-482.391	-85.376	0.027	-0.009
-481.376	185.506	-0.162	0.246
-480.362	-3.728	0.320	0.227
-479.347	197.447	-0.099	0.154
-478.332	676.247	-0.081	-0.216
-477.318	340.995	0.181	0.360
-476.303	68.266	0.099	0.104
-475.289	60.824	-0.093	0.094
-474.274	-59.678	0.033	0.014
-473.259	11.314	-0.185	-0.144
-472.245	61.629	0.109	0.110
-471.230	301.647	-0.051	-0.096
-470.216	-82.231	-0.113	-0.037
-469.201	-200.000	-0.038	0.226
-468.186	117.180	0.138	0.172
-467.172	800.000	0.019	-0.084
-466.157	-78.074	-0.132	0.046
-465.143	184.272	-0.211	-0.319
-464.128	-200.000	-0.023	0.223
-463.113	-200.000	-0.047	0.220
-462.099	-25.758	0.152	-0.091
-461.084	140.366	-0.010	0.013
-460.070	-28.249	-0.064	0.038
-459.055	87.799	0.216	-0.244
-458.040	-200.000	-0.052	-0.281
-457.026	800.000	-0.048	-0.151
-456.011	4.306	-0.189	0.141
-454.997	-200.000	-0.010	-0.256
-453.982	-55.818	0.130	0.059
-452.968	61.858	0.076	-0.077
-451.953	152.890	0.105	-0.146
-450.938	60.749	0.187	-0.189
-449.924	303.153	0.106	0.199
-448.909	-11.003	-0.235	-0.158
-447.895	-36.211	0.229	-0.126
-446.880	101.751	0.118	-0.140
-445.865	-48.188	-0.120	-0.059
-444.851	-167.243	0.308	-0.013
-443.836	-21.646	-0.228	-0.141
-442.822	-200.000	0.038	-0.474
-441.807	-200.000	0.058	-0.324
-440.792	-200.000	0.001	-0.182
-439.778	129.938	0.151	0.197
-438.763	-138.979	0.412	0.046
-437.749	-51.787	0.170	-0.081
-436.734	800.000	-0.043	-0.149
-435.719	47.479	-0.135	0.129
-434.705	-101.692	-0.212	-0.052
-433.690	463.194	0.058	0.132
-432.676	-6.531	0.174	-0.121
-431.661	-178.210	0.258	-0.006
-430.646	-197.391	0.202	-0.001
-429.632	524.576	-0.131	-0.314
-428.617	-200.000	-0.007	-0.269
-427.603	55.997	-0.307	0.304
-426.588	457.524	-0.096	-0.217
-425.573	752.161	-0.027	0.074
-424.559	-200.000	-0.004	-0.118
-423.544	800.000	0.051	-0.148
-422.530	-160.380	-0.210	-0.012
-421.515	72.927	-0.135	0.144
-420.500	-68.232	-0.297	0.117
-419.486	-153.486	-0.162	0.011
-418.471	-188.370	0.066	-0.001
-417.457	16.182	-0.316	-0.253
-416.442	74.463	-0.292	0.312
-415.428	800.000	0.089	0.370
-414.413	752.338	-0.162	0.446
-413.398	-200.000	0.011	-0.090
-412.384	395.225	-0.129	0.274
-411.369	120.465	-0.188	-0.238
-410.355	-200.000	0.056	0.302
-409.340	-200.000	0.026	-0.133
-408.325	498.543	0.054	0.127
-407.311	800.000	0.083	0.238
-406.296	-200.000	0.013	-0.213
-405.282	382.092	0.078	0.164
-404.267	-200.000	-0.011	0.174
-403.252	155.851	0.160	0.224
-402.238	-4.620	0.178	0.125
-401.223	9.365	-0.146	-0.113
-400.209	800.000	0.052	-0.155
-399.194	-52.824	0.049	0.023
-398.179	487.152	-0.077	-0.178
-397.165	504.572	0.047	0.110
-396.150	41.553	0.150	0.138
-395.136	-145.442	0.265	0.024
-394.121	121.193	-0.122	-0.155
-393.106	-200.000	0.022	-0.373
-392.092	114.309	0.147	0.182
-391.077	-33.469	-0.127	0.071
-390.063	-55.915	0.089	-0.040
-389.048	48.877	-0.309	-0.295
-388.033	319.335	0.123	-0.237
-387.019	-153.545	-0.176	0.012
-386.004	-52.123	-0.287	0.135
-384.990	-33.162	0.101	0.057
-383.975	286.052	0.071	-0.131
-382.960	51.168	-0.157	-0.152
-381.946	75.520	-0.025	0.027
-380.931	-200.000	-0.054	-0.335
-379.917	51.382	-0.010	-0.010
-378.902	-200.000	-0.030	0.315
-377.888	800.000	-0.094	-0.279
-376.873	175.589	-0.076	0.111
-375.858	-72.850	0.246	-0.092
-374.844	-71.309	0.244	0.093
-373.829	286.804	0.110	0.202
-372.815	690.377	0.111	0.295
-371.800	-95.390	0.102	0.028
-370.785	-47.772	0.113	0.055
-369.771	800.000	-0.052	0.197
-368.756	100.604	-0.326	0.385
-367.742	-133.156	0.203	-0.026
-366.727	-200.000	0.061	-0.344
-365.712	107.994	0.248	-0.300
-364.698	-124.480	0.073	-0.012
-363.683	-82.864	-0.130	0.043
-362.669	356.215	0.079	-0.159
-361.654	-105.846	0.348	0.080
-360.639	-188.394	0.112	-0.001
-359.625	800.000	0.019	-0.056
-358.610	-143.240	0.324	0.032
-357.596	-200.000	-0.063	0.334
-356.581	-90.042	0.338	-0.100
-355.566	85.299	0.114	-0.127
-354.552	800.000	0.111	-0.322
-353.537	95.607	0.161	-0.187
-352.523	-163.133	0.223	-0.011
-351.508	-200.000	-0.004	-0.161
-350.493	-200.000	0.009	0.045
-349.479	-111.705	0.258	-0.053
-348.464	-62.629	0.090	0.038
-347.450	32.170	-0.114	-0.099
-346.435	-191.059	0.244	0.003
-345.420	-120.549	0.092	-0.016
-344.406	-81.743	-0.219	-0.073
-343.391	-8.699	-0.128	0.087
-342.377	-200.000	0.018	-0.237
-341.362	-200.000	0.029	0.191
-340.348	318.313	0.147	-0.282
-339.333	761.291	0.041	0.114
-338.318	-129.844	0.349	0.049
-337.304	312.408	0.068	0.129
-336.289	114.314	-0.103	0.127
-335.275	-200.000	0.008	0.374
-334.260	-126.876	-0.124	0.019
-333.245	9.587	0.021	0.016
-332.231	74.421	0.176	-0.187
-331.216	-200.000	-0.022	-0.122
-330.202	184.346	-0.155	-0.233
-329.187	-200.000	-0.064	0.309
-328.172	778.863	-0.096	0.266
-327.158	-104.294	-0.197	0.046
-326.143	49.632	0.088	-0.084
-325.129	37.652	-0.106	-0.095
-324.114	-162.577	0.321	0.016
-323.099	-200.000	0.003	-0.031
-322.085	-17.699	-0.219	-0.139
-321.070	-200.000	0.028	-0.139
-320.056	-107.115	0.106	0.024
-319.041	-132.808	-0.169	-0.022
-318.026	62.942	-0.252	-0.256
-317.012	-200.000	0.052	-0.244
-315.997	200.115	-0.290	-0.452
-314.983	217.844	-0.081	-0.132
-313.968	-200.000	-0.054	-0.849
-312.953	-117.898	0.260	0.047
-311.939	-200.000	0.020	0.111
-310.924	269.018	-0.113	0.201
-309.910	-200.000	0.079	0.361
-308.895	-35.163	-0.206	0.114
-307.880	-200.000	-0.013	0.151
-306.866	-83.912	-0.188	0.061
-305.851	86.285	-0.181	0.202
-304.837	-165.418	0.219	-0.010
-303.822	102.622	0.174	0.206
-302.807	168.059	0.055	0.079
-301.793	-31.139	0.269	-0.154
-300.778	-79.339	0.169	-0.058
-299.764	430.426	-0.112	0.245
-298.749	-200.000	0.034	0.181
-297.735	800.000	-0.042	0.149
-296.720	-152.418	0.349	0.025
-295.705	753.761	0.137	-0.376
-294.691	-69.701	0.111	0.043
-293.676	-200.000	0.002	0.073
-292.662	-81.743	0.268	0.089
-291.647	800.000	0.046	0.143
-290.632	3.542	-0.185	-0.137
-289.618	-113.087	0.122	0.024
-288.603	301.412	-0.156	-0.292
-287.589	-52.719	-0.166	0.078
-286.574	152.592	-0.123	0.170
-285.559	-80.275	-0.117	0.039
-284.545	77.533	-0.244	-0.263
-283.530	219.510	-0.071	-0.115
-282.516	424.664	0.184	0.401
-281.501	-34.681	-0.232	0.129
-280.486	-73.645	0.124	-0.046
-279.472	-200.000	-0.026	-0.141
-278.457	25.316	-0.084	0.070
-277.443	688.570	-0.064	-0.168
-276.428	-200.000	0.005	-0.233
-275.413	-154.711	0.352	-0.024
-274.399	-200.000	-0.031	-0.157
-273.384	800.000	0.046	0.159
-272.370	191.329	-0.076	-0.116
-271.355	-14.680	-0.207	-0.134
-270.340	281.995	0.076	0.138
-269.326	-200.000	0.073	0.346
-268.311	-65.744	-0.168	0.068
-267.297	149.249	0.129	-0.176
-266.282	78.559	0.205	0.222
-265.267	526.466	0.102	-0.242
-264.253	-34.981	0.229	-0.127
-263.238	133.527	0.165	-0.215
-262.224	-100.539	0.166	0.042
-261.209	-102.494	-0.305	-0.074
-260.195	-200.000	-0.026	0.180
-259.180	5.444	-0.149	-0.111
-258.165	-117.135	-0.179	0.033
-257.151	605.654	-0.043	-0.107
-256.136	-200.000	0.028	-0.128
-255.122	99.599	-0.223	-0.261
-254.107	581.892	0.124	0.307
-253.092	-1.167	0.205	0.147
-252.078	-14.974	0.283	0.183
-251.063	-200.000	0.040	-0.303
-250.049	-143.073	0.111	0.011
-249.034	-200.000	-0.013	0.084
-248.019	-149.839	0.381	-0.030
-247.005	52.226	0.351	-0.339
-245.990	-81.393	-0.188	0.063
-244.976	201.625	-0.109	0.170
-243.961	800.000	0.041	0.115
-242.946	-63.007	-0.103	-0.043
-241.932	53.710	-0.129	0.125
-240.917	52.393	0.257	-0.248
-239.903	196.463	-0.072	-0.110
-238.888	133.575	-0.079	-0.103
-237.873	288.881	0.182	-0.333
-236.859	154.753	0.195	0.271
-235.844	-93.303	-0.178	0.050
-234.830	289.528	0.056	-0.102
-233.815	-105.135	0.267	0.062
-232.800	218.958	0.158	0.254
-231.786	-155.835	-0.287	-0.018
-230.771	151.906	-0.168	0.231
-229.757	15.672	0.223	-0.177
-228.742	-71.696	-0.208	0.078
-227.727	-20.283	-0.452	0.281
-226.713	-1.714	0.143	-0.102
-225.698	-200.000	-0.010	-0.126
-224.684	5.020	-0.154	-0.114
-223.669	71.962	0.186	-0.196
-222.655	66.709	0.139	0.143
-221.640	-200.000	-0.011	0.195
-220.625	800.000	0.020	0.082
-219.611	23.027	-0.224	-0.186
-218.596	-43.641	-0.299	0.152
-217.582	-86.010	-0.237	-0.074
-216.567	-109.264	0.133	-0.029
-215.552	-97.550	-0.269	0.070
-214.538	-33.684	-0.066	-0.037
-213.523	-78.956	-0.279	0.096
-212.509	800.000	-0.085	-0.264
-211.494	287.889	0.125	0.228
-210.479	-0.060	-0.129	0.093
-209.465	-92.590	0.163	-0.046
-208.450	-200.000	0.018	0.111
-207.436	190.659	0.095	0.145
-206.421	25.218	0.061	-0.051
-205.406	400.809	-0.053	0.112
-204.392	142.680	-0.049	-0.066
-203.377	-169.497	0.103	-0.004
-202.363	149.358	0.208	-0.284
-201.348	-85.218	-0.325	0.103
-200.333	53.757	-0.135	0.131
-199.319	-67.547	-0.239	0.095
-198.304	211.638	-0.099	0.157
-197.290	14.101	-0.085	0.067
-196.275	-39.854	-0.054	-0.029
-195.260	26.016	-0.204	-0.172
-194.246	77.709	-0.127	0.136
-193.231	-69.392	0.186	0.072
-192.217	-200.000	-0.002	-0.072
-191.202	-21.712	0.359	0.221
-190.187	-100.255	0.280	-0.070
-189.173	568.698	-0.099	-0.243
-188.158	-75.922	-0.105	0.038
-187.144	-10.842	-0.064	0.043
-186.129	-200.000	0.026	0.166
-185.114	454.251	-0.079	0.177
-184.100	456.673	0.091	0.204
-183.085	-200.000	0.001	-0.109
-182.071	34.601	-0.186	0.164
-181.056	261.575	0.195	0.341
-180.042	659.053	-0.115	-0.298
-179.027	241.888	-0.170	-0.287
-178.012	-143.366	0.149	0.014
-176.998	315.147	-0.102	-0.194
-175.983	132.210	0.036	0.047
-174.969	346.259	0.059	-0.118
-173.954	-54.058	0.085	0.039
-172.939	-200.000	0.033	-0.246
-171.925	-147.159	0.168	-0.014
-170.910	-200.000	-0.035	-0.338
-169.896	-55.486	-0.113	-0.051
-168.881	800.000	0.060	0.198
-167.866	-31.936	-0.151	0.085
-166.852	-200.000	-0.054	0.279
-165.837	375.266	-0.088	0.181
-164.823	-128.409	0.416	0.060
-163.808	27.882	0.152	0.129
-162.793	-200.000	-0.024	-0.151
-161.779	304.343	0.109	0.205
-160.764	696.325	-0.091	-0.240
-159.750	0.334	-0.082	0.059
-158.735	-200.000	0.025	0.374
-157.720	-67.024	0.087	-0.035
-156.706	-72.395	-0.326	-0.122
-155.691	-147.790	-0.502	-0.042
-154.677	188.287	-0.159	0.239
-153.662	-200.000	-0.064	0.349
-152.647	800.000	0.013	-0.037
-151.633	-175.202	-0.238	-0.007
-150.618	800.000	0.060	0.252
-149.604	253.227	0.082	-0.141
-148.589	-157.707	0.380	-0.023
-147.574	-11.165	0.257	0.171
-146.560	-200.000	0.030	-0.299
-145.545	-200.000	-0.021	-0.271
-144.531	-140.676	0.187	-0.020
-143.516	-70.715	0.252	0.096
-142.502	52.907	-0.230	-0.221
-141.487	800.000	-0.078	-0.269
-140.472	548.478	0.051	0.122
-139.458	-125.672	0.211	-0.032
-138.443	-200.000	0.016	0.160
-137.429	-141.774	-0.309	0.031
-136.414	-157.968	0.091	0.005
-135.399	282.362	-0.044	-0.079
-134.385	2.811	-0.100	0.073
-133.370	-94.314	0.248	-0.068
-132.356	158.317	0.103	0.143
-131.341	-127.599	-0.272	0.040
-130.326	800.000	0.045	0.127
-129.312	-155.015	-0.183	-0.012
-128.297	-63.466	-0.276	0.114
-127.283	-104.954	-0.215	0.050
-126.268	-36.031	-0.263	0.143
-125.253	800.000	0.064	-0.203
-124.239	33.915	-0.077	-0.067
-123.224	-200.000	0.011	0.065
-122.210	146.895	0.155	-0.210
-121.195	75.991	-0.154	0.164
