DTS Sentinel unit serial number:	SN413079Multiplexer serial number:	ORYXHardware model number:	OX4-SRSoftware version number:	ORYX F/W v4.00 Oryx Data Collector v3.7.2.0data status	okinstallation	princeton_trtdifferential loss correction	single-endedforward channel	channel 4reverse channel	N/Adate	2019/09/13time	10:13:34forward acquisition time	60.00reverse acquisition time	0.00gamma	496.2192k internal	0.2308k external	0.2308temperature offset calibration	1.0192default loss term (dB/km)	0.3790temperature slope calibration	1.0000multiplexer offset coefficient	1.0000multiplexer slope coefficient	1.0000fibre end	0.00T internal ref (°C)	30.62T ext. ref 1 (°C)	4.52T ext. ref 2 (°C)	27.83length (m)	temperature (°C)	Stokes	anti-Stokes-747.200	126.292	0.120	-0.154
-746.185	-154.618	0.203	0.014
-745.171	607.683	-0.126	0.319
-744.156	-5.312	-0.119	-0.083
-743.142	29.426	0.076	0.065
-742.127	470.330	0.122	-0.279
-741.112	-107.878	-0.107	0.024
-740.098	38.637	-0.056	-0.051
-739.083	-69.428	-0.273	-0.106
-738.069	278.205	-0.076	-0.138
-737.054	-20.224	-0.116	-0.073
-736.039	800.000	0.064	-0.255
-735.025	480.666	0.203	0.467
-734.010	1.600	-0.213	0.156
-732.996	-31.324	-0.083	0.048
-731.981	-200.000	-0.014	-0.498
-730.966	73.310	-0.135	0.143
-729.952	-20.985	-0.134	0.083
-728.937	366.717	0.109	0.222
-727.923	800.000	0.061	0.181
-726.908	-7.971	-0.121	-0.083
-725.894	5.870	-0.226	0.170
-724.879	464.705	0.079	-0.181
-723.864	4.253	-0.163	-0.121
-722.850	-70.153	-0.033	0.013
-721.835	-200.000	-0.031	-0.154
-720.821	201.457	0.118	0.184
-719.806	116.351	-0.142	-0.177
-718.791	20.720	-0.017	0.014
-717.777	65.723	0.025	-0.026
-716.762	800.000	-0.034	-0.118
-715.748	800.000	0.132	-0.380
-714.733	66.831	-0.214	-0.221
-713.718	65.704	-0.141	0.145
-712.704	-25.370	0.076	-0.046
-711.689	-92.716	0.514	0.146
-710.675	197.078	-0.075	0.116
-709.660	-57.816	-0.099	0.044
-708.645	25.082	0.273	0.230
-707.631	132.813	-0.105	-0.138
-706.616	-166.953	0.075	-0.003
-705.602	-81.901	-0.172	-0.057
-704.587	250.853	0.117	-0.202
-703.572	76.272	-0.092	0.099
-702.558	13.528	-0.339	-0.267
-701.543	-136.396	0.312	-0.037
-700.529	-15.020	-0.129	0.084
-699.514	800.000	0.076	-0.244
-698.499	-162.663	-0.339	0.017
-697.485	-180.018	0.284	-0.006
-696.470	-50.118	0.192	0.092
-695.456	-34.181	-0.277	-0.155
-694.441	-23.842	-0.253	-0.154
-693.426	-200.000	-0.038	-0.180
-692.412	800.000	0.050	-0.179
-691.397	-200.000	-0.017	0.291
-690.383	158.034	-0.145	0.203
-689.368	14.161	0.208	-0.164
-688.354	-57.489	0.253	0.113
-687.339	-25.828	0.257	0.154
-686.324	800.000	0.053	0.167
-685.310	-9.705	0.089	0.060
-684.295	-53.149	0.172	0.080
-683.281	354.184	-0.066	-0.132
-682.266	371.299	-0.057	-0.116
-681.251	2.451	0.173	0.127
-680.237	-41.537	-0.245	-0.128
-679.222	-200.000	-0.048	0.456
-678.208	-134.254	0.554	0.069
-677.193	310.079	-0.048	-0.092
-676.178	-59.042	0.145	-0.063
-675.164	122.187	0.063	0.080
-674.149	-137.782	0.236	0.027
-673.135	4.308	-0.152	-0.113
-672.120	-200.000	-0.032	0.196
-671.105	-32.100	-0.121	0.068
-670.091	800.000	-0.112	0.313
-669.076	202.851	0.134	0.210
-668.062	524.935	-0.071	-0.170
-667.047	800.000	-0.054	0.185
-666.032	-126.296	0.245	-0.037
-665.018	-126.162	-0.135	-0.021
-664.003	800.000	-0.038	-0.121
-662.989	-88.672	0.064	0.019
-661.974	32.540	-0.051	0.045
-660.959	-82.906	0.105	0.034
-659.945	-200.000	-0.029	-0.221
-658.930	37.325	0.194	-0.175
-657.916	-30.478	-0.080	0.046
-656.901	800.000	-0.083	-0.322
-655.886	-87.746	-0.207	0.063
-654.872	647.362	-0.055	0.143
-653.857	722.837	-0.038	-0.103
-652.843	6.514	-0.141	-0.106
-651.828	-200.000	0.028	0.342
-650.814	73.598	0.137	0.145
-649.799	-12.708	-0.430	-0.284
-648.784	-166.635	0.329	-0.014
-647.770	-200.000	0.035	-0.239
-646.755	-112.009	-0.149	-0.030
-645.741	-31.227	-0.130	0.074
-644.726	-45.566	0.069	-0.034
-643.711	-82.974	-0.310	0.101
-642.697	-120.657	-0.136	0.023
-641.682	-156.341	-0.173	0.011
-640.668	46.459	0.111	0.105
-639.653	800.000	0.011	0.042
-638.638	-200.000	-0.024	-0.112
-637.624	189.707	0.092	-0.140
-636.609	638.763	-0.139	-0.358
-635.595	-185.829	-0.100	-0.002
-634.580	498.231	0.062	-0.145
-633.565	1.074	-0.080	0.058
-632.551	-200.000	-0.011	-0.418
-631.536	-10.608	-0.065	0.043
-630.522	-200.000	-0.053	0.410
-629.507	-102.864	0.265	-0.064
-628.492	-55.143	-0.138	0.063
-627.478	-145.918	0.380	-0.034
-626.463	472.860	0.082	0.187
-625.449	-45.880	0.079	0.039
-624.434	-85.297	0.069	0.022
-623.419	464.295	0.085	0.193
-622.405	-134.040	0.203	0.025
-621.390	-200.000	-0.047	0.248
-620.376	62.208	-0.147	0.149
-619.361	-89.037	-0.171	-0.051
-618.346	559.351	-0.095	-0.232
-617.332	-108.098	0.307	0.067
-616.317	-94.604	-0.235	0.065
-615.303	37.886	-0.132	0.118
-614.288	-54.199	0.139	-0.064
-613.273	101.365	0.194	0.228
-612.259	231.592	0.063	0.105
-611.244	557.777	-0.048	0.117
-610.230	209.038	0.098	-0.156
-609.215	800.000	-0.021	-0.075
-608.201	251.157	0.132	-0.227
-607.186	-200.000	-0.002	0.269
-606.171	-200.000	0.001	0.218
-605.157	-100.005	-0.239	-0.060
-604.142	800.000	-0.104	0.306
-603.128	-200.000	-0.001	-0.094
-602.113	-104.656	-0.339	0.079
-601.098	-39.972	0.073	-0.039
-600.084	106.274	0.174	0.208
-599.069	4.842	-0.210	-0.156
-598.055	-200.000	0.026	0.216
-597.040	109.151	0.169	0.204
-596.025	-200.000	-0.009	-0.116
-595.011	-118.545	-0.225	0.040
-593.996	194.652	0.063	0.096
-592.982	-96.306	-0.164	-0.044
-591.967	707.258	-0.049	0.130
-590.952	41.789	-0.114	-0.104
-589.938	800.000	0.084	0.326
-588.923	800.000	-0.024	-0.079
-587.909	-83.292	-0.271	-0.088
-586.894	46.524	-0.255	0.239
-585.879	-48.968	-0.169	-0.082
-584.865	-25.237	0.061	-0.036
-583.850	-110.723	0.143	-0.030
-582.836	553.840	-0.083	-0.202
-581.821	-0.947	-0.076	0.054
-580.806	-121.484	-0.473	0.079
-579.792	764.191	0.119	0.327
-578.777	144.275	-0.163	0.220
-577.763	800.000	-0.071	-0.248
-576.748	304.996	-0.126	-0.237
-575.733	-37.953	0.248	-0.133
-574.719	-200.000	-0.016	0.123
-573.704	-91.708	0.142	-0.041
-572.690	-200.000	0.052	-0.291
-571.675	-20.080	0.129	-0.080
-570.661	47.749	-0.126	0.118
-569.646	-200.000	-0.123	0.000
-568.631	-55.429	-0.104	-0.047
-567.617	-200.000	-0.012	0.117
-566.602	-33.652	0.273	-0.152
-565.588	-3.873	0.034	-0.024
-564.573	8.942	0.195	-0.149
-563.558	-200.000	-0.017	-0.311
-562.544	-55.720	0.188	0.085
-561.529	733.105	-0.119	0.320
-560.515	-39.318	-0.207	-0.110
-559.500	-171.829	0.165	0.005
-558.485	-124.079	0.259	-0.041
-557.471	283.102	0.064	-0.115
-556.456	-124.397	-0.192	0.030
-555.442	178.221	-0.022	0.032
-554.427	-32.967	0.242	0.136
-553.412	-44.856	0.123	0.062
-552.398	-51.700	0.141	0.066
-551.383	-49.288	-0.141	-0.068
-550.369	47.656	-0.167	-0.158
-549.354	45.505	0.257	-0.239
-548.339	-200.000	-0.018	0.183
-547.325	23.157	0.147	0.122
-546.310	22.588	-0.063	-0.052
-545.296	800.000	0.086	-0.278
-544.281	134.980	-0.081	-0.106
-543.266	-35.255	0.118	0.065
-542.252	147.510	0.140	0.190
-541.237	373.931	-0.124	0.255
-540.223	670.297	-0.146	0.380
-539.208	800.000	0.024	-0.069
-538.193	-4.572	-0.175	0.122
-537.179	-200.000	0.004	-0.071
-536.164	156.358	-0.064	0.089
-535.150	331.096	-0.025	-0.049
-534.135	-200.000	0.050	0.380
-533.121	800.000	-0.032	-0.101
-532.106	78.773	-0.105	-0.113
-531.091	-49.443	-0.187	0.090
-530.077	115.510	-0.172	-0.211
-529.062	-200.000	-0.021	-0.200
-528.048	-200.000	0.031	0.172
-527.033	24.957	-0.218	-0.182
-526.018	150.208	-0.073	-0.100
-525.004	-62.431	0.351	-0.147
-523.989	453.782	-0.027	0.061
-522.975	-200.000	0.026	-0.401
-521.960	-70.621	-0.070	0.027
-520.945	77.342	0.091	0.098
-519.931	-200.000	-0.033	-0.298
-518.916	449.223	0.038	-0.085
-517.902	-138.628	0.152	0.017
-516.887	-33.144	-0.278	0.155
-515.872	341.675	-0.041	0.081
-514.858	12.012	0.178	-0.138
-513.843	-150.338	0.250	0.019
-512.829	168.257	0.092	0.132
-511.814	779.886	-0.066	0.182
-510.799	-200.000	0.033	-0.193
-509.785	257.685	-0.149	-0.258
-508.770	40.435	-0.069	-0.062
-507.756	-75.348	-0.280	-0.101
-506.741	522.799	0.076	0.180
-505.726	25.881	-0.210	-0.176
-504.712	-200.000	-0.008	0.049
-503.697	87.380	0.084	-0.094
-502.683	-112.891	0.430	-0.086
-501.668	800.000	0.123	0.490
-500.653	165.170	0.165	0.235
-499.639	-120.093	-0.156	0.027
-498.624	-27.926	-0.197	-0.115
-497.610	264.776	0.133	0.233
-496.595	19.198	0.082	-0.066
-495.581	54.419	0.256	0.248
-494.566	150.852	0.127	-0.174
-493.551	256.760	-0.059	0.102
-492.537	-200.000	-0.025	0.323
-491.522	-5.397	-0.330	-0.228
-490.508	-54.143	-0.100	0.046
-489.493	-107.616	-0.158	0.035
-488.478	602.448	-0.099	-0.248
-487.464	151.291	0.075	-0.103
-486.449	23.131	0.112	0.093
-485.435	800.000	-0.051	-0.168
-484.420	-189.029	-0.262	-0.003
-483.405	723.753	-0.034	-0.090
-482.391	20.775	0.141	0.115
-481.376	109.597	0.134	-0.162
-480.362	-100.476	-0.068	0.017
-479.347	-73.224	-0.080	-0.030
-478.332	-140.116	-0.139	-0.015
-477.318	118.285	-0.062	-0.077
-476.303	54.544	0.161	-0.156
-475.289	-170.482	0.134	0.005
-474.274	253.131	-0.116	0.199
-473.259	-133.500	0.369	-0.047
-472.245	-200.000	0.006	-0.110
-471.230	56.034	0.193	0.189
-470.216	-116.391	0.284	0.053
-469.201	178.904	0.075	-0.111
-468.186	43.119	0.167	0.153
-467.172	-53.156	-0.295	-0.136
-466.157	-131.925	0.069	-0.009
-465.143	11.359	-0.145	0.112
-464.128	800.000	0.066	0.259
-463.113	-22.074	0.204	0.124
-462.099	-42.165	-0.100	0.051
-461.084	509.759	0.162	-0.379
-460.070	-154.752	-0.206	0.014
-459.055	12.136	0.037	0.029
-458.040	114.460	-0.240	-0.294
-457.026	329.335	0.256	0.496
-456.011	-35.951	0.116	-0.063
-454.997	-154.278	-0.081	-0.006
-453.982	-72.361	0.138	-0.051
-452.968	386.853	-0.038	0.079
-451.953	-28.782	0.073	-0.042
-450.938	-98.419	-0.220	-0.057
-449.924	-111.583	0.413	-0.084
-448.909	19.420	0.204	0.165
-447.895	-200.000	-0.072	-0.363
-446.880	-200.000	-0.004	0.033
-445.865	626.840	0.143	0.363
-444.851	800.000	-0.012	-0.046
-443.836	124.620	0.057	-0.072
-442.822	45.202	0.225	-0.208
-441.807	0.346	-0.098	0.070
-440.792	16.188	-0.128	0.102
-439.778	-56.268	-0.087	-0.039
-438.763	-60.403	0.112	-0.048
-437.749	325.248	-0.095	0.183
-436.734	80.483	0.235	0.254
-435.719	-200.000	-0.020	-0.159
-434.705	122.215	-0.064	-0.080
-433.690	165.905	0.166	-0.236
-432.676	800.000	-0.047	0.205
-431.661	-3.189	0.041	0.029
-430.646	-104.047	0.165	0.039
-429.632	-27.115	-0.262	0.153
-428.617	-60.593	0.199	-0.085
-427.603	-35.056	0.136	0.075
-426.588	-131.188	0.202	-0.027
-425.573	-31.229	0.143	-0.081
-424.559	-200.000	-0.012	0.156
-423.544	-60.049	-0.388	-0.166
-422.530	151.559	0.040	-0.055
-421.515	800.000	-0.144	0.431
-420.500	-70.408	0.228	-0.087
-419.486	-65.097	0.092	0.037
-418.471	800.000	-0.040	-0.140
-417.457	-200.000	-0.089	-0.398
-416.442	31.246	0.128	0.110
-415.428	-200.000	0.011	0.107
-414.413	-28.136	-0.050	-0.029
-413.398	-121.631	-0.396	0.066
-412.384	-53.330	0.177	0.081
-411.369	-46.613	0.127	0.063
-410.355	94.461	-0.133	0.151
-409.340	-200.000	0.039	-0.366
-408.325	-200.000	-0.123	0.548
-407.311	117.379	-0.065	0.080
-406.296	-32.229	0.152	0.085
-405.282	793.360	-0.087	-0.240
-404.267	800.000	0.056	0.171
-403.252	530.809	-0.019	-0.046
-402.238	-200.000	-0.015	0.212
-401.223	-166.219	-0.040	-0.002
-400.209	-200.000	-0.040	-0.224
-399.194	-200.000	-0.025	0.127
-398.179	-200.000	-0.005	-0.174
-397.165	-200.000	0.220	-0.000
-396.150	63.727	0.144	-0.145
-395.136	800.000	-0.030	0.103
-394.121	-200.000	-0.067	-0.311
-393.106	800.000	0.099	0.344
-392.092	59.219	0.005	0.005
-391.077	195.098	0.114	-0.174
-390.063	60.094	-0.079	0.078
-389.048	800.000	0.075	0.233
-388.033	249.586	0.045	0.076
-387.019	-122.614	0.347	0.056
-386.004	45.318	-0.276	-0.255
-384.990	233.771	-0.155	-0.255
-383.975	-200.000	0.006	0.336
-382.960	-200.000	-0.019	0.303
-381.946	-64.988	-0.115	0.047
-380.931	-200.000	0.026	0.255
-379.917	-112.727	-0.122	0.024
-378.902	125.987	-0.206	-0.261
-377.888	232.201	0.176	0.289
-376.873	-148.399	-0.218	0.018
-375.858	-200.000	-0.033	-0.261
-374.844	-112.921	-0.094	0.019
-373.829	606.126	0.044	-0.110
-372.815	0.641	-0.174	-0.125
-371.800	800.000	0.038	-0.145
-370.785	-126.649	-0.093	0.014
-369.771	-200.000	0.066	-0.348
-368.756	-15.868	0.230	0.146
-367.742	288.290	0.126	-0.228
-366.727	22.411	-0.033	-0.027
-365.712	-200.000	-0.017	0.215
-364.698	361.286	0.097	0.195
-363.683	-94.120	0.195	0.054
-362.669	800.000	0.047	0.194
-361.654	800.000	0.041	-0.123
-360.639	-60.686	-0.342	0.145
-359.625	36.009	-0.254	-0.224
-358.610	-63.022	0.094	0.039
-357.596	99.404	0.108	0.124
-356.581	256.168	-0.215	0.369
-355.566	-200.000	-0.001	-0.166
-354.552	800.000	0.069	0.245
-353.537	-200.000	-0.003	-0.022
-352.523	-59.367	0.119	-0.051
-351.508	-22.126	-0.182	-0.110
-350.493	-200.000	-0.024	-0.195
-349.479	800.000	-0.048	-0.197
-348.464	107.759	-0.140	0.167
-347.450	-102.485	0.178	-0.043
-346.435	51.671	0.105	-0.100
-345.420	-147.410	0.218	0.019
-344.406	335.458	-0.026	-0.051
-343.391	800.000	0.049	-0.176
-342.377	-109.379	0.105	0.022
-341.362	718.924	-0.067	0.177
-340.348	70.337	-0.290	0.300
-339.333	-113.567	-0.181	-0.035
-338.318	-92.029	-0.176	-0.050
-337.304	800.000	-0.092	-0.350
-336.289	-200.000	-0.010	-0.332
-335.275	35.337	-0.115	-0.101
-334.260	-29.550	0.253	0.144
-333.245	-73.338	-0.079	0.029
-332.231	225.336	-0.031	0.050
-331.216	-151.019	-0.244	-0.018
-330.202	800.000	-0.147	-0.492
-329.187	89.263	0.070	-0.078
-328.172	149.297	-0.195	0.264
-327.158	800.000	0.105	0.380
-326.143	800.000	-0.019	0.058
-325.129	-74.669	-0.130	-0.047
-324.114	111.043	0.183	-0.220
-323.099	-128.524	-0.073	0.010
-322.085	-177.840	0.245	0.006
-321.070	64.860	0.047	-0.047
-320.056	-185.921	-0.093	-0.001
-319.041	-163.489	0.244	-0.012
-318.026	-10.015	0.246	0.163
-317.012	-8.030	-0.193	0.130
-315.997	-120.867	-0.108	0.018
-314.983	63.256	-0.173	0.174
-313.968	128.634	-0.179	-0.228
-312.953	231.562	0.075	-0.122
-311.939	-200.000	0.045	0.301
-310.924	-10.153	-0.419	0.278
-309.910	-200.000	0.032	0.438
-308.895	-200.000	0.003	0.063
-307.880	83.419	0.092	-0.100
-306.866	-47.911	0.140	-0.068
-305.851	406.519	0.105	-0.221
-304.837	436.665	0.014	0.030
-303.822	-5.704	-0.171	0.117
-302.807	-35.670	-0.309	0.168
-301.793	59.761	0.125	0.123
-300.778	-21.978	-0.237	-0.144
-299.764	-200.000	-0.006	0.107
-298.749	-170.235	0.051	-0.002
-297.735	-32.004	0.235	-0.131
-296.720	101.380	-0.183	0.212
-295.705	-122.124	-0.130	-0.021
-294.691	-41.891	0.158	0.081
-293.676	800.000	0.038	-0.143
-292.662	-158.865	-0.128	-0.007
-291.647	-92.485	-0.295	-0.083
-290.632	623.271	0.064	0.161
-289.618	14.925	-0.156	0.122
-288.603	-21.864	-0.139	-0.084
-287.589	-6.095	-0.089	-0.061
-286.574	-79.197	-0.026	0.009
-285.559	800.000	0.055	0.188
-284.545	55.363	0.050	0.048
-283.530	181.362	-0.212	-0.312
-282.516	800.000	0.033	0.138
-281.501	101.366	-0.093	0.108
-280.486	770.856	0.131	-0.355
-279.472	34.097	-0.112	-0.097
-278.457	187.634	0.104	-0.156
-277.443	-200.000	0.013	0.481
-276.428	191.821	-0.059	-0.089
-275.413	-200.000	-0.022	-0.157
-274.399	-9.935	0.218	0.145
-273.384	800.000	-0.065	0.192
-272.370	112.277	0.227	-0.274
-271.355	-200.000	-0.019	-0.150
-270.340	154.301	0.100	-0.136
-269.326	-26.927	-0.143	-0.083
-268.311	-200.000	-0.048	-0.276
-267.297	99.606	-0.114	-0.132
-266.282	63.790	0.166	0.166
-265.267	-3.280	0.042	0.029
-264.253	-90.807	0.120	0.034
-263.238	-40.606	0.149	0.077
-262.224	-119.511	0.220	0.038
-261.209	-200.000	0.004	-0.020
-260.195	132.187	-0.148	-0.190
-259.180	200.242	-0.168	-0.257
-258.165	-131.198	0.377	-0.050
-257.151	-6.673	0.123	0.083
-256.136	-13.977	0.172	-0.111
-255.122	380.430	0.262	-0.537
-254.107	800.000	0.038	0.131
-253.092	-83.989	0.295	0.094
-252.078	-200.000	-0.002	-0.243
-251.063	-61.574	-0.219	0.092
-250.049	800.000	0.104	0.452
-249.034	-150.074	-0.179	-0.014
-248.019	134.906	0.149	-0.193
-247.005	-1.139	-0.248	0.175
-245.990	-105.651	0.145	-0.033
-244.976	160.367	-0.200	-0.279
-243.961	220.222	0.224	0.359
-242.946	-73.181	0.134	0.049
-241.932	-68.682	0.137	0.053
-240.917	-106.668	-0.113	-0.025
-239.903	54.842	0.156	-0.150
-238.888	255.383	-0.020	0.034
-237.873	-200.000	0.013	-0.112
-236.859	238.711	0.076	0.127
-235.844	-48.200	-0.060	-0.029
-234.830	172.257	-0.101	-0.145
-233.815	800.000	0.050	-0.176
-232.800	-200.000	0.013	-0.204
-231.786	-200.000	-0.010	0.106
-230.771	10.391	0.198	0.150
-229.757	-200.000	0.041	-0.268
-228.742	-163.532	-0.089	-0.004
-227.727	606.894	-0.152	-0.378
-226.713	201.279	-0.096	-0.147
-225.698	800.000	0.127	-0.388
-224.684	-97.691	-0.347	-0.089
-223.669	-131.956	0.361	-0.047
-222.655	-46.213	0.125	-0.061
-221.640	-37.959	0.197	0.104
-220.625	-58.593	0.141	0.061
-219.611	89.201	0.237	-0.263
-218.596	-200.000	0.021	0.170
-217.582	537.464	0.056	-0.133
-216.567	-200.000	0.001	-0.095
-215.552	145.579	0.193	0.258
-214.538	-88.729	0.213	0.063
-213.523	-36.102	0.383	-0.206
-212.509	125.461	-0.115	-0.145
-211.494	88.086	-0.191	0.211
-210.479	-86.903	0.149	-0.045
-209.465	-133.156	-0.193	0.024
-208.450	-27.463	0.174	-0.100
-207.436	-200.000	0.006	0.036
-206.421	-5.702	-0.410	0.279
-205.406	574.469	0.019	0.047
-204.392	-200.000	0.024	0.112
-203.377	-18.786	0.187	-0.116
-202.363	-129.430	0.228	0.032
-201.348	-68.643	-0.344	-0.132
-200.333	800.000	0.025	-0.080
-199.319	-42.348	-0.196	-0.099
-198.304	84.325	-0.034	0.037
-197.290	800.000	-0.113	0.354
-196.275	-200.000	-0.015	0.196
-195.260	184.936	0.055	0.081
-194.246	-200.000	-0.008	0.078
-193.231	-49.216	-0.132	0.063
-192.217	-105.217	0.155	0.035
-191.202	646.671	-0.101	0.258
-190.187	-200.000	-0.034	-0.302
-189.173	-200.000	-0.014	-0.143
-188.158	-79.491	0.369	0.124
-187.144	4.096	0.339	-0.246
-186.129	484.988	0.067	0.152
-185.114	-39.554	-0.278	0.145
-184.100	219.228	0.064	0.101
-183.085	800.000	0.090	0.278
-182.071	-137.058	0.164	0.019
-181.056	-66.020	-0.079	0.031
-180.042	-200.000	-0.051	-0.304
-179.027	800.000	-0.072	-0.237
-178.012	5.671	-0.258	-0.190
-176.998	800.000	-0.036	-0.147
-175.983	64.356	0.105	-0.105
-174.969	-128.699	-0.263	-0.037
-173.954	-200.000	0.002	-0.173
-172.939	557.173	-0.107	0.255
-171.925	30.407	-0.214	-0.181
-170.910	-27.155	-0.103	-0.060
-169.896	44.841	0.097	-0.089
-168.881	-200.000	-0.030	0.203
-167.866	112.562	0.158	-0.190
-166.852	-200.000	0.003	0.220
-165.837	161.086	-0.196	0.272
-164.823	-200.000	-0.036	0.216
-163.808	119.049	0.149	0.183
-162.793	-173.254	0.161	0.005
-161.779	-200.000	0.004	-0.073
-160.764	800.000	0.004	-0.016
-159.750	127.042	-0.104	0.131
-158.735	283.880	-0.148	-0.265
-157.720	-90.796	0.147	0.042
-156.706	800.000	0.029	0.096
-155.691	-200.000	-0.009	-0.052
-154.677	-110.913	-0.092	0.019
-153.662	-136.144	-0.220	-0.026
-152.647	37.057	-0.170	-0.149
-151.633	-42.699	-0.054	0.027
-150.618	-200.000	-0.059	0.323
-149.604	112.937	0.124	0.149
-148.589	-25.687	-0.292	-0.171
-147.574	344.254	0.208	0.404
-146.560	-47.768	-0.174	0.084
-145.545	-200.000	-0.014	-0.365
-144.531	416.717	-0.154	-0.327
-143.516	142.065	0.092	-0.121
-142.502	126.335	0.256	0.321
-141.487	518.055	0.119	0.277
-140.472	-85.501	-0.055	-0.017
-139.458	-184.792	-0.222	0.004
-138.443	-111.537	0.112	0.023
-137.429	800.000	0.137	0.556
-136.414	800.000	-0.026	-0.111
-135.399	-96.636	0.178	0.046
-134.385	290.608	-0.095	-0.172
-133.370	-200.000	-0.017	-0.139
-132.356	-157.215	-0.239	-0.014
-131.341	-112.089	0.431	0.086
-130.326	800.000	-0.044	-0.167
-129.312	-109.044	0.126	-0.027
-128.297	-104.822	-0.239	-0.055
-127.283	800.000	-0.051	-0.149
-126.268	-173.675	0.234	0.007
-125.253	221.023	-0.118	0.187
-124.239	800.000	-0.070	-0.206
-123.224	-140.210	0.396	0.041
-122.210	236.824	-0.123	0.203
-121.195	185.686	-0.155	-0.228
