DTS Sentinel unit serial number:	SN413079Multiplexer serial number:	ORYXHardware model number:	OX4-SRSoftware version number:	ORYX F/W v4.00 Oryx Data Collector v3.7.2.0data status	okinstallation	princeton_trtdifferential loss correction	single-endedforward channel	channel 4reverse channel	N/Adate	2019/09/18time	01:29:35forward acquisition time	60.00reverse acquisition time	0.00gamma	496.2192k internal	0.2334k external	0.2334temperature offset calibration	0.9995default loss term (dB/km)	0.3790temperature slope calibration	1.0000multiplexer offset coefficient	1.0000multiplexer slope coefficient	1.0000fibre end	0.00T internal ref (°C)	23.12T ext. ref 1 (°C)	0.17T ext. ref 2 (°C)	16.81length (m)	temperature (°C)	Stokes	anti-Stokes-747.200	-81.489	0.286	-0.094
-746.185	50.128	0.047	0.045
-745.171	218.606	-0.056	-0.090
-744.156	-76.226	-0.159	-0.056
-743.142	-119.168	0.200	-0.035
-742.127	-200.000	0.036	0.234
-741.112	390.053	-0.067	0.140
-740.098	-200.000	0.012	0.203
-739.083	800.000	0.065	0.190
-738.069	-200.000	-0.037	0.299
-737.054	-138.750	-0.313	0.034
-736.039	502.243	-0.128	-0.297
-735.025	380.939	0.121	0.250
-734.010	-57.091	-0.157	0.070
-732.996	662.047	-0.082	-0.213
-731.981	-79.745	0.363	-0.123
-730.966	-192.953	0.140	0.001
-729.952	141.309	0.070	0.093
-728.937	-200.000	-0.039	-0.374
-727.923	-134.861	0.316	0.038
-726.908	69.049	-0.268	-0.277
-725.894	379.099	-0.122	-0.251
-724.879	-38.562	0.269	-0.143
-723.864	-200.000	-0.007	0.439
-722.850	800.000	-0.061	0.212
-721.835	800.000	0.011	0.042
-720.821	-54.618	0.230	-0.104
-719.806	-150.115	-0.424	0.033
-718.791	800.000	0.042	0.143
-717.777	800.000	-0.065	-0.240
-716.762	30.897	-0.080	0.069
-715.748	800.000	-0.060	-0.205
-714.733	-89.611	-0.110	-0.032
-713.718	-57.437	0.191	-0.084
-712.704	137.949	0.074	-0.098
-711.689	201.362	0.087	-0.134
-710.675	800.000	-0.151	-0.593
-709.660	800.000	-0.103	-0.400
-708.645	380.990	-0.059	-0.122
-707.631	247.994	0.065	-0.110
-706.616	-67.894	0.217	-0.085
-705.602	800.000	0.091	0.298
-704.587	-44.693	-0.350	0.175
-703.572	800.000	-0.160	0.492
-702.558	-31.526	-0.492	0.277
-701.543	64.637	-0.212	0.214
-700.529	174.665	-0.218	0.316
-699.514	-156.451	0.192	0.012
-698.499	-200.000	0.024	0.201
-697.485	-159.842	-0.228	0.013
-696.470	-200.000	0.004	0.295
-695.456	-53.029	0.262	-0.121
-694.441	800.000	-0.049	-0.173
-693.426	-200.000	0.021	-0.203
-692.412	-138.951	-0.313	0.034
-691.397	-129.371	0.346	0.048
-690.383	-200.000	-0.007	-0.128
-689.368	41.704	0.065	-0.059
-688.354	-52.500	-0.321	-0.149
-687.339	159.269	-0.166	0.231
-686.324	-200.000	0.012	-0.127
-685.310	15.063	0.195	-0.153
-684.295	345.015	0.018	-0.035
-683.281	143.643	-0.072	0.097
-682.266	201.629	0.088	-0.136
-681.251	17.262	-0.093	0.074
-680.237	433.431	-0.135	-0.294
-679.222	5.904	-0.159	-0.118
-678.208	702.195	-0.106	-0.281
-677.193	538.459	0.106	-0.252
-676.178	78.890	0.116	0.125
-675.164	-200.000	-0.053	0.331
-674.149	-123.198	-0.173	0.028
-673.135	-55.383	-0.190	0.085
-672.120	568.838	0.057	-0.138
-671.105	-62.233	-0.086	-0.036
-670.091	-62.497	-0.055	-0.023
-669.076	-60.387	0.312	-0.133
-668.062	12.690	0.180	0.140
-667.047	-156.479	-0.186	-0.012
-666.032	-108.565	0.071	-0.015
-665.018	468.386	-0.074	0.166
-664.003	8.137	0.350	0.263
-662.989	-106.646	-0.241	-0.054
-661.974	323.520	0.166	-0.317
-660.959	-191.855	0.245	-0.002
-659.945	54.016	-0.193	-0.186
-658.930	-200.000	0.020	0.108
-657.916	-116.798	-0.143	-0.026
-656.901	-51.909	-0.231	0.108
-655.886	420.420	-0.047	-0.100
-654.872	800.000	-0.072	0.243
-653.857	-96.361	-0.239	0.063
-652.843	-109.984	-0.443	0.093
-651.828	-62.124	-0.177	-0.074
-650.814	-19.991	0.398	-0.246
-649.799	-47.068	-0.179	-0.087
-648.784	229.624	-0.054	-0.088
-647.770	269.158	0.199	-0.350
-646.755	-127.897	-0.135	-0.019
-645.741	-7.013	0.329	0.224
-644.726	90.781	0.117	-0.131
-643.711	64.304	-0.076	0.077
-642.697	10.254	0.139	0.106
-641.682	83.044	0.452	-0.492
-640.668	404.483	0.074	-0.156
-639.653	-17.673	0.129	0.081
-638.638	-88.499	0.087	-0.026
-637.624	13.849	0.129	0.101
-636.609	-200.000	0.004	0.016
-635.595	-200.000	-0.015	0.236
-634.580	271.100	0.196	0.346
-633.565	144.189	-0.078	0.105
-632.551	-45.650	0.141	0.070
-631.536	800.000	0.035	0.127
-630.522	800.000	-0.089	0.310
-629.507	-136.220	-0.190	0.022
-628.492	-11.689	-0.418	-0.275
-627.478	57.496	0.164	0.161
-626.463	190.981	-0.226	0.340
-625.449	-48.772	-0.199	-0.096
-624.434	-186.330	-0.156	-0.002
-623.419	90.961	-0.134	-0.151
-622.405	-200.000	0.071	0.412
-621.390	800.000	-0.087	0.264
-620.376	68.127	-0.248	0.254
-619.361	60.811	-0.248	0.246
-618.346	-200.000	-0.011	-0.307
-617.332	800.000	0.022	-0.071
-616.317	320.681	-0.174	0.330
-615.303	3.119	-0.144	0.105
-614.288	366.470	-0.034	0.069
-613.273	-124.040	-0.531	-0.083
-612.259	-108.939	-0.262	-0.056
-611.244	800.000	-0.030	0.097
-610.230	800.000	-0.070	0.286
-609.215	-200.000	-0.023	0.394
-608.201	800.000	0.020	-0.066
-607.186	-20.300	0.147	-0.091
-606.171	132.634	0.146	0.188
-605.157	-26.315	0.070	-0.041
-604.142	-5.591	-0.236	0.161
-603.128	-115.348	-0.188	0.036
-602.113	69.790	0.099	-0.102
-601.098	35.400	-0.073	0.064
-600.084	-200.000	-0.018	-0.156
-599.069	60.372	0.176	0.174
-598.055	231.344	-0.136	0.223
-597.040	16.457	-0.099	-0.078
-596.025	-45.709	-0.117	0.058
-595.011	613.046	0.089	0.222
-593.996	6.619	-0.184	-0.137
-592.982	16.653	0.171	0.135
-591.967	800.000	-0.049	-0.137
-590.952	-200.000	-0.001	-0.025
-589.938	63.211	-0.166	-0.167
-588.923	26.072	0.009	0.007
-587.909	-3.391	-0.142	-0.099
-586.894	-81.788	0.280	0.092
-585.879	-200.000	0.038	0.348
-584.865	-200.000	-0.000	-0.310
-583.850	127.520	-0.049	-0.062
-582.836	-120.832	0.063	-0.011
-581.821	-164.335	-0.090	0.004
-580.806	800.000	0.097	0.272
-579.792	-123.434	0.087	-0.014
-578.777	-200.000	0.033	-0.331
-577.763	-200.000	-0.075	0.329
-576.748	800.000	-0.018	0.069
-575.733	225.393	0.047	-0.076
-574.719	-200.000	0.078	-0.443
-573.704	-57.326	0.296	-0.130
-572.690	-127.377	0.302	0.044
-571.675	-141.452	0.059	-0.006
-570.661	493.959	0.044	-0.100
-569.646	800.000	-0.084	-0.300
-568.631	-200.000	0.005	0.152
-567.617	-117.370	-0.515	-0.093
-566.602	216.330	0.104	0.165
-565.588	-0.434	-0.465	0.330
-564.573	-71.450	-0.350	0.131
-563.558	-200.000	0.028	0.169
-562.544	-82.919	0.149	0.048
-561.529	418.048	0.062	0.133
-560.515	12.679	0.129	-0.100
-559.500	-123.359	-0.047	0.008
-558.485	-113.200	-0.143	-0.028
-557.471	-99.655	0.127	0.032
-556.456	176.015	0.070	0.101
-555.442	180.389	0.160	0.235
-554.427	7.958	-0.061	0.045
-553.412	-158.161	-0.386	0.023
-552.398	-90.325	0.312	-0.090
-551.383	-200.000	0.019	-0.104
-550.369	52.939	-0.181	-0.173
-549.354	-200.000	-0.054	0.268
-548.339	-200.000	0.012	-0.064
-547.325	-125.036	-0.215	0.033
-546.310	223.049	0.086	-0.139
-545.296	215.358	-0.065	-0.102
-544.281	51.520	0.100	-0.094
-543.266	-166.055	-0.244	0.010
-542.252	800.000	-0.127	0.475
-541.237	-200.000	-0.037	0.179
-540.223	70.369	0.244	-0.251
-539.208	228.402	0.088	-0.143
-538.193	34.727	0.143	0.125
-537.179	185.041	0.143	0.211
-536.164	-126.068	-0.269	0.040
-535.150	396.290	0.044	-0.092
-534.135	800.000	0.028	-0.088
-533.121	42.595	0.202	0.183
-532.106	-70.011	0.202	-0.077
-531.091	-29.161	-0.167	0.095
-530.077	-1.354	-0.072	-0.051
-529.062	-110.933	0.275	0.056
-528.048	-76.644	0.043	0.015
-527.033	-96.733	0.085	-0.022
-526.018	-6.556	0.152	-0.103
-525.004	-156.791	0.211	-0.013
-523.989	64.897	-0.128	0.129
-522.975	-200.000	0.008	0.219
-521.960	24.533	-0.041	-0.034
-520.945	-66.199	-0.210	0.084
-519.931	-4.161	0.166	-0.115
-518.916	800.000	0.080	0.264
-517.902	800.000	-0.068	-0.188
-516.887	61.730	0.177	-0.176
-515.872	800.000	0.057	0.186
-514.858	-103.925	-0.371	0.086
-513.843	308.337	0.132	-0.246
-512.829	-46.856	0.340	0.166
-511.814	800.000	-0.062	-0.184
-510.799	564.321	0.092	-0.223
-509.785	417.235	-0.099	-0.211
-508.770	44.756	0.119	0.109
-507.756	133.113	-0.040	0.051
-506.741	-46.972	0.079	-0.039
-505.726	13.864	-0.185	0.143
-504.712	-152.022	0.047	0.003
-503.697	-5.562	0.208	0.142
-502.683	-200.000	0.047	-0.259
-501.668	-200.000	0.015	0.191
-500.653	-200.000	0.015	0.308
-499.639	-200.000	-0.034	0.229
-498.624	33.051	-0.300	-0.259
-497.610	-91.642	-0.084	-0.024
-496.595	41.953	0.187	0.169
-495.581	-165.594	-0.503	-0.022
-494.566	800.000	0.028	0.118
-493.551	-128.422	-0.310	-0.044
-492.537	74.092	-0.101	-0.105
-491.522	-48.727	-0.162	0.077
-490.508	271.140	0.065	-0.113
-489.493	676.325	0.059	-0.153
-488.478	-200.000	-0.031	-0.165
-487.464	764.844	-0.052	-0.141
-486.449	800.000	-0.030	0.085
-485.435	800.000	-0.145	0.433
-484.420	45.386	0.093	0.085
-483.405	-200.000	0.017	0.332
-482.391	800.000	-0.025	-0.077
-481.376	272.661	0.100	0.175
-480.362	-149.612	0.153	0.012
-479.347	673.357	-0.057	-0.148
-478.332	-112.504	0.243	0.048
-477.318	-200.000	0.017	0.099
-476.303	208.581	0.230	-0.358
-475.289	800.000	-0.031	0.097
-474.274	-52.796	-0.390	-0.179
-473.259	-12.457	-0.099	-0.064
-472.245	-200.000	-0.014	0.065
-471.230	396.352	0.108	0.224
-470.216	183.848	-0.121	0.177
-469.201	52.858	-0.156	0.149
-468.186	-50.242	0.116	-0.055
-467.172	475.157	0.096	0.214
-466.157	-144.023	0.119	0.011
-465.143	-106.530	-0.300	-0.067
-464.128	343.124	-0.107	0.208
-463.113	-21.224	0.053	-0.032
-462.099	-51.847	-0.326	0.151
-461.084	48.909	-0.055	-0.051
-460.070	-200.000	0.007	-0.187
-459.055	-200.000	-0.030	-0.133
-458.040	707.079	0.076	-0.200
-457.026	-67.420	-0.160	0.062
-456.011	-96.187	-0.217	0.057
-454.997	148.733	0.154	-0.207
-453.982	800.000	0.070	0.255
-452.968	7.259	0.154	0.114
-451.953	49.450	-0.070	-0.066
-450.938	152.293	-0.056	-0.076
-449.924	-30.667	0.204	-0.115
-448.909	216.714	-0.087	0.138
-447.895	306.806	0.063	0.116
-446.880	45.022	-0.084	0.077
-445.865	800.000	0.102	-0.361
-444.851	105.558	-0.122	-0.143
-443.836	768.870	0.138	-0.374
-442.822	-200.000	-0.042	0.307
-441.807	-129.776	0.176	0.024
-440.792	800.000	-0.032	0.121
-439.778	51.765	0.192	0.181
-438.763	31.013	0.081	-0.069
-437.749	-200.000	-0.001	-0.265
-436.734	65.405	0.282	0.283
-435.719	66.431	0.045	0.045
-434.705	-33.269	0.438	0.241
-433.690	79.528	-0.331	0.353
-432.676	-82.035	-0.169	-0.055
-431.661	-76.485	-0.352	-0.123
-430.646	-75.210	-0.086	0.031
-429.632	146.866	0.019	-0.026
-428.617	-117.370	-0.431	0.078
-427.603	-200.000	0.064	-0.349
-426.588	-13.039	0.284	0.184
-425.573	86.740	-0.087	0.095
-424.559	472.726	-0.128	-0.285
-423.544	-168.773	0.151	-0.006
-422.530	37.806	-0.407	-0.359
-421.515	112.245	0.081	0.098
-420.500	-200.000	-0.031	0.267
-419.486	-180.821	-0.245	-0.005
-418.471	-190.675	0.371	0.004
-417.457	-11.613	0.063	0.041
-416.442	-47.538	0.200	-0.097
-415.428	-79.862	-0.390	0.130
-414.413	800.000	-0.046	0.162
-413.398	207.895	-0.151	-0.234
-412.384	3.116	0.257	0.185
-411.369	13.898	0.211	-0.163
-410.355	726.854	0.076	0.200
-409.340	192.363	-0.104	-0.156
-408.325	-200.000	0.009	0.109
-407.311	41.036	0.140	0.125
-406.296	-200.000	0.005	0.237
-405.282	-130.797	0.116	-0.015
-404.267	-135.001	-0.064	0.008
-403.252	-85.252	0.157	0.049
-402.238	-28.019	-0.246	-0.141
-401.223	19.765	0.292	0.233
-400.209	-69.023	-0.155	-0.059
-399.194	-54.808	0.396	0.177
-398.179	-140.349	-0.237	0.025
-397.165	800.000	0.044	0.126
-396.150	-87.712	-0.193	-0.058
-395.136	-195.615	0.201	0.001
-394.121	-200.000	0.042	0.190
-393.106	21.584	-0.132	-0.106
-392.092	-117.201	0.092	0.017
-391.077	46.524	0.162	-0.149
-390.063	-200.000	-0.001	-0.025
-389.048	-200.000	0.061	0.266
-388.033	-142.516	0.114	-0.011
-387.019	-59.859	0.410	-0.174
-386.004	-47.982	0.275	0.132
-384.990	13.259	-0.241	-0.185
-383.975	-82.106	0.025	-0.008
-382.960	-76.394	-0.361	-0.126
-381.946	-61.120	0.235	-0.098
-380.931	68.107	0.102	0.103
-379.917	-14.332	-0.431	0.275
-378.902	800.000	-0.092	-0.401
-377.888	800.000	0.076	-0.260
-376.873	-200.000	0.014	0.525
-375.858	374.412	-0.041	0.082
-374.844	156.996	0.139	0.190
-373.829	141.625	-0.153	0.201
-372.815	328.263	0.038	-0.071
-371.800	-200.000	0.027	-0.177
-370.785	-200.000	-0.009	0.398
-369.771	407.546	-0.122	-0.255
-368.756	-168.061	-0.164	0.006
-367.742	-28.567	0.212	0.121
-366.727	158.055	-0.165	0.226
-365.712	800.000	0.031	0.100
-364.698	-200.000	-0.041	0.183
-363.683	-106.261	0.236	0.052
-362.669	-200.000	0.141	0.000
-361.654	-200.000	-0.006	-0.228
-360.639	477.315	-0.141	0.316
-359.625	-76.240	-0.272	0.095
-358.610	-200.000	-0.029	0.361
-357.596	12.053	-0.087	-0.066
-356.581	-101.674	-0.305	-0.073
-355.566	-100.925	0.221	-0.054
-354.552	-200.000	-0.002	0.033
-353.537	98.954	0.245	-0.280
-352.523	-81.258	-0.264	0.086
-351.508	289.638	-0.102	-0.183
-350.493	295.519	0.061	0.111
-349.479	-50.093	0.229	0.108
-348.464	398.609	0.115	-0.237
-347.450	744.412	-0.043	-0.116
-346.435	800.000	0.030	-0.121
-345.420	47.598	-0.231	0.213
-344.406	-86.025	-0.099	-0.030
-343.391	6.209	0.137	0.100
-342.377	531.481	0.032	0.075
-341.362	-59.951	0.192	0.081
-340.348	68.675	-0.190	-0.193
-339.333	-200.000	0.002	-0.089
-338.318	-152.886	-0.190	0.013
-337.304	-98.997	0.057	-0.014
-336.289	115.414	-0.151	-0.183
-335.275	590.102	-0.107	-0.261
-334.260	-200.000	-0.059	-0.287
-333.245	-91.750	0.200	-0.056
-332.231	27.052	0.236	0.196
-331.216	800.000	-0.035	0.104
-330.202	-200.000	-0.015	0.180
-329.187	71.538	0.066	-0.067
-328.172	-24.040	-0.282	-0.166
-327.158	72.325	-0.158	-0.162
-326.143	-56.892	0.228	0.100
-325.129	302.113	0.067	0.123
-324.114	800.000	0.066	0.221
-323.099	187.586	-0.136	0.201
-322.085	1.296	0.212	-0.151
-321.070	-14.762	0.349	-0.222
-320.056	800.000	-0.026	-0.110
-319.041	-28.062	-0.344	-0.197
-318.026	-200.000	-0.045	-0.215
-317.012	-200.000	0.078	-0.386
-315.997	120.177	-0.129	-0.158
-314.983	77.386	0.150	-0.158
-313.968	535.532	-0.016	0.038
-312.953	-26.281	0.163	-0.095
-311.939	319.048	0.060	0.112
-310.924	-116.894	0.107	-0.019
-309.910	-156.074	-0.168	0.011
-308.895	-1.706	0.230	0.160
-307.880	-200.000	0.004	-0.287
-306.866	-200.000	-0.003	0.257
-305.851	199.973	0.136	-0.206
-304.837	360.769	-0.086	0.169
-303.822	-149.646	0.094	-0.007
-302.807	122.364	-0.059	0.073
-301.793	-200.000	0.024	0.190
-300.778	157.225	0.190	0.259
-299.764	-60.411	-0.280	0.118
-298.749	39.168	-0.134	0.118
-297.735	31.474	-0.238	0.202
-296.720	198.533	0.114	-0.172
-295.705	-131.020	0.089	-0.012
-294.691	492.346	0.033	-0.076
-293.676	-167.662	-0.276	0.011
-292.662	30.772	0.298	-0.252
-291.647	194.997	0.182	-0.272
-290.632	142.925	-0.124	0.163
-289.618	800.000	-0.034	0.135
-288.603	-122.530	-0.216	-0.035
-287.589	-173.205	0.031	-0.001
-286.574	800.000	0.060	0.169
-285.559	-169.500	-0.127	0.005
-284.545	-16.780	-0.258	0.161
-283.530	-96.561	-0.401	0.104
-282.516	-96.589	-0.068	0.018
-281.501	-59.936	0.240	0.101
-280.486	-15.843	-0.138	-0.087
-279.472	-200.000	0.028	-0.122
-278.457	319.729	0.101	-0.189
-277.443	15.488	0.219	-0.170
-276.428	96.431	-0.428	-0.483
-275.413	-121.004	0.072	-0.012
-274.399	-173.216	0.470	0.014
-273.384	43.438	0.055	0.049
-272.370	800.000	-0.067	0.229
-271.355	800.000	0.046	0.155
-270.340	-102.742	-0.333	-0.078
-269.326	-102.929	-0.132	0.031
-268.311	800.000	0.076	-0.218
-267.297	481.160	-0.095	-0.212
-266.282	528.073	-0.126	-0.294
-265.267	158.360	0.247	-0.338
-264.253	33.856	0.216	-0.185
-263.238	73.569	-0.226	-0.234
-262.224	49.802	-0.149	0.139
-261.209	0.083	0.298	0.210
-260.195	-110.742	-0.220	0.045
-259.180	-200.000	0.101	-0.563
-258.165	-156.560	-0.445	-0.027
-257.151	-200.000	0.000	0.119
-256.136	-81.293	0.075	-0.024
-255.122	-200.000	-0.053	-0.276
-254.107	-116.531	0.192	-0.035
-253.092	-3.569	0.206	-0.141
-252.078	-100.522	0.117	0.029
-251.063	-200.000	-0.018	-0.217
-250.049	104.957	-0.133	0.155
-249.034	73.533	0.033	-0.034
-248.019	-63.710	0.209	0.085
-247.005	539.473	0.019	-0.044
-245.990	44.545	-0.097	0.088
-244.976	350.440	0.015	0.030
-243.961	123.347	0.238	-0.294
-242.946	-200.000	0.011	-0.158
-241.932	-200.000	0.034	0.276
-240.917	132.745	-0.368	0.468
-239.903	62.302	-0.162	-0.159
-238.888	97.976	0.215	0.244
-237.873	-32.520	0.166	0.091
-236.859	-129.672	0.196	0.027
-235.844	176.052	0.068	-0.097
-234.830	189.284	0.055	-0.081
-233.815	287.774	-0.119	0.213
-232.800	87.139	-0.078	0.085
-231.786	-200.000	0.022	-0.135
-230.771	-200.000	-0.024	-0.191
-229.757	-135.654	0.168	-0.020
-228.742	-200.000	-0.045	-0.243
-227.727	-135.246	-0.476	-0.056
-226.713	-87.213	0.188	-0.056
-225.698	704.613	0.107	-0.278
-224.684	-200.000	0.021	-0.242
-223.669	-200.000	-0.003	-0.162
-222.655	-124.912	-0.108	0.016
-221.640	-13.291	0.257	-0.164
-220.625	529.611	-0.069	0.160
-219.611	-66.444	-0.429	0.168
-218.596	29.320	0.234	0.196
-217.582	-141.513	-0.159	-0.016
-216.567	312.288	0.176	-0.325
-215.552	720.604	-0.032	0.084
-214.538	-154.619	0.177	-0.012
-213.523	-200.000	0.001	0.037
-212.509	-71.103	0.126	-0.047
-211.494	77.066	0.230	-0.241
-210.479	-20.059	0.205	0.124
-209.465	309.952	-0.138	-0.254
-208.450	35.444	-0.242	-0.209
-207.436	-49.488	0.276	0.130
-206.421	-200.000	-0.025	-0.206
-205.406	-30.546	0.273	-0.152
-204.392	-58.383	0.325	-0.139
-203.377	102.171	-0.273	0.313
-202.363	-135.861	0.326	-0.038
-201.348	206.002	0.096	0.146
-200.333	-1.338	-0.139	0.097
-199.319	800.000	0.078	-0.221
-198.304	-200.000	-0.019	0.194
-197.290	800.000	-0.037	-0.115
-196.275	-200.000	-0.004	-0.035
-195.260	11.858	0.204	-0.154
-194.246	-176.809	-0.031	-0.001
-193.231	800.000	0.072	-0.238
-192.217	-200.000	-0.032	-0.290
-191.202	465.195	-0.224	-0.493
-190.187	414.924	0.186	-0.390
-189.173	121.763	-0.158	-0.194
-188.158	800.000	0.105	-0.322
-187.144	800.000	-0.072	0.280
-186.129	-119.620	0.179	0.030
-185.114	-34.394	0.071	-0.038
-184.100	-199.939	-0.054	0.000
-183.085	639.700	0.106	0.265
-182.071	-151.349	0.069	-0.005
-181.056	-200.000	-0.008	-0.109
-180.042	-96.089	0.352	-0.092
-179.027	-151.130	-0.456	0.034
-178.012	322.168	-0.032	0.061
-176.998	-126.402	-0.197	0.029
-175.983	-200.000	0.041	0.376
-174.969	-31.621	0.275	-0.152
-173.954	74.457	0.203	-0.209
-172.939	55.615	-0.176	-0.167
-171.925	71.462	0.159	0.162
-170.910	-108.848	0.058	-0.012
-169.896	117.834	-0.260	-0.315
-168.881	-60.237	0.148	-0.062
-167.866	-105.584	-0.201	-0.045
-166.852	276.562	0.122	-0.213
-165.837	-191.048	0.084	0.001
-164.823	15.602	0.203	-0.156
-163.808	800.000	-0.038	0.109
-162.793	-85.091	-0.034	-0.011
-161.779	-148.091	-0.150	-0.012
-160.764	800.000	0.171	0.528
-159.750	342.827	0.043	0.083
-158.735	332.341	-0.148	-0.281
-157.720	800.000	-0.055	-0.163
-156.706	77.098	-0.154	0.160
-155.691	-58.670	0.205	-0.087
-154.677	-8.772	0.263	0.173
-153.662	-129.758	0.236	0.032
-152.647	49.154	-0.104	-0.096
-151.633	-68.965	-0.110	-0.042
-150.618	395.927	0.193	0.396
-149.604	-171.454	-0.450	-0.015
-148.589	-200.000	-0.011	0.090
-147.574	800.000	0.075	-0.235
-146.560	53.113	0.210	0.198
-145.545	-120.568	-0.241	0.040
-144.531	31.370	0.047	-0.040
-143.516	-59.092	-0.101	-0.043
-142.502	-43.453	0.101	-0.050
-141.487	-79.164	-0.078	-0.026
-140.472	-91.428	0.398	0.112
-139.458	-19.640	0.031	0.019
-138.443	-128.848	0.256	0.035
-137.429	-110.677	-0.171	-0.035
-136.414	-200.000	0.031	0.187
-135.399	-89.148	-0.337	-0.098
-134.385	-108.223	-0.058	-0.012
-133.370	800.000	-0.023	-0.068
-132.356	408.101	-0.199	-0.412
-131.341	-30.203	0.262	0.146
-130.326	-131.523	-0.255	0.033
-129.312	-200.000	0.013	0.158
-128.297	8.259	0.083	-0.061
-127.283	-44.726	0.275	0.135
-126.268	800.000	-0.105	-0.329
-125.253	-200.000	-0.035	-0.479
-124.239	-45.870	0.224	0.109
-123.224	-200.000	-0.026	0.259
-122.210	-147.864	0.215	0.018
-121.195	128.859	-0.127	0.159
