DTS Sentinel unit serial number:	SN413079Multiplexer serial number:	ORYXHardware model number:	OX4-SRSoftware version number:	ORYX F/W v4.00 Oryx Data Collector v3.7.2.0data status	okinstallation	princeton_trtdifferential loss correction	single-endedforward channel	channel 4reverse channel	N/Adate	2019/09/16time	02:13:35forward acquisition time	60.00reverse acquisition time	0.00gamma	496.2192k internal	0.2321k external	0.2321temperature offset calibration	0.9970default loss term (dB/km)	0.3790temperature slope calibration	1.0000multiplexer offset coefficient	1.0000multiplexer slope coefficient	1.0000fibre end	0.00T internal ref (°C)	27.55T ext. ref 1 (°C)	10.18T ext. ref 2 (°C)	22.49length (m)	temperature (°C)	Stokes	anti-Stokes-747.200	158.189	0.095	0.133
-746.185	-200.000	0.020	0.148
-745.171	35.123	-0.206	0.182
-744.156	-200.000	-0.021	0.278
-743.142	55.186	0.077	0.075
-742.127	-40.786	-0.282	-0.147
-741.112	-200.000	0.005	0.314
-740.098	58.181	-0.126	0.125
-739.083	29.948	-0.133	-0.114
-738.069	209.619	-0.055	0.086
-737.054	-167.021	0.106	-0.004
-736.039	-159.978	-0.197	-0.011
-735.025	125.056	0.473	-0.603
-734.010	-96.350	-0.437	-0.117
-732.996	-91.612	-0.102	-0.029
-731.981	15.982	-0.169	-0.134
-730.966	800.000	-0.045	0.149
-729.952	-152.410	-0.288	-0.021
-728.937	200.607	-0.079	-0.122
-727.923	16.106	0.075	0.059
-726.908	-33.911	-0.255	0.142
-725.894	228.986	0.150	-0.247
-724.879	-73.454	0.175	-0.065
-723.864	234.376	-0.103	0.171
-722.850	346.982	-0.069	-0.138
-721.835	-78.555	-0.256	0.088
-720.821	-63.840	-0.262	0.108
-719.806	-131.888	0.187	0.025
-718.791	800.000	0.025	0.074
-717.777	-101.702	-0.327	-0.080
-716.762	-200.000	-0.038	0.312
-715.748	-55.011	0.068	-0.031
-714.733	-24.262	0.149	0.090
-713.718	50.979	0.220	-0.211
-712.704	565.119	-0.045	-0.109
-711.689	-155.839	-0.058	-0.004
-710.675	-82.858	-0.302	0.099
-709.660	-137.980	0.169	-0.019
-708.645	-17.456	0.192	0.122
-707.631	11.511	0.056	-0.043
-706.616	442.156	-0.144	-0.317
-705.602	162.942	-0.292	-0.414
-704.587	-200.000	0.051	-0.258
-703.572	-200.000	0.038	-0.220
-702.558	-200.000	0.023	-0.176
-701.543	-110.591	-0.122	0.025
-700.529	-200.000	-0.009	0.350
-699.514	-93.578	-0.193	-0.054
-698.499	438.960	0.112	-0.247
-697.485	800.000	-0.045	-0.178
-696.470	-200.000	0.046	-0.341
-695.456	332.502	-0.060	0.117
-694.441	-111.433	-0.180	-0.037
-693.426	-70.869	0.256	0.097
-692.412	-200.000	-0.063	-0.407
-691.397	30.273	0.193	0.166
-690.383	50.811	-0.229	0.219
-689.368	-200.000	0.016	-0.143
-688.354	-200.000	0.005	-0.318
-687.339	-59.037	-0.315	-0.137
-686.324	-130.056	0.249	0.034
-685.310	-81.698	-0.136	-0.045
-684.295	24.664	-0.032	0.027
-683.281	754.850	-0.145	-0.396
-682.266	194.248	0.157	0.239
-681.251	264.943	0.149	-0.263
-680.237	370.545	0.283	0.578
-679.222	-36.689	0.229	0.124
-678.208	-200.000	0.025	-0.355
-677.193	653.943	0.188	-0.486
-676.178	118.708	-0.180	-0.224
-675.164	39.062	-0.237	-0.213
-674.149	-126.844	0.200	0.030
-673.135	-115.684	-0.311	-0.059
-672.120	-25.233	-0.088	0.052
-671.105	-117.639	-0.130	0.024
-670.091	138.065	0.114	-0.151
-669.076	-7.703	-0.115	-0.078
-668.062	693.192	-0.012	-0.031
-667.047	302.061	-0.214	-0.399
-666.032	-34.520	-0.082	0.045
-665.018	-100.472	0.106	0.026
-664.003	271.085	-0.108	-0.192
-662.989	-163.751	-0.104	-0.005
-661.974	-200.000	-0.015	0.077
-660.959	-159.946	-0.333	0.018
-659.945	80.528	0.156	-0.169
-658.930	64.394	0.240	-0.244
-657.916	321.829	-0.142	0.272
-656.901	-95.081	-0.296	-0.080
-655.886	-143.063	-0.141	-0.014
-654.872	-98.465	0.145	-0.037
-653.857	280.286	-0.039	-0.070
-652.843	99.245	0.140	-0.163
-651.828	622.470	0.139	-0.352
-650.814	540.834	-0.128	-0.307
-649.799	-112.260	0.144	-0.029
-648.784	-200.000	0.015	-0.176
-647.770	162.978	0.260	0.367
-646.755	140.526	0.418	0.556
-645.741	-150.492	-0.266	-0.021
-644.726	-200.000	-0.038	0.300
-643.711	-13.885	-0.142	-0.092
-642.697	191.023	-0.113	-0.171
-641.682	59.638	0.084	0.084
-640.668	-73.252	-0.214	-0.079
-639.653	521.507	-0.056	-0.132
-638.638	-125.160	0.082	-0.013
-637.624	-148.844	0.350	-0.029
-636.609	39.437	-0.178	0.161
-635.595	484.350	-0.021	-0.048
-634.580	-159.016	-0.393	-0.022
-633.565	95.195	0.126	-0.145
-632.551	-200.000	-0.026	-0.184
-631.536	42.065	-0.111	0.102
-630.522	-200.000	-0.019	0.180
-629.507	-77.333	-0.166	0.058
-628.492	800.000	0.056	0.169
-627.478	-23.897	0.129	-0.077
-626.463	-200.000	-0.007	-0.107
-625.449	800.000	-0.146	-0.438
-624.434	209.093	-0.084	-0.132
-623.419	-3.733	0.146	-0.102
-622.405	709.932	-0.053	-0.142
-621.390	800.000	-0.065	0.245
-620.376	-200.000	-0.047	-0.226
-619.361	-87.229	-0.277	0.085
-618.346	-34.932	-0.325	-0.179
-617.332	-116.625	0.134	-0.025
-616.317	-114.478	-0.137	0.026
-615.303	399.621	0.082	-0.172
-614.288	74.508	0.205	0.217
-613.273	-200.000	-0.030	0.179
-612.259	317.954	0.070	0.134
-611.244	46.203	0.232	0.216
-610.230	-40.864	-0.401	-0.208
-609.215	-4.890	-0.101	0.070
-608.201	724.958	-0.090	0.240
-607.186	212.449	-0.117	-0.186
-606.171	129.513	-0.105	0.134
-605.157	168.326	-0.177	-0.254
-604.142	-113.993	-0.050	0.010
-603.128	-105.044	0.172	0.040
-602.113	800.000	0.081	-0.231
-601.098	115.874	0.227	0.279
-600.084	317.969	0.133	0.254
-599.069	-100.062	-0.145	0.036
-598.055	-51.936	-0.323	0.151
-597.040	-102.907	-0.152	0.036
-596.025	163.404	-0.100	0.141
-595.011	-44.383	0.177	0.089
-593.996	-200.000	-0.049	-0.329
-592.982	161.602	0.217	0.305
-591.967	-120.521	0.275	-0.047
-590.952	-143.332	-0.235	0.023
-589.938	463.526	-0.116	-0.261
-588.923	-139.904	0.440	-0.047
-587.909	24.512	0.179	-0.149
-586.894	-100.827	-0.068	0.017
-585.879	800.000	0.044	0.132
-584.865	-200.000	0.053	0.362
-583.850	191.070	0.109	0.164
-582.836	367.960	0.093	0.188
-581.821	-14.372	-0.123	0.080
-580.806	-200.000	0.011	-0.119
-579.792	48.307	0.173	-0.162
-578.777	800.000	-0.022	-0.064
-577.763	-200.000	-0.058	-0.345
-576.748	800.000	-0.117	-0.385
-575.733	-200.000	0.003	-0.020
-574.719	-158.043	-0.129	-0.008
-573.704	-91.095	-0.332	-0.096
-572.690	107.979	0.053	-0.064
-571.675	800.000	-0.018	0.064
-570.661	-86.101	0.093	-0.029
-569.646	785.193	-0.057	-0.157
-568.631	35.728	0.170	0.150
-567.617	-177.341	-0.373	-0.009
-566.602	-104.783	0.184	0.042
-565.588	251.792	-0.092	-0.158
-564.573	-200.000	0.032	-0.408
-563.558	800.000	-0.099	-0.283
-562.544	-200.000	0.029	-0.224
-561.529	558.684	-0.046	0.112
-560.515	411.516	0.033	-0.071
-559.500	487.046	-0.169	0.386
-558.485	-29.056	0.324	0.187
-557.471	-200.000	-0.031	0.351
-556.456	-41.610	0.230	0.119
-555.442	29.200	0.186	0.158
-554.427	295.888	-0.042	0.078
-553.412	-153.293	0.370	0.026
-552.398	-139.641	0.167	-0.018
-551.383	-38.765	-0.462	-0.245
-550.369	-200.000	-0.031	-0.159
-549.354	-200.000	0.021	0.094
-548.339	-200.000	0.022	0.137
-547.325	-200.000	0.060	0.345
-546.310	-125.955	-0.112	0.017
-545.296	222.260	0.099	-0.159
-544.281	123.595	-0.178	-0.224
-543.266	-135.327	0.417	0.050
-542.252	-163.539	-0.258	0.012
-541.237	-149.653	-0.166	-0.013
-540.223	-148.540	-0.345	0.028
-539.208	-132.653	-0.132	-0.017
-538.193	-12.259	-0.065	0.042
-537.179	-104.286	-0.552	-0.128
-536.164	-200.000	-0.002	0.213
-535.150	95.145	0.156	0.178
-534.135	74.131	-0.218	0.229
-533.121	291.501	0.095	-0.174
-532.106	198.646	0.161	0.247
-531.091	389.106	0.061	0.126
-530.077	-50.225	-0.261	-0.124
-529.062	-27.865	0.111	-0.065
-528.048	-9.186	0.224	-0.150
-527.033	126.560	0.147	-0.186
-526.018	12.297	-0.203	0.157
-525.004	-2.158	-0.102	-0.072
-523.989	-200.000	-0.006	-0.245
-522.975	222.465	-0.084	0.136
-521.960	74.345	-0.098	-0.103
-520.945	93.492	-0.114	0.129
-519.931	-106.097	-0.043	-0.010
-518.916	546.989	0.004	0.010
-517.902	-150.238	-0.214	0.017
-516.887	-188.258	-0.121	-0.002
-515.872	-78.312	-0.236	0.081
-514.858	83.623	0.084	-0.091
-513.843	-15.362	-0.233	0.149
-512.829	-83.638	0.388	0.124
-511.814	-200.000	-0.038	-0.390
-510.799	800.000	-0.070	-0.247
-509.785	-133.238	-0.159	-0.020
-508.770	-200.000	0.069	-0.368
-507.756	120.399	0.070	-0.087
-506.741	-51.711	0.029	0.013
-505.726	160.476	0.158	0.221
-504.712	370.659	-0.094	0.191
-503.697	6.180	0.314	0.233
-502.683	-200.000	0.044	0.420
-501.668	-200.000	-0.013	0.071
-500.653	-195.421	-0.213	0.002
-499.639	104.250	0.133	0.157
-498.624	-85.190	-0.133	-0.042
-497.610	34.337	-0.151	-0.132
-496.595	434.592	-0.147	-0.319
-495.581	292.326	-0.085	0.156
-494.566	-190.930	0.221	0.002
-493.551	-7.489	0.208	-0.141
-492.537	331.209	0.111	0.214
-491.522	-53.889	-0.165	0.075
-490.508	-0.442	-0.192	0.136
-489.493	71.784	0.051	-0.053
-488.478	-110.074	-0.379	-0.079
-487.464	-63.923	0.125	-0.051
-486.449	-108.992	-0.215	-0.046
-485.435	41.549	-0.210	0.190
-484.420	-59.614	-0.203	0.087
-483.405	-200.000	0.008	0.135
-482.391	231.511	0.059	-0.097
-481.376	-75.240	0.232	0.083
-480.362	10.419	-0.358	0.273
-479.347	47.987	0.148	0.138
-478.332	-200.000	0.042	-0.249
-477.318	125.748	0.116	0.147
-476.303	92.234	0.123	-0.138
-475.289	-200.000	-0.026	0.190
-474.274	197.298	0.036	0.054
-473.259	25.261	0.090	0.075
-472.245	34.670	-0.094	0.083
-471.230	22.258	0.270	0.221
-470.216	58.755	-0.216	-0.212
-469.201	-174.826	0.145	0.004
-468.186	75.268	0.129	0.136
-467.172	-44.912	-0.151	-0.075
-466.157	51.418	0.099	0.094
-465.143	146.002	-0.234	-0.314
-464.128	-101.274	0.278	0.068
-463.113	102.967	0.260	-0.304
-462.099	-116.591	0.038	-0.007
-461.084	295.566	0.158	0.289
-460.070	73.267	-0.323	-0.338
-459.055	303.590	-0.117	-0.217
-458.040	-200.000	0.007	0.130
-457.026	-156.215	-0.048	-0.003
-456.011	3.137	0.158	0.115
-454.997	-92.819	-0.106	-0.030
-453.982	62.124	0.133	-0.133
-452.968	318.782	-0.112	-0.213
-451.953	-131.606	0.433	0.057
-450.938	-200.000	-0.022	-0.151
-449.924	207.943	0.220	-0.344
-448.909	116.178	0.028	-0.035
-447.895	256.462	-0.060	0.103
-446.880	-200.000	-0.102	-0.448
-445.865	-128.557	-0.035	0.005
-444.851	103.143	0.245	0.286
-443.836	-200.000	0.025	0.138
-442.822	-200.000	-0.007	0.075
-441.807	-169.973	-0.176	-0.006
-440.792	-48.938	0.443	-0.212
-439.778	-200.000	0.021	-0.104
-438.763	121.374	0.160	0.199
-437.749	-49.952	0.055	-0.026
-436.734	-200.000	0.044	-0.370
-435.719	-71.727	-0.091	0.034
-434.705	-40.292	0.263	-0.137
-433.690	800.000	-0.037	-0.142
-432.676	-52.750	-0.106	-0.049
-431.661	187.648	-0.070	0.105
-430.646	317.548	0.081	-0.152
-429.632	49.668	-0.226	-0.212
-428.617	-138.127	-0.231	0.026
-427.603	-77.117	0.272	0.095
-426.588	-42.255	0.361	0.184
-425.573	365.900	-0.107	-0.215
-424.559	-44.518	0.164	-0.082
-423.544	23.944	0.100	-0.082
-422.530	214.894	0.034	-0.053
-421.515	-200.000	-0.018	-0.158
-420.500	22.491	0.176	0.144
-419.486	-64.722	-0.179	0.072
-418.471	-126.591	-0.130	0.019
-417.457	68.520	0.210	-0.215
-416.442	-39.505	0.024	-0.012
-415.428	35.407	-0.263	-0.230
-414.413	-124.839	0.012	-0.002
-413.398	-20.677	-0.098	-0.060
-412.384	-142.128	0.071	0.007
-411.369	119.561	-0.087	-0.107
-410.355	14.841	-0.217	0.169
-409.340	-106.658	-0.157	0.035
-408.325	-200.000	-0.038	0.176
-407.311	800.000	-0.060	-0.250
-406.296	-171.118	-0.375	-0.013
-405.282	88.585	-0.108	0.119
-404.267	-200.000	-0.043	-0.209
-403.252	-200.000	0.010	-0.296
-402.238	-102.312	-0.129	0.031
-401.223	-200.000	0.019	0.143
-400.209	-200.000	-0.004	-0.072
-399.194	165.602	0.084	0.118
-398.179	-200.000	-0.006	-0.035
-397.165	-16.316	0.178	-0.112
-396.150	63.176	0.197	-0.197
-395.136	128.040	0.134	-0.170
-394.121	-113.344	-0.194	0.038
-393.106	46.633	-0.130	0.120
-392.092	-130.377	0.246	0.033
-391.077	-200.000	-0.016	0.312
-390.063	-200.000	0.008	-0.144
-389.048	-200.000	0.007	0.064
-388.033	-200.000	-0.008	-0.162
-387.019	288.994	-0.167	-0.302
-386.004	-142.444	-0.240	0.024
-384.990	-9.561	0.315	0.209
-383.975	136.941	0.049	-0.064
-382.960	800.000	0.040	-0.128
-381.946	85.159	-0.272	0.297
-380.931	-86.584	-0.396	0.121
-379.917	-200.000	-0.025	-0.199
-378.902	-124.967	0.349	0.053
-377.888	-10.511	0.340	-0.224
-376.873	-18.693	0.286	-0.177
-375.858	11.148	0.042	0.032
-374.844	-200.000	0.001	-0.113
-373.829	595.448	-0.044	-0.109
-372.815	-200.000	0.000	0.041
-371.800	-37.260	-0.201	-0.107
-370.785	-200.000	-0.040	0.200
-369.771	800.000	0.025	-0.090
-368.756	21.164	0.090	-0.073
-367.742	-200.000	-0.054	-0.548
-366.727	-41.268	-0.371	0.191
-365.712	800.000	-0.067	0.230
-364.698	30.556	-0.051	-0.044
-363.683	-128.436	-0.219	0.031
-362.669	-62.445	0.070	-0.029
-361.654	-3.489	0.024	0.017
-360.639	747.939	0.180	-0.483
-359.625	800.000	-0.042	-0.152
-358.610	-200.000	-0.010	0.052
-357.596	14.674	0.109	0.085
-356.581	105.822	-0.154	0.182
-355.566	-58.285	-0.289	0.125
-354.552	242.021	-0.135	0.225
-353.537	116.342	-0.081	-0.099
-352.523	800.000	-0.048	0.192
-351.508	-169.131	-0.279	0.010
-350.493	44.512	-0.104	0.095
-349.479	-139.912	0.188	0.020
-348.464	-177.544	0.332	-0.008
-347.450	-48.405	-0.328	0.157
-346.435	57.490	0.218	-0.212
-345.420	-121.159	-0.365	-0.061
-344.406	-200.000	0.036	0.248
-343.391	-114.345	-0.126	-0.024
-342.377	186.265	0.045	-0.067
-341.362	-200.000	-0.036	-0.158
-340.348	54.635	0.459	-0.441
-339.333	-131.206	0.475	0.063
-338.318	43.103	-0.227	-0.206
-337.304	-152.809	-0.257	-0.018
-336.289	34.450	0.255	0.222
-335.275	800.000	0.047	0.203
-334.260	76.978	-0.172	-0.182
-333.245	800.000	-0.078	-0.227
-332.231	276.693	0.010	-0.018
-331.216	-200.000	0.054	0.415
-330.202	-118.601	-0.063	0.011
-329.187	264.440	-0.129	-0.223
-328.172	-200.000	-0.001	-0.256
-327.158	-200.000	-0.005	-0.122
-326.143	-16.364	-0.091	-0.057
-325.129	-129.467	0.035	0.005
-324.114	-14.034	-0.101	0.065
-323.099	-55.533	0.190	0.084
-322.085	-200.000	-0.024	-0.112
-321.070	-200.000	0.011	-0.266
-320.056	-4.334	0.046	-0.032
-319.041	-48.955	0.221	-0.105
-318.026	-68.561	-0.290	0.112
-317.012	104.414	0.075	-0.088
-315.997	-139.761	0.118	-0.013
-314.983	-59.710	-0.150	-0.064
-313.968	-94.668	-0.080	-0.022
-312.953	-200.000	-0.065	0.328
-311.939	152.331	-0.038	0.051
-310.924	19.709	0.094	-0.075
-309.910	-108.360	0.394	0.084
-308.895	-196.565	0.231	-0.002
-307.880	-139.786	0.178	0.019
-306.866	800.000	-0.136	0.396
-305.851	-120.513	-0.139	0.023
-304.837	-144.114	0.150	-0.014
-303.822	-83.052	0.428	0.137
-302.807	-53.605	-0.136	0.062
-301.793	13.023	0.276	0.212
-300.778	-200.000	0.047	0.250
-299.764	35.079	0.041	-0.036
-298.749	68.978	0.158	-0.161
-297.735	96.893	-0.146	-0.166
-296.720	276.873	-0.109	0.192
-295.705	722.293	0.109	0.288
-294.691	-27.795	-0.334	0.192
-293.676	-200.000	-0.022	0.160
-292.662	-148.193	-0.108	0.009
-291.647	535.258	-0.055	0.130
-290.632	546.469	0.170	-0.404
-289.618	-118.572	0.266	-0.047
-288.603	142.031	0.180	0.237
-287.589	800.000	-0.077	0.281
-286.574	-35.735	-0.116	-0.062
-285.559	125.792	-0.122	-0.153
-284.545	132.648	0.111	0.142
-283.530	-58.164	-0.143	-0.062
-282.516	-152.280	-0.084	-0.006
-281.501	-112.718	0.381	-0.075
-280.486	-41.076	0.402	0.206
-279.472	44.888	-0.112	0.102
-278.457	800.000	0.049	-0.197
-277.443	-127.409	0.205	0.030
-276.428	-200.000	0.064	0.324
-275.413	-200.000	0.024	-0.268
-274.399	-64.078	-0.145	0.059
-273.384	-121.700	0.121	-0.020
-272.370	133.927	0.071	0.091
-271.355	566.602	-0.108	0.259
-270.340	-200.000	0.024	0.207
-269.326	-200.000	-0.015	0.176
-268.311	800.000	-0.045	-0.183
-267.297	-32.711	0.221	0.122
-266.282	-83.806	-0.200	-0.063
-265.267	-40.395	0.159	-0.082
-264.253	376.002	0.047	0.095
-263.238	-200.000	-0.021	-0.103
-262.224	800.000	-0.037	-0.153
-261.209	-12.547	-0.173	-0.112
-260.195	162.349	0.091	-0.127
-259.180	-1.308	0.127	-0.089
-258.165	-122.720	0.469	-0.075
-257.151	-200.000	0.002	0.239
-256.136	800.000	-0.068	0.236
-255.122	-25.690	0.070	0.041
-254.107	-116.020	-0.255	0.047
-253.092	-100.110	0.359	-0.089
-252.078	163.743	-0.117	-0.164
-251.063	-200.000	-0.027	-0.289
-250.049	-200.000	-0.044	0.428
-249.034	269.983	-0.153	0.266
-248.019	-200.000	0.002	0.379
-247.005	165.358	0.264	-0.370
-245.990	-200.000	0.020	-0.526
-244.976	-200.000	-0.017	0.133
-243.961	-130.572	0.022	0.003
-242.946	-41.151	0.039	0.020
-241.932	363.126	0.159	-0.317
-240.917	800.000	-0.046	-0.186
-239.903	-200.000	0.003	-0.069
-238.888	262.198	-0.211	-0.363
-237.873	800.000	0.011	0.049
-236.859	376.611	0.059	0.119
-235.844	108.527	0.127	-0.150
-234.830	73.657	-0.132	0.137
-233.815	-165.457	-0.193	-0.008
-232.800	-105.960	-0.248	0.055
-231.786	448.927	-0.071	0.155
-230.771	-200.000	-0.004	-0.032
-229.757	-29.724	-0.213	0.120
-228.742	-27.241	-0.372	-0.215
-227.727	-200.000	0.056	0.327
-226.713	181.697	-0.160	0.234
-225.698	226.313	-0.038	-0.062
-224.684	1.850	0.168	0.120
-223.669	-89.039	-0.191	0.056
-222.655	-66.909	-0.445	0.174
-221.640	296.143	0.076	0.137
-220.625	-106.242	0.096	0.021
-219.611	26.788	0.203	-0.168
-218.596	-200.000	0.028	0.370
-217.582	79.921	0.125	0.133
-216.567	443.974	-0.104	-0.226
-215.552	-46.949	-0.252	0.122
-214.538	-200.000	-0.033	0.363
-213.523	-200.000	-0.033	0.217
-212.509	191.495	0.143	0.213
-211.494	199.098	-0.262	-0.398
-210.479	-144.304	0.390	0.036
-209.465	-200.000	-0.039	0.397
-208.450	353.125	0.107	-0.210
-207.436	-200.000	-0.001	-0.057
-206.421	-27.027	0.186	-0.107
-205.406	-200.000	-0.015	-0.160
-204.392	250.222	0.069	0.115
-203.377	584.778	0.118	-0.287
-202.363	565.775	0.050	-0.120
-201.348	-200.000	0.044	0.195
-200.333	800.000	0.102	0.368
-199.319	369.851	-0.097	0.194
-198.304	501.173	-0.080	0.182
-197.290	465.274	-0.027	0.059
-196.275	800.000	-0.049	-0.144
-195.260	-115.310	0.237	0.044
-194.246	-200.000	-0.005	-0.077
-193.231	-200.000	-0.033	-0.234
-192.217	95.780	0.070	0.080
-191.202	326.863	-0.079	0.149
-190.187	-200.000	0.050	0.401
-189.173	-200.000	0.018	-0.443
-188.158	-200.000	-0.001	0.130
-187.144	-64.057	0.419	0.169
-186.129	27.927	0.056	-0.047
-185.114	800.000	0.058	-0.177
-184.100	-200.000	-0.030	0.353
-183.085	-152.870	-0.117	-0.008
-182.071	464.980	-0.045	-0.099
-181.056	125.451	-0.217	-0.271
-180.042	134.588	0.116	0.148
-179.027	-152.086	-0.207	0.015
-178.012	331.792	-0.127	-0.242
-176.998	-200.000	0.067	0.400
-175.983	-62.278	-0.147	0.061
-174.969	194.292	0.194	0.290
-173.954	-94.916	0.192	-0.051
-172.939	-200.000	0.002	0.251
-171.925	283.397	-0.130	-0.230
-170.910	800.000	-0.121	-0.460
-169.896	-180.000	0.075	0.002
-168.881	-44.721	0.174	-0.086
-167.866	-200.000	0.018	-0.379
-166.852	-83.708	-0.299	-0.094
-165.837	481.252	0.144	0.323
-164.823	31.808	-0.207	0.176
-163.808	8.464	-0.033	-0.025
-162.793	-200.000	-0.026	-0.171
-161.779	-200.000	0.033	-0.211
-160.764	781.566	-0.140	-0.380
-159.750	-84.195	0.182	-0.057
-158.735	-16.325	0.274	0.172
-157.720	326.120	0.087	0.164
-156.706	-130.083	-0.158	0.021
-155.691	333.859	0.102	-0.195
-154.677	-109.637	0.086	-0.018
-153.662	-122.201	0.164	-0.026
-152.647	47.870	0.054	-0.050
-151.633	-2.605	0.262	0.181
-150.618	160.654	0.016	0.022
-149.604	337.041	-0.051	0.098
-148.589	-0.359	0.348	-0.244
-147.574	-90.807	0.315	0.090
-146.560	12.048	-0.285	0.216
-145.545	353.403	-0.132	0.259
-144.531	-123.048	0.135	0.021
-143.516	19.086	-0.122	-0.097
-142.502	7.711	0.317	-0.234
-141.487	-200.000	0.017	0.201
-140.472	800.000	-0.043	0.166
-139.458	-80.692	0.248	-0.081
-138.443	20.012	0.178	-0.142
-137.429	485.506	-0.107	-0.241
-136.414	-200.000	0.022	0.189
-135.399	114.380	-0.079	-0.095
-134.385	163.484	0.103	0.143
-133.370	-200.000	-0.027	0.209
-132.356	-113.347	-0.241	-0.047
-131.341	-89.038	0.330	-0.096
-130.326	-68.759	0.297	0.113
-129.312	-16.569	0.199	0.124
-128.297	28.948	0.224	0.187
-127.283	800.000	0.070	-0.283
-126.268	-144.990	0.121	-0.011
-125.253	142.210	-0.212	0.277
-124.239	198.596	-0.177	0.268
-123.224	-200.000	-0.197	-0.001
