DTS Sentinel unit serial number:	SN413079Multiplexer serial number:	ORYXHardware model number:	OX4-SRSoftware version number:	ORYX F/W v4.00 Oryx Data Collector v3.7.2.0data status	okinstallation	princeton_trtdifferential loss correction	single-endedforward channel	channel 4reverse channel	N/Adate	2019/09/17time	08:37:35forward acquisition time	60.00reverse acquisition time	0.00gamma	496.2192k internal	0.2317k external	0.2317temperature offset calibration	0.9980default loss term (dB/km)	0.3790temperature slope calibration	1.0000multiplexer offset coefficient	1.0000multiplexer slope coefficient	1.0000fibre end	0.00T internal ref (°C)	27.67T ext. ref 1 (°C)	0.13T ext. ref 2 (°C)	23.20length (m)	temperature (°C)	Stokes	anti-Stokes-747.200	199.003	-0.104	0.162
-746.185	-95.396	0.128	0.035
-745.171	718.826	-0.055	0.147
-744.156	396.447	-0.135	0.285
-743.142	-119.470	0.229	0.040
-742.127	81.338	0.149	0.163
-741.112	-104.078	0.065	-0.015
-740.098	-93.911	0.008	-0.002
-739.083	505.648	0.140	0.329
-738.069	-127.063	-0.243	-0.036
-737.054	800.000	-0.090	0.331
-736.039	-193.465	-0.154	0.001
-735.025	13.171	0.210	0.165
-734.010	-25.866	-0.272	-0.162
-732.996	439.077	0.124	-0.274
-731.981	-147.782	-0.135	0.011
-730.966	390.632	-0.055	0.116
-729.952	-54.488	0.356	-0.163
-728.937	-200.000	0.013	0.097
-727.923	-10.105	-0.021	0.014
-726.908	-12.361	-0.550	-0.364
-725.894	-129.684	-0.331	-0.046
-724.879	64.255	0.189	0.192
-723.864	-200.000	-0.023	0.211
-722.850	34.872	-0.115	-0.101
-721.835	-200.000	0.002	0.122
-720.821	-75.163	-0.075	-0.027
-719.806	-93.493	0.021	-0.006
-718.791	10.261	-0.197	-0.151
-717.777	-17.172	-0.154	0.098
-716.762	64.630	0.091	-0.092
-715.748	-29.162	-0.190	-0.110
-714.733	222.433	-0.062	0.101
-713.718	-200.000	-0.002	-0.288
-712.704	800.000	-0.073	-0.273
-711.689	252.809	0.134	-0.231
-710.675	-52.115	-0.129	0.061
-709.660	-74.914	0.225	0.082
-708.645	-196.834	-0.240	0.002
-707.631	-200.000	-0.067	-0.397
-706.616	-36.123	0.110	0.060
-705.602	-200.000	0.009	-0.146
-704.587	247.820	-0.052	0.090
-703.572	19.097	0.243	0.197
-702.558	304.841	0.086	-0.161
-701.543	148.001	-0.119	0.162
-700.529	800.000	0.080	0.242
-699.514	-8.258	-0.327	0.222
-698.499	-80.906	-0.294	-0.099
-697.485	77.031	0.235	0.252
-696.470	-48.008	0.496	0.242
-695.456	-200.000	-0.025	-0.295
-694.441	274.097	0.191	-0.342
-693.426	-153.671	0.262	0.018
-692.412	-37.407	-0.067	-0.036
-691.397	402.401	-0.080	-0.170
-690.383	-159.107	0.381	0.022
-689.368	800.000	0.047	-0.134
-688.354	800.000	0.042	-0.168
-687.339	201.729	0.115	-0.179
-686.324	112.091	0.041	0.051
-685.310	124.763	0.173	-0.220
-684.295	-200.000	0.038	-0.208
-683.281	800.000	0.091	-0.265
-682.266	-98.236	-0.397	-0.103
-681.251	26.407	-0.263	-0.222
-680.237	74.758	-0.176	0.187
-679.222	-35.844	0.226	-0.123
-678.208	-4.441	-0.076	0.053
-677.193	800.000	-0.124	-0.404
-676.178	-72.525	-0.247	-0.092
-675.164	-200.000	-0.011	0.053
-674.149	-77.945	-0.397	0.138
-673.135	-200.000	-0.013	0.180
-672.120	-23.732	-0.275	-0.166
-671.105	-15.400	0.156	0.100
-670.091	-200.000	-0.018	-0.254
-669.076	52.771	-0.062	-0.060
-668.062	25.308	-0.108	-0.091
-667.047	367.880	0.123	-0.252
-666.032	-21.647	-0.558	0.343
-665.018	83.383	-0.191	-0.210
-664.003	-98.828	0.154	0.040
-662.989	-200.000	-0.001	0.046
-661.974	-5.546	-0.176	0.122
-660.959	-137.212	0.203	-0.023
-659.945	-200.000	-0.042	-0.188
-658.930	31.159	0.127	0.110
-657.916	314.316	-0.044	-0.083
-656.901	-169.058	0.189	-0.007
-655.886	-200.000	-0.027	-0.196
-654.872	120.752	0.190	-0.238
-653.857	-200.000	0.020	-0.195
-652.843	-14.399	0.223	-0.145
-651.828	158.713	-0.116	-0.162
-650.814	-183.463	-0.256	0.004
-649.799	91.317	-0.246	0.278
-648.784	-128.320	-0.313	0.045
-647.770	-200.000	-0.019	0.266
-646.755	800.000	-0.030	0.085
-645.741	-178.282	-0.127	-0.003
-644.726	-8.191	-0.285	0.194
-643.711	-167.271	0.198	-0.008
-642.697	-112.289	-0.194	-0.039
-641.682	576.728	0.023	-0.057
-640.668	-128.221	0.051	-0.007
-639.653	12.697	0.125	-0.097
-638.638	164.615	-0.118	0.167
-637.624	189.743	-0.101	0.152
-636.609	-200.000	0.009	-0.156
-635.595	98.967	0.117	0.136
-634.580	223.868	-0.200	0.325
-633.565	-143.523	-0.240	0.023
-632.551	-95.338	0.223	-0.061
-631.536	119.584	-0.084	-0.105
-630.522	484.288	0.083	0.190
-629.507	-35.475	-0.179	0.098
-628.492	-200.000	-0.000	0.013
-627.478	-76.826	0.342	-0.121
-626.463	374.770	0.167	-0.343
-625.449	-200.000	0.005	-0.062
-624.434	-80.376	-0.134	0.045
-623.419	116.649	0.134	0.166
-622.405	-87.134	0.138	-0.042
-621.390	181.047	0.269	0.398
-620.376	-1.832	-0.278	-0.197
-619.361	398.541	0.060	-0.126
-618.346	-200.000	0.013	-0.180
-617.332	198.181	-0.273	0.420
-616.317	153.063	-0.108	0.149
-615.303	-63.784	-0.171	-0.071
-614.288	-7.747	-0.115	0.078
-613.273	327.800	-0.058	0.111
-612.259	-157.465	-0.289	0.018
-611.244	-71.935	0.096	-0.036
-610.230	112.914	0.138	-0.169
-609.215	800.000	-0.096	0.326
-608.201	-199.922	-0.085	-0.000
-607.186	800.000	-0.019	-0.062
-606.171	498.034	-0.078	-0.180
-605.157	169.405	0.087	0.125
-604.142	-2.827	0.127	-0.090
-603.128	800.000	0.077	-0.306
-602.113	10.303	-0.108	-0.082
-601.098	800.000	0.114	0.338
-600.084	-144.937	0.290	-0.027
-599.069	-200.000	-0.003	-0.113
-598.055	-125.542	0.121	-0.019
-597.040	-55.742	0.219	-0.099
-596.025	-200.000	0.062	0.296
-595.011	-200.000	0.013	0.333
-593.996	90.647	0.193	0.217
-592.982	-120.624	0.207	-0.035
-591.967	272.959	0.127	0.225
-590.952	-103.057	-0.019	-0.004
-589.938	-14.253	-0.252	0.163
-588.923	240.798	0.156	-0.262
-587.909	102.506	-0.093	0.109
-586.894	-72.456	0.418	-0.155
-585.879	191.887	0.123	0.186
-584.865	-88.129	0.237	0.072
-583.850	717.324	0.027	0.072
-582.836	154.358	-0.232	0.320
-581.821	-92.483	-0.403	-0.114
-580.806	100.615	-0.117	-0.137
-579.792	-146.087	-0.146	0.013
-578.777	12.029	0.136	0.105
-577.763	80.377	-0.119	0.129
-576.748	-200.000	-0.076	-0.360
-575.733	-64.638	0.252	0.103
-574.719	-43.438	0.212	0.108
-573.704	92.765	0.042	-0.048
-572.690	200.788	0.097	-0.150
-571.675	-177.953	0.284	-0.007
-570.661	68.047	0.169	-0.174
-569.646	223.073	-0.119	0.193
-568.631	-110.312	-0.009	0.002
-567.617	-15.601	-0.131	-0.084
-566.602	-200.000	-0.001	-0.285
-565.588	-200.000	0.046	-0.311
-564.573	-198.466	0.149	0.001
-563.558	-92.276	-0.285	0.081
-562.544	-81.882	-0.472	-0.155
-561.529	-30.257	-0.017	0.010
-560.515	80.142	-0.151	0.164
-559.500	-122.247	-0.045	-0.007
-558.485	425.980	0.118	-0.256
-557.471	-167.172	0.036	-0.001
-556.456	286.786	0.122	-0.222
-555.442	-102.022	-0.156	0.038
-554.427	-200.000	-0.019	0.311
-553.412	290.899	0.172	0.315
-552.398	143.577	0.155	-0.207
-551.383	-130.405	-0.165	-0.023
-550.369	127.868	0.030	0.039
-549.354	102.009	0.024	-0.028
-548.339	-66.958	-0.518	-0.206
-547.325	-34.833	-0.114	0.062
-546.310	1.916	-0.304	-0.220
-545.296	192.983	0.213	-0.324
-544.281	214.810	0.207	-0.330
-543.266	-200.000	0.017	-0.079
-542.252	-131.283	0.106	-0.014
-541.237	370.030	0.052	0.105
-540.223	-69.810	-0.071	-0.027
-539.208	-120.097	0.400	0.069
-538.193	-64.638	0.205	-0.084
-537.179	-36.291	-0.357	-0.193
-536.164	49.470	-0.103	0.098
-535.150	-41.884	0.147	-0.076
-534.135	87.349	0.315	0.350
-533.121	-200.000	-0.052	0.303
-532.106	-145.276	0.134	0.012
-531.091	506.012	-0.080	-0.187
-530.077	-200.000	0.002	0.311
-529.062	512.926	-0.086	0.201
-528.048	300.811	-0.075	0.139
-527.033	-200.000	-0.002	0.079
-526.018	192.070	0.081	-0.123
-525.004	-84.259	-0.145	-0.046
-523.989	122.500	0.064	0.080
-522.975	377.852	-0.036	-0.075
-521.960	-50.072	-0.104	0.050
-520.945	61.979	-0.124	-0.124
-519.931	-115.386	0.136	-0.026
-518.916	-200.000	0.022	0.203
-517.902	-200.000	0.039	-0.207
-516.887	-21.405	-0.083	-0.051
-515.872	-200.000	-0.003	-0.273
-514.858	14.353	-0.411	-0.322
-513.843	52.601	0.162	0.155
-512.829	259.524	0.176	-0.305
-511.814	75.254	-0.131	-0.139
-510.799	4.454	0.034	0.025
-509.785	78.011	0.080	0.085
-508.770	225.064	0.159	-0.259
-507.756	-74.914	-0.223	-0.080
-506.741	-112.024	-0.302	0.061
-505.726	197.955	-0.126	-0.193
-504.712	-200.000	-0.003	-0.040
-503.697	800.000	0.057	0.232
-502.683	81.473	-0.073	-0.079
-501.668	-31.126	0.048	0.027
-500.653	-161.477	-0.331	0.017
-499.639	-62.368	-0.201	-0.084
-498.624	205.633	-0.094	-0.146
-497.610	58.536	0.173	0.171
-496.595	107.414	0.345	-0.412
-495.581	-200.000	-0.057	-0.379
-494.566	-200.000	-0.002	-0.310
-493.551	800.000	0.048	-0.168
-492.537	-23.773	-0.092	-0.055
-491.522	800.000	0.068	0.198
-490.508	-97.013	-0.378	0.099
-489.493	-200.000	-0.030	-0.262
-488.478	-107.648	-0.131	-0.029
-487.464	50.425	0.232	-0.220
-486.449	-67.454	-0.145	-0.057
-485.435	120.465	-0.171	0.213
-484.420	-200.000	0.003	-0.052
-483.405	-123.079	-0.143	-0.023
-482.391	779.432	-0.032	-0.089
-481.376	91.528	-0.060	0.067
-480.362	-15.406	0.262	0.168
-479.347	562.563	0.108	0.263
-478.332	-20.330	0.298	0.184
-477.318	-60.749	0.204	0.087
-476.303	138.084	0.175	-0.230
-475.289	464.289	-0.081	0.181
-474.274	212.745	-0.144	0.228
-473.259	800.000	-0.062	-0.224
-472.245	93.912	-0.187	0.213
-471.230	-179.822	0.115	0.002
-470.216	-169.690	0.081	-0.003
-469.201	755.731	0.064	-0.174
-468.186	-136.969	0.182	-0.021
-467.172	80.608	-0.237	0.256
-466.157	176.041	0.107	-0.156
-465.143	13.726	-0.307	0.239
-464.128	342.680	-0.008	-0.016
-463.113	336.619	-0.054	0.104
-462.099	679.092	0.116	0.303
-461.084	61.339	-0.161	0.161
-460.070	306.580	0.201	-0.375
-459.055	-78.917	-0.168	-0.057
-458.040	-34.731	0.162	-0.089
-457.026	35.590	-0.162	0.143
-456.011	164.580	-0.186	0.263
-454.997	-57.041	-0.155	0.068
-453.982	-200.000	-0.030	-0.434
-452.968	107.438	0.039	0.046
-451.953	102.486	-0.121	-0.142
-450.938	-9.917	-0.236	-0.157
-449.924	-200.000	-0.057	-0.401
-448.909	396.008	-0.100	0.209
-447.895	107.826	-0.044	-0.053
-446.880	-200.000	0.007	-0.337
-445.865	800.000	0.069	-0.243
-444.851	229.782	0.073	0.120
-443.836	-200.000	0.034	-0.151
-442.822	-115.640	0.206	-0.039
-441.807	117.118	0.135	-0.166
-440.792	120.994	-0.024	-0.030
-439.778	781.344	0.171	0.469
-438.763	338.225	-0.088	-0.172
-437.749	-155.377	0.256	0.017
-436.734	-31.342	-0.059	0.033
-435.719	-200.000	0.039	0.263
-434.705	317.083	0.066	0.125
-433.690	-137.149	-0.159	-0.018
-432.676	-199.196	0.104	0.001
-431.661	281.705	0.098	0.176
-430.646	-82.366	0.369	0.120
-429.632	50.253	-0.162	0.153
-428.617	-55.845	-0.249	0.111
-427.603	800.000	0.135	0.428
-426.588	-42.348	-0.268	-0.137
-425.573	-92.959	0.249	-0.070
-424.559	237.289	0.187	0.310
-423.544	-102.028	0.346	0.084
-422.530	511.058	-0.030	0.071
-421.515	123.969	0.138	-0.174
-420.500	-200.000	0.000	0.003
-419.486	0.771	0.106	0.076
-418.471	135.842	0.196	-0.255
-417.457	-200.000	-0.015	0.133
-416.442	225.908	0.104	-0.168
-415.428	90.181	-0.123	-0.137
-414.413	39.949	-0.028	-0.026
-413.398	281.826	0.207	-0.371
-412.384	800.000	-0.039	-0.161
-411.369	33.116	-0.347	0.301
-410.355	209.366	0.069	-0.108
-409.340	-200.000	-0.004	-0.027
-408.325	-81.247	0.147	-0.049
-407.311	310.926	-0.057	-0.107
-406.296	240.891	-0.021	-0.035
-405.282	-200.000	-0.007	0.067
-404.267	-200.000	0.006	0.296
-403.252	-47.153	-0.183	-0.089
-402.238	279.853	0.110	0.196
-401.223	292.142	-0.107	-0.195
-400.209	-105.900	0.229	-0.052
-399.194	-33.309	-0.096	0.053
-398.179	545.929	-0.089	0.214
-397.165	-200.000	-0.082	0.466
-396.150	-93.970	-0.170	-0.047
-395.136	-154.115	-0.442	-0.030
-394.121	-143.903	-0.349	0.033
-393.106	-85.157	0.314	-0.098
-392.092	-200.000	-0.004	0.139
-391.077	-200.000	-0.026	-0.302
-390.063	-50.228	-0.125	0.059
-389.048	-13.053	0.246	-0.159
-388.033	-86.149	0.117	0.036
-387.019	800.000	-0.086	-0.254
-386.004	-31.976	0.296	0.166
-384.990	161.421	0.098	0.137
-383.975	-131.498	0.194	-0.026
-382.960	800.000	0.071	-0.197
-381.946	-101.879	0.124	-0.030
-380.931	-28.959	-0.060	-0.034
-379.917	-200.000	0.047	-0.241
-378.902	177.993	0.070	-0.102
-377.888	-200.000	-0.005	0.050
-376.873	-27.529	0.212	-0.123
-375.858	-121.307	-0.086	0.014
-374.844	800.000	0.048	-0.190
-373.829	271.329	-0.129	0.227
-372.815	396.525	-0.058	-0.121
-371.800	72.458	0.078	-0.081
-370.785	-57.967	0.166	-0.072
-369.771	-20.106	0.158	-0.097
-368.756	-173.316	0.092	-0.003
-367.742	-162.074	-0.228	-0.011
-366.727	-200.000	0.012	-0.229
-365.712	-161.593	0.085	-0.004
-364.698	-200.000	-0.073	0.348
-363.683	385.888	-0.095	-0.195
-362.669	153.099	0.180	0.246
-361.654	-72.806	0.445	-0.164
-360.639	250.671	-0.164	-0.278
-359.625	229.166	-0.186	0.303
-358.610	-24.720	0.071	0.042
-357.596	-183.513	-0.166	-0.003
-356.581	-200.000	0.030	0.181
-355.566	37.245	-0.141	0.125
-354.552	287.283	0.134	0.241
-353.537	-123.105	0.291	-0.047
-352.523	-86.312	0.211	0.065
-351.508	800.000	0.129	-0.401
-350.493	-120.177	0.183	-0.031
-349.479	-79.729	0.355	0.119
-348.464	308.506	-0.119	0.221
-347.450	-200.000	-0.004	0.311
-346.435	711.654	-0.003	-0.007
-345.420	-200.000	-0.012	0.117
-344.406	171.067	0.014	-0.020
-343.391	-105.050	-0.249	-0.057
-342.377	-75.575	0.411	0.146
-341.362	298.138	-0.194	0.356
-340.348	-79.930	0.171	-0.057
-339.333	70.473	-0.131	0.135
-338.318	-24.210	0.070	-0.042
-337.304	275.686	0.085	0.151
-336.289	56.376	-0.120	0.116
-335.275	166.578	-0.129	0.182
-334.260	351.887	0.017	-0.034
-333.245	-72.432	0.052	-0.019
-332.231	28.229	-0.093	0.078
-331.216	157.678	-0.102	-0.141
-330.202	-187.933	0.033	-0.000
-329.187	126.600	-0.151	-0.190
-328.172	103.816	-0.149	-0.175
-327.158	-200.000	0.014	0.242
-326.143	-11.104	-0.375	0.246
-325.129	623.285	-0.123	0.309
-324.114	284.704	0.216	-0.387
-323.099	20.219	0.079	-0.064
-322.085	-65.016	-0.115	0.046
-321.070	18.650	-0.228	-0.182
-320.056	800.000	0.032	-0.102
-319.041	-148.410	-0.217	-0.018
-318.026	43.430	0.156	-0.142
-317.012	800.000	0.095	-0.393
-315.997	-14.429	-0.078	-0.050
-314.983	-43.611	0.080	0.040
-313.968	-89.951	0.336	-0.098
-312.953	-190.583	0.287	0.003
-311.939	-3.332	-0.134	0.093
-310.924	-141.845	-0.052	-0.005
-309.910	408.087	0.158	0.333
-308.895	-200.000	-0.032	-0.259
-307.880	18.204	-0.111	-0.089
-306.866	-39.168	0.123	-0.065
-305.851	75.176	0.195	0.204
-304.837	-21.549	-0.244	-0.148
-303.822	0.060	-0.165	0.117
-302.807	153.193	0.193	-0.263
-301.793	63.323	0.239	-0.238
-300.778	-36.402	0.484	-0.259
-299.764	-66.375	-0.193	-0.076
-298.749	-194.425	0.154	-0.001
-297.735	626.655	0.070	0.175
-296.720	598.077	-0.044	-0.109
-295.705	332.745	0.091	0.175
-294.691	-200.000	-0.050	0.379
-293.676	53.644	-0.084	-0.080
-292.662	-200.000	0.020	-0.139
-291.647	-12.495	-0.203	0.132
-290.632	-78.613	-0.312	0.106
-289.618	104.149	0.049	0.058
-288.603	-200.000	0.018	0.199
-287.589	-62.257	0.286	-0.118
-286.574	-121.527	0.174	-0.029
-285.559	116.224	0.095	-0.115
-284.545	-97.987	0.051	0.013
-283.530	-4.189	-0.371	0.255
-282.516	-200.000	0.050	0.305
-281.501	-200.000	-0.037	0.387
-280.486	609.234	-0.043	0.106
-279.472	-77.622	-0.167	-0.058
-278.457	-34.039	-0.326	0.178
-277.443	-45.390	-0.260	0.128
-276.428	-94.537	-0.032	-0.009
-275.413	714.653	0.095	0.250
-274.399	-200.000	-0.032	0.238
-273.384	-125.287	0.196	-0.030
-272.370	-53.589	0.203	0.092
-271.355	53.328	0.064	0.061
-270.340	99.450	0.231	-0.266
-269.326	130.847	-0.121	0.154
-268.311	479.066	-0.212	0.477
-267.297	-200.000	0.002	0.159
-266.282	-25.907	0.178	-0.104
-265.267	534.199	-0.074	-0.173
-264.253	138.590	0.072	-0.093
-263.238	162.299	-0.060	0.083
-262.224	588.268	0.086	0.210
-261.209	-200.000	-0.011	0.110
-260.195	800.000	0.073	-0.273
-259.180	-63.895	0.175	0.071
-258.165	-27.273	-0.047	0.027
-257.151	-103.700	0.261	-0.061
-256.136	-38.022	0.142	-0.075
-255.122	-200.000	-0.001	0.184
-254.107	-104.527	-0.243	-0.056
-253.092	-200.000	-0.029	0.162
-252.078	-120.761	-0.135	0.023
-251.063	662.906	-0.009	-0.022
-250.049	560.518	-0.026	-0.062
-249.034	-200.000	0.028	-0.229
-248.019	505.097	0.137	-0.315
-247.005	-164.435	0.099	0.004
-245.990	309.479	0.169	-0.315
-244.976	-200.000	0.017	-0.161
-243.961	303.895	-0.143	-0.264
-242.946	-85.613	0.301	-0.093
-241.932	-200.000	-0.055	0.253
-240.917	-200.000	0.030	-0.236
-239.903	20.623	-0.037	0.030
-238.888	-173.827	0.226	-0.007
-237.873	122.565	0.082	-0.102
-236.859	-200.000	0.014	0.113
-235.844	800.000	0.080	-0.301
-234.830	-152.071	-0.374	0.027
-233.815	-40.408	0.223	0.115
-232.800	800.000	0.067	-0.211
-231.786	396.060	0.042	-0.086
-230.771	59.463	0.070	0.069
-229.757	193.229	-0.156	-0.235
-228.742	-14.060	-0.315	0.201
-227.727	111.167	0.060	-0.072
-226.713	-4.375	0.349	-0.240
-225.698	285.531	-0.336	-0.601
-224.684	-200.000	-0.008	0.112
-223.669	197.817	0.086	0.130
-222.655	-129.760	-0.197	0.027
-221.640	6.789	-0.371	-0.274
-220.625	55.483	0.047	-0.045
-219.611	-88.694	-0.121	-0.036
-218.596	444.963	0.073	0.158
-217.582	136.446	-0.092	0.119
-216.567	-200.000	0.052	-0.248
-215.552	232.003	0.098	0.160
-214.538	478.768	-0.059	0.133
-213.523	800.000	-0.030	0.085
-212.509	800.000	0.064	-0.215
-211.494	434.095	0.024	0.051
-210.479	-69.663	-0.282	0.107
-209.465	-41.183	-0.177	0.090
-208.450	59.721	-0.161	0.157
-207.436	800.000	0.055	0.226
-206.421	-52.939	-0.043	0.020
-205.406	-200.000	-0.027	0.198
-204.392	-80.799	-0.155	-0.051
-203.377	55.723	0.327	-0.314
-202.363	-14.918	0.165	-0.105
-201.348	29.670	-0.154	0.130
-200.333	800.000	-0.054	0.164
-199.319	23.709	0.098	-0.080
-198.304	-123.888	-0.105	0.016
-197.290	-151.127	-0.461	-0.034
-196.275	353.475	-0.153	0.300
-195.260	-59.388	0.254	0.108
-194.246	-200.000	0.000	-0.097
-193.231	67.964	-0.080	-0.081
-192.217	-28.883	0.203	-0.116
-191.202	65.452	-0.129	-0.130
-190.187	-200.000	-0.041	-0.300
-189.173	-108.216	-0.088	-0.019
-188.158	-200.000	0.052	-0.249
-187.144	310.920	0.091	-0.168
-186.129	543.534	0.137	0.323
-185.114	-181.393	0.216	-0.004
-184.100	-133.874	-0.284	-0.035
-183.085	-200.000	0.014	-0.169
-182.071	-54.505	-0.151	-0.068
-181.056	-200.000	-0.008	-0.145
-180.042	800.000	0.050	0.167
-179.027	-11.107	-0.225	0.147
-178.012	-53.283	-0.093	0.042
-176.998	800.000	0.050	-0.216
-175.983	707.746	0.156	0.409
-174.969	590.368	-0.090	0.220
-173.954	800.000	-0.029	-0.097
-172.939	-200.000	0.033	0.152
-171.925	421.108	0.139	-0.295
-170.910	-200.000	-0.056	0.271
-169.896	454.146	-0.154	-0.337
-168.881	-189.423	0.253	0.003
-167.866	-19.329	0.290	0.178
-166.852	-11.703	-0.110	-0.072
-165.837	214.653	0.256	0.402
-164.823	148.715	0.221	-0.296
-163.808	1.422	0.119	0.085
-162.793	93.619	-0.146	0.163
-161.779	-200.000	0.022	-0.457
-160.764	-28.061	-0.311	0.178
-159.750	-128.917	0.217	0.030
-158.735	149.559	-0.112	-0.150
-157.720	0.360	0.044	-0.031
-156.706	262.096	-0.258	-0.443
-155.691	-115.515	-0.268	-0.050
-154.677	-31.678	-0.129	0.072
-153.662	247.073	-0.126	0.210
-152.647	797.276	0.088	0.241
-151.633	-135.766	-0.243	-0.028
-150.618	-121.106	-0.436	0.072
-149.604	-200.000	-0.057	0.275
-148.589	760.898	-0.073	0.197
-147.574	256.171	0.286	-0.486
-146.560	-13.332	0.306	-0.196
-145.545	2.259	0.178	-0.128
-144.531	216.732	0.033	-0.053
-143.516	-200.000	-0.009	-0.249
-142.502	-36.583	0.292	-0.155
-141.487	-28.763	0.241	-0.137
-140.472	483.386	0.105	-0.236
-139.458	-53.505	0.220	-0.099
-138.443	-200.000	0.007	-0.098
-137.429	758.068	0.143	0.383
-136.414	282.021	0.099	0.175
-135.399	-101.185	-0.417	-0.101
-134.385	12.485	-0.046	0.035
-133.370	-7.468	-0.467	0.313
-132.356	800.000	-0.067	0.211
-131.341	132.105	-0.085	0.108
-130.326	-85.227	0.254	-0.078
-129.312	800.000	-0.055	-0.162
-128.297	-80.265	0.259	-0.085
-127.283	280.682	-0.171	-0.302
-126.268	-42.332	-0.290	-0.146
-125.253	156.893	-0.142	-0.195
-124.239	-200.000	-0.035	-0.280
-123.224	-200.000	0.053	-0.238
-122.210	6.874	0.141	-0.104
