DTS Sentinel unit serial number:	SN413079Multiplexer serial number:	ORYXHardware model number:	OX4-SRSoftware version number:	ORYX F/W v4.00 Oryx Data Collector v3.7.2.0data status	okinstallation	princeton_trtdifferential loss correction	single-endedforward channel	channel 4reverse channel	N/Adate	2019/09/19time	14:37:34forward acquisition time	60.00reverse acquisition time	0.00gamma	496.2192k internal	0.2304k external	0.2304temperature offset calibration	1.0024default loss term (dB/km)	0.3790temperature slope calibration	1.0000multiplexer offset coefficient	1.0000multiplexer slope coefficient	1.0000fibre end	0.00T internal ref (°C)	32.37T ext. ref 1 (°C)	1.08T ext. ref 2 (°C)	29.41length (m)	temperature (°C)	Stokes	anti-Stokes-747.200	12.678	0.187	-0.147
-746.185	80.939	-0.141	0.155
-745.171	800.000	0.025	0.072
-744.156	145.088	-0.027	-0.037
-743.142	-200.000	-0.036	0.255
-742.127	328.533	0.157	0.308
-741.112	-165.200	-0.053	0.002
-740.098	375.867	-0.198	0.411
-739.083	-112.369	-0.185	0.038
-738.069	-200.000	0.022	-0.117
-737.054	-25.010	-0.256	-0.154
-736.039	62.856	0.100	0.101
-735.025	-136.420	0.416	0.049
-734.010	178.919	-0.181	-0.269
-732.996	111.604	0.245	-0.301
-731.981	-71.568	0.340	-0.129
-730.966	800.000	-0.063	-0.179
-729.952	800.000	-0.099	-0.345
-728.937	640.974	0.096	-0.248
-727.923	35.193	0.139	0.124
-726.908	29.712	-0.359	-0.311
-725.894	186.430	-0.223	0.338
-724.879	-174.005	0.188	0.006
-723.864	391.524	-0.171	0.361
-722.850	800.000	-0.052	-0.147
-721.835	-24.193	-0.005	0.003
-720.821	-200.000	0.030	-0.173
-719.806	800.000	-0.045	0.138
-718.791	-200.000	-0.046	-0.205
-717.777	-31.333	-0.379	-0.217
-716.762	-200.000	-0.030	-0.156
-715.748	-108.168	0.271	0.060
-714.733	-200.000	0.015	-0.225
-713.718	-200.000	-0.030	-0.469
-712.704	-142.383	-0.264	-0.026
-711.689	727.621	-0.091	0.246
-710.675	557.841	0.154	-0.378
-709.660	68.020	-0.061	-0.064
-708.645	143.835	-0.215	-0.291
-707.631	-200.000	-0.005	-0.373
-706.616	-75.966	-0.316	-0.114
-705.602	-200.000	0.018	-0.230
-704.587	628.279	0.043	-0.112
-703.572	499.060	0.125	-0.294
-702.558	-87.482	-0.397	-0.122
-701.543	-50.814	0.105	-0.050
-700.529	15.403	0.237	-0.189
-699.514	-50.397	0.102	0.049
-698.499	-48.654	0.108	-0.053
-697.485	-63.812	0.087	0.036
-696.470	59.182	-0.103	-0.103
-695.456	-200.000	0.021	0.126
-694.441	-38.879	-0.068	-0.036
-693.426	298.271	0.085	-0.159
-692.412	-98.104	0.391	-0.102
-691.397	-92.970	-0.115	0.033
-690.383	800.000	-0.067	-0.209
-689.368	369.034	-0.186	-0.382
-688.354	60.826	-0.065	-0.065
-687.339	15.679	-0.303	-0.242
-686.324	542.791	0.014	-0.035
-685.310	122.820	-0.157	-0.200
-684.295	133.222	-0.088	-0.115
-683.281	-131.380	0.346	-0.047
-682.266	36.921	0.112	0.101
-681.251	-200.000	0.009	0.139
-680.237	800.000	-0.079	0.326
-679.222	-29.095	0.264	0.154
-678.208	-200.000	-0.030	-0.170
-677.193	-110.352	0.155	0.033
-676.178	20.164	0.145	0.119
-675.164	154.516	-0.054	0.076
-674.149	631.930	-0.090	-0.231
-673.135	800.000	0.086	-0.278
-672.120	-26.602	-0.259	0.154
-671.105	-84.513	-0.401	0.129
-670.091	309.072	0.105	0.200
-669.076	37.356	-0.253	-0.228
-668.062	-104.801	-0.287	0.067
-667.047	99.293	-0.115	0.134
-666.032	-7.896	0.372	0.255
-665.018	-200.000	-0.023	0.119
-664.003	-181.293	-0.156	-0.003
-662.989	-200.000	0.001	0.051
-661.974	-74.432	-0.207	-0.076
-660.959	-34.787	-0.319	0.177
-659.945	300.982	-0.144	0.269
-658.930	561.120	-0.070	0.172
-657.916	-66.170	0.333	-0.135
-656.901	582.844	-0.041	0.102
-655.886	140.943	-0.119	-0.159
-654.872	71.093	0.233	-0.245
-653.857	-198.735	0.209	0.001
-652.843	-149.832	-0.226	0.018
-651.828	-54.215	-0.145	0.067
-650.814	800.000	-0.025	-0.099
-649.799	33.013	0.173	-0.152
-648.784	-200.000	0.017	-0.161
-647.770	-137.190	0.094	-0.011
-646.755	-130.600	-0.220	-0.030
-645.741	-7.921	0.561	-0.384
-644.726	273.673	0.161	-0.289
-643.711	800.000	-0.112	-0.320
-642.697	-101.900	-0.102	0.025
-641.682	197.401	0.282	-0.437
-640.668	-35.365	-0.158	-0.087
-639.653	-108.462	-0.337	0.074
-638.638	-200.000	0.010	0.261
-637.624	487.505	0.004	0.008
-636.609	214.508	0.079	0.127
-635.595	-101.439	0.196	0.048
-634.580	-200.000	0.068	0.365
-633.565	29.111	-0.245	-0.210
-632.551	-180.920	-0.129	-0.003
-631.536	72.005	-0.036	-0.038
-630.522	52.728	0.207	0.200
-629.507	-200.000	0.005	-0.310
-628.492	-21.439	-0.231	0.143
-627.478	60.130	0.061	0.061
-626.463	-61.421	-0.057	0.024
-625.449	169.093	-0.022	-0.032
-624.434	220.628	-0.133	-0.217
-623.419	-200.000	-0.004	0.055
-622.405	-55.273	0.300	-0.137
-621.390	-170.832	-0.055	0.002
-620.376	68.594	-0.082	-0.085
-619.361	-110.978	0.232	-0.048
-618.346	-96.277	-0.344	-0.092
-617.332	-200.000	-0.066	-0.296
-616.317	800.000	-0.070	0.202
-615.303	4.693	-0.331	-0.246
-614.288	-11.360	-0.051	-0.034
-613.273	25.018	-0.164	-0.138
-612.259	-34.616	0.337	-0.187
-611.244	-153.019	-0.127	-0.009
-610.230	-43.565	0.044	0.022
-609.215	128.383	0.121	-0.156
-608.201	91.401	-0.093	0.105
-607.186	-132.083	-0.253	0.033
-606.171	-34.810	0.130	0.072
-605.157	800.000	0.095	0.369
-604.142	-21.964	0.195	-0.120
-603.128	-167.562	-0.132	0.005
-602.113	-184.072	-0.104	-0.002
-601.098	-200.000	0.034	-0.160
-600.084	235.321	0.074	0.123
-599.069	800.000	-0.093	0.271
-598.055	14.244	-0.028	-0.022
-597.040	138.859	0.102	0.136
-596.025	27.901	0.333	0.284
-595.011	-31.834	-0.321	-0.182
-593.996	-39.860	-0.031	0.017
-592.982	50.335	0.075	-0.072
-591.967	-59.203	-0.366	0.160
-590.952	97.537	-0.181	-0.210
-589.938	-86.663	-0.090	0.028
-588.923	76.909	0.032	-0.034
-587.909	-200.000	0.047	0.286
-586.894	-148.379	-0.116	0.010
-585.879	-200.000	-0.029	-0.197
-584.865	-59.009	-0.174	-0.076
-583.850	-122.757	0.200	0.033
-582.836	369.114	-0.089	0.183
-581.821	-67.399	-0.105	-0.042
-580.806	86.048	-0.121	-0.134
-579.792	-200.000	0.087	-0.449
-578.777	57.237	-0.124	0.122
-577.763	800.000	0.088	0.263
-576.748	-56.379	-0.270	0.121
-575.733	113.675	0.170	-0.209
-574.719	-181.037	-0.132	-0.003
-573.704	-55.356	0.173	0.079
-572.690	-200.000	-0.044	0.393
-571.675	-105.516	-0.119	-0.027
-570.661	61.911	-0.140	0.141
-569.646	81.610	0.272	-0.297
-568.631	-142.135	-0.199	0.020
-567.617	38.555	0.110	0.099
-566.602	800.000	-0.038	0.142
-565.588	-36.583	0.121	0.066
-564.573	-200.000	-0.017	0.130
-563.558	66.655	0.073	-0.075
-562.544	100.647	0.145	-0.170
-561.529	800.000	0.094	0.320
-560.515	-5.311	-0.063	0.043
-559.500	399.485	0.057	-0.121
-558.485	212.306	0.180	0.286
-557.471	126.618	-0.100	0.128
-556.456	170.267	-0.094	-0.136
-555.442	-200.000	0.004	0.252
-554.427	60.756	0.152	-0.152
-553.412	-200.000	0.010	0.092
-552.398	165.757	0.088	-0.125
-551.383	-200.000	0.033	0.161
-550.369	-127.790	-0.239	-0.035
-549.354	800.000	0.035	0.120
-548.339	169.405	-0.104	0.150
-547.325	469.165	0.106	0.241
-546.310	-59.270	-0.205	-0.089
-545.296	800.000	-0.070	-0.200
-544.281	-33.098	-0.301	-0.169
-543.266	18.806	-0.061	0.049
-542.252	-56.512	0.307	0.137
-541.237	67.222	-0.112	-0.116
-540.223	179.365	-0.124	0.183
-539.208	-107.282	-0.283	0.063
-538.193	-38.728	0.252	0.134
-537.179	-47.028	-0.111	-0.055
-536.164	50.644	-0.100	0.096
-535.150	68.437	0.166	0.172
-534.135	800.000	-0.028	-0.122
-533.121	105.062	0.129	-0.153
-532.106	-93.703	-0.221	0.062
-531.091	337.872	0.122	-0.240
-530.077	-4.766	0.116	-0.081
-529.062	-200.000	-0.022	-0.524
-528.048	37.666	0.156	-0.140
-527.033	-200.000	0.014	-0.071
-526.018	-35.634	-0.124	0.068
-525.004	267.105	0.039	0.069
-523.989	84.929	-0.187	-0.207
-522.975	-68.852	0.095	0.037
-521.960	-91.050	-0.235	0.068
-520.945	-163.281	0.105	0.005
-519.931	133.660	0.098	-0.128
-518.916	-29.440	0.316	0.182
-517.902	93.648	-0.130	-0.148
-516.887	-146.461	-0.192	0.017
-515.872	-101.072	0.055	-0.014
-514.858	160.338	-0.153	0.215
-513.843	164.900	-0.141	-0.201
-512.829	-23.706	0.242	0.146
-511.814	-104.356	-0.104	-0.024
-510.799	65.309	-0.129	-0.132
-509.785	800.000	0.061	-0.257
-508.770	-117.989	0.020	0.004
-507.756	800.000	0.111	0.411
-506.741	234.301	0.209	0.347
-505.726	-52.949	0.317	-0.147
-504.712	91.364	0.076	0.086
-503.697	302.673	0.056	0.105
-502.683	52.400	0.150	-0.144
-501.668	-200.000	-0.023	0.131
-500.653	-49.488	-0.158	-0.076
-499.639	-125.640	0.184	-0.028
-498.624	-200.000	0.013	0.070
-497.610	-73.417	-0.370	0.136
-496.595	800.000	-0.153	0.549
-495.581	-200.000	0.014	-0.146
-494.566	-200.000	0.048	-0.310
-493.551	-50.808	0.061	0.029
-492.537	-142.603	-0.192	-0.019
-491.522	176.773	-0.237	0.347
-490.508	800.000	-0.070	-0.197
-489.493	145.972	0.199	-0.270
-488.478	-200.000	-0.018	0.232
-487.464	-38.873	0.235	0.125
-486.449	11.083	-0.092	0.071
-485.435	634.062	-0.071	-0.181
-484.420	-200.000	0.035	-0.269
-483.405	57.621	0.211	0.208
-482.391	36.653	-0.321	0.285
-481.376	800.000	0.098	-0.282
-480.362	-200.000	0.003	-0.236
-479.347	60.514	-0.186	-0.186
-478.332	93.236	-0.173	-0.197
-477.318	362.318	-0.063	0.128
-476.303	55.002	-0.162	-0.157
-475.289	-147.533	-0.284	0.024
-474.274	539.728	-0.065	-0.156
-473.259	170.033	0.052	-0.075
-472.245	18.303	0.291	0.234
-471.230	-79.932	-0.306	-0.103
-470.216	-64.156	0.124	0.051
-469.201	-89.377	0.155	-0.046
-468.186	-87.604	-0.306	0.093
-467.172	-93.732	0.171	0.047
-466.157	-200.000	-0.029	-0.134
-465.143	-47.561	0.408	-0.200
-464.128	309.200	0.065	0.122
-463.113	-35.904	0.302	0.165
-462.099	-171.793	-0.154	0.005
-461.084	-4.280	0.269	0.187
-460.070	182.954	-0.145	-0.216
-459.055	129.956	-0.056	0.072
-458.040	-200.000	-0.026	0.119
-457.026	99.157	-0.158	-0.184
-456.011	-60.477	0.379	-0.162
-454.997	-46.584	-0.114	0.056
-453.982	-54.898	-0.244	-0.111
-452.968	333.181	0.110	0.214
-451.953	-48.272	-0.116	0.057
-450.938	-94.048	-0.122	0.034
-449.924	89.803	-0.457	0.513
-448.909	672.912	-0.066	-0.171
-447.895	-200.000	-0.065	0.317
-446.880	-6.122	0.044	0.030
-445.865	95.795	0.149	0.171
-444.851	3.048	-0.146	0.106
-443.836	-89.057	0.212	0.063
-442.822	-200.000	0.000	0.033
-441.807	19.559	0.350	-0.283
-440.792	-99.208	-0.185	-0.047
-439.778	-200.000	0.007	-0.262
-438.763	-103.636	-0.092	-0.022
-437.749	159.268	0.092	0.129
-436.734	-98.121	0.408	0.106
-435.719	698.876	0.030	-0.079
-434.705	-23.930	0.271	0.163
-433.690	-116.025	-0.211	-0.039
-432.676	-12.206	-0.320	0.210
-431.661	-72.562	0.322	0.120
-430.646	-121.202	0.447	0.075
-429.632	169.872	-0.189	-0.271
-428.617	-44.207	0.185	-0.093
-427.603	689.756	-0.062	0.164
-426.588	-69.576	-0.248	0.096
-425.573	191.156	0.096	0.145
-424.559	788.877	0.108	-0.299
-423.544	255.877	-0.044	0.076
-422.530	-200.000	0.023	0.245
-421.515	-200.000	0.001	-0.127
-420.500	-127.992	0.177	-0.026
-419.486	183.379	0.121	-0.179
-418.471	106.069	-0.191	-0.228
-417.457	-200.000	-0.007	0.149
-416.442	-139.887	-0.160	-0.017
-415.428	84.811	-0.108	-0.119
-414.413	800.000	-0.068	0.213
-413.398	746.434	-0.118	0.318
-412.384	800.000	-0.025	0.080
-411.369	-200.000	-0.060	-0.344
-410.355	-200.000	0.019	0.144
-409.340	109.951	0.023	-0.028
-408.325	-0.346	-0.135	0.096
-407.311	800.000	-0.127	-0.373
-406.296	800.000	-0.096	-0.291
-405.282	133.669	-0.246	-0.320
-404.267	180.424	-0.053	0.078
-403.252	-101.986	-0.360	0.087
-402.238	33.561	-0.142	0.124
-401.223	22.134	-0.094	0.077
-400.209	-21.871	-0.086	0.052
-399.194	387.207	0.077	0.160
-398.179	-60.689	0.224	-0.095
-397.165	149.088	0.258	-0.350
-396.150	119.661	-0.205	0.255
-395.136	-20.317	0.360	-0.223
-394.121	-79.551	-0.129	0.044
-393.106	-127.717	0.345	0.050
-392.092	800.000	-0.068	-0.204
-391.077	261.845	0.031	0.053
-390.063	59.765	0.398	-0.394
-389.048	68.416	0.061	-0.063
-388.033	19.124	-0.219	-0.176
-387.019	800.000	0.066	-0.183
-386.004	-200.000	0.007	-0.078
-384.990	127.224	0.092	0.117
-383.975	-121.477	0.332	-0.055
-382.960	-9.647	-0.088	-0.059
-381.946	35.098	-0.331	-0.291
-380.931	-31.996	-0.196	0.110
-379.917	-183.650	0.293	0.005
-378.902	94.571	0.167	0.190
-377.888	-200.000	-0.001	0.138
-376.873	-82.243	0.238	0.078
-375.858	-25.609	0.172	-0.102
-374.844	106.432	-0.031	-0.037
-373.829	6.852	-0.206	-0.154
-372.815	288.016	0.240	-0.435
-371.800	47.576	0.307	-0.288
-370.785	-171.794	-0.308	0.010
-369.771	-200.000	-0.007	0.099
-368.756	45.828	0.018	0.016
-367.742	800.000	0.099	0.343
-366.727	514.910	-0.090	-0.210
-365.712	-186.999	0.236	-0.003
-364.698	113.996	0.137	0.167
-363.683	374.129	0.045	-0.092
-362.669	-117.098	-0.144	0.026
-361.654	-200.000	-0.028	0.149
-360.639	800.000	0.060	0.243
-359.625	-200.000	-0.003	-0.169
-358.610	340.639	0.073	-0.143
-357.596	205.194	0.106	0.164
-356.581	-91.521	0.461	0.132
-355.566	339.558	0.041	0.079
-354.552	120.039	0.260	0.323
-353.537	-84.738	0.126	0.040
-352.523	46.042	-0.267	-0.248
-351.508	101.098	-0.212	0.247
-350.493	-36.155	-0.146	0.079
-349.479	-200.000	-0.021	0.214
-348.464	-200.000	0.023	0.213
-347.450	224.554	-0.056	-0.090
-346.435	800.000	-0.051	-0.148
-345.420	176.774	-0.115	0.167
-344.406	-200.000	-0.206	-0.000
-343.391	-21.407	0.274	0.168
-342.377	-13.905	-0.199	-0.129
-341.362	-150.659	0.151	-0.012
-340.348	7.158	-0.198	-0.148
-339.333	-136.399	0.230	0.027
-338.318	-103.302	0.277	-0.066
-337.304	-170.582	-0.141	-0.005
-336.289	140.545	0.123	0.163
-335.275	-85.892	-0.162	-0.050
-334.260	-85.107	-0.079	-0.025
-333.245	-160.280	0.357	-0.019
-332.231	-46.058	-0.081	0.040
-331.216	31.682	0.131	-0.113
-330.202	7.974	0.093	0.070
-329.187	-93.803	-0.183	0.051
-328.172	-200.000	-0.142	-0.000
-327.158	-59.668	0.264	0.113
-326.143	3.631	0.019	-0.014
-325.129	-27.339	-0.006	-0.003
-324.114	-200.000	-0.031	-0.474
-323.099	40.700	-0.252	-0.227
-322.085	800.000	-0.044	0.148
-321.070	-42.251	0.494	-0.252
-320.056	-200.000	0.003	0.075
-319.041	132.664	-0.107	-0.138
-318.026	479.377	-0.014	0.031
-317.012	-100.875	-0.219	-0.054
-315.997	8.301	0.154	-0.116
-314.983	-200.000	-0.011	0.355
-313.968	-102.607	0.238	-0.057
-312.953	121.006	0.285	-0.355
-311.939	-123.770	-0.239	-0.038
-310.924	6.814	-0.197	-0.147
-309.910	800.000	0.083	0.339
-308.895	223.901	0.080	0.129
-307.880	141.327	-0.142	0.188
-306.866	-5.794	-0.110	-0.075
-305.851	-200.000	0.065	0.287
-304.837	50.462	0.216	-0.204
-303.822	-200.000	-0.025	0.589
-302.807	-200.000	0.010	0.053
-301.793	209.932	-0.072	-0.112
-300.778	-63.215	0.269	-0.111
-299.764	237.961	-0.114	-0.190
-298.749	219.535	0.044	-0.070
-297.735	-105.957	0.047	-0.011
-296.720	-200.000	0.006	-0.217
-295.705	-41.790	-0.255	-0.131
-294.691	800.000	-0.086	-0.250
-293.676	-130.914	0.247	-0.033
-292.662	38.667	-0.172	-0.154
-291.647	53.576	-0.052	0.050
-290.632	800.000	-0.134	0.393
-289.618	-11.215	0.177	0.117
-288.603	-72.232	-0.086	0.032
-287.589	-200.000	-0.009	0.126
-286.574	194.224	0.035	0.054
-285.559	427.227	-0.214	0.461
-284.545	70.664	-0.112	-0.116
-283.530	43.082	-0.148	-0.135
-282.516	-200.000	-0.173	0.000
-281.501	534.150	0.111	-0.264
-280.486	800.000	0.040	-0.166
-279.472	-200.000	-0.000	-0.403
-278.457	-200.000	-0.070	0.453
-277.443	-72.131	-0.139	-0.052
-276.428	-200.000	-0.019	-0.223
-275.413	27.818	0.101	-0.085
-274.399	800.000	0.074	0.236
-273.384	308.588	-0.101	-0.189
-272.370	40.636	0.093	-0.084
-271.355	800.000	0.048	0.158
-270.340	800.000	-0.077	-0.300
-269.326	-73.837	-0.289	0.105
-268.311	71.376	-0.129	0.133
-267.297	253.796	-0.115	0.196
-266.282	623.858	0.100	-0.251
-265.267	800.000	0.023	-0.082
-264.253	9.324	0.100	0.075
-263.238	-14.580	0.299	-0.192
-262.224	80.106	-0.090	-0.097
-261.209	800.000	-0.120	-0.433
-260.195	-145.864	0.085	-0.008
-259.180	139.804	-0.113	-0.149
-258.165	-64.495	0.096	-0.039
-257.151	-112.630	0.134	0.027
-256.136	166.691	-0.220	0.312
-255.122	228.692	-0.113	0.185
-254.107	-41.166	-0.194	-0.100
-253.092	75.916	-0.116	0.123
-252.078	150.636	-0.065	-0.088
-251.063	36.885	-0.272	-0.240
-250.049	468.744	0.209	0.468
-249.034	-200.000	0.045	0.212
-248.019	-44.009	-0.174	0.087
-247.005	-200.000	-0.053	0.488
-245.990	-110.412	0.087	0.018
-244.976	-105.931	0.088	0.020
-243.961	-154.273	-0.163	0.011
-242.946	441.743	0.080	-0.176
-241.932	-200.000	0.022	0.287
-240.917	-119.507	0.167	-0.029
-239.903	-52.462	-0.147	-0.068
-238.888	43.639	-0.198	0.181
-237.873	-200.000	-0.030	0.152
-236.859	514.304	0.056	0.131
-235.844	-200.000	0.063	0.350
-234.830	342.600	0.144	0.282
-233.815	-153.267	0.562	0.039
-232.800	116.777	-0.127	0.155
-231.786	-28.940	0.200	0.114
-230.771	800.000	-0.046	-0.200
-229.757	-94.448	-0.214	-0.058
-228.742	372.166	0.075	-0.151
-227.727	-75.258	-0.178	0.063
-226.713	-41.950	-0.094	0.048
-225.698	-163.638	0.309	0.015
-224.684	800.000	0.037	-0.143
-223.669	800.000	-0.069	0.240
-222.655	92.223	0.154	0.173
-221.640	325.903	0.206	0.393
-220.625	366.066	-0.120	0.242
-219.611	-200.000	0.013	0.122
-218.596	108.916	-0.109	-0.130
-217.582	329.456	0.144	0.275
-216.567	-152.277	-0.379	-0.027
-215.552	-124.288	-0.237	-0.037
-214.538	16.743	0.310	-0.244
-213.523	-19.770	-0.144	-0.089
-212.509	-200.000	0.019	-0.176
-211.494	14.046	0.123	0.096
-210.479	521.736	0.101	0.236
-209.465	58.810	-0.190	0.186
-208.450	749.107	-0.075	0.201
-207.436	365.363	-0.099	-0.200
-206.421	-1.885	-0.228	-0.160
-205.406	-55.410	0.200	-0.089
-204.392	128.394	-0.184	-0.233
-203.377	64.400	-0.116	-0.117
-202.363	-1.938	0.195	-0.137
-201.348	75.946	0.106	0.112
-200.333	-184.849	0.214	-0.003
-199.319	-40.691	0.273	-0.141
-198.304	128.510	-0.123	-0.156
-197.290	-6.972	0.177	0.120
-196.275	147.530	-0.282	-0.379
-195.260	-104.275	-0.194	-0.045
-194.246	588.627	0.067	0.164
-193.231	401.514	0.128	0.268
-192.217	-200.000	0.003	0.144
-191.202	299.774	0.119	0.218
-190.187	-200.000	0.003	0.143
-189.173	-56.894	-0.173	0.076
-188.158	-200.000	-0.075	-0.478
-187.144	800.000	-0.054	0.153
-186.129	-82.542	-0.076	0.024
-185.114	-200.000	0.009	-0.443
-184.100	487.872	-0.025	-0.056
-183.085	-77.141	-0.191	0.066
-182.071	-94.644	0.225	0.061
-181.056	244.339	-0.114	0.191
-180.042	121.439	0.022	0.027
-179.027	343.745	0.211	0.412
-178.012	-49.157	0.025	-0.012
-176.998	150.584	-0.186	-0.252
-175.983	110.625	-0.055	-0.065
-174.969	94.313	0.191	-0.216
-173.954	465.511	0.104	-0.232
-172.939	306.354	0.132	-0.245
-171.925	-115.633	-0.180	0.034
-170.910	161.488	0.038	0.054
-169.896	34.428	0.203	-0.176
-168.881	-75.254	0.162	-0.057
-167.866	422.260	0.204	0.435
-166.852	-12.322	-0.225	0.146
-165.837	-32.202	0.208	0.116
-164.823	800.000	0.058	0.234
-163.808	132.167	-0.087	0.111
-162.793	-100.845	0.072	-0.018
-161.779	-147.991	-0.212	0.018
-160.764	-149.956	0.285	0.022
-159.750	-68.850	0.069	-0.026
-158.735	-28.412	-0.301	0.173
-157.720	4.045	0.155	-0.113
-156.706	-191.918	-0.091	0.001
-155.691	-162.535	0.132	-0.007
-154.677	-39.472	0.228	-0.119
-153.662	197.002	-0.109	-0.166
-152.647	181.508	-0.207	-0.304
-151.633	293.232	0.151	-0.275
-150.618	-4.444	0.039	0.027
-149.604	-25.658	-0.146	-0.085
-148.589	-200.000	0.037	0.300
-147.574	150.322	-0.061	0.082
-146.560	277.186	-0.103	0.182
-145.545	115.438	-0.053	-0.064
-144.531	-59.640	-0.192	-0.082
-143.516	-200.000	0.019	0.136
-142.502	-200.000	-0.123	0.654
-141.487	306.081	0.128	0.236
-140.472	-126.980	-0.138	-0.020
-139.458	-84.077	0.330	-0.104
-138.443	-149.091	0.100	0.008
-137.429	148.326	0.159	-0.214
-136.414	-136.310	0.202	-0.023
-135.399	275.654	-0.227	-0.401
-134.385	229.124	0.108	0.175
-133.370	9.597	-0.201	-0.152
-132.356	-200.000	-0.023	-0.174
-131.341	37.873	0.103	-0.091
-130.326	-200.000	-0.000	0.365
-129.312	-198.094	0.249	-0.001
-128.297	66.051	-0.110	-0.111
-127.283	800.000	0.060	0.183
-126.268	800.000	0.039	-0.129
-125.253	-200.000	0.012	-0.061
-124.239	-147.072	-0.049	0.004
-123.224	26.722	0.338	0.281
-122.210	139.344	-0.048	0.063
-121.195	-16.172	-0.130	-0.082
