DTS Sentinel unit serial number:	SN413079Multiplexer serial number:	ORYXHardware model number:	OX4-SRSoftware version number:	ORYX F/W v4.00 Oryx Data Collector v3.7.2.0data status	okinstallation	princeton_trtdifferential loss correction	single-endedforward channel	channel 4reverse channel	N/Adate	2019/09/12time	10:51:11forward acquisition time	60.00reverse acquisition time	0.00gamma	496.2192k internal	0.2293k external	0.2293temperature offset calibration	1.0068default loss term (dB/km)	0.3790temperature slope calibration	1.0000multiplexer offset coefficient	1.0000multiplexer slope coefficient	1.0000fibre end	0.00T internal ref (°C)	37.98T ext. ref 1 (°C)	1.92T ext. ref 2 (°C)	36.54length (m)	temperature (°C)	Stokes	anti-Stokes-747.200	-200.000	-0.000	0.155
-746.185	309.561	-0.140	-0.268
-745.171	-77.875	0.295	-0.104
-744.156	-84.137	0.086	-0.028
-743.142	-126.628	0.191	-0.029
-742.127	396.003	-0.105	0.224
-741.112	-98.405	-0.126	-0.033
-740.098	800.000	0.052	0.221
-739.083	512.751	0.075	-0.180
-738.069	-200.000	-0.047	0.243
-737.054	800.000	-0.101	0.293
-736.039	91.010	-0.301	-0.345
-735.025	-140.366	-0.266	0.028
-734.010	45.811	-0.217	-0.205
-732.996	-200.000	0.014	0.099
-731.981	180.804	0.064	-0.096
-730.966	800.000	-0.039	-0.168
-729.952	256.219	0.136	-0.239
-728.937	-49.261	-0.119	-0.058
-727.923	214.773	0.185	-0.300
-726.908	-75.479	-0.115	-0.042
-725.894	482.100	-0.043	0.100
-724.879	-90.117	-0.153	-0.046
-723.864	-58.509	-0.261	0.116
-722.850	-134.700	0.120	0.015
-721.835	-101.712	0.154	0.038
-720.821	169.539	-0.146	-0.213
-719.806	303.016	0.008	-0.016
-718.791	-97.353	-0.298	0.079
-717.777	800.000	-0.054	0.178
-716.762	42.120	-0.097	0.090
-715.748	127.992	0.132	0.171
-714.733	67.763	-0.209	0.219
-713.718	-200.000	-0.016	0.223
-712.704	1.731	-0.109	0.080
-711.689	-200.000	-0.008	-0.117
-710.675	-19.696	0.174	-0.110
-709.660	-137.009	-0.100	-0.012
-708.645	279.250	0.077	0.141
-707.631	-109.608	-0.426	-0.092
-706.616	-200.000	-0.083	0.386
-705.602	-133.972	-0.326	-0.041
-704.587	300.880	-0.097	-0.183
-703.572	800.000	-0.033	-0.105
-702.558	-46.497	-0.021	-0.010
-701.543	-105.660	0.341	-0.079
-700.529	-134.728	-0.215	-0.027
-699.514	43.914	-0.361	0.338
-698.499	-200.000	-0.008	0.077
-697.485	-200.000	0.031	0.358
-696.470	690.776	0.071	-0.191
-695.456	16.413	0.303	-0.244
-694.441	-183.890	0.251	-0.004
-693.426	800.000	0.065	-0.241
-692.412	-27.501	-0.296	-0.176
-691.397	-200.000	0.079	-0.452
-690.383	-147.855	-0.125	0.011
-689.368	-200.000	0.040	0.193
-688.354	122.672	-0.040	-0.051
-687.339	119.376	0.082	0.103
-686.324	-155.067	-0.310	0.021
-685.310	292.391	-0.116	-0.216
-684.295	24.414	-0.196	-0.165
-683.281	-89.910	0.108	-0.032
-682.266	-143.987	-0.298	0.029
-681.251	81.062	0.085	-0.094
-680.237	-200.000	0.014	0.191
-679.222	-45.713	-0.247	0.125
-678.208	-200.000	-0.073	0.524
-677.193	24.613	0.049	0.042
-676.178	60.201	0.078	0.079
-675.164	800.000	0.033	-0.094
-674.149	-17.433	-0.217	-0.139
-673.135	8.219	0.068	-0.052
-672.120	-3.700	-0.365	-0.259
-671.105	-11.725	0.148	0.099
-670.091	-124.730	0.214	-0.034
-669.076	-200.000	-0.169	0.000
-668.062	224.909	-0.168	0.276
-667.047	69.392	0.144	-0.152
-666.032	800.000	0.011	0.042
-665.018	800.000	-0.048	-0.181
-664.003	-107.509	0.330	0.074
-662.989	-7.955	-0.254	-0.175
-661.974	-46.973	-0.129	0.064
-660.959	398.198	0.136	-0.291
-659.945	800.000	0.056	0.162
-658.930	-112.531	-0.338	-0.069
-657.916	-200.000	-0.056	-0.328
-656.901	-86.911	0.359	-0.112
-655.886	-45.334	-0.116	-0.059
-654.872	-200.000	0.002	0.249
-653.857	-200.000	-0.009	0.070
-652.843	410.998	-0.147	0.319
-651.828	-179.013	0.270	0.006
-650.814	345.045	-0.107	-0.214
-649.799	-159.883	-0.355	0.020
-648.784	800.000	-0.060	-0.181
-647.770	133.711	0.197	-0.259
-646.755	-124.922	0.026	0.004
-645.741	-136.055	-0.236	0.028
-644.726	364.164	-0.059	0.121
-643.711	800.000	-0.042	-0.161
-642.697	111.208	-0.127	0.156
-641.682	624.342	-0.045	0.117
-640.668	-155.608	0.253	0.017
-639.653	800.000	0.057	0.240
-638.638	-170.676	-0.375	-0.013
-637.624	26.309	0.210	-0.179
-636.609	619.822	-0.007	0.017
-635.595	-134.699	-0.101	-0.012
-634.580	-200.000	0.004	0.033
-633.565	800.000	0.123	-0.538
-632.551	-200.000	-0.001	-0.112
-631.536	-107.131	-0.206	0.046
-630.522	-11.907	0.181	0.121
-629.507	800.000	0.050	0.172
-628.492	102.087	-0.134	-0.159
-627.478	639.177	0.100	-0.259
-626.463	-11.504	0.164	-0.110
-625.449	677.183	0.035	0.094
-624.434	105.668	-0.092	0.111
-623.419	800.000	0.025	-0.071
-622.405	-0.588	0.259	0.187
-621.390	800.000	0.019	-0.082
-620.376	-200.000	-0.011	0.070
-619.361	-20.310	0.110	0.069
-618.346	152.208	0.175	0.244
-617.332	31.678	0.323	0.283
-616.317	8.761	-0.330	0.253
-615.303	465.062	-0.051	-0.117
-614.288	-70.829	-0.028	-0.011
-613.273	79.410	0.102	-0.111
-612.259	-200.000	0.002	0.025
-611.244	-200.000	0.000	-0.224
-610.230	125.122	-0.124	-0.159
-609.215	-60.594	-0.273	-0.118
-608.201	-118.653	-0.057	0.010
-607.186	800.000	-0.086	-0.308
-606.171	-200.000	-0.026	-0.133
-605.157	-12.318	0.376	-0.250
-604.142	-54.627	-0.298	0.137
-603.128	169.971	-0.120	0.175
-602.113	-171.366	0.092	-0.003
-601.098	-30.085	-0.136	-0.079
-600.084	-54.617	-0.178	0.082
-599.069	800.000	0.094	0.340
-598.055	571.258	-0.161	0.399
-597.040	-17.314	0.316	0.203
-596.025	-200.000	-0.070	-0.381
-595.011	-119.782	0.153	-0.027
-593.996	-66.010	0.037	-0.015
-592.982	-200.000	-0.005	-0.031
-591.967	-144.874	-0.253	0.024
-590.952	-76.423	-0.502	-0.180
-589.938	-200.000	0.014	-0.131
-588.923	565.826	-0.193	-0.476
-587.909	-200.000	0.020	-0.232
-586.894	-200.000	-0.022	0.122
-585.879	-118.161	-0.352	0.064
-584.865	-185.086	0.297	0.005
-583.850	150.512	-0.106	0.146
-582.836	-143.535	-0.234	-0.023
-581.821	129.894	0.108	0.140
-580.806	31.662	0.265	-0.231
-579.792	-56.164	-0.236	-0.107
-578.777	-61.273	0.349	0.150
-577.763	209.852	0.077	0.123
-576.748	-200.000	-0.017	-0.076
-575.733	-200.000	-0.047	-0.344
-574.719	-133.226	0.230	-0.030
-573.704	90.114	-0.308	0.349
-572.690	16.690	-0.122	0.098
-571.675	-59.105	0.201	0.088
-570.661	-200.000	-0.026	-0.139
-569.646	-68.004	0.258	-0.102
-568.631	-200.000	0.012	-0.209
-567.617	-44.045	-0.102	0.052
-566.602	45.262	-0.196	0.183
-565.588	18.442	0.086	-0.070
-564.573	10.171	-0.287	-0.221
-563.558	-200.000	0.029	-0.432
-562.544	-68.002	-0.304	-0.121
-561.529	74.732	-0.201	-0.215
-560.515	-200.000	-0.011	-0.232
-559.500	-57.547	0.403	-0.180
-558.485	-79.454	-0.346	0.119
-557.471	-64.837	0.235	0.096
-556.456	307.533	-0.156	-0.294
-555.442	330.255	-0.142	-0.278
-554.427	-200.000	-0.025	0.192
-553.412	800.000	-0.037	0.142
-552.398	-65.787	-0.123	-0.050
-551.383	-114.548	-0.057	0.011
-550.369	323.924	0.124	-0.241
-549.354	-27.581	0.128	0.076
-548.339	800.000	0.060	-0.202
-547.325	33.173	0.317	0.279
-546.310	-200.000	0.015	0.081
-545.296	-200.000	0.074	-0.487
-544.281	800.000	-0.113	0.356
-543.266	-19.038	-0.212	-0.134
-542.252	-165.822	0.251	0.011
-541.237	-181.479	-0.577	-0.011
-540.223	-37.946	0.205	0.110
-539.208	-8.124	0.246	0.169
-538.193	330.487	-0.141	0.275
-537.179	-31.428	0.250	0.143
-536.164	-12.293	-0.277	0.184
-535.150	474.392	0.047	-0.107
-534.135	113.751	0.127	0.157
-533.121	465.443	0.084	-0.191
-532.106	271.049	0.140	0.249
-531.091	-200.000	0.014	-0.210
-530.077	-163.932	0.301	-0.014
-529.062	87.882	-0.061	-0.069
-528.048	-111.838	-0.223	0.046
-527.033	-4.803	-0.220	-0.154
-526.018	-200.000	0.026	-0.324
-525.004	-200.000	0.003	-0.171
-523.989	-200.000	0.036	0.192
-522.975	-132.638	0.255	0.033
-521.960	381.807	0.075	-0.156
-520.945	-72.123	0.315	0.119
-519.931	-93.346	-0.250	0.070
-518.916	-200.000	-0.018	-0.263
-517.902	-158.264	0.146	-0.009
-516.887	0.737	0.162	0.117
-515.872	-9.228	-0.021	0.014
-514.858	-200.000	0.016	-0.597
-513.843	239.719	-0.129	-0.218
-512.829	-14.028	-0.223	-0.146
-511.814	11.777	0.128	-0.099
-510.799	143.861	0.088	-0.118
-509.785	-200.000	0.008	-0.101
-508.770	-155.062	-0.435	-0.029
-507.756	235.809	-0.162	-0.271
-506.741	-200.000	-0.010	-0.265
-505.726	-66.922	0.145	0.058
-504.712	-51.573	-0.327	0.154
-503.697	-66.827	-0.189	0.076
-502.683	-95.380	0.199	0.054
-501.668	-83.793	0.201	-0.065
-500.653	800.000	-0.201	0.581
-499.639	-200.000	-0.037	0.237
-498.624	19.370	-0.035	0.028
-497.610	13.326	0.111	-0.087
-496.595	82.965	0.207	0.228
-495.581	-4.817	-0.116	0.081
-494.566	-31.820	0.222	0.126
-493.551	-170.191	-0.239	0.009
-492.537	-26.288	-0.129	0.077
-491.522	800.000	-0.072	-0.289
-490.508	-200.000	-0.002	-0.033
-489.493	-51.677	0.140	0.066
-488.478	-200.000	-0.025	-0.143
-487.464	-200.000	-0.023	-0.205
-486.449	702.757	-0.032	-0.086
-485.435	800.000	0.056	-0.161
-484.420	800.000	-0.032	0.134
-483.405	-27.691	0.070	0.041
-482.391	3.511	-0.176	-0.130
-481.376	-151.189	-0.426	-0.032
-480.362	-26.838	0.134	0.079
-479.347	151.694	0.055	0.075
-478.332	198.782	0.055	0.085
-477.318	-200.000	0.050	0.231
-476.303	-182.520	0.240	-0.004
-475.289	-70.728	-0.291	-0.111
-474.274	282.404	0.132	0.240
-473.259	-200.000	-0.002	0.197
-472.245	-136.602	-0.242	0.028
-471.230	-153.537	-0.165	-0.012
-470.216	-200.000	0.007	0.231
-469.201	-200.000	-0.003	0.193
-468.186	10.743	0.086	0.067
-467.172	-18.348	-0.222	-0.141
-466.157	41.802	-0.139	-0.128
-465.143	-1.773	0.193	0.137
-464.128	97.193	-0.066	-0.077
-463.113	77.780	0.100	0.108
-462.099	284.732	-0.096	0.174
-461.084	88.749	0.088	-0.099
-460.070	-97.074	0.312	0.083
-459.055	-147.761	0.280	-0.024
-458.040	587.097	-0.060	-0.149
-457.026	-200.000	-0.002	-0.066
-456.011	-200.000	-0.056	-0.302
-454.997	800.000	0.075	0.291
-453.982	-200.000	0.023	0.108
-452.968	800.000	-0.083	-0.256
-451.953	-13.698	0.293	0.192
-450.938	7.661	0.116	0.088
-449.924	242.765	-0.055	0.094
-448.909	207.508	0.237	-0.373
-447.895	800.000	0.043	-0.126
-446.880	164.159	-0.062	0.088
-445.865	-12.357	-0.350	-0.231
-444.851	299.451	-0.077	0.143
-443.836	2.152	0.071	0.052
-442.822	63.183	-0.058	-0.059
-441.807	-136.230	-0.170	-0.020
-440.792	-200.000	-0.021	0.256
-439.778	-200.000	-0.001	0.048
-438.763	96.068	-0.201	0.233
-437.749	-27.167	0.140	-0.083
-436.734	-100.334	-0.307	-0.077
-435.719	-200.000	-0.037	0.169
-434.705	34.323	-0.267	-0.236
-433.690	-200.000	-0.017	-0.142
-432.676	99.969	-0.040	0.047
-431.661	-37.461	0.133	-0.072
-430.646	-49.711	-0.180	0.087
-429.632	11.953	0.194	0.151
-428.617	800.000	0.017	-0.055
-427.603	-86.481	-0.203	0.063
-426.588	-128.399	0.593	-0.085
-425.573	229.388	0.049	0.080
-424.559	116.443	0.194	-0.240
-423.544	82.591	-0.182	-0.200
-422.530	-164.219	0.169	-0.008
-421.515	0.517	-0.187	-0.135
-420.500	-200.000	-0.013	-0.116
-419.486	-200.000	-0.009	0.179
-418.471	-168.811	-0.229	0.009
-417.457	800.000	-0.067	-0.252
-416.442	109.906	-0.245	-0.297
-415.428	800.000	0.085	-0.301
-414.413	-96.963	-0.112	0.030
-413.398	-200.000	0.013	0.355
-412.384	305.263	0.196	-0.367
-411.369	40.325	-0.079	0.072
-410.355	277.137	0.064	-0.115
-409.340	-98.814	-0.232	0.060
-408.325	-200.000	0.022	0.210
-407.311	-27.760	0.271	-0.158
-406.296	390.599	0.126	0.264
-405.282	-77.023	-0.340	-0.120
-404.267	-122.401	-0.243	-0.040
-403.252	27.848	0.170	0.144
-402.238	8.111	-0.270	-0.204
-401.223	-94.046	0.200	-0.055
-400.209	-200.000	0.098	0.452
-399.194	74.892	-0.003	0.004
-398.179	-200.000	0.024	0.118
-397.165	-200.000	0.024	0.251
-396.150	251.743	0.038	-0.066
-395.136	-200.000	0.008	0.244
-394.121	-200.000	0.002	-0.024
-393.106	274.370	-0.222	0.396
-392.092	138.925	0.138	-0.183
-391.077	19.756	-0.139	0.113
-390.063	26.311	0.240	-0.202
-389.048	577.303	-0.057	0.141
-388.033	219.548	-0.232	0.374
-387.019	325.484	-0.232	0.448
-386.004	-200.000	-0.025	0.123
-384.990	-117.060	0.325	0.060
-383.975	439.757	0.091	0.202
-382.960	-94.335	0.088	-0.024
-381.946	-146.333	0.144	0.013
-380.931	800.000	0.038	-0.148
-379.917	800.000	0.072	-0.255
-378.902	575.054	-0.151	-0.371
-377.888	407.301	0.035	0.074
-376.873	800.000	0.043	-0.123
-375.858	-87.874	-0.295	0.090
-374.844	-110.555	-0.317	0.066
-373.829	-2.757	0.133	-0.094
-372.815	-200.000	0.024	0.230
-371.800	19.745	0.106	-0.086
-370.785	-85.454	-0.074	0.023
-369.771	39.623	0.113	-0.102
-368.756	-200.000	0.014	0.108
-367.742	-141.133	-0.370	-0.038
-366.727	800.000	0.019	-0.053
-365.712	-75.375	0.168	-0.060
-364.698	-60.210	-0.401	0.172
-363.683	-109.094	0.332	-0.071
-362.669	342.875	0.202	-0.398
-361.654	800.000	0.118	-0.351
-360.639	-53.218	-0.074	-0.034
-359.625	-83.590	0.069	0.022
-358.610	-6.839	-0.148	-0.101
-357.596	104.537	0.100	0.118
-356.581	326.710	-0.086	0.166
-355.566	404.073	0.070	0.149
-354.552	-200.000	-0.058	-0.280
-353.537	800.000	0.037	0.162
-352.523	-82.183	-0.293	-0.096
-351.508	-138.567	-0.067	0.007
-350.493	395.820	-0.071	0.149
-349.479	-143.265	-0.047	0.005
-348.464	-102.620	0.152	-0.037
-347.450	229.972	-0.051	-0.085
-346.435	-200.000	0.001	-0.018
-345.420	163.730	-0.129	0.182
-344.406	200.803	-0.127	-0.196
-343.391	77.104	0.249	-0.267
-342.377	-120.143	0.135	0.023
-341.362	-10.831	0.070	0.046
-340.348	-122.730	0.240	0.039
-339.333	537.038	-0.158	-0.379
-338.318	-61.444	0.419	-0.177
-337.304	-200.000	0.019	-0.094
-336.289	-102.874	0.118	0.028
-335.275	800.000	-0.074	-0.284
-334.260	121.680	0.279	0.351
-333.245	-50.811	-0.224	0.106
-332.231	-200.000	-0.004	-0.308
-331.216	-2.087	-0.240	-0.170
-330.202	-49.158	0.188	-0.090
-329.187	61.848	-0.064	-0.064
-328.172	169.550	0.216	-0.311
-327.158	-200.000	-0.003	0.349
-326.143	-10.472	0.064	-0.043
-325.129	-118.637	0.143	0.025
-324.114	800.000	0.179	0.523
-323.099	-184.828	0.288	-0.005
-322.085	186.028	-0.067	-0.100
-321.070	131.620	-0.095	-0.123
-320.056	800.000	0.086	0.276
-319.041	-200.000	-0.015	-0.110
-318.026	105.933	-0.230	-0.274
-317.012	-120.268	0.063	-0.011
-315.997	800.000	-0.067	0.202
-314.983	-200.000	0.045	-0.443
-313.968	-200.000	0.000	0.169
-312.953	800.000	-0.050	0.198
-311.939	226.372	-0.129	0.211
-310.924	157.130	-0.141	0.196
-309.910	-115.827	0.396	-0.074
-308.895	-200.000	-0.017	0.174
-307.880	57.554	0.214	0.210
-306.866	-145.918	0.186	0.017
-305.851	-49.343	0.112	-0.054
-304.837	-134.662	-0.212	0.026
-303.822	-200.000	-0.048	0.234
-302.807	-120.424	-0.217	0.037
-301.793	24.016	-0.129	-0.107
-300.778	207.550	-0.146	0.230
-299.764	143.131	-0.075	-0.100
-298.749	-200.000	-0.054	0.277
-297.735	-44.196	0.260	0.131
-296.720	-116.227	0.307	0.057
-295.705	-64.249	-0.253	-0.103
-294.691	52.474	-0.234	-0.225
-293.676	-126.348	0.279	-0.042
-292.662	-67.322	-0.151	-0.060
-291.647	-23.032	-0.188	-0.114
-290.632	-193.801	-0.055	-0.000
-289.618	-52.616	0.339	0.157
-288.603	302.319	0.021	0.040
-287.589	-69.145	0.286	0.111
-286.574	1.139	-0.104	0.075
-285.559	-135.946	-0.296	0.035
-284.545	-200.000	0.019	0.316
-283.530	800.000	0.022	-0.070
-282.516	-137.132	0.533	-0.061
-281.501	-156.654	0.177	-0.011
-280.486	301.754	-0.127	0.235
-279.472	-38.507	0.352	0.187
-278.457	800.000	-0.029	0.084
-277.443	129.013	0.010	-0.013
-276.428	-158.393	0.145	-0.008
-275.413	-30.327	-0.051	0.029
-274.399	800.000	-0.070	-0.277
-273.384	-109.021	0.240	-0.051
-272.370	-174.525	-0.511	-0.015
-271.355	-200.000	0.014	0.068
-270.340	-157.551	0.114	-0.007
-269.326	800.000	-0.052	-0.163
-268.311	800.000	-0.126	0.397
-267.297	-154.524	-0.062	0.004
-266.282	-107.524	0.028	-0.006
-265.267	-177.278	0.132	-0.003
-264.253	-100.600	0.348	0.086
-263.238	-142.622	0.309	-0.030
-262.224	575.948	0.111	0.273
-261.209	-164.991	0.338	-0.015
-260.195	-111.148	0.183	-0.038
-259.180	119.913	-0.097	-0.120
-258.165	-131.372	-0.152	-0.020
-257.151	800.000	0.069	0.298
-256.136	26.537	-0.158	0.133
-255.122	668.627	-0.069	-0.179
-254.107	800.000	0.097	0.367
-253.092	-66.824	0.113	0.045
-252.078	-200.000	-0.014	-0.082
-251.063	-9.943	-0.150	-0.100
-250.049	800.000	-0.163	-0.511
-249.034	-200.000	0.027	0.167
-248.019	-130.106	0.079	-0.011
-247.005	-18.078	-0.139	-0.087
-245.990	-58.349	0.054	0.024
-244.976	-84.547	-0.239	-0.076
-243.961	99.222	-0.084	-0.097
-242.946	14.485	0.066	-0.052
-241.932	-51.924	0.216	0.101
-240.917	-51.331	0.148	-0.070
-239.903	800.000	-0.054	0.235
-238.888	-135.329	-0.080	-0.010
-237.873	455.314	-0.061	-0.136
-236.859	184.468	0.119	-0.176
-235.844	144.678	-0.113	-0.152
-234.830	64.360	0.136	0.137
-233.815	800.000	0.055	0.228
-232.800	-5.700	-0.247	0.170
-231.786	21.346	0.160	0.130
-230.771	-79.969	-0.133	0.045
-229.757	91.983	0.167	0.188
-228.742	530.916	-0.175	-0.416
-227.727	230.087	0.122	0.201
-226.713	15.383	-0.154	0.121
-225.698	-81.049	0.248	0.082
-224.684	16.758	0.160	0.127
-223.669	371.876	0.058	0.117
-222.655	-200.000	-0.029	0.174
-221.640	266.075	0.102	0.179
-220.625	-200.000	0.040	-0.211
-219.611	-106.277	-0.126	-0.028
-218.596	-200.000	-0.039	-0.298
-217.582	-180.821	-0.453	-0.009
-216.567	-76.260	0.114	-0.040
-215.552	361.862	0.187	0.376
-214.538	800.000	0.091	0.303
-213.523	263.275	-0.103	-0.180
-212.509	-200.000	-0.031	-0.216
-211.494	639.859	-0.055	0.141
-210.479	53.008	-0.027	0.026
-209.465	-51.251	-0.090	-0.042
-208.450	800.000	-0.033	0.130
-207.436	-136.058	-0.133	-0.016
-206.421	-200.000	0.057	-0.391
-205.406	-74.616	-0.217	-0.078
-204.392	435.580	-0.096	0.209
-203.377	-5.398	-0.083	0.057
-202.363	-132.401	0.157	0.020
-201.348	-200.000	0.044	-0.241
-200.333	-57.491	-0.386	0.170
-199.319	-131.922	0.164	0.021
-198.304	613.856	-0.087	0.217
-197.290	800.000	-0.049	0.179
-196.275	-69.097	-0.279	0.108
-195.260	-94.156	0.205	0.056
-194.246	-51.323	-0.214	0.100
-193.231	-23.803	0.186	0.112
-192.217	88.183	-0.130	-0.145
-191.202	-200.000	0.022	-0.101
-190.187	-177.948	0.162	-0.004
-189.173	-144.160	0.225	-0.021
-188.158	-43.237	0.195	-0.099
-187.144	-200.000	0.071	-0.313
-186.129	-13.511	0.280	-0.182
-185.114	320.740	-0.089	0.170
-184.100	20.643	0.107	-0.087
-183.085	-200.000	0.021	-0.183
-182.071	-109.280	0.309	0.066
-181.056	159.501	-0.115	-0.160
-180.042	276.293	0.089	0.159
-179.027	175.678	-0.242	0.351
-178.012	-66.168	-0.234	-0.093
-176.998	91.609	0.155	0.175
-175.983	-200.000	0.015	-0.085
-174.969	800.000	0.099	0.347
-173.954	21.918	0.157	0.128
-172.939	-4.256	0.221	0.153
-171.925	-200.000	0.005	-0.037
-170.910	-200.000	-0.002	-0.183
-169.896	-132.272	-0.102	-0.013
-168.881	59.577	0.288	0.284
-167.866	399.477	0.193	0.404
-166.852	291.036	-0.127	-0.230
-165.837	-69.836	-0.226	-0.086
-164.823	-19.181	0.058	-0.036
-163.808	117.637	0.059	-0.072
-162.793	-78.160	-0.078	0.027
-161.779	507.888	-0.083	-0.192
-160.764	326.535	0.009	-0.017
-159.750	56.013	0.148	0.144
-158.735	190.829	-0.050	-0.075
-157.720	-54.082	-0.086	-0.039
-156.706	140.413	0.217	0.287
-155.691	-14.977	0.064	0.041
-154.677	28.882	0.074	0.063
-153.662	66.311	-0.235	-0.239
-152.647	-106.963	-0.105	-0.023
-151.633	63.176	-0.143	-0.144
-150.618	2.483	0.137	0.099
-149.604	800.000	0.045	0.161
-148.589	-35.144	0.095	-0.052
-147.574	-200.000	0.014	0.254
-146.560	-103.263	-0.374	0.088
-145.545	120.310	-0.092	-0.114
-144.531	-200.000	0.041	0.261
-143.516	-200.000	0.059	0.309
-142.502	-152.025	-0.332	0.024
-141.487	800.000	0.094	0.359
-140.472	101.597	-0.035	-0.041
-139.458	-200.000	0.032	-0.170
-138.443	-14.539	-0.159	0.102
-137.429	25.561	0.286	0.238
-136.414	16.389	0.273	-0.215
-135.399	12.891	-0.083	0.064
-134.385	716.022	-0.028	-0.074
-133.370	-120.857	0.093	-0.016
-132.356	24.547	-0.027	0.023
-131.341	-200.000	0.085	0.463
-130.326	157.654	-0.215	0.297
-129.312	-200.000	-0.036	-0.172
-128.297	-196.487	0.194	0.001
-127.283	37.837	-0.085	-0.075
-126.268	-200.000	-0.010	0.099
-125.253	-162.439	0.461	0.023
-124.239	64.284	-0.114	-0.114
-123.224	-26.065	0.226	0.133
-122.210	45.912	-0.241	0.223
