DTS Sentinel unit serial number:	SN413079Multiplexer serial number:	ORYXHardware model number:	OX4-SRSoftware version number:	ORYX F/W v4.00 Oryx Data Collector v3.7.2.0data status	okinstallation	princeton_trtdifferential loss correction	single-endedforward channel	channel 4reverse channel	N/Adate	2019/09/17time	22:45:35forward acquisition time	60.00reverse acquisition time	0.00gamma	496.2192k internal	0.2330k external	0.2330temperature offset calibration	0.9992default loss term (dB/km)	0.3790temperature slope calibration	1.0000multiplexer offset coefficient	1.0000multiplexer slope coefficient	1.0000fibre end	0.00T internal ref (°C)	25.03T ext. ref 1 (°C)	0.17T ext. ref 2 (°C)	18.35length (m)	temperature (°C)	Stokes	anti-Stokes-747.200	250.295	0.205	0.351
-746.185	151.290	-0.237	0.325
-745.171	163.042	0.080	0.113
-744.156	-47.380	-0.190	0.093
-743.142	-140.318	0.193	0.020
-742.127	17.688	-0.355	0.284
-741.112	86.475	0.256	0.284
-740.098	124.821	-0.231	0.293
-739.083	-134.252	0.082	0.010
-738.069	232.962	-0.167	0.277
-737.054	-200.000	-0.022	-0.415
-736.039	-192.701	-0.112	-0.001
-735.025	-10.513	-0.221	0.148
-734.010	22.688	0.250	-0.206
-732.996	-53.951	-0.239	0.109
-731.981	-200.000	-0.032	0.468
-730.966	513.383	0.045	0.105
-729.952	-143.402	-0.491	0.047
-728.937	800.000	-0.184	-0.572
-727.923	-200.000	-0.046	0.244
-726.908	167.218	0.036	-0.051
-725.894	90.861	-0.104	0.118
-724.879	60.310	-0.216	-0.215
-723.864	-11.848	-0.170	-0.112
-722.850	-200.000	0.028	-0.204
-721.835	-87.203	-0.218	-0.067
-720.821	-144.345	-0.267	-0.025
-719.806	-42.657	0.232	0.119
-718.791	-200.000	0.032	-0.215
-717.777	-62.023	0.206	0.086
-716.762	-200.000	-0.005	0.068
-715.748	-49.330	-0.074	-0.035
-714.733	-32.065	-0.356	-0.200
-713.718	-72.835	-0.384	0.142
-712.704	800.000	0.147	0.428
-711.689	-56.050	-0.385	0.172
-710.675	-125.446	-0.238	0.037
-709.660	-200.000	0.025	-0.209
-708.645	-133.938	-0.166	-0.021
-707.631	-200.000	-0.026	0.294
-706.616	-200.000	-0.008	-0.125
-705.602	188.600	0.036	-0.054
-704.587	800.000	-0.035	0.146
-703.572	261.702	-0.042	0.074
-702.558	-146.931	0.201	0.017
-701.543	225.470	0.136	0.222
-700.529	-17.034	-0.143	-0.091
-699.514	53.246	0.130	0.125
-698.499	142.718	0.042	0.056
-697.485	-4.699	0.264	-0.183
-696.470	119.003	0.302	-0.375
-695.456	-200.000	-0.026	-0.149
-694.441	-48.444	0.117	0.057
-693.426	800.000	0.016	-0.065
-692.412	-94.966	-0.129	-0.035
-691.397	-200.000	0.003	0.050
-690.383	-144.804	-0.326	-0.030
-689.368	22.043	0.124	-0.101
-688.354	29.024	0.280	-0.239
-687.339	4.582	-0.060	-0.044
-686.324	703.337	-0.106	0.282
-685.310	800.000	0.077	0.265
-684.295	398.858	-0.071	-0.149
-683.281	423.321	-0.146	-0.315
-682.266	-200.000	0.050	-0.491
-681.251	-126.478	-0.143	-0.021
-680.237	-200.000	0.019	0.156
-679.222	-200.000	-0.058	-0.388
-678.208	800.000	0.082	-0.317
-677.193	-82.335	0.242	-0.079
-676.178	362.032	-0.046	-0.092
-675.164	356.353	0.081	-0.161
-674.149	73.404	0.052	-0.054
-673.135	-36.099	-0.168	0.091
-672.120	-200.000	0.012	0.088
-671.105	-200.000	-0.015	0.146
-670.091	143.785	0.133	-0.178
-669.076	87.273	0.094	0.104
-668.062	800.000	0.086	0.311
-667.047	-43.402	-0.112	-0.057
-666.032	76.084	-0.231	0.245
-665.018	505.283	0.108	-0.250
-664.003	-200.000	0.001	0.113
-662.989	48.603	-0.190	0.179
-661.974	75.562	-0.047	0.050
-660.959	799.346	-0.168	0.466
-659.945	-147.879	0.156	0.013
-658.930	-180.501	-0.064	0.001
-657.916	54.646	0.247	0.239
-656.901	-110.117	0.231	-0.048
-655.886	145.952	0.033	-0.045
-654.872	101.339	-0.013	0.016
-653.857	136.063	0.280	0.367
-652.843	69.665	-0.023	-0.024
-651.828	-200.000	-0.006	-0.370
-650.814	-116.828	0.139	-0.025
-649.799	5.069	-0.331	0.244
-648.784	61.168	-0.156	0.155
-647.770	-200.000	-0.032	0.302
-646.755	728.744	-0.086	0.231
-645.741	613.917	-0.073	0.183
-644.726	-115.086	0.257	-0.049
-643.711	53.481	-0.148	0.142
-642.697	464.115	0.050	0.112
-641.682	-26.859	0.272	0.159
-640.668	44.030	-0.227	0.209
-639.653	-93.365	0.399	0.111
-638.638	-200.000	-0.028	-0.235
-637.624	800.000	0.064	-0.189
-636.609	-92.589	0.258	0.073
-635.595	65.471	-0.210	0.213
-634.580	12.043	-0.249	0.192
-633.565	-140.811	0.420	-0.043
-632.551	-125.969	-0.252	-0.038
-631.536	-65.868	0.176	-0.071
-630.522	-141.606	0.035	-0.004
-629.507	133.472	-0.085	0.110
-628.492	383.068	0.235	0.484
-627.478	70.350	-0.126	-0.131
-626.463	-38.298	0.238	-0.127
-625.449	-42.087	-0.308	0.158
-624.434	87.711	-0.226	0.251
-623.419	-200.000	0.092	-0.417
-622.405	56.721	-0.010	0.010
-621.390	-50.167	0.135	-0.064
-620.376	-80.228	-0.174	-0.058
-619.361	60.828	-0.152	-0.151
-618.346	-137.707	0.342	-0.039
-617.332	-32.388	0.192	0.107
-616.317	121.181	0.238	0.296
-615.303	-73.945	0.098	0.035
-614.288	408.591	-0.080	-0.169
-613.273	-172.931	0.199	-0.006
-612.259	-200.000	-0.001	-0.200
-611.244	69.106	-0.241	-0.249
-610.230	-11.600	0.016	-0.010
-609.215	-200.000	-0.047	0.470
-608.201	79.990	-0.246	-0.264
-607.186	91.524	-0.323	-0.363
-606.171	-169.458	0.093	0.003
-605.157	-200.000	-0.003	0.136
-604.142	56.853	-0.059	-0.058
-603.128	-200.000	-0.022	0.369
-602.113	-89.565	-0.406	0.119
-601.098	-200.000	0.031	0.180
-600.084	800.000	-0.089	0.304
-599.069	-128.080	-0.216	-0.031
-598.055	800.000	-0.046	-0.136
-597.040	289.720	-0.119	-0.217
-596.025	-200.000	-0.003	0.053
-595.011	15.065	0.230	-0.180
-593.996	231.154	-0.068	-0.111
-592.982	236.329	-0.082	-0.135
-591.967	267.913	-0.175	-0.307
-590.952	449.179	0.127	0.281
-589.938	-103.739	-0.083	-0.019
-588.923	-19.871	0.198	0.123
-587.909	-32.184	-0.229	-0.128
-586.894	102.983	-0.215	-0.252
-585.879	-200.000	-0.005	-0.144
-584.865	181.748	0.189	0.278
-583.850	-200.000	-0.005	0.094
-582.836	16.438	-0.096	-0.076
-581.821	-44.678	-0.184	-0.092
-580.806	10.949	0.233	0.178
-579.792	-200.000	0.031	-0.275
-578.777	195.703	-0.067	-0.101
-577.763	31.025	-0.340	-0.291
-576.748	800.000	-0.059	0.247
-575.733	2.276	0.330	0.239
-574.719	60.024	-0.282	0.279
-573.704	-82.917	0.236	0.076
-572.690	103.898	0.270	-0.317
-571.675	17.034	-0.057	-0.045
-570.661	-200.000	0.007	-0.047
-569.646	-19.498	0.302	-0.187
-568.631	800.000	0.099	0.322
-567.617	-42.876	-0.245	0.124
-566.602	800.000	-0.121	0.350
-565.588	-21.933	0.148	0.090
-564.573	-90.347	0.192	0.056
-563.558	528.890	0.138	-0.326
-562.544	43.915	0.094	-0.086
-561.529	261.880	-0.183	0.318
-560.515	238.905	-0.120	0.200
-559.500	-20.529	-0.258	-0.158
-558.485	-109.087	-0.449	0.096
-557.471	-33.279	-0.322	0.178
-556.456	-0.864	0.168	-0.119
-555.442	-148.188	-0.373	0.031
-554.427	-200.000	-0.079	-0.370
-553.412	-200.000	-0.001	0.236
-552.398	176.825	0.057	-0.083
-551.383	5.390	-0.314	-0.231
-550.369	800.000	0.077	0.326
-549.354	-14.198	0.061	-0.040
-548.339	800.000	-0.050	-0.190
-547.325	-200.000	-0.101	0.456
-546.310	-174.482	-0.288	-0.008
-545.296	-32.733	0.399	0.222
-544.281	207.441	0.144	-0.224
-543.266	-181.794	-0.232	-0.004
-542.252	800.000	0.044	0.157
-541.237	278.791	0.076	0.136
-540.223	-138.729	-0.449	-0.049
-539.208	-200.000	-0.002	0.364
-538.193	-67.255	0.140	0.055
-537.179	-75.417	-0.226	-0.080
-536.164	-52.986	0.241	-0.111
-535.150	194.174	0.186	-0.282
-534.135	366.646	-0.060	0.121
-533.121	-71.381	0.577	0.216
-532.106	144.260	0.194	-0.259
-531.091	465.846	0.152	-0.340
-530.077	-31.778	0.025	-0.014
-529.062	12.675	0.148	0.114
-528.048	-60.728	-0.131	0.055
-527.033	263.290	-0.025	-0.043
-526.018	-45.191	0.358	-0.177
-525.004	160.293	-0.091	-0.127
-523.989	2.950	0.080	0.058
-522.975	90.666	-0.092	-0.103
-521.960	-200.000	-0.005	0.349
-520.945	-73.761	0.177	-0.064
-519.931	800.000	0.048	-0.147
-518.916	297.515	-0.042	-0.077
-517.902	-56.651	-0.338	-0.150
-516.887	29.977	-0.151	0.128
-515.872	-200.000	-0.001	-0.201
-514.858	-82.693	0.107	0.035
-513.843	46.416	0.326	0.302
-512.829	552.595	0.007	-0.016
-511.814	308.083	0.039	-0.072
-510.799	237.126	-0.164	-0.271
-509.785	9.427	0.143	0.108
-508.770	-200.000	-0.011	0.233
-507.756	-147.626	0.040	-0.003
-506.741	335.735	0.047	0.091
-505.726	-200.000	0.000	0.017
-504.712	-200.000	-0.001	-0.085
-503.697	174.310	-0.093	-0.134
-502.683	-56.758	-0.148	0.066
-501.668	20.186	0.119	-0.096
-500.653	409.263	0.150	-0.316
-499.639	356.411	0.158	0.313
-498.624	-200.000	0.033	-0.412
-497.610	-68.314	0.104	0.041
-496.595	-200.000	0.009	-0.171
-495.581	602.448	0.062	0.154
-494.566	-15.916	-0.241	0.153
-493.551	-3.604	0.125	-0.087
-492.537	-33.975	0.221	0.122
-491.522	19.687	-0.230	0.185
-490.508	-200.000	0.019	0.117
-489.493	35.664	0.217	-0.190
-488.478	576.081	-0.105	-0.257
-487.464	-113.953	-0.184	-0.036
-486.449	-200.000	-0.011	0.139
-485.435	78.462	-0.103	0.110
-484.420	-120.734	-0.229	-0.039
-483.405	800.000	0.027	-0.115
-482.391	-106.674	0.489	-0.108
-481.376	-60.935	0.232	0.098
-480.362	71.730	-0.071	-0.074
-479.347	-33.390	-0.053	-0.029
-478.332	-22.847	0.061	-0.037
-477.318	-83.890	-0.192	0.061
-476.303	-200.000	-0.034	-0.255
-475.289	-139.630	0.336	-0.036
-474.274	-200.000	0.027	0.379
-473.259	-200.000	-0.007	0.110
-472.245	-200.000	-0.001	0.144
-471.230	-200.000	0.011	0.220
-470.216	-98.581	-0.136	-0.035
-469.201	-80.145	-0.241	-0.080
-468.186	-109.509	-0.235	0.049
-467.172	14.561	0.172	-0.134
-466.157	-108.809	0.250	-0.053
-465.143	-54.880	-0.158	-0.071
-464.128	-26.217	-0.132	-0.077
-463.113	800.000	-0.092	-0.348
-462.099	800.000	0.038	-0.129
-461.084	388.042	-0.131	-0.271
-460.070	201.086	-0.122	0.187
-459.055	-91.633	0.465	-0.132
-458.040	800.000	-0.082	0.226
-457.026	-84.601	0.265	0.083
-456.011	8.850	-0.266	-0.200
-454.997	-20.477	-0.115	0.070
-453.982	-81.125	0.171	0.056
-452.968	-65.469	-0.278	0.111
-451.953	-9.711	0.124	0.082
-450.938	42.224	0.149	-0.135
-449.924	54.453	0.139	0.133
-448.909	-55.167	-0.136	-0.061
-447.895	170.402	0.200	-0.286
-446.880	303.772	0.070	0.129
-445.865	800.000	0.072	0.248
-444.851	166.278	-0.123	-0.174
-443.836	395.818	0.068	-0.141
-442.822	304.994	0.176	0.325
-441.807	-94.913	0.062	-0.017
-440.792	-26.234	0.039	0.023
-439.778	800.000	-0.049	-0.138
-438.763	-162.322	-0.405	0.020
-437.749	320.786	-0.030	-0.058
-436.734	-47.618	-0.077	-0.037
-435.719	-49.100	-0.024	-0.011
-434.705	-127.580	-0.188	-0.027
-433.690	-200.000	0.049	-0.271
-432.676	530.326	-0.073	-0.173
-431.661	265.836	-0.138	0.239
-430.646	4.494	-0.160	-0.117
-429.632	-83.946	-0.014	-0.004
-428.617	196.024	0.091	0.138
-427.603	78.670	0.114	0.121
-426.588	7.122	0.059	0.044
-425.573	-48.932	-0.110	-0.052
-424.559	33.750	0.173	0.150
-423.544	-183.385	-0.231	-0.004
-422.530	800.000	0.062	0.259
-421.515	93.952	-0.093	-0.105
-420.500	800.000	0.065	0.257
-419.486	379.264	-0.104	0.212
-418.471	-176.969	-0.161	0.004
-417.457	-52.412	0.322	0.148
-416.442	112.078	-0.281	0.338
-415.428	-11.791	0.332	0.217
-414.413	-200.000	-0.006	-0.199
-413.398	800.000	0.034	-0.113
-412.384	-200.000	-0.071	0.416
-411.369	-129.703	-0.195	-0.027
-410.355	800.000	-0.115	0.360
-409.340	-6.397	0.059	-0.040
-408.325	292.847	-0.065	-0.118
-407.311	358.961	0.147	-0.293
-406.296	-52.954	0.268	0.123
-405.282	443.057	0.154	-0.335
-404.267	800.000	0.044	-0.185
-403.252	-17.346	-0.232	-0.145
-402.238	800.000	-0.033	0.095
-401.223	113.032	0.079	-0.095
-400.209	-200.000	0.000	0.247
-399.194	67.187	0.360	-0.365
-398.179	-58.438	0.332	-0.143
-397.165	-69.218	0.116	-0.044
-396.150	-6.472	0.119	-0.081
-395.136	197.951	-0.162	-0.246
-394.121	140.037	-0.074	0.097
-393.106	-137.887	-0.130	0.014
-392.092	-200.000	-0.009	0.081
-391.077	144.002	-0.158	0.209
-390.063	238.054	0.245	-0.404
-389.048	-200.000	-0.074	-0.602
-388.033	94.846	0.112	-0.126
-387.019	-200.000	0.005	-0.200
-386.004	-155.795	0.283	0.018
-384.990	800.000	0.027	0.079
-383.975	-194.095	-0.168	0.001
-382.960	394.857	0.156	0.322
-381.946	800.000	-0.043	-0.126
-380.931	-200.000	-0.018	0.140
-379.917	-200.000	-0.027	-0.131
-378.902	296.877	-0.117	0.212
-377.888	5.496	0.113	-0.083
-376.873	-73.308	0.079	0.029
-375.858	-200.000	0.043	-0.199
-374.844	-140.622	-0.183	0.019
-373.829	339.704	0.081	-0.156
-372.815	-200.000	-0.000	0.255
-371.800	50.324	0.132	-0.124
-370.785	96.399	0.209	0.237
-369.771	358.804	-0.073	-0.145
-368.756	800.000	0.035	-0.129
-367.742	-173.617	0.278	-0.008
-366.727	148.140	-0.161	0.216
-365.712	50.863	-0.162	-0.152
-364.698	-132.150	-0.049	-0.006
-363.683	-66.964	-0.143	0.056
-362.669	255.209	-0.143	0.244
-361.654	-159.415	-0.306	0.017
-360.639	-3.300	0.207	-0.143
-359.625	284.720	0.144	0.257
-358.610	-200.000	0.017	-0.283
-357.596	-200.000	-0.062	0.000
-356.581	-200.000	-0.026	0.259
-355.566	-187.092	-0.112	0.002
-354.552	-79.713	0.218	0.073
-353.537	800.000	-0.110	0.342
-352.523	9.518	0.184	-0.138
-351.508	800.000	-0.146	0.523
-350.493	117.482	0.193	0.235
-349.479	-200.000	-0.032	-0.262
-348.464	361.841	-0.059	-0.118
-347.450	-68.433	-0.168	0.065
-346.435	-200.000	-0.009	-0.085
-345.420	-111.539	-0.286	0.058
-344.406	387.165	-0.126	-0.257
-343.391	727.473	0.076	-0.200
-342.377	-200.000	0.072	-0.421
-341.362	-72.994	0.226	0.082
-340.348	306.905	0.082	0.151
-339.333	511.738	0.038	-0.088
-338.318	-36.217	0.293	-0.157
-337.304	-200.000	0.026	-0.295
-336.289	236.742	0.200	-0.328
-335.275	-200.000	-0.052	0.353
-334.260	2.467	-0.322	-0.231
-333.245	-200.000	0.001	0.045
-332.231	800.000	-0.095	-0.311
-331.216	-200.000	-0.002	-0.113
-330.202	53.795	-0.386	0.367
-329.187	-200.000	0.035	-0.455
-328.172	-200.000	-0.000	-0.287
-327.158	360.527	-0.004	-0.007
-326.143	800.000	0.012	0.048
-325.129	800.000	0.077	0.237
-324.114	800.000	0.093	-0.259
-323.099	-200.000	0.006	0.167
-322.085	-200.000	-0.028	0.248
-321.070	800.000	0.066	0.230
-320.056	251.026	-0.157	0.265
-319.041	92.485	0.247	-0.276
-318.026	271.312	0.026	0.045
-317.012	800.000	-0.035	0.134
-315.997	-200.000	0.014	0.134
-314.983	97.809	-0.141	0.161
-313.968	163.005	0.224	0.312
-312.953	183.173	0.220	0.322
-311.939	266.822	0.145	-0.251
-310.924	30.275	-0.102	-0.086
-309.910	-165.263	0.465	-0.020
-308.895	-65.021	-0.410	-0.164
-307.880	135.758	0.151	0.194
-306.866	-181.721	0.445	0.008
-305.851	39.982	-0.196	0.175
-304.837	271.898	-0.120	-0.210
-303.822	278.642	0.041	0.072
-302.807	95.444	0.040	0.045
-301.793	33.187	0.219	-0.188
-300.778	-200.000	-0.032	0.150
-299.764	800.000	-0.094	0.313
-298.749	402.011	0.087	-0.182
-297.735	192.164	-0.133	0.199
-296.720	0.080	0.292	0.206
-295.705	391.516	0.093	0.190
-294.691	-131.303	-0.114	-0.015
-293.676	-7.521	-0.151	0.101
-292.662	-88.453	0.240	-0.071
-291.647	-27.588	-0.203	-0.117
-290.632	-200.000	0.066	-0.361
-289.618	-200.000	0.000	0.246
-288.603	-200.000	0.310	0.001
-287.589	-85.319	-0.198	0.061
-286.574	1.307	-0.073	-0.052
-285.559	109.448	0.216	0.255
-284.545	59.654	0.377	0.368
-283.530	-140.795	-0.376	-0.038
-282.516	-18.224	0.297	-0.184
-281.501	-12.669	0.329	-0.212
-280.486	99.086	-0.183	0.209
-279.472	-169.167	-0.364	-0.013
-278.457	174.445	-0.164	-0.234
-277.443	-145.766	0.055	-0.005
-276.428	800.000	-0.083	-0.247
-275.413	-200.000	0.005	-0.108
-274.399	-151.895	0.258	-0.019
-273.384	46.126	-0.217	-0.199
-272.370	800.000	-0.017	0.051
-271.355	416.179	-0.121	-0.254
-270.340	800.000	0.045	-0.179
-269.326	47.101	-0.170	0.156
-268.311	-120.630	-0.226	-0.038
-267.297	-200.000	0.040	0.181
-266.282	391.078	0.111	-0.228
-265.267	-32.123	0.384	-0.212
-264.253	-61.938	-0.240	0.099
-263.238	-33.975	-0.060	0.032
-262.224	177.633	-0.116	0.167
-261.209	-31.002	-0.273	-0.152
-260.195	-200.000	-0.083	-0.512
-259.180	185.947	0.098	0.144
-258.165	30.899	-0.191	-0.161
-257.151	-200.000	0.007	-0.142
-256.136	-200.000	0.012	0.388
-255.122	-90.283	-0.044	0.013
-254.107	327.489	0.114	-0.217
-253.092	402.903	0.014	-0.029
-252.078	-200.000	-0.003	0.027
-251.063	445.919	0.068	0.148
-250.049	-200.000	0.007	-0.091
-249.034	-169.436	0.189	0.007
-248.019	-200.000	0.009	-0.230
-247.005	-200.000	-0.034	0.191
-245.990	16.603	0.327	-0.256
-244.976	-5.268	0.169	0.115
-243.961	-63.139	-0.102	-0.042
-242.946	-54.403	0.325	-0.146
-241.932	97.183	-0.204	-0.231
-240.917	587.096	0.066	-0.161
-239.903	607.858	-0.042	-0.104
-238.888	-200.000	-0.029	0.135
-237.873	-200.000	0.011	-0.320
-236.859	318.377	-0.054	0.101
-235.844	335.987	-0.242	0.463
-234.830	-67.817	0.046	-0.018
-233.815	542.624	-0.066	-0.154
-232.800	-200.000	0.031	-0.204
-231.786	231.024	-0.157	-0.254
-230.771	-8.795	0.305	-0.202
-229.757	755.972	-0.024	-0.063
-228.742	-200.000	-0.019	0.109
-227.727	-200.000	-0.071	-0.333
-226.713	800.000	-0.035	0.150
-225.698	27.098	-0.115	-0.095
-224.684	328.510	0.128	0.243
-223.669	384.859	0.021	-0.043
-222.655	575.122	0.012	-0.028
-221.640	-5.325	0.243	-0.165
-220.625	340.572	0.159	0.307
-219.611	-26.599	-0.212	-0.123
-218.596	-27.083	-0.215	0.123
-217.582	-58.380	-0.348	-0.149
-216.567	-120.657	-0.202	-0.034
-215.552	-32.308	0.109	-0.060
-214.538	5.434	-0.084	0.061
-213.523	75.511	-0.155	0.161
-212.509	163.669	-0.032	-0.044
-211.494	-77.541	0.226	-0.077
-210.479	24.664	0.289	-0.236
-209.465	-200.000	0.012	-0.131
-208.450	122.918	0.221	-0.273
-207.436	63.929	-0.186	0.185
-206.421	186.754	0.128	-0.188
-205.406	-200.000	0.017	-0.343
-204.392	-200.000	-0.038	-0.334
-203.377	-200.000	-0.012	-0.126
-202.363	10.799	-0.260	0.196
-201.348	-78.036	-0.266	0.090
-200.333	45.864	0.241	0.220
-199.319	280.913	-0.193	0.340
-198.304	-108.471	0.191	-0.040
-197.290	-168.376	0.198	-0.008
-196.275	12.159	-0.059	-0.045
-195.260	-55.081	-0.185	0.082
-194.246	34.040	-0.012	0.011
-193.231	-200.000	0.040	0.268
-192.217	-200.000	-0.002	-0.050
-191.202	678.009	0.060	0.153
-190.187	53.659	-0.090	-0.085
-189.173	20.839	0.178	0.142
-188.158	-96.406	-0.337	-0.088
-187.144	-18.695	0.116	0.071
-186.129	-200.000	-0.012	0.131
-185.114	371.873	-0.067	0.134
-184.100	-117.086	-0.098	0.018
-183.085	62.617	-0.178	-0.176
-182.071	81.669	-0.084	0.089
-181.056	-34.833	0.250	0.135
-180.042	64.113	0.121	0.120
-179.027	-200.000	0.004	0.278
-178.012	86.583	0.150	-0.163
-176.998	-73.471	-0.301	0.108
-175.983	-200.000	-0.038	0.322
-174.969	-81.812	0.283	0.091
-173.954	-123.923	-0.426	-0.066
-172.939	299.519	-0.138	-0.251
-171.925	293.836	0.106	-0.191
-170.910	-139.145	0.015	-0.002
-169.896	800.000	0.017	0.047
-168.881	194.324	-0.047	-0.070
-167.866	62.571	-0.192	0.189
-166.852	-147.950	-0.155	-0.013
-165.837	800.000	0.111	0.346
-164.823	3.148	-0.096	0.069
-163.808	-13.519	0.145	0.093
-162.793	25.099	0.233	-0.190
-161.779	-55.768	-0.132	0.058
-160.764	-142.979	-0.560	0.053
-159.750	389.817	0.112	0.228
-158.735	-105.628	0.324	0.072
-157.720	-12.549	0.255	-0.164
-156.706	-83.259	0.184	0.058
-155.691	-200.000	0.007	-0.135
-154.677	105.261	-0.099	-0.116
-153.662	-24.435	0.050	0.029
-152.647	-85.743	-0.160	-0.049
-151.633	34.522	-0.193	-0.166
-150.618	-197.916	-0.220	-0.001
-149.604	15.412	0.215	0.166
-148.589	-100.139	0.369	0.090
-147.574	-200.000	-0.008	0.472
-146.560	800.000	-0.080	0.280
-145.545	-200.000	0.024	0.258
-144.531	165.364	0.085	0.118
-143.516	479.962	-0.061	-0.136
-142.502	30.119	0.575	-0.482
-141.487	-200.000	-0.032	-0.149
-140.472	-200.000	0.031	-0.138
-139.458	29.349	-0.208	-0.174
-138.443	-200.000	-0.022	-0.302
-137.429	50.209	-0.251	0.233
-136.414	307.960	0.043	-0.079
-135.399	-200.000	-0.026	0.121
-134.385	800.000	-0.073	-0.211
-133.370	345.371	-0.023	-0.044
-132.356	-200.000	0.013	-0.151
-131.341	-13.992	0.177	0.112
-130.326	114.906	0.055	0.066
-129.312	800.000	-0.048	0.154
-128.297	800.000	0.094	-0.327
-127.283	10.974	-0.152	-0.114
-126.268	800.000	-0.091	-0.389
-125.253	-200.000	-0.020	-0.212
-124.239	-52.078	-0.521	-0.238
-123.224	-128.080	0.115	0.016
-122.210	146.162	0.063	-0.083
-121.195	369.505	0.037	0.073
