DTS Sentinel unit serial number:	SN413079Multiplexer serial number:	ORYXHardware model number:	OX4-SRSoftware version number:	ORYX F/W v4.00 Oryx Data Collector v3.7.2.0data status	okinstallation	princeton_trtdifferential loss correction	single-endedforward channel	channel 4reverse channel	N/Adate	2019/09/13time	17:21:35forward acquisition time	60.00reverse acquisition time	0.00gamma	496.2192k internal	0.2290k external	0.2290temperature offset calibration	1.0208default loss term (dB/km)	0.3790temperature slope calibration	1.0000multiplexer offset coefficient	1.0000multiplexer slope coefficient	1.0000fibre end	0.00T internal ref (°C)	36.03T ext. ref 1 (°C)	4.78T ext. ref 2 (°C)	32.91length (m)	temperature (°C)	Stokes	anti-Stokes-747.200	15.027	-0.137	-0.110
-746.185	382.456	0.055	0.116
-745.171	-148.610	-0.198	-0.017
-744.156	-200.000	0.025	0.367
-743.142	-200.000	0.082	-0.401
-742.127	-70.204	-0.270	-0.105
-741.112	-70.948	-0.219	0.084
-740.098	800.000	-0.038	0.127
-739.083	-60.033	0.181	-0.079
-738.069	302.851	0.097	0.183
-737.054	-72.571	0.295	0.111
-736.039	179.493	0.024	-0.036
-735.025	-200.000	0.001	-0.081
-734.010	-45.001	0.105	-0.053
-732.996	774.840	0.042	-0.117
-731.981	-200.000	0.017	-0.445
-730.966	8.831	0.168	-0.130
-729.952	-113.596	0.248	-0.050
-728.937	123.528	-0.277	0.356
-727.923	-84.851	0.218	-0.070
-726.908	800.000	-0.044	0.188
-725.894	-200.000	-0.005	-0.108
-724.879	-155.669	-0.198	-0.013
-723.864	303.113	-0.153	0.291
-722.850	-200.000	-0.001	-0.074
-721.835	25.131	-0.050	0.042
-720.821	-12.280	0.155	-0.104
-719.806	-32.317	-0.085	0.048
-718.791	7.612	-0.088	0.067
-717.777	527.486	-0.100	0.242
-716.762	800.000	-0.019	-0.081
-715.748	10.206	0.224	0.174
-714.733	-62.216	-0.302	0.129
-713.718	-102.839	-0.184	-0.045
-712.704	493.520	-0.128	-0.300
-711.689	-3.095	-0.208	0.149
-710.675	-119.340	0.010	-0.002
-709.660	-115.748	-0.305	-0.058
-708.645	353.383	0.114	-0.232
-707.631	-34.284	0.107	-0.060
-706.616	534.357	-0.086	0.208
-705.602	-172.846	0.315	-0.010
-704.587	-32.378	-0.178	-0.101
-703.572	471.287	0.153	-0.352
-702.558	-86.310	0.241	0.076
-701.543	226.595	-0.196	-0.326
-700.529	608.503	0.035	-0.089
-699.514	-99.078	0.309	-0.080
-698.499	-0.920	-0.127	-0.092
-697.485	-200.000	-0.025	0.291
-696.470	-5.856	-0.040	0.028
-695.456	-110.426	0.327	0.069
-694.441	-66.324	-0.114	0.046
-693.426	-170.227	-0.118	-0.004
-692.412	-200.000	0.002	0.076
-691.397	20.755	0.222	-0.183
-690.383	401.121	-0.140	-0.301
-689.368	227.297	-0.044	0.073
-688.354	-45.996	-0.334	0.168
-687.339	-16.938	-0.241	0.155
-686.324	3.540	-0.152	0.113
-685.310	376.970	-0.094	0.196
-684.295	-12.860	-0.184	0.122
-683.281	725.006	0.111	-0.302
-682.266	-51.968	0.110	0.052
-681.251	-169.857	0.120	-0.004
-680.237	223.895	0.290	-0.478
-679.222	269.154	0.069	0.123
-678.208	86.393	-0.149	-0.168
-677.193	64.220	-0.176	0.182
-676.178	-137.321	-0.208	-0.024
-675.164	-200.000	0.016	0.131
-674.149	-100.014	0.246	-0.063
-673.135	-200.000	0.027	-0.276
-672.120	-200.000	0.009	-0.061
-671.105	800.000	-0.074	0.274
-670.091	-143.571	0.157	-0.015
-669.076	-200.000	-0.094	0.505
-668.062	-25.570	-0.237	-0.143
-667.047	-106.763	-0.444	-0.101
-666.032	-197.162	-0.080	0.001
-665.018	-11.879	0.093	-0.063
-664.003	-147.663	-0.236	-0.020
-662.989	-170.646	-0.178	0.006
-661.974	-49.782	-0.115	-0.056
-660.959	-162.913	-0.046	0.002
-659.945	800.000	0.040	-0.135
-658.930	-200.000	0.002	-0.051
-657.916	-75.201	0.160	-0.058
-656.901	-51.590	-0.197	0.094
-655.886	-97.421	-0.375	-0.100
-654.872	-77.357	-0.308	-0.109
-653.857	-82.030	0.275	0.092
-652.843	-59.906	0.180	0.078
-651.828	149.019	-0.213	-0.294
-650.814	-200.000	-0.028	-0.148
-649.799	46.675	0.172	0.163
-648.784	-136.089	-0.374	-0.045
-647.770	266.278	0.067	0.120
-646.755	-152.521	-0.129	-0.009
-645.741	-58.751	-0.147	0.065
-644.726	-64.760	-0.417	-0.172
-643.711	-114.653	-0.249	0.049
-642.697	-2.250	-0.167	0.119
-641.682	-200.000	0.016	0.145
-640.668	598.364	-0.088	0.222
-639.653	800.000	-0.067	-0.247
-638.638	133.104	0.106	-0.139
-637.624	-161.642	0.093	0.005
-636.609	160.769	0.028	0.040
-635.595	259.707	-0.110	-0.193
-634.580	-61.107	-0.112	-0.048
-633.565	132.529	-0.261	0.343
-632.551	-112.402	0.289	-0.059
-631.536	-149.484	-0.275	0.022
-630.522	-8.639	-0.179	-0.122
-629.507	-200.000	0.053	0.346
-628.492	-139.998	-0.017	-0.002
-627.478	-200.000	0.031	-0.152
-626.463	-20.612	-0.240	0.150
-625.449	-24.955	0.170	-0.103
-624.434	800.000	0.099	-0.357
-623.419	-121.951	-0.396	-0.066
-622.405	-49.704	-0.187	-0.091
-621.390	30.602	0.234	-0.204
-620.376	58.572	-0.155	0.155
-619.361	-179.666	0.205	0.005
-618.346	175.283	0.163	-0.240
-617.332	-21.403	0.236	-0.147
-616.317	-13.245	0.175	0.116
-615.303	-43.757	0.138	0.071
-614.288	45.896	-0.052	-0.049
-613.273	-191.343	-0.279	-0.003
-612.259	-38.673	-0.283	-0.152
-611.244	336.001	0.024	-0.048
-610.230	169.740	-0.123	-0.179
-609.215	26.119	0.227	-0.193
-608.201	800.000	0.042	-0.129
-607.186	103.898	0.206	-0.246
-606.171	-200.000	-0.020	0.404
-605.157	-200.000	-0.002	0.299
-604.142	800.000	0.074	0.289
-603.128	203.418	0.113	0.179
-602.113	592.726	-0.039	-0.099
-601.098	89.892	-0.104	0.118
-600.084	226.837	-0.030	0.050
-599.069	105.513	0.158	-0.190
-598.055	-150.694	-0.256	-0.020
-597.040	231.386	-0.223	0.372
-596.025	-27.264	-0.129	0.076
-595.011	-200.000	0.033	0.183
-593.996	137.597	-0.029	-0.039
-592.982	-200.000	-0.048	0.283
-591.967	1.483	0.164	0.120
-590.952	-200.000	-0.008	-0.295
-589.938	255.295	0.068	-0.119
-588.923	88.676	0.050	-0.056
-587.909	-62.962	0.102	0.043
-586.894	-118.874	-0.308	0.055
-585.879	-127.158	-0.082	-0.012
-584.865	-160.726	0.078	0.004
-583.850	-36.947	0.080	0.044
-582.836	800.000	0.076	-0.281
-581.821	-138.092	0.283	-0.032
-580.806	2.178	0.338	-0.248
-579.792	-98.425	-0.246	-0.064
-578.777	-79.117	-0.183	-0.063
-577.763	-157.889	0.265	0.016
-576.748	-6.862	-0.145	0.100
-575.733	145.540	-0.153	0.208
-574.719	-60.955	-0.265	0.114
-573.704	116.433	0.107	0.133
-572.690	21.052	0.090	-0.074
-571.675	82.627	-0.116	-0.128
-570.661	307.632	0.121	-0.229
-569.646	-103.429	-0.117	0.028
-568.631	18.486	0.158	-0.128
-567.617	183.884	-0.089	0.134
-566.602	-200.000	0.045	-0.548
-565.588	-20.426	-0.200	0.125
-564.573	624.823	0.095	-0.245
-563.558	800.000	-0.072	-0.264
-562.544	139.951	0.154	0.207
-561.529	800.000	-0.064	-0.250
-560.515	800.000	0.048	0.187
-559.500	249.439	-0.073	-0.127
-558.485	-200.000	-0.022	-0.163
-557.471	-63.068	0.227	-0.095
-556.456	-200.000	0.072	0.425
-555.442	-62.630	0.316	-0.133
-554.427	85.288	-0.186	-0.208
-553.412	800.000	-0.023	-0.091
-552.398	-196.626	0.208	0.001
-551.383	88.909	-0.062	0.070
-550.369	427.978	0.099	0.218
-549.354	800.000	-0.091	0.389
-548.339	-199.907	0.043	-0.000
-547.325	800.000	-0.097	-0.344
-546.310	598.102	0.091	-0.229
-545.296	-200.000	-0.043	-0.319
-544.281	-22.398	0.065	0.040
-543.266	-138.437	-0.215	0.024
-542.252	58.224	-0.409	-0.407
-541.237	324.305	0.134	-0.260
-540.223	-53.419	-0.150	-0.070
-539.208	-31.703	0.156	-0.089
-538.193	345.340	0.101	0.201
-537.179	-200.000	0.018	-0.085
-536.164	629.481	-0.106	-0.273
-535.150	800.000	-0.051	0.188
-534.135	-200.000	0.013	-0.134
-533.121	-200.000	-0.018	0.485
-532.106	-73.923	0.487	-0.180
-531.091	49.555	0.276	-0.264
-530.077	119.478	0.026	-0.033
-529.062	222.976	-0.138	0.226
-528.048	-200.000	-0.003	0.304
-527.033	-1.046	-0.271	0.195
-526.018	-79.998	-0.120	-0.041
-525.004	-57.933	0.143	0.064
-523.989	800.000	-0.055	0.209
-522.975	391.513	0.092	0.193
-521.960	20.539	-0.069	0.057
-520.945	113.862	-0.134	-0.165
-519.931	800.000	0.062	0.232
-518.916	-101.481	0.156	0.039
-517.902	3.725	0.068	0.050
-516.887	800.000	-0.118	-0.412
-515.872	456.979	-0.069	-0.156
-514.858	39.209	0.125	-0.113
-513.843	11.058	-0.031	-0.024
-512.829	0.463	-0.220	0.160
-511.814	314.898	-0.108	0.206
-510.799	573.789	-0.048	0.119
-509.785	-88.526	-0.146	0.044
-508.770	-15.602	-0.118	-0.076
-507.756	145.616	0.094	0.128
-506.741	61.185	0.052	0.053
-505.726	389.169	-0.082	-0.173
-504.712	-56.199	0.459	-0.207
-503.697	-200.000	0.005	-0.298
-502.683	255.997	0.008	0.015
-501.668	-13.079	-0.386	0.255
-500.653	44.785	0.060	-0.056
-499.639	-130.913	-0.434	-0.059
-498.624	489.186	-0.009	-0.020
-497.610	-93.912	-0.196	0.055
-496.595	12.850	0.133	-0.104
-495.581	-126.343	-0.232	0.035
-494.566	-76.762	-0.406	0.144
-493.551	38.543	0.072	0.066
-492.537	-163.522	-0.316	0.015
-491.522	690.101	-0.047	-0.125
-490.508	800.000	0.048	-0.185
-489.493	-119.976	-0.315	-0.055
-488.478	-8.608	-0.117	-0.080
-487.464	-161.265	0.159	-0.008
-486.449	-73.093	-0.230	-0.085
-485.435	56.938	0.045	0.044
-484.420	800.000	0.031	0.131
-483.405	-200.000	0.014	-0.427
-482.391	-200.000	0.028	-0.345
-481.376	292.975	0.063	0.116
-480.362	-16.666	-0.105	0.068
-479.347	-44.946	-0.226	0.114
-478.332	-21.349	0.243	0.151
-477.318	-62.304	-0.313	-0.132
-476.303	306.786	-0.082	0.154
-475.289	279.319	-0.108	-0.195
-474.274	-45.391	-0.251	0.126
-473.259	220.953	-0.091	0.148
-472.245	20.044	0.048	-0.039
-471.230	-200.000	-0.007	-0.195
-470.216	-146.064	0.127	-0.011
-469.201	-82.750	0.050	-0.017
-468.186	225.550	-0.114	0.187
-467.172	-200.000	0.010	-0.198
-466.157	-50.984	0.169	-0.080
-465.143	-49.787	-0.240	-0.116
-464.128	-114.122	-0.256	0.050
-463.113	-200.000	0.045	0.407
-462.099	-108.168	0.466	0.102
-461.084	126.244	-0.038	0.049
-460.070	-200.000	-0.006	0.054
-459.055	-82.257	-0.419	0.138
-458.040	35.535	0.186	0.165
-457.026	-87.890	-0.356	0.108
-456.011	-20.212	-0.186	0.116
-454.997	800.000	0.100	0.280
-453.982	209.217	0.075	0.119
-452.968	45.731	0.104	0.097
-451.953	800.000	-0.037	-0.111
-450.938	-200.000	0.027	-0.333
-449.924	-86.398	0.295	0.092
-448.909	33.013	-0.049	-0.043
-447.895	-14.668	-0.139	-0.091
-446.880	-37.831	-0.396	-0.213
-445.865	-200.000	-0.004	0.119
-444.851	-87.582	-0.285	-0.087
-443.836	-120.476	-0.235	-0.040
-442.822	-200.000	-0.172	0.000
-441.807	800.000	0.053	0.184
-440.792	-69.221	-0.103	-0.040
-439.778	800.000	0.061	0.270
-438.763	-125.948	0.119	0.018
-437.749	74.721	0.338	-0.360
-436.734	800.000	0.085	-0.262
-435.719	-70.340	-0.055	-0.021
-434.705	-104.713	-0.184	-0.043
-433.690	149.123	0.096	0.132
-432.676	800.000	0.027	0.111
-431.661	-200.000	-0.002	-0.035
-430.646	-200.000	-0.037	-0.209
-429.632	-200.000	-0.023	0.159
-428.617	45.417	-0.084	-0.078
-427.603	800.000	0.084	0.332
-426.588	-200.000	-0.017	-0.382
-425.573	800.000	-0.055	0.164
-424.559	246.885	0.043	0.073
-423.544	-177.632	0.131	-0.003
-422.530	-33.796	-0.039	-0.022
-421.515	-9.370	0.229	0.155
-420.500	-26.199	0.271	0.161
-419.486	529.596	-0.050	0.119
-418.471	-200.000	-0.009	0.058
-417.457	-147.293	0.157	-0.013
-416.442	-62.015	0.172	-0.073
-415.428	800.000	0.021	-0.087
-414.413	239.341	0.041	0.068
-413.398	-30.267	0.175	0.100
-412.384	800.000	-0.035	0.139
-411.369	181.287	-0.141	-0.210
-410.355	-200.000	0.005	-0.042
-409.340	21.876	0.237	-0.195
-408.325	91.516	0.096	-0.110
-407.311	-88.025	-0.041	-0.012
-406.296	16.119	-0.104	0.083
-405.282	-68.888	-0.358	-0.140
-404.267	-200.000	0.002	-0.129
-403.252	-200.000	0.034	-0.203
-402.238	331.299	0.217	-0.423
-401.223	144.278	0.075	-0.102
-400.209	63.259	-0.119	-0.121
-399.194	800.000	0.049	-0.176
-398.179	494.290	-0.130	0.301
-397.165	800.000	0.037	0.134
-396.150	-149.843	0.108	-0.009
-395.136	-200.000	-0.063	0.365
-394.121	-38.656	-0.191	0.102
-393.106	-34.291	-0.309	0.172
-392.092	58.397	0.278	0.275
-391.077	105.171	-0.045	0.053
-390.063	164.690	0.214	0.305
-389.048	-88.293	-0.107	-0.032
-388.033	-144.807	0.155	-0.014
-387.019	-13.075	0.156	-0.102
-386.004	-176.907	0.078	-0.002
-384.990	318.909	-0.132	-0.253
-383.975	-86.143	0.361	-0.113
-382.960	-200.000	-0.002	0.194
-381.946	339.088	-0.052	-0.103
-380.931	256.004	0.083	0.144
-379.917	-200.000	-0.028	0.216
-378.902	-122.183	-0.201	-0.033
-377.888	-67.952	-0.144	-0.057
-376.873	-100.459	-0.310	-0.077
-375.858	247.101	0.080	0.136
-374.844	-63.910	-0.106	-0.044
-373.829	-200.000	0.000	0.169
-372.815	-200.000	0.028	-0.171
-371.800	800.000	0.014	0.059
-370.785	-143.281	-0.345	0.033
-369.771	217.856	-0.130	0.210
-368.756	48.929	0.224	-0.212
-367.742	-200.000	-0.007	-0.257
-366.727	-200.000	0.016	0.255
-365.712	-21.221	-0.061	0.038
-364.698	471.102	-0.156	0.354
-363.683	-56.335	-0.334	-0.150
-362.669	-8.786	0.274	0.186
-361.654	475.839	0.050	-0.114
-360.639	330.159	-0.198	-0.384
-359.625	-200.000	-0.018	-0.091
-358.610	14.861	0.287	0.227
-357.596	150.531	0.076	-0.104
-356.581	-23.643	-0.137	0.083
-355.566	-200.000	0.048	0.365
-354.552	-134.311	-0.330	-0.041
-353.537	-26.438	0.059	-0.035
-352.523	-200.000	-0.017	0.145
-351.508	41.066	0.143	0.130
-350.493	800.000	0.082	0.325
-349.479	-164.921	-0.278	-0.013
-348.464	72.964	-0.163	0.171
-347.450	-120.318	0.043	0.007
-346.435	-29.431	0.025	-0.014
-345.420	-200.000	-0.052	-0.372
-344.406	43.368	0.346	-0.318
-343.391	202.075	-0.042	-0.065
-342.377	-51.414	-0.077	0.036
-341.362	-200.000	0.015	0.316
-340.348	25.918	0.138	-0.116
-339.333	32.540	0.139	0.121
-338.318	-200.000	-0.022	-0.236
-337.304	129.687	0.082	-0.106
-336.289	-5.364	0.129	0.089
-335.275	179.424	0.065	0.096
-334.260	17.617	0.289	-0.232
-333.245	-121.747	-0.037	-0.006
-332.231	-117.511	0.114	0.021
-331.216	-200.000	-0.031	-0.178
-330.202	-104.062	-0.214	0.050
-329.187	322.551	0.114	-0.220
-328.172	-87.811	0.161	-0.049
-327.158	-200.000	0.116	0.000
-326.143	800.000	0.108	0.443
-325.129	41.563	0.067	0.061
-324.114	-200.000	0.003	0.042
-323.099	-145.800	0.191	0.017
-322.085	-175.932	-0.201	0.005
-321.070	-5.047	-0.334	-0.231
-320.056	39.059	-0.247	0.223
-319.041	117.261	0.134	-0.166
-318.026	27.868	0.302	-0.256
-317.012	800.000	0.093	-0.363
-315.997	800.000	-0.030	0.093
-314.983	242.897	0.153	-0.258
-313.968	-6.909	-0.067	0.046
-312.953	-13.860	0.396	0.258
-311.939	464.808	0.075	0.170
-310.924	161.587	0.221	0.311
-309.910	-41.198	0.213	0.111
-308.895	68.627	0.132	0.136
-307.880	169.113	0.037	-0.053
-306.866	11.450	0.061	-0.047
-305.851	534.017	0.120	0.286
-304.837	-0.976	0.078	-0.055
-303.822	-7.092	0.006	0.004
-302.807	-32.176	0.138	0.078
-301.793	-60.046	0.115	0.050
-300.778	-168.236	-0.017	-0.001
-299.764	-200.000	0.041	-0.194
-298.749	-13.627	0.363	0.237
-297.735	19.060	-0.196	-0.159
-296.720	-98.653	-0.319	-0.082
-295.705	481.364	0.153	0.349
-294.691	7.015	0.289	0.217
-293.676	-5.127	-0.148	0.102
-292.662	-200.000	0.021	0.175
-291.647	-53.533	-0.105	0.048
-290.632	255.999	0.037	-0.064
-289.618	281.274	-0.029	-0.053
-288.603	466.982	-0.124	-0.279
-287.589	73.528	0.050	-0.053
-286.574	-200.000	-0.074	-0.340
-285.559	-73.156	0.338	-0.125
-284.545	38.685	-0.105	0.095
-283.530	105.723	0.152	0.181
-282.516	13.708	-0.185	0.144
-281.501	-104.120	0.384	0.090
-280.486	-200.000	0.002	-0.152
-279.472	12.763	-0.260	-0.202
-278.457	-184.465	0.557	-0.009
-277.443	-61.162	-0.229	-0.097
-276.428	-5.601	-0.139	-0.096
-275.413	-200.000	-0.031	-0.215
-274.399	-146.021	-0.235	-0.021
-273.384	-200.000	-0.011	-0.049
-272.370	-88.777	0.201	-0.060
-271.355	-69.682	0.223	0.086
-270.340	-79.507	-0.143	-0.048
-269.326	-11.307	-0.023	-0.015
-268.311	800.000	0.066	-0.213
-267.297	-200.000	-0.002	0.107
-266.282	119.410	0.113	-0.141
-265.267	-114.213	0.246	0.048
-264.253	218.385	-0.299	0.480
-263.238	628.921	-0.156	-0.397
-262.224	124.465	-0.057	-0.072
-261.209	-200.000	-0.031	-0.190
-260.195	192.974	0.163	-0.247
-259.180	-119.053	0.209	-0.037
-258.165	-200.000	-0.025	0.207
-257.151	386.446	0.129	-0.268
-256.136	-136.021	-0.250	0.029
-255.122	62.386	0.131	-0.132
-254.107	1.676	0.135	-0.098
-253.092	-46.430	0.201	0.099
-252.078	-28.001	-0.146	-0.085
-251.063	-77.304	0.217	-0.076
-250.049	99.229	0.300	0.349
-249.034	-49.392	-0.230	-0.110
-248.019	89.533	-0.250	0.281
-247.005	757.257	-0.098	0.267
-245.990	609.720	-0.035	-0.088
-244.976	310.556	0.205	-0.386
-243.961	-63.870	-0.123	-0.050
-242.946	358.312	-0.141	-0.283
-241.932	-200.000	0.007	0.033
-240.917	-138.619	-0.329	-0.036
-239.903	800.000	-0.092	-0.314
-238.888	-101.850	0.179	0.043
-237.873	78.008	0.222	-0.238
-236.859	-21.863	0.205	0.125
-235.844	-64.156	0.209	-0.085
-234.830	800.000	0.027	0.086
-233.815	800.000	-0.093	0.278
-232.800	-154.357	-0.260	0.018
-231.786	800.000	0.048	0.141
-230.771	81.231	0.210	0.228
-229.757	198.776	0.067	-0.103
-228.742	223.471	0.103	0.166
-227.727	-101.067	0.189	-0.047
-226.713	-200.000	0.024	-0.107
-225.698	92.508	0.088	0.100
-224.684	44.964	-0.296	-0.274
-223.669	-200.000	0.106	-0.514
-222.655	3.641	0.065	-0.047
-221.640	-200.000	-0.065	-0.345
-220.625	206.037	-0.044	0.069
-219.611	-200.000	-0.000	0.421
-218.596	649.994	0.071	-0.182
-217.582	-124.242	-0.166	0.026
-216.567	296.071	0.203	0.374
-215.552	521.077	0.120	-0.282
-214.538	-24.685	0.220	-0.131
-213.523	-10.257	0.160	-0.106
-212.509	-139.241	0.059	-0.006
-211.494	-196.512	-0.318	0.002
-210.479	-155.081	0.394	0.026
-209.465	273.669	0.083	0.148
-208.450	-200.000	-0.036	0.241
-207.436	-94.527	0.054	-0.015
-206.421	20.921	0.179	-0.146
-205.406	7.101	-0.214	0.160
-204.392	-200.000	-0.004	0.153
-203.377	138.347	0.153	0.201
-202.363	-200.000	0.040	0.350
-201.348	319.995	0.067	-0.128
-200.333	99.759	-0.184	0.214
-199.319	160.841	0.156	-0.219
-198.304	-200.000	0.037	-0.183
-197.290	-68.856	-0.117	-0.045
-196.275	-199.878	0.335	0.002
-195.260	117.392	0.240	-0.296
-194.246	-200.000	-0.025	-0.239
-193.231	-74.136	0.044	-0.016
-192.217	-94.643	-0.291	-0.079
-191.202	-134.632	-0.033	-0.004
-190.187	-102.261	0.334	0.081
-189.173	-70.192	-0.312	-0.119
-188.158	-170.134	0.412	-0.015
-187.144	14.156	0.151	0.118
-186.129	317.773	-0.091	0.173
-185.114	129.979	0.259	0.333
-184.100	800.000	-0.045	0.126
-183.085	-77.773	0.343	0.119
-182.071	280.468	0.059	-0.107
-181.056	43.707	-0.208	0.191
-180.042	-13.158	0.114	0.074
-179.027	-200.000	0.050	0.241
-178.012	800.000	0.041	-0.114
-176.998	-32.528	-0.260	0.145
-175.983	-200.000	-0.020	-0.208
-174.969	-200.000	-0.020	0.374
-173.954	45.855	-0.103	-0.095
-172.939	322.090	-0.066	-0.126
-171.925	192.177	-0.187	-0.283
-170.910	-35.896	0.198	0.107
-169.896	117.465	-0.131	-0.161
-168.881	-200.000	0.010	0.068
-167.866	-98.564	-0.293	0.075
-166.852	-140.952	-0.225	-0.023
-165.837	-15.279	-0.031	-0.020
-164.823	800.000	0.126	0.351
-163.808	-200.000	0.017	-0.132
-162.793	123.448	-0.162	0.204
-161.779	800.000	0.026	0.109
-160.764	-200.000	0.033	0.405
-159.750	-117.229	0.081	-0.015
-158.735	262.410	0.140	0.244
-157.720	-5.893	-0.104	-0.071
-156.706	-118.105	0.349	-0.062
-155.691	8.886	-0.421	0.318
-154.677	-129.357	-0.313	0.044
-153.662	512.965	-0.152	-0.354
-152.647	86.457	0.270	0.298
-151.633	390.061	-0.020	0.042
-150.618	252.197	-0.060	0.103
-149.604	-163.684	0.159	0.007
-148.589	-200.000	-0.002	-0.171
-147.574	188.283	0.184	0.275
-146.560	494.290	-0.128	-0.294
-145.545	485.026	-0.026	-0.059
-144.531	-112.920	0.150	0.030
-143.516	549.174	-0.118	0.284
-142.502	60.505	-0.071	0.070
-141.487	-14.269	0.210	0.136
-140.472	-200.000	-0.021	-0.239
-139.458	81.585	0.183	-0.198
-138.443	40.893	0.082	0.074
-137.429	548.002	-0.081	-0.194
-136.414	-200.000	0.003	0.047
-135.399	-57.538	-0.180	0.079
-134.385	-200.000	-0.018	0.191
-133.370	-125.679	0.361	0.055
-132.356	-81.908	-0.214	0.070
-131.341	-137.470	0.124	0.014
-130.326	-29.510	0.080	-0.046
-129.312	800.000	0.098	0.270
-128.297	141.067	0.122	0.161
-127.283	363.689	0.268	0.538
-126.268	668.962	-0.155	-0.401
-125.253	24.793	0.295	-0.245
-124.239	-51.781	-0.337	-0.157
-123.224	-73.834	0.198	-0.072
-122.210	800.000	-0.048	-0.164
-121.195	62.693	0.060	0.060
