DTS Sentinel unit serial number:	SN413079Multiplexer serial number:	ORYXHardware model number:	OX4-SRSoftware version number:	ORYX F/W v4.00 Oryx Data Collector v3.7.2.0data status	okinstallation	princeton_trtdifferential loss correction	single-endedforward channel	channel 4reverse channel	N/Adate	2019/09/12time	16:23:11forward acquisition time	60.00reverse acquisition time	0.00gamma	496.2192k internal	0.2302k external	0.2302temperature offset calibration	1.0111default loss term (dB/km)	0.3790temperature slope calibration	1.0000multiplexer offset coefficient	1.0000multiplexer slope coefficient	1.0000fibre end	0.00T internal ref (°C)	37.73T ext. ref 1 (°C)	2.56T ext. ref 2 (°C)	30.33length (m)	temperature (°C)	Stokes	anti-Stokes-747.200	-45.506	0.231	-0.117
-746.185	-143.751	0.409	0.039
-745.171	88.082	0.221	-0.250
-744.156	126.878	0.113	0.147
-743.142	800.000	0.035	-0.115
-742.127	-151.209	-0.360	0.027
-741.112	800.000	0.094	-0.311
-740.098	800.000	-0.095	0.377
-739.083	342.056	0.150	-0.299
-738.069	-28.711	0.066	0.038
-737.054	-72.467	-0.243	0.091
-736.039	-182.458	-0.254	0.005
-735.025	-22.486	0.316	-0.195
-734.010	-133.470	0.103	0.013
-732.996	-68.671	-0.471	-0.186
-731.981	-106.249	-0.261	0.060
-730.966	30.213	0.288	-0.250
-729.952	289.453	0.058	-0.108
-728.937	8.535	-0.179	0.137
-727.923	6.025	0.055	0.041
-726.908	-200.000	0.003	-0.051
-725.894	151.234	0.071	-0.098
-724.879	124.040	-0.073	-0.093
-723.864	101.606	-0.294	0.349
-722.850	-200.000	0.033	0.172
-721.835	-17.156	-0.048	-0.031
-720.821	-68.006	-0.296	-0.117
-719.806	-5.905	-0.130	-0.091
-718.791	141.671	-0.227	-0.306
-717.777	135.438	-0.116	-0.153
-716.762	158.096	0.045	-0.064
-715.748	-43.032	0.079	0.041
-714.733	155.509	-0.069	0.096
-713.718	-200.000	0.022	0.206
-712.704	-94.121	-0.172	0.048
-711.689	-78.690	0.119	0.041
-710.675	-85.449	-0.232	-0.074
-709.660	-200.000	-0.004	0.343
-708.645	512.050	-0.126	-0.298
-707.631	108.041	0.248	0.301
-706.616	37.572	-0.208	0.188
-705.602	-110.791	0.263	-0.055
-704.587	-35.853	-0.215	0.118
-703.572	-124.972	-0.111	-0.017
-702.558	-52.770	0.104	0.049
-701.543	9.060	0.230	0.177
-700.529	185.557	-0.078	0.118
-699.514	-0.084	-0.335	0.243
-698.499	-73.266	0.275	-0.102
-697.485	-91.240	-0.063	-0.018
-696.470	69.057	-0.129	-0.135
-695.456	800.000	0.119	0.348
-694.441	76.507	0.146	-0.157
-693.426	232.550	-0.097	0.163
-692.412	-29.606	-0.169	0.098
-691.397	11.612	0.218	0.170
-690.383	-40.501	-0.384	-0.203
-689.368	800.000	-0.066	-0.244
-688.354	-36.895	0.252	0.138
-687.339	-173.708	0.343	0.010
-686.324	-200.000	-0.021	-0.163
-685.310	-57.343	0.125	0.056
-684.295	800.000	-0.035	-0.134
-683.281	40.984	-0.089	0.081
-682.266	78.443	-0.204	-0.221
-681.251	-49.350	-0.495	0.240
-680.237	-71.835	-0.184	-0.070
-679.222	-200.000	0.027	-0.232
-678.208	9.245	0.115	-0.088
-677.193	46.672	0.089	0.084
-676.178	-39.993	0.217	-0.115
-675.164	792.092	-0.083	-0.232
-674.149	186.815	-0.119	0.181
-673.135	-200.000	0.020	0.318
-672.120	-35.235	-0.362	0.200
-671.105	-171.137	-0.099	-0.003
-670.091	-68.327	0.235	0.093
-669.076	-200.000	0.023	-0.237
-668.062	146.147	0.052	-0.071
-667.047	248.098	0.009	-0.016
-666.032	-126.885	0.193	0.029
-665.018	60.864	0.132	-0.133
-664.003	111.025	0.133	-0.163
-662.989	-200.000	-0.000	0.131
-661.974	227.972	-0.192	0.318
-660.959	-54.135	0.020	-0.009
-659.945	-200.000	-0.315	-0.001
-658.930	315.342	0.131	0.251
-657.916	-0.764	0.214	0.154
-656.901	-200.000	0.012	-0.057
-655.886	-110.913	0.089	-0.019
-654.872	-200.000	0.031	-0.318
-653.857	106.823	-0.191	-0.230
-652.843	-37.330	0.092	-0.050
-651.828	-2.720	0.407	-0.289
-650.814	800.000	0.040	0.131
-649.799	122.288	-0.012	-0.015
-648.784	27.242	0.162	0.138
-647.770	530.024	-0.079	-0.190
-646.755	-151.331	0.245	-0.019
-645.741	-2.840	-0.224	-0.159
-644.726	1.473	-0.133	0.097
-643.711	800.000	0.045	-0.155
-642.697	-37.453	-0.451	0.244
-641.682	-49.094	0.136	0.066
-640.668	-79.838	0.240	0.082
-639.653	-77.028	-0.187	-0.066
-638.638	-35.165	0.159	0.088
-637.624	79.716	0.254	-0.277
-636.609	466.844	-0.139	0.317
-635.595	-2.958	0.206	-0.146
-634.580	-25.000	0.051	-0.031
-633.565	-148.986	-0.259	-0.021
-632.551	61.824	-0.193	0.195
-631.536	-51.099	-0.110	0.052
-630.522	126.027	0.163	0.209
-629.507	40.165	-0.167	0.153
-628.492	301.662	0.193	-0.361
-627.478	116.370	0.116	0.144
-626.463	363.206	0.023	-0.047
-625.449	-124.747	-0.114	-0.018
-624.434	35.075	-0.111	-0.098
-623.419	-67.046	0.156	-0.062
-622.405	-25.848	-0.124	-0.074
-621.390	-128.667	0.286	0.041
-620.376	293.000	0.116	-0.214
-619.361	71.818	0.076	-0.080
-618.346	-111.098	-0.156	0.032
-617.332	-200.000	-0.042	0.271
-616.317	-87.072	-0.224	-0.069
-615.303	-1.445	-0.149	-0.106
-614.288	740.305	0.142	0.386
-613.273	224.778	0.067	-0.110
-612.259	-43.093	-0.232	-0.119
-611.244	-66.709	-0.231	-0.093
-610.230	9.444	-0.147	0.113
-609.215	-200.000	-0.053	0.285
-608.201	-15.180	-0.085	-0.055
-607.186	-200.000	-0.012	-0.063
-606.171	-200.000	-0.031	-0.366
-605.157	-200.000	-0.043	-0.208
-604.142	64.953	-0.251	0.257
-603.128	68.371	-0.242	0.251
-602.113	-9.507	-0.074	0.050
-601.098	455.512	0.089	-0.201
-600.084	703.471	0.126	-0.336
-599.069	-14.159	-0.214	-0.140
-598.055	163.444	0.135	-0.192
-597.040	-200.000	-0.086	0.447
-596.025	3.078	-0.179	0.132
-595.011	580.932	-0.056	0.138
-593.996	800.000	0.073	-0.237
-592.982	-200.000	-0.041	-0.205
-591.967	176.032	-0.051	0.075
-590.952	100.171	-0.027	-0.031
-589.938	-6.832	0.100	0.069
-588.923	-61.250	-0.277	-0.118
-587.909	-7.448	0.265	0.182
-586.894	-8.272	-0.225	-0.153
-585.879	-51.028	0.165	0.078
-584.865	14.678	-0.367	0.291
-583.850	266.084	0.280	0.496
-582.836	-200.000	0.035	0.297
-581.821	-106.522	-0.082	0.019
-580.806	68.042	-0.184	0.191
-579.792	77.377	0.230	-0.248
-578.777	105.381	-0.222	0.266
-577.763	-74.889	-0.110	0.040
-576.748	-200.000	0.005	0.233
-575.733	-178.793	-0.288	-0.007
-574.719	-129.717	-0.108	-0.015
-573.704	-139.570	0.280	0.030
-572.690	-200.000	0.010	0.149
-571.675	-126.213	-0.241	-0.036
-570.661	800.000	-0.126	-0.420
-569.646	115.307	-0.044	-0.054
-568.631	82.501	0.057	-0.062
-567.617	-200.000	-0.109	-0.597
-566.602	319.903	0.039	-0.075
-565.588	555.319	-0.114	-0.278
-564.573	-200.000	-0.045	0.271
-563.558	-200.000	0.024	-0.288
-562.544	-200.000	0.039	0.219
-561.529	-4.818	0.065	-0.045
-560.515	691.833	-0.046	-0.123
-559.500	102.058	0.141	-0.167
-558.485	-200.000	-0.006	0.076
-557.471	62.026	-0.064	-0.065
-556.456	231.162	-0.053	0.088
-555.442	501.988	0.102	0.238
-554.427	119.081	0.136	-0.170
-553.412	-200.000	0.000	0.238
-552.398	800.000	-0.032	-0.132
-551.383	-76.658	0.357	0.127
-550.369	18.604	-0.153	0.124
-549.354	-72.636	-0.073	-0.027
-548.339	360.379	-0.156	-0.316
-547.325	-79.420	-0.098	0.033
-546.310	800.000	0.096	0.341
-545.296	95.897	-0.131	0.151
-544.281	-200.000	0.035	0.258
-543.266	800.000	0.071	-0.259
-542.252	-200.000	0.003	0.158
-541.237	28.270	-0.247	-0.211
-540.223	-122.376	-0.039	-0.006
-539.208	-200.000	-0.063	-0.548
-538.193	-86.916	-0.066	-0.020
-537.179	-200.000	-0.055	-0.287
-536.164	-200.000	-0.037	0.227
-535.150	-200.000	-0.023	0.296
-534.135	414.811	0.097	-0.209
-533.121	-200.000	0.048	0.321
-532.106	-132.012	-0.271	0.036
-531.091	276.802	-0.155	0.279
-530.077	627.074	-0.136	0.348
-529.062	-145.710	0.450	-0.041
-528.048	800.000	-0.071	-0.295
-527.033	-200.000	0.025	0.237
-526.018	408.502	0.141	-0.301
-525.004	99.852	0.217	0.255
-523.989	-200.000	-0.034	0.175
-522.975	83.690	-0.337	-0.371
-521.960	-49.371	0.126	-0.061
-520.945	-127.573	-0.251	-0.037
-519.931	297.842	0.023	0.043
-518.916	453.621	0.173	0.386
-517.902	-28.444	0.166	-0.097
-516.887	94.403	0.127	0.146
-515.872	-75.986	-0.074	0.026
-514.858	800.000	0.130	-0.379
-513.843	-6.393	-0.226	0.156
-512.829	-16.082	-0.044	-0.028
-511.814	104.956	0.107	0.128
-510.799	431.894	0.084	0.184
-509.785	-125.813	0.181	-0.028
-508.770	65.373	-0.012	-0.012
-507.756	-183.288	-0.371	0.007
-506.741	-200.000	0.050	-0.255
-505.726	2.307	0.090	-0.066
-504.712	-99.099	0.324	-0.083
-503.697	629.381	0.055	0.141
-502.683	650.274	0.056	0.144
-501.668	38.682	0.113	0.102
-500.653	232.905	0.061	-0.101
-499.639	9.251	0.144	-0.110
-498.624	113.039	-0.091	-0.111
-497.610	169.322	-0.097	0.140
-496.595	-117.364	0.522	-0.096
-495.581	243.653	-0.048	0.082
-494.566	-200.000	0.020	-0.422
-493.551	-70.787	0.132	-0.050
-492.537	-200.000	-0.018	-0.554
-491.522	-35.530	0.238	0.130
-490.508	-200.000	-0.021	-0.147
-489.493	9.943	-0.061	0.047
-488.478	-35.488	-0.162	0.089
-487.464	800.000	0.026	0.082
-486.449	13.612	0.034	0.027
-485.435	-127.800	0.058	-0.008
-484.420	767.006	0.073	0.201
-483.405	-200.000	0.009	-0.092
-482.391	113.115	-0.064	0.078
-481.376	121.575	-0.109	-0.137
-480.362	-60.287	-0.080	-0.035
-479.347	435.972	-0.062	0.137
-478.332	-167.985	-0.282	0.011
-477.318	-16.571	0.194	0.124
-476.303	-175.736	-0.180	-0.005
-475.289	-69.311	-0.099	0.038
-474.274	800.000	0.068	0.197
-473.259	-200.000	0.015	-0.109
-472.245	294.910	-0.137	0.252
-471.230	-200.000	0.064	-0.291
-470.216	-44.188	0.237	-0.120
-469.201	219.321	0.152	-0.245
-468.186	800.000	0.014	-0.046
-467.172	123.907	-0.095	-0.120
-466.157	-143.973	0.150	0.014
-465.143	-150.675	0.165	0.013
-464.128	525.383	0.040	0.095
-463.113	-125.906	-0.215	0.033
-462.099	184.870	-0.160	0.239
-461.084	-126.538	-0.170	0.025
-460.070	600.752	0.095	-0.238
-459.055	800.000	0.067	0.212
-458.040	-43.459	-0.059	0.030
-457.026	-189.304	0.234	-0.003
-456.011	-200.000	0.009	0.212
-454.997	-66.399	0.252	0.101
-453.982	-46.207	-0.141	0.070
-452.968	231.351	-0.134	-0.221
-451.953	111.971	0.290	-0.353
-450.938	133.732	-0.102	-0.133
-449.924	-117.247	0.243	-0.044
-448.909	-155.038	0.120	0.008
-447.895	800.000	0.103	-0.313
-446.880	-19.696	0.281	0.175
-445.865	-94.588	-0.330	0.090
-444.851	-32.675	0.307	0.172
-443.836	762.973	-0.008	-0.022
-442.822	-200.000	0.020	0.123
-441.807	318.071	0.100	0.190
-440.792	-88.590	-0.343	-0.103
-439.778	-200.000	-0.391	-0.000
-438.763	29.240	0.096	-0.082
-437.749	8.681	0.162	0.123
-436.734	-100.908	0.113	0.028
-435.719	97.070	-0.332	0.384
-434.705	1.809	0.205	0.149
-433.690	24.079	0.103	0.086
-432.676	800.000	0.105	-0.352
-431.661	-198.069	-0.171	-0.001
-430.646	-30.493	-0.197	0.113
-429.632	-6.408	-0.232	-0.160
-428.617	-200.000	-0.029	0.324
-427.603	800.000	-0.038	0.154
-426.588	-26.423	0.358	0.211
-425.573	4.243	-0.261	0.192
-424.559	2.725	-0.364	0.266
-423.544	-91.816	-0.261	0.074
-422.530	-113.436	0.564	-0.111
-421.515	699.510	-0.024	0.064
-420.500	-108.459	-0.299	0.065
-419.486	282.896	0.143	0.259
-418.471	41.163	-0.228	-0.208
-417.457	-200.000	-0.022	-0.098
-416.442	-71.009	-0.288	0.109
-415.428	211.103	0.050	0.079
-414.413	-167.162	0.108	-0.004
-413.398	24.846	-0.231	0.193
-412.384	3.048	-0.322	0.236
-411.369	800.000	-0.040	-0.159
-410.355	-200.000	0.034	-0.242
-409.340	-39.604	0.068	0.036
-408.325	-114.010	0.328	-0.064
-407.311	-147.929	0.048	0.004
-406.296	-156.942	-0.406	-0.025
-405.282	6.623	-0.358	0.268
-404.267	279.088	-0.175	0.313
-403.252	-19.966	0.452	0.281
-402.238	-97.601	0.191	0.050
-401.223	184.341	-0.166	-0.247
-400.209	-126.962	-0.400	-0.059
-399.194	258.835	0.093	0.161
-398.179	215.855	-0.071	-0.113
-397.165	-9.791	-0.093	0.062
-396.150	-92.179	-0.133	-0.038
-395.136	-200.000	0.041	-0.296
-394.121	800.000	0.035	0.121
-393.106	578.362	-0.088	0.218
-392.092	-146.190	-0.173	0.015
-391.077	-126.648	-0.238	-0.035
-390.063	-73.494	0.286	0.105
-389.048	800.000	0.063	0.255
-388.033	197.233	-0.150	-0.230
-387.019	35.462	-0.265	-0.233
-386.004	-108.836	-0.124	-0.027
-384.990	-33.880	0.252	-0.139
-383.975	98.062	0.148	0.171
-382.960	102.089	-0.274	0.321
-381.946	-200.000	0.033	-0.315
-380.931	271.699	-0.058	0.103
-379.917	-40.591	0.557	-0.290
-378.902	42.235	-0.181	-0.165
-377.888	-112.500	0.243	0.049
-376.873	-200.000	0.043	-0.245
-375.858	702.863	-0.102	-0.271
-374.844	-83.892	-0.259	0.083
-373.829	-177.313	0.426	0.011
-372.815	-37.896	-0.232	-0.124
-371.800	-200.000	-0.040	-0.208
-370.785	613.162	-0.141	-0.354
-369.771	20.659	0.115	0.093
-368.756	-161.190	0.335	0.018
-367.742	800.000	0.089	0.326
-366.727	800.000	0.073	0.314
-365.712	-200.000	-0.043	0.248
-364.698	800.000	-0.062	0.175
-363.683	-106.907	0.078	-0.017
-362.669	1.661	-0.261	-0.189
-361.654	225.521	-0.029	-0.048
-360.639	-83.315	0.265	-0.085
-359.625	-58.114	0.432	-0.189
-358.610	59.068	-0.133	0.132
-357.596	162.009	0.050	-0.070
-356.581	-84.238	-0.394	-0.125
-355.566	-187.222	-0.372	0.005
-354.552	-118.033	-0.251	-0.045
-353.537	-45.999	-0.128	-0.063
-352.523	88.891	0.118	-0.132
-351.508	50.014	0.013	0.012
-350.493	48.544	-0.043	-0.040
-349.479	43.204	-0.093	-0.085
-348.464	36.451	-0.154	-0.137
-347.450	375.074	0.073	-0.148
-346.435	-25.418	0.117	-0.069
-345.420	-80.120	-0.413	0.139
-344.406	35.735	-0.121	-0.107
-343.391	-200.000	-0.050	-0.230
-342.377	-94.936	-0.307	-0.083
-341.362	21.269	0.237	-0.193
-340.348	305.182	0.047	-0.087
-339.333	-25.078	0.044	-0.026
-338.318	-137.434	-0.052	-0.006
-337.304	-122.057	-0.447	0.074
-336.289	177.430	0.225	0.328
-335.275	58.798	-0.103	0.102
-334.260	-48.282	-0.277	0.134
-333.245	32.095	0.127	0.110
-332.231	50.290	-0.060	-0.057
-331.216	-125.551	0.231	-0.035
-330.202	-19.945	0.181	0.112
-329.187	-200.000	0.016	-0.138
-328.172	56.015	0.241	0.235
-327.158	-145.898	0.350	-0.031
-326.143	-200.000	-0.005	0.096
-325.129	146.225	0.163	0.219
-324.114	-79.777	0.147	0.050
-323.099	-15.747	-0.214	-0.136
-322.085	-48.389	-0.202	-0.098
-321.070	-200.000	-0.019	-0.320
-320.056	-200.000	-0.040	0.303
-319.041	280.379	-0.106	0.191
-318.026	-200.000	-0.006	-0.147
-317.012	15.744	0.216	0.170
-315.997	-27.228	-0.312	0.182
-314.983	188.420	0.115	0.172
-313.968	-3.561	0.079	0.055
-312.953	306.390	-0.090	0.169
-311.939	-86.761	0.367	0.112
-310.924	650.707	0.077	0.197
-309.910	243.434	0.116	-0.196
-308.895	24.334	-0.101	0.084
-307.880	178.939	-0.222	0.325
-306.866	-130.740	-0.235	-0.032
-305.851	-158.579	-0.077	-0.004
-304.837	43.523	0.133	-0.122
-303.822	314.268	-0.090	0.170
-302.807	-95.635	0.046	0.012
-301.793	-147.028	0.073	0.006
-300.778	-114.094	-0.235	-0.046
-299.764	136.947	-0.060	-0.078
-298.749	166.111	-0.026	0.037
-297.735	52.002	-0.162	-0.155
-296.720	13.565	-0.256	0.199
-295.705	-20.496	0.189	0.117
-294.691	-76.495	0.201	-0.071
-293.676	493.894	0.046	0.106
-292.662	94.812	0.215	0.245
-291.647	-200.000	-0.019	0.362
-290.632	171.663	0.081	0.117
-289.618	166.489	0.227	-0.321
-288.603	-200.000	-0.024	0.457
-287.589	800.000	0.005	0.021
-286.574	34.555	0.164	-0.144
-285.559	-200.000	-0.019	-0.106
-284.545	-30.975	0.189	-0.107
-283.530	-108.029	-0.260	-0.057
-282.516	-200.000	-0.009	0.326
-281.501	92.976	-0.219	0.247
-280.486	-200.000	0.025	-0.133
-279.472	-200.000	0.009	-0.217
-278.457	349.850	0.059	-0.116
-277.443	-200.000	-0.066	0.387
-276.428	-200.000	0.015	-0.104
-275.413	-42.952	-0.133	0.068
-274.399	280.696	0.117	-0.210
-273.384	-78.599	-0.132	-0.045
-272.370	-200.000	0.061	-0.389
-271.355	299.690	-0.132	-0.244
-270.340	30.337	-0.211	0.180
-269.326	-15.450	0.112	-0.071
-268.311	800.000	-0.121	0.355
-267.297	800.000	0.062	0.253
-266.282	-20.001	0.296	0.183
-265.267	-180.783	0.387	0.008
-264.253	272.475	0.154	0.273
-263.238	-92.464	-0.175	0.049
-262.224	95.617	-0.228	-0.260
-261.209	-200.000	-0.046	-0.377
-260.195	114.800	0.115	-0.140
-259.180	27.662	0.384	0.323
-258.165	-16.318	0.162	-0.103
-257.151	199.772	0.208	0.319
-256.136	-157.171	0.234	-0.014
-255.122	-200.000	0.002	-0.112
-254.107	429.814	0.032	0.070
-253.092	260.941	-0.038	-0.065
-252.078	800.000	-0.090	-0.365
-251.063	-181.061	0.231	0.005
-250.049	-38.872	-0.211	0.111
-249.034	-126.713	0.335	-0.050
-248.019	-103.211	-0.262	-0.062
-247.005	-125.387	-0.255	-0.039
-245.990	-158.939	0.409	-0.023
-244.976	721.913	-0.044	-0.118
-243.961	17.022	0.137	0.109
-242.946	425.122	0.046	-0.099
-241.932	800.000	0.063	-0.242
-240.917	-53.872	0.180	0.082
-239.903	-35.040	0.092	-0.050
-238.888	519.967	0.213	-0.500
-237.873	-110.108	0.084	-0.018
-236.859	34.085	0.257	-0.224
-235.844	-88.689	0.273	-0.081
-234.830	-96.100	0.169	-0.045
-233.815	800.000	-0.083	-0.247
-232.800	-200.000	-0.037	-0.300
-231.786	-200.000	-0.031	-0.236
-230.771	800.000	0.021	0.086
-229.757	-60.604	0.365	0.155
-228.742	224.488	0.083	0.134
-227.727	80.362	-0.042	0.045
-226.713	152.912	0.121	-0.165
-225.698	344.432	0.216	-0.424
-224.684	-160.656	0.424	-0.023
-223.669	257.044	-0.109	0.188
-222.655	-161.127	0.151	0.008
-221.640	800.000	-0.047	0.155
-220.625	-200.000	-0.048	-0.249
-219.611	64.438	-0.100	0.100
-218.596	-200.000	-0.027	-0.257
-217.582	377.415	-0.100	-0.205
-216.567	248.179	-0.012	-0.020
-215.552	-103.363	-0.281	0.066
-214.538	800.000	-0.011	0.036
-213.523	-200.000	0.007	-0.188
-212.509	193.419	0.247	0.373
-211.494	-200.000	0.008	-0.377
-210.479	800.000	0.084	-0.340
-209.465	-200.000	-0.052	0.352
-208.450	-39.859	0.336	0.175
-207.436	128.350	-0.131	0.166
-206.421	19.413	-0.243	0.195
-205.406	-200.000	0.033	-0.203
-204.392	-32.115	-0.293	-0.164
-203.377	102.058	-0.207	-0.241
-202.363	-200.000	-0.067	-0.353
-201.348	58.269	0.192	-0.187
-200.333	-75.852	-0.199	0.070
-199.319	184.772	-0.136	-0.202
-198.304	117.881	0.229	0.281
-197.290	351.609	-0.065	-0.128
-196.275	49.159	0.149	0.140
-195.260	-200.000	0.059	-0.268
-194.246	174.218	0.055	-0.079
-193.231	271.454	-0.064	-0.112
-192.217	751.309	0.017	0.046
-191.202	-183.403	-0.203	-0.004
-190.187	-136.926	0.101	0.012
-189.173	49.151	0.097	-0.091
-188.158	-104.933	-0.153	-0.035
-187.144	226.704	0.183	0.296
-186.129	574.595	-0.080	0.196
-185.114	-167.369	-0.165	-0.007
-184.100	-165.292	-0.104	-0.005
-183.085	800.000	0.086	-0.353
-182.071	-177.388	-0.120	-0.003
-181.056	84.897	0.104	-0.114
-180.042	277.802	-0.091	-0.161
-179.027	-89.957	0.281	0.082
-178.012	26.494	-0.114	0.095
-176.998	756.633	0.043	0.117
-175.983	-31.803	-0.085	-0.048
-174.969	-188.495	-0.158	0.002
-173.954	1.550	0.232	-0.166
-172.939	800.000	-0.034	0.145
-171.925	75.904	0.195	-0.206
-170.910	176.572	0.030	0.044
-169.896	800.000	0.154	-0.500
-168.881	-85.696	-0.302	0.094
-167.866	-200.000	0.008	-0.040
-166.852	800.000	-0.007	0.019
-165.837	-198.287	-0.184	0.001
-164.823	131.144	-0.149	0.190
-163.808	146.560	0.057	-0.076
-162.793	154.865	0.129	0.177
-161.779	411.756	0.101	0.213
-160.764	-200.000	-0.035	0.210
-159.750	-97.722	0.366	-0.094
-158.735	-27.764	0.247	0.143
-157.720	800.000	-0.109	0.423
-156.706	-200.000	-0.029	-0.139
-155.691	800.000	0.035	0.108
-154.677	60.676	-0.108	-0.107
-153.662	643.204	0.051	-0.130
-152.647	3.517	0.315	-0.228
-151.633	-30.275	0.186	0.105
-150.618	-124.158	-0.248	-0.039
-149.604	396.484	0.063	-0.132
-148.589	238.907	-0.114	-0.189
-147.574	-64.102	-0.264	0.107
-146.560	80.169	-0.023	0.025
-145.545	-4.296	-0.132	0.091
-144.531	-138.774	-0.378	-0.041
-143.516	-19.404	-0.262	-0.162
-142.502	0.107	-0.045	0.032
-141.487	-86.115	-0.257	0.079
-140.472	-74.842	0.101	0.036
-139.458	174.398	-0.166	0.239
-138.443	773.607	0.048	0.132
-137.429	79.775	0.136	0.145
-136.414	-186.900	0.368	0.005
-135.399	-99.290	-0.046	0.011
-134.385	-135.113	-0.246	-0.029
-133.370	-200.000	0.011	0.069
-132.356	-200.000	0.016	-0.142
-131.341	761.496	-0.108	-0.292
-130.326	-85.742	-0.210	0.065
-129.312	-200.000	0.088	-0.462
-128.297	-59.410	0.117	0.050
-127.283	-161.159	0.289	0.015
-126.268	-143.763	0.109	0.010
-125.253	479.571	-0.215	-0.485
-124.239	-200.000	0.053	0.274
-123.224	-156.104	0.291	0.018
-122.210	-200.000	0.002	0.396
-121.195	-34.601	0.340	0.185
-120.180	800.000	-0.047	0.197
