DTS Sentinel unit serial number:	SN413079Multiplexer serial number:	ORYXHardware model number:	OX4-SRSoftware version number:	ORYX F/W v4.00 Oryx Data Collector v3.7.2.0data status	okinstallation	princeton_trtdifferential loss correction	single-endedforward channel	channel 4reverse channel	N/Adate	2019/09/17time	01:45:35forward acquisition time	60.00reverse acquisition time	0.00gamma	496.2192k internal	0.2312k external	0.2312temperature offset calibration	0.9975default loss term (dB/km)	0.3790temperature slope calibration	1.0000multiplexer offset coefficient	1.0000multiplexer slope coefficient	1.0000fibre end	0.00T internal ref (°C)	29.58T ext. ref 1 (°C)	0.12T ext. ref 2 (°C)	24.55length (m)	temperature (°C)	Stokes	anti-Stokes-747.200	-122.785	0.116	-0.019
-746.185	-77.552	-0.092	-0.032
-745.171	800.000	0.101	-0.307
-744.156	-200.000	0.011	0.376
-743.142	19.836	-0.168	-0.137
-742.127	-200.000	0.010	-0.090
-741.112	-130.537	-0.542	0.074
-740.098	39.873	-0.318	0.290
-739.083	46.814	0.212	-0.200
-738.069	-200.000	0.020	0.294
-737.054	-131.208	-0.208	0.028
-736.039	800.000	0.049	-0.183
-735.025	34.994	0.136	0.120
-734.010	-134.478	-0.481	-0.060
-732.996	-185.132	-0.038	-0.001
-731.981	-11.249	-0.269	0.180
-730.966	-1.252	0.035	-0.025
-729.952	-90.220	-0.015	0.004
-728.937	-36.202	-0.148	0.081
-727.923	55.101	0.047	0.046
-726.908	655.935	-0.099	-0.257
-725.894	800.000	0.045	0.165
-724.879	23.726	-0.143	0.119
-723.864	765.540	0.131	-0.361
-722.850	181.579	0.080	0.119
-721.835	-58.433	0.039	0.017
-720.821	123.953	-0.091	-0.116
-719.806	-102.205	0.104	-0.025
-718.791	354.831	0.063	-0.128
-717.777	324.662	0.100	-0.194
-716.762	-100.914	-0.197	0.049
-715.748	-60.027	-0.302	-0.131
-714.733	29.456	0.031	0.027
-713.718	-12.960	0.144	-0.095
-712.704	382.378	-0.085	-0.178
-711.689	49.574	-0.183	0.174
-710.675	97.844	0.382	-0.445
-709.660	-200.000	-0.021	-0.348
-708.645	-124.969	-0.158	0.025
-707.631	-51.512	-0.153	0.072
-706.616	169.141	0.146	0.211
-705.602	-21.976	-0.126	-0.078
-704.587	-133.769	-0.140	-0.018
-703.572	-200.000	0.042	-0.272
-702.558	-200.000	-0.001	-0.133
-701.543	178.689	0.147	-0.217
-700.529	-84.283	-0.181	0.058
-699.514	-127.298	-0.349	-0.052
-698.499	800.000	0.070	0.258
-697.485	800.000	0.084	0.358
-696.470	-200.000	-0.008	-0.095
-695.456	772.839	-0.042	0.116
-694.441	-100.535	-0.176	0.044
-693.426	43.979	-0.017	0.016
-692.412	800.000	0.036	-0.111
-691.397	-133.262	0.059	0.008
-690.383	-143.213	0.116	0.011
-689.368	101.465	-0.322	0.380
-688.354	-27.080	0.082	-0.048
-687.339	-88.071	0.133	-0.040
-686.324	-95.735	-0.279	-0.075
-685.310	492.870	0.045	-0.104
-684.295	-200.000	-0.003	0.589
-683.281	-200.000	0.077	0.427
-682.266	-114.623	-0.069	0.013
-681.251	467.597	-0.052	0.119
-680.237	-200.000	-0.033	-0.175
-679.222	22.209	-0.368	0.304
-678.208	-7.174	-0.231	0.159
-677.193	365.654	0.050	0.101
-676.178	-200.000	0.016	-0.120
-675.164	-200.000	-0.018	0.276
-674.149	-200.000	0.003	-0.184
-673.135	40.189	-0.044	0.040
-672.120	800.000	0.035	-0.106
-671.105	-45.608	0.270	0.135
-670.091	-39.745	-0.039	0.020
-669.076	42.577	-0.229	-0.211
-668.062	-127.264	-0.303	0.045
-667.047	299.851	0.135	0.252
-666.032	459.408	-0.029	-0.066
-665.018	-83.668	-0.256	0.083
-664.003	-200.000	-0.009	-0.176
-662.989	-200.000	-0.018	0.117
-661.974	321.243	-0.161	0.309
-660.959	110.845	-0.210	-0.256
-659.945	800.000	-0.027	0.084
-658.930	48.327	-0.287	0.271
-657.916	-59.591	-0.300	0.130
-656.901	120.705	-0.203	0.256
-655.886	594.787	0.051	-0.128
-654.872	-200.000	-0.013	-0.141
-653.857	57.637	0.247	0.244
-652.843	602.083	-0.089	-0.223
-651.828	-200.000	0.013	-0.164
-650.814	361.672	0.028	0.056
-649.799	-131.859	-0.392	-0.052
-648.784	66.041	0.073	0.075
-647.770	69.992	-0.142	0.148
-646.755	-161.222	0.099	0.005
-645.741	101.880	0.298	-0.352
-644.726	-104.261	0.172	-0.040
-643.711	-200.000	0.009	-0.047
-642.697	483.075	0.066	0.152
-641.682	-116.164	0.146	-0.027
-640.668	54.826	0.159	-0.155
-639.653	76.925	0.109	-0.117
-638.638	800.000	0.065	-0.215
-637.624	135.138	-0.142	0.187
-636.609	248.169	0.052	-0.089
-635.595	-114.585	0.246	-0.048
-634.580	-56.103	0.265	-0.119
-633.565	-71.637	-0.339	0.128
-632.551	-200.000	0.007	-0.111
-631.536	406.002	-0.140	0.299
-630.522	84.391	-0.296	-0.327
-629.507	465.199	-0.089	0.202
-628.492	-136.892	-0.074	0.009
-627.478	800.000	0.045	0.128
-626.463	-123.890	0.054	0.009
-625.449	-8.738	-0.288	-0.195
-624.434	-54.439	0.405	0.185
-623.419	427.156	-0.042	0.091
-622.405	333.318	0.068	-0.133
-621.390	-88.161	0.188	0.057
-620.376	-24.092	-0.193	0.117
-619.361	800.000	0.062	-0.198
-618.346	26.742	-0.136	0.115
-617.332	800.000	-0.053	-0.164
-616.317	-28.027	0.044	0.026
-615.303	183.848	-0.055	-0.083
-614.288	179.824	0.160	0.237
-613.273	-1.757	0.177	-0.126
-612.259	97.239	0.174	0.201
-611.244	616.765	0.011	-0.028
-610.230	-128.478	0.122	-0.017
-609.215	173.655	-0.234	0.341
-608.201	314.044	-0.181	0.344
-607.186	-59.627	0.193	-0.084
-606.171	158.480	-0.135	0.188
-605.157	-99.200	-0.130	0.033
-604.142	-87.004	-0.097	-0.030
-603.128	395.747	0.201	0.424
-602.113	-64.550	-0.159	-0.065
-601.098	-22.428	-0.107	0.065
-600.084	-73.357	0.105	-0.039
-599.069	252.536	-0.168	-0.290
-598.055	-145.147	-0.256	-0.023
-597.040	800.000	-0.090	0.313
-596.025	-200.000	0.011	-0.100
-595.011	315.462	0.231	-0.440
-593.996	77.821	0.231	-0.248
-592.982	800.000	0.070	0.293
-591.967	248.452	0.131	-0.224
-590.952	800.000	0.078	-0.241
-589.938	-56.300	0.314	0.141
-588.923	-200.000	-0.013	0.264
-587.909	-200.000	0.023	-0.140
-586.894	-200.000	0.027	-0.393
-585.879	-23.258	-0.260	-0.158
-584.865	-200.000	0.011	-0.110
-583.850	-190.549	0.082	0.001
-582.836	260.549	-0.110	-0.192
-581.821	800.000	0.069	0.263
-580.806	-200.000	0.025	0.127
-579.792	-119.919	-0.201	0.035
-578.777	463.469	-0.112	-0.253
-577.763	-172.478	0.399	0.013
-576.748	-200.000	0.024	0.106
-575.733	135.448	-0.116	0.151
-574.719	29.960	-0.178	0.153
-573.704	243.207	0.173	0.292
-572.690	216.189	0.069	-0.110
-571.675	-200.000	-0.047	-0.257
-570.661	-138.503	-0.336	0.037
-569.646	-86.350	0.144	0.045
-568.631	-33.278	-0.103	0.057
-567.617	-28.313	-0.048	-0.028
-566.602	-181.498	0.120	0.002
-565.588	336.723	-0.069	-0.135
-564.573	68.198	0.054	0.056
-563.558	-93.588	-0.469	0.131
-562.544	-200.000	0.044	0.283
-561.529	-200.000	-0.028	0.140
-560.515	44.048	-0.124	0.114
-559.500	-145.669	-0.241	0.022
-558.485	15.550	0.223	0.176
-557.471	30.048	-0.167	-0.143
-556.456	-107.920	0.080	-0.018
-555.442	-157.448	0.306	-0.019
-554.427	-124.305	-0.172	-0.027
-553.412	93.466	0.066	-0.075
-552.398	-73.199	0.202	0.075
-551.383	21.001	-0.157	0.128
-550.369	-200.000	0.015	-0.179
-549.354	219.709	-0.190	0.307
-548.339	-141.496	-0.219	-0.022
-547.325	695.879	0.161	-0.425
-546.310	168.504	-0.215	-0.309
-545.296	226.669	0.104	-0.170
-544.281	-200.000	-0.039	0.253
-543.266	320.487	0.052	0.100
-542.252	475.930	-0.218	-0.496
-541.237	733.408	-0.094	-0.253
-540.223	397.025	-0.031	0.065
-539.208	-200.000	0.003	-0.021
-538.193	88.984	-0.286	-0.321
-537.179	265.964	-0.082	0.143
-536.164	250.457	0.099	0.169
-535.150	146.351	0.100	-0.135
-534.135	258.405	-0.085	-0.147
-533.121	-200.000	0.019	-0.324
-532.106	150.986	-0.104	0.142
-531.091	-150.832	-0.142	0.011
-530.077	35.286	0.214	-0.189
-529.062	11.079	-0.236	0.182
-528.048	-5.421	0.205	0.142
-527.033	249.933	-0.079	0.135
-526.018	-86.741	0.197	-0.060
-525.004	386.467	-0.105	-0.219
-523.989	-200.000	0.001	0.115
-522.975	452.992	0.100	-0.222
-521.960	98.366	0.060	0.070
-520.945	-144.677	-0.520	0.048
-519.931	194.261	0.177	0.270
-518.916	162.426	0.035	-0.050
-517.902	-53.167	-0.194	0.090
-516.887	590.294	-0.119	-0.294
-515.872	-1.271	0.155	-0.110
-514.858	92.709	-0.080	-0.090
-513.843	715.906	0.069	0.184
-512.829	-167.187	0.073	-0.003
-511.814	-165.755	-0.153	0.007
-510.799	142.170	0.105	-0.141
-509.785	-7.364	0.045	0.031
-508.770	-200.000	0.038	-0.564
-507.756	-200.000	-0.002	0.303
-506.741	-109.935	-0.063	0.013
-505.726	-200.000	0.049	-0.412
-504.712	720.738	-0.111	-0.297
-503.697	-5.092	0.181	-0.125
-502.683	-34.969	0.054	-0.030
-501.668	-8.320	-0.214	0.145
-500.653	-200.000	-0.015	0.122
-499.639	-12.693	-0.155	-0.102
-498.624	800.000	-0.048	0.138
-497.610	141.405	-0.178	-0.237
-496.595	800.000	-0.046	-0.157
-495.581	-63.245	-0.296	-0.123
-494.566	-42.266	0.204	-0.105
-493.551	549.911	-0.056	-0.134
-492.537	-200.000	0.010	-0.050
-491.522	299.657	-0.045	0.084
-490.508	-63.881	-0.161	-0.066
-489.493	473.397	-0.049	-0.111
-488.478	-39.824	-0.253	0.133
-487.464	-28.015	-0.139	0.081
-486.449	-99.145	-0.186	0.047
-485.435	-60.248	0.351	0.150
-484.420	364.052	-0.030	0.061
-483.405	284.005	0.015	-0.027
-482.391	-120.954	0.122	0.021
-481.376	346.582	0.041	0.081
-480.362	148.811	0.102	-0.139
-479.347	-200.000	0.016	0.179
-478.332	-150.909	-0.045	0.003
-477.318	-48.539	0.259	0.125
-476.303	-119.580	0.183	0.032
-475.289	139.872	0.084	0.111
-474.274	35.361	-0.140	0.123
-473.259	-150.220	0.416	0.032
-472.245	697.120	-0.028	-0.073
-471.230	-114.726	0.123	-0.024
-470.216	-200.000	0.011	-0.103
-469.201	543.978	-0.024	-0.057
-468.186	-79.613	-0.488	-0.165
-467.172	-136.332	0.305	0.036
-466.157	-200.000	-0.010	-0.211
-465.143	-200.000	-0.106	-0.553
-464.128	104.197	0.121	0.143
-463.113	113.935	0.178	-0.217
-462.099	87.766	0.109	-0.122
-461.084	-200.000	-0.029	-0.170
-460.070	800.000	-0.006	-0.025
-459.055	56.930	0.248	0.243
-458.040	-200.000	-0.011	-0.153
-457.026	167.628	0.047	0.067
-456.011	-39.853	0.076	-0.040
-454.997	147.156	0.177	-0.239
-453.982	-200.000	-0.024	-0.222
-452.968	291.205	-0.068	0.124
-451.953	-148.988	0.136	-0.011
-450.938	-142.438	0.509	-0.050
-449.924	-200.000	0.002	0.019
-448.909	-63.773	0.348	0.143
-447.895	800.000	0.099	0.284
-446.880	191.068	0.008	0.012
-445.865	230.021	-0.218	0.358
-444.851	-4.092	-0.095	0.066
-443.836	800.000	0.044	0.139
-442.822	-200.000	-0.035	-0.262
-441.807	-169.833	0.395	-0.014
-440.792	800.000	-0.021	0.063
-439.778	-103.787	-0.078	0.018
-438.763	459.925	-0.090	0.201
-437.749	-7.033	-0.113	-0.077
-436.734	800.000	-0.013	0.046
-435.719	304.871	0.075	-0.139
-434.705	-135.480	-0.365	0.044
-433.690	-137.812	0.224	0.025
-432.676	-87.069	0.053	-0.016
-431.661	38.866	-0.144	0.129
-430.646	-136.914	-0.170	0.020
-429.632	-89.979	0.191	-0.056
-428.617	-96.856	0.300	0.079
-427.603	-58.124	0.333	0.145
-426.588	-3.702	-0.387	0.269
-425.573	-200.000	-0.027	0.286
-424.559	-71.292	-0.242	-0.091
-423.544	-159.621	0.350	0.019
-422.530	112.157	-0.130	-0.157
-421.515	-125.713	0.404	-0.061
-420.500	-43.019	0.054	-0.027
-419.486	238.666	-0.038	0.063
-418.471	-134.600	0.283	0.035
-417.457	387.076	-0.087	-0.179
-416.442	631.047	0.075	-0.191
-415.428	63.050	0.070	-0.070
-414.413	-200.000	0.004	0.072
-413.398	-154.077	-0.113	0.008
-412.384	-200.000	-0.006	0.094
-411.369	-200.000	-0.025	0.202
-410.355	36.376	-0.256	0.226
-409.340	-127.379	-0.065	-0.009
-408.325	-60.307	0.141	-0.060
-407.311	800.000	0.055	0.200
-406.296	58.093	-0.345	-0.338
-405.282	26.820	0.087	0.073
-404.267	-200.000	-0.006	-0.034
-403.252	-92.280	0.378	0.107
-402.238	597.107	0.139	-0.346
-401.223	22.066	0.115	0.094
-400.209	-33.309	0.082	0.045
-399.194	37.763	-0.130	-0.116
-398.179	-177.147	0.065	0.002
-397.165	-29.577	0.021	0.012
-396.150	500.026	-0.242	-0.559
-395.136	476.925	-0.081	0.184
-394.121	800.000	0.072	0.227
-393.106	32.972	-0.189	0.164
-392.092	148.553	-0.272	0.368
-391.077	800.000	-0.052	0.225
-390.063	-87.765	0.305	0.092
-389.048	-86.249	-0.377	-0.116
-388.033	-0.419	0.097	0.069
-387.019	-40.696	-0.178	-0.092
-386.004	50.571	0.159	-0.150
-384.990	-200.000	-0.044	0.225
-383.975	93.309	-0.085	0.096
-382.960	55.083	-0.077	0.075
-381.946	6.562	0.216	-0.160
-380.931	-151.398	0.151	-0.011
-379.917	-200.000	0.038	0.284
-378.902	413.651	0.117	0.249
-377.888	21.515	0.196	-0.160
-376.873	-146.628	-0.208	0.018
-375.858	234.135	-0.172	-0.283
-374.844	25.248	0.161	0.134
-373.829	145.332	0.150	-0.201
-372.815	608.569	-0.114	0.285
-371.800	800.000	0.118	0.505
-370.785	44.891	-0.286	0.263
-369.771	135.242	0.124	-0.161
-368.756	-38.655	-0.254	-0.134
-367.742	544.597	0.095	-0.226
-366.727	-119.990	0.165	0.028
-365.712	350.160	0.115	0.227
-364.698	800.000	0.078	0.236
-363.683	47.916	-0.159	0.148
-362.669	67.052	-0.243	-0.248
-361.654	18.351	-0.109	0.087
-360.639	-83.803	0.163	-0.052
-359.625	182.367	-0.068	0.100
-358.610	-106.849	0.262	-0.058
-357.596	-200.000	-0.034	-0.217
-356.581	431.156	0.053	-0.115
-355.566	-200.000	0.005	0.184
-354.552	7.074	0.259	-0.193
-353.537	-74.453	-0.212	0.076
-352.523	-49.173	0.234	-0.112
-351.508	-14.817	-0.140	-0.090
-350.493	25.963	0.029	0.024
-349.479	559.225	0.104	-0.251
-348.464	-124.033	-0.223	-0.035
-347.450	407.263	0.105	-0.222
-346.435	-113.828	-0.101	0.020
-345.420	-69.591	0.035	-0.014
-344.406	800.000	0.051	0.155
-343.391	65.999	-0.061	-0.061
-342.377	-200.000	-0.017	-0.073
-341.362	-200.000	0.011	0.289
-340.348	-26.371	-0.156	0.091
-339.333	-93.729	0.101	0.028
-338.318	-93.641	0.366	-0.101
-337.304	-18.882	-0.255	-0.159
-336.289	-149.911	0.294	-0.023
-335.275	55.672	-0.175	-0.170
-334.260	28.093	0.286	-0.241
-333.245	-137.755	-0.389	0.044
-332.231	-200.000	-0.003	-0.217
-331.216	526.346	-0.044	-0.104
-330.202	-73.181	-0.072	-0.026
-329.187	627.359	0.242	0.609
-328.172	800.000	0.002	-0.006
-327.158	226.347	-0.031	0.051
-326.143	-15.173	-0.104	-0.066
-325.129	-200.000	-0.011	0.171
-324.114	-44.714	-0.058	0.029
-323.099	-78.851	0.163	0.055
-322.085	-112.746	-0.252	-0.050
-321.070	-138.517	0.185	0.020
-320.056	-200.000	0.080	-0.554
-319.041	527.005	0.085	0.201
-318.026	-200.000	-0.028	0.166
-317.012	-100.800	0.133	0.033
-315.997	-84.803	-0.328	0.103
-314.983	-19.973	-0.051	0.032
-313.968	229.172	-0.149	0.243
-312.953	-150.095	-0.251	-0.019
-311.939	-200.000	0.013	-0.267
-310.924	-115.550	0.130	-0.024
-309.910	800.000	-0.032	0.090
-308.895	-34.566	0.276	0.151
-307.880	-200.000	-0.064	-0.289
-306.866	800.000	0.071	-0.199
-305.851	-67.272	0.305	-0.120
-304.837	-78.803	-0.136	-0.046
-303.822	-200.000	0.018	-0.137
-302.807	-200.000	0.009	0.100
-301.793	181.034	-0.215	0.314
-300.778	129.615	-0.109	-0.139
-299.764	-200.000	-0.004	0.214
-298.749	155.477	-0.055	0.075
-297.735	800.000	0.005	-0.015
-296.720	-97.789	0.297	-0.077
-295.705	-165.989	0.219	0.009
-294.691	-200.000	0.018	-0.346
-293.676	-11.414	0.033	-0.022
-292.662	-200.000	0.004	-0.324
-291.647	163.756	-0.119	-0.166
-290.632	-177.654	-0.232	0.006
-289.618	-200.000	-0.019	0.200
-288.603	800.000	0.057	0.212
-287.589	203.802	0.067	0.103
-286.574	-38.667	-0.044	-0.023
-285.559	3.061	-0.112	0.081
-284.545	119.911	0.153	-0.190
-283.530	456.004	0.101	0.224
-282.516	157.445	-0.184	-0.254
-281.501	-112.608	0.014	-0.003
-280.486	-94.628	-0.053	-0.014
-279.472	410.920	0.078	-0.166
-278.457	710.344	0.071	0.188
-277.443	-138.100	-0.175	0.019
-276.428	255.769	-0.095	0.163
-275.413	800.000	0.043	0.154
-274.399	740.944	-0.011	0.028
-273.384	-200.000	0.082	0.454
-272.370	378.992	0.131	-0.266
-271.355	-160.298	-0.306	0.016
-270.340	-14.545	0.178	-0.114
-269.326	-113.696	-0.058	0.011
-268.311	-111.162	0.085	-0.017
-267.297	149.060	-0.074	-0.100
-266.282	6.931	0.024	0.018
-265.267	69.500	-0.044	0.045
-264.253	800.000	-0.044	0.139
-263.238	-157.707	0.255	-0.015
-262.224	-200.000	0.077	0.345
-261.209	17.312	-0.259	0.205
-260.195	-106.527	-0.461	0.102
-259.180	-141.939	0.094	0.009
-258.165	-132.645	-0.287	0.037
-257.151	-115.764	0.149	-0.028
-256.136	-21.794	0.092	-0.056
-255.122	202.071	0.065	0.099
-254.107	-28.298	-0.432	0.249
-253.092	-138.345	-0.405	0.044
-252.078	-200.000	-0.002	0.180
-251.063	225.598	-0.178	0.287
-250.049	18.375	0.323	0.256
-249.034	189.216	-0.117	0.174
-248.019	-200.000	0.011	-0.212
-247.005	43.049	0.118	0.107
-245.990	-108.403	-0.022	-0.005
-244.976	-185.905	-0.250	-0.004
-243.961	86.854	0.255	0.280
-242.946	-139.326	0.255	-0.027
-241.932	800.000	0.023	-0.072
-240.917	-200.000	-0.039	-0.245
-239.903	-200.000	0.034	-0.233
-238.888	-200.000	0.025	0.193
-237.873	92.803	0.118	-0.132
-236.859	98.978	-0.133	-0.153
-235.844	-200.000	0.007	0.065
-234.830	684.772	0.056	-0.145
-233.815	6.631	-0.280	0.207
-232.800	563.759	-0.112	0.270
-231.786	-131.734	0.094	-0.012
-230.771	800.000	0.024	0.083
-229.757	-114.699	-0.079	-0.015
-228.742	-57.083	0.109	0.048
-227.727	43.017	-0.090	-0.082
-226.713	232.453	0.118	0.193
-225.698	-200.000	-0.021	0.264
-224.684	567.172	-0.123	0.297
-223.669	-110.443	-0.130	-0.027
-222.655	-200.000	0.021	-0.252
-221.640	269.979	0.150	-0.262
-220.625	-200.000	0.005	-0.109
-219.611	800.000	0.086	0.322
-218.596	-96.258	-0.112	0.030
-217.582	132.343	-0.135	-0.173
-216.567	-59.495	0.173	-0.074
-215.552	-158.182	-0.211	0.012
-214.538	590.456	0.060	0.147
-213.523	-186.573	0.033	-0.000
-212.509	-81.621	-0.074	0.024
-211.494	637.261	0.002	-0.006
-210.479	-113.549	0.301	0.058
-209.465	27.839	-0.125	0.104
-208.450	223.822	0.145	0.233
-207.436	800.000	0.023	0.099
-206.421	507.507	-0.190	0.438
-205.406	247.851	0.106	0.178
-204.392	136.040	0.107	-0.138
-203.377	-151.993	-0.133	0.010
-202.363	-86.614	-0.220	-0.067
-201.348	57.299	-0.193	-0.187
-200.333	-200.000	-0.005	0.222
-199.319	-40.197	0.158	0.082
-198.304	42.935	0.360	-0.326
-197.290	-83.306	0.307	0.098
-196.275	566.908	0.048	-0.117
-195.260	-200.000	0.071	-0.378
-194.246	87.385	0.041	0.046
-193.231	339.721	-0.133	-0.258
-192.217	148.614	-0.235	-0.315
-191.202	-158.608	0.163	0.009
-190.187	-102.673	-0.363	0.086
-189.173	-17.438	0.318	-0.198
-188.158	-125.260	-0.203	0.031
-187.144	-61.690	0.391	0.163
-186.129	95.516	-0.033	0.038
-185.114	-20.475	-0.119	-0.073
-184.100	-200.000	0.025	0.112
-183.085	118.480	-0.212	0.259
-182.071	-200.000	-0.029	-0.177
-181.056	-200.000	-0.015	-0.073
-180.042	372.930	0.094	0.191
-179.027	-86.689	-0.074	-0.023
-178.012	273.341	0.048	0.083
-176.998	-20.967	0.155	-0.094
-175.983	-60.271	0.227	-0.096
-174.969	158.860	-0.038	0.052
-173.954	-81.248	-0.278	-0.091
-172.939	17.086	-0.326	-0.256
-171.925	-136.838	-0.188	-0.021
-170.910	-147.857	0.381	0.032
-169.896	202.678	0.265	-0.406
-168.881	-200.000	-0.046	0.211
-167.866	-85.366	0.118	0.037
-166.852	-118.752	-0.445	-0.078
-165.837	248.128	-0.125	0.209
-164.823	193.147	0.138	0.207
-163.808	-103.870	0.344	0.080
-162.793	419.856	0.051	0.108
-161.779	-99.685	-0.266	0.066
-160.764	259.732	0.074	-0.127
-159.750	-200.000	0.007	-0.343
-158.735	216.017	-0.175	-0.275
-157.720	20.851	0.205	-0.165
-156.706	-75.868	0.084	0.029
-155.691	-126.931	0.175	-0.025
-154.677	-76.206	-0.281	0.098
-153.662	7.759	-0.121	0.090
-152.647	-200.000	-0.002	0.074
-151.633	-200.000	-0.015	-0.409
-150.618	-51.453	0.326	-0.151
-149.604	800.000	0.074	-0.257
-148.589	178.232	0.097	0.141
-147.574	-200.000	0.002	0.129
-146.560	17.996	-0.322	0.254
-145.545	-106.491	0.328	0.072
-144.531	347.631	0.061	0.120
-143.516	795.932	0.170	0.464
-142.502	-200.000	0.008	-0.085
-141.487	-200.000	0.072	0.463
-140.472	-151.606	-0.419	-0.031
-139.458	-52.805	-0.112	-0.051
-138.443	-200.000	-0.029	0.270
-137.429	-47.947	0.078	-0.037
-136.414	143.208	0.144	-0.190
-135.399	-6.089	-0.157	0.106
-134.385	-198.831	-0.518	-0.003
-133.370	-45.767	-0.237	0.116
-132.356	-52.220	-0.197	0.090
-131.341	145.284	-0.113	-0.150
-130.326	-200.000	-0.088	-0.382
-129.312	-3.261	0.153	-0.106
-128.297	43.408	-0.212	-0.192
-127.283	-53.394	0.178	0.081
-126.268	-144.653	-0.268	0.024
-125.253	-100.130	-0.242	-0.060
-124.239	-200.000	0.020	-0.284
-123.224	36.052	-0.232	0.202
-122.210	800.000	0.034	-0.141
