DTS Sentinel unit serial number:	SN413079Multiplexer serial number:	ORYXHardware model number:	OX4-SRSoftware version number:	ORYX F/W v4.00 Oryx Data Collector v3.7.2.0data status	okinstallation	princeton_trtdifferential loss correction	single-endedforward channel	channel 4reverse channel	N/Adate	2019/09/14time	20:29:35forward acquisition time	60.00reverse acquisition time	0.00gamma	496.2192k internal	0.2305k external	0.2305temperature offset calibration	1.0093default loss term (dB/km)	0.3790temperature slope calibration	1.0000multiplexer offset coefficient	1.0000multiplexer slope coefficient	1.0000fibre end	0.00T internal ref (°C)	33.56T ext. ref 1 (°C)	4.87T ext. ref 2 (°C)	28.15length (m)	temperature (°C)	Stokes	anti-Stokes-747.200	800.000	0.134	-0.393
-746.185	-22.274	-0.031	-0.019
-745.171	-200.000	-0.040	0.197
-744.156	-69.524	-0.391	-0.153
-743.142	-73.988	-0.173	0.064
-742.127	13.213	-0.391	-0.308
-741.112	-32.693	-0.121	-0.069
-740.098	34.180	0.116	0.103
-739.083	-74.152	-0.099	0.037
-738.069	-200.000	-0.064	0.317
-737.054	-200.000	-0.042	0.275
-736.039	800.000	0.043	-0.133
-735.025	-101.779	0.217	0.053
-734.010	340.012	-0.089	-0.176
-732.996	3.615	-0.326	0.242
-731.981	-28.990	0.044	0.026
-730.966	499.597	-0.041	-0.095
-729.952	-200.000	0.018	0.000
-728.937	599.143	0.068	-0.173
-727.923	-200.000	0.030	-0.240
-726.908	-62.218	-0.228	0.097
-725.894	298.204	-0.029	0.054
-724.879	18.327	-0.207	0.168
-723.864	-58.747	0.440	0.194
-722.850	-200.000	0.005	-0.067
-721.835	-70.476	0.028	0.011
-720.821	-125.720	-0.552	0.085
-719.806	-122.992	0.168	0.027
-718.791	14.046	-0.140	-0.111
-717.777	800.000	0.047	-0.136
-716.762	200.467	0.164	0.256
-715.748	170.228	0.205	-0.298
-714.733	292.013	0.100	-0.185
-713.718	800.000	-0.043	-0.164
-712.704	-200.000	-0.020	0.257
-711.689	138.668	-0.074	-0.099
-710.675	-104.485	-0.075	-0.018
-709.660	0.622	0.310	-0.225
-708.645	-80.263	-0.084	0.029
-707.631	633.207	-0.043	0.110
-706.616	800.000	0.134	0.511
-705.602	-200.000	-0.032	-0.202
-704.587	-59.833	-0.165	0.072
-703.572	-50.274	-0.312	-0.150
-702.558	-117.025	-0.582	-0.108
-701.543	-16.451	0.104	0.067
-700.529	-200.000	-0.000	-0.221
-699.514	51.727	-0.160	-0.154
-698.499	800.000	-0.135	-0.426
-697.485	-123.818	0.185	-0.030
-696.470	212.549	0.056	0.089
-695.456	244.173	-0.023	-0.039
-694.441	27.908	-0.180	-0.154
-693.426	-11.147	-0.237	-0.159
-692.412	-1.423	-0.300	0.215
-691.397	-77.874	0.136	0.048
-690.383	20.613	0.250	-0.205
-689.368	140.744	-0.327	-0.439
-688.354	-31.844	0.185	0.105
-687.339	-31.626	-0.301	0.172
-686.324	225.376	-0.116	-0.190
-685.310	-122.771	0.235	0.039
-684.295	99.277	-0.182	0.214
-683.281	195.144	0.164	-0.252
-682.266	800.000	0.102	-0.435
-681.251	21.492	0.203	0.168
-680.237	-5.008	0.112	0.078
-679.222	-13.696	0.256	0.168
-678.208	169.274	0.097	0.141
-677.193	-200.000	-0.027	-0.193
-676.178	-70.407	0.204	-0.078
-675.164	-176.311	-0.079	0.002
-674.149	-200.000	0.041	-0.241
-673.135	90.734	0.002	-0.003
-672.120	-200.000	0.002	0.112
-671.105	-200.000	-0.210	0.001
-670.091	3.189	0.116	0.086
-669.076	1.519	-0.080	-0.058
-668.062	-70.650	0.280	-0.107
-667.047	-192.208	0.121	-0.001
-666.032	-28.083	0.178	0.105
-665.018	800.000	-0.032	-0.113
-664.003	521.324	-0.041	0.098
-662.989	-200.000	0.004	-0.041
-661.974	510.437	-0.070	0.165
-660.959	-98.264	0.185	0.048
-659.945	-116.663	-0.439	0.082
-658.930	-200.000	0.061	-0.417
-657.916	800.000	-0.037	0.144
-656.901	81.380	0.100	-0.110
-655.886	800.000	0.034	-0.150
-654.872	-125.986	0.650	0.099
-653.857	-38.333	-0.130	0.070
-652.843	217.105	-0.087	-0.140
-651.828	-8.872	-0.031	0.021
-650.814	734.444	0.138	-0.374
-649.799	154.368	0.078	0.109
-648.784	-113.222	0.232	0.046
-647.770	-161.356	0.225	-0.012
-646.755	403.897	0.134	0.286
-645.741	347.202	0.089	-0.178
-644.726	-97.645	0.277	-0.073
-643.711	44.625	-0.195	0.182
-642.697	288.368	0.099	0.181
-641.682	68.048	-0.312	0.323
-640.668	800.000	-0.006	0.024
-639.653	-91.984	-0.271	0.078
-638.638	-22.239	-0.340	0.209
-637.624	-74.900	0.143	0.052
-636.609	-16.489	-0.328	-0.211
-635.595	-200.000	-0.039	0.183
-634.580	325.770	-0.132	0.255
-633.565	800.000	-0.078	0.238
-632.551	309.615	0.128	-0.242
-631.536	-64.358	-0.326	-0.134
-630.522	275.971	0.126	-0.226
-629.507	-200.000	-0.001	0.143
-628.492	85.297	-0.075	-0.084
-627.478	-112.964	0.293	0.059
-626.463	-200.000	-0.003	-0.053
-625.449	-103.316	-0.365	-0.087
-624.434	-104.883	0.213	0.050
-623.419	-200.000	0.013	-0.182
-622.405	136.393	-0.057	-0.075
-621.390	218.095	-0.123	0.199
-620.376	172.673	0.241	0.351
-619.361	-144.634	0.161	0.015
-618.346	162.708	0.205	0.291
-617.332	75.492	-0.209	0.224
-616.317	-161.670	-0.161	0.008
-615.303	-145.685	-0.186	-0.017
-614.288	800.000	0.073	-0.265
-613.273	-66.544	0.444	0.178
-612.259	-194.245	0.164	0.001
-611.244	800.000	-0.130	-0.368
-610.230	-192.939	-0.226	-0.002
-609.215	800.000	0.168	-0.522
-608.201	0.721	-0.068	0.050
-607.186	483.358	0.154	0.354
-606.171	-137.513	-0.123	-0.014
-605.157	800.000	-0.054	-0.210
-604.142	21.050	-0.147	0.120
-603.128	78.773	0.116	-0.125
-602.113	154.382	-0.089	0.124
-601.098	630.260	-0.154	0.393
-600.084	-144.862	0.163	0.015
-599.069	-88.712	0.406	-0.122
-598.055	-120.052	-0.096	-0.017
-597.040	-24.079	0.210	-0.127
-596.025	-21.504	-0.264	-0.163
-595.011	-150.129	-0.113	-0.009
-593.996	-129.250	0.079	0.011
-592.982	412.088	0.073	0.157
-591.967	800.000	-0.011	0.037
-590.952	-179.102	-0.297	0.007
-589.938	-200.000	-0.010	-0.100
-588.923	-200.000	0.050	-0.261
-587.909	-168.758	-0.023	-0.001
-586.894	164.361	-0.037	-0.052
-585.879	1.892	-0.034	-0.025
-584.865	-200.000	0.033	-0.193
-583.850	800.000	0.146	0.409
-582.836	-155.219	0.177	-0.012
-581.821	-163.573	-0.134	0.006
-580.806	353.391	0.054	0.107
-579.792	-200.000	-0.027	-0.197
-578.777	-200.000	0.060	0.311
-577.763	-96.488	-0.077	-0.021
-576.748	-200.000	-0.012	-0.127
-575.733	-125.209	-0.248	0.038
-574.719	-113.221	-0.359	-0.072
-573.704	21.964	0.139	0.115
-572.690	-200.000	-0.042	0.229
-571.675	-200.000	-0.034	0.376
-570.661	37.003	0.257	0.230
-569.646	-19.243	0.310	0.194
-568.631	190.607	0.087	-0.132
-567.617	-200.000	-0.002	0.109
-566.602	-36.234	-0.387	-0.211
-565.588	-200.000	0.006	0.103
-564.573	-125.221	-0.149	-0.023
-563.558	-81.895	-0.311	0.103
-562.544	339.223	0.097	-0.191
-561.529	230.991	0.179	0.296
-560.515	-200.000	0.013	0.285
-559.500	800.000	-0.033	0.141
-558.485	-36.081	-0.158	0.086
-557.471	-200.000	0.296	0.001
-556.456	155.937	0.099	0.137
-555.442	-31.590	0.409	0.232
-554.427	-33.159	0.181	0.101
-553.412	-99.095	-0.169	0.043
-552.398	-174.078	0.209	-0.006
-551.383	800.000	0.113	0.455
-550.369	214.875	0.039	-0.063
-549.354	487.796	-0.052	0.121
-548.339	-200.000	0.008	0.284
-547.325	-60.389	-0.095	0.041
-546.310	-200.000	0.011	0.288
-545.296	116.638	0.164	-0.203
-544.281	-76.319	0.184	-0.065
-543.266	-61.033	-0.324	0.138
-542.252	15.079	-0.255	-0.202
-541.237	416.095	0.066	0.142
-540.223	-112.793	0.152	-0.030
-539.208	-42.935	-0.034	-0.017
-538.193	-16.293	0.169	-0.108
-537.179	-114.250	-0.326	0.063
-536.164	68.044	-0.051	0.053
-535.150	-92.460	0.243	0.069
-534.135	-9.936	-0.076	0.051
-533.121	800.000	0.036	0.115
-532.106	-35.996	-0.279	-0.152
-531.091	65.665	0.286	-0.293
-530.077	-35.613	-0.270	-0.148
-529.062	-26.178	-0.226	0.134
-528.048	-200.000	0.022	0.149
-527.033	-51.587	-0.371	0.175
-526.018	800.000	0.063	0.269
-525.004	-200.000	-0.043	0.196
-523.989	38.601	-0.173	-0.155
-522.975	-6.129	0.191	0.132
-521.960	107.073	-0.177	-0.212
-520.945	62.708	-0.134	0.136
-519.931	-105.183	0.146	-0.034
-518.916	268.727	0.050	0.088
-517.902	368.475	-0.223	0.454
-516.887	194.942	-0.138	0.211
-515.872	-200.000	0.042	0.300
-514.858	-65.571	-0.296	0.120
-513.843	-200.000	0.009	0.253
-512.829	293.675	-0.056	0.103
-511.814	187.087	0.199	0.299
-510.799	-2.288	0.163	-0.115
-509.785	-114.830	-0.054	-0.010
-508.770	-60.047	-0.371	-0.160
-507.756	-200.000	0.011	-0.135
-506.741	184.361	0.042	-0.063
-505.726	-124.909	-0.164	0.025
-504.712	60.166	-0.143	0.142
-503.697	500.768	0.105	0.244
-502.683	115.515	0.236	0.291
-501.668	800.000	-0.091	-0.351
-500.653	-155.985	-0.097	-0.006
-499.639	800.000	-0.060	-0.171
-498.624	-169.182	-0.246	-0.009
-497.610	184.020	0.072	0.107
-496.595	-146.014	-0.278	0.025
-495.581	-142.889	0.408	0.040
-494.566	7.603	0.064	-0.048
-493.551	-142.358	-0.285	0.028
-492.537	800.000	-0.029	-0.113
-491.522	107.217	-0.270	0.324
-490.508	542.878	-0.107	-0.258
-489.493	175.671	-0.083	0.121
-488.478	280.505	0.181	-0.326
-487.464	382.850	0.160	-0.332
-486.449	-120.997	-0.108	-0.018
-485.435	-200.000	0.025	0.422
-484.420	87.093	0.079	0.088
-483.405	27.954	-0.181	0.153
-482.391	-200.000	-0.026	-0.164
-481.376	1.907	-0.230	0.167
-480.362	70.646	-0.239	0.249
-479.347	127.898	-0.104	0.133
-478.332	-200.000	0.008	-0.326
-477.318	-129.793	-0.142	0.020
-476.303	144.533	0.262	-0.353
-475.289	305.533	0.169	-0.317
-474.274	-143.925	0.396	0.038
-473.259	-26.220	-0.450	-0.266
-472.245	357.250	-0.066	-0.133
-471.230	125.879	-0.225	0.286
-470.216	-200.000	-0.024	0.123
-469.201	-60.804	0.361	0.154
-468.186	26.092	-0.063	-0.053
-467.172	226.247	-0.127	-0.207
-466.157	-117.065	0.100	-0.018
-465.143	250.536	-0.135	0.230
-464.128	-43.015	-0.131	-0.067
-463.113	800.000	0.068	0.215
-462.099	776.869	-0.057	0.157
-461.084	800.000	0.054	-0.164
-460.070	800.000	-0.114	0.351
-459.055	-179.994	0.122	-0.003
-458.040	158.874	-0.009	-0.013
-457.026	84.287	0.133	-0.146
-456.011	26.742	0.273	-0.230
-454.997	199.757	0.159	-0.246
-453.982	-178.943	-0.325	-0.007
-452.968	53.912	0.146	0.141
-451.953	656.044	-0.022	0.056
-450.938	800.000	0.040	0.131
-449.924	22.738	0.215	0.177
-448.909	-114.274	0.252	-0.049
-447.895	-126.468	-0.343	0.051
-446.880	44.336	0.161	-0.149
-445.865	-1.073	-0.091	-0.065
-444.851	800.000	0.067	-0.273
-443.836	-69.004	-0.291	-0.113
-442.822	800.000	-0.029	-0.082
-441.807	-107.805	0.122	0.027
-440.792	-18.493	0.213	0.134
-439.778	73.050	-0.078	0.082
-438.763	-200.000	0.047	-0.261
-437.749	-176.119	-0.409	0.011
-436.734	-64.959	-0.238	-0.097
-435.719	-80.603	-0.086	-0.029
-434.705	-4.218	-0.363	-0.252
-433.690	293.436	-0.159	0.292
-432.676	296.690	-0.091	-0.167
-431.661	92.984	-0.089	0.102
-430.646	-10.052	0.101	-0.068
-429.632	-46.978	0.383	0.188
-428.617	431.570	-0.128	-0.278
-427.603	-200.000	-0.066	-0.331
-426.588	139.934	-0.133	0.176
-425.573	-101.348	-0.196	-0.048
-424.559	-111.905	-0.275	0.056
-423.544	-33.762	0.136	-0.075
-422.530	76.711	-0.190	-0.202
-421.515	206.112	-0.079	-0.123
-420.500	9.859	0.088	0.067
-419.486	-155.634	-0.046	-0.003
-418.471	-24.688	-0.217	-0.129
-417.457	7.397	0.274	-0.205
-416.442	-200.000	0.015	0.115
-415.428	-18.831	0.052	0.033
-414.413	800.000	-0.008	0.026
-413.398	-200.000	-0.051	-0.303
-412.384	-110.110	0.190	-0.040
-411.369	101.316	0.198	0.232
-410.355	-27.133	-0.064	0.037
-409.340	32.604	0.087	-0.075
-408.325	800.000	0.105	-0.302
-407.311	-41.723	-0.264	-0.136
-406.296	-178.837	-0.069	-0.002
-405.282	20.270	0.067	-0.055
-404.267	254.867	-0.055	-0.095
-403.252	-59.507	0.084	-0.036
-402.238	308.020	-0.109	-0.205
-401.223	-170.315	-0.244	0.009
-400.209	111.164	-0.234	-0.283
-399.194	-44.502	0.114	0.057
-398.179	-200.000	-0.006	0.095
-397.165	-42.194	-0.186	0.096
-396.150	800.000	0.079	0.274
-395.136	52.328	-0.119	0.114
-394.121	-200.000	-0.062	0.430
-393.106	-168.466	0.300	-0.012
-392.092	149.561	0.199	0.271
-391.077	73.895	0.141	-0.148
-390.063	-121.119	0.041	0.007
-389.048	366.353	0.089	0.180
-388.033	-37.009	-0.416	0.224
-387.019	-115.275	-0.103	-0.020
-386.004	-93.304	-0.186	0.052
-384.990	800.000	0.034	-0.097
-383.975	580.474	0.042	-0.104
-382.960	96.581	0.205	-0.236
-381.946	-48.269	0.176	0.085
-380.931	-73.340	0.232	0.085
-379.917	-200.000	-0.025	-0.324
-378.902	800.000	-0.006	0.024
-377.888	-158.840	0.133	0.008
-376.873	-200.000	0.056	0.499
-375.858	6.788	0.048	0.036
-374.844	-172.550	0.126	-0.004
-373.829	-165.301	-0.270	0.012
-372.815	279.027	0.050	0.089
-371.800	-76.978	-0.052	-0.018
-370.785	175.886	-0.113	0.165
-369.771	16.355	-0.183	0.145
-368.756	-37.224	0.152	0.081
-367.742	-38.834	0.191	0.101
-366.727	34.509	0.160	-0.140
-365.712	22.531	-0.136	-0.111
-364.698	117.518	-0.091	-0.112
-363.683	800.000	-0.052	0.156
-362.669	-200.000	-0.029	0.181
-361.654	-71.699	-0.272	-0.102
-360.639	387.477	0.125	0.260
-359.625	-200.000	0.053	-0.307
-358.610	-59.762	0.265	0.114
-357.596	229.623	0.045	-0.074
-356.581	7.603	0.140	-0.105
-355.566	-93.130	0.376	0.105
-354.552	269.353	0.159	-0.280
-353.537	21.835	0.260	0.212
-352.523	106.157	0.136	-0.161
-351.508	-84.619	0.385	-0.122
-350.493	-92.037	0.325	0.092
-349.479	-29.922	-0.154	0.088
-348.464	98.163	0.108	0.125
-347.450	-200.000	-0.015	0.173
-346.435	-200.000	-0.006	-0.304
-345.420	-200.000	-0.009	0.089
-344.406	620.454	-0.081	-0.203
-343.391	682.657	0.075	0.197
-342.377	361.017	0.189	-0.379
-341.362	504.314	-0.115	-0.266
-340.348	-111.001	0.324	0.067
-339.333	40.946	-0.120	0.109
-338.318	-65.708	0.133	0.053
-337.304	-200.000	0.010	0.157
-336.289	-200.000	0.120	-0.584
-335.275	800.000	-0.025	-0.078
-334.260	-32.938	0.246	0.137
-333.245	-131.709	0.328	0.043
-332.231	-122.619	0.258	-0.042
-331.216	-109.244	-0.267	0.057
-330.202	-27.898	-0.506	0.294
-329.187	800.000	0.047	-0.180
-328.172	-161.633	0.237	-0.012
-327.158	709.224	-0.052	-0.137
-326.143	-151.350	-0.284	-0.021
-325.129	53.794	0.118	0.113
-324.114	800.000	0.054	0.208
-323.099	366.512	0.051	-0.104
-322.085	-79.196	-0.073	0.025
-321.070	-94.476	-0.385	-0.105
-320.056	-24.802	0.056	-0.033
-319.041	-183.399	-0.157	0.003
-318.026	-132.579	-0.257	0.033
-317.012	90.968	-0.210	0.236
-315.997	228.558	0.050	0.081
-314.983	-1.582	0.279	0.197
-313.968	-109.619	0.230	-0.048
-312.953	159.640	0.264	0.368
-311.939	-139.113	-0.102	0.011
-310.924	-89.997	0.397	-0.116
-309.910	-113.809	-0.234	-0.045
-308.895	-142.570	0.069	-0.007
-307.880	487.381	0.105	-0.240
-306.866	-181.336	0.169	0.003
-305.851	-26.396	0.141	-0.083
-304.837	-35.920	0.181	0.098
-303.822	-74.070	-0.221	0.080
-302.807	-200.000	0.033	0.429
-301.793	-200.000	-0.016	0.272
-300.778	53.762	0.234	-0.225
-299.764	443.176	-0.108	0.237
-298.749	681.446	-0.035	0.091
-297.735	-200.000	-0.010	-0.320
-296.720	800.000	0.064	0.225
-295.705	800.000	0.007	0.027
-294.691	-200.000	-0.016	0.140
-293.676	-41.239	-0.307	-0.158
-292.662	-31.395	-0.319	-0.179
-291.647	-59.788	-0.111	0.048
-290.632	-105.665	0.216	-0.049
-289.618	-76.729	-0.437	-0.153
-288.603	288.306	0.057	-0.104
-287.589	-71.239	0.097	-0.036
-286.574	-76.370	0.160	-0.056
-285.559	-200.000	-0.038	-0.327
-284.545	-32.834	0.051	0.028
-283.530	115.583	0.124	-0.151
-282.516	188.816	0.140	-0.209
-281.501	55.310	0.027	-0.026
-280.486	517.030	0.139	-0.326
-279.472	-38.471	-0.386	-0.204
-278.457	181.197	0.029	0.042
-277.443	-132.331	0.141	-0.018
-276.428	-100.304	-0.237	-0.059
-275.413	-39.687	-0.264	-0.138
-274.399	-200.000	0.071	0.362
-273.384	-149.101	0.287	0.023
-272.370	704.000	0.162	-0.428
-271.355	224.597	-0.055	-0.089
-270.340	800.000	0.124	-0.444
-269.326	329.455	0.173	-0.331
-268.311	-200.000	0.049	0.230
-267.297	-200.000	-0.005	0.026
-266.282	15.824	-0.295	-0.231
-265.267	-137.954	0.298	-0.033
-264.253	-89.861	-0.033	0.010
-263.238	240.517	-0.097	0.161
-262.224	222.733	0.244	-0.392
-261.209	-79.978	0.088	0.029
-260.195	-200.000	-0.063	-0.344
-259.180	727.314	-0.054	-0.144
-258.165	-200.000	0.031	0.151
-257.151	-95.923	0.066	-0.018
-256.136	-173.074	-0.089	0.003
-255.122	448.769	-0.141	-0.311
-254.107	-82.391	-0.044	0.014
-253.092	109.415	0.105	-0.126
-252.078	-200.000	0.086	0.458
-251.063	-94.782	-0.250	-0.068
-250.049	140.121	0.181	-0.238
-249.034	800.000	-0.040	0.123
-248.019	-70.534	-0.116	0.044
-247.005	-28.752	0.327	-0.188
-245.990	60.997	-0.103	0.102
-244.976	800.000	-0.113	-0.391
-243.961	800.000	0.040	0.121
-242.946	34.273	0.303	0.264
-241.932	-93.506	-0.073	0.020
-240.917	125.033	-0.029	-0.037
-239.903	-135.747	-0.154	-0.018
-238.888	-45.116	-0.075	0.037
-237.873	-31.705	0.340	0.191
-236.859	-124.708	-0.409	-0.063
-235.844	-39.056	0.353	-0.185
-234.830	-200.000	-0.011	-0.407
-233.815	-200.000	0.050	-0.225
-232.800	402.592	0.115	0.241
-231.786	439.905	-0.059	0.129
-230.771	800.000	0.101	-0.330
-229.757	334.957	0.093	0.180
-228.742	-200.000	0.027	0.202
-227.727	-152.988	-0.640	-0.045
-226.713	179.843	-0.078	-0.114
-225.698	-186.499	-0.067	0.001
-224.684	800.000	0.031	-0.129
-223.669	595.308	-0.171	-0.421
-222.655	8.025	0.289	0.216
-221.640	187.817	0.147	0.219
-220.625	130.334	-0.043	0.055
-219.611	-37.391	-0.192	0.102
-218.596	-200.000	-0.002	-0.014
-217.582	-52.612	-0.181	-0.083
-216.567	-49.005	0.257	0.123
-215.552	126.533	0.073	0.092
-214.538	-39.464	-0.198	0.104
-213.523	262.694	0.218	-0.376
-212.509	-53.869	0.090	0.041
-211.494	442.908	0.125	0.272
-210.479	-155.391	0.135	-0.009
-209.465	-200.000	0.023	0.244
-208.450	-56.090	-0.049	-0.022
-207.436	347.803	-0.161	-0.316
-206.421	-87.892	0.049	-0.015
-205.406	-200.000	-0.014	0.128
-204.392	699.738	0.049	0.128
-203.377	-71.941	-0.171	0.063
-202.363	678.624	0.028	-0.072
-201.348	325.014	0.087	-0.166
-200.333	358.492	-0.134	0.267
-199.319	228.806	0.059	0.096
-198.304	791.632	-0.123	-0.338
-197.290	99.294	-0.046	-0.052
-196.275	106.764	0.063	-0.074
-195.260	125.834	-0.260	-0.328
-194.246	180.590	0.055	0.081
-193.231	305.260	-0.148	-0.274
-192.217	-46.139	0.147	-0.072
-191.202	-200.000	-0.213	0.000
-190.187	-6.055	-0.366	-0.249
-189.173	126.412	-0.127	-0.160
-188.158	-164.527	-0.131	-0.006
-187.144	-166.109	0.341	0.014
-186.129	-200.000	0.008	-0.267
-185.114	278.683	0.087	-0.154
-184.100	42.433	-0.103	0.094
-183.085	-200.000	-0.015	-0.198
-182.071	-167.277	0.103	-0.004
-181.056	-177.250	0.418	-0.010
-180.042	9.297	-0.308	0.232
-179.027	14.775	-0.163	0.127
-178.012	-200.000	0.004	-0.018
-176.998	9.781	0.056	-0.042
-175.983	17.501	-0.059	0.047
-174.969	-127.752	0.495	-0.071
-173.954	-100.850	0.053	0.013
-172.939	-25.570	0.220	0.129
-171.925	31.902	0.102	-0.087
-170.910	-50.652	-0.161	-0.075
-169.896	-69.962	-0.329	0.125
-168.881	-200.000	0.016	0.099
-167.866	147.211	-0.097	-0.129
-166.852	340.179	-0.024	0.047
-165.837	-200.000	-0.006	-0.165
-164.823	800.000	0.113	-0.387
-163.808	-190.667	-0.138	-0.001
-162.793	-20.621	0.177	0.108
-161.779	382.910	-0.138	-0.282
-160.764	190.021	0.127	0.190
-159.750	106.840	0.225	0.265
-158.735	-200.000	-0.025	-0.134
-157.720	-151.947	0.257	-0.019
-156.706	800.000	0.014	0.050
-155.691	-80.880	0.248	-0.082
-154.677	-200.000	-0.026	-0.357
-153.662	800.000	0.051	-0.142
-152.647	205.898	-0.056	-0.087
-151.633	-118.746	0.165	0.029
-150.618	100.473	-0.141	0.162
-149.604	378.078	0.183	-0.372
-148.589	-200.000	-0.014	-0.105
-147.574	800.000	-0.020	0.070
-146.560	50.894	0.203	-0.191
-145.545	117.746	-0.177	-0.216
-144.531	-49.828	0.252	-0.119
-143.516	-122.784	-0.241	-0.039
-142.502	768.342	0.032	0.086
-141.487	-200.000	-0.016	-0.102
-140.472	-170.400	-0.236	0.008
-139.458	-95.279	0.468	0.125
-138.443	246.163	-0.055	0.092
-137.429	405.276	0.091	0.190
-136.414	-119.622	0.125	0.022
-135.399	-3.488	-0.085	-0.059
-134.385	-200.000	0.036	0.302
-133.370	80.539	0.194	-0.207
-132.356	-115.084	0.441	-0.083
-131.341	-118.500	0.039	-0.007
-130.326	-42.554	0.216	0.109
-129.312	-200.000	-0.012	-0.326
-128.297	800.000	0.066	0.187
-127.283	-200.000	-0.124	-0.001
-126.268	-15.258	-0.102	-0.065
-125.253	209.579	-0.179	0.279
-124.239	-200.000	0.039	-0.218
-123.224	449.136	0.131	0.287
-122.210	34.519	0.177	0.154
