DTS Sentinel unit serial number:	SN413079Multiplexer serial number:	ORYXHardware model number:	OX4-SRSoftware version number:	ORYX F/W v4.00 Oryx Data Collector v3.7.2.0data status	okinstallation	princeton_trtdifferential loss correction	single-endedforward channel	channel 4reverse channel	N/Adate	2019/09/18time	15:29:35forward acquisition time	60.00reverse acquisition time	0.00gamma	496.2192k internal	0.2295k external	0.2295temperature offset calibration	1.0006default loss term (dB/km)	0.3790temperature slope calibration	1.0000multiplexer offset coefficient	1.0000multiplexer slope coefficient	1.0000fibre end	0.00T internal ref (°C)	36.19T ext. ref 1 (°C)	0.76T ext. ref 2 (°C)	34.04length (m)	temperature (°C)	Stokes	anti-Stokes-747.200	-55.726	0.148	0.068
-746.185	-200.000	0.071	0.415
-745.171	13.439	0.129	0.102
-744.156	-96.878	-0.069	0.018
-743.142	-132.035	0.434	-0.058
-742.127	45.784	-0.197	0.186
-741.112	-200.000	0.042	0.223
-740.098	-2.111	-0.506	0.363
-739.083	-88.849	-0.526	0.160
-738.069	150.166	0.089	0.123
-737.054	-66.751	0.273	0.111
-736.039	45.052	-0.172	0.162
-735.025	-94.448	0.100	0.028
-734.010	800.000	-0.061	-0.193
-732.996	-17.301	-0.111	-0.072
-731.981	-3.049	0.060	0.043
-730.966	65.337	0.236	-0.244
-729.952	-200.000	0.038	0.215
-728.937	-122.385	0.139	-0.023
-727.923	800.000	0.081	-0.239
-726.908	-115.897	0.316	-0.060
-725.894	-186.842	0.313	-0.004
-724.879	136.313	-0.223	-0.297
-723.864	-119.623	0.181	-0.032
-722.850	-11.646	-0.174	-0.117
-721.835	60.113	-0.232	0.235
-720.821	470.286	-0.088	0.203
-719.806	-48.118	-0.273	-0.135
-718.791	-200.000	-0.022	-0.167
-717.777	-46.252	-0.226	0.114
-716.762	-15.733	0.161	0.105
-715.748	677.730	-0.031	-0.083
-714.733	81.209	-0.129	-0.143
-713.718	800.000	-0.042	0.122
-712.704	-28.297	0.088	-0.052
-711.689	-200.000	0.011	-0.145
-710.675	800.000	-0.086	0.261
-709.660	-200.000	0.016	0.149
-708.645	-54.218	-0.268	-0.124
-707.631	-200.000	-0.006	-0.105
-706.616	-200.000	0.001	0.006
-705.602	249.408	-0.155	-0.269
-704.587	-20.331	-0.221	-0.139
-703.572	800.000	-0.078	-0.227
-702.558	-137.997	-0.266	-0.030
-701.543	539.845	-0.059	-0.144
-700.529	112.666	0.024	-0.030
-699.514	-96.698	-0.426	0.114
-698.499	462.642	-0.052	0.118
-697.485	396.574	-0.114	-0.242
-696.470	-200.000	0.019	-0.157
-695.456	-35.396	-0.131	0.072
-694.441	-89.930	0.188	-0.056
-693.426	295.686	0.043	0.081
-692.412	166.408	-0.026	0.037
-691.397	-57.978	-0.310	0.138
-690.383	42.802	0.111	0.103
-689.368	-165.980	-0.289	0.013
-688.354	800.000	-0.020	-0.067
-687.339	-126.719	-0.174	0.026
-686.324	-200.000	-0.026	0.138
-685.310	800.000	-0.031	-0.127
-684.295	177.107	0.048	-0.071
-683.281	800.000	-0.020	0.064
-682.266	-200.000	0.003	0.503
-681.251	-49.019	-0.136	-0.066
-680.237	-33.397	0.172	-0.097
-679.222	427.904	0.034	-0.076
-678.208	-90.130	-0.228	-0.068
-677.193	-8.682	-0.230	-0.157
-676.178	-99.349	-0.098	-0.025
-675.164	115.833	-0.176	0.220
-674.149	800.000	0.032	0.119
-673.135	-115.028	-0.330	-0.064
-672.120	-133.941	-0.318	0.040
-671.105	6.944	-0.194	-0.147
-670.091	8.763	-0.108	-0.083
-669.076	-3.917	0.083	-0.059
-668.062	702.247	-0.044	-0.118
-667.047	-80.949	-0.127	-0.043
-666.032	800.000	-0.054	-0.208
-665.018	0.175	-0.196	-0.143
-664.003	-39.352	0.089	0.047
-662.989	-200.000	-0.003	0.384
-661.974	-3.555	0.117	0.083
-660.959	800.000	0.123	-0.395
-659.945	96.523	-0.018	0.020
-658.930	88.022	-0.084	-0.095
-657.916	-94.655	-0.086	-0.024
-656.901	26.848	0.219	0.187
-655.886	254.519	0.208	0.362
-654.872	-8.224	-0.198	-0.136
-653.857	2.742	-0.381	-0.282
-652.843	-93.035	0.508	-0.144
-651.828	800.000	0.097	-0.354
-650.814	-161.363	0.194	-0.010
-649.799	135.783	0.183	0.243
-648.784	-76.982	0.092	0.033
-647.770	154.277	-0.111	0.156
-646.755	-67.978	0.188	0.075
-645.741	-112.926	-0.143	0.029
-644.726	-65.251	0.120	-0.049
-643.711	-200.000	-0.009	-0.198
-642.697	197.178	0.202	0.314
-641.682	82.078	-0.140	-0.154
-640.668	-187.095	-0.424	0.006
-639.653	68.751	-0.184	0.192
-638.638	120.152	0.095	0.120
-637.624	-72.686	0.207	0.078
-636.609	-133.097	-0.238	0.031
-635.595	-47.284	-0.058	-0.029
-634.580	-41.873	0.238	-0.124
-633.565	-25.445	-0.204	-0.123
-632.551	-13.231	0.087	-0.058
-631.536	-59.281	0.130	-0.057
-630.522	199.090	-0.216	-0.337
-629.507	-200.000	0.010	-0.267
-628.492	50.002	-0.111	0.107
-627.478	-200.000	0.089	0.425
-626.463	-91.209	-0.185	-0.054
-625.449	-146.054	0.393	0.035
-624.434	185.281	-0.048	-0.073
-623.419	484.733	0.092	-0.213
-622.405	60.928	0.012	0.012
-621.390	-36.160	-0.242	-0.133
-620.376	-97.850	-0.213	0.056
-619.361	-163.177	0.491	-0.024
-618.346	-152.152	0.189	-0.014
-617.332	239.542	-0.092	0.156
-616.317	-13.234	-0.361	0.239
-615.303	764.783	-0.101	0.280
-614.288	-133.662	-0.287	-0.037
-613.273	59.870	0.221	-0.222
-612.259	-200.000	-0.003	0.027
-611.244	171.073	-0.223	0.326
-610.230	717.189	0.033	-0.089
-609.215	-94.344	-0.212	-0.059
-608.201	-6.333	0.190	-0.132
-607.186	327.669	0.091	-0.178
-606.171	-42.243	-0.059	-0.030
-605.157	-37.950	0.303	0.164
-604.142	800.000	0.030	0.115
-603.128	113.736	0.185	-0.228
-602.113	-13.898	0.105	0.069
-601.098	39.220	-0.385	0.350
-600.084	-85.019	-0.153	-0.049
-599.069	-9.929	-0.101	-0.069
-598.055	17.586	0.413	0.334
-597.040	-57.367	-0.406	-0.182
-596.025	800.000	-0.090	-0.379
-595.011	800.000	-0.022	0.076
-593.996	800.000	-0.041	0.138
-592.982	-90.978	-0.152	-0.044
-591.967	196.604	-0.125	0.194
-590.952	-29.979	-0.162	-0.094
-589.938	699.338	0.120	-0.320
-588.923	72.554	0.135	0.143
-587.909	-200.000	-0.004	-0.132
-586.894	-125.588	0.214	-0.033
-585.879	-168.846	0.209	0.008
-584.865	-48.968	-0.041	0.020
-583.850	800.000	0.058	0.207
-582.836	486.902	-0.043	-0.100
-581.821	-150.676	-0.138	0.011
-580.806	-15.045	0.273	-0.177
-579.792	-86.557	0.150	0.047
-578.777	800.000	-0.037	-0.147
-577.763	-200.000	0.007	0.078
-576.748	-8.310	0.420	-0.287
-575.733	-200.000	0.003	0.162
-574.719	352.984	0.048	0.098
-573.704	48.858	0.275	0.262
-572.690	161.972	-0.031	0.045
-571.675	-107.418	0.190	0.042
-570.661	358.807	-0.203	0.412
-569.646	79.019	-0.154	-0.167
-568.631	70.136	0.306	-0.321
-567.617	-200.000	-0.366	0.001
-566.602	-200.000	-0.068	-0.307
-565.588	212.228	0.226	0.362
-564.573	-200.000	-0.006	0.060
-563.558	-20.899	0.162	-0.101
-562.544	-67.774	-0.144	0.057
-561.529	-200.000	-0.027	0.392
-560.515	800.000	-0.044	0.165
-559.500	138.326	0.037	-0.049
-558.485	187.088	0.133	0.201
-557.471	111.670	-0.021	0.026
-556.456	557.256	-0.114	0.278
-555.442	17.868	-0.089	0.072
-554.427	-200.000	-0.027	-0.146
-553.412	185.060	-0.088	0.133
-552.398	-200.000	-0.035	0.351
-551.383	-20.463	-0.249	0.155
-550.369	800.000	-0.019	0.084
-549.354	-5.035	0.075	0.053
-548.339	96.415	-0.214	-0.248
-547.325	-43.491	-0.303	0.155
-546.310	350.423	-0.036	0.072
-545.296	-116.292	-0.140	0.026
-544.281	0.043	0.249	-0.180
-543.266	-200.000	0.020	0.146
-542.252	-200.000	0.008	-0.190
-541.237	17.150	-0.099	-0.080
-540.223	100.245	0.079	0.093
-539.208	-121.454	0.371	0.063
-538.193	-66.528	-0.199	0.080
-537.179	800.000	-0.123	-0.354
-536.164	-13.707	0.265	-0.174
-535.150	800.000	-0.207	-0.643
-534.135	-87.093	0.163	0.050
-533.121	19.349	0.237	0.193
-532.106	502.346	-0.143	-0.334
-531.091	259.957	0.165	-0.289
-530.077	62.938	-0.229	0.232
-529.062	43.435	0.045	-0.041
-528.048	800.000	0.053	0.177
-527.033	779.536	0.072	-0.199
-526.018	501.437	-0.098	0.229
-525.004	8.088	-0.149	-0.113
-523.989	130.373	-0.297	0.386
-522.975	-68.644	-0.306	0.120
-521.960	800.000	-0.048	0.194
-520.945	1.170	0.442	-0.322
-519.931	236.940	-0.149	-0.250
-518.916	131.481	0.263	-0.343
-517.902	35.474	-0.192	-0.171
-516.887	-102.769	0.152	-0.037
-515.872	-200.000	-0.014	0.116
-514.858	800.000	-0.068	0.220
-513.843	16.416	-0.094	0.075
-512.829	-56.650	0.129	0.058
-511.814	260.129	0.038	0.066
-510.799	800.000	0.088	-0.376
-509.785	39.085	0.088	-0.079
-508.770	800.000	0.064	0.253
-507.756	-129.093	-0.092	0.013
-506.741	-200.000	0.011	0.137
-505.726	316.490	0.070	-0.134
-504.712	-67.564	0.090	-0.036
-503.697	-117.626	0.210	0.038
-502.683	-188.411	-0.188	-0.002
-501.668	-126.304	-0.393	-0.059
-500.653	40.567	-0.316	-0.288
-499.639	7.640	-0.205	0.156
-498.624	-200.000	-0.034	0.179
-497.610	50.196	0.171	0.164
-496.595	-84.896	0.207	-0.066
-495.581	-56.352	0.258	-0.116
-494.566	-121.227	-0.269	-0.046
-493.551	38.869	0.046	-0.042
-492.537	285.910	0.199	-0.364
-491.522	-46.182	-0.095	0.047
-490.508	-34.250	0.046	0.026
-489.493	56.373	0.033	-0.033
-488.478	-48.168	-0.265	-0.129
-487.464	-100.181	-0.122	-0.031
-486.449	52.825	-0.214	-0.207
-485.435	-122.282	0.363	0.060
-484.420	45.079	0.090	-0.084
-483.405	259.901	0.109	-0.190
-482.391	-68.654	0.298	0.117
-481.376	-107.110	0.091	0.020
-480.362	-184.617	0.165	-0.003
-479.347	800.000	0.090	0.317
-478.332	-6.054	0.036	-0.025
-477.318	-16.584	-0.288	0.184
-476.303	636.569	0.021	-0.053
-475.289	-98.165	0.112	-0.029
-474.274	-48.510	0.337	0.164
-473.259	-130.675	-0.364	0.050
-472.245	220.736	-0.047	-0.076
-471.230	-58.180	0.120	-0.053
-470.216	55.568	-0.156	-0.153
-469.201	-90.786	0.229	0.067
-468.186	-11.712	0.388	0.258
-467.172	-68.417	-0.300	-0.118
-466.157	-52.827	0.186	0.087
-465.143	800.000	0.085	-0.275
-464.128	800.000	-0.030	-0.086
-463.113	483.783	-0.071	0.164
-462.099	-6.336	0.208	-0.143
-461.084	-200.000	0.020	-0.168
-460.070	302.878	0.050	-0.094
-459.055	143.149	-0.157	-0.212
-458.040	685.495	0.077	-0.202
-457.026	800.000	0.033	0.095
-456.011	-200.000	0.035	0.247
-454.997	-200.000	0.013	-0.102
-453.982	-200.000	0.051	0.243
-452.968	-90.639	-0.269	0.078
-451.953	-200.000	0.026	-0.121
-450.938	168.953	0.040	-0.058
-449.924	-59.712	0.239	-0.104
-448.909	328.062	-0.137	-0.265
-447.895	90.554	-0.148	-0.168
-446.880	-24.448	0.059	0.036
-445.865	102.903	-0.093	-0.109
-444.851	13.854	-0.110	-0.087
-443.836	-49.994	0.132	0.063
-442.822	155.071	0.116	0.161
-441.807	727.081	-0.050	0.136
-440.792	688.536	0.143	-0.379
-439.778	180.808	0.096	-0.142
-438.763	-128.206	0.066	0.009
-437.749	-200.000	0.029	0.348
-436.734	-144.913	0.387	0.036
-435.719	-200.000	0.009	0.172
-434.705	472.595	0.214	0.486
-433.690	-155.822	-0.214	0.014
-432.676	-61.159	-0.382	0.163
-431.661	-89.838	-0.077	-0.023
-430.646	-130.474	0.218	0.030
-429.632	-200.000	0.062	-0.358
-428.617	800.000	-0.057	0.206
-427.603	113.935	-0.033	-0.040
-426.588	111.878	0.128	-0.156
-425.573	-141.039	0.139	0.014
-424.559	800.000	0.018	0.051
-423.544	13.699	0.081	0.064
-422.530	-72.966	-0.192	-0.071
-421.515	-104.730	0.323	-0.075
-420.500	29.556	0.211	-0.182
-419.486	-113.149	-0.294	0.059
-418.471	95.151	0.066	0.076
-417.457	800.000	0.021	0.075
-416.442	110.446	-0.074	-0.089
-415.428	93.231	0.120	-0.136
-414.413	7.184	-0.204	-0.154
-413.398	-31.930	0.129	-0.073
-412.384	99.824	-0.100	0.117
-411.369	-84.538	-0.177	-0.056
-410.355	-200.000	-0.013	-0.154
-409.340	-177.794	-0.300	-0.007
-408.325	3.597	-0.275	-0.202
-407.311	-5.732	-0.538	-0.372
-406.296	380.106	-0.114	-0.236
-405.282	-200.000	0.007	-0.082
-404.267	-15.208	0.169	0.109
-403.252	-200.000	0.023	0.101
-402.238	-102.460	-0.179	-0.043
-401.223	-156.562	0.081	-0.005
-400.209	89.392	0.118	0.133
-399.194	40.346	-0.130	-0.118
-398.179	-105.077	-0.228	0.053
-397.165	104.355	-0.230	0.273
-396.150	-135.291	-0.178	-0.022
-395.136	-140.127	0.181	-0.019
-394.121	800.000	0.103	-0.319
-393.106	-200.000	0.002	-0.144
-392.092	-155.068	-0.146	-0.010
-391.077	209.689	-0.131	-0.207
-390.063	-191.939	-0.439	-0.004
-389.048	-11.693	-0.032	0.021
-388.033	-125.179	0.361	-0.056
-387.019	-80.170	0.094	-0.032
-386.004	800.000	-0.111	-0.315
-384.990	-200.000	-0.001	-0.121
-383.975	-125.227	0.133	-0.020
-382.960	-200.000	-0.011	0.063
-381.946	-39.241	0.077	0.041
-380.931	-200.000	0.024	0.324
-379.917	800.000	-0.048	-0.139
-378.902	-64.582	0.185	0.076
-377.888	-28.868	0.266	0.154
-376.873	-200.000	0.020	-0.103
-375.858	23.327	-0.073	0.060
-374.844	108.008	-0.114	0.137
-373.829	-200.000	-0.016	-0.124
-372.815	349.156	-0.165	-0.329
-371.800	27.383	0.219	-0.186
-370.785	-200.000	0.008	-0.043
-369.771	21.929	-0.264	-0.217
-368.756	-200.000	-0.009	-0.132
-367.742	-59.030	-0.061	-0.026
-366.727	-30.506	-0.125	-0.071
-365.712	131.098	0.171	0.221
-364.698	800.000	0.084	0.285
-363.683	67.068	-0.128	-0.131
-362.669	172.596	-0.084	-0.122
-361.654	143.440	0.153	-0.206
-360.639	-200.000	0.003	0.221
-359.625	-75.878	-0.284	0.101
-358.610	-200.000	0.001	0.037
-357.596	133.216	-0.249	0.324
-356.581	-64.034	-0.188	-0.077
-355.566	418.207	0.071	0.152
-354.552	800.000	-0.017	-0.067
-353.537	257.922	0.228	-0.396
-352.523	58.860	0.032	0.032
-351.508	-10.432	0.172	0.115
-350.493	92.462	-0.292	-0.332
-349.479	-154.051	-0.169	-0.012
-348.464	761.954	0.051	-0.139
-347.450	-200.000	-0.006	0.107
-346.435	-153.564	-0.205	0.014
-345.420	56.198	-0.166	-0.163
-344.406	24.353	0.037	-0.031
-343.391	5.022	0.196	-0.145
-342.377	-32.805	0.066	0.037
-341.362	104.531	0.117	-0.139
-340.348	-164.401	0.174	0.008
-339.333	800.000	-0.059	0.253
-338.318	76.325	-0.285	0.303
-337.304	-73.353	0.300	0.110
-336.289	-200.000	0.036	0.412
-335.275	55.969	-0.181	0.177
-334.260	626.336	0.030	0.077
-333.245	-83.917	0.104	0.033
-332.231	456.332	0.087	-0.193
-331.216	4.357	-0.072	0.053
-330.202	-22.874	0.242	-0.147
-329.187	-34.253	-0.091	-0.050
-328.172	-65.332	0.481	0.195
-327.158	-89.116	-0.203	0.060
-326.143	-72.993	-0.234	-0.086
-325.129	-200.000	-0.033	0.212
-324.114	800.000	-0.077	-0.284
-323.099	212.789	0.019	0.030
-322.085	332.317	-0.232	0.450
-321.070	81.556	0.051	0.056
-320.056	800.000	-0.090	0.385
-319.041	-200.000	-0.014	-0.523
-318.026	-69.076	0.238	0.092
-317.012	-166.149	-0.125	0.005
-315.997	-200.000	0.257	-0.001
-314.983	10.576	0.217	-0.167
-313.968	251.887	-0.116	-0.198
-312.953	-177.002	-0.217	-0.005
-311.939	149.413	0.260	-0.355
-310.924	-70.988	-0.225	-0.085
-309.910	800.000	0.042	0.183
-308.895	-200.000	-0.181	0.001
-307.880	-2.499	-0.193	-0.136
-306.866	-7.189	0.132	-0.090
-305.851	-88.397	-0.203	0.061
-304.837	-104.634	-0.152	0.035
-303.822	-75.000	-0.279	-0.100
-302.807	-200.000	-0.001	0.145
-301.793	800.000	-0.075	0.285
-300.778	800.000	0.032	0.104
-299.764	-89.527	-0.236	0.070
-298.749	-46.960	0.238	0.117
-297.735	-7.499	-0.332	0.226
-296.720	174.883	-0.178	-0.258
-295.705	-64.471	0.153	0.062
-294.691	64.267	0.149	-0.151
-293.676	800.000	-0.091	0.317
-292.662	78.711	-0.151	0.163
-291.647	421.032	-0.098	-0.212
-290.632	-200.000	-0.032	-0.197
-289.618	-3.343	0.053	0.037
-288.603	654.886	0.098	-0.253
-287.589	-172.972	-0.168	-0.005
-286.574	-173.174	0.323	-0.010
-285.559	194.580	-0.145	-0.221
-284.545	-102.420	0.151	-0.036
-283.530	66.457	-0.031	-0.032
-282.516	-163.932	0.098	0.005
-281.501	-122.100	0.441	-0.073
-280.486	38.601	0.296	-0.265
-279.472	-94.391	0.220	-0.060
-278.457	252.265	-0.077	0.132
-277.443	800.000	0.089	-0.269
-276.428	-43.723	0.108	-0.054
-275.413	-62.494	-0.373	-0.156
-274.399	499.633	0.111	-0.257
-273.384	-200.000	0.049	0.266
-272.370	62.311	0.198	-0.199
-271.355	-121.227	-0.268	0.045
-270.340	194.728	0.245	0.373
-269.326	74.440	-0.323	0.341
-268.311	-109.143	-0.113	0.024
-267.297	-200.000	0.012	0.058
-266.282	62.895	0.158	0.159
-265.267	-200.000	0.019	-0.309
-264.253	-22.668	0.156	-0.094
-263.238	-200.000	0.047	-0.356
-262.224	-3.243	0.047	-0.033
-261.209	-200.000	-0.019	-0.310
-260.195	158.713	0.159	0.222
-259.180	-27.800	-0.117	0.068
-258.165	-47.390	-0.303	-0.148
-257.151	-39.391	0.119	0.062
-256.136	-31.407	0.225	0.127
-255.122	290.850	-0.109	0.198
-254.107	12.346	0.162	-0.125
-253.092	240.518	-0.072	-0.121
-252.078	-100.230	-0.110	-0.027
-251.063	128.112	0.158	-0.202
-250.049	-47.435	0.087	0.043
-249.034	-192.468	-0.125	0.001
-248.019	-200.000	-0.006	0.055
-247.005	281.130	-0.128	0.230
-245.990	-167.976	0.291	0.011
-244.976	-200.000	0.001	0.011
-243.961	98.471	0.141	-0.163
-242.946	-200.000	0.048	-0.395
-241.932	-67.282	0.158	-0.062
-240.917	-65.409	-0.280	0.113
-239.903	-91.773	0.291	0.083
-238.888	-200.000	-0.032	-0.234
-237.873	-140.132	-0.197	-0.021
-236.859	326.843	0.030	-0.058
-235.844	-112.569	0.456	0.091
-234.830	470.211	-0.181	0.407
-233.815	-125.226	-0.103	0.016
-232.800	-14.507	-0.238	-0.154
-231.786	800.000	-0.129	0.426
-230.771	-119.346	0.241	-0.042
-229.757	-200.000	-0.028	-0.139
-228.742	-200.000	-0.066	0.328
-227.727	744.893	-0.053	-0.142
-226.713	-200.000	0.017	0.085
-225.698	-200.000	0.009	0.075
-224.684	-47.652	0.042	-0.021
-223.669	72.732	0.138	0.145
-222.655	9.008	0.019	0.014
-221.640	-41.227	-0.200	0.104
-220.625	-67.370	0.378	0.149
-219.611	0.140	0.442	-0.316
-218.596	800.000	0.030	0.096
-217.582	800.000	-0.063	-0.255
-216.567	84.297	-0.224	-0.246
-215.552	-150.738	-0.376	0.029
-214.538	389.787	-0.073	0.152
-213.523	-5.167	-0.271	0.186
-212.509	-72.263	0.419	0.156
-211.494	78.711	-0.041	0.044
-210.479	100.994	-0.138	0.161
-209.465	-200.000	-0.001	0.087
-208.450	-200.000	0.008	0.087
-207.436	-176.367	0.040	-0.001
-206.421	-130.597	0.145	0.020
-205.406	-120.994	-0.213	0.036
-204.392	-36.859	0.196	-0.105
-203.377	33.022	0.080	0.069
-202.363	-115.132	0.153	-0.029
-201.348	82.011	-0.068	0.074
-200.333	482.725	-0.056	-0.128
-199.319	-76.525	-0.192	-0.068
-198.304	-66.375	0.379	0.151
-197.290	624.646	0.068	0.171
-196.275	-111.018	-0.058	0.012
-195.260	223.194	-0.256	-0.412
-194.246	800.000	-0.006	-0.024
-193.231	28.199	0.172	0.145
-192.217	-13.102	-0.058	-0.038
-191.202	-181.208	0.164	-0.003
-190.187	-200.000	0.003	-0.266
-189.173	-161.027	0.246	-0.013
-188.158	-127.082	-0.175	0.026
-187.144	-26.811	0.182	-0.106
-186.129	-101.082	0.186	-0.046
-185.114	-31.464	0.074	-0.042
-184.100	-200.000	-0.007	-0.074
-183.085	-41.082	0.123	-0.064
-182.071	105.201	0.130	-0.153
-181.056	-200.000	0.023	0.249
-180.042	-200.000	-0.032	0.199
-179.027	-17.671	-0.256	-0.161
-178.012	-200.000	-0.014	0.122
-176.998	800.000	0.015	-0.052
-175.983	356.924	0.115	0.229
-174.969	-200.000	0.012	-0.085
-173.954	800.000	0.060	-0.231
-172.939	800.000	-0.063	0.214
-171.925	-131.925	0.075	0.010
-170.910	-200.000	-0.016	0.150
-169.896	424.792	0.169	0.364
-168.881	-103.059	-0.204	-0.048
-167.866	-87.687	0.267	0.081
-166.852	-107.175	-0.141	-0.031
-165.837	-158.394	-0.172	-0.010
-164.823	200.738	0.212	0.326
-163.808	219.750	-0.041	0.066
-162.793	-40.160	-0.126	0.066
-161.779	-45.380	-0.230	-0.114
-160.764	-60.950	-0.226	-0.095
-159.750	745.088	-0.097	0.261
-158.735	59.317	-0.264	0.260
-157.720	800.000	-0.005	-0.018
-156.706	139.574	0.200	0.263
-155.691	-200.000	0.013	0.095
-154.677	719.933	-0.101	0.269
-153.662	369.501	0.104	0.211
-152.647	-24.610	-0.205	0.122
-151.633	-9.100	0.072	0.048
-150.618	-15.742	-0.029	-0.019
-149.604	-54.878	0.240	-0.108
-148.589	800.000	0.064	0.186
-147.574	-5.421	-0.169	0.116
-146.560	-200.000	-0.012	-0.230
-145.545	9.070	0.320	0.242
-144.531	-151.166	0.254	0.019
-143.516	-59.889	-0.341	-0.146
-142.502	800.000	0.050	0.167
-141.487	-129.096	-0.171	-0.024
-140.472	-18.639	-0.204	-0.127
-139.458	-132.906	-0.290	0.037
-138.443	273.102	-0.037	-0.066
-137.429	135.461	0.336	0.436
-136.414	50.363	0.178	-0.167
-135.399	-88.723	0.295	0.088
-134.385	-200.000	0.175	0.001
-133.370	-200.000	-0.047	0.230
-132.356	273.675	0.124	-0.218
-131.341	-145.995	-0.232	0.020
-130.326	154.803	-0.160	0.220
-129.312	-200.000	0.060	0.273
-128.297	327.246	-0.013	0.025
-127.283	-102.552	0.147	0.035
-126.268	89.290	0.162	0.180
-125.253	-14.068	0.216	-0.139
-124.239	10.009	0.170	-0.129
-123.224	-144.455	-0.189	0.017
-122.210	-200.000	-0.015	0.234
-121.195	-117.716	0.320	0.057
