DTS Sentinel unit serial number:	SN413079Multiplexer serial number:	ORYXHardware model number:	OX4-SRSoftware version number:	ORYX F/W v4.00 Oryx Data Collector v3.7.2.0data status	okinstallation	princeton_trtdifferential loss correction	single-endedforward channel	channel 4reverse channel	N/Adate	2019/09/12time	23:29:34forward acquisition time	60.00reverse acquisition time	0.00gamma	496.2192k internal	0.2316k external	0.2316temperature offset calibration	1.0174default loss term (dB/km)	0.3790temperature slope calibration	1.0000multiplexer offset coefficient	1.0000multiplexer slope coefficient	1.0000fibre end	0.00T internal ref (°C)	29.00T ext. ref 1 (°C)	3.78T ext. ref 2 (°C)	23.66length (m)	temperature (°C)	Stokes	anti-Stokes-747.200	800.000	-0.049	-0.169
-746.185	308.099	-0.099	0.188
-745.171	65.312	-0.125	-0.128
-744.156	-67.975	-0.211	0.083
-743.142	159.770	-0.087	0.122
-742.127	-3.421	-0.265	0.187
-741.112	-200.000	0.007	-0.133
-740.098	-154.454	0.178	0.012
-739.083	122.040	0.198	-0.251
-738.069	39.563	-0.161	-0.146
-737.054	-200.000	0.009	0.047
-736.039	-36.181	-0.293	-0.160
-735.025	-118.353	-0.144	-0.026
-734.010	800.000	0.063	0.224
-732.996	-24.903	-0.157	-0.094
-731.981	-38.160	0.435	-0.233
-730.966	52.604	-0.163	-0.158
-729.952	-52.345	-0.078	-0.037
-728.937	-109.670	-0.270	-0.058
-727.923	800.000	0.031	-0.114
-726.908	185.642	0.108	0.163
-725.894	-84.018	-0.516	0.166
-724.879	-103.976	-0.154	-0.036
-723.864	-200.000	-0.059	-0.357
-722.850	90.320	-0.122	-0.138
-721.835	800.000	0.043	-0.155
-720.821	130.598	0.254	-0.330
-719.806	-114.748	0.416	-0.080
-718.791	71.945	-0.196	-0.206
-717.777	-200.000	0.012	-0.063
-716.762	-13.030	0.062	0.041
-715.748	721.807	0.077	-0.207
-714.733	232.512	0.167	-0.278
-713.718	190.473	-0.099	0.150
-712.704	800.000	0.064	-0.236
-711.689	-200.000	-0.033	-0.387
-710.675	284.345	0.068	0.125
-709.660	31.613	-0.382	-0.332
-708.645	87.961	0.295	0.331
-707.631	-34.939	0.153	0.084
-706.616	-179.731	0.372	-0.008
-705.602	-100.123	0.099	0.025
-704.587	-200.000	0.023	-0.155
-703.572	113.183	-0.252	0.309
-702.558	626.899	0.052	-0.134
-701.543	692.084	-0.146	0.386
-700.529	243.071	-0.122	0.207
-699.514	417.533	0.012	0.025
-698.499	-200.000	0.001	0.110
-697.485	-200.000	0.017	-0.203
-696.470	10.228	-0.142	0.110
-695.456	-200.000	-0.039	-0.387
-694.441	521.181	0.036	-0.086
-693.426	-200.000	-0.009	0.168
-692.412	-71.624	0.343	0.130
-691.397	-200.000	0.269	-0.001
-690.383	28.344	-0.289	0.246
-689.368	-200.000	-0.033	0.355
-688.354	-119.665	-0.253	0.044
-687.339	800.000	-0.051	-0.173
-686.324	106.240	0.023	0.027
-685.310	-200.000	0.013	-0.151
-684.295	-38.326	0.070	-0.037
-683.281	-24.115	-0.071	0.043
-682.266	218.948	-0.064	-0.104
-681.251	-67.696	-0.273	0.108
-680.237	-96.809	-0.308	0.082
-679.222	-66.139	-0.474	-0.191
-678.208	47.174	0.193	-0.182
-677.193	-200.000	0.028	-0.124
-676.178	-83.536	0.152	-0.049
-675.164	299.071	-0.204	-0.380
-674.149	-109.455	-0.271	-0.058
-673.135	-85.840	-0.312	0.098
-672.120	-128.141	-0.285	0.041
-671.105	-99.968	0.098	-0.025
-670.091	-128.322	-0.017	0.002
-669.076	12.812	0.091	-0.071
-668.062	-180.192	-0.341	-0.007
-667.047	-26.737	0.289	0.171
-666.032	61.557	0.081	0.082
-665.018	53.955	-0.083	-0.080
-664.003	-200.000	0.016	-0.369
-662.989	-140.651	-0.228	-0.024
-661.974	-161.320	0.243	-0.013
-660.959	800.000	-0.042	0.119
-659.945	-146.339	-0.109	0.010
-658.930	108.083	0.151	0.182
-657.916	-77.412	-0.055	0.019
-656.901	-132.378	-0.501	0.065
-655.886	339.240	-0.129	-0.253
-654.872	-3.015	-0.044	-0.031
-653.857	127.634	0.087	0.111
-652.843	29.163	-0.194	-0.166
-651.828	304.601	0.080	0.149
-650.814	800.000	0.042	-0.184
-649.799	-114.961	0.121	0.023
-648.784	-180.256	-0.200	-0.004
-647.770	-54.346	-0.206	-0.094
-646.755	165.105	-0.166	0.237
-645.741	-126.777	-0.199	0.030
-644.726	-17.258	-0.161	-0.102
-643.711	191.391	0.025	0.038
-642.697	-64.828	-0.304	-0.124
-641.682	800.000	0.008	-0.025
-640.668	800.000	0.058	0.220
-639.653	678.553	-0.111	0.291
-638.638	59.950	0.222	0.221
-637.624	-200.000	-0.093	0.469
-636.609	258.204	0.055	0.096
-635.595	477.034	-0.141	0.322
-634.580	-157.534	0.244	-0.015
-633.565	-200.000	0.010	0.049
-632.551	74.301	-0.093	0.099
-631.536	-154.312	-0.358	-0.024
-630.522	-131.188	0.102	-0.014
-629.507	-78.841	0.487	-0.167
-628.492	-36.743	-0.024	0.013
-627.478	-200.000	-0.053	-0.327
-626.463	537.341	-0.035	0.084
-625.449	800.000	0.043	-0.157
-624.434	68.838	-0.167	-0.173
-623.419	-36.056	-0.339	-0.185
-622.405	-200.000	0.012	-0.190
-621.390	8.651	0.075	0.057
-620.376	-110.083	0.254	-0.054
-619.361	-36.746	-0.207	-0.112
-618.346	-61.547	-0.123	-0.052
-617.332	154.545	0.253	-0.350
-616.317	-152.501	0.140	0.010
-615.303	-122.855	-0.105	-0.017
-614.288	218.013	-0.164	-0.263
-613.273	-113.545	-0.155	-0.031
-612.259	-91.665	-0.370	0.106
-611.244	-112.025	-0.370	-0.075
-610.230	-93.674	0.065	-0.018
-609.215	32.035	-0.211	0.183
-608.201	96.627	0.170	-0.196
-607.186	186.294	-0.090	-0.135
-606.171	-76.266	-0.268	-0.095
-605.157	236.567	-0.153	-0.255
-604.142	331.614	0.081	-0.157
-603.128	133.880	0.083	0.108
-602.113	-58.834	0.258	0.113
-601.098	279.863	-0.085	-0.152
-600.084	-0.097	-0.276	0.198
-599.069	-16.044	-0.311	-0.199
-598.055	9.744	0.081	0.062
-597.040	-146.405	0.293	0.026
-596.025	800.000	-0.032	0.092
-595.011	-21.555	-0.282	0.173
-593.996	-200.000	-0.060	-0.283
-592.982	-37.697	0.154	-0.082
-591.967	6.015	0.264	0.197
-590.952	28.517	0.104	0.089
-589.938	-111.796	-0.298	0.061
-588.923	132.404	-0.189	0.245
-587.909	800.000	-0.091	-0.271
-586.894	-79.940	-0.259	-0.088
-585.879	-200.000	-0.023	0.136
-584.865	800.000	0.038	0.147
-583.850	55.674	-0.229	-0.224
-582.836	47.574	0.137	-0.129
-581.821	-140.829	-0.337	-0.035
-580.806	-144.291	0.209	0.020
-579.792	-200.000	0.040	0.202
-578.777	-135.613	-0.288	0.034
-577.763	-104.563	-0.060	0.014
-576.748	-200.000	0.050	0.247
-575.733	-157.416	-0.209	0.013
-574.719	715.893	0.080	-0.214
-573.704	-23.841	-0.386	0.233
-572.690	-99.072	0.212	-0.054
-571.675	-23.193	-0.304	-0.184
-570.661	-161.608	0.262	0.014
-569.646	-102.790	0.152	0.036
-568.631	-22.842	0.096	0.058
-567.617	800.000	-0.091	-0.327
-566.602	-200.000	0.005	-0.032
-565.588	-39.544	-0.219	-0.115
-564.573	-130.909	-0.185	0.025
-563.558	505.150	0.072	0.168
-562.544	283.212	-0.136	0.246
-561.529	516.229	0.110	0.258
-560.515	28.369	0.141	0.119
-559.500	-169.402	-0.186	0.007
-558.485	-72.787	-0.095	0.035
-557.471	-52.329	0.304	0.142
-556.456	50.200	-0.136	0.129
-555.442	-113.016	0.201	0.040
-554.427	-119.345	0.142	-0.025
-553.412	40.024	-0.056	0.051
-552.398	-131.706	-0.411	-0.054
-551.383	20.030	-0.158	0.128
-550.369	800.000	-0.035	-0.106
-549.354	800.000	-0.101	0.356
-548.339	27.188	0.128	0.108
-547.325	-39.372	0.012	-0.006
-546.310	-200.000	-0.076	0.390
-545.296	800.000	0.020	-0.081
-544.281	617.110	0.056	-0.141
-543.266	-61.529	-0.134	-0.057
-542.252	-150.597	0.377	0.029
-541.237	83.234	-0.224	0.246
-540.223	263.951	-0.110	-0.193
-539.208	150.846	-0.042	0.058
-538.193	-88.043	-0.345	-0.104
-537.179	339.446	-0.120	0.235
-536.164	94.030	-0.091	0.104
-535.150	-200.000	-0.002	-0.157
-534.135	441.190	-0.028	-0.061
-533.121	54.332	-0.165	-0.159
-532.106	-145.310	-0.170	-0.015
-531.091	106.157	-0.291	0.346
-530.077	-101.077	0.269	-0.066
-529.062	725.016	-0.025	-0.066
-528.048	-56.438	-0.339	0.151
-527.033	197.149	0.146	0.224
-526.018	-12.176	-0.261	-0.171
-525.004	800.000	0.064	-0.232
-523.989	-79.704	0.116	-0.039
-522.975	-200.000	0.048	0.249
-521.960	-122.685	-0.209	0.034
-520.945	-122.286	-0.305	0.050
-519.931	-86.020	0.300	0.093
-518.916	-200.000	-0.065	0.351
-517.902	2.606	-0.259	-0.189
-516.887	2.834	0.297	-0.217
-515.872	-7.639	-0.165	0.112
-514.858	800.000	-0.093	-0.394
-513.843	-200.000	-0.052	0.253
-512.829	-150.331	-0.208	0.016
-511.814	-88.078	-0.239	-0.072
-510.799	-127.633	0.151	-0.022
-509.785	-198.791	0.191	0.001
-508.770	-123.396	-0.284	0.045
-507.756	79.205	0.058	0.062
-506.741	-110.564	-0.209	-0.043
-505.726	248.121	0.044	-0.075
-504.712	362.183	-0.016	-0.032
-503.697	75.774	0.154	0.163
-502.683	-140.917	0.219	-0.023
-501.668	145.238	0.143	0.191
-500.653	-200.000	0.010	0.254
-499.639	-50.549	0.223	0.106
-498.624	102.178	0.065	-0.077
-497.610	116.057	-0.077	-0.095
-496.595	800.000	0.050	0.176
-495.581	54.980	-0.152	0.147
-494.566	-37.973	-0.275	0.147
-493.551	-135.642	-0.358	0.043
-492.537	-79.562	0.055	-0.019
-491.522	-42.983	-0.319	0.162
-490.508	90.638	-0.104	-0.117
-489.493	-6.497	0.234	0.160
-488.478	9.671	-0.207	-0.158
-487.464	-101.517	-0.509	-0.124
-486.449	-200.000	-0.011	-0.108
-485.435	800.000	0.075	0.237
-484.420	-76.973	-0.311	-0.109
-483.405	224.399	-0.197	0.320
-482.391	-75.080	0.315	0.113
-481.376	-14.827	-0.168	-0.108
-480.362	252.657	0.135	-0.230
-479.347	575.769	-0.081	-0.199
-478.332	-79.281	-0.126	0.043
-477.318	241.481	-0.037	-0.062
-476.303	2.334	0.311	0.226
-475.289	-200.000	-0.044	-0.388
-474.274	-192.331	0.273	0.003
-473.259	-200.000	0.021	0.191
-472.245	-200.000	-0.012	0.137
-471.230	753.233	0.153	0.414
-470.216	-200.000	0.045	0.427
-469.201	-72.565	-0.170	0.063
-468.186	-12.432	0.158	-0.103
-467.172	39.760	0.234	0.210
-466.157	-123.898	0.333	-0.053
-465.143	-200.000	0.027	-0.177
-464.128	800.000	-0.052	-0.213
-463.113	-88.266	0.214	-0.064
-462.099	-102.042	-0.308	-0.074
-461.084	140.085	-0.058	-0.077
-460.070	73.775	0.070	-0.074
-459.055	-30.752	0.142	0.081
-458.040	-200.000	0.045	-0.224
-457.026	100.331	0.178	-0.207
-456.011	-200.000	-0.036	0.421
-454.997	214.417	0.122	0.194
-453.982	-168.149	-0.166	-0.006
-452.968	84.062	0.099	0.108
-451.953	502.093	0.043	-0.099
-450.938	800.000	-0.075	-0.284
-449.924	-200.000	-0.039	0.259
-448.909	15.650	-0.162	0.128
-447.895	19.818	0.225	0.182
-446.880	-95.849	-0.244	0.065
-445.865	-122.513	0.329	0.054
-444.851	-119.164	-0.130	-0.023
-443.836	277.113	0.031	0.056
-442.822	-69.245	0.397	0.153
-441.807	-109.757	0.373	-0.079
-440.792	-33.459	0.233	0.129
-439.778	27.041	-0.051	-0.043
-438.763	-200.000	-0.008	0.044
-437.749	83.919	-0.012	-0.013
-436.734	557.539	-0.052	-0.125
-435.719	13.444	0.144	-0.112
-434.705	-25.653	0.098	-0.058
-433.690	68.208	0.039	0.040
-432.676	800.000	0.080	-0.312
-431.661	-42.285	-0.167	0.085
-430.646	800.000	0.026	0.091
-429.632	-13.639	-0.196	0.127
-428.617	66.255	0.179	-0.182
-427.603	800.000	-0.032	-0.118
-426.588	800.000	-0.033	-0.099
-425.573	-200.000	-0.005	-0.136
-424.559	11.476	-0.132	-0.102
-423.544	-114.618	-0.194	0.037
-422.530	-17.443	-0.117	0.074
-421.515	-200.000	-0.008	0.045
-420.500	92.801	-0.156	0.176
-419.486	-8.480	-0.226	-0.152
-418.471	234.053	0.055	-0.091
-417.457	-14.019	-0.149	-0.096
-416.442	-11.271	0.172	0.113
-415.428	-200.000	0.014	0.143
-414.413	473.667	-0.039	-0.087
-413.398	-58.671	0.129	-0.056
-412.384	105.512	0.143	-0.169
-411.369	9.664	0.264	0.200
-410.355	-200.000	0.010	0.388
-409.340	227.896	0.132	0.215
-408.325	177.013	-0.154	-0.224
-407.311	-193.736	-0.270	0.002
-406.296	271.306	-0.039	-0.069
-405.282	-47.686	-0.092	-0.045
-404.267	701.517	0.121	0.318
-403.252	-133.147	0.147	-0.019
-402.238	-60.176	0.243	0.103
-401.223	-112.867	0.213	-0.042
-400.209	-200.000	0.013	-0.173
-399.194	121.534	0.181	0.225
-398.179	800.000	0.074	-0.229
-397.165	-200.000	0.031	0.155
-396.150	-137.527	0.057	0.006
-395.136	-38.353	-0.280	-0.148
-394.121	800.000	-0.055	-0.184
-393.106	-109.198	0.107	0.023
-392.092	-200.000	0.002	-0.142
-391.077	800.000	-0.073	-0.217
-390.063	-112.259	0.206	0.041
-389.048	-200.000	0.022	-0.283
-388.033	410.216	0.125	0.265
-387.019	800.000	-0.056	0.203
-386.004	57.140	-0.140	-0.136
-384.990	-11.292	0.098	0.064
-383.975	118.543	-0.004	0.005
-382.960	-16.345	-0.150	0.095
-381.946	-200.000	0.012	-0.129
-380.931	55.999	0.098	0.094
-379.917	244.905	0.177	-0.297
-378.902	-200.000	0.031	-0.264
-377.888	-75.202	-0.448	-0.160
-376.873	104.329	0.374	0.440
-375.858	-187.967	0.140	0.002
-374.844	800.000	0.087	-0.307
-373.829	-68.354	0.205	0.079
-372.815	800.000	-0.069	-0.192
-371.800	-80.649	-0.202	0.067
-370.785	31.868	0.172	-0.148
-369.771	115.633	0.212	0.259
-368.756	-49.336	0.240	-0.114
-367.742	106.700	-0.150	0.178
-366.727	-200.000	0.021	-0.299
-365.712	349.259	-0.118	-0.233
-364.698	12.068	0.082	0.063
-363.683	397.525	-0.024	-0.051
-362.669	-29.473	0.139	0.079
-361.654	-6.999	0.237	0.160
-360.639	800.000	0.060	-0.173
-359.625	-14.495	-0.056	-0.036
-358.610	-20.410	-0.073	-0.045
-357.596	-200.000	0.022	0.103
-356.581	161.767	0.150	0.209
-355.566	14.281	-0.110	-0.086
-354.552	-200.000	0.030	-0.286
-353.537	-148.605	0.359	-0.029
-352.523	800.000	-0.047	0.130
-351.508	-52.662	-0.403	-0.186
-350.493	719.066	0.049	-0.130
-349.479	-73.753	-0.155	0.056
-348.464	89.207	0.312	-0.347
-347.450	-200.000	0.010	0.106
-346.435	-147.049	0.260	-0.022
-345.420	522.005	-0.061	0.142
-344.406	75.238	-0.122	-0.129
-343.391	-133.998	0.122	-0.015
-342.377	-64.338	-0.194	-0.079
-341.362	210.390	-0.083	0.130
-340.348	-88.856	-0.081	0.024
-339.333	-109.512	0.417	0.088
-338.318	-38.546	-0.132	0.069
-337.304	36.285	0.131	0.115
-336.289	262.115	0.126	-0.218
-335.275	-40.198	0.053	0.028
-334.260	800.000	0.044	-0.152
-333.245	-187.507	0.455	-0.006
-332.231	44.942	-0.035	0.033
-331.216	-200.000	-0.006	0.122
-330.202	-69.920	0.384	0.146
-329.187	89.962	-0.053	0.059
-328.172	-16.222	0.161	-0.102
-327.158	715.276	0.111	-0.293
-326.143	273.013	0.103	0.181
-325.129	35.935	0.209	-0.183
-324.114	-147.553	0.324	0.027
-323.099	-97.682	-0.020	0.005
-322.085	-148.080	0.134	0.011
-321.070	160.416	-0.243	0.338
-320.056	-144.406	-0.312	0.029
-319.041	154.775	-0.098	-0.134
-318.026	-48.244	0.229	0.110
-317.012	773.198	0.112	0.305
-315.997	-200.000	0.046	-0.262
-314.983	-200.000	-0.046	-0.203
-313.968	489.133	-0.014	-0.031
-312.953	330.861	-0.047	0.089
-311.939	-49.965	-0.137	0.065
-310.924	38.750	0.114	0.101
-309.910	-175.662	-0.224	-0.006
-308.895	-65.180	0.237	-0.095
-307.880	2.855	0.064	0.046
-306.866	-106.681	0.157	0.035
-305.851	-200.000	0.051	0.412
-304.837	-200.000	-0.006	-0.048
-303.822	-124.089	-0.537	0.084
-302.807	70.031	-0.111	-0.114
-301.793	27.906	0.137	0.115
-300.778	-200.000	-0.013	0.102
-299.764	-172.321	0.086	0.003
-298.749	-0.019	-0.081	0.057
-297.735	271.500	-0.008	-0.013
-296.720	-55.038	0.291	-0.130
-295.705	-67.077	-0.373	0.146
-294.691	-125.609	0.009	0.001
-293.676	-49.325	0.224	-0.107
-292.662	-200.000	0.007	0.061
-291.647	200.632	0.171	-0.261
-290.632	-53.402	0.097	-0.044
-289.618	-16.831	0.029	-0.018
-288.603	800.000	-0.049	0.197
-287.589	-160.983	0.135	-0.007
-286.574	68.146	-0.181	-0.184
-285.559	224.263	0.051	-0.083
-284.545	-8.158	-0.174	-0.117
-283.530	3.027	0.108	0.078
-282.516	-130.057	-0.157	-0.021
-281.501	0.888	0.062	0.044
-280.486	-76.357	-0.213	0.074
-279.472	86.364	0.086	-0.094
-278.457	-56.201	-0.065	-0.029
-277.443	-48.438	-0.073	-0.035
-276.428	177.834	-0.081	0.117
-275.413	168.057	0.077	0.108
-274.399	-17.605	-0.254	0.159
-273.384	800.000	0.104	0.322
-272.370	-200.000	0.024	-0.137
-271.355	182.215	0.087	0.127
-270.340	-34.767	0.206	0.112
-269.326	-82.568	0.412	0.133
-268.311	139.290	0.330	0.432
-267.297	5.578	0.203	0.149
-266.282	-45.121	0.263	0.130
-265.267	658.637	0.106	-0.271
-264.253	478.691	0.131	-0.295
-263.238	610.791	0.074	0.183
-262.224	-90.628	0.283	-0.081
-261.209	-200.000	0.039	-0.349
-260.195	95.668	0.159	0.180
-259.180	594.763	0.079	-0.193
-258.165	-200.000	0.039	0.201
-257.151	-36.282	-0.291	-0.156
-256.136	-200.000	-0.027	-0.258
-255.122	-78.068	0.028	-0.009
-254.107	-80.105	0.347	-0.115
-253.092	-45.782	0.103	-0.051
-252.078	543.252	-0.089	0.212
-251.063	-77.686	0.222	-0.076
-250.049	-200.000	0.011	-0.246
-249.034	-99.984	0.145	0.036
-248.019	-200.000	-0.014	0.087
-247.005	29.581	0.251	-0.212
-245.990	206.181	0.086	-0.132
-244.976	-200.000	0.071	-0.422
-243.961	-200.000	0.007	0.165
-242.946	-57.458	-0.371	0.162
-241.932	-151.205	-0.439	0.033
-240.917	3.371	-0.130	-0.094
-239.903	-110.173	0.253	0.052
-238.888	149.396	-0.157	-0.211
-237.873	-10.578	0.079	-0.052
-236.859	-93.633	-0.250	-0.069
-235.844	-94.859	-0.339	0.091
-234.830	-121.443	0.225	0.037
-233.815	263.662	-0.078	0.135
-232.800	-187.536	-0.040	-0.001
-231.786	-35.060	0.151	0.082
-230.771	-51.458	-0.269	0.125
-229.757	-15.214	0.011	0.007
-228.742	800.000	-0.016	-0.059
-227.727	723.780	-0.030	-0.080
-226.713	116.730	-0.117	0.142
-225.698	-200.000	0.016	-0.127
-224.684	-10.021	0.078	-0.051
-223.669	507.827	-0.125	-0.288
-222.655	800.000	0.026	0.094
-221.640	28.749	-0.111	-0.093
-220.625	187.421	0.128	0.189
-219.611	14.135	0.061	-0.047
-218.596	-99.299	-0.215	-0.054
-217.582	-1.529	0.260	-0.182
-216.567	-15.320	0.093	-0.059
-215.552	452.969	-0.053	-0.117
-214.538	-118.871	-0.179	0.031
-213.523	-200.000	-0.023	-0.461
-212.509	-112.491	-0.348	0.069
-211.494	-200.000	-0.040	-0.376
-210.479	2.527	0.291	0.209
-209.465	-32.650	-0.091	0.050
-208.450	-73.369	-0.073	0.026
-207.436	1.137	0.097	-0.069
-206.421	158.314	0.248	0.341
-205.406	8.483	0.111	-0.083
-204.392	-183.279	0.235	-0.004
-203.377	198.673	0.109	0.166
-202.363	106.262	-0.076	-0.089
-201.348	800.000	0.070	0.230
-200.333	-200.000	-0.023	-0.139
-199.319	474.385	-0.138	-0.310
-198.304	-113.930	-0.170	-0.033
-197.290	63.922	0.210	-0.210
-196.275	298.461	0.135	0.247
-195.260	-83.475	-0.204	-0.065
-194.246	83.578	-0.168	-0.182
-193.231	-200.000	-0.002	0.019
-192.217	-200.000	-0.003	0.320
-191.202	87.723	-0.088	0.096
-190.187	-63.915	0.169	-0.068
-189.173	457.711	-0.114	-0.250
-188.158	-62.841	0.137	0.056
-187.144	-142.209	0.345	0.034
-186.129	-167.783	-0.081	0.003
-185.114	-27.504	0.219	0.126
-184.100	254.583	-0.219	0.372
-183.085	-14.972	-0.203	0.129
-182.071	-136.332	-0.337	-0.039
-181.056	-46.354	-0.034	0.016
-180.042	187.870	0.065	0.096
-179.027	-62.371	0.096	0.039
-178.012	-200.000	0.049	0.474
-176.998	225.646	0.160	-0.257
-175.983	109.729	0.101	-0.120
-174.969	-111.211	-0.077	-0.016
-173.954	89.877	-0.069	-0.076
-172.939	353.441	0.044	0.086
-171.925	135.195	-0.191	-0.245
-170.910	-113.940	0.316	0.061
-169.896	750.254	-0.094	-0.252
-168.881	-133.724	-0.120	-0.015
-167.866	-200.000	-0.054	-0.355
-166.852	61.714	0.259	-0.255
-165.837	-107.580	-0.117	-0.025
-164.823	245.007	0.111	-0.185
-163.808	-37.852	0.129	-0.068
-162.793	300.714	-0.156	0.284
-161.779	63.956	-0.144	-0.143
-160.764	-80.588	0.165	0.054
-159.750	-0.255	0.150	-0.105
-158.735	198.367	0.101	0.153
-157.720	-112.424	0.415	-0.082
-156.706	194.179	-0.117	-0.175
-155.691	-48.287	-0.146	-0.070
-154.677	-161.469	-0.111	0.006
-153.662	800.000	-0.048	0.139
-152.647	-146.807	-0.059	-0.005
-151.633	-200.000	0.045	-0.432
-150.618	546.434	0.052	0.122
-149.604	-48.680	0.217	0.103
-148.589	-133.849	0.028	-0.003
-147.574	154.161	0.129	0.175
-146.560	338.642	-0.139	-0.267
-145.545	155.717	0.043	0.058
-144.531	-110.303	0.207	0.043
-143.516	550.137	-0.026	0.062
-142.502	-83.101	-0.181	-0.058
-141.487	-119.784	-0.164	-0.028
-140.472	-182.945	0.127	0.002
-139.458	122.643	0.164	-0.202
-138.443	800.000	-0.070	-0.219
-137.429	-34.956	-0.137	-0.074
-136.414	58.535	-0.018	-0.017
-135.399	-168.501	0.366	0.014
-134.385	31.745	-0.021	-0.018
-133.370	458.696	-0.109	-0.239
-132.356	-44.633	0.221	-0.109
-131.341	291.258	-0.018	0.031
-130.326	-134.850	-0.213	-0.025
-129.312	800.000	-0.088	-0.247
-128.297	-156.473	-0.061	0.004
-127.283	-23.867	0.230	-0.136
-126.268	-116.280	0.252	0.046
-125.253	-92.872	0.046	-0.013
-124.239	-160.228	0.261	0.014
-123.224	265.919	0.082	0.141
-122.210	-89.873	0.185	0.053
-121.195	24.480	-0.050	0.041
