DTS Sentinel unit serial number:	SN413079Multiplexer serial number:	ORYXHardware model number:	OX4-SRSoftware version number:	ORYX F/W v4.00 Oryx Data Collector v3.7.2.0data status	okinstallation	princeton_trtdifferential loss correction	single-endedforward channel	channel 4reverse channel	N/Adate	2019/09/16time	00:45:35forward acquisition time	60.00reverse acquisition time	0.00gamma	496.2192k internal	0.2323k external	0.2323temperature offset calibration	0.9965default loss term (dB/km)	0.3790temperature slope calibration	1.0000multiplexer offset coefficient	1.0000multiplexer slope coefficient	1.0000fibre end	0.00T internal ref (°C)	27.44T ext. ref 1 (°C)	9.65T ext. ref 2 (°C)	21.41length (m)	temperature (°C)	Stokes	anti-Stokes-747.200	-146.266	0.038	-0.003
-746.185	-200.000	0.008	0.237
-745.171	189.255	0.289	0.437
-744.156	-200.000	0.036	0.258
-743.142	-37.634	-0.013	-0.007
-742.127	800.000	-0.039	0.157
-741.112	-200.000	0.008	0.082
-740.098	-143.214	0.107	-0.010
-739.083	-123.425	-0.138	0.022
-738.069	-61.609	-0.210	0.089
-737.054	-200.000	0.052	-0.336
-736.039	-92.565	-0.383	-0.109
-735.025	-94.119	0.210	-0.058
-734.010	-200.000	0.050	0.241
-732.996	-39.617	0.127	0.067
-731.981	273.962	0.250	-0.447
-730.966	397.660	0.201	-0.424
-729.952	176.885	-0.221	-0.325
-728.937	-44.156	-0.216	-0.109
-727.923	269.564	-0.144	0.256
-726.908	138.668	-0.153	-0.202
-725.894	163.587	-0.140	-0.199
-724.879	53.123	-0.158	-0.153
-723.864	-85.786	0.108	-0.034
-722.850	9.325	-0.123	-0.094
-721.835	-200.000	0.013	-0.247
-720.821	369.878	-0.158	-0.322
-719.806	731.897	-0.074	-0.199
-718.791	-143.474	0.302	0.029
-717.777	158.159	0.151	0.211
-716.762	-200.000	0.019	-0.171
-715.748	622.599	0.116	-0.294
-714.733	-200.000	-0.061	0.377
-713.718	-200.000	0.097	0.434
-712.704	-178.784	-0.240	0.006
-711.689	-175.802	0.421	0.011
-710.675	-200.000	0.036	-0.315
-709.660	-83.220	-0.274	-0.089
-708.645	-135.184	-0.168	0.020
-707.631	-40.718	0.297	-0.155
-706.616	-48.331	0.093	-0.045
-705.602	-91.813	-0.129	-0.037
-704.587	-133.649	-0.229	-0.029
-703.572	6.273	0.226	0.169
-702.558	800.000	-0.055	-0.179
-701.543	21.254	0.314	-0.257
-700.529	221.699	0.032	0.051
-699.514	-172.487	0.208	0.007
-698.499	-107.268	-0.440	-0.098
-697.485	-200.000	-0.016	-0.117
-696.470	-79.144	-0.111	0.038
-695.456	-50.776	-0.131	-0.062
-694.441	-200.000	0.051	-0.225
-693.426	141.836	-0.044	0.059
-692.412	572.306	-0.101	0.248
-691.397	800.000	0.068	0.220
-690.383	20.743	-0.120	0.098
-689.368	-200.000	-0.054	-0.532
-688.354	9.817	0.180	0.137
-687.339	575.886	0.123	0.302
-686.324	45.129	-0.109	0.101
-685.310	-84.303	-0.320	-0.102
-684.295	800.000	-0.030	-0.095
-683.281	-109.204	-0.149	0.032
-682.266	800.000	0.068	-0.281
-681.251	-57.214	-0.086	0.038
-680.237	61.198	-0.089	0.089
-679.222	-2.254	0.213	-0.151
-678.208	-107.913	-0.190	0.042
-677.193	-137.412	0.382	0.044
-676.178	-110.891	-0.163	-0.034
-675.164	42.340	0.039	0.035
-674.149	-91.933	-0.087	0.025
-673.135	-200.000	-0.001	-0.106
-672.120	41.718	-0.423	-0.386
-671.105	-52.578	-0.129	0.060
-670.091	288.342	-0.061	-0.112
-669.076	81.819	0.154	-0.168
-668.062	353.696	-0.131	-0.261
-667.047	205.884	0.251	-0.392
-666.032	-200.000	0.030	-0.247
-665.018	800.000	-0.039	-0.123
-664.003	-121.482	-0.126	0.021
-662.989	-200.000	-0.027	-0.313
-661.974	20.715	0.270	-0.220
-660.959	800.000	-0.018	0.071
-659.945	165.100	-0.090	-0.127
-658.930	-200.000	-0.052	0.250
-657.916	35.014	-0.227	-0.200
-656.901	30.566	-0.161	-0.138
-655.886	128.842	0.056	0.071
-654.872	333.899	0.084	-0.164
-653.857	46.746	-0.234	-0.219
-652.843	-55.831	0.248	-0.111
-651.828	-99.532	-0.368	-0.093
-650.814	-119.930	0.047	-0.008
-649.799	-153.679	0.152	-0.010
-648.784	-81.425	0.229	0.076
-647.770	-17.827	-0.219	0.138
-646.755	276.601	0.063	-0.112
-645.741	-41.894	-0.260	-0.134
-644.726	54.042	-0.136	-0.131
-643.711	-153.655	-0.276	0.019
-642.697	-39.296	-0.356	0.188
-641.682	-111.748	-0.308	-0.063
-640.668	11.276	0.082	0.063
-639.653	-200.000	-0.004	-0.070
-638.638	800.000	0.062	-0.198
-637.624	154.731	-0.027	0.037
-636.609	-106.254	-0.203	-0.046
-635.595	94.675	0.138	-0.158
-634.580	440.965	0.039	-0.085
-633.565	206.344	-0.125	0.196
-632.551	44.373	-0.094	0.086
-631.536	800.000	-0.081	-0.329
-630.522	-105.999	0.273	-0.062
-629.507	-155.468	-0.314	-0.020
-628.492	689.382	-0.112	-0.294
-627.478	-191.813	-0.312	-0.003
-626.463	156.201	0.214	-0.297
-625.449	-200.000	-0.033	0.237
-624.434	-30.622	0.167	-0.095
-623.419	-18.407	-0.153	0.096
-622.405	489.302	0.119	-0.274
-621.390	-52.145	-0.049	-0.023
-620.376	-200.000	0.043	-0.208
-619.361	800.000	-0.058	-0.188
-618.346	-200.000	-0.037	-0.420
-617.332	-98.935	-0.315	-0.080
-616.317	312.194	-0.094	-0.177
-615.303	-123.908	0.318	0.050
-614.288	-65.661	0.348	-0.140
-613.273	-44.285	0.263	0.132
-612.259	268.752	0.070	-0.124
-611.244	-75.657	-0.218	-0.078
-610.230	-192.781	-0.376	-0.003
-609.215	154.556	-0.253	-0.349
-608.201	675.182	0.034	-0.090
-607.186	15.573	0.122	0.096
-606.171	-200.000	-0.010	-0.250
-605.157	45.333	0.144	-0.133
-604.142	256.660	0.013	-0.022
-603.128	-82.625	-0.107	0.035
-602.113	171.820	0.099	0.143
-601.098	800.000	-0.048	0.207
-600.084	63.638	0.238	0.240
-599.069	-52.146	0.071	-0.033
-598.055	222.389	-0.055	-0.089
-597.040	-200.000	0.048	0.283
-596.025	-91.525	-0.125	-0.036
-595.011	-111.669	0.422	0.086
-593.996	-200.000	0.047	-0.257
-592.982	3.995	-0.215	0.158
-591.967	-200.000	-0.043	-0.456
-590.952	93.108	-0.044	-0.050
-589.938	63.048	-0.129	0.129
-588.923	8.149	0.283	-0.214
-587.909	78.260	-0.062	-0.067
-586.894	-124.097	0.217	-0.034
-585.879	372.897	0.098	0.200
-584.865	-30.219	-0.055	0.032
-583.850	-79.661	0.179	-0.061
-582.836	-200.000	-0.004	0.222
-581.821	290.512	0.178	0.325
-580.806	-65.039	-0.164	-0.066
-579.792	15.078	0.062	-0.049
-578.777	212.265	-0.076	0.120
-577.763	-200.000	0.013	-0.382
-576.748	800.000	-0.056	0.160
-575.733	-200.000	-0.007	0.143
-574.719	-143.862	-0.193	0.018
-573.704	-55.776	0.257	0.115
-572.690	-60.734	0.033	0.014
-571.675	-200.000	-0.026	-0.165
-570.661	263.081	0.138	0.241
-569.646	-59.922	-0.276	0.118
-568.631	270.973	0.052	0.092
-567.617	17.286	-0.292	-0.232
-566.602	308.357	-0.072	-0.134
-565.588	-91.750	-0.042	0.012
-564.573	355.321	-0.031	-0.062
-563.558	-176.030	-0.393	-0.010
-562.544	-166.066	0.178	0.008
-561.529	-47.191	-0.234	0.114
-560.515	800.000	-0.042	0.123
-559.500	-153.024	-0.383	-0.027
-558.485	800.000	-0.040	0.153
-557.471	80.520	-0.251	-0.271
-556.456	-200.000	0.024	-0.142
-555.442	21.251	-0.047	-0.038
-554.427	-79.362	0.127	-0.043
-553.412	800.000	-0.076	0.239
-552.398	25.867	0.172	0.144
-551.383	15.298	-0.150	-0.118
-550.369	-200.000	-0.043	-0.199
-549.354	-139.569	-0.492	0.053
-548.339	-200.000	0.005	-0.074
-547.325	-200.000	-0.018	0.222
-546.310	70.207	0.127	-0.131
-545.296	-200.000	0.007	-0.110
-544.281	-167.307	-0.216	-0.009
-543.266	-200.000	0.005	0.067
-542.252	29.696	0.105	0.089
-541.237	-13.470	-0.124	0.081
-540.223	-28.343	0.173	-0.100
-539.208	-154.955	-0.285	0.019
-538.193	641.169	0.058	-0.147
-537.179	-200.000	0.021	-0.129
-536.164	-148.481	0.395	0.032
-535.150	-200.000	0.039	0.187
-534.135	800.000	-0.039	0.149
-533.121	89.916	0.310	0.347
-532.106	800.000	-0.123	0.421
-531.091	7.649	0.210	-0.158
-530.077	19.127	-0.317	-0.254
-529.062	26.870	0.118	-0.099
-528.048	-200.000	-0.089	0.392
-527.033	-136.623	0.277	0.032
-526.018	-200.000	-0.013	0.406
-525.004	-144.133	0.180	0.017
-523.989	46.624	0.141	-0.131
-522.975	125.518	0.118	0.149
-521.960	-30.278	0.108	-0.061
-520.945	105.930	0.073	-0.086
-519.931	-35.420	-0.349	0.190
-518.916	-2.907	-0.082	0.057
-517.902	-136.053	0.445	-0.052
-516.887	7.706	-0.322	0.241
-515.872	630.647	0.037	0.094
-514.858	154.375	-0.234	0.322
-513.843	27.216	-0.187	-0.157
-512.829	91.538	0.092	-0.104
-511.814	-200.000	-0.047	0.261
-510.799	-200.000	-0.004	-0.114
-509.785	73.019	0.201	-0.210
-508.770	26.883	0.234	-0.196
-507.756	2.077	-0.232	-0.168
-506.741	-94.260	0.396	0.108
-505.726	-111.294	-0.399	0.081
-504.712	-37.060	-0.007	0.004
-503.697	800.000	-0.014	-0.049
-502.683	-134.056	0.299	0.037
-501.668	204.271	-0.258	-0.399
-500.653	-175.321	-0.325	-0.009
-499.639	41.093	0.174	-0.157
-498.624	90.394	0.184	-0.206
-497.610	-159.371	0.202	0.011
-496.595	544.408	-0.146	0.348
-495.581	206.779	0.048	0.074
-494.566	-65.629	-0.153	0.061
-493.551	586.875	0.118	0.289
-492.537	143.055	-0.153	0.203
-491.522	534.809	0.076	-0.180
-490.508	147.881	-0.169	0.228
-489.493	281.317	-0.164	0.293
-488.478	-147.801	-0.198	0.017
-487.464	64.220	0.065	-0.065
-486.449	-58.460	0.215	0.094
-485.435	-154.242	-0.178	0.012
-484.420	-200.000	-0.014	0.235
-483.405	-110.268	-0.518	-0.108
-482.391	-200.000	0.036	-0.404
-481.376	71.063	0.307	0.318
-480.362	97.644	0.202	0.232
-479.347	334.099	-0.076	0.146
-478.332	-70.959	-0.198	-0.074
-477.318	800.000	0.069	0.194
-476.303	-104.821	-0.233	-0.054
-475.289	-27.465	-0.109	-0.063
-474.274	-200.000	-0.157	-0.000
-473.259	-38.329	0.152	-0.080
-472.245	-97.887	0.359	-0.093
-471.230	103.113	-0.098	-0.115
-470.216	106.618	-0.272	-0.322
-469.201	654.248	0.074	-0.190
-468.186	-122.470	0.301	0.049
-467.172	800.000	-0.076	-0.291
-466.157	313.460	0.116	0.219
-465.143	5.052	-0.020	0.015
-464.128	603.648	0.073	-0.182
-463.113	605.717	0.036	0.090
-462.099	-57.276	0.519	0.228
-461.084	372.480	0.148	-0.299
-460.070	484.810	0.111	0.253
-459.055	396.762	0.030	0.062
-458.040	-57.126	0.136	0.060
-457.026	249.377	-0.172	0.291
-456.011	800.000	0.082	-0.235
-454.997	-123.123	-0.301	0.048
-453.982	45.325	0.123	-0.113
-452.968	-200.000	0.022	0.240
-451.953	-200.000	-0.042	0.193
-450.938	-92.882	0.249	0.069
-449.924	-151.181	-0.155	-0.012
-448.909	304.635	-0.082	0.152
-447.895	-115.072	0.341	-0.065
-446.880	-68.268	0.159	0.062
-445.865	-39.945	0.146	-0.076
-444.851	-200.000	-0.012	-0.071
-443.836	29.847	-0.135	0.115
-442.822	2.276	0.248	0.179
-441.807	-200.000	0.040	-0.226
-440.792	40.103	-0.065	-0.058
-439.778	-200.000	-0.058	-0.344
-438.763	-75.033	-0.046	-0.017
-437.749	170.109	-0.125	0.179
-436.734	-28.168	-0.152	0.088
-435.719	-200.000	-0.071	0.338
-434.705	-19.878	-0.180	0.111
-433.690	-200.000	0.016	-0.306
-432.676	800.000	-0.154	-0.584
-431.661	69.568	0.111	-0.114
-430.646	2.671	-0.035	-0.026
-429.632	106.509	-0.113	0.134
-428.617	-64.580	-0.317	0.128
-427.603	360.190	-0.050	-0.100
-426.588	-68.842	0.164	-0.063
-425.573	386.164	-0.160	0.329
-424.559	-134.709	-0.143	-0.017
-423.544	-200.000	-0.026	-0.193
-422.530	55.640	0.317	0.306
-421.515	-46.429	-0.134	0.066
-420.500	726.064	-0.125	-0.333
-419.486	-121.316	0.026	0.004
-418.471	323.113	-0.062	0.118
-417.457	-200.000	-0.020	-0.419
-416.442	-200.000	-0.001	-0.019
-415.428	286.343	0.074	-0.133
-414.413	-200.000	0.022	-0.195
-413.398	-83.606	-0.079	-0.025
-412.384	43.734	0.110	0.100
-411.369	-156.710	-0.220	-0.014
-410.355	17.050	0.085	0.067
-409.340	-145.610	-0.122	-0.011
-408.325	800.000	-0.060	0.259
-407.311	294.769	0.107	-0.195
-406.296	-88.569	0.179	0.053
-405.282	37.808	0.122	-0.108
-404.267	-4.792	0.069	0.047
-403.252	95.955	0.223	-0.254
-402.238	407.067	0.094	-0.198
-401.223	-200.000	0.020	-0.177
-400.209	800.000	0.036	0.151
-399.194	139.942	-0.234	0.307
-398.179	-84.414	-0.101	-0.032
-397.165	36.451	0.252	-0.222
-396.150	364.513	-0.046	0.092
-395.136	-168.743	0.168	0.006
-394.121	-200.000	0.011	0.114
-393.106	-81.628	0.205	-0.067
-392.092	-111.782	0.419	-0.084
-391.077	-200.000	-0.044	-0.308
-390.063	-200.000	-0.033	-0.266
-389.048	-20.900	-0.275	-0.168
-388.033	-81.295	-0.125	0.041
-387.019	7.009	0.048	-0.036
-386.004	-200.000	-0.052	0.434
-384.990	19.266	-0.025	0.020
-383.975	-45.435	-0.201	0.099
-382.960	-85.142	-0.136	0.042
-381.946	-118.879	0.316	0.055
-380.931	-200.000	0.054	0.358
-379.917	-200.000	0.053	-0.286
-378.902	-146.394	-0.393	0.034
-377.888	567.878	0.051	-0.123
-376.873	-200.000	0.006	-0.283
-375.858	800.000	0.132	-0.374
-374.844	-200.000	-0.063	0.289
-373.829	239.961	0.174	-0.288
-372.815	-200.000	-0.019	0.214
-371.800	-129.983	0.152	0.021
-370.785	-91.596	-0.185	-0.052
-369.771	-68.753	-0.409	-0.157
-368.756	-104.589	0.376	0.086
-367.742	249.040	-0.015	-0.025
-366.727	-122.007	0.182	-0.030
-365.712	765.092	-0.029	0.078
-364.698	-200.000	0.013	0.273
-363.683	-200.000	-0.016	0.449
-362.669	616.306	0.045	-0.111
-361.654	-95.896	0.256	-0.068
-360.639	-18.694	0.232	-0.144
-359.625	-200.000	-0.035	-0.202
-358.610	-9.923	0.138	0.092
-357.596	-200.000	0.066	-0.330
-356.581	-38.307	-0.261	-0.138
-355.566	-23.069	-0.122	0.073
-354.552	800.000	0.103	0.287
-353.537	-200.000	0.021	-0.318
-352.523	274.991	0.110	0.194
-351.508	-162.130	-0.166	-0.008
-350.493	23.378	-0.196	-0.160
-349.479	800.000	0.044	-0.122
-348.464	49.241	-0.140	0.131
-347.450	-91.264	-0.276	0.079
-346.435	-26.159	0.168	0.098
-345.420	800.000	0.030	0.122
-344.406	9.904	-0.171	0.129
-343.391	238.537	0.126	-0.209
-342.377	162.887	0.132	0.184
-341.362	-56.389	-0.153	-0.068
-340.348	338.741	0.039	-0.076
-339.333	-68.184	0.110	0.043
-338.318	-200.000	0.001	0.049
-337.304	-147.536	0.419	-0.035
-336.289	669.398	-0.148	0.381
-335.275	343.077	0.053	-0.104
-334.260	70.384	-0.258	-0.265
-333.245	51.473	-0.230	0.217
-332.231	-40.334	-0.304	0.157
-331.216	472.877	-0.111	-0.248
-330.202	-200.000	-0.064	-0.319
-329.187	800.000	-0.049	-0.180
-328.172	178.743	0.196	0.284
-327.158	-45.651	-0.100	0.049
-326.143	-21.388	0.313	0.190
-325.129	80.677	0.311	0.333
-324.114	-159.000	0.236	0.013
-323.099	328.858	-0.033	-0.062
-322.085	800.000	-0.041	0.134
-321.070	-42.503	-0.332	-0.168
-320.056	-160.850	-0.098	0.005
-319.041	-65.769	-0.170	0.067
-318.026	800.000	0.032	-0.140
-317.012	27.870	-0.109	0.091
-315.997	554.373	0.047	-0.113
-314.983	396.475	0.110	-0.228
-313.968	-21.409	-0.260	-0.157
-312.953	-69.826	0.495	-0.188
-311.939	-161.321	0.178	0.009
-310.924	800.000	-0.092	-0.277
-309.910	-200.000	-0.083	0.514
-308.895	-106.930	0.054	0.012
-307.880	77.200	-0.270	0.285
-306.866	800.000	-0.034	-0.120
-305.851	-47.837	0.163	0.078
-304.837	-10.300	-0.318	0.210
-303.822	-36.670	0.057	-0.031
-302.807	-79.935	-0.256	-0.085
-301.793	-36.494	0.279	0.149
-300.778	93.098	-0.038	0.043
-299.764	-200.000	-0.029	-0.309
-298.749	-26.249	0.134	-0.078
-297.735	-200.000	-0.053	0.362
-296.720	613.290	-0.083	-0.207
-295.705	-61.185	-0.207	-0.086
-294.691	-148.580	0.240	0.019
-293.676	306.061	0.119	0.219
-292.662	375.699	0.107	-0.216
-291.647	110.391	-0.101	-0.121
-290.632	411.632	-0.040	-0.085
-289.618	9.534	-0.124	0.093
-288.603	800.000	0.023	-0.083
-287.589	28.229	0.133	0.112
-286.574	-117.055	0.275	-0.050
-285.559	25.478	-0.433	-0.357
-284.545	-102.527	-0.316	-0.075
-283.530	-48.949	0.051	0.024
-282.516	116.384	-0.224	-0.272
-281.501	-117.071	-0.411	-0.074
-280.486	-87.183	-0.202	-0.061
-279.472	800.000	0.093	0.369
-278.457	122.893	0.166	-0.206
-277.443	336.431	-0.082	0.159
-276.428	-12.898	-0.085	-0.055
-275.413	-143.538	-0.029	0.003
-274.399	-110.324	0.338	-0.070
-273.384	263.303	0.061	-0.106
-272.370	659.391	-0.003	0.006
-271.355	-200.000	0.008	-0.110
-270.340	800.000	0.040	0.136
-269.326	-200.000	-0.022	-0.149
-268.311	127.033	0.093	-0.117
-267.297	21.390	0.128	0.103
-266.282	-125.730	-0.332	0.050
-265.267	800.000	-0.017	-0.051
-264.253	-62.652	-0.164	-0.067
-263.238	-107.975	-0.244	0.052
-262.224	-200.000	-0.004	0.346
-261.209	-71.444	0.399	-0.148
-260.195	-68.832	0.360	0.138
-259.180	310.735	-0.057	-0.105
-258.165	515.139	0.020	-0.046
-257.151	31.933	0.387	-0.330
-256.136	-33.846	0.145	-0.079
-255.122	225.174	0.050	0.081
-254.107	-52.026	0.178	-0.082
-253.092	42.454	-0.131	0.118
-252.078	9.711	-0.242	0.181
-251.063	-128.845	0.251	-0.035
-250.049	108.676	-0.248	-0.293
-249.034	800.000	-0.068	0.185
-248.019	-15.260	-0.114	-0.072
-247.005	335.947	0.058	0.111
-245.990	438.620	-0.062	0.134
-244.976	-34.371	-0.193	0.105
-243.961	78.920	0.150	-0.159
-242.946	316.829	0.040	0.075
-241.932	93.656	0.185	-0.208
-240.917	-200.000	0.026	-0.413
-239.903	800.000	-0.088	-0.357
-238.888	-200.000	0.008	0.174
-237.873	-66.077	0.263	0.104
-236.859	473.114	0.168	-0.374
-235.844	-78.942	-0.106	0.036
-234.830	-66.744	-0.087	0.034
-233.815	-28.790	0.072	0.041
-232.800	635.252	-0.124	-0.312
-231.786	-200.000	0.035	0.273
-230.771	800.000	-0.072	-0.198
-229.757	-101.889	0.147	-0.035
-228.742	-128.550	0.086	-0.012
-227.727	0.589	-0.143	0.101
-226.713	800.000	0.133	0.378
-225.698	29.593	0.173	0.146
-224.684	-54.635	-0.266	-0.119
-223.669	179.455	-0.214	0.310
-222.655	-6.541	-0.294	0.198
-221.640	-76.453	-0.153	0.053
-220.625	800.000	-0.017	0.046
-219.611	800.000	0.047	0.165
-218.596	185.449	0.304	0.447
-217.582	-82.257	0.177	0.057
-216.567	47.177	-0.080	-0.074
-215.552	3.688	0.275	0.198
-214.538	-200.000	-0.065	-0.297
-213.523	-200.000	-0.052	-0.250
-212.509	-68.662	0.117	-0.045
-211.494	800.000	-0.027	-0.103
-210.479	-5.361	0.025	-0.017
-209.465	-73.440	0.284	0.102
-208.450	205.159	-0.161	0.247
-207.436	53.863	0.133	0.126
-206.421	150.086	0.176	0.237
-205.406	-145.518	-0.365	-0.032
-204.392	800.000	0.052	-0.191
-203.377	-200.000	-0.079	0.395
-202.363	253.883	0.130	0.219
-201.348	800.000	0.080	-0.231
-200.333	-131.206	-0.338	0.044
-199.319	-115.970	0.149	-0.028
-198.304	-95.963	-0.204	0.054
-197.290	-137.846	0.266	-0.029
-196.275	800.000	-0.055	0.224
-195.260	620.047	0.051	-0.127
-194.246	273.519	-0.062	0.108
-193.231	106.313	0.142	0.167
-192.217	7.227	-0.048	0.035
-191.202	800.000	-0.021	-0.091
-190.187	7.801	-0.113	-0.084
-189.173	161.242	0.195	-0.269
-188.158	256.913	0.100	-0.169
-187.144	171.878	0.339	0.482
-186.129	-96.059	0.328	0.086
-185.114	-144.890	-0.114	-0.010
-184.100	-200.000	-0.024	0.314
-183.085	800.000	0.186	0.531
-182.071	404.704	0.079	0.164
-181.056	-106.624	0.203	0.045
-180.042	22.349	-0.346	0.279
-179.027	-198.267	-0.227	-0.001
-178.012	-5.913	0.143	-0.097
-176.998	22.382	0.184	0.149
-175.983	270.167	0.224	0.390
-174.969	111.546	0.122	-0.146
-173.954	800.000	0.110	-0.308
-172.939	65.767	-0.200	-0.201
-171.925	-3.039	0.166	-0.114
-170.910	-200.000	-0.022	0.209
-169.896	387.936	-0.148	0.303
-168.881	-85.843	0.251	0.077
-167.866	-10.220	0.088	0.057
-166.852	-62.951	-0.129	0.053
-165.837	-155.052	0.333	-0.022
-164.823	76.647	-0.238	0.249
-163.808	53.285	0.515	-0.488
-162.793	-103.285	-0.174	-0.040
-161.779	415.886	0.122	0.257
-160.764	382.669	0.029	-0.058
-159.750	-134.451	-0.151	-0.018
-158.735	-126.564	0.115	0.017
-157.720	161.296	-0.149	-0.206
-156.706	-200.000	0.005	-0.033
-155.691	-2.934	0.191	0.131
-154.677	-59.958	0.156	-0.066
-153.662	266.674	-0.099	-0.171
-152.647	-116.968	-0.144	0.026
-151.633	-132.888	-0.289	-0.036
-150.618	-85.019	0.103	0.032
-149.604	330.129	0.060	0.113
-148.589	592.967	-0.089	-0.216
-147.574	-181.382	-0.094	-0.002
-146.560	-63.082	-0.239	-0.097
-145.545	76.365	0.144	-0.150
-144.531	-29.004	0.096	0.054
-143.516	294.070	-0.113	-0.204
-142.502	162.130	0.098	0.135
-141.487	59.782	0.162	0.157
-140.472	-9.993	-0.052	-0.034
-139.458	183.517	0.068	0.099
-138.443	-23.780	-0.209	0.123
-137.429	-88.109	0.255	-0.075
-136.414	90.002	0.226	0.249
-135.399	-200.000	-0.008	-0.134
-134.385	-89.978	-0.504	-0.145
-133.370	800.000	-0.041	0.115
-132.356	-108.667	0.241	0.051
-131.341	-25.381	0.257	-0.150
-130.326	297.502	-0.119	0.216
-129.312	-107.901	0.243	0.052
-128.297	-67.256	0.149	0.058
-127.283	-46.394	0.206	-0.100
-126.268	2.531	0.248	-0.177
-125.253	-53.179	0.341	-0.154
-124.239	-177.303	0.224	-0.005
-123.224	-200.000	0.013	-0.149
-122.210	-200.000	-0.055	0.347
-121.195	354.339	0.147	0.288
