DTS Sentinel unit serial number:	SN413079Multiplexer serial number:	ORYXHardware model number:	OX4-SRSoftware version number:	ORYX F/W v4.00 Oryx Data Collector v3.7.2.0data status	okinstallation	princeton_trtdifferential loss correction	single-endedforward channel	channel 4reverse channel	N/Adate	2019/09/16time	21:05:34forward acquisition time	60.00reverse acquisition time	0.00gamma	496.2192k internal	0.2312k external	0.2312temperature offset calibration	0.9967default loss term (dB/km)	0.3790temperature slope calibration	1.0000multiplexer offset coefficient	1.0000multiplexer slope coefficient	1.0000fibre end	0.00T internal ref (°C)	31.91T ext. ref 1 (°C)	0.05T ext. ref 2 (°C)	25.35length (m)	temperature (°C)	Stokes	anti-Stokes-747.200	-0.662	-0.320	0.230
-746.185	305.620	0.218	0.411
-745.171	107.188	-0.218	0.263
-744.156	-72.737	-0.223	0.083
-743.142	-200.000	0.016	0.333
-742.127	-87.662	-0.196	-0.060
-741.112	227.647	0.086	0.142
-740.098	-200.000	-0.027	0.274
-739.083	115.032	0.256	0.317
-738.069	800.000	0.152	0.618
-737.054	755.653	-0.034	0.092
-736.039	406.099	-0.249	-0.532
-735.025	-200.000	0.042	0.320
-734.010	319.411	0.041	0.080
-732.996	800.000	-0.055	-0.180
-731.981	-144.605	-0.102	-0.010
-730.966	-77.720	0.355	-0.125
-729.952	411.038	0.032	0.069
-728.937	72.751	-0.079	-0.083
-727.923	-200.000	-0.011	-0.109
-726.908	800.000	-0.035	-0.147
-725.894	194.908	0.070	0.108
-724.879	-132.820	-0.176	0.023
-723.864	-59.883	-0.308	0.133
-722.850	-133.950	-0.120	0.015
-721.835	-109.369	-0.130	0.028
-720.821	37.157	0.072	-0.065
-719.806	-31.419	-0.195	0.111
-718.791	-200.000	0.026	-0.175
-717.777	17.035	-0.259	-0.208
-716.762	-74.881	-0.146	0.053
-715.748	-22.744	0.292	-0.179
-714.733	-144.613	-0.259	-0.024
-713.718	-200.000	-0.015	0.091
-712.704	-188.531	0.229	-0.003
-711.689	442.209	0.158	0.350
-710.675	66.967	0.134	-0.138
-709.660	220.696	-0.071	-0.115
-708.645	-200.000	0.084	0.399
-707.631	6.791	-0.113	-0.085
-706.616	257.757	-0.086	-0.151
-705.602	-57.818	-0.272	0.120
-704.587	800.000	0.065	0.262
-703.572	301.401	-0.128	-0.240
-702.558	-65.389	0.181	0.074
-701.543	-200.000	0.012	-0.166
-700.529	293.831	-0.178	-0.329
-699.514	-200.000	-0.023	0.156
-698.499	-61.484	-0.185	0.079
-697.485	-53.766	-0.004	0.002
-696.470	800.000	-0.068	0.221
-695.456	161.413	-0.066	0.094
-694.441	-80.093	0.219	0.074
-693.426	-147.863	0.157	0.013
-692.412	-22.148	-0.195	-0.120
-691.397	-141.517	-0.276	-0.028
-690.383	-114.775	-0.208	0.040
-689.368	-122.188	-0.170	0.028
-688.354	-88.006	-0.340	-0.103
-687.339	547.078	0.040	0.097
-686.324	800.000	0.039	-0.141
-685.310	460.260	0.088	-0.199
-684.295	-129.805	-0.372	-0.052
-683.281	-52.999	0.048	-0.022
-682.266	389.800	-0.043	0.090
-681.251	-200.000	0.005	-0.125
-680.237	-158.277	-0.064	0.004
-679.222	-179.404	-0.328	0.007
-678.208	53.352	-0.128	0.124
-677.193	-65.854	-0.094	-0.038
-676.178	-200.000	0.006	-0.059
-675.164	-53.799	-0.214	0.099
-674.149	-200.000	-0.011	0.141
-673.135	-63.762	-0.065	0.027
-672.120	-200.000	-0.013	-0.391
-671.105	-200.000	-0.046	-0.364
-670.091	-200.000	-0.010	0.231
-669.076	239.856	0.163	-0.275
-668.062	398.257	0.099	0.209
-667.047	-27.830	0.193	0.113
-666.032	321.138	0.162	0.312
-665.018	-116.479	0.288	0.054
-664.003	-115.373	0.084	-0.016
-662.989	800.000	0.041	-0.150
-661.974	63.271	0.259	0.263
-660.959	95.045	0.241	-0.278
-659.945	-69.630	0.082	0.032
-658.930	122.857	-0.075	0.095
-657.916	-200.000	-0.022	-0.217
-656.901	607.541	-0.030	0.075
-655.886	24.435	0.098	0.082
-654.872	800.000	-0.031	0.116
-653.857	55.209	0.111	-0.109
-652.843	-14.857	-0.368	-0.239
-651.828	-88.985	-0.151	-0.045
-650.814	-12.451	-0.186	-0.123
-649.799	275.102	-0.163	-0.291
-648.784	800.000	0.067	0.199
-647.770	-64.617	0.114	0.047
-646.755	-200.000	-0.034	-0.393
-645.741	-200.000	-0.022	0.096
-644.726	109.744	-0.356	0.432
-643.711	12.861	-0.235	-0.184
-642.697	800.000	0.027	0.112
-641.682	-54.706	-0.218	-0.100
-640.668	220.909	-0.132	0.213
-639.653	-200.000	-0.062	0.295
-638.638	-200.000	0.023	-0.206
-637.624	109.748	-0.090	0.109
-636.609	-50.753	-0.152	-0.072
-635.595	-42.783	0.161	-0.083
-634.580	-200.000	0.366	-0.001
-633.565	2.141	-0.091	-0.066
-632.551	14.261	-0.079	0.062
-631.536	-143.811	-0.158	0.015
-630.522	-12.767	0.062	0.041
-629.507	-200.000	0.018	0.264
-628.492	800.000	0.082	0.343
-627.478	141.077	0.124	-0.166
-626.463	-60.123	0.070	0.030
-625.449	110.099	-0.078	-0.095
-624.434	49.798	0.160	0.152
-623.419	-111.809	0.225	0.046
-622.405	109.020	0.147	-0.177
-621.390	-95.336	0.077	0.021
-620.376	85.204	0.037	0.041
-619.361	800.000	0.034	-0.129
-618.346	-10.073	0.192	-0.129
-617.332	-168.163	-0.467	0.018
-616.317	800.000	0.062	0.248
-615.303	-23.016	0.177	-0.108
-614.288	-75.822	0.171	-0.061
-613.273	-54.969	0.141	-0.064
-612.259	800.000	0.069	-0.264
-611.244	-34.371	-0.353	0.195
-610.230	363.790	-0.166	-0.336
-609.215	-34.378	0.309	-0.171
-608.201	-165.216	-0.089	-0.004
-607.186	398.646	0.047	0.099
-606.171	-21.439	-0.300	-0.185
-605.157	-200.000	0.038	-0.380
-604.142	-181.733	-0.188	-0.004
-603.128	260.012	0.108	-0.188
-602.113	-0.769	0.378	0.270
-601.098	62.468	-0.056	-0.057
-600.084	800.000	-0.081	-0.236
-599.069	181.195	-0.059	-0.088
-598.055	787.083	-0.049	-0.136
-597.040	192.421	-0.064	-0.098
-596.025	112.451	0.116	-0.141
-595.011	-90.545	0.187	-0.055
-593.996	-24.194	0.109	-0.065
-592.982	121.615	0.278	-0.350
-591.967	-62.665	0.271	0.113
-590.952	-200.000	-0.026	-0.256
-589.938	-21.890	-0.140	0.086
-588.923	109.060	-0.211	-0.254
-587.909	-200.000	0.005	-0.023
-586.894	-42.903	-0.077	-0.039
-585.879	119.233	0.274	-0.342
-584.865	-27.450	-0.085	-0.050
-583.850	800.000	0.054	-0.199
-582.836	-114.450	0.179	0.035
-581.821	-107.692	-0.211	0.046
-580.806	-87.842	-0.043	-0.013
-579.792	-63.267	-0.250	-0.104
-578.777	33.503	-0.182	0.160
-577.763	-200.000	-0.079	-0.450
-576.748	172.850	0.215	-0.313
-575.733	-20.541	0.187	0.116
-574.719	-98.541	-0.249	0.064
-573.704	41.707	0.152	-0.138
-572.690	-200.000	-0.008	0.318
-571.675	-82.129	0.251	-0.082
-570.661	800.000	-0.084	0.261
-569.646	484.896	-0.061	-0.140
-568.631	-7.998	-0.241	-0.164
-567.617	-44.276	-0.032	0.016
-566.602	-200.000	0.074	0.362
-565.588	-107.211	0.286	0.063
-564.573	256.263	-0.183	-0.316
-563.558	88.673	0.285	0.319
-562.544	21.249	0.072	0.059
-561.529	-200.000	-0.033	0.162
-560.515	-116.218	-0.242	0.045
-559.500	-131.431	0.558	0.074
-558.485	-24.536	-0.301	-0.180
-557.471	239.658	0.034	-0.056
-556.456	99.721	0.207	-0.241
-555.442	-200.000	-0.008	0.174
-554.427	426.131	0.153	-0.332
-553.412	800.000	-0.071	-0.213
-552.398	210.192	-0.057	-0.091
-551.383	181.408	0.077	-0.115
-550.369	-200.000	-0.027	-0.249
-549.354	61.890	0.186	0.187
-548.339	-49.114	0.199	-0.096
-547.325	-98.220	0.277	0.072
-546.310	800.000	-0.025	0.080
-545.296	50.940	0.048	-0.045
-544.281	733.447	0.117	0.314
-543.266	8.219	-0.290	0.219
-542.252	118.510	0.098	0.122
-541.237	-154.357	-0.466	-0.032
-540.223	79.175	0.170	-0.184
-539.208	255.975	-0.219	-0.378
-538.193	-106.655	-0.269	-0.060
-537.179	-37.690	-0.411	-0.221
-536.164	94.255	-0.174	-0.199
-535.150	-126.826	-0.512	0.076
-534.135	129.892	0.223	0.287
-533.121	-146.387	0.211	0.019
-532.106	-134.028	0.220	-0.027
-531.091	-18.393	0.156	-0.098
-530.077	-64.741	0.089	0.036
-529.062	-108.372	0.298	-0.065
-528.048	8.454	0.173	-0.131
-527.033	115.684	-0.153	-0.188
-526.018	-200.000	-0.061	0.302
-525.004	186.752	0.126	-0.189
-523.989	155.071	-0.172	-0.239
-522.975	62.676	-0.133	-0.134
-521.960	-40.567	-0.341	0.178
-520.945	800.000	0.070	-0.293
-519.931	389.331	-0.056	0.116
-518.916	-57.141	-0.294	-0.130
-517.902	800.000	-0.057	-0.160
-516.887	-171.605	-0.395	-0.013
-515.872	-93.166	-0.069	-0.019
-514.858	-36.202	-0.423	0.229
-513.843	264.628	0.112	-0.196
-512.829	-200.000	0.030	0.192
-511.814	-200.000	-0.002	-0.145
-510.799	-76.813	-0.164	0.058
-509.785	800.000	-0.079	0.261
-508.770	14.322	-0.314	0.246
-507.756	-6.797	0.089	0.061
-506.741	209.957	-0.093	-0.147
-505.726	17.907	-0.352	0.282
-504.712	-200.000	-0.040	0.303
-503.697	152.256	-0.049	-0.068
-502.683	36.756	-0.132	-0.117
-501.668	218.455	-0.232	0.372
-500.653	-11.055	-0.475	0.315
-499.639	-200.000	-0.036	-0.324
-498.624	-102.812	0.397	-0.095
-497.610	-200.000	0.028	-0.178
-496.595	800.000	-0.064	-0.191
-495.581	-200.000	-0.040	0.253
-494.566	253.501	-0.076	0.130
-493.551	-94.245	-0.101	-0.028
-492.537	153.249	-0.047	0.065
-491.522	800.000	0.033	-0.098
-490.508	-33.596	-0.220	0.122
-489.493	-200.000	-0.044	-0.401
-488.478	-136.026	-0.142	0.017
-487.464	95.988	-0.060	-0.069
-486.449	91.654	0.037	0.041
-485.435	-33.541	0.035	0.019
-484.420	-99.715	-0.277	0.070
-483.405	121.240	0.058	-0.073
-482.391	-66.315	-0.126	-0.050
-481.376	-72.181	-0.129	0.048
-480.362	79.021	-0.110	0.118
-479.347	375.274	-0.068	-0.139
-478.332	351.551	0.092	0.182
-477.318	119.165	-0.283	0.352
-476.303	-200.000	0.017	-0.112
-475.289	121.990	0.206	-0.258
-474.274	-200.000	-0.002	0.053
-473.259	-155.783	0.445	0.029
-472.245	800.000	-0.028	0.121
-471.230	-109.353	0.357	-0.076
-470.216	-85.610	-0.340	-0.106
-469.201	-198.359	0.320	-0.002
-468.186	778.684	0.157	0.431
-467.172	800.000	-0.155	-0.628
-466.157	-141.474	0.448	-0.045
-465.143	800.000	0.091	0.274
-464.128	150.608	0.230	0.314
-463.113	-128.730	-0.327	-0.046
-462.099	52.969	-0.163	-0.157
-461.084	-34.146	-0.203	0.112
-460.070	34.271	0.192	-0.168
-459.055	800.000	-0.068	0.236
-458.040	82.230	-0.210	0.229
-457.026	35.572	0.324	-0.285
-456.011	329.432	0.095	0.183
-454.997	-109.435	-0.195	0.041
-453.982	800.000	-0.056	-0.210
-452.968	-146.074	0.316	0.028
-451.953	-86.366	0.201	0.062
-450.938	196.098	0.145	0.221
-449.924	-38.420	0.128	-0.068
-448.909	71.126	0.131	-0.136
-447.895	-200.000	-0.038	-0.238
-446.880	800.000	0.067	0.229
-445.865	61.378	-0.058	0.058
-444.851	-66.125	0.080	-0.032
-443.836	-104.681	-0.271	-0.063
-442.822	89.843	0.220	-0.247
-441.807	-95.627	-0.209	-0.056
-440.792	-200.000	0.028	0.314
-439.778	422.201	-0.063	0.135
-438.763	-126.514	-0.177	-0.026
-437.749	123.637	0.190	0.239
-436.734	5.588	0.127	-0.094
-435.719	55.101	0.071	0.069
-434.705	800.000	-0.089	-0.314
-433.690	-4.164	-0.296	-0.206
-432.676	-106.983	0.361	0.080
-431.661	-13.669	-0.384	-0.249
-430.646	-34.606	-0.100	0.055
-429.632	800.000	-0.078	-0.273
-428.617	2.214	0.161	-0.116
-427.603	648.737	0.045	-0.115
-426.588	800.000	-0.066	0.239
-425.573	800.000	0.101	0.377
-424.559	63.851	-0.042	-0.042
-423.544	-49.478	0.167	0.080
-422.530	800.000	0.039	0.119
-421.515	-200.000	-0.000	0.066
-420.500	-32.168	0.115	0.064
-419.486	-46.007	0.238	0.118
-418.471	344.411	0.040	0.079
-417.457	-200.000	-0.001	-0.058
-416.442	-200.000	-0.006	0.156
-415.428	87.605	-0.193	-0.214
-414.413	800.000	0.022	0.073
-413.398	254.250	0.067	0.114
-412.384	94.911	-0.305	-0.347
-411.369	-128.361	0.120	-0.017
-410.355	-81.155	-0.375	0.124
-409.340	73.844	-0.083	-0.087
-408.325	-200.000	-0.004	-0.129
-407.311	-200.000	-0.118	0.628
-406.296	529.274	0.046	-0.108
-405.282	-24.490	-0.054	-0.032
-404.267	-160.242	-0.157	0.009
-403.252	-161.780	0.149	0.008
-402.238	-55.467	0.170	-0.076
-401.223	-129.604	-0.250	0.035
-400.209	-56.136	0.374	0.167
-399.194	95.330	0.097	0.110
-398.179	-87.233	0.302	-0.092
-397.165	-76.707	0.118	0.042
-396.150	102.018	0.116	0.136
-395.136	-19.141	-0.078	0.049
-394.121	-200.000	-0.023	-0.338
-393.106	-22.555	-0.142	-0.086
-392.092	-200.000	0.061	-0.417
-391.077	-200.000	-0.005	0.159
-390.063	-10.109	0.034	0.023
-389.048	55.846	0.015	0.015
-388.033	131.667	-0.076	0.098
-387.019	800.000	0.050	0.172
-386.004	446.787	-0.158	-0.348
-384.990	-14.810	-0.164	-0.105
-383.975	339.047	0.108	0.211
-382.960	555.686	-0.047	0.114
-381.946	-200.000	0.065	0.291
-380.931	-50.660	0.068	0.032
-379.917	41.766	-0.236	0.214
-378.902	15.383	0.095	-0.075
-377.888	-53.937	0.042	0.019
-376.873	-130.327	-0.188	-0.026
-375.858	315.601	-0.079	0.149
-374.844	9.984	0.190	0.144
-373.829	-77.561	-0.120	0.041
-372.815	653.929	0.081	0.209
-371.800	-200.000	-0.029	0.131
-370.785	-111.892	0.105	-0.021
-369.771	51.585	-0.138	-0.131
-368.756	515.897	0.088	-0.206
-367.742	293.929	0.060	0.109
-366.727	740.401	0.094	0.252
-365.712	800.000	0.074	-0.218
-364.698	-200.000	0.028	-0.222
-363.683	-102.225	-0.123	0.030
-362.669	619.289	-0.050	0.125
-361.654	-62.234	0.137	-0.057
-360.639	-52.767	0.134	0.062
-359.625	-132.243	-0.343	0.044
-358.610	726.894	-0.066	-0.176
-357.596	-87.703	0.149	0.045
-356.581	22.302	-0.103	-0.084
-355.566	-85.434	-0.097	-0.030
-354.552	-93.729	0.192	0.053
-353.537	-119.661	-0.344	0.059
-352.523	800.000	0.016	-0.068
-351.508	208.283	0.062	0.097
-350.493	217.894	0.106	0.169
-349.479	-92.625	0.132	-0.037
-348.464	-27.279	0.233	-0.136
-347.450	-78.447	-0.410	-0.140
-346.435	-24.650	0.326	-0.194
-345.420	800.000	-0.046	-0.143
-344.406	-19.226	0.115	-0.072
-343.391	-123.424	-0.287	-0.046
-342.377	7.096	-0.082	0.061
-341.362	-58.331	-0.197	0.086
-340.348	-156.793	0.117	0.007
-339.333	26.381	-0.162	-0.136
-338.318	51.553	-0.073	0.070
-337.304	39.829	-0.184	0.165
-336.289	86.941	0.211	-0.233
-335.275	49.251	-0.230	0.216
-334.260	-86.304	0.166	0.051
-333.245	-200.000	-0.019	-0.231
-332.231	110.558	0.098	-0.117
-331.216	-200.000	-0.013	0.188
-330.202	-200.000	0.018	-0.223
-329.187	447.059	-0.092	-0.202
-328.172	-83.659	-0.209	0.067
-327.158	800.000	-0.088	-0.264
-326.143	-200.000	0.064	-0.470
-325.129	-200.000	-0.006	-0.106
-324.114	-41.330	-0.110	0.057
-323.099	217.095	-0.051	0.081
-322.085	94.159	0.103	0.117
-321.070	800.000	-0.063	0.194
-320.056	-200.000	-0.019	-0.173
-319.041	-106.135	-0.345	-0.077
-318.026	800.000	-0.085	0.242
-317.012	-31.486	-0.114	0.064
-315.997	-74.372	0.338	-0.122
-314.983	72.935	0.204	0.213
-313.968	-14.854	-0.032	0.020
-312.953	-108.424	0.300	-0.064
-311.939	513.595	-0.076	0.178
-310.924	-200.000	0.002	0.172
-309.910	619.197	0.039	-0.097
-308.895	-123.944	-0.202	0.032
-307.880	-4.118	0.029	-0.020
-306.866	62.776	0.182	-0.182
-305.851	-200.000	-0.067	-0.293
-304.837	-112.159	-0.247	0.050
-303.822	-30.482	0.295	0.167
-302.807	260.119	-0.044	-0.075
-301.793	-128.880	0.125	-0.018
-300.778	20.336	-0.114	-0.092
-299.764	-131.052	0.255	-0.034
-298.749	68.138	-0.021	-0.022
-297.735	223.901	-0.178	-0.286
-296.720	64.958	0.066	-0.067
-295.705	76.390	0.230	-0.243
-294.691	-45.236	0.326	0.161
-293.676	153.241	0.165	0.225
-292.662	-47.757	0.130	0.063
-291.647	-162.364	0.211	0.010
-290.632	215.852	-0.143	-0.227
-289.618	800.000	-0.107	0.395
-288.603	-200.000	0.022	0.194
-287.589	293.366	-0.095	0.172
-286.574	-0.293	-0.302	0.214
-285.559	-85.855	-0.278	-0.086
-284.545	327.275	-0.190	0.363
-283.530	800.000	0.122	0.415
-282.516	239.205	0.149	-0.248
-281.501	-200.000	0.014	0.219
-280.486	-200.000	-0.010	0.327
-279.472	-200.000	-0.034	-0.203
-278.457	800.000	0.071	0.290
-277.443	-200.000	-0.006	0.163
-276.428	800.000	0.123	0.436
-275.413	-200.000	-0.008	0.195
-274.399	256.276	-0.164	-0.280
-273.384	-96.064	-0.155	-0.041
-272.370	800.000	0.064	-0.200
-271.355	3.943	-0.076	-0.056
-270.340	-160.683	0.167	0.009
-269.326	83.897	0.087	-0.095
-268.311	-120.329	0.194	0.033
-267.297	592.051	-0.079	-0.193
-266.282	-9.245	0.504	0.335
-265.267	254.355	-0.107	-0.182
-264.253	437.177	0.069	-0.149
-263.238	-153.251	-0.406	-0.028
-262.224	-113.701	-0.045	0.009
-261.209	65.964	-0.271	0.274
-260.195	13.023	0.104	0.080
-259.180	-76.508	-0.155	-0.054
-258.165	137.065	-0.100	0.131
-257.151	223.121	0.179	-0.286
-256.136	-33.577	0.108	-0.060
-255.122	-151.370	0.345	0.026
-254.107	-28.698	0.305	-0.175
-253.092	-3.235	-0.313	-0.217
-252.078	-200.000	0.050	0.282
-251.063	-54.610	-0.143	0.064
-250.049	800.000	0.047	-0.154
-249.034	39.153	0.129	-0.115
-248.019	576.018	0.006	-0.014
-247.005	-200.000	-0.024	-0.150
-245.990	-13.175	0.030	0.019
-244.976	-58.600	0.060	-0.026
-243.961	325.635	0.083	0.159
-242.946	168.505	0.130	-0.184
-241.932	-200.000	0.008	-0.056
-240.917	130.658	0.091	0.116
-239.903	345.099	-0.065	-0.128
-238.888	-200.000	0.015	-0.140
-237.873	-200.000	-0.002	0.509
-236.859	323.513	0.077	0.146
-235.844	214.362	0.059	-0.093
-234.830	-96.492	0.209	-0.055
-233.815	552.765	0.132	0.316
-232.800	7.025	-0.079	0.058
-231.786	120.787	0.199	0.246
-230.771	-200.000	0.005	0.050
-229.757	595.049	-0.163	0.400
-228.742	-135.446	-0.135	0.016
-227.727	49.792	-0.259	0.243
-226.713	99.622	0.030	0.035
-225.698	-138.458	0.186	-0.020
-224.684	-200.000	0.012	-0.096
-223.669	68.787	0.225	0.229
-222.655	-31.029	-0.040	0.023
-221.640	235.148	-0.222	-0.364
-220.625	-85.481	0.227	0.070
-219.611	-200.000	-0.053	-0.353
-218.596	-151.920	-0.499	-0.036
-217.582	-86.825	0.175	0.053
-216.567	306.582	0.096	-0.178
-215.552	-85.383	0.244	0.076
-214.538	-128.278	0.418	-0.059
-213.523	646.424	-0.051	0.130
-212.509	506.136	-0.139	0.321
-211.494	86.974	-0.251	-0.275
-210.479	800.000	0.033	-0.124
-209.465	-29.262	-0.098	-0.056
-208.450	-16.314	-0.070	0.044
-207.436	-97.556	0.157	0.041
-206.421	428.746	0.091	0.195
-205.406	80.065	-0.096	0.102
-204.392	800.000	-0.023	0.070
-203.377	-200.000	0.010	-0.223
-202.363	-91.471	0.372	-0.105
-201.348	59.016	0.122	0.119
-200.333	800.000	-0.122	-0.507
-199.319	-78.359	0.176	-0.060
-198.304	124.777	0.134	-0.167
-197.290	-146.652	-0.314	-0.027
-196.275	77.545	-0.046	0.049
-195.260	-38.053	0.302	0.159
-194.246	800.000	-0.078	0.290
-193.231	111.054	0.092	-0.111
-192.217	83.235	0.210	0.227
-191.202	754.934	-0.025	0.068
-190.187	-200.000	0.073	0.344
-189.173	-62.691	-0.057	0.024
-188.158	-5.841	0.081	0.055
-187.144	-200.000	0.099	0.614
-186.129	354.880	-0.027	0.054
-185.114	526.934	0.053	-0.124
-184.100	800.000	0.063	0.204
-183.085	341.836	0.041	0.080
-182.071	313.511	-0.175	-0.326
-181.056	-143.309	0.242	-0.023
-180.042	-92.635	-0.175	0.049
-179.027	260.665	-0.147	-0.253
-178.012	-200.000	0.011	-0.310
-176.998	-200.000	0.031	0.198
-175.983	-43.437	0.076	0.038
-174.969	-200.000	-0.014	0.180
-173.954	800.000	-0.040	-0.126
-172.939	-117.716	0.264	0.047
-171.925	9.059	-0.096	0.072
-170.910	9.365	-0.254	0.191
-169.896	800.000	-0.146	0.596
-168.881	-200.000	-0.019	-0.300
-167.866	800.000	0.035	-0.112
-166.852	-200.000	-0.025	0.281
-165.837	-48.158	-0.121	-0.058
-164.823	105.313	0.135	0.158
-163.808	61.451	-0.185	0.183
-162.793	-73.418	0.075	-0.027
-161.779	-200.000	0.034	0.160
-160.764	196.147	-0.155	0.233
-159.750	88.681	-0.284	-0.313
-158.735	-138.862	0.476	0.051
-157.720	73.705	0.110	0.114
-156.706	-199.814	-0.134	0.001
-155.691	-15.542	0.077	-0.049
-154.677	-200.000	0.020	-0.397
-153.662	633.423	0.042	-0.106
-152.647	247.845	0.224	-0.375
-151.633	-2.531	0.076	-0.052
-150.618	-129.955	0.252	-0.034
-149.604	-24.708	-0.167	0.098
-148.589	-22.157	0.088	0.053
-147.574	-144.641	0.283	0.026
-146.560	-133.529	0.354	-0.044
-145.545	-5.778	-0.081	0.055
-144.531	135.541	-0.212	-0.274
-143.516	-200.000	-0.008	0.114
-142.502	197.335	0.306	0.463
-141.487	-58.939	-0.285	-0.122
-140.472	-173.115	0.158	0.005
-139.458	800.000	0.084	0.252
-138.443	-1.856	0.030	0.021
-137.429	-200.000	0.020	-0.194
-136.414	-23.056	0.273	0.163
-135.399	-31.701	0.061	0.034
-134.385	36.981	-0.115	-0.101
-133.370	-200.000	-0.039	-0.368
-132.356	-200.000	-0.056	0.337
-131.341	-136.989	0.278	-0.032
-130.326	164.473	0.065	-0.091
-129.312	143.017	0.036	-0.047
-128.297	-52.567	0.134	-0.061
-127.283	12.508	0.402	0.307
-126.268	165.327	-0.145	-0.204
-125.253	19.698	0.075	-0.060
-124.239	800.000	0.023	-0.077
-123.224	-200.000	0.017	0.087
-122.210	11.049	0.105	-0.079
-121.195	34.483	0.283	-0.245
-120.180	-82.349	0.100	0.032
