DTS Sentinel unit serial number:	SN413079Multiplexer serial number:	ORYXHardware model number:	OX4-SRSoftware version number:	ORYX F/W v4.00 Oryx Data Collector v3.7.2.0data status	okinstallation	princeton_trtdifferential loss correction	single-endedforward channel	channel 4reverse channel	N/Adate	2019/09/19time	09:53:34forward acquisition time	60.00reverse acquisition time	0.00gamma	496.2192k internal	0.2331k external	0.2331temperature offset calibration	1.0015default loss term (dB/km)	0.3790temperature slope calibration	1.0000multiplexer offset coefficient	1.0000multiplexer slope coefficient	1.0000fibre end	0.00T internal ref (°C)	23.56T ext. ref 1 (°C)	0.66T ext. ref 2 (°C)	19.42length (m)	temperature (°C)	Stokes	anti-Stokes-747.200	143.234	-0.135	0.181
-746.185	90.813	0.145	0.163
-745.171	164.229	-0.057	-0.080
-744.156	-109.539	0.381	0.081
-743.142	19.429	-0.210	-0.170
-742.127	22.775	0.110	0.090
-741.112	159.644	0.018	0.026
-740.098	-177.779	-0.262	-0.006
-739.083	-200.000	0.027	0.225
-738.069	-0.386	-0.283	0.202
-737.054	-115.809	0.243	-0.046
-736.039	800.000	0.032	-0.090
-735.025	-98.014	0.329	-0.085
-734.010	-106.997	-0.282	-0.063
-732.996	-67.412	0.264	-0.104
-731.981	20.605	0.209	0.170
-730.966	-193.113	0.330	-0.003
-729.952	290.172	-0.101	0.185
-728.937	115.089	-0.044	-0.054
-727.923	-10.322	-0.462	-0.308
-726.908	-54.686	0.089	-0.041
-725.894	-97.030	-0.168	-0.044
-724.879	543.427	-0.180	-0.432
-723.864	-200.000	-0.254	-0.000
-722.850	-200.000	0.092	-0.523
-721.835	-97.374	0.081	-0.021
-720.821	-200.000	0.012	-0.286
-719.806	-103.498	-0.171	-0.040
-718.791	-96.553	0.078	-0.021
-717.777	196.339	-0.190	-0.292
-716.762	-45.129	0.170	0.085
-715.748	-47.952	0.189	0.092
-714.733	56.117	0.016	-0.016
-713.718	800.000	-0.042	-0.154
-712.704	800.000	-0.108	-0.354
-711.689	-87.324	-0.251	-0.076
-710.675	267.855	0.062	0.109
-709.660	43.365	-0.143	-0.131
-708.645	-9.255	-0.097	-0.065
-707.631	-31.196	-0.119	-0.068
-706.616	800.000	-0.065	-0.241
-705.602	422.363	-0.035	-0.076
-704.587	-136.857	0.403	0.047
-703.572	-159.091	0.243	0.014
-702.558	-83.842	-0.238	-0.076
-701.543	117.490	-0.160	-0.198
-700.529	-95.824	0.160	-0.043
-699.514	-200.000	0.018	-0.108
-698.499	800.000	-0.050	-0.147
-697.485	87.271	0.161	-0.179
-696.470	-200.000	-0.033	-0.260
-695.456	-104.662	-0.326	0.075
-694.441	800.000	0.041	-0.166
-693.426	800.000	0.171	-0.530
-692.412	-200.000	0.038	0.187
-691.397	-200.000	-0.046	-0.246
-690.383	131.611	0.125	-0.162
-689.368	-200.000	0.048	-0.231
-688.354	28.700	0.287	0.244
-687.339	800.000	0.099	0.283
-686.324	-200.000	-0.055	-0.348
-685.310	-81.216	0.024	-0.008
-684.295	179.744	0.194	0.285
-683.281	800.000	0.034	-0.095
-682.266	800.000	0.066	-0.245
-681.251	640.866	-0.091	-0.233
-680.237	649.712	0.134	-0.344
-679.222	-63.578	-0.166	0.068
-678.208	-98.938	0.167	0.043
-677.193	-73.630	-0.163	0.060
-676.178	-22.772	0.327	-0.198
-675.164	-35.485	-0.233	0.127
-674.149	233.601	0.092	-0.153
-673.135	-52.137	-0.219	0.102
-672.120	-169.016	0.273	-0.010
-671.105	36.122	-0.219	-0.194
-670.091	-200.000	-0.071	0.327
-669.076	-118.183	0.139	-0.025
-668.062	800.000	0.072	-0.212
-667.047	33.711	-0.268	-0.233
-666.032	81.695	0.040	-0.044
-665.018	4.774	0.258	-0.190
-664.003	464.975	-0.073	-0.165
-662.989	-52.868	0.334	0.154
-661.974	48.247	-0.148	0.139
-660.959	310.884	-0.154	-0.290
-659.945	185.780	0.171	0.255
-658.930	-99.626	-0.279	-0.070
-657.916	49.489	-0.081	-0.076
-656.901	243.909	-0.038	0.064
-655.886	385.787	-0.132	-0.274
-654.872	-97.657	-0.418	0.109
-653.857	27.857	-0.044	0.038
-652.843	423.146	0.059	-0.127
-651.828	800.000	-0.030	0.125
-650.814	127.104	-0.057	-0.072
-649.799	651.232	-0.109	-0.280
-648.784	-125.184	-0.096	-0.015
-647.770	-99.822	-0.210	0.053
-646.755	-69.833	0.124	0.047
-645.741	-40.360	0.215	-0.112
-644.726	-86.676	-0.492	0.151
-643.711	126.555	-0.161	-0.204
-642.697	-200.000	-0.035	-0.276
-641.682	-24.193	0.062	0.037
-640.668	-156.587	-0.046	0.003
-639.653	-54.237	0.368	-0.168
-638.638	-104.169	-0.043	0.010
-637.624	73.884	-0.234	-0.246
-636.609	54.125	-0.218	-0.210
-635.595	-59.420	0.056	-0.024
-634.580	-200.000	0.042	0.228
-633.565	-200.000	0.004	0.218
-632.551	-200.000	0.026	0.176
-631.536	800.000	-0.037	-0.103
-630.522	-31.178	0.080	0.045
-629.507	-5.082	0.453	0.312
-628.492	85.101	-0.190	0.209
-627.478	-80.491	-0.389	0.130
-626.463	-200.000	-0.013	-0.072
-625.449	-200.000	0.006	-0.129
-624.434	-117.660	-0.227	-0.041
-623.419	-142.297	0.046	-0.005
-622.405	-200.000	-0.028	0.143
-621.390	-38.206	-0.217	0.115
-620.376	-90.820	0.117	-0.034
-619.361	-77.524	-0.159	0.055
-618.346	248.709	-0.133	0.226
-617.332	439.211	0.042	-0.092
-616.317	-200.000	-0.036	0.187
-615.303	202.852	-0.069	-0.106
-614.288	99.583	0.231	0.267
-613.273	-11.794	-0.217	-0.142
-612.259	-200.000	-0.441	0.002
-611.244	150.655	-0.065	0.088
-610.230	800.000	0.068	-0.284
-609.215	215.674	-0.048	-0.076
-608.201	-28.367	0.225	0.130
-607.186	417.649	0.114	-0.245
-606.171	77.455	-0.048	-0.051
-605.157	-5.042	-0.212	-0.146
-604.142	6.463	-0.140	0.104
-603.128	92.487	-0.199	-0.224
-602.113	-200.000	-0.012	0.272
-601.098	-200.000	-0.016	0.254
-600.084	-85.432	0.131	-0.041
-599.069	69.341	-0.367	-0.378
-598.055	-153.663	-0.059	0.004
-597.040	800.000	0.178	-0.586
-596.025	-87.944	0.190	-0.057
-595.011	-26.834	-0.106	-0.062
-593.996	666.612	-0.055	-0.143
-592.982	201.642	-0.094	0.145
-591.967	420.453	0.088	-0.189
-590.952	250.557	0.048	-0.082
-589.938	-10.526	-0.237	0.157
-588.923	-75.422	-0.328	0.117
-587.909	27.274	0.081	-0.068
-586.894	92.424	0.043	-0.049
-585.879	-158.459	-0.305	0.018
-584.865	-166.667	0.243	-0.010
-583.850	-200.000	0.009	0.055
-582.836	339.018	-0.191	-0.373
-581.821	1.911	-0.038	-0.027
-580.806	-140.891	0.115	0.012
-579.792	-200.000	-0.020	0.243
-578.777	-41.026	0.101	0.052
-577.763	-200.000	-0.020	0.099
-576.748	-22.563	0.055	0.033
-575.733	-200.000	-0.041	0.444
-574.719	-75.097	0.077	0.027
-573.704	312.599	-0.158	-0.297
-572.690	162.932	0.140	-0.197
-571.675	409.081	0.114	-0.241
-570.661	-65.313	0.171	0.069
-569.646	-200.000	-0.017	-0.239
-568.631	-57.175	-0.220	-0.097
-567.617	63.989	0.135	-0.136
-566.602	800.000	0.057	-0.248
-565.588	-200.000	-0.043	-0.294
-564.573	800.000	-0.016	0.054
-563.558	369.965	0.091	0.184
-562.544	-57.997	-0.106	0.046
-561.529	-200.000	-0.044	0.252
-560.515	-100.168	-0.097	-0.024
-559.500	-114.282	0.009	-0.002
-558.485	-200.000	0.038	0.219
-557.471	-200.000	-0.080	0.364
-556.456	112.986	-0.071	-0.086
-555.442	-167.144	0.379	-0.015
-554.427	-129.317	-0.347	0.048
-553.412	75.173	-0.198	-0.209
-552.398	800.000	-0.086	-0.250
-551.383	65.088	-0.103	0.104
-550.369	-200.000	-0.021	-0.140
-549.354	53.387	-0.070	-0.067
-548.339	-149.375	-0.052	0.004
-547.325	-100.811	-0.199	-0.049
-546.310	-200.000	0.006	-0.046
-545.296	-128.897	-0.118	-0.017
-544.281	250.474	0.058	0.098
-543.266	113.437	0.117	-0.142
-542.252	36.239	-0.223	0.196
-541.237	-200.000	0.042	0.313
-540.223	417.435	0.048	-0.102
-539.208	539.058	0.140	0.333
-538.193	-56.282	0.097	-0.043
-537.179	-36.060	0.183	0.099
-536.164	401.255	0.028	-0.058
-535.150	-104.493	-0.131	0.030
-534.135	289.658	0.071	0.129
-533.121	-41.766	-0.181	-0.093
-532.106	357.546	-0.133	-0.265
-531.091	561.881	-0.158	-0.382
-530.077	70.204	0.157	-0.161
-529.062	-200.000	0.051	-0.318
-528.048	-54.833	-0.026	-0.012
-527.033	-11.779	0.408	-0.267
-526.018	-200.000	-0.007	0.286
-525.004	-200.000	-0.004	-0.483
-523.989	-14.012	0.102	-0.066
-522.975	-62.897	0.237	-0.098
-521.960	-121.018	0.292	-0.049
-520.945	-200.000	-0.028	0.196
-519.931	-200.000	0.013	-0.087
-518.916	90.930	-0.202	0.226
-517.902	-76.146	-0.237	0.083
-516.887	-77.295	-0.188	-0.065
-515.872	800.000	0.067	-0.217
-514.858	131.645	-0.241	0.310
-513.843	465.745	0.061	0.137
-512.829	232.560	-0.094	-0.154
-511.814	-40.839	0.072	0.037
-510.799	70.016	-0.092	-0.095
-509.785	-200.000	0.025	-0.261
-508.770	-200.000	-0.038	0.220
-507.756	800.000	0.037	-0.157
-506.741	207.167	0.097	0.151
-505.726	55.248	-0.109	-0.106
-504.712	-1.928	0.120	0.084
-503.697	187.968	-0.153	0.227
-502.683	-200.000	-0.025	-0.116
-501.668	190.910	-0.157	-0.235
-500.653	-88.165	0.101	-0.030
-499.639	-24.773	0.206	-0.122
-498.624	-28.578	0.043	-0.025
-497.610	626.608	0.123	0.310
-496.595	-138.745	0.211	-0.023
-495.581	-99.296	-0.286	0.072
-494.566	-70.345	-0.043	-0.016
-493.551	-132.616	-0.118	0.015
-492.537	-200.000	0.012	-0.377
-491.522	-19.654	0.231	0.142
-490.508	-32.506	0.087	0.049
-489.493	7.554	-0.234	-0.175
-488.478	-183.688	-0.129	-0.002
-487.464	224.185	-0.064	0.103
-486.449	-21.613	-0.195	0.118
-485.435	579.067	0.052	-0.126
-484.420	-200.000	0.043	0.281
-483.405	517.448	-0.061	0.142
-482.391	-200.000	0.020	0.206
-481.376	357.101	0.128	0.254
-480.362	-124.464	-0.338	0.052
-479.347	-200.000	-0.050	-0.246
-478.332	50.697	0.128	-0.121
-477.318	-126.579	0.298	-0.044
-476.303	800.000	0.135	-0.443
-475.289	143.176	0.141	0.186
-474.274	-28.596	-0.438	-0.251
-473.259	-200.000	-0.024	-0.216
-472.245	-200.000	0.020	0.158
-471.230	-200.000	-0.003	0.025
-470.216	-143.339	0.365	0.035
-469.201	-18.329	-0.068	-0.042
-468.186	-89.128	0.058	0.017
-467.172	31.561	0.101	0.087
-466.157	16.782	0.162	-0.127
-465.143	-200.000	-0.027	0.280
-464.128	13.412	-0.212	0.163
-463.113	38.776	0.071	-0.063
-462.099	-200.000	-0.040	-0.379
-461.084	247.604	0.178	-0.299
-460.070	-14.856	-0.400	-0.255
-459.055	-19.052	-0.177	-0.110
-458.040	-200.000	0.015	0.248
-457.026	102.064	0.146	-0.170
-456.011	147.614	0.111	-0.149
-454.997	158.278	0.170	-0.235
-453.982	97.507	-0.024	0.028
-452.968	-200.000	0.067	0.505
-451.953	800.000	-0.090	0.389
-450.938	-140.917	0.196	-0.020
-449.924	316.722	-0.092	-0.173
-448.909	-22.674	0.153	-0.092
-447.895	68.278	0.117	0.119
-446.880	151.631	-0.163	0.221
-445.865	-117.637	0.182	0.033
-444.851	800.000	-0.147	0.438
-443.836	2.460	0.185	-0.133
-442.822	-14.629	0.164	0.105
-441.807	-200.000	-0.009	-0.190
-440.792	193.410	0.095	0.143
-439.778	800.000	0.023	0.069
-438.763	800.000	-0.061	0.196
-437.749	43.638	0.282	0.257
-436.734	-121.125	0.290	0.048
-435.719	148.778	-0.075	-0.101
-434.705	-200.000	-0.004	-0.288
-433.690	652.928	-0.097	0.247
-432.676	-60.591	0.064	-0.027
-431.661	-200.000	-0.020	0.463
-430.646	22.368	-0.185	-0.150
-429.632	252.422	-0.090	0.153
-428.617	-200.000	-0.012	0.060
-427.603	-166.709	0.206	0.008
-426.588	-95.242	-0.249	0.067
-425.573	-106.413	0.173	0.038
-424.559	-200.000	-0.066	-0.390
-423.544	-160.239	0.322	-0.017
-422.530	-140.430	-0.499	-0.052
-421.515	-68.250	-0.280	-0.108
-420.500	313.736	0.216	0.403
-419.486	-114.513	0.275	0.053
-418.471	636.333	0.068	-0.172
-417.457	800.000	0.073	-0.301
-416.442	-116.992	-0.102	-0.019
-415.428	-74.090	-0.191	0.069
-414.413	-61.445	0.418	0.175
-413.398	229.320	0.201	-0.327
-412.384	-39.364	-0.255	0.133
-411.369	123.938	0.130	-0.162
-410.355	-200.000	0.022	-0.114
-409.340	-200.000	0.006	0.128
-408.325	127.163	-0.127	0.160
-407.311	-200.000	0.031	-0.349
-406.296	-59.060	-0.135	-0.058
-405.282	239.557	0.111	0.184
-404.267	15.862	-0.137	0.107
-403.252	-64.559	0.232	0.094
-402.238	-77.681	-0.133	0.046
-401.223	-120.449	-0.477	0.081
-400.209	-57.893	-0.318	-0.138
-399.194	180.209	-0.099	-0.144
-398.179	800.000	0.070	0.194
-397.165	-163.747	0.306	0.014
-396.150	-24.846	0.112	0.066
-395.136	-68.234	-0.327	0.126
-394.121	800.000	0.046	-0.195
-393.106	47.175	0.264	-0.244
-392.092	-4.654	0.164	0.112
-391.077	191.654	0.049	-0.073
-390.063	170.967	-0.183	0.260
-389.048	-164.622	-0.370	0.017
-388.033	251.254	0.121	0.205
-387.019	77.762	0.259	0.274
-386.004	-152.534	-0.127	-0.009
-384.990	-15.004	0.110	-0.070
-383.975	57.167	0.178	0.172
-382.960	181.141	0.034	0.050
-381.946	-64.866	-0.100	-0.040
-380.931	-193.064	0.063	-0.001
-379.917	-133.564	-0.047	0.006
-378.902	272.292	-0.130	-0.228
-377.888	520.013	-0.134	0.312
-376.873	800.000	-0.047	0.190
-375.858	800.000	-0.137	-0.376
-374.844	189.655	0.132	0.197
-373.829	-200.000	-0.014	-0.131
-372.815	-122.452	0.312	0.050
-371.800	527.244	0.131	-0.305
-370.785	119.480	0.221	-0.272
-369.771	-200.000	0.023	0.228
-368.756	-200.000	0.023	0.362
-367.742	-112.847	-0.203	0.040
-366.727	716.809	0.058	-0.151
-365.712	151.131	-0.086	0.116
-364.698	-135.074	0.020	-0.002
-363.683	711.591	0.070	-0.184
-362.669	-93.240	0.099	-0.027
-361.654	-200.000	0.025	-0.270
-360.639	159.288	-0.076	0.105
-359.625	-100.031	0.116	-0.029
-358.610	70.203	-0.121	0.124
-357.596	-200.000	0.017	-0.105
-356.581	-140.528	-0.465	-0.048
-355.566	-200.000	-0.008	0.215
-354.552	383.790	-0.116	0.236
-353.537	75.310	0.338	0.353
-352.523	168.273	-0.074	0.105
-351.508	224.119	-0.107	-0.171
-350.493	-46.254	-0.049	0.024
-349.479	563.823	-0.102	0.246
-348.464	74.535	0.150	-0.157
-347.450	-200.000	-0.013	-0.123
-346.435	800.000	-0.044	-0.171
-345.420	25.966	0.113	-0.094
-344.406	34.749	-0.260	0.225
-343.391	-200.000	-0.010	-0.283
-342.377	-38.032	0.223	-0.118
-341.362	237.596	-0.191	0.314
-340.348	-48.267	-0.241	0.115
-339.333	30.086	-0.105	0.088
-338.318	-86.070	-0.301	-0.092
-337.304	73.578	-0.129	0.134
-336.289	-27.204	-0.178	-0.103
-335.275	-200.000	-0.005	-0.121
-334.260	762.524	-0.052	-0.141
-333.245	209.209	0.133	0.206
-332.231	-62.369	0.082	-0.034
-331.216	800.000	-0.130	-0.454
-330.202	225.042	0.172	-0.276
-329.187	150.469	-0.200	-0.269
-328.172	-0.527	0.287	-0.202
-327.158	-120.276	-0.144	0.024
-326.143	-29.469	-0.106	-0.060
-325.129	40.911	-0.150	-0.134
-324.114	-84.358	-0.204	0.064
-323.099	289.599	-0.180	0.323
-322.085	-200.000	0.016	-0.137
-321.070	70.453	0.219	0.225
-320.056	-200.000	-0.113	-0.728
-319.041	-37.153	0.168	-0.089
-318.026	800.000	-0.076	0.261
-317.012	4.031	0.221	-0.160
-315.997	184.828	-0.161	-0.236
-314.983	-39.547	0.135	-0.070
-313.968	-74.457	0.103	-0.037
-312.953	-120.866	-0.099	-0.016
-311.939	221.649	0.107	0.170
-310.924	-156.985	-0.221	0.013
-309.910	-91.961	-0.067	-0.019
-308.895	800.000	-0.092	-0.274
-307.880	800.000	0.047	0.147
-306.866	-96.584	0.110	-0.029
-305.851	-100.326	-0.122	0.030
-304.837	-200.000	0.017	0.145
-303.822	-36.438	0.062	-0.033
-302.807	-21.437	0.256	-0.155
-301.793	-200.000	-0.014	0.192
-300.778	253.138	-0.104	0.176
-299.764	70.630	-0.057	-0.059
-298.749	-200.000	0.023	-0.159
-297.735	238.770	-0.204	-0.335
-296.720	59.681	0.508	0.496
-295.705	-19.205	0.137	0.084
-294.691	800.000	0.020	0.077
-293.676	-63.778	0.265	0.107
-292.662	2.087	0.216	0.154
-291.647	-200.000	-0.044	-0.416
-290.632	-200.000	0.015	0.381
-289.618	-200.000	0.028	0.204
-288.603	666.541	-0.152	-0.387
-287.589	-117.230	-0.194	-0.035
-286.574	-60.457	0.186	-0.078
-285.559	215.140	-0.046	0.072
-284.545	-200.000	0.046	0.283
-283.530	161.270	-0.149	-0.205
-282.516	-30.060	0.371	-0.209
-281.501	800.000	0.121	-0.340
-280.486	12.684	-0.269	0.205
-279.472	-29.536	0.192	0.109
-278.457	30.955	-0.077	0.065
-277.443	89.685	0.076	-0.084
-276.428	800.000	0.056	0.205
-275.413	-200.000	-0.008	0.276
-274.399	183.030	-0.153	0.224
-273.384	-71.529	0.283	0.104
-272.370	800.000	0.025	0.071
-271.355	-131.116	0.151	0.020
-270.340	-80.977	0.202	-0.066
-269.326	800.000	0.105	-0.308
-268.311	223.098	0.123	-0.196
-267.297	-22.094	-0.033	-0.020
-266.282	-200.000	0.060	-0.382
-265.267	230.330	0.231	0.373
-264.253	377.319	0.049	0.099
-263.238	-135.551	0.294	-0.035
-262.224	-200.000	-0.016	-0.086
-261.209	-13.770	0.179	0.114
-260.195	-21.689	0.277	-0.166
-259.180	42.525	0.045	0.041
-258.165	-98.552	0.374	0.094
-257.151	-104.436	-0.165	0.038
-256.136	-200.000	-0.007	0.032
-255.122	-200.000	0.020	0.202
-254.107	800.000	-0.096	0.302
-253.092	690.228	-0.063	-0.163
-252.078	800.000	-0.026	-0.099
-251.063	7.477	-0.053	-0.039
-250.049	-200.000	0.104	0.501
-249.034	306.246	0.110	0.202
-248.019	800.000	-0.087	0.252
-247.005	-200.000	0.029	0.256
-245.990	800.000	-0.046	0.182
-244.976	111.798	-0.155	0.185
-243.961	-123.960	-0.409	0.064
-242.946	483.488	0.153	0.344
-241.932	141.021	-0.205	0.268
-240.917	26.388	0.218	0.180
-239.903	141.887	-0.209	0.274
-238.888	-76.066	0.078	-0.027
-237.873	52.712	0.144	-0.136
-236.859	800.000	0.026	-0.074
-235.844	-163.159	0.440	-0.021
-234.830	-135.608	0.249	-0.029
-233.815	381.808	-0.181	-0.367
-232.800	-89.084	-0.298	0.087
-231.786	-122.238	-0.299	-0.048
-230.771	-2.885	-0.174	-0.120
-229.757	-87.831	0.252	0.075
-228.742	-200.000	-0.018	0.317
-227.727	41.550	0.160	0.143
-226.713	-128.760	-0.272	-0.038
-225.698	276.507	0.173	-0.303
-224.684	16.163	-0.033	0.026
-223.669	-142.757	0.164	0.016
-222.655	82.532	0.213	-0.228
-221.640	13.516	0.052	-0.039
-220.625	-172.833	0.184	0.006
-219.611	-74.119	0.164	0.059
-218.596	0.018	-0.034	-0.024
-217.582	3.678	0.152	-0.110
-216.567	57.037	0.321	-0.309
-215.552	-98.790	-0.252	0.063
-214.538	77.174	0.369	-0.386
-213.523	-126.800	0.249	0.036
-212.509	-7.089	-0.149	-0.100
-211.494	-118.578	0.323	-0.056
-210.479	800.000	0.111	0.359
-209.465	621.101	0.074	-0.185
-208.450	-200.000	0.051	-0.286
-207.436	264.262	-0.117	-0.201
-206.421	201.621	-0.237	-0.359
-205.406	90.701	0.089	0.098
-204.392	-133.227	0.100	-0.012
-203.377	70.916	-0.169	-0.172
-202.363	-35.064	0.276	0.148
-201.348	-88.684	-0.048	0.014
-200.333	-124.719	-0.408	-0.062
-199.319	611.354	0.161	-0.396
-198.304	-119.230	0.371	0.064
-197.290	32.569	-0.102	-0.087
-196.275	313.308	0.138	0.256
-195.260	37.999	0.139	0.122
-194.246	226.325	0.161	0.257
-193.231	-23.670	-0.171	-0.101
-192.217	638.911	-0.024	0.061
-191.202	720.240	0.089	-0.233
-190.187	-15.336	-0.310	-0.195
-189.173	-81.969	-0.254	-0.082
-188.158	-200.000	-0.013	-0.169
-187.144	411.696	0.057	0.120
-186.129	-78.416	0.100	0.034
-185.114	63.816	0.160	0.158
-184.100	104.257	-0.119	-0.138
-183.085	291.730	0.076	-0.136
-182.071	-70.009	0.121	-0.045
-181.056	-200.000	0.009	0.151
-180.042	-200.000	0.024	0.171
-179.027	-200.000	0.020	0.253
-178.012	-29.522	0.207	0.117
-176.998	-101.797	-0.010	0.002
-175.983	78.442	-0.199	-0.209
-174.969	-17.244	0.213	0.132
-173.954	21.613	-0.059	-0.047
-172.939	-200.000	-0.003	-0.135
-171.925	288.992	0.119	0.213
-170.910	380.600	0.056	0.114
-169.896	-94.527	-0.219	-0.059
-168.881	-40.012	-0.167	0.086
-167.866	-200.000	0.009	-0.072
-166.852	488.401	-0.121	0.271
-165.837	-99.967	-0.189	-0.047
-164.823	800.000	0.059	0.251
-163.808	15.158	-0.159	-0.122
-162.793	-200.000	-0.032	0.183
-161.779	-166.585	-0.247	0.010
-160.764	-86.863	-0.332	-0.100
-159.750	178.661	-0.141	-0.203
-158.735	-22.962	-0.174	0.103
-157.720	-35.229	0.374	0.200
-156.706	-200.000	-0.033	0.176
-155.691	299.717	0.090	0.163
-154.677	243.587	0.056	0.092
-153.662	-121.577	0.094	-0.015
-152.647	92.880	0.100	0.111
-151.633	29.017	-0.308	0.257
-150.618	23.477	0.195	0.158
-149.604	-87.084	-0.292	0.087
-148.589	546.529	0.042	0.098
-147.574	-136.197	0.283	0.032
-146.560	486.790	-0.086	-0.194
-145.545	800.000	-0.062	-0.171
-144.531	59.202	0.044	-0.043
-143.516	-81.506	0.107	0.035
-142.502	87.945	0.184	0.201
-141.487	248.358	-0.032	0.053
-140.472	800.000	0.070	0.257
-139.458	229.418	0.231	-0.371
-138.443	-44.184	0.388	0.191
-137.429	-200.000	0.059	-0.257
-136.414	106.096	0.067	-0.078
-135.399	-200.000	-0.044	-0.420
-134.385	44.460	0.092	-0.083
-133.370	-80.499	-0.175	0.057
-132.356	-43.094	0.138	-0.069
-131.341	800.000	-0.025	0.071
-130.326	138.875	0.175	0.226
-129.312	-44.493	-0.332	0.163
-128.297	444.988	-0.060	0.129
-127.283	800.000	0.040	0.124
-126.268	143.390	0.147	0.192
-125.253	-32.939	-0.135	0.074
-124.239	7.388	-0.238	0.175
-123.224	462.449	-0.146	0.321
-122.210	-41.700	0.159	-0.080
-121.195	188.405	-0.117	-0.172
