DTS Sentinel unit serial number:	SN413079Multiplexer serial number:	ORYXHardware model number:	OX4-SRSoftware version number:	ORYX F/W v4.00 Oryx Data Collector v3.7.2.0data status	okinstallation	princeton_trtdifferential loss correction	single-endedforward channel	channel 4reverse channel	N/Adate	2019/09/18time	06:45:35forward acquisition time	60.00reverse acquisition time	0.00gamma	496.2192k internal	0.2332k external	0.2332temperature offset calibration	0.9997default loss term (dB/km)	0.3790temperature slope calibration	1.0000multiplexer offset coefficient	1.0000multiplexer slope coefficient	1.0000fibre end	0.00T internal ref (°C)	23.25T ext. ref 1 (°C)	0.20T ext. ref 2 (°C)	17.01length (m)	temperature (°C)	Stokes	anti-Stokes-747.200	-179.149	0.167	0.004
-746.185	-0.977	-0.150	0.107
-745.171	-122.720	0.258	0.042
-744.156	-68.520	0.132	0.052
-743.142	-57.801	0.227	0.100
-742.127	155.459	-0.118	0.163
-741.112	223.361	-0.084	0.137
-740.098	169.292	-0.059	0.085
-739.083	-120.369	0.311	-0.053
-738.069	47.241	0.148	0.138
-737.054	272.752	0.032	0.058
-736.039	30.077	-0.331	-0.284
-735.025	-90.321	0.181	-0.053
-734.010	-200.000	0.045	0.215
-732.996	150.950	-0.177	0.242
-731.981	-200.000	0.028	-0.143
-730.966	-0.885	0.142	-0.101
-729.952	-12.612	-0.082	-0.054
-728.937	-200.000	-0.012	-0.394
-727.923	-200.000	-0.061	-0.345
-726.908	-200.000	-0.060	-0.380
-725.894	-200.000	-0.002	-0.236
-724.879	-199.187	0.239	-0.001
-723.864	-200.000	0.035	-0.184
-722.850	-200.000	0.002	-0.226
-721.835	-96.625	-0.559	0.148
-720.821	-40.319	-0.172	0.090
-719.806	-200.000	-0.030	-0.412
-718.791	-38.434	-0.123	0.065
-717.777	-168.871	0.071	0.003
-716.762	-150.431	-0.258	0.020
-715.748	-99.688	-0.141	-0.036
-714.733	-97.169	0.169	-0.044
-713.718	-200.000	-0.035	-0.272
-712.704	-184.704	0.218	-0.004
-711.689	-54.788	-0.285	-0.129
-710.675	-28.600	-0.046	0.026
-709.660	-200.000	0.199	0.000
-708.645	-6.003	-0.440	0.302
-707.631	800.000	0.029	-0.084
-706.616	-143.724	0.114	0.011
-705.602	422.123	-0.040	0.086
-704.587	415.658	0.078	0.166
-703.572	-22.156	-0.282	0.172
-702.558	-200.000	-0.019	-0.198
-701.543	-100.819	0.069	0.017
-700.529	-67.484	0.124	0.049
-699.514	-66.600	0.322	-0.128
-698.499	-200.000	-0.012	0.227
-697.485	191.568	-0.052	0.079
-696.470	32.351	0.230	0.199
-695.456	-17.660	0.033	-0.021
-694.441	800.000	0.094	0.276
-693.426	800.000	0.024	0.073
-692.412	207.201	-0.134	-0.210
-691.397	-122.475	-0.387	-0.063
-690.383	-200.000	-0.035	-0.461
-689.368	-109.376	0.077	-0.016
-688.354	-200.000	0.017	-0.212
-687.339	-133.513	0.299	0.038
-686.324	366.513	0.062	-0.126
-685.310	-46.058	0.087	0.043
-684.295	-125.886	0.027	0.004
-683.281	800.000	0.101	0.284
-682.266	-104.681	-0.169	0.039
-681.251	-102.089	0.186	-0.045
-680.237	-5.456	-0.169	0.117
-679.222	55.265	0.167	-0.162
-678.208	-128.069	0.044	-0.006
-677.193	199.357	-0.068	0.104
-676.178	245.212	0.041	0.069
-675.164	-90.554	-0.301	0.087
-674.149	-54.613	-0.191	-0.087
-673.135	-91.446	0.333	0.095
-672.120	-200.000	-0.055	0.313
-671.105	287.749	-0.038	-0.070
-670.091	61.967	0.145	0.145
-669.076	-200.000	0.017	0.381
-668.062	-200.000	-0.071	-0.370
-667.047	114.214	-0.101	0.123
-666.032	-76.846	0.103	0.036
-665.018	800.000	0.105	-0.377
-664.003	45.655	-0.193	-0.178
-662.989	316.817	-0.032	0.061
-661.974	331.436	-0.047	0.091
-660.959	344.661	-0.041	0.080
-659.945	63.756	0.201	0.202
-658.930	209.395	-0.248	0.389
-657.916	784.029	-0.095	-0.262
-656.901	-84.946	-0.256	-0.080
-655.886	-200.000	0.010	-0.256
-654.872	746.364	-0.035	-0.094
-653.857	-155.630	-0.422	0.027
-652.843	160.591	0.227	0.317
-651.828	-200.000	-0.002	-0.083
-650.814	-63.905	-0.249	-0.102
-649.799	44.120	-0.264	-0.243
-648.784	85.967	-0.080	-0.088
-647.770	-200.000	-0.013	-0.193
-646.755	-140.876	-0.243	0.025
-645.741	107.479	0.261	0.311
-644.726	-200.000	-0.017	-0.080
-643.711	-200.000	0.023	0.380
-642.697	8.312	0.146	0.110
-641.682	-200.000	0.012	0.259
-640.668	-200.000	0.018	0.209
-639.653	-173.087	-0.266	0.008
-638.638	-200.000	-0.017	0.182
-637.624	-78.685	-0.365	-0.125
-636.609	-200.000	0.043	-0.240
-635.595	622.828	0.237	0.597
-634.580	20.310	-0.298	0.241
-633.565	136.019	-0.130	0.170
-632.551	-200.000	-0.027	0.211
-631.536	-110.106	0.248	-0.052
-630.522	-87.515	-0.106	0.032
-629.507	27.177	0.118	-0.099
-628.492	76.191	0.063	-0.067
-627.478	21.505	-0.099	0.081
-626.463	-25.037	0.083	-0.050
-625.449	206.803	-0.076	-0.119
-624.434	-200.000	0.037	-0.246
-623.419	-159.242	0.299	0.017
-622.405	673.243	-0.125	0.325
-621.390	-152.022	-0.162	-0.012
-620.376	-114.872	-0.267	0.051
-619.361	79.222	0.079	-0.085
-618.346	-84.551	0.097	0.031
-617.332	-200.000	-0.148	-0.001
-616.317	-119.986	-0.195	-0.033
-615.303	0.242	-0.121	-0.086
-614.288	-200.000	-0.052	-0.509
-613.273	-109.614	0.279	0.059
-612.259	-33.724	-0.045	0.025
-611.244	-67.104	-0.196	0.077
-610.230	78.097	0.137	0.147
-609.215	222.513	-0.104	-0.167
-608.201	-200.000	-0.038	-0.273
-607.186	-200.000	0.202	0.000
-606.171	-143.740	0.397	0.038
-605.157	-105.632	-0.536	0.121
-604.142	325.878	-0.026	0.050
-603.128	-9.241	-0.449	0.300
-602.113	-107.890	0.343	0.075
-601.098	-103.001	0.158	0.037
-600.084	-6.896	0.193	-0.131
-599.069	800.000	-0.065	-0.200
-598.055	66.229	0.264	0.268
-597.040	403.170	-0.320	0.672
-596.025	120.842	-0.248	0.308
-595.011	23.526	0.212	-0.175
-593.996	152.345	-0.174	0.237
-592.982	45.503	0.051	0.047
-591.967	-200.000	0.022	-0.289
-590.952	800.000	0.074	-0.321
-589.938	-143.173	-0.148	0.014
-588.923	-142.734	0.157	0.015
-587.909	730.005	0.081	0.216
-586.894	-103.098	0.176	-0.042
-585.879	150.558	-0.081	-0.109
-584.865	800.000	0.095	0.387
-583.850	-200.000	0.045	0.308
-582.836	-200.000	-0.046	0.243
-581.821	236.242	-0.171	-0.283
-580.806	-200.000	-0.003	-0.054
-579.792	-92.170	-0.074	-0.021
-578.777	-116.139	-0.278	-0.052
-577.763	447.811	-0.108	0.237
-576.748	69.713	-0.214	0.221
-575.733	-107.482	0.081	0.018
-574.719	800.000	0.073	0.271
-573.704	-200.000	0.018	-0.145
-572.690	-155.780	0.157	-0.010
-571.675	17.912	0.150	-0.119
-570.661	-200.000	-0.002	0.406
-569.646	-200.000	-0.047	0.209
-568.631	-66.304	-0.056	0.022
-567.617	435.830	0.038	0.082
-566.602	103.396	-0.144	-0.168
-565.588	-90.057	-0.216	0.063
-564.573	164.760	0.229	-0.322
-563.558	-90.392	0.165	-0.048
-562.544	22.820	0.174	0.143
-561.529	41.157	0.036	0.032
-560.515	-200.000	0.051	-0.354
-559.500	800.000	0.070	-0.288
-558.485	342.802	0.082	-0.160
-557.471	-108.008	0.238	0.052
-556.456	72.045	0.279	0.290
-555.442	391.895	0.042	-0.087
-554.427	-200.000	0.004	-0.165
-553.412	66.230	0.254	0.258
-552.398	-200.000	0.010	0.065
-551.383	14.778	0.173	-0.135
-550.369	-200.000	0.067	-0.325
-549.354	-134.230	0.373	0.046
-548.339	481.710	-0.019	-0.043
-547.325	-141.687	0.260	-0.026
-546.310	71.832	0.251	-0.260
-545.296	-45.083	0.281	-0.139
-544.281	-200.000	0.017	-0.239
-543.266	26.902	-0.056	-0.047
-542.252	-200.000	0.000	-0.016
-541.237	-143.803	0.395	0.037
-540.223	58.482	0.271	-0.265
-539.208	-2.233	0.186	-0.130
-538.193	-200.000	-0.007	-0.079
-537.179	244.739	-0.138	0.232
-536.164	-200.000	0.020	0.327
-535.150	-69.364	-0.180	0.069
-534.135	89.125	-0.082	-0.091
-533.121	-125.613	-0.101	-0.015
-532.106	392.855	0.089	0.184
-531.091	158.041	-0.135	-0.187
-530.077	36.108	-0.230	-0.202
-529.062	800.000	-0.090	-0.327
-528.048	-200.000	-0.026	-0.146
-527.033	-200.000	-0.024	0.187
-526.018	-26.027	-0.190	-0.111
-525.004	-104.618	0.338	0.078
-523.989	-200.000	-0.014	0.230
-522.975	-156.223	0.267	-0.017
-521.960	136.133	-0.211	0.275
-520.945	172.176	0.110	0.158
-519.931	-200.000	-0.014	-0.489
-518.916	-50.913	-0.097	-0.046
-517.902	-200.000	-0.011	0.065
-516.887	241.566	0.075	0.125
-515.872	800.000	0.004	0.015
-514.858	-67.699	0.468	-0.182
-513.843	-175.072	0.260	-0.007
-512.829	-25.664	0.156	-0.092
-511.814	-88.935	0.197	0.058
-510.799	-200.000	0.013	0.150
-509.785	-200.000	-0.026	-0.126
-508.770	-45.654	-0.059	-0.029
-507.756	-135.492	-0.124	-0.015
-506.741	-127.470	-0.003	-0.000
-505.726	168.007	0.061	0.086
-504.712	120.845	-0.172	-0.213
-503.697	-85.118	-0.226	-0.071
-502.683	-68.822	0.124	-0.048
-501.668	800.000	-0.110	-0.312
-500.653	-88.946	-0.279	-0.082
-499.639	-156.660	-0.240	-0.015
-498.624	-57.964	-0.460	0.200
-497.610	-64.553	-0.260	-0.105
-496.595	29.601	-0.201	0.170
-495.581	365.685	0.017	0.035
-494.566	-3.703	-0.109	0.076
-493.551	-56.598	0.194	-0.085
-492.537	-15.900	0.147	-0.093
-491.522	301.645	-0.087	0.161
-490.508	-200.000	-0.088	0.452
-489.493	293.252	0.112	0.203
-488.478	-58.775	-0.096	-0.041
-487.464	800.000	-0.098	-0.285
-486.449	-116.786	-0.057	0.010
-485.435	-29.227	-0.123	-0.070
-484.420	800.000	0.058	0.169
-483.405	-124.957	-0.181	-0.028
-482.391	-200.000	0.013	0.090
-481.376	-15.093	-0.079	-0.050
-480.362	78.406	0.338	-0.360
-479.347	87.489	0.221	0.243
-478.332	-191.901	0.152	-0.001
-477.318	-33.833	-0.183	0.100
-476.303	115.640	0.339	-0.413
-475.289	311.737	-0.077	-0.143
-474.274	16.482	-0.054	-0.042
-473.259	800.000	-0.028	0.087
-472.245	344.419	-0.109	0.213
-471.230	6.833	0.319	-0.236
-470.216	-46.193	0.191	0.093
-469.201	-4.649	0.165	0.114
-468.186	-200.000	0.084	-0.476
-467.172	786.876	0.079	0.216
-466.157	36.214	-0.293	0.256
-465.143	-139.921	0.304	0.032
-464.128	-200.000	0.022	0.435
-463.113	-167.804	0.290	-0.011
-462.099	232.754	-0.174	0.284
-461.084	-151.950	0.099	-0.007
-460.070	92.836	-0.169	-0.190
-459.055	-200.000	0.014	0.229
-458.040	-200.000	0.035	-0.391
-457.026	-200.000	-0.005	0.068
-456.011	361.242	0.043	0.086
-454.997	-200.000	0.025	0.221
-453.982	-141.980	-0.326	-0.032
-452.968	-78.677	0.298	-0.101
-451.953	-60.118	-0.580	-0.246
-450.938	-200.000	-0.018	-0.237
-449.924	67.071	-0.218	-0.221
-448.909	-200.000	-0.003	-0.092
-447.895	-45.180	0.143	0.071
-446.880	86.436	0.142	0.155
-445.865	107.773	-0.128	-0.151
-444.851	-60.029	-0.214	-0.091
-443.836	-17.332	-0.296	-0.185
-442.822	338.287	0.068	-0.131
-441.807	-109.631	-0.272	0.057
-440.792	54.545	0.060	-0.058
-439.778	800.000	0.052	0.195
-438.763	-200.000	0.014	-0.317
-437.749	-122.246	0.200	-0.032
-436.734	62.384	0.175	-0.174
-435.719	-200.000	0.009	-0.254
-434.705	145.831	0.159	0.212
-433.690	48.724	-0.353	-0.329
-432.676	476.567	0.022	0.050
-431.661	10.483	-0.041	0.031
-430.646	-44.777	-0.180	0.089
-429.632	-200.000	-0.029	-0.132
-428.617	-200.000	0.001	-0.217
-427.603	202.300	-0.060	0.092
-426.588	16.090	-0.037	0.029
-425.573	83.946	0.183	0.199
-424.559	-1.335	-0.325	0.228
-423.544	-3.819	0.123	-0.085
-422.530	-200.000	0.074	-0.329
-421.515	-82.929	0.212	0.068
-420.500	-35.785	0.128	-0.069
-419.486	-125.617	-0.246	-0.037
-418.471	-146.968	-0.293	-0.025
-417.457	-73.214	0.348	0.126
-416.442	-58.928	0.089	-0.038
-415.428	131.054	-0.088	-0.112
-414.413	800.000	-0.092	-0.295
-413.398	265.575	-0.119	0.206
-412.384	12.166	-0.049	-0.038
-411.369	800.000	0.049	-0.138
-410.355	339.487	0.105	-0.203
-409.340	-117.653	0.272	-0.049
-408.325	677.371	-0.220	-0.567
-407.311	800.000	0.034	-0.102
-406.296	-130.072	-0.157	0.021
-405.282	0.065	-0.077	0.054
-404.267	800.000	-0.050	0.193
-403.252	-115.075	-0.315	0.059
-402.238	-78.308	-0.107	0.036
-401.223	-100.428	0.414	-0.102
-400.209	-175.930	-0.127	-0.003
-399.194	-52.544	0.521	0.239
-398.179	-2.309	-0.210	0.146
-397.165	60.131	-0.167	-0.164
-396.150	-45.239	0.145	0.071
-395.136	38.246	-0.226	-0.199
-394.121	204.748	0.196	0.302
-393.106	-127.832	0.161	0.023
-392.092	-200.000	-0.000	-0.218
-391.077	15.425	-0.078	-0.061
-390.063	-42.894	0.170	-0.086
-389.048	-41.443	0.201	0.102
-388.033	-84.400	0.127	-0.040
-387.019	431.381	-0.165	-0.355
-386.004	-36.979	-0.153	-0.081
-384.990	-200.000	0.012	-0.230
-383.975	88.981	-0.152	-0.168
-382.960	41.998	-0.146	0.131
-381.946	-200.000	-0.024	0.201
-380.931	-50.844	0.106	0.050
-379.917	-56.084	0.152	-0.067
-378.902	-89.077	0.260	0.076
-377.888	-200.000	0.017	-0.172
-376.873	177.657	0.111	0.161
-375.858	20.275	0.123	0.098
-374.844	-200.000	0.031	-0.229
-373.829	384.403	0.171	0.350
-372.815	658.354	-0.081	0.208
-371.800	148.872	0.122	-0.163
-370.785	-17.395	0.309	-0.193
-369.771	800.000	0.059	-0.198
-368.756	-43.319	0.032	0.016
-367.742	118.061	0.071	0.086
-366.727	17.106	-0.056	0.044
-365.712	800.000	0.094	-0.289
-364.698	800.000	0.044	-0.151
-363.683	787.672	-0.091	0.248
-362.669	43.684	-0.187	0.169
-361.654	800.000	-0.054	0.211
-360.639	-200.000	-0.002	0.338
-359.625	171.755	0.312	-0.444
-358.610	144.212	0.088	-0.117
-357.596	-155.304	-0.118	0.008
-356.581	-200.000	-0.029	0.164
-355.566	-81.210	-0.235	-0.077
-354.552	-11.278	0.310	0.202
-353.537	484.910	0.045	0.102
-352.523	-171.017	-0.119	0.004
-351.508	-34.553	-0.235	0.128
-350.493	-93.269	0.405	0.111
-349.479	-5.268	-0.477	0.325
-348.464	276.435	0.108	0.189
-347.450	260.948	0.140	-0.240
-346.435	80.551	-0.141	0.150
-345.420	668.015	-0.069	0.176
-344.406	-200.000	-0.041	0.360
-343.391	-54.720	0.077	-0.034
-342.377	-59.717	0.344	0.146
-341.362	-100.338	0.009	-0.002
-340.348	-24.421	-0.028	0.016
-339.333	22.763	0.140	0.113
-338.318	-69.817	-0.104	-0.039
-337.304	-5.963	0.083	0.056
-336.289	-147.114	-0.207	-0.017
-335.275	-200.000	0.006	0.328
-334.260	-68.985	-0.129	-0.049
-333.245	172.100	-0.056	0.079
-332.231	204.757	0.135	-0.207
-331.216	253.595	-0.062	0.105
-330.202	-26.885	0.406	0.235
-329.187	362.679	-0.114	0.227
-328.172	-84.882	-0.274	0.085
-327.158	-68.029	0.325	0.125
-326.143	-200.000	0.017	0.182
-325.129	-27.739	0.072	-0.041
-324.114	-91.213	-0.030	-0.009
-323.099	-106.709	-0.074	0.016
-322.085	343.677	-0.036	0.071
-321.070	800.000	-0.059	0.188
-320.056	-83.871	-0.120	0.038
-319.041	-200.000	-0.029	-0.182
-318.026	-65.367	-0.211	-0.084
-317.012	555.561	0.032	-0.075
-315.997	108.841	0.210	0.249
-314.983	172.592	-0.077	0.109
-313.968	45.689	-0.187	-0.171
-312.953	604.189	-0.049	0.121
-311.939	102.402	-0.230	0.266
-310.924	-79.471	-0.253	0.085
-309.910	80.486	-0.149	-0.159
-308.895	-148.277	-0.352	-0.029
-307.880	763.725	0.060	0.162
-306.866	-200.000	0.043	0.241
-305.851	-200.000	-0.014	-0.332
-304.837	-47.071	0.107	-0.052
-303.822	67.487	-0.183	-0.185
-302.807	-75.569	0.281	-0.099
-301.793	65.444	-0.190	-0.190
-300.778	-77.284	0.105	-0.036
-299.764	-139.784	-0.294	0.031
-298.749	-89.525	-0.204	0.059
-297.735	92.149	0.154	-0.171
-296.720	800.000	0.068	-0.252
-295.705	-15.710	0.153	-0.096
-294.691	-200.000	0.019	0.103
-293.676	800.000	-0.058	-0.215
-292.662	39.800	0.211	-0.187
-291.647	-95.457	0.186	-0.049
-290.632	32.356	0.181	-0.154
-289.618	762.216	0.097	0.261
-288.603	-47.211	0.293	0.141
-287.589	800.000	-0.073	-0.217
-286.574	31.578	-0.122	-0.103
-285.559	470.943	-0.068	-0.151
-284.545	-52.791	-0.131	-0.060
-283.530	-155.287	0.417	-0.027
-282.516	12.082	0.173	0.131
-281.501	26.792	0.044	0.037
-280.486	41.927	-0.160	-0.144
-279.472	-200.000	-0.002	-0.040
-278.457	800.000	-0.063	0.175
-277.443	-200.000	0.033	-0.252
-276.428	198.288	-0.071	0.108
-275.413	124.684	-0.158	-0.196
-274.399	-89.831	-0.228	-0.066
-273.384	744.881	-0.032	-0.086
-272.370	263.505	-0.075	-0.128
-271.355	-200.000	0.022	-0.114
-270.340	133.199	0.157	-0.200
-269.326	219.310	-0.181	-0.285
-268.311	113.312	-0.145	-0.174
-267.297	800.000	0.091	0.255
-266.282	800.000	0.084	0.245
-265.267	-96.290	-0.172	-0.045
-264.253	358.618	0.048	0.095
-263.238	121.217	0.077	-0.094
-262.224	305.915	0.124	0.227
-261.209	-200.000	0.004	-0.329
-260.195	222.872	0.136	-0.216
-259.180	502.224	-0.165	-0.376
-258.165	-200.000	0.044	-0.246
-257.151	-200.000	-0.016	-0.405
-256.136	-200.000	0.013	-0.057
-255.122	-156.603	-0.114	0.007
-254.107	-69.144	-0.079	0.030
-253.092	-200.000	0.035	0.155
-252.078	19.380	-0.305	0.241
-251.063	607.295	0.057	0.140
-250.049	146.494	-0.148	-0.196
-249.034	-200.000	-0.079	0.435
-248.019	800.000	0.051	-0.219
-247.005	13.848	0.131	-0.101
-245.990	-200.000	0.019	0.272
-244.976	-122.328	-0.229	-0.037
-243.961	30.766	-0.107	0.090
-242.946	-124.507	-0.061	-0.009
-241.932	800.000	-0.132	0.404
-240.917	-14.572	-0.199	0.126
-239.903	-172.888	0.268	0.008
-238.888	-88.787	-0.226	0.066
-237.873	225.808	-0.054	0.087
-236.859	44.824	-0.153	0.139
-235.844	205.809	0.124	0.190
-234.830	-102.895	0.208	0.049
-233.815	-200.000	0.012	-0.202
-232.800	-76.325	-0.181	0.063
-231.786	-51.579	-0.109	0.050
-230.771	79.361	0.282	0.298
-229.757	-137.113	-0.195	-0.022
-228.742	334.862	-0.077	0.147
-227.727	-59.180	-0.057	-0.024
-226.713	-78.027	-0.091	-0.031
-225.698	-200.000	0.056	-0.286
-224.684	-11.008	-0.348	-0.226
-223.669	-46.284	0.193	0.093
-222.655	-55.625	-0.260	-0.115
-221.640	-200.000	-0.047	-0.253
-220.625	800.000	-0.074	-0.217
-219.611	-107.760	0.201	0.043
-218.596	8.830	-0.060	0.044
-217.582	-3.358	0.273	0.187
-216.567	-16.458	-0.091	-0.057
-215.552	-200.000	0.004	-0.117
-214.538	-10.427	-0.104	0.068
-213.523	-200.000	0.058	-0.264
-212.509	-12.349	0.262	-0.169
-211.494	1.620	-0.308	-0.219
-210.479	-15.782	0.181	-0.114
-209.465	298.827	-0.069	-0.124
-208.450	-17.112	0.088	0.055
-207.436	-105.241	0.237	-0.053
-206.421	-39.550	-0.153	0.079
-205.406	-50.970	0.092	-0.042
-204.392	-18.813	0.133	0.082
-203.377	-67.636	0.086	-0.033
-202.363	-7.803	-0.225	0.150
-201.348	92.619	0.166	0.185
-200.333	-112.897	-0.379	0.074
-199.319	22.358	-0.074	0.060
-198.304	23.594	-0.335	0.271
-197.290	-96.189	-0.516	-0.135
-196.275	7.333	-0.112	0.083
-195.260	20.054	-0.048	-0.038
-194.246	-1.731	0.166	0.115
-193.231	295.866	-0.120	-0.216
-192.217	-67.925	-0.332	0.128
-191.202	800.000	0.009	0.032
-190.187	-130.349	0.167	0.022
-189.173	262.504	0.106	-0.182
-188.158	13.872	-0.305	-0.233
-187.144	-73.989	-0.315	0.113
-186.129	-84.682	-0.241	0.075
-185.114	94.907	0.140	-0.156
-184.100	-72.429	-0.020	0.007
-183.085	-8.331	-0.268	-0.177
-182.071	-200.000	0.324	-0.001
-181.056	800.000	0.011	-0.037
-180.042	-66.597	0.204	0.080
-179.027	199.543	0.113	0.170
-178.012	800.000	0.042	0.141
-176.998	-24.888	-0.088	-0.052
-175.983	-73.925	-0.178	-0.063
-174.969	-200.000	0.039	0.195
-173.954	28.323	0.222	-0.185
-172.939	67.766	-0.142	0.143
-171.925	289.317	0.132	0.236
-170.910	-68.749	-0.083	-0.032
-169.896	270.503	0.146	-0.252
-168.881	21.628	0.055	0.044
-167.866	343.744	0.133	0.256
-166.852	143.775	0.152	0.199
-165.837	800.000	0.059	0.170
-164.823	-66.414	0.497	-0.194
-163.808	800.000	0.031	0.092
-162.793	30.865	-0.164	0.138
-161.779	-200.000	-0.029	0.183
-160.764	-129.927	-0.122	0.017
-159.750	800.000	-0.027	-0.089
-158.735	14.382	-0.138	0.106
-157.720	-134.729	0.473	-0.056
-156.706	30.671	0.230	0.193
-155.691	-180.684	-0.133	0.003
-154.677	69.111	0.170	-0.172
-153.662	246.393	0.090	-0.149
-152.647	463.352	0.123	0.270
-151.633	64.932	0.203	-0.201
-150.618	-21.087	0.183	-0.110
-149.604	-28.019	0.359	0.204
-148.589	-55.861	0.235	0.103
-147.574	800.000	-0.056	0.192
-146.560	-109.474	0.308	-0.064
-145.545	524.574	0.090	0.208
-144.531	104.483	0.107	-0.123
-143.516	-200.000	-0.053	-0.450
-142.502	-97.699	0.296	0.075
-141.487	-200.000	0.014	0.154
-140.472	97.462	0.302	0.341
-139.458	401.021	-0.115	-0.238
-138.443	-78.375	-0.236	-0.079
-137.429	93.506	-0.187	0.208
-136.414	-67.389	0.212	0.082
-135.399	-91.351	-0.128	0.036
-134.385	800.000	-0.087	-0.265
-133.370	370.545	-0.032	-0.063
-132.356	-117.373	-0.417	-0.074
-131.341	-38.897	0.019	0.010
-130.326	800.000	0.088	0.331
-129.312	220.995	-0.220	-0.346
-128.297	800.000	0.028	0.096
-127.283	-190.611	0.085	0.001
-126.268	49.828	-0.237	0.219
-125.253	611.916	-0.048	-0.117
-124.239	232.474	-0.139	0.224
-123.224	-200.000	-0.026	0.209
-122.210	-88.244	0.180	0.053
-121.195	-152.164	0.164	-0.012
