DTS Sentinel unit serial number:	SN413079Multiplexer serial number:	ORYXHardware model number:	OX4-SRSoftware version number:	ORYX F/W v4.00 Oryx Data Collector v3.7.2.0data status	okinstallation	princeton_trtdifferential loss correction	single-endedforward channel	channel 4reverse channel	N/Adate	2019/09/11time	05:27:11forward acquisition time	60.00reverse acquisition time	0.00gamma	496.2192k internal	0.2316k external	0.2316temperature offset calibration	0.9946default loss term (dB/km)	0.3790temperature slope calibration	1.0000multiplexer offset coefficient	1.0000multiplexer slope coefficient	1.0000fibre end	0.00T internal ref (°C)	29.42T ext. ref 1 (°C)	-0.25T ext. ref 2 (°C)	23.38length (m)	temperature (°C)	Stokes	anti-Stokes-747.200	355.389	-0.120	-0.243
-746.185	-122.492	-0.293	0.048
-745.171	800.000	0.050	-0.189
-744.156	445.355	-0.123	0.275
-743.142	94.778	0.072	-0.083
-742.127	69.271	0.134	-0.140
-741.112	564.441	-0.118	-0.290
-740.098	80.864	-0.125	0.137
-739.083	-190.027	-0.156	-0.002
-738.069	54.154	-0.315	0.307
-737.054	-200.000	-0.005	-0.102
-736.039	-46.872	-0.052	-0.026
-735.025	-200.000	0.038	0.337
-734.010	-18.265	0.090	0.057
-732.996	169.520	-0.104	0.151
-731.981	-46.255	-0.275	0.137
-730.966	16.893	0.137	-0.110
-729.952	-97.148	-0.099	0.026
-728.937	-77.601	-0.201	0.071
-727.923	800.000	0.080	-0.238
-726.908	-15.008	-0.090	-0.058
-725.894	2.467	-0.334	0.245
-724.879	31.445	0.411	0.357
-723.864	24.626	-0.237	-0.198
-722.850	437.677	0.061	0.136
-721.835	-200.000	0.006	-0.031
-720.821	-200.000	-0.002	0.257
-719.806	82.331	-0.100	-0.109
-718.791	-200.000	-0.031	0.225
-717.777	-200.000	0.032	0.146
-716.762	-120.053	0.026	-0.005
-715.748	385.773	-0.122	0.255
-714.733	800.000	0.098	0.292
-713.718	800.000	-0.102	-0.402
-712.704	208.950	-0.207	-0.328
-711.689	119.055	-0.099	-0.124
-710.675	12.008	-0.214	-0.166
-709.660	-40.172	0.406	0.214
-708.645	800.000	0.040	-0.122
-707.631	-178.860	0.276	-0.006
-706.616	-200.000	0.030	-0.341
-705.602	-95.538	-0.121	-0.033
-704.587	-64.551	-0.174	0.071
-703.572	52.402	0.088	0.085
-702.558	-200.000	0.019	-0.104
-701.543	-26.176	-0.253	-0.150
-700.529	800.000	0.026	-0.080
-699.514	-16.462	-0.271	-0.174
-698.499	-200.000	-0.031	-0.212
-697.485	-130.676	0.101	-0.014
-696.470	5.362	-0.225	0.168
-695.456	-95.987	0.041	-0.011
-694.441	-99.382	0.228	-0.058
-693.426	131.543	-0.023	-0.030
-692.412	47.651	0.071	0.067
-691.397	555.551	-0.059	-0.143
-690.383	-92.780	-0.145	-0.041
-689.368	-200.000	-0.002	-0.254
-688.354	-55.151	-0.055	0.025
-687.339	102.034	0.113	-0.133
-686.324	-200.000	0.049	-0.336
-685.310	-58.185	-0.248	0.109
-684.295	216.424	-0.191	-0.306
-683.281	-119.991	-0.230	-0.040
-682.266	28.909	-0.192	-0.164
-681.251	269.050	0.072	-0.128
-680.237	409.821	0.112	-0.240
-679.222	27.738	-0.167	-0.142
-678.208	189.755	-0.091	-0.137
-677.193	800.000	0.068	0.259
-676.178	26.304	-0.046	0.039
-675.164	-200.000	0.030	-0.151
-674.149	-200.000	-0.005	0.222
-673.135	213.956	-0.063	-0.101
-672.120	87.655	-0.190	-0.213
-671.105	55.068	-0.265	-0.258
-670.091	-200.000	-0.078	-0.481
-669.076	7.448	-0.220	-0.166
-668.062	573.113	-0.072	0.178
-667.047	-200.000	-0.004	0.199
-666.032	-162.097	0.274	-0.014
-665.018	-108.186	-0.070	-0.015
-664.003	-200.000	0.004	0.046
-662.989	-38.099	-0.272	0.146
-661.974	-63.112	0.249	-0.104
-660.959	-53.216	0.050	0.023
-659.945	650.596	-0.125	-0.323
-658.930	800.000	-0.019	0.065
-657.916	800.000	0.010	0.042
-656.901	-200.000	-0.025	-0.163
-655.886	800.000	-0.089	-0.263
-654.872	-200.000	0.012	-0.156
-653.857	-200.000	-0.055	-0.288
-652.843	-200.000	0.011	-0.226
-651.828	322.057	-0.087	0.167
-650.814	-114.146	0.115	-0.022
-649.799	15.137	-0.219	0.173
-648.784	-126.815	-0.202	-0.030
-647.770	591.124	0.065	-0.161
-646.755	-121.585	0.292	0.049
-645.741	-200.000	0.041	0.310
-644.726	-98.961	0.443	-0.114
-643.711	-116.953	-0.145	-0.027
-642.697	800.000	0.025	-0.077
-641.682	717.293	-0.041	0.111
-640.668	-68.020	-0.180	-0.071
-639.653	-115.895	0.186	0.035
-638.638	800.000	-0.010	0.043
-637.624	-146.397	0.202	0.018
-636.609	-200.000	-0.011	-0.059
-635.595	-123.783	-0.079	-0.013
-634.580	-40.302	-0.209	0.110
-633.565	4.422	0.173	-0.128
-632.551	-200.000	-0.004	0.478
-631.536	-44.455	0.298	-0.151
-630.522	-161.925	-0.204	0.010
-629.507	-200.000	0.018	-0.214
-628.492	-32.489	0.122	0.069
-627.478	-200.000	-0.004	-0.049
-626.463	800.000	0.044	0.183
-625.449	-162.743	-0.195	-0.010
-624.434	-117.477	0.245	-0.045
-623.419	148.058	-0.147	-0.200
-622.405	800.000	-0.080	-0.283
-621.390	-133.678	-0.268	-0.034
-620.376	17.893	-0.197	0.158
-619.361	-32.838	0.108	0.061
-618.346	378.009	-0.119	0.246
-617.332	125.698	0.119	0.151
-616.317	82.184	-0.157	0.171
-615.303	-200.000	0.006	0.043
-614.288	11.678	-0.420	0.325
-613.273	-200.000	-0.067	0.384
-612.259	-200.000	-0.041	0.201
-611.244	101.157	-0.056	0.066
-610.230	269.267	0.098	0.174
-609.215	131.983	0.130	-0.169
-608.201	81.225	-0.097	-0.106
-607.186	-78.364	0.255	0.088
-606.171	241.419	-0.169	-0.284
-605.157	-130.209	0.162	0.022
-604.142	124.071	-0.122	-0.154
-603.128	-22.802	-0.237	-0.144
-602.113	800.000	0.034	-0.113
-601.098	-41.075	0.190	0.099
-600.084	80.314	-0.105	-0.114
-599.069	-200.000	0.005	0.034
-598.055	677.010	0.038	0.100
-597.040	453.289	-0.295	-0.657
-596.025	278.646	0.140	-0.251
-595.011	-200.000	0.049	0.392
-593.996	-67.493	0.158	0.062
-592.982	73.004	-0.086	-0.091
-591.967	-169.772	-0.193	0.007
-590.952	172.806	-0.180	0.262
-589.938	-159.721	0.337	0.019
-588.923	-15.837	-0.342	0.220
-587.909	196.104	0.023	-0.035
-586.894	379.058	-0.140	-0.288
-585.879	476.732	-0.068	0.156
-584.865	-48.250	0.182	-0.088
-583.850	800.000	0.107	0.354
-582.836	9.905	0.120	0.092
-581.821	-103.097	0.132	-0.032
-580.806	387.541	-0.034	-0.071
-579.792	-190.874	-0.157	0.002
-578.777	281.925	0.163	0.293
-577.763	625.986	0.091	-0.230
-576.748	281.652	0.088	-0.158
-575.733	-200.000	-0.010	0.447
-574.719	-25.136	0.174	-0.104
-573.704	-200.000	0.015	0.270
-572.690	-200.000	0.001	0.030
-571.675	-200.000	0.005	-0.092
-570.661	-200.000	0.101	-0.478
-569.646	-198.937	-0.032	0.000
-568.631	148.835	0.119	0.162
-567.617	-19.958	0.138	-0.086
-566.602	-200.000	0.036	-0.280
-565.588	7.459	-0.032	0.024
-564.573	-121.209	0.116	0.020
-563.558	-68.846	-0.325	-0.126
-562.544	-185.612	0.205	0.003
-561.529	-101.082	0.228	0.056
-560.515	-195.654	-0.262	-0.002
-559.500	-93.236	0.242	-0.068
-558.485	-24.977	0.334	0.199
-557.471	-14.783	-0.204	0.132
-556.456	165.617	-0.139	-0.197
-555.442	46.612	-0.234	-0.218
-554.427	356.961	0.150	-0.300
-553.412	8.561	-0.004	0.003
-552.398	-129.816	-0.674	0.093
-551.383	194.259	-0.090	-0.137
-550.369	91.437	0.086	0.097
-549.354	93.782	-0.124	0.141
-548.339	-39.111	0.069	-0.036
-547.325	68.871	-0.171	0.177
-546.310	-9.166	0.037	-0.025
-545.296	-200.000	-0.017	-0.081
-544.281	-2.437	-0.221	-0.156
-543.266	141.831	-0.060	-0.080
-542.252	-200.000	-0.028	0.127
-541.237	800.000	-0.072	-0.220
-540.223	800.000	-0.044	0.184
-539.208	-41.132	-0.371	0.192
-538.193	-4.236	0.158	-0.110
-537.179	349.939	0.171	-0.340
-536.164	-157.015	-0.321	-0.020
-535.150	33.824	0.028	-0.025
-534.135	10.035	0.218	0.166
-533.121	520.512	-0.097	0.228
-532.106	-151.367	-0.144	-0.011
-531.091	27.108	0.138	-0.116
-530.077	-175.775	-0.177	0.005
-529.062	800.000	0.032	-0.109
-528.048	800.000	-0.084	0.286
-527.033	514.645	-0.056	-0.132
-526.018	-21.122	0.113	0.069
-525.004	36.420	-0.219	0.194
-523.989	432.937	0.082	0.178
-522.975	787.555	0.078	0.215
-521.960	-167.203	-0.153	-0.006
-520.945	-13.007	0.056	-0.037
-519.931	-93.965	0.181	0.050
-518.916	432.878	0.095	0.207
-517.902	-68.622	0.227	0.088
-516.887	235.193	-0.087	0.145
-515.872	-170.406	-0.447	0.016
-514.858	800.000	-0.056	-0.172
-513.843	40.758	0.057	0.051
-512.829	39.210	0.138	0.124
-511.814	-14.636	0.192	-0.124
-510.799	-139.648	0.071	0.008
-509.785	-121.059	0.178	-0.030
-508.770	301.073	-0.068	0.127
-507.756	6.208	-0.342	0.254
-506.741	-113.192	0.201	-0.040
-505.726	-200.000	-0.026	-0.313
-504.712	-200.000	-0.028	-0.394
-503.697	-105.856	0.493	-0.112
-502.683	108.666	0.035	0.042
-501.668	75.374	-0.287	-0.303
-500.653	800.000	0.050	-0.203
-499.639	800.000	0.007	-0.020
-498.624	800.000	0.046	-0.143
-497.610	-114.653	0.486	0.093
-496.595	-46.726	-0.340	0.167
-495.581	3.904	0.169	0.124
-494.566	-119.102	0.138	-0.024
-493.551	-8.557	0.152	0.103
-492.537	800.000	-0.044	0.131
-491.522	-200.000	0.008	0.059
-490.508	800.000	0.089	0.272
-489.493	-35.824	0.356	-0.193
-488.478	454.395	-0.099	-0.220
-487.464	-200.000	-0.038	-0.237
-486.449	50.463	-0.040	0.038
-485.435	18.116	0.223	-0.178
-484.420	170.534	-0.131	0.188
-483.405	7.982	0.147	-0.110
-482.391	-94.393	-0.465	0.127
-481.376	-107.274	-0.235	0.052
-480.362	96.959	-0.126	-0.145
-479.347	120.558	-0.154	0.192
-478.332	-78.136	0.260	-0.090
-477.318	800.000	-0.087	0.352
-476.303	800.000	-0.070	0.264
-475.289	-200.000	0.002	0.170
-474.274	225.219	0.123	0.200
-473.259	26.612	0.117	-0.098
-472.245	-37.721	0.182	0.097
-471.230	-147.912	0.309	0.026
-470.216	-130.264	-0.258	0.035
-469.201	268.304	0.088	0.155
-468.186	800.000	-0.054	0.167
-467.172	-78.636	0.108	0.037
-466.157	-200.000	-0.015	0.080
-465.143	-72.734	0.445	-0.164
-464.128	68.611	-0.117	-0.120
-463.113	25.126	-0.353	0.293
-462.099	327.828	0.084	-0.162
-461.084	-200.000	-0.046	0.237
-460.070	-100.412	0.105	0.026
-459.055	-200.000	-0.010	-0.110
-458.040	-107.855	0.319	-0.069
-457.026	152.352	-0.187	0.256
-456.011	-200.000	0.013	-0.067
-454.997	-115.285	0.251	-0.048
-453.982	-158.653	0.167	-0.010
-452.968	-75.670	0.183	-0.065
-451.953	-122.511	0.096	-0.016
-450.938	-103.112	-0.178	0.042
-449.924	-71.440	-0.232	0.087
-448.909	-52.342	-0.314	-0.145
-447.895	-0.337	0.165	-0.117
-446.880	-200.000	0.003	-0.399
-445.865	-100.093	-0.049	-0.012
-444.851	91.814	-0.146	0.165
-443.836	800.000	0.068	-0.236
-442.822	800.000	-0.080	0.289
-441.807	-40.274	-0.213	-0.111
-440.792	337.321	0.178	0.346
-439.778	-200.000	-0.181	-0.000
-438.763	-200.000	0.005	-0.089
-437.749	800.000	-0.090	-0.303
-436.734	-116.891	-0.338	0.062
-435.719	120.954	0.062	-0.077
-434.705	525.723	0.092	0.216
-433.690	-44.323	-0.086	-0.043
-432.676	422.552	-0.095	-0.205
-431.661	-200.000	0.025	-0.123
-430.646	49.928	0.064	0.060
-429.632	-81.276	-0.041	-0.013
-428.617	-13.315	0.314	0.204
-427.603	-110.887	-0.200	0.041
-426.588	123.466	-0.228	0.285
-425.573	-20.346	0.194	0.119
-424.559	-123.310	-0.420	-0.067
-423.544	-200.000	0.065	-0.336
-422.530	-143.945	0.195	-0.018
-421.515	5.487	-0.166	-0.122
-420.500	100.728	-0.084	-0.098
-419.486	-28.656	0.302	0.174
-418.471	-24.723	0.236	0.140
-417.457	800.000	0.066	-0.221
-416.442	133.444	0.148	-0.191
-415.428	108.426	0.231	-0.276
-414.413	653.521	-0.195	-0.501
-413.398	-200.000	-0.054	-0.295
-412.384	-129.810	0.487	-0.067
-411.369	167.597	-0.216	-0.307
-410.355	-28.090	-0.033	-0.019
-409.340	-37.678	0.496	0.264
-408.325	18.614	-0.090	0.072
-407.311	-20.321	-0.261	-0.161
-406.296	9.611	-0.175	-0.132
-405.282	648.434	0.110	0.282
-404.267	-200.000	0.005	0.113
-403.252	-165.906	0.148	-0.006
-402.238	-66.146	0.368	-0.147
-401.223	-99.477	-0.281	-0.071
-400.209	292.405	-0.110	0.199
-399.194	-200.000	-0.033	0.267
-398.179	-47.431	-0.176	0.086
-397.165	-125.097	0.146	0.022
-396.150	-105.879	0.120	0.027
-395.136	41.168	-0.168	-0.152
-394.121	67.803	-0.142	0.145
-393.106	-72.234	0.224	0.083
-392.092	-84.790	0.216	0.068
-391.077	800.000	0.005	0.018
-390.063	20.621	0.129	-0.105
-389.048	-200.000	-0.013	-0.095
-388.033	-73.509	0.170	0.062
-387.019	148.311	0.326	-0.439
-386.004	49.582	0.157	0.148
-384.990	-200.000	0.002	-0.196
-383.975	2.883	-0.212	0.153
-382.960	-200.000	-0.017	-0.100
-381.946	-121.398	-0.148	-0.025
-380.931	-5.938	0.299	0.204
-379.917	-42.056	-0.189	-0.097
-378.902	-200.000	0.027	0.239
-377.888	230.129	-0.074	-0.121
-376.873	-12.447	0.151	-0.098
-375.858	292.540	-0.110	0.199
-374.844	-151.768	-0.181	-0.013
-373.829	-11.001	-0.007	0.005
-372.815	-200.000	0.018	-0.312
-371.800	-96.163	0.213	0.056
-370.785	149.300	-0.017	-0.023
-369.771	71.624	0.055	0.057
-368.756	48.565	-0.225	-0.210
-367.742	800.000	0.042	-0.123
-366.727	-166.694	0.300	-0.012
-365.712	800.000	-0.103	0.348
-364.698	-113.894	0.237	0.046
-363.683	800.000	0.031	0.091
-362.669	189.169	0.035	0.052
-361.654	800.000	-0.009	-0.036
-360.639	66.305	-0.063	-0.064
-359.625	-121.411	-0.010	0.002
-358.610	-160.509	-0.147	-0.008
-357.596	800.000	0.115	0.337
-356.581	-113.504	-0.253	-0.049
-355.566	74.723	-0.206	-0.217
-354.552	469.344	-0.086	-0.192
-353.537	537.565	0.114	0.269
-352.523	124.279	-0.202	0.253
-351.508	-200.000	-0.028	-0.121
-350.493	301.315	-0.096	0.176
-349.479	-83.591	0.190	-0.060
-348.464	-5.219	-0.388	-0.266
-347.450	644.900	-0.046	0.116
-346.435	800.000	0.093	0.286
-345.420	64.763	-0.130	0.131
-344.406	800.000	0.067	0.257
-343.391	11.471	-0.090	-0.069
-342.377	-200.000	-0.011	-0.269
-341.362	-138.774	-0.106	0.012
-340.348	-26.653	-0.141	0.082
-339.333	-90.429	0.368	0.106
-338.318	47.909	-0.276	0.257
-337.304	800.000	-0.046	0.163
-336.289	800.000	0.020	0.086
-335.275	800.000	0.061	0.181
-334.260	21.832	0.091	0.074
-333.245	351.407	-0.095	0.188
-332.231	-200.000	-0.018	-0.144
-331.216	-200.000	-0.016	-0.165
-330.202	-200.000	0.039	-0.460
-329.187	-50.547	0.270	-0.127
-328.172	-137.366	-0.192	0.022
-327.158	174.808	0.155	0.223
-326.143	-31.929	-0.282	-0.157
-325.129	-15.341	0.054	0.034
-324.114	174.281	0.246	0.354
-323.099	-30.028	0.153	0.087
-322.085	-200.000	-0.048	-0.297
-321.070	172.631	0.028	-0.040
-320.056	-19.992	-0.295	-0.181
-319.041	29.833	0.159	0.135
-318.026	66.870	0.311	-0.315
-317.012	-15.132	-0.292	-0.186
-315.997	65.323	-0.155	-0.156
-314.983	79.293	0.218	-0.233
-313.968	232.114	0.077	-0.126
-312.953	296.076	-0.050	-0.092
-311.939	-200.000	0.018	-0.124
-310.924	20.715	-0.140	0.113
-309.910	800.000	-0.030	0.088
-308.895	-200.000	-0.004	0.017
-307.880	172.047	-0.168	0.240
-306.866	43.044	-0.213	-0.193
-305.851	-32.698	0.109	-0.061
-304.837	449.964	-0.056	-0.122
-303.822	-112.437	-0.229	-0.046
-302.807	202.310	-0.086	0.133
-301.793	-200.000	0.003	-0.092
-300.778	-27.916	-0.269	0.155
-299.764	252.251	0.165	-0.281
-298.749	-69.793	0.147	-0.056
-297.735	800.000	0.075	0.251
-296.720	-98.659	0.130	-0.033
-295.705	300.110	0.026	0.047
-294.691	-200.000	0.025	-0.364
-293.676	33.975	0.191	-0.166
-292.662	22.075	-0.153	0.124
-291.647	-70.821	-0.455	-0.171
-290.632	-36.389	0.108	-0.058
-289.618	-152.736	0.160	0.011
-288.603	327.328	-0.095	0.182
-287.589	-105.491	-0.258	0.058
-286.574	800.000	-0.084	-0.315
-285.559	128.181	-0.067	-0.085
-284.545	152.789	0.140	-0.190
-283.530	218.223	-0.122	0.193
-282.516	-200.000	-0.027	0.295
-281.501	-11.705	0.115	-0.075
-280.486	-59.625	-0.265	-0.113
-279.472	-15.176	0.335	0.213
-278.457	-64.867	-0.130	-0.052
-277.443	-200.000	-0.011	0.135
-276.428	-64.737	-0.217	-0.087
-275.413	173.367	-0.107	-0.154
-274.399	-96.212	0.062	0.016
-273.384	-200.000	-0.026	0.219
-272.370	-151.809	0.128	-0.009
-271.355	800.000	-0.028	-0.097
-270.340	199.154	0.164	-0.249
-269.326	-107.946	-0.276	-0.060
-268.311	215.506	0.151	0.237
-267.297	-95.113	0.122	-0.033
-266.282	119.473	-0.196	-0.241
-265.267	31.801	0.172	-0.147
-264.253	84.463	-0.160	-0.174
-263.238	-24.318	0.132	0.078
-262.224	-164.099	-0.277	-0.013
-261.209	-200.000	-0.052	0.399
-260.195	26.950	0.405	-0.338
-259.180	-144.263	-0.198	-0.018
-258.165	147.474	-0.093	0.125
-257.151	-200.000	-0.003	-0.033
-256.136	-31.410	-0.063	0.035
-255.122	-25.565	0.250	-0.147
-254.107	-200.000	0.016	-0.101
-253.092	261.306	-0.101	0.173
-252.078	-200.000	0.018	-0.130
-251.063	118.983	-0.090	0.111
-250.049	155.986	0.073	-0.100
-249.034	64.868	-0.251	-0.252
-248.019	800.000	0.041	-0.171
-247.005	-20.528	-0.076	0.046
-245.990	654.795	0.055	0.139
-244.976	-200.000	-0.032	0.321
-243.961	-93.727	0.210	-0.058
-242.946	-200.000	-0.002	-0.077
-241.932	-200.000	0.000	-0.150
-240.917	-67.163	0.236	0.092
-239.903	142.016	-0.412	0.542
-238.888	12.777	0.199	-0.153
-237.873	151.504	-0.184	-0.249
-236.859	317.257	0.040	-0.075
-235.844	-200.000	-0.048	0.347
-234.830	-200.000	-0.060	0.431
-233.815	160.353	-0.106	0.147
-232.800	800.000	0.016	-0.065
-231.786	379.942	-0.093	0.189
-230.771	446.390	-0.118	0.257
-229.757	48.039	0.134	0.124
-228.742	210.284	0.042	-0.065
-227.727	-31.877	-0.061	0.034
-226.713	-39.679	0.287	0.149
-225.698	525.892	0.060	-0.141
-224.684	11.245	0.274	0.208
-223.669	-57.784	0.111	-0.048
-222.655	-135.787	0.412	0.048
-221.640	130.373	0.043	0.055
-220.625	-200.000	-0.039	0.268
-219.611	303.762	0.079	-0.146
-218.596	435.809	-0.052	-0.112
-217.582	-4.136	-0.300	-0.206
-216.567	-89.545	-0.203	-0.059
-215.552	156.720	0.110	0.151
-214.538	49.149	-0.199	0.185
-213.523	33.039	-0.087	0.075
-212.509	53.828	-0.098	-0.094
-211.494	-159.314	0.243	0.014
-210.479	-141.397	0.054	-0.005
-209.465	187.245	0.164	-0.242
-208.450	-116.161	0.302	-0.056
-207.436	38.068	0.052	0.046
-206.421	165.705	0.272	-0.382
-205.406	-32.615	-0.196	-0.108
-204.392	-200.000	0.047	-0.247
-203.377	87.967	0.247	-0.271
-202.363	800.000	0.068	-0.222
-201.348	19.285	-0.079	-0.063
-200.333	326.910	-0.141	0.268
-199.319	800.000	-0.043	-0.153
-198.304	30.832	-0.157	-0.134
-197.290	-200.000	0.008	-0.288
-196.275	-57.310	-0.228	-0.100
-195.260	-200.000	0.036	-0.302
-194.246	30.229	-0.129	-0.110
-193.231	-200.000	0.005	-0.145
-192.217	-12.830	0.177	-0.114
-191.202	330.866	-0.103	-0.196
-190.187	-34.598	0.256	0.139
-189.173	654.360	0.062	-0.158
-188.158	56.509	0.200	0.193
-187.144	-200.000	0.034	-0.247
-186.129	311.132	0.067	-0.124
-185.114	223.187	0.256	-0.408
-184.100	-165.993	0.125	-0.005
-183.085	800.000	-0.040	0.116
-182.071	-136.091	0.070	0.008
-181.056	-134.069	0.057	0.007
-180.042	223.245	-0.029	0.046
-179.027	800.000	-0.090	0.267
-178.012	-200.000	-0.031	0.195
-176.998	-10.991	0.214	0.140
-175.983	375.428	0.199	0.403
-174.969	-200.000	0.028	0.436
-173.954	297.219	0.169	0.308
-172.939	161.042	0.146	0.202
-171.925	-148.753	0.148	0.012
-170.910	-144.572	0.019	-0.002
-169.896	800.000	0.062	0.187
-168.881	-71.654	-0.076	-0.028
-167.866	-134.450	0.101	-0.012
-166.852	-163.443	-0.299	0.014
-165.837	-200.000	0.021	0.182
-164.823	382.178	-0.079	-0.162
-163.808	121.443	0.142	0.176
-162.793	-149.959	-0.282	-0.022
-161.779	-6.754	0.388	-0.261
-160.764	-200.000	-0.215	0.001
-159.750	-200.000	0.022	0.418
-158.735	-53.630	-0.375	0.169
-157.720	800.000	-0.052	-0.218
-156.706	12.912	-0.193	-0.147
-155.691	-33.906	-0.126	0.069
-154.677	-186.520	-0.148	0.002
-153.662	463.325	0.096	-0.211
-152.647	-83.818	-0.225	0.071
-151.633	24.016	-0.204	-0.166
-150.618	309.387	-0.177	0.328
-149.604	744.738	0.135	-0.361
-148.589	84.493	0.093	-0.100
-147.574	50.357	0.208	0.194
-146.560	72.687	0.130	-0.135
-145.545	-12.013	-0.281	0.182
-144.531	101.415	0.083	0.096
-143.516	-43.148	0.040	-0.020
-142.502	-94.210	-0.244	0.066
-141.487	49.573	-0.115	-0.107
-140.472	165.357	0.107	-0.149
-139.458	-186.433	-0.493	0.007
-138.443	-153.103	-0.316	-0.022
-137.429	-200.000	0.025	0.186
-136.414	-104.704	0.326	-0.074
-135.399	17.246	-0.216	0.170
-134.385	-54.992	-0.193	0.086
-133.370	-7.804	-0.234	-0.157
-132.356	-130.562	-0.055	0.007
-131.341	-57.979	0.112	-0.048
-130.326	-144.189	-0.228	0.021
-129.312	-17.663	0.265	-0.164
-128.297	800.000	0.119	-0.457
-127.283	156.896	0.209	0.285
-126.268	800.000	0.083	-0.283
-125.253	-48.805	-0.103	0.049
-124.239	221.844	-0.117	0.186
-123.224	-28.015	0.136	0.078
-122.210	800.000	-0.106	-0.432
