DTS Sentinel unit serial number:	SN413079Multiplexer serial number:	ORYXHardware model number:	OX4-SRSoftware version number:	ORYX F/W v4.00 Oryx Data Collector v3.7.2.0data status	okinstallation	princeton_trtdifferential loss correction	single-endedforward channel	channel 4reverse channel	N/Adate	2019/09/16time	18:13:35forward acquisition time	60.00reverse acquisition time	0.00gamma	496.2192k internal	0.2300k external	0.2300temperature offset calibration	0.9951default loss term (dB/km)	0.3790temperature slope calibration	1.0000multiplexer offset coefficient	1.0000multiplexer slope coefficient	1.0000fibre end	0.00T internal ref (°C)	37.19T ext. ref 1 (°C)	15.73T ext. ref 2 (°C)	30.75length (m)	temperature (°C)	Stokes	anti-Stokes-747.200	7.034	0.204	0.155
-746.185	-53.334	-0.211	-0.099
-745.171	-123.794	-0.443	-0.071
-744.156	436.087	-0.282	0.626
-743.142	-69.452	-0.332	0.130
-742.127	112.723	-0.304	0.375
-741.112	127.133	0.017	0.022
-740.098	-29.920	0.288	0.168
-739.083	86.239	-0.164	0.184
-738.069	-137.170	0.454	-0.053
-737.054	-111.568	-0.180	-0.037
-736.039	-79.690	-0.231	-0.079
-735.025	-169.063	-0.302	-0.011
-734.010	-33.025	-0.386	0.218
-732.996	25.477	-0.159	0.135
-731.981	132.788	-0.084	0.110
-730.966	799.474	0.108	0.305
-729.952	-48.631	0.172	-0.084
-728.937	-75.987	-0.385	-0.139
-727.923	-200.000	0.035	-0.199
-726.908	-200.000	-0.028	-0.349
-725.894	-9.725	-0.040	-0.027
-724.879	-200.000	0.016	0.235
-723.864	-46.878	-0.165	0.082
-722.850	8.722	-0.165	0.127
-721.835	-105.243	-0.275	-0.064
-720.821	-130.019	-0.363	0.051
-719.806	65.615	-0.333	-0.344
-718.791	-65.580	-0.211	-0.086
-717.777	-45.947	-0.282	0.142
-716.762	-200.000	0.082	0.590
-715.748	-168.187	-0.344	-0.014
-714.733	-131.392	0.414	-0.056
-713.718	38.694	-0.160	-0.145
-712.704	-114.683	0.284	0.055
-711.689	348.389	-0.207	-0.416
-710.675	-200.000	-0.034	0.165
-709.660	325.322	-0.025	0.048
-708.645	107.988	0.062	-0.075
-707.631	14.395	-0.084	0.067
-706.616	50.235	-0.224	-0.215
-705.602	23.149	-0.190	0.159
-704.587	800.000	-0.132	-0.388
-703.572	137.305	-0.207	-0.275
-702.558	237.418	0.096	-0.163
-701.543	800.000	-0.040	-0.176
-700.529	-200.000	0.042	0.288
-699.514	283.463	-0.144	0.263
-698.499	-200.000	0.015	0.072
-697.485	-200.000	0.000	0.121
-696.470	365.601	-0.122	-0.250
-695.456	-200.000	-0.011	-0.200
-694.441	-130.947	-0.118	-0.016
-693.426	-157.559	0.093	0.006
-692.412	-47.281	0.278	-0.138
-691.397	-88.860	-0.106	0.032
-690.383	262.926	-0.097	-0.171
-689.368	-200.000	0.008	-0.091
-688.354	150.976	-0.188	-0.260
-687.339	-54.128	0.056	-0.026
-686.324	64.519	0.059	0.060
-685.310	-132.080	0.277	0.037
-684.295	-200.000	0.010	0.063
-683.281	402.020	0.079	-0.169
-682.266	19.961	-0.316	0.259
-681.251	272.024	-0.186	0.334
-680.237	800.000	-0.060	0.249
-679.222	-73.976	-0.450	0.166
-678.208	37.480	0.010	0.009
-677.193	-200.000	-0.047	-0.289
-676.178	-200.000	0.014	-0.174
-675.164	-115.147	0.395	0.076
-674.149	-200.000	-0.065	0.291
-673.135	185.939	0.152	0.229
-672.120	800.000	0.043	0.175
-671.105	800.000	-0.072	-0.228
-670.091	76.514	-0.199	0.215
-669.076	-194.595	-0.210	0.002
-668.062	-200.000	0.006	-0.245
-667.047	800.000	-0.022	-0.087
-666.032	-79.960	-0.044	-0.015
-665.018	228.722	0.191	0.317
-664.003	-112.251	-0.247	-0.050
-662.989	-130.929	0.233	-0.032
-661.974	-200.000	0.015	0.075
-660.959	-43.799	-0.368	0.188
-659.945	346.709	0.069	-0.139
-658.930	224.591	-0.120	0.197
-657.916	-200.000	-0.033	-0.172
-656.901	800.000	-0.089	-0.312
-655.886	449.308	-0.066	0.148
-654.872	-115.067	-0.096	0.018
-653.857	-76.199	0.140	0.050
-652.843	-166.096	0.097	0.004
-651.828	179.838	0.137	-0.204
-650.814	-200.000	-0.277	0.001
-649.799	-60.255	-0.319	-0.138
-648.784	-133.596	0.251	0.032
-647.770	-200.000	0.002	-0.451
-646.755	21.343	-0.241	0.199
-645.741	97.989	-0.113	-0.132
-644.726	107.463	0.223	0.270
-643.711	-200.000	0.004	0.182
-642.697	-200.000	0.010	-0.060
-641.682	-93.162	0.020	-0.006
-640.668	64.720	0.071	0.072
-639.653	150.458	-0.036	0.050
-638.638	-149.365	-0.265	-0.021
-637.624	167.569	0.111	0.160
-636.609	304.214	-0.119	0.224
-635.595	156.735	0.149	0.210
-634.580	-110.891	0.365	0.076
-633.565	-75.282	-0.140	0.051
-632.551	-128.176	-0.210	-0.030
-631.536	288.618	-0.161	-0.295
-630.522	-110.090	0.057	0.012
-629.507	-200.000	-0.038	-0.253
-628.492	-200.000	-0.009	-0.336
-627.478	-8.627	-0.240	0.164
-626.463	-81.429	0.174	0.058
-625.449	-105.076	0.087	0.020
-624.434	14.570	0.125	-0.099
-623.419	14.067	-0.198	-0.157
-622.405	-151.727	0.286	0.021
-621.390	585.149	-0.094	0.235
-620.376	-200.000	0.006	0.112
-619.361	-60.776	0.272	-0.117
-618.346	-102.069	0.316	-0.077
-617.332	-106.342	-0.250	-0.057
-616.317	-157.052	0.329	-0.020
-615.303	-43.409	0.189	0.097
-614.288	-138.903	-0.219	0.024
-613.273	2.596	-0.211	-0.155
-612.259	-200.000	-0.034	0.180
-611.244	-200.000	-0.005	-0.274
-610.230	-42.225	-0.051	-0.026
-609.215	-200.000	-0.073	0.476
-608.201	-200.000	0.007	-0.237
-607.186	-161.013	0.341	-0.018
-606.171	82.231	0.233	0.257
-605.157	-112.629	-0.029	-0.006
-604.142	184.520	-0.168	0.253
-603.128	-41.704	-0.117	-0.061
-602.113	-8.507	0.254	-0.173
-601.098	-65.072	0.241	-0.099
-600.084	-200.000	0.022	0.203
-599.069	800.000	0.013	0.047
-598.055	36.268	-0.283	-0.253
-597.040	103.912	-0.203	-0.242
-596.025	-82.047	-0.077	0.026
-595.011	7.639	-0.059	0.045
-593.996	2.916	0.163	0.120
-592.982	185.091	-0.209	0.314
-591.967	-83.848	0.117	0.038
-590.952	-200.000	-0.019	0.124
-589.938	-130.327	-0.244	-0.034
-588.923	577.888	-0.066	0.164
-587.909	354.071	-0.114	-0.229
-586.894	-200.000	-0.034	-0.287
-585.879	-105.347	-0.114	-0.026
-584.865	-20.011	-0.260	0.163
-583.850	-200.000	0.005	0.187
-582.836	131.982	0.206	-0.268
-581.821	-200.000	0.003	0.048
-580.806	366.688	0.077	-0.157
-579.792	119.821	0.189	-0.238
-578.777	-49.090	0.054	0.026
-577.763	-49.632	-0.179	0.086
-576.748	-12.153	-0.165	-0.109
-575.733	303.900	-0.107	-0.201
-574.719	11.131	0.251	-0.195
-573.704	-200.000	-0.001	0.126
-572.690	-83.122	0.247	0.080
-571.675	-84.356	0.106	0.034
-570.661	-200.000	0.021	0.163
-569.646	-58.806	0.196	0.086
-568.631	-144.338	-0.393	0.037
-567.617	-200.000	0.033	0.294
-566.602	-112.256	0.244	-0.050
-565.588	345.728	-0.070	-0.139
-564.573	-114.793	-0.218	0.042
-563.558	-200.000	0.096	-0.441
-562.544	-200.000	-0.026	-0.434
-561.529	349.826	-0.100	-0.200
-560.515	65.773	-0.134	-0.137
-559.500	101.037	0.160	0.189
-558.485	250.451	-0.129	-0.222
-557.471	54.771	0.169	0.165
-556.456	-200.000	0.167	-0.000
-555.442	-147.018	-0.104	-0.009
-554.427	-81.993	-0.496	-0.164
-553.412	800.000	0.064	-0.202
-552.398	149.164	0.248	-0.340
-551.383	-44.273	-0.062	0.031
-550.369	-76.919	-0.081	0.029
-549.354	-200.000	0.056	-0.441
-548.339	145.039	-0.170	-0.230
-547.325	-101.635	0.295	0.072
-546.310	132.799	0.230	0.300
-545.296	83.512	-0.285	-0.314
-544.281	77.591	-0.125	0.134
-543.266	-14.918	-0.223	-0.144
-542.252	103.112	-0.132	0.157
-541.237	800.000	-0.135	-0.391
-540.223	136.565	0.185	-0.244
-539.208	83.283	0.113	0.125
-538.193	-2.041	-0.133	0.094
-537.179	-182.396	0.518	0.010
-536.164	245.353	-0.071	-0.120
-535.150	-74.226	-0.221	0.081
-534.135	800.000	0.100	0.440
-533.121	-83.736	-0.358	0.116
-532.106	-107.616	-0.027	0.006
-531.091	64.831	0.147	0.150
-530.077	77.150	-0.164	0.177
-529.062	145.802	-0.187	0.253
-528.048	-200.000	-0.000	-0.142
-527.033	-200.000	0.151	0.001
-526.018	556.062	0.082	-0.200
-525.004	325.678	-0.204	-0.394
-523.989	773.435	-0.066	-0.183
-522.975	-200.000	0.022	-0.295
-521.960	98.267	0.194	0.225
-520.945	800.000	-0.086	-0.239
-519.931	-200.000	0.015	0.155
-518.916	753.192	0.080	0.219
-517.902	-81.231	-0.061	0.020
-516.887	-166.923	-0.260	-0.011
-515.872	389.911	0.187	0.391
-514.858	-200.000	0.042	0.251
-513.843	800.000	-0.043	0.160
-512.829	-200.000	0.050	-0.261
-511.814	800.000	0.053	0.172
-510.799	-14.364	-0.110	0.071
-509.785	252.629	-0.071	0.122
-508.770	-101.176	0.108	0.027
-507.756	-200.000	0.016	0.140
-506.741	800.000	-0.104	0.294
-505.726	-72.962	-0.240	-0.089
-504.712	-165.242	0.258	-0.012
-503.697	484.794	-0.136	-0.312
-502.683	318.713	0.093	-0.177
-501.668	-157.281	-0.229	-0.014
-500.653	719.052	0.083	-0.223
-499.639	-61.645	0.164	0.069
-498.624	-20.210	0.236	0.147
-497.610	-56.078	0.200	-0.090
-496.595	231.184	0.070	-0.115
-495.581	-25.587	-0.239	0.143
-494.566	483.112	-0.042	-0.097
-493.551	301.634	-0.065	0.121
-492.537	74.751	-0.132	-0.140
-491.522	800.000	0.073	-0.217
-490.508	-200.000	0.008	0.356
-489.493	58.268	0.117	0.116
-488.478	800.000	-0.062	-0.262
-487.464	800.000	-0.036	0.148
-486.449	-143.141	0.296	-0.029
-485.435	-63.198	0.070	0.029
-484.420	-183.616	0.226	0.004
-483.405	800.000	-0.090	-0.259
-482.391	-31.335	0.239	-0.136
-481.376	43.142	0.042	-0.039
-480.362	-108.175	-0.172	0.038
-479.347	-200.000	0.017	-0.100
-478.332	-82.438	-0.088	-0.029
-477.318	800.000	-0.127	0.380
-476.303	-34.566	0.092	0.051
-475.289	800.000	0.091	-0.264
-474.274	-81.094	-0.239	0.080
-473.259	-13.495	0.325	-0.213
-472.245	800.000	-0.047	-0.138
-471.230	293.673	0.095	0.176
-470.216	218.852	-0.141	-0.227
-469.201	229.713	0.022	0.037
-468.186	407.516	-0.070	0.148
-467.172	113.212	-0.139	-0.170
-466.157	-173.417	0.235	0.007
-465.143	-76.024	0.102	-0.037
-464.128	166.708	0.108	-0.155
-463.113	349.031	0.130	-0.259
-462.099	-67.218	-0.146	-0.058
-461.084	-117.952	0.448	0.081
-460.070	41.972	0.065	-0.059
-459.055	-95.649	-0.283	0.076
-458.040	-88.954	0.201	0.060
-457.026	-200.000	0.155	0.000
-456.011	294.999	-0.073	-0.135
-454.997	271.444	-0.042	-0.075
-453.982	-200.000	0.039	0.318
-452.968	89.511	-0.102	0.115
-451.953	33.535	0.265	-0.232
-450.938	691.041	-0.212	0.560
-449.924	777.273	-0.091	-0.251
-448.909	24.958	-0.196	-0.164
-447.895	260.008	0.097	0.169
-446.880	-143.727	0.104	-0.010
-445.865	-97.949	-0.106	-0.028
-444.851	-57.100	-0.057	-0.025
-443.836	-31.188	-0.029	0.016
-442.822	294.001	0.036	0.066
-441.807	-200.000	0.003	-0.065
-440.792	93.194	-0.292	0.332
-439.778	174.502	0.096	0.140
-438.763	-164.163	-0.112	-0.005
-437.749	16.610	-0.136	-0.108
-436.734	800.000	0.107	-0.309
-435.719	-54.167	0.187	0.086
-434.705	-134.282	-0.135	0.017
-433.690	268.304	0.304	0.537
-432.676	-121.857	-0.137	-0.023
-431.661	24.467	0.065	-0.054
-430.646	-200.000	0.032	0.244
-429.632	-130.973	-0.139	-0.019
-428.617	-48.902	-0.286	-0.138
-427.603	85.603	0.145	-0.161
-426.588	-46.351	-0.074	-0.037
-425.573	-53.408	-0.163	0.075
-424.559	-10.168	0.288	0.193
-423.544	86.498	-0.023	0.025
-422.530	-108.557	0.192	0.042
-421.515	800.000	0.080	0.280
-420.500	800.000	0.085	-0.369
-419.486	-200.000	0.032	-0.174
-418.471	-20.618	0.112	-0.069
-417.457	-200.000	0.080	-0.393
-416.442	-128.634	0.111	-0.016
-415.428	-200.000	-0.065	-0.308
-414.413	-54.876	0.153	0.069
-413.398	800.000	0.091	0.301
-412.384	-200.000	0.021	-0.232
-411.369	-134.047	-0.270	-0.034
-410.355	127.290	-0.097	0.124
-409.340	159.927	0.080	0.112
-408.325	-42.104	-0.113	0.058
-407.311	800.000	-0.007	0.021
-406.296	684.477	0.071	0.187
-405.282	39.015	0.233	0.209
-404.267	-97.300	-0.401	0.105
-403.252	-200.000	0.012	-0.208
-402.238	345.816	0.179	0.355
-401.223	-74.728	0.174	0.063
-400.209	0.560	-0.082	-0.059
-399.194	142.451	0.122	0.163
-398.179	-200.000	-0.014	-0.088
-397.165	-200.000	0.002	-0.351
-396.150	196.743	0.128	0.196
-395.136	507.558	0.044	0.102
-394.121	-82.526	0.038	0.013
-393.106	800.000	0.019	-0.062
-392.092	-26.796	0.135	0.080
-391.077	30.806	0.094	0.081
-390.063	800.000	-0.043	0.173
-389.048	-137.048	-0.231	-0.027
-388.033	-52.302	0.355	-0.166
-387.019	33.506	-0.105	0.092
-386.004	-76.191	0.286	0.102
-384.990	800.000	-0.063	-0.176
-383.975	-15.148	0.348	0.224
-382.960	-49.302	-0.149	0.071
-381.946	-107.358	-0.171	-0.038
-380.931	-87.927	-0.216	0.065
-379.917	-125.861	0.373	0.057
-378.902	-200.000	-0.008	0.134
-377.888	52.770	-0.187	0.179
-376.873	800.000	0.042	-0.133
-375.858	-23.463	0.380	-0.229
-374.844	81.663	0.202	0.220
-373.829	-95.075	-0.075	0.020
-372.815	615.130	0.074	-0.187
-371.800	-200.000	0.032	-0.211
-370.785	-200.000	-0.027	-0.168
-369.771	214.220	-0.218	0.346
-368.756	-153.354	0.203	-0.014
-367.742	-67.687	-0.196	-0.077
-366.727	7.768	0.207	-0.156
-365.712	-53.283	-0.139	0.064
-364.698	-90.846	0.097	0.028
-363.683	-17.755	0.303	0.191
-362.669	399.177	-0.129	0.272
-361.654	681.927	-0.142	-0.372
-360.639	104.568	-0.089	0.105
-359.625	-85.657	0.218	-0.068
-358.610	-200.000	-0.007	-0.056
-357.596	18.771	0.354	0.285
-356.581	-98.882	0.133	-0.034
-355.566	-119.306	-0.150	-0.026
-354.552	800.000	-0.071	0.227
-353.537	658.982	-0.063	0.162
-352.523	-68.471	-0.147	0.057
-351.508	-96.040	-0.064	-0.017
-350.493	274.200	0.104	-0.185
-349.479	-200.000	-0.003	-0.430
-348.464	-78.348	0.196	0.068
-347.450	-91.898	-0.092	-0.026
-346.435	-134.269	-0.044	-0.005
-345.420	-200.000	-0.013	0.369
-344.406	-155.733	-0.356	0.023
-343.391	-67.442	0.237	-0.093
-342.377	-24.607	-0.477	0.285
-341.362	216.238	-0.120	-0.191
-340.348	-200.000	-0.031	-0.203
-339.333	800.000	0.055	-0.222
-338.318	528.230	0.072	-0.171
-337.304	800.000	-0.034	-0.100
-336.289	-100.665	0.258	-0.064
-335.275	-39.293	-0.192	0.101
-334.260	-136.265	-0.032	0.004
-333.245	51.210	0.043	0.041
-332.231	211.316	0.052	0.082
-331.216	209.346	-0.084	-0.132
-330.202	333.052	-0.046	0.089
-329.187	-119.487	0.462	0.080
-328.172	-102.532	-0.066	0.016
-327.158	-160.615	0.138	0.007
-326.143	88.030	-0.242	-0.269
-325.129	692.285	-0.129	-0.339
-324.114	-200.000	0.043	-0.206
-323.099	40.513	0.475	-0.429
-322.085	74.241	0.149	-0.157
-321.070	418.388	0.109	0.234
-320.056	399.388	-0.041	0.087
-319.041	-140.658	-0.411	-0.043
-318.026	800.000	-0.121	-0.385
-317.012	381.982	-0.100	-0.207
-315.997	180.907	-0.187	0.276
-314.983	800.000	-0.086	0.328
-313.968	-34.136	-0.148	0.082
-312.953	590.488	0.069	0.170
-311.939	-200.000	0.045	0.304
-310.924	-200.000	0.001	0.179
-309.910	592.760	0.100	-0.247
-308.895	-96.160	0.059	-0.016
-307.880	748.837	0.053	0.144
-306.866	118.657	0.135	0.167
-305.851	188.706	0.037	0.055
-304.837	5.366	-0.466	0.344
-303.822	-8.908	-0.144	-0.097
-302.807	119.532	0.314	0.390
-301.793	307.179	-0.073	-0.137
-300.778	-200.000	0.039	-0.249
-299.764	-200.000	-0.012	0.376
-298.749	-59.249	0.219	-0.095
-297.735	-200.000	-0.003	-0.136
-296.720	800.000	0.037	0.128
-295.705	247.496	-0.037	0.062
-294.691	-200.000	-0.026	0.193
-293.676	-200.000	0.010	0.053
-292.662	-200.000	-0.044	-0.248
-291.647	144.452	-0.204	0.273
-290.632	-200.000	-0.065	0.509
-289.618	-200.000	-0.031	0.366
-288.603	-200.000	-0.023	0.152
-287.589	165.186	-0.111	-0.158
-286.574	7.987	0.283	-0.213
-285.559	113.071	-0.165	-0.201
-284.545	800.000	0.040	-0.133
-283.530	-27.021	0.270	-0.158
-282.516	64.215	-0.243	-0.245
-281.501	390.986	-0.057	-0.119
-280.486	37.548	0.144	-0.128
-279.472	70.483	-0.258	-0.267
-278.457	450.222	-0.104	0.230
-277.443	-200.000	-0.021	0.210
-276.428	-109.469	-0.385	-0.082
-275.413	800.000	0.065	0.216
-274.399	17.214	0.256	-0.204
-273.384	379.368	-0.092	-0.188
-272.370	-18.557	-0.118	0.074
-271.355	-200.000	0.001	-0.016
-270.340	609.087	-0.087	-0.217
-269.326	-200.000	-0.001	-0.140
-268.311	-68.250	0.127	0.050
-267.297	800.000	0.008	-0.023
-266.282	-200.000	0.076	-0.387
-265.267	-97.441	0.078	-0.020
-264.253	-63.050	-0.414	-0.171
-263.238	-4.224	0.234	-0.162
-262.224	156.204	-0.231	0.319
-261.209	-76.697	-0.290	0.102
-260.195	8.317	0.070	0.053
-259.180	97.311	-0.249	0.286
-258.165	-200.000	0.028	0.275
-257.151	-137.537	0.142	0.016
-256.136	-200.000	-0.001	0.076
-255.122	-36.675	-0.081	0.043
-254.107	107.191	0.082	0.098
-253.092	-200.000	0.058	-0.279
-252.078	-200.000	-0.008	-0.036
-251.063	-129.634	0.421	-0.058
-250.049	-200.000	-0.021	0.216
-249.034	47.010	0.126	0.117
-248.019	79.151	-0.216	-0.232
-247.005	800.000	-0.042	0.174
-245.990	-83.043	0.382	-0.123
-244.976	-79.782	-0.136	-0.046
-243.961	-74.660	0.283	-0.102
-242.946	-200.000	0.002	-0.232
-241.932	231.012	-0.121	0.198
-240.917	114.233	0.192	-0.233
-239.903	7.836	-0.090	-0.067
-238.888	-80.510	0.215	-0.072
-237.873	-200.000	-0.029	0.247
-236.859	20.547	0.147	-0.119
-235.844	-200.000	-0.016	0.144
-234.830	800.000	0.064	0.226
-233.815	-64.209	-0.411	0.167
-232.800	-200.000	-0.034	-0.237
-231.786	-37.344	0.313	-0.167
-230.771	-200.000	0.026	0.227
-229.757	-76.709	-0.141	-0.049
-228.742	-200.000	-0.000	0.231
-227.727	-147.024	0.179	0.015
-226.713	-124.274	-0.312	0.049
-225.698	320.786	-0.064	0.121
-224.684	165.611	-0.129	0.182
-223.669	135.566	-0.222	-0.289
-222.655	-86.030	-0.130	0.040
-221.640	147.211	0.216	-0.290
-220.625	172.128	0.089	0.128
-219.611	18.678	0.363	-0.290
-218.596	-106.012	0.202	-0.045
-217.582	-200.000	0.014	0.070
-216.567	147.237	-0.137	-0.184
-215.552	-118.391	-0.220	0.039
-214.538	64.971	-0.248	-0.250
-213.523	79.193	0.080	0.086
-212.509	686.746	0.060	0.156
-211.494	-87.443	0.056	-0.017
-210.479	-58.558	-0.196	0.085
-209.465	-51.918	0.224	-0.104
-208.450	247.740	-0.107	0.180
-207.436	20.718	-0.157	-0.127
-206.421	190.357	-0.178	-0.267
-205.406	800.000	0.010	-0.044
-204.392	-200.000	-0.083	0.434
-203.377	-183.716	-0.459	0.008
-202.363	-200.000	-0.003	0.075
-201.348	-76.319	-0.190	0.067
-200.333	-31.220	-0.144	-0.081
-199.319	-104.440	-0.200	-0.046
-198.304	-4.403	0.231	-0.159
-197.290	-119.754	0.237	-0.041
-196.275	252.964	-0.116	0.198
-195.260	399.746	-0.083	0.173
-194.246	126.823	0.285	0.360
-193.231	-49.820	0.204	0.097
-192.217	-200.000	0.009	-0.080
-191.202	594.501	0.069	-0.170
-190.187	404.445	0.109	0.228
-189.173	-200.000	0.022	-0.177
-188.158	-190.713	-0.190	-0.002
-187.144	494.026	-0.073	-0.168
-186.129	173.800	-0.154	-0.222
-185.114	800.000	-0.088	-0.314
-184.100	-33.384	0.645	0.356
-183.085	17.655	0.092	0.073
-182.071	-48.544	-0.216	-0.104
-181.056	172.903	0.121	0.174
-180.042	88.453	-0.125	-0.138
-179.027	-38.281	0.078	0.041
-178.012	38.296	0.148	0.131
-176.998	-200.000	0.047	0.438
-175.983	-131.357	0.198	-0.026
-174.969	-36.391	0.194	-0.104
-173.954	50.931	-0.207	0.195
-172.939	-92.070	0.189	-0.053
-171.925	785.175	-0.124	0.338
-170.910	119.126	-0.068	-0.084
-169.896	-13.966	-0.306	-0.197
-168.881	342.855	-0.024	-0.047
-167.866	-200.000	0.013	-0.069
-166.852	800.000	-0.062	-0.184
-165.837	7.727	-0.194	0.145
-164.823	-126.771	0.141	0.021
-163.808	632.793	-0.090	0.228
-162.793	-5.378	0.177	0.121
-161.779	-200.000	0.020	-0.156
-160.764	-124.490	-0.356	0.055
-159.750	-18.674	-0.201	0.125
-158.735	21.311	-0.258	-0.209
-157.720	17.509	-0.268	0.213
-156.706	598.072	0.199	0.492
-155.691	-22.381	-0.027	0.016
-154.677	293.091	-0.134	-0.244
-153.662	-200.000	-0.028	-0.223
-152.647	-98.387	0.260	0.066
-151.633	800.000	-0.049	-0.176
-150.618	-200.000	-0.051	-0.250
-149.604	9.684	0.135	0.102
-148.589	604.605	-0.129	0.321
-147.574	-200.000	0.006	0.155
-146.560	-112.069	-0.054	0.011
-145.545	-82.409	0.085	0.027
-144.531	146.386	-0.319	0.427
-143.516	258.498	0.184	0.316
-142.502	210.204	0.049	0.076
-141.487	303.415	0.261	0.481
-140.472	41.832	0.169	-0.153
-139.458	-165.441	-0.421	-0.018
-138.443	-56.957	0.081	-0.036
-137.429	465.622	0.073	-0.163
-136.414	-154.088	0.341	0.023
-135.399	-152.256	0.450	-0.032
-134.385	123.670	0.199	-0.249
-133.370	-132.217	0.153	0.020
-132.356	145.150	-0.134	-0.178
-131.341	224.982	0.041	0.066
-130.326	800.000	-0.028	-0.078
-129.312	-200.000	-0.014	-0.174
-128.297	104.386	0.373	0.437
-127.283	499.309	-0.119	0.274
-126.268	-200.000	0.007	0.275
-125.253	-117.358	0.052	-0.009
-124.239	-5.985	0.066	0.045
-123.224	-58.725	0.241	-0.104
-122.210	206.152	-0.038	0.058
