DTS Sentinel unit serial number:	SN413079Multiplexer serial number:	ORYXHardware model number:	OX4-SRSoftware version number:	ORYX F/W v4.00 Oryx Data Collector v3.7.2.0data status	okinstallation	princeton_trtdifferential loss correction	single-endedforward channel	channel 4reverse channel	N/Adate	2019/09/14time	12:21:35forward acquisition time	60.00reverse acquisition time	0.00gamma	496.2192k internal	0.2293k external	0.2293temperature offset calibration	1.0156default loss term (dB/km)	0.3790temperature slope calibration	1.0000multiplexer offset coefficient	1.0000multiplexer slope coefficient	1.0000fibre end	0.00T internal ref (°C)	37.75T ext. ref 1 (°C)	4.76T ext. ref 2 (°C)	34.72length (m)	temperature (°C)	Stokes	anti-Stokes-747.200	188.768	0.205	-0.314
-746.185	110.164	-0.121	0.148
-745.171	-1.981	-0.154	0.111
-744.156	-93.727	0.202	0.057
-743.142	-145.095	0.207	0.019
-742.127	114.094	0.098	0.122
-741.112	-83.782	0.206	-0.067
-740.098	-73.465	0.184	0.069
-739.083	106.442	-0.058	0.071
-738.069	122.138	-0.209	0.267
-737.054	306.931	-0.064	0.122
-736.039	-88.125	-0.179	-0.055
-735.025	-200.000	0.032	0.262
-734.010	-33.796	-0.032	-0.018
-732.996	162.991	-0.250	-0.360
-731.981	-200.000	-0.022	0.215
-730.966	-101.204	0.295	-0.074
-729.952	-134.032	0.124	0.016
-728.937	21.639	-0.045	-0.038
-727.923	-200.000	-0.019	-0.376
-726.908	9.633	0.130	0.100
-725.894	105.758	0.013	-0.016
-724.879	-51.228	0.082	-0.039
-723.864	800.000	0.014	0.047
-722.850	-64.184	0.326	-0.136
-721.835	157.093	-0.178	-0.251
-720.821	-14.446	0.108	-0.071
-719.806	264.353	-0.128	0.228
-718.791	5.980	0.212	-0.161
-717.777	73.420	0.030	0.032
-716.762	800.000	0.020	-0.074
-715.748	-137.648	0.064	-0.007
-714.733	-200.000	0.006	-0.036
-713.718	-200.000	0.008	0.043
-712.704	27.781	-0.156	-0.134
-711.689	154.668	-0.122	0.172
-710.675	800.000	-0.072	0.222
-709.660	418.367	0.126	-0.276
-708.645	214.616	0.061	-0.098
-707.631	260.556	-0.166	-0.293
-706.616	178.279	0.077	0.115
-705.602	275.670	0.101	-0.183
-704.587	-116.781	0.240	0.045
-703.572	800.000	-0.107	0.323
-702.558	295.515	-0.147	0.274
-701.543	800.000	0.083	-0.262
-700.529	-140.973	-0.157	-0.016
-699.514	77.240	0.116	-0.125
-698.499	87.472	-0.176	0.199
-697.485	-70.222	0.116	0.045
-696.470	-41.699	-0.287	0.150
-695.456	-81.729	-0.233	-0.078
-694.441	-91.816	0.365	-0.106
-693.426	57.285	0.129	0.129
-692.412	800.000	-0.056	0.171
-691.397	-140.321	0.252	-0.027
-690.383	132.011	-0.225	0.295
-689.368	694.345	-0.087	0.233
-688.354	-29.315	-0.043	0.025
-687.339	800.000	-0.047	-0.156
-686.324	-106.017	-0.076	0.018
-685.310	-151.268	0.227	0.017
-684.295	620.003	0.085	-0.218
-683.281	-200.000	-0.070	0.341
-682.266	-200.000	0.003	-0.169
-681.251	-134.594	-0.138	0.017
-680.237	-108.370	0.267	0.059
-679.222	-10.960	-0.266	0.179
-678.208	-200.000	0.019	0.242
-677.193	800.000	-0.080	-0.294
-676.178	-120.971	-0.137	-0.023
-675.164	187.519	0.037	-0.057
-674.149	52.336	-0.114	-0.111
-673.135	-120.251	0.056	-0.010
-672.120	-5.413	-0.319	-0.224
-671.105	-200.000	0.026	-0.253
-670.091	-87.869	0.270	-0.083
-669.076	70.984	-0.171	-0.181
-668.062	-184.367	-0.151	-0.003
-667.047	32.514	-0.208	-0.184
-666.032	105.011	0.248	-0.299
-665.018	735.870	0.084	0.229
-664.003	76.496	0.048	0.052
-662.989	60.899	-0.136	-0.137
-661.974	-135.711	-0.219	-0.026
-660.959	-62.786	0.101	0.043
-659.945	-62.346	0.091	-0.039
-658.930	-200.000	-0.005	-0.047
-657.916	-37.987	-0.183	-0.099
-656.901	118.503	-0.240	-0.302
-655.886	-86.195	-0.279	-0.088
-654.872	84.448	0.060	-0.067
-653.857	36.234	-0.235	0.211
-652.843	13.369	-0.155	-0.122
-651.828	-96.333	0.248	0.067
-650.814	800.000	0.028	-0.117
-649.799	800.000	-0.114	-0.473
-648.784	-17.660	0.270	0.173
-647.770	-200.000	-0.374	-0.002
-646.755	-200.000	-0.025	-0.159
-645.741	424.493	-0.104	-0.228
-644.726	56.976	-0.044	0.044
-643.711	800.000	-0.095	0.319
-642.697	800.000	-0.085	-0.291
-641.682	-144.780	0.325	-0.030
-640.668	-73.917	-0.291	-0.108
-639.653	518.748	-0.034	-0.081
-638.638	-15.851	0.205	0.133
-637.624	-54.212	-0.177	-0.082
-636.609	332.623	0.071	0.140
-635.595	-54.265	-0.178	0.082
-634.580	-65.028	-0.184	-0.076
-633.565	-155.753	-0.259	0.017
-632.551	800.000	-0.041	0.147
-631.536	-115.123	0.243	0.047
-630.522	-51.359	-0.282	0.134
-629.507	537.472	0.159	-0.384
-628.492	-200.000	0.357	-0.001
-627.478	58.462	0.151	-0.151
-626.463	71.573	0.138	-0.146
-625.449	-64.156	-0.140	-0.058
-624.434	-167.506	0.250	0.010
-623.419	195.230	-0.279	0.432
-622.405	-200.000	0.025	0.179
-621.390	32.774	0.134	-0.118
-620.376	50.533	-0.307	-0.296
-619.361	-16.044	-0.196	-0.127
-618.346	99.208	0.034	-0.040
-617.332	32.619	-0.064	-0.056
-616.317	-27.763	0.076	0.045
-615.303	188.677	0.166	-0.253
-614.288	-96.155	0.281	0.076
-613.273	25.766	0.043	-0.036
-612.259	-19.377	-0.070	-0.044
-611.244	-89.006	0.163	-0.049
-610.230	310.205	-0.097	-0.184
-609.215	-140.014	-0.355	0.038
-608.201	-107.754	0.178	0.039
-607.186	2.291	0.080	0.059
-606.171	524.293	0.190	0.454
-605.157	800.000	0.019	-0.081
-604.142	-26.971	0.192	0.114
-603.128	800.000	-0.079	0.224
-602.113	-144.263	-0.155	-0.015
-601.098	-90.742	-0.270	-0.079
-600.084	-200.000	-0.027	0.266
-599.069	54.558	-0.241	-0.237
-598.055	-129.335	-0.348	-0.049
-597.040	-58.718	-0.399	-0.176
-596.025	-47.046	0.080	-0.040
-595.011	-200.000	-0.010	0.098
-593.996	-36.466	-0.146	0.080
-592.982	800.000	0.039	-0.119
-591.967	102.613	-0.092	0.110
-590.952	-118.095	0.118	0.021
-589.938	-98.450	-0.069	-0.018
-588.923	-70.523	-0.103	0.040
-587.909	51.930	0.216	-0.209
-586.894	-83.695	-0.215	0.070
-585.879	207.726	-0.059	-0.094
-584.865	253.892	-0.135	0.235
-583.850	-124.993	-0.145	0.023
-582.836	-165.435	0.040	0.002
-581.821	-149.648	-0.199	0.016
-580.806	800.000	-0.065	0.203
-579.792	-113.687	0.149	0.030
-578.777	20.169	-0.175	0.143
-577.763	-200.000	0.041	0.378
-576.748	800.000	0.015	0.047
-575.733	-118.402	0.552	-0.100
-574.719	162.785	-0.086	-0.123
-573.704	-200.000	-0.014	0.298
-572.690	-117.737	0.176	0.032
-571.675	7.438	-0.095	-0.072
-570.661	-200.000	0.022	0.230
-569.646	-8.745	0.080	-0.054
-568.631	2.712	-0.230	-0.170
-567.617	-200.000	0.020	-0.198
-566.602	239.120	0.008	0.014
-565.588	245.320	-0.255	0.436
-564.573	25.876	-0.077	0.065
-563.558	-0.057	0.190	-0.137
-562.544	800.000	0.043	-0.138
-561.529	233.223	-0.131	0.219
-560.515	-0.479	-0.196	0.142
-559.500	233.213	-0.128	-0.214
-558.485	200.290	-0.012	-0.019
-557.471	3.553	-0.032	-0.024
-556.456	-151.052	0.105	0.008
-555.442	28.091	0.196	0.168
-554.427	-50.128	0.116	0.056
-553.412	43.226	0.270	-0.250
-552.398	93.253	-0.128	0.147
-551.383	192.461	0.027	0.041
-550.369	-107.126	-0.189	-0.042
-549.354	-200.000	-0.004	0.118
-548.339	366.545	-0.111	0.227
-547.325	358.415	0.188	-0.382
-546.310	800.000	0.139	-0.426
-545.296	-63.502	-0.064	0.027
-544.281	-200.000	-0.054	0.314
-543.266	-200.000	-0.017	0.275
-542.252	-69.193	-0.042	-0.016
-541.237	119.727	0.264	0.332
-540.223	107.575	0.163	-0.197
-539.208	87.956	0.145	-0.164
-538.193	800.000	0.064	-0.185
-537.179	-58.135	0.051	-0.023
-536.164	-75.763	-0.157	0.056
-535.150	-11.958	0.143	0.095
-534.135	49.302	0.265	-0.253
-533.121	33.512	-0.168	-0.148
-532.106	130.427	-0.168	-0.219
-531.091	-200.000	0.020	-0.331
-530.077	-125.678	0.364	0.056
-529.062	14.070	0.092	0.073
-528.048	250.434	-0.195	0.335
-527.033	-60.265	-0.297	-0.128
-526.018	-44.153	0.214	0.109
-525.004	-41.279	0.279	-0.146
-523.989	-2.452	-0.157	0.111
-522.975	-14.274	0.133	-0.087
-521.960	-106.930	-0.153	0.034
-520.945	75.063	0.145	0.155
-519.931	233.067	-0.056	-0.093
-518.916	-118.711	-0.116	-0.021
-517.902	-200.000	0.029	0.170
-516.887	413.400	-0.097	0.209
-515.872	800.000	0.024	-0.076
-514.858	-46.775	-0.397	-0.197
-513.843	-200.000	0.057	-0.506
-512.829	-102.699	-0.203	0.049
-511.814	559.248	0.047	-0.114
-510.799	56.978	0.114	-0.113
-509.785	800.000	-0.052	0.168
-508.770	562.981	0.126	0.309
-507.756	18.586	-0.105	0.085
-506.741	-48.943	-0.056	-0.027
-505.726	42.174	0.128	-0.118
-504.712	8.562	0.125	-0.096
-503.697	8.361	0.173	-0.132
-502.683	-200.000	0.057	0.454
-501.668	-9.890	-0.252	-0.170
-500.653	25.814	0.095	-0.080
-499.639	-133.101	0.118	-0.015
-498.624	32.201	0.155	0.135
-497.610	3.058	0.228	-0.168
-496.595	-200.000	0.037	0.172
-495.581	39.493	-0.020	-0.018
-494.566	117.377	-0.097	-0.121
-493.551	800.000	-0.050	0.147
-492.537	-200.000	0.045	-0.218
-491.522	55.115	-0.195	0.191
-490.508	-118.803	0.179	0.032
-489.493	800.000	-0.032	0.118
-488.478	-21.181	-0.092	-0.057
-487.464	800.000	0.024	-0.085
-486.449	-83.606	-0.324	-0.105
-485.435	-64.383	-0.246	0.101
-484.420	48.007	0.166	0.158
-483.405	76.626	0.085	-0.091
-482.391	-20.539	0.037	-0.023
-481.376	-200.000	-0.007	-0.333
-480.362	494.521	0.085	0.197
-479.347	148.555	-0.035	-0.048
-478.332	-35.987	-0.128	-0.070
-477.318	18.012	0.214	0.173
-476.303	-54.466	0.019	-0.009
-475.289	28.515	0.194	0.166
-474.274	-171.644	-0.246	-0.008
-473.259	127.408	-0.127	-0.164
-472.245	-65.807	0.195	-0.079
-471.230	-200.000	0.030	0.356
-470.216	55.229	-0.071	-0.070
-469.201	-200.000	0.017	0.098
-468.186	71.669	0.137	-0.144
-467.172	268.879	-0.053	-0.094
-466.157	-118.193	-0.222	-0.040
-465.143	-62.646	0.484	-0.203
-464.128	-95.371	-0.348	-0.095
-463.113	770.035	0.090	0.248
-462.099	353.871	-0.127	-0.254
-461.084	-200.000	0.009	0.041
-460.070	-71.040	-0.284	-0.108
-459.055	-6.983	0.137	-0.094
-458.040	800.000	-0.068	-0.225
-457.026	-200.000	-0.030	0.174
-456.011	46.850	0.223	0.210
-454.997	11.457	-0.133	-0.103
-453.982	-196.291	0.435	-0.003
-452.968	45.916	0.291	0.272
-451.953	-153.544	0.238	-0.017
-450.938	299.370	0.168	0.313
-449.924	-34.681	-0.109	-0.060
-448.909	56.174	-0.053	-0.052
-447.895	193.837	-0.072	0.110
-446.880	-200.000	0.021	0.400
-445.865	-60.550	-0.101	-0.043
-444.851	272.104	-0.084	-0.150
-443.836	-37.989	-0.175	0.094
-442.822	-4.461	-0.175	0.122
-441.807	491.139	-0.037	0.087
-440.792	10.770	0.069	-0.053
-439.778	135.563	-0.085	-0.111
-438.763	800.000	0.069	-0.221
-437.749	-24.091	-0.174	-0.105
-436.734	-200.000	0.026	0.193
-435.719	-53.719	0.222	-0.102
-434.705	-72.787	0.154	0.057
-433.690	205.352	-0.042	-0.067
-432.676	759.439	0.080	-0.219
-431.661	175.521	0.036	-0.052
-430.646	-105.109	-0.175	-0.041
-429.632	58.956	0.075	-0.075
-428.617	-50.606	-0.042	0.020
-427.603	-159.446	0.191	0.011
-426.588	358.743	0.045	0.090
-425.573	-129.423	-0.320	-0.045
-424.559	131.055	0.077	-0.100
-423.544	-163.014	0.029	0.001
-422.530	-117.120	-0.412	-0.076
-421.515	-200.000	0.018	-0.297
-420.500	-75.440	-0.357	0.128
-419.486	151.232	0.166	0.229
-418.471	-200.000	0.064	0.286
-417.457	-46.435	0.256	-0.127
-416.442	-154.425	-0.355	0.024
-415.428	-142.679	0.208	0.021
-414.413	-83.458	0.270	-0.087
-413.398	582.562	-0.053	0.132
-412.384	-49.345	-0.233	0.112
-411.369	-200.000	0.031	0.184
-410.355	-200.000	0.021	-0.338
-409.340	-27.787	0.275	0.161
-408.325	90.591	0.212	0.240
-407.311	228.364	0.090	0.149
-406.296	-61.817	0.291	0.123
-405.282	-200.000	-0.008	-0.143
-404.267	-41.154	-0.156	0.081
-403.252	-119.775	-0.151	0.026
-402.238	-108.777	0.200	-0.043
-401.223	230.461	-0.085	0.140
-400.209	-200.000	-0.034	0.214
-399.194	669.165	-0.120	0.314
-398.179	142.924	-0.098	-0.132
-397.165	-19.192	-0.205	0.129
-396.150	-8.650	0.150	-0.102
-395.136	96.961	-0.160	0.186
-394.121	92.684	-0.052	-0.059
-393.106	608.808	0.106	0.268
-392.092	506.881	0.067	-0.156
-391.077	-97.422	-0.236	-0.062
-390.063	43.963	-0.224	-0.207
-389.048	325.917	-0.033	0.065
-388.033	-85.665	-0.294	0.092
-387.019	-100.114	0.092	-0.023
-386.004	-168.468	-0.077	0.003
-384.990	12.937	0.148	0.116
-383.975	-174.502	-0.267	0.008
-382.960	-80.057	-0.221	-0.075
-381.946	111.229	-0.179	0.217
-380.931	68.883	-0.128	0.132
-379.917	124.955	-0.171	-0.217
-378.902	-73.868	0.196	0.072
-377.888	428.486	-0.078	-0.170
-376.873	-38.190	-0.186	-0.099
-375.858	-24.996	0.380	-0.227
-374.844	-68.582	0.240	0.094
-373.829	-71.441	0.168	0.063
-372.815	76.442	0.037	-0.039
-371.800	-33.713	-0.183	-0.102
-370.785	-159.688	-0.185	0.010
-369.771	156.997	-0.141	-0.197
-368.756	-200.000	-0.018	-0.098
-367.742	-127.603	-0.072	-0.011
-366.727	-200.000	0.009	0.111
-365.712	314.741	0.197	0.373
-364.698	173.429	0.100	-0.145
-363.683	-125.330	0.431	-0.066
-362.669	-35.924	0.202	0.110
-361.654	800.000	0.106	-0.349
-360.639	-26.597	-0.346	0.204
-359.625	-200.000	-0.057	-0.258
-358.610	-200.000	0.029	-0.255
-357.596	-39.397	0.388	-0.205
-356.581	280.396	-0.096	-0.172
-355.566	-200.000	-0.018	-0.088
-354.552	283.981	0.127	-0.230
-353.537	-200.000	-0.019	0.172
-352.523	53.275	-0.169	-0.163
-351.508	-200.000	0.028	-0.413
-350.493	322.826	-0.131	-0.252
-349.479	-151.378	-0.166	-0.012
-348.464	-200.000	-0.043	-0.450
-347.450	-180.348	0.113	0.002
-346.435	-200.000	0.017	0.102
-345.420	178.421	-0.119	0.174
-344.406	-158.783	0.195	0.011
-343.391	800.000	0.066	-0.279
-342.377	330.509	0.135	-0.262
-341.362	43.602	0.075	-0.069
-340.348	-75.769	0.171	0.061
-339.333	115.421	0.172	-0.212
-338.318	307.382	-0.090	0.169
-337.304	-167.429	-0.095	0.004
-336.289	800.000	-0.082	-0.339
-335.275	-169.976	0.144	0.005
-334.260	-50.866	0.121	-0.057
-333.245	13.102	-0.271	-0.211
-332.231	771.448	-0.015	0.041
-331.216	390.602	-0.229	-0.478
-330.202	123.439	0.084	0.106
-329.187	-200.000	-0.028	-0.279
-328.172	-120.014	-0.356	-0.061
-327.158	663.222	0.041	0.108
-326.143	95.244	-0.106	-0.121
-325.129	229.822	-0.027	-0.044
-324.114	-11.909	-0.181	0.119
-323.099	800.000	-0.035	0.130
-322.085	-149.838	0.187	-0.015
-321.070	329.566	-0.102	0.197
-320.056	210.433	-0.063	-0.099
-319.041	216.376	-0.155	-0.248
-318.026	-67.443	-0.471	0.186
-317.012	-86.628	-0.236	0.073
-315.997	-112.890	0.111	0.022
-314.983	-200.000	0.168	-0.001
-313.968	-24.283	-0.326	-0.196
-312.953	-200.000	0.016	-0.155
-311.939	-27.228	0.131	0.077
-310.924	-95.805	0.229	-0.061
-309.910	-66.698	0.113	0.045
-308.895	-200.000	0.016	0.088
-307.880	-70.489	0.294	-0.112
-306.866	122.304	-0.205	-0.258
-305.851	-30.717	-0.169	0.096
-304.837	78.221	-0.271	0.291
-303.822	-30.715	-0.051	-0.029
-302.807	2.906	0.204	-0.149
-301.793	-115.270	0.155	0.029
-300.778	486.351	0.061	-0.139
-299.764	3.156	0.025	-0.019
-298.749	800.000	-0.082	0.353
-297.735	190.768	0.247	-0.373
-296.720	6.540	-0.145	0.108
-295.705	-200.000	0.014	0.177
-294.691	800.000	0.017	0.058
-293.676	321.707	-0.089	0.171
-292.662	-111.999	0.127	0.026
-291.647	-50.073	-0.223	0.106
-290.632	232.408	0.141	-0.233
-289.618	-76.689	0.282	0.099
-288.603	-200.000	-0.051	0.368
-287.589	100.111	-0.200	-0.233
-286.574	141.669	0.093	0.124
-285.559	-73.399	0.264	0.097
-284.545	-64.027	0.029	-0.012
-283.530	110.751	0.057	0.069
-282.516	-200.000	-0.052	0.235
-281.501	515.702	-0.021	0.050
-280.486	-135.716	0.274	-0.033
-279.472	718.212	0.090	0.240
-278.457	-92.213	0.127	-0.036
-277.443	-46.471	0.224	-0.111
-276.428	-200.000	0.006	-0.170
-275.413	37.411	0.144	0.128
-274.399	800.000	-0.090	-0.253
-273.384	800.000	-0.082	-0.305
-272.370	800.000	0.164	0.482
-271.355	800.000	-0.090	0.331
-270.340	-16.828	-0.148	-0.094
-269.326	-25.786	0.076	-0.045
-268.311	-143.714	0.324	0.031
-267.297	-200.000	-0.040	-0.185
-266.282	-200.000	0.065	-0.332
-265.267	91.267	0.250	0.282
-264.253	-138.733	-0.268	0.029
-263.238	379.840	-0.062	-0.128
-262.224	-56.351	-0.292	0.130
-261.209	-113.791	0.127	0.025
-260.195	-175.267	0.247	0.007
-259.180	302.036	-0.033	0.060
-258.165	-122.292	0.351	0.058
-257.151	88.989	0.146	-0.164
-256.136	-54.725	0.081	0.037
-255.122	34.981	-0.197	0.173
-254.107	-134.344	-0.219	0.027
-253.092	7.459	0.113	-0.085
-252.078	-103.634	0.214	0.050
-251.063	-98.451	0.245	-0.063
-250.049	65.976	-0.153	-0.156
-249.034	-122.971	-0.235	0.038
-248.019	59.534	0.348	0.345
-247.005	-101.574	-0.387	0.094
-245.990	1.987	-0.241	0.175
-244.976	800.000	-0.081	-0.231
-243.961	-64.521	-0.124	-0.050
-242.946	-66.058	0.234	-0.094
-241.932	76.909	0.044	0.047
-240.917	12.221	-0.285	-0.220
-239.903	221.680	0.229	-0.369
-238.888	189.299	-0.072	-0.108
-237.873	800.000	0.085	0.240
-236.859	-200.000	-0.039	0.349
-235.844	800.000	0.149	0.452
-234.830	29.781	0.072	-0.062
-233.815	-129.508	-0.192	-0.027
-232.800	-152.692	0.090	-0.006
-231.786	800.000	0.062	0.234
-230.771	-200.000	-0.023	-0.148
-229.757	-8.508	-0.310	0.209
-228.742	-35.065	-0.073	0.040
-227.727	-0.655	0.421	0.299
-226.713	-200.000	0.028	-0.458
-225.698	-56.014	-0.012	-0.005
-224.684	-38.844	-0.154	-0.082
-223.669	105.721	-0.101	0.120
-222.655	800.000	-0.116	-0.337
-221.640	94.101	-0.157	-0.179
-220.625	10.322	-0.206	-0.157
-219.611	-3.317	0.225	-0.157
-218.596	93.928	-0.216	-0.245
-217.582	-144.304	0.154	0.014
-216.567	161.724	-0.172	0.241
-215.552	800.000	-0.053	0.168
-214.538	34.659	-0.188	0.164
-213.523	-136.362	0.564	0.066
-212.509	677.092	-0.071	-0.184
-211.494	-39.435	0.092	-0.048
-210.479	181.825	-0.057	-0.084
-209.465	135.160	0.161	0.209
-208.450	87.612	0.032	-0.036
-207.436	126.683	0.056	0.071
-206.421	-178.838	-0.113	-0.003
-205.406	-57.393	-0.035	0.016
-204.392	-117.027	0.141	0.026
-203.377	180.399	-0.126	0.186
-202.363	-200.000	-0.004	-0.234
-201.348	-149.718	0.264	-0.021
-200.333	-138.814	0.196	-0.021
-199.319	-37.220	-0.290	0.155
-198.304	383.528	-0.110	0.227
-197.290	-200.000	0.046	-0.228
-196.275	-200.000	-0.019	0.118
-195.260	800.000	0.147	0.427
-194.246	800.000	-0.074	0.215
-193.231	218.159	-0.059	0.094
-192.217	-19.864	0.183	-0.113
-191.202	-140.725	0.115	0.012
-190.187	-200.000	0.042	0.272
-189.173	-200.000	0.059	0.399
-188.158	194.222	-0.170	0.257
-187.144	-71.936	0.195	0.073
-186.129	-200.000	-0.009	0.099
-185.114	-53.693	-0.173	0.079
-184.100	-107.922	-0.383	-0.083
-183.085	800.000	-0.066	-0.192
-182.071	-200.000	-0.017	-0.174
-181.056	211.826	-0.193	0.304
-180.042	-140.038	0.315	0.033
-179.027	-64.352	0.273	-0.111
-178.012	90.230	0.284	0.318
-176.998	436.379	-0.065	0.141
-175.983	150.908	0.206	-0.281
-174.969	93.447	-0.048	-0.054
-173.954	298.294	0.114	0.210
-172.939	-144.481	-0.227	0.021
-171.925	800.000	-0.105	0.324
-170.910	-200.000	-0.010	0.139
-169.896	354.466	0.083	-0.165
-168.881	9.794	-0.058	-0.044
-167.866	-81.411	-0.238	-0.079
-166.852	800.000	-0.043	0.166
-165.837	-63.095	0.347	-0.143
-164.823	87.652	0.195	-0.216
-163.808	-107.922	-0.233	-0.051
-162.793	-200.000	0.019	0.092
-161.779	43.264	-0.051	0.047
-160.764	75.825	0.312	-0.330
-159.750	235.914	-0.063	0.104
-158.735	581.272	-0.081	-0.199
-157.720	-113.873	0.177	-0.034
-156.706	-33.658	0.316	-0.174
-155.691	759.932	0.082	0.222
-154.677	-92.422	-0.238	-0.067
-153.662	447.578	0.040	0.089
-152.647	-107.832	0.228	-0.050
-151.633	-97.430	-0.246	0.064
-150.618	-120.993	-0.178	0.030
-149.604	800.000	0.098	-0.286
-148.589	10.144	0.071	0.054
-147.574	-82.758	0.208	-0.067
-146.560	-200.000	-0.031	0.293
-145.545	479.721	0.079	-0.179
-144.531	-70.763	0.197	0.074
-143.516	429.312	0.099	0.215
-142.502	-77.427	0.129	-0.045
-141.487	800.000	-0.059	0.170
-140.472	-50.557	-0.125	0.059
-139.458	-200.000	0.020	0.245
-138.443	-83.545	-0.241	0.077
-137.429	-80.909	0.333	-0.110
-136.414	81.776	0.161	-0.174
-135.399	-128.577	-0.172	0.024
-134.385	-125.202	0.217	-0.033
-133.370	-157.163	-0.214	-0.013
-132.356	-200.000	-0.019	0.340
-131.341	-200.000	0.019	0.142
-130.326	93.920	0.163	-0.184
-129.312	-63.559	-0.336	0.138
-128.297	-97.434	-0.231	0.060
-127.283	-134.715	0.279	-0.034
-126.268	246.108	-0.015	-0.026
-125.253	242.778	0.132	-0.220
-124.239	-200.000	0.040	0.226
-123.224	461.062	-0.074	-0.164
-122.210	798.893	-0.047	-0.130
-121.195	-200.000	0.069	-0.470
