DTS Sentinel unit serial number:	SN413079Multiplexer serial number:	ORYXHardware model number:	OX4-SRSoftware version number:	ORYX F/W v4.00 Oryx Data Collector v3.7.2.0data status	okinstallation	princeton_trtdifferential loss correction	single-endedforward channel	channel 4reverse channel	N/Adate	2019/09/15time	08:01:35forward acquisition time	60.00reverse acquisition time	0.00gamma	496.2192k internal	0.2310k external	0.2310temperature offset calibration	1.0033default loss term (dB/km)	0.3790temperature slope calibration	1.0000multiplexer offset coefficient	1.0000multiplexer slope coefficient	1.0000fibre end	0.00T internal ref (°C)	30.75T ext. ref 1 (°C)	4.99T ext. ref 2 (°C)	26.58length (m)	temperature (°C)	Stokes	anti-Stokes-747.200	-97.925	0.233	0.061
-746.185	113.837	-0.114	0.140
-745.171	117.626	-0.090	0.113
-744.156	453.596	0.066	-0.148
-743.142	-104.655	0.356	0.083
-742.127	94.343	0.292	0.337
-741.112	-125.611	-0.060	0.009
-740.098	-71.005	-0.501	0.192
-739.083	-200.000	-0.024	0.308
-738.069	-27.472	0.014	-0.008
-737.054	246.305	-0.070	-0.120
-736.039	280.587	-0.072	0.132
-735.025	226.460	-0.163	0.269
-734.010	35.983	0.089	0.079
-732.996	800.000	-0.081	-0.318
-731.981	-53.682	0.148	0.069
-730.966	-138.124	-0.087	0.010
-729.952	800.000	-0.072	-0.245
-728.937	-82.740	-0.527	-0.173
-727.923	-19.305	-0.137	-0.087
-726.908	412.827	-0.129	-0.279
-725.894	-95.553	-0.293	0.080
-724.879	-19.190	-0.083	-0.053
-723.864	9.865	-0.244	0.188
-722.850	-113.116	0.183	-0.037
-721.835	-200.000	0.059	-0.381
-720.821	-43.154	-0.198	-0.102
-719.806	63.204	0.218	-0.222
-718.791	800.000	0.038	0.152
-717.777	-161.107	-0.408	-0.022
-716.762	-200.000	-0.015	-0.213
-715.748	-48.258	-0.332	-0.162
-714.733	35.368	0.247	-0.219
-713.718	-116.978	0.053	0.010
-712.704	800.000	-0.070	0.266
-711.689	156.403	-0.138	-0.194
-710.675	-200.000	0.036	-0.194
-709.660	54.408	0.097	-0.095
-708.645	-200.000	-0.034	-0.170
-707.631	-73.649	-0.146	-0.054
-706.616	66.718	-0.231	0.239
-705.602	-200.000	-0.036	-0.278
-704.587	81.022	0.105	-0.115
-703.572	26.165	0.064	-0.054
-702.558	800.000	-0.037	0.146
-701.543	14.889	-0.188	0.149
-700.529	97.672	-0.075	-0.088
-699.514	103.247	0.366	-0.435
-698.499	723.461	0.113	0.304
-697.485	9.987	-0.165	-0.127
-696.470	-61.079	-0.172	-0.074
-695.456	88.162	0.162	-0.183
-694.441	109.699	-0.178	-0.216
-693.426	-200.000	0.002	0.022
-692.412	800.000	-0.066	0.201
-691.397	-68.826	-0.095	-0.037
-690.383	800.000	-0.042	0.167
-689.368	800.000	0.070	-0.200
-688.354	800.000	0.038	0.130
-687.339	-200.000	-0.031	0.377
-686.324	-30.715	0.453	-0.260
-685.310	800.000	-0.069	-0.248
-684.295	154.892	-0.140	0.194
-683.281	427.283	-0.211	-0.462
-682.266	-1.590	0.245	-0.175
-681.251	800.000	-0.036	0.108
-680.237	-63.651	0.024	-0.010
-679.222	347.424	0.097	-0.193
-678.208	162.790	-0.155	0.220
-677.193	363.078	-0.063	0.129
-676.178	-2.264	-0.156	0.111
-675.164	800.000	-0.088	-0.287
-674.149	800.000	0.102	-0.350
-673.135	55.412	0.237	0.233
-672.120	52.592	0.145	-0.141
-671.105	235.337	-0.103	-0.172
-670.091	800.000	-0.111	-0.391
-669.076	-14.988	-0.157	-0.102
-668.062	-107.536	-0.117	-0.026
-667.047	800.000	-0.052	-0.150
-666.032	-200.000	0.019	-0.151
-665.018	-22.220	0.207	-0.127
-664.003	20.666	-0.205	-0.168
-662.989	-48.776	0.275	-0.134
-661.974	800.000	0.044	-0.129
-660.959	-90.104	0.166	-0.049
-659.945	324.404	0.066	-0.127
-658.930	800.000	0.060	-0.237
-657.916	-200.000	-0.006	-0.028
-656.901	4.841	0.174	0.130
-655.886	671.963	-0.049	-0.128
-654.872	32.412	0.252	-0.221
-653.857	25.264	-0.162	0.136
-652.843	-91.911	-0.221	0.063
-651.828	-89.773	-0.096	-0.028
-650.814	329.845	-0.223	-0.435
-649.799	277.884	0.177	0.319
-648.784	141.368	-0.173	-0.232
-647.770	201.714	-0.127	-0.198
-646.755	23.950	-0.392	-0.327
-645.741	-96.474	0.160	-0.043
-644.726	-85.831	-0.248	-0.078
-643.711	-37.111	-0.191	-0.104
-642.697	263.877	0.175	-0.308
-641.682	67.162	0.090	0.093
-640.668	179.071	-0.150	-0.222
-639.653	216.074	0.055	-0.088
-638.638	-113.875	-0.177	0.035
-637.624	673.355	0.115	-0.303
-636.609	-29.535	0.078	-0.045
-635.595	-25.423	-0.230	0.138
-634.580	48.974	-0.033	-0.031
-633.565	-157.081	-0.302	-0.019
-632.551	340.234	-0.100	0.197
-631.536	351.236	-0.147	-0.295
-630.522	114.112	0.195	0.240
-629.507	-146.348	-0.071	-0.006
-628.492	299.554	0.072	-0.135
-627.478	250.430	0.085	-0.146
-626.463	-200.000	0.023	-0.126
-625.449	-68.384	-0.439	-0.172
-624.434	800.000	-0.051	0.205
-623.419	9.946	-0.193	0.148
-622.405	-188.717	0.085	0.001
-621.390	-90.174	0.215	-0.063
-620.376	70.857	-0.145	-0.152
-619.361	-200.000	-0.007	0.129
-618.346	275.302	0.007	-0.013
-617.332	691.133	0.079	0.210
-616.317	-69.726	0.158	-0.061
-615.303	800.000	0.056	0.203
-614.288	-61.850	0.411	-0.174
-613.273	-153.811	-0.125	0.009
-612.259	63.393	0.134	0.136
-611.244	-7.339	0.330	0.226
-610.230	319.584	0.068	-0.130
-609.215	1.396	-0.082	-0.060
-608.201	-200.000	0.069	-0.324
-607.186	-142.521	0.304	-0.030
-606.171	362.462	-0.164	-0.332
-605.157	6.298	0.174	0.131
-604.142	-200.000	-0.072	0.327
-603.128	800.000	-0.055	0.197
-602.113	-34.759	0.217	-0.120
-601.098	59.842	0.270	0.269
-600.084	19.158	0.332	-0.269
-599.069	800.000	-0.073	-0.266
-598.055	-45.605	-0.203	-0.101
-597.040	800.000	0.026	-0.081
-596.025	-200.000	-0.006	0.250
-595.011	-18.043	0.189	0.120
-593.996	-200.000	0.020	-0.236
-592.982	-200.000	0.005	-0.043
-591.967	5.614	0.132	0.098
-590.952	-77.794	-0.416	0.145
-589.938	490.777	0.099	0.229
-588.923	63.493	-0.216	-0.219
-587.909	-120.488	-0.067	-0.012
-586.894	24.843	0.152	0.127
-585.879	-103.651	-0.114	-0.027
-584.865	131.037	0.093	0.120
-583.850	448.576	-0.121	0.268
-582.836	39.789	0.269	-0.244
-581.821	-103.806	-0.111	-0.026
-580.806	-200.000	0.041	-0.208
-579.792	-67.726	0.138	-0.055
-578.777	-24.070	-0.236	0.142
-577.763	800.000	0.047	-0.210
-576.748	125.208	0.091	-0.116
-575.733	800.000	-0.155	-0.433
-574.719	199.633	0.078	-0.121
-573.704	371.872	0.102	0.209
-572.690	108.443	-0.058	-0.070
-571.675	-44.591	-0.216	0.109
-570.661	17.890	0.054	0.044
-569.646	800.000	0.082	0.336
-568.631	162.685	-0.166	0.235
-567.617	-63.634	0.093	-0.039
-566.602	-115.396	-0.185	-0.035
-565.588	-11.147	-0.355	-0.236
-564.573	2.144	0.180	-0.131
-563.558	-153.301	-0.333	-0.023
-562.544	-92.213	0.259	-0.074
-561.529	-160.991	-0.123	-0.006
-560.515	-132.983	0.261	-0.033
-559.500	19.011	-0.075	0.061
-558.485	-103.664	0.250	0.059
-557.471	-200.000	0.017	-0.269
-556.456	154.232	0.025	0.035
-555.442	-127.237	-0.123	-0.018
-554.427	-200.000	-0.006	0.162
-553.412	-17.565	-0.102	0.065
-552.398	-200.000	0.010	0.258
-551.383	-104.854	-0.276	0.064
-550.369	-113.578	0.473	-0.093
-549.354	-132.016	0.246	0.032
-548.339	175.247	0.175	-0.255
-547.325	800.000	0.045	-0.156
-546.310	92.676	-0.130	0.148
-545.296	470.318	-0.082	-0.187
-544.281	49.673	0.070	0.067
-543.266	-62.763	-0.273	-0.114
-542.252	34.653	-0.241	-0.212
-541.237	-200.000	0.038	-0.424
-540.223	-31.940	0.037	0.021
-539.208	14.442	0.454	0.357
-538.193	14.825	-0.367	0.289
-537.179	-16.450	-0.269	0.172
-536.164	-200.000	-0.086	0.501
-535.150	337.462	0.063	0.124
-534.135	257.558	0.077	0.133
-533.121	109.118	0.118	-0.142
-532.106	800.000	0.058	0.173
-531.091	529.412	-0.058	0.138
-530.077	145.395	-0.056	0.076
-529.062	329.794	-0.101	-0.196
-528.048	-76.002	0.223	-0.080
-527.033	-40.076	0.058	0.030
-526.018	-200.000	-0.038	-0.258
-525.004	32.025	0.151	0.131
-523.989	-141.688	-0.330	-0.033
-522.975	89.428	-0.245	0.275
-521.960	2.605	0.185	-0.135
-520.945	-200.000	-0.003	-0.114
-519.931	191.860	0.192	-0.291
-518.916	-200.000	-0.005	-0.083
-517.902	191.481	-0.029	0.044
-516.887	-5.204	0.046	0.032
-515.872	74.223	-0.044	0.046
-514.858	-80.846	-0.218	0.073
-513.843	676.090	-0.074	0.194
-512.829	-200.000	0.033	-0.157
-511.814	39.895	0.134	-0.121
-510.799	800.000	-0.043	-0.158
-509.785	-195.324	-0.149	-0.001
-508.770	-172.245	-0.335	-0.011
-507.756	-25.500	0.141	-0.084
-506.741	-200.000	-0.038	-0.242
-505.726	-200.000	0.046	0.386
-504.712	-200.000	0.024	0.273
-503.697	95.059	-0.072	-0.083
-502.683	-200.000	0.018	-0.201
-501.668	-54.092	-0.219	-0.100
-500.653	80.106	0.107	-0.115
-499.639	104.363	0.087	0.103
-498.624	-200.000	-0.013	0.201
-497.610	-175.344	-0.218	-0.006
-496.595	246.511	0.120	-0.204
-495.581	-76.276	-0.265	-0.094
-494.566	23.475	-0.194	0.160
-493.551	312.821	-0.084	-0.159
-492.537	-75.913	-0.140	0.050
-491.522	82.971	0.063	-0.069
-490.508	-30.218	-0.278	0.159
-489.493	474.367	-0.105	0.238
-488.478	-200.000	0.086	-0.427
-487.464	10.863	0.103	0.079
-486.449	-37.813	-0.206	0.110
-485.435	-152.074	0.181	0.013
-484.420	213.895	0.047	-0.074
-483.405	800.000	0.048	0.176
-482.391	-52.797	0.070	0.032
-481.376	-107.731	0.267	-0.058
-480.362	444.268	0.166	0.366
-479.347	-200.000	0.024	-0.192
-478.332	800.000	0.178	-0.515
-477.318	800.000	0.069	-0.204
-476.303	83.271	0.188	-0.206
-475.289	-200.000	-0.054	-0.358
-474.274	-200.000	0.043	0.243
-473.259	800.000	-0.029	0.115
-472.245	-24.867	-0.129	-0.077
-471.230	148.320	0.199	-0.270
-470.216	-200.000	-0.024	0.228
-469.201	-134.793	0.219	-0.027
-468.186	455.375	0.055	0.122
-467.172	800.000	0.031	0.097
-466.157	531.206	-0.047	0.111
-465.143	800.000	0.046	0.175
-464.128	298.961	0.161	-0.298
-463.113	-130.206	0.132	-0.018
-462.099	-180.199	-0.211	0.004
-461.084	22.057	0.227	-0.186
-460.070	-44.716	0.286	0.143
-459.055	-82.984	0.265	-0.086
-458.040	385.138	0.084	-0.173
-457.026	-25.089	-0.090	0.054
-456.011	6.979	-0.219	0.164
-454.997	157.124	-0.172	-0.239
-453.982	119.005	-0.061	-0.076
-452.968	351.015	-0.098	0.194
-451.953	461.292	-0.170	0.381
-450.938	-57.517	-0.249	-0.110
-449.924	48.443	0.032	0.030
-448.909	102.120	-0.119	0.139
-447.895	-30.084	-0.284	-0.162
-446.880	83.327	-0.159	-0.173
-445.865	359.909	-0.084	0.169
-444.851	-135.351	0.061	-0.007
-443.836	-129.725	0.249	0.034
-442.822	287.328	0.106	-0.192
-441.807	-73.397	-0.262	0.096
-440.792	17.078	-0.100	0.080
-439.778	194.659	0.022	0.033
-438.763	800.000	-0.092	0.274
-437.749	-97.581	0.250	-0.065
-436.734	800.000	0.020	0.080
-435.719	67.012	-0.276	-0.282
-434.705	-141.777	0.194	0.019
-433.690	255.194	0.125	0.214
-432.676	-63.845	0.026	0.011
-431.661	800.000	0.062	-0.193
-430.646	-154.995	0.086	0.006
-429.632	800.000	0.076	-0.233
-428.617	-200.000	-0.013	0.210
-427.603	-169.807	-0.304	0.011
-426.588	-84.207	0.261	-0.083
-425.573	-122.139	0.284	0.047
-424.559	-150.369	0.235	-0.018
-423.544	-142.353	-0.189	-0.019
-422.530	10.286	0.097	0.074
-421.515	-52.320	-0.152	0.071
-420.500	-30.807	-0.241	-0.137
-419.486	71.850	-0.165	-0.172
-418.471	-200.000	0.030	-0.240
-417.457	-107.505	-0.169	0.037
-416.442	769.349	-0.098	-0.268
-415.428	19.512	-0.204	-0.164
-414.413	59.183	-0.069	0.068
-413.398	58.259	0.163	0.160
-412.384	100.348	0.170	0.198
-411.369	158.054	-0.117	0.163
-410.355	-200.000	0.011	-0.114
-409.340	99.420	0.130	0.151
-408.325	-200.000	0.015	0.067
-407.311	-200.000	0.002	-0.123
-406.296	-200.000	-0.013	0.171
-405.282	-90.309	-0.307	-0.089
-404.267	7.678	-0.156	0.117
-403.252	800.000	-0.029	0.111
-402.238	-42.468	0.179	0.091
-401.223	800.000	0.103	0.365
-400.209	800.000	0.029	0.085
-399.194	800.000	0.030	-0.099
-398.179	-200.000	0.018	-0.292
-397.165	-200.000	0.028	-0.136
-396.150	-49.735	0.377	0.180
-395.136	-150.048	0.398	0.031
-394.121	631.739	0.027	0.069
-393.106	186.948	-0.201	0.300
-392.092	-17.612	-0.162	-0.102
-391.077	696.186	-0.098	-0.258
-390.063	32.648	-0.123	0.107
-389.048	800.000	0.051	-0.196
-388.033	-33.199	-0.114	0.063
-387.019	-200.000	-0.009	-0.045
-386.004	58.267	0.090	0.089
-384.990	-6.110	0.203	-0.139
-383.975	800.000	0.081	-0.278
-382.960	-81.048	-0.041	-0.014
-381.946	-18.227	-0.341	-0.214
-380.931	14.904	-0.167	-0.131
-379.917	800.000	0.171	0.511
-378.902	-62.637	-0.162	-0.067
-377.888	-200.000	0.007	-0.301
-376.873	15.313	0.409	-0.321
-375.858	-2.368	-0.139	0.098
-374.844	269.565	0.069	-0.121
-373.829	106.239	-0.196	-0.232
-372.815	222.624	0.136	-0.219
-371.800	139.217	0.096	0.127
-370.785	-82.703	-0.061	0.020
-369.771	-71.149	0.135	0.051
-368.756	-142.113	0.085	0.008
-367.742	-200.000	0.011	0.143
-366.727	523.589	-0.087	0.206
-365.712	-200.000	-0.015	-0.240
-364.698	67.013	-0.084	0.085
-363.683	207.124	0.051	-0.080
-362.669	47.091	0.116	0.108
-361.654	43.520	-0.176	0.161
-360.639	36.893	0.058	-0.051
-359.625	-126.929	-0.197	0.029
-358.610	-193.999	-0.122	-0.001
-357.596	-200.000	0.001	-0.052
-356.581	-82.164	0.169	0.055
-355.566	-128.621	0.167	-0.024
-354.552	-141.998	0.205	0.020
-353.537	-115.285	-0.046	-0.009
-352.523	-3.296	-0.314	0.219
-351.508	-40.985	0.120	0.062
-350.493	-85.313	-0.300	-0.094
-349.479	150.703	0.070	-0.095
-348.464	-178.691	0.117	0.003
-347.450	-114.059	-0.313	-0.061
-346.435	152.885	0.199	-0.272
-345.420	340.436	-0.088	0.171
-344.406	-200.000	0.044	0.280
-343.391	-22.697	0.266	-0.161
-342.377	-200.000	0.006	0.060
-341.362	-58.894	-0.311	-0.135
-340.348	42.195	-0.261	0.237
-339.333	-25.950	-0.225	0.132
-338.318	-200.000	-0.006	0.192
-337.304	-200.000	0.127	-0.000
-336.289	-190.625	0.219	-0.002
-335.275	-200.000	-0.019	0.248
-334.260	96.182	0.056	-0.064
-333.245	-124.739	0.160	0.025
-332.231	-64.485	-0.168	0.068
-331.216	-108.117	0.233	-0.050
-330.202	-141.531	0.200	0.020
-329.187	-151.603	0.288	-0.021
-328.172	82.662	0.125	0.136
-327.158	18.695	0.047	0.037
-326.143	800.000	-0.083	0.243
-325.129	-200.000	-0.010	0.127
-324.114	800.000	0.087	-0.244
-323.099	748.548	0.030	0.082
-322.085	-100.778	-0.306	-0.075
-321.070	-170.504	-0.322	-0.011
-320.056	-4.846	0.629	0.433
-319.041	40.175	0.084	-0.076
-318.026	214.498	-0.047	-0.075
-317.012	124.445	0.078	0.098
-315.997	-200.000	0.024	0.288
-314.983	-141.984	0.197	0.020
-313.968	-155.585	-0.154	-0.010
-312.953	-102.233	-0.050	-0.012
-311.939	-200.000	-0.003	0.208
-310.924	93.858	0.091	0.103
-309.910	-42.965	0.136	0.069
-308.895	-59.079	0.086	-0.037
-307.880	3.831	-0.211	0.154
-306.866	-74.637	-0.074	-0.027
-305.851	9.409	-0.014	-0.011
-304.837	88.293	-0.182	-0.202
-303.822	-154.591	-0.033	-0.002
-302.807	653.985	-0.055	0.140
-301.793	105.920	-0.086	-0.102
-300.778	-90.908	-0.220	-0.063
-299.764	-200.000	-0.007	0.155
-298.749	-200.000	-0.024	-0.197
-297.735	-35.773	0.033	0.018
-296.720	-200.000	-0.027	-0.325
-295.705	-200.000	-0.009	0.298
-294.691	-200.000	-0.068	0.363
-293.676	11.287	0.370	0.283
-292.662	-142.240	-0.181	-0.018
-291.647	441.763	0.086	0.189
-290.632	-48.017	0.087	0.042
-289.618	800.000	-0.020	0.067
-288.603	34.909	-0.246	0.214
-287.589	-200.000	0.027	0.195
-286.574	57.318	-0.085	0.083
-285.559	-94.297	-0.379	0.103
-284.545	800.000	0.037	0.105
-283.530	-139.665	0.025	0.003
-282.516	-79.940	-0.249	0.083
-281.501	-25.880	0.091	-0.054
-280.486	-87.933	-0.340	0.102
-279.472	-119.877	-0.161	-0.028
-278.457	191.438	-0.019	-0.029
-277.443	429.795	0.055	0.119
-276.428	-96.688	0.119	0.031
-275.413	-106.672	0.133	0.030
-274.399	338.181	-0.014	0.027
-273.384	-98.468	0.418	-0.107
-272.370	37.200	0.237	0.209
-271.355	55.447	-0.149	-0.144
-270.340	-127.691	0.184	-0.026
-269.326	-16.227	0.073	-0.046
-268.311	-39.723	-0.186	-0.097
-267.297	-200.000	-0.040	0.201
-266.282	117.389	-0.245	0.300
-265.267	-154.133	0.123	-0.008
-264.253	-85.590	-0.306	0.095
-263.238	-200.000	0.064	0.284
-262.224	800.000	-0.030	-0.100
-261.209	800.000	-0.089	-0.356
-260.195	-200.000	-0.022	-0.308
-259.180	-106.836	0.155	0.034
-258.165	-92.164	0.212	0.060
-257.151	-24.048	0.103	0.061
-256.136	-200.000	-0.022	-0.099
-255.122	-153.229	-0.379	0.026
-254.107	754.434	0.061	-0.165
-253.092	-177.239	-0.109	0.003
-252.078	-174.012	-0.124	0.004
-251.063	-1.401	-0.129	0.091
-250.049	119.498	-0.030	-0.038
-249.034	-19.785	0.163	0.101
-248.019	800.000	0.060	0.252
-247.005	89.456	-0.198	0.220
-245.990	379.455	0.156	-0.318
-244.976	-200.000	-0.003	0.111
-243.961	-68.812	-0.122	-0.047
-242.946	-94.259	0.186	-0.051
-241.932	-77.231	0.104	-0.036
-240.917	349.815	0.151	-0.296
-239.903	145.865	0.181	-0.242
-238.888	800.000	0.049	0.177
-237.873	-200.000	-0.028	0.124
-236.859	800.000	-0.047	0.199
-235.844	74.706	0.149	0.156
-234.830	-200.000	0.016	0.088
-233.815	-100.439	-0.419	0.103
-232.800	800.000	-0.016	0.060
-231.786	-200.000	0.006	-0.385
-230.771	11.524	-0.135	0.103
-229.757	-122.947	-0.265	-0.042
-228.742	-200.000	-0.003	0.315
-227.727	-200.000	0.011	0.149
-226.713	-100.844	-0.235	-0.058
-225.698	403.135	0.036	-0.075
-224.684	-177.672	-0.208	-0.005
-223.669	244.896	-0.119	-0.199
-222.655	772.065	-0.057	-0.154
-221.640	225.557	0.226	-0.365
-220.625	402.347	0.015	0.032
-219.611	39.840	-0.206	0.184
-218.596	-80.794	0.094	0.031
-217.582	-82.266	0.047	-0.015
-216.567	-200.000	-0.005	-0.167
-215.552	372.478	0.149	0.302
-214.538	678.533	-0.143	-0.371
-213.523	-200.000	-0.001	0.022
-212.509	-55.435	0.223	0.099
-211.494	-94.089	0.162	0.044
-210.479	-125.283	0.337	0.051
-209.465	-18.858	-0.236	-0.146
-208.450	-47.400	-0.332	-0.160
-207.436	-49.848	0.119	0.056
-206.421	800.000	0.101	0.314
-205.406	667.898	-0.060	-0.155
-204.392	-51.202	0.380	-0.177
-203.377	-38.970	0.294	-0.154
-202.363	1.851	-0.089	0.063
-201.348	-109.108	-0.222	0.047
-200.333	187.668	0.104	-0.154
-199.319	-57.092	0.153	0.067
-198.304	27.957	-0.348	-0.292
-197.290	-143.096	0.305	-0.029
-196.275	-139.382	-0.210	-0.022
-195.260	-88.463	0.082	0.024
-194.246	-103.565	-0.174	-0.041
-193.231	800.000	-0.022	-0.075
-192.217	-15.291	-0.204	-0.130
-191.202	-180.156	0.173	-0.004
-190.187	-185.494	-0.312	-0.005
-189.173	407.723	0.094	0.199
-188.158	-131.185	-0.024	0.003
-187.144	-93.500	0.131	-0.036
-186.129	436.641	0.059	-0.127
-185.114	172.725	0.084	-0.120
-184.100	-200.000	-0.031	-0.181
-183.085	-26.813	-0.222	-0.129
-182.071	-200.000	-0.060	0.458
-181.056	-117.469	-0.171	0.031
-180.042	-200.000	-0.032	-0.147
-179.027	8.894	-0.042	0.031
-178.012	-100.389	0.301	-0.074
-176.998	796.309	-0.070	-0.191
-175.983	-200.000	0.034	0.609
-174.969	800.000	-0.023	0.073
-173.954	75.625	0.342	0.358
-172.939	205.928	0.122	0.188
-171.925	102.699	-0.205	-0.239
-170.910	266.184	-0.062	-0.108
-169.896	-50.253	0.115	-0.054
-168.881	-60.936	0.185	0.078
-167.866	-120.927	0.429	0.072
-166.852	-200.000	0.018	-0.100
-165.837	-115.523	0.313	0.058
-164.823	-149.666	-0.355	0.028
-163.808	-12.164	0.292	-0.190
-162.793	57.947	-0.328	-0.319
-161.779	-102.204	0.353	-0.084
-160.764	723.814	-0.102	0.269
-159.750	-66.028	0.244	-0.097
-158.735	-29.859	0.118	-0.067
-157.720	-98.743	0.599	-0.151
-156.706	-17.542	-0.317	0.198
-155.691	3.615	-0.197	-0.142
-154.677	-27.604	-0.196	0.113
-153.662	-131.284	0.020	0.003
-152.647	-21.121	0.171	-0.104
-151.633	-22.186	0.138	-0.083
-150.618	113.797	-0.196	-0.237
-149.604	12.812	0.345	-0.265
-148.589	73.867	0.110	0.114
-147.574	483.500	0.113	-0.256
-146.560	-200.000	-0.037	-0.182
-145.545	-81.970	0.151	0.049
-144.531	95.257	-0.089	0.100
-143.516	31.621	0.244	0.208
-142.502	111.053	-0.104	-0.125
-141.487	-164.910	0.154	0.007
-140.472	90.620	-0.368	-0.409
-139.458	-4.520	-0.181	-0.124
-138.443	43.638	-0.200	0.182
-137.429	300.366	-0.039	-0.071
-136.414	800.000	0.018	0.060
-135.399	141.853	0.092	-0.121
-134.385	11.238	0.322	0.244
-133.370	-154.311	0.532	-0.036
-132.356	-171.206	0.206	0.007
-131.341	-90.991	0.319	-0.091
-130.326	-43.772	0.180	-0.090
-129.312	-200.000	0.031	0.152
-128.297	40.440	-0.015	-0.014
-127.283	-38.443	-0.153	-0.080
-126.268	-153.641	-0.400	0.027
-125.253	147.321	0.111	-0.148
-124.239	236.164	-0.041	0.066
-123.224	-122.377	0.347	-0.056
-122.210	-99.393	-0.283	0.071
-121.195	-88.835	-0.300	-0.088
