DTS Sentinel unit serial number:	SN413079Multiplexer serial number:	ORYXHardware model number:	OX4-SRSoftware version number:	ORYX F/W v4.00 Oryx Data Collector v3.7.2.0data status	okinstallation	princeton_trtdifferential loss correction	single-endedforward channel	channel 4reverse channel	N/Adate	2019/09/19time	11:09:35forward acquisition time	60.00reverse acquisition time	0.00gamma	496.2192k internal	0.2327k external	0.2327temperature offset calibration	1.0018default loss term (dB/km)	0.3790temperature slope calibration	1.0000multiplexer offset coefficient	1.0000multiplexer slope coefficient	1.0000fibre end	0.00T internal ref (°C)	25.05T ext. ref 1 (°C)	0.77T ext. ref 2 (°C)	20.62length (m)	temperature (°C)	Stokes	anti-Stokes-747.200	50.220	-0.168	0.160
-746.185	-200.000	-0.010	-0.204
-745.171	-130.157	-0.041	0.006
-744.156	-63.506	0.240	0.099
-743.142	51.671	0.097	-0.093
-742.127	-140.430	-0.289	0.030
-741.112	-200.000	0.015	-0.376
-740.098	-89.707	0.177	-0.052
-739.083	55.952	0.118	0.115
-738.069	134.981	-0.270	0.354
-737.054	-146.715	0.041	0.004
-736.039	61.581	0.195	-0.196
-735.025	-43.368	0.285	0.145
-734.010	163.226	-0.170	-0.240
-732.996	-200.000	0.007	0.101
-731.981	-75.776	-0.160	-0.057
-730.966	491.492	-0.185	-0.428
-729.952	311.146	0.076	0.143
-728.937	-200.000	-0.012	0.378
-727.923	168.420	-0.108	-0.155
-726.908	32.474	0.176	-0.154
-725.894	-124.813	0.312	-0.049
-724.879	218.170	0.190	0.306
-723.864	525.340	0.030	0.070
-722.850	-100.992	0.052	0.013
-721.835	379.518	0.007	0.015
-720.821	116.213	-0.190	-0.234
-719.806	-86.290	-0.262	-0.081
-718.791	-200.000	0.036	-0.205
-717.777	-200.000	0.016	0.159
-716.762	-28.822	-0.241	-0.140
-715.748	86.404	0.164	-0.182
-714.733	414.765	-0.116	-0.249
-713.718	405.245	-0.108	0.229
-712.704	384.705	0.158	-0.327
-711.689	-69.489	0.170	-0.066
-710.675	-200.000	-0.039	0.323
-709.660	-92.672	0.481	0.136
-708.645	52.049	-0.160	0.153
-707.631	-127.949	0.069	-0.010
-706.616	-59.432	-0.409	-0.177
-705.602	800.000	-0.077	0.253
-704.587	-75.014	0.220	0.079
-703.572	648.403	-0.036	0.091
-702.558	-2.984	0.149	-0.105
-701.543	-103.447	0.387	-0.092
-700.529	287.438	0.056	0.103
-699.514	-74.376	0.347	-0.126
-698.499	-78.485	0.194	-0.067
-697.485	-82.239	0.239	-0.078
-696.470	670.927	-0.145	-0.377
-695.456	238.859	-0.019	0.032
-694.441	800.000	0.171	-0.499
-693.426	-76.957	-0.152	-0.054
-692.412	-9.616	-0.173	0.116
-691.397	-149.949	0.051	0.004
-690.383	379.664	0.076	0.157
-689.368	-200.000	0.011	0.884
-688.354	-153.246	0.361	0.025
-687.339	-147.441	-0.593	-0.050
-686.324	-71.743	0.379	0.142
-685.310	800.000	-0.019	-0.078
-684.295	-20.496	-0.266	-0.164
-683.281	194.607	-0.146	-0.223
-682.266	-112.728	-0.267	0.053
-681.251	622.810	0.026	-0.065
-680.237	-200.000	-0.030	0.202
-679.222	-200.000	0.012	0.076
-678.208	-200.000	0.025	0.120
-677.193	-146.951	0.117	-0.010
-676.178	-49.738	-0.350	0.167
-675.164	675.667	-0.116	0.303
-674.149	-200.000	-0.004	0.045
-673.135	800.000	0.086	-0.265
-672.120	800.000	-0.011	0.043
-671.105	528.297	-0.130	0.309
-670.091	25.121	-0.121	-0.101
-669.076	777.653	0.061	0.168
-668.062	-200.000	0.016	0.147
-667.047	68.018	0.158	0.163
-666.032	76.554	-0.072	0.077
-665.018	14.848	-0.077	-0.060
-664.003	-4.585	0.126	-0.087
-662.989	-20.689	0.056	0.035
-661.974	-111.563	-0.180	-0.037
-660.959	-5.524	0.371	0.256
-659.945	-200.000	-0.041	-0.283
-658.930	89.905	-0.167	-0.187
-657.916	11.604	-0.121	-0.093
-656.901	695.744	0.050	-0.131
-655.886	-133.958	0.206	-0.026
-654.872	-66.481	0.135	0.054
-653.857	13.826	-0.166	-0.130
-652.843	-200.000	-0.012	0.207
-651.828	-133.845	-0.302	0.038
-650.814	370.248	-0.082	0.167
-649.799	164.650	0.093	-0.132
-648.784	-79.375	-0.283	-0.096
-647.770	72.492	-0.132	0.138
-646.755	-23.388	-0.076	-0.046
-645.741	44.605	-0.261	0.241
-644.726	168.158	0.155	0.222
-643.711	137.047	-0.129	0.169
-642.697	-33.544	-0.123	-0.068
-641.682	240.892	0.122	0.204
-640.668	-50.309	0.113	0.054
-639.653	39.295	-0.166	-0.149
-638.638	-200.000	0.016	-0.172
-637.624	-92.455	-0.225	-0.063
-636.609	-200.000	0.006	0.046
-635.595	171.329	0.194	0.280
-634.580	-176.452	-0.041	-0.001
-633.565	-200.000	-0.076	-0.389
-632.551	20.990	-0.164	-0.133
-631.536	646.488	-0.111	-0.283
-630.522	-128.345	-0.367	-0.052
-629.507	800.000	-0.066	-0.204
-628.492	298.634	0.154	0.284
-627.478	3.754	0.044	-0.032
-626.463	800.000	-0.057	-0.168
-625.449	-35.765	0.164	0.089
-624.434	-145.397	-0.237	-0.021
-623.419	-200.000	0.017	0.181
-622.405	-16.248	0.021	-0.013
-621.390	-198.843	0.235	-0.001
-620.376	16.905	-0.318	-0.253
-619.361	67.875	0.293	0.301
-618.346	-81.135	0.329	0.109
-617.332	734.629	-0.032	-0.086
-616.317	-40.339	0.186	0.097
-615.303	29.104	-0.087	0.074
-614.288	43.350	0.407	-0.373
-613.273	-87.054	0.073	0.022
-612.259	-109.483	-0.182	-0.039
-611.244	12.973	0.039	0.031
-610.230	-46.806	-0.153	-0.075
-609.215	-51.802	-0.224	-0.105
-608.201	29.311	-0.383	0.327
-607.186	-5.572	-0.190	0.131
-606.171	-112.034	0.040	0.008
-605.157	22.479	-0.126	-0.103
-604.142	-41.364	0.387	-0.200
-603.128	-56.766	0.326	0.145
-602.113	-33.103	-0.270	0.150
-601.098	-110.465	0.109	0.023
-600.084	-141.919	0.197	0.020
-599.069	-149.710	-0.268	-0.021
-598.055	668.194	-0.120	0.312
-597.040	-143.925	-0.132	0.012
-596.025	-87.626	-0.099	0.030
-595.011	-80.226	-0.200	0.067
-593.996	503.601	0.187	-0.434
-592.982	-17.007	-0.178	-0.113
-591.967	1.880	-0.100	-0.072
-590.952	161.911	0.182	0.256
-589.938	297.131	0.164	0.301
-588.923	-112.574	0.353	-0.071
-587.909	-167.920	-0.177	0.007
-586.894	-200.000	-0.024	-0.170
-585.879	800.000	-0.122	-0.375
-584.865	194.583	0.105	0.160
-583.850	-10.486	0.023	0.015
-582.836	-200.000	-0.015	-0.073
-581.821	-65.685	-0.234	0.094
-580.806	-200.000	-0.027	0.150
-579.792	-20.306	0.122	-0.075
-578.777	-200.000	-0.010	0.175
-577.763	182.406	0.127	-0.188
-576.748	174.271	0.135	-0.195
-575.733	371.595	0.079	-0.160
-574.719	-138.314	-0.123	-0.014
-573.704	467.645	-0.120	0.269
-572.690	-108.306	0.214	0.046
-571.675	74.316	-0.093	-0.098
-570.661	67.025	0.083	0.085
-569.646	-41.095	-0.169	0.088
-568.631	-25.948	-0.139	0.082
-567.617	266.600	-0.130	-0.227
-566.602	-57.994	0.276	-0.121
-565.588	-104.463	0.095	0.022
-564.573	-200.000	0.004	0.068
-563.558	-90.925	0.274	-0.079
-562.544	-117.881	-0.194	0.035
-561.529	287.131	0.067	0.121
-560.515	164.352	0.060	-0.085
-559.500	-143.419	-0.289	-0.028
-558.485	88.841	-0.413	0.460
-557.471	-129.316	0.141	-0.020
-556.456	-72.991	0.141	0.052
-555.442	230.695	-0.229	-0.375
-554.427	-102.010	0.491	-0.118
-553.412	-86.279	0.545	-0.168
-552.398	560.170	0.033	0.080
-551.383	471.307	0.126	0.284
-550.369	-96.760	-0.263	-0.069
-549.354	-63.492	0.293	-0.120
-548.339	-136.343	0.423	0.049
-547.325	800.000	-0.020	0.057
-546.310	150.822	0.052	-0.071
-545.296	-27.265	0.137	0.080
-544.281	655.022	-0.122	-0.312
-543.266	-200.000	-0.000	-0.125
-542.252	-83.447	0.108	0.035
-541.237	65.023	0.163	0.165
-540.223	32.998	-0.091	0.079
-539.208	321.961	0.071	0.135
-538.193	800.000	-0.040	-0.150
-537.179	-4.268	0.298	-0.206
-536.164	-200.000	-0.062	-0.308
-535.150	-114.070	0.221	-0.043
-534.135	0.519	-0.077	0.055
-533.121	-200.000	0.001	-0.162
-532.106	800.000	-0.048	0.191
-531.091	-2.434	-0.057	-0.040
-530.077	364.487	-0.074	0.149
-529.062	800.000	-0.008	0.022
-528.048	-29.099	0.273	-0.157
-527.033	-200.000	-0.007	-0.049
-526.018	800.000	-0.074	-0.248
-525.004	-200.000	0.046	0.358
-523.989	121.555	0.261	-0.325
-522.975	37.349	-0.446	-0.395
-521.960	-165.089	-0.138	0.006
-520.945	4.602	0.360	-0.264
-519.931	437.081	-0.055	0.120
-518.916	-43.949	-0.321	-0.161
-517.902	-25.714	0.315	-0.186
-516.887	538.638	0.048	0.114
-515.872	-196.754	0.197	-0.001
-514.858	-2.714	0.300	-0.210
-513.843	-200.000	0.003	-0.234
-512.829	-111.882	0.238	-0.048
-511.814	-200.000	-0.047	0.333
-510.799	-74.407	-0.280	-0.101
-509.785	35.012	-0.110	0.096
-508.770	85.239	-0.150	0.164
-507.756	-96.865	-0.123	0.032
-506.741	-17.424	-0.133	0.083
-505.726	-20.166	-0.301	-0.185
-504.712	-95.257	-0.111	0.030
-503.697	-200.000	-0.003	0.049
-502.683	171.083	0.068	-0.097
-501.668	800.000	0.037	-0.159
-500.653	120.702	0.239	0.296
-499.639	-17.652	-0.139	-0.087
-498.624	-86.437	0.050	0.015
-497.610	-200.000	-0.042	0.284
-496.595	-29.987	-0.291	-0.165
-495.581	-200.000	-0.009	-0.078
-494.566	800.000	0.087	0.308
-493.551	53.448	-0.289	0.277
-492.537	183.121	-0.053	-0.079
-491.522	308.408	-0.081	0.150
-490.508	-110.544	0.116	-0.024
-489.493	-65.126	-0.343	-0.138
-488.478	-200.000	0.014	-0.308
-487.464	157.113	-0.148	-0.204
-486.449	175.604	-0.241	0.349
-485.435	-35.367	0.206	0.112
-484.420	115.343	0.253	-0.308
-483.405	582.341	-0.061	-0.149
-482.391	166.605	-0.080	-0.113
-481.376	800.000	-0.099	0.288
-480.362	-90.676	0.259	-0.075
-479.347	-107.682	-0.273	0.060
-478.332	433.973	-0.012	-0.025
-477.318	-64.990	-0.150	-0.060
-476.303	-47.182	-0.234	0.114
-475.289	-200.000	0.018	0.110
-474.274	-67.234	0.206	0.081
-473.259	-200.000	0.023	0.430
-472.245	-134.210	-0.229	0.028
-471.230	-48.274	-0.238	-0.114
-470.216	-45.025	0.292	-0.145
-469.201	271.311	0.165	0.290
-468.186	-128.437	-0.240	-0.034
-467.172	-200.000	-0.012	0.112
-466.157	800.000	-0.053	0.207
-465.143	685.002	0.055	0.144
-464.128	-17.438	0.404	-0.254
-463.113	-151.324	0.260	0.019
-462.099	-134.753	0.205	0.025
-461.084	-200.000	0.003	0.430
-460.070	-113.195	-0.053	0.011
-459.055	2.015	0.115	0.083
-458.040	-32.360	0.243	-0.135
-457.026	-104.842	-0.069	-0.016
-456.011	-200.000	0.050	-0.247
-454.997	81.529	0.207	-0.223
-453.982	107.345	0.217	0.257
-452.968	298.838	0.059	-0.108
-451.953	-39.917	-0.154	0.080
-450.938	253.135	0.095	0.162
-449.924	108.386	0.173	0.206
-448.909	-200.000	-0.064	-0.343
-447.895	-200.000	-0.025	0.181
-446.880	-200.000	-0.037	-0.363
-445.865	-200.000	0.050	0.379
-444.851	800.000	-0.068	0.200
-443.836	-200.000	0.005	0.413
-442.822	109.393	-0.180	0.214
-441.807	-108.794	-0.324	-0.069
-440.792	800.000	0.139	0.411
-439.778	-121.226	0.054	-0.009
-438.763	-32.022	0.149	0.083
-437.749	590.812	-0.052	0.127
-436.734	-200.000	0.019	0.099
-435.719	-136.881	0.219	0.025
-434.705	-43.747	-0.222	-0.111
-433.690	-181.566	-0.093	-0.002
-432.676	-200.000	-0.009	0.081
-431.661	-14.761	-0.375	-0.240
-430.646	800.000	-0.013	-0.056
-429.632	-150.334	0.276	0.021
-428.617	800.000	0.076	0.245
-427.603	90.558	0.043	0.048
-426.588	-105.470	-0.216	0.049
-425.573	-200.000	-0.043	0.309
-424.559	144.668	-0.108	-0.143
-423.544	-200.000	0.007	-0.111
-422.530	26.696	-0.231	0.193
-421.515	390.043	-0.126	0.260
-420.500	377.134	0.040	-0.081
-419.486	-200.000	0.013	-0.225
-418.471	185.356	-0.097	-0.144
-417.457	-39.592	0.243	0.127
-416.442	-8.456	-0.247	-0.165
-415.428	-56.731	0.135	0.060
-414.413	-104.595	-0.228	-0.052
-413.398	-136.617	0.111	0.013
-412.384	-173.122	0.115	-0.004
-411.369	452.516	0.141	-0.310
-410.355	-200.000	-0.021	0.117
-409.340	-200.000	-0.018	-0.090
-408.325	296.543	0.065	-0.119
-407.311	-45.301	0.326	0.161
-406.296	-40.411	-0.193	-0.100
-405.282	158.548	0.166	0.230
-404.267	83.126	-0.204	-0.220
-403.252	-54.956	-0.286	0.128
-402.238	-106.936	-0.077	-0.017
-401.223	13.186	0.126	-0.097
-400.209	116.834	0.241	-0.295
-399.194	-65.469	0.222	0.089
-398.179	157.987	-0.122	-0.168
-397.165	-88.043	-0.137	-0.041
-396.150	-108.640	0.137	-0.029
-395.136	72.317	-0.234	0.243
-394.121	-131.349	0.161	0.021
-393.106	298.330	0.086	-0.158
-392.092	43.221	0.044	-0.040
-391.077	-200.000	-0.010	0.182
-390.063	53.260	0.184	0.175
-389.048	-200.000	0.042	-0.226
-388.033	-106.541	0.161	0.036
-387.019	800.000	-0.050	-0.172
-386.004	-52.543	-0.367	-0.169
-384.990	-49.455	0.028	0.013
-383.975	-144.827	-0.076	-0.007
-382.960	695.285	-0.074	0.192
-381.946	164.776	0.249	-0.349
-380.931	-48.616	-0.198	-0.095
-379.917	580.794	0.042	0.103
-378.902	508.613	-0.091	-0.210
-377.888	38.671	0.177	-0.157
-376.873	330.024	-0.052	0.099
-375.858	-200.000	-0.069	0.486
-374.844	29.716	-0.306	0.259
-373.829	800.000	0.073	0.270
-372.815	1.321	0.203	0.145
-371.800	-127.112	0.335	-0.049
-370.785	434.549	-0.030	-0.064
-369.771	-130.838	0.244	0.033
-368.756	-200.000	-0.035	-0.153
-367.742	162.755	-0.086	0.121
-366.727	-200.000	0.015	-0.540
-365.712	-52.746	-0.138	0.063
-364.698	288.567	0.186	0.335
-363.683	194.261	-0.026	0.040
-362.669	-200.000	-0.007	0.232
-361.654	-200.000	0.038	0.364
-360.639	598.664	-0.086	-0.211
-359.625	779.326	0.049	-0.133
-358.610	225.630	0.087	-0.140
-357.596	-2.591	0.230	0.160
-356.581	98.851	-0.104	0.119
-355.566	-127.955	0.053	-0.008
-354.552	-200.000	-0.032	0.167
-353.537	-116.260	-0.332	-0.061
-352.523	-118.697	-0.215	0.038
-351.508	-56.335	0.032	-0.014
-350.493	12.382	0.168	-0.128
-349.479	-91.642	-0.293	-0.083
-348.464	-172.757	0.095	0.003
-347.450	18.523	0.038	0.030
-346.435	214.236	0.228	0.358
-345.420	-114.835	0.280	-0.053
-344.406	-147.096	-0.214	-0.018
-343.391	-103.677	-0.444	-0.103
-342.377	-61.050	-0.461	0.193
-341.362	-44.114	-0.069	-0.034
-340.348	228.909	0.191	0.310
-339.333	-182.473	0.278	0.005
-338.318	-9.665	-0.310	-0.205
-337.304	-200.000	0.067	-0.346
-336.289	-200.000	-0.048	0.209
-335.275	6.354	0.068	0.050
-334.260	79.972	-0.195	-0.208
-333.245	61.617	-0.175	0.173
-332.231	16.443	0.296	0.232
-331.216	114.738	-0.122	-0.147
-330.202	-200.000	-0.047	-0.346
-329.187	-88.746	0.158	-0.047
-328.172	-200.000	0.013	-0.093
-327.158	-42.970	-0.252	-0.127
-326.143	-64.931	-0.088	0.035
-325.129	-76.497	-0.520	0.181
-324.114	4.370	0.238	-0.173
-323.099	-120.941	0.103	0.017
-322.085	-200.000	0.027	-0.135
-321.070	7.947	0.095	-0.071
-320.056	-200.000	0.070	0.333
-319.041	-67.229	0.171	-0.067
-318.026	-200.000	-0.015	0.240
-317.012	248.110	0.085	0.142
-315.997	-107.654	0.110	-0.024
-314.983	-161.793	0.341	-0.017
-313.968	-92.324	0.057	0.016
-312.953	84.683	-0.138	-0.150
-311.939	-15.058	-0.111	-0.070
-310.924	16.600	0.086	-0.067
-309.910	-181.003	-0.066	0.001
-308.895	-102.916	0.234	-0.055
-307.880	465.199	-0.101	-0.224
-306.866	679.821	-0.183	0.472
-305.851	12.790	-0.237	0.181
-304.837	3.512	0.100	0.072
-303.822	-200.000	0.036	-0.244
-302.807	-131.031	-0.276	0.037
-301.793	-62.637	0.081	0.033
-300.778	340.080	-0.082	0.159
-299.764	49.615	-0.167	-0.156
-298.749	-94.601	0.213	0.057
-297.735	-118.964	0.190	0.033
-296.720	-19.179	-0.379	0.233
-295.705	-51.591	-0.305	-0.141
-294.691	116.980	0.261	-0.318
-293.676	135.454	-0.155	0.199
-292.662	-2.878	0.233	0.162
-291.647	-200.000	-0.023	-0.165
-290.632	-8.628	-0.204	-0.136
-289.618	-174.976	-0.328	-0.009
-288.603	800.000	-0.107	0.407
-287.589	149.490	-0.142	0.191
-286.574	-126.286	-0.257	0.038
-285.559	339.503	-0.060	-0.115
-284.545	21.075	-0.097	-0.078
-283.530	548.454	0.018	-0.042
-282.516	34.582	0.058	0.050
-281.501	46.054	0.118	-0.108
-280.486	253.980	-0.047	-0.080
-279.472	24.611	-0.036	0.029
-278.457	4.262	0.046	0.033
-277.443	-200.000	0.033	-0.199
-276.428	-140.261	-0.148	-0.015
-275.413	-54.946	0.042	0.019
-274.399	-200.000	-0.010	0.056
-273.384	-200.000	-0.020	0.142
-272.370	-129.734	0.073	-0.010
-271.355	772.451	-0.097	-0.262
-270.340	-200.000	0.040	0.184
-269.326	-62.346	0.323	-0.133
-268.311	131.820	-0.122	-0.156
-267.297	76.966	-0.057	-0.060
-266.282	800.000	0.063	-0.248
-265.267	40.779	0.264	0.236
-264.253	213.279	-0.209	0.326
-263.238	-200.000	-0.019	0.228
-262.224	-152.362	0.195	-0.014
-261.209	138.714	-0.172	0.223
-260.195	-200.000	0.039	0.180
-259.180	-57.754	-0.246	0.106
-258.165	210.382	0.114	-0.177
-257.151	273.970	0.114	-0.200
-256.136	-18.850	0.213	0.131
-255.122	-102.683	0.532	-0.126
-254.107	44.295	-0.182	0.165
-253.092	152.868	0.040	-0.053
-252.078	800.000	-0.042	-0.131
-251.063	800.000	0.035	0.116
-250.049	800.000	-0.094	-0.350
-249.034	-200.000	0.036	-0.233
-248.019	444.613	-0.050	-0.109
-247.005	800.000	-0.042	0.121
-245.990	-115.478	0.083	0.015
-244.976	7.297	-0.152	0.112
-243.961	120.216	-0.093	0.115
-242.946	103.382	-0.184	-0.214
-241.932	-145.277	0.460	0.041
-240.917	301.424	-0.091	0.166
-239.903	99.082	0.212	-0.242
-238.888	73.649	-0.159	0.165
-237.873	-46.337	0.252	-0.122
-236.859	-200.000	0.014	-0.122
-235.844	800.000	-0.111	-0.369
-234.830	-137.863	0.002	0.000
-233.815	800.000	0.059	0.226
-232.800	-3.117	-0.177	0.122
-231.786	210.637	-0.144	-0.224
-230.771	-152.347	0.134	-0.010
-229.757	-29.604	-0.212	-0.120
-228.742	-200.000	-0.004	0.263
-227.727	-84.919	0.295	-0.091
-226.713	-162.627	0.230	-0.011
-225.698	-136.050	-0.413	-0.048
-224.684	109.355	0.117	-0.139
-223.669	253.185	0.172	-0.291
-222.655	62.480	0.164	0.162
-221.640	70.367	0.177	-0.181
-220.625	-60.154	-0.200	0.084
-219.611	722.762	-0.057	0.150
-218.596	-26.368	-0.173	0.100
-217.582	314.160	0.122	-0.227
-216.567	688.292	0.025	-0.063
-215.552	-120.491	-0.034	-0.006
-214.538	-102.116	0.386	0.092
-213.523	800.000	0.110	-0.300
-212.509	126.469	-0.159	-0.199
-211.494	93.354	-0.157	0.175
-210.479	-159.466	0.118	0.006
-209.465	-200.000	0.027	0.118
-208.450	55.787	-0.109	-0.104
-207.436	-14.191	-0.171	-0.109
-206.421	502.425	-0.112	0.256
-205.406	-88.020	0.037	-0.011
-204.392	61.479	0.062	0.061
-203.377	-174.774	0.171	0.005
-202.363	800.000	-0.091	-0.337
-201.348	-200.000	-0.053	0.265
-200.333	-68.724	-0.343	-0.131
-199.319	-200.000	-0.006	-0.330
-198.304	53.033	0.248	0.234
-197.290	-86.802	-0.269	-0.081
-196.275	-200.000	-0.018	0.137
-195.260	-200.000	0.034	0.160
-194.246	-89.895	0.268	0.077
-193.231	132.492	0.225	-0.286
-192.217	800.000	-0.064	-0.249
-191.202	-117.606	0.126	0.022
-190.187	56.871	0.169	-0.162
-189.173	-142.863	0.195	-0.019
-188.158	35.428	-0.109	0.094
-187.144	800.000	0.099	-0.287
-186.129	800.000	0.137	0.492
-185.114	-138.858	0.349	-0.037
-184.100	-200.000	-0.021	0.109
-183.085	-72.360	-0.111	0.041
-182.071	96.509	-0.142	-0.161
-181.056	-19.999	0.244	0.148
-180.042	25.436	-0.153	-0.125
-179.027	-49.754	0.176	-0.083
-178.012	-99.922	0.098	-0.024
-176.998	210.439	0.206	-0.319
-175.983	-200.000	0.014	-0.496
-174.969	111.426	0.140	-0.166
-173.954	800.000	-0.022	0.086
-172.939	300.708	0.080	-0.145
-171.925	-24.742	-0.246	-0.144
-170.910	800.000	-0.063	0.226
-169.896	-27.489	-0.155	-0.089
-168.881	-200.000	0.055	0.279
-167.866	182.554	0.077	-0.112
-166.852	-200.000	-0.005	-0.250
-165.837	244.194	0.109	0.180
-164.823	5.070	-0.120	0.087
-163.808	41.266	0.061	0.054
-162.793	800.000	-0.059	-0.189
-161.779	-47.483	0.292	0.140
-160.764	-18.136	0.056	0.034
-159.750	-200.000	-0.016	0.198
-158.735	-3.750	-0.221	0.151
-157.720	15.037	-0.361	-0.278
-156.706	45.462	-0.257	0.234
-155.691	178.855	-0.117	-0.169
-154.677	30.195	0.063	-0.053
-153.662	86.306	-0.113	0.123
-152.647	238.120	0.022	-0.036
-151.633	-200.000	0.084	0.373
-150.618	50.340	0.187	-0.174
-149.604	43.358	0.168	-0.151
-148.589	-200.000	0.048	0.243
-147.574	109.037	-0.327	0.386
-146.560	-23.800	0.193	-0.114
-145.545	800.000	0.010	0.037
-144.531	-200.000	0.032	0.214
-143.516	251.586	0.040	-0.066
-142.502	-12.269	0.205	0.132
-141.487	-200.000	-0.012	-0.155
-140.472	132.160	0.099	0.125
-139.458	85.746	-0.309	0.335
-138.443	-86.698	0.035	-0.010
-137.429	-200.000	-0.062	-0.342
-136.414	-200.000	0.088	0.397
-135.399	209.525	-0.051	-0.079
-134.385	-56.922	0.136	0.059
-133.370	48.265	-0.117	-0.108
-132.356	800.000	0.055	0.176
-131.341	86.100	-0.165	0.179
-130.326	-120.613	0.455	-0.076
-129.312	146.521	0.097	0.128
-128.297	-200.000	-0.058	-0.311
-127.283	-200.000	0.021	-0.115
-126.268	800.000	0.098	0.401
-125.253	771.249	0.113	-0.303
-124.239	66.951	0.123	-0.123
-123.224	60.494	0.123	-0.120
-122.210	-15.561	-0.334	-0.210
-121.195	800.000	0.096	-0.325
