DTS Sentinel unit serial number:	SN413079Multiplexer serial number:	ORYXHardware model number:	OX4-SRSoftware version number:	ORYX F/W v4.00 Oryx Data Collector v3.7.2.0data status	okinstallation	princeton_trtdifferential loss correction	single-endedforward channel	channel 4reverse channel	N/Adate	2019/09/18time	08:21:35forward acquisition time	60.00reverse acquisition time	0.00gamma	496.2192k internal	0.2327k external	0.2327temperature offset calibration	0.9993default loss term (dB/km)	0.3790temperature slope calibration	1.0000multiplexer offset coefficient	1.0000multiplexer slope coefficient	1.0000fibre end	0.00T internal ref (°C)	24.06T ext. ref 1 (°C)	0.21T ext. ref 2 (°C)	19.73length (m)	temperature (°C)	Stokes	anti-Stokes-747.200	296.468	0.169	-0.312
-746.185	267.013	0.029	0.052
-745.171	61.557	0.108	0.108
-744.156	-94.802	-0.147	-0.040
-743.142	-146.615	0.220	0.019
-742.127	800.000	-0.024	-0.094
-741.112	-200.000	0.022	-0.370
-740.098	-89.699	-0.203	0.060
-739.083	647.116	0.117	0.302
-738.069	-93.124	0.236	0.066
-737.054	800.000	-0.058	0.174
-736.039	800.000	-0.116	-0.333
-735.025	358.964	0.059	0.119
-734.010	-200.000	0.010	0.048
-732.996	53.100	0.389	-0.376
-731.981	-120.281	-0.197	0.034
-730.966	-21.921	0.440	-0.270
-729.952	112.357	-0.230	0.281
-728.937	-121.612	-0.459	-0.077
-727.923	800.000	-0.059	-0.231
-726.908	-64.606	0.162	0.066
-725.894	800.000	-0.112	-0.352
-724.879	800.000	-0.189	-0.530
-723.864	-151.950	-0.347	-0.026
-722.850	-173.725	0.039	0.001
-721.835	-176.378	-0.035	-0.001
-720.821	800.000	-0.036	0.149
-719.806	800.000	0.090	0.314
-718.791	23.692	0.236	-0.196
-717.777	-69.991	0.093	-0.036
-716.762	-17.857	-0.161	-0.101
-715.748	-55.813	0.360	-0.162
-714.733	124.328	0.149	-0.188
-713.718	116.414	-0.278	0.343
-712.704	530.609	-0.096	-0.228
-711.689	767.353	-0.131	-0.359
-710.675	72.843	0.200	0.210
-709.660	-165.798	0.226	-0.010
-708.645	522.970	-0.049	-0.117
-707.631	447.058	-0.119	0.263
-706.616	75.434	-0.099	-0.106
-705.602	139.499	0.210	-0.279
-704.587	-51.687	-0.118	0.055
-703.572	95.967	-0.220	-0.253
-702.558	187.094	-0.201	-0.302
-701.543	760.563	0.028	-0.076
-700.529	214.397	0.131	0.208
-699.514	-105.674	-0.077	0.018
-698.499	145.549	-0.104	0.141
-697.485	-28.570	0.152	0.088
-696.470	-147.562	-0.471	-0.040
-695.456	-54.231	0.202	-0.092
-694.441	-155.401	-0.293	0.019
-693.426	-81.832	-0.248	0.082
-692.412	429.199	0.141	-0.306
-691.397	800.000	-0.023	-0.080
-690.383	-73.979	-0.199	0.073
-689.368	17.439	0.053	-0.043
-688.354	-23.912	-0.380	0.228
-687.339	251.147	-0.089	-0.152
-686.324	159.071	-0.099	-0.139
-685.310	7.821	-0.301	-0.227
-684.295	-109.907	-0.303	0.064
-683.281	800.000	0.004	-0.012
-682.266	15.702	-0.200	0.159
-681.251	15.832	0.154	0.122
-680.237	-200.000	-0.039	0.271
-679.222	-200.000	-0.022	-0.182
-678.208	203.712	0.116	0.180
-677.193	101.846	-0.070	0.083
-676.178	160.057	0.036	-0.051
-675.164	-200.000	0.038	0.217
-674.149	-200.000	0.012	0.085
-673.135	532.237	0.104	0.246
-672.120	260.860	-0.102	0.178
-671.105	-200.000	-0.030	0.277
-670.091	-19.638	-0.154	-0.096
-669.076	-200.000	-0.059	-0.322
-668.062	21.782	0.210	0.172
-667.047	-119.861	0.508	-0.088
-666.032	2.679	-0.218	-0.159
-665.018	800.000	-0.070	0.284
-664.003	-200.000	-0.051	0.335
-662.989	800.000	0.047	-0.164
-661.974	41.425	0.204	0.186
-660.959	561.830	-0.104	-0.254
-659.945	427.907	-0.126	0.274
-658.930	124.254	0.105	-0.132
-657.916	-25.954	-0.142	0.084
-656.901	-82.247	0.177	-0.058
-655.886	227.487	-0.154	-0.252
-654.872	-113.110	0.026	-0.005
-653.857	150.432	0.076	-0.103
-652.843	-200.000	0.030	0.298
-651.828	-200.000	0.009	-0.046
-650.814	115.399	-0.202	-0.248
-649.799	532.550	0.105	0.249
-648.784	166.515	0.150	0.213
-647.770	-69.276	0.243	-0.094
-646.755	229.411	0.091	0.149
-645.741	-48.065	-0.259	-0.125
-644.726	-21.739	0.209	-0.128
-643.711	800.000	-0.062	-0.195
-642.697	-119.023	-0.286	0.050
-641.682	-101.470	0.135	0.033
-640.668	-101.101	0.062	-0.015
-639.653	39.014	-0.147	-0.132
-638.638	-111.865	-0.156	-0.032
-637.624	75.192	-0.087	0.092
-636.609	-200.000	0.033	-0.390
-635.595	-98.704	0.211	-0.054
-634.580	4.631	0.150	0.111
-633.565	-62.007	-0.158	0.066
-632.551	27.222	0.306	-0.258
-631.536	-64.149	-0.307	-0.126
-630.522	-200.000	0.020	-0.335
-629.507	-37.359	-0.204	0.109
-628.492	175.208	-0.207	-0.302
-627.478	-104.930	-0.109	0.025
-626.463	800.000	-0.007	-0.024
-625.449	-200.000	0.076	-0.000
-624.434	800.000	0.102	-0.346
-623.419	-2.071	-0.182	-0.128
-622.405	66.229	-0.206	0.210
-621.390	800.000	0.061	0.263
-620.376	-130.839	0.047	-0.006
-619.361	570.715	0.021	-0.052
-618.346	47.808	0.144	0.135
-617.332	-41.248	-0.177	0.092
-616.317	800.000	0.075	-0.308
-615.303	55.493	-0.139	-0.135
-614.288	800.000	-0.032	0.132
-613.273	156.158	0.257	-0.355
-612.259	28.104	0.278	-0.235
-611.244	-200.000	0.015	-0.232
-610.230	-102.389	-0.255	-0.061
-609.215	-200.000	-0.008	-0.333
-608.201	-200.000	-0.053	0.308
-607.186	76.579	0.410	-0.436
-606.171	101.495	-0.171	-0.200
-605.157	103.963	-0.288	-0.340
-604.142	800.000	-0.042	-0.134
-603.128	119.456	-0.168	0.209
-602.113	800.000	-0.073	-0.280
-601.098	122.746	-0.038	0.047
-600.084	800.000	0.049	-0.179
-599.069	-19.958	-0.136	0.084
-598.055	286.100	0.074	0.134
-597.040	-186.942	-0.265	0.004
-596.025	145.915	0.038	-0.051
-595.011	-158.083	-0.174	0.010
-593.996	-89.386	-0.247	0.073
-592.982	124.438	-0.159	0.201
-591.967	-56.199	-0.198	-0.088
-590.952	-200.000	-0.004	-0.277
-589.938	-114.692	-0.121	-0.023
-588.923	71.084	0.231	0.240
-587.909	355.813	0.105	0.210
-586.894	-200.000	0.007	0.307
-585.879	-200.000	0.052	0.235
-584.865	-136.058	-0.286	0.034
-583.850	-59.377	-0.129	-0.056
-582.836	-134.926	-0.048	-0.006
-581.821	-137.050	0.341	-0.039
-580.806	-117.342	-0.143	0.026
-579.792	43.491	-0.158	-0.144
-578.777	800.000	-0.024	0.066
-577.763	-113.282	0.045	-0.009
-576.748	18.799	-0.200	-0.161
-575.733	406.415	0.135	0.286
-574.719	30.134	0.099	-0.085
-573.704	-200.000	0.055	0.278
-572.690	793.680	-0.115	0.317
-571.675	243.155	0.038	-0.064
-570.661	-92.037	-0.242	0.069
-569.646	161.895	-0.103	-0.145
-568.631	800.000	-0.062	0.238
-567.617	360.844	-0.119	0.238
-566.602	-200.000	-0.022	0.202
-565.588	800.000	-0.049	0.150
-564.573	143.409	0.184	0.245
-563.558	171.889	0.163	0.234
-562.544	-200.000	-0.029	0.140
-561.529	-77.554	0.132	0.046
-560.515	-145.884	0.149	-0.013
-559.500	-200.000	0.020	-0.156
-558.485	66.943	0.157	-0.161
-557.471	-113.239	0.185	0.036
-556.456	-38.474	0.078	-0.041
-555.442	-200.000	0.053	-0.317
-554.427	-111.519	0.147	0.030
-553.412	800.000	0.079	0.234
-552.398	800.000	-0.051	0.193
-551.383	41.638	0.081	-0.074
-550.369	-200.000	-0.021	-0.120
-549.354	800.000	-0.090	-0.286
-548.339	47.698	0.433	0.405
-547.325	-123.915	0.163	0.026
-546.310	77.676	-0.077	-0.082
-545.296	-200.000	0.006	0.150
-544.281	-90.623	0.152	0.044
-543.266	504.519	0.140	-0.325
-542.252	-90.456	0.173	0.050
-541.237	-200.000	0.008	-0.102
-540.223	-99.689	-0.202	-0.051
-539.208	80.964	0.113	0.122
-538.193	-200.000	0.013	-0.148
-537.179	-59.844	-0.158	-0.068
-536.164	-200.000	0.021	-0.094
-535.150	336.636	0.145	0.281
-534.135	79.407	-0.065	-0.070
-533.121	800.000	-0.083	-0.235
-532.106	375.296	0.026	0.053
-531.091	13.985	0.275	0.214
-530.077	113.361	0.093	0.113
-529.062	-75.111	0.313	-0.112
-528.048	800.000	0.008	0.028
-527.033	-99.215	-0.209	0.053
-526.018	680.078	0.040	0.103
-525.004	-27.568	-0.249	-0.145
-523.989	-18.757	-0.182	0.113
-522.975	-25.340	-0.127	-0.075
-521.960	-12.529	0.089	0.058
-520.945	429.090	0.149	0.321
-519.931	-200.000	0.005	-0.075
-518.916	256.239	-0.120	-0.206
-517.902	34.595	0.046	-0.040
-516.887	96.810	-0.166	-0.190
-515.872	-2.880	-0.332	0.232
-514.858	-200.000	0.022	0.242
-513.843	800.000	-0.085	-0.302
-512.829	255.704	-0.096	0.165
-511.814	800.000	0.057	0.237
-510.799	-139.563	0.184	0.020
-509.785	800.000	-0.077	-0.261
-508.770	18.989	0.222	-0.178
-507.756	-60.317	0.242	-0.103
-506.741	466.050	0.181	-0.405
-505.726	-150.981	0.167	0.013
-504.712	-200.000	0.009	-0.061
-503.697	305.700	-0.177	0.329
-502.683	8.479	0.180	-0.135
-501.668	-108.713	-0.153	-0.033
-500.653	-94.449	0.180	0.049
-499.639	-105.758	-0.078	0.018
-498.624	-107.048	-0.152	-0.033
-497.610	78.838	0.307	-0.328
-496.595	204.532	0.051	0.078
-495.581	-65.219	-0.381	-0.153
-494.566	-48.545	0.126	0.061
-493.551	151.369	0.096	-0.131
-492.537	800.000	-0.016	-0.053
-491.522	189.227	0.024	-0.036
-490.508	86.625	0.167	0.183
-489.493	319.887	-0.079	0.149
-488.478	20.762	-0.406	-0.328
-487.464	302.936	0.160	-0.296
-486.449	516.659	-0.039	0.090
-485.435	264.321	-0.282	0.489
-484.420	136.743	-0.207	0.269
-483.405	21.332	0.164	0.133
-482.391	-91.354	-0.270	-0.077
-481.376	-200.000	-0.002	0.204
-480.362	-200.000	0.020	-0.162
-479.347	-70.374	0.370	0.140
-478.332	-35.215	0.178	0.097
-477.318	-103.941	-0.062	-0.014
-476.303	-150.993	0.191	0.014
-475.289	-200.000	-0.033	0.295
-474.274	-200.000	0.017	0.272
-473.259	-200.000	0.008	0.294
-472.245	-8.675	-0.111	0.075
-471.230	-200.000	0.019	-0.268
-470.216	268.176	0.127	0.223
-469.201	602.052	-0.048	-0.119
-468.186	800.000	0.056	0.211
-467.172	60.174	0.379	-0.373
-466.157	17.424	-0.173	-0.137
-465.143	256.264	-0.089	0.152
-464.128	-68.137	-0.142	-0.055
-463.113	455.167	0.026	-0.058
-462.099	6.374	0.066	-0.049
-461.084	-82.861	0.101	-0.032
-460.070	-200.000	0.057	0.452
-459.055	-61.048	0.411	0.173
-458.040	-200.000	-0.014	0.188
-457.026	-116.327	-0.402	-0.074
-456.011	195.345	0.078	-0.119
-454.997	-106.219	-0.063	-0.014
-453.982	128.884	0.025	-0.031
-452.968	-92.033	0.099	-0.028
-451.953	153.293	0.169	0.231
-450.938	91.028	0.013	0.014
-449.924	193.786	0.124	0.188
-448.909	-200.000	0.028	-0.197
-447.895	309.135	-0.038	0.071
-446.880	2.518	-0.446	0.322
-445.865	153.077	0.266	0.363
-444.851	800.000	-0.039	0.160
-443.836	70.160	0.102	-0.105
-442.822	-10.817	0.126	0.083
-441.807	-200.000	0.008	0.155
-440.792	160.979	0.198	0.275
-439.778	416.646	0.067	-0.142
-438.763	-200.000	-0.007	-0.280
-437.749	-69.119	-0.154	-0.059
-436.734	-76.921	0.077	-0.027
-435.719	-6.857	0.146	-0.099
-434.705	-46.738	0.413	0.202
-433.690	10.853	-0.019	0.015
-432.676	76.170	0.084	-0.088
-431.661	-79.881	-0.192	-0.064
-430.646	61.328	-0.148	-0.147
-429.632	4.563	0.148	-0.108
-428.617	235.103	-0.065	0.107
-427.603	58.099	0.104	-0.101
-426.588	-200.000	-0.001	-0.477
-425.573	23.640	-0.279	-0.229
-424.559	265.186	-0.121	0.210
-423.544	-4.172	-0.076	0.053
-422.530	-59.667	0.384	0.164
-421.515	191.631	-0.089	0.133
-420.500	-72.229	-0.121	-0.045
-419.486	248.452	0.058	-0.097
-418.471	487.608	0.055	-0.125
-417.457	-108.311	-0.171	0.037
-416.442	-200.000	0.010	-0.110
-415.428	178.834	0.184	0.268
-414.413	329.329	0.119	0.228
-413.398	69.955	0.021	-0.022
-412.384	-200.000	0.068	0.340
-411.369	-14.252	-0.209	-0.134
-410.355	-171.651	-0.243	0.008
-409.340	-95.922	-0.117	0.031
-408.325	-200.000	0.042	-0.208
-407.311	25.154	-0.114	-0.094
-406.296	-52.554	0.065	-0.030
-405.282	167.213	-0.135	0.191
-404.267	-121.223	-0.308	0.051
-403.252	-74.310	0.205	-0.074
-402.238	34.584	-0.170	0.147
-401.223	-200.000	-0.014	-0.141
-400.209	-68.973	-0.426	0.163
-399.194	158.784	0.056	-0.077
-398.179	95.915	0.152	-0.173
-397.165	127.937	-0.092	-0.116
-396.150	800.000	-0.068	0.222
-395.136	-108.813	0.172	0.037
-394.121	41.096	0.094	-0.084
-393.106	-147.497	-0.129	0.011
-392.092	-165.201	-0.233	0.010
-391.077	-103.782	-0.031	0.007
-390.063	238.986	-0.157	-0.260
-389.048	20.940	0.234	-0.189
-388.033	65.365	-0.114	0.115
-387.019	-200.000	0.011	0.315
-386.004	-97.254	0.092	-0.024
-384.990	-200.000	0.008	0.451
-383.975	-129.472	0.097	-0.013
-382.960	-147.416	0.151	0.013
-381.946	-42.297	-0.258	0.131
-380.931	-159.774	-0.122	0.007
-379.917	214.935	0.036	0.057
-378.902	-136.728	0.289	0.033
-377.888	19.070	-0.076	-0.061
-376.873	173.941	-0.078	-0.111
-375.858	800.000	-0.032	-0.129
-374.844	-65.422	-0.457	-0.183
-373.829	694.303	-0.155	-0.405
-372.815	-11.841	0.324	0.211
-371.800	303.195	0.064	-0.118
-370.785	205.063	-0.271	-0.417
-369.771	372.483	0.096	-0.195
-368.756	-0.260	-0.258	-0.182
-367.742	-13.793	-0.293	-0.188
-366.727	-140.736	0.086	-0.009
-365.712	41.900	0.399	-0.360
-364.698	650.474	0.095	0.241
-363.683	-158.211	-0.363	0.021
-362.669	800.000	0.010	-0.039
-361.654	-62.074	-0.258	0.107
-360.639	-111.268	-0.091	-0.018
-359.625	800.000	0.072	0.200
-358.610	570.810	0.075	-0.182
-357.596	-72.292	-0.264	-0.097
-356.581	-179.504	0.247	-0.005
-355.566	586.179	-0.080	-0.196
-354.552	-19.361	-0.275	-0.169
-353.537	-200.000	0.016	0.429
-352.523	-72.530	-0.184	0.067
-351.508	-121.985	-0.235	0.038
-350.493	114.006	0.132	-0.160
-349.479	128.099	0.090	0.114
-348.464	-27.430	-0.091	0.053
-347.450	62.723	-0.085	-0.084
-346.435	423.953	-0.063	-0.134
-345.420	22.892	0.076	0.061
-344.406	-13.744	-0.354	-0.228
-343.391	-112.451	0.360	-0.071
-342.377	321.799	0.106	0.201
-341.362	-200.000	-0.043	0.246
-340.348	25.987	0.359	-0.298
-339.333	-16.737	-0.096	-0.060
-338.318	-200.000	0.002	0.071
-337.304	24.835	0.184	0.152
-336.289	190.908	0.159	-0.238
-335.275	-141.716	0.262	-0.026
-334.260	570.278	-0.114	-0.274
-333.245	-200.000	0.016	-0.272
-332.231	53.649	-0.310	0.295
-331.216	-7.769	-0.054	0.036
-330.202	323.952	0.149	0.281
-329.187	-95.796	-0.201	-0.053
-328.172	-48.528	0.558	0.266
-327.158	-200.000	-0.051	-0.235
-326.143	-159.487	-0.051	-0.003
-325.129	554.678	-0.196	-0.468
-324.114	245.489	0.056	-0.093
-323.099	-200.000	0.020	-0.119
-322.085	-200.000	-0.006	0.199
-321.070	800.000	-0.090	-0.264
-320.056	402.580	-0.255	0.532
-319.041	-100.567	0.085	0.021
-318.026	-12.576	0.274	0.177
-317.012	-121.731	-0.121	-0.020
-315.997	-27.713	0.266	-0.153
-314.983	-43.022	0.080	0.040
-313.968	-200.000	-0.004	0.129
-312.953	800.000	-0.098	0.304
-311.939	800.000	-0.035	-0.103
-310.924	-1.504	0.154	-0.107
-309.910	800.000	0.024	-0.074
-308.895	-132.920	0.345	-0.044
-307.880	-87.601	-0.222	0.066
-306.866	-99.376	0.163	-0.041
-305.851	-48.500	0.209	-0.100
-304.837	8.841	-0.196	-0.146
-303.822	-46.318	-0.020	-0.010
-302.807	184.816	-0.187	0.275
-301.793	68.465	0.259	0.263
-300.778	-200.000	0.030	0.156
-299.764	-200.000	0.029	0.245
-298.749	33.079	-0.179	0.154
-297.735	27.058	-0.066	-0.055
-296.720	-121.009	-0.278	-0.046
-295.705	-200.000	-0.055	0.251
-294.691	-200.000	-0.074	-0.420
-293.676	-119.688	-0.299	0.051
-292.662	-200.000	-0.098	0.428
-291.647	800.000	-0.082	-0.306
-290.632	-73.237	0.100	-0.036
-289.618	319.151	-0.035	-0.067
-288.603	16.092	-0.145	0.113
-287.589	-200.000	-0.008	0.291
-286.574	63.287	0.180	0.178
-285.559	-112.654	-0.501	0.099
-284.545	-159.741	0.084	0.005
-283.530	-69.115	0.276	0.105
-282.516	-170.335	0.179	0.006
-281.501	72.653	0.236	0.244
-280.486	50.810	0.097	0.091
-279.472	-102.538	-0.259	-0.061
-278.457	800.000	-0.023	0.077
-277.443	-99.332	0.209	-0.052
-276.428	-200.000	-0.011	0.154
-275.413	-4.996	0.215	-0.146
-274.399	-29.039	-0.021	-0.012
-273.384	493.616	-0.108	-0.245
-272.370	-200.000	-0.003	0.054
-271.355	-10.040	-0.233	-0.153
-270.340	-28.102	0.246	-0.141
-269.326	-60.025	0.049	0.021
-268.311	-53.361	0.153	0.069
-267.297	800.000	0.054	-0.193
-266.282	800.000	0.038	0.129
-265.267	221.006	-0.175	0.277
-264.253	761.636	0.060	0.160
-263.238	112.263	0.117	0.140
-262.224	-59.610	-0.195	0.083
-261.209	256.792	-0.130	-0.221
-260.195	-34.250	0.345	0.187
-259.180	31.338	0.221	0.188
-258.165	97.396	0.154	0.175
-257.151	-49.142	0.117	0.055
-256.136	11.394	-0.184	0.139
-255.122	-200.000	-0.044	-0.226
-254.107	27.988	-0.271	0.226
-253.092	-191.142	-0.089	-0.001
-252.078	800.000	-0.073	-0.239
-251.063	125.962	-0.123	-0.153
-250.049	-200.000	0.054	-0.310
-249.034	-200.000	-0.067	-0.364
-248.019	218.852	0.144	-0.227
-247.005	-117.739	-0.112	0.020
-245.990	648.062	-0.052	-0.130
-244.976	-200.000	0.036	-0.184
-243.961	81.325	0.218	0.233
-242.946	237.507	-0.158	0.259
-241.932	-200.000	0.010	-0.056
-240.917	48.920	-0.300	-0.278
-239.903	449.880	0.195	-0.425
-238.888	46.624	0.240	0.221
-237.873	-200.000	-0.003	0.037
-236.859	284.453	0.072	-0.128
-235.844	305.870	0.007	0.012
-234.830	-200.000	0.046	0.294
-233.815	78.299	0.174	-0.184
-232.800	-36.243	-0.230	-0.123
-231.786	-134.716	0.345	-0.041
-230.771	-200.000	-0.032	-0.224
-229.757	-57.644	0.031	-0.014
-228.742	800.000	-0.015	0.054
-227.727	14.588	0.215	0.166
-226.713	64.650	0.088	-0.088
-225.698	-102.610	-0.350	0.083
-224.684	-70.255	0.129	0.049
-223.669	-145.896	0.173	-0.015
-222.655	265.421	-0.103	-0.177
-221.640	-99.953	0.338	-0.083
-220.625	75.869	-0.132	-0.138
-219.611	800.000	-0.094	-0.284
-218.596	43.052	0.092	0.083
-217.582	152.618	0.188	-0.254
-216.567	-13.162	-0.306	-0.197
-215.552	800.000	-0.099	-0.324
-214.538	-144.799	-0.005	-0.000
-213.523	800.000	-0.045	0.162
-212.509	99.261	0.128	0.146
-211.494	-200.000	0.031	-0.202
-210.479	-81.131	-0.165	0.054
-209.465	-38.697	0.254	0.132
-208.450	800.000	0.068	-0.196
-207.436	-20.514	0.238	-0.144
-206.421	57.139	-0.038	-0.037
-205.406	294.693	-0.043	-0.078
-204.392	800.000	-0.103	-0.400
-203.377	592.888	0.084	0.204
-202.363	-4.601	0.103	-0.070
-201.348	-110.006	-0.162	0.034
-200.333	-75.902	0.170	0.059
-199.319	-117.958	0.117	-0.021
-198.304	-200.000	-0.033	0.164
-197.290	-95.872	-0.376	-0.099
-196.275	-152.284	0.336	-0.024
-195.260	800.000	-0.049	0.164
-194.246	-200.000	0.049	0.332
-193.231	-82.218	-0.278	-0.089
-192.217	-65.155	-0.294	-0.117
-191.202	252.385	0.071	0.120
-190.187	130.209	-0.172	0.217
-189.173	13.374	0.206	0.157
-188.158	-61.634	-0.144	-0.060
-187.144	-53.746	0.198	0.089
-186.129	249.327	0.161	0.268
-185.114	-51.545	0.295	0.136
-184.100	-200.000	-0.023	-0.103
-183.085	-36.033	-0.263	-0.140
-182.071	214.098	-0.151	0.236
-181.056	-200.000	0.032	-0.160
-180.042	66.926	-0.074	0.075
-179.027	10.219	0.150	-0.113
-178.012	-99.133	-0.009	-0.002
-176.998	79.547	0.122	-0.129
-175.983	2.573	0.160	0.114
-174.969	-0.730	-0.268	-0.188
-173.954	-155.354	-0.281	-0.018
-172.939	-28.530	0.060	-0.034
-171.925	-80.436	-0.253	-0.083
-170.910	366.583	-0.047	-0.094
-169.896	-85.486	-0.341	0.105
-168.881	78.325	-0.132	-0.139
-167.866	-141.151	0.053	0.005
-166.852	-185.380	0.498	0.008
-165.837	-200.000	-0.049	0.236
-164.823	357.935	0.169	0.332
-163.808	-10.495	0.101	-0.066
-162.793	636.997	-0.107	0.268
-161.779	-99.922	0.123	-0.030
-160.764	134.137	0.108	-0.137
-159.750	800.000	0.090	-0.356
-158.735	201.974	0.184	0.280
-157.720	154.022	-0.127	0.172
-156.706	-167.541	-0.147	0.006
-155.691	-52.241	-0.253	-0.115
-154.677	-20.080	-0.148	-0.090
-153.662	-52.492	0.370	0.168
-152.647	-200.000	-0.026	0.251
-151.633	618.377	-0.073	0.180
-150.618	-200.000	-0.010	0.205
-149.604	459.266	0.102	-0.223
-148.589	-200.000	-0.044	0.270
-147.574	-200.000	0.001	-0.200
-146.560	800.000	0.029	0.101
-145.545	800.000	0.043	-0.142
-144.531	-200.000	0.010	-0.175
-143.516	302.326	-0.065	-0.119
-142.502	-26.083	0.223	-0.129
-141.487	-23.226	0.340	0.201
-140.472	722.028	0.053	-0.138
-139.458	800.000	0.105	-0.358
-138.443	-200.000	0.000	0.160
-137.429	-96.119	0.043	-0.011
-136.414	-135.021	0.092	0.011
-135.399	-200.000	0.004	0.081
-134.385	119.792	-0.059	0.072
-133.370	-164.029	0.100	0.005
-132.356	35.617	0.244	-0.211
-131.341	800.000	0.094	-0.320
-130.326	140.217	0.185	0.240
-129.312	-89.581	-0.244	-0.071
-128.297	169.417	0.078	0.110
-127.283	-73.186	0.226	-0.081
-126.268	-81.181	0.254	0.083
-125.253	76.567	0.136	-0.142
-124.239	800.000	0.064	0.193
-123.224	-200.000	-0.029	-0.339
-122.210	-6.067	0.273	-0.184
-121.195	44.403	0.130	0.117
