DTS Sentinel unit serial number:	SN413079Multiplexer serial number:	ORYXHardware model number:	OX4-SRSoftware version number:	ORYX F/W v4.00 Oryx Data Collector v3.7.2.0data status	okinstallation	princeton_trtdifferential loss correction	single-endedforward channel	channel 4reverse channel	N/Adate	2019/09/16time	15:13:35forward acquisition time	60.00reverse acquisition time	0.00gamma	496.2192k internal	0.2289k external	0.2289temperature offset calibration	0.9936default loss term (dB/km)	0.3790temperature slope calibration	1.0000multiplexer offset coefficient	1.0000multiplexer slope coefficient	1.0000fibre end	0.00T internal ref (°C)	41.06T ext. ref 1 (°C)	14.55T ext. ref 2 (°C)	36.61length (m)	temperature (°C)	Stokes	anti-Stokes-747.200	-18.568	-0.329	0.210
-746.185	210.127	-0.225	-0.363
-745.171	394.628	0.094	-0.201
-744.156	282.159	0.095	0.174
-743.142	-104.789	0.319	-0.075
-742.127	217.803	-0.061	0.099
-741.112	-175.301	-0.323	0.009
-740.098	-101.910	0.367	-0.091
-739.083	-31.969	0.273	-0.157
-738.069	221.428	-0.126	0.207
-737.054	-200.000	-0.231	0.001
-736.039	-146.093	-0.189	-0.017
-735.025	-107.224	0.215	0.048
-734.010	-141.663	-0.363	-0.037
-732.996	-31.413	-0.352	-0.203
-731.981	49.928	-0.115	-0.111
-730.966	800.000	-0.022	-0.090
-729.952	229.480	-0.063	0.106
-728.937	-200.000	-0.032	-0.190
-727.923	-200.000	-0.044	-0.221
-726.908	177.437	-0.041	-0.061
-725.894	259.580	-0.085	-0.150
-724.879	218.652	-0.185	0.302
-723.864	208.048	0.044	-0.070
-722.850	-200.000	0.019	-0.089
-721.835	82.959	-0.187	-0.209
-720.821	21.357	-0.315	0.262
-719.806	-63.039	0.470	-0.199
-718.791	-82.357	0.090	-0.030
-717.777	-44.989	0.175	0.089
-716.762	-200.000	0.054	-0.263
-715.748	378.191	0.078	-0.163
-714.733	800.000	0.032	0.097
-713.718	66.784	0.135	-0.141
-712.704	-51.361	0.248	0.119
-711.689	-47.694	-0.109	-0.054
-710.675	-53.399	0.146	-0.069
-709.660	-56.677	-0.119	0.054
-708.645	-104.803	-0.126	-0.030
-707.631	-43.096	-0.026	0.013
-706.616	685.838	0.146	-0.389
-705.602	719.075	-0.011	0.030
-704.587	71.726	0.059	-0.062
-703.572	-200.000	-0.003	-0.110
-702.558	692.486	-0.104	-0.278
-701.543	240.877	-0.037	0.063
-700.529	-16.419	0.120	-0.078
-699.514	15.428	0.115	0.093
-698.499	-26.907	-0.083	0.050
-697.485	95.050	-0.144	0.167
-696.470	-78.369	0.108	-0.038
-695.456	-15.760	-0.139	-0.091
-694.441	49.398	-0.308	-0.297
-693.426	-32.679	0.116	0.066
-692.412	-200.000	-0.064	0.417
-691.397	-99.996	-0.167	0.043
-690.383	-75.858	-0.158	0.057
-689.368	800.000	0.084	-0.335
-688.354	618.653	0.090	0.230
-687.339	275.299	0.140	0.253
-686.324	-135.067	0.234	0.029
-685.310	-200.000	-0.022	-0.192
-684.295	641.552	0.017	0.045
-683.281	411.733	-0.130	0.281
-682.266	-6.265	0.305	0.213
-681.251	45.363	-0.037	-0.035
-680.237	-96.218	-0.201	-0.055
-679.222	402.723	-0.141	-0.303
-678.208	800.000	-0.077	0.269
-677.193	23.456	0.155	0.131
-676.178	8.491	-0.139	0.107
-675.164	-67.306	-0.292	0.117
-674.149	-98.513	-0.187	-0.049
-673.135	-200.000	-0.031	0.201
-672.120	-12.591	-0.022	0.015
-671.105	-12.382	0.230	-0.154
-670.091	17.789	-0.190	-0.155
-669.076	-40.372	-0.101	0.054
-668.062	-200.000	0.002	0.152
-667.047	10.421	-0.172	0.134
-666.032	-117.101	0.572	-0.106
-665.018	-12.014	0.142	0.095
-664.003	-107.690	-0.371	0.083
-662.989	800.000	-0.017	-0.065
-661.974	-123.427	-0.307	0.050
-660.959	-128.916	-0.273	0.039
-659.945	-125.423	0.324	0.050
-658.930	800.000	-0.118	-0.411
-657.916	-148.927	0.179	-0.015
-656.901	49.598	0.281	0.270
-655.886	102.169	0.121	0.144
-654.872	356.945	-0.108	0.220
-653.857	-85.949	0.338	-0.107
-652.843	-87.851	-0.258	-0.079
-651.828	-200.000	0.037	0.203
-650.814	25.296	-0.124	-0.105
-649.799	65.134	0.069	0.071
-648.784	248.043	-0.019	0.033
-647.770	-77.977	0.334	-0.118
-646.755	-62.974	-0.130	-0.055
-645.741	30.367	-0.365	0.318
-644.726	-200.000	0.013	0.167
-643.711	-200.000	-0.005	0.104
-642.697	-82.061	-0.215	-0.072
-641.682	646.442	-0.035	-0.091
-640.668	54.177	-0.053	0.052
-639.653	-128.842	-0.280	0.040
-638.638	-100.691	-0.220	0.055
-637.624	-200.000	0.002	-0.151
-636.609	51.210	-0.228	-0.220
-635.595	-12.780	0.246	-0.164
-634.580	-200.000	-0.063	0.386
-633.565	-122.986	-0.142	0.023
-632.551	68.232	0.069	0.073
-631.536	105.868	-0.111	-0.134
-630.522	-93.851	0.132	0.037
-629.507	-200.000	-0.058	0.352
-628.492	325.454	-0.173	-0.338
-627.478	57.778	0.226	-0.225
-626.463	-131.371	-0.237	0.032
-625.449	129.978	-0.146	0.190
-624.434	-200.000	-0.003	-0.161
-623.419	424.816	-0.073	-0.161
-622.405	-84.351	0.051	0.017
-621.390	-200.000	0.046	-0.356
-620.376	-94.348	-0.200	0.056
-619.361	399.908	-0.045	-0.095
-618.346	356.933	-0.163	-0.331
-617.332	738.446	-0.176	-0.482
-616.317	-200.000	-0.004	-0.129
-615.303	-198.899	-0.334	-0.002
-614.288	-3.977	-0.305	-0.215
-613.273	-39.131	-0.351	-0.188
-612.259	-49.874	-0.308	-0.149
-611.244	67.257	0.111	0.115
-610.230	177.304	-0.027	-0.040
-609.215	-159.582	0.119	0.007
-608.201	552.556	0.036	-0.089
-607.186	-112.795	0.056	0.011
-606.171	155.073	0.072	-0.101
-605.157	344.659	-0.066	0.132
-604.142	800.000	-0.084	0.327
-603.128	-190.835	-0.212	0.002
-602.113	-200.000	-0.001	-0.055
-601.098	66.882	0.106	-0.110
-600.084	-148.247	0.330	0.028
-599.069	6.005	-0.284	0.214
-598.055	-200.000	0.075	-0.605
-597.040	-127.972	-0.240	-0.035
-596.025	-135.693	-0.263	-0.032
-595.011	53.457	-0.340	0.333
-593.996	-2.768	-0.235	0.168
-592.982	-92.320	-0.231	-0.066
-591.967	301.431	0.085	-0.160
-590.952	257.233	0.071	0.124
-589.938	-2.867	0.334	0.238
-588.923	-200.000	-0.002	-0.092
-587.909	800.000	0.016	0.066
-586.894	-200.000	-0.065	0.421
-585.879	239.460	0.048	0.081
-584.865	-200.000	0.005	-0.029
-583.850	22.373	-0.022	-0.019
-582.836	-66.833	0.126	0.051
-581.821	-148.262	-0.096	-0.008
-580.806	-30.848	-0.130	-0.075
-579.792	-26.453	-0.072	0.043
-578.777	-26.374	0.225	0.134
-577.763	800.000	-0.065	0.199
-576.748	201.554	0.060	0.094
-575.733	300.814	-0.115	-0.216
-574.719	-28.466	-0.327	0.192
-573.704	101.139	-0.239	0.283
-572.690	387.111	-0.100	0.211
-571.675	800.000	-0.084	-0.255
-570.661	141.120	0.131	-0.176
-569.646	228.275	0.070	0.116
-568.631	-200.000	0.032	-0.526
-567.617	61.892	0.159	-0.161
-566.602	721.739	-0.046	0.124
-565.588	153.046	-0.069	0.096
-564.573	64.987	0.117	-0.121
-563.558	-200.000	-0.013	0.402
-562.544	93.016	-0.126	-0.144
-561.529	800.000	0.096	-0.277
-560.515	-200.000	0.005	-0.093
-559.500	726.236	-0.127	-0.344
-558.485	-72.919	0.247	-0.092
-557.471	294.420	-0.146	-0.271
-556.456	102.806	-0.145	0.173
-555.442	-200.000	-0.001	0.277
-554.427	197.997	0.207	-0.322
-553.412	359.163	-0.077	-0.157
-552.398	-132.401	-0.193	0.025
-551.383	-130.742	-0.313	-0.043
-550.369	-106.388	-0.202	-0.046
-549.354	800.000	0.066	0.282
-548.339	245.620	0.072	0.123
-547.325	-56.696	0.136	-0.061
-546.310	149.982	-0.080	0.111
-545.296	-189.456	-0.201	-0.002
-544.281	-67.146	0.166	-0.067
-543.266	318.118	0.047	0.090
-542.252	-68.570	0.199	0.079
-541.237	-200.000	0.047	-0.254
-540.223	-60.609	0.072	-0.031
-539.208	223.198	0.121	-0.199
-538.193	-42.080	0.131	-0.068
-537.179	-200.000	-0.038	-0.363
-536.164	599.814	-0.107	-0.269
-535.150	327.075	0.135	0.264
-534.135	35.460	0.217	-0.194
-533.121	-200.000	0.055	0.261
-532.106	-200.000	0.003	-0.197
-531.091	-50.939	-0.392	-0.187
-530.077	56.506	0.076	-0.075
-529.062	-200.000	-0.013	-0.157
-528.048	-116.505	0.266	-0.050
-527.033	800.000	0.115	0.335
-526.018	282.737	0.069	-0.126
-525.004	-147.782	-0.164	-0.014
-523.989	-200.000	0.309	-0.001
-522.975	-146.552	-0.284	-0.025
-521.960	-200.000	-0.008	-0.076
-520.945	229.171	-0.280	0.464
-519.931	800.000	0.043	-0.182
-518.916	-110.047	0.221	-0.047
-517.902	-200.000	0.003	-0.076
-516.887	75.718	-0.133	-0.143
-515.872	756.582	-0.062	0.169
-514.858	606.355	0.107	0.271
-513.843	-20.675	0.148	0.092
-512.829	39.253	0.352	0.320
-511.814	67.248	0.024	0.025
-510.799	-80.344	-0.180	-0.061
-509.785	239.894	0.118	0.199
-508.770	199.321	0.151	-0.235
-507.756	800.000	-0.052	0.163
-506.741	70.928	-0.176	-0.186
-505.726	-200.000	-0.019	-0.426
-504.712	-92.500	-0.061	0.017
-503.697	-200.000	-0.009	0.246
-502.683	-101.348	0.214	-0.053
-501.668	23.998	-0.205	-0.172
-500.653	-107.039	0.394	-0.088
-499.639	114.854	0.277	-0.343
-498.624	2.439	0.209	-0.153
-497.610	12.866	-0.087	-0.069
-496.595	-40.966	0.390	-0.205
-495.581	178.850	0.111	-0.164
-494.566	144.285	-0.099	0.134
-493.551	774.338	0.134	0.372
-492.537	108.139	-0.081	0.098
-491.522	162.642	-0.155	-0.221
-490.508	-1.596	-0.308	0.220
-489.493	-75.626	-0.279	0.100
-488.478	-126.693	-0.131	-0.020
-487.464	-10.396	-0.140	0.094
-486.449	-111.972	-0.054	0.011
-485.435	-200.000	-0.064	-0.306
-484.420	-96.181	0.217	-0.058
-483.405	800.000	-0.039	0.140
-482.391	800.000	-0.108	-0.310
-481.376	-60.399	-0.030	0.013
-480.362	800.000	-0.072	0.292
-479.347	-200.000	-0.017	-0.259
-478.332	28.338	0.266	-0.228
-477.318	800.000	0.045	-0.152
-476.303	-113.089	0.107	-0.021
-475.289	-9.419	-0.032	-0.022
-474.274	-200.000	-0.034	0.186
-473.259	-137.738	0.175	0.020
-472.245	-200.000	0.006	0.299
-471.230	-63.960	0.374	0.155
-470.216	-200.000	0.029	0.278
-469.201	34.347	0.148	0.131
-468.186	84.509	-0.238	-0.264
-467.172	800.000	-0.128	-0.364
-466.157	-181.647	-0.152	-0.003
-465.143	103.018	-0.134	0.159
-464.128	-158.550	-0.127	-0.007
-463.113	62.819	-0.126	-0.127
-462.099	67.586	-0.171	-0.177
-461.084	488.335	-0.061	0.141
-460.070	208.629	0.064	-0.101
-459.055	-132.376	0.327	0.043
-458.040	-84.717	-0.254	0.081
-457.026	-190.795	0.354	-0.004
-456.011	-132.286	0.346	-0.045
-454.997	800.000	0.057	-0.200
-453.982	-200.000	0.020	-0.206
-452.968	-169.216	-0.109	-0.004
-451.953	-200.000	-0.005	-0.077
-450.938	-21.985	-0.314	0.194
-449.924	343.090	-0.023	-0.046
-448.909	-52.837	0.202	-0.094
-447.895	-6.599	-0.173	-0.120
-446.880	-200.000	-0.029	0.404
-445.865	-120.296	0.206	0.036
-444.851	444.764	-0.050	0.111
-443.836	800.000	-0.106	-0.432
-442.822	-200.000	0.039	-0.522
-441.807	-119.430	0.232	0.041
-440.792	-26.757	-0.208	0.123
-439.778	247.981	0.127	0.217
-438.763	-200.000	-0.024	-0.237
-437.749	71.553	-0.100	-0.105
-436.734	800.000	-0.045	-0.177
-435.719	-128.856	0.209	-0.030
-434.705	-82.004	-0.432	0.143
-433.690	506.097	0.080	0.188
-432.676	-55.493	0.226	-0.102
-431.661	-3.106	-0.120	0.085
-430.646	-100.270	-0.252	0.063
-429.632	60.834	-0.031	-0.031
-428.617	103.540	0.192	-0.228
-427.603	108.986	0.108	0.131
-426.588	-32.571	0.065	0.037
-425.573	-73.601	-0.194	-0.072
-424.559	-112.545	0.196	0.040
-423.544	-200.000	0.009	0.125
-422.530	-66.809	-0.148	-0.059
-421.515	102.072	0.092	-0.108
-420.500	-138.568	0.343	-0.038
-419.486	-26.057	0.174	-0.104
-418.471	-79.832	-0.212	0.072
-417.457	257.083	0.070	-0.121
-416.442	111.886	-0.174	0.213
-415.428	-135.002	-0.006	0.001
-414.413	57.559	-0.228	0.225
-413.398	-108.170	-0.396	-0.087
-412.384	73.049	0.206	0.218
-411.369	-92.748	-0.077	0.022
-410.355	19.957	-0.116	0.095
-409.340	140.148	0.011	-0.014
-408.325	-98.091	0.175	0.046
-407.311	-132.559	0.153	-0.020
-406.296	-53.461	-0.326	-0.151
-405.282	183.521	0.064	-0.096
-404.267	35.977	0.115	-0.102
-403.252	231.350	-0.095	-0.158
-402.238	331.715	-0.153	-0.299
-401.223	-33.386	-0.092	-0.052
-400.209	52.251	-0.126	0.121
-399.194	-200.000	-0.005	0.190
-398.179	-119.803	-0.138	-0.024
-397.165	-200.000	0.005	0.208
-396.150	-145.922	0.100	0.009
-395.136	37.167	-0.007	-0.007
-394.121	93.025	-0.043	0.049
-393.106	800.000	-0.032	0.118
-392.092	-56.942	0.296	-0.132
-391.077	-53.635	0.179	0.083
-390.063	-79.895	-0.064	-0.022
-389.048	-200.000	0.015	0.325
-388.033	30.220	0.068	-0.059
-387.019	800.000	0.106	-0.362
-386.004	354.091	0.051	-0.102
-384.990	-91.792	-0.314	-0.090
-383.975	800.000	-0.059	0.228
-382.960	-200.000	-0.039	0.177
-381.946	800.000	0.056	0.233
-380.931	-121.677	-0.247	0.041
-379.917	-4.498	-0.407	0.284
-378.902	-69.176	-0.258	0.100
-377.888	-95.373	0.259	-0.070
-376.873	-141.674	0.283	-0.029
-375.858	39.019	-0.066	0.060
-374.844	-200.000	0.035	0.259
-373.829	48.874	-0.086	-0.081
-372.815	-200.000	-0.002	0.326
-371.800	-190.058	0.245	-0.003
-370.785	161.329	-0.028	-0.039
-369.771	287.055	0.095	0.173
-368.756	14.576	0.332	-0.262
-367.742	800.000	0.012	-0.045
-366.727	69.591	-0.149	0.155
-365.712	800.000	0.002	0.008
-364.698	67.972	-0.187	-0.193
-363.683	-200.000	0.024	0.408
-362.669	800.000	0.085	0.278
-361.654	-27.053	0.282	0.166
-360.639	-94.670	0.094	0.026
-359.625	237.933	-0.078	-0.131
-358.610	800.000	-0.107	0.412
-357.596	-200.000	0.006	-0.041
-356.581	389.039	0.131	0.274
-355.566	650.718	-0.171	-0.442
-354.552	158.089	0.152	0.213
-353.537	-200.000	-0.039	-0.305
-352.523	-60.621	0.190	-0.081
-351.508	800.000	-0.096	-0.343
-350.493	-132.151	-0.084	0.011
-349.479	273.518	-0.191	-0.342
-348.464	-71.089	0.055	0.021
-347.450	52.562	-0.348	-0.336
-346.435	-200.000	0.019	0.172
-345.420	-200.000	-0.046	-0.311
-344.406	38.408	-0.086	-0.077
-343.391	-200.000	-0.051	-0.322
-342.377	-110.357	-0.253	-0.053
-341.362	35.082	0.174	-0.153
-340.348	260.933	0.042	0.073
-339.333	800.000	0.050	-0.183
-338.318	800.000	-0.078	-0.268
-337.304	103.871	-0.122	0.145
-336.289	-159.263	0.414	-0.023
-335.275	595.114	-0.079	-0.198
-334.260	787.887	-0.088	0.245
-333.245	27.604	0.200	0.170
-332.231	60.527	-0.044	0.044
-331.216	190.763	-0.037	0.056
-330.202	300.982	-0.050	-0.093
-329.187	-107.974	-0.377	0.083
-328.172	195.983	0.054	-0.082
-327.158	-15.681	-0.163	0.105
-326.143	150.774	0.169	0.232
-325.129	-168.434	-0.156	-0.006
-324.114	-61.927	-0.022	-0.009
-323.099	-99.710	-0.108	0.027
-322.085	-200.000	0.014	-0.253
-321.070	-200.000	0.000	0.044
-320.056	601.241	0.124	-0.310
-319.041	-200.000	-0.067	-0.309
-318.026	304.769	0.049	-0.092
-317.012	322.916	-0.116	0.223
-315.997	275.914	0.071	0.127
-314.983	-97.583	0.221	-0.058
-313.968	-30.450	-0.171	-0.098
-312.953	-19.475	-0.090	0.056
-311.939	52.715	0.236	-0.228
-310.924	800.000	0.120	-0.376
-309.910	-85.870	-0.127	0.040
-308.895	-200.000	0.015	0.094
-307.880	-200.000	-0.004	-0.146
-306.866	-95.317	-0.331	0.090
-305.851	67.696	0.182	-0.188
-304.837	-54.665	0.065	0.029
-303.822	-54.357	0.160	-0.073
-302.807	-178.664	0.081	-0.002
-301.793	798.817	-0.108	0.299
-300.778	346.788	-0.141	0.280
-299.764	-200.000	-0.000	-0.515
-298.749	800.000	0.115	-0.424
-297.735	64.198	0.014	-0.014
-296.720	-54.143	-0.154	-0.070
-295.705	157.906	0.159	0.222
-294.691	-148.803	0.439	0.036
-293.676	-111.532	-0.411	0.084
-292.662	27.043	0.085	0.072
-291.647	2.806	-0.079	0.058
-290.632	233.515	-0.105	0.174
-289.618	546.305	0.101	-0.242
-288.603	792.229	0.066	-0.183
-287.589	-176.060	-0.061	0.002
-286.574	38.281	0.223	0.200
-285.559	324.819	-0.079	0.152
-284.545	-200.000	-0.005	-0.135
-283.530	64.647	0.334	-0.339
-282.516	97.228	0.160	0.185
-281.501	406.972	0.096	0.203
-280.486	253.048	0.087	0.149
-279.472	24.521	0.096	-0.080
-278.457	-200.000	0.100	0.539
-277.443	-94.241	0.239	-0.066
-276.428	-102.946	-0.121	-0.029
-275.413	-142.203	-0.150	0.015
-274.399	800.000	-0.083	0.353
-273.384	28.006	0.248	0.211
-272.370	300.262	-0.112	0.207
-271.355	800.000	0.072	0.224
-270.340	279.963	-0.033	-0.060
-269.326	458.480	-0.099	0.221
-268.311	209.274	0.071	0.111
-267.297	152.831	0.201	-0.276
-266.282	-18.174	0.088	0.055
-265.267	175.722	0.254	0.371
-264.253	-118.040	0.302	0.054
-263.238	800.000	0.078	0.320
-262.224	-200.000	-0.037	0.200
-261.209	-200.000	0.061	0.321
-260.195	800.000	0.095	0.397
-259.180	-178.049	-0.212	-0.005
-258.165	-105.896	0.251	0.057
-257.151	-23.207	0.196	-0.118
-256.136	17.717	0.405	-0.324
-255.122	-121.922	0.121	0.020
-254.107	-67.981	0.104	-0.041
-253.092	-48.544	0.340	0.165
-252.078	800.000	-0.062	0.252
-251.063	-150.479	-0.214	-0.016
-250.049	46.514	0.272	0.254
-249.034	178.501	-0.173	0.254
-248.019	43.542	0.232	0.213
-247.005	-130.031	0.134	-0.018
-245.990	448.204	-0.137	0.303
-244.976	-100.857	0.308	0.076
-243.961	1.846	0.041	0.030
-242.946	50.219	0.114	0.108
-241.932	-13.786	-0.075	-0.049
-240.917	210.510	0.078	-0.124
-239.903	-122.412	0.175	-0.029
-238.888	-89.766	-0.272	0.080
-237.873	-200.000	0.002	-0.047
-236.859	-200.000	0.017	0.120
-235.844	88.578	-0.117	0.130
-234.830	80.502	0.107	-0.116
-233.815	35.442	0.144	-0.127
-232.800	-133.648	0.084	0.011
-231.786	-4.209	0.211	0.146
-230.771	-92.806	-0.260	0.073
-229.757	800.000	-0.051	0.186
-228.742	-145.762	0.258	0.023
-227.727	162.154	-0.040	-0.056
-226.713	-12.152	-0.141	-0.093
-225.698	499.061	0.032	0.075
-224.684	-200.000	-0.047	0.259
-223.669	800.000	0.027	-0.088
-222.655	-55.849	-0.242	-0.109
-221.640	44.302	0.042	0.039
-220.625	-41.156	-0.279	0.144
-219.611	581.779	0.031	0.076
-218.596	61.485	0.194	-0.194
-217.582	-140.576	0.267	-0.028
-216.567	-200.000	-0.000	0.122
-215.552	-57.573	0.223	0.098
-214.538	-200.000	0.019	-0.221
-213.523	-107.383	0.274	-0.060
-212.509	-200.000	-0.009	0.180
-211.494	-118.480	-0.096	-0.017
-210.479	800.000	0.106	-0.344
-209.465	246.315	-0.094	-0.159
-208.450	-23.268	0.257	0.155
-207.436	-200.000	0.054	0.299
-206.421	-179.082	-0.046	0.001
-205.406	-170.308	-0.187	0.007
-204.392	800.000	-0.019	-0.084
-203.377	651.855	-0.027	0.070
-202.363	120.262	0.094	0.117
-201.348	-123.059	-0.163	0.026
-200.333	-114.350	0.119	0.023
-199.319	-166.841	-0.274	0.011
-198.304	513.285	0.218	-0.509
-197.290	800.000	-0.100	0.327
-196.275	201.369	-0.157	0.243
-195.260	-10.442	-0.215	0.143
-194.246	248.252	-0.161	-0.273
-193.231	4.091	0.134	-0.099
-192.217	71.725	-0.146	-0.152
-191.202	800.000	0.048	0.158
-190.187	203.879	-0.141	0.219
-189.173	45.100	-0.202	0.187
-188.158	-36.662	0.162	-0.087
-187.144	580.415	-0.075	-0.185
-186.129	-200.000	0.027	-0.416
-185.114	-200.000	-0.095	-0.452
-184.100	-56.587	-0.159	0.071
-183.085	-152.060	0.345	-0.025
-182.071	20.427	0.272	-0.221
-181.056	-145.462	0.159	-0.014
-180.042	268.545	0.112	0.197
-179.027	23.970	-0.124	0.103
-178.012	16.339	0.222	0.176
-176.998	800.000	-0.094	0.377
-175.983	667.861	0.083	0.216
-174.969	-24.616	-0.301	0.179
-173.954	800.000	0.128	0.379
-172.939	-200.000	-0.018	0.228
-171.925	562.419	0.022	0.053
-170.910	122.972	-0.068	0.085
-169.896	-52.795	0.111	0.051
-168.881	-42.266	0.365	-0.187
-167.866	257.884	-0.105	-0.182
-166.852	-86.962	0.375	-0.115
-165.837	-99.697	-0.270	-0.068
-164.823	-200.000	-0.004	-0.056
-163.808	-42.320	-0.171	0.087
-162.793	-81.285	0.132	0.044
-161.779	340.792	-0.110	-0.216
-160.764	365.052	-0.020	0.040
-159.750	341.557	0.045	0.088
-158.735	800.000	-0.045	0.149
-157.720	-32.607	0.141	0.079
-156.706	-111.261	-0.248	-0.051
-155.691	-6.106	0.346	-0.237
-154.677	163.932	-0.018	-0.026
-153.662	-22.092	-0.220	-0.134
-152.647	-200.000	0.065	-0.311
-151.633	22.371	-0.058	-0.048
-150.618	487.994	0.021	-0.047
-149.604	-200.000	-0.014	-0.101
-148.589	168.928	-0.077	0.110
-147.574	121.901	-0.130	-0.163
-146.560	510.704	0.154	-0.359
-145.545	-24.778	0.285	-0.170
-144.531	-80.369	0.151	-0.051
-143.516	75.895	-0.045	-0.048
-142.502	-88.662	-0.151	0.045
-141.487	-128.920	0.095	-0.013
-140.472	-120.630	0.077	0.013
-139.458	-8.800	-0.111	0.075
-138.443	270.228	0.117	-0.206
-137.429	644.335	-0.153	-0.391
-136.414	16.789	0.367	-0.290
-135.399	-122.126	0.242	0.040
-134.385	-9.925	0.059	-0.039
-133.370	510.856	0.028	0.065
-132.356	136.325	-0.092	-0.120
-131.341	-182.568	-0.161	0.003
-130.326	32.880	0.190	-0.164
-129.312	100.356	-0.158	0.183
-128.297	602.038	-0.090	0.225
-127.283	-145.117	0.222	0.020
-126.268	-42.991	0.120	0.061
-125.253	-92.666	-0.129	0.036
-124.239	86.356	0.056	0.062
-123.224	497.017	0.037	0.084
-122.210	-93.108	0.075	-0.021
