DTS Sentinel unit serial number:	SN413079Multiplexer serial number:	ORYXHardware model number:	OX4-SRSoftware version number:	ORYX F/W v4.00 Oryx Data Collector v3.7.2.0data status	okinstallation	princeton_trtdifferential loss correction	single-endedforward channel	channel 4reverse channel	N/Adate	2019/09/15time	10:17:35forward acquisition time	60.00reverse acquisition time	0.00gamma	496.2192k internal	0.2298k external	0.2298temperature offset calibration	1.0022default loss term (dB/km)	0.3790temperature slope calibration	1.0000multiplexer offset coefficient	1.0000multiplexer slope coefficient	1.0000fibre end	0.00T internal ref (°C)	34.25T ext. ref 1 (°C)	5.02T ext. ref 2 (°C)	29.53length (m)	temperature (°C)	Stokes	anti-Stokes-747.200	-100.787	0.194	0.049
-746.185	-200.000	0.023	0.601
-745.171	-64.791	-0.403	0.167
-744.156	-200.000	-0.020	0.428
-743.142	77.898	-0.238	-0.259
-742.127	-128.194	-0.329	0.048
-741.112	167.760	-0.113	0.164
-740.098	160.855	0.107	-0.153
-739.083	-36.693	0.364	-0.200
-738.069	-200.000	-0.026	0.147
-737.054	57.376	-0.120	-0.120
-736.039	13.134	-0.206	0.163
-735.025	-85.157	-0.291	-0.093
-734.010	-200.000	0.008	0.061
-732.996	-27.496	-0.343	-0.203
-731.981	-43.287	-0.328	-0.169
-730.966	-156.319	-0.077	0.005
-729.952	-200.000	-0.011	-0.224
-728.937	800.000	-0.034	-0.149
-727.923	-152.711	-0.323	0.023
-726.908	-171.414	-0.450	0.015
-725.894	82.602	-0.100	-0.110
-724.879	-164.503	-0.416	0.019
-723.864	800.000	-0.076	0.304
-722.850	800.000	-0.017	0.055
-721.835	64.125	0.111	0.114
-720.821	-200.000	-0.045	-0.259
-719.806	800.000	0.124	-0.367
-718.791	-12.563	0.285	-0.190
-717.777	-200.000	-0.033	-0.456
-716.762	4.163	0.053	-0.039
-715.748	-200.000	-0.029	0.202
-714.733	-131.459	0.254	0.034
-713.718	-200.000	-0.012	0.168
-712.704	22.718	-0.210	0.175
-711.689	354.432	0.112	-0.227
-710.675	-159.016	0.177	-0.010
-709.660	-170.915	-0.191	0.007
-708.645	-200.000	-0.034	-0.208
-707.631	-50.145	0.162	-0.078
-706.616	369.922	-0.137	0.283
-705.602	-179.512	0.265	0.006
-704.587	-200.000	0.043	0.217
-703.572	-200.000	-0.014	-0.175
-702.558	192.663	0.120	-0.185
-701.543	-3.320	-0.191	0.136
-700.529	119.069	-0.265	-0.334
-699.514	-200.000	-0.027	-0.371
-698.499	-200.000	-0.014	-0.165
-697.485	205.863	-0.122	0.193
-696.470	-200.000	0.049	-0.298
-695.456	472.325	-0.077	0.176
-694.441	36.670	0.079	-0.071
-693.426	67.944	0.210	0.219
-692.412	800.000	0.043	0.147
-691.397	442.122	0.056	0.124
-690.383	92.141	-0.108	-0.124
-689.368	-32.680	0.263	-0.149
-688.354	608.028	0.037	-0.094
-687.339	-128.178	-0.090	-0.013
-686.324	37.852	-0.251	-0.228
-685.310	-3.280	-0.101	-0.072
-684.295	-75.431	-0.232	-0.084
-683.281	800.000	-0.076	-0.271
-682.266	204.190	0.127	0.201
-681.251	-42.504	-0.175	-0.091
-680.237	-106.983	-0.329	-0.074
-679.222	277.703	-0.073	-0.132
-678.208	167.165	-0.261	-0.377
-677.193	482.766	-0.154	-0.356
-676.178	-99.809	-0.270	-0.069
-675.164	-158.691	-0.299	0.017
-674.149	-34.203	0.241	0.135
-673.135	374.641	-0.141	-0.292
-672.120	255.542	-0.049	-0.085
-671.105	-78.919	0.385	0.134
-670.091	-105.022	-0.128	0.030
-669.076	-33.506	0.061	-0.034
-668.062	-200.000	-0.008	-0.039
-667.047	-29.853	-0.133	-0.077
-666.032	800.000	-0.139	0.410
-665.018	-106.059	-0.265	0.061
-664.003	-101.901	0.242	-0.060
-662.989	-9.607	0.177	0.120
-661.974	60.251	0.061	-0.062
-660.959	800.000	0.021	-0.080
-659.945	91.053	0.236	-0.269
-658.930	466.101	0.048	0.110
-657.916	-111.368	-0.086	-0.018
-656.901	503.232	-0.128	0.302
-655.886	800.000	-0.066	-0.281
-654.872	448.251	0.104	-0.233
-653.857	-28.368	-0.183	-0.107
-652.843	-125.032	0.214	-0.033
-651.828	-81.612	-0.317	-0.106
-650.814	-18.949	0.238	-0.150
-649.799	-200.000	-0.039	-0.230
-648.784	-94.216	0.395	-0.110
-647.770	-196.230	-0.251	-0.002
-646.755	-64.890	0.267	0.110
-645.741	-45.735	0.211	-0.106
-644.726	306.323	0.023	-0.043
-643.711	-200.000	0.018	-0.085
-642.697	-20.391	-0.037	0.023
-641.682	295.349	0.100	-0.186
-640.668	237.303	-0.059	0.099
-639.653	46.290	-0.331	-0.312
-638.638	-200.000	0.022	-0.120
-637.624	-200.000	-0.002	-0.011
-636.609	-200.000	0.011	-0.066
-635.595	-200.000	-0.006	-0.222
-634.580	70.973	-0.102	-0.107
-633.565	140.071	0.143	-0.191
-632.551	-20.182	-0.142	-0.089
-631.536	-9.234	-0.137	-0.093
-630.522	-55.860	0.350	-0.159
-629.507	199.201	-0.083	-0.130
-628.492	-33.784	-0.317	-0.177
-627.478	94.813	0.050	0.058
-626.463	624.099	0.052	-0.134
-625.449	800.000	0.034	0.142
-624.434	78.975	-0.279	0.304
-623.419	88.626	0.148	0.167
-622.405	800.000	-0.065	0.259
-621.390	-84.827	-0.064	-0.020
-620.376	148.746	-0.199	-0.273
-619.361	-170.696	0.094	0.003
-618.346	-80.462	-0.159	0.054
-617.332	-200.000	0.059	-0.314
-616.317	-178.980	0.008	-0.000
-615.303	-200.000	0.000	-0.152
-614.288	34.572	0.288	-0.256
-613.273	-170.812	0.128	0.004
-612.259	85.120	-0.136	-0.152
-611.244	-126.227	-0.235	0.036
-610.230	500.565	0.126	-0.295
-609.215	-200.000	-0.013	-0.183
-608.201	-33.152	0.094	0.053
-607.186	54.191	-0.193	-0.188
-606.171	28.618	0.047	-0.040
-605.157	-95.713	0.323	-0.088
-604.142	17.138	0.110	-0.089
-603.128	-200.000	0.013	0.129
-602.113	800.000	-0.041	-0.146
-601.098	27.389	-0.024	-0.021
-600.084	800.000	-0.039	0.116
-599.069	-200.000	-0.005	0.065
-598.055	131.745	-0.165	-0.216
-597.040	461.766	0.104	-0.235
-596.025	552.546	0.136	-0.331
-595.011	-72.294	0.443	0.166
-593.996	800.000	-0.111	0.452
-592.982	706.340	-0.064	0.171
-591.967	13.679	-0.348	-0.274
-590.952	-56.341	-0.361	-0.163
-589.938	181.303	-0.170	0.254
-588.923	348.201	-0.144	-0.287
-587.909	-200.000	-0.026	-0.169
-586.894	-62.227	-0.082	-0.035
-585.879	570.524	-0.175	0.431
-584.865	51.782	-0.276	0.267
-583.850	257.621	-0.132	-0.230
-582.836	-83.705	-0.239	-0.077
-581.821	334.211	-0.140	0.275
-580.806	0.271	-0.506	0.366
-579.792	-163.701	-0.190	-0.009
-578.777	551.524	0.123	-0.300
-577.763	-141.550	-0.138	-0.014
-576.748	-200.000	0.010	-0.330
-575.733	557.733	0.040	-0.097
-574.719	52.686	-0.228	0.221
-573.704	-200.000	-0.024	0.319
-572.690	178.471	-0.070	0.103
-571.675	-67.183	0.242	0.097
-570.661	268.737	-0.176	0.313
-569.646	-200.000	0.023	-0.169
-568.631	4.667	-0.405	-0.302
-567.617	-30.607	0.208	-0.120
-566.602	-164.029	-0.176	-0.008
-565.588	95.971	-0.308	0.357
-564.573	2.768	-0.328	0.242
-563.558	400.110	-0.170	0.361
-562.544	-125.587	-0.251	0.039
-561.529	53.726	0.023	-0.022
-560.515	63.660	0.249	-0.254
-559.500	-32.309	-0.163	-0.092
-558.485	-67.502	0.200	0.080
-557.471	342.509	-0.020	-0.039
-556.456	-200.000	-0.014	0.330
-555.442	555.364	0.050	-0.122
-554.427	-145.469	-0.507	-0.046
-553.412	693.241	-0.046	0.121
-552.398	-200.000	0.006	0.177
-551.383	86.992	-0.086	-0.097
-550.369	-14.492	0.239	-0.156
-549.354	-114.904	-0.117	-0.023
-548.339	-150.172	0.153	0.012
-547.325	800.000	0.038	-0.134
-546.310	60.553	0.086	0.086
-545.296	800.000	-0.069	0.260
-544.281	-122.842	0.231	-0.038
-543.266	-107.279	0.113	-0.025
-542.252	-170.127	-0.033	-0.001
-541.237	431.311	0.186	-0.407
-540.223	-200.000	-0.045	-0.216
-539.208	-149.929	-0.171	-0.014
-538.193	2.593	0.055	0.041
-537.179	-26.531	-0.168	-0.099
-536.164	-126.279	0.226	0.034
-535.150	800.000	0.010	-0.030
-534.135	556.481	-0.133	0.324
-533.121	-124.050	0.366	-0.058
-532.106	-13.040	-0.228	0.150
-531.091	800.000	-0.125	0.376
-530.077	-57.280	0.121	0.054
-529.062	645.064	0.102	0.264
-528.048	-200.000	-0.015	-0.103
-527.033	492.216	-0.075	0.173
-526.018	-16.596	-0.222	-0.142
-525.004	132.277	-0.100	-0.131
-523.989	-56.473	-0.213	0.096
-522.975	319.046	-0.043	0.082
-521.960	672.848	0.033	-0.086
-520.945	-48.637	0.144	0.070
-519.931	-70.633	0.344	0.132
-518.916	800.000	0.018	-0.082
-517.902	800.000	-0.066	-0.232
-516.887	800.000	-0.142	-0.397
-515.872	-0.330	-0.256	0.184
-514.858	64.292	-0.147	-0.150
-513.843	800.000	0.050	-0.173
-512.829	799.762	0.111	-0.311
-511.814	-200.000	-0.044	-0.221
-510.799	-200.000	0.008	-0.055
-509.785	153.814	-0.043	0.060
-508.770	-72.129	-0.370	0.139
-507.756	-31.960	0.301	-0.170
-506.741	-74.450	0.084	-0.031
-505.726	-47.930	0.273	0.134
-504.712	-127.759	0.327	-0.048
-503.697	175.139	-0.117	-0.171
-502.683	-99.818	0.307	0.078
-501.668	509.586	-0.047	-0.111
-500.653	11.840	-0.161	0.125
-499.639	-101.518	-0.085	0.021
-498.624	-0.739	0.264	0.189
-497.610	-200.000	0.030	-0.202
-496.595	94.716	0.129	-0.148
-495.581	-56.349	-0.302	-0.136
-494.566	800.000	-0.132	0.400
-493.551	-200.000	0.044	-0.301
-492.537	-138.606	0.307	-0.034
-491.522	-4.735	0.112	-0.078
-490.508	249.868	0.144	-0.247
-489.493	200.375	0.032	0.049
-488.478	-69.169	0.017	0.007
-487.464	-67.308	0.150	-0.060
-486.449	73.818	-0.383	-0.406
-485.435	167.871	0.132	-0.190
-484.420	-81.946	0.268	-0.088
-483.405	592.015	-0.097	0.243
-482.391	800.000	0.024	-0.089
-481.376	-122.405	-0.208	0.034
-480.362	134.773	-0.042	-0.055
-479.347	800.000	0.076	-0.299
-478.332	-88.522	-0.140	0.042
-477.318	38.636	-0.381	0.344
-476.303	-44.044	0.283	0.144
-475.289	189.898	0.112	0.169
-474.274	311.405	-0.103	0.195
-473.259	-19.330	-0.225	-0.141
-472.245	-141.583	0.064	0.007
-471.230	-117.441	-0.107	0.020
-470.216	-25.076	-0.068	0.041
-469.201	800.000	-0.036	-0.153
-468.186	429.239	0.012	0.027
-467.172	698.966	-0.102	-0.271
-466.157	-26.238	-0.246	0.146
-465.143	-70.521	-0.182	0.069
-464.128	77.451	0.161	0.173
-463.113	-43.636	0.146	0.074
-462.099	16.821	0.129	0.103
-461.084	726.844	-0.087	-0.234
-460.070	110.771	-0.132	0.161
-459.055	245.590	-0.056	-0.095
-458.040	98.720	-0.171	-0.199
-457.026	10.690	0.102	0.079
-456.011	-200.000	0.009	-0.057
-454.997	-67.077	0.193	-0.077
-453.982	188.235	0.178	-0.268
-452.968	129.577	-0.142	-0.184
-451.953	-200.000	-0.002	-0.039
-450.938	-92.463	0.220	0.063
-449.924	31.834	0.274	0.239
-448.909	17.319	0.372	0.298
-447.895	136.497	-0.348	-0.458
-446.880	89.319	-0.156	-0.176
-445.865	-30.929	-0.195	0.111
-444.851	-7.114	0.335	-0.229
-443.836	-200.000	0.010	-0.155
-442.822	-66.495	-0.222	-0.089
-441.807	-173.152	-0.162	0.005
-440.792	800.000	-0.033	-0.126
-439.778	649.044	0.032	0.081
-438.763	-88.337	0.365	-0.110
-437.749	33.384	-0.161	0.141
-436.734	-39.106	-0.086	-0.045
-435.719	9.793	-0.265	0.202
-434.705	33.434	-0.017	-0.015
-433.690	800.000	-0.061	-0.238
-432.676	204.693	0.139	0.218
-431.661	-106.325	-0.188	-0.042
-430.646	746.064	-0.078	-0.212
-429.632	-142.202	0.260	0.026
-428.617	62.830	0.049	0.049
-427.603	-162.204	-0.165	-0.008
-426.588	-87.996	-0.345	0.105
-425.573	611.696	0.133	-0.334
-424.559	-73.629	-0.151	0.055
-423.544	-200.000	0.023	-0.327
-422.530	800.000	0.081	0.323
-421.515	800.000	0.049	0.191
-420.500	624.143	-0.182	-0.461
-419.486	48.008	0.238	-0.224
-418.471	286.664	-0.084	0.152
-417.457	-200.000	0.002	0.363
-416.442	3.025	-0.106	-0.078
-415.428	800.000	0.069	0.220
-414.413	-200.000	0.002	0.045
-413.398	-29.423	0.126	0.072
-412.384	-200.000	0.042	0.331
-411.369	-12.171	0.260	-0.171
-410.355	1.258	-0.015	0.011
-409.340	133.104	-0.115	0.150
-408.325	425.469	-0.127	0.276
-407.311	183.932	-0.067	0.100
-406.296	175.430	0.059	0.086
-405.282	19.668	-0.198	0.161
-404.267	125.866	0.312	0.397
-403.252	-168.286	-0.382	-0.015
-402.238	-54.759	0.450	0.205
-401.223	239.670	0.034	-0.057
-400.209	-5.676	-0.291	0.201
-399.194	-175.990	0.199	0.005
-398.179	800.000	0.032	-0.096
-397.165	152.037	0.097	-0.133
-396.150	251.875	-0.043	-0.074
-395.136	80.274	0.225	-0.244
-394.121	-78.735	0.342	-0.118
-393.106	116.422	0.036	0.044
-392.092	-169.639	0.512	0.019
-391.077	-200.000	-0.031	-0.157
-390.063	471.350	0.129	0.291
-389.048	205.514	0.044	-0.069
-388.033	-200.000	-0.004	-0.053
-387.019	-10.862	0.407	0.270
-386.004	-1.582	0.338	-0.240
-384.990	49.669	0.181	-0.171
-383.975	429.435	-0.119	0.259
-382.960	-86.126	0.104	-0.032
-381.946	15.210	-0.417	-0.329
-380.931	-28.919	-0.185	-0.107
-379.917	-2.450	-0.169	-0.119
-378.902	-25.654	-0.143	0.085
-377.888	-119.993	0.261	0.045
-376.873	-136.956	0.180	-0.021
-375.858	341.568	-0.127	0.250
-374.844	165.764	-0.167	0.238
-373.829	-82.167	-0.196	-0.064
-372.815	-149.129	-0.100	-0.008
-371.800	-142.037	-0.127	-0.013
-370.785	-200.000	0.007	-0.078
-369.771	800.000	-0.046	-0.133
-368.756	84.269	-0.244	-0.268
-367.742	176.809	-0.052	0.077
-366.727	197.781	-0.149	-0.228
-365.712	18.272	0.481	-0.387
-364.698	134.489	-0.119	-0.155
-363.683	-200.000	0.017	-0.148
-362.669	-122.524	-0.135	-0.022
-361.654	-171.927	0.100	0.003
-360.639	58.806	0.233	0.230
-359.625	56.658	-0.088	0.086
-358.610	800.000	0.061	0.261
-357.596	169.722	0.103	-0.148
-356.581	-1.362	0.068	0.048
-355.566	-52.021	0.159	-0.074
-354.552	70.529	-0.202	0.210
-353.537	-200.000	0.026	0.355
-352.523	286.751	0.109	-0.198
-351.508	-200.000	-0.101	-0.475
-350.493	-68.533	-0.422	0.165
-349.479	-200.000	0.006	0.029
-348.464	85.432	-0.138	0.152
-347.450	-85.306	0.146	0.046
-346.435	-82.356	-0.237	0.077
-345.420	-151.721	0.122	-0.009
-344.406	800.000	-0.148	0.494
-343.391	78.704	-0.195	-0.210
-342.377	-96.321	0.181	-0.048
-341.362	-44.486	0.056	0.028
-340.348	-200.000	-0.005	0.097
-339.333	270.132	-0.097	-0.171
-338.318	-200.000	0.033	-0.311
-337.304	-1.760	0.348	0.246
-336.289	42.134	0.196	-0.179
-335.275	-136.247	0.243	-0.028
-334.260	800.000	0.024	0.088
-333.245	253.099	-0.150	-0.258
-332.231	175.965	0.130	-0.189
-331.216	-103.202	0.132	0.031
-330.202	264.272	-0.161	0.282
-329.187	83.494	-0.192	0.210
-328.172	116.405	0.104	0.129
-327.158	269.381	0.105	0.185
-326.143	1.933	0.120	-0.087
-325.129	-58.553	0.416	-0.181
-324.114	-200.000	-0.028	0.451
-323.099	-89.439	-0.583	0.172
-322.085	-41.351	-0.422	0.218
-321.070	181.271	-0.035	0.051
-320.056	-137.992	0.371	0.042
-319.041	-116.416	0.034	-0.006
-318.026	-149.654	-0.073	0.006
-317.012	-200.000	0.011	-0.119
-315.997	571.755	0.121	-0.296
-314.983	-130.360	-0.098	0.013
-313.968	-119.808	-0.301	0.052
-312.953	110.033	-0.232	-0.279
-311.939	-67.547	0.082	-0.032
-310.924	452.998	0.103	-0.229
-309.910	-125.665	-0.052	-0.008
-308.895	-10.109	0.241	0.161
-307.880	-126.162	-0.264	0.040
-306.866	800.000	0.117	0.339
-305.851	800.000	0.132	-0.411
-304.837	39.534	-0.228	0.205
-303.822	104.553	0.126	0.149
-302.807	88.430	0.186	-0.208
-301.793	11.333	0.135	0.104
-300.778	-200.000	0.033	0.240
-299.764	75.107	-0.151	-0.160
-298.749	-200.000	-0.004	0.030
-297.735	74.960	0.285	-0.302
-296.720	74.503	0.114	0.120
-295.705	556.031	-0.048	-0.115
-294.691	-65.588	0.235	-0.094
-293.676	-200.000	0.010	0.525
-292.662	665.250	-0.068	0.176
-291.647	103.386	0.079	-0.093
-290.632	-157.062	-0.121	-0.007
-289.618	750.040	-0.048	-0.131
-288.603	0.777	-0.307	-0.220
-287.589	800.000	0.144	0.489
-286.574	155.595	-0.084	-0.116
-285.559	-26.524	-0.078	0.046
-284.545	-200.000	0.024	0.208
-283.530	-146.794	-0.206	-0.018
-282.516	-200.000	0.049	0.384
-281.501	204.373	0.132	-0.204
-280.486	800.000	0.048	-0.167
-279.472	24.358	-0.189	0.156
-278.457	-200.000	0.014	-0.220
-277.443	-200.000	0.296	0.000
-276.428	-10.276	0.111	-0.074
-275.413	-200.000	-0.048	-0.292
-274.399	-34.307	0.320	0.176
-273.384	530.276	0.077	0.182
-272.370	-62.618	0.021	-0.009
-271.355	19.238	0.172	-0.139
-270.340	82.451	0.230	0.250
-269.326	325.117	-0.036	-0.068
-268.311	191.343	-0.241	-0.364
-267.297	-15.410	0.097	-0.062
-266.282	800.000	-0.028	-0.097
-265.267	-86.625	0.114	0.035
-264.253	242.411	0.056	0.094
-263.238	800.000	0.017	-0.057
-262.224	-41.768	-0.190	-0.098
-261.209	761.111	0.150	0.408
-260.195	73.242	-0.042	0.044
-259.180	-129.298	0.217	0.030
-258.165	-150.380	0.295	0.023
-257.151	800.000	-0.055	-0.160
-256.136	138.454	0.218	0.286
-255.122	-200.000	-0.025	0.263
-254.107	-13.332	-0.011	-0.007
-253.092	91.793	0.151	-0.170
-252.078	-24.484	0.459	0.274
-251.063	-12.892	-0.173	-0.113
-250.049	-115.630	0.182	0.034
-249.034	-112.717	-0.229	0.046
-248.019	-200.000	-0.020	-0.351
-247.005	-106.061	-0.264	0.059
-245.990	-170.822	-0.207	-0.007
-244.976	-200.000	0.047	-0.263
-243.961	800.000	0.047	-0.150
-242.946	232.305	-0.091	0.149
-241.932	444.728	-0.072	-0.158
-240.917	396.847	0.100	-0.210
-239.903	-24.141	-0.119	0.071
-238.888	10.827	0.149	0.114
-237.873	-138.106	0.300	-0.033
-236.859	-12.287	-0.145	-0.095
-235.844	160.128	-0.093	0.130
-234.830	-200.000	-0.004	-0.101
-233.815	-137.786	0.451	-0.051
-232.800	361.674	0.107	-0.215
-231.786	60.938	0.027	-0.027
-230.771	-200.000	0.013	-0.108
-229.757	-2.735	-0.282	0.197
-228.742	-86.154	-0.096	-0.030
-227.727	252.480	0.110	-0.187
-226.713	153.641	-0.193	0.265
-225.698	564.936	0.083	0.202
-224.684	466.838	0.062	0.138
-223.669	-174.892	0.196	0.006
-222.655	105.321	0.253	0.299
-221.640	307.084	0.034	0.063
-220.625	800.000	-0.058	0.169
-219.611	-34.374	0.195	0.107
-218.596	681.240	0.047	-0.121
-217.582	-78.113	0.149	-0.051
-216.567	140.626	-0.161	0.213
-215.552	-87.065	-0.230	0.070
-214.538	-155.252	0.183	-0.012
-213.523	57.972	-0.161	-0.157
-212.509	-17.238	0.228	-0.143
-211.494	175.427	-0.222	0.322
-210.479	29.057	0.188	0.159
-209.465	-200.000	-0.013	-0.208
-208.450	-196.075	-0.364	-0.003
-207.436	20.953	-0.170	0.137
-206.421	16.907	0.134	-0.106
-205.406	-200.000	0.014	0.187
-204.392	-200.000	-0.007	0.217
-203.377	410.929	0.132	0.280
-202.363	-200.000	0.044	-0.234
-201.348	348.514	-0.084	0.166
-200.333	-106.476	-0.413	-0.092
-199.319	-71.810	0.118	0.044
-198.304	103.483	0.085	-0.100
-197.290	-200.000	0.054	-0.239
-196.275	-200.000	-0.003	0.186
-195.260	-81.250	0.231	-0.076
-194.246	63.314	-0.187	0.187
-193.231	800.000	0.093	-0.291
-192.217	10.048	-0.139	-0.105
-191.202	-58.560	-0.443	0.192
-190.187	800.000	0.044	-0.171
-189.173	495.248	-0.059	0.135
-188.158	151.381	0.187	-0.255
-187.144	-200.000	0.075	0.330
-186.129	424.006	-0.071	0.152
-185.114	341.165	0.110	0.215
-184.100	-160.799	0.194	-0.010
-183.085	-200.000	0.011	0.073
-182.071	-24.251	0.167	-0.100
-181.056	-200.000	0.036	0.164
-180.042	83.278	-0.021	-0.023
-179.027	-200.000	-0.069	0.343
-178.012	-200.000	-0.002	-0.196
-176.998	114.024	-0.193	0.234
-175.983	42.505	0.075	0.068
-174.969	-12.079	0.093	0.061
-173.954	-123.448	0.274	0.044
-172.939	34.521	-0.272	0.237
-171.925	-8.365	-0.180	-0.121
-170.910	-43.042	-0.114	0.057
-169.896	181.515	0.114	-0.167
-168.881	81.444	0.206	-0.222
-167.866	219.093	0.128	0.205
-166.852	45.510	0.184	-0.169
-165.837	207.662	0.038	0.059
-164.823	360.186	-0.139	0.277
-163.808	569.513	-0.028	-0.069
-162.793	8.518	-0.206	0.155
-161.779	800.000	-0.070	0.226
-160.764	-151.610	-0.268	0.020
-159.750	-9.400	0.098	-0.065
-158.735	-165.402	-0.051	-0.002
-157.720	30.326	0.272	0.232
-156.706	-200.000	-0.009	0.224
-155.691	257.192	0.089	0.153
-154.677	150.212	0.082	-0.111
-153.662	83.792	-0.163	0.178
-152.647	-84.955	0.131	0.041
-151.633	-141.601	0.280	0.028
-150.618	111.714	0.160	0.193
-149.604	-200.000	-0.043	0.288
-148.589	-200.000	-0.009	-0.144
-147.574	-200.000	-0.028	-0.255
-146.560	55.879	0.204	-0.197
-145.545	-122.459	-0.134	-0.022
-144.531	-31.327	-0.235	-0.132
-143.516	34.367	0.192	-0.167
-142.502	-100.194	0.266	0.066
-141.487	-200.000	0.004	-0.037
-140.472	296.854	-0.158	0.288
-139.458	75.711	-0.115	-0.122
-138.443	-19.631	-0.165	0.102
-137.429	-166.529	-0.129	-0.005
-136.414	800.000	-0.078	0.330
-135.399	-53.918	-0.061	-0.027
-134.385	-101.105	-0.192	0.047
-133.370	4.558	0.135	0.099
-132.356	428.666	-0.070	-0.151
-131.341	11.136	-0.200	0.153
-130.326	26.728	0.124	0.103
-129.312	-62.895	0.091	0.038
-128.297	17.936	-0.236	0.187
-127.283	-85.487	0.287	0.089
-126.268	30.355	-0.200	-0.171
-125.253	173.732	-0.052	0.075
-124.239	36.545	-0.236	-0.208
-123.224	-69.429	-0.369	-0.141
-122.210	-75.496	0.121	0.043
-121.195	395.934	0.070	0.145
