DTS Sentinel unit serial number:	SN413079Multiplexer serial number:	ORYXHardware model number:	OX4-SRSoftware version number:	ORYX F/W v4.00 Oryx Data Collector v3.7.2.0data status	okinstallation	princeton_trtdifferential loss correction	single-endedforward channel	channel 4reverse channel	N/Adate	2019/09/12time	19:05:18forward acquisition time	15.00reverse acquisition time	0.00gamma	496.2192k internal	0.2308k external	0.2308temperature offset calibration	1.0140default loss term (dB/km)	0.3790temperature slope calibration	1.0000multiplexer offset coefficient	1.0000multiplexer slope coefficient	1.0000fibre end	0.00T internal ref (°C)	32.69T ext. ref 1 (°C)	3.05T ext. ref 2 (°C)	27.16length (m)	temperature (°C)	Stokes	anti-Stokes-747.200	440.160	0.104	0.231
-746.185	-136.283	0.085	0.010
-745.171	-141.508	0.475	0.049
-744.156	-200.000	0.101	0.783
-743.142	-134.265	0.937	-0.117
-742.127	202.094	-0.138	-0.217
-741.112	-59.750	-0.716	-0.312
-740.098	-111.169	0.351	0.073
-739.083	-41.872	-0.518	-0.270
-738.069	-57.454	-0.519	-0.232
-737.054	-168.534	0.274	-0.011
-736.039	-121.352	0.292	0.049
-735.025	-40.050	0.856	0.454
-734.010	-116.418	1.397	0.262
-732.996	-88.479	-0.937	0.284
-731.981	-137.587	0.767	-0.088
-730.966	19.443	-0.864	-0.706
-729.952	-27.301	-0.439	-0.259
-728.937	-107.544	0.988	-0.220
-727.923	-60.811	-0.651	-0.280
-726.908	-69.563	0.742	0.289
-725.894	-24.626	-0.428	-0.258
-724.879	722.703	0.104	-0.281
-723.864	-114.291	0.265	-0.052
-722.850	621.555	0.219	-0.561
-721.835	-180.616	0.461	0.010
-720.821	57.210	0.551	-0.546
-719.806	372.125	-0.301	0.621
-718.791	-41.941	-1.035	-0.538
-717.777	251.772	-0.272	0.470
-716.762	800.000	-0.188	-0.697
-715.748	800.000	0.258	0.968
-714.733	261.583	0.108	-0.191
-713.718	267.584	-0.024	-0.042
-712.704	523.151	-0.198	-0.473
-711.689	-109.895	-0.693	0.147
-710.675	98.836	0.363	-0.426
-709.660	-126.549	-0.420	-0.063
-708.645	-90.717	0.557	0.163
-707.631	-200.000	-0.004	0.200
-706.616	104.183	0.295	0.352
-705.602	-200.000	0.053	-0.696
-704.587	800.000	0.180	-0.506
-703.572	94.457	-0.321	0.370
-702.558	-200.000	0.023	0.703
-701.543	800.000	0.178	0.767
-700.529	115.780	-0.216	-0.269
-699.514	-115.092	0.113	-0.022
-698.499	-127.719	0.214	0.031
-697.485	-19.400	-0.278	0.175
-696.470	713.226	-0.062	-0.166
-695.456	282.058	0.057	-0.104
-694.441	-200.000	-0.445	0.001
-693.426	-29.921	-0.347	0.201
-692.412	-55.993	0.968	-0.438
-691.397	226.435	0.162	-0.266
-690.383	-200.000	-0.007	-0.442
-689.368	-5.736	-0.221	-0.153
-688.354	487.848	0.128	-0.296
-687.339	-200.000	-0.048	0.234
-686.324	114.021	-0.225	-0.277
-685.310	-89.492	-0.154	0.046
-684.295	30.982	0.187	0.163
-683.281	37.251	0.733	-0.658
-682.266	137.773	0.076	0.101
-681.251	144.012	-0.173	-0.234
-680.237	-66.000	0.718	-0.291
-679.222	127.356	0.050	0.064
-678.208	46.537	0.521	-0.490
-677.193	416.167	0.257	-0.555
-676.178	694.794	0.076	0.202
-675.164	-143.406	-0.315	0.031
-674.149	-50.393	0.465	-0.223
-673.135	-200.000	-0.012	-0.348
-672.120	-200.000	-0.021	0.226
-671.105	-4.254	-0.208	-0.146
-670.091	-95.145	0.290	-0.079
-669.076	345.624	-0.346	-0.688
-668.062	-133.277	-1.147	-0.147
-667.047	86.558	0.112	-0.125
-666.032	-153.007	-0.393	-0.028
-665.018	-17.656	-0.515	0.328
-664.003	-104.673	-0.387	0.090
-662.989	800.000	0.317	-0.972
-661.974	138.163	-0.331	-0.439
-660.959	-200.000	0.072	-0.362
-659.945	-23.957	-0.241	-0.146
-658.930	-7.115	-0.357	-0.245
-657.916	73.934	0.229	0.244
-656.901	-116.259	-0.702	-0.132
-655.886	-3.948	0.790	-0.555
-654.872	800.000	0.242	-0.824
-653.857	93.701	0.447	0.513
-652.843	17.992	-0.236	-0.191
-651.828	119.388	-0.135	0.169
-650.814	-200.000	0.107	-0.881
-649.799	11.985	-0.487	0.379
-648.784	73.867	-0.346	-0.367
-647.770	723.975	-0.324	-0.875
-646.755	-120.472	0.972	-0.167
-645.741	115.512	-0.431	0.534
-644.726	-51.174	0.534	0.253
-643.711	26.078	-0.475	-0.401
-642.697	-200.000	0.011	-1.174
-641.682	20.597	0.078	-0.064
-640.668	-130.474	0.371	-0.051
-639.653	800.000	0.031	-0.096
-638.638	26.252	0.292	0.247
-637.624	-46.046	0.542	-0.270
-636.609	-52.751	0.391	-0.183
-635.595	800.000	-0.246	0.991
-634.580	-194.085	-0.421	-0.004
-633.565	100.289	0.252	0.296
-632.551	-85.125	0.282	0.089
-631.536	440.667	-0.371	-0.821
-630.522	-35.200	-0.407	0.224
-629.507	-23.296	0.332	0.202
-628.492	501.208	-0.056	0.132
-627.478	32.856	-0.338	0.296
-626.463	-147.502	0.786	0.067
-625.449	800.000	-0.139	-0.421
-624.434	277.548	0.377	-0.680
-623.419	655.186	0.102	0.265
-622.405	-56.540	-0.650	-0.292
-621.390	341.927	-0.088	-0.175
-620.376	-45.843	-0.085	0.042
-619.361	471.468	0.250	0.568
-618.346	-200.000	0.028	-0.476
-617.332	29.476	0.271	0.233
-616.317	-167.799	0.604	-0.024
-615.303	-125.661	-0.376	0.058
-614.288	-159.183	0.276	-0.016
-613.273	236.415	-0.303	-0.508
-612.259	-191.084	-0.493	0.005
-611.244	-98.884	-0.995	0.256
-610.230	-200.000	-0.066	-0.506
-609.215	273.453	0.095	-0.170
-608.201	-41.524	-0.395	-0.205
-607.186	528.490	-0.277	0.660
-606.171	380.284	0.062	0.128
-605.157	186.352	0.351	-0.528
-604.142	-58.699	0.340	-0.149
-603.128	800.000	-0.178	-0.553
-602.113	-108.190	-0.105	-0.023
-601.098	-200.000	0.041	0.279
-600.084	-14.858	0.673	0.437
-599.069	353.911	-0.073	-0.147
-598.055	-145.740	-0.841	-0.076
-597.040	-96.331	0.717	0.192
-596.025	-110.737	0.621	0.130
-595.011	-7.528	-0.857	-0.586
-593.996	-60.838	0.354	0.151
-592.982	-144.883	0.518	-0.048
-591.967	800.000	-0.152	0.426
-590.952	800.000	0.159	-0.457
-589.938	-111.918	0.697	-0.142
-588.923	-145.549	0.408	0.037
-587.909	-27.323	-0.320	0.188
-586.894	224.262	0.702	-1.146
-585.879	27.462	0.319	0.271
-584.865	-9.775	-0.282	0.190
-583.850	-45.276	-0.504	0.253
-582.836	-195.152	-0.255	0.002
-581.821	102.908	-0.282	-0.333
-580.806	-63.810	-0.663	0.274
-579.792	-150.057	-0.496	-0.039
-578.777	-200.000	-0.042	0.342
-577.763	800.000	-0.164	-0.508
-576.748	3.064	-0.259	0.190
-575.733	800.000	-0.091	-0.265
-574.719	-200.000	0.076	-0.397
-573.704	-58.177	0.402	-0.177
-572.690	-90.044	0.254	-0.075
-571.675	-200.000	0.198	-1.223
-570.661	-125.278	-0.764	-0.118
-569.646	-37.301	-0.321	0.173
-568.631	-106.129	0.502	0.114
-567.617	800.000	-0.211	-0.626
-566.602	800.000	0.234	0.656
-565.588	25.356	-0.045	0.038
-564.573	-84.775	-0.936	0.297
-563.558	239.724	0.432	-0.727
-562.544	-86.873	-0.446	-0.137
-561.529	71.611	-0.298	-0.312
-560.515	-200.000	-0.099	-0.614
-559.500	-43.108	0.210	0.108
-558.485	109.616	0.176	0.213
-557.471	273.809	-0.237	0.422
-556.456	195.184	-0.219	-0.336
-555.442	-129.391	-0.854	-0.120
-554.427	-35.304	1.108	-0.608
-553.412	-73.230	0.282	-0.104
-552.398	-87.975	-0.775	-0.235
-551.383	-84.071	0.414	0.133
-550.369	48.844	-0.253	0.240
-549.354	711.289	-0.404	-1.079
-548.339	75.254	-0.410	-0.436
-547.325	-157.632	-0.308	-0.019
-546.310	-150.458	0.394	0.031
-545.296	26.620	-0.380	0.320
-544.281	27.352	-0.208	-0.176
-543.266	92.484	0.334	0.380
-542.252	-20.232	0.541	0.336
-541.237	124.822	0.594	-0.754
-540.223	-56.427	0.342	0.153
-539.208	-35.931	-0.449	-0.245
-538.193	-54.012	0.919	-0.422
-537.179	-81.466	-0.262	0.087
-536.164	-98.185	0.307	0.079
-535.150	-10.510	0.083	-0.055
-534.135	23.461	-0.310	-0.257
-533.121	-4.459	-0.261	-0.182
-532.106	25.152	0.390	0.327
-531.091	800.000	-0.075	0.217
-530.077	800.000	0.229	-0.734
-529.062	-141.878	0.750	-0.076
-528.048	134.643	-0.427	0.559
-527.033	-58.305	-1.086	0.476
-526.018	-15.846	-0.872	0.560
-525.004	-12.462	0.054	-0.036
-523.989	619.225	-0.457	-1.157
-522.975	-46.775	1.087	-0.536
-521.960	83.504	-0.391	0.429
-520.945	11.109	0.290	0.224
-519.931	-33.521	-0.827	0.460
-518.916	-104.953	-0.885	-0.205
-517.902	555.525	-0.228	0.554
-516.887	-30.118	-0.270	-0.155
-515.872	800.000	0.116	-0.503
-514.858	-86.109	-0.287	0.089
-513.843	711.244	0.093	0.248
-512.829	16.250	-0.379	-0.301
-511.814	-78.615	-0.891	-0.307
-510.799	800.000	0.111	-0.326
-509.785	-200.000	0.063	-0.327
-508.770	-200.000	-0.230	1.075
-507.756	-108.399	0.316	-0.069
-506.741	705.108	-0.144	-0.382
-505.726	80.202	0.070	-0.075
-504.712	800.000	0.103	0.451
-503.697	-65.670	0.684	-0.276
-502.683	243.406	0.317	0.535
-501.668	-52.086	0.439	0.205
-500.653	330.080	0.010	-0.019
-499.639	800.000	-0.116	0.506
-498.624	-85.765	-0.432	0.135
-497.610	-200.000	-0.201	0.906
-496.595	31.395	-0.622	-0.538
-495.581	-200.000	-0.062	0.351
-494.566	335.103	-0.090	0.176
-493.551	-62.866	0.389	-0.162
-492.537	186.085	0.233	-0.349
-491.522	-66.692	-0.318	-0.127
-490.508	-11.557	-0.424	0.280
-489.493	-50.206	-0.742	-0.353
-488.478	-176.736	0.410	0.011
-487.464	800.000	-0.095	-0.410
-486.449	61.682	-0.055	0.055
-485.435	-200.000	0.061	0.589
-484.420	49.394	0.430	-0.407
-483.405	-200.000	0.038	-0.440
-482.391	-200.000	0.112	0.504
-481.376	800.000	0.235	-0.918
-480.362	-11.409	0.275	0.182
-479.347	-148.878	-0.071	0.006
-478.332	-73.130	-0.628	-0.231
-477.318	145.906	0.595	-0.803
-476.303	97.892	-0.047	-0.054
-475.289	-200.000	0.058	-0.360
-474.274	800.000	-0.080	-0.246
-473.259	800.000	0.089	-0.303
-472.245	-122.701	-0.578	-0.094
-471.230	-37.816	-0.294	0.157
-470.216	-27.001	-0.631	-0.370
-469.201	-147.496	0.491	-0.042
-468.186	-144.868	0.625	-0.058
-467.172	-76.596	0.504	-0.178
-466.157	633.158	-0.088	-0.223
-465.143	-198.764	-1.067	0.006
-464.128	-67.445	0.787	0.311
-463.113	-179.198	-0.365	0.008
-462.099	92.098	-0.836	-0.946
-461.084	800.000	0.260	-0.773
-460.070	52.643	0.276	-0.265
-459.055	-200.000	0.034	-0.317
-458.040	-180.858	0.735	0.015
-457.026	-200.000	0.026	-0.166
-456.011	800.000	-0.159	0.691
-454.997	58.370	-0.144	0.142
-453.982	-112.522	0.525	0.105
-452.968	-119.026	-0.182	-0.032
-451.953	800.000	-0.065	0.225
-450.938	-65.034	-1.303	0.529
-449.924	800.000	0.247	-0.773
-448.909	800.000	0.171	0.511
-447.895	-30.131	0.739	0.422
-446.880	800.000	0.136	0.479
-445.865	-91.322	0.439	-0.126
-444.851	-67.739	0.062	-0.024
-443.836	156.252	-0.221	0.307
-442.822	-73.925	0.359	-0.131
-441.807	-200.000	-0.070	-0.344
-440.792	-200.000	0.027	0.265
-439.778	-200.000	-0.178	0.838
-438.763	-151.766	-0.450	0.033
-437.749	-42.839	-0.175	-0.089
-436.734	-35.879	-0.119	-0.065
-435.719	299.014	0.158	0.292
-434.705	-200.000	-0.070	1.110
-433.690	76.977	0.426	0.454
-432.676	131.743	0.696	0.899
-431.661	612.034	0.249	0.625
-430.646	-49.300	-0.278	-0.133
-429.632	-69.198	-0.530	0.205
-428.617	446.366	-0.347	-0.765
-427.603	546.647	-0.262	-0.628
-426.588	-71.691	-0.629	0.236
-425.573	325.111	0.267	0.512
-424.559	800.000	-0.150	0.446
-423.544	-50.740	0.223	-0.105
-422.530	-200.000	-0.004	0.112
-421.515	-157.032	1.172	-0.072
-420.500	-45.166	0.476	-0.238
-419.486	-127.472	-0.427	0.062
-418.471	-200.000	0.061	-0.355
-417.457	800.000	-0.285	-0.808
-416.442	-121.070	-0.390	-0.066
-415.428	-5.780	0.021	0.014
-414.413	-98.357	0.254	-0.065
-413.398	-200.000	-0.003	-0.563
-412.384	72.385	-0.164	-0.172
-411.369	222.930	0.145	0.234
-410.355	41.958	-0.589	0.536
-409.340	800.000	0.181	0.529
-408.325	28.876	-0.466	0.396
-407.311	-28.921	0.113	-0.065
-406.296	455.687	-0.345	0.767
-405.282	642.593	0.358	0.916
-404.267	-120.000	0.552	-0.095
-403.252	-200.000	0.101	-0.616
-402.238	800.000	-0.232	-0.971
-401.223	-73.006	-0.513	0.189
-400.209	-56.754	-0.644	0.286
-399.194	78.895	0.508	-0.545
-398.179	196.548	0.328	-0.500
-397.165	800.000	-0.397	1.273
-396.150	359.088	0.295	-0.590
-395.136	-200.000	0.084	-0.762
-394.121	-30.564	0.558	-0.317
-393.106	28.169	-0.463	-0.392
-392.092	519.220	0.127	-0.299
-391.077	-151.814	0.231	-0.017
-390.063	224.994	0.326	-0.530
-389.048	-200.000	0.097	-0.464
-388.033	-162.152	-0.355	-0.018
-387.019	-77.716	-0.364	0.126
-386.004	-146.211	0.311	0.027
-384.990	259.476	-0.286	0.494
-383.975	-71.186	-0.622	-0.234
-382.960	354.326	0.097	-0.194
-381.946	227.025	0.068	-0.110
-380.931	-200.000	-0.006	0.146
-379.917	187.108	-0.181	0.270
-378.902	-200.000	0.076	0.522
-377.888	138.914	0.130	-0.172
-376.873	16.607	-0.209	0.166
-375.858	-108.076	-0.968	0.210
-374.844	254.753	-0.121	-0.207
-373.829	-200.000	-0.200	1.039
-372.815	-42.898	-1.004	0.511
-371.800	800.000	-0.089	0.332
-370.785	-114.159	-0.564	0.109
-369.771	747.588	0.069	-0.187
-368.756	278.010	0.288	0.514
-367.742	-125.627	0.711	-0.108
-366.727	-134.675	-0.909	0.111
-365.712	183.086	-0.449	-0.663
-364.698	146.077	0.488	0.655
-363.683	43.261	-0.425	-0.389
-362.669	206.978	0.301	0.469
-361.654	43.838	0.390	0.358
-360.639	-160.461	-0.967	-0.052
-359.625	353.746	-0.239	0.474
-358.610	-178.795	-0.617	0.014
-357.596	480.512	0.283	0.644
-356.581	800.000	0.121	0.362
-355.566	578.859	0.248	0.608
-354.552	269.714	-0.378	-0.665
-353.537	800.000	-0.159	-0.682
-352.523	469.874	-0.241	-0.543
-351.508	-134.121	0.409	0.051
-350.493	164.253	-0.343	0.483
-349.479	75.556	0.551	0.583
-348.464	171.122	0.210	0.301
-347.450	-29.981	-0.219	-0.125
-346.435	20.809	0.214	-0.174
-345.420	572.455	-0.094	-0.230
-344.406	800.000	0.080	-0.257
-343.391	-200.000	-0.036	-0.205
-342.377	-165.883	-0.942	0.040
-341.362	-159.055	-0.991	-0.056
-340.348	-46.891	0.212	-0.104
-339.333	-200.000	-0.002	-0.106
-338.318	800.000	0.051	0.178
-337.304	-159.016	-0.409	-0.023
-336.289	262.111	-0.210	-0.364
-335.275	-132.223	0.927	-0.120
-334.260	669.309	-0.261	0.675
-333.245	65.370	0.511	0.517
-332.231	-52.378	0.623	-0.288
-331.216	31.483	-0.312	0.268
-330.202	-200.000	-0.004	-0.022
-329.187	800.000	0.151	-0.456
-328.172	-34.405	0.762	0.418
-327.158	-200.000	0.047	0.695
-326.143	-24.888	0.693	-0.412
-325.129	4.656	-0.186	-0.137
-324.114	753.134	0.199	-0.538
-323.099	800.000	-0.225	-0.714
-322.085	116.138	0.192	0.235
-321.070	-62.292	-0.222	-0.092
-320.056	342.962	-0.261	0.511
-319.041	-200.000	0.057	0.815
-318.026	141.650	0.126	0.166
-317.012	-89.684	-0.207	0.061
-315.997	-200.000	0.070	0.442
-314.983	147.257	0.618	0.831
-313.968	-118.006	0.702	-0.125
-312.953	-26.350	0.316	0.186
-311.939	800.000	-0.177	0.691
-310.924	-128.352	0.581	0.083
-309.910	25.359	-0.172	0.143
-308.895	471.657	-0.283	-0.636
-307.880	86.777	-0.599	0.660
-306.866	-150.009	0.631	0.049
-305.851	385.854	0.189	0.390
-304.837	-200.000	0.027	-0.254
-303.822	-142.844	0.445	0.043
-302.807	-200.000	0.005	0.309
-301.793	-200.000	-0.069	-0.450
-300.778	-200.000	0.006	-0.117
-299.764	-37.815	-0.518	0.275
-298.749	-53.186	-1.187	-0.544
-297.735	-200.000	0.114	-0.660
-296.720	165.053	0.101	-0.142
-295.705	20.519	-0.335	0.270
-294.691	-119.089	0.980	0.171
-293.676	800.000	0.050	-0.163
-292.662	-169.945	0.217	0.008
-291.647	800.000	-0.229	0.882
-290.632	-69.211	0.150	0.058
-289.618	27.320	0.611	0.513
-288.603	44.158	-0.450	0.413
-287.589	-34.780	0.805	-0.440
-286.574	-99.496	0.784	-0.197
-285.559	130.068	-0.150	0.192
-284.545	-178.500	-0.238	0.006
-283.530	83.620	0.296	0.322
-282.516	-113.097	0.564	-0.111
-281.501	-200.000	-0.197	1.042
-280.486	-112.432	-0.197	0.039
-279.472	-143.080	0.348	0.034
-278.457	1.097	-0.189	-0.135
-277.443	-57.125	-0.456	0.201
-276.428	109.478	0.452	0.541
-275.413	800.000	0.083	0.328
-274.399	269.730	0.321	-0.563
-273.384	17.615	0.313	0.248
-272.370	103.646	0.301	-0.352
-271.355	505.959	-0.191	-0.441
-270.340	390.855	-0.229	0.474
-269.326	238.085	0.472	0.781
-268.311	263.840	0.242	-0.420
-267.297	800.000	0.188	0.570
-266.282	800.000	0.073	0.230
-265.267	1.046	-0.467	-0.334
-264.253	262.708	0.155	0.269
-263.238	-200.000	-0.079	-0.616
-262.224	4.214	0.413	0.302
-261.209	214.007	-0.258	-0.407
-260.195	-200.000	0.005	0.061
-259.180	-200.000	0.016	-0.366
-258.165	-65.398	-0.646	-0.259
-257.151	-58.689	0.230	0.099
-256.136	89.969	0.450	-0.501
-255.122	800.000	0.301	-1.089
-254.107	-189.406	0.110	0.001
-253.092	544.259	-0.124	-0.296
-252.078	-62.405	-0.677	0.281
-251.063	-12.983	0.504	0.327
-250.049	184.423	-0.416	0.615
-249.034	-200.000	0.171	0.968
-248.019	-90.905	-0.718	0.206
-247.005	-200.000	-0.181	-0.827
-245.990	-180.406	0.062	0.001
-244.976	-75.919	0.459	0.162
-243.961	800.000	0.138	0.405
-242.946	-200.000	-0.078	0.518
-241.932	-164.373	-0.848	-0.039
-240.917	-42.975	-0.341	-0.173
-239.903	74.609	0.136	-0.143
-238.888	140.844	0.028	0.037
-237.873	220.687	-0.455	0.728
-236.859	134.532	-0.360	0.466
-235.844	378.798	-0.257	-0.524
-234.830	-128.515	0.109	-0.015
-233.815	3.026	0.806	0.584
-232.800	-200.000	0.034	0.171
-231.786	800.000	0.293	-0.883
-230.771	233.759	0.258	-0.424
-229.757	427.523	0.254	0.546
-228.742	-200.000	-0.037	0.235
-227.727	113.654	0.440	0.532
-226.713	-41.563	-0.795	0.407
-225.698	56.362	-0.246	0.238
-224.684	-200.000	0.224	-1.203
-223.669	106.363	0.440	-0.520
-222.655	-200.000	-0.071	-0.612
-221.640	800.000	0.050	0.163
-220.625	-134.644	0.507	0.061
-219.611	-35.464	0.329	-0.178
-218.596	-200.000	-0.021	-0.114
-217.582	4.730	-0.426	0.312
-216.567	306.129	0.188	-0.349
-215.552	-160.733	0.837	0.044
-214.538	-200.000	0.065	-0.726
-213.523	-111.168	0.221	0.045
-212.509	-46.819	-0.854	0.416
-211.494	26.057	0.176	-0.146
-210.479	121.994	-0.432	-0.536
-209.465	-200.000	0.005	0.577
-208.450	-65.181	0.431	-0.173
-207.436	-200.000	0.003	0.445
-206.421	19.195	-0.501	0.400
-205.406	-200.000	0.178	0.860
-204.392	800.000	-0.121	-0.432
-203.377	65.308	-0.179	-0.181
-202.363	800.000	0.237	-0.818
-201.348	-66.774	0.319	-0.126
-200.333	-105.818	0.455	0.102
-199.319	-25.822	0.700	0.411
-198.304	347.398	0.153	-0.301
-197.290	272.900	-0.341	0.598
-196.275	-200.000	-0.039	0.588
-195.260	-200.000	-0.081	-0.632
-194.246	615.631	0.272	0.678
-193.231	171.334	0.326	0.465
-192.217	-34.223	-0.638	0.349
-191.202	-123.522	0.692	0.109
-190.187	-200.000	-0.994	-0.000
-189.173	250.202	0.580	-0.980
-188.158	-88.635	-0.568	0.168
-187.144	231.823	0.208	0.339
-186.129	-200.000	0.097	1.128
-185.114	-127.785	0.104	-0.015
-184.100	214.829	-0.252	-0.398
-183.085	800.000	-0.077	0.278
-182.071	70.063	-0.416	0.427
-181.056	81.679	-0.194	-0.209
-180.042	4.304	0.538	-0.392
-179.027	800.000	-0.098	-0.418
-178.012	58.723	0.119	-0.117
-176.998	-200.000	-0.018	0.161
-175.983	-53.667	0.511	0.232
-174.969	800.000	-0.118	-0.493
-173.954	638.850	0.289	-0.729
-172.939	538.196	0.223	-0.528
-171.925	-126.984	-0.595	0.087
-170.910	52.402	0.168	0.159
-169.896	-123.551	0.384	0.061
-168.881	-53.929	1.229	0.556
-167.866	-156.771	-0.702	0.043
-166.852	-46.930	0.156	0.076
-165.837	50.632	0.374	-0.352
-164.823	-200.000	-0.287	1.264
-163.808	55.566	-0.165	-0.159
-162.793	260.153	0.212	-0.365
-161.779	-200.000	-0.037	-0.690
-160.764	-200.000	-0.068	-0.771
-159.750	-118.479	0.661	0.116
-158.735	338.135	-0.190	-0.368
-157.720	186.200	0.562	0.830
-156.706	-78.695	-0.272	-0.092
-155.691	139.834	-0.289	0.378
-154.677	800.000	0.330	-0.939
-153.662	-5.308	0.365	-0.249
-152.647	-97.305	0.487	-0.126
-151.633	-200.000	-0.079	0.454
-150.618	-66.661	-0.320	-0.126
-149.604	3.226	-0.259	0.187
-148.589	-92.911	-0.355	-0.099
-147.574	800.000	-0.314	0.912
-146.560	-144.392	-0.520	-0.048
-145.545	164.354	0.406	-0.568
-144.531	-120.378	0.431	0.073
-143.516	-200.000	-0.105	0.706
-142.502	-61.373	-0.386	-0.161
-141.487	-105.043	-0.413	-0.094
-140.472	132.520	-0.211	-0.271
-139.458	341.132	-0.266	0.516
-138.443	800.000	-0.041	-0.167
-137.429	-77.734	-0.569	0.195
-136.414	-200.000	-0.083	-0.693
-135.399	403.625	-0.372	-0.776
-134.385	-65.484	-0.277	0.111
-133.370	41.990	0.538	0.484
-132.356	458.038	0.086	0.189
-131.341	-200.000	0.013	-0.177
-130.326	534.973	-0.204	-0.480
-129.312	89.986	0.322	0.357
-128.297	800.000	-0.076	-0.230
-127.283	-65.724	0.650	0.258
-126.268	-68.681	-0.446	0.171
-125.253	-62.724	0.159	-0.066
-124.239	-100.068	-0.574	0.142
-123.224	-200.000	0.091	0.658
-122.210	-200.000	0.015	0.585
