DTS Sentinel unit serial number:	SN413079Multiplexer serial number:	ORYXHardware model number:	OX4-SRSoftware version number:	ORYX F/W v4.00 Oryx Data Collector v3.7.2.0data status	okinstallation	princeton_trtdifferential loss correction	single-endedforward channel	channel 4reverse channel	N/Adate	2019/09/12time	23:53:35forward acquisition time	60.00reverse acquisition time	0.00gamma	496.2192k internal	0.2316k external	0.2316temperature offset calibration	1.0180default loss term (dB/km)	0.3790temperature slope calibration	1.0000multiplexer offset coefficient	1.0000multiplexer slope coefficient	1.0000fibre end	0.00T internal ref (°C)	28.75T ext. ref 1 (°C)	3.80T ext. ref 2 (°C)	23.48length (m)	temperature (°C)	Stokes	anti-Stokes-747.200	248.615	0.122	0.210
-746.185	27.982	0.073	0.063
-745.171	252.757	-0.103	0.179
-744.156	93.974	-0.160	0.184
-743.142	-86.384	0.149	-0.046
-742.127	37.683	-0.057	-0.052
-741.112	-161.972	-0.268	0.014
-740.098	124.860	-0.056	0.071
-739.083	-47.135	0.199	-0.098
-738.069	741.019	0.050	0.136
-737.054	-177.601	0.165	0.004
-736.039	-112.660	0.309	-0.062
-735.025	-200.000	0.069	0.390
-734.010	-87.000	-0.264	-0.082
-732.996	-112.213	0.487	0.099
-731.981	-98.060	0.129	-0.034
-730.966	-97.230	0.047	0.012
-729.952	33.677	-0.223	-0.196
-728.937	-58.044	0.109	-0.048
-727.923	379.912	0.193	-0.400
-726.908	-200.000	-0.008	-0.047
-725.894	84.959	-0.219	-0.243
-724.879	-200.000	-0.005	0.032
-723.864	-70.420	0.082	0.032
-722.850	-89.449	-0.134	0.040
-721.835	312.765	-0.223	-0.425
-720.821	264.604	-0.098	-0.172
-719.806	155.438	0.089	-0.124
-718.791	743.401	0.085	0.231
-717.777	-200.000	0.033	0.202
-716.762	59.339	-0.248	-0.247
-715.748	174.011	0.044	0.064
-714.733	-48.490	-0.046	-0.022
-713.718	-100.182	0.239	0.060
-712.704	-59.791	0.169	-0.073
-711.689	174.532	-0.036	0.053
-710.675	271.503	-0.236	-0.421
-709.660	207.903	-0.055	-0.087
-708.645	306.860	0.098	-0.185
-707.631	541.518	-0.065	0.156
-706.616	-81.188	0.228	0.076
-705.602	800.000	0.023	-0.085
-704.587	-184.948	0.422	0.007
-703.572	800.000	-0.115	-0.411
-702.558	-58.116	-0.176	-0.077
-701.543	-124.458	0.263	0.041
-700.529	-80.651	-0.168	-0.056
-699.514	376.137	0.140	0.288
-698.499	800.000	-0.026	-0.096
-697.485	-200.000	-0.032	-0.195
-696.470	-200.000	-0.024	0.181
-695.456	800.000	-0.112	0.350
-694.441	-200.000	0.001	0.257
-693.426	469.671	-0.133	-0.301
-692.412	-98.965	0.359	-0.092
-691.397	-109.918	-0.145	-0.031
-690.383	119.781	0.098	-0.123
-689.368	50.901	0.184	-0.176
-688.354	-200.000	0.018	0.091
-687.339	-40.263	-0.191	-0.100
-686.324	800.000	-0.062	0.218
-685.310	-102.048	-0.273	-0.067
-684.295	-147.908	0.059	0.005
-683.281	-50.565	0.127	-0.060
-682.266	-149.548	-0.311	0.025
-681.251	402.209	0.128	-0.273
-680.237	-138.904	-0.402	-0.044
-679.222	-19.634	0.104	-0.065
-678.208	-198.944	-0.043	-0.000
-677.193	84.069	0.147	-0.162
-676.178	-133.748	-0.233	-0.029
-675.164	-139.356	0.098	0.011
-674.149	31.048	0.082	0.071
-673.135	-152.007	-0.346	0.025
-672.120	80.119	-0.183	-0.199
-671.105	-200.000	-0.014	-0.088
-670.091	265.865	-0.150	-0.264
-669.076	257.066	-0.080	0.139
-668.062	-17.357	-0.350	-0.222
-667.047	800.000	-0.157	-0.629
-666.032	1.199	-0.176	0.128
-665.018	303.283	-0.218	0.408
-664.003	57.419	-0.123	-0.122
-662.989	800.000	0.018	0.061
-661.974	194.708	-0.158	0.242
-660.959	200.726	0.151	0.234
-659.945	101.427	-0.149	0.175
-658.930	-33.670	0.273	-0.152
-657.916	149.044	-0.148	-0.202
-656.901	426.588	0.087	0.189
-655.886	-158.937	-0.195	-0.011
-654.872	15.733	0.230	-0.182
-653.857	-69.001	-0.274	0.107
-652.843	-200.000	0.048	-0.481
-651.828	-200.000	0.033	-0.213
-650.814	67.809	0.160	0.165
-649.799	-111.674	-0.069	-0.014
-648.784	-200.000	-0.010	0.164
-647.770	-40.819	0.097	0.051
-646.755	-111.218	0.266	0.055
-645.741	-21.861	-0.239	0.147
-644.726	3.661	0.262	0.193
-643.711	-23.393	0.086	0.052
-642.697	-178.764	0.185	0.004
-641.682	-137.281	0.094	0.011
-640.668	-12.909	-0.079	0.052
-639.653	-200.000	0.020	-0.176
-638.638	544.463	0.101	-0.244
-637.624	52.600	0.058	0.056
-636.609	443.041	0.045	-0.099
-635.595	38.921	0.204	-0.184
-634.580	-183.781	0.452	-0.008
-633.565	-200.000	-0.014	-0.212
-632.551	63.447	0.230	0.233
-631.536	-133.421	-0.214	0.027
-630.522	-89.151	-0.233	0.069
-629.507	800.000	-0.072	0.270
-628.492	-20.915	-0.119	0.074
-627.478	-200.000	0.003	0.023
-626.463	152.531	-0.271	0.373
-625.449	800.000	0.049	0.206
-624.434	-129.314	0.228	-0.032
-623.419	217.787	0.136	0.219
-622.405	18.357	0.212	0.170
-621.390	-63.163	-0.375	0.156
-620.376	304.352	-0.160	0.298
-619.361	285.817	-0.076	-0.137
-618.346	-122.484	0.336	0.055
-617.332	800.000	-0.054	0.163
-616.317	-19.950	0.177	0.110
-615.303	-200.000	-0.036	0.279
-614.288	424.254	-0.220	0.477
-613.273	373.820	-0.260	-0.533
-612.259	-2.284	-0.143	0.101
-611.244	-200.000	0.032	0.186
-610.230	-23.860	0.157	0.095
-609.215	11.025	-0.304	0.234
-608.201	-128.734	-0.435	-0.062
-607.186	-57.804	0.163	-0.072
-606.171	-140.221	0.101	0.011
-605.157	-200.000	-0.039	0.360
-604.142	-63.851	0.181	-0.075
-603.128	239.318	0.097	-0.163
-602.113	-114.482	0.225	0.044
-601.098	594.046	-0.093	0.231
-600.084	-200.000	-0.007	0.081
-599.069	-200.000	0.016	-0.238
-598.055	118.431	-0.245	-0.304
-597.040	306.552	0.142	-0.266
-596.025	-44.052	-0.403	0.204
-595.011	-200.000	-0.011	0.360
-593.996	1.483	0.031	0.022
-592.982	-132.720	-0.136	0.018
-591.967	109.401	-0.220	-0.265
-590.952	800.000	0.043	0.175
-589.938	120.812	-0.149	-0.187
-588.923	36.968	0.137	0.122
-587.909	77.504	0.252	0.270
-586.894	800.000	-0.034	-0.105
-585.879	-73.570	-0.187	-0.069
-584.865	164.428	-0.139	-0.197
-583.850	-70.475	-0.221	0.084
-582.836	-124.405	0.150	0.024
-581.821	164.958	-0.012	0.017
-580.806	217.942	-0.028	-0.045
-579.792	-48.112	-0.089	0.043
-578.777	-45.791	-0.037	0.018
-577.763	800.000	-0.107	-0.384
-576.748	-133.974	-0.120	0.015
-575.733	-200.000	0.014	0.145
-574.719	-63.381	-0.317	0.131
-573.704	-183.904	0.173	0.003
-572.690	-147.343	-0.194	-0.017
-571.675	-180.143	0.274	-0.006
-570.661	-190.134	0.351	0.004
-569.646	231.687	-0.096	0.158
-568.631	-200.000	0.048	-0.315
-567.617	58.527	0.123	-0.121
-566.602	-9.104	0.192	-0.129
-565.588	800.000	-0.014	-0.050
-564.573	623.313	-0.051	-0.129
-563.558	792.711	-0.077	-0.213
-562.544	-200.000	0.021	0.201
-561.529	54.961	0.146	-0.142
-560.515	172.474	-0.117	-0.169
-559.500	-109.846	-0.185	0.039
-558.485	289.601	0.029	-0.052
-557.471	-127.479	0.104	-0.015
-556.456	-200.000	0.059	-0.264
-555.442	-105.495	-0.105	0.024
-554.427	79.722	-0.157	0.170
-553.412	800.000	0.021	-0.071
-552.398	76.339	0.027	-0.029
-551.383	228.680	0.169	0.278
-550.369	-58.331	0.046	0.020
-549.354	-200.000	0.038	-0.283
-548.339	-130.646	-0.401	0.054
-547.325	-119.296	-0.276	-0.048
-546.310	-200.000	-0.035	-0.176
-545.296	-7.154	0.098	0.067
-544.281	-108.096	-0.293	-0.064
-543.266	-144.355	-0.253	-0.024
-542.252	468.370	0.131	-0.296
-541.237	758.525	-0.020	-0.054
-540.223	97.345	-0.076	0.087
-539.208	-165.729	0.302	-0.013
-538.193	-200.000	0.020	-0.120
-537.179	-200.000	-0.009	-0.067
-536.164	360.187	0.029	-0.058
-535.150	56.991	0.064	0.063
-534.135	-65.800	0.244	0.098
-533.121	-91.411	-0.229	0.066
-532.106	-200.000	0.076	0.389
-531.091	342.342	-0.024	0.047
-530.077	364.164	0.104	-0.211
-529.062	-20.657	-0.169	0.104
-528.048	-148.177	-0.228	-0.019
-527.033	800.000	-0.025	-0.102
-526.018	-80.128	0.149	0.050
-525.004	49.622	-0.123	-0.116
-523.989	-114.649	0.083	-0.016
-522.975	-200.000	-0.017	0.352
-521.960	-126.441	0.404	0.060
-520.945	172.826	-0.224	-0.323
-519.931	-200.000	-0.046	-0.235
-518.916	-53.021	-0.352	-0.162
-517.902	32.137	-0.048	-0.042
-516.887	302.916	-0.027	0.050
-515.872	293.443	-0.058	-0.107
-514.858	6.171	0.113	-0.084
-513.843	-104.008	-0.214	0.050
-512.829	-19.624	0.128	0.080
-511.814	-200.000	0.028	0.132
-510.799	315.641	0.057	0.107
-509.785	37.461	0.132	-0.118
-508.770	-133.103	0.090	0.011
-507.756	-98.267	0.264	-0.068
-506.741	-200.000	-0.018	0.186
-505.726	-153.443	0.210	-0.015
-504.712	-64.646	0.230	-0.094
-503.697	6.216	-0.123	-0.091
-502.683	128.104	-0.111	0.142
-501.668	162.276	0.181	-0.254
-500.653	323.964	-0.080	-0.154
-499.639	800.000	0.023	-0.072
-498.624	800.000	0.014	-0.042
-497.610	501.364	-0.106	0.246
-496.595	800.000	-0.135	-0.455
-495.581	-70.621	0.213	0.081
-494.566	3.638	0.068	-0.050
-493.551	800.000	-0.017	-0.049
-492.537	90.720	-0.100	0.113
-491.522	-38.808	-0.234	0.124
-490.508	499.713	-0.076	-0.176
-489.493	-200.000	0.071	0.339
-488.478	376.643	0.136	0.278
-487.464	-146.245	-0.458	0.040
-486.449	-103.720	-0.346	-0.081
-485.435	23.931	-0.051	0.042
-484.420	-109.329	-0.383	0.081
-483.405	4.836	-0.164	-0.121
-482.391	350.780	0.120	0.238
-481.376	-200.000	-0.089	0.537
-480.362	-103.425	0.191	-0.045
-479.347	-98.750	0.176	0.045
-478.332	800.000	-0.080	0.257
-477.318	-38.336	0.186	0.099
-476.303	103.256	0.153	0.180
-475.289	56.270	-0.162	0.158
-474.274	21.587	0.077	-0.063
-473.259	9.392	0.286	0.217
-472.245	-158.071	-0.436	0.026
-471.230	-127.855	-0.335	-0.048
-470.216	111.383	0.083	-0.100
-469.201	50.296	-0.317	0.300
-468.186	306.954	0.126	0.236
-467.172	31.628	-0.258	0.223
-466.157	-39.562	-0.275	0.145
-465.143	-73.909	-0.086	0.031
-464.128	-47.833	0.253	-0.123
-463.113	-200.000	0.004	-0.091
-462.099	-72.767	-0.015	-0.005
-461.084	-200.000	-0.002	-0.307
-460.070	800.000	-0.020	0.061
-459.055	343.350	-0.071	0.139
-458.040	6.198	-0.381	-0.283
-457.026	395.677	-0.033	-0.070
-456.011	-200.000	0.031	-0.201
-454.997	435.469	-0.105	-0.229
-453.982	-93.849	-0.206	0.057
-452.968	-116.081	0.149	0.028
-451.953	137.941	-0.224	0.294
-450.938	-102.430	0.136	-0.033
-449.924	16.983	-0.242	-0.192
-448.909	-129.079	-0.137	-0.019
-447.895	-97.134	0.083	-0.022
-446.880	-14.738	0.400	0.257
-445.865	60.708	0.095	0.094
-444.851	-34.987	-0.320	0.175
-443.836	-200.000	-0.032	-0.412
-442.822	-164.191	-0.387	0.018
-441.807	-131.459	-0.259	-0.034
-440.792	-26.002	0.145	0.085
-439.778	215.753	-0.071	0.112
-438.763	-137.546	0.183	0.021
-437.749	52.417	0.289	-0.276
-436.734	800.000	0.122	-0.396
-435.719	103.347	0.289	-0.340
-434.705	-2.235	0.249	-0.175
-433.690	96.994	0.166	-0.190
-432.676	800.000	0.035	-0.135
-431.661	190.407	-0.252	0.379
-430.646	467.359	-0.201	-0.451
-429.632	-200.000	0.013	0.246
-428.617	-172.302	0.118	0.004
-427.603	110.208	-0.097	-0.117
-426.588	-63.231	0.222	0.092
-425.573	10.966	-0.392	-0.300
-424.559	-5.988	-0.212	-0.145
-423.544	107.294	0.202	0.241
-422.530	157.104	0.074	-0.102
-421.515	192.796	-0.161	0.243
-420.500	-109.704	0.106	0.022
-419.486	-127.924	0.153	0.022
-418.471	-90.075	-0.106	0.031
-417.457	373.735	0.199	0.405
-416.442	-107.740	-0.098	-0.021
-415.428	80.302	-0.160	-0.172
-414.413	-66.066	-0.478	-0.191
-413.398	-22.973	-0.224	-0.135
-412.384	274.692	-0.078	-0.139
-411.369	-100.948	0.178	0.044
-410.355	23.067	-0.484	0.397
-409.340	-8.057	-0.134	-0.090
-408.325	-159.394	-0.176	0.010
-407.311	542.613	0.069	0.163
-406.296	-39.162	0.156	0.082
-405.282	-98.117	0.183	-0.047
-404.267	-200.000	-0.037	-0.189
-403.252	-36.814	-0.064	-0.034
-402.238	117.021	-0.054	0.066
-401.223	-119.255	0.141	0.025
-400.209	-35.456	0.168	0.091
-399.194	-41.919	-0.106	-0.054
-398.179	-200.000	0.012	-0.112
-397.165	679.174	-0.123	-0.320
-396.150	-200.000	0.017	0.228
-395.136	9.731	0.200	-0.151
-394.121	368.708	-0.095	-0.192
-393.106	-115.389	0.330	-0.062
-392.092	7.550	0.235	-0.176
-391.077	-64.341	0.147	0.060
-390.063	13.205	0.300	-0.232
-389.048	-12.742	-0.378	0.246
-388.033	-13.039	0.110	0.072
-387.019	518.505	-0.083	0.194
-386.004	69.886	-0.101	-0.104
-384.990	800.000	-0.082	-0.304
-383.975	-193.991	-0.404	-0.003
-382.960	210.382	0.145	-0.228
-381.946	423.187	-0.061	-0.132
-380.931	110.971	0.200	0.240
-379.917	-0.584	0.014	0.010
-378.902	800.000	-0.010	-0.031
-377.888	-0.814	-0.210	0.149
-376.873	-26.819	0.152	-0.088
-375.858	-85.848	0.261	-0.081
-374.844	-200.000	-0.072	-0.485
-373.829	-100.737	0.112	0.028
-372.815	-91.498	0.357	0.102
-371.800	-62.297	-0.228	0.095
-370.785	800.000	-0.074	0.233
-369.771	58.302	-0.136	-0.133
-368.756	104.168	0.054	-0.064
-367.742	25.473	0.240	0.200
-366.727	-78.258	0.124	0.042
-365.712	-131.527	0.213	-0.028
-364.698	480.528	-0.076	0.171
-363.683	-200.000	0.017	-0.106
-362.669	-92.996	0.035	0.010
-361.654	58.094	-0.189	0.185
-360.639	87.142	-0.212	0.233
-359.625	362.109	0.103	-0.206
-358.610	5.703	0.153	-0.113
-357.596	-53.658	-0.201	-0.092
-356.581	-52.593	-0.134	-0.062
-355.566	623.436	0.094	-0.237
-354.552	13.111	0.420	-0.324
-353.537	-41.045	0.192	-0.099
-352.523	-124.724	0.055	0.008
-351.508	46.302	0.038	0.035
-350.493	529.410	-0.076	0.180
-349.479	-138.545	-0.215	-0.024
-348.464	-55.712	-0.067	-0.030
-347.450	254.223	0.272	0.464
-346.435	136.056	-0.108	-0.140
-345.420	383.214	-0.144	0.296
-344.406	-127.367	-0.181	-0.026
-343.391	800.000	-0.038	-0.132
-342.377	176.344	0.234	0.339
-341.362	-154.518	0.181	0.012
-340.348	-154.150	-0.076	0.005
-339.333	450.032	0.126	-0.277
-338.318	800.000	-0.075	0.258
-337.304	245.001	0.169	0.284
-336.289	-53.679	-0.356	-0.162
-335.275	800.000	-0.041	0.125
-334.260	800.000	0.110	-0.438
-333.245	-200.000	-0.043	-0.345
-332.231	-200.000	-0.020	-0.188
-331.216	-200.000	0.003	-0.138
-330.202	-27.252	0.079	-0.046
-329.187	-162.670	-0.354	-0.017
-328.172	800.000	0.071	-0.231
-327.158	76.692	0.151	-0.159
-326.143	-200.000	0.007	0.073
-325.129	644.317	-0.053	-0.135
-324.114	9.641	0.264	-0.199
-323.099	-200.000	0.013	0.107
-322.085	92.215	-0.075	0.084
-321.070	-125.515	0.502	-0.076
-320.056	-58.355	-0.060	0.026
-319.041	22.869	0.170	-0.139
-318.026	-200.000	0.011	0.214
-317.012	-127.955	-0.144	0.021
-315.997	-34.631	0.089	-0.048
-314.983	432.827	0.034	0.074
-313.968	-126.107	-0.222	0.033
-312.953	66.708	0.142	0.144
-311.939	-200.000	0.008	0.173
-310.924	289.107	0.229	-0.414
-309.910	37.566	0.135	0.119
-308.895	7.662	0.012	0.009
-307.880	195.037	0.142	0.214
-306.866	-100.476	-0.475	-0.117
-305.851	759.035	0.044	-0.119
-304.837	-200.000	0.020	0.157
-303.822	-200.000	-0.008	-0.040
-302.807	100.469	0.044	0.051
-301.793	800.000	-0.059	-0.202
-300.778	800.000	0.036	-0.139
-299.764	120.511	-0.101	-0.125
-298.749	-200.000	-0.010	-0.298
-297.735	36.327	0.055	-0.048
-296.720	271.100	0.196	0.344
-295.705	432.930	0.123	0.266
-294.691	249.441	0.017	-0.029
-293.676	379.381	-0.062	-0.126
-292.662	800.000	0.024	0.080
-291.647	-62.879	-0.271	-0.112
-290.632	800.000	0.080	0.230
-289.618	-113.726	-0.187	0.036
-288.603	191.217	-0.156	-0.233
-287.589	5.363	-0.383	0.281
-286.574	-23.247	-0.258	0.155
-285.559	60.103	-0.217	0.213
-284.545	123.278	0.185	0.230
-283.530	800.000	-0.053	0.227
-282.516	800.000	0.033	-0.092
-281.501	-9.177	0.093	-0.062
-280.486	-12.138	0.273	0.178
-279.472	102.729	-0.140	0.163
-278.457	337.232	0.123	-0.238
-277.443	-17.067	-0.095	0.060
-276.428	-134.489	-0.146	-0.018
-275.413	74.625	0.131	-0.137
-274.399	216.128	-0.258	-0.407
-273.384	9.100	-0.251	0.189
-272.370	88.294	0.101	0.112
-271.355	57.543	0.089	0.086
-270.340	-49.654	0.110	0.052
-269.326	52.575	-0.170	-0.161
-268.311	-99.589	-0.107	-0.027
-267.297	6.741	-0.220	-0.162
-266.282	800.000	0.006	0.017
-265.267	114.196	0.069	-0.083
-264.253	243.314	0.097	-0.161
-263.238	-54.461	-0.107	0.048
-262.224	5.162	0.116	-0.085
-261.209	505.548	0.011	-0.026
-260.195	-200.000	-0.034	0.331
-259.180	392.956	-0.111	0.230
-258.165	-34.722	0.193	-0.105
-257.151	-152.817	0.273	0.019
-256.136	-128.429	0.224	0.032
-255.122	-60.815	0.189	-0.080
-254.107	-200.000	0.027	-0.131
-253.092	-190.025	0.563	-0.006
-252.078	306.149	-0.087	0.161
-251.063	267.630	0.174	0.303
-250.049	-200.000	0.052	-0.255
-249.034	800.000	-0.081	-0.284
-248.019	145.980	-0.112	0.149
-247.005	800.000	0.036	0.133
-245.990	-200.000	-0.044	0.222
-244.976	-11.844	-0.140	-0.091
-243.961	-75.673	0.108	-0.038
-242.946	-47.878	-0.254	0.122
-241.932	42.482	0.072	-0.065
-240.917	-200.000	0.011	0.158
-239.903	-130.455	0.140	0.019
-238.888	-105.311	-0.356	0.081
-237.873	137.919	0.031	-0.040
-236.859	1.331	0.198	-0.141
-235.844	800.000	0.048	-0.190
-234.830	231.357	-0.069	0.112
-233.815	4.370	0.089	0.065
-232.800	282.021	0.062	0.111
-231.786	-24.071	-0.385	0.228
-230.771	38.398	0.215	-0.190
-229.757	105.595	0.038	-0.045
-228.742	14.606	0.164	-0.127
-227.727	-104.859	0.123	-0.028
-226.713	-200.000	0.038	-0.237
-225.698	25.068	0.238	0.196
-224.684	-200.000	0.009	0.205
-223.669	193.865	0.197	-0.296
-222.655	-118.037	-0.204	0.036
-221.640	370.375	-0.124	-0.250
-220.625	262.457	-0.095	-0.164
-219.611	-2.778	-0.192	0.133
-218.596	213.907	-0.125	-0.196
-217.582	-63.761	-0.191	-0.078
-216.567	148.646	0.167	0.224
-215.552	-49.867	0.045	-0.021
-214.538	-172.329	0.479	-0.015
-213.523	-200.000	-0.020	0.106
-212.509	-70.483	0.187	-0.070
-211.494	361.550	0.066	0.132
-210.479	-139.769	0.231	-0.024
-209.465	-200.000	-0.004	0.080
-208.450	-107.495	0.288	-0.063
-207.436	133.968	0.198	0.254
-206.421	-200.000	0.036	0.307
-205.406	-22.280	-0.084	-0.051
-204.392	800.000	-0.070	0.273
-203.377	-22.256	0.197	0.118
-202.363	-14.665	0.108	0.069
-201.348	-39.849	-0.360	0.186
-200.333	49.813	0.219	-0.205
-199.319	-138.176	0.452	-0.050
-198.304	-200.000	-0.009	0.057
-197.290	143.760	0.169	0.223
-196.275	220.379	0.160	-0.254
-195.260	549.361	0.145	0.343
-194.246	7.035	0.174	-0.128
-193.231	800.000	0.008	-0.025
-192.217	343.271	0.101	0.196
-191.202	800.000	-0.027	0.092
-190.187	252.658	0.177	0.299
-189.173	800.000	0.038	0.138
-188.158	140.575	-0.234	-0.306
-187.144	-76.524	-0.148	0.051
-186.129	-86.566	-0.290	0.088
-185.114	-200.000	0.055	0.284
-184.100	-103.010	0.402	-0.094
-183.085	-25.177	-0.445	-0.261
-182.071	79.060	-0.175	-0.186
-181.056	329.708	0.141	0.268
-180.042	800.000	-0.160	-0.561
-179.027	800.000	-0.070	-0.200
-178.012	149.356	0.048	-0.064
-176.998	-58.126	0.045	-0.020
-175.983	127.374	-0.163	-0.205
-174.969	-200.000	-0.054	-0.397
-173.954	-200.000	0.006	-0.084
-172.939	-132.315	0.326	-0.042
-171.925	257.058	0.137	-0.233
-170.910	-200.000	-0.046	0.473
-169.896	-200.000	0.045	0.569
-168.881	-200.000	0.003	-0.087
-167.866	-13.995	-0.168	-0.108
-166.852	-5.171	-0.222	-0.151
-165.837	-75.323	0.271	0.096
-164.823	74.549	0.107	0.112
-163.808	-96.936	-0.154	0.040
-162.793	-70.936	0.336	0.125
-161.779	-200.000	0.027	-0.321
-160.764	-28.473	-0.035	0.020
-159.750	72.009	-0.054	-0.056
-158.735	368.031	-0.045	-0.090
-157.720	-132.785	0.122	0.015
-156.706	-150.416	-0.215	0.016
-155.691	-85.533	0.332	0.102
-154.677	800.000	-0.136	-0.514
-153.662	-114.827	-0.247	0.047
-152.647	32.987	0.196	-0.168
-151.633	-200.000	-0.024	-0.334
-150.618	-200.000	0.043	-0.228
-149.604	36.299	0.209	0.182
-148.589	-200.000	-0.018	0.335
-147.574	800.000	0.025	-0.077
-146.560	-0.405	0.186	-0.131
-145.545	-88.311	-0.176	-0.052
-144.531	-200.000	0.018	0.319
-143.516	800.000	0.108	0.340
-142.502	-108.030	0.136	-0.029
-141.487	94.707	-0.124	0.140
-140.472	740.691	0.111	0.296
-139.458	-156.154	-0.170	-0.011
-138.443	-30.464	0.096	0.054
-137.429	482.120	-0.072	-0.162
-136.414	-92.860	0.142	-0.039
-135.399	342.130	0.105	-0.203
-134.385	-200.000	-0.005	0.200
-133.370	-200.000	0.050	0.306
-132.356	-200.000	0.001	-0.117
-131.341	-28.237	-0.139	0.079
-130.326	800.000	0.074	-0.215
-129.312	-200.000	0.008	-0.078
-128.297	150.890	0.081	-0.109
-127.283	-89.062	0.073	-0.021
-126.268	314.613	-0.120	0.223
-125.253	226.901	0.128	0.205
-124.239	-142.578	0.324	0.031
-123.224	124.592	0.121	-0.151
-122.210	-124.725	0.051	-0.008
-121.195	-150.095	-0.334	0.026
-120.180	-200.000	-0.003	0.140
