DTS Sentinel unit serial number:	SN413079Multiplexer serial number:	ORYXHardware model number:	OX4-SRSoftware version number:	ORYX F/W v4.00 Oryx Data Collector v3.7.2.0data status	okinstallation	princeton_trtdifferential loss correction	single-endedforward channel	channel 4reverse channel	N/Adate	2019/09/18time	10:05:34forward acquisition time	60.00reverse acquisition time	0.00gamma	496.2192k internal	0.2318k external	0.2318temperature offset calibration	0.9984default loss term (dB/km)	0.3790temperature slope calibration	1.0000multiplexer offset coefficient	1.0000multiplexer slope coefficient	1.0000fibre end	0.00T internal ref (°C)	27.61T ext. ref 1 (°C)	0.32T ext. ref 2 (°C)	24.10length (m)	temperature (°C)	Stokes	anti-Stokes-747.200	-132.387	0.327	0.043
-746.185	-9.358	0.253	0.171
-745.171	293.636	-0.139	0.257
-744.156	-90.182	0.242	0.071
-743.142	800.000	-0.075	-0.290
-742.127	-200.000	-0.025	0.340
-741.112	121.483	-0.190	-0.240
-740.098	100.491	0.129	-0.152
-739.083	-200.000	-0.006	-0.120
-738.069	-24.126	-0.407	0.246
-737.054	-200.000	0.007	-0.229
-736.039	526.792	0.093	-0.221
-735.025	-111.009	0.024	-0.005
-734.010	2.938	0.384	-0.282
-732.996	-200.000	-0.022	-0.113
-731.981	-23.369	-0.127	0.077
-730.966	-48.075	-0.155	0.076
-729.952	-106.314	-0.649	-0.147
-728.937	15.747	0.074	-0.059
-727.923	422.484	0.061	-0.133
-726.908	-41.580	-0.270	-0.141
-725.894	-120.128	0.176	-0.030
-724.879	-0.874	-0.202	-0.145
-723.864	-102.036	0.278	-0.068
-722.850	103.315	-0.171	-0.203
-721.835	-48.534	-0.176	0.086
-720.821	-200.000	-0.001	0.156
-719.806	-123.187	0.215	0.035
-718.791	-52.082	-0.193	-0.090
-717.777	-200.000	0.012	0.057
-716.762	547.303	-0.109	-0.264
-715.748	-173.998	-0.115	0.003
-714.733	-170.353	-0.116	0.004
-713.718	27.123	-0.124	-0.105
-712.704	-150.982	-0.461	-0.035
-711.689	3.010	-0.233	-0.171
-710.675	512.806	0.097	0.228
-709.660	-164.677	-0.312	0.014
-708.645	-60.734	-0.262	-0.112
-707.631	-131.700	0.089	0.012
-706.616	2.655	0.179	-0.131
-705.602	-125.648	0.202	-0.031
-704.587	-200.000	-0.012	0.052
-703.572	107.503	0.124	-0.149
-702.558	-85.322	-0.027	0.008
-701.543	92.429	-0.335	0.382
-700.529	133.950	-0.210	-0.274
-699.514	-189.368	-0.151	0.002
-698.499	-163.426	-0.326	0.016
-697.485	-200.000	-0.003	-0.296
-696.470	356.152	-0.168	-0.338
-695.456	-172.504	-0.227	-0.007
-694.441	800.000	-0.012	-0.046
-693.426	-200.000	0.037	-0.187
-692.412	800.000	-0.057	-0.246
-691.397	478.791	0.103	-0.236
-690.383	-102.528	-0.554	0.134
-689.368	607.418	-0.050	-0.125
-688.354	-129.154	0.326	0.046
-687.339	374.105	-0.013	0.028
-686.324	-69.026	-0.101	0.039
-685.310	-200.000	0.013	-0.140
-684.295	-89.175	0.354	0.106
-683.281	-200.000	0.031	0.220
-682.266	16.625	-0.340	-0.271
-681.251	35.656	-0.206	-0.183
-680.237	-50.168	-0.299	0.143
-679.222	117.623	0.130	0.162
-678.208	456.809	-0.183	0.410
-677.193	337.324	-0.082	-0.160
-676.178	167.651	-0.188	0.269
-675.164	281.530	0.080	-0.145
-674.149	800.000	-0.047	-0.161
-673.135	785.200	-0.085	0.236
-672.120	-39.316	-0.166	0.088
-671.105	-200.000	-0.019	0.219
-670.091	-42.748	-0.071	0.036
-669.076	626.475	-0.094	-0.240
-668.062	13.416	-0.254	0.199
-667.047	81.148	0.089	0.097
-666.032	-165.742	-0.171	-0.007
-665.018	791.291	0.143	-0.396
-664.003	-35.334	-0.263	-0.144
-662.989	-5.087	-0.224	-0.156
-661.974	800.000	-0.059	-0.199
-660.959	83.873	0.129	0.142
-659.945	286.731	0.214	-0.390
-658.930	-20.058	0.323	-0.201
-657.916	-45.082	0.117	0.059
-656.901	-155.595	0.082	0.005
-655.886	-134.400	0.050	0.006
-654.872	50.909	0.112	0.107
-653.857	-200.000	-0.045	-0.272
-652.843	-136.511	0.374	0.044
-651.828	-200.000	-0.070	-0.476
-650.814	48.463	-0.111	-0.104
-649.799	23.204	0.133	0.110
-648.784	-58.009	0.144	0.063
-647.770	-47.673	0.220	-0.108
-646.755	111.657	-0.329	-0.400
-645.741	70.257	-0.180	-0.188
-644.726	-52.321	0.099	0.046
-643.711	-200.000	0.043	0.291
-642.697	-157.439	-0.562	-0.034
-641.682	206.869	-0.216	0.340
-640.668	58.730	0.233	-0.230
-639.653	-37.111	-0.134	-0.072
-638.638	-197.987	0.049	-0.000
-637.624	-179.591	-0.285	-0.006
-636.609	428.552	0.085	-0.186
-635.595	-174.050	-0.190	0.006
-634.580	302.101	-0.060	0.111
-633.565	800.000	-0.032	0.093
-632.551	513.648	0.215	0.505
-631.536	800.000	-0.096	0.293
-630.522	-165.704	-0.024	0.001
-629.507	341.135	-0.120	-0.236
-628.492	-7.093	0.137	-0.093
-627.478	-153.687	-0.222	0.015
-626.463	9.115	0.060	0.046
-625.449	-139.409	0.254	0.027
-624.434	537.944	-0.112	0.268
-623.419	-36.807	0.112	-0.061
-622.405	91.822	0.129	0.146
-621.390	-32.795	-0.159	-0.089
-620.376	44.166	0.067	-0.062
-619.361	316.910	-0.115	0.219
-618.346	10.026	-0.222	-0.170
-617.332	292.383	0.145	-0.266
-616.317	-167.942	-0.116	-0.005
-615.303	-200.000	0.039	-0.258
-614.288	800.000	0.070	-0.216
-613.273	114.068	-0.224	0.274
-612.259	-3.127	-0.136	-0.096
-611.244	-81.287	-0.263	-0.087
-610.230	-84.410	-0.182	-0.058
-609.215	27.072	0.266	0.225
-608.201	505.699	-0.118	0.276
-607.186	17.742	-0.171	0.137
-606.171	239.304	-0.028	0.047
-605.157	256.334	-0.129	-0.224
-604.142	19.049	0.143	-0.116
-603.128	-134.516	0.146	0.018
-602.113	117.830	0.053	0.066
-601.098	-97.609	-0.292	0.076
-600.084	-200.000	0.039	0.197
-599.069	114.805	0.245	0.301
-598.055	-200.000	-0.005	0.101
-597.040	-74.736	0.406	-0.147
-596.025	179.101	0.217	-0.319
-595.011	800.000	-0.016	-0.060
-593.996	-200.000	0.006	0.139
-592.982	710.995	0.120	-0.318
-591.967	320.747	0.129	-0.246
-590.952	123.534	0.180	-0.227
-589.938	-84.051	-0.285	-0.091
-588.923	-200.000	-0.024	-0.110
-587.909	88.741	0.176	-0.197
-586.894	-130.424	-0.224	-0.031
-585.879	292.545	0.066	0.120
-584.865	192.663	0.151	0.229
-583.850	19.340	-0.138	0.112
-582.836	-200.000	-0.331	0.000
-581.821	122.268	0.114	0.143
-580.806	124.602	-0.074	-0.093
-579.792	800.000	0.052	-0.151
-578.777	26.568	0.132	-0.111
-577.763	-150.445	0.238	0.018
-576.748	470.657	-0.072	0.163
-575.733	-78.228	-0.318	0.110
-574.719	-200.000	0.046	0.412
-573.704	622.153	-0.011	-0.027
-572.690	-142.764	-0.213	0.021
-571.675	52.171	0.087	-0.083
-570.661	-200.000	-0.019	-0.309
-569.646	800.000	0.018	0.074
-568.631	-110.702	-0.223	-0.046
-567.617	-41.407	-0.214	-0.111
-566.602	-200.000	-0.015	0.207
-565.588	-200.000	0.078	-0.418
-564.573	46.180	0.191	0.178
-563.558	-120.878	0.394	0.067
-562.544	-7.822	-0.401	0.272
-561.529	278.333	-0.175	0.312
-560.515	-151.752	0.403	0.030
-559.500	-176.137	-0.314	0.008
-558.485	-138.561	0.523	0.058
-557.471	74.573	-0.140	-0.148
-556.456	-180.705	0.197	-0.004
-555.442	378.708	0.117	-0.240
-554.427	570.611	0.056	0.137
-553.412	170.672	-0.049	-0.071
-552.398	237.966	0.194	0.324
-551.383	-122.471	-0.177	0.029
-550.369	-169.517	0.027	0.001
-549.354	800.000	0.042	0.129
-548.339	-11.821	0.198	-0.130
-547.325	-20.133	0.228	-0.141
-546.310	200.554	0.069	-0.107
-545.296	-200.000	0.015	-0.076
-544.281	-75.345	0.111	0.040
-543.266	43.671	0.265	-0.244
-542.252	67.626	-0.074	0.076
-541.237	28.317	0.170	-0.145
-540.223	-200.000	-0.013	-0.258
-539.208	-200.000	-0.055	-0.372
-538.193	565.078	0.066	0.160
-537.179	49.652	-0.222	-0.210
-536.164	-200.000	-0.068	-0.349
-535.150	-127.942	0.224	0.032
-534.135	-200.000	0.044	0.438
-533.121	-123.792	-0.315	-0.050
-532.106	-97.585	-0.213	0.056
-531.091	800.000	0.060	0.186
-530.077	-129.149	0.145	0.020
-529.062	800.000	0.115	0.329
-528.048	93.602	-0.254	0.289
-527.033	-106.409	-0.094	0.021
-526.018	45.084	-0.183	0.169
-525.004	268.221	-0.198	-0.349
-523.989	466.316	-0.085	-0.190
-522.975	31.287	-0.039	-0.034
-521.960	-14.868	0.121	-0.078
-520.945	-200.000	0.017	0.132
-519.931	51.849	-0.088	-0.084
-518.916	800.000	0.051	0.209
-517.902	227.232	0.169	0.275
-516.887	-126.330	0.048	-0.007
-515.872	-200.000	-0.057	-0.253
-514.858	74.298	-0.198	0.209
-513.843	632.461	0.047	-0.120
-512.829	72.461	0.047	-0.049
-511.814	27.665	-0.207	-0.175
-510.799	272.473	-0.192	-0.340
-509.785	258.257	-0.105	-0.182
-508.770	249.816	-0.097	0.165
-507.756	800.000	-0.082	-0.239
-506.741	509.249	-0.038	-0.088
-505.726	174.613	-0.074	0.107
-504.712	0.046	-0.117	-0.084
-503.697	155.826	0.135	0.187
-502.683	174.621	0.085	-0.124
-501.668	-98.792	-0.161	0.041
-500.653	-200.000	0.007	-0.209
-499.639	42.154	0.156	-0.142
-498.624	239.981	-0.140	0.233
-497.610	405.571	0.043	-0.092
-496.595	169.770	0.157	0.225
-495.581	-174.543	-0.156	-0.004
-494.566	-200.000	0.005	0.411
-493.551	-13.265	-0.072	-0.047
-492.537	-86.616	-0.133	-0.041
-491.522	-200.000	0.019	0.120
-490.508	800.000	0.093	0.267
-489.493	592.349	0.102	0.251
-488.478	370.839	0.137	-0.278
-487.464	-126.799	0.036	0.005
-486.449	148.663	0.154	0.208
-485.435	-114.219	-0.337	0.065
-484.420	-34.203	-0.228	-0.126
-483.405	-171.395	0.256	0.009
-482.391	647.747	-0.155	0.397
-481.376	149.317	-0.100	-0.135
-480.362	106.925	-0.181	-0.216
-479.347	-195.911	-0.067	-0.000
-478.332	-79.630	-0.037	-0.013
-477.318	121.189	0.073	0.091
-476.303	87.155	-0.216	0.239
-475.289	-68.927	0.273	0.106
-474.274	108.826	-0.092	0.110
-473.259	6.950	-0.060	-0.045
-472.245	-88.885	0.556	-0.165
-471.230	-88.787	0.200	0.059
-470.216	-200.000	-0.011	-0.211
-469.201	186.956	-0.125	0.186
-468.186	2.599	0.204	0.148
-467.172	-146.673	-0.292	0.025
-466.157	104.191	-0.149	-0.175
-465.143	-200.000	0.027	-0.215
-464.128	800.000	0.035	-0.139
-463.113	567.314	-0.050	0.120
-462.099	196.014	-0.167	0.255
-461.084	800.000	-0.030	0.107
-460.070	-200.000	-0.013	0.072
-459.055	800.000	-0.012	-0.038
-458.040	-200.000	0.074	0.478
-457.026	-99.120	0.081	0.021
-456.011	-62.911	-0.158	-0.065
-454.997	102.424	-0.227	-0.266
-453.982	-106.623	0.282	0.063
-452.968	-200.000	-0.034	-0.157
-451.953	217.341	-0.123	-0.196
-450.938	-10.717	-0.254	0.168
-449.924	-24.550	-0.042	0.025
-448.909	-128.539	-0.201	-0.028
-447.895	-114.268	-0.108	-0.021
-446.880	-145.911	-0.084	-0.007
-445.865	-200.000	-0.056	-0.326
-444.851	-125.791	0.086	0.013
-443.836	800.000	-0.096	0.289
-442.822	-68.710	-0.248	-0.096
-441.807	263.305	-0.019	0.033
-440.792	-12.053	-0.215	0.141
-439.778	-40.743	0.084	-0.044
-438.763	-7.176	-0.303	-0.205
-437.749	800.000	-0.085	0.261
-436.734	161.052	0.203	0.284
-435.719	253.338	0.142	-0.242
-434.705	-44.679	-0.338	-0.169
-433.690	-97.643	-0.122	-0.032
-432.676	-200.000	-0.031	0.138
-431.661	-147.135	-0.097	-0.008
-430.646	-200.000	0.008	-0.201
-429.632	-62.164	-0.108	-0.045
-428.617	242.258	0.036	-0.059
-427.603	70.367	-0.151	-0.156
-426.588	800.000	-0.105	-0.331
-425.573	-103.442	0.092	-0.022
-424.559	15.981	0.237	-0.187
-423.544	-41.528	0.247	0.127
-422.530	206.038	-0.172	-0.267
-421.515	800.000	0.159	0.481
-420.500	-37.345	0.133	0.071
-419.486	-200.000	-0.061	-0.346
-418.471	204.640	-0.244	0.379
-417.457	109.258	0.137	-0.164
-416.442	5.827	-0.288	-0.213
-415.428	345.086	-0.089	-0.175
-414.413	125.541	-0.231	-0.292
-413.398	-102.849	0.185	0.044
-412.384	800.000	0.066	0.187
-411.369	254.163	0.212	0.362
-410.355	-200.000	-0.047	0.258
-409.340	311.943	-0.094	-0.177
-408.325	-107.632	0.134	0.029
-407.311	143.277	0.198	-0.264
-406.296	243.280	0.088	-0.147
-405.282	21.223	0.169	-0.137
-404.267	-200.000	-0.005	0.079
-403.252	78.415	0.052	-0.056
-402.238	-155.419	-0.383	-0.025
-401.223	-86.977	0.118	0.036
-400.209	-22.946	0.306	0.184
-399.194	-200.000	-0.002	0.145
-398.179	-22.813	0.444	-0.267
-397.165	355.845	-0.059	-0.118
-396.150	51.820	0.174	-0.165
-395.136	-57.274	-0.051	-0.022
-394.121	-92.551	-0.205	0.057
-393.106	127.654	-0.083	0.106
-392.092	-200.000	-0.256	-0.000
-391.077	41.731	0.068	-0.061
-390.063	-120.671	-0.213	0.036
-389.048	45.969	0.150	0.139
-388.033	-200.000	0.020	-0.196
-387.019	-102.393	0.200	-0.048
-386.004	119.601	0.023	0.028
-384.990	800.000	-0.084	-0.332
-383.975	259.715	-0.081	-0.140
-382.960	85.116	-0.166	-0.181
-381.946	-77.436	0.412	0.143
-380.931	26.228	0.173	-0.144
-379.917	-192.628	0.132	-0.001
-378.902	259.120	-0.277	-0.476
-377.888	-200.000	-0.006	0.084
-376.873	95.906	0.359	0.409
-375.858	267.897	0.119	-0.208
-374.844	-130.165	-0.317	-0.043
-373.829	800.000	0.083	0.291
-372.815	358.403	-0.128	-0.255
-371.800	-104.496	0.114	0.026
-370.785	144.969	0.032	0.042
-369.771	-200.000	-0.021	-0.205
-368.756	-68.223	0.266	-0.103
-367.742	-13.553	-0.212	0.137
-366.727	-176.086	-0.113	0.003
-365.712	-120.545	-0.477	-0.081
-364.698	-200.000	0.011	-0.142
-363.683	-200.000	0.036	0.236
-362.669	78.104	0.097	0.103
-361.654	322.839	0.084	-0.159
-360.639	-10.696	0.101	0.067
-359.625	800.000	-0.092	-0.338
-358.610	-22.964	-0.141	0.085
-357.596	66.702	-0.123	0.124
-356.581	-33.629	0.137	0.075
-355.566	-81.034	0.062	-0.020
-354.552	163.425	-0.139	-0.194
-353.537	-35.170	0.134	-0.073
-352.523	-160.033	0.199	0.011
-351.508	6.568	-0.153	0.113
-350.493	-189.389	-0.280	0.003
-349.479	-200.000	0.037	-0.246
-348.464	181.725	-0.065	0.096
-347.450	-81.417	0.196	0.064
-346.435	40.338	0.112	0.101
-345.420	91.998	-0.275	-0.308
-344.406	114.686	0.078	-0.095
-343.391	-119.222	0.281	0.049
-342.377	-67.777	0.080	-0.031
-341.362	257.687	-0.155	-0.266
-340.348	19.228	0.074	-0.059
-339.333	93.613	0.223	-0.251
-338.318	143.729	-0.032	0.042
-337.304	48.143	-0.227	-0.211
-336.289	340.043	0.077	0.150
-335.275	-24.327	0.303	0.180
-334.260	-116.091	0.227	0.042
-333.245	-200.000	-0.038	0.207
-332.231	-186.035	-0.172	-0.003
-331.216	-200.000	0.035	0.206
-330.202	-200.000	-0.097	-0.511
-329.187	73.729	-0.079	-0.082
-328.172	-55.900	0.140	0.062
-327.158	-121.995	0.219	-0.036
-326.143	-200.000	-0.075	0.343
-325.129	-106.390	-0.275	-0.061
-324.114	565.242	0.085	-0.205
-323.099	170.540	-0.277	-0.394
-322.085	-99.381	0.232	-0.058
-321.070	-200.000	-0.002	0.142
-320.056	-156.480	-0.526	0.033
-319.041	-110.776	0.057	-0.012
-318.026	800.000	0.068	-0.285
-317.012	-61.224	0.072	-0.030
-315.997	35.414	0.345	0.302
-314.983	-50.936	0.160	-0.075
-313.968	-91.934	0.224	-0.063
-312.953	-34.483	-0.295	-0.161
-311.939	-46.530	-0.320	0.156
-310.924	-113.657	0.106	-0.021
-309.910	-72.319	0.140	-0.052
-308.895	43.644	0.252	-0.229
-307.880	-99.856	0.229	-0.057
-306.866	-200.000	-0.015	-0.173
-305.851	213.892	0.102	0.161
-304.837	-37.342	0.292	-0.155
-303.822	118.907	-0.020	0.025
-302.807	-20.643	-0.412	0.252
-301.793	198.557	0.107	0.162
-300.778	-200.000	-0.013	-0.445
-299.764	25.699	0.214	-0.177
-298.749	-143.305	0.251	0.024
-297.735	70.554	0.091	0.094
-296.720	-28.654	-0.268	-0.154
-295.705	-71.044	-0.078	0.029
-294.691	329.638	0.083	0.159
-293.676	-66.876	0.109	0.043
-292.662	184.060	-0.051	0.075
-291.647	-46.650	-0.365	0.178
-290.632	-60.307	0.382	0.162
-289.618	-200.000	0.009	-0.122
-288.603	130.175	-0.198	-0.253
-287.589	-12.948	-0.259	0.168
-286.574	-86.602	-0.259	-0.079
-285.559	28.302	0.179	0.150
-284.545	-77.088	0.126	-0.044
-283.530	84.576	0.104	0.113
-282.516	798.438	0.075	0.205
-281.501	-64.858	-0.318	0.128
-280.486	142.399	-0.021	0.027
-279.472	-80.693	0.165	-0.055
-278.457	-118.075	-0.136	0.024
-277.443	18.593	-0.249	0.198
-276.428	110.294	0.166	-0.198
-275.413	-164.279	0.386	-0.018
-274.399	30.211	-0.104	-0.088
-273.384	15.376	0.238	-0.186
-272.370	205.555	-0.110	-0.170
-271.355	800.000	-0.101	-0.280
-270.340	536.495	-0.040	0.093
-269.326	-20.266	-0.196	-0.120
-268.311	478.857	0.063	-0.141
-267.297	289.782	0.067	-0.120
-266.282	800.000	0.058	-0.172
-265.267	51.021	-0.151	-0.142
-264.253	-64.815	-0.205	0.082
-263.238	723.309	-0.132	0.348
-262.224	61.731	-0.188	0.186
-261.209	337.575	0.192	0.371
-260.195	-200.000	0.025	0.353
-259.180	716.292	-0.064	0.167
-258.165	96.784	0.244	-0.277
-257.151	-118.334	-0.494	0.087
-256.136	-13.282	0.305	-0.197
-255.122	40.158	-0.212	0.189
-254.107	-145.905	-0.022	0.002
-253.092	488.028	-0.171	0.389
-252.078	-104.504	0.049	-0.011
-251.063	60.120	0.383	-0.376
-250.049	111.506	-0.180	0.216
-249.034	-200.000	0.034	0.261
-248.019	39.618	0.076	0.067
-247.005	-199.989	0.272	0.001
-245.990	-121.097	0.509	-0.085
-244.976	-60.722	-0.572	-0.241
-243.961	686.566	-0.076	0.198
-242.946	-130.151	0.277	0.038
-241.932	-18.572	-0.228	0.141
-240.917	279.890	0.062	0.111
-239.903	800.000	-0.049	-0.202
-238.888	394.333	0.075	-0.155
-237.873	143.143	0.096	0.127
-236.859	-200.000	0.018	-0.295
-235.844	800.000	-0.073	0.209
-234.830	-200.000	0.013	0.120
-233.815	800.000	-0.045	-0.142
-232.800	800.000	-0.054	-0.164
-231.786	32.406	0.128	0.110
-230.771	299.229	-0.114	-0.209
-229.757	501.083	-0.050	-0.115
-228.742	6.446	-0.059	0.044
-227.727	-200.000	-0.009	-0.065
-226.713	369.795	-0.107	-0.215
-225.698	57.100	-0.116	-0.112
-224.684	800.000	0.079	0.291
-223.669	-39.464	-0.329	0.171
-222.655	-81.679	0.270	0.088
-221.640	-200.000	0.014	0.138
-220.625	-200.000	0.026	-0.145
-219.611	800.000	0.027	-0.100
-218.596	475.404	0.085	0.189
-217.582	-161.712	0.225	0.011
-216.567	800.000	-0.019	-0.070
-215.552	-200.000	-0.009	-0.196
-214.538	-200.000	0.023	0.100
-213.523	-29.634	0.118	0.067
-212.509	8.179	0.320	-0.238
-211.494	-38.454	0.308	-0.161
-210.479	28.639	0.230	-0.193
-209.465	52.790	0.203	0.193
-208.450	-31.541	-0.169	-0.094
-207.436	-200.000	-0.229	0.000
-206.421	-15.821	0.089	0.056
-205.406	224.954	-0.068	0.110
-204.392	-200.000	-0.061	0.334
-203.377	50.528	0.111	0.104
-202.363	-200.000	-0.013	-0.289
-201.348	153.774	0.077	-0.105
-200.333	-74.706	0.192	-0.068
-199.319	-152.683	0.391	-0.028
-198.304	128.468	-0.088	0.111
-197.290	800.000	0.051	0.177
-196.275	800.000	-0.069	0.229
-195.260	31.404	-0.248	-0.211
-194.246	21.192	-0.264	0.213
-193.231	-38.151	0.248	0.130
-192.217	62.482	-0.186	0.184
-191.202	1.920	0.376	0.269
-190.187	389.747	0.105	0.215
-189.173	-200.000	-0.024	-0.228
-188.158	277.209	-0.152	-0.268
-187.144	101.004	0.148	0.171
-186.129	-25.913	0.132	-0.077
-185.114	-31.375	0.184	0.102
-184.100	238.095	-0.073	0.120
-183.085	-200.000	0.002	0.163
-182.071	170.760	-0.044	-0.063
-181.056	-200.000	0.004	0.098
-180.042	-27.296	-0.277	-0.160
-179.027	-49.015	0.268	0.127
-178.012	-76.106	-0.145	-0.051
-176.998	348.658	-0.135	0.264
-175.983	-200.000	0.110	0.482
-174.969	223.870	0.101	0.162
-173.954	295.757	-0.108	0.195
-172.939	266.209	0.081	0.140
-171.925	-98.582	0.074	-0.019
-170.910	167.160	-0.141	-0.198
-169.896	35.327	-0.103	-0.089
-168.881	-34.619	0.271	0.147
-167.866	106.876	0.156	-0.183
-166.852	-175.033	-0.230	0.006
-165.837	293.263	0.087	0.158
-164.823	-14.574	0.329	0.209
-163.808	32.957	-0.133	0.114
-162.793	108.660	0.104	0.123
-161.779	-155.410	-0.340	0.022
-160.764	-36.644	0.188	-0.100
-159.750	800.000	-0.044	0.126
-158.735	305.574	-0.123	-0.226
-157.720	55.423	0.122	0.117
-156.706	327.570	0.141	0.268
-155.691	67.267	0.199	0.201
-154.677	22.952	0.090	0.073
-153.662	298.424	-0.138	-0.251
-152.647	139.651	0.014	-0.019
-151.633	-106.655	0.097	-0.021
-150.618	800.000	-0.119	-0.468
-149.604	170.286	0.123	-0.174
-148.589	-119.034	-0.147	-0.025
-147.574	68.475	-0.148	0.150
-146.560	-100.887	0.133	-0.032
-145.545	-18.091	0.008	-0.005
-144.531	800.000	0.097	0.331
-143.516	-200.000	0.031	-0.300
-142.502	-82.887	-0.192	-0.061
-141.487	102.208	-0.159	-0.183
-140.472	521.761	-0.057	-0.132
-139.458	800.000	-0.080	-0.240
-138.443	83.661	0.067	-0.073
-137.429	-99.312	0.186	0.046
-136.414	-200.000	0.005	0.271
-135.399	-183.256	-0.060	-0.001
-134.385	-125.676	-0.369	-0.055
-133.370	273.365	0.127	0.222
-132.356	-43.179	0.304	-0.152
-131.341	-200.000	0.056	-0.268
-130.326	302.065	0.082	0.150
-129.312	38.700	0.151	0.133
-128.297	-200.000	-0.016	0.217
-127.283	157.018	0.138	0.189
-126.268	-84.937	0.352	0.109
-125.253	-62.431	-0.229	-0.094
-124.239	-15.640	-0.209	0.132
-123.224	-25.757	0.103	-0.060
-122.210	-69.277	-0.204	0.077
-121.195	37.896	0.156	0.137
