DTS Sentinel unit serial number:	SN413079Multiplexer serial number:	ORYXHardware model number:	OX4-SRSoftware version number:	ORYX F/W v4.00 Oryx Data Collector v3.7.2.0data status	okinstallation	princeton_trtdifferential loss correction	single-endedforward channel	channel 4reverse channel	N/Adate	2019/09/17time	19:53:35forward acquisition time	60.00reverse acquisition time	0.00gamma	496.2192k internal	0.2312k external	0.2312temperature offset calibration	0.9985default loss term (dB/km)	0.3790temperature slope calibration	1.0000multiplexer offset coefficient	1.0000multiplexer slope coefficient	1.0000fibre end	0.00T internal ref (°C)	33.97T ext. ref 1 (°C)	0.23T ext. ref 2 (°C)	23.29length (m)	temperature (°C)	Stokes	anti-Stokes-747.200	-80.102	-0.145	-0.049
-746.185	-143.285	-0.354	0.034
-745.171	-89.485	0.301	-0.090
-744.156	50.517	-0.270	0.259
-743.142	-105.149	0.243	-0.056
-742.127	-200.000	-0.085	0.509
-741.112	800.000	-0.078	0.294
-740.098	193.956	-0.156	0.240
-739.083	0.281	-0.181	0.131
-738.069	-35.565	0.080	0.044
-737.054	8.557	-0.235	-0.180
-736.039	-32.309	-0.329	-0.186
-735.025	-200.000	-0.003	0.312
-734.010	11.144	-0.033	0.026
-732.996	21.392	-0.248	-0.205
-731.981	800.000	0.034	-0.099
-730.966	-113.694	-0.081	-0.016
-729.952	-151.395	-0.290	-0.022
-728.937	-79.734	-0.209	-0.071
-727.923	92.538	-0.408	-0.466
-726.908	-70.074	0.164	-0.063
-725.894	422.373	-0.067	0.146
-724.879	-175.987	-0.494	0.013
-723.864	152.064	-0.151	0.209
-722.850	-200.000	-0.025	-0.171
-721.835	-113.324	0.141	-0.028
-720.821	123.261	-0.199	0.252
-719.806	-37.049	-0.295	0.160
-718.791	800.000	-0.020	-0.071
-717.777	119.579	-0.053	0.067
-716.762	-200.000	-0.014	0.219
-715.748	-200.000	-0.044	-0.233
-714.733	144.491	-0.078	-0.105
-713.718	-200.000	0.044	-0.222
-712.704	151.839	-0.016	-0.023
-711.689	364.719	0.073	0.148
-710.675	-169.103	-0.262	-0.010
-709.660	301.904	-0.132	-0.248
-708.645	56.678	0.121	0.120
-707.631	225.167	-0.125	-0.205
-706.616	800.000	0.034	-0.147
-705.602	-81.856	-0.501	-0.166
-704.587	-200.000	-0.003	-0.050
-703.572	-120.737	0.184	0.032
-702.558	84.678	-0.152	0.169
-701.543	-200.000	0.021	0.292
-700.529	115.406	0.052	0.065
-699.514	453.123	0.065	-0.145
-698.499	-200.000	-0.031	-0.248
-697.485	-200.000	0.066	-0.503
-696.470	-200.000	-0.005	-0.305
-695.456	118.175	0.128	-0.160
-694.441	-60.656	-0.180	0.078
-693.426	-200.000	-0.029	-0.148
-692.412	16.824	0.310	-0.249
-691.397	800.000	0.080	0.310
-690.383	263.100	-0.043	0.076
-689.368	-162.879	-0.327	-0.016
-688.354	-61.444	-0.124	-0.053
-687.339	-65.783	-0.302	-0.122
-686.324	470.872	-0.151	-0.343
-685.310	187.144	0.185	-0.279
-684.295	-200.000	-0.030	-0.176
-683.281	800.000	-0.045	0.158
-682.266	800.000	-0.066	-0.236
-681.251	800.000	0.028	0.110
-680.237	159.844	-0.203	-0.286
-679.222	-140.277	-0.278	0.029
-678.208	166.550	-0.050	0.072
-677.193	-200.000	0.016	0.183
-676.178	211.575	0.117	0.186
-675.164	-69.500	-0.170	-0.066
-674.149	-99.803	-0.041	0.010
-673.135	31.468	-0.265	-0.231
-672.120	-168.984	-0.261	-0.010
-671.105	-54.125	0.259	0.119
-670.091	800.000	-0.082	-0.361
-669.076	86.751	0.244	0.272
-668.062	55.768	0.232	0.227
-667.047	800.000	-0.019	-0.079
-666.032	800.000	-0.104	0.360
-665.018	-15.173	-0.222	-0.144
-664.003	-154.614	0.094	-0.006
-662.989	-200.000	0.019	-0.528
-661.974	-200.000	0.041	-0.213
-660.959	-125.598	-0.061	0.009
-659.945	-148.430	0.110	-0.009
-658.930	652.762	-0.008	-0.021
-657.916	239.530	-0.096	-0.161
-656.901	-200.000	-0.017	-0.210
-655.886	-149.926	0.076	0.006
-654.872	-200.000	0.022	0.132
-653.857	-85.433	-0.217	-0.068
-652.843	-200.000	-0.047	-0.261
-651.828	143.164	0.219	-0.295
-650.814	27.800	0.085	0.072
-649.799	-28.085	0.199	0.116
-648.784	-117.545	-0.221	-0.040
-647.770	-170.623	0.083	0.003
-646.755	-34.189	0.167	-0.093
-645.741	-57.283	-0.216	-0.096
-644.726	-200.000	0.008	0.105
-643.711	217.807	-0.159	-0.256
-642.697	-200.000	-0.016	-0.203
-641.682	-103.849	-0.209	-0.049
-640.668	-137.572	0.115	0.013
-639.653	-106.144	-0.295	-0.067
-638.638	-200.000	-0.034	0.209
-637.624	-200.000	0.029	-0.660
-636.609	-21.471	-0.235	-0.145
-635.595	344.942	0.109	-0.216
-634.580	723.968	0.122	-0.329
-633.565	800.000	0.115	-0.460
-632.551	1.235	-0.024	-0.017
-631.536	-108.269	0.413	-0.090
-630.522	43.922	-0.150	0.139
-629.507	-48.677	-0.229	0.111
-628.492	101.479	0.156	0.183
-627.478	51.167	0.204	0.195
-626.463	-22.812	0.113	0.069
-625.449	-42.095	-0.299	-0.154
-624.434	28.659	0.218	0.186
-623.419	146.099	-0.087	-0.117
-622.405	388.305	-0.113	0.235
-621.390	53.163	0.123	0.119
-620.376	-31.603	0.076	-0.043
-619.361	33.499	-0.028	-0.024
-618.346	800.000	0.060	-0.238
-617.332	107.874	0.123	-0.148
-616.317	-47.020	0.143	0.070
-615.303	341.727	-0.013	0.025
-614.288	-200.000	-0.006	-0.152
-613.273	-85.653	0.088	0.028
-612.259	-200.000	0.012	0.176
-611.244	-171.768	0.038	0.001
-610.230	86.294	-0.284	-0.316
-609.215	-68.554	0.547	0.214
-608.201	-111.100	-0.051	0.010
-607.186	-30.875	0.340	-0.194
-606.171	0.800	-0.191	-0.138
-605.157	29.600	-0.219	0.188
-604.142	326.308	0.038	-0.074
-603.128	-127.436	0.177	0.026
-602.113	76.695	0.189	-0.203
-601.098	-110.096	0.361	0.076
-600.084	9.132	-0.272	-0.207
-599.069	110.999	-0.040	0.049
-598.055	208.880	0.061	-0.097
-597.040	-200.000	-0.009	-0.091
-596.025	-35.951	-0.212	-0.115
-595.011	312.913	-0.032	-0.060
-593.996	-135.775	0.109	-0.013
-592.982	-142.327	0.233	0.023
-591.967	-200.000	-0.079	-0.403
-590.952	-67.231	-0.369	-0.146
-589.938	9.427	-0.087	-0.066
-588.923	10.207	0.096	-0.073
-587.909	-200.000	-0.020	0.249
-586.894	-140.009	-0.034	0.004
-585.879	319.964	-0.115	0.221
-584.865	334.060	0.058	-0.113
-583.850	228.077	0.047	0.078
-582.836	-52.265	0.145	0.068
-581.821	-15.838	0.062	0.040
-580.806	-129.479	-0.060	0.008
-579.792	-200.000	-0.203	0.001
-578.777	-127.375	0.323	0.047
-577.763	-25.592	-0.250	-0.149
-576.748	-200.000	0.046	-0.216
-575.733	-70.159	-0.310	-0.119
-574.719	-200.000	0.010	0.106
-573.704	778.847	0.064	-0.176
-572.690	800.000	0.054	0.235
-571.675	-4.738	0.227	-0.158
-570.661	800.000	0.026	0.101
-569.646	-200.000	-0.020	0.269
-568.631	-200.000	0.036	0.218
-567.617	-47.375	0.249	-0.122
-566.602	141.994	-0.266	0.355
-565.588	178.121	0.116	-0.171
-564.573	800.000	-0.053	-0.176
-563.558	144.242	0.094	0.126
-562.544	-200.000	0.055	-0.507
-561.529	-104.238	-0.585	-0.137
-560.515	120.199	0.179	0.224
-559.500	-141.420	0.105	-0.011
-558.485	119.543	-0.092	0.115
-557.471	-200.000	0.016	0.118
-556.456	8.733	-0.198	-0.150
-555.442	-200.000	0.021	-0.275
-554.427	-200.000	-0.027	-0.230
-553.412	-119.772	-0.329	0.057
-552.398	-200.000	-0.042	-0.323
-551.383	-200.000	0.039	0.206
-550.369	-111.282	-0.217	0.045
-549.354	-8.001	0.296	0.201
-548.339	-17.690	-0.189	0.119
-547.325	-200.000	-0.033	0.366
-546.310	-106.014	0.347	0.079
-545.296	-200.000	-0.006	0.055
-544.281	-89.323	0.157	0.047
-543.266	187.306	0.241	0.362
-542.252	-182.046	-0.363	-0.007
-541.237	-200.000	-0.005	0.119
-540.223	162.882	-0.074	0.105
-539.208	-148.866	0.291	0.024
-538.193	-110.224	-0.357	-0.075
-537.179	-13.687	0.145	0.095
-536.164	629.061	-0.070	0.178
-535.150	800.000	0.031	0.134
-534.135	65.984	-0.284	-0.290
-533.121	792.042	0.057	0.157
-532.106	136.833	0.235	-0.309
-531.091	-200.000	-0.020	-0.156
-530.077	800.000	-0.007	0.032
-529.062	-18.394	-0.035	0.022
-528.048	44.033	-0.120	-0.111
-527.033	-200.000	-0.014	0.163
-526.018	-63.551	0.111	0.046
-525.004	482.901	-0.233	-0.534
-523.989	-200.000	-0.031	0.228
-522.975	550.348	-0.110	-0.265
-521.960	-153.981	-0.166	0.011
-520.945	800.000	-0.061	0.175
-519.931	-62.137	0.228	0.096
-518.916	390.746	-0.130	0.271
-517.902	-51.766	-0.100	0.047
-516.887	-200.000	-0.013	0.334
-515.872	35.333	-0.055	-0.049
-514.858	-28.921	0.123	0.071
-513.843	124.316	-0.136	-0.172
-512.829	34.106	-0.093	-0.081
-511.814	-200.000	0.009	-0.097
-510.799	-143.616	-0.448	-0.043
-509.785	800.000	-0.091	-0.278
-508.770	13.237	-0.085	0.066
-507.756	538.879	-0.139	-0.333
-506.741	233.897	-0.132	-0.219
-505.726	194.507	-0.117	-0.179
-504.712	800.000	0.075	-0.271
-503.697	-1.885	-0.126	-0.089
-502.683	113.218	-0.116	-0.142
-501.668	-125.969	0.214	0.032
-500.653	257.463	0.079	0.137
-499.639	-49.514	0.210	-0.100
-498.624	-200.000	-0.029	0.292
-497.610	87.959	0.129	0.144
-496.595	-200.000	0.036	0.214
-495.581	63.169	-0.151	0.152
-494.566	358.607	-0.046	0.092
-493.551	-110.936	0.222	-0.046
-492.537	62.520	0.114	-0.114
-491.522	88.559	0.080	-0.089
-490.508	88.024	0.105	0.117
-489.493	-141.168	0.400	0.041
-488.478	-85.074	0.268	0.084
-487.464	-63.291	-0.398	0.165
-486.449	-168.419	-0.206	-0.008
-485.435	297.284	-0.009	0.016
-484.420	-200.000	0.023	-0.281
-483.405	49.813	-0.173	0.164
-482.391	-23.927	-0.138	0.083
-481.376	99.066	0.186	-0.216
-480.362	283.061	0.136	-0.245
-479.347	80.901	0.099	0.107
-478.332	800.000	-0.087	0.314
-477.318	-74.419	-0.225	-0.082
-476.303	-200.000	-0.006	0.265
-475.289	-59.855	-0.107	-0.046
-474.274	799.264	-0.073	0.202
-473.259	-80.822	-0.177	-0.059
-472.245	-101.477	-0.110	0.027
-471.230	-17.649	-0.317	-0.200
-470.216	86.656	-0.107	-0.119
-469.201	-37.534	-0.231	-0.124
-468.186	-74.458	0.245	0.089
-467.172	-159.522	-0.243	0.014
-466.157	-141.379	0.320	0.033
-465.143	306.465	-0.203	0.380
-464.128	-51.648	-0.111	0.052
-463.113	23.634	0.155	-0.128
-462.099	800.000	-0.030	0.133
-461.084	549.587	0.104	-0.251
-460.070	800.000	0.054	-0.209
-459.055	-131.864	-0.038	-0.005
-458.040	72.641	0.303	0.317
-457.026	427.615	0.036	0.078
-456.011	-2.289	-0.228	0.160
-454.997	-164.796	-0.258	-0.012
-453.982	800.000	0.091	-0.313
-452.968	-151.197	0.098	0.007
-451.953	230.059	-0.287	-0.470
-450.938	-110.446	-0.563	0.117
-449.924	44.895	-0.128	-0.118
-448.909	-151.984	-0.094	0.007
-447.895	327.616	-0.076	-0.146
-446.880	272.937	-0.149	-0.264
-445.865	-200.000	0.001	0.057
-444.851	482.899	-0.110	-0.251
-443.836	-200.000	0.012	-0.066
-442.822	-200.000	-0.051	-0.276
-441.807	29.903	-0.128	0.109
-440.792	800.000	0.023	0.069
-439.778	-200.000	-0.057	0.368
-438.763	121.411	0.109	-0.137
-437.749	-132.620	0.321	-0.041
-436.734	-200.000	-0.040	0.269
-435.719	363.775	0.129	-0.259
-434.705	800.000	0.115	0.425
-433.690	1.952	-0.145	0.105
-432.676	-79.342	0.152	0.052
-431.661	526.219	-0.081	0.190
-430.646	422.884	0.113	-0.242
-429.632	-7.803	-0.045	-0.031
-428.617	101.756	0.088	0.102
-427.603	-67.955	-0.148	0.058
-426.588	-6.522	-0.100	0.068
-425.573	192.986	0.029	0.044
-424.559	-75.811	0.187	0.066
-423.544	-54.244	-0.080	0.037
-422.530	800.000	-0.076	0.215
-421.515	-134.695	-0.147	-0.018
-420.500	-75.978	0.201	0.071
-419.486	-129.398	0.452	-0.063
-418.471	-13.534	-0.165	-0.107
-417.457	80.603	0.097	0.105
-416.442	-54.863	0.162	-0.073
-415.428	-110.781	-0.121	-0.025
-414.413	-119.741	0.350	0.060
-413.398	-15.160	-0.265	-0.170
-412.384	180.575	0.092	0.136
-411.369	85.531	-0.055	0.060
-410.355	-28.406	0.184	0.106
-409.340	-57.784	0.136	0.060
-408.325	-200.000	-0.006	0.265
-407.311	-2.185	-0.429	-0.301
-406.296	-107.165	0.123	-0.027
-405.282	45.107	-0.214	-0.197
-404.267	213.221	-0.119	-0.188
-403.252	45.043	-0.052	0.048
-402.238	31.354	-0.069	-0.059
-401.223	5.388	-0.171	0.126
-400.209	-26.674	-0.307	0.180
-399.194	-100.390	0.210	-0.052
-398.179	-79.597	-0.242	-0.082
-397.165	117.054	-0.165	-0.203
-396.150	800.000	-0.051	0.196
-395.136	-72.797	0.354	0.130
-394.121	94.959	-0.027	0.030
-393.106	162.946	0.194	0.272
-392.092	-129.740	-0.096	0.013
-391.077	768.341	-0.166	-0.453
-390.063	-96.366	-0.216	-0.057
-389.048	388.866	0.180	0.372
-388.033	-54.579	0.236	0.107
-387.019	67.997	0.224	0.229
-386.004	36.427	-0.143	-0.126
-384.990	176.514	0.083	-0.121
-383.975	116.369	-0.083	-0.102
-382.960	-116.451	0.171	0.032
-381.946	800.000	-0.055	0.165
-380.931	78.063	0.104	-0.111
-379.917	670.653	-0.038	-0.099
-378.902	-58.558	0.085	0.037
-377.888	-200.000	-0.003	0.069
-376.873	98.677	-0.115	0.133
-375.858	177.753	0.172	0.251
-374.844	554.750	-0.076	-0.184
-373.829	17.521	-0.158	0.126
-372.815	-200.000	0.032	-0.146
-371.800	-128.845	-0.284	-0.040
-370.785	114.786	-0.282	0.344
-369.771	800.000	0.074	0.257
-368.756	125.841	-0.189	-0.239
-367.742	-200.000	0.071	-0.609
-366.727	80.880	-0.162	0.175
-365.712	-200.000	-0.052	0.251
-364.698	-167.071	-0.228	0.009
-363.683	-26.142	0.143	0.084
-362.669	56.761	0.240	-0.234
-361.654	-14.155	0.151	-0.098
-360.639	-200.000	-0.005	-0.116
-359.625	-127.507	0.147	0.021
-358.610	-32.992	0.119	-0.066
-357.596	-135.295	-0.209	0.025
-356.581	37.703	-0.276	-0.245
-355.566	-67.867	0.099	0.039
-354.552	149.599	0.126	0.170
-353.537	-200.000	-0.055	-0.332
-352.523	-200.000	-0.002	-0.197
-351.508	122.513	0.188	-0.236
-350.493	800.000	0.076	-0.319
-349.479	-200.000	0.006	0.041
-348.464	781.558	-0.138	0.379
-347.450	-48.427	0.105	-0.051
-346.435	-169.706	0.314	-0.011
-345.420	-200.000	0.064	-0.476
-344.406	370.316	0.028	0.057
-343.391	800.000	0.042	-0.116
-342.377	-139.126	-0.383	0.041
-341.362	-153.777	0.244	0.017
-340.348	-42.556	0.189	-0.096
-339.333	-200.000	0.018	-0.294
-338.318	-142.483	0.066	-0.006
-337.304	-136.477	-0.136	0.016
-336.289	-200.000	0.018	0.084
-335.275	-198.070	0.289	-0.002
-334.260	-200.000	0.051	0.257
-333.245	-200.000	0.035	-0.219
-332.231	-90.550	-0.106	0.031
-331.216	-148.251	-0.203	0.017
-330.202	173.025	-0.066	-0.095
-329.187	444.244	0.142	0.311
-328.172	-200.000	0.059	0.276
-327.158	-175.339	-0.165	-0.005
-326.143	135.304	-0.116	0.151
-325.129	-19.239	0.259	-0.160
-324.114	-10.929	-0.031	0.021
-323.099	800.000	0.058	0.195
-322.085	-92.727	0.050	0.014
-321.070	-200.000	-0.004	-0.105
-320.056	109.272	0.160	-0.191
-319.041	408.914	-0.025	-0.052
-318.026	77.979	-0.141	-0.150
-317.012	-200.000	-0.052	0.348
-315.997	-61.006	0.160	-0.068
-314.983	76.826	0.321	-0.339
-313.968	-106.665	-0.309	0.069
-312.953	800.000	-0.080	-0.265
-311.939	352.703	0.127	0.252
-310.924	800.000	-0.060	0.217
-309.910	-200.000	0.014	-0.082
-308.895	159.003	-0.198	0.274
-307.880	-40.303	0.096	0.050
-306.866	-81.130	0.143	0.047
-305.851	-200.000	0.010	0.207
-304.837	-95.654	-0.176	0.047
-303.822	3.947	0.113	0.082
-302.807	-200.000	-0.057	0.374
-301.793	470.844	0.070	0.157
-300.778	305.073	-0.101	0.187
-299.764	-110.309	0.165	0.034
-298.749	43.042	-0.149	-0.136
-297.735	403.941	0.010	0.021
-296.720	-200.000	-0.005	0.135
-295.705	103.394	0.073	-0.086
-294.691	-200.000	0.314	-0.000
-293.676	-85.073	0.202	-0.063
-292.662	-200.000	0.039	0.220
-291.647	-200.000	0.001	0.044
-290.632	470.768	0.198	0.444
-289.618	774.046	-0.148	-0.403
-288.603	-200.000	0.063	-0.352
-287.589	-92.090	-0.080	-0.022
-286.574	200.339	-0.242	0.371
-285.559	-36.836	0.141	0.076
-284.545	457.481	-0.034	0.075
-283.530	-200.000	0.012	0.132
-282.516	257.052	-0.152	-0.260
-281.501	-200.000	0.029	-0.175
-280.486	-60.412	0.033	0.014
-279.472	-41.628	0.250	-0.128
-278.457	386.208	-0.051	0.105
-277.443	800.000	-0.063	0.175
-276.428	439.692	0.135	0.293
-275.413	-200.000	-0.012	-0.149
-274.399	-200.000	-0.018	-0.236
-273.384	800.000	0.034	-0.097
-272.370	473.020	0.020	0.044
-271.355	167.845	0.108	0.153
-270.340	-38.826	0.243	-0.128
-269.326	9.963	0.178	-0.134
-268.311	209.366	-0.161	-0.252
-267.297	-67.306	0.076	-0.030
-266.282	282.832	0.080	0.143
-265.267	218.508	-0.041	-0.065
-264.253	-57.314	0.203	0.089
-263.238	800.000	-0.060	-0.237
-262.224	-147.106	-0.280	-0.024
-261.209	-24.571	-0.091	0.054
-260.195	209.534	0.170	0.265
-259.180	-44.962	0.295	-0.146
-258.165	-200.000	0.006	-0.045
-257.151	-40.104	0.125	-0.065
-256.136	3.814	0.224	-0.163
-255.122	280.773	0.141	-0.251
-254.107	262.954	0.267	0.462
-253.092	-119.183	-0.454	-0.079
-252.078	-200.000	0.024	0.171
-251.063	-200.000	-0.184	0.000
-250.049	340.334	0.072	-0.139
-249.034	-200.000	0.013	-0.095
-248.019	-88.852	0.347	-0.103
-247.005	17.828	0.044	-0.034
-245.990	320.338	-0.034	0.064
-244.976	-200.000	-0.005	-0.438
-243.961	-200.000	0.057	-0.411
-242.946	36.595	0.267	-0.235
-241.932	116.767	0.058	0.071
-240.917	-45.850	0.423	-0.208
-239.903	1.333	0.177	0.127
-238.888	-117.695	0.183	0.033
-237.873	69.625	-0.185	0.189
-236.859	-124.821	0.063	-0.010
-235.844	-10.870	-0.259	0.170
-234.830	346.059	0.085	-0.167
-233.815	800.000	-0.056	0.161
-232.800	-124.227	0.365	-0.057
-231.786	800.000	-0.114	0.406
-230.771	-200.000	0.047	0.339
-229.757	-41.040	0.104	-0.053
-228.742	-200.000	-0.025	0.370
-227.727	291.321	-0.030	0.054
-226.713	-45.638	-0.164	0.081
-225.698	-200.000	0.040	-0.216
-224.684	800.000	-0.055	-0.202
-223.669	800.000	0.100	-0.333
-222.655	40.502	-0.146	-0.131
-221.640	-200.000	-0.019	0.195
-220.625	-13.412	0.322	-0.208
-219.611	-194.654	-0.256	-0.002
-218.596	139.448	0.140	-0.183
-217.582	482.036	-0.073	0.165
-216.567	-200.000	0.005	0.068
-215.552	84.120	0.095	-0.103
-214.538	800.000	-0.164	0.467
-213.523	-200.000	-0.072	0.365
-212.509	-36.036	-0.300	-0.161
-211.494	-200.000	-0.028	-0.165
-210.479	-200.000	-0.003	0.307
-209.465	461.222	-0.084	0.187
-208.450	218.650	0.114	-0.181
-207.436	800.000	0.044	0.170
-206.421	-200.000	0.041	-0.274
-205.406	33.894	0.251	-0.217
-204.392	446.176	-0.024	-0.052
-203.377	-81.325	0.097	0.032
-202.363	234.546	-0.091	0.149
-201.348	-156.241	-0.203	0.013
-200.333	-200.000	-0.016	0.252
-199.319	-8.254	0.201	-0.134
-198.304	-3.368	-0.232	-0.160
-197.290	-200.000	0.000	0.046
-196.275	332.882	-0.110	0.210
-195.260	-104.350	-0.345	-0.079
-194.246	179.916	-0.041	0.060
-193.231	-40.735	-0.126	0.065
-192.217	26.898	0.201	0.167
-191.202	-70.221	0.180	0.068
-190.187	-200.000	0.041	0.272
-189.173	-75.017	0.122	-0.043
-188.158	-28.835	0.295	0.168
-187.144	327.090	0.078	0.148
-186.129	-53.710	-0.343	-0.156
-185.114	232.583	-0.010	-0.017
-184.100	-121.010	0.250	-0.042
-183.085	291.602	0.174	-0.315
-182.071	800.000	0.100	0.319
-181.056	-115.370	-0.388	0.073
-180.042	-200.000	0.051	-0.000
-179.027	110.164	-0.053	0.064
-178.012	581.140	0.044	-0.108
-176.998	-63.235	0.227	0.093
-175.983	-88.012	0.164	-0.049
-174.969	-142.166	-0.173	-0.017
-173.954	800.000	-0.021	0.088
-172.939	-200.000	-0.029	0.124
-171.925	-200.000	0.015	-0.149
-170.910	111.110	-0.230	0.274
-169.896	298.139	-0.098	0.178
-168.881	-200.000	-0.072	0.332
-167.866	94.092	0.089	-0.100
-166.852	-90.247	0.129	-0.037
-165.837	-102.153	0.120	0.029
-164.823	-200.000	0.033	0.342
-163.808	-200.000	0.002	0.070
-162.793	384.078	0.025	0.051
-161.779	-69.040	-0.617	0.236
-160.764	-85.800	-0.172	-0.053
-159.750	593.745	-0.109	0.268
-158.735	-200.000	0.001	-0.026
-157.720	40.242	0.051	0.045
-156.706	64.548	0.076	-0.076
-155.691	-200.000	0.016	-0.145
-154.677	55.941	0.223	-0.214
-153.662	-200.000	0.005	-0.254
-152.647	-90.696	0.009	-0.002
-151.633	85.771	-0.164	0.179
-150.618	-109.279	-0.426	0.090
-149.604	-44.419	-0.314	0.156
-148.589	-6.347	-0.264	0.179
-147.574	-155.920	0.316	0.020
-146.560	-33.668	0.248	0.136
-145.545	140.814	0.121	-0.159
-144.531	68.560	0.213	-0.216
-143.516	365.832	-0.046	0.092
-142.502	581.585	0.113	0.275
-141.487	-200.000	-0.011	-0.226
-140.472	-83.820	-0.365	0.115
-139.458	277.502	0.136	0.241
-138.443	-200.000	-0.039	-0.348
-137.429	524.559	0.100	-0.233
-136.414	-38.013	0.238	-0.125
-135.399	528.081	-0.055	0.128
-134.385	109.903	-0.154	-0.183
-133.370	335.949	-0.137	0.263
-132.356	-146.902	0.119	0.010
-131.341	320.085	-0.115	0.217
-130.326	327.112	0.039	0.075
-129.312	99.423	-0.104	-0.119
-128.297	35.635	0.072	0.063
-127.283	-74.695	-0.312	0.111
-126.268	233.645	0.150	0.244
-125.253	257.101	0.120	0.205
-124.239	38.838	-0.352	-0.311
-123.224	331.303	0.056	0.108
-122.210	425.295	-0.075	0.159
