DTS Sentinel unit serial number:	SN413079Multiplexer serial number:	ORYXHardware model number:	OX4-SRSoftware version number:	ORYX F/W v4.00 Oryx Data Collector v3.7.2.0data status	okinstallation	princeton_trtdifferential loss correction	single-endedforward channel	channel 4reverse channel	N/Adate	2019/09/19time	01:53:35forward acquisition time	60.00reverse acquisition time	0.00gamma	496.2192k internal	0.2339k external	0.2339temperature offset calibration	1.0030default loss term (dB/km)	0.3790temperature slope calibration	1.0000multiplexer offset coefficient	1.0000multiplexer slope coefficient	1.0000fibre end	0.00T internal ref (°C)	21.31T ext. ref 1 (°C)	0.69T ext. ref 2 (°C)	14.85length (m)	temperature (°C)	Stokes	anti-Stokes-747.200	-18.359	-0.119	0.074
-746.185	375.492	-0.133	-0.272
-745.171	-78.066	0.205	-0.071
-744.156	552.054	-0.120	0.290
-743.142	74.879	-0.355	0.375
-742.127	103.628	-0.160	0.189
-741.112	800.000	-0.007	-0.027
-740.098	766.598	0.099	-0.269
-739.083	56.669	0.294	0.287
-738.069	-71.016	-0.168	0.063
-737.054	800.000	0.085	0.271
-736.039	800.000	-0.059	-0.185
-735.025	72.313	0.294	0.307
-734.010	-49.483	-0.301	0.144
-732.996	-200.000	-0.012	-0.352
-731.981	92.634	-0.174	-0.197
-730.966	-133.721	-0.345	0.043
-729.952	800.000	-0.136	-0.441
-728.937	-78.699	-0.073	0.025
-727.923	537.365	0.039	-0.092
-726.908	81.040	0.165	-0.178
-725.894	-76.281	-0.216	-0.076
-724.879	800.000	0.019	0.055
-723.864	-200.000	-0.003	0.223
-722.850	147.094	0.167	-0.226
-721.835	-19.706	-0.100	0.062
-720.821	454.472	0.144	0.319
-719.806	-200.000	0.027	-0.220
-718.791	-70.138	-0.095	0.036
-717.777	39.365	0.126	0.113
-716.762	800.000	0.104	0.449
-715.748	-103.659	0.356	-0.084
-714.733	98.250	-0.151	0.175
-713.718	-54.878	-0.281	-0.127
-712.704	55.761	0.137	0.133
-711.689	223.484	-0.154	-0.248
-710.675	800.000	-0.035	-0.133
-709.660	290.118	-0.086	-0.157
-708.645	92.739	0.169	-0.191
-707.631	-105.690	-0.149	-0.034
-706.616	-200.000	-0.004	-0.094
-705.602	306.855	-0.106	-0.198
-704.587	25.464	0.231	0.193
-703.572	800.000	0.080	0.332
-702.558	37.661	-0.039	-0.035
-701.543	70.035	-0.240	0.248
-700.529	395.616	-0.052	0.108
-699.514	382.157	-0.089	0.183
-698.499	-40.976	-0.097	-0.050
-697.485	-200.000	0.036	-0.225
-696.470	479.713	-0.083	-0.187
-695.456	112.014	-0.233	0.282
-694.441	58.640	-0.208	0.204
-693.426	-99.945	0.227	0.057
-692.412	-180.382	-0.086	0.002
-691.397	800.000	-0.045	-0.173
-690.383	-105.981	-0.313	-0.071
-689.368	-200.000	-0.050	-0.236
-688.354	4.251	-0.021	-0.015
-687.339	76.206	0.068	-0.072
-686.324	10.365	-0.157	-0.120
-685.310	-45.044	-0.050	-0.025
-684.295	-84.215	0.184	-0.058
-683.281	19.765	-0.137	0.110
-682.266	519.306	-0.086	0.202
-681.251	31.074	-0.240	-0.206
-680.237	-145.967	-0.174	-0.015
-679.222	517.070	-0.006	0.015
-678.208	117.093	-0.080	-0.099
-677.193	-14.779	-0.214	-0.137
-676.178	798.427	0.031	0.086
-675.164	256.686	-0.104	0.178
-674.149	71.762	0.124	0.129
-673.135	207.419	-0.212	0.332
-672.120	-200.000	0.077	0.388
-671.105	14.717	-0.150	-0.117
-670.091	266.874	0.199	0.348
-669.076	-200.000	-0.004	-0.055
-668.062	151.939	-0.098	-0.133
-667.047	429.283	0.131	-0.283
-666.032	-69.057	-0.349	-0.134
-665.018	-108.259	0.123	0.027
-664.003	165.377	-0.028	0.040
-662.989	-146.121	-0.220	-0.019
-661.974	18.057	-0.282	0.225
-660.959	-182.301	0.071	-0.001
-659.945	800.000	-0.054	0.187
-658.930	-200.000	-0.005	-0.301
-657.916	-48.604	0.144	0.069
-656.901	550.718	-0.102	-0.243
-655.886	-71.737	0.224	0.083
-654.872	-32.079	-0.357	0.199
-653.857	571.353	0.080	-0.194
-652.843	-110.921	-0.373	0.077
-651.828	-155.962	0.183	0.012
-650.814	-15.210	-0.083	-0.053
-649.799	-1.303	-0.111	-0.079
-648.784	-200.000	0.039	-0.426
-647.770	434.751	0.121	-0.263
-646.755	-30.602	-0.064	-0.036
-645.741	325.476	0.103	0.196
-644.726	92.139	-0.219	-0.246
-643.711	-11.614	0.030	-0.020
-642.697	-200.000	-0.001	-0.127
-641.682	267.986	-0.109	-0.191
-640.668	495.404	-0.085	0.194
-639.653	435.536	-0.105	-0.227
-638.638	-69.981	0.375	-0.143
-637.624	-136.653	-0.123	-0.014
-636.609	-57.605	0.163	-0.071
-635.595	324.553	-0.134	-0.255
-634.580	48.464	-0.184	-0.172
-633.565	-87.040	0.137	0.042
-632.551	-106.950	0.117	0.026
-631.536	77.911	-0.352	-0.375
-630.522	-79.566	-0.302	0.102
-629.507	-107.470	0.235	-0.051
-628.492	109.700	0.053	0.063
-627.478	-200.000	-0.047	0.378
-626.463	800.000	0.030	0.127
-625.449	-139.676	-0.109	0.012
-624.434	800.000	0.060	0.230
-623.419	233.630	0.052	-0.085
-622.405	-200.000	0.052	0.443
-621.390	58.097	-0.294	-0.287
-620.376	-65.375	-0.011	0.005
-619.361	-200.000	0.046	0.250
-618.346	22.140	0.200	0.163
-617.332	77.797	-0.293	0.312
-616.317	799.784	-0.061	0.167
-615.303	-200.000	0.053	0.275
-614.288	100.633	0.227	0.263
-613.273	-41.124	-0.301	0.155
-612.259	-25.890	0.352	-0.207
-611.244	-200.000	-0.059	-0.271
-610.230	768.787	0.061	-0.165
-609.215	-187.195	-0.208	0.003
-608.201	-200.000	0.005	0.028
-607.186	-41.577	0.214	-0.110
-606.171	-43.511	0.297	0.150
-605.157	-200.000	-0.025	-0.131
-604.142	-200.000	0.084	-0.415
-603.128	-200.000	-0.049	-0.251
-602.113	-200.000	-0.040	0.272
-601.098	-189.351	-0.368	0.004
-600.084	214.221	-0.085	0.134
-599.069	348.158	0.056	0.110
-598.055	-50.079	-0.264	0.125
-597.040	-3.273	0.136	0.095
-596.025	-7.660	-0.084	0.057
-595.011	-127.383	-0.194	-0.028
-593.996	-13.242	0.013	0.009
-592.982	-59.399	-0.063	-0.027
-591.967	800.000	-0.057	-0.222
-590.952	800.000	0.015	-0.045
-589.938	-200.000	-0.066	0.308
-588.923	127.287	0.146	-0.185
-587.909	-60.112	0.251	-0.107
-586.894	-92.881	-0.238	0.066
-585.879	40.757	-0.131	-0.118
-584.865	127.431	-0.270	-0.342
-583.850	164.705	-0.226	-0.317
-582.836	-147.063	-0.226	0.019
-581.821	151.169	-0.174	0.237
-580.806	125.187	-0.173	-0.217
-579.792	521.067	0.063	-0.147
-578.777	-92.526	0.365	-0.102
-577.763	-200.000	-0.043	-0.409
-576.748	-80.022	0.238	-0.080
-575.733	800.000	-0.020	0.059
-574.719	70.878	0.173	-0.178
-573.704	-200.000	-0.008	0.070
-572.690	-9.177	0.116	-0.077
-571.675	126.363	0.017	0.022
-570.661	-87.861	-0.329	-0.099
-569.646	76.234	0.183	-0.193
-568.631	-160.410	0.111	-0.006
-567.617	-132.452	-0.226	0.029
-566.602	-200.000	0.011	-0.299
-565.588	121.740	0.176	0.219
-564.573	284.312	0.167	0.299
-563.558	78.866	-0.214	-0.228
-562.544	-31.356	-0.071	-0.040
-561.529	2.481	0.216	0.155
-560.515	-60.531	0.272	-0.115
-559.500	119.065	0.218	0.268
-558.485	58.484	-0.038	0.038
-557.471	800.000	-0.079	-0.303
-556.456	59.130	0.044	-0.043
-555.442	73.776	-0.262	0.273
-554.427	411.075	0.056	-0.117
-553.412	740.705	0.040	-0.108
-552.398	151.510	0.095	-0.129
-551.383	-17.720	0.148	-0.092
-550.369	581.285	-0.193	0.470
-549.354	-166.940	-0.305	-0.012
-548.339	-85.988	0.064	-0.020
-547.325	-116.314	-0.186	-0.034
-546.310	17.351	0.316	0.250
-545.296	197.351	-0.099	0.151
-544.281	2.671	0.224	0.161
-543.266	800.000	-0.042	0.135
-542.252	-12.857	0.031	0.020
-541.237	-200.000	0.043	-0.302
-540.223	61.630	0.058	0.058
-539.208	16.785	0.298	-0.234
-538.193	-179.987	-0.106	0.002
-537.179	299.362	0.050	-0.091
-536.164	1.134	-0.223	-0.159
-535.150	-173.495	-0.109	-0.003
-534.135	-168.466	0.293	0.011
-533.121	172.587	-0.136	-0.194
-532.106	367.804	-0.140	-0.281
-531.091	-20.555	0.121	0.074
-530.077	777.941	-0.076	-0.206
-529.062	-181.032	0.253	-0.005
-528.048	-40.845	-0.147	0.076
-527.033	26.709	-0.224	0.186
-526.018	183.965	-0.058	-0.085
-525.004	-19.190	-0.223	-0.137
-523.989	-200.000	0.015	-0.150
-522.975	-127.468	-0.350	0.051
-521.960	800.000	0.062	-0.211
-520.945	294.632	-0.135	-0.245
-519.931	-81.079	-0.160	-0.052
-518.916	800.000	0.063	0.237
-517.902	800.000	-0.029	0.092
-516.887	717.652	-0.016	0.041
-515.872	390.278	-0.016	-0.034
-514.858	-200.000	-0.048	-0.243
-513.843	-44.715	-0.118	-0.059
-512.829	-51.128	0.108	-0.050
-511.814	-177.995	-0.244	-0.006
-510.799	-200.000	0.010	0.252
-509.785	48.296	0.186	0.173
-508.770	-110.278	-0.336	0.069
-507.756	264.153	0.129	-0.222
-506.741	-156.360	-0.372	-0.023
-505.726	-122.511	-0.272	-0.044
-504.712	13.347	0.164	0.126
-503.697	-200.000	-0.026	0.178
-502.683	-101.622	0.176	-0.043
-501.668	800.000	0.063	-0.253
-500.653	-70.150	0.128	-0.048
-499.639	-200.000	0.013	-0.201
-498.624	63.027	-0.259	-0.258
-497.610	-200.000	0.007	0.232
-496.595	-32.014	-0.156	-0.087
-495.581	-80.916	-0.292	0.096
-494.566	-143.227	-0.210	0.020
-493.551	800.000	0.106	-0.290
-492.537	800.000	-0.163	-0.493
-491.522	-131.870	0.207	-0.027
-490.508	-193.700	-0.052	-0.000
-489.493	106.503	0.013	0.016
-488.478	24.712	0.107	-0.088
-487.464	-183.269	-0.101	-0.002
-486.449	-129.562	-0.152	0.021
-485.435	121.547	-0.230	-0.284
-484.420	-90.058	-0.116	-0.034
-483.405	-28.269	0.361	-0.207
-482.391	-200.000	0.017	0.202
-481.376	-8.980	-0.097	0.064
-480.362	-131.081	0.203	0.027
-479.347	-74.397	0.066	0.024
-478.332	-25.358	-0.201	0.118
-477.318	800.000	0.019	0.078
-476.303	-200.000	0.034	-0.220
-475.289	-118.218	0.274	0.048
-474.274	8.168	0.429	-0.320
-473.259	-29.152	0.078	0.044
-472.245	800.000	0.051	0.196
-471.230	-101.721	-0.104	0.025
-470.216	-148.273	0.056	-0.005
-469.201	-200.000	0.069	-0.449
-468.186	-137.339	-0.275	-0.031
-467.172	324.261	-0.101	0.191
-466.157	339.031	0.098	-0.189
-465.143	217.603	0.127	0.201
-464.128	82.018	0.276	-0.297
-463.113	-57.684	0.161	-0.070
-462.099	-36.429	0.226	-0.121
-461.084	-200.000	0.038	0.335
-460.070	291.661	-0.126	-0.228
-459.055	675.519	0.027	-0.068
-458.040	190.252	0.194	-0.289
-457.026	-103.570	-0.112	0.026
-456.011	57.040	0.181	0.175
-454.997	133.774	0.316	0.405
-453.982	169.167	0.175	-0.248
-452.968	-85.168	0.289	0.090
-451.953	398.528	-0.115	-0.238
-450.938	-128.313	0.166	-0.023
-449.924	800.000	0.061	0.202
-448.909	800.000	-0.039	-0.144
-447.895	313.969	-0.069	-0.129
-446.880	-156.821	-0.231	0.014
-445.865	800.000	0.095	0.370
-444.851	-102.646	-0.230	0.054
-443.836	91.427	0.057	-0.063
-442.822	382.213	0.086	0.174
-441.807	32.980	-0.211	0.181
-440.792	-135.693	-0.077	0.009
-439.778	52.133	0.138	0.130
-438.763	142.727	-0.104	0.137
-437.749	257.282	0.105	0.179
-436.734	-200.000	-0.002	0.118
-435.719	-106.407	-0.124	-0.027
-434.705	-200.000	0.050	-0.461
-433.690	-116.557	0.296	-0.054
-432.676	269.955	-0.064	-0.112
-431.661	-35.054	-0.142	-0.077
-430.646	-19.388	0.208	0.128
-429.632	281.431	0.056	-0.099
-428.617	800.000	0.039	0.168
-427.603	151.564	-0.070	-0.094
-426.588	-172.858	0.698	0.022
-425.573	243.192	0.127	0.210
-424.559	-30.543	-0.208	-0.117
-423.544	-54.867	0.177	0.079
-422.530	197.443	0.145	-0.220
-421.515	800.000	-0.035	-0.107
-420.500	-200.000	-0.029	-0.162
-419.486	800.000	-0.067	0.284
-418.471	-200.000	0.030	0.286
-417.457	-71.211	-0.326	0.121
-416.442	-135.977	0.220	0.026
-415.428	22.785	0.062	-0.050
-414.413	150.522	-0.046	-0.062
-413.398	800.000	-0.006	-0.024
-412.384	266.755	0.167	-0.288
-411.369	36.069	0.097	-0.084
-410.355	-200.000	0.050	0.409
-409.340	-9.372	0.257	-0.170
-408.325	289.743	-0.157	-0.282
-407.311	-62.286	-0.330	-0.136
-406.296	-48.025	0.158	0.076
-405.282	489.655	-0.146	-0.331
-404.267	-200.000	0.009	0.074
-403.252	-59.107	-0.357	-0.152
-402.238	28.579	0.215	0.180
-401.223	18.068	-0.309	0.244
-400.209	3.956	0.074	-0.054
-399.194	171.142	-0.182	-0.259
-398.179	226.371	0.131	0.210
-397.165	234.125	-0.091	0.148
-396.150	-46.948	0.210	-0.101
-395.136	294.276	0.037	-0.067
-394.121	-53.652	0.372	-0.168
-393.106	-140.646	-0.334	-0.034
-392.092	113.305	-0.175	0.210
-391.077	8.078	0.341	0.253
-390.063	605.856	-0.080	-0.197
-389.048	-26.639	0.043	-0.025
-388.033	0.057	-0.215	-0.152
-387.019	-26.794	0.265	-0.153
-386.004	-165.670	-0.239	-0.010
-384.990	-147.380	0.257	0.022
-383.975	104.507	0.249	-0.290
-382.960	-200.000	-0.025	-0.293
-381.946	-81.054	-0.217	0.071
-380.931	81.965	-0.028	-0.030
-379.917	-120.793	0.101	0.017
-378.902	-119.049	0.051	-0.009
-377.888	-200.000	-0.023	0.111
-376.873	-200.000	0.009	0.045
-375.858	-200.000	0.016	-0.371
-374.844	-70.185	0.228	0.086
-373.829	387.726	-0.020	-0.040
-372.815	26.327	-0.255	-0.211
-371.800	-75.118	-0.352	0.124
-370.785	-76.266	-0.098	0.034
-369.771	-200.000	0.056	0.246
-368.756	9.089	0.293	0.219
-367.742	596.065	0.045	0.111
-366.727	-43.952	0.130	0.065
-365.712	-52.927	-0.164	0.075
-364.698	91.512	0.178	0.198
-363.683	-31.340	0.138	0.077
-362.669	-106.461	0.298	0.066
-361.654	227.198	-0.073	0.117
-360.639	-200.000	-0.019	-0.475
-359.625	-200.000	-0.004	-0.062
-358.610	180.192	-0.146	-0.212
-357.596	-103.982	-0.137	0.032
-356.581	-93.961	-0.292	0.079
-355.566	6.532	-0.215	-0.158
-354.552	-103.146	-0.162	-0.038
-353.537	-14.860	-0.195	0.123
-352.523	-63.252	0.186	-0.076
-351.508	800.000	0.051	-0.193
-350.493	83.615	-0.138	-0.149
-349.479	-200.000	-0.001	-0.257
-348.464	308.896	0.150	-0.277
-347.450	-200.000	0.004	-0.057
-346.435	38.836	-0.077	-0.068
-345.420	-200.000	-0.036	-0.355
-344.406	364.423	-0.073	0.144
-343.391	7.119	-0.190	-0.140
-342.377	189.348	0.141	-0.208
-341.362	483.439	-0.102	0.230
-340.348	304.713	-0.131	0.240
-339.333	396.202	-0.100	0.206
-338.318	194.737	-0.127	-0.190
-337.304	-63.571	0.242	0.098
-336.289	-25.761	0.239	0.139
-335.275	-10.483	0.259	-0.170
-334.260	-100.152	0.155	0.038
-333.245	-200.000	0.019	0.101
-332.231	62.386	-0.176	0.173
-331.216	127.484	-0.067	-0.084
-330.202	800.000	0.029	-0.107
-329.187	-200.000	-0.025	0.187
-328.172	72.284	-0.179	-0.184
-327.158	53.544	-0.261	-0.247
-326.143	37.683	-0.282	0.247
-325.129	-162.991	-0.080	-0.004
-324.114	-200.000	-0.021	0.171
-323.099	118.863	0.158	-0.192
-322.085	-200.000	-0.054	-0.369
-321.070	800.000	0.081	-0.227
-320.056	800.000	0.079	-0.260
-319.041	375.313	0.044	0.089
-318.026	800.000	0.078	0.225
-317.012	-107.954	0.357	0.077
-315.997	605.918	-0.066	-0.161
-314.983	524.126	0.075	-0.175
-313.968	-6.399	-0.080	0.054
-312.953	211.001	0.093	-0.144
-311.939	386.212	0.078	0.159
-310.924	-200.000	0.213	0.001
-309.910	-100.619	0.197	-0.048
-308.895	253.724	0.247	-0.417
-307.880	613.863	-0.155	-0.382
-306.866	-33.524	0.178	-0.097
-305.851	165.759	0.091	-0.128
-304.837	-156.405	-0.450	-0.028
-303.822	663.678	-0.057	0.146
-302.807	245.812	-0.254	0.421
-301.793	94.180	-0.025	-0.027
-300.778	305.289	-0.268	0.491
-299.764	-200.000	-0.048	-0.249
-298.749	186.199	-0.096	0.141
-297.735	800.000	-0.088	0.269
-296.720	-168.289	-0.269	-0.010
-295.705	-12.048	-0.022	0.014
-294.691	781.086	-0.015	0.040
-293.676	289.521	0.108	0.192
-292.662	-78.185	0.273	-0.092
-291.647	269.266	-0.155	0.268
-290.632	169.453	-0.151	0.212
-289.618	-200.000	-0.028	0.141
-288.603	-200.000	-0.007	0.284
-287.589	-79.085	0.117	-0.039
-286.574	-200.000	-0.014	0.264
-285.559	-112.412	0.233	-0.046
-284.545	-48.012	-0.229	-0.109
-283.530	-179.948	0.339	0.007
-282.516	-200.000	-0.014	-0.113
-281.501	-200.000	-0.058	0.486
-280.486	20.572	0.074	-0.059
-279.472	800.000	0.108	0.329
-278.457	446.534	0.092	-0.198
-277.443	-149.148	-0.094	0.007
-276.428	106.962	-0.109	0.127
-275.413	-200.000	-0.072	0.680
-274.399	-80.803	0.297	-0.097
-273.384	-200.000	-0.018	-0.121
-272.370	-200.000	0.037	0.258
-271.355	150.242	0.039	-0.053
-270.340	217.867	-0.132	-0.207
-269.326	-100.680	0.330	-0.080
-268.311	122.250	-0.132	0.163
-267.297	-158.022	0.141	-0.008
-266.282	381.468	0.177	-0.358
-265.267	-39.171	-0.149	0.077
-264.253	216.515	0.231	0.361
-263.238	51.871	-0.116	0.108
-262.224	-200.000	0.075	0.505
-261.209	218.097	0.131	0.206
-260.195	-200.000	-0.003	0.160
-259.180	320.227	0.118	-0.220
-258.165	-29.017	-0.220	-0.124
-257.151	61.490	0.137	-0.134
-256.136	-200.000	-0.052	-0.281
-255.122	749.553	-0.026	-0.069
-254.107	-74.135	0.326	-0.116
-253.092	-41.390	0.048	-0.024
-252.078	217.652	0.110	-0.172
-251.063	-200.000	0.151	0.000
-250.049	19.226	0.063	-0.050
-249.034	267.915	0.114	0.196
-248.019	800.000	0.044	-0.144
-247.005	-200.000	-0.012	0.115
-245.990	-200.000	0.050	0.248
-244.976	245.046	0.152	0.252
-243.961	168.474	-0.209	0.293
-242.946	98.480	-0.095	0.108
-241.932	160.459	-0.158	0.216
-240.917	-124.684	0.156	0.024
-239.903	777.993	-0.117	-0.314
-238.888	4.500	-0.159	0.115
-237.873	70.436	0.110	0.112
-236.859	-200.000	0.045	-0.245
-235.844	-182.330	0.487	-0.009
-234.830	46.788	0.003	-0.003
-233.815	70.645	0.086	-0.088
-232.800	174.431	0.061	-0.087
-231.786	506.843	-0.138	0.316
-230.771	125.492	0.114	-0.141
-229.757	-200.000	-0.005	0.140
-228.742	-11.025	0.119	-0.077
-227.727	103.105	0.204	0.234
-226.713	-200.000	-0.103	0.517
-225.698	29.523	-0.107	0.089
-224.684	-17.582	-0.057	0.035
-223.669	54.366	-0.227	-0.215
-222.655	800.000	-0.093	-0.377
-221.640	-200.000	-0.021	-0.125
-220.625	109.775	-0.135	0.160
-219.611	800.000	-0.044	0.169
-218.596	5.956	0.204	0.148
-217.582	-75.873	0.155	-0.054
-216.567	-106.541	0.223	-0.049
-215.552	359.007	-0.194	0.381
-214.538	708.005	0.110	0.286
-213.523	260.912	-0.138	0.235
-212.509	-71.337	0.066	-0.024
-211.494	34.754	-0.141	0.121
-210.479	15.192	-0.181	0.140
-209.465	85.040	-0.164	0.177
-208.450	185.350	0.090	0.131
-207.436	42.968	-0.233	0.208
-206.421	135.571	0.088	0.112
-205.406	-200.000	-0.017	-0.104
-204.392	-144.415	-0.247	-0.023
-203.377	800.000	-0.089	-0.251
-202.363	-88.059	-0.224	-0.066
-201.348	-42.569	-0.125	0.062
-200.333	29.021	0.106	0.088
-199.319	270.708	-0.054	0.093
-198.304	800.000	0.159	0.616
-197.290	-88.969	0.272	0.079
-196.275	-92.934	-0.100	0.027
-195.260	-164.210	-0.148	0.007
-194.246	800.000	-0.061	0.235
-193.231	800.000	-0.030	0.101
-192.217	-200.000	-0.040	0.275
-191.202	-148.318	-0.173	-0.014
-190.187	123.760	0.061	0.075
-189.173	-10.471	-0.106	-0.069
-188.158	100.556	0.177	0.201
-187.144	-48.808	0.043	0.020
-186.129	-2.178	-0.402	-0.277
-185.114	-48.275	-0.044	0.021
-184.100	-128.015	-0.149	-0.021
-183.085	49.821	0.187	0.173
-182.071	95.799	-0.124	-0.139
-181.056	101.177	0.225	0.257
-180.042	124.304	0.125	0.154
-179.027	-180.864	0.119	-0.002
-178.012	-78.440	-0.207	-0.069
-176.998	43.505	0.089	-0.080
-175.983	-129.808	-0.251	0.034
-174.969	12.917	-0.272	0.206
-173.954	89.517	0.130	-0.142
-172.939	50.247	-0.135	-0.125
-171.925	232.182	0.108	-0.173
-170.910	48.670	0.208	0.191
-169.896	506.283	-0.150	-0.341
-168.881	36.748	0.322	0.279
-167.866	456.305	-0.122	0.265
-166.852	-110.584	0.336	-0.068
-165.837	133.083	0.027	0.034
-164.823	-104.576	-0.292	0.066
-163.808	800.000	-0.033	0.128
-162.793	-162.252	-0.245	-0.012
-161.779	-107.680	0.182	0.039
-160.764	-200.000	-0.010	0.245
-159.750	-110.426	-0.303	0.062
-158.735	244.196	0.077	0.127
-157.720	57.739	0.235	0.225
-156.706	-114.656	0.063	0.012
-155.691	-121.792	0.214	-0.035
-154.677	376.941	0.097	-0.193
-153.662	-200.000	-0.049	-0.346
-152.647	-45.154	0.162	-0.079
-151.633	-83.047	-0.096	-0.030
-150.618	-200.000	0.030	-0.144
-149.604	286.240	-0.242	0.428
-148.589	745.121	0.101	0.266
-147.574	111.504	0.080	0.095
-146.560	32.724	0.100	-0.085
-145.545	-70.645	0.142	-0.053
-144.531	-120.554	0.291	0.048
-143.516	5.521	0.061	0.044
-142.502	785.621	0.030	0.080
-141.487	-118.408	-0.146	0.025
-140.472	383.422	-0.067	0.135
-139.458	800.000	-0.036	-0.121
-138.443	800.000	-0.053	0.186
-137.429	-200.000	-0.027	0.143
-136.414	-92.300	0.268	-0.074
-135.399	-76.389	0.064	0.022
-134.385	-200.000	0.019	0.183
-133.370	486.712	0.098	-0.220
-132.356	-183.391	0.208	-0.004
-131.341	-87.538	-0.229	-0.068
-130.326	800.000	0.070	0.214
-129.312	800.000	0.087	0.254
-128.297	-200.000	0.009	0.077
-127.283	-90.903	0.048	0.014
-126.268	294.033	-0.068	0.121
-125.253	-139.582	-0.210	0.022
-124.239	25.724	-0.084	-0.069
-123.224	334.335	0.087	-0.164
-122.210	-46.951	-0.262	-0.125
-121.195	26.821	0.199	-0.163
