DTS Sentinel unit serial number:	SN413079Multiplexer serial number:	ORYXHardware model number:	OX4-SRSoftware version number:	ORYX F/W v4.00 Oryx Data Collector v3.7.2.0data status	okinstallation	princeton_trtdifferential loss correction	single-endedforward channel	channel 4reverse channel	N/Adate	2019/09/19time	10:33:35forward acquisition time	60.00reverse acquisition time	0.00gamma	496.2192k internal	0.2328k external	0.2328temperature offset calibration	1.0017default loss term (dB/km)	0.3790temperature slope calibration	1.0000multiplexer offset coefficient	1.0000multiplexer slope coefficient	1.0000fibre end	0.00T internal ref (°C)	24.42T ext. ref 1 (°C)	0.71T ext. ref 2 (°C)	19.91length (m)	temperature (°C)	Stokes	anti-Stokes-747.200	-30.629	-0.099	-0.057
-746.185	185.423	0.212	0.317
-745.171	-127.173	0.367	0.054
-744.156	-77.247	0.125	0.044
-743.142	-54.532	0.338	0.154
-742.127	-163.347	-0.075	0.004
-741.112	309.614	-0.117	-0.221
-740.098	800.000	0.132	0.379
-739.083	52.375	-0.180	0.173
-738.069	39.983	-0.218	0.198
-737.054	-95.507	0.246	0.067
-736.039	638.215	-0.053	-0.136
-735.025	158.220	-0.087	-0.121
-734.010	739.303	-0.183	-0.495
-732.996	-62.537	-0.112	0.047
-731.981	-128.289	-0.095	-0.014
-730.966	59.833	0.101	-0.101
-729.952	-139.576	0.105	0.011
-728.937	111.497	-0.098	-0.119
-727.923	-200.000	0.018	0.257
-726.908	800.000	-0.025	-0.098
-725.894	8.479	0.208	0.158
-724.879	-31.770	-0.274	0.154
-723.864	119.444	0.213	0.265
-722.850	-122.590	0.128	-0.021
-721.835	-78.770	-0.229	-0.079
-720.821	26.336	0.407	-0.343
-719.806	-124.687	0.170	0.026
-718.791	-180.348	-0.189	0.004
-717.777	41.525	0.090	0.082
-716.762	273.767	0.081	0.144
-715.748	226.499	-0.165	0.269
-714.733	77.815	0.102	0.109
-713.718	-143.718	0.068	-0.006
-712.704	-38.844	0.229	-0.122
-711.689	-20.619	0.186	-0.115
-710.675	383.357	-0.155	0.321
-709.660	14.170	-0.174	0.136
-708.645	0.721	0.216	0.156
-707.631	606.448	0.053	0.132
-706.616	426.581	-0.072	0.156
-705.602	-131.721	-0.271	0.036
-704.587	-158.685	0.545	-0.031
-703.572	-200.000	0.035	0.235
-702.558	-200.000	0.035	0.155
-701.543	109.625	-0.111	0.134
-700.529	-0.504	0.152	-0.109
-699.514	-200.000	-0.021	-0.113
-698.499	-101.751	-0.225	-0.055
-697.485	86.283	0.213	-0.236
-696.470	-66.394	-0.263	-0.105
-695.456	-200.000	0.057	0.277
-694.441	749.018	-0.119	-0.323
-693.426	169.991	0.139	-0.200
-692.412	25.616	-0.241	0.202
-691.397	543.217	-0.120	0.287
-690.383	18.819	0.118	0.095
-689.368	46.348	0.192	0.179
-688.354	-44.678	0.227	-0.114
-687.339	-200.000	0.025	-0.194
-686.324	-200.000	0.038	-0.490
-685.310	-155.526	0.175	-0.011
-684.295	714.137	0.101	0.269
-683.281	307.813	-0.172	0.323
-682.266	-200.000	-0.019	0.333
-681.251	-127.906	-0.149	-0.022
-680.237	800.000	-0.139	-0.462
-679.222	-200.000	0.003	-0.121
-678.208	-153.968	-0.322	0.022
-677.193	13.500	-0.224	-0.175
-676.178	131.062	-0.114	-0.146
-675.164	-68.185	-0.180	0.070
-674.149	-45.653	-0.188	0.094
-673.135	-44.504	0.046	-0.023
-672.120	113.670	0.312	0.381
-671.105	-95.444	0.211	0.057
-670.091	-143.252	-0.221	0.021
-669.076	659.505	-0.091	-0.235
-668.062	665.022	-0.132	-0.341
-667.047	-198.876	-0.308	0.002
-666.032	-200.000	-0.006	-0.429
-665.018	316.415	-0.132	0.250
-664.003	-134.764	-0.169	-0.021
-662.989	-96.767	-0.070	-0.018
-661.974	-15.969	-0.259	0.166
-660.959	-200.000	0.032	0.142
-659.945	51.881	-0.161	-0.154
-658.930	-200.000	-0.034	0.170
-657.916	-71.643	-0.279	0.105
-656.901	276.471	-0.208	-0.371
-655.886	-164.872	0.221	-0.010
-654.872	-101.415	-0.095	0.023
-653.857	-84.848	0.118	-0.037
-652.843	215.875	-0.149	0.237
-651.828	-55.960	0.373	0.167
-650.814	348.716	-0.081	0.161
-649.799	-76.744	0.163	-0.057
-648.784	112.003	-0.141	0.171
-647.770	187.697	-0.165	0.248
-646.755	-93.607	-0.315	0.087
-645.741	130.350	0.037	0.048
-644.726	4.365	0.188	0.138
-643.711	-127.349	0.206	-0.030
-642.697	-74.560	0.133	0.048
-641.682	-200.000	-0.004	-0.482
-640.668	67.324	0.274	-0.281
-639.653	-99.492	-0.132	-0.033
-638.638	430.582	0.096	0.209
-637.624	-28.769	0.141	-0.081
-636.609	800.000	-0.112	0.395
-635.595	36.403	-0.121	-0.107
-634.580	800.000	-0.023	0.074
-633.565	800.000	0.068	0.238
-632.551	-200.000	0.022	0.128
-631.536	-200.000	-0.035	0.320
-630.522	430.473	0.167	0.364
-629.507	-125.744	-0.289	0.044
-628.492	-200.000	0.008	-0.089
-627.478	-93.702	-0.143	-0.039
-626.463	800.000	0.011	0.032
-625.449	12.689	-0.174	0.134
-624.434	-145.008	0.137	-0.013
-623.419	110.058	-0.148	0.178
-622.405	345.947	0.049	0.097
-621.390	-52.455	0.155	0.072
-620.376	800.000	0.099	-0.364
-619.361	-183.101	-0.352	-0.006
-618.346	-118.030	0.163	0.029
-617.332	-107.677	-0.175	-0.038
-616.317	-160.698	-0.154	0.008
-615.303	800.000	-0.110	0.319
-614.288	-15.536	0.409	0.262
-613.273	33.361	0.232	0.202
-612.259	-200.000	-0.046	-0.367
-611.244	-200.000	-0.027	0.193
-610.230	-103.274	-0.084	-0.020
-609.215	49.235	-0.134	0.126
-608.201	294.707	-0.093	-0.170
-607.186	76.582	0.036	-0.038
-606.171	35.115	0.098	-0.086
-605.157	-158.050	0.269	0.016
-604.142	-66.099	0.124	-0.049
-603.128	143.543	-0.139	0.186
-602.113	-200.000	0.104	-0.594
-601.098	-35.658	0.163	0.089
-600.084	-3.240	0.310	-0.217
-599.069	452.313	-0.060	0.133
-598.055	667.135	0.082	-0.213
-597.040	-90.699	-0.143	0.041
-596.025	75.682	0.231	-0.245
-595.011	-61.661	0.087	0.036
-593.996	-200.000	-0.023	0.326
-592.982	-12.248	-0.230	-0.151
-591.967	219.065	0.176	-0.283
-590.952	-48.313	0.133	-0.064
-589.938	-7.100	-0.161	0.109
-588.923	83.461	-0.124	-0.135
-587.909	-73.470	0.095	-0.035
-586.894	-138.640	0.327	-0.036
-585.879	800.000	-0.024	0.100
-584.865	800.000	-0.042	0.155
-583.850	-200.000	0.019	-0.187
-582.836	-40.572	0.230	0.119
-581.821	800.000	0.062	0.217
-580.806	742.454	-0.076	0.204
-579.792	24.725	-0.036	0.030
-578.777	-200.000	-0.009	-0.272
-577.763	-80.167	0.125	0.042
-576.748	-200.000	0.021	0.138
-575.733	-14.177	-0.081	0.052
-574.719	-52.114	0.200	-0.093
-573.704	-114.539	-0.149	0.029
-572.690	-200.000	-0.057	-0.279
-571.675	-200.000	-0.004	-0.028
-570.661	-15.119	0.164	-0.105
-569.646	-84.806	0.287	-0.090
-568.631	-130.098	0.079	0.011
-567.617	33.807	-0.154	-0.134
-566.602	105.971	-0.056	-0.067
-565.588	-200.000	0.050	0.255
-564.573	258.059	0.106	0.183
-563.558	-42.487	-0.129	0.066
-562.544	-167.686	0.154	-0.006
-561.529	-8.836	-0.165	0.111
-560.515	-72.308	-0.278	0.103
-559.500	-200.000	0.044	0.256
-558.485	800.000	-0.075	-0.245
-557.471	-45.230	0.104	-0.052
-556.456	-108.927	-0.119	0.025
-555.442	424.526	0.186	0.400
-554.427	-33.236	0.254	0.141
-553.412	54.427	0.203	0.195
-552.398	-200.000	0.048	0.370
-551.383	-132.375	-0.044	-0.006
-550.369	362.525	0.041	-0.083
-549.354	-103.160	-0.183	-0.043
-548.339	198.824	-0.145	0.222
-547.325	-200.000	-0.197	0.001
-546.310	104.115	0.045	-0.053
-545.296	84.994	-0.210	-0.230
-544.281	-200.000	0.019	-0.175
-543.266	-89.251	0.302	-0.089
-542.252	-35.238	-0.290	-0.158
-541.237	-49.244	0.147	0.070
-540.223	-14.649	0.280	0.180
-539.208	-200.000	0.012	-0.102
-538.193	-200.000	-0.018	-0.128
-537.179	7.491	0.231	0.172
-536.164	85.488	-0.094	0.103
-535.150	57.805	-0.153	-0.150
-534.135	320.009	0.099	-0.188
-533.121	-101.508	0.116	0.028
-532.106	434.924	-0.140	-0.305
-531.091	-200.000	0.036	0.207
-530.077	-5.443	0.626	0.429
-529.062	-200.000	0.004	-0.228
-528.048	800.000	-0.070	-0.248
-527.033	93.626	0.095	0.107
-526.018	-63.103	0.435	0.179
-525.004	147.622	-0.129	0.174
-523.989	-200.000	0.012	-0.195
-522.975	-1.400	-0.163	-0.115
-521.960	102.659	-0.254	-0.297
-520.945	24.301	0.079	0.065
-519.931	99.600	0.192	-0.222
-518.916	-57.304	0.029	-0.013
-517.902	-86.684	-0.153	0.047
-516.887	-58.644	-0.238	-0.103
-515.872	-170.114	-0.135	-0.005
-514.858	-108.703	0.191	0.041
-513.843	237.701	-0.112	0.186
-512.829	45.392	0.342	0.315
-511.814	-76.143	-0.226	0.080
-510.799	-194.640	-0.065	0.001
-509.785	-200.000	0.013	0.227
-508.770	235.172	0.199	-0.328
-507.756	800.000	-0.059	0.209
-506.741	-200.000	-0.026	-0.318
-505.726	-163.055	0.172	0.008
-504.712	-200.000	0.016	0.103
-503.697	-122.986	-0.289	0.046
-502.683	-174.649	-0.196	-0.006
-501.668	-49.593	-0.100	-0.048
-500.653	-185.645	0.035	-0.001
-499.639	567.230	0.075	-0.182
-498.624	691.916	-0.066	0.172
-497.610	10.869	-0.208	0.158
-496.595	-152.189	-0.206	-0.015
-495.581	-101.746	0.137	-0.033
-494.566	800.000	-0.192	-0.575
-493.551	370.214	0.100	0.203
-492.537	59.116	-0.238	-0.234
-491.522	-157.088	-0.098	-0.006
-490.508	91.523	0.058	-0.065
-489.493	-200.000	0.002	0.195
-488.478	-28.638	0.219	-0.126
-487.464	462.554	-0.113	0.252
-486.449	-102.731	0.077	0.018
-485.435	6.064	-0.196	0.145
-484.420	114.299	0.154	-0.187
-483.405	-75.880	-0.267	0.094
-482.391	152.230	-0.044	-0.059
-481.376	-94.932	-0.212	-0.057
-480.362	-105.740	-0.119	-0.027
-479.347	353.121	0.181	0.359
-478.332	-200.000	-0.025	-0.117
-477.318	-45.645	0.130	-0.064
-476.303	-200.000	-0.037	-0.236
-475.289	-133.954	-0.130	-0.016
-474.274	-200.000	-0.007	0.124
-473.259	-17.329	-0.198	-0.125
-472.245	-200.000	-0.006	0.099
-471.230	284.270	0.093	0.166
-470.216	292.310	0.050	-0.091
-469.201	-152.981	0.416	-0.029
-468.186	365.812	-0.057	-0.114
-467.172	147.002	0.096	0.129
-466.157	-200.000	0.026	0.137
-465.143	118.094	0.267	-0.328
-464.128	800.000	-0.036	0.137
-463.113	-79.468	-0.313	0.105
-462.099	800.000	-0.122	0.437
-461.084	800.000	0.040	0.116
-460.070	57.666	-0.173	-0.168
-459.055	174.247	0.048	0.069
-458.040	-35.666	-0.200	-0.108
-457.026	-40.896	0.280	-0.144
-456.011	511.261	-0.050	0.116
-454.997	191.617	0.099	-0.149
-453.982	800.000	0.058	0.214
-452.968	-13.017	-0.083	0.054
-451.953	544.451	0.065	0.155
-450.938	800.000	0.040	-0.158
-449.924	-43.689	0.447	0.225
-448.909	800.000	0.036	0.135
-447.895	-200.000	0.000	-0.351
-446.880	-146.531	0.137	-0.012
-445.865	-32.640	-0.318	-0.176
-444.851	-100.103	-0.219	0.054
-443.836	21.513	-0.105	-0.085
-442.822	-200.000	0.019	-0.173
-441.807	-102.176	0.225	0.054
-440.792	-90.960	0.197	-0.057
-439.778	-93.299	0.076	0.021
-438.763	550.349	-0.050	0.120
-437.749	-52.244	-0.159	-0.073
-436.734	800.000	0.071	-0.250
-435.719	-200.000	0.071	-0.332
-434.705	489.900	0.110	0.251
-433.690	-55.159	-0.028	-0.012
-432.676	-115.540	0.262	-0.049
-431.661	250.608	0.134	0.226
-430.646	-200.000	0.012	0.060
-429.632	116.217	-0.347	0.423
-428.617	-63.311	-0.034	0.014
-427.603	800.000	0.036	-0.100
-426.588	77.706	0.236	0.251
-425.573	-200.000	0.209	0.001
-424.559	-42.347	0.209	-0.106
-423.544	112.930	0.134	0.162
-422.530	382.322	-0.082	0.168
-421.515	123.303	0.127	-0.158
-420.500	702.016	0.063	-0.164
-419.486	-94.071	0.132	0.036
-418.471	82.118	0.187	-0.202
-417.457	-16.131	-0.251	-0.159
-416.442	62.726	-0.079	-0.079
-415.428	778.457	-0.083	0.226
-414.413	226.648	-0.102	0.165
-413.398	-86.806	0.109	0.033
-412.384	800.000	-0.083	-0.254
-411.369	156.936	-0.048	-0.066
-410.355	-6.512	0.239	0.162
-409.340	-200.000	-0.022	0.164
-408.325	-200.000	0.035	-0.306
-407.311	0.272	0.208	-0.147
-406.296	-76.917	-0.252	0.088
-405.282	-40.532	-0.098	0.051
-404.267	800.000	-0.064	0.260
-403.252	-200.000	0.027	0.305
-402.238	-29.329	-0.029	0.016
-401.223	407.652	0.077	-0.161
-400.209	-107.178	-0.230	0.050
-399.194	-73.877	0.534	0.193
-398.179	-51.166	0.196	0.091
-397.165	754.317	-0.029	-0.079
-396.150	-2.659	-0.095	-0.066
-395.136	-44.524	0.189	0.094
-394.121	-121.446	0.267	0.044
-393.106	-149.543	0.178	-0.014
-392.092	-20.861	-0.162	0.099
-391.077	-70.914	-0.089	0.033
-390.063	800.000	-0.066	-0.276
-389.048	-11.056	-0.177	-0.116
-388.033	-50.285	-0.249	-0.117
-387.019	800.000	-0.089	-0.346
-386.004	-129.321	-0.133	0.018
-384.990	-129.017	0.111	0.015
-383.975	31.438	-0.393	-0.335
-382.960	374.101	0.117	0.236
-381.946	104.542	-0.229	0.268
-380.931	800.000	0.090	-0.338
-379.917	-59.000	0.137	0.059
-378.902	-200.000	0.025	-0.179
-377.888	206.748	-0.158	-0.245
-376.873	-76.046	0.363	-0.128
-375.858	-200.000	0.005	-0.349
-374.844	295.826	-0.142	-0.259
-373.829	115.743	-0.075	0.091
-372.815	541.168	0.142	0.335
-371.800	19.533	-0.322	0.257
-370.785	102.617	0.109	-0.127
-369.771	-37.267	-0.198	-0.105
-368.756	4.470	0.082	-0.060
-367.742	-82.690	-0.292	0.094
-366.727	-48.909	-0.312	-0.148
-365.712	262.508	0.146	-0.251
-364.698	-200.000	-0.022	-0.365
-363.683	310.790	0.201	-0.373
-362.669	14.763	-0.225	-0.174
-361.654	336.234	-0.070	-0.135
-360.639	-156.436	0.281	-0.017
-359.625	-29.847	-0.066	-0.037
-358.610	168.418	0.088	-0.124
-357.596	155.982	-0.216	-0.295
-356.581	513.075	0.076	0.177
-355.566	-165.361	-0.340	0.015
-354.552	15.744	-0.051	0.040
-353.537	-200.000	0.002	-0.087
-352.523	-4.532	0.096	0.066
-351.508	-94.091	0.218	0.059
-350.493	800.000	0.047	0.190
-349.479	-150.799	-0.040	-0.003
-348.464	-17.089	0.168	0.105
-347.450	-59.070	-0.183	0.078
-346.435	92.770	0.052	-0.058
-345.420	-48.874	-0.236	-0.112
-344.406	-29.748	0.293	-0.166
-343.391	155.274	0.258	-0.353
-342.377	-125.150	-0.414	0.063
-341.362	-200.000	-0.020	-0.195
-340.348	-200.000	-0.030	0.155
-339.333	800.000	-0.059	-0.220
-338.318	-84.659	-0.130	0.041
-337.304	-67.206	-0.264	0.103
-336.289	-200.000	-0.010	0.156
-335.275	-166.469	-0.110	0.005
-334.260	26.418	0.061	0.050
-333.245	-115.085	-0.083	-0.016
-332.231	-200.000	-0.055	0.241
-331.216	108.729	-0.098	-0.116
-330.202	-62.714	-0.053	-0.022
-329.187	-154.629	-0.265	0.017
-328.172	-47.120	0.079	0.038
-327.158	-154.978	0.313	0.020
-326.143	312.983	-0.021	-0.039
-325.129	-136.118	0.245	-0.028
-324.114	26.188	0.133	0.110
-323.099	-200.000	-0.027	0.247
-322.085	-200.000	-0.042	0.372
-321.070	-124.631	0.128	0.020
-320.056	15.391	0.162	0.126
-319.041	12.562	-0.218	-0.167
-318.026	-114.403	-0.181	0.034
-317.012	-49.693	0.223	0.105
-315.997	-120.352	0.252	0.042
-314.983	-102.768	-0.136	0.032
-313.968	134.077	-0.192	-0.247
-312.953	-132.637	0.396	-0.050
-311.939	84.795	0.137	-0.149
-310.924	30.514	0.261	0.221
-309.910	-104.008	-0.034	0.008
-308.895	-99.175	0.088	0.022
-307.880	113.953	-0.046	0.056
-306.866	14.647	-0.129	0.100
-305.851	207.798	-0.202	0.312
-304.837	-61.915	0.072	-0.030
-303.822	-200.000	0.052	0.232
-302.807	-73.280	0.125	0.045
-301.793	504.636	0.148	0.340
-300.778	-200.000	0.041	0.481
-299.764	-27.275	0.237	0.137
-298.749	-120.086	-0.228	-0.039
-297.735	-200.000	-0.006	0.270
-296.720	-98.400	-0.221	0.056
-295.705	258.795	-0.056	-0.096
-294.691	55.617	-0.227	-0.218
-293.676	-200.000	-0.014	-0.112
-292.662	261.213	-0.051	-0.088
-291.647	101.177	-0.093	-0.108
-290.632	130.358	-0.140	0.178
-289.618	704.408	-0.162	-0.422
-288.603	-200.000	0.029	-0.192
-287.589	495.824	-0.048	-0.110
-286.574	-72.287	0.257	0.094
-285.559	-44.098	-0.135	0.067
-284.545	-200.000	-0.050	0.333
-283.530	-200.000	0.058	0.478
-282.516	184.612	0.223	0.327
-281.501	-129.154	0.250	0.035
-280.486	5.795	0.174	-0.127
-279.472	-200.000	-0.022	-0.104
-278.457	-93.880	0.110	-0.030
-277.443	78.500	-0.147	0.156
-276.428	181.765	0.134	-0.195
-275.413	-32.186	-0.215	-0.119
-274.399	-32.432	0.327	-0.181
-273.384	-200.000	-0.050	0.267
-272.370	-200.000	0.024	0.246
-271.355	100.621	-0.157	0.180
-270.340	34.617	0.220	0.190
-269.326	-200.000	-0.032	-0.288
-268.311	800.000	0.033	0.125
-267.297	85.233	-0.069	0.075
-266.282	550.399	0.083	-0.197
-265.267	800.000	-0.031	-0.122
-264.253	-200.000	-0.047	-0.223
-263.238	-70.299	0.296	-0.111
-262.224	-38.431	0.280	-0.146
-261.209	-111.167	0.301	0.061
-260.195	800.000	-0.075	-0.214
-259.180	-35.186	0.405	-0.218
-258.165	-200.000	-0.004	0.039
-257.151	89.131	-0.103	-0.113
-256.136	-30.643	-0.133	-0.075
-255.122	-46.432	-0.373	0.181
-254.107	36.892	-0.234	-0.204
-253.092	-46.687	0.095	-0.046
-252.078	-200.000	0.001	-0.155
-251.063	381.689	-0.111	-0.226
-250.049	-27.920	-0.131	-0.075
-249.034	285.538	0.065	0.117
-248.019	541.432	-0.106	0.249
-247.005	-175.976	0.031	0.001
-245.990	-200.000	-0.036	-0.416
-244.976	-57.703	-0.252	-0.109
-243.961	211.271	-0.026	0.040
-242.946	-200.000	0.063	-0.341
-241.932	-134.134	-0.130	0.016
-240.917	-200.000	-0.063	0.309
-239.903	-109.775	-0.443	-0.092
-238.888	-91.819	0.114	-0.032
-237.873	112.235	0.214	-0.255
-236.859	-150.256	-0.477	0.036
-235.844	-68.661	-0.209	0.080
-234.830	-107.251	-0.199	-0.043
-233.815	265.923	-0.110	0.189
-232.800	800.000	-0.084	0.275
-231.786	14.106	0.143	0.110
-230.771	-120.374	-0.089	0.015
-229.757	-200.000	0.269	0.000
-228.742	-200.000	-0.014	-0.235
-227.727	752.776	-0.060	-0.159
-226.713	-79.270	0.191	-0.064
-225.698	-100.594	-0.114	0.028
-224.684	-200.000	0.018	-0.179
-223.669	24.090	0.140	0.114
-222.655	1.748	0.167	-0.119
-221.640	-128.350	0.289	-0.041
-220.625	18.271	-0.235	0.185
-219.611	-33.860	0.236	0.129
-218.596	-62.323	0.247	0.101
-217.582	14.382	0.084	-0.065
-216.567	800.000	-0.073	-0.207
-215.552	-48.747	0.288	-0.136
-214.538	61.161	0.232	0.227
-213.523	-200.000	0.013	-0.109
-212.509	33.596	-0.214	0.183
-211.494	-18.413	0.162	0.100
-210.479	33.576	-0.119	-0.102
-209.465	-200.000	0.022	0.145
-208.450	262.843	-0.159	0.273
-207.436	-183.000	-0.288	-0.005
-206.421	-89.669	0.065	-0.019
-205.406	6.688	0.170	-0.125
-204.392	748.751	-0.065	-0.173
-203.377	-200.000	-0.061	0.312
-202.363	-36.092	0.269	0.143
-201.348	-57.481	0.192	-0.083
-200.333	38.043	-0.058	-0.051
-199.319	-181.463	-0.245	0.005
-198.304	67.724	-0.184	0.186
-197.290	-200.000	-0.093	-0.430
-196.275	-68.280	-0.166	-0.064
-195.260	-47.024	0.051	-0.024
-194.246	-21.525	-0.209	0.126
-193.231	-78.242	-0.015	-0.005
-192.217	129.790	-0.145	0.183
-191.202	18.917	0.120	0.095
-190.187	12.302	-0.105	0.080
-189.173	-200.000	0.031	0.151
-188.158	15.639	-0.101	0.079
-187.144	-100.988	-0.164	0.040
-186.129	-96.188	-0.270	-0.071
-185.114	-28.118	-0.040	-0.023
-184.100	-25.451	-0.131	-0.077
-183.085	-200.000	-0.040	0.197
-182.071	-200.000	0.019	-0.354
-181.056	-87.983	-0.151	-0.045
-180.042	-21.246	-0.278	-0.167
-179.027	227.904	0.176	-0.282
-178.012	48.615	0.239	-0.221
-176.998	-3.408	-0.073	0.050
-175.983	-200.000	0.008	0.095
-174.969	-42.046	-0.265	0.134
-173.954	58.848	0.056	-0.054
-172.939	-200.000	-0.016	0.197
-171.925	-42.338	-0.338	-0.170
-170.910	161.544	0.133	0.184
-169.896	43.560	-0.288	0.259
-168.881	800.000	-0.029	0.099
-167.866	41.418	-0.240	-0.214
-166.852	800.000	0.054	-0.153
-165.837	82.228	-0.163	-0.174
-164.823	-67.902	0.402	-0.155
-163.808	214.961	0.040	0.063
-162.793	-65.146	0.232	0.092
-161.779	-17.858	-0.053	-0.033
-160.764	81.623	0.211	-0.224
-159.750	800.000	0.044	-0.129
-158.735	-200.000	0.011	-0.120
-157.720	16.602	-0.288	0.225
-156.706	-107.475	-0.105	0.023
-155.691	-48.854	-0.159	0.075
-154.677	160.423	-0.137	-0.188
-153.662	800.000	0.026	0.095
-152.647	58.444	0.084	0.081
-151.633	616.650	-0.085	-0.211
-150.618	800.000	0.051	0.205
-149.604	67.950	0.085	0.085
-148.589	220.938	0.170	-0.268
-147.574	673.395	0.112	0.286
-146.560	96.508	-0.198	-0.223
-145.545	80.350	0.306	0.324
-144.531	-92.707	-0.327	-0.090
-143.516	-96.760	0.300	0.078
-142.502	130.871	-0.074	0.094
-141.487	351.418	-0.068	-0.132
-140.472	782.797	-0.097	0.261
-139.458	69.443	-0.148	-0.150
-138.443	-105.735	-0.290	0.064
-137.429	-2.788	0.169	-0.116
-136.414	270.940	0.049	-0.084
-135.399	-101.627	-0.109	0.026
-134.385	-34.471	0.300	-0.162
-133.370	-4.204	-0.212	0.144
-132.356	-173.347	-0.125	-0.004
-131.341	-197.411	0.206	-0.001
-130.326	-35.077	-0.114	0.061
-129.312	-157.727	-0.285	-0.017
-128.297	800.000	0.060	0.224
-127.283	374.675	0.107	0.214
-126.268	-200.000	0.039	-0.356
-125.253	37.722	0.232	0.202
-124.239	-41.027	0.239	-0.121
-123.224	680.899	0.101	0.258
-122.210	-200.000	-0.013	0.120
-121.195	-64.538	-0.233	-0.093
