DTS Sentinel unit serial number:	SN413079Multiplexer serial number:	ORYXHardware model number:	OX4-SRSoftware version number:	ORYX F/W v4.00 Oryx Data Collector v3.7.2.0data status	okinstallation	princeton_trtdifferential loss correction	single-endedforward channel	channel 4reverse channel	N/Adate	2019/09/14time	12:29:34forward acquisition time	60.00reverse acquisition time	0.00gamma	496.2192k internal	0.2292k external	0.2292temperature offset calibration	1.0151default loss term (dB/km)	0.3790temperature slope calibration	1.0000multiplexer offset coefficient	1.0000multiplexer slope coefficient	1.0000fibre end	0.00T internal ref (°C)	37.92T ext. ref 1 (°C)	4.76T ext. ref 2 (°C)	34.75length (m)	temperature (°C)	Stokes	anti-Stokes-747.200	47.382	0.141	-0.134
-746.185	75.148	-0.169	0.182
-745.171	68.399	0.065	0.068
-744.156	96.864	-0.203	0.238
-743.142	-200.000	-0.036	0.280
-742.127	186.339	-0.220	0.335
-741.112	-107.613	0.177	-0.040
-740.098	-163.335	0.219	-0.011
-739.083	-87.867	-0.354	-0.109
-738.069	-170.827	0.033	0.001
-737.054	-200.000	-0.018	-0.250
-736.039	-15.816	-0.124	0.081
-735.025	-200.000	-0.049	-0.402
-734.010	-56.945	0.362	-0.164
-732.996	-79.743	-0.313	-0.108
-731.981	-200.000	0.017	0.106
-730.966	207.938	-0.102	-0.163
-729.952	-200.000	-0.019	-0.194
-728.937	-149.832	-0.253	0.020
-727.923	87.375	-0.167	-0.189
-726.908	-200.000	0.012	-0.203
-725.894	437.299	0.062	0.139
-724.879	-83.335	0.383	-0.126
-723.864	249.359	-0.093	-0.162
-722.850	-158.834	0.105	-0.006
-721.835	-150.384	-0.237	0.019
-720.821	-200.000	-0.002	0.057
-719.806	-144.948	-0.565	0.053
-718.791	-149.577	0.221	-0.018
-717.777	284.284	0.089	-0.164
-716.762	-49.448	0.327	-0.160
-715.748	-82.073	-0.307	-0.103
-714.733	216.347	-0.160	-0.260
-713.718	-152.085	-0.072	0.005
-712.704	-154.293	0.059	-0.004
-711.689	-128.224	-0.237	0.035
-710.675	266.695	-0.198	-0.353
-709.660	84.236	0.332	-0.371
-708.645	49.198	-0.261	-0.251
-707.631	-200.000	-0.036	-0.265
-706.616	64.193	0.104	-0.107
-705.602	-200.000	0.048	0.229
-704.587	-94.725	-0.192	0.053
-703.572	800.000	0.056	-0.189
-702.558	800.000	-0.022	-0.065
-701.543	103.722	0.235	-0.282
-700.529	-112.428	-0.263	-0.054
-699.514	-8.059	0.243	0.167
-698.499	-40.363	0.223	0.118
-697.485	37.146	0.209	0.189
-696.470	-200.000	0.334	-0.002
-695.456	311.044	0.024	0.046
-694.441	-200.000	0.044	-0.000
-693.426	-63.973	-0.142	0.059
-692.412	-72.854	0.206	-0.077
-691.397	91.087	-0.259	-0.297
-690.383	111.855	-0.030	0.037
-689.368	-157.211	0.174	0.011
-688.354	261.670	-0.144	-0.255
-687.339	-159.356	0.200	0.011
-686.324	458.217	0.075	-0.170
-685.310	493.566	0.105	-0.247
-684.295	-171.258	0.061	-0.002
-683.281	-135.759	-0.165	-0.020
-682.266	-200.000	0.035	0.194
-681.251	-200.000	0.036	0.287
-680.237	9.174	0.018	-0.014
-679.222	-5.805	-0.229	0.160
-678.208	-200.000	0.170	-0.000
-677.193	-99.623	-0.115	-0.030
-676.178	-200.000	0.014	-0.072
-675.164	260.551	-0.072	-0.128
-674.149	303.691	-0.173	-0.327
-673.135	-76.685	-0.075	-0.027
-672.120	-189.026	-0.058	0.001
-671.105	-200.000	0.055	0.263
-670.091	111.097	-0.033	-0.041
-669.076	-21.812	0.222	-0.138
-668.062	800.000	-0.098	0.280
-667.047	-85.320	-0.038	0.012
-666.032	-200.000	0.003	-0.204
-665.018	312.373	0.146	0.279
-664.003	-48.835	0.213	0.104
-662.989	396.698	0.100	0.212
-661.974	180.031	-0.235	-0.352
-660.959	56.635	0.279	-0.277
-659.945	-99.357	0.158	-0.041
-658.930	-200.000	-0.009	0.053
-657.916	-200.000	0.022	-0.266
-656.901	146.360	0.151	-0.206
-655.886	-32.236	-0.080	0.045
-654.872	389.995	-0.076	0.161
-653.857	87.296	-0.091	-0.103
-652.843	-200.000	-0.001	-0.181
-651.828	380.796	-0.066	-0.137
-650.814	800.000	0.061	0.210
-649.799	-66.843	0.172	0.069
-648.784	329.471	0.154	-0.303
-647.770	-200.000	0.035	-0.227
-646.755	488.130	0.110	-0.255
-645.741	-151.819	-0.366	0.027
-644.726	35.606	0.204	-0.182
-643.711	-0.567	-0.123	-0.089
-642.697	-73.631	-0.222	-0.083
-641.682	800.000	-0.048	0.141
-640.668	800.000	0.040	-0.114
-639.653	228.170	-0.128	-0.212
-638.638	800.000	0.121	-0.517
-637.624	-39.256	-0.215	0.115
-636.609	-44.684	0.150	0.076
-635.595	240.435	0.103	-0.174
-634.580	-200.000	0.019	-0.133
-633.565	-123.320	0.349	0.057
-632.551	-55.319	-0.056	0.026
-631.536	-80.952	-0.124	-0.042
-630.522	-22.046	-0.129	-0.080
-629.507	71.178	-0.108	0.114
-628.492	-111.037	0.240	0.050
-627.478	71.813	-0.093	0.098
-626.463	-1.584	0.178	-0.127
-625.449	-151.722	0.077	0.006
-624.434	-200.000	-0.012	-0.241
-623.419	150.704	-0.128	0.177
-622.405	-25.618	-0.290	-0.174
-621.390	14.750	-0.291	-0.232
-620.376	-200.000	0.018	0.192
-619.361	-33.026	0.194	-0.110
-618.346	-88.312	0.289	0.088
-617.332	116.846	-0.184	0.230
-616.317	74.616	-0.154	0.165
-615.303	134.560	0.179	0.237
-614.288	-98.052	0.108	0.028
-613.273	681.612	-0.171	-0.453
-612.259	163.605	0.204	-0.292
-611.244	-200.000	-0.007	-0.174
-610.230	-114.452	0.207	0.040
-609.215	763.770	0.067	0.184
-608.201	-31.990	-0.052	0.029
-607.186	-200.000	0.023	0.351
-606.171	-95.755	-0.210	-0.057
-605.157	800.000	-0.022	-0.065
-604.142	800.000	-0.057	-0.193
-603.128	166.424	-0.122	-0.175
-602.113	274.469	0.202	-0.364
-601.098	-200.000	-0.036	0.230
-600.084	-200.000	0.015	-0.077
-599.069	800.000	0.077	-0.311
-598.055	-200.000	-0.007	-0.192
-597.040	340.303	-0.187	-0.372
-596.025	-76.026	-0.126	-0.045
-595.011	43.287	0.320	-0.298
-593.996	-200.000	0.001	-0.212
-592.982	-200.000	-0.054	-0.341
-591.967	-151.721	0.232	-0.017
-590.952	-83.283	0.073	0.024
-589.938	-46.721	-0.225	-0.112
-588.923	-78.662	-0.124	0.043
-587.909	800.000	0.083	-0.335
-586.894	-200.000	0.024	-0.128
-585.879	286.397	-0.086	0.158
-584.865	12.258	0.128	0.100
-583.850	-132.515	-0.298	0.039
-582.836	26.896	-0.337	-0.287
-581.821	151.623	-0.166	-0.230
-580.806	-200.000	0.003	-0.098
-579.792	-175.900	-0.071	0.002
-578.777	528.264	0.110	0.264
-577.763	-95.788	-0.211	-0.057
-576.748	29.970	-0.352	-0.305
-575.733	-35.457	0.200	-0.111
-574.719	-71.665	-0.249	-0.095
-573.704	-11.561	0.241	0.161
-572.690	-18.016	-0.226	0.144
-571.675	-63.745	0.114	-0.048
-570.661	366.528	0.161	-0.330
-569.646	215.514	-0.148	-0.239
-568.631	-60.926	0.012	0.005
-567.617	-200.000	-0.006	0.291
-566.602	5.480	-0.127	0.095
-565.588	-36.722	-0.130	0.071
-564.573	34.826	-0.277	-0.246
-563.558	-200.000	0.043	0.204
-562.544	-148.679	0.029	-0.002
-561.529	-97.578	0.202	0.053
-560.515	389.398	0.036	0.075
-559.500	-80.158	-0.087	-0.030
-558.485	-162.140	0.303	-0.015
-557.471	-99.813	0.092	-0.023
-556.456	800.000	-0.045	0.146
-555.442	-107.458	-0.118	-0.026
-554.427	17.502	0.058	-0.047
-553.412	455.414	-0.046	-0.105
-552.398	208.180	-0.061	0.097
-551.383	255.736	-0.157	-0.274
-550.369	-32.470	0.205	-0.116
-549.354	-200.000	0.060	-0.298
-548.339	-200.000	-0.035	-0.434
-547.325	145.786	0.085	0.116
-546.310	516.443	-0.065	-0.153
-545.296	-33.569	0.155	-0.087
-544.281	-27.186	-0.180	0.107
-543.266	83.175	-0.069	-0.076
-542.252	-36.292	0.359	-0.197
-541.237	-200.000	0.012	-0.109
-540.223	-200.000	-0.036	-0.203
-539.208	251.990	0.149	-0.258
-538.193	-200.000	0.043	-0.199
-537.179	-59.814	0.180	0.078
-536.164	-96.411	0.188	-0.051
-535.150	34.519	-0.285	0.253
-534.135	-129.985	0.161	0.022
-533.121	-200.000	-0.000	0.039
-532.106	63.930	-0.142	-0.145
-531.091	-114.573	-0.068	0.013
-530.077	116.202	-0.282	-0.351
-529.062	-170.688	0.215	0.008
-528.048	-200.000	-0.022	-0.192
-527.033	114.717	0.160	0.198
-526.018	406.444	-0.087	0.186
-525.004	201.278	0.120	-0.187
-523.989	113.944	-0.354	-0.437
-522.975	-75.576	0.124	0.045
-521.960	7.931	0.050	0.038
-520.945	96.891	0.179	-0.208
-519.931	-24.850	-0.262	-0.158
-518.916	214.695	-0.086	-0.138
-517.902	172.256	0.170	-0.247
-516.887	-49.823	-0.117	-0.056
-515.872	-113.149	0.076	-0.015
-514.858	77.803	0.167	-0.181
-513.843	405.591	-0.097	-0.207
-512.829	278.270	0.030	0.054
-511.814	-57.381	0.184	-0.082
-510.799	116.210	0.184	0.228
-509.785	438.878	-0.042	0.093
-508.770	83.137	0.089	0.098
-507.756	800.000	0.039	0.143
-506.741	56.371	-0.020	-0.020
-505.726	800.000	0.028	-0.112
-504.712	-200.000	-0.019	0.206
-503.697	98.867	-0.159	0.186
-502.683	-200.000	0.026	0.165
-501.668	-101.379	0.070	-0.017
-500.653	-68.278	0.169	-0.066
-499.639	145.294	-0.174	0.236
-498.624	-46.694	-0.163	-0.081
-497.610	-94.603	0.187	-0.051
-496.595	-24.258	-0.126	0.076
-495.581	-105.339	-0.239	-0.055
-494.566	334.776	-0.173	-0.339
-493.551	280.603	-0.072	0.131
-492.537	-57.724	-0.288	0.128
-491.522	22.401	0.074	-0.062
-490.508	83.482	0.161	0.177
-489.493	89.226	-0.101	-0.114
-488.478	-141.250	-0.089	-0.009
-487.464	-41.354	0.112	-0.059
-486.449	-181.908	-0.122	0.002
-485.435	800.000	-0.017	0.057
-484.420	464.380	0.069	-0.156
-483.405	-200.000	-0.017	-0.150
-482.391	-99.426	0.323	-0.082
-481.376	323.506	-0.158	-0.305
-480.362	25.814	-0.111	0.094
-479.347	800.000	-0.020	0.062
-478.332	-151.259	-0.219	0.017
-477.318	-69.761	0.232	0.090
-476.303	-175.073	0.258	-0.007
-475.289	-200.000	0.056	-0.322
-474.274	-114.811	0.312	-0.060
-473.259	62.503	0.389	0.393
-472.245	-200.000	0.040	0.310
-471.230	288.887	0.160	0.294
-470.216	34.615	-0.241	0.213
-469.201	393.337	0.119	-0.250
-468.186	-157.389	-0.301	0.018
-467.172	37.682	-0.132	0.118
-466.157	-105.251	-0.108	-0.025
-465.143	177.230	-0.096	-0.141
-464.128	23.200	-0.466	0.388
-463.113	56.727	-0.340	-0.335
-462.099	62.103	-0.143	-0.144
-461.084	800.000	-0.026	0.106
-460.070	116.328	-0.289	0.359
-459.055	-109.853	-0.130	0.028
-458.040	800.000	0.162	0.536
-457.026	-200.000	0.030	0.251
-456.011	-88.055	0.207	0.063
-454.997	800.000	0.057	0.202
-453.982	67.605	-0.137	-0.142
-452.968	38.114	0.269	-0.242
-451.953	421.980	0.084	-0.183
-450.938	800.000	-0.072	-0.320
-449.924	-200.000	-0.036	-0.217
-448.909	64.700	0.109	-0.111
-447.895	-8.519	-0.105	0.071
-446.880	-94.582	0.241	-0.066
-445.865	800.000	0.073	0.232
-444.851	-97.770	-0.270	-0.071
-443.836	-18.277	0.086	0.054
-442.822	-200.000	-0.071	0.460
-441.807	800.000	0.017	0.072
-440.792	800.000	0.055	-0.220
-439.778	20.910	0.156	0.128
-438.763	-43.690	-0.282	0.144
-437.749	315.874	0.106	-0.202
-436.734	-200.000	0.018	-0.221
-435.719	-129.482	-0.056	-0.008
-434.705	-200.000	0.020	-0.134
-433.690	800.000	0.101	0.363
-432.676	-123.959	0.098	0.016
-431.661	413.280	-0.068	0.146
-430.646	-200.000	0.019	0.342
-429.632	-200.000	0.011	-0.341
-428.617	-200.000	0.030	0.198
-427.603	237.763	-0.162	0.272
-426.588	-131.621	0.053	-0.007
-425.573	26.396	-0.207	-0.175
-424.559	-114.647	-0.416	-0.081
-423.544	27.210	-0.082	0.070
-422.530	-200.000	-0.020	-0.207
-421.515	-200.000	-0.003	0.223
-420.500	-200.000	0.008	-0.141
-419.486	-200.000	0.065	0.385
-418.471	-122.494	0.069	0.011
-417.457	140.770	0.194	-0.259
-416.442	-106.931	0.062	-0.014
-415.428	-200.000	-0.001	0.036
-414.413	23.049	-0.229	0.190
-413.398	486.896	0.036	-0.083
-412.384	-153.558	-0.455	-0.032
-411.369	-72.688	0.311	-0.116
-410.355	304.837	-0.135	-0.253
-409.340	800.000	-0.086	-0.258
-408.325	16.581	0.137	-0.109
-407.311	-166.049	0.206	0.009
-406.296	602.642	-0.072	-0.180
-405.282	800.000	0.150	-0.437
-404.267	109.081	-0.076	-0.092
-403.252	-112.635	0.186	0.037
-402.238	649.642	-0.018	0.047
-401.223	-200.000	0.006	-0.062
-400.209	-200.000	0.008	-0.221
-399.194	-158.459	-0.383	-0.022
-398.179	-164.232	0.435	-0.020
-397.165	-25.903	-0.063	-0.037
-396.150	-73.206	0.152	-0.056
-395.136	-110.394	-0.148	-0.031
-394.121	-114.154	-0.084	0.016
-393.106	800.000	-0.074	0.292
-392.092	-142.661	0.183	0.018
-391.077	94.837	0.204	-0.234
-390.063	-43.033	-0.018	0.009
-389.048	16.395	0.225	0.180
-388.033	311.543	0.062	0.117
-387.019	800.000	0.062	0.210
-386.004	-200.000	-0.057	-0.344
-384.990	-100.539	-0.122	-0.030
-383.975	258.950	0.051	-0.090
-382.960	-94.914	0.129	-0.035
-381.946	-81.856	0.180	0.059
-380.931	153.448	-0.212	0.293
-379.917	-2.176	0.045	0.032
-378.902	-111.964	0.022	-0.004
-377.888	6.309	-0.172	0.129
-376.873	-200.000	0.036	0.160
-375.858	800.000	0.088	0.319
-374.844	-200.000	0.023	0.106
-373.829	-93.665	0.357	0.099
-372.815	-146.239	-0.254	0.023
-371.800	430.561	0.152	-0.331
-370.785	-81.016	-0.179	-0.060
-369.771	610.335	0.183	0.462
-368.756	192.373	-0.155	0.236
-367.742	7.462	-0.092	-0.070
-366.727	-29.705	0.428	-0.247
-365.712	148.541	-0.209	0.284
-364.698	89.715	-0.180	-0.202
-363.683	-173.050	0.235	-0.007
-362.669	-200.000	-0.007	0.306
-361.654	-83.430	0.192	0.062
-360.639	679.869	-0.025	0.067
-359.625	-200.000	0.045	0.211
-358.610	97.596	-0.033	0.038
-357.596	66.819	0.190	0.195
-356.581	-200.000	0.018	-0.387
-355.566	166.779	0.167	0.238
-354.552	-200.000	-0.001	-0.243
-353.537	327.337	-0.177	-0.341
-352.523	-74.099	0.201	0.073
-351.508	-45.670	0.186	-0.093
-350.493	16.131	-0.130	-0.103
-349.479	72.791	0.187	0.197
-348.464	800.000	-0.033	-0.118
-347.450	-124.826	-0.076	0.012
-346.435	-163.914	-0.101	-0.005
-345.420	-200.000	0.010	0.156
-344.406	-0.188	0.389	0.279
-343.391	-2.603	0.023	0.016
-342.377	-14.996	-0.261	-0.169
-341.362	-200.000	-0.001	-0.168
-340.348	620.723	0.080	0.202
-339.333	-91.924	0.330	-0.094
-338.318	-72.228	0.581	0.217
-337.304	-2.818	-0.182	-0.128
-336.289	-200.000	0.024	-0.275
-335.275	-66.845	0.258	-0.103
-334.260	-5.025	0.066	0.046
-333.245	302.694	-0.095	-0.177
-332.231	524.276	-0.091	-0.215
-331.216	199.443	0.185	0.285
-330.202	104.720	0.005	-0.006
-329.187	102.439	-0.029	0.035
-328.172	-43.253	-0.106	0.054
-327.158	139.664	-0.288	0.382
-326.143	104.912	-0.172	0.204
-325.129	408.269	0.072	0.154
-324.114	-6.226	-0.240	0.165
-323.099	238.782	0.138	-0.232
-322.085	-200.000	0.005	0.325
-321.070	-126.039	-0.050	-0.008
-320.056	-200.000	-0.027	0.167
-319.041	-176.802	0.306	0.008
-318.026	-143.699	0.159	-0.015
-317.012	-104.450	-0.381	-0.089
-315.997	31.123	0.101	-0.087
-314.983	-186.755	0.061	0.001
-313.968	-114.053	-0.172	0.033
-312.953	131.879	-0.312	0.403
-311.939	281.782	0.070	-0.126
-310.924	-121.163	0.259	0.044
-309.910	22.349	-0.102	-0.084
-308.895	350.153	-0.022	0.044
-307.880	-152.363	0.303	-0.022
-306.866	-67.531	-0.163	0.064
-305.851	55.868	-0.133	-0.130
-304.837	104.697	0.164	0.194
-303.822	-200.000	-0.004	0.052
-302.807	-22.162	0.110	0.067
-301.793	-200.000	-0.128	0.000
-300.778	-135.163	0.254	-0.031
-299.764	-200.000	-0.009	0.139
-298.749	-101.862	-0.048	-0.012
-297.735	-133.081	-0.386	0.049
-296.720	173.967	0.159	0.231
-295.705	399.600	-0.192	0.404
-294.691	325.919	-0.072	0.139
-293.676	-108.557	0.016	0.003
-292.662	210.966	-0.120	-0.189
-291.647	48.407	-0.185	0.174
-290.632	12.386	-0.109	0.084
-289.618	-200.000	0.078	0.413
-288.603	-73.878	-0.175	0.064
-287.589	424.284	-0.064	0.138
-286.574	-114.256	-0.165	0.032
-285.559	214.046	-0.278	-0.443
-284.545	672.354	-0.099	0.257
-283.530	-117.085	-0.298	-0.055
-282.516	-137.057	0.094	-0.011
-281.501	30.530	0.189	0.162
-280.486	218.057	-0.077	-0.124
-279.472	-151.238	0.219	-0.016
-278.457	302.025	-0.060	-0.111
-277.443	17.492	0.123	-0.098
-276.428	-102.163	0.302	0.073
-275.413	-159.882	-0.164	-0.009
-274.399	-86.260	-0.019	-0.006
-273.384	800.000	0.031	0.092
-272.370	-200.000	0.006	-0.110
-271.355	800.000	-0.095	-0.326
-270.340	41.119	0.071	0.065
-269.326	-200.000	0.001	0.021
-268.311	-200.000	-0.057	0.277
-267.297	800.000	-0.043	0.177
-266.282	-200.000	-0.046	0.309
-265.267	-48.382	0.256	-0.124
-264.253	247.568	-0.061	0.104
-263.238	800.000	0.023	-0.089
-262.224	-112.453	-0.239	0.048
-261.209	-124.557	-0.175	-0.027
-260.195	-36.346	-0.195	-0.106
-259.180	311.407	0.220	-0.413
-258.165	-200.000	0.016	-0.176
-257.151	25.654	-0.117	-0.098
-256.136	-126.167	-0.315	-0.047
-255.122	73.894	-0.117	0.123
-254.107	-180.188	-0.359	-0.008
-253.092	-96.796	0.154	0.041
-252.078	-65.207	0.232	0.094
-251.063	-200.000	-0.024	-0.150
-250.049	290.721	0.134	0.244
-249.034	-200.000	0.001	-0.021
-248.019	-27.825	-0.079	-0.046
-247.005	-143.271	-0.111	0.011
-245.990	-200.000	0.016	0.138
-244.976	-189.261	0.239	-0.003
-243.961	-112.032	-0.117	-0.024
-242.946	-46.343	0.099	0.049
-241.932	-96.120	0.125	0.033
-240.917	558.786	0.188	0.455
-239.903	265.174	-0.189	-0.330
-238.888	165.793	-0.090	-0.128
-237.873	-156.850	0.287	-0.018
-236.859	-200.000	0.077	0.355
-235.844	-62.307	-0.166	0.069
-234.830	800.000	0.108	-0.467
-233.815	103.184	0.185	0.218
-232.800	-31.228	-0.260	0.147
-231.786	-200.000	0.002	-0.213
-230.771	389.727	-0.118	-0.246
-229.757	111.758	0.117	0.142
-228.742	-161.823	-0.297	-0.015
-227.727	329.380	-0.068	0.131
-226.713	-123.450	-0.388	-0.062
-225.698	-95.385	-0.128	0.035
-224.684	-119.249	0.205	-0.036
-223.669	322.694	0.097	0.186
-222.655	-15.445	0.097	0.062
-221.640	-138.199	-0.156	0.017
-220.625	95.673	0.186	-0.213
-219.611	42.543	-0.021	-0.019
-218.596	-28.044	-0.232	0.135
-217.582	-51.656	-0.249	0.116
-216.567	82.586	-0.187	0.204
-215.552	171.747	0.128	0.185
-214.538	145.741	-0.187	-0.251
-213.523	-98.636	0.127	-0.032
-212.509	-83.771	0.037	0.012
-211.494	-200.000	0.039	0.295
-210.479	-82.557	0.203	0.066
-209.465	-200.000	-0.016	0.127
-208.450	38.354	0.120	0.107
-207.436	-129.646	-0.187	-0.026
-206.421	-87.062	0.218	-0.067
-205.406	-81.948	0.153	-0.050
-204.392	-200.000	-0.092	0.494
-203.377	-189.440	-0.079	-0.001
-202.363	593.516	0.078	0.193
-201.348	-200.000	-0.027	-0.188
-200.333	-68.422	0.411	0.160
-199.319	-200.000	-0.024	-0.196
-198.304	441.916	-0.159	0.348
-197.290	-200.000	-0.010	-0.149
-196.275	2.778	-0.211	-0.153
-195.260	-77.083	0.387	0.135
-194.246	591.163	0.151	-0.372
-193.231	-193.983	0.156	0.001
-192.217	121.156	0.180	0.224
-191.202	12.218	0.184	0.142
-190.187	-200.000	0.012	0.073
-189.173	168.608	0.339	0.484
-188.158	194.089	0.139	0.211
-187.144	18.172	-0.231	0.185
-186.129	241.975	-0.119	0.200
-185.114	130.682	0.043	-0.056
-184.100	311.454	-0.075	-0.141
-183.085	414.103	-0.063	-0.134
-182.071	-200.000	-0.007	-0.107
-181.056	173.487	-0.222	0.321
-180.042	800.000	0.014	0.062
-179.027	800.000	0.103	0.445
-178.012	457.644	-0.087	0.194
-176.998	800.000	0.063	0.214
-175.983	521.115	0.061	0.143
-174.969	299.816	0.172	0.318
-173.954	-99.742	0.233	0.058
-172.939	-200.000	0.045	-0.421
-171.925	-87.536	-0.281	-0.085
-170.910	269.912	-0.061	-0.107
-169.896	-80.230	0.469	-0.157
-168.881	-115.510	-0.460	0.087
-167.866	696.555	-0.091	0.238
-166.852	-38.396	0.106	0.056
-165.837	-51.723	-0.196	0.091
-164.823	82.848	0.243	0.264
-163.808	-75.065	0.136	0.049
-162.793	75.545	0.257	0.272
-161.779	6.112	-0.029	-0.022
-160.764	-78.272	0.370	0.127
-159.750	-169.278	0.068	0.003
-158.735	406.804	0.051	-0.108
-157.720	-57.563	0.056	0.024
-156.706	-28.275	-0.232	-0.134
-155.691	-117.858	-0.301	-0.054
-154.677	-127.687	0.100	0.014
-153.662	800.000	0.029	-0.095
-152.647	-102.065	0.121	-0.029
-151.633	-126.691	-0.428	0.063
-150.618	149.064	-0.021	0.029
-149.604	595.584	0.090	0.223
-148.589	145.411	-0.049	0.066
-147.574	12.037	0.029	0.022
-146.560	-40.099	0.249	0.130
-145.545	-147.912	-0.222	0.019
-144.531	800.000	0.057	0.159
-143.516	800.000	-0.047	0.136
-142.502	-151.485	-0.226	-0.017
-141.487	-81.090	0.343	-0.113
-140.472	-200.000	0.007	0.141
-139.458	77.538	0.093	-0.099
-138.443	-71.736	0.202	0.075
-137.429	-16.904	-0.119	-0.075
-136.414	-54.225	0.082	-0.037
-135.399	-156.231	-0.418	-0.026
-134.385	344.669	0.071	0.140
-133.370	-200.000	0.057	0.371
-132.356	37.715	-0.128	-0.114
-131.341	800.000	0.103	-0.352
-130.326	385.877	-0.075	0.155
-129.312	-78.623	0.111	-0.038
-128.297	-111.387	-0.091	-0.019
-127.283	-93.835	-0.088	-0.024
-126.268	-134.582	-0.193	0.024
-125.253	116.368	0.019	-0.024
-124.239	26.606	-0.390	0.326
-123.224	-152.312	-0.076	0.005
-122.210	326.458	-0.172	-0.330
