DTS Sentinel unit serial number:	SN413079Multiplexer serial number:	ORYXHardware model number:	OX4-SRSoftware version number:	ORYX F/W v4.00 Oryx Data Collector v3.7.2.0data status	okinstallation	princeton_trtdifferential loss correction	single-endedforward channel	channel 4reverse channel	N/Adate	2019/09/13time	05:49:34forward acquisition time	60.00reverse acquisition time	0.00gamma	496.2192k internal	0.2323k external	0.2323temperature offset calibration	1.0194default loss term (dB/km)	0.3790temperature slope calibration	1.0000multiplexer offset coefficient	1.0000multiplexer slope coefficient	1.0000fibre end	0.00T internal ref (°C)	26.19T ext. ref 1 (°C)	4.06T ext. ref 2 (°C)	20.96length (m)	temperature (°C)	Stokes	anti-Stokes-747.200	54.200	-0.181	-0.176
-746.185	-123.104	0.126	-0.020
-745.171	-82.264	0.192	0.063
-744.156	-94.347	0.157	-0.043
-743.142	-39.209	0.152	-0.081
-742.127	-200.000	0.026	0.157
-741.112	22.129	-0.279	-0.230
-740.098	800.000	-0.057	0.199
-739.083	800.000	0.079	-0.277
-738.069	201.057	-0.066	0.103
-737.054	52.844	0.258	0.249
-736.039	-42.420	-0.269	0.138
-735.025	-3.953	0.233	0.163
-734.010	800.000	0.078	-0.270
-732.996	81.329	-0.133	0.145
-731.981	-200.000	-0.026	-0.135
-730.966	-200.000	-0.049	-0.264
-729.952	16.595	0.198	-0.158
-728.937	490.386	0.088	0.204
-727.923	121.904	0.130	0.164
-726.908	45.956	-0.212	0.198
-725.894	-93.442	-0.391	0.109
-724.879	-200.000	-0.033	-0.271
-723.864	258.775	0.089	0.155
-722.850	137.395	0.018	-0.024
-721.835	495.031	0.047	-0.110
-720.821	618.550	-0.031	-0.079
-719.806	-13.425	-0.269	0.176
-718.791	96.201	-0.147	0.170
-717.777	-41.731	0.112	0.058
-716.762	-44.554	-0.147	0.074
-715.748	-200.000	0.015	0.169
-714.733	257.061	-0.178	-0.308
-713.718	-158.639	-0.463	-0.027
-712.704	-55.302	0.215	-0.097
-711.689	-90.146	0.247	-0.072
-710.675	460.388	0.042	-0.095
-709.660	465.660	-0.052	-0.117
-708.645	275.628	-0.145	0.260
-707.631	800.000	0.070	-0.247
-706.616	91.784	0.064	-0.073
-705.602	189.368	0.210	0.318
-704.587	-144.606	-0.211	0.020
-703.572	227.572	-0.057	0.094
-702.558	133.463	0.085	0.110
-701.543	-200.000	0.031	0.175
-700.529	596.784	-0.169	0.423
-699.514	-200.000	-0.025	0.127
-698.499	108.960	-0.374	-0.450
-697.485	15.733	0.159	-0.126
-696.470	-77.422	-0.318	-0.111
-695.456	-200.000	0.019	-0.311
-694.441	17.285	-0.198	0.158
-693.426	-172.243	-0.046	0.001
-692.412	-0.934	-0.031	-0.022
-691.397	282.492	-0.092	0.167
-690.383	-200.000	0.034	-0.393
-689.368	47.669	-0.277	-0.260
-688.354	-89.815	-0.337	-0.099
-687.339	-200.000	0.004	0.199
-686.324	19.625	0.089	0.072
-685.310	-96.437	0.226	-0.060
-684.295	-74.665	-0.286	-0.104
-683.281	45.486	0.089	0.083
-682.266	-60.801	-0.281	0.120
-681.251	-55.743	-0.066	-0.030
-680.237	800.000	-0.071	-0.218
-679.222	116.375	-0.155	-0.191
-678.208	800.000	0.015	-0.055
-677.193	46.089	0.051	0.047
-676.178	-154.445	-0.193	-0.013
-675.164	653.971	0.068	0.177
-674.149	-120.234	-0.267	-0.046
-673.135	-21.519	-0.292	-0.179
-672.120	123.471	-0.168	0.212
-671.105	-20.452	0.134	-0.083
-670.091	-61.426	-0.409	0.173
-669.076	341.314	0.081	-0.159
-668.062	-44.336	0.187	0.094
-667.047	4.551	0.252	-0.186
-666.032	554.453	-0.041	-0.098
-665.018	44.077	0.258	0.238
-664.003	-200.000	-0.018	-0.124
-662.989	56.968	-0.071	0.069
-661.974	113.153	0.479	-0.585
-660.959	-39.908	-0.216	0.113
-659.945	800.000	0.129	-0.373
-658.930	334.728	-0.088	-0.171
-657.916	0.295	0.272	0.195
-656.901	-65.729	-0.099	-0.040
-655.886	312.961	0.164	-0.310
-654.872	-91.104	-0.227	0.066
-653.857	-75.624	0.049	0.018
-652.843	-56.210	-0.028	0.013
-651.828	-105.870	-0.276	-0.063
-650.814	800.000	-0.084	0.329
-649.799	249.114	0.011	0.018
-648.784	-150.734	-0.273	0.021
-647.770	139.340	-0.172	-0.227
-646.755	318.850	-0.172	-0.328
-645.741	314.633	-0.089	0.168
-644.726	153.387	-0.140	0.193
-643.711	-200.000	0.018	0.147
-642.697	-40.822	-0.018	-0.009
-641.682	-35.735	0.198	0.108
-640.668	210.763	0.138	0.219
-639.653	-88.245	-0.075	-0.023
-638.638	21.709	0.154	-0.126
-637.624	-172.905	-0.160	-0.005
-636.609	-74.603	0.197	-0.071
-635.595	-150.347	-0.125	0.010
-634.580	-200.000	0.007	0.197
-633.565	-200.000	-0.051	-0.242
-632.551	-127.824	-0.465	0.067
-631.536	-41.735	0.280	-0.145
-630.522	-107.608	-0.258	0.057
-629.507	88.543	0.098	0.110
-628.492	-200.000	-0.039	0.346
-627.478	343.877	0.125	-0.246
-626.463	-200.000	0.049	0.258
-625.449	800.000	0.058	-0.241
-624.434	800.000	-0.107	-0.440
-623.419	-15.199	-0.209	0.135
-622.405	-18.159	-0.114	-0.072
-621.390	-200.000	0.037	0.208
-620.376	266.980	0.110	-0.193
-619.361	-55.713	0.087	0.039
-618.346	-200.000	-0.011	-0.313
-617.332	-200.000	-0.042	-0.400
-616.317	-200.000	0.054	0.474
-615.303	-17.762	0.087	0.055
-614.288	-200.000	-0.028	-0.314
-613.273	233.702	-0.039	0.064
-612.259	-200.000	0.023	-0.313
-611.244	16.599	-0.234	-0.186
-610.230	-200.000	0.010	0.145
-609.215	-200.000	0.052	-0.279
-608.201	112.788	0.239	-0.291
-607.186	-34.534	-0.193	0.106
-606.171	8.736	-0.126	-0.095
-605.157	-132.600	0.123	-0.016
-604.142	-200.000	-0.030	-0.200
-603.128	-75.264	-0.275	-0.099
-602.113	-200.000	0.015	0.292
-601.098	-65.089	0.103	-0.042
-600.084	-111.067	0.193	0.040
-599.069	-156.096	-0.178	0.011
-598.055	800.000	-0.020	-0.086
-597.040	-81.866	-0.107	-0.035
-596.025	-37.298	-0.315	-0.169
-595.011	158.730	0.096	-0.134
-593.996	-200.000	-0.008	0.229
-592.982	800.000	-0.025	0.080
-591.967	-7.959	-0.024	-0.016
-590.952	-200.000	-0.062	-0.311
-589.938	110.563	0.053	0.064
-588.923	228.319	0.159	0.260
-587.909	-146.069	-0.281	-0.025
-586.894	800.000	0.082	0.267
-585.879	-77.667	-0.202	-0.070
-584.865	-59.268	-0.049	-0.021
-583.850	-191.166	-0.087	-0.001
-582.836	-160.536	-0.225	0.012
-581.821	402.888	-0.112	-0.236
-580.806	668.926	0.025	0.064
-579.792	-200.000	-0.040	-0.232
-578.777	-48.849	-0.184	-0.088
-577.763	163.163	0.242	0.341
-576.748	-200.000	-0.010	-0.178
-575.733	-77.996	0.081	-0.028
-574.719	133.482	-0.135	-0.175
-573.704	-200.000	-0.019	-0.229
-572.690	159.689	0.016	-0.023
-571.675	11.963	-0.113	-0.087
-570.661	-200.000	-0.007	-0.143
-569.646	-66.212	-0.070	0.028
-568.631	-200.000	0.007	-0.120
-567.617	118.441	-0.123	-0.152
-566.602	-47.707	0.244	0.119
-565.588	-200.000	0.023	-0.166
-564.573	240.460	-0.036	0.061
-563.558	-37.641	0.182	-0.097
-562.544	158.602	0.131	0.182
-561.529	-76.850	0.202	0.071
-560.515	-38.900	0.144	-0.076
-559.500	190.048	-0.029	0.044
-558.485	-200.000	0.039	-0.186
-557.471	248.803	0.096	0.164
-556.456	-99.496	-0.441	-0.111
-555.442	231.652	-0.115	0.189
-554.427	800.000	0.033	0.094
-553.412	53.400	0.306	-0.294
-552.398	-86.271	0.215	0.066
-551.383	4.346	0.054	-0.040
-550.369	5.575	-0.448	0.332
-549.354	111.525	-0.354	-0.428
-548.339	-17.834	0.184	-0.116
-547.325	305.820	-0.049	-0.091
-546.310	-87.384	-0.280	-0.085
-545.296	18.681	0.033	0.026
-544.281	-70.095	-0.318	0.121
-543.266	-200.000	-0.025	0.237
-542.252	-49.106	-0.102	0.049
-541.237	-200.000	-0.006	-0.418
-540.223	82.327	0.251	-0.273
-539.208	620.858	-0.042	-0.106
-538.193	117.638	0.206	-0.254
-537.179	-94.501	-0.261	-0.071
-536.164	-50.766	0.237	0.112
-535.150	26.546	-0.073	0.061
-534.135	-142.691	0.453	-0.044
-533.121	-91.029	-0.216	-0.062
-532.106	800.000	0.102	0.414
-531.091	-6.375	-0.145	0.099
-530.077	-69.385	-0.229	0.088
-529.062	-200.000	0.023	-0.147
-528.048	107.298	0.202	-0.241
-527.033	-200.000	0.013	-0.137
-526.018	-200.000	0.011	-0.146
-525.004	-143.585	0.307	0.029
-523.989	268.006	-0.124	-0.217
-522.975	-148.853	-0.097	0.008
-521.960	-43.924	-0.199	-0.100
-520.945	-200.000	-0.032	0.249
-519.931	11.825	-0.162	-0.124
-518.916	302.456	-0.060	-0.111
-517.902	111.391	-0.063	-0.076
-516.887	-200.000	0.059	0.382
-515.872	-91.026	-0.215	-0.062
-514.858	-77.482	-0.242	0.084
-513.843	-100.994	-0.033	0.008
-512.829	-148.303	0.196	-0.016
-511.814	-163.469	-0.307	0.015
-510.799	50.537	-0.011	0.011
-509.785	-199.059	0.283	0.002
-508.770	-200.000	-0.007	-0.206
-507.756	-64.811	0.286	-0.116
-506.741	-160.039	0.223	-0.012
-505.726	349.240	0.072	0.142
-504.712	180.487	-0.104	-0.153
-503.697	-82.097	-0.223	0.073
-502.683	-100.343	-0.154	-0.038
-501.668	-41.498	0.085	-0.044
-500.653	-31.832	-0.154	-0.086
-499.639	800.000	-0.093	-0.376
-498.624	81.778	0.160	-0.173
-497.610	444.798	0.104	0.228
-496.595	-141.321	-0.394	0.040
-495.581	800.000	-0.078	0.318
-494.566	800.000	-0.058	0.215
-493.551	-71.074	0.062	-0.023
-492.537	94.376	-0.051	-0.058
-491.522	87.824	0.104	0.115
-490.508	293.149	0.067	0.123
-489.493	-200.000	-0.014	-0.338
-488.478	-88.904	0.120	-0.036
-487.464	437.662	-0.122	0.267
-486.449	420.001	0.186	-0.397
-485.435	-120.670	-0.416	0.070
-484.420	-53.582	0.167	0.076
-483.405	64.576	-0.138	0.139
-482.391	628.550	-0.069	-0.174
-481.376	-200.000	0.043	-0.286
-480.362	566.660	-0.017	0.041
-479.347	40.125	-0.287	0.258
-478.332	21.926	0.078	-0.063
-477.318	-80.970	-0.179	-0.059
-476.303	194.760	0.292	-0.442
-475.289	-87.526	-0.112	0.034
-474.274	-200.000	0.010	0.176
-473.259	212.689	0.162	0.256
-472.245	-25.531	-0.171	0.101
-471.230	-127.870	0.121	0.017
-470.216	272.184	0.220	0.387
-469.201	-75.761	0.076	0.027
-468.186	-74.141	0.163	-0.059
-467.172	-200.000	-0.029	-0.523
-466.157	674.596	-0.074	0.191
-465.143	-119.419	-0.292	0.051
-464.128	-34.559	0.345	0.189
-463.113	-56.034	0.045	0.020
-462.099	96.131	0.108	0.123
-461.084	184.940	0.053	0.079
-460.070	77.842	-0.192	0.204
-459.055	-68.291	0.223	0.086
-458.040	-117.509	0.220	0.040
-457.026	-130.632	-0.113	-0.015
-456.011	-44.322	-0.299	0.150
-454.997	-70.788	0.268	0.101
-453.982	-200.000	0.020	-0.244
-452.968	-80.299	0.273	-0.091
-451.953	196.861	0.232	-0.353
-450.938	13.858	0.066	-0.051
-449.924	-200.000	0.023	-0.111
-448.909	-200.000	0.002	0.013
-447.895	-200.000	0.021	0.116
-446.880	-90.873	0.034	0.010
-445.865	-74.018	-0.285	0.103
-444.851	-15.765	0.033	-0.021
-443.836	-32.721	-0.257	-0.143
-442.822	-46.268	-0.277	0.136
-441.807	286.255	-0.100	0.180
-440.792	649.466	0.055	0.141
-439.778	-200.000	-0.008	-0.285
-438.763	-154.833	0.312	-0.021
-437.749	699.188	-0.047	-0.122
-436.734	800.000	0.039	0.135
-435.719	87.866	-0.324	0.358
-434.705	-30.429	-0.451	0.255
-433.690	-200.000	-0.197	-0.001
-432.676	-172.016	0.145	-0.005
-431.661	308.990	0.050	0.093
-430.646	63.032	0.010	-0.010
-429.632	-54.587	0.114	-0.051
-428.617	-86.439	0.051	0.016
-427.603	131.774	0.120	0.154
-426.588	-200.000	-0.006	0.192
-425.573	800.000	-0.141	0.561
-424.559	-62.219	0.237	-0.098
-423.544	-200.000	0.000	0.022
-422.530	-104.429	-0.550	0.127
-421.515	-76.467	0.271	0.095
-420.500	-200.000	-0.038	0.329
-419.486	138.951	-0.043	0.057
-418.471	-200.000	0.041	0.215
-417.457	-4.704	-0.265	0.183
-416.442	-157.203	-0.138	0.008
-415.428	-200.000	0.043	0.254
-414.413	-70.033	0.103	-0.039
-413.398	744.684	-0.054	-0.145
-412.384	476.673	-0.019	-0.042
-411.369	138.575	-0.063	-0.083
-410.355	-200.000	-0.014	-0.335
-409.340	-111.328	0.180	0.037
-408.325	-200.000	-0.014	0.141
-407.311	-150.937	-0.618	-0.047
-406.296	29.504	0.301	-0.255
-405.282	-139.167	-0.405	-0.044
-404.267	-81.172	0.153	-0.050
-403.252	-105.350	0.076	-0.017
-402.238	-200.000	-0.016	-0.456
-401.223	-200.000	0.009	-0.055
-400.209	-152.497	0.437	0.031
-399.194	-119.754	-0.092	-0.016
-398.179	-132.179	0.176	0.023
-397.165	-200.000	-0.002	0.533
-396.150	-0.429	-0.074	0.053
-395.136	37.264	0.120	-0.106
-394.121	-138.923	-0.031	0.003
-393.106	-76.918	-0.355	0.124
-392.092	-200.000	0.005	-0.128
-391.077	197.093	-0.090	-0.137
-390.063	135.667	0.061	0.079
-389.048	-50.868	0.269	0.126
-388.033	800.000	-0.049	0.188
-387.019	-11.646	-0.216	-0.142
-386.004	-93.853	-0.380	-0.104
-384.990	-200.000	0.003	0.306
-383.975	-136.581	0.195	0.022
-382.960	239.833	0.187	-0.310
-381.946	167.389	-0.069	0.098
-380.931	-200.000	0.033	0.365
-379.917	-10.452	-0.067	0.044
-378.902	-200.000	0.026	-0.176
-377.888	-172.195	-0.145	0.005
-376.873	-200.000	0.050	-0.253
-375.858	10.588	-0.056	-0.042
-374.844	-200.000	-0.013	-0.089
-373.829	-200.000	-0.034	-0.220
-372.815	-112.376	-0.159	-0.032
-371.800	19.109	-0.277	-0.221
-370.785	-144.716	0.034	-0.003
-369.771	-49.546	0.072	-0.034
-368.756	3.093	0.229	-0.165
-367.742	800.000	-0.100	-0.407
-366.727	-138.967	0.198	-0.021
-365.712	112.106	-0.105	0.126
-364.698	800.000	0.028	-0.095
-363.683	330.054	-0.083	-0.159
-362.669	-81.812	0.065	-0.021
-361.654	-142.601	0.112	0.011
-360.639	-61.778	0.196	0.082
-359.625	100.643	-0.242	0.280
-358.610	-18.500	0.288	0.179
-357.596	-200.000	0.053	0.316
-356.581	-84.861	0.142	0.044
-355.566	-18.696	0.145	0.090
-354.552	-200.000	0.050	0.291
-353.537	-108.114	-0.311	0.067
-352.523	-200.000	-0.022	0.170
-351.508	-200.000	0.019	0.165
-350.493	-122.349	0.170	-0.028
-349.479	-200.000	0.035	0.307
-348.464	-185.065	-0.096	-0.001
-347.450	-200.000	0.033	-0.641
-346.435	102.840	0.010	0.012
-345.420	308.151	-0.108	-0.201
-344.406	596.946	-0.130	-0.320
-343.391	-1.223	0.244	-0.171
-342.377	-77.863	-0.060	0.020
-341.362	-200.000	0.010	0.079
-340.348	800.000	0.054	0.154
-339.333	-66.326	0.261	0.103
-338.318	149.470	0.181	0.243
-337.304	113.049	0.098	-0.119
-336.289	-200.000	0.000	-0.040
-335.275	-171.447	-0.297	0.010
-334.260	-37.240	-0.127	0.068
-333.245	24.018	-0.172	-0.141
-332.231	-48.714	-0.318	0.152
-331.216	186.063	0.154	0.227
-330.202	800.000	-0.069	-0.239
-329.187	-129.665	-0.162	-0.022
-328.172	-70.225	0.254	-0.096
-327.158	26.118	0.170	-0.141
-326.143	15.645	0.253	-0.198
-325.129	-124.252	-0.309	-0.048
-324.114	39.608	-0.053	-0.047
-323.099	-109.028	0.091	0.019
-322.085	12.550	0.387	-0.296
-321.070	97.476	0.018	0.021
-320.056	121.564	-0.060	-0.075
-319.041	-200.000	-0.021	-0.121
-318.026	-7.775	0.286	-0.192
-317.012	800.000	0.005	-0.016
-315.997	125.176	0.227	0.284
-314.983	-31.265	-0.182	0.102
-313.968	800.000	0.011	0.036
-312.953	-49.146	-0.104	0.050
-311.939	800.000	0.103	-0.300
-310.924	493.252	-0.111	-0.253
-309.910	-200.000	0.040	-0.300
-308.895	680.024	-0.011	-0.028
-307.880	50.605	-0.298	0.280
-306.866	-68.458	0.338	0.130
-305.851	8.640	-0.131	-0.098
-304.837	-40.199	0.208	0.107
-303.822	-107.885	0.253	-0.055
-302.807	-200.000	0.017	0.340
-301.793	11.521	-0.270	0.205
-300.778	141.711	0.255	0.335
-299.764	310.732	0.211	-0.391
-298.749	-200.000	-0.011	0.224
-297.735	460.722	-0.147	0.324
-296.720	-50.169	0.405	0.190
-295.705	-200.000	-0.034	0.204
-294.691	48.325	0.191	-0.178
-293.676	-17.172	0.174	-0.109
-292.662	-87.320	-0.295	0.089
-291.647	4.024	0.283	0.205
-290.632	96.710	0.089	0.101
-289.618	-167.946	0.115	-0.004
-288.603	-88.452	-0.159	-0.047
-287.589	396.540	0.012	0.026
-286.574	-136.947	-0.213	0.024
-285.559	-22.602	-0.158	-0.095
-284.545	93.999	0.092	0.104
-283.530	-200.000	0.124	-0.611
-282.516	-200.000	0.010	-0.075
-281.501	-94.196	0.316	0.086
-280.486	375.593	0.249	0.503
-279.472	800.000	0.047	0.156
-278.457	719.085	0.085	-0.224
-277.443	245.865	0.031	0.051
-276.428	-200.000	0.037	0.307
-275.413	-74.956	-0.205	0.073
-274.399	-53.190	0.215	0.098
-273.384	-168.153	0.358	0.014
-272.370	447.189	-0.049	-0.106
-271.355	-200.000	0.013	-0.316
-270.340	-130.732	0.125	-0.017
-269.326	-70.365	-0.332	0.125
-268.311	454.209	0.018	-0.040
-267.297	-200.000	-0.002	-0.112
-266.282	408.396	-0.129	0.270
-265.267	743.238	0.096	-0.257
-264.253	739.527	0.060	0.159
-263.238	434.218	0.061	-0.132
-262.224	-58.957	0.233	-0.100
-261.209	-193.434	0.260	-0.002
-260.195	-200.000	0.054	-0.249
-259.180	-33.370	-0.116	-0.063
-258.165	-167.110	0.185	0.007
-257.151	-60.466	-0.021	0.009
-256.136	15.572	0.187	0.146
-255.122	18.927	-0.063	0.050
-254.107	19.082	0.089	-0.071
-253.092	-42.606	-0.070	-0.035
-252.078	800.000	0.025	0.078
-251.063	188.105	-0.148	0.219
-250.049	82.935	0.161	0.173
-249.034	265.775	-0.172	0.298
-248.019	-107.473	0.265	-0.057
-247.005	-200.000	-0.008	-0.151
-245.990	-79.635	-0.206	0.069
-244.976	800.000	-0.112	0.312
-243.961	800.000	-0.040	-0.109
-242.946	47.787	-0.231	-0.214
-241.932	301.223	-0.177	0.324
-240.917	538.321	0.172	0.405
-239.903	-48.482	0.137	-0.065
-238.888	551.135	-0.202	0.481
-237.873	78.288	0.068	-0.071
-236.859	800.000	-0.086	0.237
-235.844	-200.000	0.057	0.330
-234.830	-200.000	-0.019	-0.085
-233.815	-200.000	-0.043	-0.257
-232.800	-166.190	0.460	-0.019
-231.786	800.000	-0.030	0.129
-230.771	-200.000	0.088	0.430
-229.757	40.925	0.257	0.230
-228.742	-200.000	-0.009	-0.140
-227.727	800.000	0.070	-0.200
-226.713	-29.223	0.031	-0.018
-225.698	-100.956	-0.223	-0.054
-224.684	800.000	0.077	0.271
-223.669	800.000	-0.078	0.276
-222.655	-86.366	0.430	0.131
-221.640	-200.000	-0.083	0.414
-220.625	38.400	0.165	0.146
-219.611	-200.000	-0.033	0.168
-218.596	-67.269	-0.104	-0.040
-217.582	-85.094	-0.120	-0.037
-216.567	-20.951	-0.224	-0.136
-215.552	-106.947	0.136	0.030
-214.538	400.055	-0.224	0.464
-213.523	-105.595	-0.180	-0.040
-212.509	411.288	-0.203	0.426
-211.494	323.085	-0.117	-0.221
-210.479	-72.430	0.096	-0.035
-209.465	-89.694	0.171	0.050
-208.450	800.000	0.082	0.308
-207.436	-30.987	-0.199	-0.111
-206.421	-35.443	0.255	0.137
-205.406	-86.285	-0.217	-0.066
-204.392	-116.256	-0.311	-0.057
-203.377	19.346	0.267	0.212
-202.363	-90.112	-0.167	-0.048
-201.348	699.358	-0.074	0.193
-200.333	-166.708	-0.239	-0.010
-199.319	-122.933	0.231	-0.037
-198.304	23.585	0.105	-0.085
-197.290	9.126	-0.032	-0.024
-196.275	106.525	0.216	-0.254
-195.260	800.000	0.040	-0.126
-194.246	-129.247	0.375	0.052
-193.231	459.513	-0.187	0.412
-192.217	263.795	0.185	0.317
-191.202	193.889	-0.027	-0.040
-190.187	800.000	0.030	-0.115
-189.173	149.182	0.406	-0.543
-188.158	-200.000	-0.099	-0.499
-187.144	502.523	-0.091	-0.208
-186.129	800.000	0.060	-0.197
-185.114	-200.000	-0.036	-0.191
-184.100	396.540	-0.096	-0.199
-183.085	-3.913	-0.028	-0.019
-182.071	13.424	-0.295	-0.226
-181.056	-200.000	0.016	-0.282
-180.042	-200.000	-0.004	0.035
-179.027	-200.000	-0.035	-0.206
-178.012	327.047	-0.108	-0.205
-176.998	-4.279	-0.155	-0.106
-175.983	70.518	0.113	-0.115
-174.969	27.098	-0.044	0.037
-173.954	-78.714	0.103	0.035
-172.939	-24.435	0.183	0.108
-171.925	9.317	0.167	-0.125
-170.910	-6.441	-0.281	-0.189
-169.896	-116.691	0.219	0.040
-168.881	580.402	-0.019	0.045
-167.866	-84.786	0.270	0.084
-166.852	-200.000	-0.024	0.345
-165.837	-176.526	-0.140	-0.004
-164.823	4.616	-0.033	0.024
-163.808	402.816	-0.127	-0.264
-162.793	-151.527	0.224	0.016
-161.779	800.000	-0.138	0.377
-160.764	68.060	-0.288	-0.291
-159.750	432.707	0.117	0.250
-158.735	-103.480	0.242	0.056
-157.720	494.885	0.056	-0.128
-156.706	-131.377	0.243	-0.032
-155.691	394.792	-0.042	0.085
-154.677	-200.000	-0.004	-0.150
-153.662	21.340	-0.249	-0.200
-152.647	-200.000	-0.009	-0.093
-151.633	-200.000	0.278	0.001
-150.618	379.405	0.087	-0.176
-149.604	800.000	-0.068	-0.240
-148.589	40.178	-0.205	-0.182
-147.574	64.849	0.103	0.102
-146.560	-200.000	-0.048	0.251
-145.545	86.908	0.100	0.108
-144.531	-200.000	0.013	0.081
-143.516	-114.297	-0.191	-0.036
-142.502	-200.000	-0.004	0.243
-141.487	800.000	0.046	0.165
-140.472	373.652	0.051	-0.102
-139.458	-192.953	-0.066	0.001
-138.443	-200.000	-0.069	-0.312
-137.429	273.540	0.148	-0.258
-136.414	-200.000	-0.072	-0.380
-135.399	-200.000	-0.007	-0.324
-134.385	-69.747	0.421	-0.159
-133.370	13.052	0.229	0.175
-132.356	-77.443	-0.077	-0.026
-131.341	-37.982	0.194	0.102
-130.326	225.030	-0.293	-0.468
-129.312	-165.790	0.210	-0.009
-128.297	-122.836	-0.256	0.041
-127.283	591.005	0.189	-0.461
-126.268	-22.176	0.168	0.100
-125.253	39.105	-0.164	-0.144
-124.239	-125.973	0.200	-0.030
-123.224	-27.736	-0.133	0.076
-122.210	-85.945	0.029	-0.009
