DTS Sentinel unit serial number:	SN413079Multiplexer serial number:	ORYXHardware model number:	OX4-SRSoftware version number:	ORYX F/W v4.00 Oryx Data Collector v3.7.2.0data status	okinstallation	princeton_trtdifferential loss correction	single-endedforward channel	channel 4reverse channel	N/Adate	2019/09/19time	00:13:35forward acquisition time	60.00reverse acquisition time	0.00gamma	496.2192k internal	0.2337k external	0.2337temperature offset calibration	1.0030default loss term (dB/km)	0.3790temperature slope calibration	1.0000multiplexer offset coefficient	1.0000multiplexer slope coefficient	1.0000fibre end	0.00T internal ref (°C)	22.81T ext. ref 1 (°C)	0.75T ext. ref 2 (°C)	15.84length (m)	temperature (°C)	Stokes	anti-Stokes-747.200	134.290	0.202	-0.263
-746.185	800.000	0.110	0.363
-745.171	-140.052	0.170	-0.018
-744.156	-105.433	-0.128	0.029
-743.142	-149.028	-0.234	-0.019
-742.127	-127.378	0.204	0.030
-741.112	452.127	0.192	-0.427
-740.098	54.366	-0.128	0.123
-739.083	559.476	0.079	-0.192
-738.069	-200.000	0.011	0.052
-737.054	-200.000	0.036	0.286
-736.039	-138.112	-0.112	0.012
-735.025	323.566	0.200	0.383
-734.010	104.111	-0.251	-0.296
-732.996	82.360	-0.306	0.333
-731.981	-129.814	-0.187	0.026
-730.966	-74.569	0.163	0.059
-729.952	231.200	0.182	0.299
-728.937	-138.171	0.208	-0.023
-727.923	345.668	0.091	-0.179
-726.908	-200.000	-0.026	-0.180
-725.894	-57.382	-0.108	0.048
-724.879	800.000	-0.069	-0.289
-723.864	45.776	-0.200	-0.186
-722.850	-34.867	0.187	-0.102
-721.835	421.001	-0.156	0.336
-720.821	-124.681	-0.206	-0.032
-719.806	-105.860	0.073	-0.017
-718.791	-120.578	-0.433	-0.074
-717.777	-130.456	-0.318	-0.043
-716.762	559.459	-0.094	0.228
-715.748	-11.975	0.224	-0.147
-714.733	-200.000	0.031	-0.167
-713.718	-141.193	-0.397	-0.041
-712.704	56.148	0.029	-0.028
-711.689	-200.000	0.062	-0.391
-710.675	555.985	0.084	-0.203
-709.660	-50.348	0.371	0.176
-708.645	-200.000	-0.086	-0.477
-707.631	65.180	0.064	-0.064
-706.616	-200.000	-0.028	0.131
-705.602	-200.000	-0.061	-0.429
-704.587	331.508	-0.061	0.117
-703.572	68.590	-0.174	-0.179
-702.558	-200.000	-0.093	0.425
-701.543	800.000	-0.068	-0.224
-700.529	-28.151	0.350	-0.203
-699.514	800.000	-0.049	-0.143
-698.499	-200.000	-0.016	-0.337
-697.485	-112.444	-0.123	0.025
-696.470	-123.779	-0.245	-0.039
-695.456	800.000	-0.034	-0.113
-694.441	240.212	0.084	-0.140
-693.426	-53.080	0.285	0.131
-692.412	-7.052	-0.128	0.087
-691.397	-35.411	0.143	-0.078
-690.383	-200.000	-0.037	-0.260
-689.368	2.867	0.115	0.083
-688.354	96.577	0.104	-0.119
-687.339	-130.910	-0.294	-0.039
-686.324	800.000	-0.097	0.351
-685.310	-87.123	-0.232	-0.071
-684.295	527.588	-0.136	-0.320
-683.281	207.683	0.165	-0.258
-682.266	-200.000	-0.024	-0.140
-681.251	-65.815	0.189	0.076
-680.237	-106.739	0.206	-0.046
-679.222	800.000	-0.011	-0.035
-678.208	800.000	-0.012	-0.042
-677.193	270.267	0.131	0.231
-676.178	-52.780	-0.141	0.065
-675.164	-80.271	-0.279	-0.093
-674.149	-105.441	-0.181	-0.041
-673.135	236.296	-0.080	-0.133
-672.120	200.574	-0.013	0.020
-671.105	83.906	0.107	-0.116
-670.091	-144.078	-0.077	0.007
-669.076	-98.161	0.089	0.023
-668.062	-46.933	-0.208	-0.102
-667.047	-200.000	0.074	-0.355
-666.032	353.982	-0.028	0.056
-665.018	800.000	0.056	-0.227
-664.003	-58.598	-0.220	-0.095
-662.989	-153.443	-0.190	-0.013
-661.974	199.149	-0.304	0.466
-660.959	-39.172	-0.229	-0.120
-659.945	-13.931	0.039	-0.025
-658.930	-75.563	-0.283	-0.101
-657.916	-74.216	0.141	-0.051
-656.901	-200.000	0.021	-0.179
-655.886	-66.164	-0.141	0.056
-654.872	-142.400	-0.366	0.036
-653.857	-153.802	-0.219	-0.015
-652.843	-200.000	-0.062	-0.586
-651.828	-78.087	-0.341	-0.117
-650.814	800.000	0.043	0.179
-649.799	-78.407	-0.088	-0.030
-648.784	-113.994	0.279	-0.054
-647.770	-74.275	-0.149	-0.054
-646.755	-148.431	-0.172	0.014
-645.741	15.633	-0.172	-0.136
-644.726	-11.519	0.249	-0.163
-643.711	69.041	0.128	-0.132
-642.697	-200.000	0.019	-0.262
-641.682	-22.189	-0.257	-0.156
-640.668	-19.870	-0.093	0.057
-639.653	135.312	-0.229	-0.298
-638.638	-200.000	-0.001	0.062
-637.624	-18.490	-0.165	0.103
-636.609	-200.000	-0.076	-0.380
-635.595	-200.000	-0.040	-0.202
-634.580	-179.653	-0.101	-0.002
-633.565	-24.700	-0.132	-0.079
-632.551	613.423	-0.058	0.144
-631.536	-49.459	-0.256	0.122
-630.522	800.000	-0.160	-0.520
-629.507	-200.000	-0.027	-0.181
-628.492	-99.676	-0.215	0.054
-627.478	-138.491	-0.370	0.041
-626.463	726.865	0.018	0.049
-625.449	350.650	-0.171	-0.339
-624.434	-73.088	0.315	0.115
-623.419	20.661	0.033	0.026
-622.405	3.332	0.152	0.111
-621.390	-29.339	0.029	0.017
-620.376	-67.795	-0.181	0.071
-619.361	8.232	-0.034	-0.025
-618.346	-197.394	0.256	-0.002
-617.332	-200.000	0.028	-0.539
-616.317	-8.116	-0.176	-0.118
-615.303	72.632	0.140	-0.146
-614.288	91.556	-0.128	0.144
-613.273	-115.503	0.123	0.023
-612.259	-9.762	0.150	-0.100
-611.244	-149.307	0.316	-0.025
-610.230	-200.000	-0.405	-0.000
-609.215	-122.265	-0.129	0.021
-608.201	36.025	-0.144	0.127
-607.186	101.501	-0.173	0.202
-606.171	28.867	0.202	-0.171
-605.157	800.000	-0.074	-0.221
-604.142	-113.237	-0.167	-0.033
-603.128	-28.538	-0.152	0.088
-602.113	-133.008	-0.263	-0.033
-601.098	-65.407	-0.094	-0.038
-600.084	-18.759	0.102	-0.064
-599.069	-51.810	0.224	-0.104
-598.055	-10.250	0.217	0.144
-597.040	263.955	-0.076	-0.132
-596.025	-108.413	-0.322	-0.069
-595.011	-50.293	0.218	-0.103
-593.996	-50.692	0.184	0.087
-592.982	102.992	-0.110	-0.128
-591.967	381.072	0.166	0.341
-590.952	500.094	-0.069	0.159
-589.938	-19.783	0.095	-0.059
-588.923	-26.433	-0.176	0.103
-587.909	342.052	0.102	-0.199
-586.894	-200.000	-0.018	0.158
-585.879	-200.000	0.048	-0.231
-584.865	177.395	0.237	0.344
-583.850	-200.000	-0.031	-0.244
-582.836	-200.000	-0.025	-0.209
-581.821	131.742	-0.029	-0.037
-580.806	-124.108	-0.270	-0.042
-579.792	-16.905	0.267	-0.168
-578.777	-27.817	0.096	-0.056
-577.763	-200.000	0.074	0.326
-576.748	-106.824	0.247	-0.055
-575.733	10.379	-0.132	0.100
-574.719	-200.000	0.055	-0.340
-573.704	-200.000	0.011	0.256
-572.690	-163.925	0.174	0.008
-571.675	-200.000	-0.014	0.179
-570.661	300.162	0.067	0.123
-569.646	-56.647	0.228	-0.100
-568.631	-132.427	0.280	-0.036
-567.617	-73.962	-0.248	0.090
-566.602	-108.566	-0.343	-0.073
-565.588	162.873	-0.156	0.219
-564.573	-200.000	-0.066	0.349
-563.558	-48.287	0.221	-0.106
-562.544	-101.533	0.260	0.063
-561.529	87.874	0.144	-0.159
-560.515	224.206	0.169	-0.272
-559.500	-118.792	-0.285	-0.050
-558.485	497.870	0.110	-0.252
-557.471	697.031	-0.073	-0.192
-556.456	-200.000	0.012	-0.213
-555.442	100.533	0.046	0.054
-554.427	-86.014	-0.119	-0.037
-553.412	45.153	-0.273	-0.250
-552.398	498.399	-0.083	0.190
-551.383	-60.601	-0.112	0.047
-550.369	382.681	-0.118	-0.241
-549.354	-200.000	-0.001	0.045
-548.339	-65.558	-0.317	-0.127
-547.325	-5.986	0.251	0.171
-546.310	-9.219	-0.296	0.197
-545.296	-38.271	-0.148	0.078
-544.281	-54.509	0.343	0.155
-543.266	378.002	-0.060	-0.123
-542.252	-136.320	-0.156	0.018
-541.237	41.825	0.095	-0.086
-540.223	-12.645	0.170	-0.110
-539.208	-145.024	-0.606	0.055
-538.193	800.000	-0.050	-0.138
-537.179	-71.337	-0.116	-0.043
-536.164	3.370	0.204	-0.148
-535.150	564.521	-0.064	-0.153
-534.135	-97.321	-0.286	-0.074
-533.121	-46.604	0.090	-0.044
-532.106	-200.000	-0.038	0.179
-531.091	13.153	-0.170	-0.131
-530.077	-200.000	-0.005	0.340
-529.062	800.000	0.041	0.145
-528.048	581.894	-0.046	0.111
-527.033	204.378	-0.119	-0.184
-526.018	-200.000	0.039	-0.267
-525.004	-129.960	0.246	0.034
-523.989	78.607	-0.164	-0.175
-522.975	-102.806	0.229	0.054
-521.960	-200.000	0.013	0.154
-520.945	41.798	0.235	-0.212
-519.931	-200.000	-0.073	0.322
-518.916	380.770	-0.123	0.251
-517.902	-94.964	0.166	0.045
-516.887	168.135	-0.082	-0.116
-515.872	-107.365	0.158	-0.034
-514.858	-200.000	0.019	-0.361
-513.843	-200.000	-0.017	0.178
-512.829	-24.465	-0.092	0.055
-511.814	-138.267	-0.261	-0.029
-510.799	382.778	0.162	0.332
-509.785	136.509	0.043	0.056
-508.770	315.236	-0.201	-0.377
-507.756	-94.414	-0.254	0.069
-506.741	156.473	-0.230	-0.316
-505.726	-200.000	-0.034	-0.150
-504.712	-12.758	-0.235	0.152
-503.697	323.006	0.106	-0.201
-502.683	-76.657	0.094	-0.033
-501.668	68.701	0.274	-0.280
-500.653	-200.000	-0.004	-0.144
-499.639	-88.669	-0.131	-0.039
-498.624	800.000	0.056	0.244
-497.610	-53.419	-0.091	-0.041
-496.595	-135.876	-0.138	0.016
-495.581	-200.000	-0.063	0.385
-494.566	-132.628	-0.056	0.007
-493.551	86.740	0.097	-0.107
-492.537	66.026	0.012	-0.013
-491.522	-24.323	0.260	-0.154
-490.508	-200.000	0.044	0.191
-489.493	-76.528	0.143	-0.050
-488.478	-200.000	0.008	0.087
-487.464	60.760	-0.069	0.068
-486.449	-145.443	0.373	-0.033
-485.435	-164.331	-0.285	-0.013
-484.420	88.814	-0.112	-0.124
-483.405	-54.708	-0.213	0.096
-482.391	800.000	0.023	0.068
-481.376	528.967	0.163	-0.382
-480.362	4.462	-0.063	-0.046
-479.347	-122.898	-0.273	-0.044
-478.332	-173.431	0.221	-0.007
-477.318	59.886	0.070	0.069
-476.303	-59.999	-0.314	0.133
-475.289	-17.953	0.076	0.047
-474.274	-124.893	-0.192	0.029
-473.259	-134.426	-0.140	0.017
-472.245	-200.000	0.013	0.157
-471.230	39.585	-0.177	0.158
-470.216	128.421	-0.028	0.036
-469.201	-38.734	0.189	-0.099
-468.186	800.000	-0.107	-0.325
-467.172	-89.932	-0.114	0.033
-466.157	197.446	-0.050	0.075
-465.143	800.000	-0.090	0.294
-464.128	1.611	0.344	0.246
-463.113	-200.000	-0.014	-0.290
-462.099	-140.260	0.310	0.032
-461.084	132.352	-0.276	-0.353
-460.070	-200.000	0.106	-0.527
-459.055	-16.918	0.130	-0.082
-458.040	-110.694	0.401	0.082
-457.026	-72.457	-0.231	0.085
-456.011	-200.000	0.086	-0.418
-454.997	-74.608	0.376	0.134
-453.982	146.887	-0.156	-0.208
-452.968	-102.725	-0.275	0.065
-451.953	96.827	0.115	-0.131
-450.938	800.000	0.134	-0.434
-449.924	32.887	0.128	-0.110
-448.909	-12.337	-0.245	0.159
-447.895	800.000	-0.067	0.217
-446.880	-200.000	0.061	-0.323
-445.865	715.488	0.022	0.057
-444.851	800.000	0.038	-0.108
-443.836	800.000	0.140	-0.416
-442.822	4.483	0.157	0.115
-441.807	-200.000	0.034	0.223
-440.792	315.284	0.215	0.401
-439.778	-79.962	0.423	0.141
-438.763	0.013	-0.223	0.158
-437.749	-50.920	0.119	0.056
-436.734	-114.048	-0.503	0.097
-435.719	-72.427	-0.320	0.117
-434.705	-200.000	0.020	0.215
-433.690	-200.000	-0.025	0.344
-432.676	194.167	0.093	0.140
-431.661	-108.560	0.426	0.091
-430.646	-37.665	-0.049	0.026
-429.632	-200.000	0.042	-0.275
-428.617	200.135	0.105	-0.160
-427.603	-160.528	0.409	0.022
-426.588	121.758	-0.095	-0.118
-425.573	723.569	0.054	-0.142
-424.559	-200.000	-0.045	0.258
-423.544	129.220	-0.071	-0.090
-422.530	-107.999	-0.345	-0.074
-421.515	-200.000	0.012	0.094
-420.500	373.130	-0.159	-0.320
-419.486	-64.568	0.221	0.089
-418.471	103.567	-0.318	0.369
-417.457	113.018	0.025	0.030
-416.442	-66.232	0.067	-0.026
-415.428	800.000	0.175	-0.627
-414.413	800.000	-0.090	-0.271
-413.398	462.981	-0.070	-0.154
-412.384	-200.000	0.028	0.186
-411.369	507.303	-0.106	0.244
-410.355	34.782	-0.151	-0.131
-409.340	-189.979	0.317	-0.004
-408.325	-200.000	-0.022	-0.130
-407.311	800.000	-0.016	-0.057
-406.296	-3.519	-0.017	0.012
-405.282	800.000	0.024	0.090
-404.267	-84.227	-0.178	0.056
-403.252	-200.000	-0.284	-0.001
-402.238	-138.417	0.215	-0.023
-401.223	-0.696	0.369	-0.259
-400.209	-39.831	-0.091	-0.047
-399.194	800.000	0.138	0.432
-398.179	-200.000	-0.010	0.174
-397.165	180.422	0.112	0.163
-396.150	193.787	-0.128	0.192
-395.136	224.223	-0.079	-0.127
-394.121	45.511	-0.265	0.242
-393.106	-129.774	-0.146	0.020
-392.092	159.501	0.089	0.123
-391.077	-200.000	0.019	0.082
-390.063	800.000	0.092	-0.269
-389.048	-18.881	-0.188	0.116
-388.033	-177.264	0.263	0.006
-387.019	55.938	0.177	-0.170
-386.004	67.226	-0.220	0.222
-384.990	158.797	0.141	0.194
-383.975	163.768	0.124	0.173
-382.960	-29.988	0.167	0.094
-381.946	-44.631	0.033	0.016
-380.931	-15.792	0.124	0.078
-379.917	170.852	0.313	-0.444
-378.902	-200.000	-0.017	0.108
-377.888	552.146	0.094	0.224
-376.873	152.640	0.154	-0.208
-375.858	-159.018	0.176	-0.010
-374.844	60.148	-0.117	-0.114
-373.829	-38.144	0.136	0.071
-372.815	-118.687	-0.293	-0.051
-371.800	95.664	-0.077	-0.087
-370.785	29.966	-0.191	0.161
-369.771	-200.000	0.008	0.194
-368.756	365.594	0.133	0.264
-367.742	800.000	0.026	-0.094
-366.727	-2.275	0.192	-0.134
-365.712	-117.751	-0.225	0.040
-364.698	775.261	0.076	0.204
-363.683	800.000	0.036	-0.125
-362.669	11.754	-0.157	-0.119
-361.654	-62.772	0.141	-0.058
-360.639	1.039	-0.201	0.143
-359.625	800.000	-0.022	0.065
-358.610	112.976	0.196	-0.235
-357.596	171.314	0.062	0.087
-356.581	41.917	0.293	0.263
-355.566	-87.287	-0.227	0.068
-354.552	-200.000	-0.047	0.207
-353.537	-137.002	-0.075	-0.009
-352.523	438.216	0.056	-0.122
-351.508	-5.760	0.180	-0.122
-350.493	-200.000	0.048	0.218
-349.479	-71.111	0.315	0.117
-348.464	326.554	-0.243	0.460
-347.450	428.556	0.013	0.027
-346.435	-125.054	-0.377	-0.057
-345.420	166.533	0.187	0.262
-344.406	-177.054	-0.318	0.008
-343.391	-21.267	0.371	-0.224
-342.377	13.045	-0.168	-0.128
-341.362	-47.952	0.300	-0.144
-340.348	134.601	0.226	0.290
-339.333	-74.935	0.135	-0.048
-338.318	-15.911	-0.056	-0.035
-337.304	33.605	-0.081	0.069
-336.289	110.438	-0.207	-0.246
-335.275	3.005	-0.192	-0.138
-334.260	132.360	-0.156	0.199
-333.245	111.405	-0.115	-0.137
-332.231	72.452	-0.111	0.114
-331.216	196.193	0.070	0.105
-330.202	-60.428	0.190	0.080
-329.187	-113.993	-0.254	0.049
-328.172	653.278	0.047	0.118
-327.158	800.000	-0.056	0.183
-326.143	509.802	-0.082	0.188
-325.129	147.060	0.241	0.320
-324.114	84.594	-0.054	0.058
-323.099	-200.000	-0.009	0.242
-322.085	-11.745	0.115	-0.074
-321.070	-24.356	-0.067	0.040
-320.056	7.958	-0.116	0.086
-319.041	165.652	0.030	-0.042
-318.026	-55.277	0.147	0.065
-317.012	309.480	0.023	-0.042
-315.997	-76.569	-0.114	-0.040
-314.983	-95.031	0.200	0.053
-313.968	418.205	-0.127	-0.267
-312.953	-19.238	0.219	0.134
-311.939	-141.807	-0.312	0.031
-310.924	800.000	-0.045	0.186
-309.910	420.161	0.087	0.184
-308.895	-81.967	0.260	-0.084
-307.880	72.731	-0.026	0.027
-306.866	-53.875	0.406	0.183
-305.851	-90.880	-0.291	0.083
-304.837	-5.998	-0.011	0.007
-303.822	-200.000	0.015	-0.090
-302.807	401.509	0.083	-0.172
-301.793	800.000	-0.075	0.236
-300.778	-46.206	0.018	0.009
-299.764	220.178	-0.096	0.151
-298.749	58.115	0.204	-0.197
-297.735	253.169	-0.075	-0.126
-296.720	-200.000	-0.018	-0.159
-295.705	-36.372	0.243	-0.129
-294.691	286.956	-0.148	0.263
-293.676	358.730	0.071	0.140
-292.662	-9.852	-0.247	0.162
-291.647	164.838	-0.038	0.053
-290.632	12.903	-0.216	0.165
-289.618	204.809	0.141	-0.216
-288.603	-200.000	-0.018	-0.086
-287.589	109.106	-0.269	0.317
-286.574	10.086	0.197	0.148
-285.559	-74.370	-0.357	0.127
-284.545	-72.543	0.217	0.079
-283.530	255.390	-0.086	-0.146
-282.516	-93.453	0.416	0.114
-281.501	-119.351	-0.246	0.042
-280.486	-200.000	0.008	0.095
-279.472	-200.000	0.009	-0.272
-278.457	-188.800	-0.142	0.002
-277.443	-123.802	0.174	0.027
-276.428	51.762	0.234	0.219
-275.413	-143.785	0.040	0.004
-274.399	-200.000	0.051	-0.365
-273.384	-78.147	0.265	0.090
-272.370	800.000	-0.135	-0.408
-271.355	-114.960	0.192	-0.036
-270.340	-79.959	-0.183	0.060
-269.326	800.000	-0.050	0.149
-268.311	13.070	0.195	0.149
-267.297	-200.000	0.020	0.110
-266.282	-200.000	0.024	-0.142
-265.267	-27.830	0.115	-0.066
-264.253	-95.021	0.069	-0.018
-263.238	48.582	-0.034	0.032
-262.224	-200.000	0.030	0.149
-261.209	140.725	-0.033	0.042
-260.195	477.342	-0.163	0.363
-259.180	-200.000	-0.031	-0.253
-258.165	800.000	0.037	0.145
-257.151	-200.000	0.011	0.130
-256.136	5.240	0.288	-0.209
-255.122	-200.000	0.063	0.353
-254.107	800.000	-0.140	0.436
-253.092	667.779	0.062	-0.159
-252.078	381.394	-0.072	-0.145
-251.063	-91.692	-0.127	0.035
-250.049	105.458	0.231	0.269
-249.034	553.134	0.119	0.281
-248.019	532.297	0.162	0.378
-247.005	-77.492	-0.052	-0.018
-245.990	8.823	-0.181	-0.135
-244.976	-47.226	-0.355	-0.170
-243.961	-153.578	-0.038	-0.003
-242.946	94.135	-0.252	-0.281
-241.932	-79.700	-0.424	0.141
-240.917	91.727	-0.118	0.131
-239.903	-70.599	0.215	0.080
-238.888	-18.066	-0.312	-0.193
-237.873	62.674	0.028	0.027
-236.859	-48.125	0.180	0.085
-235.844	-18.242	-0.206	-0.127
-234.830	-30.246	-0.103	0.058
-233.815	-200.000	0.013	-0.093
-232.800	194.878	-0.136	-0.203
-231.786	-38.758	0.095	-0.049
-230.771	256.253	-0.128	0.217
-229.757	171.050	0.163	0.230
-228.742	236.829	-0.130	-0.211
-227.727	-200.000	0.021	-0.121
-226.713	59.646	0.333	-0.323
-225.698	309.908	-0.101	-0.185
-224.684	70.178	-0.162	0.165
-223.669	-200.000	-0.002	-0.067
-222.655	71.628	-0.097	0.099
-221.640	800.000	0.082	0.231
-220.625	-10.779	0.450	0.292
-219.611	-200.000	-0.002	-0.086
-218.596	-86.137	0.242	-0.073
-217.582	44.754	-0.395	-0.357
-216.567	433.917	-0.101	0.215
-215.552	50.106	-0.287	0.266
-214.538	89.333	-0.152	0.166
-213.523	-75.798	0.253	0.088
-212.509	-200.000	0.040	-0.182
-211.494	-140.681	0.041	-0.004
-210.479	628.578	0.125	-0.311
-209.465	800.000	-0.051	-0.186
-208.450	275.324	0.171	0.298
-207.436	-124.857	0.365	0.055
-206.421	-17.618	0.093	0.057
-205.406	311.259	0.103	-0.190
-204.392	-56.939	0.191	-0.083
-203.377	211.026	-0.120	0.186
-202.363	456.678	0.169	-0.369
-201.348	-103.578	0.244	0.056
-200.333	793.987	-0.052	-0.141
-199.319	170.040	0.132	-0.186
-198.304	-26.082	-0.207	0.120
-197.290	582.588	-0.055	0.133
-196.275	-96.641	-0.286	-0.074
-195.260	-47.806	-0.234	-0.111
-194.246	-200.000	-0.015	0.102
-193.231	275.805	-0.097	-0.170
-192.217	213.342	-0.080	0.125
-191.202	-200.000	0.062	0.280
-190.187	-39.284	-0.084	-0.043
-189.173	454.725	-0.099	0.215
-188.158	-45.888	-0.282	0.137
-187.144	-200.000	0.006	0.029
-186.129	-62.476	0.363	-0.148
-185.114	-200.000	-0.011	-0.176
-184.100	60.817	0.070	-0.068
-183.085	82.024	0.115	-0.123
-182.071	169.114	-0.291	-0.408
-181.056	-200.000	0.037	0.342
-180.042	76.083	0.389	-0.404
-179.027	62.915	-0.069	-0.068
-178.012	-99.211	-0.105	0.026
-176.998	800.000	-0.149	-0.460
-175.983	79.284	-0.053	-0.056
-174.969	-200.000	0.020	0.232
-173.954	-43.984	0.255	-0.126
-172.939	-200.000	0.003	-0.116
-171.925	393.357	0.071	-0.145
-170.910	-56.628	0.168	0.073
-169.896	-200.000	-0.025	0.212
-168.881	88.330	-0.041	0.045
-167.866	175.895	0.198	-0.281
-166.852	640.597	0.177	0.442
-165.837	148.626	0.223	0.295
-164.823	-46.358	-0.169	-0.082
-163.808	-110.344	-0.270	0.055
-162.793	-106.272	0.479	0.105
-161.779	-96.467	0.169	-0.044
-160.764	-109.881	0.263	-0.054
-159.750	-36.315	-0.260	-0.138
-158.735	-23.924	0.082	0.048
-157.720	-157.177	0.102	-0.006
-156.706	498.922	-0.069	-0.156
-155.691	619.832	-0.116	0.286
-154.677	38.322	0.226	-0.197
-153.662	-200.000	0.082	0.368
-152.647	767.868	0.023	-0.062
-151.633	-200.000	0.021	0.234
-150.618	203.817	0.117	-0.177
-149.604	-82.142	0.244	0.078
-148.589	-200.000	0.064	-0.336
-147.574	9.924	-0.156	0.116
-146.560	54.483	-0.086	-0.081
-145.545	268.108	0.146	0.250
-144.531	-156.747	-0.016	0.001
-143.516	-136.229	0.441	0.051
-142.502	800.000	-0.050	0.178
-141.487	-77.162	-0.321	-0.110
-140.472	-49.361	0.098	0.046
-139.458	-200.000	0.060	0.347
-138.443	-166.177	0.294	-0.012
-137.429	-123.007	-0.129	-0.020
-136.414	212.688	0.227	-0.351
-135.399	66.963	-0.108	-0.108
-134.385	1.398	0.092	-0.065
-133.370	800.000	-0.016	-0.045
-132.356	-106.297	-0.131	-0.029
-131.341	800.000	-0.028	-0.109
-130.326	82.048	0.346	-0.367
-129.312	2.338	-0.271	0.192
-128.297	-200.000	-0.053	0.327
-127.283	199.436	0.174	0.262
-126.268	-200.000	0.053	0.313
-125.253	-38.603	0.074	-0.038
-124.239	471.836	-0.074	0.163
-123.224	98.659	0.151	-0.171
-122.210	-143.359	-0.094	-0.009
