DTS Sentinel unit serial number:	SN413079Multiplexer serial number:	ORYXHardware model number:	OX4-SRSoftware version number:	ORYX F/W v4.00 Oryx Data Collector v3.7.2.0data status	okinstallation	princeton_trtdifferential loss correction	single-endedforward channel	channel 4reverse channel	N/Adate	2019/09/15time	06:25:35forward acquisition time	60.00reverse acquisition time	0.00gamma	496.2192k internal	0.2311k external	0.2311temperature offset calibration	1.0037default loss term (dB/km)	0.3790temperature slope calibration	1.0000multiplexer offset coefficient	1.0000multiplexer slope coefficient	1.0000fibre end	0.00T internal ref (°C)	30.50T ext. ref 1 (°C)	4.85T ext. ref 2 (°C)	25.34length (m)	temperature (°C)	Stokes	anti-Stokes-747.200	274.282	-0.123	-0.221
-746.185	268.488	-0.064	-0.113
-745.171	-148.125	0.117	-0.010
-744.156	-200.000	0.028	-0.181
-743.142	313.227	0.049	0.094
-742.127	166.536	-0.145	0.209
-741.112	130.009	0.107	0.139
-740.098	-1.791	-0.037	0.026
-739.083	-25.032	0.346	-0.208
-738.069	-115.032	-0.198	-0.038
-737.054	-77.319	0.220	0.078
-736.039	17.637	-0.206	-0.167
-735.025	188.235	-0.177	-0.269
-734.010	312.790	-0.176	0.335
-732.996	115.330	-0.128	0.158
-731.981	48.692	-0.116	0.110
-730.966	145.882	-0.131	0.179
-729.952	95.167	0.290	0.335
-728.937	239.918	-0.159	-0.269
-727.923	519.241	-0.047	0.111
-726.908	-101.318	-0.319	-0.079
-725.894	45.230	-0.197	-0.184
-724.879	-50.320	-0.191	-0.092
-723.864	-200.000	0.002	0.134
-722.850	-183.205	0.221	-0.004
-721.835	800.000	-0.059	0.216
-720.821	-126.453	-0.352	-0.053
-719.806	-200.000	0.008	-0.338
-718.791	67.614	-0.141	0.146
-717.777	253.727	0.140	0.243
-716.762	-100.931	-0.201	-0.050
-715.748	-56.656	0.143	-0.064
-714.733	-154.722	-0.137	0.009
-713.718	22.003	-0.180	0.149
-712.704	-11.892	-0.434	-0.288
-711.689	-128.021	-0.181	0.026
-710.675	-51.435	0.049	-0.023
-709.660	-200.000	-0.053	0.302
-708.645	106.923	0.030	0.037
-707.631	-200.000	-0.045	-0.201
-706.616	-85.501	-0.300	0.095
-705.602	800.000	0.063	-0.225
-704.587	125.283	-0.093	0.118
-703.572	-99.992	0.072	-0.018
-702.558	-3.875	-0.091	0.064
-701.543	-23.274	-0.107	0.065
-700.529	-200.000	0.010	0.183
-699.514	272.898	0.058	0.103
-698.499	64.107	-0.200	-0.203
-697.485	71.386	-0.038	-0.040
-696.470	86.546	-0.230	-0.257
-695.456	366.636	-0.098	0.199
-694.441	800.000	-0.070	0.276
-693.426	104.321	-0.067	0.080
-692.412	-161.392	-0.273	0.014
-691.397	800.000	-0.033	-0.104
-690.383	797.255	0.034	0.096
-689.368	47.777	0.147	-0.139
-688.354	-200.000	0.000	0.020
-687.339	-48.072	-0.341	-0.167
-686.324	-48.982	0.230	-0.111
-685.310	-94.580	-0.199	0.055
-684.295	-200.000	-0.028	0.200
-683.281	-107.944	0.293	-0.065
-682.266	-105.385	-0.307	-0.071
-681.251	317.258	0.135	-0.258
-680.237	-82.792	0.289	0.094
-679.222	92.588	0.117	0.133
-678.208	-47.067	-0.108	0.053
-677.193	5.819	0.058	0.043
-676.178	431.653	-0.173	-0.379
-675.164	79.251	-0.089	-0.097
-674.149	536.993	0.087	-0.209
-673.135	-69.387	-0.214	0.083
-672.120	23.902	0.166	0.138
-671.105	-200.000	0.045	0.222
-670.091	656.191	0.036	0.093
-669.076	-74.901	0.141	0.051
-668.062	88.394	0.211	0.238
-667.047	-54.955	-0.193	0.088
-666.032	103.426	0.315	0.374
-665.018	162.375	-0.202	-0.286
-664.003	-200.000	0.014	-0.208
-662.989	-200.000	-0.015	0.139
-661.974	-129.657	-0.443	-0.062
-660.959	-200.000	-0.091	0.409
-659.945	-196.279	-0.225	-0.002
-658.930	33.666	0.065	-0.057
-657.916	31.572	-0.294	0.256
-656.901	-200.000	0.025	-0.117
-655.886	-83.234	-0.164	-0.053
-654.872	-52.342	0.181	0.085
-653.857	-200.000	-0.042	0.236
-652.843	-24.179	-0.179	-0.108
-651.828	-117.373	-0.061	-0.011
-650.814	-200.000	0.029	-0.207
-649.799	-154.937	-0.375	0.025
-648.784	343.567	0.189	0.374
-647.770	79.115	-0.273	-0.296
-646.755	-24.836	-0.161	0.097
-645.741	-200.000	0.061	0.477
-644.726	695.590	-0.059	-0.156
-643.711	-200.000	0.026	0.192
-642.697	130.708	-0.304	0.394
-641.682	-66.900	0.121	-0.048
-640.668	-16.384	-0.095	-0.061
-639.653	-4.905	0.029	-0.020
-638.638	70.423	-0.096	-0.101
-637.624	-9.369	-0.197	0.133
-636.609	-14.588	-0.107	-0.070
-635.595	-162.030	-0.101	-0.005
-634.580	-200.000	0.016	0.135
-633.565	365.195	0.090	-0.184
-632.551	800.000	0.058	-0.218
-631.536	31.399	0.216	-0.187
-630.522	445.851	-0.110	0.245
-629.507	-141.326	-0.271	-0.028
-628.492	167.860	0.057	0.082
-627.478	37.504	-0.237	-0.212
-626.463	26.306	-0.130	0.109
-625.449	-51.967	-0.125	-0.059
-624.434	-46.012	-0.165	0.082
-623.419	-166.964	-0.303	-0.013
-622.405	800.000	0.024	-0.092
-621.390	-112.902	0.158	-0.032
-620.376	800.000	-0.079	-0.333
-619.361	224.060	0.061	0.100
-618.346	-34.720	-0.255	0.141
-617.332	-95.939	0.118	-0.032
-616.317	-6.674	0.215	-0.148
-615.303	14.338	0.204	0.161
-614.288	-200.000	-0.011	0.136
-613.273	600.310	-0.037	0.092
-612.259	43.930	0.196	0.182
-611.244	-183.833	0.333	0.006
-610.230	-133.622	0.308	-0.039
-609.215	-16.651	-0.266	0.170
-608.201	693.754	-0.084	-0.222
-607.186	-26.059	0.327	-0.194
-606.171	59.265	0.055	0.055
-605.157	800.000	-0.133	0.561
-604.142	419.450	0.164	0.355
-603.128	-125.429	0.121	0.019
-602.113	-140.045	0.149	0.016
-601.098	99.541	-0.172	-0.201
-600.084	800.000	0.093	0.344
-599.069	-200.000	0.012	0.353
-598.055	-200.000	-0.003	-0.086
-597.040	589.715	0.124	0.308
-596.025	-35.740	-0.246	0.135
-595.011	800.000	0.058	0.225
-593.996	-52.398	-0.199	-0.093
-592.982	-200.000	-0.001	0.404
-591.967	-200.000	-0.010	-0.339
-590.952	658.023	0.011	-0.029
-589.938	146.517	-0.089	-0.121
-588.923	-92.824	0.247	0.070
-587.909	800.000	-0.096	-0.378
-586.894	-200.000	0.021	0.099
-585.879	-200.000	-0.028	-0.201
-584.865	-200.000	-0.030	-0.304
-583.850	358.310	0.043	-0.087
-582.836	759.754	0.030	0.082
-581.821	194.738	0.084	-0.128
-580.806	79.699	0.165	-0.178
-579.792	-200.000	-0.026	-0.118
-578.777	-200.000	-0.001	-0.096
-577.763	21.345	-0.145	0.119
-576.748	243.078	-0.155	-0.263
-575.733	297.564	0.170	0.316
-574.719	-87.006	0.327	-0.101
-573.704	-200.000	-0.009	0.126
-572.690	411.065	0.064	0.137
-571.675	34.258	-0.222	0.196
-570.661	151.887	0.064	0.088
-569.646	-200.000	0.076	-0.387
-568.631	55.344	0.144	0.141
-567.617	278.378	-0.197	0.354
-566.602	800.000	-0.090	-0.298
-565.588	800.000	-0.129	-0.567
-564.573	104.586	0.231	-0.274
-563.558	739.969	0.064	-0.174
-562.544	355.789	0.202	-0.406
-561.529	-0.490	-0.287	0.205
-560.515	216.469	-0.015	0.024
-559.500	-20.496	0.237	-0.147
-558.485	-200.000	0.053	0.238
-557.471	-200.000	-0.032	0.179
-556.456	-74.301	0.142	-0.052
-555.442	-44.488	-0.153	-0.077
-554.427	-25.150	0.218	0.130
-553.412	-75.306	-0.376	0.135
-552.398	-200.000	0.015	-0.190
-551.383	292.122	0.067	0.122
-550.369	-200.000	0.031	0.172
-549.354	-88.571	0.247	0.074
-548.339	-200.000	0.018	0.122
-547.325	-55.862	0.179	0.080
-546.310	588.583	-0.119	-0.296
-545.296	339.798	-0.083	0.163
-544.281	-96.526	0.166	-0.044
-543.266	-113.774	0.113	0.022
-542.252	-4.544	0.108	0.075
-541.237	-15.327	-0.114	-0.073
-540.223	-32.768	0.273	-0.153
-539.208	-200.000	0.010	0.175
-538.193	-170.131	0.151	0.005
-537.179	348.471	-0.092	-0.182
-536.164	307.920	-0.102	-0.192
-535.150	800.000	0.038	-0.119
-534.135	800.000	0.024	-0.073
-533.121	-200.000	-0.036	-0.260
-532.106	65.768	-0.279	0.285
-531.091	-22.412	-0.294	-0.179
-530.077	59.269	-0.133	-0.132
-529.062	296.556	-0.105	-0.193
-528.048	7.908	-0.310	-0.234
-527.033	473.978	0.063	0.142
-526.018	-49.121	-0.372	0.179
-525.004	156.561	0.196	0.272
-523.989	-200.000	0.023	0.220
-522.975	-66.235	-0.152	-0.061
-521.960	-130.895	-0.193	-0.026
-520.945	800.000	0.083	-0.283
-519.931	44.176	-0.346	-0.319
-518.916	-39.231	-0.460	0.243
-517.902	-59.069	-0.162	0.070
-516.887	122.905	0.309	0.389
-515.872	800.000	0.171	0.554
-514.858	-163.175	0.419	0.020
-513.843	149.660	-0.100	0.137
-512.829	-19.658	0.175	-0.109
-511.814	10.770	-0.097	-0.074
-510.799	-86.275	-0.373	-0.116
-509.785	103.470	-0.138	-0.163
-508.770	-1.838	0.315	0.223
-507.756	-46.020	0.216	-0.107
-506.741	72.633	-0.114	0.120
-505.726	-150.251	-0.076	-0.006
-504.712	-60.765	0.065	-0.028
-503.697	681.183	-0.070	-0.183
-502.683	-200.000	-0.004	0.406
-501.668	-200.000	0.028	0.173
-500.653	82.557	-0.230	-0.251
-499.639	-80.177	0.321	0.108
-498.624	-38.608	-0.296	0.157
-497.610	-115.218	0.057	-0.011
-496.595	548.789	-0.070	-0.169
-495.581	38.082	-0.337	0.301
-494.566	102.768	-0.082	-0.097
-493.551	102.717	-0.268	0.315
-492.537	-3.396	-0.270	0.189
-491.522	637.713	0.012	-0.030
-490.508	54.808	0.040	0.039
-489.493	116.940	-0.239	-0.296
-488.478	93.783	0.158	0.180
-487.464	-76.175	-0.127	-0.045
-486.449	-200.000	0.031	-0.477
-485.435	-133.352	0.421	0.053
-484.420	30.541	-0.250	0.214
-483.405	-139.307	0.215	-0.023
-482.391	55.396	0.122	-0.118
-481.376	253.858	-0.105	-0.180
-480.362	298.244	0.149	-0.275
-479.347	800.000	0.006	0.018
-478.332	-74.296	0.253	0.092
-477.318	-191.359	0.209	0.002
-476.303	30.979	-0.157	-0.135
-475.289	-136.419	0.040	-0.005
-474.274	117.504	-0.181	-0.224
-473.259	175.986	0.228	0.332
-472.245	-39.711	0.386	-0.203
-471.230	-36.603	-0.043	0.023
-470.216	77.352	-0.095	0.102
-469.201	-92.623	0.493	-0.139
-468.186	800.000	-0.030	-0.098
-467.172	-200.000	0.009	-0.164
-466.157	-200.000	0.016	0.308
-465.143	-32.933	0.118	0.066
-464.128	156.047	0.184	-0.255
-463.113	-21.712	-0.164	-0.100
-462.099	-128.734	0.422	0.060
-461.084	-29.338	0.241	0.138
-460.070	800.000	0.055	0.190
-459.055	-104.956	-0.155	-0.036
-458.040	-36.367	0.303	-0.164
-457.026	24.094	-0.159	0.132
-456.011	121.063	0.016	-0.020
-454.997	-85.907	0.216	0.067
-453.982	-11.698	-0.120	0.079
-452.968	-99.486	-0.297	-0.075
-451.953	800.000	-0.076	0.217
-450.938	101.006	0.071	0.083
-449.924	-200.000	-0.010	0.303
-448.909	497.557	-0.184	-0.425
-447.895	251.297	-0.067	-0.115
-446.880	-200.000	0.018	-0.195
-445.865	-77.864	-0.184	0.064
-444.851	800.000	0.036	0.148
-443.836	291.675	0.106	0.193
-442.822	-200.000	-0.002	0.042
-441.807	307.296	0.122	-0.229
-440.792	239.386	-0.157	0.263
-439.778	198.753	0.166	0.255
-438.763	211.727	0.128	0.202
-437.749	159.777	0.099	0.138
-436.734	-128.210	-0.155	-0.022
-435.719	-107.717	-0.454	0.099
-434.705	226.170	-0.172	0.281
-433.690	800.000	0.129	0.382
-432.676	-49.583	0.035	0.017
-431.661	85.537	0.209	-0.230
-430.646	-34.144	0.109	-0.060
-429.632	-126.626	0.185	-0.027
-428.617	-143.195	-0.162	0.016
-427.603	-196.333	0.262	-0.002
-426.588	-78.179	0.121	0.042
-425.573	-97.879	0.139	0.036
-424.559	-27.540	-0.644	-0.375
-423.544	168.197	0.075	-0.107
-422.530	129.178	-0.115	0.147
-421.515	-75.651	-0.177	-0.063
-420.500	800.000	0.037	-0.146
-419.486	-91.405	-0.212	-0.061
-418.471	-136.569	-0.259	-0.030
-417.457	-200.000	-0.005	-0.104
-416.442	367.624	-0.115	-0.233
-415.428	67.235	-0.013	0.013
-414.413	13.190	0.193	0.150
-413.398	-20.673	-0.183	0.113
-412.384	650.340	-0.119	-0.306
-411.369	-200.000	-0.022	-0.184
-410.355	-97.614	0.327	0.085
-409.340	-200.000	-0.075	-0.394
-408.325	473.548	-0.063	-0.142
-407.311	-200.000	0.050	0.268
-406.296	87.464	0.092	-0.101
-405.282	474.470	-0.062	-0.139
-404.267	800.000	-0.028	-0.098
-403.252	79.001	0.206	0.221
-402.238	800.000	0.059	-0.175
-401.223	800.000	-0.021	0.090
-400.209	-2.826	0.203	-0.142
-399.194	-2.255	0.229	0.161
-398.179	800.000	-0.019	0.063
-397.165	-200.000	-0.007	-0.138
-396.150	-140.286	0.226	0.024
-395.136	42.021	0.054	0.049
-394.121	-173.940	0.259	-0.008
-393.106	0.370	-0.135	-0.096
-392.092	-126.650	-0.079	0.012
-391.077	-200.000	-0.017	-0.200
-390.063	655.319	-0.186	0.478
-389.048	-104.636	-0.076	0.018
-388.033	-45.710	0.113	0.056
-387.019	106.604	-0.058	0.068
-386.004	-55.709	0.305	-0.136
-384.990	-63.470	0.169	-0.069
-383.975	-200.000	-0.035	-0.242
-382.960	61.005	-0.091	0.090
-381.946	-97.672	-0.191	0.050
-380.931	-161.901	-0.185	-0.009
-379.917	-110.679	-0.282	-0.058
-378.902	131.195	-0.068	-0.088
-377.888	-104.408	0.218	-0.050
-376.873	800.000	0.107	0.309
-375.858	-200.000	-0.013	0.118
-374.844	124.948	0.105	-0.133
-373.829	-82.459	-0.109	-0.035
-372.815	-1.313	0.238	-0.168
-371.800	48.590	0.197	0.185
-370.785	177.455	-0.115	-0.168
-369.771	-118.150	0.373	-0.066
-368.756	-200.000	0.013	0.079
-367.742	34.257	-0.229	0.200
-366.727	144.320	0.280	0.374
-365.712	79.771	-0.282	0.303
-364.698	64.539	-0.108	0.108
-363.683	-41.866	0.112	0.058
-362.669	-3.688	-0.317	-0.220
-361.654	35.835	-0.289	-0.254
-360.639	-200.000	0.005	0.249
-359.625	-48.338	0.358	-0.173
-358.610	-129.660	-0.095	-0.013
-357.596	-54.929	-0.053	-0.024
-356.581	316.889	0.072	0.137
-355.566	41.329	-0.175	0.158
-354.552	-17.095	-0.087	-0.055
-353.537	-19.509	-0.297	0.184
-352.523	388.319	-0.080	-0.166
-351.508	-165.531	-0.260	0.011
-350.493	26.451	0.179	0.150
-349.479	-102.716	-0.132	0.031
-348.464	-52.258	0.203	-0.094
-347.450	29.864	-0.137	-0.116
-346.435	16.897	0.102	0.080
-345.420	800.000	0.075	0.240
-344.406	-56.652	-0.070	0.031
-343.391	674.402	0.153	-0.398
-342.377	-134.721	0.147	-0.018
-341.362	32.572	0.171	-0.147
-340.348	438.203	-0.169	-0.368
-339.333	-25.383	-0.192	-0.113
-338.318	71.168	-0.269	-0.278
-337.304	-153.963	-0.149	-0.010
-336.289	-60.387	-0.150	0.064
-335.275	135.208	0.136	0.177
-334.260	-120.357	0.166	0.028
-333.245	27.023	0.231	0.193
-332.231	284.994	0.101	0.182
-331.216	-6.859	-0.108	-0.074
-330.202	-90.346	-0.046	0.013
-329.187	800.000	0.041	-0.165
-328.172	-176.585	0.243	-0.006
-327.158	70.686	0.271	-0.280
-326.143	50.997	-0.195	0.184
-325.129	-6.783	0.229	-0.156
-324.114	-40.251	0.082	0.043
-323.099	-200.000	0.004	0.231
-322.085	72.743	-0.226	-0.235
-321.070	150.123	0.141	-0.191
-320.056	-161.618	-0.261	-0.013
-319.041	-200.000	0.005	-0.131
-318.026	-42.520	-0.224	-0.114
-317.012	287.284	0.082	-0.148
-315.997	-142.114	0.112	-0.011
-314.983	56.985	0.076	-0.074
-313.968	-200.000	-0.016	0.183
-312.953	-5.269	-0.162	0.111
-311.939	311.873	-0.085	-0.158
-310.924	183.095	0.225	0.332
-309.910	800.000	-0.051	0.167
-308.895	3.756	-0.062	-0.045
-307.880	-121.695	-0.126	0.021
-306.866	107.884	-0.227	0.270
-305.851	522.588	0.140	0.329
-304.837	-200.000	0.089	-0.394
-303.822	591.953	0.120	0.295
-302.807	-80.397	-0.143	-0.048
-301.793	34.086	0.105	0.091
-300.778	-51.333	0.050	-0.023
-299.764	-3.313	0.054	0.037
-298.749	-200.000	-0.035	0.265
-297.735	773.734	0.046	-0.125
-296.720	-200.000	0.032	0.226
-295.705	800.000	-0.033	0.110
-294.691	-200.000	-0.025	-0.601
-293.676	-103.086	0.122	0.029
-292.662	-103.264	0.194	0.046
-291.647	-200.000	0.001	-0.164
-290.632	-49.386	0.236	-0.112
-289.618	-27.444	-0.055	0.032
-288.603	57.890	0.074	0.073
-287.589	108.138	0.338	-0.402
-286.574	18.659	-0.189	0.151
-285.559	-200.000	-0.064	0.292
-284.545	-129.778	0.168	-0.023
-283.530	-66.083	0.189	0.075
-282.516	800.000	0.075	0.230
-281.501	-200.000	0.007	0.088
-280.486	-99.186	-0.346	-0.087
-279.472	51.724	-0.211	-0.200
-278.457	43.970	-0.057	0.052
-277.443	-47.969	0.250	0.120
-276.428	110.129	-0.242	-0.289
-275.413	800.000	0.085	-0.326
-274.399	-121.345	-0.139	-0.023
-273.384	800.000	-0.060	0.221
-272.370	45.400	-0.184	-0.169
-271.355	72.805	0.111	-0.115
-270.340	-134.149	0.447	-0.055
-269.326	-183.547	-0.545	-0.009
-268.311	800.000	-0.082	0.319
-267.297	-63.223	0.119	-0.049
-266.282	-31.152	-0.095	0.054
-265.267	800.000	0.071	-0.298
-264.253	-54.788	-0.051	-0.023
-263.238	204.093	-0.048	0.074
-262.224	-77.430	-0.191	-0.066
-261.209	634.065	0.169	-0.426
-260.195	-84.594	0.229	0.072
-259.180	-200.000	0.001	0.261
-258.165	-171.122	0.113	-0.004
-257.151	800.000	-0.121	0.474
-256.136	-200.000	-0.003	0.234
-255.122	18.759	0.070	0.056
-254.107	60.939	0.100	0.099
-253.092	170.851	0.091	0.129
-252.078	55.639	0.410	0.395
-251.063	-114.421	0.095	-0.018
-250.049	-163.401	0.230	-0.011
-249.034	-156.498	-0.211	-0.013
-248.019	-34.133	-0.163	0.089
-247.005	5.274	-0.149	0.109
-245.990	-166.742	0.286	0.012
-244.976	8.267	-0.081	0.060
-243.961	800.000	-0.108	0.313
-242.946	3.051	0.215	-0.155
-241.932	-160.496	-0.026	0.001
-240.917	161.024	0.140	-0.195
-239.903	-71.662	-0.189	-0.070
-238.888	-18.918	-0.039	0.024
-237.873	-160.250	-0.195	-0.010
-236.859	37.758	-0.215	-0.190
-235.844	-200.000	0.040	0.189
-234.830	-200.000	-0.073	0.446
-233.815	-188.379	-0.256	-0.003
-232.800	16.820	-0.164	-0.129
-231.786	459.568	-0.075	-0.166
-230.771	264.402	0.184	-0.319
-229.757	-113.695	-0.007	0.001
-228.742	120.420	-0.348	0.430
-227.727	-200.000	0.041	-0.254
-226.713	693.890	0.150	-0.393
-225.698	-70.044	0.170	0.064
-224.684	-36.377	0.144	0.077
-223.669	267.980	-0.039	0.069
-222.655	-159.945	-0.288	0.016
-221.640	-77.719	0.147	0.051
-220.625	170.145	-0.117	-0.166
-219.611	157.538	0.032	-0.043
-218.596	800.000	0.081	0.264
-217.582	-78.308	-0.325	-0.111
-216.567	-200.000	-0.005	0.157
-215.552	99.486	-0.166	0.191
-214.538	-119.257	0.223	-0.039
-213.523	50.636	-0.148	0.139
-212.509	-187.197	-0.330	-0.004
-211.494	-200.000	0.158	0.000
-210.479	146.098	-0.118	0.157
-209.465	183.317	-0.030	0.044
-208.450	-200.000	-0.040	-0.282
-207.436	-39.213	0.272	0.142
-206.421	-72.547	-0.177	0.065
-205.406	342.760	-0.121	-0.235
-204.392	800.000	-0.019	0.083
-203.377	800.000	-0.025	-0.104
-202.363	-78.696	0.192	-0.065
-201.348	149.754	0.083	-0.112
-200.333	99.895	0.224	-0.257
-199.319	-200.000	-0.024	-0.155
-198.304	590.247	0.083	-0.204
-197.290	-30.744	0.183	-0.103
-196.275	675.711	-0.102	-0.262
-195.260	27.030	0.184	0.154
-194.246	-115.284	-0.042	-0.008
-193.231	-114.927	-0.224	0.042
-192.217	708.471	0.047	-0.125
-191.202	-68.942	0.309	-0.118
-190.187	-52.455	0.302	0.139
-189.173	-156.133	0.162	0.010
-188.158	-113.165	0.258	-0.051
-187.144	-67.721	-0.225	-0.088
-186.129	-60.158	0.250	-0.106
-185.114	293.690	-0.164	-0.298
-184.100	50.310	0.048	-0.045
-183.085	-94.642	-0.156	-0.042
-182.071	-200.000	0.011	0.052
-181.056	-0.852	0.201	-0.141
-180.042	25.864	-0.025	0.021
-179.027	-69.771	-0.192	0.073
-178.012	-200.000	0.016	0.107
-176.998	-51.630	0.068	0.031
-175.983	9.836	-0.053	-0.040
-174.969	-66.242	-0.137	-0.054
-173.954	-8.244	-0.147	0.098
-172.939	40.504	0.414	-0.370
-171.925	137.348	0.097	0.126
-170.910	81.461	0.109	0.117
-169.896	548.605	0.036	0.087
-168.881	564.725	-0.136	-0.327
-167.866	382.326	-0.079	-0.161
-166.852	-65.465	-0.112	0.045
-165.837	35.806	0.127	0.111
-164.823	-28.598	0.194	-0.111
-163.808	-11.453	-0.019	0.013
-162.793	199.859	-0.048	-0.073
-161.779	87.250	-0.194	-0.213
-160.764	800.000	-0.024	-0.093
-159.750	107.185	0.138	-0.163
-158.735	-133.666	-0.287	-0.036
-157.720	-101.128	0.350	-0.085
-156.706	-200.000	-0.116	0.516
-155.691	794.698	-0.047	-0.129
-154.677	-137.803	-0.102	0.011
-153.662	212.753	-0.146	-0.228
-152.647	203.950	-0.094	0.144
-151.633	-135.069	0.295	-0.035
-150.618	-103.456	0.119	-0.028
-149.604	345.424	0.045	-0.088
-148.589	171.901	-0.133	-0.190
-147.574	68.683	0.177	0.180
-146.560	-200.000	-0.013	-0.097
-145.545	767.514	0.074	-0.200
-144.531	-200.000	0.020	-0.311
-143.516	-200.000	-0.070	-0.323
-142.502	-127.283	-0.268	0.039
-141.487	41.721	0.248	0.223
-140.472	-53.070	-0.316	-0.144
-139.458	-4.493	0.053	0.036
-138.443	122.714	0.067	0.083
-137.429	538.102	-0.216	0.508
-136.414	121.266	-0.218	-0.270
-135.399	33.463	-0.259	0.223
-134.385	-10.718	-0.109	0.072
-133.370	800.000	0.028	-0.110
-132.356	-94.838	0.106	0.028
-131.341	-67.544	0.360	0.140
-130.326	17.417	-0.137	0.108
-129.312	70.447	0.011	0.012
-128.297	72.132	-0.131	0.135
-127.283	36.209	0.212	-0.185
-126.268	-200.000	0.030	0.203
-125.253	39.477	0.403	0.358
-124.239	196.729	-0.044	-0.066
-123.224	68.222	-0.154	-0.157
-122.210	26.138	-0.201	0.167
-121.195	-54.375	0.235	-0.105
-120.180	64.162	-0.143	0.143
