DTS Sentinel unit serial number:	SN413079Multiplexer serial number:	ORYXHardware model number:	OX4-SRSoftware version number:	ORYX F/W v4.00 Oryx Data Collector v3.7.2.0data status	okinstallation	princeton_trtdifferential loss correction	single-endedforward channel	channel 4reverse channel	N/Adate	2019/09/14time	06:17:35forward acquisition time	60.00reverse acquisition time	0.00gamma	496.2192k internal	0.2322k external	0.2322temperature offset calibration	1.0140default loss term (dB/km)	0.3790temperature slope calibration	1.0000multiplexer offset coefficient	1.0000multiplexer slope coefficient	1.0000fibre end	0.00T internal ref (°C)	26.62T ext. ref 1 (°C)	3.40T ext. ref 2 (°C)	20.66length (m)	temperature (°C)	Stokes	anti-Stokes-747.200	-70.764	0.313	-0.119
-746.185	-37.363	-0.297	-0.160
-745.171	52.869	0.090	0.087
-744.156	-155.032	0.262	-0.017
-743.142	-114.634	-0.166	-0.032
-742.127	58.585	0.213	0.212
-741.112	287.652	-0.066	-0.120
-740.098	-31.771	-0.205	0.116
-739.083	-101.035	0.209	-0.052
-738.069	-9.220	-0.189	0.127
-737.054	-200.000	-0.003	0.051
-736.039	-20.106	-0.299	-0.186
-735.025	-18.751	-0.152	0.096
-734.010	-36.357	-0.188	-0.102
-732.996	309.340	-0.206	0.388
-731.981	-5.172	-0.268	-0.186
-730.966	800.000	0.027	0.076
-729.952	800.000	-0.058	-0.208
-728.937	774.794	-0.062	-0.170
-727.923	-200.000	-0.032	0.465
-726.908	-5.327	-0.100	0.069
-725.894	-101.573	-0.089	0.022
-724.879	63.401	-0.120	0.121
-723.864	-32.615	-0.251	-0.141
-722.850	-151.394	0.232	0.017
-721.835	-56.959	-0.257	0.114
-720.821	79.724	0.210	-0.228
-719.806	-62.804	-0.342	-0.143
-718.791	152.046	-0.158	-0.218
-717.777	387.207	-0.123	0.256
-716.762	-72.903	0.318	-0.118
-715.748	507.501	0.065	-0.153
-714.733	-100.200	0.241	-0.060
-713.718	-66.232	-0.167	-0.067
-712.704	-186.507	0.038	-0.001
-711.689	-77.108	0.054	-0.019
-710.675	800.000	-0.045	-0.137
-709.660	307.178	-0.127	-0.238
-708.645	68.119	-0.220	-0.227
-707.631	-83.218	-0.249	0.081
-706.616	-200.000	0.001	-0.018
-705.602	-200.000	-0.007	-0.213
-704.587	-11.111	-0.219	-0.146
-703.572	-59.828	-0.140	-0.060
-702.558	-168.686	-0.342	0.013
-701.543	-200.000	0.028	0.377
-700.529	-108.159	0.364	-0.080
-699.514	75.006	-0.172	0.183
-698.499	-134.413	0.044	-0.005
-697.485	800.000	-0.109	0.318
-696.470	-118.213	0.209	-0.037
-695.456	101.848	0.215	-0.253
-694.441	72.701	0.107	-0.113
-693.426	-200.000	-0.035	-0.182
-692.412	-59.017	0.306	-0.133
-691.397	-200.000	-0.013	0.092
-690.383	800.000	-0.042	-0.168
-689.368	209.854	0.088	-0.139
-688.354	800.000	-0.022	0.093
-687.339	-132.646	-0.215	0.028
-686.324	86.677	0.256	0.284
-685.310	-154.714	-0.183	0.012
-684.295	167.378	0.033	0.048
-683.281	48.714	-0.122	-0.115
-682.266	281.973	-0.061	0.109
-681.251	-200.000	-0.011	0.166
-680.237	18.919	0.160	0.129
-679.222	-200.000	-0.011	-0.201
-678.208	109.191	0.220	0.265
-677.193	11.507	0.125	-0.097
-676.178	9.916	-0.272	-0.208
-675.164	-200.000	0.052	0.264
-674.149	251.927	0.249	0.428
-673.135	168.717	0.126	-0.180
-672.120	800.000	0.052	0.211
-671.105	-80.512	0.113	0.038
-670.091	-29.888	0.103	-0.059
-669.076	-29.806	0.229	-0.132
-668.062	56.515	0.171	0.168
-667.047	800.000	0.132	0.409
-666.032	-162.874	0.204	0.010
-665.018	-143.917	0.328	-0.031
-664.003	134.585	0.279	0.364
-662.989	123.433	-0.053	-0.067
-661.974	800.000	0.088	-0.331
-660.959	-172.959	-0.258	-0.008
-659.945	-200.000	-0.005	0.188
-658.930	-12.529	0.208	-0.137
-657.916	-76.314	-0.253	-0.090
-656.901	39.695	0.173	0.156
-655.886	-185.669	0.208	0.003
-654.872	748.655	-0.053	0.143
-653.857	800.000	0.109	-0.400
-652.843	-109.569	-0.349	0.074
-651.828	-200.000	0.008	-0.167
-650.814	552.971	0.080	0.194
-649.799	-163.610	-0.332	0.016
-648.784	646.806	-0.040	0.103
-647.770	-200.000	-0.017	-0.198
-646.755	26.905	-0.094	-0.079
-645.741	202.508	0.089	0.138
-644.726	-57.428	-0.183	-0.081
-643.711	381.354	0.041	-0.084
-642.697	157.076	0.159	-0.222
-641.682	207.385	0.044	-0.070
-640.668	15.659	-0.151	-0.120
-639.653	-83.044	0.058	0.019
-638.638	102.294	0.131	-0.154
-637.624	286.368	-0.137	-0.250
-636.609	103.012	-0.066	-0.078
-635.595	-32.787	-0.123	0.069
-634.580	-156.629	-0.371	0.023
-633.565	71.655	0.071	0.074
-632.551	-23.181	0.247	0.149
-631.536	-129.188	0.224	0.031
-630.522	-105.266	-0.142	0.033
-629.507	-200.000	-0.023	-0.267
-628.492	-12.689	0.257	0.168
-627.478	800.000	-0.061	0.262
-626.463	-200.000	0.006	-0.208
-625.449	-151.832	-0.227	-0.017
-624.434	35.859	-0.214	-0.189
-623.419	-200.000	0.035	0.380
-622.405	432.689	-0.094	0.205
-621.390	-107.528	0.152	0.034
-620.376	-13.651	-0.241	-0.157
-619.361	-93.303	-0.077	0.021
-618.346	-11.366	0.050	0.033
-617.332	206.337	-0.082	0.129
-616.317	-39.973	-0.134	0.070
-615.303	-102.711	-0.172	-0.041
-614.288	-174.658	0.141	-0.004
-613.273	-99.326	-0.027	-0.007
-612.259	84.058	0.090	0.098
-611.244	6.084	0.244	0.182
-610.230	191.304	-0.118	0.179
-609.215	-115.512	0.137	0.026
-608.201	108.130	-0.087	0.104
-607.186	-89.962	0.213	0.063
-606.171	800.000	-0.055	0.196
-605.157	59.082	-0.150	-0.149
-604.142	-116.846	-0.058	-0.011
-603.128	-108.432	0.153	-0.033
-602.113	106.689	-0.030	0.036
-601.098	174.871	-0.128	-0.186
-600.084	276.319	-0.129	-0.230
-599.069	35.252	0.188	-0.165
-598.055	-62.671	-0.201	0.084
-597.040	-200.000	0.043	0.245
-596.025	-89.563	0.244	-0.072
-595.011	32.298	-0.218	0.189
-593.996	-74.259	0.409	-0.148
-592.982	-159.258	-0.277	0.016
-591.967	-74.493	-0.082	-0.030
-590.952	66.429	-0.220	-0.224
-589.938	-147.144	-0.232	-0.020
-588.923	-200.000	0.002	0.287
-587.909	95.182	-0.276	-0.316
-586.894	800.000	-0.027	0.102
-585.879	257.977	-0.038	0.066
-584.865	-46.644	0.106	-0.052
-583.850	-200.000	-0.005	-0.099
-582.836	17.415	-0.102	0.082
-581.821	163.372	-0.274	0.386
-580.806	555.046	-0.072	0.173
-579.792	-200.000	-0.040	-0.204
-578.777	-140.184	-0.361	-0.038
-577.763	-158.268	0.331	0.019
-576.748	15.209	-0.255	-0.201
-575.733	-104.801	0.189	0.044
-574.719	532.655	-0.125	0.297
-573.704	-1.278	-0.227	0.161
-572.690	-200.000	0.029	-0.319
-571.675	-25.273	0.230	0.136
-570.661	-200.000	-0.029	-0.208
-569.646	-167.645	0.138	-0.006
-568.631	36.904	0.185	0.164
-567.617	-124.708	0.403	0.063
-566.602	27.775	0.176	-0.149
-565.588	76.639	-0.135	0.144
-564.573	-200.000	-0.032	0.144
-563.558	296.244	0.083	-0.152
-562.544	-84.015	-0.175	0.056
-561.529	373.092	0.045	-0.092
-560.515	55.902	-0.346	-0.337
-559.500	148.209	0.176	-0.238
-558.485	94.207	0.103	-0.117
-557.471	800.000	-0.016	0.059
-556.456	49.343	-0.095	-0.090
-555.442	216.497	-0.051	-0.081
-554.427	145.829	0.198	-0.266
-553.412	-200.000	0.101	-0.460
-552.398	132.887	0.153	-0.197
-551.383	465.194	0.108	-0.242
-550.369	-83.220	0.088	-0.028
-549.354	-21.549	0.113	0.069
-548.339	95.830	0.072	-0.082
-547.325	-200.000	-0.026	-0.256
-546.310	-200.000	-0.007	0.057
-545.296	-21.969	0.386	0.235
-544.281	-156.973	0.252	0.015
-543.266	-5.502	0.239	-0.164
-542.252	-132.662	0.107	0.014
-541.237	800.000	-0.025	0.101
-540.223	-200.000	0.035	0.153
-539.208	-149.408	-0.209	-0.017
-538.193	-200.000	-0.034	0.181
-537.179	-112.444	0.523	0.105
-536.164	185.549	-0.205	-0.306
-535.150	468.874	0.078	-0.175
-534.135	-88.184	-0.130	0.039
-533.121	-144.641	-0.123	0.011
-532.106	800.000	-0.009	-0.027
-531.091	-23.032	0.033	-0.020
-530.077	-22.330	0.257	0.156
-529.062	449.226	0.196	-0.433
-528.048	800.000	-0.093	0.318
-527.033	97.478	-0.059	0.068
-526.018	-50.122	-0.264	0.125
-525.004	42.374	-0.168	0.153
-523.989	-102.833	-0.236	0.056
-522.975	-147.238	-0.154	0.013
-521.960	-88.993	-0.237	0.070
-520.945	-200.000	-0.033	0.147
-519.931	-152.077	0.142	-0.010
-518.916	-200.000	-0.010	0.223
-517.902	800.000	0.012	-0.041
-516.887	-73.057	0.194	-0.071
-515.872	-106.529	0.178	0.040
-514.858	138.670	0.241	0.317
-513.843	144.393	-0.181	0.241
-512.829	-164.023	-0.248	0.012
-511.814	-34.850	-0.131	0.072
-510.799	626.041	0.089	-0.224
-509.785	800.000	0.100	-0.376
-508.770	503.336	-0.169	0.391
-507.756	800.000	-0.043	0.163
-506.741	72.146	-0.126	-0.132
-505.726	62.041	-0.061	0.060
-504.712	-26.793	0.314	-0.184
-503.697	361.660	0.023	-0.045
-502.683	-173.106	-0.187	0.006
-501.668	38.436	-0.030	0.027
-500.653	-17.809	-0.228	0.143
-499.639	577.304	-0.073	-0.177
-498.624	-25.169	-0.204	-0.121
-497.610	800.000	0.071	0.209
-496.595	67.623	-0.043	0.044
-495.581	-200.000	0.028	0.241
-494.566	-26.521	-0.322	0.189
-493.551	48.489	-0.230	-0.215
-492.537	-52.829	0.467	-0.215
-491.522	800.000	0.014	0.039
-490.508	-16.635	0.375	-0.237
-489.493	-200.000	-0.035	-0.222
-488.478	47.140	0.216	0.201
-487.464	183.186	-0.079	-0.116
-486.449	173.315	-0.047	-0.068
-485.435	561.006	0.018	0.044
-484.420	165.582	0.077	-0.109
-483.405	139.866	-0.260	-0.343
-482.391	-125.850	0.285	-0.043
-481.376	462.634	0.051	-0.114
-480.362	161.427	-0.198	-0.277
-479.347	-38.173	-0.334	-0.177
-478.332	-200.000	0.023	0.224
-477.318	206.494	-0.089	-0.138
-476.303	-118.153	0.270	0.048
-475.289	-197.638	-0.129	0.001
-474.274	-80.887	0.029	-0.010
-473.259	-112.287	0.135	-0.027
-472.245	-151.773	0.218	0.016
-471.230	498.204	-0.016	-0.037
-470.216	-120.923	0.291	-0.049
-469.201	123.595	0.149	0.187
-468.186	-117.089	-0.292	-0.053
-467.172	12.313	-0.088	-0.068
-466.157	-165.980	-0.254	-0.011
-465.143	-120.032	0.211	0.036
-464.128	800.000	-0.036	0.109
-463.113	-26.503	0.345	-0.202
-462.099	49.434	0.061	-0.057
-461.084	-198.881	0.099	-0.001
-460.070	-82.686	0.171	0.055
-459.055	-140.383	-0.461	0.048
-458.040	-118.561	0.118	-0.021
-457.026	133.979	-0.085	-0.109
-456.011	555.543	-0.052	0.124
-454.997	-200.000	-0.021	-0.177
-453.982	135.400	-0.113	0.146
-452.968	800.000	0.061	-0.208
-451.953	-170.196	-0.369	0.013
-450.938	-200.000	0.003	0.112
-449.924	78.245	0.142	0.151
-448.909	-57.158	-0.121	0.053
-447.895	-200.000	-0.059	0.258
-446.880	-0.231	0.275	0.195
-445.865	4.977	-0.253	0.186
-444.851	174.577	0.088	0.127
-443.836	-71.982	-0.141	-0.052
-442.822	800.000	-0.018	-0.055
-441.807	12.661	-0.348	0.268
-440.792	358.099	-0.100	-0.199
-439.778	117.392	-0.212	0.260
-438.763	-116.312	0.075	0.014
-437.749	-200.000	-0.003	0.195
-436.734	48.848	-0.158	-0.148
-435.719	-169.710	-0.091	-0.003
-434.705	-200.000	-0.007	-0.077
-433.690	-200.000	0.003	-0.229
-432.676	-125.602	0.285	0.043
-431.661	800.000	0.083	0.284
-430.646	-99.728	-0.254	-0.063
-429.632	528.988	0.123	0.289
-428.617	-200.000	-0.021	-0.119
-427.603	9.372	0.137	0.104
-426.588	-200.000	0.050	-0.324
-425.573	113.106	0.166	-0.201
-424.559	-74.543	-0.447	0.161
-423.544	548.719	0.065	0.156
-422.530	-86.034	-0.150	-0.046
-421.515	-69.845	-0.230	-0.087
-420.500	-124.914	0.483	-0.074
-419.486	495.065	-0.068	0.155
-418.471	371.437	0.091	0.184
-417.457	133.618	-0.124	-0.160
-416.442	-93.824	-0.163	0.045
-415.428	145.833	0.105	0.140
-414.413	-123.586	0.257	-0.041
-413.398	-82.281	0.068	-0.022
-412.384	-85.178	0.492	-0.153
-411.369	800.000	-0.075	0.207
-410.355	-18.286	-0.140	-0.087
-409.340	-178.287	-0.541	-0.013
-408.325	38.303	0.244	0.217
-407.311	104.623	-0.159	-0.186
-406.296	-45.518	0.099	0.049
-405.282	-65.204	0.112	0.045
-404.267	-75.456	0.062	0.022
-403.252	80.662	-0.333	0.358
-402.238	-171.031	0.296	-0.010
-401.223	-200.000	-0.046	0.272
-400.209	800.000	-0.025	0.109
-399.194	48.255	0.162	-0.151
-398.179	-200.000	-0.008	0.162
-397.165	342.522	-0.040	-0.079
-396.150	-200.000	0.032	-0.223
-395.136	-200.000	-0.036	-0.176
-394.121	-85.615	-0.237	-0.073
-393.106	-75.967	-0.114	-0.040
-392.092	800.000	0.066	-0.220
-391.077	-5.926	-0.118	-0.080
-390.063	-200.000	-0.013	-0.259
-389.048	-101.036	-0.242	0.059
-388.033	-65.860	-0.208	0.083
-387.019	213.132	-0.138	-0.217
-386.004	-200.000	-0.016	0.101
-384.990	-200.000	0.036	-0.235
-383.975	-110.778	0.128	-0.026
-382.960	-99.125	0.198	-0.050
-381.946	-200.000	0.054	-0.313
-380.931	-200.000	0.002	-0.177
-379.917	-187.108	-0.090	0.001
-378.902	-200.000	0.038	0.364
-377.888	-67.395	0.017	0.007
-376.873	-200.000	-0.018	0.116
-375.858	-200.000	-0.021	-0.252
-374.844	792.233	-0.051	0.139
-373.829	-146.510	0.206	-0.018
-372.815	-200.000	-0.043	0.504
-371.800	17.439	0.172	0.136
-370.785	-133.927	-0.364	-0.045
-369.771	31.084	0.239	0.204
-368.756	34.095	0.132	0.114
-367.742	-200.000	0.153	-0.680
-366.727	-88.571	0.108	0.032
-365.712	-16.456	0.080	-0.051
-364.698	261.666	0.128	-0.220
-363.683	-155.081	0.208	-0.014
-362.669	-200.000	0.013	-0.197
-361.654	-61.144	-0.256	-0.107
-360.639	212.286	0.246	-0.385
-359.625	278.336	-0.097	0.173
-358.610	800.000	-0.069	-0.230
-357.596	87.954	-0.059	0.065
-356.581	-111.854	-0.291	-0.058
-355.566	800.000	0.083	0.272
-354.552	-8.063	-0.111	-0.075
-353.537	101.094	0.230	-0.267
-352.523	-200.000	-0.040	0.203
-351.508	-4.938	-0.094	-0.065
-350.493	800.000	-0.029	-0.100
-349.479	434.558	-0.091	0.198
-348.464	-78.838	0.207	-0.070
-347.450	-44.800	0.123	-0.061
-346.435	146.885	0.185	-0.247
-345.420	68.257	0.149	-0.152
-344.406	137.060	-0.158	0.206
-343.391	-200.000	-0.023	-0.399
-342.377	115.445	0.097	-0.118
-341.362	-51.809	0.381	0.176
-340.348	-200.000	0.026	0.136
-339.333	7.952	-0.144	-0.107
-338.318	800.000	0.046	0.140
-337.304	24.447	-0.258	-0.212
-336.289	18.737	-0.067	0.053
-335.275	115.965	0.151	-0.184
-334.260	6.519	0.258	0.190
-333.245	-130.448	-0.334	0.045
-332.231	-4.585	0.152	0.104
-331.216	-200.000	0.085	0.419
-330.202	311.871	-0.125	0.233
-329.187	202.148	-0.118	0.182
-328.172	199.828	-0.200	0.306
-327.158	155.114	-0.226	0.309
-326.143	16.000	0.044	0.035
-325.129	69.893	-0.279	0.286
-324.114	-156.357	0.333	0.021
-323.099	-9.362	0.193	0.128
-322.085	-200.000	0.016	0.124
-321.070	736.240	-0.115	0.307
-320.056	54.675	0.170	0.163
-319.041	39.448	-0.212	-0.189
-318.026	-80.739	-0.281	-0.093
-317.012	258.249	0.255	0.436
-315.997	800.000	0.084	-0.236
-314.983	-128.122	0.112	0.016
-313.968	125.675	-0.078	-0.098
-312.953	-142.089	0.244	-0.024
-311.939	218.920	-0.082	0.130
-310.924	612.578	0.055	-0.136
-309.910	-22.829	0.165	-0.099
-308.895	-22.327	0.324	0.195
-307.880	-200.000	-0.009	-0.282
-306.866	389.832	-0.038	0.078
-305.851	-72.156	0.050	0.018
-304.837	-6.784	-0.049	0.033
-303.822	16.182	0.147	0.115
-302.807	28.385	-0.194	-0.163
-301.793	-200.000	-0.043	0.213
-300.778	368.371	0.095	0.191
-299.764	-63.341	-0.298	0.122
-298.749	15.647	0.228	-0.178
-297.735	-146.392	0.107	0.009
-296.720	215.520	0.111	0.175
-295.705	-173.009	-0.306	-0.009
-294.691	-162.358	0.116	-0.006
-293.676	13.100	0.093	0.072
-292.662	-101.706	0.092	-0.022
-291.647	13.956	-0.136	-0.105
-290.632	541.854	-0.082	0.195
-289.618	71.478	-0.184	-0.190
-288.603	75.073	-0.165	0.173
-287.589	-107.350	0.150	0.033
-286.574	80.309	-0.053	-0.057
-285.559	196.490	0.216	-0.327
-284.545	3.832	-0.287	0.208
-283.530	-73.947	0.172	-0.062
-282.516	33.861	0.106	-0.091
-281.501	-95.413	-0.203	-0.054
-280.486	227.440	0.080	-0.130
-279.472	-51.868	-0.173	0.080
-278.457	-200.000	-0.012	-0.344
-277.443	91.320	-0.162	0.180
-276.428	-200.000	0.023	0.267
-275.413	-99.433	-0.196	0.049
-274.399	-86.890	-0.423	-0.128
-273.384	-61.082	0.206	-0.086
-272.370	-200.000	0.005	-0.047
-271.355	800.000	0.052	0.217
-270.340	-200.000	-0.018	0.215
-269.326	203.583	0.152	-0.233
-268.311	-45.494	-0.329	0.161
-267.297	-23.996	0.159	-0.094
-266.282	-140.002	0.277	0.029
-265.267	-23.466	0.439	-0.261
-264.253	-117.268	0.209	0.038
-263.238	-142.674	0.268	-0.026
-262.224	-144.905	-0.376	-0.034
-261.209	-200.000	-0.042	-0.357
-260.195	30.166	0.281	0.238
-259.180	0.494	-0.084	-0.059
-258.165	-57.714	0.303	0.132
-257.151	425.264	-0.012	-0.025
-256.136	186.823	0.145	0.214
-255.122	-123.700	0.281	-0.044
-254.107	6.432	0.306	-0.225
-253.092	31.185	0.186	-0.158
-252.078	332.902	-0.071	-0.135
-251.063	241.095	-0.212	-0.352
-250.049	5.004	0.313	-0.228
-249.034	38.734	-0.196	0.173
-248.019	83.197	-0.291	0.313
-247.005	-102.592	-0.215	-0.051
-245.990	-200.000	0.054	-0.323
-244.976	365.880	-0.137	0.275
-243.961	-200.000	0.042	0.342
-242.946	294.239	-0.052	-0.094
-241.932	-92.597	-0.173	-0.048
-240.917	25.863	-0.143	-0.118
-239.903	294.331	-0.095	0.173
-238.888	-109.208	-0.205	0.043
-237.873	-130.089	0.253	-0.034
-236.859	57.892	0.200	-0.194
-235.844	-200.000	0.022	0.250
-234.830	800.000	-0.083	-0.236
-233.815	-87.870	-0.048	0.014
-232.800	77.207	0.134	-0.141
-231.786	102.663	-0.162	-0.188
-230.771	214.873	-0.156	-0.245
-229.757	800.000	-0.140	-0.394
-228.742	800.000	0.069	0.256
-227.727	-75.151	0.253	-0.089
-226.713	22.912	-0.261	0.212
-225.698	210.031	0.082	-0.127
-224.684	148.097	-0.044	0.059
-223.669	-200.000	-0.016	0.283
-222.655	-68.069	0.124	0.048
-221.640	12.193	-0.194	0.148
-220.625	-200.000	0.006	0.138
-219.611	-200.000	-0.002	0.265
-218.596	-84.085	-0.072	-0.023
-217.582	336.868	-0.059	-0.113
-216.567	-125.235	-0.283	0.043
-215.552	-200.000	-0.075	0.365
-214.538	449.889	0.235	0.512
-213.523	-47.849	0.180	-0.086
-212.509	-105.859	-0.038	0.008
-211.494	-200.000	-0.002	0.010
-210.479	-91.082	0.110	-0.031
-209.465	76.083	-0.179	-0.187
-208.450	-67.074	-0.029	-0.011
-207.436	-200.000	0.004	0.041
-206.421	-80.076	-0.234	-0.078
-205.406	-69.842	-0.200	0.076
-204.392	269.076	0.034	0.060
-203.377	-5.699	-0.181	-0.122
-202.363	-47.295	-0.035	0.017
-201.348	800.000	0.121	0.474
-200.333	-200.000	0.013	0.102
-199.319	95.234	0.153	-0.173
-198.304	87.012	-0.153	0.167
-197.290	322.180	0.005	-0.009
-196.275	-98.246	-0.387	-0.098
-195.260	-29.830	-0.256	0.145
-194.246	-85.495	0.264	-0.081
-193.231	-200.000	-0.004	0.282
-192.217	-10.448	-0.254	-0.166
-191.202	48.339	0.206	0.190
-190.187	-153.443	-0.223	-0.015
-189.173	-112.349	-0.208	-0.041
-188.158	34.137	-0.244	-0.211
-187.144	-100.256	0.105	0.026
-186.129	174.110	0.215	-0.307
-185.114	-7.432	0.262	0.176
-184.100	713.360	-0.073	-0.192
-183.085	172.427	0.183	-0.261
-182.071	800.000	0.023	-0.072
-181.056	54.658	-0.326	-0.311
-180.042	-107.257	0.192	-0.042
-179.027	-85.390	-0.116	-0.036
-178.012	-76.146	0.281	0.098
-176.998	189.349	0.161	0.238
-175.983	5.271	0.270	-0.197
-174.969	-28.608	0.260	-0.148
-173.954	-200.000	0.021	0.167
-172.939	800.000	0.128	-0.448
-171.925	800.000	0.080	0.291
-170.910	30.291	-0.049	-0.041
-169.896	428.658	0.023	0.048
-168.881	-71.659	0.145	0.054
-167.866	141.694	0.162	0.212
-166.852	800.000	0.121	0.484
-165.837	-200.000	-0.026	-0.276
-164.823	800.000	0.022	-0.096
-163.808	-122.033	0.261	0.042
-162.793	-5.341	-0.171	-0.116
-161.779	-33.564	0.167	0.091
-160.764	-5.735	-0.290	-0.196
-159.750	800.000	-0.051	-0.159
-158.735	-42.045	-0.420	0.212
-157.720	309.523	-0.017	0.032
-156.706	-171.353	0.311	0.010
-155.691	7.430	0.146	0.108
-154.677	45.572	0.101	-0.092
-153.662	-135.152	0.432	0.051
-152.647	-17.896	0.211	-0.131
-151.633	-200.000	-0.003	0.043
-150.618	-114.790	-0.156	-0.029
-149.604	189.713	-0.210	-0.311
-148.589	800.000	-0.111	0.337
-147.574	-200.000	0.009	0.055
-146.560	-127.893	0.139	0.020
-145.545	-200.000	-0.027	-0.286
-144.531	210.302	0.184	0.285
-143.516	-14.943	0.272	0.172
-142.502	69.787	-0.168	-0.170
-141.487	183.451	0.182	-0.266
-140.472	-90.642	0.120	0.034
-139.458	800.000	0.065	0.210
-138.443	539.871	0.135	0.317
-137.429	800.000	-0.050	-0.157
-136.414	-130.794	0.275	0.036
-135.399	-24.580	0.302	-0.177
-134.385	-200.000	-0.038	-0.233
-133.370	266.247	0.211	0.363
-132.356	630.631	-0.094	0.235
-131.341	-88.668	-0.241	0.071
-130.326	-200.000	-0.041	-0.216
-129.312	6.635	0.152	0.111
-128.297	285.481	0.029	0.051
-127.283	40.427	0.096	0.086
-126.268	180.514	-0.069	0.099
-125.253	-149.716	0.629	-0.049
-124.239	17.291	0.151	-0.119
-123.224	-53.696	-0.280	0.126
-122.210	-200.000	0.002	0.199
-121.195	419.431	-0.133	0.281
