DTS Sentinel unit serial number:	SN413079Multiplexer serial number:	ORYXHardware model number:	OX4-SRSoftware version number:	ORYX F/W v4.00 Oryx Data Collector v3.7.2.0data status	okinstallation	princeton_trtdifferential loss correction	single-endedforward channel	channel 4reverse channel	N/Adate	2019/09/17time	17:53:35forward acquisition time	60.00reverse acquisition time	0.00gamma	496.2192k internal	0.2278k external	0.2278temperature offset calibration	0.9978default loss term (dB/km)	0.3790temperature slope calibration	1.0000multiplexer offset coefficient	1.0000multiplexer slope coefficient	1.0000fibre end	0.00T internal ref (°C)	43.50T ext. ref 1 (°C)	0.34T ext. ref 2 (°C)	38.75length (m)	temperature (°C)	Stokes	anti-Stokes-747.200	-200.000	0.008	0.382
-746.185	800.000	-0.039	-0.169
-745.171	-64.885	0.054	-0.022
-744.156	228.647	0.117	0.197
-743.142	-87.657	-0.082	-0.025
-742.127	121.446	0.118	0.152
-741.112	-47.335	0.362	-0.181
-740.098	-39.022	-0.047	0.026
-739.083	-31.558	-0.185	0.107
-738.069	800.000	-0.177	0.520
-737.054	-200.000	-0.031	0.253
-736.039	255.110	-0.260	0.459
-735.025	-5.046	0.187	0.132
-734.010	45.052	-0.106	-0.100
-732.996	-200.000	0.013	-0.353
-731.981	-83.021	-0.244	-0.081
-730.966	-27.859	-0.244	0.146
-729.952	40.172	-0.157	-0.145
-728.937	316.649	-0.138	-0.268
-727.923	215.480	-0.033	0.054
-726.908	-200.000	-0.004	-0.239
-725.894	5.457	0.228	0.173
-724.879	-71.574	-0.455	-0.175
-723.864	-88.963	-0.264	-0.080
-722.850	227.747	0.162	-0.272
-721.835	101.720	-0.241	-0.290
-720.821	-19.161	-0.167	0.107
-719.806	229.587	-0.185	0.310
-718.791	-90.660	-0.352	0.105
-717.777	-3.090	0.059	-0.042
-716.762	-200.000	-0.037	-0.228
-715.748	800.000	-0.065	-0.198
-714.733	-139.140	-0.152	0.017
-713.718	-200.000	-0.009	0.121
-712.704	122.207	0.298	-0.383
-711.689	-99.825	-0.233	0.060
-710.675	-92.900	0.097	0.028
-709.660	262.806	0.066	0.118
-708.645	-12.423	0.127	-0.086
-707.631	-57.919	0.083	0.037
-706.616	-189.466	-0.202	-0.002
-705.602	-24.984	0.232	-0.142
-704.587	-1.470	-0.162	-0.117
-703.572	800.000	0.075	-0.215
-702.558	-92.663	0.051	0.015
-701.543	419.778	0.118	0.261
-700.529	136.936	-0.199	-0.267
-699.514	-71.406	0.152	0.058
-698.499	800.000	-0.071	-0.308
-697.485	-126.859	-0.262	-0.040
-696.470	95.653	0.011	-0.013
-695.456	26.469	-0.317	0.272
-694.441	-104.110	-0.193	0.046
-693.426	579.660	0.040	0.100
-692.412	-46.796	0.358	-0.180
-691.397	5.116	-0.185	0.140
-690.383	-97.795	-0.246	0.065
-689.368	70.237	-0.149	0.158
-688.354	151.218	-0.078	0.109
-687.339	-106.180	-0.205	-0.047
-686.324	323.774	-0.210	-0.412
-685.310	800.000	-0.011	0.042
-684.295	-122.198	-0.528	0.089
-683.281	-200.000	-0.015	0.137
-682.266	33.239	0.077	-0.069
-681.251	-200.000	0.089	0.436
-680.237	-200.000	-0.042	-0.441
-679.222	200.911	-0.100	0.158
-678.208	-200.000	0.021	-0.225
-677.193	-58.788	0.207	0.092
-676.178	247.071	0.093	-0.162
-675.164	-109.528	-0.094	-0.020
-674.149	-90.229	0.194	-0.058
-673.135	-30.397	-0.211	0.123
-672.120	800.000	0.062	-0.237
-671.105	800.000	0.081	-0.237
-670.091	-32.699	-0.125	0.071
-669.076	658.645	-0.051	-0.136
-668.062	-23.524	-0.232	-0.143
-667.047	-40.644	-0.112	-0.060
-666.032	-200.000	-0.036	0.260
-665.018	698.106	-0.061	-0.165
-664.003	-122.927	0.111	0.018
-662.989	-125.975	0.439	-0.068
-661.974	-200.000	-0.058	-0.272
-660.959	-200.000	0.027	0.223
-659.945	800.000	0.086	0.348
-658.930	49.552	0.200	-0.194
-657.916	-200.000	0.037	0.221
-656.901	84.892	-0.088	-0.099
-655.886	-4.956	0.059	0.042
-654.872	333.337	-0.253	0.502
-653.857	656.800	0.132	-0.349
-652.843	-125.997	-0.271	0.042
-651.828	-85.031	0.138	0.044
-650.814	126.928	-0.100	0.131
-649.799	216.529	-0.167	0.273
-648.784	721.033	-0.140	0.383
-647.770	-94.668	0.117	0.033
-646.755	-5.356	-0.160	0.113
-645.741	232.718	-0.070	-0.118
-644.726	-200.000	-0.048	0.305
-643.711	-83.343	-0.478	-0.157
-642.697	800.000	0.078	-0.306
-641.682	800.000	-0.061	0.220
-640.668	-31.506	-0.026	0.015
-639.653	-118.347	0.180	-0.033
-638.638	-200.000	0.003	0.225
-637.624	-105.657	-0.451	-0.105
-636.609	-137.928	-0.406	0.046
-635.595	-200.000	0.020	0.148
-634.580	273.840	0.148	-0.268
-633.565	-200.000	0.004	0.211
-632.551	121.731	0.121	0.155
-631.536	-200.000	0.001	-0.235
-630.522	278.177	-0.088	0.161
-629.507	-200.000	-0.028	0.238
-628.492	79.507	-0.054	-0.059
-627.478	271.106	0.063	0.114
-626.463	-87.080	0.195	0.061
-625.449	-3.378	-0.029	0.021
-624.434	-200.000	0.000	0.162
-623.419	-200.000	0.023	-0.108
-622.405	-200.000	-0.026	0.230
-621.390	465.610	-0.176	-0.403
-620.376	198.390	-0.113	0.177
-619.361	103.605	0.258	0.310
-618.346	-131.126	0.333	0.045
-617.332	2.069	0.122	0.090
-616.317	51.745	0.042	0.041
-615.303	-200.000	0.011	0.070
-614.288	-200.000	0.024	0.245
-613.273	230.523	0.081	-0.136
-612.259	-67.048	-0.168	0.068
-611.244	-126.380	0.207	0.032
-610.230	17.253	-0.150	0.122
-609.215	122.361	-0.146	0.187
-608.201	243.463	-0.161	0.277
-607.186	645.435	-0.066	0.172
-606.171	-200.000	-0.032	-0.254
-605.157	504.432	0.098	0.231
-604.142	-20.291	-0.114	-0.072
-603.128	-59.924	-0.372	0.163
-602.113	-95.978	0.098	-0.027
-601.098	227.155	0.131	-0.219
-600.084	-96.783	0.085	-0.023
-599.069	-200.000	0.015	0.218
-598.055	-200.000	0.063	0.393
-597.040	-127.544	-0.060	-0.009
-596.025	-200.000	0.037	-0.286
-595.011	-28.815	-0.485	-0.286
-593.996	-115.223	0.259	0.050
-592.982	118.869	0.147	0.185
-591.967	-141.808	-0.248	0.025
-590.952	182.800	0.119	-0.180
-589.938	109.948	-0.071	0.087
-588.923	-38.397	-0.172	-0.093
-587.909	22.589	0.305	0.256
-586.894	43.553	0.063	0.059
-585.879	-125.718	-0.106	-0.016
-584.865	-111.501	0.201	-0.042
-583.850	-52.456	-0.129	0.061
-582.836	-200.000	-0.012	-0.281
-581.821	278.859	0.079	-0.143
-580.806	81.554	-0.031	-0.034
-579.792	-111.947	0.224	0.046
-578.777	240.994	0.110	0.188
-577.763	-104.132	-0.247	0.059
-576.748	-164.152	0.271	-0.013
-575.733	-91.417	0.416	-0.122
-574.719	-106.519	0.151	0.035
-573.704	800.000	0.055	-0.232
-572.690	-136.525	0.106	-0.013
-571.675	268.736	-0.139	-0.250
-570.661	-75.278	-0.214	0.078
-569.646	-200.000	0.024	0.136
-568.631	50.011	0.164	-0.158
-567.617	-52.407	0.046	-0.022
-566.602	391.531	0.029	-0.062
-565.588	-170.417	-0.078	-0.003
-564.573	-93.227	-0.150	-0.043
-563.558	153.960	0.204	0.286
-562.544	58.533	0.017	-0.018
-561.529	43.437	0.211	0.197
-560.515	154.051	-0.279	0.391
-559.500	-148.734	0.043	-0.004
-558.485	-200.000	0.011	0.136
-557.471	-46.097	0.071	-0.036
-556.456	-200.000	-0.064	-0.359
-555.442	800.000	0.053	0.154
-554.427	3.727	-0.083	0.062
-553.412	56.387	-0.220	0.218
-552.398	-113.541	-0.424	0.085
-551.383	-200.000	-0.009	-0.250
-550.369	115.139	0.074	0.093
-549.354	10.836	0.288	-0.225
-548.339	-67.841	0.058	-0.023
-547.325	-200.000	0.054	-0.307
-546.310	69.485	0.210	0.221
-545.296	300.950	-0.066	0.124
-544.281	-65.802	0.126	-0.051
-543.266	-200.000	0.021	-0.160
-542.252	-60.112	-0.142	-0.062
-541.237	366.737	-0.069	0.143
-540.223	-72.086	0.104	0.040
-539.208	97.709	-0.054	0.063
-538.193	-31.245	-0.209	-0.120
-537.179	-200.000	-0.007	-0.263
-536.164	-22.835	-0.087	-0.054
-535.150	270.121	0.075	0.135
-534.135	260.436	0.021	-0.037
-533.121	180.647	-0.103	0.154
-532.106	800.000	0.048	-0.136
-531.091	800.000	0.041	-0.141
-530.077	114.650	-0.174	-0.217
-529.062	57.166	0.208	-0.207
-528.048	-200.000	-0.004	-0.461
-527.033	-86.787	0.118	-0.037
-526.018	280.409	0.085	-0.154
-525.004	-16.471	0.107	-0.069
-523.989	800.000	0.034	0.102
-522.975	17.486	-0.079	0.064
-521.960	197.925	0.156	-0.243
-520.945	-71.003	0.285	-0.110
-519.931	800.000	0.053	0.191
-518.916	-19.468	-0.166	-0.105
-517.902	-101.473	0.052	0.013
-516.887	-200.000	-0.381	0.002
-515.872	147.634	0.064	0.089
-514.858	-200.000	0.012	-0.408
-513.843	124.112	0.177	0.227
-512.829	-45.364	0.254	-0.129
-511.814	26.991	0.225	-0.193
-510.799	178.613	-0.068	-0.101
-509.785	146.835	-0.084	0.116
-508.770	-79.089	-0.516	-0.179
-507.756	65.593	-0.126	-0.130
-506.741	109.829	0.135	0.165
-505.726	-25.069	-0.106	-0.064
-504.712	256.588	0.029	-0.051
-503.697	-200.000	-0.000	-0.123
-502.683	-176.770	-0.195	0.005
-501.668	311.664	-0.135	-0.258
-500.653	-50.024	0.196	-0.095
-499.639	485.129	0.101	0.234
-498.624	-33.952	-0.109	0.061
-497.610	-104.158	0.240	0.057
-496.595	138.025	0.221	-0.296
-495.581	-200.000	-0.044	0.201
-494.566	-200.000	-0.011	0.161
-493.551	800.000	0.058	0.166
-492.537	522.954	0.037	0.089
-491.522	-107.157	-0.114	0.026
-490.508	-3.426	0.207	-0.147
-489.493	800.000	-0.051	0.148
-488.478	800.000	-0.035	0.114
-487.464	-108.279	-0.093	0.020
-486.449	-200.000	-0.295	-0.001
-485.435	6.410	-0.202	0.153
-484.420	-200.000	0.026	0.133
-483.405	-200.000	0.031	-0.191
-482.391	-6.298	0.224	-0.156
-481.376	337.189	0.119	-0.236
-480.362	-86.634	-0.146	0.046
-479.347	359.318	0.078	0.159
-478.332	-5.575	-0.052	0.036
-477.318	-200.000	-0.053	-0.257
-476.303	-2.654	-0.030	-0.021
-475.289	-110.857	-0.405	-0.085
-474.274	291.424	-0.173	0.321
-473.259	-110.198	0.245	-0.052
-472.245	-200.000	-0.002	-0.246
-471.230	-19.049	0.147	0.093
-470.216	186.318	-0.192	-0.292
-469.201	-110.052	-0.380	-0.081
-468.186	5.891	0.081	0.061
-467.172	-17.818	0.095	-0.061
-466.157	-1.109	-0.328	-0.236
-465.143	-116.514	0.118	-0.022
-464.128	188.160	0.070	-0.106
-463.113	64.906	0.049	-0.051
-462.099	43.286	0.151	0.141
-461.084	37.436	0.351	-0.317
-460.070	31.174	0.026	0.023
-459.055	-63.166	0.321	0.135
-458.040	800.000	0.071	-0.310
-457.026	-146.277	-0.335	0.030
-456.011	23.164	-0.161	0.134
-454.997	-114.512	-0.166	-0.032
-453.982	199.837	-0.081	-0.127
-452.968	-95.638	-0.185	-0.050
-451.953	-200.000	-0.015	0.136
-450.938	-145.948	-0.163	-0.015
-449.924	256.912	-0.200	-0.350
-448.909	-33.112	0.079	-0.045
-447.895	-200.000	-0.004	-0.068
-446.880	61.054	-0.217	-0.219
-445.865	265.090	0.102	0.181
-444.851	-87.597	-0.244	0.075
-443.836	-88.234	-0.232	-0.071
-442.822	-15.614	-0.300	0.195
-441.807	-93.349	0.120	0.034
-440.792	-138.517	-0.133	-0.015
-439.778	-166.461	0.251	0.011
-438.763	139.681	0.269	0.360
-437.749	-16.825	0.265	0.171
-436.734	-5.241	-0.015	-0.010
-435.719	132.184	0.099	0.130
-434.705	11.283	-0.184	-0.143
-433.690	-83.581	-0.137	-0.045
-432.676	-139.873	0.441	0.047
-431.661	-95.081	-0.141	0.039
-430.646	111.387	0.024	-0.029
-429.632	88.276	-0.146	-0.165
-428.617	800.000	0.001	-0.005
-427.603	-93.150	0.345	0.098
-426.588	-75.546	-0.242	0.088
-425.573	800.000	0.036	0.127
-424.559	-132.307	-0.181	0.024
-423.544	-200.000	0.006	-0.222
-422.530	-145.481	-0.204	0.019
-421.515	-98.828	-0.429	-0.111
-420.500	-95.100	0.152	-0.042
-419.486	189.615	-0.226	0.344
-418.471	-113.653	0.317	-0.063
-417.457	-56.197	0.310	0.140
-416.442	277.681	0.122	0.220
-415.428	78.655	0.083	-0.090
-414.413	-200.000	-0.024	-0.164
-413.398	304.629	0.257	-0.485
-412.384	800.000	-0.098	-0.319
-411.369	800.000	-0.073	-0.246
-410.355	-200.000	-0.030	0.146
-409.340	-69.167	0.234	0.092
-408.325	-71.869	-0.077	-0.029
-407.311	365.202	-0.091	0.186
-406.296	-5.035	0.059	0.041
-405.282	11.890	-0.147	-0.115
-404.267	-200.000	-0.000	0.067
-403.252	-56.546	-0.119	0.054
-402.238	-48.317	-0.347	-0.170
-401.223	-24.613	0.352	-0.213
-400.209	-171.557	0.153	0.005
-399.194	-200.000	-0.062	0.429
-398.179	-74.795	-0.165	-0.060
-397.165	209.133	-0.139	-0.221
-396.150	-76.950	0.140	-0.050
-395.136	-108.403	-0.156	-0.034
-394.121	-30.593	-0.154	-0.089
-393.106	-78.355	-0.104	-0.036
-392.092	-34.680	0.221	0.123
-391.077	-77.358	0.048	0.017
-390.063	467.413	0.060	0.137
-389.048	-98.550	0.170	0.044
-388.033	800.000	-0.077	0.295
-387.019	-200.000	0.003	0.105
-386.004	-49.155	0.115	0.056
-384.990	95.713	-0.156	0.181
-383.975	124.400	0.070	-0.089
-382.960	-40.033	0.215	0.114
-381.946	800.000	0.057	-0.173
-380.931	218.865	-0.160	-0.259
-379.917	-179.702	-0.335	0.007
-378.902	-47.748	0.411	-0.202
-377.888	-200.000	-0.072	-0.328
-376.873	-200.000	-0.034	-0.238
-375.858	-47.477	0.249	-0.123
-374.844	91.503	-0.239	0.273
-373.829	-155.990	-0.038	0.002
-372.815	290.330	-0.123	-0.226
-371.800	-148.542	0.088	-0.007
-370.785	204.412	-0.073	0.115
-369.771	-189.950	-0.074	0.001
-368.756	-200.000	-0.007	-0.239
-367.742	-19.636	-0.316	-0.198
-366.727	-200.000	0.031	-0.176
-365.712	-137.824	-0.459	0.052
-364.698	126.989	0.151	0.195
-363.683	137.407	-0.062	0.082
-362.669	-200.000	-0.026	-0.270
-361.654	-49.405	-0.163	-0.079
-360.639	-200.000	0.002	0.333
-359.625	-77.002	-0.130	-0.046
-358.610	-200.000	0.006	0.071
-357.596	99.323	0.111	0.131
-356.581	29.131	-0.145	-0.125
-355.566	66.572	0.292	0.301
-354.552	-141.132	-0.275	0.029
-353.537	800.000	-0.082	-0.249
-352.523	151.698	0.228	-0.314
-351.508	-158.534	-0.145	-0.009
-350.493	800.000	0.100	-0.310
-349.479	-44.968	-0.094	0.047
-348.464	-71.114	0.390	0.149
-347.450	-59.874	0.170	0.074
-346.435	410.692	-0.023	0.050
-345.420	-164.096	0.233	0.011
-344.406	-106.488	-0.397	-0.090
-343.391	-156.603	-0.173	-0.011
-342.377	-134.890	-0.048	-0.006
-341.362	547.010	0.116	0.283
-340.348	58.361	0.214	-0.213
-339.333	-184.580	-0.350	0.006
-338.318	-88.568	-0.267	0.081
-337.304	409.134	0.109	-0.235
-336.289	-170.662	0.056	0.002
-335.275	-125.887	0.176	-0.027
-334.260	470.318	0.056	0.127
-333.245	-200.000	0.026	0.200
-332.231	-110.319	-0.086	-0.018
-331.216	-85.222	0.208	-0.066
-330.202	-117.655	-0.167	0.030
-329.187	53.327	0.182	-0.177
-328.172	-122.580	-0.390	0.064
-327.158	673.968	0.056	0.148
-326.143	-165.015	0.198	0.009
-325.129	800.000	-0.057	-0.163
-324.114	-45.647	-0.314	-0.157
-323.099	-103.131	-0.075	-0.018
-322.085	-123.104	-0.267	-0.043
-321.070	-98.582	0.358	-0.093
-320.056	800.000	0.161	0.566
-319.041	37.771	-0.185	0.167
-318.026	-200.000	0.009	-0.274
-317.012	-101.326	-0.211	0.052
-315.997	99.603	-0.136	-0.160
-314.983	-94.385	0.284	-0.079
-313.968	-44.525	0.110	-0.056
-312.953	-50.068	-0.230	0.110
-311.939	95.379	0.067	0.078
-310.924	-200.000	-0.023	-0.195
-309.910	269.594	-0.123	-0.219
-308.895	504.404	0.058	0.137
-307.880	171.250	0.127	0.184
-306.866	156.881	0.055	0.077
-305.851	259.947	-0.144	0.251
-304.837	-124.984	0.353	0.055
-303.822	800.000	0.027	0.113
-302.807	-48.155	-0.201	-0.098
-301.793	-60.863	0.062	-0.026
-300.778	114.880	0.146	-0.180
-299.764	800.000	-0.152	0.535
-298.749	-25.341	0.139	0.083
-297.735	197.865	-0.132	0.204
-296.720	-134.969	0.144	0.018
-295.705	34.310	-0.116	-0.103
-294.691	-122.055	0.184	-0.031
-293.676	-68.937	0.325	0.127
-292.662	707.279	0.085	0.226
-291.647	-4.970	-0.189	-0.132
-290.632	-198.596	-0.096	0.001
-289.618	171.811	0.188	-0.272
-288.603	750.115	-0.037	0.100
-287.589	-93.835	0.075	0.021
-286.574	800.000	-0.065	0.195
-285.559	603.684	0.094	0.235
-284.545	16.628	-0.144	-0.115
-283.530	800.000	-0.054	-0.217
-282.516	-127.843	0.302	-0.044
-281.501	800.000	0.088	-0.291
-280.486	433.099	-0.060	0.131
-279.472	610.423	-0.055	-0.140
-278.457	120.631	-0.139	-0.175
-277.443	-200.000	-0.015	-0.097
-276.428	182.775	0.102	-0.152
-275.413	290.871	0.097	-0.178
-274.399	-27.077	-0.075	0.044
-273.384	-40.772	0.189	0.099
-272.370	-79.459	0.053	-0.018
-271.355	800.000	-0.047	0.163
-270.340	-200.000	-0.008	0.069
-269.326	-177.510	-0.337	0.008
-268.311	99.365	-0.046	-0.054
-267.297	-200.000	0.008	-0.243
-266.282	-44.981	-0.081	-0.041
-265.267	-26.453	-0.195	0.116
-264.253	147.977	0.104	-0.142
-263.238	44.851	-0.093	-0.087
-262.224	35.579	-0.230	0.204
-261.209	-22.152	0.177	-0.108
-260.195	-109.235	-0.257	-0.055
-259.180	329.300	-0.082	-0.159
-258.165	-15.401	0.028	-0.018
-257.151	-101.243	-0.278	-0.069
-256.136	-183.168	0.081	0.001
-255.122	14.892	-0.252	-0.199
-254.107	75.779	0.133	-0.141
-253.092	-24.594	-0.301	-0.181
-252.078	-200.000	0.007	0.058
-251.063	-200.000	-0.013	0.199
-250.049	-200.000	-0.004	0.113
-249.034	266.848	-0.177	0.313
-248.019	71.723	0.137	0.143
-247.005	276.751	0.138	0.247
-245.990	-200.000	-0.000	0.099
-244.976	-49.498	0.034	-0.016
-243.961	-43.429	-0.113	-0.057
-242.946	2.751	-0.270	-0.198
-241.932	-45.384	0.158	-0.079
-240.917	150.663	-0.090	0.124
-239.903	800.000	0.056	-0.191
-238.888	-200.000	0.063	-0.322
-237.873	783.523	0.062	-0.171
-236.859	-115.770	-0.226	0.043
-235.844	-200.000	0.038	-0.180
-234.830	-200.000	0.039	-0.242
-233.815	26.953	-0.097	0.082
-232.800	-115.557	0.257	0.049
-231.786	-52.210	-0.268	-0.125
-230.771	800.000	-0.059	0.185
-229.757	798.456	0.047	-0.132
-228.742	-160.421	0.169	-0.009
-227.727	800.000	0.034	0.140
-226.713	-152.394	0.188	0.014
-225.698	88.058	0.113	0.126
-224.684	-4.458	0.228	0.159
-223.669	-88.371	-0.291	-0.088
-222.655	-30.072	0.144	-0.083
-221.640	-81.018	0.070	-0.023
-220.625	-8.787	0.180	-0.122
-219.611	800.000	-0.027	-0.106
-218.596	-36.230	0.063	-0.034
-217.582	-137.116	0.214	0.025
-216.567	-22.454	-0.308	0.188
-215.552	800.000	-0.052	0.211
-214.538	88.733	-0.187	0.210
-213.523	-42.311	0.043	-0.022
-212.509	71.965	0.213	0.224
-211.494	-41.550	0.222	-0.115
-210.479	19.910	0.223	0.181
-209.465	-7.599	0.169	-0.115
-208.450	-55.507	0.074	-0.033
-207.436	-72.666	0.071	-0.026
-206.421	-21.261	-0.091	0.056
-205.406	134.928	0.264	0.345
-204.392	264.051	-0.248	-0.435
-203.377	-39.597	-0.242	-0.128
-202.363	-200.000	0.002	-0.208
-201.348	187.797	-0.167	0.252
-200.333	-113.622	0.192	-0.038
-199.319	454.104	0.179	0.400
-198.304	800.000	0.069	0.256
-197.290	-200.000	-0.016	0.343
-196.275	227.575	-0.122	0.200
-195.260	168.887	0.052	-0.075
-194.246	-200.000	-0.048	0.399
-193.231	-8.996	0.086	0.058
-192.217	115.732	0.034	-0.042
-191.202	123.538	-0.055	-0.070
-190.187	44.001	0.297	0.275
-189.173	-91.846	0.122	-0.035
-188.158	179.014	0.079	-0.116
-187.144	-21.594	0.117	0.072
-186.129	112.367	0.068	-0.082
-185.114	-102.484	0.389	-0.094
-184.100	47.074	0.081	0.076
-183.085	-14.520	0.446	-0.289
-182.071	58.100	0.069	0.068
-181.056	-26.445	0.140	0.082
-180.042	87.369	-0.172	0.191
-179.027	109.996	0.246	-0.298
-178.012	-29.718	-0.216	-0.124
-176.998	-200.000	0.022	0.131
-175.983	-14.585	0.194	0.126
-174.969	-46.162	0.309	0.153
-173.954	-200.000	-0.010	0.160
-172.939	-200.000	-0.008	0.066
-171.925	7.116	0.314	0.236
-170.910	-122.315	-0.327	0.054
-169.896	123.526	-0.162	0.204
-168.881	800.000	-0.075	0.322
-167.866	799.686	-0.051	-0.142
-166.852	-112.445	0.018	-0.004
-165.837	95.905	0.085	-0.097
-164.823	-111.005	-0.247	0.051
-163.808	-147.791	0.356	0.030
-162.793	154.078	0.072	-0.099
-161.779	25.367	-0.121	-0.101
-160.764	800.000	0.031	0.115
-159.750	16.225	0.415	0.330
-158.735	76.960	-0.065	-0.070
-157.720	0.742	0.112	-0.081
-156.706	-194.347	0.061	-0.000
-155.691	463.574	0.161	-0.362
-154.677	14.721	-0.425	-0.334
-153.662	454.033	-0.083	-0.184
-152.647	-4.621	0.099	0.069
-151.633	-200.000	-0.003	-0.039
-150.618	-52.755	0.060	-0.028
-149.604	-115.922	0.295	0.055
-148.589	235.971	0.155	-0.258
-147.574	-200.000	-0.038	-0.271
-146.560	800.000	-0.019	0.069
-145.545	218.987	0.062	-0.100
-144.531	-54.427	0.126	0.057
-143.516	-15.815	-0.214	0.137
-142.502	-53.548	-0.306	-0.141
-141.487	-200.000	-0.039	0.271
-140.472	225.324	0.025	0.041
-139.458	-200.000	0.013	0.181
-138.443	-200.000	0.025	0.131
-137.429	800.000	-0.122	0.348
-136.414	-132.564	-0.202	0.026
-135.399	707.037	-0.033	0.088
-134.385	459.990	-0.106	0.238
-133.370	265.193	0.038	0.067
-132.356	231.108	-0.162	0.267
-131.341	16.115	-0.230	-0.182
-130.326	92.019	0.112	-0.127
-129.312	271.626	-0.124	-0.221
-128.297	382.303	0.134	-0.277
-127.283	96.975	-0.077	0.089
-126.268	800.000	-0.072	0.280
-125.253	-152.593	0.316	0.023
-124.239	312.270	0.162	-0.306
-123.224	-82.107	0.072	0.023
-122.210	-5.261	0.101	0.070
-121.195	-2.299	-0.155	0.109
