DTS Sentinel unit serial number:	SN413079Multiplexer serial number:	ORYXHardware model number:	OX4-SRSoftware version number:	ORYX F/W v4.00 Oryx Data Collector v3.7.2.0data status	okinstallation	princeton_trtdifferential loss correction	single-endedforward channel	channel 4reverse channel	N/Adate	2019/09/14time	23:25:34forward acquisition time	60.00reverse acquisition time	0.00gamma	496.2192k internal	0.2306k external	0.2306temperature offset calibration	1.0055default loss term (dB/km)	0.3790temperature slope calibration	1.0000multiplexer offset coefficient	1.0000multiplexer slope coefficient	1.0000fibre end	0.00T internal ref (°C)	32.37T ext. ref 1 (°C)	4.65T ext. ref 2 (°C)	27.41length (m)	temperature (°C)	Stokes	anti-Stokes-747.200	-200.000	-0.020	0.235
-746.185	213.317	0.263	0.423
-745.171	-65.819	0.145	0.059
-744.156	65.903	-0.355	0.366
-743.142	-113.363	-0.110	-0.022
-742.127	-200.000	0.016	0.218
-741.112	-200.000	0.017	-0.216
-740.098	-4.709	-0.198	0.139
-739.083	126.675	0.207	0.266
-738.069	350.190	-0.065	-0.131
-737.054	-200.000	-0.052	-0.269
-736.039	440.230	0.202	-0.449
-735.025	-200.000	0.031	-0.146
-734.010	-48.976	0.070	0.034
-732.996	-51.731	-0.293	-0.139
-731.981	-98.395	-0.358	-0.093
-730.966	138.170	0.189	-0.251
-729.952	-7.656	-0.396	-0.272
-728.937	-63.571	0.265	-0.111
-727.923	-200.000	-0.023	-0.110
-726.908	800.000	-0.011	-0.041
-725.894	10.661	0.216	-0.168
-724.879	84.458	-0.047	-0.052
-723.864	-27.001	0.164	0.097
-722.850	650.578	0.081	0.212
-721.835	121.514	-0.142	-0.180
-720.821	725.384	0.065	-0.175
-719.806	-73.417	-0.098	-0.036
-718.791	345.864	-0.041	0.082
-717.777	148.224	-0.114	0.156
-716.762	-94.802	-0.255	0.070
-715.748	-200.000	-0.020	-0.159
-714.733	196.773	-0.073	-0.113
-713.718	800.000	0.084	-0.312
-712.704	179.837	-0.059	-0.087
-711.689	111.640	0.263	0.323
-710.675	339.201	-0.162	-0.321
-709.660	-200.000	0.002	-0.134
-708.645	1.711	0.084	-0.062
-707.631	110.544	-0.167	0.204
-706.616	245.057	0.072	-0.123
-705.602	80.157	-0.217	-0.237
-704.587	-150.329	-0.069	-0.005
-703.572	-200.000	0.314	-0.001
-702.558	219.694	-0.007	0.012
-701.543	-9.974	0.167	-0.113
-700.529	26.185	0.255	-0.216
-699.514	-102.783	-0.119	-0.029
-698.499	-23.608	-0.284	-0.173
-697.485	-8.517	0.252	-0.172
-696.470	-200.000	0.069	-0.352
-695.456	217.588	-0.240	-0.388
-694.441	-101.926	-0.197	0.048
-693.426	-51.152	0.393	0.187
-692.412	87.613	0.070	-0.079
-691.397	-135.587	0.246	0.030
-690.383	711.233	0.081	-0.217
-689.368	82.937	0.160	-0.176
-688.354	17.981	-0.228	-0.184
-687.339	-45.336	0.159	0.080
-686.324	117.669	-0.076	0.095
-685.310	-200.000	0.026	0.134
-684.295	203.587	-0.034	0.054
-683.281	500.428	-0.161	0.377
-682.266	-8.477	-0.324	0.221
-681.251	-178.808	-0.211	0.005
-680.237	-65.745	0.202	-0.082
-679.222	-139.736	-0.091	-0.010
-678.208	68.979	-0.051	-0.053
-677.193	20.554	0.227	0.187
-676.178	-36.047	-0.176	0.097
-675.164	-59.017	0.077	0.034
-674.149	263.397	0.181	-0.318
-673.135	-69.021	0.183	-0.071
-672.120	57.716	-0.231	0.229
-671.105	-200.000	0.055	-0.271
-670.091	93.910	-0.152	-0.175
-669.076	100.135	0.188	-0.221
-668.062	-15.617	-0.168	0.109
-667.047	-32.913	0.193	-0.109
-666.032	-80.799	-0.248	0.084
-665.018	-22.291	0.209	0.129
-664.003	769.487	-0.078	0.215
-662.989	257.565	0.097	0.169
-661.974	72.402	-0.046	-0.048
-660.959	800.000	-0.104	-0.389
-659.945	-10.618	0.143	0.096
-658.930	-172.234	0.036	0.001
-657.916	-92.652	-0.155	0.044
-656.901	336.472	-0.022	0.043
-655.886	128.851	-0.243	0.315
-654.872	800.000	-0.041	0.166
-653.857	54.862	-0.046	0.045
-652.843	-117.872	-0.321	0.058
-651.828	191.370	-0.137	-0.209
-650.814	99.271	-0.074	0.087
-649.799	-31.914	-0.164	-0.093
-648.784	-65.528	-0.102	-0.042
-647.770	-29.084	0.153	0.089
-646.755	800.000	-0.081	0.335
-645.741	-101.021	0.229	0.057
-644.726	61.321	-0.237	0.238
-643.711	-122.456	-0.119	0.020
-642.697	-200.000	0.021	-0.237
-641.682	-37.985	-0.173	-0.093
-640.668	-38.788	0.242	0.129
-639.653	-107.995	-0.308	-0.068
-638.638	181.331	-0.075	0.112
-637.624	-200.000	-0.018	-0.348
-636.609	-94.993	-0.237	-0.065
-635.595	-200.000	0.005	0.035
-634.580	-200.000	-0.063	-0.316
-633.565	800.000	0.024	0.082
-632.551	24.534	-0.176	0.148
-631.536	-200.000	-0.024	-0.175
-630.522	-200.000	0.012	0.176
-629.507	-0.336	0.084	0.061
-628.492	-200.000	0.011	0.112
-627.478	-36.666	-0.253	0.138
-626.463	-8.834	0.020	-0.013
-625.449	800.000	0.016	-0.069
-624.434	-109.563	0.006	0.001
-623.419	18.574	-0.236	0.191
-622.405	311.943	-0.032	-0.060
-621.390	-200.000	-0.008	0.202
-620.376	-54.732	-0.337	0.154
-619.361	17.487	-0.110	0.088
-618.346	358.657	0.160	-0.323
-617.332	9.221	0.217	0.166
-616.317	32.753	-0.096	-0.084
-615.303	99.828	0.137	0.161
-614.288	-159.423	0.346	0.020
-613.273	800.000	-0.102	-0.319
-612.259	78.694	-0.199	0.215
-611.244	-48.323	-0.060	-0.029
-610.230	113.968	-0.262	0.322
-609.215	166.158	0.086	0.123
-608.201	11.333	-0.216	0.167
-607.186	-200.000	0.017	-0.253
-606.171	-200.000	0.038	-0.285
-605.157	101.209	-0.262	0.309
-604.142	-96.807	0.500	-0.133
-603.128	128.581	-0.174	-0.224
-602.113	114.713	-0.029	0.036
-601.098	-110.269	-0.316	0.066
-600.084	800.000	0.086	-0.302
-599.069	-200.000	-0.070	0.406
-598.055	221.101	0.082	-0.134
-597.040	-200.000	-0.039	-0.374
-596.025	-84.592	-0.367	-0.117
-595.011	-151.451	0.141	-0.011
-593.996	484.200	0.083	0.191
-592.982	150.440	0.149	0.204
-591.967	13.315	0.124	0.097
-590.952	-200.000	0.002	0.144
-589.938	318.250	-0.212	-0.406
-588.923	-109.889	0.200	-0.042
-587.909	173.681	0.059	0.086
-586.894	-87.760	0.353	0.108
-585.879	-173.769	-0.104	-0.003
-584.865	-200.000	-0.014	0.078
-583.850	-41.498	-0.183	-0.095
-582.836	415.876	0.157	0.339
-581.821	-72.540	-0.075	-0.028
-580.806	76.584	-0.090	0.096
-579.792	18.717	0.316	0.255
-578.777	112.375	0.076	0.093
-577.763	-42.709	0.158	-0.081
-576.748	-179.678	0.119	-0.003
-575.733	800.000	-0.037	0.127
-574.719	-200.000	0.029	-0.136
-573.704	256.119	-0.170	0.294
-572.690	-121.970	-0.035	-0.006
-571.675	-96.183	0.290	0.078
-570.661	-53.257	0.284	0.132
-569.646	25.389	0.034	0.028
-568.631	-200.000	-0.009	-0.247
-567.617	800.000	0.042	-0.119
-566.602	-141.481	0.318	0.033
-565.588	72.269	-0.083	0.087
-564.573	-74.696	-0.042	0.015
-563.558	98.285	0.189	0.220
-562.544	624.321	-0.124	0.315
-561.529	-48.887	0.098	-0.048
-560.515	-108.442	-0.193	-0.042
-559.500	-67.344	-0.175	0.070
-558.485	154.302	-0.104	-0.144
-557.471	-196.001	-0.249	0.002
-556.456	-56.447	-0.070	0.031
-555.442	-102.358	-0.167	-0.040
-554.427	93.740	-0.025	0.029
-553.412	-119.362	0.093	0.016
-552.398	-102.382	-0.152	-0.037
-551.383	-183.637	-0.102	0.002
-550.369	-137.335	0.254	0.029
-549.354	-53.127	0.304	-0.141
-548.339	-73.388	0.204	0.075
-547.325	-36.756	-0.303	0.164
-546.310	61.957	0.038	0.038
-545.296	34.248	0.151	0.133
-544.281	-149.897	0.238	-0.019
-543.266	-200.000	-0.052	-0.236
-542.252	530.891	0.123	0.294
-541.237	-39.323	0.243	-0.129
-540.223	296.086	0.026	0.048
-539.208	328.500	0.137	-0.265
-538.193	-141.625	-0.361	-0.037
-537.179	58.054	0.078	0.077
-536.164	114.306	-0.205	0.252
-535.150	-98.827	-0.222	-0.057
-534.135	-117.223	-0.250	-0.046
-533.121	172.238	0.043	0.062
-532.106	-97.811	0.046	-0.012
-531.091	555.819	-0.061	-0.147
-530.077	-21.732	0.171	0.105
-529.062	-13.882	-0.330	0.215
-528.048	106.590	0.101	-0.121
-527.033	42.332	-0.181	-0.166
-526.018	299.553	0.120	-0.223
-525.004	-36.286	-0.036	-0.020
-523.989	33.018	-0.152	-0.133
-522.975	-57.403	0.171	0.076
-521.960	-200.000	-0.045	-0.321
-520.945	-0.393	0.366	0.263
-519.931	60.039	-0.143	-0.142
-518.916	255.501	0.041	0.071
-517.902	-200.000	-0.012	0.274
-516.887	148.089	-0.120	-0.163
-515.872	-12.613	0.325	0.214
-514.858	342.745	0.113	-0.223
-513.843	-17.840	-0.212	0.134
-512.829	-138.755	-0.066	-0.007
-511.814	-140.092	-0.169	-0.018
-510.799	-40.241	-0.064	0.033
-509.785	-200.000	0.066	-0.372
-508.770	-200.000	0.043	0.228
-507.756	-200.000	0.056	-0.330
-506.741	-15.803	0.256	0.164
-505.726	21.543	0.138	-0.113
-504.712	800.000	-0.035	0.124
-503.697	-164.159	0.238	-0.011
-502.683	-93.564	0.088	-0.025
-501.668	-3.388	0.089	0.062
-500.653	-65.074	0.141	0.057
-499.639	167.861	-0.090	-0.128
-498.624	277.616	0.070	0.126
-497.610	252.969	-0.180	-0.309
-496.595	-5.574	-0.070	-0.049
-495.581	-128.156	-0.267	0.038
-494.566	88.105	-0.128	-0.143
-493.551	-200.000	-0.001	-0.310
-492.537	-71.223	-0.037	-0.014
-491.522	800.000	0.023	-0.073
-490.508	-133.182	0.317	-0.040
-489.493	43.359	-0.453	-0.417
-488.478	-94.910	-0.310	-0.085
-487.464	454.130	-0.153	0.342
-486.449	-200.000	0.023	0.299
-485.435	359.438	0.041	-0.083
-484.420	-150.153	-0.179	-0.014
-483.405	485.623	-0.134	-0.307
-482.391	-104.636	0.307	-0.071
-481.376	247.070	0.068	-0.116
-480.362	-48.499	-0.261	-0.126
-479.347	800.000	-0.022	0.073
-478.332	-0.263	0.138	0.099
-477.318	-47.188	-0.443	-0.217
-476.303	59.673	0.175	0.174
-475.289	-200.000	0.041	-0.244
-474.274	-131.748	-0.245	0.032
-473.259	296.181	-0.153	0.283
-472.245	-200.000	-0.004	0.096
-471.230	35.583	0.101	0.090
-470.216	-160.376	-0.143	-0.008
-469.201	326.792	0.061	0.117
-468.186	20.296	0.036	-0.030
-467.172	201.422	0.192	0.297
-466.157	-38.176	-0.392	-0.209
-465.143	627.635	0.065	0.166
-464.128	-127.508	-0.420	0.061
-463.113	-98.646	-0.222	0.057
-462.099	-200.000	0.008	0.042
-461.084	480.199	0.021	0.048
-460.070	-61.631	0.110	-0.047
-459.055	211.577	-0.048	-0.076
-458.040	-154.706	0.486	0.032
-457.026	134.984	-0.105	0.137
-456.011	-200.000	-0.003	0.085
-454.997	63.950	-0.219	-0.222
-453.982	29.914	-0.083	0.071
-452.968	-157.776	-0.358	0.021
-451.953	-9.378	-0.124	0.084
-450.938	-38.008	0.166	-0.089
-449.924	-118.615	0.255	-0.045
-448.909	-134.653	0.286	-0.035
-447.895	800.000	-0.139	0.437
-446.880	32.462	-0.142	0.123
-445.865	236.867	-0.057	-0.095
-444.851	-200.000	0.014	-0.109
-443.836	-72.994	-0.118	-0.043
-442.822	286.944	-0.146	0.266
-441.807	37.568	0.303	0.271
-440.792	-16.798	-0.134	-0.085
-439.778	-200.000	-0.011	-0.183
-438.763	800.000	0.053	0.156
-437.749	-200.000	-0.016	0.213
-436.734	-65.083	-0.155	0.063
-435.719	-80.009	-0.476	0.161
-434.705	2.723	-0.109	0.080
-433.690	183.892	0.031	0.047
-432.676	99.412	0.171	-0.199
-431.661	152.382	-0.044	-0.060
-430.646	218.033	0.145	0.233
-429.632	800.000	0.091	-0.252
-428.617	40.245	-0.153	-0.138
-427.603	257.493	-0.141	0.244
-426.588	252.317	-0.074	-0.127
-425.573	-30.564	0.141	0.080
-424.559	286.307	0.096	0.174
-423.544	-80.077	-0.270	0.091
-422.530	-200.000	0.008	0.063
-421.515	-200.000	0.040	0.184
-420.500	-121.151	-0.155	-0.026
-419.486	-200.000	0.077	-0.351
-418.471	-200.000	0.073	0.382
-417.457	-73.339	-0.114	-0.042
-416.442	-82.558	-0.211	0.069
-415.428	252.659	0.110	0.189
-414.413	212.924	0.020	0.032
-413.398	75.194	-0.129	0.137
-412.384	-200.000	-0.005	0.072
-411.369	-154.293	0.151	0.010
-410.355	63.573	-0.259	-0.261
-409.340	82.089	0.161	-0.176
-408.325	-15.911	0.219	-0.140
-407.311	41.047	-0.144	0.131
-406.296	-200.000	-0.043	0.206
-405.282	132.497	0.190	-0.246
-404.267	90.475	0.272	-0.306
-403.252	466.527	0.156	0.351
-402.238	52.419	-0.097	-0.093
-401.223	438.107	-0.021	-0.045
-400.209	-200.000	-0.101	-0.494
-399.194	8.640	0.317	0.240
-398.179	47.207	0.343	0.321
-397.165	27.195	-0.079	0.067
-396.150	-36.714	-0.150	-0.081
-395.136	-43.216	-0.161	-0.082
-394.121	800.000	-0.011	-0.049
-393.106	22.500	0.090	-0.074
-392.092	57.865	-0.134	-0.132
-391.077	313.956	-0.084	-0.159
-390.063	84.174	-0.087	-0.095
-389.048	250.883	0.157	0.268
-388.033	-200.000	-0.057	0.254
-387.019	800.000	0.101	-0.319
-386.004	202.811	-0.059	0.092
-384.990	19.331	-0.171	-0.137
-383.975	279.416	0.091	-0.163
-382.960	-200.000	0.024	0.179
-381.946	-44.647	0.162	0.081
-380.931	-200.000	0.001	0.063
-379.917	-13.323	-0.294	0.192
-378.902	173.006	-0.037	0.054
-377.888	7.089	-0.321	-0.240
-376.873	-35.972	-0.242	0.131
-375.858	-200.000	-0.018	-0.203
-374.844	-82.551	-0.149	-0.048
-373.829	77.968	-0.074	0.079
-372.815	8.448	-0.175	0.132
-371.800	-94.748	-0.106	-0.029
-370.785	152.272	-0.082	0.112
-369.771	204.175	0.171	-0.266
-368.756	-67.740	0.292	-0.115
-367.742	11.008	0.101	-0.077
-366.727	26.789	0.123	-0.103
-365.712	42.844	0.295	-0.269
-364.698	-200.000	-0.048	-0.237
-363.683	-162.767	0.041	-0.002
-362.669	5.950	0.228	-0.169
-361.654	-136.929	0.246	-0.028
-360.639	203.782	-0.093	0.145
-359.625	-81.513	-0.154	0.051
-358.610	114.505	0.216	-0.263
-357.596	-140.461	0.326	-0.034
-356.581	-93.404	-0.137	0.038
-355.566	523.777	-0.134	0.315
-354.552	120.572	0.128	-0.160
-353.537	800.000	-0.050	-0.194
-352.523	-200.000	0.003	-0.049
-351.508	-39.485	0.059	0.031
-350.493	-58.185	-0.410	0.179
-349.479	-28.112	0.175	-0.101
-348.464	-200.000	0.051	0.373
-347.450	800.000	-0.072	0.260
-346.435	800.000	0.077	-0.334
-345.420	-84.243	-0.202	0.064
-344.406	-116.545	0.253	-0.047
-343.391	158.499	0.004	-0.006
-342.377	-53.027	-0.054	-0.025
-341.362	-200.000	0.004	0.098
-340.348	800.000	-0.052	-0.153
-339.333	-63.863	-0.291	0.119
-338.318	-200.000	0.018	-0.141
-337.304	-156.094	0.210	0.013
-336.289	36.419	0.122	0.108
-335.275	800.000	0.087	-0.320
-334.260	-80.799	0.126	0.042
-333.245	-66.541	0.324	-0.129
-332.231	172.166	-0.142	-0.204
-331.216	-6.471	0.247	0.168
-330.202	202.932	-0.022	-0.034
-329.187	71.758	-0.086	-0.090
-328.172	82.339	0.136	-0.148
-327.158	203.201	-0.172	0.267
-326.143	800.000	0.061	-0.207
-325.129	-56.022	-0.440	0.196
-324.114	200.827	0.079	0.121
-323.099	-92.323	0.437	0.123
-322.085	63.276	-0.106	0.107
-321.070	-196.877	-0.168	0.001
-320.056	116.163	0.146	0.179
-319.041	223.440	0.071	0.115
-318.026	-80.479	0.109	0.036
-317.012	-200.000	0.032	0.182
-315.997	31.855	0.063	0.055
-314.983	-193.809	-0.307	0.003
-313.968	229.870	0.334	0.546
-312.953	178.558	0.143	-0.209
-311.939	42.426	-0.280	-0.254
-310.924	-87.844	0.109	-0.033
-309.910	-55.240	-0.136	-0.061
-308.895	800.000	-0.030	0.122
-307.880	-108.348	0.201	0.043
-306.866	-200.000	0.000	-0.019
-305.851	93.047	-0.115	0.130
-304.837	-154.400	-0.120	0.008
-303.822	-200.000	-0.073	-0.437
-302.807	412.293	-0.030	-0.065
-301.793	800.000	-0.029	-0.104
-300.778	-200.000	0.030	0.514
-299.764	80.129	-0.093	-0.100
-298.749	130.331	-0.039	-0.050
-297.735	4.702	-0.031	-0.023
-296.720	-95.803	0.166	-0.044
-295.705	193.808	-0.115	0.174
-294.691	-200.000	0.007	0.261
-293.676	-87.909	0.202	-0.061
-292.662	4.024	0.214	-0.156
-291.647	200.082	0.096	0.147
-290.632	-89.476	0.121	-0.036
-289.618	430.093	-0.086	-0.187
-288.603	-42.560	0.264	0.134
-287.589	19.349	-0.138	-0.111
-286.574	-76.757	0.112	0.039
-285.559	-200.000	-0.001	-0.033
-284.545	-200.000	0.028	-0.215
-283.530	139.382	-0.174	-0.229
-282.516	247.685	-0.236	-0.398
-281.501	-119.477	0.243	-0.042
-280.486	294.313	0.133	0.242
-279.472	109.876	-0.041	-0.050
-278.457	529.838	0.167	0.395
-277.443	186.781	0.135	-0.201
-276.428	112.217	0.090	-0.108
-275.413	429.959	0.134	0.289
-274.399	-200.000	0.021	-0.129
-273.384	107.269	0.307	-0.365
-272.370	-200.000	0.052	0.322
-271.355	589.573	0.106	0.260
-270.340	383.879	-0.094	-0.194
-269.326	800.000	-0.044	-0.180
-268.311	-67.327	0.338	-0.133
-267.297	-117.484	0.206	0.037
-266.282	-10.009	0.197	-0.131
-265.267	292.381	-0.160	0.291
-264.253	199.667	0.116	0.178
-263.238	-105.652	0.237	-0.054
-262.224	73.673	0.047	0.049
-261.209	-24.941	0.135	0.080
-260.195	-60.297	0.150	0.064
-259.180	199.470	0.080	-0.122
-258.165	800.000	0.055	0.230
-257.151	109.175	0.068	0.081
-256.136	-107.897	-0.075	0.016
-255.122	18.841	-0.147	-0.118
-254.107	800.000	0.024	0.091
-253.092	-132.380	0.288	0.037
-252.078	-95.289	0.379	0.102
-251.063	-113.303	0.249	-0.049
-250.049	-116.367	-0.276	0.051
-249.034	306.748	-0.287	-0.533
-248.019	-136.207	0.212	-0.025
-247.005	184.865	-0.173	-0.256
-245.990	-142.706	0.261	-0.025
-244.976	-17.214	-0.265	-0.167
-243.961	-200.000	-0.039	-0.355
-242.946	61.216	-0.254	-0.251
-241.932	-105.108	0.555	-0.127
-240.917	-75.552	0.215	-0.076
-239.903	208.789	-0.261	0.408
-238.888	205.694	0.168	0.260
-237.873	158.759	0.093	0.129
-236.859	332.362	-0.091	0.175
-235.844	-96.794	0.118	-0.031
-234.830	-34.882	-0.054	-0.029
-233.815	-200.000	-0.022	0.258
-232.800	-10.428	0.130	0.086
-231.786	89.560	0.194	-0.216
-230.771	-90.533	-0.216	-0.062
-229.757	285.496	-0.150	-0.270
-228.742	-143.133	-0.111	-0.011
-227.727	-163.926	0.117	-0.005
-226.713	-120.674	0.540	-0.091
-225.698	-61.436	0.254	0.106
-224.684	-61.965	-0.096	-0.040
-223.669	222.693	-0.158	-0.254
-222.655	-97.380	-0.099	-0.026
-221.640	496.582	-0.079	-0.182
-220.625	800.000	0.057	-0.249
-219.611	550.522	-0.061	0.146
-218.596	-116.357	-0.142	0.026
-217.582	677.801	0.081	-0.210
-216.567	-200.000	-0.018	0.284
-215.552	-186.615	0.120	0.002
-214.538	301.994	0.176	-0.324
-213.523	191.235	-0.287	-0.431
-212.509	98.081	-0.075	-0.086
-211.494	-200.000	-0.020	0.267
-210.479	155.358	-0.100	-0.137
-209.465	364.245	-0.097	-0.193
-208.450	668.395	0.036	0.092
-207.436	-96.677	-0.062	0.016
-206.421	385.110	0.140	0.288
-205.406	159.748	-0.191	0.265
-204.392	-68.827	0.195	0.075
-203.377	-200.000	0.018	0.180
-202.363	91.779	-0.373	0.418
-201.348	-135.750	-0.235	-0.028
-200.333	-101.491	0.226	-0.055
-199.319	-140.867	0.423	-0.043
-198.304	177.536	0.049	-0.071
-197.290	-43.445	0.174	0.087
-196.275	150.974	0.138	-0.187
-195.260	-143.935	0.126	-0.012
-194.246	-26.010	0.136	0.080
-193.231	-70.830	-0.246	0.092
-192.217	-56.087	-0.221	-0.098
-191.202	-127.513	0.169	0.024
-190.187	147.118	-0.067	-0.090
-189.173	-200.000	-0.021	-0.333
-188.158	-104.360	0.154	-0.036
-187.144	-200.000	0.025	-0.213
-186.129	190.260	-0.180	-0.268
-185.114	-97.962	0.154	0.040
-184.100	800.000	0.045	-0.189
-183.085	-6.827	-0.101	0.068
-182.071	800.000	0.049	0.136
-181.056	-200.000	0.012	0.087
-180.042	-200.000	0.006	-0.252
-179.027	-136.534	-0.124	0.014
-178.012	438.328	0.015	-0.034
-176.998	-79.435	-0.418	0.141
-175.983	-70.234	-0.312	-0.118
-174.969	175.581	-0.025	-0.036
-173.954	-88.138	-0.264	0.079
-172.939	-70.112	0.384	0.145
-171.925	-75.117	-0.203	0.072
-170.910	219.451	-0.221	-0.352
-169.896	-200.000	-0.008	0.231
-168.881	-68.783	0.132	0.051
-167.866	-118.761	0.231	-0.040
-166.852	-110.224	0.030	0.006
-165.837	-138.087	0.021	0.002
-164.823	32.482	0.070	0.060
-163.808	800.000	0.063	0.194
-162.793	-46.783	-0.319	-0.155
-161.779	-200.000	-0.010	-0.074
-160.764	409.436	-0.089	-0.187
-159.750	789.961	0.039	-0.106
-158.735	55.401	-0.147	0.141
-157.720	-65.166	-0.352	0.141
-156.706	29.708	-0.196	-0.166
-155.691	669.355	0.067	0.174
-154.677	435.032	-0.070	0.152
-153.662	35.591	0.050	-0.044
-152.647	143.674	0.124	-0.164
-151.633	800.000	0.043	0.183
-150.618	-61.668	-0.263	-0.109
-149.604	465.636	0.092	0.205
-148.589	-0.008	-0.129	0.091
-147.574	-200.000	0.000	-0.085
-146.560	-154.389	0.103	0.007
-145.545	-101.719	-0.318	-0.077
-144.531	53.219	0.121	0.115
-143.516	137.809	-0.132	0.172
-142.502	-34.397	0.130	-0.071
-141.487	81.779	-0.214	0.230
-140.472	233.580	0.180	0.295
-139.458	-3.858	0.215	-0.148
-138.443	-78.915	0.240	-0.081
-137.429	-86.235	0.384	0.118
-136.414	474.166	0.013	0.030
-135.399	-160.826	-0.308	-0.016
-134.385	575.563	-0.126	-0.306
-133.370	138.534	-0.080	-0.105
-132.356	-146.033	0.187	-0.016
-131.341	-87.077	0.247	-0.075
-130.326	-65.693	-0.114	0.045
-129.312	-200.000	0.001	0.122
-128.297	-140.601	0.077	0.008
-127.283	455.340	0.079	0.174
-126.268	-1.460	-0.175	-0.123
-125.253	300.864	0.146	-0.268
-124.239	-31.154	0.126	-0.070
-123.224	-83.700	-0.225	-0.071
-122.210	800.000	-0.049	-0.136
-121.195	-142.451	0.322	-0.031
