DTS Sentinel unit serial number:	SN413079Multiplexer serial number:	ORYXHardware model number:	OX4-SRSoftware version number:	ORYX F/W v4.00 Oryx Data Collector v3.7.2.0data status	okinstallation	princeton_trtdifferential loss correction	single-endedforward channel	channel 4reverse channel	N/Adate	2019/09/17time	07:29:34forward acquisition time	60.00reverse acquisition time	0.00gamma	496.2192k internal	0.2320k external	0.2320temperature offset calibration	0.9983default loss term (dB/km)	0.3790temperature slope calibration	1.0000multiplexer offset coefficient	1.0000multiplexer slope coefficient	1.0000fibre end	0.00T internal ref (°C)	27.19T ext. ref 1 (°C)	0.12T ext. ref 2 (°C)	21.63length (m)	temperature (°C)	Stokes	anti-Stokes-747.200	87.128	0.094	0.105
-746.185	-4.107	0.294	0.206
-745.171	-25.832	0.240	-0.143
-744.156	50.690	-0.293	0.280
-743.142	216.664	-0.144	-0.232
-742.127	-78.988	-0.281	0.097
-741.112	130.863	-0.074	0.096
-740.098	800.000	-0.042	0.129
-739.083	-152.280	-0.064	0.005
-738.069	800.000	0.067	0.268
-737.054	-200.000	-0.009	-0.189
-736.039	-115.692	-0.175	-0.033
-735.025	141.548	0.223	0.299
-734.010	-57.339	-0.250	0.111
-732.996	-181.690	-0.292	0.006
-731.981	392.460	-0.049	0.102
-730.966	-112.082	-0.050	-0.010
-729.952	207.268	0.136	-0.214
-728.937	-36.537	-0.127	0.069
-727.923	-68.203	-0.201	-0.079
-726.908	800.000	0.082	0.273
-725.894	800.000	-0.032	-0.107
-724.879	-200.000	0.003	0.270
-723.864	-95.215	-0.080	0.022
-722.850	-200.000	0.027	0.372
-721.835	145.302	0.187	0.253
-720.821	114.352	0.211	0.259
-719.806	800.000	-0.044	0.175
-718.791	171.747	-0.151	0.218
-717.777	-200.000	0.070	-0.475
-716.762	-134.067	-0.223	-0.028
-715.748	41.091	0.170	0.155
-714.733	1.324	-0.135	-0.098
-713.718	-51.440	0.398	0.188
-712.704	657.743	-0.088	0.229
-711.689	11.470	-0.339	0.263
-710.675	-102.722	0.067	0.016
-709.660	800.000	0.033	0.097
-708.645	800.000	0.037	-0.147
-707.631	71.324	-0.247	0.259
-706.616	800.000	-0.048	0.162
-705.602	-72.465	-0.111	-0.041
-704.587	84.664	-0.161	-0.178
-703.572	-70.197	-0.152	0.058
-702.558	-152.993	-0.211	0.015
-701.543	-131.491	0.578	-0.077
-700.529	-84.262	-0.246	-0.079
-699.514	358.138	-0.040	-0.080
-698.499	-73.320	-0.087	-0.032
-697.485	173.092	0.188	0.273
-696.470	161.543	0.033	0.047
-695.456	-104.940	-0.274	0.063
-694.441	69.330	-0.201	-0.209
-693.426	-200.000	-0.004	-0.291
-692.412	441.436	-0.035	-0.076
-691.397	-200.000	0.023	0.227
-690.383	-58.647	-0.185	-0.081
-689.368	109.556	-0.111	0.134
-688.354	-200.000	0.003	0.032
-687.339	-200.000	-0.028	0.219
-686.324	-103.787	-0.415	0.098
-685.310	181.101	-0.109	0.161
-684.295	-200.000	-0.016	0.133
-683.281	-54.843	-0.189	0.086
-682.266	-50.036	-0.317	0.152
-681.251	-62.020	-0.168	-0.071
-680.237	-90.293	0.356	-0.104
-679.222	20.324	0.071	0.058
-678.208	-200.000	0.025	-0.419
-677.193	77.303	-0.119	0.128
-676.178	-164.615	0.200	-0.009
-675.164	136.247	0.071	0.093
-674.149	20.576	-0.165	0.135
-673.135	-200.000	-0.013	-0.108
-672.120	103.933	-0.090	0.106
-671.105	41.298	0.318	-0.290
-670.091	-146.051	0.285	0.025
-669.076	-107.178	-0.345	0.077
-668.062	800.000	0.194	-0.693
-667.047	-196.658	0.254	0.002
-666.032	-200.000	0.096	-0.460
-665.018	461.659	0.042	-0.094
-664.003	332.557	0.112	-0.218
-662.989	-133.366	-0.413	-0.052
-661.974	49.132	-0.036	-0.034
-660.959	124.963	0.220	0.280
-659.945	394.186	0.065	-0.137
-658.930	-175.982	0.208	-0.006
-657.916	800.000	-0.055	0.157
-656.901	-162.123	-0.095	-0.005
-655.886	34.985	0.170	0.150
-654.872	-200.000	-0.046	0.262
-653.857	-116.064	-0.403	0.076
-652.843	-3.968	0.254	0.178
-651.828	-102.913	0.305	0.073
-650.814	135.509	0.102	-0.134
-649.799	-200.000	-0.002	-0.010
-648.784	-54.586	-0.138	-0.063
-647.770	11.285	-0.095	-0.073
-646.755	165.145	-0.042	-0.060
-645.741	-101.887	-0.154	0.037
-644.726	-174.911	0.234	0.007
-643.711	-53.396	0.396	-0.183
-642.697	-200.000	0.000	-0.254
-641.682	110.793	0.036	0.043
-640.668	203.749	0.013	0.021
-639.653	27.601	-0.069	0.059
-638.638	-102.014	0.269	0.065
-637.624	-33.935	-0.260	-0.144
-636.609	-155.757	0.303	-0.019
-635.595	-187.285	0.069	0.001
-634.580	-129.598	-0.167	0.023
-633.565	40.802	-0.141	0.128
-632.551	-200.000	-0.025	-0.126
-631.536	-73.978	0.167	-0.061
-630.522	-94.924	0.221	-0.060
-629.507	567.126	-0.094	-0.229
-628.492	233.485	-0.045	-0.075
-627.478	-119.901	0.065	0.011
-626.463	128.388	-0.078	0.099
-625.449	94.379	0.115	0.131
-624.434	-200.000	0.040	-0.224
-623.419	800.000	-0.096	-0.279
-622.405	441.373	0.030	-0.066
-621.390	-150.994	-0.234	-0.018
-620.376	-30.330	-0.253	0.144
-619.361	-91.868	0.036	-0.010
-618.346	542.546	-0.092	0.221
-617.332	304.393	0.156	-0.292
-616.317	161.354	-0.149	-0.209
-615.303	222.420	-0.048	0.077
-614.288	3.818	0.268	-0.197
-613.273	-100.511	-0.258	0.064
-612.259	-200.000	-0.052	-0.235
-611.244	-200.000	0.084	-0.557
-610.230	-200.000	0.029	-0.388
-609.215	-109.027	-0.121	0.026
-608.201	-63.081	0.093	-0.039
-607.186	3.720	-0.100	-0.074
-606.171	-94.800	-0.408	-0.111
-605.157	-130.856	0.170	0.023
-604.142	800.000	-0.107	-0.330
-603.128	800.000	0.029	-0.091
-602.113	-200.000	0.008	0.403
-601.098	15.887	0.173	0.137
-600.084	-32.999	-0.090	-0.050
-599.069	37.211	-0.106	0.094
-598.055	-200.000	0.024	-0.206
-597.040	-200.000	0.057	-0.351
-596.025	-43.005	-0.370	-0.189
-595.011	7.652	-0.123	-0.093
-593.996	-200.000	0.003	-0.156
-592.982	-114.263	0.124	0.024
-591.967	-166.410	0.223	-0.009
-590.952	-92.708	-0.114	0.032
-589.938	40.053	-0.318	-0.287
-588.923	-200.000	-0.055	-0.272
-587.909	-200.000	0.036	0.273
-586.894	800.000	0.040	0.149
-585.879	-51.318	-0.383	0.180
-584.865	676.861	-0.093	-0.244
-583.850	800.000	-0.095	0.269
-582.836	52.620	-0.130	0.124
-581.821	65.745	0.285	0.290
-580.806	-69.450	-0.106	-0.041
-579.792	61.292	0.200	0.200
-578.777	467.085	-0.038	-0.086
-577.763	-79.647	0.116	0.039
-576.748	147.068	-0.230	-0.311
-575.733	-1.988	-0.075	0.053
-574.719	-200.000	0.012	0.111
-573.704	186.662	-0.099	-0.148
-572.690	-177.728	-0.143	0.003
-571.675	-66.531	0.230	-0.092
-570.661	48.522	-0.103	0.097
-569.646	-42.491	-0.467	0.239
-568.631	211.206	0.017	0.027
-567.617	-120.592	-0.196	-0.033
-566.602	-200.000	0.102	0.479
-565.588	-84.732	0.186	0.059
-564.573	-92.074	0.282	-0.080
-563.558	800.000	-0.089	0.292
-562.544	202.858	-0.143	0.221
-561.529	-200.000	0.050	0.307
-560.515	-85.908	-0.200	-0.062
-559.500	-200.000	-0.034	-0.205
-558.485	-200.000	-0.018	0.120
-557.471	-200.000	-0.001	-0.144
-556.456	-27.520	0.264	0.154
-555.442	17.177	0.215	0.171
-554.427	-200.000	-0.020	-0.097
-553.412	800.000	0.058	0.183
-552.398	525.223	-0.046	0.108
-551.383	-200.000	-0.059	-0.342
-550.369	-143.495	0.125	-0.012
-549.354	-200.000	-0.045	0.326
-548.339	-116.491	0.151	0.028
-547.325	6.593	0.252	-0.188
-546.310	-53.873	-0.140	-0.064
-545.296	-102.057	-0.431	-0.104
-544.281	-33.161	-0.331	0.184
-543.266	92.965	0.042	0.048
-542.252	-31.419	0.196	0.111
-541.237	38.326	-0.130	-0.117
-540.223	-200.000	0.056	0.294
-539.208	18.445	-0.251	-0.201
-538.193	-158.627	0.219	0.013
-537.179	21.855	0.278	0.227
-536.164	227.456	0.042	-0.068
-535.150	-200.000	0.000	0.050
-534.135	324.816	-0.031	-0.059
-533.121	-130.578	0.082	0.011
-532.106	36.307	0.148	0.131
-531.091	59.522	-0.048	0.047
-530.077	63.696	-0.214	-0.216
-529.062	800.000	0.119	-0.410
-528.048	-163.550	-0.205	-0.010
-527.033	800.000	-0.062	-0.183
-526.018	-37.998	0.246	-0.131
-525.004	-182.619	-0.183	0.003
-523.989	-200.000	0.025	0.119
-522.975	-152.799	0.474	0.034
-521.960	-83.166	-0.312	0.101
-520.945	39.303	-0.212	-0.190
-519.931	292.005	0.160	0.292
-518.916	-200.000	-0.009	0.208
-517.902	137.836	0.173	0.228
-516.887	136.603	-0.230	-0.300
-515.872	-94.337	-0.307	0.084
-514.858	195.510	-0.175	-0.266
-513.843	-82.413	0.099	-0.032
-512.829	119.132	0.055	-0.068
-511.814	-100.431	-0.264	-0.066
-510.799	-195.559	0.091	0.001
-509.785	558.019	0.075	-0.182
-508.770	132.628	-0.097	0.125
-507.756	-57.306	-0.363	0.160
-506.741	-200.000	0.004	-0.037
-505.726	20.725	0.150	0.122
-504.712	800.000	0.048	-0.141
-503.697	-46.372	-0.336	0.165
-502.683	432.000	-0.131	0.284
-501.668	-76.043	-0.176	0.062
-500.653	130.937	-0.200	-0.257
-499.639	-48.665	0.333	0.160
-498.624	182.485	-0.155	-0.228
-497.610	-44.284	0.010	0.005
-496.595	-22.707	-0.034	-0.021
-495.581	-22.702	0.250	-0.151
-494.566	66.408	0.184	0.187
-493.551	-74.594	-0.282	-0.101
-492.537	-35.964	0.111	0.060
-491.522	-54.198	0.243	-0.111
-490.508	-200.000	-0.045	0.251
-489.493	-16.663	-0.166	0.105
-488.478	-200.000	0.018	-0.113
-487.464	9.787	-0.191	-0.145
-486.449	-62.212	0.206	-0.086
-485.435	-200.000	0.076	0.573
-484.420	1.431	-0.127	0.091
-483.405	605.103	-0.117	0.293
-482.391	-200.000	0.033	0.272
-481.376	800.000	-0.005	-0.017
-480.362	-144.404	-0.162	-0.015
-479.347	-14.650	-0.304	-0.195
-478.332	54.706	-0.271	-0.262
-477.318	547.597	0.065	0.155
-476.303	40.775	0.122	-0.110
-475.289	-61.540	0.053	0.022
-474.274	440.855	0.052	-0.114
-473.259	464.211	0.026	-0.058
-472.245	-59.768	0.498	0.213
-471.230	665.755	0.101	0.261
-470.216	275.899	0.088	-0.157
-469.201	-200.000	-0.012	-0.125
-468.186	-200.000	0.001	0.150
-467.172	-89.863	0.218	-0.064
-466.157	-200.000	-0.064	0.409
-465.143	-200.000	-0.001	-0.221
-464.128	449.063	0.073	-0.161
-463.113	50.220	-0.190	-0.179
-462.099	-100.720	-0.194	-0.048
-461.084	-80.400	-0.315	-0.105
-460.070	800.000	0.073	-0.214
-459.055	237.693	-0.072	-0.119
-458.040	-10.888	-0.126	0.084
-457.026	-77.386	-0.157	-0.054
-456.011	97.128	0.059	0.068
-454.997	-99.376	-0.187	-0.047
-453.982	127.687	-0.051	-0.065
-452.968	800.000	0.029	-0.081
-451.953	-20.519	-0.128	-0.078
-450.938	464.190	-0.027	0.061
-449.924	682.628	0.081	-0.212
-448.909	-200.000	0.034	-0.291
-447.895	800.000	-0.080	0.237
-446.880	181.693	0.109	0.160
-445.865	-200.000	0.018	-0.153
-444.851	-11.653	-0.180	0.118
-443.836	91.669	-0.116	0.130
-442.822	386.936	0.079	0.163
-441.807	-163.726	0.140	0.007
-440.792	-94.705	0.225	-0.061
-439.778	-178.074	-0.241	-0.006
-438.763	91.688	0.242	0.272
-437.749	47.657	-0.259	0.242
-436.734	-117.372	0.243	-0.044
-435.719	727.566	-0.071	0.189
-434.705	5.447	-0.079	-0.058
-433.690	-152.062	0.211	-0.015
-432.676	375.739	-0.098	-0.199
-431.661	-118.843	-0.287	0.050
-430.646	-42.703	-0.249	0.126
-429.632	37.995	0.268	0.238
-428.617	-155.346	-0.236	0.015
-427.603	33.009	0.278	-0.240
-426.588	-115.332	0.263	-0.050
-425.573	-95.236	-0.163	-0.044
-424.559	-57.783	0.268	-0.117
-423.544	-114.745	0.042	0.008
-422.530	-42.805	0.162	0.082
-421.515	-81.450	0.045	0.015
-420.500	-124.056	0.101	0.016
-419.486	-200.000	0.017	0.339
-418.471	-200.000	0.013	-0.226
-417.457	-81.987	0.043	0.014
-416.442	-200.000	-0.000	-0.132
-415.428	12.537	-0.087	-0.067
-414.413	656.457	0.079	0.202
-413.398	117.464	0.266	0.327
-412.384	-157.726	0.129	-0.008
-411.369	800.000	-0.039	-0.115
-410.355	-200.000	-0.021	-0.491
-409.340	296.161	0.082	0.151
-408.325	-53.383	0.084	0.039
-407.311	-200.000	0.063	0.284
-406.296	-121.100	-0.367	0.061
-405.282	-142.545	-0.125	0.012
-404.267	-21.420	-0.077	0.047
-403.252	800.000	-0.034	0.104
-402.238	-103.941	0.080	0.019
-401.223	-22.324	-0.124	0.075
-400.209	85.338	0.161	-0.176
-399.194	-75.512	-0.282	-0.100
-398.179	-200.000	-0.015	-0.301
-397.165	-190.566	-0.104	0.001
-396.150	-200.000	-0.081	0.000
-395.136	-144.177	0.090	-0.008
-394.121	-200.000	-0.004	0.310
-393.106	-84.754	-0.196	0.061
-392.092	558.666	0.063	-0.152
-391.077	-128.709	0.232	0.033
-390.063	4.024	0.155	-0.113
-389.048	32.287	-0.128	0.111
-388.033	-61.116	0.216	0.091
-387.019	76.752	0.380	0.403
-386.004	-159.447	0.236	0.013
-384.990	-200.000	0.019	0.258
-383.975	-92.055	-0.228	-0.064
-382.960	-15.127	0.108	0.069
-381.946	800.000	-0.091	0.326
-380.931	-92.366	0.084	0.023
-379.917	-200.000	0.012	0.057
-378.902	-178.696	-0.367	-0.008
-377.888	250.700	0.071	-0.120
-376.873	-23.780	-0.182	-0.108
-375.858	-21.012	-0.289	0.176
-374.844	-49.645	-0.081	-0.038
-373.829	-200.000	0.000	-0.054
-372.815	45.224	0.221	0.203
-371.800	43.539	0.163	-0.149
-370.785	224.493	0.080	-0.129
-369.771	-71.357	0.127	-0.047
-368.756	71.769	-0.068	0.070
-367.742	150.927	-0.267	0.362
-366.727	-200.000	0.052	0.345
-365.712	-200.000	0.039	0.280
-364.698	189.249	0.152	0.227
-363.683	-200.000	-0.018	-0.201
-362.669	800.000	0.020	-0.081
-361.654	800.000	0.035	-0.099
-360.639	-9.287	0.317	-0.211
-359.625	-41.864	-0.175	0.089
-358.610	264.077	-0.063	0.109
-357.596	21.741	0.378	-0.307
-356.581	44.990	-0.118	0.108
-355.566	154.267	-0.217	-0.296
-354.552	118.541	-0.406	-0.499
-353.537	48.701	0.161	-0.150
-352.523	800.000	-0.042	0.173
-351.508	244.953	-0.192	0.322
-350.493	-69.219	-0.290	-0.111
-349.479	-136.459	-0.318	0.037
-348.464	-200.000	-0.033	-0.362
-347.450	-20.200	0.144	-0.088
-346.435	353.335	-0.151	-0.298
-345.420	-200.000	-0.006	-0.238
-344.406	-187.207	-0.159	0.002
-343.391	-144.934	0.155	0.014
-342.377	-77.605	0.159	0.055
-341.362	-154.982	-0.284	0.019
-340.348	423.538	-0.170	-0.365
-339.333	462.750	0.055	-0.121
-338.318	252.372	0.154	0.261
-337.304	-43.923	0.199	0.099
-336.289	59.762	-0.089	0.087
-335.275	-78.165	-0.154	0.053
-334.260	800.000	0.066	-0.263
-333.245	-155.531	0.172	-0.011
-332.231	114.247	0.113	0.137
-331.216	-147.276	0.110	-0.009
-330.202	83.047	0.039	0.042
-329.187	-12.281	-0.105	-0.068
-328.172	800.000	-0.034	-0.108
-327.158	-200.000	-0.083	0.421
-326.143	-19.508	0.073	-0.045
-325.129	-141.473	-0.145	0.015
-324.114	-145.498	-0.047	0.004
-323.099	-9.521	-0.219	-0.145
-322.085	21.429	0.199	-0.161
-321.070	402.348	0.124	0.259
-320.056	-188.020	-0.295	-0.004
-319.041	-200.000	-0.001	0.128
-318.026	-200.000	0.029	0.152
-317.012	-177.548	-0.126	-0.003
-315.997	445.560	-0.081	0.176
-314.983	800.000	-0.052	-0.170
-313.968	-61.829	0.142	-0.059
-312.953	-50.334	0.350	0.165
-311.939	73.903	-0.213	-0.222
-310.924	-33.492	0.329	0.181
-309.910	776.437	0.076	0.207
-308.895	49.422	-0.225	0.210
-307.880	29.984	-0.180	-0.153
-306.866	603.183	0.108	0.267
-305.851	-200.000	-0.010	-0.221
-304.837	25.205	-0.171	-0.141
-303.822	-163.506	0.401	0.019
-302.807	115.877	0.077	0.094
-301.793	373.291	-0.128	0.259
-300.778	800.000	0.068	0.277
-299.764	20.637	0.153	0.123
-298.749	9.875	-0.071	0.053
-297.735	-23.381	0.243	-0.145
-296.720	363.109	0.116	-0.232
-295.705	-200.000	0.004	0.454
-294.691	528.247	0.077	0.179
-293.676	-139.487	0.271	-0.029
-292.662	-27.990	0.469	-0.270
-291.647	43.265	0.096	0.087
-290.632	330.108	0.067	0.127
-289.618	-200.000	0.054	-0.262
-288.603	-114.072	-0.074	-0.014
-287.589	-200.000	0.025	0.292
-286.574	-129.823	-0.438	-0.060
-285.559	800.000	-0.086	0.270
-284.545	285.023	-0.055	0.099
-283.530	105.903	-0.260	0.306
-282.516	711.898	0.088	-0.231
-281.501	-54.098	0.150	-0.068
-280.486	-200.000	-0.007	-0.333
-279.472	-92.702	0.126	0.035
-278.457	800.000	0.053	0.168
-277.443	-143.371	0.203	-0.019
-276.428	-84.728	-0.193	-0.060
-275.413	800.000	-0.011	-0.039
-274.399	146.568	0.074	0.098
-273.384	265.630	-0.230	0.399
-272.370	312.435	0.097	0.182
-271.355	45.821	0.361	0.332
-270.340	438.146	-0.118	-0.256
-269.326	120.119	0.143	0.176
-268.311	447.618	-0.095	-0.208
-267.297	-180.799	-0.202	0.004
-266.282	800.000	0.053	0.226
-265.267	800.000	-0.094	-0.329
-264.253	-91.416	0.264	-0.075
-263.238	105.611	-0.100	-0.117
-262.224	594.927	-0.048	-0.118
-261.209	-200.000	-0.017	-0.160
-260.195	261.546	0.040	-0.068
-259.180	-200.000	0.053	0.485
-258.165	16.917	0.130	0.102
-257.151	305.680	0.068	-0.125
-256.136	-11.735	-0.276	0.180
-255.122	88.020	0.074	0.081
-254.107	639.021	0.044	0.111
-253.092	330.262	0.162	0.310
-252.078	70.526	0.202	0.207
-251.063	-2.112	0.157	-0.109
-250.049	-11.021	-0.208	-0.136
-249.034	-6.059	0.360	-0.244
-248.019	-200.000	-0.029	-0.178
-247.005	-151.886	0.252	0.018
-245.990	-200.000	-0.064	0.387
-244.976	587.929	-0.048	-0.118
-243.961	-95.086	0.073	-0.020
-242.946	-200.000	-0.012	-0.122
-241.932	-71.764	0.510	-0.188
-240.917	61.722	-0.202	0.200
-239.903	4.844	-0.251	-0.183
-238.888	35.489	0.067	0.058
-237.873	-104.008	0.491	0.113
-236.859	-33.509	-0.418	-0.229
-235.844	140.333	0.226	-0.295
-234.830	383.111	0.049	-0.100
-233.815	-100.285	0.095	0.023
-232.800	-41.398	0.303	-0.155
-231.786	800.000	0.052	0.154
-230.771	-109.965	0.057	-0.012
-229.757	-74.191	-0.330	-0.118
-228.742	244.500	-0.039	0.065
-227.727	-200.000	-0.021	0.101
-226.713	49.032	0.167	-0.156
-225.698	323.785	0.129	0.245
-224.684	-23.229	-0.070	-0.042
-223.669	800.000	-0.048	-0.188
-222.655	-200.000	0.016	0.097
-221.640	-195.311	0.148	0.001
-220.625	248.268	0.063	0.105
-219.611	-157.366	-0.244	0.015
-218.596	-153.340	-0.115	-0.008
-217.582	-89.662	0.423	-0.123
-216.567	190.032	0.185	-0.275
-215.552	-18.922	0.274	0.169
-214.538	-23.761	-0.138	0.082
-213.523	75.915	-0.186	-0.194
-212.509	800.000	0.030	-0.116
-211.494	104.384	0.126	-0.147
-210.479	-88.512	-0.014	0.004
-209.465	-200.000	-0.061	0.324
-208.450	-115.658	-0.339	0.063
-207.436	163.695	-0.093	-0.130
-206.421	-200.000	-0.006	0.141
-205.406	-139.592	-0.354	0.037
-204.392	-152.016	0.428	-0.031
-203.377	-40.131	0.204	0.105
-202.363	-122.602	-0.396	0.064
-201.348	-200.000	-0.046	-0.275
-200.333	-30.579	0.182	-0.102
-199.319	5.416	-0.072	0.053
-198.304	35.745	0.175	-0.152
-197.290	122.312	0.120	0.149
-196.275	152.002	-0.120	-0.161
-195.260	183.474	-0.272	0.398
-194.246	-200.000	-0.011	0.181
-193.231	-34.084	0.282	0.153
-192.217	191.997	0.040	0.059
-191.202	-115.912	-0.079	0.015
-190.187	-98.958	-0.265	0.067
-189.173	-200.000	-0.001	0.049
-188.158	-200.000	0.014	-0.352
-187.144	-43.686	-0.100	0.050
-186.129	-86.190	0.365	-0.111
-185.114	-141.776	-0.204	0.020
-184.100	-93.004	0.175	0.048
-183.085	300.204	-0.213	-0.388
-182.071	189.050	0.116	0.171
-181.056	-36.020	0.250	-0.134
-180.042	10.831	-0.121	0.091
-179.027	-39.474	0.266	-0.138
-178.012	-8.572	-0.136	0.090
-176.998	-151.497	-0.274	-0.020
-175.983	160.444	-0.132	0.182
-174.969	31.535	0.115	-0.097
-173.954	49.550	-0.210	-0.195
-172.939	-200.000	0.029	-0.288
-171.925	565.544	0.048	-0.114
-170.910	800.000	-0.047	0.202
-169.896	-127.448	0.379	0.054
-168.881	75.260	0.128	0.134
-167.866	766.825	-0.123	-0.330
-166.852	-74.402	-0.307	-0.110
-165.837	323.657	0.069	0.130
-164.823	274.148	0.027	-0.048
-163.808	-134.566	0.042	-0.005
-162.793	-45.281	0.205	0.101
-161.779	800.000	0.089	-0.271
-160.764	605.638	0.043	-0.106
-159.750	-49.126	0.119	-0.056
-158.735	-83.262	0.287	-0.091
-157.720	195.698	0.106	-0.159
-156.706	-92.066	-0.288	0.080
-155.691	4.764	-0.119	-0.086
-154.677	-200.000	0.011	0.052
-153.662	745.237	-0.015	-0.041
-152.647	-129.438	0.218	0.030
-151.633	-114.009	-0.118	-0.023
-150.618	-71.415	-0.148	0.055
-149.604	-149.101	0.439	0.035
-148.589	125.767	-0.253	-0.315
-147.574	54.764	0.026	-0.025
-146.560	-119.294	-0.393	-0.068
-145.545	-80.374	0.146	0.048
-144.531	-200.000	-0.032	0.164
-143.516	168.564	-0.107	-0.151
-142.502	614.558	-0.060	0.149
-141.487	-200.000	0.012	-0.071
-140.472	-52.083	-0.260	0.119
-139.458	-200.000	-0.017	0.134
-138.443	-54.553	-0.316	-0.141
-137.429	800.000	0.049	0.198
-136.414	800.000	-0.068	0.280
-135.399	-7.510	0.172	-0.115
-134.385	64.109	-0.137	0.136
-133.370	-179.023	-0.163	-0.004
-132.356	-105.493	0.323	-0.072
-131.341	-28.580	-0.178	0.101
-130.326	203.885	-0.183	0.279
-129.312	-109.878	0.074	-0.015
-128.297	-7.461	0.171	-0.115
-127.283	352.448	0.143	0.280
-126.268	-111.814	-0.283	0.057
-125.253	-200.000	-0.033	-0.161
-124.239	-76.047	0.258	0.090
-123.224	52.809	0.095	0.090
-122.210	47.537	-0.284	-0.261
-121.195	800.000	-0.042	0.120
