DTS Sentinel unit serial number:	SN413079Multiplexer serial number:	ORYXHardware model number:	OX4-SRSoftware version number:	ORYX F/W v4.00 Oryx Data Collector v3.7.2.0data status	okinstallation	princeton_trtdifferential loss correction	single-endedforward channel	channel 4reverse channel	N/Adate	2019/09/19time	14:53:35forward acquisition time	60.00reverse acquisition time	0.00gamma	496.2192k internal	0.2304k external	0.2304temperature offset calibration	1.0022default loss term (dB/km)	0.3790temperature slope calibration	1.0000multiplexer offset coefficient	1.0000multiplexer slope coefficient	1.0000fibre end	0.00T internal ref (°C)	32.94T ext. ref 1 (°C)	1.12T ext. ref 2 (°C)	29.86length (m)	temperature (°C)	Stokes	anti-Stokes-747.200	800.000	-0.091	-0.344
-746.185	-72.163	0.271	-0.102
-745.171	-46.721	0.030	0.015
-744.156	136.022	-0.069	0.092
-743.142	62.561	0.233	-0.237
-742.127	238.516	0.019	-0.032
-741.112	261.508	-0.261	-0.460
-740.098	338.007	0.212	-0.419
-739.083	-87.987	0.108	-0.033
-738.069	-13.253	-0.312	0.206
-737.054	95.908	0.057	-0.066
-736.039	404.211	-0.083	-0.179
-735.025	92.239	0.473	0.543
-734.010	-0.872	-0.179	0.129
-732.996	134.647	0.030	-0.040
-731.981	200.092	0.089	0.139
-730.966	657.818	0.107	0.281
-729.952	-4.981	-0.305	0.214
-728.937	-126.865	-0.185	-0.028
-727.923	261.573	0.049	0.087
-726.908	-68.932	0.120	-0.047
-725.894	331.634	-0.060	0.118
-724.879	-149.788	-0.265	0.021
-723.864	29.631	0.085	-0.074
-722.850	-200.000	0.061	-0.271
-721.835	105.137	0.220	-0.264
-720.821	-166.426	-0.388	0.017
-719.806	109.490	0.030	0.036
-718.791	1.327	0.166	0.121
-717.777	-74.055	-0.484	-0.179
-716.762	-14.012	-0.031	-0.020
-715.748	-200.000	-0.008	0.433
-714.733	-64.409	0.158	0.066
-713.718	489.269	-0.167	-0.389
-712.704	3.907	-0.198	0.147
-711.689	-57.692	-0.209	-0.093
-710.675	15.391	0.170	0.136
-709.660	-200.000	-0.027	0.259
-708.645	-162.518	0.155	-0.008
-707.631	127.371	-0.295	0.381
-706.616	122.778	-0.200	-0.254
-705.602	-200.000	-0.050	-0.243
-704.587	800.000	-0.105	0.323
-703.572	8.943	-0.132	0.102
-702.558	-18.468	0.015	-0.010
-701.543	-7.120	0.352	-0.243
-700.529	800.000	0.034	-0.134
-699.514	45.862	0.166	0.156
-698.499	-16.111	-0.228	-0.147
-697.485	-30.204	-0.185	0.107
-696.470	86.244	-0.168	-0.188
-695.456	158.211	0.012	0.017
-694.441	121.660	0.074	-0.093
-693.426	1.445	-0.110	0.081
-692.412	41.157	-0.213	-0.196
-691.397	-57.909	0.066	-0.029
-690.383	83.225	-0.073	-0.081
-689.368	183.907	-0.084	-0.127
-688.354	-200.000	-0.009	0.365
-687.339	254.193	0.197	-0.343
-686.324	-12.368	-0.127	-0.085
-685.310	-14.432	0.165	0.108
-684.295	-131.123	0.224	-0.030
-683.281	62.538	0.060	-0.061
-682.266	45.193	0.120	-0.113
-681.251	-186.249	-0.221	-0.003
-680.237	12.344	0.194	-0.152
-679.222	-106.663	-0.121	0.027
-678.208	97.882	0.024	-0.028
-677.193	-15.093	-0.150	-0.098
-676.178	218.479	0.096	-0.156
-675.164	800.000	0.064	0.250
-674.149	800.000	0.004	-0.013
-673.135	-154.437	-0.357	0.024
-672.120	-48.154	0.192	-0.094
-671.105	-96.214	-0.117	-0.031
-670.091	-200.000	-0.006	0.140
-669.076	-200.000	-0.038	-0.343
-668.062	30.429	0.159	-0.138
-667.047	-78.881	0.120	0.041
-666.032	-200.000	0.087	0.389
-665.018	64.005	0.065	-0.066
-664.003	800.000	-0.131	0.450
-662.989	-71.259	-0.325	0.124
-661.974	-138.093	0.520	-0.059
-660.959	-157.299	-0.312	0.019
-659.945	158.051	-0.177	0.249
-658.930	-200.000	-0.007	0.326
-657.916	-200.000	0.052	0.440
-656.901	-200.000	0.044	0.313
-655.886	-44.756	-0.074	0.037
-654.872	408.684	0.064	-0.137
-653.857	-110.986	-0.433	0.090
-652.843	-200.000	0.000	-0.202
-651.828	235.204	-0.132	0.220
-650.814	-200.000	-0.003	0.523
-649.799	2.514	0.124	-0.091
-648.784	210.436	-0.113	-0.180
-647.770	182.605	-0.164	-0.245
-646.755	465.532	0.139	-0.315
-645.741	22.871	-0.030	-0.025
-644.726	613.914	0.042	-0.105
-643.711	98.678	0.191	-0.224
-642.697	29.101	-0.208	0.179
-641.682	-119.359	0.033	0.006
-640.668	-200.000	-0.009	0.317
-639.653	23.605	-0.071	-0.059
-638.638	-45.896	-0.137	-0.068
-637.624	26.980	0.231	0.197
-636.609	796.794	0.052	0.144
-635.595	-17.000	0.106	0.068
-634.580	306.633	-0.137	0.259
-633.565	-79.353	0.135	-0.046
-632.551	40.285	0.172	0.157
-631.536	266.828	-0.144	0.255
-630.522	-88.924	0.057	0.017
-629.507	659.807	0.133	-0.347
-628.492	-43.057	-0.228	-0.117
-627.478	-200.000	0.022	-0.270
-626.463	-140.793	-0.244	-0.026
-625.449	-173.575	-0.115	0.004
-624.434	800.000	-0.131	0.410
-623.419	-200.000	-0.006	-0.158
-622.405	-200.000	-0.017	-0.318
-621.390	-42.568	0.466	0.241
-620.376	116.599	0.118	-0.147
-619.361	-200.000	-0.010	-0.479
-618.346	-17.003	-0.197	-0.126
-617.332	-87.882	0.101	0.031
-616.317	-105.246	0.239	-0.055
-615.303	-54.905	-0.207	-0.095
-614.288	29.312	0.191	-0.165
-613.273	-200.000	0.028	-0.419
-612.259	174.144	-0.143	-0.210
-611.244	-68.201	0.375	0.148
-610.230	-125.309	0.262	0.041
-609.215	-67.545	0.112	0.044
-608.201	-200.000	0.038	0.189
-607.186	-60.195	-0.021	-0.009
-606.171	-81.233	0.252	0.084
-605.157	800.000	0.089	0.257
-604.142	-60.534	-0.131	0.057
-603.128	168.431	-0.044	-0.064
-602.113	122.026	0.247	0.313
-601.098	113.964	0.168	-0.207
-600.084	220.809	-0.058	-0.094
-599.069	-37.630	-0.009	-0.005
-598.055	800.000	-0.069	0.198
-597.040	305.126	-0.018	-0.035
-596.025	210.722	0.048	0.076
-595.011	138.773	-0.099	0.132
-593.996	36.911	-0.106	-0.095
-592.982	62.681	-0.077	-0.078
-591.967	-182.989	-0.304	-0.005
-590.952	800.000	-0.021	0.075
-589.938	-200.000	0.017	-0.195
-588.923	-83.982	-0.142	0.046
-587.909	-69.803	-0.220	0.085
-586.894	-200.000	0.016	0.225
-585.879	45.584	-0.025	0.023
-584.865	-155.154	0.055	-0.004
-583.850	-157.031	-0.278	-0.017
-582.836	665.072	0.086	-0.224
-581.821	28.407	-0.063	-0.054
-580.806	800.000	0.077	-0.293
-579.792	-10.622	0.379	-0.254
-578.777	514.718	0.019	-0.044
-577.763	633.071	-0.067	0.173
-576.748	21.802	0.199	-0.164
-575.733	76.581	-0.072	0.077
-574.719	152.762	-0.091	0.125
-573.704	180.988	-0.124	-0.184
-572.690	-56.254	-0.230	0.103
-571.675	-15.622	0.055	-0.036
-570.661	-31.403	-0.102	-0.058
-569.646	-196.386	-0.343	-0.002
-568.631	-112.034	-0.345	-0.070
-567.617	123.712	-0.131	0.166
-566.602	-120.586	-0.163	0.028
-565.588	-121.810	0.251	0.042
-564.573	164.407	0.082	-0.118
-563.558	-94.159	-0.096	0.027
-562.544	101.560	-0.039	-0.046
-561.529	-112.297	-0.139	0.028
-560.515	-66.011	0.369	-0.149
-559.500	-200.000	0.052	-0.349
-558.485	-200.000	-0.048	0.472
-557.471	-15.612	0.193	-0.124
-556.456	800.000	0.058	0.230
-555.442	567.061	-0.101	-0.248
-554.427	-200.000	0.002	0.161
-553.412	-200.000	-0.048	-0.303
-552.398	792.167	0.035	0.097
-551.383	93.924	0.146	0.167
-550.369	-30.812	-0.135	0.077
-549.354	231.174	-0.182	0.301
-548.339	-200.000	-0.053	-0.308
-547.325	-105.917	-0.132	0.030
-546.310	-108.797	-0.146	-0.031
-545.296	-11.429	0.205	-0.136
-544.281	-157.315	-0.269	0.016
-543.266	626.978	-0.067	-0.170
-542.252	91.181	0.172	0.195
-541.237	25.324	0.127	-0.106
-540.223	-200.000	0.015	0.170
-539.208	-190.204	0.332	-0.004
-538.193	-73.623	-0.084	-0.031
-537.179	800.000	0.082	-0.250
-536.164	-200.000	-0.011	-0.124
-535.150	-79.447	0.323	0.110
-534.135	-200.000	-0.012	0.127
-533.121	311.150	-0.149	-0.283
-532.106	800.000	0.031	0.125
-531.091	324.957	-0.157	0.303
-530.077	-28.205	0.142	-0.083
-529.062	-75.271	-0.086	0.031
-528.048	29.711	0.328	-0.282
-527.033	-200.000	0.003	0.091
-526.018	1.291	0.167	-0.121
-525.004	171.181	-0.167	-0.242
-523.989	78.655	-0.209	0.225
-522.975	-51.456	0.141	-0.067
-521.960	-200.000	-0.009	0.200
-520.945	-200.000	0.054	0.452
-519.931	418.704	0.094	0.204
-518.916	62.753	-0.141	0.143
-517.902	86.352	-0.068	-0.075
-516.887	-200.000	-0.001	-0.131
-515.872	288.863	0.143	0.261
-514.858	-13.169	-0.090	0.059
-513.843	-200.000	-0.024	0.322
-512.829	-109.234	-0.087	-0.019
-511.814	401.880	0.076	-0.162
-510.799	-131.801	-0.076	0.010
-509.785	43.845	0.102	0.094
-508.770	-73.841	0.072	0.026
-507.756	-29.897	0.208	0.119
-506.741	800.000	-0.102	0.310
-505.726	-200.000	-0.069	0.698
-504.712	-61.452	0.231	0.098
-503.697	-56.450	-0.281	0.126
-502.683	83.207	-0.177	0.194
-501.668	-120.445	-0.207	-0.036
-500.653	-200.000	0.025	0.172
-499.639	159.537	-0.073	0.102
-498.624	-72.054	-0.107	0.040
-497.610	-131.212	-0.141	0.019
-496.595	-200.000	-0.012	0.410
-495.581	26.984	0.107	0.090
-494.566	5.648	0.310	0.231
-493.551	-37.948	-0.250	0.134
-492.537	-200.000	0.014	-0.093
-491.522	-12.401	-0.181	0.119
-490.508	-61.124	0.249	-0.106
-489.493	-173.621	0.404	-0.012
-488.478	-22.577	0.148	-0.090
-487.464	-119.206	-0.421	0.074
-486.449	-200.000	-0.003	-0.088
-485.435	162.911	0.126	-0.179
-484.420	-200.000	-0.054	0.261
-483.405	16.510	0.238	0.190
-482.391	-70.256	-0.154	0.059
-481.376	800.000	0.037	0.151
-480.362	-160.117	0.393	0.022
-479.347	800.000	0.016	0.061
-478.332	34.799	-0.194	-0.171
-477.318	73.898	-0.211	0.223
-476.303	-156.191	0.522	0.033
-475.289	800.000	0.115	-0.379
-474.274	-161.970	0.350	-0.018
-473.259	223.834	-0.246	-0.400
-472.245	-70.160	0.134	0.051
-471.230	800.000	-0.083	-0.328
-470.216	80.105	-0.219	-0.237
-469.201	86.636	-0.177	0.196
-468.186	-6.603	-0.195	-0.133
-467.172	-200.000	0.003	-0.319
-466.157	-136.857	0.172	0.020
-465.143	800.000	0.065	-0.249
-464.128	-40.935	-0.150	0.078
-463.113	800.000	-0.064	-0.270
-462.099	-200.000	0.037	0.176
-461.084	-64.966	0.118	0.048
-460.070	-125.996	-0.340	0.051
-459.055	-110.943	-0.390	0.081
-458.040	-200.000	-0.029	0.139
-457.026	107.227	-0.332	-0.397
-456.011	-103.339	0.361	0.086
-454.997	462.573	0.143	-0.320
-453.982	565.523	-0.104	0.253
-452.968	-5.931	-0.298	0.205
-451.953	-106.249	-0.116	-0.026
-450.938	10.688	-0.093	0.071
-449.924	11.322	-0.181	0.139
-448.909	127.656	-0.185	-0.236
-447.895	71.876	0.219	-0.230
-446.880	128.805	-0.236	0.302
-445.865	45.900	0.176	-0.164
-444.851	-3.314	0.205	-0.143
-443.836	433.283	-0.052	0.114
-442.822	-200.000	0.037	0.196
-441.807	26.850	0.121	0.102
-440.792	-118.517	-0.162	0.029
-439.778	-62.565	-0.272	0.114
-438.763	-14.244	-0.120	0.078
-437.749	-200.000	0.009	0.097
-436.734	800.000	0.075	-0.261
-435.719	-200.000	-0.008	0.191
-434.705	-145.226	0.431	0.039
-433.690	3.655	0.025	-0.018
-432.676	116.171	-0.091	-0.112
-431.661	-161.003	0.171	-0.009
-430.646	36.389	0.290	-0.257
-429.632	321.696	0.103	-0.196
-428.617	-117.889	-0.495	-0.089
-427.603	19.451	-0.360	-0.291
-426.588	132.467	-0.078	-0.101
-425.573	-200.000	-0.056	-0.338
-424.559	-38.879	-0.356	0.189
-423.544	-200.000	-0.032	-0.211
-422.530	-200.000	0.007	0.047
-421.515	-12.689	-0.280	-0.184
-420.500	302.095	0.095	-0.177
-419.486	78.883	0.102	-0.109
-418.471	151.223	-0.121	-0.165
-417.457	-28.808	0.071	-0.041
-416.442	-44.975	0.205	0.103
-415.428	-67.976	0.204	0.080
-414.413	113.062	0.046	-0.057
-413.398	-137.492	-0.277	0.031
-412.384	-120.208	-0.319	0.055
-411.369	-101.322	0.157	-0.038
-410.355	-134.000	0.159	0.020
-409.340	181.062	-0.112	0.166
-408.325	158.819	-0.210	-0.293
-407.311	463.428	0.240	-0.539
-406.296	443.913	0.063	0.139
-405.282	78.850	-0.140	-0.150
-404.267	-194.456	-0.283	-0.002
-403.252	-113.485	0.193	-0.038
-402.238	367.488	-0.100	0.203
-401.223	-26.476	-0.218	0.128
-400.209	800.000	0.088	0.282
-399.194	-99.493	-0.028	0.007
-398.179	132.990	-0.074	-0.096
-397.165	758.315	0.064	-0.174
-396.150	390.300	0.073	0.152
-395.136	800.000	-0.025	0.085
-394.121	-45.564	0.097	0.048
-393.106	28.028	0.110	0.094
-392.092	800.000	-0.067	0.249
-391.077	-53.483	0.167	0.077
-390.063	-200.000	-0.037	0.445
-389.048	800.000	0.034	0.108
-388.033	-67.656	-0.368	-0.145
-387.019	-0.662	-0.167	-0.119
-386.004	-86.257	0.027	-0.008
-384.990	-108.208	0.425	-0.092
-383.975	487.288	0.061	0.139
-382.960	-94.270	-0.228	-0.063
-381.946	34.966	-0.231	0.203
-380.931	226.630	0.024	-0.038
-379.917	-148.065	-0.471	-0.039
-378.902	-200.000	0.054	0.404
-377.888	-200.000	-0.019	0.240
-376.873	-8.494	0.148	0.100
-375.858	350.798	-0.078	-0.156
-374.844	246.046	-0.224	0.379
-373.829	-14.507	0.382	0.246
-372.815	336.130	-0.200	0.390
-371.800	-49.374	0.515	0.246
-370.785	139.913	0.148	0.196
-369.771	800.000	-0.057	0.230
-368.756	-200.000	-0.020	-0.321
-367.742	104.764	0.068	-0.080
-366.727	-200.000	0.007	-0.050
-365.712	-120.641	-0.361	0.061
-364.698	800.000	-0.044	0.143
-363.683	159.167	0.044	-0.062
-362.669	-200.000	0.001	0.025
-361.654	287.760	-0.109	-0.197
-360.639	-69.369	0.067	-0.026
-359.625	-200.000	-0.020	0.374
-358.610	-10.362	-0.218	-0.145
-357.596	-8.502	0.049	-0.033
-356.581	85.244	-0.252	0.278
-355.566	97.311	0.202	-0.232
-354.552	97.496	0.151	-0.174
-353.537	309.159	0.132	-0.248
-352.523	800.000	-0.075	-0.251
-351.508	-125.788	0.068	0.010
-350.493	800.000	-0.048	0.183
-349.479	21.099	0.094	-0.077
-348.464	333.239	0.045	-0.087
-347.450	-153.003	-0.197	0.014
-346.435	-40.816	-0.097	-0.050
-345.420	-200.000	-0.000	0.176
-344.406	-109.034	-0.233	-0.050
-343.391	-152.608	0.378	-0.027
-342.377	9.996	0.262	0.200
-341.362	289.307	0.151	0.275
-340.348	-90.683	-0.269	0.078
-339.333	800.000	0.036	-0.114
-338.318	-115.152	0.114	0.022
-337.304	144.079	-0.114	0.152
-336.289	22.541	-0.082	-0.067
-335.275	-32.775	-0.326	-0.182
-334.260	-61.733	-0.023	-0.010
-333.245	543.683	0.070	-0.168
-332.231	-200.000	-0.032	0.201
-331.216	-81.462	0.275	-0.091
-330.202	-42.792	0.122	0.062
-329.187	513.645	-0.061	0.143
-328.172	-84.243	0.226	0.072
-327.158	-125.381	-0.108	0.017
-326.143	-200.000	-0.008	-0.063
-325.129	-21.158	-0.175	0.107
-324.114	94.095	0.172	0.196
-323.099	-59.171	0.394	0.170
-322.085	-55.882	0.156	-0.070
-321.070	115.347	-0.076	0.093
-320.056	97.308	-0.167	0.192
-319.041	-200.000	-0.042	-0.343
-318.026	76.467	0.177	-0.188
-317.012	-108.497	0.151	0.032
-315.997	322.815	0.116	-0.221
-314.983	793.857	-0.060	0.166
-313.968	-184.222	-0.385	-0.006
-312.953	-124.238	0.104	-0.016
-311.939	-84.536	-0.238	0.075
-310.924	264.606	0.137	-0.239
-309.910	-87.749	0.279	0.084
-308.895	92.351	-0.076	0.086
-307.880	289.932	0.120	0.217
-306.866	79.432	0.029	-0.031
-305.851	-148.747	-0.332	0.027
-304.837	268.003	0.054	0.094
-303.822	766.197	0.210	-0.573
-302.807	-134.044	0.144	-0.018
-301.793	88.257	0.159	0.177
-300.778	398.002	-0.091	-0.190
-299.764	8.294	0.140	0.106
-298.749	-200.000	0.011	0.272
-297.735	47.315	-0.098	0.092
-296.720	81.604	-0.116	-0.125
-295.705	3.915	-0.369	-0.270
-294.691	46.082	0.072	-0.066
-293.676	55.124	0.272	0.263
-292.662	-87.424	-0.277	-0.084
-291.647	-117.551	-0.177	0.032
-290.632	-200.000	0.016	-0.251
-289.618	-45.605	0.299	-0.148
-288.603	-200.000	0.038	0.186
-287.589	-78.408	-0.281	0.096
-286.574	-116.396	-0.129	0.024
-285.559	-200.000	0.052	-0.293
-284.545	457.270	-0.255	-0.566
-283.530	15.037	0.096	-0.075
-282.516	-34.629	0.199	-0.109
-281.501	-200.000	0.041	0.209
-280.486	84.046	0.063	-0.069
-279.472	-200.000	-0.077	0.445
-278.457	-200.000	-0.013	-0.097
-277.443	794.395	0.051	-0.141
-276.428	151.943	-0.193	0.264
-275.413	142.064	0.188	-0.249
-274.399	172.526	0.056	0.081
-273.384	-127.685	0.314	-0.045
-272.370	-59.575	0.142	-0.061
-271.355	-168.167	-0.245	0.009
-270.340	24.969	0.307	0.255
-269.326	214.020	-0.107	0.170
-268.311	169.133	0.234	0.334
-267.297	800.000	0.037	0.162
-266.282	338.024	-0.150	0.292
-265.267	-17.534	-0.154	-0.097
-264.253	-98.979	-0.225	-0.057
-263.238	-200.000	-0.027	0.254
-262.224	-150.478	-0.098	0.008
-261.209	114.656	-0.046	0.056
-260.195	800.000	0.032	-0.093
-259.180	-131.673	0.076	0.010
-258.165	249.774	0.101	-0.172
-257.151	83.474	-0.224	-0.244
-256.136	30.972	0.189	0.162
-255.122	506.594	0.091	-0.210
-254.107	206.303	0.116	-0.181
-253.092	74.034	0.201	0.211
-252.078	-18.036	-0.116	-0.073
-251.063	398.016	0.077	0.161
-250.049	602.554	-0.090	-0.224
-249.034	-200.000	0.010	0.102
-248.019	-109.349	0.028	-0.006
-247.005	-200.000	-0.062	0.382
-245.990	184.392	0.252	-0.373
-244.976	800.000	0.074	0.317
-243.961	50.111	0.094	0.088
-242.946	35.214	0.185	-0.162
-241.932	157.501	0.150	-0.207
-240.917	180.311	-0.063	0.092
-239.903	-200.000	0.049	0.374
-238.888	79.259	-0.076	-0.081
-237.873	-139.139	0.251	-0.027
-236.859	190.965	0.063	-0.094
-235.844	-200.000	0.012	-0.077
-234.830	46.835	-0.086	-0.080
-233.815	-56.409	-0.258	0.114
-232.800	234.069	0.130	-0.214
-231.786	-200.000	0.029	0.181
-230.771	235.955	-0.045	0.074
-229.757	-86.073	0.177	0.054
-228.742	105.468	-0.293	-0.346
-227.727	-102.568	0.279	0.067
-226.713	29.604	-0.211	0.179
-225.698	679.407	-0.049	0.128
-224.684	-187.861	0.525	0.007
-223.669	800.000	-0.090	-0.272
-222.655	-128.449	-0.328	-0.046
-221.640	655.740	0.066	-0.169
-220.625	-118.157	-0.428	0.076
-219.611	-200.000	0.030	-0.359
-218.596	289.213	-0.116	-0.209
-217.582	74.141	0.187	-0.196
-216.567	-103.778	-0.490	-0.114
-215.552	-124.197	0.274	-0.043
-214.538	-101.053	-0.049	-0.012
-213.523	-159.718	-0.330	-0.018
-212.509	-200.000	0.037	0.173
-211.494	800.000	0.045	0.137
-210.479	85.671	0.159	-0.175
-209.465	-133.331	-0.309	0.039
-208.450	-4.446	-0.162	-0.112
-207.436	-8.406	0.175	0.117
-206.421	-200.000	-0.004	-0.040
-205.406	82.503	-0.123	-0.133
-204.392	-130.408	0.233	0.031
-203.377	167.711	-0.171	-0.242
-202.363	633.838	0.099	-0.250
-201.348	800.000	0.038	-0.117
-200.333	26.983	-0.290	0.243
-199.319	-105.836	-0.237	-0.053
-198.304	-88.658	0.245	-0.073
-197.290	26.639	0.141	-0.118
-196.275	-83.774	0.150	-0.048
-195.260	526.858	0.021	-0.050
-194.246	800.000	0.027	0.103
-193.231	748.110	-0.068	0.183
-192.217	-120.694	0.232	-0.039
-191.202	-200.000	0.000	0.054
-190.187	-200.000	0.260	-0.001
-189.173	-101.334	0.127	-0.031
-188.158	29.609	-0.066	-0.056
-187.144	-110.513	-0.312	0.064
-186.129	-65.169	0.130	-0.052
-185.114	9.408	-0.205	-0.155
-184.100	-61.454	-0.072	-0.030
-183.085	-4.318	-0.178	0.123
-182.071	800.000	-0.062	-0.245
-181.056	13.852	0.286	0.222
-180.042	-33.147	0.371	-0.205
-179.027	-90.793	0.163	0.047
-178.012	800.000	0.017	0.059
-176.998	-84.181	0.462	-0.146
-175.983	0.617	-0.115	0.082
-174.969	10.326	-0.102	0.077
-173.954	248.355	-0.037	-0.062
-172.939	63.177	-0.281	0.280
-171.925	-120.198	0.207	-0.035
-170.910	-200.000	0.042	-0.312
-169.896	-22.790	-0.268	-0.161
-168.881	176.789	-0.030	0.043
-167.866	-200.000	0.011	0.072
-166.852	102.786	0.192	0.224
-165.837	-96.498	0.142	0.037
-164.823	125.034	0.139	0.175
-163.808	291.474	0.129	-0.233
-162.793	-62.274	0.117	-0.049
-161.779	-200.000	-0.026	-0.299
-160.764	51.314	-0.163	-0.154
-159.750	500.287	0.065	-0.149
-158.735	-59.374	0.159	-0.068
-157.720	-200.000	-0.401	-0.001
-156.706	800.000	0.054	0.175
-155.691	800.000	-0.031	0.091
-154.677	-22.248	-0.173	0.105
-153.662	-200.000	0.013	-0.295
-152.647	-114.841	0.232	-0.044
-151.633	45.130	0.169	0.155
-150.618	-42.055	-0.327	0.167
-149.604	-75.434	0.116	0.041
-148.589	-117.725	-0.130	-0.023
-147.574	-7.225	0.205	-0.138
-146.560	-136.509	0.305	-0.035
-145.545	-8.854	-0.114	0.076
-144.531	-200.000	-0.051	0.324
-143.516	-200.000	-0.001	0.268
-142.502	-76.264	-0.308	0.108
-141.487	-138.357	0.319	-0.035
-140.472	685.030	-0.096	-0.250
-139.458	90.951	0.182	-0.203
-138.443	-200.000	-0.033	-0.382
-137.429	-91.347	0.128	0.036
-136.414	-122.289	0.116	0.019
-135.399	27.712	-0.099	-0.082
-134.385	323.578	-0.045	0.086
-133.370	-200.000	-0.012	-0.237
-132.356	654.596	0.111	-0.284
-131.341	85.167	-0.190	-0.207
-130.326	-15.051	0.214	-0.136
-129.312	67.136	-0.212	-0.215
-128.297	-200.000	-0.047	0.298
-127.283	-200.000	0.000	0.066
-126.268	146.912	-0.093	0.125
-125.253	-174.484	-0.531	0.015
-124.239	193.011	-0.058	-0.087
-123.224	-78.245	0.111	-0.038
-122.210	-55.612	-0.221	-0.098
-121.195	-110.074	0.256	0.053
