DTS Sentinel unit serial number:	SN413079Multiplexer serial number:	ORYXHardware model number:	OX4-SRSoftware version number:	ORYX F/W v4.00 Oryx Data Collector v3.7.2.0data status	okinstallation	princeton_trtdifferential loss correction	single-endedforward channel	channel 4reverse channel	N/Adate	2019/09/18time	19:13:35forward acquisition time	60.00reverse acquisition time	0.00gamma	496.2192k internal	0.2308k external	0.2308temperature offset calibration	1.0039default loss term (dB/km)	0.3790temperature slope calibration	1.0000multiplexer offset coefficient	1.0000multiplexer slope coefficient	1.0000fibre end	0.00T internal ref (°C)	34.61T ext. ref 1 (°C)	1.17T ext. ref 2 (°C)	23.90length (m)	temperature (°C)	Stokes	anti-Stokes-747.200	99.349	0.103	-0.121
-746.185	-200.000	0.018	0.135
-745.171	52.645	0.326	-0.316
-744.156	-35.553	-0.044	-0.024
-743.142	146.336	-0.055	-0.075
-742.127	-12.569	-0.214	-0.142
-741.112	145.236	-0.115	-0.157
-740.098	438.125	0.108	0.240
-739.083	-116.681	-0.196	0.037
-738.069	403.236	-0.152	0.325
-737.054	72.377	-0.197	0.208
-736.039	-64.496	-0.457	-0.189
-735.025	11.520	-0.159	0.124
-734.010	36.581	-0.043	0.038
-732.996	-200.000	0.003	0.030
-731.981	-11.312	0.075	0.050
-730.966	800.000	0.072	-0.301
-729.952	-56.998	0.088	-0.040
-728.937	-200.000	0.002	-0.149
-727.923	-153.525	-0.073	-0.005
-726.908	26.849	-0.021	0.018
-725.894	-49.395	-0.227	-0.110
-724.879	-43.894	-0.468	-0.239
-723.864	-4.466	0.149	-0.104
-722.850	72.752	-0.277	0.294
-721.835	752.853	-0.043	-0.118
-720.821	71.915	0.207	-0.219
-719.806	25.624	0.044	0.037
-718.791	-82.798	0.211	0.069
-717.777	-128.036	0.299	-0.044
-716.762	800.000	0.103	-0.430
-715.748	800.000	-0.078	0.316
-714.733	-166.625	-0.255	-0.011
-713.718	13.214	-0.215	-0.169
-712.704	564.913	0.166	0.408
-711.689	-109.460	-0.200	0.043
-710.675	306.620	-0.108	0.203
-709.660	800.000	0.065	-0.254
-708.645	-17.708	0.249	-0.159
-707.631	-148.984	0.206	-0.017
-706.616	56.403	-0.217	-0.214
-705.602	-200.000	0.021	-0.105
-704.587	800.000	-0.116	-0.425
-703.572	-138.573	-0.038	0.004
-702.558	4.235	-0.069	0.051
-701.543	345.664	-0.041	0.081
-700.529	-29.775	-0.353	0.204
-699.514	58.107	0.270	0.268
-698.499	-72.401	0.166	0.062
-697.485	-190.293	-0.369	-0.004
-696.470	-200.000	0.048	0.298
-695.456	-153.348	0.192	0.014
-694.441	226.066	-0.211	-0.346
-693.426	124.209	0.029	-0.037
-692.412	-200.000	0.005	0.042
-691.397	-78.135	0.285	-0.099
-690.383	800.000	0.061	0.178
-689.368	-122.186	-0.218	0.036
-688.354	-138.519	-0.166	-0.018
-687.339	800.000	-0.063	0.181
-686.324	800.000	-0.128	-0.434
-685.310	547.843	0.082	0.200
-684.295	-200.000	-0.077	0.382
-683.281	124.584	-0.153	0.195
-682.266	11.036	0.366	-0.283
-681.251	-200.000	0.010	-0.235
-680.237	-200.000	-0.005	0.148
-679.222	214.238	0.053	0.084
-678.208	-200.000	0.022	0.172
-677.193	-128.830	-0.223	-0.032
-676.178	11.023	-0.164	-0.127
-675.164	-162.153	-0.195	-0.010
-674.149	140.572	0.085	-0.114
-673.135	-121.556	-0.100	-0.017
-672.120	-46.472	-0.188	0.094
-671.105	93.585	0.139	-0.160
-670.091	111.130	0.123	-0.150
-669.076	19.182	-0.038	-0.031
-668.062	220.111	-0.131	-0.213
-667.047	-145.412	0.036	0.003
-666.032	103.473	0.059	-0.070
-665.018	-14.819	-0.175	-0.114
-664.003	-94.448	0.078	-0.022
-662.989	-200.000	0.001	0.068
-661.974	-75.514	0.134	-0.048
-660.959	16.972	-0.243	0.195
-659.945	-60.686	0.142	-0.061
-658.930	213.719	-0.088	0.141
-657.916	108.290	0.142	0.171
-656.901	73.266	0.132	0.140
-655.886	-200.000	-0.059	-0.270
-654.872	800.000	0.039	-0.161
-653.857	-200.000	0.016	0.172
-652.843	-17.271	-0.227	-0.145
-651.828	-11.302	0.254	-0.169
-650.814	465.302	-0.087	-0.198
-649.799	800.000	0.036	-0.155
-648.784	-200.000	0.004	0.060
-647.770	800.000	0.027	0.088
-646.755	102.537	0.170	0.201
-645.741	-200.000	0.036	0.205
-644.726	-200.000	0.063	-0.287
-643.711	-82.313	0.192	-0.063
-642.697	-92.958	0.074	0.021
-641.682	-200.000	0.053	-0.338
-640.668	-13.173	-0.205	0.135
-639.653	647.572	0.113	0.294
-638.638	8.129	-0.266	0.202
-637.624	-108.561	-0.480	-0.104
-636.609	716.195	-0.033	-0.088
-635.595	-117.315	0.172	0.032
-634.580	568.016	-0.133	-0.327
-633.565	-200.000	0.058	-0.358
-632.551	495.316	-0.061	-0.142
-631.536	-135.831	-0.248	-0.030
-630.522	-153.609	0.260	0.018
-629.507	800.000	-0.074	0.220
-628.492	-167.336	0.214	-0.009
-627.478	82.379	-0.185	0.203
-626.463	800.000	0.069	-0.240
-625.449	128.993	0.044	0.056
-624.434	9.816	0.048	0.037
-623.419	-182.615	-0.366	-0.007
-622.405	1.649	0.188	0.137
-621.390	589.428	0.097	-0.243
-620.376	216.537	0.198	0.318
-619.361	-200.000	-0.062	0.408
-618.346	-106.950	-0.088	-0.020
-617.332	800.000	-0.075	-0.227
-616.317	-78.553	-0.311	0.108
-615.303	655.998	-0.068	0.176
-614.288	800.000	-0.017	-0.070
-613.273	-200.000	0.038	-0.181
-612.259	-200.000	0.005	0.029
-611.244	-69.557	0.202	0.078
-610.230	259.771	0.119	0.208
-609.215	-106.393	-0.355	0.080
-608.201	53.277	0.168	-0.163
-607.186	-9.872	0.113	-0.076
-606.171	-86.994	0.108	-0.033
-605.157	110.816	0.164	-0.200
-604.142	-120.524	0.337	0.058
-603.128	84.574	0.122	0.135
-602.113	-82.487	0.236	-0.078
-601.098	316.953	-0.057	-0.109
-600.084	-67.113	0.235	-0.094
-599.069	257.060	-0.097	0.169
-598.055	-200.000	0.015	-0.253
-597.040	68.849	-0.056	0.058
-596.025	460.384	0.037	-0.083
-595.011	169.914	0.239	-0.345
-593.996	-162.774	0.229	0.011
-592.982	800.000	0.023	-0.094
-591.967	-45.852	0.320	-0.159
-590.952	33.694	-0.460	-0.404
-589.938	-74.195	-0.178	-0.065
-588.923	-200.000	-0.005	-0.265
-587.909	193.045	0.122	-0.186
-586.894	-200.000	-0.060	0.299
-585.879	-57.431	-0.276	0.122
-584.865	-200.000	-0.033	-0.149
-583.850	-11.697	-0.086	-0.057
-582.836	21.915	-0.135	0.111
-581.821	254.642	-0.167	-0.288
-580.806	-200.000	0.047	0.217
-579.792	-84.845	-0.349	0.111
-578.777	23.094	-0.373	-0.309
-577.763	187.999	-0.202	-0.305
-576.748	79.382	0.169	-0.183
-575.733	1.016	0.102	0.074
-574.719	75.678	-0.121	-0.129
-573.704	-200.000	0.012	-0.181
-572.690	-140.050	0.105	0.011
-571.675	49.878	-0.035	-0.033
-570.661	-12.153	-0.118	0.078
-569.646	-59.194	-0.318	0.138
-568.631	74.897	0.189	0.201
-567.617	229.936	0.067	-0.111
-566.602	261.538	-0.253	0.442
-565.588	-54.345	0.271	0.124
-564.573	-200.000	0.023	0.157
-563.558	-65.390	-0.189	0.077
-562.544	-101.074	-0.244	-0.060
-561.529	-131.829	0.086	-0.011
-560.515	82.202	0.161	-0.177
-559.500	-200.000	0.003	-0.236
-558.485	-95.388	-0.118	-0.032
-557.471	-11.673	-0.154	0.102
-556.456	767.709	0.063	-0.173
-555.442	-118.196	-0.498	-0.090
-554.427	-167.632	0.365	-0.015
-553.412	-47.761	0.342	0.167
-552.398	76.799	0.209	-0.224
-551.383	72.578	-0.065	-0.068
-550.369	-149.581	0.198	0.016
-549.354	-23.304	0.096	0.058
-548.339	-144.242	-0.106	0.010
-547.325	-89.687	-0.189	-0.056
-546.310	-36.025	0.155	-0.084
-545.296	51.235	-0.044	0.042
-544.281	-172.444	-0.298	0.010
-543.266	90.249	-0.229	0.258
-542.252	800.000	-0.040	-0.172
-541.237	14.770	0.361	0.285
-540.223	-34.046	-0.220	0.122
-539.208	39.791	-0.251	0.227
-538.193	-97.178	0.307	0.081
-537.179	-47.973	0.142	0.069
-536.164	-74.059	-0.448	-0.164
-535.150	178.900	-0.160	0.235
-534.135	-72.148	-0.219	-0.082
-533.121	-66.294	-0.188	0.075
-532.106	705.489	0.041	0.110
-531.091	-74.621	0.204	-0.074
-530.077	-33.787	-0.306	-0.170
-529.062	-200.000	0.027	0.155
-528.048	-155.963	-0.325	0.021
-527.033	-200.000	-0.004	-0.076
-526.018	35.784	0.133	0.118
-525.004	-19.435	-0.272	0.170
-523.989	221.783	-0.128	-0.208
-522.975	464.006	-0.070	-0.159
-521.960	-200.000	0.003	-0.024
-520.945	4.796	0.088	-0.065
-519.931	16.388	0.195	-0.155
-518.916	800.000	0.120	-0.386
-517.902	-200.000	-0.012	-0.080
-516.887	-68.640	0.253	0.099
-515.872	38.270	0.162	-0.145
-514.858	800.000	-0.079	0.273
-513.843	3.653	0.171	0.126
-512.829	-50.794	-0.262	0.124
-511.814	126.011	0.187	-0.238
-510.799	-115.626	-0.334	0.063
-509.785	253.394	0.058	-0.099
-508.770	241.846	-0.056	-0.095
-507.756	800.000	0.055	0.199
-506.741	337.190	-0.282	0.552
-505.726	276.023	0.140	0.250
-504.712	18.594	0.345	-0.278
-503.697	-200.000	0.153	0.000
-502.683	438.322	0.131	0.289
-501.668	12.569	-0.169	0.131
-500.653	21.156	-0.253	-0.206
-499.639	114.412	0.187	-0.229
-498.624	74.942	-0.222	0.235
-497.610	6.069	0.189	-0.141
-496.595	190.060	-0.285	-0.431
-495.581	800.000	-0.016	0.062
-494.566	-107.904	-0.082	-0.018
-493.551	-200.000	0.042	-0.291
-492.537	581.654	-0.068	0.167
-491.522	800.000	0.058	0.227
-490.508	-30.108	-0.195	-0.112
-489.493	-200.000	-0.011	-0.077
-488.478	194.843	0.028	0.043
-487.464	-69.395	-0.120	0.046
-486.449	-46.764	-0.342	-0.168
-485.435	-42.939	-0.136	0.069
-484.420	800.000	0.073	-0.256
-483.405	59.771	-0.182	-0.181
-482.391	-46.534	-0.063	-0.031
-481.376	236.283	-0.089	0.148
-480.362	-141.197	-0.364	-0.037
-479.347	705.929	0.028	0.074
-478.332	-108.775	-0.474	0.102
-477.318	98.466	-0.192	0.222
-476.303	-146.359	0.256	-0.023
-475.289	120.010	0.105	0.131
-474.274	249.805	0.103	-0.176
-473.259	-104.038	-0.041	0.010
-472.245	138.468	-0.169	-0.223
-471.230	149.287	0.170	-0.231
-470.216	-200.000	-0.042	-0.345
-469.201	-190.813	-0.145	0.002
-468.186	61.871	0.053	-0.054
-467.172	-200.000	0.020	-0.282
-466.157	-72.410	0.133	0.049
-465.143	-105.398	0.151	-0.035
-464.128	-200.000	-0.043	0.310
-463.113	396.672	0.114	-0.239
-462.099	-1.187	0.080	0.057
-461.084	-200.000	-0.016	-0.078
-460.070	-200.000	-0.045	-0.378
-459.055	-200.000	0.019	0.153
-458.040	-200.000	-0.027	-0.276
-457.026	10.017	-0.045	0.034
-456.011	-141.000	-0.365	-0.038
-454.997	0.661	-0.305	-0.220
-453.982	-112.418	-0.238	0.048
-452.968	-200.000	-0.033	-0.382
-451.953	162.187	0.249	-0.351
-450.938	800.000	0.088	0.280
-449.924	227.388	-0.141	-0.230
-448.909	-76.686	-0.204	-0.072
-447.895	-47.648	0.338	-0.165
-446.880	384.988	0.049	-0.102
-445.865	-67.429	0.424	0.167
-444.851	-11.354	0.299	0.198
-443.836	-5.930	-0.160	0.110
-442.822	800.000	0.068	0.223
-441.807	-45.158	0.067	-0.033
-440.792	800.000	0.117	0.330
-439.778	-21.878	0.133	-0.081
-438.763	126.369	-0.226	-0.288
-437.749	-71.859	-0.263	0.099
-436.734	7.770	0.159	0.120
-435.719	-26.720	0.200	-0.118
-434.705	-81.585	-0.073	0.024
-433.690	-98.305	-0.138	0.035
-432.676	12.248	-0.349	-0.270
-431.661	428.274	-0.068	0.148
-430.646	-130.065	0.206	0.028
-429.632	15.273	0.316	0.249
-428.617	800.000	-0.078	-0.272
-427.603	-47.659	-0.130	-0.063
-426.588	-128.179	0.162	0.023
-425.573	800.000	0.097	-0.323
-424.559	-200.000	-0.010	0.313
-423.544	339.171	-0.069	0.135
-422.530	-145.387	0.237	0.021
-421.515	-200.000	0.035	-0.220
-420.500	-35.988	0.308	-0.167
-419.486	800.000	-0.044	-0.162
-418.471	-181.284	-0.115	0.002
-417.457	179.355	0.239	0.351
-416.442	-156.892	0.276	-0.017
-415.428	-14.094	0.065	-0.042
-414.413	-51.178	-0.134	-0.063
-413.398	-57.371	0.301	0.133
-412.384	-37.389	0.245	-0.131
-411.369	800.000	-0.077	0.332
-410.355	-3.159	0.102	-0.071
-409.340	-200.000	-0.125	0.629
-408.325	-121.712	-0.335	0.056
-407.311	-147.489	0.330	0.028
-406.296	-200.000	-0.029	-0.241
-405.282	405.134	-0.048	0.102
-404.267	-42.966	0.451	0.230
-403.252	164.332	0.102	0.144
-402.238	83.308	0.132	0.145
-401.223	800.000	-0.069	0.194
-400.209	-46.330	-0.108	0.053
-399.194	-71.906	-0.054	-0.020
-398.179	800.000	0.077	0.221
-397.165	13.683	0.264	0.205
-396.150	-116.726	-0.082	0.015
-395.136	-101.383	0.215	-0.052
-394.121	-128.513	-0.242	-0.034
-393.106	-155.103	-0.155	-0.010
-392.092	242.967	-0.076	0.127
-391.077	-200.000	-0.008	0.229
-390.063	800.000	0.081	0.227
-389.048	-200.000	-0.001	0.067
-388.033	800.000	0.037	0.107
-387.019	179.967	-0.114	0.167
-386.004	307.049	-0.020	-0.037
-384.990	8.104	0.030	0.023
-383.975	207.201	-0.058	0.091
-382.960	-53.482	0.405	0.186
-381.946	129.788	0.320	-0.410
-380.931	129.509	-0.106	-0.136
-379.917	623.615	-0.116	-0.293
-378.902	-200.000	0.031	0.308
-377.888	81.011	-0.115	0.125
-376.873	278.275	-0.046	-0.082
-375.858	-78.786	0.348	0.119
-374.844	-67.873	-0.302	-0.118
-373.829	-73.981	-0.064	0.023
-372.815	130.301	0.170	-0.218
-371.800	14.616	0.148	0.116
-370.785	-103.471	0.215	0.051
-369.771	199.576	0.130	0.200
-368.756	-101.475	-0.144	-0.035
-367.742	800.000	-0.050	-0.151
-366.727	319.300	0.143	0.271
-365.712	-200.000	0.027	-0.274
-364.698	661.719	0.073	-0.190
-363.683	58.471	-0.194	0.191
-362.669	126.630	0.195	0.247
-361.654	68.771	-0.177	0.182
-360.639	-73.536	0.171	0.063
-359.625	-200.000	0.017	0.206
-358.610	269.742	0.078	0.137
-357.596	43.040	-0.126	-0.115
-356.581	-200.000	0.035	0.632
-355.566	311.206	-0.163	0.306
-354.552	-84.894	0.190	-0.060
-353.537	127.330	-0.096	0.122
-352.523	-131.365	-0.473	-0.063
-351.508	-40.159	0.390	-0.203
-350.493	124.080	-0.144	0.181
-349.479	-50.028	-0.084	-0.040
-348.464	-76.514	0.148	0.052
-347.450	94.069	0.067	0.076
-346.435	-200.000	-0.033	0.367
-345.420	-168.695	0.147	-0.006
-344.406	497.371	-0.064	0.148
-343.391	800.000	0.025	-0.094
-342.377	141.590	0.196	-0.260
-341.362	-151.340	0.196	-0.015
-340.348	-6.199	0.319	-0.218
-339.333	-200.000	0.279	-0.000
-338.318	287.897	0.148	-0.268
-337.304	115.473	-0.073	-0.089
-336.289	212.013	0.160	0.252
-335.275	18.382	-0.356	0.284
-334.260	-200.000	-0.019	-0.272
-333.245	-160.077	-0.404	0.022
-332.231	-200.000	-0.019	-0.085
-331.216	800.000	-0.055	0.157
-330.202	-148.602	-0.288	0.023
-329.187	251.576	0.133	0.227
-328.172	-151.045	-0.142	0.011
-327.158	263.388	0.079	0.137
-326.143	171.018	0.101	-0.145
-325.129	-112.934	0.056	-0.011
-324.114	-78.277	-0.036	-0.012
-323.099	62.100	-0.192	0.192
-322.085	-200.000	-0.082	0.367
-321.070	-19.473	-0.065	-0.040
-320.056	155.964	-0.160	0.220
-319.041	19.420	0.247	0.199
-318.026	-138.997	0.156	0.017
-317.012	6.538	-0.130	0.096
-315.997	179.867	-0.078	0.115
-314.983	800.000	0.095	-0.264
-313.968	-179.627	-0.118	0.003
-312.953	22.272	0.107	-0.087
-311.939	-60.686	-0.026	0.011
-310.924	356.397	0.037	-0.074
-309.910	-60.499	-0.110	-0.047
-308.895	-114.353	-0.153	0.029
-307.880	8.356	-0.068	0.051
-306.866	-23.222	-0.042	0.025
-305.851	-130.756	-0.331	-0.044
-304.837	-114.321	0.534	0.103
-303.822	-12.015	0.238	-0.156
-302.807	-91.628	0.299	-0.085
-301.793	647.305	-0.036	0.092
-300.778	-7.084	-0.077	-0.052
-299.764	318.233	0.174	-0.329
-298.749	-200.000	-0.041	-0.354
-297.735	-200.000	-0.005	0.358
-296.720	203.631	0.204	0.316
-295.705	-39.077	0.177	-0.093
-294.691	-200.000	0.021	0.136
-293.676	-28.301	-0.179	0.103
-292.662	-53.855	0.127	0.058
-291.647	-18.297	0.046	-0.028
-290.632	800.000	-0.067	-0.198
-289.618	-72.833	0.187	0.069
-288.603	-106.313	-0.107	-0.024
-287.589	-200.000	0.015	-0.099
-286.574	-84.408	0.190	-0.060
-285.559	67.382	0.128	0.130
-284.545	-40.759	0.058	-0.030
-283.530	175.439	-0.063	0.092
-282.516	-36.599	0.147	-0.079
-281.501	-200.000	-0.024	0.160
-280.486	258.855	-0.047	0.081
-279.472	-200.000	-0.030	0.251
-278.457	61.002	0.131	-0.130
-277.443	-83.914	0.140	0.044
-276.428	-200.000	0.006	-0.036
-275.413	-27.892	0.234	-0.135
-274.399	208.942	0.192	0.300
-273.384	-51.608	-0.203	0.095
-272.370	219.316	-0.101	0.162
-271.355	-200.000	0.003	0.175
-270.340	-117.858	-0.439	-0.079
-269.326	-33.312	0.059	-0.032
-268.311	59.554	0.058	-0.057
-267.297	21.296	0.162	0.131
-266.282	286.393	0.058	-0.104
-265.267	-67.685	-0.175	0.068
-264.253	213.328	-0.079	-0.124
-263.238	-64.982	0.349	-0.141
-262.224	113.320	-0.053	-0.064
-261.209	6.001	-0.185	-0.137
-260.195	481.896	-0.183	-0.415
-259.180	407.597	0.109	-0.230
-258.165	-88.690	0.248	-0.074
-257.151	800.000	0.088	-0.286
-256.136	-15.462	0.205	0.130
-255.122	-13.936	-0.242	-0.156
-254.107	2.761	-0.030	-0.022
-253.092	196.656	-0.090	-0.137
-252.078	205.470	0.127	0.196
-251.063	574.131	-0.126	0.307
-250.049	28.574	-0.129	-0.109
-249.034	-91.260	-0.385	0.110
-248.019	-156.635	0.222	0.014
-247.005	399.731	-0.147	0.307
-245.990	484.020	0.113	0.257
-244.976	85.143	0.180	0.197
-243.961	-157.274	-0.329	-0.020
-242.946	-40.745	0.143	0.074
-241.932	46.371	-0.056	0.052
-240.917	-200.000	-0.038	-0.315
-239.903	-101.744	0.276	0.067
-238.888	-165.487	-0.124	0.005
-237.873	650.764	-0.065	-0.167
-236.859	-18.610	-0.335	0.208
-235.844	-49.323	-0.179	-0.085
-234.830	-175.340	-0.460	-0.013
-233.815	228.102	-0.212	0.344
-232.800	92.328	-0.187	-0.210
-231.786	-200.000	0.033	-0.270
-230.771	622.279	-0.054	0.135
-229.757	-200.000	0.035	-0.161
-228.742	-200.000	-0.063	-0.302
-227.727	185.306	0.119	0.176
-226.713	36.777	-0.202	-0.178
-225.698	1.633	-0.100	-0.072
-224.684	576.499	0.135	-0.329
-223.669	110.711	0.164	0.196
-222.655	-111.284	0.114	0.023
-221.640	-142.421	-0.120	-0.012
-220.625	493.666	0.148	-0.339
-219.611	-200.000	0.072	-0.340
-218.596	-25.888	0.135	-0.079
-217.582	220.198	-0.179	0.286
-216.567	54.648	0.318	-0.305
-215.552	-112.895	-0.129	-0.025
-214.538	-200.000	0.023	-0.458
-213.523	-160.926	-0.550	0.029
-212.509	-25.194	0.305	-0.180
-211.494	-200.000	-0.026	-0.233
-210.479	-200.000	0.021	0.134
-209.465	-200.000	0.007	-0.139
-208.450	-200.000	-0.023	-0.202
-207.436	192.553	0.082	0.123
-206.421	307.657	0.065	-0.121
-205.406	61.214	0.112	0.111
-204.392	-135.114	0.412	-0.049
-203.377	-167.637	0.231	-0.009
-202.363	28.666	-0.139	-0.117
-201.348	192.764	0.145	0.218
-200.333	-50.198	-0.289	0.136
-199.319	100.806	0.262	0.303
-198.304	2.000	0.134	-0.097
-197.290	-30.030	-0.340	0.192
-196.275	-200.000	0.049	0.306
-195.260	-200.000	0.042	0.277
-194.246	800.000	0.040	-0.143
-193.231	184.727	-0.138	-0.203
-192.217	-200.000	0.072	-0.412
-191.202	23.916	-0.219	-0.180
-190.187	72.446	-0.144	-0.149
-189.173	-156.112	0.192	0.012
-188.158	-200.000	-0.003	-0.392
-187.144	736.307	0.104	0.276
-186.129	156.493	0.143	0.196
-185.114	48.143	0.097	0.090
-184.100	281.792	0.177	0.316
-183.085	98.938	-0.170	0.196
-182.071	133.448	-0.151	0.194
-181.056	244.429	0.115	0.192
-180.042	-118.216	0.169	-0.030
-179.027	-6.285	-0.161	-0.109
-178.012	40.321	-0.078	-0.070
-176.998	324.826	0.054	-0.102
-175.983	594.483	-0.074	-0.182
-174.969	520.588	0.097	0.226
-173.954	221.314	0.099	0.158
-172.939	800.000	-0.040	-0.110
-171.925	693.710	-0.088	-0.229
-170.910	-50.256	-0.052	-0.024
-169.896	-59.629	0.113	0.048
-168.881	-156.125	-0.070	-0.004
-167.866	-200.000	0.018	-0.203
-166.852	-200.000	-0.039	-0.282
-165.837	-130.522	-0.099	0.013
-164.823	699.110	-0.053	0.137
-163.808	486.994	0.045	-0.103
-162.793	-200.000	-0.011	0.149
-161.779	800.000	0.092	0.258
-160.764	-179.669	-0.244	0.005
-159.750	-200.000	0.003	0.225
-158.735	-44.246	-0.129	0.064
-157.720	-21.922	-0.103	0.062
-156.706	800.000	0.054	-0.226
-155.691	89.505	0.139	0.154
-154.677	53.111	-0.105	0.100
-153.662	-126.372	0.268	0.040
-152.647	-87.239	0.245	-0.074
-151.633	-33.031	-0.281	-0.155
-150.618	142.243	-0.099	0.131
-149.604	-34.541	-0.121	0.066
-148.589	-99.043	-0.251	-0.063
-147.574	69.491	-0.197	-0.201
-146.560	51.498	-0.180	-0.170
-145.545	-17.017	0.196	0.123
-144.531	-200.000	-0.009	-0.225
-143.516	199.162	0.212	-0.322
-142.502	-200.000	-0.025	-0.392
-141.487	317.838	0.106	-0.198
-140.472	-200.000	-0.001	0.137
-139.458	286.650	-0.109	0.196
-138.443	149.877	-0.200	0.270
-137.429	79.562	-0.053	0.057
-136.414	126.688	0.112	0.140
-135.399	-33.921	0.328	0.179
-134.385	800.000	-0.074	0.291
-133.370	21.277	0.063	0.051
-132.356	-23.442	0.181	0.108
-131.341	89.954	0.207	-0.229
-130.326	174.631	0.173	0.248
-129.312	-85.133	0.070	0.022
-128.297	20.558	0.036	0.029
-127.283	-12.557	0.010	-0.007
-126.268	176.628	0.180	-0.260
-125.253	270.581	0.076	-0.133
-124.239	-35.581	0.303	0.163
-123.224	-34.234	-0.177	0.096
-122.210	-123.965	-0.248	-0.039
-121.195	14.853	0.349	0.271
-120.180	-200.000	0.011	0.371
