DTS Sentinel unit serial number:	SN413079Multiplexer serial number:	ORYXHardware model number:	OX4-SRSoftware version number:	ORYX F/W v4.00 Oryx Data Collector v3.7.2.0data status	okinstallation	princeton_trtdifferential loss correction	single-endedforward channel	channel 4reverse channel	N/Adate	2019/09/18time	04:25:35forward acquisition time	60.00reverse acquisition time	0.00gamma	496.2192k internal	0.2332k external	0.2332temperature offset calibration	0.9996default loss term (dB/km)	0.3790temperature slope calibration	1.0000multiplexer offset coefficient	1.0000multiplexer slope coefficient	1.0000fibre end	0.00T internal ref (°C)	23.37T ext. ref 1 (°C)	0.18T ext. ref 2 (°C)	17.51length (m)	temperature (°C)	Stokes	anti-Stokes-747.200	-200.000	0.045	0.421
-746.185	134.837	0.271	0.354
-745.171	-200.000	-0.001	-0.014
-744.156	-11.026	-0.450	0.299
-743.142	-105.649	0.262	0.060
-742.127	16.335	-0.120	0.095
-741.112	82.118	0.223	-0.244
-740.098	-79.249	-0.154	-0.052
-739.083	147.151	-0.046	0.062
-738.069	491.912	-0.087	-0.201
-737.054	-200.000	-0.011	0.127
-736.039	44.820	0.226	-0.209
-735.025	789.060	0.013	0.036
-734.010	595.367	-0.060	-0.149
-732.996	-42.650	-0.043	0.022
-731.981	-200.000	0.001	-0.079
-730.966	-200.000	0.020	-0.140
-729.952	-71.606	-0.349	0.131
-728.937	-30.091	-0.216	-0.123
-727.923	139.805	0.043	0.057
-726.908	-200.000	0.000	0.123
-725.894	-200.000	-0.022	-0.329
-724.879	800.000	-0.088	-0.304
-723.864	-111.352	-0.134	-0.028
-722.850	800.000	0.111	-0.389
-721.835	-39.108	0.204	-0.108
-720.821	32.829	-0.051	-0.045
-719.806	-89.899	-0.193	0.057
-718.791	-200.000	-0.008	0.156
-717.777	-128.637	-0.182	-0.026
-716.762	369.474	0.039	0.079
-715.748	-54.550	-0.272	0.124
-714.733	421.935	-0.067	-0.145
-713.718	-154.667	-0.554	0.037
-712.704	-88.069	0.270	-0.082
-711.689	200.495	0.335	-0.517
-710.675	-117.732	0.038	-0.007
-709.660	800.000	0.030	-0.084
-708.645	65.136	0.088	-0.090
-707.631	471.002	-0.091	-0.206
-706.616	-200.000	-0.030	-0.151
-705.602	-119.103	-0.313	-0.055
-704.587	-107.410	-0.284	-0.063
-703.572	-0.601	-0.076	0.054
-702.558	-163.691	-0.122	0.006
-701.543	190.265	0.201	-0.303
-700.529	-47.276	0.103	0.050
-699.514	397.941	-0.107	-0.224
-698.499	-200.000	0.000	0.193
-697.485	-146.493	-0.542	0.047
-696.470	800.000	-0.033	0.136
-695.456	-200.000	-0.047	0.212
-694.441	-74.325	0.252	-0.091
-693.426	800.000	-0.083	-0.231
-692.412	-9.634	0.287	0.192
-691.397	800.000	0.117	0.425
-690.383	800.000	-0.085	-0.251
-689.368	-200.000	-0.006	0.124
-688.354	-77.766	0.144	0.050
-687.339	800.000	0.060	0.213
-686.324	-93.945	-0.103	0.028
-685.310	320.284	-0.111	-0.212
-684.295	800.000	-0.068	0.229
-683.281	-18.692	0.133	0.083
-682.266	800.000	-0.014	0.041
-681.251	800.000	-0.138	-0.405
-680.237	220.646	-0.105	0.168
-679.222	-70.321	0.182	-0.069
-678.208	-181.557	-0.449	-0.009
-677.193	116.590	0.210	-0.259
-676.178	-153.116	0.308	0.022
-675.164	-200.000	0.007	-0.094
-674.149	-93.252	-0.431	-0.120
-673.135	-131.038	-0.411	0.055
-672.120	-62.405	-0.094	0.039
-671.105	-200.000	-0.047	-0.259
-670.091	-200.000	0.031	-0.137
-669.076	152.485	-0.075	-0.103
-668.062	-200.000	-0.051	-0.451
-667.047	-47.527	-0.212	0.104
-666.032	-59.991	-0.155	0.066
-665.018	-109.712	-0.225	0.048
-664.003	-47.180	0.172	-0.084
-662.989	-10.935	-0.316	-0.209
-661.974	-115.537	0.217	0.041
-660.959	284.658	0.132	0.238
-659.945	526.991	-0.145	0.343
-658.930	-200.000	-0.026	0.170
-657.916	223.284	0.180	-0.292
-656.901	-7.889	0.055	-0.037
-655.886	-60.815	-0.359	0.152
-654.872	168.784	0.049	0.070
-653.857	800.000	-0.079	-0.227
-652.843	0.921	-0.255	-0.183
-651.828	6.954	-0.306	-0.228
-650.814	220.775	-0.106	-0.170
-649.799	52.959	0.188	0.181
-648.784	406.989	-0.134	0.284
-647.770	92.343	0.086	-0.097
-646.755	372.009	-0.180	-0.366
-645.741	52.844	-0.142	-0.136
-644.726	-48.166	-0.181	0.087
-643.711	-200.000	-0.029	0.200
-642.697	800.000	-0.075	-0.275
-641.682	-115.693	0.239	-0.045
-640.668	-146.991	0.223	0.019
-639.653	38.083	0.194	-0.173
-638.638	68.343	-0.165	-0.169
-637.624	-188.467	0.143	-0.002
-636.609	800.000	0.086	0.353
-635.595	229.002	-0.107	0.174
-634.580	-118.986	0.177	-0.031
-633.565	-200.000	0.007	0.098
-632.551	-77.001	-0.248	0.087
-631.536	170.305	0.091	0.131
-630.522	-200.000	-0.031	0.189
-629.507	382.756	0.047	0.098
-628.492	800.000	0.078	0.315
-627.478	-4.199	-0.149	0.103
-626.463	-65.427	0.165	0.066
-625.449	-200.000	-0.075	-0.368
-624.434	31.306	0.315	-0.271
-623.419	800.000	0.025	0.092
-622.405	86.299	-0.087	0.096
-621.390	-46.352	-0.271	0.133
-620.376	-163.813	-0.318	0.015
-619.361	143.620	-0.149	-0.198
-618.346	-125.213	0.116	0.018
-617.332	-32.724	0.194	0.108
-616.317	61.294	0.206	-0.204
-615.303	800.000	0.049	0.200
-614.288	-46.973	0.055	0.027
-613.273	77.138	-0.172	0.183
-612.259	-38.606	0.265	-0.140
-611.244	-124.679	-0.234	0.036
-610.230	70.781	-0.122	-0.126
-609.215	320.257	0.056	-0.107
-608.201	1.665	0.138	-0.100
-607.186	-200.000	0.021	-0.323
-606.171	-112.574	-0.232	0.046
-605.157	14.173	-0.189	-0.147
-604.142	-164.638	0.073	0.003
-603.128	800.000	-0.066	-0.284
-602.113	-30.430	0.082	-0.046
-601.098	367.879	-0.202	-0.407
-600.084	-49.412	-0.137	0.066
-599.069	634.957	-0.033	-0.084
-598.055	-28.156	-0.164	-0.095
-597.040	800.000	-0.085	-0.238
-596.025	-200.000	-0.019	-0.101
-595.011	-200.000	0.011	-0.177
-593.996	-200.000	-0.059	-0.311
-592.982	136.872	0.250	-0.326
-591.967	800.000	0.031	-0.096
-590.952	-140.712	0.184	-0.019
-589.938	-113.315	-0.075	-0.015
-588.923	9.354	0.060	-0.046
-587.909	-200.000	-0.016	0.263
-586.894	-200.000	-0.036	0.310
-585.879	-200.000	0.054	0.323
-584.865	-97.629	-0.299	0.077
-583.850	-91.470	-0.430	-0.123
-582.836	235.582	-0.153	0.252
-581.821	-113.964	0.104	0.020
-580.806	-83.879	-0.161	-0.051
-579.792	681.591	0.138	-0.360
-578.777	512.386	-0.096	-0.224
-577.763	98.645	-0.265	0.306
-576.748	238.106	0.175	-0.290
-575.733	68.864	-0.296	-0.304
-574.719	-200.000	-0.019	-0.085
-573.704	-200.000	-0.030	-0.193
-572.690	205.863	0.112	-0.174
-571.675	118.567	-0.088	-0.109
-570.661	-167.490	0.174	0.007
-569.646	-20.449	0.311	0.191
-568.631	155.068	0.266	0.365
-567.617	-143.564	0.122	0.012
-566.602	22.183	-0.182	0.149
-565.588	-142.392	0.182	0.018
-564.573	-28.316	-0.168	0.097
-563.558	-200.000	-0.016	0.165
-562.544	-108.774	0.173	0.037
-561.529	-200.000	0.002	0.066
-560.515	8.589	0.292	0.219
-559.500	-72.206	-0.097	-0.036
-558.485	-200.000	0.019	0.126
-557.471	424.590	0.087	0.188
-556.456	612.127	0.081	0.202
-555.442	-140.078	0.136	0.014
-554.427	2.524	-0.159	0.115
-553.412	136.693	0.249	-0.324
-552.398	-152.319	-0.371	0.027
-551.383	525.846	0.038	-0.089
-550.369	-29.397	-0.091	-0.052
-549.354	-157.187	0.133	0.008
-548.339	369.658	-0.137	0.277
-547.325	-200.000	0.030	0.181
-546.310	-200.000	-0.014	0.293
-545.296	177.678	0.173	0.252
-544.281	-200.000	0.035	0.215
-543.266	-115.011	-0.145	0.028
-542.252	-56.616	-0.331	0.146
-541.237	68.604	0.215	0.220
-540.223	-3.709	-0.209	0.145
-539.208	-147.098	0.116	-0.010
-538.193	-200.000	-0.005	0.038
-537.179	-200.000	-0.027	0.162
-536.164	-5.011	0.367	-0.252
-535.150	335.766	-0.073	-0.141
-534.135	309.955	-0.144	0.269
-533.121	-200.000	0.008	-0.490
-532.106	-200.000	-0.178	0.001
-531.091	-149.996	-0.541	0.042
-530.077	242.708	0.115	0.192
-529.062	178.733	-0.185	-0.269
-528.048	-128.012	0.122	-0.018
-527.033	24.542	-0.278	-0.230
-526.018	-200.000	0.035	0.381
-525.004	-54.529	-0.396	-0.179
-523.989	-132.281	0.293	-0.038
-522.975	-166.992	0.176	0.007
-521.960	-108.301	0.117	0.025
-520.945	-200.000	0.029	0.240
-519.931	-107.754	0.225	-0.049
-518.916	-200.000	-0.044	-0.251
-517.902	-51.076	0.095	0.044
-516.887	-109.782	-0.231	-0.048
-515.872	-200.000	-0.022	0.122
-514.858	-112.798	-0.102	0.020
-513.843	-200.000	0.044	-0.294
-512.829	-54.000	-0.051	-0.023
-511.814	800.000	0.071	-0.261
-510.799	105.696	-0.212	-0.250
-509.785	60.643	-0.254	-0.251
-508.770	-159.551	-0.277	0.015
-507.756	-106.105	0.229	-0.051
-506.741	108.552	0.057	0.067
-505.726	312.457	-0.146	-0.273
-504.712	-124.790	-0.380	-0.059
-503.697	37.774	0.094	-0.083
-502.683	-200.000	-0.031	0.363
-501.668	-8.311	-0.105	-0.070
-500.653	-35.779	-0.281	0.152
-499.639	800.000	0.083	-0.288
-498.624	-93.676	-0.486	-0.134
-497.610	-48.881	0.232	-0.111
-496.595	-172.002	-0.089	0.003
-495.581	408.133	0.150	-0.316
-494.566	-56.507	0.281	0.124
-493.551	-15.088	-0.249	-0.159
-492.537	-133.161	-0.195	-0.025
-491.522	800.000	-0.033	0.128
-490.508	16.618	-0.211	-0.166
-489.493	389.220	-0.159	-0.329
-488.478	-53.140	-0.121	0.055
-487.464	26.440	0.162	-0.135
-486.449	-105.076	-0.383	0.087
-485.435	47.541	0.181	0.168
-484.420	142.825	-0.155	0.205
-483.405	-155.457	-0.265	0.017
-482.391	-57.791	0.062	0.027
-481.376	-200.000	-0.001	-0.134
-480.362	-166.840	-0.252	-0.010
-479.347	-200.000	-0.049	-0.222
-478.332	563.264	0.095	-0.230
-477.318	58.928	-0.049	-0.048
-476.303	-26.380	0.140	-0.082
-475.289	495.320	0.041	-0.094
-474.274	518.493	-0.045	0.105
-473.259	-95.120	0.217	0.058
-472.245	-200.000	-0.033	0.160
-471.230	142.940	0.162	-0.215
-470.216	-50.470	0.112	-0.052
-469.201	-128.147	-0.273	-0.039
-468.186	116.882	0.339	0.415
-467.172	257.861	0.144	0.246
-466.157	-91.232	-0.243	-0.069
-465.143	-30.782	0.246	-0.139
-464.128	-29.613	0.288	-0.164
-463.113	-148.324	-0.134	-0.011
-462.099	-110.474	-0.135	-0.028
-461.084	-76.404	-0.293	0.102
-460.070	-45.647	-0.242	0.119
-459.055	-9.431	-0.190	-0.126
-458.040	-58.942	-0.232	0.100
-457.026	-91.732	0.257	-0.073
-456.011	253.874	0.139	-0.236
-454.997	-66.256	-0.229	-0.091
-453.982	-171.482	0.613	-0.020
-452.968	26.263	0.247	0.205
-451.953	-39.509	-0.303	-0.158
-450.938	-34.531	0.236	0.128
-449.924	280.838	-0.159	0.283
-448.909	778.874	0.057	0.155
-447.895	-34.028	0.049	0.027
-446.880	292.625	-0.082	-0.149
-445.865	-19.232	-0.174	-0.107
-444.851	-93.885	0.088	0.024
-443.836	-73.266	-0.322	-0.117
-442.822	56.768	0.269	-0.261
-441.807	-88.754	0.275	-0.081
-440.792	7.346	-0.080	-0.060
-439.778	327.237	-0.040	-0.077
-438.763	-200.000	-0.015	-0.170
-437.749	-200.000	-0.011	-0.159
-436.734	-200.000	-0.036	0.212
-435.719	70.841	0.120	-0.124
-434.705	-115.197	0.182	0.034
-433.690	88.360	-0.085	-0.094
-432.676	-19.549	0.099	-0.061
-431.661	-183.327	0.225	0.004
-430.646	-145.903	-0.238	-0.021
-429.632	-158.015	-0.133	0.008
-428.617	79.599	0.089	0.095
-427.603	-37.095	-0.214	-0.114
-426.588	-95.933	-0.056	-0.015
-425.573	15.063	0.230	-0.179
-424.559	-200.000	0.006	0.217
-423.544	-16.476	0.258	-0.162
-422.530	40.511	-0.090	-0.081
-421.515	166.551	0.213	0.299
-420.500	-163.176	-0.199	0.009
-419.486	420.923	0.135	0.287
-418.471	-88.573	0.476	-0.141
-417.457	-110.603	0.317	-0.065
-416.442	-17.823	0.033	-0.020
-415.428	7.301	-0.094	0.069
-414.413	27.853	-0.221	-0.185
-413.398	-125.080	-0.363	0.055
-412.384	789.944	0.118	0.322
-411.369	-89.304	0.106	0.031
-410.355	-200.000	0.008	-0.415
-409.340	151.595	0.316	-0.427
-408.325	45.959	-0.143	-0.131
-407.311	-200.000	-0.011	-0.100
-406.296	137.205	0.246	-0.319
-405.282	-98.617	-0.147	0.037
-404.267	-200.000	0.012	0.126
-403.252	435.779	-0.092	-0.199
-402.238	-108.260	-0.174	-0.037
-401.223	-200.000	-0.021	0.102
-400.209	-200.000	0.018	0.363
-399.194	800.000	-0.085	0.338
-398.179	-15.928	-0.330	-0.209
-397.165	163.232	0.081	-0.113
-396.150	-5.831	0.181	0.123
-395.136	33.326	0.067	-0.057
-394.121	-57.056	-0.421	0.184
-393.106	-91.389	0.071	0.020
-392.092	-179.930	0.125	0.003
-391.077	-151.456	-0.126	-0.009
-390.063	800.000	0.063	0.233
-389.048	800.000	-0.009	-0.035
-388.033	44.140	0.171	-0.156
-387.019	-149.062	0.274	0.022
-386.004	-184.765	-0.271	0.004
-384.990	-120.141	0.352	0.060
-383.975	-155.896	0.263	0.017
-382.960	330.717	0.015	-0.029
-381.946	-110.462	-0.320	0.066
-380.931	56.068	0.074	0.071
-379.917	128.027	0.203	0.256
-378.902	-161.936	0.161	0.008
-377.888	-198.209	-0.310	-0.002
-376.873	43.307	-0.171	-0.155
-375.858	-91.818	0.094	0.026
-374.844	162.885	0.091	0.127
-373.829	-52.971	-0.167	0.076
-372.815	-51.172	0.130	0.061
-371.800	19.780	-0.239	0.191
-370.785	211.141	0.058	-0.091
-369.771	-200.000	0.025	0.116
-368.756	84.291	0.112	0.122
-367.742	-54.879	-0.104	-0.046
-366.727	114.317	0.114	0.138
-365.712	179.400	-0.054	-0.079
-364.698	-118.574	-0.380	-0.067
-363.683	-200.000	-0.045	-0.284
-362.669	-45.149	-0.085	0.042
-361.654	-48.967	-0.323	-0.153
-360.639	165.123	-0.132	-0.184
-359.625	-7.343	-0.144	0.096
-358.610	-38.458	0.133	-0.070
-357.596	43.960	0.081	0.073
-356.581	800.000	0.120	0.343
-355.566	57.518	-0.117	0.113
-354.552	-142.845	0.358	-0.035
-353.537	-20.472	-0.144	0.088
-352.523	-200.000	-0.000	0.142
-351.508	-200.000	0.052	0.263
-350.493	-58.986	-0.534	-0.228
-349.479	-74.757	0.181	-0.064
-348.464	-93.360	-0.304	-0.084
-347.450	-24.995	-0.205	0.120
-346.435	50.921	0.054	-0.051
-345.420	800.000	0.095	-0.316
-344.406	315.679	-0.083	0.156
-343.391	186.617	0.138	0.204
-342.377	-159.100	0.197	0.011
-341.362	378.917	0.103	0.210
-340.348	-200.000	-0.065	-0.343
-339.333	-200.000	-0.060	-0.280
-338.318	-200.000	-0.032	-0.502
-337.304	-135.489	0.219	0.026
-336.289	-86.754	-0.352	0.106
-335.275	365.113	0.043	-0.086
-334.260	-147.080	-0.150	-0.013
-333.245	-200.000	0.065	0.298
-332.231	84.822	-0.334	0.362
-331.216	-200.000	-0.001	0.056
-330.202	-74.628	0.117	-0.042
-329.187	517.280	0.195	0.451
-328.172	-46.992	-0.182	-0.088
-327.158	157.794	-0.103	0.141
-326.143	276.013	0.126	-0.222
-325.129	-143.346	0.128	0.012
-324.114	800.000	-0.062	0.211
-323.099	-125.242	-0.088	-0.013
-322.085	-179.463	0.394	-0.009
-321.070	28.070	-0.052	0.044
-320.056	3.984	0.097	-0.070
-319.041	-51.093	-0.279	0.129
-318.026	220.221	0.133	0.212
-317.012	-200.000	-0.010	0.151
-315.997	-3.964	0.112	-0.077
-314.983	20.127	-0.355	-0.283
-313.968	111.922	0.129	0.154
-312.953	-3.795	-0.128	-0.088
-311.939	-40.418	0.164	0.084
-310.924	119.601	0.148	-0.182
-309.910	142.367	0.088	0.116
-308.895	-6.674	0.143	0.096
-307.880	630.021	0.009	0.023
-306.866	800.000	0.067	-0.228
-305.851	440.047	-0.186	0.401
-304.837	800.000	0.052	-0.178
-303.822	28.210	-0.112	-0.093
-302.807	55.165	0.215	0.205
-301.793	-89.354	-0.206	0.060
-300.778	-137.308	0.352	-0.039
-299.764	39.858	-0.151	-0.134
-298.749	-15.847	-0.266	-0.168
-297.735	-200.000	-0.015	-0.069
-296.720	288.131	-0.086	0.154
-295.705	-40.108	0.326	-0.168
-294.691	-130.317	-0.208	0.028
-293.676	-135.846	-0.150	-0.017
-292.662	13.306	-0.237	0.181
-291.647	-200.000	-0.002	-0.161
-290.632	-65.590	-0.405	0.161
-289.618	33.124	-0.209	0.179
-288.603	-200.000	0.026	-0.328
-287.589	800.000	-0.024	-0.105
-286.574	800.000	0.103	-0.379
-285.559	50.700	-0.109	-0.102
-284.545	-200.000	0.008	-0.572
-283.530	-58.844	0.509	0.218
-282.516	-80.954	0.136	0.045
-281.501	263.062	-0.177	0.303
-280.486	-158.566	0.161	0.009
-279.472	-67.348	-0.018	-0.007
-278.457	-60.677	-0.089	-0.037
-277.443	319.939	0.184	0.346
-276.428	160.608	0.089	0.123
-275.413	-103.026	0.175	0.041
-274.399	-87.044	-0.048	-0.015
-273.384	-200.000	-0.069	0.329
-272.370	4.665	0.038	0.027
-271.355	800.000	-0.016	0.055
-270.340	800.000	0.048	-0.182
-269.326	98.840	0.126	-0.144
-268.311	-162.945	-0.214	-0.010
-267.297	118.156	-0.077	0.094
-266.282	143.883	0.010	-0.014
-265.267	-42.260	0.201	0.101
-264.253	-200.000	0.018	0.225
-263.238	-97.394	-0.119	0.030
-262.224	-144.831	0.358	-0.032
-261.209	-125.138	0.365	0.055
-260.195	-45.790	0.156	-0.076
-259.180	-43.674	0.442	0.220
-258.165	-156.051	0.169	-0.011
-257.151	420.671	0.073	-0.155
-256.136	-11.723	-0.139	0.090
-255.122	800.000	0.053	-0.212
-254.107	-61.519	-0.448	-0.186
-253.092	-200.000	0.016	-0.254
-252.078	53.494	0.100	0.095
-251.063	87.245	0.237	0.258
-250.049	800.000	-0.064	-0.182
-249.034	330.121	0.067	-0.127
-248.019	120.026	-0.149	-0.182
-247.005	-37.813	-0.132	-0.069
-245.990	-65.440	-0.405	0.160
-244.976	-200.000	-0.050	0.306
-243.961	341.260	-0.145	-0.280
-242.946	-47.423	-0.223	-0.107
-241.932	112.670	-0.004	0.004
-240.917	-200.000	-0.018	-0.476
-239.903	-161.649	0.153	0.008
-238.888	577.330	0.049	0.119
-237.873	-184.112	0.209	-0.003
-236.859	-200.000	0.005	0.202
-235.844	-114.947	-0.221	-0.041
-234.830	728.859	-0.046	0.120
-233.815	-55.643	0.467	0.206
-232.800	-79.175	-0.190	0.063
-231.786	-64.834	0.267	-0.107
-230.771	179.058	0.267	0.386
-229.757	-160.115	0.318	0.017
-228.742	255.876	0.103	0.174
-227.727	-19.596	0.172	-0.105
-226.713	-109.446	0.294	0.061
-225.698	24.804	-0.076	0.062
-224.684	134.307	-0.050	-0.065
-223.669	-111.444	0.063	0.013
-222.655	-113.483	-0.162	-0.031
-221.640	-200.000	0.018	0.105
-220.625	-15.736	0.364	-0.228
-219.611	-65.571	0.288	-0.114
-218.596	-34.712	-0.160	0.086
-217.582	100.232	-0.115	0.131
-216.567	226.143	0.204	0.326
-215.552	-132.696	-0.133	0.017
-214.538	-200.000	-0.001	-0.170
-213.523	66.254	-0.234	-0.234
-212.509	-133.694	-0.065	-0.008
-211.494	-116.833	0.336	-0.061
-210.479	24.413	-0.147	0.120
-209.465	-137.983	-0.036	0.004
-208.450	-98.018	0.245	0.062
-207.436	-200.000	0.062	0.280
-206.421	195.944	0.112	0.167
-205.406	800.000	-0.086	0.338
-204.392	-200.000	-0.038	-0.269
-203.377	-128.827	0.187	-0.026
-202.363	-56.521	0.212	-0.093
-201.348	800.000	-0.045	0.185
-200.333	-40.519	0.085	0.043
-199.319	74.781	0.236	-0.244
-198.304	216.386	-0.147	0.230
-197.290	20.081	-0.230	0.183
-196.275	-93.790	-0.320	-0.087
-195.260	-40.080	0.091	-0.047
-194.246	-87.621	0.058	0.017
-193.231	123.330	-0.025	0.030
-192.217	7.321	0.153	0.112
-191.202	84.496	0.160	-0.172
-190.187	-200.000	-0.041	-0.289
-189.173	-16.200	0.302	0.189
-188.158	338.086	0.290	0.555
-187.144	-200.000	0.054	0.394
-186.129	77.563	-0.200	-0.210
-185.114	624.037	-0.092	-0.228
-184.100	-49.581	-0.224	-0.105
-183.085	449.732	-0.085	0.185
-182.071	-115.437	0.230	-0.043
-181.056	800.000	0.068	-0.185
-180.042	-200.000	-0.030	-0.183
-179.027	-80.144	0.239	-0.079
-178.012	23.245	0.260	0.210
-176.998	40.971	0.121	0.107
-175.983	328.975	-0.114	0.216
-174.969	258.191	-0.062	0.105
-173.954	-33.885	0.095	-0.051
-172.939	187.679	-0.165	-0.243
-171.925	-43.231	-0.161	0.080
-170.910	-16.106	0.033	0.020
-169.896	714.978	0.071	-0.185
-168.881	263.838	0.116	0.198
-167.866	-14.082	0.104	-0.066
-166.852	800.000	0.026	0.108
-165.837	491.781	-0.107	-0.241
-164.823	-200.000	-0.012	-0.262
-163.808	185.380	0.170	0.248
-162.793	800.000	-0.115	0.330
-161.779	430.531	0.121	-0.257
-160.764	-34.743	-0.298	0.160
-159.750	-71.883	0.338	-0.124
-158.735	389.902	0.112	0.229
-157.720	800.000	-0.104	-0.351
-156.706	76.568	-0.202	0.211
-155.691	-200.000	-0.043	0.455
-154.677	-200.000	-0.005	0.096
-153.662	-200.000	0.003	0.018
-152.647	-136.659	-0.108	0.012
-151.633	800.000	0.091	-0.354
-150.618	218.349	0.109	0.171
-149.604	-137.018	0.118	-0.013
-148.589	-59.492	0.223	-0.094
-147.574	-200.000	0.047	-0.335
-146.560	-37.760	-0.164	-0.086
-145.545	55.892	0.135	0.128
-144.531	-103.644	-0.399	-0.092
-143.516	-152.692	0.190	0.013
-142.502	18.781	-0.248	-0.195
-141.487	-200.000	-0.034	-0.400
-140.472	800.000	0.056	0.238
-139.458	0.377	0.286	0.201
-138.443	-34.916	0.442	0.237
-137.429	-44.843	0.067	0.033
-136.414	136.464	-0.022	0.028
-135.399	-129.660	0.175	-0.024
-134.385	-200.000	-0.049	0.295
-133.370	-31.061	0.220	-0.122
-132.356	156.221	-0.114	-0.155
-131.341	-200.000	-0.042	-0.244
-130.326	-67.317	0.223	-0.086
-129.312	-200.000	0.061	0.334
-128.297	-92.344	-0.097	0.027
-127.283	82.525	0.071	-0.076
-126.268	56.935	0.048	-0.046
-125.253	34.677	0.253	0.217
-124.239	-163.785	-0.548	0.025
-123.224	800.000	-0.165	0.533
-122.210	-200.000	0.001	0.048
