DTS Sentinel unit serial number:	SN413079Multiplexer serial number:	ORYXHardware model number:	OX4-SRSoftware version number:	ORYX F/W v4.00 Oryx Data Collector v3.7.2.0data status	okinstallation	princeton_trtdifferential loss correction	single-endedforward channel	channel 4reverse channel	N/Adate	2019/09/12time	04:11:11forward acquisition time	60.00reverse acquisition time	0.00gamma	496.2192k internal	0.2310k external	0.2310temperature offset calibration	1.0098default loss term (dB/km)	0.3790temperature slope calibration	1.0000multiplexer offset coefficient	1.0000multiplexer slope coefficient	1.0000fibre end	0.00T internal ref (°C)	31.94T ext. ref 1 (°C)	2.21T ext. ref 2 (°C)	25.34length (m)	temperature (°C)	Stokes	anti-Stokes-747.200	318.767	-0.166	0.319
-746.185	477.522	-0.194	0.445
-745.171	-129.941	0.167	0.023
-744.156	-30.565	-0.279	0.160
-743.142	-119.814	0.149	-0.026
-742.127	-73.715	0.206	-0.076
-741.112	62.523	0.167	-0.170
-740.098	-97.079	0.274	-0.073
-739.083	-134.660	0.160	-0.020
-738.069	-89.371	-0.114	0.034
-737.054	87.615	-0.092	0.103
-736.039	-93.471	-0.136	-0.038
-735.025	-3.688	0.082	0.058
-734.010	0.533	0.168	0.122
-732.996	35.103	-0.109	-0.097
-731.981	117.958	-0.137	0.171
-730.966	-172.539	-0.145	0.005
-729.952	29.761	-0.125	0.108
-728.937	-96.241	0.157	0.042
-727.923	-26.722	0.176	-0.104
-726.908	-12.143	0.380	-0.252
-725.894	-25.385	-0.128	0.077
-724.879	223.997	-0.088	0.144
-723.864	-120.719	-0.184	0.032
-722.850	-140.233	-0.238	-0.025
-721.835	205.266	0.050	-0.078
-720.821	43.809	-0.242	0.225
-719.806	-98.189	-0.248	-0.065
-718.791	-200.000	-0.018	0.122
-717.777	-200.000	0.017	-0.094
-716.762	73.949	-0.058	-0.062
-715.748	-200.000	-0.026	0.214
-714.733	-200.000	-0.060	-0.294
-713.718	-72.295	-0.198	-0.074
-712.704	265.629	0.063	0.111
-711.689	228.685	-0.056	0.092
-710.675	800.000	-0.054	0.219
-709.660	-76.241	0.314	0.112
-708.645	222.637	-0.039	-0.064
-707.631	36.174	-0.344	-0.307
-706.616	-200.000	0.057	0.337
-705.602	-67.976	-0.082	0.032
-704.587	29.493	0.189	0.163
-703.572	-101.530	0.169	-0.042
-702.558	28.700	0.023	-0.020
-701.543	15.506	0.010	-0.008
-700.529	-31.898	-0.188	-0.107
-699.514	17.079	0.151	-0.121
-698.499	-137.760	-0.218	0.025
-697.485	47.749	-0.183	-0.173
-696.470	-33.212	0.179	0.100
-695.456	-30.234	0.201	0.116
-694.441	216.567	-0.182	-0.294
-693.426	313.060	-0.083	0.159
-692.412	-25.122	0.017	0.010
-691.397	238.763	-0.106	0.178
-690.383	-200.000	0.004	-0.178
-689.368	-111.493	-0.166	-0.034
-688.354	4.769	-0.483	-0.360
-687.339	-67.331	0.174	0.069
-686.324	283.975	0.104	0.189
-685.310	1.409	0.117	-0.085
-684.295	353.390	-0.116	0.233
-683.281	748.761	0.044	0.120
-682.266	530.778	-0.128	0.307
-681.251	-130.064	-0.296	0.041
-680.237	38.621	-0.042	0.038
-679.222	-200.000	-0.004	-0.205
-678.208	21.272	-0.193	0.159
-677.193	-92.235	0.254	0.072
-676.178	110.607	0.090	-0.110
-675.164	-34.942	-0.072	0.040
-674.149	800.000	-0.080	0.248
-673.135	-200.000	0.038	-0.244
-672.120	278.673	-0.077	0.140
-671.105	-146.080	-0.171	0.015
-670.091	100.544	0.225	-0.265
-669.076	98.297	-0.160	-0.186
-668.062	-200.000	-0.036	0.201
-667.047	28.567	-0.168	0.144
-666.032	-83.134	0.468	0.153
-665.018	436.762	0.066	0.146
-664.003	24.762	0.142	-0.119
-662.989	-179.180	-0.257	-0.006
-661.974	-37.208	-0.207	-0.112
-660.959	568.922	0.062	-0.154
-659.945	63.603	0.253	-0.257
-658.930	71.955	-0.046	-0.048
-657.916	37.124	-0.245	-0.219
-656.901	-185.963	0.108	0.002
-655.886	-200.000	-0.002	-0.336
-654.872	-200.000	-0.023	-0.185
-653.857	-43.331	-0.176	-0.090
-652.843	-92.494	0.243	0.069
-651.828	-95.609	-0.333	-0.090
-650.814	-23.844	-0.224	0.135
-649.799	436.447	-0.098	-0.217
-648.784	-200.000	0.014	0.121
-647.770	800.000	-0.095	0.329
-646.755	-200.000	0.011	0.126
-645.741	89.341	-0.133	-0.150
-644.726	800.000	-0.039	-0.164
-643.711	-78.018	-0.194	-0.068
-642.697	-25.910	0.272	-0.162
-641.682	-200.000	-0.019	-0.170
-640.668	-167.152	0.166	0.007
-639.653	125.816	-0.079	0.101
-638.638	-23.807	-0.259	-0.157
-637.624	-64.284	-0.222	-0.091
-636.609	-55.372	0.164	-0.074
-635.595	656.412	-0.129	-0.336
-634.580	162.545	0.007	0.010
-633.565	-112.004	-0.054	-0.011
-632.551	-81.660	-0.171	0.057
-631.536	162.544	-0.083	0.117
-630.522	442.514	0.070	0.156
-629.507	239.347	-0.159	-0.267
-628.492	-35.468	0.360	-0.197
-627.478	800.000	-0.039	-0.158
-626.463	-200.000	-0.025	-0.149
-625.449	54.959	-0.069	0.068
-624.434	-47.952	-0.121	0.059
-623.419	800.000	0.141	-0.475
-622.405	-159.563	-0.103	-0.006
-621.390	-7.416	0.147	0.100
-620.376	-164.835	0.075	-0.003
-619.361	772.413	-0.021	-0.057
-618.346	254.786	-0.044	0.076
-617.332	278.894	0.177	-0.319
-616.317	444.190	0.196	-0.435
-615.303	-186.385	0.136	0.002
-614.288	787.783	-0.023	-0.064
-613.273	-200.000	0.023	-0.126
-612.259	27.323	0.086	0.073
-611.244	-200.000	-0.005	-0.128
-610.230	-126.380	-0.307	0.046
-609.215	82.818	-0.364	0.400
-608.201	-200.000	0.012	-0.211
-607.186	-200.000	0.011	-0.273
-606.171	-20.350	0.065	-0.040
-605.157	46.124	0.231	0.216
-604.142	-35.712	-0.243	0.133
-603.128	4.478	-0.099	-0.074
-602.113	443.272	-0.043	0.096
-601.098	42.717	-0.171	-0.157
-600.084	-57.666	-0.373	-0.165
-599.069	-73.478	-0.170	0.063
-598.055	-200.000	0.040	0.183
-597.040	201.697	0.293	0.456
-596.025	-90.447	0.081	0.024
-595.011	-132.879	-0.284	-0.037
-593.996	-84.501	0.307	-0.098
-592.982	800.000	-0.067	-0.281
-591.967	-200.000	-0.013	-0.064
-590.952	484.260	-0.030	-0.068
-589.938	-120.192	-0.181	0.031
-588.923	-94.030	-0.157	-0.043
-587.909	40.154	0.183	-0.166
-586.894	-14.405	-0.140	-0.091
-585.879	399.899	-0.074	-0.156
-584.865	-151.328	-0.188	0.014
-583.850	125.070	-0.160	0.203
-582.836	-144.107	0.139	0.013
-581.821	315.062	-0.259	0.492
-580.806	649.650	0.134	-0.346
-579.792	-55.724	0.173	0.078
-578.777	-97.899	0.503	-0.131
-577.763	238.277	0.118	-0.198
-576.748	69.370	0.118	-0.122
-575.733	-137.462	0.148	-0.017
-574.719	800.000	-0.112	-0.422
-573.704	-200.000	-0.200	-0.000
-572.690	121.210	-0.068	0.085
-571.675	-38.892	-0.210	0.112
-570.661	429.218	-0.093	-0.202
-569.646	13.177	0.261	0.204
-568.631	674.916	-0.110	0.289
-567.617	6.485	-0.193	-0.145
-566.602	-39.919	-0.230	-0.121
-565.588	-126.441	-0.337	-0.051
-564.573	141.812	-0.098	-0.131
-563.558	-65.867	-0.211	0.085
-562.544	-27.332	0.134	0.079
-561.529	-200.000	-0.032	0.173
-560.515	-168.265	0.239	-0.009
-559.500	166.303	-0.113	0.161
-558.485	-159.756	-0.165	-0.009
-557.471	260.456	-0.043	-0.075
-556.456	-200.000	-0.040	0.247
-555.442	800.000	0.070	0.302
-554.427	-200.000	-0.012	-0.119
-553.412	-94.789	0.255	-0.070
-552.398	-200.000	0.009	-0.112
-551.383	-152.834	-0.133	0.009
-550.369	-200.000	-0.036	-0.177
-549.354	338.915	-0.034	-0.067
-548.339	87.544	-0.062	-0.069
-547.325	-200.000	0.027	-0.252
-546.310	-124.075	0.502	0.079
-545.296	23.130	-0.167	-0.138
-544.281	657.587	-0.042	0.108
-543.266	-107.351	-0.202	-0.045
-542.252	434.665	0.086	0.189
-541.237	158.104	0.151	-0.211
-540.223	-64.624	0.442	0.181
-539.208	-129.891	-0.064	-0.009
-538.193	-127.520	-0.115	-0.017
-537.179	270.132	0.153	-0.270
-536.164	-200.000	0.050	0.277
-535.150	-200.000	-0.028	0.147
-534.135	769.394	0.054	0.149
-533.121	-200.000	0.032	0.304
-532.106	-40.311	-0.184	-0.096
-531.091	800.000	0.005	-0.015
-530.077	-130.055	0.333	-0.046
-529.062	800.000	-0.093	0.309
-528.048	113.824	0.140	0.171
-527.033	-140.848	0.306	0.032
-526.018	331.224	0.166	-0.322
-525.004	306.438	0.152	-0.284
-523.989	97.389	-0.228	0.263
-522.975	-63.206	-0.271	-0.112
-521.960	-200.000	0.037	0.222
-520.945	539.952	-0.100	-0.240
-519.931	202.314	0.028	0.044
-518.916	800.000	0.168	0.565
-517.902	73.635	0.006	-0.006
-516.887	-84.781	-0.173	0.055
-515.872	201.823	0.141	0.219
-514.858	-200.000	0.083	-0.389
-513.843	-35.685	-0.014	-0.008
-512.829	-182.002	-0.164	-0.003
-511.814	-102.586	-0.162	0.039
-510.799	54.493	-0.091	-0.088
-509.785	-121.793	-0.022	-0.004
-508.770	800.000	0.040	-0.127
-507.756	252.748	-0.159	0.273
-506.741	-91.853	-0.171	-0.049
-505.726	-200.000	0.065	0.368
-504.712	296.186	0.178	-0.329
-503.697	-200.000	0.013	-0.155
-502.683	146.462	-0.091	-0.122
-501.668	72.491	0.079	0.083
-500.653	296.572	0.117	0.215
-499.639	-35.861	-0.165	0.090
-498.624	-150.080	0.134	0.011
-497.610	-73.476	-0.148	-0.055
-496.595	-200.000	-0.033	0.390
-495.581	101.563	0.204	-0.240
-494.566	-91.159	-0.160	0.046
-493.551	166.453	-0.080	-0.114
-492.537	251.153	0.089	-0.151
-491.522	-200.000	0.026	0.119
-490.508	-115.047	0.248	-0.047
-489.493	175.119	-0.176	-0.257
-488.478	800.000	0.086	0.256
-487.464	-84.177	0.155	0.049
-486.449	-139.350	-0.379	0.041
-485.435	263.436	-0.190	-0.332
-484.420	800.000	-0.032	0.125
-483.405	800.000	-0.060	0.180
-482.391	800.000	-0.054	0.192
-481.376	445.617	0.006	-0.014
-480.362	-97.941	-0.401	-0.104
-479.347	-2.319	0.375	-0.264
-478.332	199.411	0.116	-0.179
-477.318	800.000	0.049	-0.148
-476.303	-200.000	0.003	0.199
-475.289	-200.000	0.007	0.135
-474.274	-33.231	0.186	0.103
-473.259	58.213	0.172	-0.169
-472.245	-7.967	0.110	0.075
-471.230	-76.715	0.121	-0.042
-470.216	800.000	-0.004	0.016
-469.201	56.562	0.196	0.191
-468.186	546.869	0.080	0.193
-467.172	41.468	-0.065	-0.059
-466.157	800.000	-0.069	0.294
-465.143	-150.191	-0.260	0.020
-464.128	519.534	-0.122	0.288
-463.113	-79.250	0.184	-0.063
-462.099	13.706	-0.373	-0.291
-461.084	179.107	-0.179	-0.262
-460.070	26.811	-0.345	-0.290
-459.055	-73.971	-0.127	-0.046
-458.040	-200.000	-0.030	-0.248
-457.026	-169.725	-0.154	-0.006
-456.011	-200.000	-0.070	-0.433
-454.997	-56.429	-0.008	0.004
-453.982	-7.420	-0.135	-0.091
-452.968	222.182	0.019	-0.031
-451.953	800.000	0.141	0.416
-450.938	-200.000	-0.019	-0.159
-449.924	0.952	-0.071	-0.051
-448.909	-27.239	0.129	0.075
-447.895	-200.000	0.050	0.246
-446.880	123.690	-0.084	0.106
-445.865	-200.000	0.002	0.028
-444.851	0.104	0.210	-0.150
-443.836	-123.791	0.146	-0.023
-442.822	-182.434	0.283	0.005
-441.807	-200.000	0.017	0.092
-440.792	465.412	0.097	0.218
-439.778	293.298	-0.104	-0.190
-438.763	800.000	0.052	-0.154
-437.749	-160.528	0.232	0.012
-436.734	-200.000	-0.033	0.215
-435.719	-64.886	0.300	-0.122
-434.705	-183.218	-0.238	0.004
-433.690	-200.000	0.017	0.118
-432.676	-163.168	-0.357	0.017
-431.661	111.076	0.168	0.203
-430.646	-3.764	-0.104	-0.072
-429.632	80.130	0.068	-0.073
-428.617	212.084	-0.124	0.196
-427.603	800.000	0.029	0.087
-426.588	113.438	-0.044	-0.054
-425.573	211.629	-0.134	0.212
-424.559	11.363	0.167	-0.128
-423.544	-151.115	0.071	-0.005
-422.530	-70.496	0.081	0.031
-421.515	216.246	0.139	-0.221
-420.500	-200.000	-0.021	0.191
-419.486	-200.000	-0.004	0.166
-418.471	23.490	-0.133	0.110
-417.457	-99.078	0.153	-0.039
-416.442	-48.186	-0.148	-0.072
-415.428	-48.899	-0.101	-0.049
-414.413	180.368	0.097	0.143
-413.398	83.904	0.153	-0.167
-412.384	-57.421	-0.505	0.222
-411.369	251.352	0.058	-0.100
-410.355	800.000	0.077	0.328
-409.340	-200.000	-0.008	0.045
-408.325	230.819	0.156	0.257
-407.311	-150.497	0.280	0.021
-406.296	-92.686	0.260	0.073
-405.282	-200.000	-0.024	0.300
-404.267	-102.069	-0.134	-0.032
-403.252	523.998	0.088	-0.208
-402.238	293.729	-0.095	0.175
-401.223	62.667	-0.190	0.190
-400.209	800.000	0.028	0.092
-399.194	31.126	0.425	-0.365
-398.179	167.867	-0.152	0.216
-397.165	-100.665	0.033	0.008
-396.150	-200.000	0.034	0.286
-395.136	-200.000	0.007	-0.110
-394.121	141.719	0.340	-0.451
-393.106	110.112	-0.058	-0.070
-392.092	315.700	-0.127	-0.239
-391.077	-98.783	-0.171	-0.044
-390.063	-59.256	0.170	-0.073
-389.048	-152.273	0.117	-0.008
-388.033	-200.000	-0.018	-0.104
-387.019	-32.929	-0.074	0.041
-386.004	-37.095	-0.033	0.018
-384.990	-152.704	-0.316	-0.023
-383.975	15.385	0.110	-0.087
-382.960	-27.936	-0.195	-0.113
-381.946	274.555	0.108	0.191
-380.931	-15.886	0.152	-0.097
-379.917	-108.742	0.242	-0.052
-378.902	449.717	-0.025	-0.054
-377.888	-120.850	0.242	-0.041
-376.873	-26.508	0.409	-0.240
-375.858	-31.594	0.022	0.012
-374.844	-200.000	0.039	-0.354
-373.829	33.885	-0.213	0.186
-372.815	-200.000	0.001	0.099
-371.800	-200.000	-0.055	-0.332
-370.785	-183.581	0.413	0.007
-369.771	-139.427	-0.083	-0.009
-368.756	-59.412	-0.133	0.057
-367.742	134.301	-0.062	0.080
-366.727	115.514	-0.106	0.129
-365.712	44.503	-0.208	0.191
-364.698	-200.000	-0.032	0.216
-363.683	-128.736	-0.209	0.030
-362.669	-130.311	0.033	0.004
-361.654	96.046	-0.029	-0.033
-360.639	-200.000	0.010	0.050
-359.625	166.522	-0.145	0.206
-358.610	239.138	0.050	0.084
-357.596	-104.079	-0.205	-0.048
-356.581	-37.523	0.390	-0.208
-355.566	-200.000	-0.009	-0.333
-354.552	380.320	-0.072	-0.147
-353.537	40.603	-0.118	-0.107
-352.523	-200.000	-0.020	0.229
-351.508	-90.658	-0.142	0.041
-350.493	-65.808	-0.389	-0.156
-349.479	-119.536	-0.160	-0.028
-348.464	131.163	-0.128	0.165
-347.450	112.919	0.193	0.234
-346.435	-83.270	0.259	0.083
-345.420	-152.838	0.287	0.020
-344.406	71.610	0.061	0.063
-343.391	-150.518	-0.384	0.029
-342.377	-200.000	0.055	0.316
-341.362	-126.290	-0.292	0.044
-340.348	-40.383	0.034	-0.018
-339.333	-200.000	-0.074	0.380
-338.318	-65.490	0.170	-0.068
-337.304	-188.813	0.239	-0.003
-336.289	-103.576	0.485	0.114
-335.275	-38.095	-0.270	0.143
-334.260	64.124	0.327	-0.328
-333.245	-102.350	0.171	-0.041
-332.231	-39.006	-0.250	-0.132
-331.216	21.688	0.143	0.116
-330.202	-200.000	0.024	0.137
-329.187	-105.134	-0.299	-0.068
-328.172	-73.302	-0.284	0.104
-327.158	146.714	0.104	0.139
-326.143	769.938	0.094	-0.257
-325.129	800.000	0.032	-0.117
-324.114	-11.229	0.152	-0.100
-323.099	-200.000	-0.035	0.291
-322.085	321.090	-0.225	-0.426
-321.070	-82.449	-0.239	-0.078
-320.056	124.782	0.053	0.067
-319.041	408.669	0.140	-0.295
-318.026	-200.000	-0.022	-0.146
-317.012	-200.000	-0.005	0.055
-315.997	800.000	-0.036	0.159
-314.983	-77.077	0.211	-0.073
-313.968	2.588	0.131	-0.095
-312.953	-200.000	-0.016	0.133
-311.939	-87.381	0.181	0.055
-310.924	-38.829	0.195	0.103
-309.910	-200.000	-0.010	-0.113
-308.895	561.240	-0.087	-0.209
-307.880	-43.365	-0.117	-0.059
-306.866	8.074	-0.119	-0.089
-305.851	1.324	-0.153	0.109
-304.837	-189.604	0.228	-0.003
-303.822	33.860	-0.080	0.070
-302.807	-2.697	0.033	-0.023
-301.793	-200.000	-0.018	0.328
-300.778	-15.313	-0.239	0.153
-299.764	344.418	-0.150	0.294
-298.749	210.055	0.029	-0.046
-297.735	-200.000	-0.070	0.313
-296.720	1.490	0.156	-0.112
-295.705	613.194	-0.088	-0.220
-294.691	-133.892	0.304	0.038
-293.676	-34.081	-0.049	0.027
-292.662	-43.870	-0.304	0.152
-291.647	-137.852	0.308	-0.034
-290.632	-200.000	0.046	0.321
-289.618	-85.346	0.274	-0.085
-288.603	-77.425	0.013	0.005
-287.589	-98.381	-0.084	-0.022
-286.574	574.673	-0.109	0.265
-285.559	336.387	-0.129	0.250
-284.545	7.209	0.352	-0.262
-283.530	800.000	-0.066	0.282
-282.516	35.939	-0.097	0.085
-281.501	451.251	0.126	-0.277
-280.486	17.167	-0.148	0.117
-279.472	176.558	-0.157	0.228
-278.457	24.997	0.383	0.317
-277.443	184.056	-0.208	-0.307
-276.428	317.803	0.197	-0.372
-275.413	-117.074	0.408	-0.074
-274.399	-139.086	-0.507	-0.055
-273.384	-117.946	0.257	-0.046
-272.370	-200.000	0.059	-0.487
-271.355	796.957	0.040	0.109
-270.340	-130.360	0.267	-0.036
-269.326	800.000	0.028	0.093
-268.311	-84.094	-0.189	0.060
-267.297	-98.332	-0.046	0.012
-266.282	800.000	-0.072	0.286
-265.267	-86.289	-0.191	-0.059
-264.253	261.911	0.154	0.266
-263.238	207.525	0.189	0.293
-262.224	-156.376	-0.083	-0.005
-261.209	-117.858	-0.238	0.043
-260.195	-200.000	-0.046	-0.320
-259.180	-7.245	-0.074	0.050
-258.165	-84.837	0.354	0.111
-257.151	800.000	0.130	-0.481
-256.136	-86.521	0.206	0.063
-255.122	-142.899	0.081	0.008
-254.107	119.721	0.263	0.325
-253.092	10.678	-0.149	-0.113
-252.078	800.000	0.084	0.275
-251.063	800.000	0.054	0.166
-250.049	175.461	0.291	-0.420
-249.034	-46.335	-0.274	0.134
-248.019	-41.957	0.065	-0.033
-247.005	-200.000	0.022	-0.259
-245.990	-114.996	-0.042	-0.008
-244.976	-58.637	-0.403	-0.174
-243.961	-200.000	-0.005	-0.132
-242.946	26.229	0.203	-0.169
-241.932	-45.761	-0.306	0.151
-240.917	333.048	0.081	-0.155
-239.903	171.433	-0.160	0.229
-238.888	82.062	0.065	0.070
-237.873	-111.777	0.445	0.090
-236.859	-130.082	0.039	0.005
-235.844	-101.179	-0.147	-0.036
-234.830	25.338	-0.116	-0.096
-233.815	22.493	-0.323	-0.263
-232.800	247.956	-0.060	0.101
-231.786	800.000	-0.095	-0.323
-230.771	-97.256	0.202	0.052
-229.757	-81.795	0.357	0.117
-228.742	800.000	-0.043	-0.173
-227.727	107.679	0.140	-0.166
-226.713	-21.628	-0.283	-0.172
-225.698	777.255	-0.092	0.251
-224.684	48.510	0.273	-0.255
-223.669	-77.561	0.196	0.067
-222.655	109.568	0.059	-0.070
-221.640	-6.459	0.199	0.135
-220.625	-8.302	0.198	-0.133
-219.611	473.044	-0.173	-0.387
-218.596	21.879	-0.260	-0.211
-217.582	604.558	0.073	0.181
-216.567	800.000	-0.104	0.394
-215.552	76.462	-0.084	0.089
-214.538	800.000	-0.042	-0.172
-213.523	211.231	-0.063	0.099
-212.509	-46.421	-0.261	0.127
-211.494	170.727	-0.030	0.042
-210.479	-64.475	0.045	0.018
-209.465	-7.476	0.141	0.095
-208.450	94.404	0.096	0.108
-207.436	-200.000	-0.022	-0.110
-206.421	-200.000	-0.014	0.074
-205.406	68.075	-0.305	-0.311
-204.392	59.861	-0.087	-0.085
-203.377	-17.405	-0.086	-0.054
-202.363	-17.628	-0.086	-0.054
-201.348	-200.000	-0.045	0.324
-200.333	-28.515	-0.396	0.227
-199.319	-1.991	0.042	0.029
-198.304	800.000	-0.044	0.173
-197.290	206.488	-0.123	0.190
-196.275	800.000	-0.081	-0.240
-195.260	43.897	-0.263	-0.239
-194.246	172.640	0.085	-0.121
-193.231	321.890	-0.180	0.340
-192.217	800.000	-0.049	0.163
-191.202	3.974	-0.120	-0.087
-190.187	153.905	0.150	-0.205
-189.173	-55.403	0.332	0.148
-188.158	69.056	0.237	0.242
-187.144	16.575	0.026	0.021
-186.129	334.199	0.160	0.308
-185.114	-88.747	0.238	0.070
-184.100	299.771	-0.178	-0.326
-183.085	48.384	0.014	-0.013
-182.071	282.052	-0.171	0.304
-181.056	-33.666	-0.099	0.054
-180.042	-97.134	0.206	0.053
-179.027	-14.118	0.240	0.154
-178.012	101.589	0.147	-0.170
-176.998	361.105	-0.111	-0.220
-175.983	800.000	0.092	-0.262
-174.969	-200.000	0.144	0.000
-173.954	-105.253	-0.272	-0.062
-172.939	117.645	-0.290	-0.354
-171.925	705.250	-0.159	0.417
-170.910	-200.000	-0.003	-0.077
-169.896	-200.000	0.070	0.531
-168.881	-200.000	0.026	-0.496
-167.866	-157.862	0.119	-0.007
-166.852	-154.302	0.143	-0.010
-165.837	-157.064	-0.166	0.010
-164.823	-168.600	0.105	-0.004
-163.808	-27.679	-0.132	0.076
-162.793	290.070	0.111	-0.200
-161.779	-0.104	-0.108	0.076
-160.764	114.271	0.128	-0.154
-159.750	-14.415	0.283	-0.181
-158.735	-12.701	0.203	-0.131
-157.720	-13.175	0.179	0.115
-156.706	55.381	-0.072	0.069
-155.691	-200.000	-0.013	0.086
-154.677	-200.000	-0.089	0.450
-153.662	208.326	0.086	0.133
-152.647	279.452	0.076	0.135
-151.633	167.782	0.015	0.021
-150.618	-45.803	0.193	0.094
-149.604	-176.863	0.348	0.009
-148.589	800.000	-0.062	-0.195
-147.574	-155.767	-0.220	0.014
-146.560	352.013	0.155	0.305
-145.545	4.693	0.375	-0.273
-144.531	-4.843	-0.272	-0.186
-143.516	29.552	0.074	-0.062
-142.502	53.380	0.295	0.281
-141.487	-200.000	0.029	-0.209
-140.472	-90.820	0.596	0.170
-139.458	-118.885	-0.134	0.023
-138.443	-59.650	-0.272	0.116
-137.429	609.258	-0.123	-0.304
-136.414	112.293	-0.117	0.140
-135.399	-36.958	0.162	-0.086
-134.385	-158.318	-0.194	-0.011
-133.370	174.404	-0.076	-0.109
-132.356	123.717	0.056	0.069
-131.341	-77.862	0.397	0.136
-130.326	118.952	-0.190	-0.233
-129.312	493.595	0.095	-0.215
-128.297	256.158	0.027	-0.046
-127.283	649.131	0.052	0.131
-126.268	-200.000	-0.030	-0.464
-125.253	-171.799	0.255	0.008
-124.239	-16.388	-0.221	-0.139
-123.224	109.053	0.198	-0.235
-122.210	800.000	-0.040	-0.172
-121.195	-41.121	0.103	-0.052
