DTS Sentinel unit serial number:	SN413079Multiplexer serial number:	ORYXHardware model number:	OX4-SRSoftware version number:	ORYX F/W v4.00 Oryx Data Collector v3.7.2.0data status	okinstallation	princeton_trtdifferential loss correction	single-endedforward channel	channel 4reverse channel	N/Adate	2019/09/13time	10:29:34forward acquisition time	60.00reverse acquisition time	0.00gamma	496.2192k internal	0.2306k external	0.2306temperature offset calibration	1.0193default loss term (dB/km)	0.3790temperature slope calibration	1.0000multiplexer offset coefficient	1.0000multiplexer slope coefficient	1.0000fibre end	0.00T internal ref (°C)	31.12T ext. ref 1 (°C)	4.55T ext. ref 2 (°C)	28.17length (m)	temperature (°C)	Stokes	anti-Stokes-747.200	-23.581	0.503	0.307
-746.185	-97.389	-0.266	0.070
-745.171	-51.827	0.112	-0.053
-744.156	-100.634	-0.181	-0.045
-743.142	332.907	-0.226	0.444
-742.127	-59.120	-0.271	0.119
-741.112	-109.421	0.356	0.077
-740.098	-186.793	-0.203	-0.003
-739.083	-164.662	0.157	0.007
-738.069	800.000	-0.047	0.154
-737.054	800.000	-0.010	0.045
-736.039	129.725	0.134	-0.175
-735.025	-39.052	0.339	0.181
-734.010	-15.265	-0.497	-0.323
-732.996	-139.529	-0.350	-0.038
-731.981	800.000	0.047	0.153
-730.966	-77.173	-0.473	0.168
-729.952	145.730	0.189	-0.258
-728.937	-87.092	-0.194	-0.060
-727.923	-149.278	-0.348	0.028
-726.908	123.560	-0.217	-0.277
-725.894	-200.000	-0.030	-0.335
-724.879	-47.667	-0.315	-0.155
-723.864	-200.000	-0.012	-0.093
-722.850	138.673	0.055	0.074
-721.835	-108.153	-0.304	-0.067
-720.821	-141.649	-0.255	0.026
-719.806	-6.747	0.285	0.197
-718.791	-96.745	0.333	0.089
-717.777	168.964	-0.152	0.220
-716.762	-13.132	0.196	-0.129
-715.748	89.231	0.074	-0.084
-714.733	-12.205	-0.326	0.217
-713.718	-56.506	0.061	0.027
-712.704	19.607	-0.106	-0.086
-711.689	-50.478	-0.132	0.063
-710.675	-19.742	-0.284	0.178
-709.660	-200.000	-0.003	0.076
-708.645	-120.026	0.178	-0.031
-707.631	-45.731	-0.221	-0.111
-706.616	-200.000	0.028	-0.243
-705.602	-79.951	0.197	-0.067
-704.587	-78.008	0.234	0.082
-703.572	727.784	0.164	-0.445
-702.558	-1.584	-0.191	0.137
-701.543	10.214	-0.333	-0.258
-700.529	48.951	0.124	-0.118
-699.514	-56.557	-0.053	-0.024
-698.499	-88.548	0.033	-0.010
-697.485	149.567	-0.053	-0.073
-696.470	-81.640	-0.351	0.117
-695.456	800.000	0.045	-0.181
-694.441	425.351	0.042	0.092
-693.426	-129.546	-0.099	0.014
-692.412	-144.424	0.067	0.006
-691.397	-200.000	0.036	0.213
-690.383	-200.000	0.021	-0.261
-689.368	19.534	0.091	-0.074
-688.354	40.298	-0.136	-0.124
-687.339	323.103	-0.280	-0.541
-686.324	447.702	0.125	-0.279
-685.310	-72.089	0.213	-0.080
-684.295	-147.360	-0.207	-0.018
-683.281	-61.749	-0.312	-0.133
-682.266	-101.377	0.089	-0.022
-681.251	-109.542	-0.223	0.048
-680.237	-200.000	0.020	-0.286
-679.222	-200.000	0.012	-0.060
-678.208	-103.407	0.202	-0.048
-677.193	124.887	-0.261	-0.334
-676.178	-17.346	-0.186	0.119
-675.164	456.003	0.104	0.234
-674.149	-128.790	0.247	0.035
-673.135	-160.659	-0.372	0.020
-672.120	-71.112	-0.172	0.065
-671.105	800.000	-0.028	-0.104
-670.091	-45.190	-0.276	-0.139
-669.076	2.333	-0.195	-0.143
-668.062	-127.022	0.239	-0.036
-667.047	110.769	-0.051	0.062
-666.032	17.857	-0.109	0.088
-665.018	59.790	-0.132	-0.132
-664.003	16.474	0.273	0.219
-662.989	-111.071	-0.192	0.040
-661.974	180.531	-0.097	0.145
-660.959	-200.000	-0.002	0.350
-659.945	138.031	0.073	0.097
-658.930	-110.874	0.082	-0.017
-657.916	130.942	-0.316	-0.412
-656.901	-200.000	0.019	-0.144
-655.886	-200.000	0.011	-0.239
-654.872	-23.691	-0.428	-0.260
-653.857	-46.433	-0.262	-0.130
-652.843	-107.375	0.252	-0.056
-651.828	107.318	-0.195	-0.236
-650.814	91.301	0.100	-0.114
-649.799	-110.693	0.196	-0.041
-648.784	114.750	0.121	-0.149
-647.770	443.212	0.134	-0.298
-646.755	91.994	-0.109	0.125
-645.741	9.860	-0.024	-0.018
-644.726	-134.167	0.145	-0.018
-643.711	111.360	-0.106	0.129
-642.697	-200.000	0.039	0.218
-641.682	16.347	0.095	-0.076
-640.668	87.376	0.079	-0.088
-639.653	-200.000	0.079	-0.428
-638.638	144.705	-0.102	0.138
-637.624	477.165	0.079	0.181
-636.609	29.036	-0.217	-0.186
-635.595	352.165	0.196	-0.394
-634.580	432.610	-0.075	0.164
-633.565	128.148	0.213	-0.275
-632.551	800.000	0.021	-0.064
-631.536	-135.624	-0.465	0.056
-630.522	-200.000	0.026	0.173
-629.507	717.798	-0.082	-0.221
-628.492	-200.000	0.005	-0.360
-627.478	2.785	0.182	0.134
-626.463	-76.972	-0.197	0.070
-625.449	-115.552	-0.392	-0.075
-624.434	49.487	-0.079	-0.075
-623.419	-1.755	-0.270	0.192
-622.405	-200.000	-0.002	0.205
-621.390	57.227	0.172	-0.169
-620.376	-51.081	0.098	-0.047
-619.361	288.469	0.159	-0.291
-618.346	178.994	-0.275	-0.408
-617.332	7.526	-0.155	-0.117
-616.317	-45.976	0.222	0.111
-615.303	629.436	0.036	-0.092
-614.288	800.000	-0.030	0.105
-613.273	-117.388	0.281	0.052
-612.259	-83.411	0.215	0.070
-611.244	-91.931	-0.244	-0.070
-610.230	-151.820	0.143	-0.011
-609.215	-128.556	0.113	0.016
-608.201	-80.136	-0.085	0.029
-607.186	13.382	-0.138	0.108
-606.171	20.646	-0.085	-0.070
-605.157	92.295	0.049	0.056
-604.142	57.835	0.116	0.115
-603.128	-21.088	0.267	0.165
-602.113	168.146	-0.200	-0.289
-601.098	-5.896	-0.127	0.088
-600.084	91.574	0.081	-0.092
-599.069	139.059	0.090	0.120
-598.055	-164.976	0.117	0.005
-597.040	-200.000	-0.000	0.114
-596.025	14.678	0.151	0.120
-595.011	-200.000	0.015	0.088
-593.996	-103.054	-0.074	0.018
-592.982	185.654	-0.230	0.346
-591.967	-200.000	-0.018	0.118
-590.952	-87.131	0.166	-0.051
-589.938	0.460	-0.224	-0.162
-588.923	387.439	-0.078	0.163
-587.909	-128.869	-0.218	0.031
-586.894	-200.000	0.028	-0.370
-585.879	-108.276	0.187	-0.041
-584.865	174.532	0.073	-0.107
-583.850	-75.806	-0.146	0.052
-582.836	-200.000	-0.115	0.598
-581.821	-43.649	-0.141	0.072
-580.806	-75.488	0.440	-0.158
-579.792	-200.000	0.056	0.455
-578.777	800.000	0.018	0.072
-577.763	-200.000	0.081	-0.380
-576.748	800.000	-0.050	-0.160
-575.733	377.142	-0.077	-0.158
-574.719	678.293	-0.117	0.308
-573.704	-14.834	0.063	-0.041
-572.690	800.000	0.111	-0.348
-571.675	5.266	-0.152	0.113
-570.661	-26.890	0.129	0.076
-569.646	-200.000	-0.024	0.165
-568.631	-38.504	-0.210	-0.112
-567.617	-30.247	-0.179	-0.103
-566.602	203.524	-0.283	0.442
-565.588	108.917	-0.145	-0.175
-564.573	-200.000	-0.044	-0.300
-563.558	116.261	-0.176	-0.218
-562.544	58.612	-0.222	-0.220
-561.529	202.408	-0.085	0.132
-560.515	800.000	0.110	-0.421
-559.500	57.739	0.107	-0.106
-558.485	-24.830	0.137	0.082
-557.471	-200.000	0.038	0.340
-556.456	-200.000	-0.038	-0.250
-555.442	320.252	-0.044	-0.085
-554.427	-20.288	0.423	0.263
-553.412	286.695	-0.149	0.272
-552.398	-16.535	0.444	-0.284
-551.383	-40.202	-0.189	0.099
-550.369	135.045	0.085	0.112
-549.354	-200.000	-0.022	-0.455
-548.339	70.597	0.080	-0.084
-547.325	195.080	0.083	0.128
-546.310	486.603	-0.047	0.109
-545.296	-122.089	0.128	0.021
-544.281	39.600	0.084	0.076
-543.266	19.820	-0.472	-0.383
-542.252	-4.968	-0.095	0.066
-541.237	-200.000	0.019	-0.096
-540.223	-123.236	-0.327	-0.053
-539.208	-6.925	-0.100	0.068
-538.193	252.652	-0.103	0.178
-537.179	-200.000	-0.046	-0.452
-536.164	306.557	-0.097	-0.183
-535.150	387.902	-0.125	0.261
-534.135	188.543	-0.134	0.202
-533.121	-10.359	-0.092	-0.062
-532.106	-97.139	-0.271	0.072
-531.091	178.626	-0.110	0.162
-530.077	-69.123	0.322	0.125
-529.062	-65.715	0.171	-0.069
-528.048	-53.742	0.242	0.111
-527.033	48.430	-0.155	0.147
-526.018	-200.000	-0.044	0.295
-525.004	-23.580	0.239	0.144
-523.989	66.669	-0.126	0.129
-522.975	219.145	0.047	0.076
-521.960	800.000	0.043	0.159
-520.945	800.000	0.055	-0.207
-519.931	-22.958	0.183	0.111
-518.916	-137.301	-0.609	-0.070
-517.902	62.578	-0.206	-0.207
-516.887	-11.256	0.048	0.032
-515.872	-153.169	-0.261	-0.018
-514.858	450.585	-0.086	-0.192
-513.843	-53.309	-0.128	-0.059
-512.829	-37.668	-0.043	-0.023
-511.814	-33.361	-0.112	-0.062
-510.799	-101.184	0.102	0.025
-509.785	-79.815	0.303	0.103
-508.770	304.826	-0.032	-0.060
-507.756	80.163	-0.108	0.117
-506.741	-94.222	-0.186	0.051
-505.726	-69.363	0.203	0.079
-504.712	-14.079	0.201	-0.131
-503.697	-159.768	-0.337	-0.019
-502.683	637.154	-0.131	-0.336
-501.668	206.937	0.026	-0.040
-500.653	-148.193	0.396	-0.033
-499.639	127.910	0.153	0.195
-498.624	-64.208	0.385	0.158
-497.610	-200.000	0.006	0.082
-496.595	-47.518	-0.131	-0.064
-495.581	-36.813	0.126	-0.068
-494.566	800.000	0.046	-0.161
-493.551	-200.000	0.006	0.127
-492.537	31.375	0.202	0.175
-491.522	236.529	0.158	0.264
-490.508	-44.189	0.304	-0.153
-489.493	-92.585	-0.119	-0.034
-488.478	75.050	0.177	0.188
-487.464	757.825	-0.134	0.364
-486.449	79.087	-0.062	-0.067
-485.435	104.285	-0.125	-0.148
-484.420	800.000	-0.139	0.462
-483.405	-200.000	0.004	-0.088
-482.391	-200.000	-0.002	-0.023
-481.376	336.800	0.127	0.249
-480.362	136.991	-0.246	0.324
-479.347	119.020	-0.099	0.124
-478.332	-200.000	-0.001	0.078
-477.318	-200.000	-0.012	-0.398
-476.303	-70.466	0.262	-0.100
-475.289	57.079	-0.203	-0.200
-474.274	-112.678	-0.103	0.021
-473.259	16.584	-0.040	0.032
-472.245	-68.674	-0.234	0.091
-471.230	-153.454	0.082	0.006
-470.216	-49.136	0.334	0.161
-469.201	407.117	-0.092	0.196
-468.186	129.760	-0.019	0.025
-467.172	21.880	-0.135	0.111
-466.157	308.383	0.108	-0.202
-465.143	391.769	0.130	-0.273
-464.128	103.397	-0.076	0.089
-463.113	123.244	-0.086	-0.109
-462.099	177.135	-0.052	-0.076
-461.084	-148.112	-0.126	0.010
-460.070	36.051	0.023	-0.021
-459.055	-200.000	-0.096	0.486
-458.040	-122.385	-0.336	-0.055
-457.026	800.000	-0.030	0.119
-456.011	111.030	0.045	0.054
-454.997	-78.319	0.215	-0.074
-453.982	596.433	0.095	0.238
-452.968	130.569	0.077	0.099
-451.953	408.590	-0.196	-0.417
-450.938	-200.000	0.035	-0.463
-449.924	-165.466	0.180	0.008
-448.909	60.525	0.275	0.273
-447.895	328.562	0.120	-0.231
-446.880	-86.063	0.315	0.098
-445.865	-113.232	-0.254	0.050
-444.851	-87.781	-0.081	0.024
-443.836	256.295	0.127	0.219
-442.822	-200.000	0.010	-0.138
-441.807	-200.000	-0.005	0.127
-440.792	129.622	-0.295	0.379
-439.778	-67.326	0.189	0.075
-438.763	761.056	-0.106	0.289
-437.749	800.000	-0.142	-0.437
-436.734	-200.000	0.008	0.381
-435.719	-200.000	-0.049	0.365
-434.705	-200.000	-0.033	0.235
-433.690	153.275	0.176	0.242
-432.676	-40.825	-0.205	-0.107
-431.661	800.000	-0.043	-0.190
-430.646	800.000	-0.097	-0.294
-429.632	485.636	-0.023	-0.053
-428.617	164.471	-0.127	-0.179
-427.603	-2.066	0.167	0.118
-426.588	-200.000	-0.038	-0.229
-425.573	-200.000	-0.035	0.251
-424.559	190.819	0.143	-0.216
-423.544	800.000	0.011	0.040
-422.530	-84.600	0.355	-0.112
-421.515	-200.000	-0.009	-0.121
-420.500	11.208	0.119	0.091
-419.486	260.216	-0.082	0.142
-418.471	265.530	-0.135	0.237
-417.457	324.563	-0.112	0.215
-416.442	-200.000	-0.067	-0.315
-415.428	128.853	-0.111	0.143
-414.413	-158.825	0.284	0.016
-413.398	-200.000	-0.026	0.333
-412.384	252.967	-0.233	-0.399
-411.369	57.989	0.148	-0.146
-410.355	59.049	0.008	0.008
-409.340	132.455	0.212	0.274
-408.325	800.000	0.030	0.088
-407.311	246.000	0.161	0.272
-406.296	-171.307	-0.177	-0.006
-405.282	-200.000	0.036	0.229
-404.267	-186.650	-0.003	0.000
-403.252	116.283	0.259	0.319
-402.238	-61.811	-0.076	-0.032
-401.223	-22.716	0.180	-0.109
-400.209	51.691	-0.060	-0.057
-399.194	38.649	0.164	-0.147
-398.179	-171.167	0.239	0.008
-397.165	-65.261	-0.232	-0.094
-396.150	0.475	-0.317	0.228
-395.136	19.619	-0.170	0.137
-394.121	800.000	0.033	-0.095
-393.106	800.000	0.073	-0.222
-392.092	800.000	0.077	0.231
-391.077	-54.580	-0.098	0.044
-390.063	-69.574	0.105	0.040
-389.048	338.166	-0.042	0.083
-388.033	-37.741	-0.219	0.117
-387.019	800.000	-0.065	-0.254
-386.004	738.596	-0.105	-0.284
-384.990	639.953	-0.033	-0.083
-383.975	-19.033	0.111	-0.069
-382.960	-0.826	0.098	-0.069
-381.946	800.000	-0.119	-0.439
-380.931	-200.000	-0.021	0.099
-379.917	30.287	-0.106	0.091
-378.902	-200.000	0.004	0.156
-377.888	-200.000	0.028	0.272
-376.873	-75.087	0.165	0.059
-375.858	-57.791	0.339	0.149
-374.844	-145.173	0.237	0.022
-373.829	800.000	0.115	-0.497
-372.815	-200.000	-0.026	-0.333
-371.800	-104.240	-0.351	-0.082
-370.785	738.032	0.080	0.215
-369.771	-152.430	0.236	0.017
-368.756	-136.249	0.204	-0.024
-367.742	127.766	-0.113	0.143
-366.727	-200.000	0.014	0.426
-365.712	-111.213	0.277	0.057
-364.698	435.653	0.202	-0.440
-363.683	800.000	0.091	-0.328
-362.669	340.590	0.137	-0.268
-361.654	-182.054	-0.104	-0.002
-360.639	15.051	0.329	0.258
-359.625	-59.484	0.257	0.111
-358.610	-97.314	-0.230	0.060
-357.596	-98.740	0.189	0.048
-356.581	198.491	-0.021	0.031
-355.566	202.465	0.069	0.107
-354.552	26.366	-0.054	0.045
-353.537	-200.000	0.031	-0.259
-352.523	438.506	-0.110	0.241
-351.508	-36.762	-0.093	0.050
-350.493	800.000	0.126	-0.368
-349.479	2.180	-0.188	-0.136
-348.464	-200.000	0.011	0.100
-347.450	-7.513	-0.092	-0.062
-346.435	-200.000	0.038	-0.231
-345.420	-123.477	-0.244	-0.039
-344.406	100.336	-0.095	0.110
-343.391	25.264	0.408	-0.340
-342.377	181.760	-0.051	0.075
-341.362	-19.788	-0.081	0.050
-340.348	-184.209	0.326	0.005
-339.333	-200.000	0.041	0.394
-338.318	-200.000	0.015	0.064
-337.304	514.406	-0.042	-0.098
-336.289	-125.523	0.300	-0.046
-335.275	18.208	-0.130	-0.104
-334.260	-80.018	-0.378	-0.127
-333.245	217.903	-0.049	0.079
-332.231	-200.000	0.016	0.091
-331.216	181.669	0.139	-0.205
-330.202	431.958	-0.123	0.266
-329.187	227.134	0.184	0.299
-328.172	9.195	0.145	-0.109
-327.158	752.895	-0.078	0.210
-326.143	-39.348	-0.220	0.115
-325.129	-152.234	0.426	-0.031
-324.114	252.350	0.075	-0.127
-323.099	-91.806	-0.112	0.032
-322.085	400.428	-0.161	0.338
-321.070	-76.812	0.254	-0.089
-320.056	-17.321	-0.207	-0.130
-319.041	-143.020	-0.122	0.012
-318.026	-28.322	0.175	0.101
-317.012	-200.000	0.050	0.275
-315.997	-200.000	0.004	0.207
-314.983	119.570	-0.143	-0.177
-313.968	-18.130	-0.216	0.135
-312.953	-130.714	0.310	0.042
-311.939	-54.454	-0.467	0.212
-310.924	645.335	-0.028	0.072
-309.910	184.097	0.167	0.248
-308.895	101.657	0.197	0.229
-307.880	-200.000	0.030	-0.150
-306.866	-91.691	-0.037	-0.011
-305.851	-200.000	-0.007	-0.105
-304.837	257.834	0.170	-0.292
-303.822	-181.668	0.265	0.005
-302.807	2.828	0.154	0.112
-301.793	800.000	-0.085	-0.284
-300.778	19.114	0.193	-0.155
-299.764	31.139	0.100	-0.086
-298.749	-157.970	0.326	0.019
-297.735	-169.946	0.139	-0.005
-296.720	-9.152	0.191	0.128
-295.705	-24.282	-0.270	-0.161
-294.691	800.000	0.043	0.120
-293.676	170.816	-0.242	-0.347
-292.662	498.670	-0.058	-0.134
-291.647	-120.842	-0.174	-0.029
-290.632	249.636	-0.086	0.145
-289.618	-17.987	-0.056	0.035
-288.603	44.241	-0.118	0.108
-287.589	-100.054	-0.263	0.066
-286.574	800.000	0.107	0.343
-285.559	326.805	0.032	0.061
-284.545	-65.747	0.194	0.078
-283.530	-33.830	-0.106	0.058
-282.516	-200.000	0.008	0.108
-281.501	-200.000	0.013	0.229
-280.486	-115.482	0.477	0.090
-279.472	800.000	-0.009	-0.026
-278.457	-200.000	-0.095	-0.425
-277.443	139.641	-0.071	-0.094
-276.428	-122.634	-0.302	-0.049
-275.413	104.922	-0.351	-0.413
-274.399	-103.969	-0.236	0.055
-273.384	14.623	0.280	-0.218
-272.370	23.925	0.106	0.088
-271.355	316.817	-0.082	0.155
-270.340	-45.917	-0.164	-0.081
-269.326	-67.033	0.369	-0.145
-268.311	-139.770	0.611	0.065
-267.297	-88.470	-0.180	-0.054
-266.282	800.000	-0.057	-0.200
-265.267	-8.499	-0.275	-0.185
-264.253	-39.590	0.122	-0.064
-263.238	-107.466	0.247	-0.054
-262.224	800.000	0.041	-0.160
-261.209	541.001	0.105	-0.251
-260.195	-200.000	0.015	0.077
-259.180	-45.933	0.142	0.070
-258.165	99.565	-0.340	-0.393
-257.151	-60.401	-0.094	-0.040
-256.136	-72.558	-0.443	-0.163
-255.122	182.597	0.170	-0.250
-254.107	-109.676	-0.208	-0.044
-253.092	-170.016	0.185	0.007
-252.078	-12.215	-0.223	-0.146
-251.063	-168.315	-0.283	0.011
-250.049	-53.746	-0.128	0.059
-249.034	-150.819	0.236	-0.018
-248.019	-200.000	0.011	-0.161
-247.005	51.862	0.215	0.204
-245.990	-95.163	0.325	-0.087
-244.976	331.884	0.081	-0.157
-243.961	135.554	-0.105	0.137
-242.946	-200.000	0.002	0.129
-241.932	2.440	-0.371	0.268
-240.917	-112.795	0.189	0.037
-239.903	-200.000	-0.011	-0.321
-238.888	-200.000	0.015	-0.202
-237.873	73.735	-0.026	0.028
-236.859	28.871	0.130	0.110
-235.844	-200.000	-0.069	0.345
-234.830	-136.771	0.299	-0.034
-233.815	-159.259	-0.132	0.007
-232.800	-200.000	0.006	0.110
-231.786	-200.000	0.012	0.241
-230.771	8.169	-0.024	0.018
-229.757	800.000	-0.060	0.173
-228.742	-180.244	-0.251	0.005
-227.727	-96.240	0.038	-0.010
-226.713	153.963	0.159	-0.218
-225.698	108.349	-0.204	0.243
-224.684	-127.921	-0.169	0.024
-223.669	-118.116	-0.105	0.019
-222.655	800.000	0.084	0.310
-221.640	0.401	-0.088	0.063
-220.625	-200.000	-0.048	-0.232
-219.611	-200.000	0.007	0.120
-218.596	90.096	0.347	-0.387
-217.582	133.851	0.192	-0.247
-216.567	-200.000	-0.026	-0.189
-215.552	305.801	0.039	-0.072
-214.538	-200.000	-0.073	-0.339
-213.523	374.701	-0.148	0.299
-212.509	588.320	0.051	-0.126
-211.494	-123.704	-0.133	-0.021
-210.479	-75.694	0.058	0.021
-209.465	800.000	0.039	0.165
-208.450	-200.000	0.003	-0.188
-207.436	179.195	0.129	0.189
-206.421	-200.000	-0.061	0.364
-205.406	-200.000	-0.041	0.365
-204.392	51.604	0.164	0.156
-203.377	141.201	0.115	-0.151
-202.363	34.249	0.282	0.245
-201.348	14.225	-0.251	0.195
-200.333	-32.407	-0.260	-0.144
-199.319	333.685	0.086	0.166
-198.304	119.337	0.107	-0.131
-197.290	-71.453	-0.306	-0.114
-196.275	-200.000	-0.002	0.224
-195.260	800.000	0.043	0.123
-194.246	-200.000	0.004	0.167
-193.231	67.242	0.135	-0.137
-192.217	17.214	0.058	0.046
-191.202	-29.570	0.115	0.066
-190.187	5.127	0.250	0.183
-189.173	-24.095	0.071	0.042
-188.158	-81.702	-0.351	0.115
-187.144	-106.224	-0.234	0.052
-186.129	-87.689	0.212	0.064
-185.114	290.674	-0.171	-0.310
-184.100	800.000	0.093	0.322
-183.085	214.643	0.234	0.369
-182.071	22.139	0.039	-0.031
-181.056	-91.364	-0.257	0.073
-180.042	800.000	-0.038	0.137
-179.027	96.412	-0.208	-0.237
-178.012	2.449	-0.245	0.177
-176.998	201.802	-0.165	0.253
-175.983	-123.195	-0.153	-0.024
-174.969	-24.416	-0.119	-0.070
-173.954	126.645	0.097	0.122
-172.939	-200.000	0.096	-0.496
-171.925	-149.892	-0.028	-0.002
-170.910	-95.438	0.323	-0.086
-169.896	-200.000	-0.099	-0.452
-168.881	363.646	0.091	-0.182
-167.866	800.000	-0.062	0.213
-166.852	-29.384	0.159	-0.090
-165.837	-200.000	-0.005	-0.120
-164.823	-126.515	0.076	0.011
-163.808	-200.000	-0.008	0.286
-162.793	-75.382	-0.275	-0.097
-161.779	27.685	0.014	-0.011
-160.764	-200.000	0.020	-0.283
-159.750	-92.432	-0.304	0.085
-158.735	-200.000	0.020	-0.228
-157.720	-200.000	-0.018	-0.198
-156.706	337.735	-0.064	-0.125
-155.691	65.943	0.474	-0.478
-154.677	-30.651	-0.441	-0.248
-153.662	78.860	-0.393	-0.418
-152.647	-157.346	0.124	-0.007
-151.633	368.392	-0.021	-0.041
-150.618	-63.120	0.295	-0.121
-149.604	126.344	0.113	0.142
-148.589	-200.000	0.107	-0.581
-147.574	87.465	0.135	0.149
-146.560	66.596	-0.085	0.085
-145.545	70.623	0.101	0.104
-144.531	149.615	-0.075	0.101
-143.516	-171.054	-0.147	-0.005
-142.502	800.000	0.065	-0.206
-141.487	-27.831	0.240	0.138
-140.472	-44.527	0.231	0.115
-139.458	-102.355	-0.056	0.013
-138.443	104.855	0.086	-0.101
-137.429	-199.605	-0.101	0.001
-136.414	292.594	0.188	-0.341
-135.399	-200.000	-0.021	0.187
-134.385	9.119	0.091	0.068
-133.370	-108.905	0.299	-0.063
-132.356	-57.162	-0.514	0.225
-131.341	-135.776	-0.191	0.022
-130.326	227.561	-0.119	-0.193
-129.312	-41.029	0.094	0.048
-128.297	800.000	-0.130	0.437
-127.283	-200.000	0.009	0.102
-126.268	-200.000	0.006	0.049
-125.253	-53.884	-0.209	-0.094
-124.239	53.651	-0.309	0.294
-123.224	519.098	0.021	0.048
-122.210	-107.628	-0.143	0.031
-121.195	280.546	0.013	0.024
