DTS Sentinel unit serial number:	SN413079Multiplexer serial number:	ORYXHardware model number:	OX4-SRSoftware version number:	ORYX F/W v4.00 Oryx Data Collector v3.7.2.0data status	okinstallation	princeton_trtdifferential loss correction	single-endedforward channel	channel 4reverse channel	N/Adate	2019/09/15time	21:13:35forward acquisition time	60.00reverse acquisition time	0.00gamma	496.2192k internal	0.2318k external	0.2318temperature offset calibration	0.9937default loss term (dB/km)	0.3790temperature slope calibration	1.0000multiplexer offset coefficient	1.0000multiplexer slope coefficient	1.0000fibre end	0.00T internal ref (°C)	31.28T ext. ref 1 (°C)	8.16T ext. ref 2 (°C)	24.24length (m)	temperature (°C)	Stokes	anti-Stokes-747.200	33.875	-0.022	-0.019
-746.185	800.000	0.034	0.122
-745.171	800.000	0.042	-0.161
-744.156	-110.938	0.015	0.003
-743.142	19.769	-0.327	0.267
-742.127	-165.432	-0.293	0.013
-741.112	800.000	0.066	-0.204
-740.098	-200.000	-0.024	0.287
-739.083	-200.000	0.017	0.123
-738.069	308.904	0.265	0.501
-737.054	256.374	-0.131	-0.228
-736.039	-200.000	-0.014	-0.193
-735.025	329.180	-0.084	0.162
-734.010	-49.795	-0.198	0.095
-732.996	-20.191	-0.355	-0.221
-731.981	-114.262	-0.369	0.072
-730.966	-200.000	-0.011	0.194
-729.952	-35.983	0.110	-0.060
-728.937	-81.923	0.102	0.034
-727.923	-144.967	0.249	0.023
-726.908	34.944	-0.371	-0.328
-725.894	19.504	-0.121	-0.099
-724.879	-26.328	0.239	-0.142
-723.864	-200.000	-0.023	-0.143
-722.850	231.127	0.086	-0.142
-721.835	-10.020	0.176	0.118
-720.821	-139.310	0.170	-0.019
-719.806	81.540	-0.203	0.222
-718.791	-39.660	-0.196	0.104
-717.777	228.830	-0.078	0.128
-716.762	-148.161	0.133	-0.011
-715.748	82.769	0.156	-0.171
-714.733	-98.703	-0.189	-0.049
-713.718	-114.866	-0.168	0.032
-712.704	329.346	-0.058	0.113
-711.689	-43.384	-0.354	0.181
-710.675	800.000	-0.097	-0.320
-709.660	-127.083	-0.190	-0.028
-708.645	800.000	-0.142	0.442
-707.631	-28.663	-0.304	0.177
-706.616	-65.629	0.284	0.115
-705.602	55.641	0.066	0.065
-704.587	106.692	-0.118	0.142
-703.572	-200.000	0.032	0.163
-702.558	-192.464	-0.139	-0.001
-701.543	-62.972	0.249	0.104
-700.529	301.757	0.076	-0.142
-699.514	7.601	0.249	-0.188
-698.499	-165.430	-0.586	-0.026
-697.485	-83.176	-0.335	-0.109
-696.470	9.147	0.140	0.107
-695.456	-200.000	-0.063	-0.302
-694.441	120.950	-0.100	0.125
-693.426	-200.000	0.002	0.026
-692.412	-167.273	-0.186	0.008
-691.397	164.487	0.071	-0.101
-690.383	-92.729	0.029	0.008
-689.368	-139.239	0.179	-0.020
-688.354	109.096	-0.221	0.267
-687.339	88.303	0.195	0.219
-686.324	-82.557	-0.287	-0.094
-685.310	-21.497	-0.034	0.021
-684.295	378.689	-0.077	-0.160
-683.281	377.721	0.208	-0.430
-682.266	800.000	-0.103	0.297
-681.251	9.224	-0.117	0.089
-680.237	-200.000	-0.034	0.328
-679.222	-126.197	-0.177	-0.027
-678.208	4.933	-0.071	0.053
-677.193	200.786	0.247	-0.384
-676.178	221.677	-0.070	-0.113
-675.164	800.000	-0.087	-0.332
-674.149	81.435	-0.043	0.047
-673.135	113.866	0.268	-0.328
-672.120	245.053	-0.178	0.302
-671.105	-79.586	0.253	0.086
-670.091	-2.261	-0.128	-0.091
-669.076	-200.000	0.026	0.154
-668.062	800.000	-0.023	0.065
-667.047	-200.000	-0.028	-0.248
-666.032	636.107	0.103	0.264
-665.018	349.312	0.129	-0.257
-664.003	-6.202	0.054	0.037
-662.989	-200.000	-0.076	-0.359
-661.974	146.629	0.106	-0.144
-660.959	129.854	-0.183	-0.237
-659.945	-97.605	-0.222	0.058
-658.930	-166.102	-0.050	0.002
-657.916	78.467	0.135	0.145
-656.901	77.547	-0.198	-0.212
-655.886	-108.596	-0.119	-0.026
-654.872	19.481	0.107	-0.087
-653.857	-187.995	-0.124	-0.002
-652.843	143.709	-0.204	-0.275
-651.828	246.584	-0.162	-0.275
-650.814	143.332	-0.064	-0.086
-649.799	-200.000	-0.046	0.267
-648.784	-200.000	-0.002	0.193
-647.770	-200.000	-0.039	0.236
-646.755	-104.606	-0.112	0.026
-645.741	-121.881	0.084	0.014
-644.726	-200.000	-0.043	0.311
-643.711	-23.125	0.351	-0.213
-642.697	137.853	0.046	0.061
-641.682	-23.648	-0.099	0.060
-640.668	-85.619	-0.412	0.129
-639.653	-53.157	0.093	-0.043
-638.638	589.271	0.044	-0.110
-637.624	-171.640	-0.209	-0.007
-636.609	447.806	-0.082	0.183
-635.595	-30.750	0.400	0.228
-634.580	-50.853	-0.202	0.096
-633.565	-45.903	0.232	0.115
-632.551	-59.645	0.116	0.050
-631.536	-62.112	-0.102	0.043
-630.522	-117.738	-0.298	0.054
-629.507	800.000	-0.041	-0.137
-628.492	-36.488	-0.295	-0.160
-627.478	-136.237	-0.238	0.028
-626.463	143.786	-0.066	-0.089
-625.449	22.265	0.142	0.117
-624.434	646.822	-0.020	0.052
-623.419	-31.475	0.227	-0.129
-622.405	28.831	0.063	-0.054
-621.390	-25.364	-0.345	-0.206
-620.376	-62.553	0.129	0.054
-619.361	-200.000	0.007	0.118
-618.346	-120.921	0.093	0.016
-617.332	-200.000	-0.017	-0.180
-616.317	-200.000	0.005	0.256
-615.303	-200.000	-0.022	0.099
-614.288	40.356	0.220	-0.199
-613.273	-138.764	0.174	-0.019
-612.259	1.347	-0.047	-0.034
-611.244	88.245	0.181	-0.202
-610.230	394.852	-0.069	-0.145
-609.215	76.380	0.125	-0.134
-608.201	104.438	0.152	-0.180
-607.186	-200.000	0.043	-0.308
-606.171	183.932	-0.008	0.012
-605.157	-161.478	0.288	-0.015
-604.142	-111.575	-0.116	0.024
-603.128	472.900	0.091	0.207
-602.113	-96.123	0.273	-0.073
-601.098	800.000	0.032	-0.118
-600.084	497.543	0.117	-0.272
-599.069	60.155	-0.080	-0.080
-598.055	-16.634	0.093	-0.059
-597.040	336.190	0.117	-0.229
-596.025	277.248	0.157	-0.280
-595.011	800.000	-0.050	-0.146
-593.996	-200.000	-0.030	-0.183
-592.982	800.000	0.030	-0.104
-591.967	800.000	-0.015	-0.058
-590.952	175.461	-0.109	0.160
-589.938	-40.738	0.285	-0.148
-588.923	-135.767	-0.488	-0.058
-587.909	-48.183	0.082	0.040
-586.894	227.414	-0.018	-0.029
-585.879	-77.567	0.350	-0.122
-584.865	-116.901	-0.244	-0.045
-583.850	-200.000	0.008	-0.179
-582.836	39.601	-0.236	-0.213
-581.821	800.000	-0.051	-0.179
-580.806	-200.000	0.012	0.075
-579.792	69.412	-0.072	0.075
-578.777	-200.000	-0.005	0.174
-577.763	-136.194	-0.089	0.010
-576.748	127.757	-0.021	0.027
-575.733	336.377	-0.047	0.092
-574.719	485.866	0.156	0.358
-573.704	-82.740	0.213	-0.069
-572.690	190.535	0.125	-0.190
-571.675	159.485	0.091	-0.127
-570.661	-200.000	-0.015	-0.107
-569.646	-192.446	-0.199	-0.002
-568.631	-84.849	0.195	0.062
-567.617	-200.000	-0.016	-0.178
-566.602	-32.646	-0.160	0.090
-565.588	-37.083	-0.239	0.129
-564.573	-130.116	-0.117	-0.016
-563.558	-200.000	-0.023	0.116
-562.544	264.460	-0.216	0.378
-561.529	330.159	-0.088	-0.171
-560.515	-20.028	-0.098	0.061
-559.500	-60.659	-0.449	0.191
-558.485	26.123	-0.137	0.115
-557.471	-200.000	-0.016	0.197
-556.456	57.862	0.138	-0.136
-555.442	25.971	-0.101	0.084
-554.427	-168.637	-0.020	0.001
-553.412	-153.753	0.257	0.018
-552.398	10.674	-0.231	0.177
-551.383	-27.185	-0.266	-0.155
-550.369	129.003	0.198	0.254
-549.354	-200.000	-0.024	0.179
-548.339	-101.003	-0.115	-0.028
-547.325	126.541	-0.365	-0.464
-546.310	-21.289	-0.231	0.142
-545.296	-15.926	0.284	-0.182
-544.281	-200.000	-0.034	-0.162
-543.266	-106.067	-0.232	-0.052
-542.252	-113.748	-0.076	-0.015
-541.237	-59.281	0.205	-0.089
-540.223	93.681	-0.072	-0.081
-539.208	800.000	-0.065	0.246
-538.193	-200.000	0.001	0.111
-537.179	-136.983	0.135	-0.016
-536.164	73.605	0.079	-0.083
-535.150	-49.705	0.241	-0.115
-534.135	44.848	0.173	-0.159
-533.121	752.881	0.045	-0.122
-532.106	-200.000	-0.001	0.111
-531.091	-29.234	0.062	0.036
-530.077	697.490	-0.042	0.112
-529.062	203.253	-0.185	0.288
-528.048	-102.715	-0.086	-0.021
-527.033	-6.315	0.244	-0.167
-526.018	56.413	-0.150	-0.146
-525.004	231.620	0.026	0.043
-523.989	70.949	-0.057	-0.060
-522.975	92.884	-0.094	-0.106
-521.960	-51.766	-0.351	0.164
-520.945	379.402	0.054	0.110
-519.931	48.371	0.248	-0.233
-518.916	-29.289	-0.453	-0.260
-517.902	-106.421	-0.179	-0.040
-516.887	-200.000	0.004	0.035
-515.872	-99.048	-0.316	-0.080
-514.858	208.544	-0.250	0.393
-513.843	387.705	-0.050	0.104
-512.829	115.091	0.101	0.124
-511.814	99.631	0.237	-0.275
-510.799	-200.000	0.078	-0.352
-509.785	-200.000	-0.026	0.228
-508.770	676.401	0.195	-0.507
-507.756	56.240	-0.197	0.192
-506.741	800.000	0.048	0.197
-505.726	26.778	-0.191	0.161
-504.712	-200.000	0.017	-0.216
-503.697	-93.650	-0.105	-0.029
-502.683	-6.846	0.045	0.031
-501.668	800.000	0.075	-0.296
-500.653	-200.000	-0.206	0.000
-499.639	-200.000	-0.008	-0.283
-498.624	-133.909	-0.145	0.018
-497.610	-200.000	-0.044	0.319
-496.595	572.942	0.032	0.079
-495.581	543.874	-0.147	-0.352
-494.566	539.549	0.143	-0.340
-493.551	145.962	0.199	0.268
-492.537	633.217	-0.010	0.025
-491.522	-20.949	0.278	0.171
-490.508	-105.128	0.135	-0.031
-489.493	-28.363	-0.119	0.069
-488.478	800.000	-0.043	0.184
-487.464	-71.656	-0.093	0.035
-486.449	-86.751	0.155	0.048
-485.435	-39.215	0.147	-0.077
-484.420	-200.000	-0.035	0.156
-483.405	-168.573	0.136	0.005
-482.391	-200.000	0.050	0.397
-481.376	185.562	0.178	-0.265
-480.362	800.000	0.065	-0.260
-479.347	492.390	-0.094	-0.216
-478.332	311.432	-0.105	0.197
-477.318	599.995	-0.066	0.165
-476.303	25.096	0.279	-0.232
-475.289	800.000	-0.012	-0.036
-474.274	-200.000	0.000	0.281
-473.259	-24.340	0.405	0.242
-472.245	-30.823	-0.084	-0.048
-471.230	-56.317	-0.424	-0.189
-470.216	-114.809	-0.207	0.040
-469.201	193.820	0.048	-0.072
-468.186	-165.047	0.507	0.023
-467.172	-200.000	-0.007	-0.262
-466.157	-200.000	0.003	-0.028
-465.143	-128.837	0.262	0.037
-464.128	-6.763	0.392	0.267
-463.113	286.882	0.107	0.193
-462.099	-43.807	0.186	0.094
-461.084	-200.000	-0.122	-0.540
-460.070	455.392	-0.105	-0.232
-459.055	-200.000	0.014	0.475
-458.040	-200.000	0.051	-0.366
-457.026	-81.968	0.168	-0.055
-456.011	-34.650	-0.107	0.058
-454.997	684.676	-0.120	0.314
-453.982	578.828	-0.116	0.284
-452.968	-40.595	-0.140	-0.073
-451.953	25.496	-0.172	-0.143
-450.938	59.963	-0.330	-0.326
-449.924	-45.012	0.093	-0.046
-448.909	800.000	-0.058	0.165
-447.895	-200.000	-0.003	0.071
-446.880	8.655	-0.052	0.039
-445.865	-30.784	0.267	0.151
-444.851	7.007	-0.053	-0.039
-443.836	328.268	-0.116	0.223
-442.822	-41.115	-0.430	-0.222
-441.807	281.180	-0.102	-0.182
-440.792	-20.938	-0.286	0.176
-439.778	123.158	0.074	-0.093
-438.763	-34.371	0.438	-0.240
-437.749	759.146	-0.133	0.360
-436.734	241.340	0.085	-0.141
-435.719	-149.308	-0.224	0.018
-434.705	-8.985	-0.106	0.071
-433.690	17.212	-0.137	-0.108
-432.676	80.801	0.294	-0.317
-431.661	511.132	-0.103	-0.240
-430.646	-128.742	-0.189	0.027
-429.632	-43.291	0.122	-0.061
-428.617	-200.000	0.011	0.093
-427.603	767.164	0.107	0.290
-426.588	432.294	-0.093	0.201
-425.573	-123.478	0.158	0.025
-424.559	800.000	0.030	-0.089
-423.544	17.310	-0.325	0.258
-422.530	-200.000	0.059	0.632
-421.515	-97.650	-0.209	-0.054
-420.500	223.030	0.117	0.188
-419.486	91.610	-0.032	-0.036
-418.471	-200.000	0.026	0.141
-417.457	-0.349	0.154	0.109
-416.442	38.551	0.077	0.068
-415.428	430.345	-0.069	0.149
-414.413	126.301	-0.015	-0.019
-413.398	321.829	-0.030	-0.057
-412.384	77.119	-0.080	-0.085
-411.369	-200.000	0.008	0.051
-410.355	-200.000	-0.026	-0.121
-409.340	73.236	-0.123	0.128
-408.325	800.000	0.058	0.253
-407.311	51.256	0.247	0.234
-406.296	-87.573	-0.324	0.098
-405.282	400.064	-0.099	-0.208
-404.267	-116.780	-0.130	0.024
-403.252	180.112	0.217	0.318
-402.238	-3.427	0.251	-0.174
-401.223	-200.000	0.006	-0.069
-400.209	-63.873	0.150	-0.061
-399.194	-155.197	-0.459	-0.030
-398.179	-75.833	0.118	0.042
-397.165	800.000	-0.053	-0.153
-396.150	52.925	-0.100	0.096
-395.136	-135.140	-0.140	-0.017
-394.121	241.761	0.142	-0.237
-393.106	-200.000	0.006	0.049
-392.092	254.622	-0.108	-0.184
-391.077	93.833	-0.201	0.227
-390.063	-200.000	0.022	-0.271
-389.048	97.200	-0.158	-0.181
-388.033	27.779	0.183	0.154
-387.019	355.949	-0.107	0.213
-386.004	-87.369	0.174	0.052
-384.990	-200.000	0.004	-0.201
-383.975	-41.628	0.158	-0.081
-382.960	131.190	0.124	0.159
-381.946	-34.918	0.108	-0.059
-380.931	-41.434	0.231	-0.119
-379.917	800.000	-0.013	0.045
-378.902	-87.092	-0.205	0.062
-377.888	-107.404	-0.257	-0.056
-376.873	42.266	-0.052	0.047
-375.858	-78.440	-0.429	0.147
-374.844	-54.585	0.051	-0.023
-373.829	-141.140	0.093	0.010
-372.815	-32.735	0.310	-0.172
-371.800	800.000	0.028	0.114
-370.785	-12.733	0.285	0.185
-369.771	-200.000	0.068	0.394
-368.756	3.361	-0.218	0.159
-367.742	247.660	-0.050	-0.084
-366.727	48.481	0.234	-0.219
-365.712	59.463	0.153	-0.151
-364.698	404.665	0.096	0.203
-363.683	187.469	-0.087	0.130
-362.669	71.646	-0.108	-0.112
-361.654	-180.854	-0.344	-0.007
-360.639	-171.546	-0.231	-0.008
-359.625	309.579	0.040	0.075
-358.610	-200.000	-0.002	-0.051
-357.596	738.372	0.028	0.076
-356.581	-173.782	-0.287	0.009
-355.566	800.000	-0.050	-0.146
-354.552	-164.642	0.058	-0.003
-353.537	-107.955	0.012	-0.003
-352.523	-200.000	-0.002	-0.144
-351.508	-200.000	-0.022	0.263
-350.493	-72.340	0.093	-0.034
-349.479	107.620	-0.231	0.274
-348.464	52.385	-0.232	-0.220
-347.450	-117.426	0.243	0.044
-346.435	-140.523	0.206	-0.021
-345.420	36.590	0.221	-0.195
-344.406	-95.378	-0.150	0.040
-343.391	-37.661	0.383	-0.203
-342.377	800.000	0.070	0.268
-341.362	800.000	-0.024	-0.071
-340.348	-89.701	0.208	-0.061
-339.333	-72.617	0.286	-0.105
-338.318	-200.000	0.073	0.329
-337.304	-3.407	-0.148	-0.103
-336.289	69.379	-0.089	0.091
-335.275	-200.000	-0.031	0.272
-334.260	118.907	0.158	-0.194
-333.245	227.295	-0.419	-0.678
-332.231	-163.245	-0.340	-0.016
-331.216	-0.403	-0.193	-0.137
-330.202	244.666	-0.109	-0.182
-329.187	26.712	-0.083	0.070
-328.172	-83.391	-0.390	0.125
-327.158	53.436	0.274	-0.262
-326.143	14.120	0.159	0.123
-325.129	-11.439	-0.190	-0.125
-324.114	-176.040	0.312	0.008
-323.099	-85.590	0.320	-0.099
-322.085	-83.641	-0.157	-0.050
-321.070	-200.000	0.053	-0.383
-320.056	18.077	-0.111	0.088
-319.041	119.074	-0.078	-0.096
-318.026	108.686	0.187	-0.223
-317.012	-200.000	0.020	0.134
-315.997	165.414	0.193	-0.272
-314.983	241.696	0.167	-0.277
-313.968	-124.404	-0.090	0.014
-312.953	-14.717	0.183	0.117
-311.939	72.812	-0.244	-0.254
-310.924	15.162	0.095	-0.074
-309.910	-200.000	0.028	0.193
-308.895	-14.347	0.283	-0.181
-307.880	-200.000	-0.044	0.235
-306.866	-200.000	-0.015	-0.220
-305.851	411.421	0.184	0.389
-304.837	-200.000	-0.036	0.190
-303.822	-119.662	0.122	-0.021
-302.807	329.454	0.112	0.215
-301.793	320.638	-0.057	0.107
-300.778	-200.000	0.006	-0.038
-299.764	-102.517	0.083	-0.020
-298.749	-23.222	0.276	-0.165
-297.735	-63.970	0.198	0.081
-296.720	7.551	-0.142	-0.105
-295.705	593.173	-0.041	0.102
-294.691	-28.047	0.127	0.073
-293.676	-114.828	-0.182	0.035
-292.662	-58.362	-0.136	-0.059
-291.647	144.840	-0.126	-0.168
-290.632	77.729	-0.204	0.216
-289.618	-200.000	0.056	0.308
-288.603	285.011	0.019	-0.034
-287.589	-70.960	-0.225	-0.084
-286.574	-125.119	-0.293	0.045
-285.559	-200.000	0.006	0.075
-284.545	-69.753	0.281	0.107
-283.530	358.596	0.217	-0.431
-282.516	-102.183	-0.217	0.052
-281.501	-200.000	0.003	-0.104
-280.486	-124.958	0.205	-0.031
-279.472	-200.000	-0.035	-0.338
-278.457	-200.000	-0.111	0.514
-277.443	470.763	-0.035	-0.078
-276.428	4.034	0.147	0.107
-275.413	-93.915	0.258	0.070
-274.399	122.157	-0.270	-0.335
-273.384	800.000	0.103	-0.295
-272.370	-71.775	-0.326	0.121
-271.355	190.734	-0.097	0.144
-270.340	-58.048	0.132	-0.057
-269.326	-173.925	0.388	-0.011
-268.311	103.064	-0.113	0.131
-267.297	89.950	-0.126	0.139
-266.282	97.959	0.242	0.277
-265.267	-111.433	0.227	0.046
-264.253	-66.310	-0.381	0.150
-263.238	-51.993	0.300	-0.139
-262.224	30.801	0.188	-0.160
-261.209	-103.231	-0.074	-0.017
-260.195	85.735	0.217	-0.237
-259.180	-200.000	0.002	0.294
-258.165	-200.000	0.007	-0.047
-257.151	-200.000	-0.000	-0.005
-256.136	203.900	-0.071	-0.110
-255.122	-137.550	0.229	0.026
-254.107	172.844	-0.066	0.094
-253.092	51.660	-0.239	0.226
-252.078	-54.262	-0.418	0.188
-251.063	800.000	0.114	-0.349
-250.049	624.086	-0.129	0.322
-249.034	501.713	0.167	0.382
-248.019	13.496	0.077	0.059
-247.005	-65.760	0.215	-0.085
-245.990	122.867	0.115	0.143
-244.976	-87.750	0.262	0.078
-243.961	-37.725	-0.316	-0.167
-242.946	-37.503	-0.407	-0.216
-241.932	277.993	0.130	-0.230
-240.917	800.000	-0.031	-0.109
-239.903	328.099	-0.123	0.235
-238.888	-31.253	0.215	0.120
-237.873	-200.000	-0.015	-0.128
-236.859	-200.000	0.002	0.193
-235.844	-200.000	-0.010	-0.046
-234.830	-119.779	0.122	0.021
-233.815	-85.744	0.335	-0.103
-232.800	230.442	0.145	-0.235
-231.786	-54.714	0.182	-0.082
-230.771	201.571	-0.053	-0.082
-229.757	-68.889	-0.100	0.038
-228.742	-71.577	0.216	-0.080
-227.727	-149.725	-0.342	0.027
-226.713	-97.140	-0.069	-0.018
-225.698	78.967	0.136	0.144
-224.684	-13.746	0.258	-0.165
-223.669	-107.904	0.071	-0.015
-222.655	-200.000	-0.036	0.229
-221.640	-13.362	-0.248	0.159
-220.625	800.000	0.104	-0.301
-219.611	219.597	0.163	-0.258
-218.596	224.182	0.144	0.230
-217.582	130.304	0.186	0.236
-216.567	-200.000	-0.038	-0.171
-215.552	-156.356	0.198	-0.012
-214.538	-200.000	0.016	-0.190
-213.523	-200.000	0.020	0.136
-212.509	254.209	-0.131	0.223
-211.494	54.493	0.197	-0.188
-210.479	-33.220	-0.162	0.089
-209.465	-200.000	-0.016	0.167
-208.450	154.260	0.178	0.242
-207.436	195.992	-0.237	0.358
-206.421	-200.000	0.138	0.607
-205.406	-6.236	0.211	0.143
-204.392	-81.284	-0.089	-0.029
-203.377	-200.000	-0.028	-0.191
-202.363	800.000	-0.046	-0.174
-201.348	175.279	0.074	0.106
-200.333	-58.381	-0.047	0.020
-199.319	-25.246	0.165	0.097
-198.304	-158.040	0.065	-0.004
-197.290	-174.315	0.258	-0.007
-196.275	800.000	-0.060	0.219
-195.260	194.220	0.076	-0.114
-194.246	-200.000	-0.017	-0.484
-193.231	110.739	-0.024	-0.029
-192.217	-126.391	-0.238	0.035
-191.202	-155.646	0.163	-0.010
-190.187	-112.975	-0.501	-0.098
-189.173	-200.000	0.041	0.311
-188.158	378.951	0.156	0.316
-187.144	800.000	-0.036	-0.139
-186.129	-39.193	-0.397	-0.207
-185.114	-71.707	-0.408	-0.151
-184.100	-120.728	0.079	-0.013
-183.085	313.458	-0.101	0.188
-182.071	-200.000	-0.003	0.095
-181.056	-149.860	0.151	-0.012
-180.042	83.130	0.116	-0.126
-179.027	-117.304	0.072	-0.013
-178.012	-118.724	0.108	-0.019
-176.998	-134.945	-0.051	-0.006
-175.983	178.194	-0.072	-0.104
-174.969	800.000	-0.046	0.138
-173.954	284.618	-0.114	-0.203
-172.939	-84.667	-0.254	0.079
-171.925	195.647	0.181	0.273
-170.910	800.000	-0.035	-0.126
-169.896	-200.000	-0.037	0.189
-168.881	800.000	-0.063	0.247
-167.866	-51.281	-0.214	-0.099
-166.852	184.302	0.203	-0.298
-165.837	-57.214	-0.048	0.021
-164.823	-154.774	0.418	-0.027
-163.808	-105.862	0.067	-0.015
-162.793	-49.565	-0.160	0.075
-161.779	-200.000	0.019	-0.585
-160.764	800.000	0.119	-0.327
-159.750	-200.000	0.023	0.141
-158.735	275.752	-0.099	0.173
-157.720	337.646	0.159	0.306
-156.706	389.645	0.051	0.104
-155.691	800.000	-0.104	-0.347
-154.677	-200.000	0.079	-0.344
-153.662	-77.220	-0.373	0.128
-152.647	-167.237	0.251	-0.010
-151.633	139.765	0.131	0.171
-150.618	-94.931	-0.327	-0.088
-149.604	800.000	0.037	0.104
-148.589	800.000	-0.057	0.220
-147.574	403.539	0.168	0.350
-146.560	-120.033	-0.131	0.022
-145.545	131.996	0.168	0.214
-144.531	371.027	0.091	0.182
-143.516	513.213	-0.061	-0.140
-142.502	-200.000	-0.011	0.216
-141.487	-140.154	0.181	-0.019
-140.472	-159.611	-0.211	0.012
-139.458	-192.616	0.302	-0.003
-138.443	64.523	-0.136	0.135
-137.429	-200.000	-0.001	0.365
-136.414	800.000	0.126	0.480
-135.399	-24.374	-0.200	-0.118
-134.385	-200.000	-0.019	0.197
-133.370	-173.945	0.043	0.001
-132.356	114.135	-0.244	0.293
-131.341	-37.092	-0.230	0.122
-130.326	-200.000	0.074	-0.349
-129.312	800.000	-0.034	-0.144
-128.297	-200.000	-0.014	0.072
-127.283	-200.000	0.050	0.274
-126.268	-47.590	0.161	0.077
-125.253	40.231	0.067	0.060
-124.239	-123.046	0.160	-0.025
-123.224	-1.311	-0.173	-0.121
-122.210	28.972	0.237	0.198
