DTS Sentinel unit serial number:	SN413079Multiplexer serial number:	ORYXHardware model number:	OX4-SRSoftware version number:	ORYX F/W v4.00 Oryx Data Collector v3.7.2.0data status	okinstallation	princeton_trtdifferential loss correction	single-endedforward channel	channel 4reverse channel	N/Adate	2019/09/13time	08:29:35forward acquisition time	60.00reverse acquisition time	0.00gamma	496.2192k internal	0.2317k external	0.2317temperature offset calibration	1.0200default loss term (dB/km)	0.3790temperature slope calibration	1.0000multiplexer offset coefficient	1.0000multiplexer slope coefficient	1.0000fibre end	0.00T internal ref (°C)	27.45T ext. ref 1 (°C)	4.28T ext. ref 2 (°C)	24.24length (m)	temperature (°C)	Stokes	anti-Stokes-747.200	64.544	0.115	-0.118
-746.185	57.643	-0.113	0.112
-745.171	357.073	-0.119	0.241
-744.156	460.917	0.277	0.626
-743.142	-200.000	0.036	0.176
-742.127	-96.986	-0.230	-0.061
-741.112	-177.319	-0.255	0.006
-740.098	182.816	0.062	0.093
-739.083	-64.270	-0.327	-0.135
-738.069	618.552	0.116	-0.296
-737.054	489.260	-0.106	-0.245
-736.039	-39.347	-0.204	-0.109
-735.025	-94.839	0.087	0.024
-734.010	32.499	-0.143	-0.125
-732.996	169.715	0.136	0.197
-731.981	-114.463	-0.169	-0.033
-730.966	-35.960	-0.148	-0.081
-729.952	-50.955	-0.201	0.096
-728.937	800.000	-0.103	0.330
-727.923	-24.706	-0.141	0.085
-726.908	-34.654	-0.081	0.045
-725.894	26.875	0.143	0.121
-724.879	-16.367	0.057	0.037
-723.864	-24.855	-0.269	-0.162
-722.850	82.077	-0.090	0.099
-721.835	-70.128	-0.249	0.096
-720.821	-88.655	-0.245	-0.074
-719.806	-35.742	0.252	0.138
-718.791	-100.550	-0.281	0.070
-717.777	-200.000	-0.044	0.226
-716.762	-26.215	0.189	-0.112
-715.748	331.424	-0.092	-0.179
-714.733	353.247	0.137	-0.275
-713.718	-41.841	-0.246	-0.127
-712.704	-59.925	-0.100	0.043
-711.689	4.745	-0.195	-0.145
-710.675	-9.832	-0.087	0.058
-709.660	-58.877	-0.244	0.107
-708.645	-25.498	-0.256	0.153
-707.631	-116.725	-0.314	0.058
-706.616	-200.000	0.010	-0.099
-705.602	-94.209	-0.205	-0.057
-704.587	54.807	0.304	0.296
-703.572	-181.314	0.123	0.002
-702.558	62.938	0.201	0.203
-701.543	-73.796	-0.185	-0.068
-700.529	668.551	0.038	-0.100
-699.514	-64.695	-0.129	-0.053
-698.499	-17.184	-0.055	-0.035
-697.485	-32.450	-0.235	0.133
-696.470	291.021	0.088	-0.162
-695.456	68.079	0.153	-0.158
-694.441	-200.000	0.059	-0.388
-693.426	-31.247	-0.219	-0.125
-692.412	505.413	-0.158	-0.371
-691.397	332.719	-0.070	-0.137
-690.383	33.265	0.041	0.036
-689.368	-149.759	-0.389	-0.031
-688.354	-200.000	-0.043	-0.215
-687.339	106.087	-0.098	0.117
-686.324	30.857	-0.085	-0.074
-685.310	800.000	0.109	-0.382
-684.295	-106.279	0.128	0.029
-683.281	-200.000	-0.026	-0.211
-682.266	-97.726	0.056	-0.015
-681.251	-80.870	0.178	-0.060
-680.237	-52.694	-0.031	-0.015
-679.222	478.127	-0.176	0.402
-678.208	800.000	-0.058	0.237
-677.193	571.742	-0.065	-0.160
-676.178	-105.151	-0.064	0.015
-675.164	384.367	0.102	0.213
-674.149	107.619	-0.088	0.106
-673.135	-113.556	0.338	0.067
-672.120	618.481	-0.036	-0.091
-671.105	-59.041	-0.199	-0.087
-670.091	-45.799	0.234	-0.117
-669.076	37.236	-0.088	-0.078
-668.062	191.125	-0.078	-0.118
-667.047	-64.849	-0.207	0.084
-666.032	-110.121	0.146	-0.031
-665.018	-61.967	-0.243	0.103
-664.003	-7.709	0.181	-0.123
-662.989	-159.261	0.239	0.014
-661.974	800.000	0.080	0.275
-660.959	-15.285	-0.330	0.213
-659.945	-200.000	-0.048	-0.220
-658.930	800.000	-0.074	-0.231
-657.916	128.980	0.139	0.179
-656.901	-27.194	-0.325	0.191
-655.886	-7.648	0.170	0.116
-654.872	-103.882	-0.063	0.015
-653.857	-26.996	-0.174	-0.102
-652.843	367.941	0.075	0.152
-651.828	-200.000	0.123	0.000
-650.814	349.426	0.144	-0.287
-649.799	-200.000	-0.077	0.342
-648.784	40.886	0.211	0.192
-647.770	161.296	-0.139	-0.196
-646.755	-130.231	-0.150	-0.021
-645.741	-200.000	-0.003	0.359
-644.726	261.847	-0.090	-0.158
-643.711	-30.942	0.194	-0.110
-642.697	-43.493	0.318	-0.162
-641.682	-89.828	0.326	-0.096
-640.668	-162.232	-0.169	-0.009
-639.653	-60.214	0.134	0.058
-638.638	141.878	-0.076	0.101
-637.624	-200.000	0.002	-0.054
-636.609	77.403	0.280	0.300
-635.595	-108.602	-0.293	0.063
-634.580	-129.441	0.292	0.041
-633.565	410.279	-0.110	-0.236
-632.551	118.259	-0.142	-0.177
-631.536	225.216	-0.084	-0.137
-630.522	377.541	-0.021	-0.042
-629.507	-89.919	-0.098	-0.029
-628.492	273.354	0.092	-0.164
-627.478	54.209	0.142	-0.138
-626.463	800.000	-0.056	-0.195
-625.449	-200.000	-0.016	0.259
-624.434	728.627	0.072	-0.194
-623.419	-89.838	0.318	-0.094
-622.405	-200.000	0.063	-0.307
-621.390	66.167	0.040	-0.041
-620.376	-200.000	-0.017	-0.126
-619.361	-174.065	-0.261	-0.008
-618.346	222.540	0.143	0.232
-617.332	-16.192	0.396	0.253
-616.317	-122.724	0.348	0.057
-615.303	-200.000	0.014	0.161
-614.288	-49.685	0.192	-0.092
-613.273	-6.230	-0.043	0.029
-612.259	69.024	0.095	0.098
-611.244	-99.523	0.204	0.052
-610.230	-151.646	-0.153	0.011
-609.215	170.940	0.101	-0.145
-608.201	-48.281	-0.224	0.109
-607.186	-52.075	-0.164	-0.076
-606.171	800.000	-0.043	0.191
-605.157	117.742	-0.168	-0.209
-604.142	715.720	0.038	-0.101
-603.128	-65.801	0.199	-0.080
-602.113	-129.708	-0.164	0.023
-601.098	-130.137	-0.239	-0.033
-600.084	800.000	0.018	0.071
-599.069	542.933	-0.143	0.344
-598.055	32.640	0.029	0.025
-597.040	-200.000	-0.010	0.528
-596.025	800.000	-0.093	-0.349
-595.011	-154.663	-0.398	0.027
-593.996	-107.038	0.203	-0.045
-592.982	205.514	0.053	-0.083
-591.967	237.326	-0.210	-0.351
-590.952	395.211	-0.120	0.252
-589.938	-200.000	-0.029	-0.277
-588.923	-26.676	-0.118	-0.070
-587.909	-15.347	0.092	0.060
-586.894	161.621	-0.272	-0.383
-585.879	-44.267	0.149	-0.075
-584.865	36.652	0.101	0.090
-583.850	-53.885	-0.163	-0.075
-582.836	132.142	-0.227	0.294
-581.821	27.240	-0.035	0.030
-580.806	-165.160	0.389	0.017
-579.792	697.769	0.085	-0.225
-578.777	-41.312	0.113	0.059
-577.763	-116.780	-0.151	-0.028
-576.748	800.000	-0.107	0.354
-575.733	-200.000	0.014	0.091
-574.719	-35.553	-0.172	0.094
-573.704	-101.044	0.330	0.081
-572.690	-56.219	-0.218	-0.097
-571.675	800.000	-0.009	0.038
-570.661	12.885	0.228	-0.178
-569.646	-130.246	0.275	0.038
-568.631	-131.205	0.059	-0.008
-567.617	2.476	0.237	0.173
-566.602	218.364	-0.062	0.099
-565.588	-5.530	-0.192	0.132
-564.573	-22.328	0.196	0.119
-563.558	-4.489	0.247	-0.171
-562.544	-200.000	-0.073	0.375
-561.529	-200.000	0.003	-0.106
-560.515	123.062	-0.282	-0.356
-559.500	140.157	-0.072	-0.096
-558.485	-91.523	-0.312	-0.089
-557.471	-46.830	-0.099	-0.049
-556.456	475.464	-0.051	-0.115
-555.442	92.046	0.106	0.120
-554.427	516.943	0.096	0.225
-553.412	142.639	-0.112	-0.150
-552.398	-105.125	0.181	-0.042
-551.383	800.000	0.026	0.107
-550.369	-139.689	0.356	-0.038
-549.354	-200.000	-0.072	0.432
-548.339	-200.000	-0.074	0.392
-547.325	-200.000	-0.032	0.256
-546.310	-51.003	0.269	-0.127
-545.296	420.842	-0.091	-0.196
-544.281	500.511	-0.049	0.114
-543.266	285.130	-0.294	0.532
-542.252	662.000	0.067	0.172
-541.237	-69.126	-0.231	-0.089
-540.223	91.272	0.193	0.217
-539.208	787.151	-0.120	0.332
-538.193	-88.596	-0.065	-0.020
-537.179	101.745	-0.095	-0.112
-536.164	269.430	-0.047	-0.082
-535.150	-200.000	0.008	0.130
-534.135	800.000	-0.078	-0.330
-533.121	21.893	-0.142	0.116
-532.106	-200.000	-0.003	-0.098
-531.091	91.587	-0.099	-0.112
-530.077	254.983	-0.119	-0.205
-529.062	-200.000	0.031	0.363
-528.048	-128.989	-0.085	0.012
-527.033	-156.430	-0.112	-0.007
-526.018	-40.697	0.194	-0.101
-525.004	71.173	0.092	0.096
-523.989	61.166	-0.222	0.221
-522.975	-37.766	0.080	-0.043
-521.960	605.818	-0.096	0.239
-520.945	-84.663	0.073	-0.023
-519.931	-71.073	-0.275	-0.104
-518.916	652.207	0.021	0.053
-517.902	127.276	0.038	0.048
-516.887	-200.000	0.020	0.100
-515.872	-166.967	-0.148	-0.006
-514.858	-200.000	-0.034	0.178
-513.843	-200.000	-0.020	-0.324
-512.829	-200.000	0.014	0.082
-511.814	36.496	-0.180	-0.160
-510.799	-200.000	0.009	0.184
-509.785	800.000	0.037	0.152
-508.770	43.891	-0.276	-0.254
-507.756	76.323	-0.344	-0.366
-506.741	-15.306	-0.114	-0.073
-505.726	800.000	0.087	0.241
-504.712	-104.676	-0.100	0.023
-503.697	-13.393	-0.107	0.070
-502.683	-61.870	0.068	0.029
-501.668	800.000	-0.027	-0.096
-500.653	-53.372	-0.255	-0.117
-499.639	437.429	0.053	-0.116
-498.624	795.789	0.036	0.101
-497.610	189.816	-0.147	-0.221
-496.595	396.732	0.063	0.133
-495.581	33.200	-0.338	-0.294
-494.566	-200.000	0.005	0.225
-493.551	-22.692	-0.092	-0.055
-492.537	144.681	-0.116	0.155
-491.522	-74.888	-0.169	0.061
-490.508	-127.806	-0.314	0.045
-489.493	248.923	-0.115	0.196
-488.478	-92.053	0.148	0.042
-487.464	25.642	0.313	0.261
-486.449	-7.558	-0.127	-0.086
-485.435	-26.196	-0.347	-0.205
-484.420	-32.692	0.243	-0.135
-483.405	721.634	0.031	-0.083
-482.391	-161.735	-0.089	-0.005
-481.376	110.783	-0.052	-0.062
-480.362	-128.642	0.116	-0.016
-479.347	520.578	0.068	-0.159
-478.332	-53.909	-0.315	-0.144
-477.318	-118.016	-0.232	-0.042
-476.303	-151.693	0.260	0.019
-475.289	72.892	-0.190	0.199
-474.274	-107.173	0.282	-0.062
-473.259	-22.367	0.259	-0.157
-472.245	-182.970	0.369	-0.007
-471.230	-18.875	-0.158	0.099
-470.216	-200.000	-0.016	0.085
-469.201	44.092	-0.026	-0.024
-468.186	-200.000	0.004	-0.134
-467.172	36.325	0.086	0.076
-466.157	-200.000	0.052	-0.304
-465.143	-200.000	-0.003	0.110
-464.128	84.044	-0.031	-0.034
-463.113	-131.724	-0.194	-0.025
-462.099	-200.000	-0.016	-0.283
-461.084	-77.719	0.043	-0.015
-460.070	-200.000	0.000	0.206
-459.055	-28.308	-0.024	0.014
-458.040	-7.764	-0.129	0.087
-457.026	-30.110	-0.125	0.071
-456.011	800.000	-0.090	0.366
-454.997	-31.761	0.105	-0.059
-453.982	132.406	-0.152	-0.196
-452.968	329.375	0.088	0.170
-451.953	800.000	-0.045	0.170
-450.938	-17.701	-0.480	-0.302
-449.924	800.000	0.107	0.304
-448.909	-200.000	0.062	0.410
-447.895	156.556	0.004	0.005
-446.880	800.000	0.063	0.176
-445.865	-30.581	-0.350	0.199
-444.851	237.284	-0.054	0.089
-443.836	252.886	-0.159	0.272
-442.822	-19.117	-0.159	0.099
-441.807	109.485	-0.044	-0.052
-440.792	800.000	-0.146	0.431
-439.778	-51.601	-0.092	0.043
-438.763	-118.205	-0.070	-0.012
-437.749	800.000	0.055	-0.172
-436.734	-94.819	0.357	0.097
-435.719	-200.000	0.004	-0.114
-434.705	-71.968	-0.076	0.028
-433.690	-7.136	-0.219	0.148
-432.676	-200.000	0.054	-0.246
-431.661	-200.000	0.416	0.001
-430.646	177.721	-0.122	-0.178
-429.632	-200.000	-0.002	0.036
-428.617	231.049	-0.111	0.182
-427.603	-70.369	-0.098	0.037
-426.588	197.751	-0.030	0.045
-425.573	258.472	-0.115	-0.198
-424.559	-25.622	-0.255	-0.151
-423.544	181.119	0.105	0.155
-422.530	-200.000	0.033	-0.169
-421.515	-200.000	-0.064	0.636
-420.500	-73.995	-0.378	0.137
-419.486	-7.807	0.056	-0.038
-418.471	172.505	0.132	-0.190
-417.457	-200.000	-0.047	0.505
-416.442	-200.000	0.076	-0.402
-415.428	800.000	0.039	0.138
-414.413	800.000	0.113	0.320
-413.398	-97.528	-0.104	-0.027
-412.384	150.883	0.056	0.076
-411.369	-2.187	-0.167	0.117
-410.355	57.564	-0.161	0.158
-409.340	-101.436	0.350	-0.085
-408.325	41.059	-0.197	-0.178
-407.311	-19.823	-0.282	0.174
-406.296	-200.000	0.047	-0.307
-405.282	-98.565	-0.331	0.085
-404.267	-4.045	-0.125	-0.086
-403.252	33.061	-0.310	-0.269
-402.238	388.899	-0.123	-0.255
-401.223	228.853	-0.120	-0.195
-400.209	18.100	0.264	-0.210
-399.194	14.465	0.181	0.141
-398.179	-200.000	-0.037	-0.203
-397.165	-200.000	-0.005	0.085
-396.150	-100.537	-0.275	-0.068
-395.136	245.330	0.142	0.238
-394.121	-78.762	0.200	0.068
-393.106	800.000	-0.035	-0.126
-392.092	-200.000	-0.016	0.126
-391.077	800.000	-0.071	0.298
-390.063	800.000	0.119	0.352
-389.048	-136.823	-0.084	0.010
-388.033	158.155	0.223	-0.308
-387.019	125.093	-0.076	-0.096
-386.004	-22.486	-0.110	0.066
-384.990	400.812	0.085	-0.178
-383.975	-44.659	0.042	0.021
-382.960	-66.874	0.158	-0.062
-381.946	131.973	0.127	0.164
-380.931	-135.897	0.256	-0.030
-379.917	-102.021	-0.062	0.015
-378.902	79.701	0.348	-0.373
-377.888	800.000	0.100	-0.292
-376.873	-200.000	0.011	-0.424
-375.858	-44.661	-0.015	0.008
-374.844	101.546	-0.148	0.173
-373.829	-200.000	0.016	-0.130
-372.815	-9.882	-0.087	-0.058
-371.800	-14.695	-0.110	0.070
-370.785	-14.231	0.208	0.134
-369.771	-200.000	0.021	-0.167
-368.756	-16.802	-0.285	-0.180
-367.742	378.962	-0.102	-0.208
-366.727	-9.269	0.168	0.112
-365.712	-10.247	0.169	-0.112
-364.698	-200.000	-0.023	0.172
-363.683	-50.170	-0.182	0.086
-362.669	-28.009	-0.173	0.100
-361.654	-94.265	-0.039	-0.011
-360.639	-27.656	0.267	0.155
-359.625	-151.484	0.238	0.018
-358.610	5.996	0.135	-0.100
-357.596	-200.000	0.032	-0.204
-356.581	-58.604	-0.076	0.033
-355.566	800.000	0.059	-0.245
-354.552	800.000	0.051	-0.218
-353.537	133.384	-0.062	-0.080
-352.523	800.000	-0.063	-0.198
-351.508	92.130	0.159	-0.179
-350.493	800.000	0.070	-0.227
-349.479	492.950	0.084	-0.191
-348.464	-106.516	0.172	-0.038
-347.450	59.225	0.144	0.141
-346.435	-153.279	-0.116	0.008
-345.420	-27.735	-0.052	-0.030
-344.406	511.177	-0.075	-0.174
-343.391	-147.834	0.254	0.021
-342.377	-44.826	0.100	-0.050
-341.362	188.239	-0.095	0.142
-340.348	800.000	-0.044	-0.177
-339.333	800.000	-0.017	0.051
-338.318	164.645	0.099	0.139
-337.304	-20.093	0.286	0.176
-336.289	759.702	0.076	0.205
-335.275	53.719	-0.183	-0.175
-334.260	115.059	-0.110	0.134
-333.245	-152.013	0.124	0.009
-332.231	-200.000	0.071	0.454
-331.216	-88.432	-0.064	0.019
-330.202	-46.731	0.244	0.119
-329.187	-59.416	-0.163	0.070
-328.172	432.432	0.199	0.430
-327.158	-95.615	0.361	0.096
-326.143	800.000	-0.089	-0.287
-325.129	-0.806	0.291	-0.205
-324.114	403.569	-0.091	0.191
-323.099	-15.565	0.233	-0.148
-322.085	-200.000	0.005	-0.125
-321.070	204.656	0.053	0.081
-320.056	-48.136	-0.192	0.092
-319.041	-5.743	0.147	-0.101
-318.026	210.280	-0.148	-0.232
-317.012	-17.246	-0.368	0.231
-315.997	224.615	-0.151	0.243
-314.983	-200.000	-0.000	-0.079
-313.968	-200.000	-0.041	-0.200
-312.953	361.437	0.168	-0.335
-311.939	-97.700	0.389	-0.100
-310.924	21.103	0.109	-0.088
-309.910	496.633	0.130	-0.298
-308.895	-37.159	-0.074	0.039
-307.880	-160.470	0.138	-0.007
-306.866	800.000	-0.027	0.080
-305.851	-68.323	-0.290	-0.112
-304.837	31.210	0.120	0.102
-303.822	-55.708	-0.343	0.153
-302.807	80.018	0.144	0.155
-301.793	-76.191	0.166	-0.058
-300.778	-112.229	-0.217	-0.043
-299.764	327.176	-0.067	0.128
-298.749	461.823	-0.066	-0.146
-297.735	800.000	-0.058	-0.246
-296.720	800.000	0.029	0.094
-295.705	617.809	0.106	-0.265
-294.691	-200.000	0.009	0.173
-293.676	538.642	-0.137	0.324
-292.662	-200.000	-0.002	-0.105
-291.647	90.560	-0.131	-0.145
-290.632	-200.000	-0.020	-0.225
-289.618	283.811	-0.112	0.200
-288.603	-114.843	0.091	0.017
-287.589	84.447	-0.167	-0.182
-286.574	800.000	-0.029	-0.085
-285.559	28.951	0.295	-0.248
-284.545	509.397	0.077	0.179
-283.530	800.000	-0.110	-0.378
-282.516	266.953	0.206	0.358
-281.501	55.871	-0.127	0.123
-280.486	-191.365	0.352	0.004
-279.472	-27.366	-0.266	-0.154
-278.457	221.106	0.142	-0.227
-277.443	-200.000	0.000	-0.058
-276.428	102.624	0.166	0.193
-275.413	69.908	0.183	0.188
-274.399	-200.000	0.033	0.348
-273.384	-114.812	0.182	-0.035
-272.370	223.231	0.091	0.145
-271.355	383.633	0.088	0.181
-270.340	-200.000	0.021	-0.263
-269.326	218.127	0.084	-0.134
-268.311	-28.568	-0.238	-0.137
-267.297	-48.928	-0.191	0.091
-266.282	122.538	0.079	0.098
-265.267	-156.854	-0.319	-0.019
-264.253	-132.401	0.164	0.021
-263.238	-200.000	0.056	-0.243
-262.224	-22.319	-0.338	-0.203
-261.209	-200.000	-0.007	0.073
-260.195	-83.149	0.226	0.072
-259.180	785.134	0.134	0.365
-258.165	450.543	-0.129	-0.284
-257.151	-93.024	0.289	-0.080
-256.136	-200.000	0.042	0.240
-255.122	-58.081	0.188	-0.081
-254.107	185.467	0.222	0.328
-253.092	-71.357	-0.322	0.120
-252.078	-102.388	-0.479	-0.114
-251.063	-53.632	0.162	-0.074
-250.049	386.375	0.098	0.200
-249.034	-108.323	-0.460	-0.099
-248.019	-175.521	0.390	0.011
-247.005	-200.000	-0.028	-0.193
-245.990	-67.024	-0.089	-0.035
-244.976	-150.550	0.364	-0.028
-243.961	-200.000	0.000	0.135
-242.946	-32.806	0.066	-0.036
-241.932	-88.861	0.353	0.104
-240.917	-91.555	-0.320	0.090
-239.903	41.992	0.088	-0.079
-238.888	800.000	-0.002	-0.006
-237.873	108.899	-0.165	-0.196
-236.859	144.562	0.186	-0.246
-235.844	-44.256	0.281	0.140
-234.830	-3.919	0.293	-0.202
-233.815	-20.220	-0.078	0.047
-232.800	-55.694	-0.177	0.079
-231.786	-200.000	-0.005	0.109
-230.771	156.105	-0.067	0.092
-229.757	373.238	0.061	0.124
-228.742	127.083	-0.085	-0.107
-227.727	-33.843	0.224	0.122
-226.713	-108.831	0.144	0.031
-225.698	302.630	-0.114	-0.209
-224.684	92.867	-0.079	-0.089
-223.669	-122.894	0.496	-0.079
-222.655	800.000	-0.030	-0.103
-221.640	176.101	0.150	0.216
-220.625	-127.060	0.153	-0.022
-219.611	-70.464	-0.123	-0.046
-218.596	-200.000	0.062	0.337
-217.582	-58.556	0.179	0.077
-216.567	78.568	0.043	0.046
-215.552	-113.003	-0.169	0.033
-214.538	800.000	-0.148	-0.451
-213.523	-52.040	-0.165	0.076
-212.509	-200.000	0.004	-0.061
-211.494	-200.000	0.022	0.248
-210.479	-200.000	0.115	0.513
-209.465	358.027	0.127	-0.251
-208.450	-123.183	-0.111	-0.018
-207.436	-179.091	-0.320	0.007
-206.421	-11.902	0.193	-0.126
-205.406	60.654	0.014	-0.014
-204.392	-200.000	-0.022	0.211
-203.377	-41.050	-0.059	0.030
-202.363	800.000	0.058	0.182
-201.348	-75.134	0.242	-0.086
-200.333	-143.687	0.240	-0.023
-199.319	218.837	-0.230	0.364
-198.304	71.253	-0.207	0.213
-197.290	-59.675	0.076	-0.032
-196.275	352.044	-0.060	0.117
-195.260	800.000	0.020	0.074
-194.246	-104.852	-0.269	-0.061
-193.231	-200.000	0.038	0.185
-192.217	-70.345	-0.219	-0.082
-191.202	-76.243	0.371	-0.130
-190.187	-200.000	0.062	-0.300
-189.173	23.833	0.098	-0.080
-188.158	800.000	-0.070	-0.243
-187.144	-63.622	0.066	0.027
-186.129	31.475	0.064	-0.055
-185.114	-38.756	-0.065	-0.034
-184.100	5.062	0.205	0.150
-183.085	-172.010	-0.245	-0.008
-182.071	-3.126	0.127	-0.088
-181.056	800.000	0.073	-0.291
-180.042	-200.000	0.004	-0.034
-179.027	-183.698	0.079	-0.001
-178.012	-41.003	0.137	0.070
-176.998	237.926	-0.209	-0.343
-175.983	187.128	-0.130	-0.192
-174.969	-31.508	0.049	0.027
-173.954	-200.000	-0.014	-0.155
-172.939	165.733	-0.119	-0.167
-171.925	120.335	0.268	0.329
-170.910	-71.115	-0.303	0.113
-169.896	800.000	0.060	0.168
-168.881	-132.932	0.095	0.012
-167.866	-200.000	-0.004	-0.045
-166.852	347.388	0.049	-0.095
-165.837	44.334	0.105	-0.095
-164.823	61.456	0.131	-0.129
-163.808	-200.000	0.089	-0.466
-162.793	554.095	0.046	0.109
-161.779	37.305	-0.174	-0.153
-160.764	26.799	-0.157	0.130
-159.750	342.235	-0.083	0.160
-158.735	126.525	0.115	0.144
-157.720	-155.904	0.124	-0.008
-156.706	800.000	0.037	-0.156
-155.691	93.499	0.117	-0.131
-154.677	477.046	-0.047	-0.105
-153.662	653.819	-0.136	-0.345
-152.647	40.359	0.063	-0.056
-151.633	-92.954	0.206	-0.057
-150.618	260.743	0.102	-0.174
-149.604	-94.803	0.087	0.023
-148.589	-200.000	-0.031	0.194
-147.574	248.556	-0.059	-0.098
-146.560	-13.385	-0.250	-0.161
-145.545	423.803	0.113	-0.240
-144.531	239.045	-0.051	0.084
-143.516	538.094	-0.023	-0.054
-142.502	800.000	-0.034	0.104
-141.487	584.942	-0.049	-0.120
-140.472	224.746	0.129	-0.207
-139.458	800.000	0.125	0.352
-138.443	-42.953	-0.104	0.052
-137.429	-68.159	-0.059	0.023
-136.414	373.949	-0.135	-0.272
-135.399	-200.000	0.002	-0.040
-134.385	68.693	0.124	0.126
-133.370	-132.579	0.236	0.030
-132.356	-200.000	-0.016	-0.164
-131.341	131.614	0.049	0.062
-130.326	-193.343	0.138	-0.001
-129.312	800.000	-0.056	0.211
-128.297	-29.820	0.344	-0.194
-127.283	476.645	-0.078	-0.174
-126.268	318.177	-0.118	-0.221
-125.253	-82.427	0.244	0.078
-124.239	-39.081	0.199	-0.103
-123.224	59.910	-0.184	0.179
-122.210	-200.000	0.037	0.165
