DTS Sentinel unit serial number:	SN413079Multiplexer serial number:	ORYXHardware model number:	OX4-SRSoftware version number:	ORYX F/W v4.00 Oryx Data Collector v3.7.2.0data status	okinstallation	princeton_trtdifferential loss correction	single-endedforward channel	channel 4reverse channel	N/Adate	2019/09/12time	18:48:19forward acquisition time	15.00reverse acquisition time	0.00gamma	496.2192k internal	0.2307k external	0.2307temperature offset calibration	1.0139default loss term (dB/km)	0.3790temperature slope calibration	1.0000multiplexer offset coefficient	1.0000multiplexer slope coefficient	1.0000fibre end	0.00T internal ref (°C)	32.94T ext. ref 1 (°C)	3.01T ext. ref 2 (°C)	27.45length (m)	temperature (°C)	Stokes	anti-Stokes-747.200	-178.579	0.632	0.015
-746.185	-200.000	0.064	0.462
-745.171	74.134	0.194	0.207
-744.156	77.244	0.439	0.474
-743.142	212.091	0.316	-0.506
-742.127	5.966	0.581	-0.437
-741.112	-92.042	-0.199	-0.057
-740.098	-48.076	0.399	0.196
-739.083	-116.986	-0.863	-0.160
-738.069	35.442	0.435	0.388
-737.054	-26.361	0.232	-0.138
-736.039	-200.000	-0.055	0.275
-735.025	-35.577	0.357	0.197
-734.010	-170.428	0.644	0.023
-732.996	-129.106	-0.191	-0.027
-731.981	-114.910	-0.600	0.116
-730.966	12.932	-0.093	0.073
-729.952	-200.000	0.027	-0.538
-728.937	-200.000	0.087	-0.585
-727.923	-135.376	-0.394	0.048
-726.908	-116.409	0.761	0.143
-725.894	284.808	0.451	0.826
-724.879	-200.000	-0.014	-0.338
-723.864	-6.958	-0.691	-0.477
-722.850	-2.169	-0.111	-0.079
-721.835	153.920	0.675	-0.940
-720.821	-122.997	1.458	-0.238
-719.806	221.540	-0.287	-0.468
-718.791	498.600	0.117	0.273
-717.777	152.903	0.517	-0.718
-716.762	259.526	-0.336	-0.588
-715.748	-200.000	0.010	-0.313
-714.733	-200.000	-0.058	0.503
-713.718	-14.315	0.396	0.259
-712.704	25.925	0.423	0.358
-711.689	-23.730	0.264	0.160
-710.675	11.262	0.215	0.167
-709.660	46.425	0.919	0.865
-708.645	62.504	-0.280	-0.284
-707.631	70.623	-0.305	0.321
-706.616	326.543	0.207	0.402
-705.602	375.276	-0.060	-0.124
-704.587	-191.265	-0.316	-0.003
-703.572	-97.385	0.532	-0.141
-702.558	131.256	-0.463	0.604
-701.543	29.480	-0.354	-0.306
-700.529	-200.000	0.078	0.482
-699.514	-46.279	-0.631	-0.315
-698.499	-97.479	-0.839	-0.221
-697.485	-101.442	-0.506	-0.125
-696.470	-9.460	0.273	-0.185
-695.456	-75.359	0.422	0.153
-694.441	180.780	0.491	0.731
-693.426	-97.602	0.194	-0.051
-692.412	-63.782	0.236	-0.098
-691.397	37.600	-0.247	0.222
-690.383	11.013	0.795	-0.617
-689.368	-200.000	-0.052	0.230
-688.354	299.184	0.193	0.361
-687.339	362.227	0.117	0.238
-686.324	-200.000	0.154	-0.919
-685.310	-42.608	0.280	0.144
-684.295	-117.346	0.926	-0.170
-683.281	800.000	-0.432	1.525
-682.266	-200.000	-0.007	-0.080
-681.251	190.517	0.073	-0.111
-680.237	-12.822	0.420	-0.277
-679.222	-27.252	0.346	-0.204
-678.208	179.001	-0.802	-1.189
-677.193	-200.000	-0.035	-0.313
-676.178	-96.078	0.251	-0.068
-675.164	366.364	-0.023	-0.047
-674.149	-60.212	0.754	-0.326
-673.135	186.290	0.209	0.315
-672.120	560.711	0.334	-0.819
-671.105	-76.851	-0.497	-0.176
-670.091	-200.000	-0.014	-0.685
-669.076	197.802	-0.301	0.466
-668.062	463.738	0.214	0.486
-667.047	-200.000	-0.056	-0.716
-666.032	-105.142	-0.779	-0.180
-665.018	-30.922	-0.272	-0.156
-664.003	97.143	0.409	0.476
-662.989	-162.495	-0.386	0.019
-661.974	-28.848	-0.167	0.097
-660.959	-109.890	-0.752	0.160
-659.945	-12.356	-0.555	-0.368
-658.930	-101.383	-0.139	0.034
-657.916	341.235	-0.430	0.852
-656.901	-61.628	0.169	-0.072
-655.886	132.127	0.298	-0.389
-654.872	445.915	-0.188	0.418
-653.857	-200.000	0.114	-0.561
-652.843	-3.708	-0.701	0.493
-651.828	71.140	-0.498	0.524
-650.814	-188.830	0.988	-0.012
-649.799	-200.000	0.036	-0.184
-648.784	800.000	-0.181	0.742
-647.770	-123.689	0.066	-0.011
-646.755	-99.684	-0.703	-0.178
-645.741	4.168	-0.184	-0.136
-644.726	-22.119	-0.127	0.078
-643.711	13.486	-0.382	-0.300
-642.697	-200.000	-0.196	0.968
-641.682	800.000	0.327	1.195
-640.668	-51.170	-0.273	-0.129
-639.653	207.561	0.112	-0.177
-638.638	-116.731	-1.104	-0.205
-637.624	-136.991	1.170	-0.136
-636.609	-200.000	0.060	1.022
-635.595	-25.849	0.516	-0.308
-634.580	-135.174	0.480	-0.058
-633.565	-102.435	0.290	0.070
-632.551	800.000	0.085	0.265
-631.536	152.090	0.135	-0.186
-630.522	316.936	-0.160	-0.307
-629.507	-162.860	-1.139	-0.056
-628.492	104.717	-0.429	0.512
-627.478	27.276	-0.498	-0.424
-626.463	-200.000	-0.072	-1.420
-625.449	-103.029	-0.405	-0.097
-624.434	74.173	0.200	0.213
-623.419	-178.751	-0.458	0.011
-622.405	224.284	0.566	-0.926
-621.390	81.932	-0.638	-0.700
-620.376	-76.530	-0.829	-0.295
-619.361	-139.139	1.265	0.138
-618.346	413.588	-0.153	-0.329
-617.332	-40.704	0.455	0.239
-616.317	-45.875	0.567	0.283
-615.303	355.178	-0.036	-0.072
-614.288	264.887	0.259	0.456
-613.273	-86.783	-0.746	-0.231
-612.259	-15.811	-0.427	0.275
-611.244	-200.000	0.040	0.703
-610.230	-9.907	0.705	0.475
-609.215	-69.288	0.280	0.109
-608.201	-107.093	-0.456	0.102
-607.186	-67.687	-1.081	0.428
-606.171	-200.000	0.107	0.484
-605.157	-14.401	0.228	0.148
-604.142	-200.000	0.094	-0.792
-603.128	81.086	0.357	-0.390
-602.113	-200.000	0.016	0.466
-601.098	-34.053	-0.465	-0.258
-600.084	-200.000	-0.006	-0.086
-599.069	228.852	0.285	-0.470
-598.055	-84.177	-0.439	0.141
-597.040	492.345	0.345	-0.800
-596.025	-104.901	0.512	-0.119
-595.011	370.724	0.129	-0.264
-593.996	-200.000	-0.041	0.289
-592.982	-200.000	0.023	0.337
-591.967	-191.996	-0.383	-0.004
-590.952	47.470	0.497	-0.468
-589.938	-132.805	0.138	-0.018
-588.923	-124.451	-0.396	-0.062
-587.909	27.596	-0.318	-0.270
-586.894	800.000	-0.094	-0.380
-585.879	187.962	-0.126	0.190
-584.865	423.871	-0.225	0.489
-583.850	62.973	-0.381	0.385
-582.836	-200.000	0.105	0.665
-581.821	-10.954	-0.390	0.260
-580.806	667.261	0.221	-0.576
-579.792	457.093	-0.305	-0.684
-578.777	-185.408	0.521	-0.008
-577.763	316.449	0.193	0.368
-576.748	-3.143	-0.206	0.145
-575.733	276.037	0.270	0.483
-574.719	345.529	0.229	0.454
-573.704	-32.523	-0.324	-0.183
-572.690	-74.414	0.524	0.191
-571.675	-200.000	0.042	-0.452
-570.661	-9.877	0.356	0.239
-569.646	800.000	-0.017	-0.053
-568.631	141.993	-0.531	-0.711
-567.617	51.422	0.371	-0.356
-566.602	433.141	-0.086	0.188
-565.588	-11.927	-0.455	0.301
-564.573	84.463	0.150	-0.165
-563.558	-20.307	0.467	0.290
-562.544	-96.415	-0.535	0.143
-561.529	-138.461	0.542	-0.060
-560.515	-86.602	0.451	-0.140
-559.500	-140.279	0.402	0.042
-558.485	-144.886	-0.971	0.090
-557.471	800.000	0.044	-0.142
-556.456	664.290	-0.194	0.504
-555.442	62.537	0.077	0.078
-554.427	19.146	0.639	0.518
-553.412	-200.000	-0.044	0.279
-552.398	339.187	-0.390	0.767
-551.383	390.469	0.211	-0.441
-550.369	800.000	0.163	-0.528
-549.354	414.826	-0.367	0.788
-548.339	-142.298	0.358	0.036
-547.325	-127.577	-0.330	-0.048
-546.310	342.639	-0.207	-0.410
-545.296	9.251	0.260	-0.199
-544.281	632.417	0.261	-0.666
-543.266	-20.909	-0.257	-0.159
-542.252	15.381	-0.303	0.240
-541.237	-45.987	0.622	0.309
-540.223	242.451	0.068	-0.114
-539.208	-200.000	0.044	-0.484
-538.193	-101.716	-0.563	0.138
-537.179	552.343	0.182	0.440
-536.164	-45.439	0.539	-0.269
-535.150	-181.478	0.106	-0.002
-534.135	220.167	0.030	-0.048
-533.121	-107.549	-0.441	-0.097
-532.106	211.961	0.412	0.654
-531.091	-10.976	-0.244	0.162
-530.077	-59.928	-0.316	0.136
-529.062	-122.083	-0.353	0.058
-528.048	173.848	0.412	-0.600
-527.033	-78.889	0.368	-0.126
-526.018	-9.158	-0.174	0.117
-525.004	603.677	-0.082	0.205
-523.989	-155.832	-0.787	0.051
-522.975	14.610	-0.990	-0.779
-521.960	-45.378	0.732	-0.366
-520.945	-140.723	0.560	0.058
-519.931	120.499	-0.167	-0.209
-518.916	89.047	0.319	-0.358
-517.902	-1.776	0.746	-0.529
-516.887	-9.625	-0.654	-0.439
-515.872	540.655	-0.225	0.539
-514.858	334.169	0.406	0.791
-513.843	-1.127	0.602	0.429
-512.829	-143.321	-0.476	0.046
-511.814	78.217	0.372	-0.401
-510.799	493.661	-0.465	1.074
-509.785	107.432	0.377	-0.451
-508.770	748.312	-0.255	-0.693
-507.756	591.009	0.337	0.838
-506.741	-119.193	0.743	0.131
-505.726	367.502	-0.087	-0.177
-504.712	174.949	-0.191	-0.279
-503.697	42.021	0.154	-0.141
-502.683	-119.108	-0.031	-0.006
-501.668	800.000	-0.085	0.287
-500.653	-200.000	0.094	-0.863
-499.639	-111.102	0.549	0.113
-498.624	27.654	-0.887	-0.752
-497.610	-175.783	-0.311	-0.008
-496.595	-97.868	1.168	0.304
-495.581	800.000	0.177	0.735
-494.566	127.563	0.148	-0.189
-493.551	-29.688	0.650	0.374
-492.537	-200.000	0.044	-0.551
-491.522	-36.983	-0.079	0.043
-490.508	-40.153	-0.326	0.171
-489.493	-200.000	0.066	-0.712
-488.478	-200.000	-0.921	-0.001
-487.464	-200.000	-0.079	-0.363
-486.449	61.329	0.251	0.251
-485.435	-29.730	0.256	0.147
-484.420	341.151	0.139	0.274
-483.405	-200.000	0.029	0.292
-482.391	-90.414	0.075	0.022
-481.376	9.361	-0.906	-0.690
-480.362	117.171	0.296	-0.366
-479.347	705.702	-0.038	0.102
-478.332	251.572	-0.105	0.180
-477.318	336.298	-0.350	-0.684
-476.303	800.000	-0.197	-0.745
-475.289	-174.079	-0.323	-0.010
-474.274	-159.617	0.339	0.019
-473.259	800.000	-0.237	0.674
-472.245	-200.000	-0.048	0.805
-471.230	-200.000	0.020	-0.318
-470.216	800.000	0.118	0.464
-469.201	-55.046	0.775	0.351
-468.186	595.088	0.175	-0.436
-467.172	69.330	-0.195	-0.202
-466.157	24.364	0.258	-0.215
-465.143	-157.592	0.273	-0.016
-464.128	-200.000	0.230	0.000
-463.113	800.000	0.138	-0.408
-462.099	136.484	0.423	0.555
-461.084	76.102	-0.932	0.992
-460.070	-81.118	-0.224	0.074
-459.055	-136.416	-0.662	-0.077
-458.040	20.485	0.233	0.189
-457.026	344.188	-0.253	-0.499
-456.011	-200.000	0.056	-0.795
-454.997	96.795	0.238	0.274
-453.982	-138.123	-0.723	0.081
-452.968	372.478	-0.317	0.648
-451.953	-120.209	0.634	0.109
-450.938	68.165	0.583	-0.600
-449.924	-144.726	-0.246	-0.023
-448.909	22.704	0.435	-0.358
-447.895	-200.000	0.025	-0.136
-446.880	800.000	-0.329	1.170
-445.865	800.000	0.189	0.788
-444.851	-200.000	0.093	-0.669
-443.836	89.868	-0.263	0.295
-442.822	266.292	-0.261	0.458
-441.807	85.146	0.292	0.322
-440.792	-103.138	-0.131	0.031
-439.778	-200.000	0.008	-0.407
-438.763	-88.231	0.052	-0.016
-437.749	602.975	-0.176	-0.441
-436.734	163.621	0.310	-0.438
-435.719	69.628	0.353	0.365
-434.705	-48.754	-0.410	0.198
-433.690	-28.179	0.479	0.278
-432.676	-115.802	-0.291	-0.055
-431.661	-200.000	0.128	-0.603
-430.646	67.682	-0.404	-0.414
-429.632	35.354	-0.387	-0.341
-428.617	-14.863	-0.118	-0.076
-427.603	-112.974	0.312	0.062
-426.588	38.549	0.593	0.531
-425.573	779.159	0.298	0.819
-424.559	-74.987	0.158	0.057
-423.544	4.268	0.584	0.430
-422.530	-200.000	0.040	0.413
-421.515	13.438	-0.519	-0.404
-420.500	345.717	0.267	-0.526
-419.486	233.222	0.227	-0.376
-418.471	190.177	-0.284	-0.428
-417.457	-97.477	-0.518	0.135
-416.442	-24.189	-0.834	-0.500
-415.428	800.000	-0.240	1.010
-414.413	51.160	-0.356	0.339
-413.398	-35.885	-0.380	0.207
-412.384	553.362	0.222	-0.537
-411.369	-47.085	-0.178	-0.087
-410.355	-169.432	-0.714	0.026
-409.340	800.000	-0.078	0.325
-408.325	1.941	0.136	0.099
-407.311	338.036	-0.227	-0.443
-406.296	-129.290	0.451	0.063
-405.282	-97.451	-0.476	-0.124
-404.267	-200.000	0.140	1.048
-403.252	680.140	-0.123	0.321
-402.238	-42.486	-0.460	0.235
-401.223	-200.000	0.704	0.002
-400.209	-78.923	0.268	0.092
-399.194	-55.610	-0.748	-0.336
-398.179	800.000	-0.048	-0.145
-397.165	-101.046	0.295	0.073
-396.150	341.116	0.245	-0.480
-395.136	800.000	-0.033	0.108
-394.121	346.446	0.167	-0.329
-393.106	38.296	-0.085	0.076
-392.092	264.043	-0.369	0.644
-391.077	-85.533	0.137	0.043
-390.063	-200.000	-0.081	0.776
-389.048	353.555	0.016	0.032
-388.033	-44.989	0.472	0.236
-387.019	800.000	-0.079	0.299
-386.004	-167.717	0.105	0.004
-384.990	3.795	-0.524	-0.384
-383.975	26.870	-0.394	0.331
-382.960	-113.459	-0.370	0.073
-381.946	-23.038	0.330	0.200
-380.931	29.547	-0.165	0.141
-379.917	-126.742	0.750	-0.111
-378.902	11.993	-0.541	-0.417
-377.888	-124.479	0.184	-0.029
-376.873	232.789	0.540	0.890
-375.858	196.767	0.397	0.606
-374.844	-8.740	0.395	-0.266
-373.829	-179.772	0.173	-0.004
-372.815	-23.570	-0.402	0.242
-371.800	522.037	0.196	-0.461
-370.785	-128.024	-0.811	0.117
-369.771	800.000	-0.232	0.672
-368.756	800.000	-0.028	0.102
-367.742	363.971	-0.332	-0.669
-366.727	-200.000	0.032	0.240
-365.712	90.888	-0.303	0.340
-364.698	-145.203	0.619	0.056
-363.683	-88.225	-0.697	-0.209
-362.669	9.078	-0.365	0.276
-361.654	-200.000	0.004	0.693
-360.639	-60.752	-0.313	0.133
-359.625	-74.022	-0.100	-0.036
-358.610	126.781	0.229	-0.291
-357.596	-106.639	0.379	-0.084
-356.581	800.000	0.073	-0.282
-355.566	1.054	0.564	0.405
-354.552	504.606	-0.360	-0.835
-353.537	-200.000	0.136	-0.753
-352.523	-200.000	-0.114	-1.063
-351.508	-139.552	0.543	0.058
-350.493	268.886	-0.156	0.275
-349.479	59.445	0.320	0.316
-348.464	-200.000	0.081	0.543
-347.450	-5.621	0.429	-0.294
-346.435	298.556	-0.205	-0.377
-345.420	139.385	-0.349	0.459
-344.406	56.318	-0.428	0.417
-343.391	-200.000	-0.014	-0.078
-342.377	116.828	-0.369	-0.454
-341.362	200.741	0.069	0.107
-340.348	-37.190	0.603	-0.323
-339.333	130.655	-0.526	0.674
-338.318	248.061	0.016	0.027
-337.304	3.758	0.237	0.173
-336.289	-0.424	0.412	-0.293
-335.275	-158.517	-0.426	-0.025
-334.260	800.000	-0.037	0.132
-333.245	69.409	0.368	0.379
-332.231	-200.000	0.190	1.156
-331.216	800.000	-0.063	-0.241
-330.202	53.421	-0.306	0.294
-329.187	-171.135	-0.379	-0.013
-328.172	-200.000	0.178	-1.029
-327.158	326.083	-0.260	-0.497
-326.143	777.663	0.283	0.773
-325.129	-139.794	-0.456	-0.048
-324.114	-76.012	-0.705	-0.249
-323.099	-68.344	0.477	-0.185
-322.085	135.554	0.320	-0.417
-321.070	-123.303	0.371	0.059
-320.056	-170.335	0.157	-0.006
-319.041	53.462	-0.284	-0.272
-318.026	800.000	-0.123	-0.361
-317.012	469.694	0.050	0.112
-315.997	-200.000	-0.081	0.858
-314.983	186.133	0.047	-0.070
-313.968	334.780	-0.577	1.118
-312.953	325.818	-0.315	0.602
-311.939	426.790	-0.083	0.179
-310.924	800.000	0.046	-0.179
-309.910	-84.478	-0.438	0.138
-308.895	-129.309	0.753	0.105
-307.880	-124.737	-0.529	0.082
-306.866	34.654	0.517	-0.451
-305.851	800.000	-0.055	0.157
-304.837	457.863	0.249	0.553
-303.822	46.401	0.471	-0.436
-302.807	438.013	0.292	-0.636
-301.793	-139.459	-1.013	0.108
-300.778	-152.220	0.253	-0.018
-299.764	800.000	0.234	0.915
-298.749	65.359	0.585	0.591
-297.735	-75.825	0.712	0.252
-296.720	74.921	-0.447	0.470
-295.705	800.000	0.087	-0.244
-294.691	-73.572	0.758	0.276
-293.676	-200.000	-0.101	-0.676
-292.662	-70.722	0.821	0.310
-291.647	61.319	-0.336	-0.333
-290.632	-59.655	0.385	-0.165
-289.618	-67.921	0.150	-0.059
-288.603	-79.237	0.748	0.253
-287.589	800.000	-0.205	0.640
-286.574	304.095	-0.330	-0.612
-285.559	509.101	-0.173	-0.402
-284.545	-64.478	-0.386	0.157
-283.530	112.154	0.503	-0.608
-282.516	46.079	0.652	-0.603
-281.501	44.585	-0.568	0.521
-280.486	-200.000	0.067	-0.649
-279.472	-200.000	-0.067	-0.989
-278.457	-136.003	0.530	-0.062
-277.443	167.902	0.361	-0.512
-276.428	800.000	0.198	-0.755
-275.413	-33.310	-0.270	0.149
-274.399	282.402	-0.343	0.614
-273.384	567.095	0.191	-0.464
-272.370	-46.051	-0.193	-0.095
-271.355	0.193	1.140	0.812
-270.340	-171.841	-0.267	-0.009
-269.326	-34.733	-0.471	-0.257
-268.311	-138.997	-0.379	0.041
-267.297	568.812	-0.261	-0.634
-266.282	348.486	0.428	-0.843
-265.267	800.000	-0.132	0.459
-264.253	16.924	-0.803	0.634
-263.238	800.000	0.140	-0.545
-262.224	-67.540	-0.545	-0.213
-261.209	-115.924	0.689	0.128
-260.195	486.629	0.242	-0.550
-259.180	-4.799	-0.196	0.135
-258.165	-200.000	-0.030	-0.796
-257.151	82.658	0.535	0.580
-256.136	800.000	-0.230	0.886
-255.122	800.000	-0.226	0.687
-254.107	-109.445	-0.468	0.099
-253.092	-200.000	0.109	-0.483
-252.078	-125.640	-0.645	-0.097
-251.063	-159.641	0.143	0.008
-250.049	-76.588	-0.571	-0.200
-249.034	-156.103	1.098	-0.069
-248.019	198.465	0.143	-0.218
-247.005	747.412	-0.118	0.316
-245.990	-200.000	0.034	-0.876
-244.976	18.366	0.833	0.663
-243.961	159.159	-0.172	-0.239
-242.946	-200.000	-0.022	0.258
-241.932	-200.000	-0.054	0.770
-240.917	-93.710	-0.846	0.233
-239.903	411.194	0.260	0.550
-238.888	35.003	-0.439	0.383
-237.873	-70.092	-0.726	0.275
-236.859	-200.000	0.192	-0.903
-235.844	-200.000	-0.019	-0.718
-234.830	-35.220	0.452	0.245
-233.815	273.418	-0.486	-0.857
-232.800	26.520	-0.248	-0.207
-231.786	9.693	0.665	-0.503
-230.771	315.404	-0.395	-0.742
-229.757	-70.471	-1.074	0.405
-228.742	-114.691	-0.080	-0.015
-227.727	-200.000	0.072	-0.342
-226.713	800.000	0.172	-0.509
-225.698	-200.000	0.074	-0.617
-224.684	268.099	0.072	0.126
-223.669	483.077	-0.346	0.784
-222.655	-167.995	-0.324	-0.013
-221.640	27.433	-0.543	0.455
-220.625	-200.000	0.023	-0.457
-219.611	271.167	-0.270	0.473
-218.596	-200.000	0.062	0.334
-217.582	-200.000	-0.032	-0.245
-216.567	-132.166	-0.198	0.026
-215.552	196.954	0.169	0.257
-214.538	-79.050	-0.391	-0.132
-213.523	-34.951	-0.559	-0.304
-212.509	-24.395	0.146	-0.086
-211.494	280.955	0.259	0.461
-210.479	-18.022	0.504	-0.315
-209.465	-43.848	-0.127	0.063
-208.450	20.202	-0.167	-0.134
-207.436	-29.298	0.157	0.089
-206.421	214.055	0.333	-0.525
-205.406	-31.020	-0.325	0.183
-204.392	-4.001	-0.242	-0.167
-203.377	438.423	0.232	-0.504
-202.363	-168.948	0.716	0.027
-201.348	-200.000	-0.032	-0.672
-200.333	-92.177	-0.204	-0.057
-199.319	-59.022	-0.367	-0.158
-198.304	-32.834	0.443	0.245
-197.290	89.243	-0.273	0.303
-196.275	-81.526	0.673	-0.220
-195.260	-180.191	0.602	-0.013
-194.246	-9.608	-0.713	0.473
-193.231	331.885	0.186	0.357
-192.217	-100.972	0.659	0.161
-191.202	12.428	0.147	-0.113
-190.187	-63.314	-0.636	0.261
-189.173	9.034	0.840	-0.631
-188.158	-58.938	-0.628	0.270
-187.144	-9.259	0.593	-0.394
-186.129	-200.000	-0.005	0.154
-185.114	-47.443	-0.610	0.295
-184.100	-123.729	0.446	-0.070
-183.085	800.000	-0.119	0.379
-182.071	-68.408	-0.617	0.238
-181.056	53.423	-0.091	0.087
-180.042	425.074	0.224	0.480
-179.027	-200.000	0.032	0.907
-178.012	6.104	0.823	-0.606
-176.998	-51.320	0.051	0.024
-175.983	278.743	-0.158	-0.281
-174.969	18.151	-0.559	-0.443
-173.954	273.000	0.210	-0.369
-172.939	183.128	-0.582	-0.855
-171.925	-100.152	0.249	-0.062
-170.910	-81.324	-0.479	0.157
-169.896	-98.343	0.905	-0.231
-168.881	-101.319	-0.694	0.168
-167.866	-42.717	0.504	-0.255
-166.852	230.232	-0.178	-0.289
-165.837	800.000	0.144	-0.613
-164.823	732.718	0.096	0.255
-163.808	-137.293	0.637	0.072
-162.793	-41.112	-0.958	0.492
-161.779	-200.000	-0.053	-0.572
-160.764	-148.174	0.511	-0.042
-159.750	-200.000	-0.076	-0.372
-158.735	13.117	0.490	0.377
-157.720	-73.182	1.581	0.575
-156.706	766.089	0.145	-0.393
-155.691	-158.757	-0.080	0.005
-154.677	317.855	0.299	0.563
-153.662	-200.000	0.120	-0.770
-152.647	443.701	-0.041	-0.089
-151.633	-5.112	-0.153	-0.105
-150.618	-200.000	0.026	-0.588
-149.604	-200.000	0.021	0.103
-148.589	-110.090	1.373	-0.285
-147.574	588.657	0.126	0.309
-146.560	194.107	-0.325	-0.489
-145.545	107.119	0.445	0.526
-144.531	204.567	0.364	-0.561
-143.516	-46.638	-0.151	-0.073
-142.502	589.770	-0.191	0.469
-141.487	-56.432	0.470	0.207
-140.472	0.638	-0.232	0.165
-139.458	-15.134	0.197	-0.125
-138.443	99.671	0.168	-0.193
-137.429	800.000	0.129	0.470
-136.414	56.300	-1.069	1.031
-135.399	800.000	-0.290	0.849
-134.385	-200.000	-0.011	0.763
-133.370	157.383	-0.346	-0.476
-132.356	-18.477	-0.470	0.291
-131.341	800.000	-0.115	0.334
-130.326	-42.798	0.424	-0.214
-129.312	-182.892	0.961	0.017
-128.297	35.179	-0.748	0.651
-127.283	-103.989	0.383	-0.089
-126.268	-14.309	0.159	0.102
-125.253	-178.801	0.507	0.011
-124.239	-78.545	0.476	-0.162
-123.224	201.957	0.210	0.321
-122.210	-120.440	-0.066	-0.011
-121.195	88.688	0.247	0.273
-120.180	343.629	-0.047	0.091
