DTS Sentinel unit serial number:	SN413079Multiplexer serial number:	ORYXHardware model number:	OX4-SRSoftware version number:	ORYX F/W v4.00 Oryx Data Collector v3.7.2.0data status	okinstallation	princeton_trtdifferential loss correction	single-endedforward channel	channel 4reverse channel	N/Adate	2019/09/13time	12:05:35forward acquisition time	60.00reverse acquisition time	0.00gamma	496.2192k internal	0.2299k external	0.2299temperature offset calibration	1.0214default loss term (dB/km)	0.3790temperature slope calibration	1.0000multiplexer offset coefficient	1.0000multiplexer slope coefficient	1.0000fibre end	0.00T internal ref (°C)	33.73T ext. ref 1 (°C)	4.61T ext. ref 2 (°C)	31.31length (m)	temperature (°C)	Stokes	anti-Stokes-747.200	-59.899	-0.092	0.040
-746.185	-13.899	-0.174	0.115
-745.171	72.345	-0.252	0.268
-744.156	155.551	-0.175	0.246
-743.142	-200.000	0.018	0.097
-742.127	-123.037	-0.226	0.037
-741.112	-75.892	0.418	-0.151
-740.098	-200.000	0.115	0.582
-739.083	800.000	0.102	0.292
-738.069	-114.476	0.220	0.043
-737.054	663.642	0.083	-0.218
-736.039	-200.000	-0.044	0.246
-735.025	80.286	0.334	0.367
-734.010	800.000	-0.090	-0.400
-732.996	-46.204	0.116	-0.058
-731.981	-200.000	0.070	-0.330
-730.966	-134.937	0.015	-0.002
-729.952	-121.519	-0.155	-0.026
-728.937	-41.859	-0.199	-0.104
-727.923	79.832	-0.167	-0.183
-726.908	-200.000	-0.001	-0.215
-725.894	-14.644	0.410	-0.269
-724.879	177.815	0.059	0.088
-723.864	-69.108	-0.079	-0.031
-722.850	45.536	0.387	-0.365
-721.835	3.459	-0.293	-0.218
-720.821	-129.599	-0.263	-0.037
-719.806	44.889	-0.174	-0.164
-718.791	125.871	-0.049	-0.063
-717.777	137.792	0.092	0.123
-716.762	-61.423	-0.251	0.107
-715.748	95.983	0.351	-0.409
-714.733	-66.217	0.083	0.034
-713.718	667.017	0.086	-0.226
-712.704	-120.240	-0.464	-0.081
-711.689	599.376	-0.129	0.327
-710.675	-124.195	0.146	0.023
-709.660	-36.099	-0.170	-0.094
-708.645	-86.142	0.152	-0.048
-707.631	-200.000	0.016	-0.324
-706.616	-85.834	0.255	0.081
-705.602	800.000	-0.091	-0.264
-704.587	-178.688	0.118	-0.003
-703.572	-154.688	-0.270	-0.018
-702.558	-200.000	-0.010	-0.069
-701.543	800.000	-0.093	0.278
-700.529	179.175	0.134	0.199
-699.514	-22.393	-0.177	0.109
-698.499	178.481	0.073	-0.109
-697.485	74.957	0.080	0.086
-696.470	-108.755	-0.115	-0.025
-695.456	50.524	-0.034	-0.033
-694.441	-179.611	0.224	0.005
-693.426	-110.271	0.084	-0.018
-692.412	-200.000	-0.031	-0.166
-691.397	-200.000	-0.008	-0.130
-690.383	-6.222	-0.358	-0.249
-689.368	251.730	0.086	-0.149
-688.354	-106.218	0.100	-0.023
-687.339	676.382	0.117	0.308
-686.324	98.535	-0.171	-0.201
-685.310	-28.163	0.193	-0.114
-684.295	81.632	0.182	0.200
-683.281	-200.000	0.000	0.012
-682.266	63.255	-0.194	-0.198
-681.251	772.389	-0.031	-0.087
-680.237	209.132	0.076	-0.120
-679.222	-53.027	0.332	-0.155
-678.208	-69.398	-0.224	0.088
-677.193	260.910	-0.188	0.331
-676.178	-25.080	-0.226	-0.136
-675.164	-98.866	0.149	-0.039
-674.149	-99.860	-0.278	-0.071
-673.135	-21.464	-0.035	0.022
-672.120	175.727	0.216	0.319
-671.105	-200.000	-0.040	-0.218
-670.091	166.701	0.096	0.138
-669.076	36.213	-0.132	0.118
-668.062	-107.550	0.228	-0.051
-667.047	8.192	-0.236	0.181
-666.032	-64.528	0.006	0.003
-665.018	-46.197	0.229	0.115
-664.003	-50.585	-0.165	-0.079
-662.989	179.048	-0.050	-0.074
-661.974	-200.000	0.086	-0.394
-660.959	213.007	0.067	0.108
-659.945	-133.955	-0.271	0.034
-658.930	113.243	-0.192	0.236
-657.916	79.687	-0.106	-0.116
-656.901	-200.000	0.014	-0.284
-655.886	-163.692	0.150	0.007
-654.872	-32.099	0.201	0.114
-653.857	-200.000	-0.168	0.000
-652.843	4.780	-0.119	-0.089
-651.828	438.089	-0.138	-0.305
-650.814	362.450	-0.233	-0.475
-649.799	407.342	-0.141	0.302
-648.784	157.312	-0.138	0.194
-647.770	-6.917	0.175	-0.121
-646.755	-200.000	-0.010	-0.151
-645.741	294.264	-0.145	0.270
-644.726	12.852	0.341	-0.268
-643.711	199.716	0.114	-0.178
-642.697	-190.777	-0.183	-0.002
-641.682	800.000	0.059	0.171
-640.668	-147.149	-0.287	0.025
-639.653	14.773	0.214	-0.170
-638.638	-200.000	-0.005	-0.166
-637.624	-135.202	-0.426	0.052
-636.609	24.133	0.108	-0.090
-635.595	-125.470	-0.223	0.034
-634.580	-26.139	-0.163	-0.098
-633.565	-200.000	-0.069	-0.350
-632.551	-131.683	-0.514	0.069
-631.536	-157.613	-0.121	-0.007
-630.522	-92.754	-0.198	0.056
-629.507	-200.000	0.023	-0.275
-628.492	341.913	0.125	-0.249
-627.478	-200.000	-0.040	0.267
-626.463	37.777	0.020	-0.018
-625.449	-200.000	0.005	0.266
-624.434	-141.106	-0.171	0.018
-623.419	74.177	-0.075	-0.080
-622.405	-200.000	-0.010	0.169
-621.390	-171.413	0.095	-0.003
-620.376	-130.607	0.504	-0.069
-619.361	188.446	-0.120	0.183
-618.346	-200.000	0.065	0.337
-617.332	-106.775	0.166	-0.037
-616.317	800.000	-0.131	0.509
-615.303	-103.875	-0.425	-0.101
-614.288	-200.000	0.165	0.001
-613.273	289.698	0.117	0.216
-612.259	-82.934	0.267	0.087
-611.244	209.114	0.032	0.051
-610.230	-26.530	0.432	-0.257
-609.215	800.000	-0.064	-0.255
-608.201	-200.000	0.032	-0.356
-607.186	-107.077	0.100	0.022
-606.171	-135.729	0.335	0.040
-605.157	53.612	-0.053	-0.052
-604.142	578.737	-0.058	0.145
-603.128	-36.163	0.159	0.087
-602.113	2.397	0.303	0.222
-601.098	-150.842	-0.296	-0.023
-600.084	-200.000	0.055	-0.248
-599.069	147.241	0.070	0.095
-598.055	-200.000	0.006	-0.293
-597.040	800.000	0.077	-0.242
-596.025	800.000	-0.057	-0.249
-595.011	-200.000	0.080	-0.548
-593.996	-26.069	-0.283	-0.169
-592.982	-68.196	0.076	0.030
-591.967	335.364	0.046	-0.091
-590.952	800.000	0.100	0.341
-589.938	462.633	-0.043	-0.097
-588.923	-200.000	0.062	-0.000
-587.909	-200.000	-0.017	0.106
-586.894	173.277	-0.011	0.017
-585.879	-148.254	0.242	-0.020
-584.865	-77.451	-0.193	-0.068
-583.850	-200.000	-0.009	0.215
-582.836	-37.873	0.029	-0.015
-581.821	-84.311	0.062	-0.020
-580.806	-144.660	0.190	0.018
-579.792	-101.055	0.078	-0.019
-578.777	-200.000	-0.026	0.447
-577.763	-33.345	-0.181	-0.102
-576.748	-200.000	0.014	0.121
-575.733	-79.261	-0.117	-0.040
-574.719	-64.949	-0.306	-0.125
-573.704	-200.000	-0.013	0.510
-572.690	800.000	-0.046	0.135
-571.675	52.413	-0.215	-0.208
-570.661	-2.301	0.144	0.102
-569.646	56.233	0.245	0.242
-568.631	130.054	0.280	0.364
-567.617	-200.000	-0.000	-0.141
-566.602	-200.000	-0.029	0.133
-565.588	45.099	-0.102	-0.095
-564.573	-53.009	-0.233	-0.109
-563.558	-200.000	-0.006	0.334
-562.544	234.821	0.093	-0.156
-561.529	-31.299	0.144	-0.082
-560.515	201.029	0.181	-0.282
-559.500	-45.787	0.170	-0.085
-558.485	-86.239	-0.067	0.021
-557.471	144.262	0.221	-0.299
-556.456	228.083	-0.116	-0.191
-555.442	-200.000	-0.018	-0.280
-554.427	-121.706	0.393	-0.066
-553.412	-103.879	-0.052	0.012
-552.398	-80.827	0.138	0.046
-551.383	238.790	-0.147	0.247
-550.369	153.536	-0.277	-0.384
-549.354	128.532	0.131	-0.169
-548.339	-200.000	-0.044	-0.217
-547.325	-74.346	-0.072	-0.026
-546.310	272.652	-0.139	0.249
-545.296	-200.000	0.034	-0.188
-544.281	124.754	0.167	-0.213
-543.266	362.777	-0.163	0.332
-542.252	260.355	-0.090	-0.158
-541.237	108.909	-0.250	0.302
-540.223	74.695	-0.154	0.164
-539.208	-12.140	0.194	0.128
-538.193	-200.000	0.009	-0.602
-537.179	800.000	-0.110	-0.374
-536.164	370.922	-0.101	0.206
-535.150	-66.073	0.085	-0.034
-534.135	146.386	-0.102	0.139
-533.121	-68.467	-0.277	0.109
-532.106	-37.012	-0.092	-0.050
-531.091	80.830	-0.136	-0.148
-530.077	266.021	0.189	0.333
-529.062	111.874	-0.210	0.257
-528.048	-106.645	-0.297	0.067
-527.033	616.259	-0.150	-0.381
-526.018	-75.165	-0.372	-0.135
-525.004	800.000	0.041	-0.177
-523.989	-123.778	-0.361	-0.058
-522.975	-200.000	-0.009	0.073
-521.960	82.906	0.244	0.268
-520.945	2.257	-0.086	0.063
-519.931	-23.540	-0.307	0.186
-518.916	-85.282	0.095	-0.030
-517.902	-166.463	0.128	0.005
-516.887	73.469	-0.302	-0.319
-515.872	-200.000	-0.021	-0.285
-514.858	-200.000	-0.015	-0.268
-513.843	-94.419	-0.423	-0.117
-512.829	-154.830	0.074	-0.005
-511.814	9.401	0.024	-0.019
-510.799	-20.519	-0.194	0.121
-509.785	-74.540	0.043	0.016
-508.770	-102.311	0.054	0.013
-507.756	-3.085	-0.364	-0.257
-506.741	199.516	-0.138	-0.213
-505.726	273.891	0.094	-0.169
-504.712	152.398	0.034	-0.047
-503.697	800.000	0.037	-0.150
-502.683	-148.755	-0.258	0.021
-501.668	28.258	0.178	-0.152
-500.653	-153.571	-0.315	-0.022
-499.639	-149.275	0.446	-0.036
-498.624	-200.000	0.037	0.453
-497.610	800.000	-0.068	0.205
-496.595	-200.000	-0.002	0.389
-495.581	206.067	-0.096	-0.151
-494.566	-200.000	-0.008	0.138
-493.551	-65.033	0.158	-0.064
-492.537	-28.719	0.361	0.210
-491.522	281.516	-0.049	0.089
-490.508	-122.014	-0.269	-0.045
-489.493	-100.553	0.561	-0.140
-488.478	800.000	-0.097	0.280
-487.464	3.824	-0.135	0.100
-486.449	257.357	0.194	-0.337
-485.435	-16.507	0.236	0.151
-484.420	-200.000	-0.007	-0.099
-483.405	-1.303	-0.223	0.159
-482.391	-200.000	-0.033	0.252
-481.376	-108.917	0.110	0.024
-480.362	171.447	0.149	-0.216
-479.347	-71.222	0.185	-0.070
-478.332	-147.761	-0.435	0.037
-477.318	171.792	-0.126	0.183
-476.303	-32.129	-0.119	-0.067
-475.289	173.280	0.160	-0.233
-474.274	-40.436	0.091	-0.048
-473.259	-200.000	0.017	-0.087
-472.245	-200.000	-0.010	0.150
-471.230	22.599	-0.139	-0.115
-470.216	149.819	-0.170	0.233
-469.201	-200.000	-0.045	0.242
-468.186	-3.835	0.433	0.304
-467.172	-200.000	0.028	0.263
-466.157	-100.323	-0.203	-0.051
-465.143	-47.227	-0.133	-0.066
-464.128	-200.000	-0.058	0.401
-463.113	-130.025	0.514	0.071
-462.099	800.000	-0.171	0.655
-461.084	343.178	-0.103	-0.204
-460.070	-200.000	-0.007	-0.034
-459.055	800.000	-0.058	0.167
-458.040	542.622	0.056	-0.134
-457.026	456.474	-0.041	-0.093
-456.011	-200.000	-0.050	-0.278
-454.997	14.281	0.156	0.123
-453.982	496.864	0.013	0.031
-452.968	284.446	-0.096	0.174
-451.953	31.677	-0.163	-0.142
-450.938	8.893	-0.239	-0.182
-449.924	-136.688	-0.244	-0.028
-448.909	558.660	-0.023	0.056
-447.895	-200.000	0.016	-0.298
-446.880	-35.858	-0.249	-0.136
-445.865	-159.366	-0.544	0.031
-444.851	197.625	-0.047	-0.073
-443.836	256.025	0.218	0.378
-442.822	800.000	-0.092	0.297
-441.807	800.000	-0.072	0.244
-440.792	87.390	0.202	0.225
-439.778	-21.391	-0.178	0.110
-438.763	161.258	-0.142	-0.200
-437.749	-144.509	0.129	-0.012
-436.734	532.459	-0.124	0.295
-435.719	596.006	0.045	0.111
-434.705	-200.000	-0.020	0.185
-433.690	62.906	-0.110	-0.111
-432.676	-200.000	0.047	-0.299
-431.661	-72.623	-0.200	-0.075
-430.646	-147.547	0.225	-0.019
-429.632	800.000	0.108	-0.310
-428.617	-18.086	0.142	0.090
-427.603	162.175	0.023	0.033
-426.588	-59.836	-0.088	0.038
-425.573	320.772	0.134	0.258
-424.559	709.336	0.048	0.127
-423.544	-93.020	0.295	-0.083
-422.530	-200.000	-0.041	-0.442
-421.515	-162.211	-0.299	0.015
-420.500	-45.621	-0.058	0.029
-419.486	-200.000	0.055	-0.328
-418.471	130.990	0.121	0.157
-417.457	52.430	0.128	-0.123
-416.442	-54.691	0.503	0.229
-415.428	-134.594	0.192	0.024
-414.413	-200.000	0.001	-0.129
-413.398	66.783	0.099	-0.102
-412.384	-38.287	0.183	0.097
-411.369	11.673	0.237	0.183
-410.355	-177.927	-0.360	0.009
-409.340	800.000	0.043	0.136
-408.325	44.663	0.218	-0.202
-407.311	766.708	-0.074	0.202
-406.296	-200.000	-0.023	0.150
-405.282	-55.937	0.446	-0.200
-404.267	180.303	-0.168	0.248
-403.252	-124.829	0.211	0.033
-402.238	1.262	0.365	-0.264
-401.223	-149.582	0.269	-0.021
-400.209	552.066	-0.077	-0.186
-399.194	800.000	-0.075	-0.262
-398.179	800.000	0.055	-0.156
-397.165	101.285	0.302	-0.355
-396.150	-126.604	-0.096	0.014
-395.136	-50.606	-0.233	0.110
-394.121	-67.142	-0.359	-0.143
-393.106	-21.544	0.033	0.020
-392.092	220.145	-0.120	0.194
-391.077	-137.767	-0.340	0.038
-390.063	-141.573	-0.176	-0.018
-389.048	-140.508	-0.017	0.002
-388.033	-2.197	-0.121	-0.085
-387.019	439.307	0.147	0.324
-386.004	74.717	0.081	0.086
-384.990	19.023	0.229	0.184
-383.975	-47.571	0.146	0.071
-382.960	14.465	0.197	0.155
-381.946	176.039	0.223	0.326
-380.931	196.628	-0.174	0.267
-379.917	-151.386	0.243	-0.018
-378.902	-30.456	-0.065	0.037
-377.888	-163.144	0.357	-0.017
-376.873	-57.038	0.250	-0.111
-375.858	-171.713	-0.074	0.002
-374.844	39.907	-0.039	-0.035
-373.829	-174.345	-0.315	-0.009
-372.815	173.230	-0.143	-0.207
-371.800	-71.926	0.317	0.119
-370.785	-200.000	0.002	0.072
-369.771	-121.941	-0.248	0.041
-368.756	800.000	0.017	-0.067
-367.742	277.284	0.152	-0.272
-366.727	800.000	-0.052	0.150
-365.712	394.782	0.110	-0.231
-364.698	-110.808	0.515	0.107
-363.683	-3.453	-0.008	-0.005
-362.669	-67.472	-0.093	0.037
-361.654	-37.024	-0.177	0.095
-360.639	590.909	0.091	-0.226
-359.625	800.000	-0.084	-0.312
-358.610	102.014	0.122	-0.144
-357.596	-149.343	0.149	-0.012
-356.581	32.576	0.212	-0.184
-355.566	-200.000	-0.023	-0.109
-354.552	-92.747	-0.197	0.055
-353.537	237.084	-0.160	0.267
-352.523	-33.043	0.204	-0.114
-351.508	731.185	0.010	0.028
-350.493	162.488	-0.134	0.189
-349.479	800.000	0.066	-0.198
-348.464	-49.892	0.060	-0.029
-347.450	300.330	-0.162	0.300
-346.435	-133.608	0.191	0.024
-345.420	-200.000	-0.033	0.000
-344.406	-116.874	0.210	-0.039
-343.391	49.023	-0.111	0.105
-342.377	-29.827	0.072	0.042
-341.362	492.487	-0.185	0.426
-340.348	-64.571	0.184	-0.075
-339.333	-43.181	-0.404	-0.205
-338.318	-176.374	-0.121	-0.003
-337.304	110.842	-0.068	0.082
-336.289	-122.581	0.064	-0.010
-335.275	-77.140	0.199	0.070
-334.260	-106.862	-0.310	0.069
-333.245	316.430	-0.135	-0.256
-332.231	702.950	-0.049	0.130
-331.216	800.000	-0.076	0.213
-330.202	-64.917	-0.120	0.049
-329.187	-125.660	0.224	-0.034
-328.172	-200.000	-0.025	-0.170
-327.158	100.090	-0.201	-0.235
-326.143	63.332	-0.172	-0.173
-325.129	575.388	-0.046	-0.112
-324.114	-108.171	0.160	-0.035
-323.099	-127.190	-0.240	0.035
-322.085	11.950	-0.197	0.152
-321.070	32.834	-0.251	-0.219
-320.056	-99.475	-0.117	0.029
-319.041	-25.471	0.100	-0.060
-318.026	113.290	-0.174	0.212
-317.012	-57.772	-0.037	0.016
-315.997	150.454	-0.159	0.216
-314.983	-79.943	-0.044	0.015
-313.968	-77.721	0.143	0.050
-312.953	800.000	0.061	-0.186
-311.939	7.493	0.109	0.081
-310.924	-111.176	-0.089	-0.018
-309.910	-61.311	-0.175	-0.074
-308.895	281.324	-0.143	-0.257
-307.880	-50.506	-0.159	0.075
-306.866	419.534	-0.080	0.172
-305.851	174.386	-0.152	0.220
-304.837	-62.249	0.183	0.076
-303.822	-200.000	0.020	-0.277
-302.807	-161.718	0.274	0.014
-301.793	150.448	0.129	-0.175
-300.778	-200.000	-0.033	0.346
-299.764	-200.000	-0.024	-0.123
-298.749	419.352	-0.024	0.052
-297.735	-200.000	0.035	-0.303
-296.720	-104.838	-0.186	0.043
-295.705	-26.177	-0.333	0.196
-294.691	-83.083	-0.196	0.063
-293.676	800.000	-0.048	-0.167
-292.662	186.631	0.140	-0.208
-291.647	58.266	0.234	-0.230
-290.632	-46.782	-0.226	-0.111
-289.618	-131.469	-0.124	-0.016
-288.603	33.642	0.153	-0.133
-287.589	254.279	0.120	-0.205
-286.574	-93.001	-0.368	-0.103
-285.559	800.000	0.106	0.317
-284.545	382.900	-0.147	-0.304
-283.530	-69.918	-0.227	0.087
-282.516	54.293	-0.060	-0.058
-281.501	-200.000	0.041	0.285
-280.486	-81.100	0.340	0.113
-279.472	-200.000	-0.036	-0.206
-278.457	-46.816	0.045	-0.022
-277.443	320.899	0.025	0.047
-276.428	244.894	0.045	-0.075
-275.413	-200.000	-0.012	-0.140
-274.399	-200.000	0.027	0.183
-273.384	-142.827	-0.267	0.026
-272.370	-160.133	0.253	-0.014
-271.355	-148.092	0.278	0.023
-270.340	-182.786	0.472	-0.009
-269.326	5.191	-0.375	0.277
-268.311	-4.772	0.182	0.126
-267.297	307.664	0.055	0.103
-266.282	96.101	0.059	-0.067
-265.267	-192.271	-0.208	-0.002
-264.253	-200.000	-0.007	-0.207
-263.238	-200.000	-0.050	-0.389
-262.224	-107.564	-0.386	-0.085
-261.209	347.809	-0.103	0.204
-260.195	789.855	0.076	-0.209
-259.180	389.432	-0.094	0.195
-258.165	-57.178	-0.140	-0.062
-257.151	52.183	0.085	-0.081
-256.136	360.542	0.160	0.320
-255.122	109.374	-0.287	0.344
-254.107	-200.000	-0.027	0.178
-253.092	-176.037	0.037	0.001
-252.078	-81.319	0.236	-0.078
-251.063	-99.469	0.231	-0.058
-250.049	141.174	0.108	0.143
-249.034	-27.133	0.192	0.112
-248.019	-38.795	0.291	-0.154
-247.005	800.000	0.041	-0.162
-245.990	-71.382	0.393	-0.147
-244.976	-50.894	-0.145	0.068
-243.961	-200.000	-0.053	-0.331
-242.946	207.383	-0.044	0.069
-241.932	-87.872	0.061	0.018
-240.917	50.390	-0.113	-0.107
-239.903	55.830	0.216	-0.209
-238.888	-10.796	-0.050	-0.033
-237.873	-150.191	0.074	-0.006
-236.859	-69.239	0.115	-0.044
-235.844	-200.000	-0.026	0.430
-234.830	-169.233	0.270	-0.010
-233.815	-200.000	-0.033	-0.221
-232.800	-40.154	-0.216	-0.112
-231.786	93.306	-0.133	0.150
-230.771	-77.973	0.262	0.090
-229.757	800.000	0.142	-0.446
-228.742	78.322	0.146	-0.156
-227.727	-95.372	-0.183	0.049
-226.713	116.482	-0.130	0.159
-225.698	505.632	0.145	-0.336
-224.684	18.534	0.198	-0.159
-223.669	289.703	0.070	-0.127
-222.655	-73.756	0.453	-0.165
-221.640	374.659	-0.064	0.130
-220.625	307.652	-0.205	0.382
-219.611	-200.000	-0.024	-0.200
-218.596	59.892	0.082	-0.081
-217.582	25.419	-0.091	0.076
-216.567	-200.000	0.045	0.386
-215.552	328.281	0.218	0.419
-214.538	-166.891	-0.261	-0.011
-213.523	-163.431	-0.291	0.014
-212.509	86.067	0.217	0.238
-211.494	136.850	-0.067	-0.087
-210.479	-24.511	-0.150	0.089
-209.465	206.547	-0.140	0.218
-208.450	57.880	0.162	-0.158
-207.436	62.277	0.373	0.372
-206.421	-100.661	0.119	-0.029
-205.406	171.182	0.129	0.185
-204.392	-73.663	0.325	-0.118
-203.377	-200.000	-0.022	0.304
-202.363	-200.000	-0.305	-0.001
-201.348	-12.760	0.142	0.093
-200.333	-200.000	-0.055	-0.331
-199.319	10.584	-0.181	0.138
-198.304	-176.620	0.216	-0.006
-197.290	-92.075	-0.267	-0.075
-196.275	-200.000	0.000	0.073
-195.260	12.098	-0.072	-0.055
-194.246	-200.000	0.088	-0.457
-193.231	218.887	-0.086	-0.137
-192.217	-58.916	0.088	0.038
-191.202	160.136	-0.045	0.063
-190.187	20.523	-0.211	-0.170
-189.173	110.109	-0.097	-0.116
-188.158	800.000	0.049	-0.143
-187.144	273.061	0.105	0.185
-186.129	-94.375	-0.044	-0.012
-185.114	800.000	-0.067	0.205
-184.100	-40.374	-0.215	-0.112
-183.085	-47.270	0.109	0.053
-182.071	-125.726	0.031	-0.005
-181.056	526.674	-0.156	-0.367
-180.042	-163.496	0.459	0.022
-179.027	166.659	-0.103	-0.146
-178.012	-117.687	-0.147	0.026
-176.998	-94.678	0.273	-0.074
-175.983	-200.000	-0.044	-0.341
-174.969	-81.602	0.220	-0.072
-173.954	19.357	0.196	0.157
-172.939	10.757	0.077	-0.059
-171.925	709.827	-0.008	-0.020
-170.910	-17.948	0.091	0.057
-169.896	-54.616	-0.280	0.126
-168.881	800.000	-0.059	0.208
-167.866	491.921	0.026	-0.060
-166.852	-200.000	0.011	-0.168
-165.837	-34.845	0.172	-0.094
-164.823	-152.750	0.394	0.028
-163.808	-200.000	-0.031	-0.163
-162.793	62.888	0.233	0.233
-161.779	-200.000	-0.010	0.065
-160.764	-200.000	0.034	-0.309
-159.750	55.299	-0.260	0.251
-158.735	-200.000	-0.083	0.404
-157.720	-30.745	0.059	-0.033
-156.706	800.000	-0.027	0.114
-155.691	-32.546	0.199	0.111
-154.677	67.225	-0.172	0.174
-153.662	444.306	0.064	-0.141
-152.647	-200.000	0.065	0.300
-151.633	-108.672	0.062	0.013
-150.618	97.872	0.170	-0.195
-149.604	800.000	0.103	0.422
-148.589	25.475	0.091	0.075
-147.574	252.504	-0.119	-0.201
-146.560	23.040	0.477	-0.390
-145.545	800.000	-0.032	0.094
-144.531	-131.322	-0.278	-0.037
-143.516	31.899	-0.133	0.114
-142.502	-179.551	-0.337	0.007
-141.487	98.218	0.190	0.218
-140.472	190.672	0.182	0.272
-139.458	246.939	0.007	0.013
-138.443	800.000	-0.161	0.450
-137.429	-96.814	-0.275	-0.072
-136.414	0.928	0.192	0.137
-135.399	31.582	0.198	-0.170
-134.385	-200.000	0.057	-0.385
-133.370	339.821	-0.042	-0.081
-132.356	-200.000	0.035	0.198
-131.341	83.965	-0.133	-0.145
-130.326	113.060	-0.067	0.082
-129.312	18.897	0.048	0.038
-128.297	-67.241	0.473	-0.185
-127.283	800.000	0.090	0.323
-126.268	-89.977	0.174	-0.051
-125.253	-148.729	-0.246	-0.020
-124.239	257.910	0.087	0.149
-123.224	800.000	-0.033	-0.119
