DTS Sentinel unit serial number:	SN413079Multiplexer serial number:	ORYXHardware model number:	OX4-SRSoftware version number:	ORYX F/W v4.00 Oryx Data Collector v3.7.2.0data status	okinstallation	princeton_trtdifferential loss correction	single-endedforward channel	channel 4reverse channel	N/Adate	2019/09/12time	15:03:11forward acquisition time	60.00reverse acquisition time	0.00gamma	496.2192k internal	0.2289k external	0.2289temperature offset calibration	1.0093default loss term (dB/km)	0.3790temperature slope calibration	1.0000multiplexer offset coefficient	1.0000multiplexer slope coefficient	1.0000fibre end	0.00T internal ref (°C)	40.44T ext. ref 1 (°C)	2.35T ext. ref 2 (°C)	37.12length (m)	temperature (°C)	Stokes	anti-Stokes-747.200	239.352	-0.071	0.121
-746.185	256.662	-0.077	-0.135
-745.171	44.550	0.168	0.158
-744.156	-200.000	0.014	0.385
-743.142	45.175	-0.355	-0.335
-742.127	-72.583	-0.134	0.051
-741.112	14.903	0.222	-0.178
-740.098	172.885	0.102	-0.151
-739.083	244.447	-0.113	0.194
-738.069	-200.000	0.090	0.513
-737.054	800.000	0.056	-0.164
-736.039	-53.640	-0.422	-0.198
-735.025	581.590	0.082	-0.206
-734.010	-139.530	0.251	-0.027
-732.996	-71.781	-0.391	-0.149
-731.981	-200.000	0.017	0.094
-730.966	-62.298	-0.198	-0.084
-729.952	-200.000	0.003	-0.201
-728.937	-200.000	-0.002	-0.307
-727.923	800.000	-0.074	-0.269
-726.908	800.000	-0.204	-0.601
-725.894	-145.032	-0.031	-0.003
-724.879	285.173	0.147	-0.270
-723.864	-67.542	0.296	0.119
-722.850	411.419	-0.092	-0.199
-721.835	-110.619	-0.351	-0.074
-720.821	-136.301	0.156	0.019
-719.806	3.958	0.343	0.257
-718.791	463.557	-0.124	-0.284
-717.777	122.379	-0.250	-0.320
-716.762	259.208	0.029	0.051
-715.748	-4.022	-0.034	0.024
-714.733	-12.120	0.083	-0.055
-713.718	-94.151	0.408	0.114
-712.704	-130.015	0.218	0.030
-711.689	-40.266	0.407	0.217
-710.675	-132.855	0.192	0.025
-709.660	-29.670	0.236	-0.138
-708.645	-200.000	0.014	-0.364
-707.631	-110.347	-0.061	0.013
-706.616	-137.880	0.336	0.038
-705.602	800.000	0.038	0.142
-704.587	84.060	-0.114	0.128
-703.572	214.469	-0.065	-0.105
-702.558	-145.180	0.111	-0.010
-701.543	-135.900	0.167	0.020
-700.529	800.000	-0.084	-0.354
-699.514	52.443	-0.160	-0.156
-698.499	84.550	0.140	-0.157
-697.485	-191.982	0.260	-0.003
-696.470	-200.000	0.013	0.191
-695.456	-90.847	-0.569	-0.168
-694.441	-42.177	0.367	0.192
-693.426	-178.531	0.142	0.003
-692.412	-200.000	0.091	-0.444
-691.397	-36.034	-0.252	0.139
-690.383	34.696	0.164	0.146
-689.368	-66.316	-0.076	0.031
-688.354	283.181	0.119	-0.218
-687.339	-76.978	0.031	-0.011
-686.324	144.792	0.165	0.226
-685.310	86.914	0.118	-0.133
-684.295	-139.029	-0.134	0.015
-683.281	800.000	0.058	-0.252
-682.266	192.488	0.214	-0.330
-681.251	-200.000	-0.013	-0.063
-680.237	-58.660	-0.208	-0.092
-679.222	800.000	-0.030	0.132
-678.208	-118.841	0.185	-0.033
-677.193	65.022	0.196	-0.202
-676.178	647.851	-0.049	-0.128
-675.164	-85.486	-0.028	-0.009
-674.149	398.149	0.059	-0.126
-673.135	33.502	-0.167	0.148
-672.120	90.257	0.207	0.237
-671.105	42.983	-0.135	0.126
-670.091	-200.000	0.031	-0.327
-669.076	-200.000	-0.001	-0.122
-668.062	88.188	-0.032	0.036
-667.047	-32.085	0.097	-0.055
-666.032	525.511	-0.137	-0.330
-665.018	364.720	0.070	-0.145
-664.003	587.405	-0.053	-0.133
-662.989	373.700	0.220	0.458
-661.974	-89.134	0.235	0.071
-660.959	23.912	-0.221	0.186
-659.945	68.862	-0.163	0.171
-658.930	-200.000	-0.018	0.220
-657.916	-120.286	-0.210	0.037
-656.901	644.471	0.055	0.143
-655.886	3.053	0.160	0.119
-654.872	155.113	-0.217	-0.304
-653.857	640.112	0.048	-0.125
-652.843	-149.693	0.029	0.002
-651.828	-61.574	0.364	-0.156
-650.814	126.719	-0.161	-0.209
-649.799	-144.605	0.326	-0.031
-648.784	-200.000	0.029	0.266
-647.770	-200.000	-0.022	0.115
-646.755	800.000	-0.061	0.202
-645.741	129.399	-0.071	-0.093
-644.726	459.103	-0.094	-0.214
-643.711	-200.000	-0.019	-0.113
-642.697	-69.677	0.140	0.055
-641.682	-200.000	0.070	0.411
-640.668	800.000	0.064	-0.284
-639.653	-200.000	0.008	0.380
-638.638	-138.010	-0.276	-0.031
-637.624	254.561	0.066	0.116
-636.609	-116.910	0.304	-0.057
-635.595	800.000	-0.071	-0.260
-634.580	244.916	-0.212	-0.364
-633.565	-200.000	0.018	-0.082
-632.551	42.180	0.111	0.103
-631.536	251.902	-0.119	-0.207
-630.522	800.000	0.090	0.389
-629.507	-200.000	-0.024	0.110
-628.492	-200.000	-0.066	-0.390
-627.478	310.293	-0.174	-0.332
-626.463	-200.000	-0.000	-0.034
-625.449	741.193	0.081	-0.222
-624.434	-121.811	0.251	0.042
-623.419	322.238	-0.162	0.314
-622.405	143.617	0.131	0.178
-621.390	217.163	0.094	0.153
-620.376	-161.312	-0.049	-0.003
-619.361	3.421	-0.177	0.131
-618.346	-200.000	-0.031	0.267
-617.332	35.918	0.045	0.040
-616.317	-81.194	-0.225	0.076
-615.303	-200.000	-0.002	0.262
-614.288	124.294	0.045	-0.058
-613.273	288.751	0.021	-0.038
-612.259	-84.660	0.140	0.045
-611.244	8.431	-0.437	-0.335
-610.230	20.230	0.212	-0.175
-609.215	-200.000	0.010	0.105
-608.201	-200.000	0.021	0.269
-607.186	412.563	-0.041	-0.089
-606.171	-200.000	-0.025	-0.144
-605.157	-26.477	-0.098	-0.058
-604.142	-200.000	-0.017	-0.351
-603.128	800.000	-0.051	-0.224
-602.113	-107.406	-0.067	-0.015
-601.098	131.296	-0.140	-0.184
-600.084	-30.069	0.069	-0.040
-599.069	800.000	-0.071	0.244
-598.055	115.625	0.074	0.093
-597.040	69.707	0.086	0.090
-596.025	-96.917	-0.446	-0.119
-595.011	449.481	-0.070	-0.157
-593.996	127.658	0.051	-0.066
-592.982	-100.324	-0.217	-0.055
-591.967	-85.432	0.150	-0.048
-590.952	249.614	0.267	0.462
-589.938	-152.498	0.165	-0.012
-588.923	-200.000	-0.006	-0.211
-587.909	-200.000	0.004	-0.260
-586.894	681.633	0.104	-0.275
-585.879	-142.165	0.277	0.028
-584.865	-167.040	0.080	0.003
-583.850	51.689	-0.190	0.184
-582.836	-99.348	-0.164	0.042
-581.821	253.436	0.029	0.050
-580.806	25.946	-0.330	0.280
-579.792	-100.890	0.145	-0.036
-578.777	-86.472	-0.305	0.095
-577.763	800.000	-0.068	-0.304
-576.748	161.553	-0.248	-0.353
-575.733	120.770	-0.023	-0.029
-574.719	170.581	-0.095	-0.139
-573.704	-54.653	-0.073	-0.034
-572.690	224.966	0.145	-0.240
-571.675	-200.000	0.004	-0.167
-570.661	16.641	0.143	-0.115
-569.646	-200.000	-0.028	0.168
-568.631	6.730	0.076	-0.057
-567.617	-200.000	-0.007	0.136
-566.602	206.193	-0.249	0.394
-565.588	-149.714	0.097	-0.008
-564.573	447.147	0.106	0.238
-563.558	-200.000	0.013	-0.228
-562.544	-53.426	-0.320	-0.149
-561.529	-69.674	-0.198	0.077
-560.515	-37.175	0.401	0.218
-559.500	211.393	-0.107	-0.172
-558.485	-60.187	0.098	-0.042
-557.471	-200.000	0.023	0.410
-556.456	-200.000	0.039	-0.178
-555.442	-43.423	0.279	0.143
-554.427	-200.000	0.028	-0.261
-553.412	0.116	-0.134	-0.097
-552.398	-73.710	0.085	-0.031
-551.383	-22.116	-0.258	0.160
-550.369	-200.000	0.003	0.184
-549.354	501.280	0.013	0.030
-548.339	-161.996	0.016	0.001
-547.325	-200.000	-0.014	-0.251
-546.310	-200.000	0.003	-0.207
-545.296	-92.633	0.197	-0.056
-544.281	60.938	-0.097	-0.098
-543.266	800.000	0.019	-0.066
-542.252	-116.350	0.290	0.055
-541.237	-200.000	0.002	0.137
-540.223	-39.997	0.204	0.108
-539.208	37.227	0.138	-0.125
-538.193	531.460	-0.261	0.629
-537.179	-80.134	0.051	0.017
-536.164	-78.238	-0.167	-0.058
-535.150	-200.000	0.039	-0.453
-534.135	25.698	0.260	-0.220
-533.121	475.424	0.030	0.069
-532.106	-102.515	0.097	-0.024
-531.091	800.000	-0.061	-0.240
-530.077	-153.083	-0.072	-0.005
-529.062	233.519	-0.031	-0.051
-528.048	-11.709	0.142	-0.095
-527.033	-36.852	0.132	-0.072
-526.018	2.343	0.270	0.198
-525.004	704.858	0.147	-0.394
-523.989	-192.537	-0.180	0.002
-522.975	272.760	-0.041	0.073
-521.960	-67.097	0.396	0.159
-520.945	8.206	0.219	0.167
-519.931	14.075	-0.229	-0.181
-518.916	-200.000	-0.018	0.087
-517.902	-16.588	-0.063	-0.041
-516.887	109.667	-0.243	-0.296
-515.872	-23.321	0.070	0.043
-514.858	800.000	0.077	0.267
-513.843	-181.665	0.162	0.003
-512.829	25.790	0.093	-0.079
-511.814	55.018	0.249	0.245
-510.799	800.000	0.097	0.339
-509.785	366.050	0.162	-0.332
-508.770	49.919	0.136	0.130
-507.756	-0.918	-0.243	-0.175
-506.741	168.296	0.104	-0.151
-505.726	38.116	0.160	0.144
-504.712	361.427	-0.009	0.019
-503.697	-4.698	0.179	0.125
-502.683	-200.000	-0.011	0.050
-501.668	-71.100	0.226	0.086
-500.653	-114.478	-0.288	0.056
-499.639	458.299	-0.115	-0.261
-498.624	465.404	-0.015	0.035
-497.610	109.874	-0.151	-0.184
-496.595	800.000	-0.046	0.151
-495.581	516.836	-0.185	0.439
-494.566	-86.009	-0.148	0.046
-493.551	93.853	-0.037	-0.043
-492.537	-172.536	-0.127	-0.004
-491.522	-200.000	0.014	-0.191
-490.508	-197.686	0.129	-0.001
-489.493	-198.766	-0.330	-0.002
-488.478	-161.366	0.146	0.008
-487.464	68.635	0.037	0.038
-486.449	69.805	0.238	-0.249
-485.435	-102.986	0.124	-0.030
-484.420	143.595	0.035	-0.048
-483.405	-91.564	-0.154	0.044
-482.391	-200.000	0.013	-0.258
-481.376	-100.816	-0.094	0.023
-480.362	102.335	-0.040	-0.047
-479.347	302.742	0.172	0.324
-478.332	-89.122	0.163	0.049
-477.318	-200.000	0.078	0.624
-476.303	50.935	0.240	-0.231
-475.289	800.000	-0.010	0.035
-474.274	586.463	0.096	-0.239
-473.259	95.592	-0.111	0.129
-472.245	707.881	0.006	0.016
-471.230	-91.811	-0.381	0.110
-470.216	-1.041	0.063	0.045
-469.201	659.174	0.152	0.395
-468.186	305.712	0.227	-0.429
-467.172	800.000	-0.053	-0.188
-466.157	-200.000	-0.001	0.131
-465.143	145.626	0.110	-0.149
-464.128	124.275	0.038	0.048
-463.113	109.213	-0.089	-0.108
-462.099	-200.000	0.010	0.073
-461.084	122.242	-0.087	-0.110
-460.070	-95.301	0.456	0.124
-459.055	-35.817	-0.242	0.133
-458.040	-200.000	-0.008	0.058
-457.026	-200.000	0.049	-0.307
-456.011	-50.245	0.140	0.067
-454.997	800.000	0.053	-0.199
-453.982	84.309	-0.103	-0.114
-452.968	-5.769	0.306	0.212
-451.953	118.932	-0.063	-0.078
-450.938	108.254	0.064	-0.077
-449.924	-93.153	0.005	-0.001
-448.909	388.615	0.084	0.175
-447.895	-102.059	-0.173	0.042
-446.880	-191.957	0.353	0.003
-445.865	-41.577	-0.179	-0.093
-444.851	-95.646	-0.101	-0.027
-443.836	-24.221	-0.069	-0.042
-442.822	-195.725	0.131	0.001
-441.807	-83.236	0.196	0.064
-440.792	-13.719	0.293	-0.192
-439.778	800.000	-0.033	0.093
-438.763	281.067	-0.004	-0.007
-437.749	-1.391	-0.159	-0.114
-436.734	-87.283	-0.226	-0.070
-435.719	582.524	-0.085	-0.211
-434.705	159.551	-0.168	-0.236
-433.690	-122.582	-0.224	0.037
-432.676	145.554	-0.090	0.122
-431.661	82.472	0.191	0.209
-430.646	-166.317	0.252	0.011
-429.632	54.434	-0.158	-0.154
-428.617	-200.000	-0.076	-0.410
-427.603	53.574	-0.105	-0.102
-426.588	83.096	0.164	0.180
-425.573	383.738	0.156	0.325
-424.559	40.416	-0.077	-0.070
-423.544	-29.654	-0.246	-0.142
-422.530	-142.864	0.142	-0.014
-421.515	103.415	0.230	-0.274
-420.500	585.761	-0.111	-0.276
-419.486	800.000	-0.027	0.109
-418.471	-176.157	0.181	-0.005
-417.457	-116.684	-0.249	-0.046
-416.442	135.265	-0.047	-0.062
-415.428	-200.000	-0.074	-0.386
-414.413	-83.951	-0.234	0.075
-413.398	185.490	0.098	0.147
-412.384	-200.000	0.006	0.151
-411.369	275.899	-0.101	-0.181
-410.355	-200.000	0.054	-0.287
-409.340	-200.000	0.058	-0.260
-408.325	-31.618	0.238	0.135
-407.311	-200.000	0.005	-0.206
-406.296	-200.000	0.027	-0.371
-405.282	115.232	0.176	-0.217
-404.267	800.000	-0.054	-0.167
-403.252	-97.484	0.101	0.027
-402.238	176.380	-0.109	-0.160
-401.223	-151.212	0.389	0.029
-400.209	205.569	-0.099	-0.155
-399.194	-200.000	-0.183	0.000
-398.179	-170.539	-0.107	0.004
-397.165	152.237	0.164	0.227
-396.150	511.672	0.101	-0.237
-395.136	-127.264	0.399	0.059
-394.121	96.775	-0.292	0.338
-393.106	228.083	-0.207	0.340
-392.092	78.637	0.086	0.093
-391.077	196.595	0.281	0.433
-390.063	-103.162	-0.223	0.053
-389.048	70.848	0.102	-0.107
-388.033	-58.798	0.296	-0.130
-387.019	-14.637	0.161	0.105
-386.004	264.181	0.090	-0.158
-384.990	800.000	-0.113	-0.386
-383.975	-51.849	-0.387	0.182
-382.960	7.825	0.303	-0.229
-381.946	-88.287	0.068	-0.021
-380.931	100.765	-0.233	0.273
-379.917	280.428	-0.128	0.231
-378.902	-149.194	-0.416	0.034
-377.888	-200.000	-0.010	-0.124
-376.873	-89.501	0.209	0.062
-375.858	-144.932	-0.261	0.024
-374.844	-51.074	-0.061	0.029
-373.829	0.819	-0.201	-0.145
-372.815	800.000	0.082	0.319
-371.800	122.291	-0.166	0.210
-370.785	-132.580	-0.017	0.002
-369.771	-65.609	0.102	0.041
-368.756	109.660	0.101	-0.123
-367.742	79.901	0.197	-0.214
-366.727	-12.095	-0.263	0.174
-365.712	14.009	-0.114	-0.090
-364.698	800.000	0.022	-0.081
-363.683	-85.229	0.252	-0.080
-362.669	800.000	0.070	0.196
-361.654	640.106	-0.090	0.231
-360.639	289.342	-0.038	-0.069
-359.625	-59.494	-0.303	-0.132
-358.610	-101.544	0.308	-0.076
-357.596	800.000	-0.055	0.207
-356.581	800.000	-0.021	-0.085
-355.566	621.778	0.130	0.332
-354.552	-41.267	0.334	0.174
-353.537	-13.647	0.170	0.111
-352.523	-24.857	0.098	-0.059
-351.508	678.509	-0.085	-0.223
-350.493	-88.410	-0.238	0.072
-349.479	145.746	-0.105	-0.142
-348.464	-4.979	0.276	0.192
-347.450	371.782	0.030	0.061
-346.435	-102.159	-0.202	0.049
-345.420	3.623	0.093	-0.068
-344.406	-155.216	-0.159	-0.010
-343.391	386.417	-0.063	-0.130
-342.377	-200.000	-0.013	-0.075
-341.362	51.664	-0.307	-0.295
-340.348	-115.855	0.270	-0.051
-339.333	423.776	-0.107	-0.233
-338.318	132.650	0.179	0.233
-337.304	-85.212	0.139	-0.044
-336.289	-200.000	-0.012	-0.118
-335.275	-200.000	0.048	-0.363
-334.260	-200.000	-0.011	-0.170
-333.245	101.847	-0.047	0.055
-332.231	95.445	-0.254	0.292
-331.216	-41.490	0.242	0.126
-330.202	571.993	-0.140	0.344
-329.187	-200.000	0.030	0.174
-328.172	496.027	-0.102	-0.236
-327.158	30.329	0.170	-0.146
-326.143	461.405	0.044	0.099
-325.129	464.258	0.085	-0.192
-324.114	-26.571	0.034	0.020
-323.099	-41.497	-0.386	0.200
-322.085	-200.000	-0.032	0.149
-321.070	-88.525	-0.380	-0.114
-320.056	239.124	0.151	0.253
-319.041	-200.000	-0.022	0.292
-318.026	50.758	0.130	-0.124
-317.012	800.000	-0.091	-0.298
-315.997	538.893	-0.056	-0.134
-314.983	-200.000	0.023	0.267
-313.968	-96.690	-0.411	0.109
-312.953	-18.761	-0.223	0.140
-311.939	471.848	-0.049	-0.110
-310.924	45.371	0.175	0.163
-309.910	-200.000	0.006	0.088
-308.895	-163.200	0.289	0.014
-307.880	-72.795	0.095	0.035
-306.866	-90.294	-0.298	-0.087
-305.851	138.250	0.071	-0.093
-304.837	292.758	0.225	0.414
-303.822	461.980	0.089	0.201
-302.807	160.093	0.043	0.061
-301.793	-124.672	-0.099	-0.015
-300.778	-123.002	-0.301	0.049
-299.764	-163.109	0.102	-0.005
-298.749	-70.422	-0.280	-0.107
-297.735	275.913	-0.081	0.146
-296.720	238.185	-0.065	-0.109
-295.705	-88.114	-0.283	-0.086
-294.691	-64.152	0.325	0.133
-293.676	-54.126	-0.222	-0.101
-292.662	-200.000	-0.040	0.263
-291.647	-200.000	0.017	-0.157
-290.632	365.980	-0.120	0.244
-289.618	-200.000	0.029	0.295
-288.603	-80.556	0.007	-0.002
-287.589	99.905	-0.295	-0.344
-286.574	501.637	-0.037	0.087
-285.559	-110.045	-0.291	-0.061
-284.545	1.210	0.238	-0.172
-283.530	800.000	0.028	-0.117
-282.516	-29.291	0.137	-0.079
-281.501	412.744	0.125	0.266
-280.486	-200.000	0.018	0.106
-279.472	-111.449	0.230	-0.047
-278.457	-5.759	-0.070	-0.048
-277.443	-93.325	-0.176	-0.049
-276.428	-200.000	-0.084	0.496
-275.413	-200.000	0.004	0.129
-274.399	-46.687	-0.172	-0.085
-273.384	282.285	0.197	-0.356
-272.370	-141.153	-0.217	0.022
-271.355	-194.846	-0.164	0.001
-270.340	-93.829	0.309	-0.085
-269.326	310.076	-0.135	0.254
-268.311	178.168	-0.042	0.062
-267.297	-200.000	-0.086	-0.409
-266.282	-99.766	0.170	-0.043
-265.267	-111.526	-0.178	0.036
-264.253	800.000	0.043	-0.183
-263.238	8.249	-0.416	-0.314
-262.224	-200.000	0.085	-0.501
-261.209	-54.747	0.153	-0.070
-260.195	-168.205	-0.063	-0.002
-259.180	-102.753	0.180	0.043
-258.165	800.000	0.165	-0.598
-257.151	306.541	0.032	0.061
-256.136	574.935	0.037	0.090
-255.122	-79.067	-0.143	0.049
-254.107	-200.000	0.088	0.406
-253.092	340.170	-0.154	0.301
-252.078	233.034	0.104	0.172
-251.063	30.667	-0.368	0.317
-250.049	427.970	-0.090	0.195
-249.034	382.439	-0.040	-0.083
-248.019	-27.182	-0.184	-0.108
-247.005	-177.455	0.129	-0.003
-245.990	-200.000	-0.039	-0.229
-244.976	27.021	0.050	-0.042
-243.961	-200.000	0.015	0.258
-242.946	31.440	-0.155	0.134
-241.932	-200.000	0.025	0.113
-240.917	-142.075	-0.159	-0.016
-239.903	144.693	-0.103	0.138
-238.888	-5.335	0.160	-0.110
-237.873	73.768	0.209	0.220
-236.859	-31.725	-0.231	-0.131
-235.844	-107.877	-0.057	0.012
-234.830	-38.747	-0.257	-0.136
-233.815	-141.961	0.279	-0.028
-232.800	800.000	-0.093	0.367
-231.786	-169.887	0.183	-0.007
-230.771	286.319	0.078	0.142
-229.757	-200.000	-0.029	0.260
-228.742	-200.000	-0.009	-0.261
-227.727	60.735	-0.379	-0.377
-226.713	800.000	-0.017	-0.066
-225.698	320.465	0.060	0.114
-224.684	234.109	0.172	0.285
-223.669	50.152	-0.170	0.161
-222.655	784.722	0.187	0.513
-221.640	47.638	-0.052	0.049
-220.625	263.807	-0.140	-0.245
-219.611	-200.000	-0.035	0.305
-218.596	-200.000	0.008	-0.207
-217.582	800.000	0.030	-0.110
-216.567	-2.791	0.237	-0.166
-215.552	-200.000	-0.009	-0.166
-214.538	800.000	-0.025	0.073
-213.523	-56.445	-0.144	-0.064
-212.509	-200.000	-0.003	-0.133
-211.494	411.607	-0.119	-0.254
-210.479	-200.000	0.000	0.031
-209.465	31.864	0.228	-0.197
-208.450	-83.769	-0.241	-0.077
-207.436	-40.769	-0.264	-0.137
-206.421	-69.835	-0.249	-0.095
-205.406	-200.000	-0.011	-0.120
-204.392	26.539	-0.163	0.137
-203.377	27.807	0.163	-0.138
-202.363	-73.856	0.247	-0.090
-201.348	504.079	0.123	-0.285
-200.333	-10.347	-0.212	0.141
-199.319	728.408	0.095	0.254
-198.304	126.560	0.216	0.274
-197.290	67.471	0.057	-0.058
-196.275	91.922	-0.067	0.075
-195.260	713.953	0.089	0.236
-194.246	243.532	-0.112	0.188
-193.231	-200.000	0.024	0.112
-192.217	1.140	0.137	-0.099
-191.202	28.164	0.163	0.138
-190.187	46.857	-0.158	-0.147
-189.173	-137.443	-0.150	0.017
-188.158	16.791	0.297	0.236
-187.144	-120.901	0.282	0.048
-186.129	-55.919	-0.224	-0.100
-185.114	-200.000	0.030	0.268
-184.100	-113.871	-0.452	-0.088
-183.085	-45.024	0.031	0.015
-182.071	8.775	-0.260	0.197
-181.056	206.695	0.129	0.202
-180.042	-81.651	-0.152	0.050
-179.027	-44.046	-0.108	0.054
-178.012	197.361	-0.185	-0.282
-176.998	186.222	0.169	-0.252
-175.983	-188.557	0.353	0.004
-174.969	-131.971	0.258	-0.034
-173.954	800.000	0.074	0.218
-172.939	207.931	0.082	-0.128
-171.925	155.078	-0.134	-0.185
-170.910	-96.648	0.275	-0.073
-169.896	-82.848	0.397	0.128
-168.881	-200.000	0.043	-0.319
-167.866	209.959	-0.162	0.254
-166.852	593.506	0.085	0.209
-165.837	800.000	0.114	0.320
-164.823	776.489	0.094	0.258
-163.808	800.000	-0.081	-0.308
-162.793	88.663	-0.061	-0.068
-161.779	412.914	0.151	0.321
-160.764	296.441	0.058	0.107
-159.750	-200.000	-0.016	-0.099
-158.735	-117.214	0.192	0.035
-157.720	206.196	-0.069	0.108
-156.706	-200.000	0.001	0.172
-155.691	289.118	0.069	-0.124
-154.677	255.471	0.106	-0.182
-153.662	-200.000	0.004	0.323
-152.647	20.938	-0.382	-0.310
-151.633	-200.000	0.014	0.164
-150.618	800.000	-0.064	0.210
-149.604	3.164	-0.262	-0.191
-148.589	184.653	-0.243	0.361
-147.574	-200.000	-0.059	0.265
-146.560	501.301	-0.073	-0.168
-145.545	30.764	-0.097	0.083
-144.531	-200.000	-0.025	-0.175
-143.516	-146.071	0.373	0.033
-142.502	-93.686	0.296	0.082
-141.487	-109.029	-0.257	-0.055
-140.472	-90.601	0.144	-0.042
-139.458	-194.572	0.198	0.002
-138.443	161.005	-0.196	-0.274
-137.429	-200.000	-0.020	-0.213
-136.414	-35.352	0.232	0.127
-135.399	-200.000	-0.076	-0.429
-134.385	-8.096	0.429	-0.289
-133.370	-152.758	0.328	-0.023
-132.356	265.120	0.140	0.245
-131.341	800.000	0.110	0.372
-130.326	521.627	0.017	0.040
-129.312	-81.430	-0.135	-0.045
-128.297	57.575	-0.108	-0.105
-127.283	311.832	0.083	0.156
-126.268	43.495	0.163	0.149
-125.253	89.976	-0.090	-0.101
-124.239	210.282	-0.138	-0.217
-123.224	-200.000	0.006	-0.028
-122.210	800.000	0.030	0.130
-121.195	-200.000	-0.025	-0.202
