DTS Sentinel unit serial number:	SN413079Multiplexer serial number:	ORYXHardware model number:	OX4-SRSoftware version number:	ORYX F/W v4.00 Oryx Data Collector v3.7.2.0data status	okinstallation	princeton_trtdifferential loss correction	single-endedforward channel	channel 4reverse channel	N/Adate	2019/09/17time	02:57:35forward acquisition time	60.00reverse acquisition time	0.00gamma	496.2192k internal	0.2311k external	0.2311temperature offset calibration	0.9972default loss term (dB/km)	0.3790temperature slope calibration	1.0000multiplexer offset coefficient	1.0000multiplexer slope coefficient	1.0000fibre end	0.00T internal ref (°C)	29.94T ext. ref 1 (°C)	0.12T ext. ref 2 (°C)	24.87length (m)	temperature (°C)	Stokes	anti-Stokes-747.200	800.000	0.088	-0.318
-746.185	191.731	-0.034	0.052
-745.171	800.000	-0.151	0.504
-744.156	-200.000	0.029	0.176
-743.142	-200.000	-0.010	-0.178
-742.127	387.709	-0.156	0.328
-741.112	123.729	-0.089	0.113
-740.098	-200.000	0.026	0.562
-739.083	28.040	0.164	0.141
-738.069	236.220	0.184	0.308
-737.054	-200.000	0.006	0.058
-736.039	62.273	-0.226	-0.229
-735.025	-22.241	-0.093	0.057
-734.010	226.139	-0.045	-0.073
-732.996	-136.384	-0.356	0.042
-731.981	-200.000	0.032	0.303
-730.966	-19.606	0.143	0.089
-729.952	800.000	0.038	-0.139
-728.937	719.289	-0.120	0.323
-727.923	-161.611	0.064	-0.003
-726.908	-155.849	-0.082	0.005
-725.894	361.029	-0.089	-0.180
-724.879	-200.000	-0.022	-0.230
-723.864	-105.365	-0.258	-0.060
-722.850	-110.168	-0.395	0.084
-721.835	-14.722	-0.264	0.172
-720.821	-200.000	0.014	-0.199
-719.806	-31.379	-0.127	0.072
-718.791	-54.703	0.192	0.088
-717.777	-193.710	0.129	-0.001
-716.762	119.304	-0.150	-0.188
-715.748	-27.579	-0.107	0.063
-714.733	-47.213	-0.499	-0.247
-713.718	269.873	-0.121	0.216
-712.704	-34.998	-0.133	-0.074
-711.689	371.690	-0.060	-0.123
-710.675	800.000	0.045	-0.136
-709.660	303.674	0.054	-0.102
-708.645	369.718	-0.036	-0.075
-707.631	-3.299	-0.117	0.082
-706.616	800.000	-0.129	0.375
-705.602	-89.427	-0.254	0.076
-704.587	-21.135	-0.329	0.204
-703.572	264.648	0.057	0.100
-702.558	293.946	0.062	0.114
-701.543	570.780	-0.032	0.079
-700.529	-2.709	-0.198	0.140
-699.514	249.883	0.094	-0.162
-698.499	-155.063	-0.246	-0.016
-697.485	-6.974	-0.012	0.008
-696.470	101.167	-0.139	-0.164
-695.456	800.000	0.014	-0.063
-694.441	800.000	-0.056	0.187
-693.426	-40.136	0.289	-0.153
-692.412	-18.553	-0.085	-0.054
-691.397	301.341	0.077	-0.145
-690.383	-31.817	0.137	-0.078
-689.368	-7.886	0.257	-0.176
-688.354	-140.656	-0.214	0.022
-687.339	-62.370	0.357	-0.150
-686.324	-200.000	0.046	-0.209
-685.310	328.821	0.086	-0.167
-684.295	390.239	-0.043	-0.090
-683.281	800.000	0.078	-0.310
-682.266	94.634	0.098	0.113
-681.251	83.504	0.047	0.052
-680.237	5.935	0.129	0.097
-679.222	-11.893	-0.085	0.057
-678.208	-112.393	-0.300	0.061
-677.193	-133.759	-0.317	-0.040
-676.178	147.142	0.170	-0.232
-675.164	124.180	0.228	0.290
-674.149	-200.000	-0.073	0.391
-673.135	-200.000	-0.002	0.044
-672.120	-122.778	-0.115	-0.019
-671.105	-86.713	0.294	0.091
-670.091	800.000	0.053	0.161
-669.076	-200.000	-0.012	0.160
-668.062	543.516	-0.112	0.271
-667.047	-48.369	0.484	0.236
-666.032	197.446	-0.088	0.136
-665.018	97.875	0.138	-0.161
-664.003	115.173	-0.155	0.191
-662.989	800.000	0.076	0.269
-661.974	184.735	-0.009	0.013
-660.959	-157.188	-0.163	0.010
-659.945	625.029	0.081	0.207
-658.930	-49.542	0.093	0.045
-657.916	235.920	0.198	0.331
-656.901	-200.000	0.003	-0.312
-655.886	-200.000	-0.015	0.195
-654.872	800.000	-0.085	0.301
-653.857	160.455	-0.114	-0.161
-652.843	531.585	-0.204	-0.487
-651.828	-200.000	-0.044	-0.199
-650.814	-200.000	-0.014	0.170
-649.799	800.000	-0.069	0.280
-648.784	-200.000	0.016	-0.224
-647.770	142.293	-0.259	-0.348
-646.755	-200.000	0.012	-0.118
-645.741	43.302	-0.109	0.100
-644.726	23.733	0.108	0.090
-643.711	82.737	-0.243	0.267
-642.697	102.406	-0.082	0.097
-641.682	363.886	-0.136	0.277
-640.668	-178.277	-0.178	-0.004
-639.653	454.605	0.003	0.007
-638.638	-17.950	0.298	0.189
-637.624	88.931	-0.160	0.180
-636.609	92.040	0.157	-0.179
-635.595	-102.166	-0.104	-0.025
-634.580	-200.000	0.051	0.243
-633.565	-200.000	-0.043	0.486
-632.551	38.754	0.131	0.118
-631.536	-107.915	0.081	0.018
-630.522	-153.161	0.397	-0.028
-629.507	-105.927	0.063	-0.014
-628.492	-200.000	0.013	0.320
-627.478	-60.941	0.166	-0.071
-626.463	264.785	0.134	0.235
-625.449	-74.364	-0.101	-0.037
-624.434	-178.198	0.377	0.009
-623.419	9.353	-0.196	-0.150
-622.405	209.773	0.173	0.274
-621.390	42.704	-0.093	0.085
-620.376	15.620	-0.163	-0.129
-619.361	166.834	-0.129	0.185
-618.346	-126.034	-0.194	-0.029
-617.332	-200.000	-0.020	0.209
-616.317	-200.000	-0.014	0.253
-615.303	-152.279	0.218	-0.016
-614.288	-200.000	-0.041	0.233
-613.273	-22.321	0.139	-0.085
-612.259	800.000	-0.078	-0.314
-611.244	54.538	0.077	-0.075
-610.230	649.791	-0.047	-0.121
-609.215	-72.943	-0.268	0.099
-608.201	364.598	-0.039	-0.078
-607.186	4.339	-0.255	-0.189
-606.171	109.445	0.029	-0.036
-605.157	3.184	0.034	0.025
-604.142	-200.000	0.011	-0.143
-603.128	-49.317	0.251	-0.121
-602.113	150.657	-0.070	0.096
-601.098	3.728	-0.114	0.084
-600.084	-200.000	-0.021	0.233
-599.069	-200.000	-0.026	-0.202
-598.055	-25.312	-0.061	-0.036
-597.040	24.817	0.209	-0.175
-596.025	800.000	0.078	0.335
-595.011	136.795	0.145	0.191
-593.996	297.266	-0.027	0.050
-592.982	-148.331	-0.287	-0.024
-591.967	-200.000	-0.010	-0.192
-590.952	-95.502	0.286	0.077
-589.938	-72.917	-0.194	0.072
-588.923	81.688	-0.150	0.164
-587.909	63.977	-0.230	-0.234
-586.894	800.000	0.071	-0.207
-585.879	292.862	-0.097	-0.178
-584.865	-200.000	-0.014	-0.125
-583.850	-164.813	0.404	0.018
-582.836	420.358	-0.085	0.183
-581.821	-133.370	0.478	0.061
-580.806	23.482	-0.139	-0.115
-579.792	-200.000	0.008	-0.052
-578.777	800.000	0.081	-0.229
-577.763	148.990	-0.104	0.141
-576.748	-200.000	0.027	0.147
-575.733	-153.834	-0.377	-0.026
-574.719	229.414	0.214	0.351
-573.704	-200.000	0.059	-0.350
-572.690	-200.000	0.004	0.078
-571.675	-200.000	-0.002	-0.122
-570.661	14.301	0.115	-0.090
-569.646	-6.988	-0.053	-0.036
-568.631	-8.496	-0.077	-0.052
-567.617	800.000	0.070	0.197
-566.602	46.081	-0.291	0.272
-565.588	-121.064	0.248	0.042
-564.573	-200.000	-0.071	-0.446
-563.558	-105.954	0.361	0.082
-562.544	-118.988	0.042	-0.007
-561.529	-157.487	0.018	-0.001
-560.515	205.347	0.089	0.139
-559.500	-200.000	-0.016	0.155
-558.485	395.015	-0.064	-0.135
-557.471	-1.234	0.087	-0.062
-556.456	-200.000	-0.014	0.262
-555.442	800.000	-0.065	-0.192
-554.427	61.154	-0.168	-0.168
-553.412	11.315	0.139	0.107
-552.398	-105.340	-0.263	-0.060
-551.383	-103.933	-0.197	0.046
-550.369	-103.575	0.275	0.065
-549.354	408.570	0.037	0.079
-548.339	67.583	0.172	0.177
-547.325	-200.000	-0.005	-0.502
-546.310	-181.842	-0.296	-0.006
-545.296	-88.438	-0.324	-0.097
-544.281	800.000	-0.025	-0.102
-543.266	348.619	-0.162	0.322
-542.252	493.134	0.114	0.264
-541.237	187.371	-0.164	0.246
-540.223	393.716	0.114	0.239
-539.208	-200.000	-0.036	0.252
-538.193	7.522	0.219	0.165
-537.179	-200.000	0.008	-0.048
-536.164	158.679	-0.324	-0.453
-535.150	-62.891	0.028	0.012
-534.135	-154.557	-0.063	0.004
-533.121	-200.000	-0.029	-0.164
-532.106	-42.878	-0.198	-0.101
-531.091	-162.561	0.222	-0.011
-530.077	800.000	0.086	-0.251
-529.062	-200.000	-0.008	-0.343
-528.048	-90.416	-0.368	0.107
-527.033	-86.889	0.299	0.092
-526.018	21.538	-0.157	-0.129
-525.004	-200.000	0.025	0.165
-523.989	310.483	-0.098	0.185
-522.975	477.590	-0.192	0.437
-521.960	28.977	-0.266	-0.227
-520.945	-80.649	0.054	0.018
-519.931	235.778	0.096	0.160
-518.916	147.878	-0.190	0.257
-517.902	735.112	0.037	-0.100
-516.887	800.000	0.017	0.068
-515.872	-200.000	-0.051	0.328
-514.858	-135.411	0.144	0.017
-513.843	488.306	0.107	-0.246
-512.829	365.564	0.193	0.392
-511.814	-200.000	0.015	0.219
-510.799	-200.000	-0.047	0.234
-509.785	800.000	0.128	0.392
-508.770	105.589	0.174	0.207
-507.756	-56.243	0.354	0.158
-506.741	800.000	0.060	-0.258
-505.726	84.132	0.122	0.134
-504.712	340.640	-0.131	-0.258
-503.697	-200.000	0.047	-0.360
-502.683	800.000	0.036	0.103
-501.668	-128.744	-0.108	0.015
-500.653	82.569	-0.123	-0.135
-499.639	135.306	-0.231	0.302
-498.624	43.729	0.218	-0.201
-497.610	199.540	-0.081	-0.125
-496.595	-37.873	-0.107	-0.057
-495.581	-83.661	0.090	0.029
-494.566	-87.466	0.240	0.073
-493.551	91.723	0.175	-0.198
-492.537	800.000	-0.068	0.203
-491.522	800.000	-0.052	-0.183
-490.508	-57.358	-0.228	0.101
-489.493	-79.138	0.169	-0.058
-488.478	-15.036	-0.206	-0.133
-487.464	102.581	0.191	-0.225
-486.449	0.802	-0.272	0.196
-485.435	-200.000	-0.001	0.168
-484.420	-200.000	-0.065	-0.436
-483.405	-14.889	0.148	-0.095
-482.391	-31.651	0.092	0.052
-481.376	472.087	-0.118	0.266
-480.362	361.850	-0.053	0.106
-479.347	560.466	-0.043	-0.104
-478.332	90.264	-0.166	-0.187
-477.318	16.011	0.118	-0.094
-476.303	-1.495	-0.275	0.195
-475.289	432.057	-0.045	-0.098
-474.274	128.805	0.116	-0.149
-473.259	-73.734	-0.117	0.043
-472.245	800.000	0.046	0.166
-471.230	196.052	0.105	-0.161
-470.216	-102.021	-0.133	0.032
-469.201	124.343	-0.078	0.099
-468.186	-200.000	-0.018	0.177
-467.172	183.469	-0.135	0.200
-466.157	151.371	0.169	0.231
-465.143	-200.000	-0.084	0.371
-464.128	-130.559	0.180	0.024
-463.113	-200.000	-0.012	-0.143
-462.099	-171.549	0.292	-0.010
-461.084	12.929	0.152	-0.118
-460.070	-163.381	0.163	0.008
-459.055	61.597	-0.044	-0.044
-458.040	800.000	0.019	0.057
-457.026	-200.000	0.006	-0.056
-456.011	-20.855	-0.166	0.102
-454.997	272.908	-0.059	0.104
-453.982	-64.112	-0.445	0.182
-452.968	-200.000	-0.021	0.314
-451.953	176.767	-0.143	0.208
-450.938	-128.720	0.216	0.031
-449.924	238.281	0.107	-0.179
-448.909	-122.756	0.160	0.026
-447.895	247.254	0.205	0.347
-446.880	-43.588	0.319	-0.161
-445.865	307.381	0.096	-0.180
-444.851	-41.093	-0.255	-0.132
-443.836	80.010	0.130	-0.140
-442.822	-92.607	0.328	-0.092
-441.807	-34.049	0.118	-0.065
-440.792	-75.658	-0.191	-0.068
-439.778	210.509	-0.100	0.158
-438.763	39.625	0.009	-0.008
-437.749	219.055	-0.200	-0.321
-436.734	14.316	-0.048	-0.037
-435.719	103.362	0.314	-0.370
-434.705	-200.000	-0.157	0.001
-433.690	800.000	-0.070	-0.260
-432.676	800.000	0.062	-0.241
-431.661	738.922	-0.102	-0.274
-430.646	53.268	0.086	-0.083
-429.632	-47.658	-0.072	0.035
-428.617	126.340	-0.148	-0.187
-427.603	-200.000	-0.003	-0.100
-426.588	242.078	-0.154	0.258
-425.573	-155.661	0.345	0.022
-424.559	800.000	-0.170	-0.504
-423.544	125.672	-0.245	-0.310
-422.530	-46.289	-0.382	-0.188
-421.515	-10.348	-0.092	-0.061
-420.500	34.612	0.077	0.068
-419.486	800.000	0.042	-0.148
-418.471	113.999	-0.176	-0.214
-417.457	800.000	0.023	-0.069
-416.442	-56.565	0.303	-0.135
-415.428	93.315	-0.175	0.198
-414.413	-47.361	0.203	0.099
-413.398	73.751	-0.202	-0.212
-412.384	-200.000	-0.038	-0.278
-411.369	-200.000	0.007	-0.090
-410.355	-176.831	-0.348	0.009
-409.340	-200.000	0.004	-0.152
-408.325	208.156	-0.075	0.117
-407.311	800.000	0.043	0.169
-406.296	-200.000	0.019	-0.284
-405.282	-200.000	0.006	-0.084
-404.267	-157.462	-0.114	-0.007
-403.252	-17.933	-0.199	0.125
-402.238	-200.000	0.003	-0.073
-401.223	180.507	-0.116	0.170
-400.209	39.789	0.085	-0.076
-399.194	-200.000	-0.098	0.439
-398.179	372.701	-0.059	-0.120
-397.165	105.977	-0.072	0.086
-396.150	-87.003	0.258	-0.079
-395.136	17.073	0.215	-0.171
-394.121	-200.000	-0.006	0.169
-393.106	-117.089	-0.125	-0.023
-392.092	-64.416	0.316	0.129
-391.077	800.000	-0.025	-0.072
-390.063	79.744	-0.122	0.131
-389.048	179.521	0.232	-0.340
-388.033	-56.568	0.112	-0.050
-387.019	-87.940	0.307	-0.092
-386.004	-98.706	-0.585	-0.149
-384.990	314.599	0.122	-0.229
-383.975	800.000	0.049	0.213
-382.960	327.663	-0.279	-0.536
-381.946	336.043	-0.099	0.192
-380.931	-200.000	-0.036	-0.193
-379.917	-103.960	0.424	-0.099
-378.902	-182.758	0.299	-0.005
-377.888	51.642	0.094	-0.090
-376.873	800.000	0.038	-0.127
-375.858	800.000	-0.081	0.237
-374.844	-200.000	0.007	0.036
-373.829	203.778	-0.007	-0.011
-372.815	-25.829	0.186	0.109
-371.800	0.771	0.132	0.095
-370.785	-149.199	-0.160	-0.013
-369.771	-110.212	0.295	0.062
-368.756	51.212	0.199	-0.189
-367.742	55.414	-0.112	-0.109
-366.727	-1.078	-0.234	-0.165
-365.712	-27.065	-0.172	-0.100
-364.698	-119.685	-0.236	0.041
-363.683	67.979	0.027	-0.027
-362.669	-200.000	-0.002	-0.014
-361.654	-15.123	0.209	-0.134
-360.639	-12.910	-0.237	0.154
-359.625	118.421	-0.283	0.349
-358.610	-200.000	-0.014	0.188
-357.596	-24.857	-0.233	-0.139
-356.581	-148.721	0.295	0.024
-355.566	-200.000	-0.017	0.101
-354.552	-28.349	-0.252	0.146
-353.537	49.580	0.118	0.111
-352.523	10.045	0.005	-0.004
-351.508	800.000	-0.009	-0.036
-350.493	-66.939	0.155	-0.061
-349.479	769.686	0.072	0.197
-348.464	-200.000	0.069	-0.417
-347.450	-200.000	0.053	0.290
-346.435	721.219	-0.044	0.117
-345.420	-5.167	0.081	-0.055
-344.406	84.024	-0.332	0.362
-343.391	-62.324	0.275	-0.114
-342.377	-200.000	0.031	-0.148
-341.362	800.000	0.034	0.108
-340.348	-11.119	-0.132	-0.087
-339.333	-174.540	0.481	0.014
-338.318	-153.714	0.239	0.016
-337.304	-150.654	-0.026	-0.002
-336.289	-81.702	0.427	0.140
-335.275	-42.680	0.143	0.073
-334.260	-200.000	-0.023	-0.404
-333.245	-89.603	0.279	-0.082
-332.231	-200.000	-0.019	0.164
-331.216	-31.164	-0.242	-0.136
-330.202	-200.000	0.097	0.464
-329.187	-108.163	0.137	0.030
-328.172	-200.000	0.009	-0.320
-327.158	800.000	0.077	0.211
-326.143	-200.000	-0.013	0.229
-325.129	800.000	-0.022	-0.090
-324.114	324.988	-0.098	0.188
-323.099	448.119	-0.118	0.259
-322.085	800.000	-0.060	-0.192
-321.070	146.295	-0.160	0.214
-320.056	415.532	0.115	0.246
-319.041	-140.843	-0.134	0.014
-318.026	644.420	-0.053	0.135
-317.012	107.751	0.172	-0.205
-315.997	-23.062	0.108	0.065
-314.983	-30.328	-0.344	0.195
-313.968	-0.056	-0.182	0.129
-312.953	-72.598	0.326	-0.120
-311.939	30.148	0.102	-0.087
-310.924	-200.000	0.017	0.252
-309.910	-200.000	0.000	-0.068
-308.895	-91.296	-0.270	0.077
-307.880	-23.578	0.386	-0.231
-306.866	-68.143	0.046	-0.018
-305.851	-200.000	0.032	0.230
-304.837	-200.000	-0.041	-0.191
-303.822	26.863	0.083	0.069
-302.807	800.000	0.053	0.170
-301.793	-125.907	-0.280	0.042
-300.778	570.321	0.078	-0.189
-299.764	87.065	-0.057	-0.063
-298.749	21.054	-0.233	0.189
-297.735	280.180	-0.064	-0.114
-296.720	-100.116	0.153	0.038
-295.705	800.000	-0.074	-0.287
-294.691	241.279	-0.110	-0.183
-293.676	434.324	-0.155	-0.335
-292.662	-139.052	-0.275	0.030
-291.647	-73.951	-0.099	-0.036
-290.632	-136.523	-0.090	-0.010
-289.618	-10.594	0.129	0.085
-288.603	770.004	-0.017	-0.045
-287.589	-168.703	-0.261	0.010
-286.574	-2.821	-0.254	0.177
-285.559	-136.893	-0.340	0.039
-284.545	394.519	-0.090	-0.187
-283.530	-18.359	0.151	-0.094
-282.516	800.000	0.053	-0.197
-281.501	-87.915	0.276	-0.083
-280.486	-136.493	0.041	0.005
-279.472	-139.942	0.213	0.022
-278.457	-200.000	-0.002	-0.175
-277.443	208.679	0.080	-0.125
-276.428	-200.000	-0.027	-0.315
-275.413	-200.000	-0.120	-0.000
-274.399	105.945	0.127	-0.150
-273.384	781.825	-0.044	-0.120
-272.370	80.605	0.177	-0.190
-271.355	313.418	0.188	0.352
-270.340	-48.759	-0.146	-0.070
-269.326	-70.245	-0.365	0.138
-268.311	198.972	0.158	0.241
-267.297	-123.124	-0.058	-0.009
-266.282	-200.000	-0.013	-0.184
-265.267	57.350	0.083	-0.081
-264.253	-60.085	0.101	0.043
-263.238	-126.250	-0.477	-0.071
-262.224	-0.068	0.241	0.171
-261.209	73.627	-0.083	0.087
-260.195	-36.368	-0.301	-0.161
-259.180	503.416	0.029	0.067
-258.165	241.467	0.108	0.180
-257.151	38.823	-0.141	-0.126
-256.136	800.000	0.043	-0.166
-255.122	130.690	-0.184	0.235
-254.107	-200.000	0.009	0.108
-253.092	800.000	0.045	-0.143
-252.078	414.724	0.027	0.058
-251.063	800.000	0.087	-0.296
-250.049	-99.664	0.401	-0.100
-249.034	-44.369	0.304	0.151
-248.019	575.607	0.107	0.261
-247.005	150.050	0.142	-0.192
-245.990	-200.000	0.033	-0.293
-244.976	230.782	-0.139	-0.226
-243.961	583.390	-0.032	0.079
-242.946	-160.223	0.145	0.008
-241.932	-200.000	-0.012	-0.069
-240.917	-5.146	-0.331	0.227
-239.903	-12.719	-0.282	0.183
-238.888	800.000	0.113	0.317
-237.873	187.878	-0.099	-0.147
-236.859	22.744	-0.138	0.113
-235.844	44.181	-0.058	-0.053
-234.830	64.708	-0.258	0.258
-233.815	800.000	-0.078	0.296
-232.800	-200.000	-0.023	0.338
-231.786	162.637	0.051	-0.071
-230.771	-200.000	-0.024	0.305
-229.757	800.000	-0.067	-0.208
-228.742	-125.482	0.261	-0.040
-227.727	800.000	-0.104	0.287
-226.713	-63.370	-0.212	0.087
-225.698	15.576	0.291	-0.227
-224.684	-81.352	0.139	0.045
-223.669	-70.564	-0.174	-0.066
-222.655	-168.274	-0.122	-0.005
-221.640	-122.609	0.300	-0.048
-220.625	-58.331	0.004	-0.002
-219.611	-105.616	0.353	-0.080
-218.596	-200.000	-0.020	-0.337
-217.582	-200.000	-0.029	-0.200
-216.567	-73.068	-0.104	-0.038
-215.552	-200.000	0.007	0.214
-214.538	159.436	0.085	0.117
-213.523	15.548	-0.153	-0.119
-212.509	96.905	0.029	-0.033
-211.494	-200.000	-0.024	-0.265
-210.479	-200.000	0.006	-0.061
-209.465	331.776	0.142	0.272
-208.450	-82.294	-0.108	0.035
-207.436	-200.000	0.002	0.036
-206.421	-48.011	0.320	0.154
-205.406	132.562	0.155	-0.198
-204.392	128.324	-0.196	-0.249
-203.377	276.216	-0.255	0.450
-202.363	456.173	-0.084	-0.185
-201.348	-17.515	0.131	-0.082
-200.333	-108.295	-0.088	-0.019
-199.319	-200.000	-0.006	0.196
-198.304	-115.266	-0.190	0.036
-197.290	800.000	0.021	-0.066
-196.275	-127.367	0.154	-0.022
-195.260	282.268	0.154	0.274
-194.246	-82.105	0.282	0.091
-193.231	-200.000	-0.018	0.233
-192.217	800.000	-0.086	-0.278
-191.202	-45.988	0.153	0.075
-190.187	-191.369	0.390	0.004
-189.173	205.891	-0.097	-0.150
-188.158	-152.181	-0.252	0.018
-187.144	121.250	0.047	0.058
-186.129	-200.000	0.035	-0.234
-185.114	-200.000	0.001	-0.341
-184.100	273.950	0.166	0.291
-183.085	94.520	0.305	-0.344
-182.071	-85.919	-0.109	0.034
-181.056	26.380	0.146	-0.121
-180.042	231.897	-0.100	-0.163
-179.027	-39.330	-0.259	0.135
-178.012	-25.424	-0.300	0.176
-176.998	33.690	0.091	-0.078
-175.983	8.732	0.297	0.222
-174.969	-126.123	0.376	0.056
-173.954	593.381	-0.042	0.103
-172.939	-10.253	-0.134	0.088
-171.925	-93.352	-0.243	0.067
-170.910	800.000	0.031	0.087
-169.896	180.762	0.067	-0.098
-168.881	-179.061	0.076	-0.002
-167.866	-74.070	0.110	-0.040
-166.852	-94.843	-0.048	0.013
-165.837	-126.721	-0.308	-0.045
-164.823	800.000	-0.066	-0.223
-163.808	61.557	0.131	-0.130
-162.793	147.604	0.148	-0.198
-161.779	-200.000	-0.016	-0.197
-160.764	36.093	-0.373	-0.326
-159.750	-141.234	-0.083	-0.008
-158.735	37.233	-0.085	-0.074
-157.720	55.470	0.229	-0.219
-156.706	203.600	0.042	-0.065
-155.691	405.080	-0.106	0.222
-154.677	800.000	0.134	0.485
-153.662	145.493	0.089	0.119
-152.647	-128.393	-0.087	0.012
-151.633	326.331	0.236	-0.447
-150.618	-3.604	-0.111	0.077
-149.604	684.599	-0.165	0.427
-148.589	-67.647	0.050	-0.019
-147.574	105.222	0.099	-0.116
-146.560	46.797	-0.050	-0.046
-145.545	800.000	-0.041	0.164
-144.531	-159.640	-0.117	-0.006
-143.516	-200.000	-0.004	0.060
-142.502	281.019	-0.076	-0.134
-141.487	800.000	-0.125	0.403
-140.472	-44.840	-0.192	-0.095
-139.458	-163.814	0.257	0.012
-138.443	-108.407	0.136	-0.029
-137.429	116.695	0.055	0.067
-136.414	-200.000	0.005	0.193
-135.399	496.296	-0.022	-0.050
-134.385	-10.182	0.145	-0.095
-133.370	-200.000	-0.201	-0.000
-132.356	-200.000	-0.030	-0.142
-131.341	-82.949	-0.154	-0.049
-130.326	-21.389	0.008	0.005
-129.312	-24.012	0.107	0.063
-128.297	-200.000	-0.011	-0.243
-127.283	435.579	-0.098	0.212
-126.268	-18.966	0.013	-0.008
-125.253	-113.862	-0.203	0.039
-124.239	-14.164	0.392	0.250
-123.224	156.563	-0.162	0.221
-122.210	-45.523	-0.214	-0.105
