DTS Sentinel unit serial number:	SN413079Multiplexer serial number:	ORYXHardware model number:	OX4-SRSoftware version number:	ORYX F/W v4.00 Oryx Data Collector v3.7.2.0data status	okinstallation	princeton_trtdifferential loss correction	single-endedforward channel	channel 4reverse channel	N/Adate	2019/09/13time	17:37:35forward acquisition time	60.00reverse acquisition time	0.00gamma	496.2192k internal	0.2295k external	0.2295temperature offset calibration	1.0215default loss term (dB/km)	0.3790temperature slope calibration	1.0000multiplexer offset coefficient	1.0000multiplexer slope coefficient	1.0000fibre end	0.00T internal ref (°C)	35.94T ext. ref 1 (°C)	5.39T ext. ref 2 (°C)	29.16length (m)	temperature (°C)	Stokes	anti-Stokes-747.200	118.990	-0.029	0.036
-746.185	584.602	0.050	0.125
-745.171	105.393	-0.144	0.174
-744.156	97.386	0.111	-0.130
-743.142	-109.375	-0.056	-0.012
-742.127	144.153	0.300	0.409
-741.112	57.540	-0.076	0.076
-740.098	-20.626	0.198	0.124
-739.083	-200.000	0.051	0.274
-738.069	-62.041	-0.241	0.103
-737.054	55.594	0.251	0.249
-736.039	119.671	-0.154	-0.194
-735.025	203.630	-0.100	0.157
-734.010	33.038	-0.117	-0.104
-732.996	-101.052	0.247	0.062
-731.981	97.505	0.113	0.133
-730.966	-84.163	-0.107	-0.035
-729.952	-46.760	-0.102	-0.051
-728.937	-16.547	-0.195	-0.126
-727.923	132.982	0.118	0.156
-726.908	12.768	0.156	0.123
-725.894	-69.105	0.081	-0.032
-724.879	17.059	-0.265	0.215
-723.864	4.816	-0.078	-0.058
-722.850	-39.566	-0.250	0.134
-721.835	38.371	0.112	0.102
-720.821	-165.044	-0.115	-0.005
-719.806	-115.954	0.401	0.076
-718.791	707.336	0.018	-0.048
-717.777	34.082	-0.162	-0.144
-716.762	800.000	-0.092	0.278
-715.748	162.563	-0.161	-0.231
-714.733	-105.969	-0.268	-0.062
-713.718	355.496	0.149	-0.302
-712.704	-200.000	-0.010	-0.616
-711.689	800.000	0.112	-0.449
-710.675	135.804	-0.092	0.123
-709.660	800.000	0.096	0.331
-708.645	-42.727	-0.148	0.077
-707.631	500.076	-0.058	-0.136
-706.616	-91.402	-0.238	0.069
-705.602	-131.643	0.303	-0.041
-704.587	98.277	-0.164	0.193
-703.572	53.486	0.166	-0.163
-702.558	60.075	0.181	0.182
-701.543	-115.417	0.338	-0.065
-700.529	31.385	-0.227	-0.199
-699.514	-60.630	-0.132	0.057
-698.499	314.377	-0.043	-0.083
-697.485	800.000	0.033	-0.145
-696.470	237.726	0.166	0.281
-695.456	488.033	0.165	0.385
-694.441	201.417	0.039	0.061
-693.426	80.780	-0.279	-0.307
-692.412	-101.619	0.096	0.024
-691.397	-12.350	0.121	-0.081
-690.383	130.895	-0.177	-0.231
-689.368	-2.664	0.061	0.043
-688.354	-30.904	0.165	-0.095
-687.339	593.030	-0.039	0.098
-686.324	123.271	-0.140	0.179
-685.310	-98.683	0.206	-0.053
-684.295	51.921	-0.333	-0.324
-683.281	-200.000	-0.004	-0.164
-682.266	-200.000	-0.199	-0.001
-681.251	-200.000	-0.001	0.092
-680.237	-200.000	0.019	0.381
-679.222	-88.054	0.408	-0.125
-678.208	128.006	-0.156	0.202
-677.193	-142.278	0.186	-0.019
-676.178	-99.470	-0.504	-0.129
-675.164	-200.000	0.009	-0.205
-674.149	-66.966	-0.050	0.020
-673.135	548.040	-0.056	0.136
-672.120	14.604	-0.084	0.067
-671.105	-55.914	-0.179	0.081
-670.091	296.102	0.097	-0.182
-669.076	-38.524	-0.573	-0.309
-668.062	-153.453	-0.153	0.011
-667.047	800.000	-0.053	0.219
-666.032	800.000	-0.045	-0.179
-665.018	767.720	-0.036	-0.100
-664.003	-200.000	0.033	-0.207
-662.989	381.707	-0.236	0.494
-661.974	51.741	-0.138	0.134
-660.959	-104.057	0.231	0.055
-659.945	-3.366	0.344	-0.244
-658.930	19.997	0.096	-0.079
-657.916	-200.000	0.017	0.182
-656.901	-138.907	0.273	-0.030
-655.886	-200.000	0.020	-0.104
-654.872	-14.911	0.175	0.114
-653.857	147.613	-0.207	-0.285
-652.843	-164.178	-0.373	0.018
-651.828	138.366	-0.088	-0.118
-650.814	204.467	0.111	-0.175
-649.799	800.000	0.018	-0.065
-648.784	265.822	0.012	-0.022
-647.770	-56.214	0.258	0.117
-646.755	-48.939	-0.250	0.122
-645.741	-94.824	-0.329	-0.091
-644.726	-72.305	-0.207	-0.078
-643.711	84.795	-0.112	0.125
-642.697	-116.878	-0.113	0.021
-641.682	-157.791	0.115	0.007
-640.668	9.561	-0.136	-0.105
-639.653	-1.912	-0.229	-0.164
-638.638	28.199	-0.106	0.091
-637.624	-74.296	0.224	-0.082
-636.609	177.901	-0.160	-0.237
-635.595	297.724	-0.147	-0.275
-634.580	-58.494	-0.286	0.126
-633.565	58.229	0.155	0.154
-632.551	-61.254	-0.204	-0.087
-631.536	-103.499	-0.236	-0.056
-630.522	800.000	-0.050	0.208
-629.507	73.074	-0.097	-0.103
-628.492	800.000	0.039	0.160
-627.478	-200.000	-0.044	0.214
-626.463	-98.858	-0.248	0.064
-625.449	-40.284	-0.203	0.107
-624.434	61.796	-0.104	-0.106
-623.419	-17.353	-0.091	-0.058
-622.405	372.240	0.102	-0.211
-621.390	-200.000	0.015	-0.077
-620.376	-37.182	0.248	0.135
-619.361	460.439	-0.192	0.434
-618.346	-70.745	-0.060	0.023
-617.332	29.458	0.157	0.136
-616.317	-150.662	0.179	-0.014
-615.303	-168.852	0.112	0.004
-614.288	-105.611	0.250	-0.058
-613.273	1.706	-0.117	-0.086
-612.259	358.777	0.194	-0.395
-611.244	-29.239	-0.163	-0.095
-610.230	-125.700	-0.112	0.017
-609.215	16.691	-0.299	-0.241
-608.201	-69.389	0.236	-0.092
-607.186	-14.549	-0.214	-0.140
-606.171	592.741	-0.146	-0.365
-605.157	-96.970	0.429	0.114
-604.142	-67.141	-0.200	-0.080
-603.128	-200.000	-0.000	0.135
-602.113	-122.014	0.381	-0.064
-601.098	-111.449	0.277	-0.057
-600.084	463.935	-0.185	-0.419
-599.069	26.534	0.116	-0.099
-598.055	95.613	0.124	0.144
-597.040	-96.511	0.087	-0.023
-596.025	-200.000	-0.027	0.465
-595.011	274.934	0.131	0.236
-593.996	-99.675	0.203	0.052
-592.982	-97.594	0.117	0.031
-591.967	179.823	0.021	0.031
-590.952	-41.186	0.176	0.092
-589.938	800.000	0.137	-0.396
-588.923	24.565	-0.222	-0.187
-587.909	-200.000	-0.001	-0.132
-586.894	335.881	-0.101	-0.199
-585.879	-71.131	-0.269	0.103
-584.865	766.369	-0.188	0.518
-583.850	93.174	0.202	-0.232
-582.836	-200.000	-0.017	-0.157
-581.821	-41.555	0.226	-0.118
-580.806	-200.000	-0.001	-0.210
-579.792	11.778	-0.077	0.060
-578.777	-78.885	-0.094	0.033
-577.763	800.000	-0.030	-0.094
-576.748	800.000	-0.067	-0.208
-575.733	-120.161	-0.191	-0.033
-574.719	-163.419	-0.377	0.018
-573.704	43.780	0.150	0.139
-572.690	800.000	-0.130	-0.391
-571.675	800.000	-0.043	-0.148
-570.661	93.679	0.273	-0.315
-569.646	-96.688	0.255	0.068
-568.631	-200.000	-0.004	0.101
-567.617	-0.196	0.100	0.073
-566.602	180.342	-0.097	-0.145
-565.588	51.369	-0.085	-0.082
-564.573	-200.000	0.008	0.173
-563.558	-141.488	0.284	0.029
-562.544	-126.295	0.250	-0.038
-561.529	75.114	-0.191	0.205
-560.515	-200.000	0.008	0.252
-559.500	-200.000	-0.007	-0.059
-558.485	287.157	-0.097	0.177
-557.471	-13.998	-0.310	-0.203
-556.456	-200.000	0.021	-0.146
-555.442	172.366	-0.106	-0.155
-554.427	-26.758	-0.225	-0.134
-553.412	45.145	0.128	0.120
-552.398	175.777	-0.085	-0.125
-551.383	-200.000	-0.060	-0.325
-550.369	-87.093	0.116	0.036
-549.354	496.967	0.119	-0.277
-548.339	263.357	0.170	0.300
-547.325	-59.038	0.198	-0.087
-546.310	-111.108	-0.255	0.053
-545.296	517.821	-0.023	-0.054
-544.281	85.704	-0.296	-0.331
-543.266	-56.112	-0.070	-0.032
-542.252	649.763	-0.062	-0.160
-541.237	-35.563	-0.214	-0.118
-540.223	-115.324	0.172	0.033
-539.208	79.340	0.095	0.103
-538.193	138.593	-0.061	0.082
-537.179	125.328	0.196	-0.250
-536.164	800.000	-0.020	-0.066
-535.150	123.305	-0.108	-0.137
-534.135	219.661	0.148	-0.241
-533.121	424.545	-0.093	0.203
-532.106	-26.401	-0.140	-0.083
-531.091	35.256	0.236	-0.209
-530.077	110.294	0.166	-0.202
-529.062	-188.096	-0.357	0.005
-528.048	-121.047	-0.089	-0.015
-527.033	-113.137	-0.172	0.034
-526.018	-16.609	0.521	-0.335
-525.004	-112.811	0.217	0.044
-523.989	-99.589	-0.361	-0.092
-522.975	-200.000	0.248	-0.000
-521.960	0.156	0.193	0.139
-520.945	555.689	0.069	-0.169
-519.931	-78.137	-0.286	0.100
-518.916	256.445	-0.042	-0.073
-517.902	-3.728	0.077	-0.054
-516.887	637.945	0.087	0.224
-515.872	-169.087	-0.142	-0.005
-514.858	-103.817	-0.030	-0.007
-513.843	-200.000	-0.007	-0.250
-512.829	-28.332	-0.174	0.102
-511.814	-200.000	0.038	-0.181
-510.799	-85.489	-0.248	-0.078
-509.785	527.320	0.046	-0.110
-508.770	-20.005	0.361	0.226
-507.756	-200.000	-0.007	0.161
-506.741	146.990	-0.189	-0.257
-505.726	-78.527	0.255	0.088
-504.712	-67.528	-0.119	-0.047
-503.697	800.000	-0.055	0.171
-502.683	47.272	-0.283	0.267
-501.668	-200.000	0.066	-0.297
-500.653	93.845	0.155	-0.178
-499.639	-37.219	-0.215	0.116
-498.624	-51.235	-0.217	-0.103
-497.610	-158.041	-0.132	-0.008
-496.595	-138.605	-0.103	0.011
-495.581	4.602	0.191	0.142
-494.566	78.581	-0.116	0.125
-493.551	426.802	-0.077	0.168
-492.537	-200.000	0.000	0.199
-491.522	800.000	0.021	0.061
-490.508	679.693	-0.086	-0.226
-489.493	18.339	0.407	0.329
-488.478	-57.246	0.161	-0.072
-487.464	29.265	-0.209	-0.180
-486.449	128.229	-0.124	-0.160
-485.435	-200.000	-0.058	-0.412
-484.420	48.469	0.131	0.124
-483.405	-18.115	0.292	-0.185
-482.391	192.663	0.083	0.126
-481.376	79.698	0.159	-0.173
-480.362	800.000	0.023	0.090
-479.347	-37.768	-0.213	0.115
-478.332	263.981	-0.131	-0.231
-477.318	-200.000	0.005	0.673
-476.303	-175.810	-0.168	-0.005
-475.289	-200.000	0.015	0.071
-474.274	800.000	0.023	0.084
-473.259	608.221	-0.133	-0.337
-472.245	800.000	-0.045	0.186
-471.230	-31.340	0.016	0.009
-470.216	-14.965	0.267	0.173
-469.201	800.000	-0.033	-0.127
-468.186	800.000	0.050	-0.194
-467.172	-53.730	0.211	-0.097
-466.157	800.000	0.114	0.347
-465.143	-148.644	-0.121	-0.010
-464.128	-200.000	-0.002	0.168
-463.113	-35.456	-0.134	0.074
-462.099	23.328	-0.146	0.122
-461.084	602.449	0.046	-0.116
-460.070	31.427	0.157	-0.136
-459.055	-87.017	0.175	-0.054
-458.040	-93.908	-0.191	0.053
-457.026	226.533	0.254	-0.417
-456.011	6.392	0.267	-0.201
-454.997	-74.774	-0.278	-0.101
-453.982	-38.743	0.170	0.091
-452.968	-136.955	-0.462	-0.054
-451.953	-82.467	-0.201	-0.066
-450.938	-200.000	0.030	0.224
-449.924	-83.638	-0.190	-0.061
-448.909	704.574	-0.058	0.156
-447.895	254.929	-0.062	0.108
-446.880	-200.000	0.153	-0.000
-445.865	-69.405	-0.168	0.065
-444.851	64.025	-0.320	-0.325
-443.836	800.000	-0.109	-0.368
-442.822	-86.403	-0.327	-0.101
-441.807	-200.000	0.044	0.220
-440.792	800.000	-0.084	-0.315
-439.778	-175.948	0.175	-0.005
-438.763	-81.091	0.205	0.069
-437.749	-8.994	0.145	-0.098
-436.734	-200.000	0.005	0.074
-435.719	38.548	-0.191	0.172
-434.705	-200.000	0.009	0.151
-433.690	117.807	0.062	-0.077
-432.676	-11.798	-0.143	-0.095
-431.661	-200.000	-0.030	-0.204
-430.646	-79.175	-0.170	0.058
-429.632	-200.000	-0.015	-0.358
-428.617	-200.000	-0.006	0.178
-427.603	800.000	-0.096	0.366
-426.588	82.270	0.327	0.358
-425.573	-1.056	-0.155	-0.111
-424.559	-200.000	-0.027	0.225
-423.544	800.000	-0.070	-0.217
-422.530	-7.801	-0.204	0.139
-421.515	-200.000	-0.019	-0.130
-420.500	-104.749	-0.324	0.075
-419.486	378.746	0.148	-0.306
-418.471	-200.000	-0.030	0.346
-417.457	48.895	-0.097	-0.092
-416.442	-116.295	0.311	0.058
-415.428	508.217	0.110	-0.258
-414.413	37.434	0.106	0.095
-413.398	800.000	0.033	0.121
-412.384	-23.063	0.183	-0.112
-411.369	-67.708	0.155	-0.061
-410.355	-103.586	-0.619	0.147
-409.340	11.738	-0.057	-0.044
-408.325	120.215	-0.226	-0.283
-407.311	208.936	0.175	0.277
-406.296	-200.000	-0.002	-0.136
-405.282	394.424	0.162	0.341
-404.267	-123.590	-0.169	-0.027
-403.252	-200.000	0.030	-0.143
-402.238	29.331	-0.195	-0.167
-401.223	159.676	-0.242	-0.340
-400.209	65.498	-0.076	-0.077
-399.194	123.266	0.144	0.182
-398.179	659.496	0.053	0.136
-397.165	-39.307	-0.246	-0.130
-396.150	800.000	0.032	0.128
-395.136	-137.177	-0.197	0.023
-394.121	101.822	-0.161	-0.190
-393.106	800.000	-0.066	-0.230
-392.092	-181.752	-0.259	0.005
-391.077	173.111	0.041	-0.060
-390.063	45.195	0.147	-0.137
-389.048	710.876	-0.025	0.067
-388.033	-48.627	0.239	-0.116
-387.019	-59.017	-0.121	-0.053
-386.004	145.175	-0.160	0.215
-384.990	-200.000	0.005	-0.204
-383.975	204.716	0.070	0.109
-382.960	221.021	-0.183	-0.296
-381.946	393.744	-0.091	-0.190
-380.931	76.018	-0.306	-0.326
-379.917	-200.000	0.003	-0.222
-378.902	-200.000	-0.006	-0.062
-377.888	582.490	-0.056	0.138
-376.873	707.418	-0.041	-0.108
-375.858	121.642	0.082	-0.103
-374.844	-200.000	-0.001	-0.154
-373.829	580.979	0.095	0.233
-372.815	256.649	0.143	0.247
-371.800	488.806	-0.027	-0.062
-370.785	800.000	0.038	0.126
-369.771	97.950	0.251	0.291
-368.756	-116.365	0.087	0.016
-367.742	-77.193	0.344	0.121
-366.727	-144.921	-0.309	-0.028
-365.712	-145.332	0.044	0.004
-364.698	800.000	0.025	-0.109
-363.683	-17.875	0.187	0.118
-362.669	-4.469	0.263	0.183
-361.654	260.352	-0.132	0.229
-360.639	-200.000	0.019	0.132
-359.625	80.842	-0.058	-0.063
-358.610	20.912	-0.070	-0.057
-357.596	800.000	-0.122	-0.478
-356.581	-177.196	0.156	0.004
-355.566	373.034	-0.149	0.305
-354.552	319.206	-0.098	0.187
-353.537	-74.791	0.076	0.027
-352.523	-200.000	0.070	0.407
-351.508	269.149	0.169	-0.299
-350.493	115.191	0.124	-0.153
-349.479	-200.000	0.001	-0.126
-348.464	-200.000	-0.296	-0.001
-347.450	-200.000	0.035	-0.158
-346.435	-42.105	0.256	0.132
-345.420	41.978	-0.293	0.267
-344.406	7.627	-0.316	0.238
-343.391	-18.760	0.195	0.122
-342.377	-46.163	0.079	0.039
-341.362	-106.940	-0.302	0.067
-340.348	-142.350	-0.355	-0.035
-339.333	-164.563	0.176	-0.008
-338.318	-27.375	0.182	0.107
-337.304	218.088	-0.073	0.118
-336.289	-37.853	0.303	0.162
-335.275	-113.185	-0.174	-0.034
-334.260	-86.983	0.184	0.057
-333.245	411.224	-0.162	-0.346
-332.231	721.445	0.029	0.076
-331.216	-71.830	0.182	-0.068
-330.202	-200.000	-0.005	-0.389
-329.187	-50.770	0.150	-0.071
-328.172	-45.153	0.005	0.002
-327.158	227.949	0.198	0.323
-326.143	-25.401	-0.211	0.125
-325.129	-176.616	-0.074	0.002
-324.114	-90.980	0.093	0.027
-323.099	800.000	-0.092	-0.269
-322.085	-86.042	0.220	-0.068
-321.070	-118.724	0.115	0.020
-320.056	408.676	-0.068	0.145
-319.041	216.640	0.226	-0.362
-318.026	-121.693	0.249	-0.041
-317.012	-200.000	0.006	-0.129
-315.997	107.887	-0.134	0.160
-314.983	577.750	-0.049	-0.119
-313.968	-126.183	-0.188	-0.028
-312.953	5.512	-0.025	0.018
-311.939	-200.000	0.013	0.137
-310.924	192.762	-0.044	-0.067
-309.910	-0.662	0.050	0.036
-308.895	479.713	0.095	-0.216
-307.880	73.721	-0.095	0.100
-306.866	-64.499	0.089	0.036
-305.851	39.262	0.239	0.215
-304.837	-108.374	0.030	0.007
-303.822	-29.281	-0.119	0.069
-302.807	1.032	0.241	0.174
-301.793	85.686	-0.219	0.242
-300.778	208.065	-0.201	-0.316
-299.764	-200.000	0.016	0.116
-298.749	-200.000	0.041	0.632
-297.735	-45.641	-0.215	0.107
-296.720	-200.000	-0.099	0.464
-295.705	-80.568	-0.229	-0.077
-294.691	-126.880	-0.197	-0.029
-293.676	-113.419	-0.106	0.021
-292.662	663.337	-0.102	-0.265
-291.647	-111.007	0.224	-0.046
-290.632	35.508	0.153	0.135
-289.618	5.475	0.150	0.111
-288.603	64.464	0.132	0.133
-287.589	9.291	-0.092	0.070
-286.574	-94.835	0.203	0.055
-285.559	-139.226	0.350	0.038
-284.545	80.589	-0.015	0.016
-283.530	407.032	-0.146	0.309
-282.516	166.732	0.305	0.434
-281.501	401.277	0.128	-0.270
-280.486	-25.137	-0.073	-0.044
-279.472	-111.082	0.126	0.026
-278.457	12.222	0.287	0.222
-277.443	285.432	-0.023	-0.041
-276.428	-25.087	-0.089	0.053
-275.413	-200.000	0.010	0.085
-274.399	621.827	0.105	-0.265
-273.384	24.506	-0.197	-0.164
-272.370	-124.767	0.239	0.037
-271.355	114.792	0.176	-0.215
-270.340	2.199	0.246	-0.178
-269.326	-5.471	-0.164	0.113
-268.311	72.534	0.069	0.072
-267.297	-200.000	-0.006	0.180
-266.282	74.152	-0.091	-0.096
-265.267	166.509	0.133	-0.189
-264.253	54.422	-0.223	0.215
-263.238	-80.652	0.376	0.125
-262.224	738.924	-0.032	-0.085
-261.209	-200.000	0.064	-0.317
-260.195	141.778	-0.042	0.056
-259.180	-124.233	-0.213	0.033
-258.165	262.077	-0.156	0.272
-257.151	-94.740	0.341	0.093
-256.136	122.206	-0.132	0.166
-255.122	-200.000	-0.075	-0.366
-254.107	308.069	0.103	-0.193
-253.092	32.407	0.229	0.199
-252.078	-78.578	-0.293	-0.101
-251.063	370.092	-0.026	0.053
-250.049	-129.311	0.090	0.013
-249.034	379.021	-0.117	0.240
-248.019	800.000	0.156	0.521
-247.005	261.112	0.094	0.163
-245.990	800.000	0.056	-0.156
-244.976	-200.000	-0.055	0.262
-243.961	151.033	0.115	0.157
-242.946	-63.411	0.229	0.094
-241.932	269.266	-0.202	-0.355
-240.917	41.054	0.182	0.164
-239.903	-200.000	0.012	-0.064
-238.888	-156.792	0.061	0.004
-237.873	29.768	0.108	0.092
-236.859	299.622	0.149	-0.275
-235.844	-200.000	0.036	0.197
-234.830	-40.561	0.227	-0.118
-233.815	-154.258	-0.230	0.016
-232.800	800.000	0.081	0.296
-231.786	-60.801	0.229	-0.097
-230.771	800.000	0.074	0.254
-229.757	68.080	-0.074	-0.076
-228.742	-27.409	-0.208	-0.121
-227.727	741.902	-0.037	0.101
-226.713	-71.137	0.212	-0.080
-225.698	16.007	-0.072	0.057
-224.684	271.006	-0.054	0.096
-223.669	-200.000	0.033	0.341
-222.655	-200.000	0.005	-0.061
-221.640	-8.062	-0.264	0.178
-220.625	800.000	0.123	0.393
-219.611	48.489	0.214	0.201
-218.596	-98.103	0.040	-0.010
-217.582	-110.307	0.058	-0.012
-216.567	53.413	0.297	0.285
-215.552	800.000	-0.034	-0.136
-214.538	-200.000	0.009	0.082
-213.523	305.209	-0.035	-0.065
-212.509	-34.021	-0.332	0.183
-211.494	-200.000	0.013	0.203
-210.479	-43.427	-0.104	0.053
-209.465	800.000	-0.061	0.213
-208.450	-200.000	-0.026	0.383
-207.436	-200.000	-0.012	0.287
-206.421	-18.479	0.149	-0.093
-205.406	800.000	0.024	0.093
-204.392	-114.392	-0.203	0.039
-203.377	-165.791	0.099	0.004
-202.363	-100.667	-0.266	0.066
-201.348	-75.732	-0.171	0.061
-200.333	800.000	-0.132	-0.432
-199.319	66.718	0.126	0.129
-198.304	-9.527	0.116	0.077
-197.290	-37.963	0.084	-0.045
-196.275	-49.017	-0.186	0.089
-195.260	254.342	0.054	-0.092
-194.246	-60.523	-0.276	0.117
-193.231	800.000	0.071	-0.275
-192.217	-123.958	0.164	0.026
-191.202	-200.000	0.007	-0.071
-190.187	35.115	0.219	-0.192
-189.173	800.000	0.062	0.258
-188.158	13.280	-0.139	0.108
-187.144	-200.000	0.057	0.317
-186.129	-200.000	0.054	0.524
-185.114	40.537	0.289	-0.260
-184.100	-200.000	-0.018	-0.083
-183.085	-163.161	-0.290	-0.014
-182.071	-72.937	0.215	0.079
-181.056	-64.872	0.103	0.042
-180.042	-129.306	0.173	0.024
-179.027	369.194	0.034	-0.068
-178.012	-60.303	0.227	-0.097
-176.998	-23.680	-0.185	0.111
-175.983	141.076	0.192	-0.253
-174.969	2.647	0.371	-0.269
-173.954	800.000	-0.095	-0.327
-172.939	3.126	0.052	0.038
-171.925	800.000	-0.065	0.215
-170.910	71.241	0.035	-0.036
-169.896	-132.702	0.394	-0.050
-168.881	-142.948	0.195	-0.019
-167.866	-200.000	-0.001	-0.473
-166.852	-200.000	-0.022	-0.183
-165.837	269.129	0.119	0.209
-164.823	-93.882	-0.118	0.032
-163.808	-71.324	0.138	0.052
-162.793	172.519	0.068	-0.098
-161.779	-36.326	-0.123	-0.066
-160.764	-200.000	0.003	0.030
-159.750	-163.588	-0.083	0.004
-158.735	-163.062	0.381	0.018
-157.720	128.727	-0.146	-0.186
-156.706	561.022	-0.022	0.052
-155.691	-81.156	-0.255	0.084
-154.677	-157.942	0.254	-0.015
-153.662	160.717	0.077	0.108
-152.647	336.674	0.146	-0.284
-151.633	81.365	-0.332	0.359
-150.618	-182.632	-0.194	0.004
-149.604	800.000	-0.120	-0.383
-148.589	-27.164	-0.272	-0.158
-147.574	-47.101	-0.207	-0.101
-146.560	-200.000	-0.004	0.028
-145.545	-200.000	-0.030	0.300
-144.531	145.403	-0.105	0.140
-143.516	-139.733	-0.232	0.025
-142.502	-200.000	0.004	-0.194
-141.487	-200.000	-0.061	-0.468
-140.472	164.722	-0.013	-0.019
-139.458	-9.561	-0.205	0.136
-138.443	-200.000	-0.001	0.061
-137.429	-64.358	-0.186	0.076
-136.414	111.305	0.146	0.176
-135.399	-83.212	0.184	0.059
-134.385	39.738	0.229	0.205
-133.370	-71.572	-0.459	-0.171
-132.356	53.588	-0.239	-0.229
-131.341	59.520	0.420	-0.413
-130.326	599.055	-0.123	0.305
-129.312	83.047	0.098	0.107
-128.297	-90.119	-0.131	0.038
-127.283	-200.000	0.003	0.147
-126.268	-25.635	0.116	0.068
-125.253	-174.123	-0.312	0.009
-124.239	-107.963	0.174	-0.038
-123.224	-200.000	0.063	0.313
-122.210	-166.454	-0.316	-0.013
-121.195	800.000	-0.117	-0.443
-120.180	-44.883	-0.237	-0.118
