DTS Sentinel unit serial number:	SN413079Multiplexer serial number:	ORYXHardware model number:	OX4-SRSoftware version number:	ORYX F/W v4.00 Oryx Data Collector v3.7.2.0data status	okinstallation	princeton_trtdifferential loss correction	single-endedforward channel	channel 4reverse channel	N/Adate	2019/09/12time	21:33:34forward acquisition time	60.00reverse acquisition time	0.00gamma	496.2192k internal	0.2314k external	0.2314temperature offset calibration	1.0164default loss term (dB/km)	0.3790temperature slope calibration	1.0000multiplexer offset coefficient	1.0000multiplexer slope coefficient	1.0000fibre end	0.00T internal ref (°C)	30.39T ext. ref 1 (°C)	3.63T ext. ref 2 (°C)	25.03length (m)	temperature (°C)	Stokes	anti-Stokes-747.200	-82.967	0.126	-0.041
-746.185	-161.364	-0.248	0.013
-745.171	-200.000	-0.102	-0.468
-744.156	-148.501	-0.118	0.010
-743.142	159.564	0.078	-0.110
-742.127	-101.739	0.307	0.075
-741.112	6.709	-0.100	-0.076
-740.098	360.283	-0.112	0.228
-739.083	-152.673	0.294	0.021
-738.069	-200.000	-0.007	0.042
-737.054	-200.000	0.035	-0.249
-736.039	-200.000	0.002	-0.203
-735.025	-52.824	0.444	-0.207
-734.010	-200.000	0.032	0.147
-732.996	-67.902	-0.086	-0.034
-731.981	85.081	-0.139	-0.154
-730.966	-63.584	0.394	-0.164
-729.952	179.852	-0.173	-0.257
-728.937	-117.839	-0.609	-0.111
-727.923	800.000	0.058	-0.206
-726.908	-59.179	-0.152	-0.066
-725.894	278.664	0.032	-0.059
-724.879	-28.588	-0.344	0.201
-723.864	-200.000	0.013	-0.117
-722.850	-200.000	-0.038	-0.174
-721.835	-163.210	-0.375	-0.018
-720.821	52.617	0.077	0.074
-719.806	-115.046	-0.247	-0.048
-718.791	105.440	0.319	-0.382
-717.777	-75.900	-0.320	0.115
-716.762	800.000	0.095	-0.303
-715.748	-119.388	-0.097	0.017
-714.733	-34.448	-0.077	-0.043
-713.718	-200.000	0.063	-0.406
-712.704	-68.554	0.289	-0.113
-711.689	161.821	-0.054	-0.077
-710.675	-200.000	0.002	-0.201
-709.660	-64.381	-0.305	0.126
-708.645	94.046	0.042	0.048
-707.631	-95.578	-0.162	0.044
-706.616	800.000	0.123	-0.490
-705.602	-77.669	-0.090	0.031
-704.587	-127.380	0.235	0.035
-703.572	51.969	-0.143	-0.138
-702.558	-88.862	0.218	0.065
-701.543	800.000	0.068	0.196
-700.529	-2.074	-0.221	-0.157
-699.514	201.735	0.114	0.177
-698.499	-155.427	0.129	0.008
-697.485	432.902	-0.209	0.459
-696.470	49.293	0.055	-0.052
-695.456	21.182	0.283	-0.232
-694.441	-200.000	-0.055	-0.266
-693.426	-132.925	0.433	0.056
-692.412	157.603	0.027	0.038
-691.397	44.842	-0.047	0.044
-690.383	88.743	0.116	-0.131
-689.368	89.420	-0.185	-0.209
-688.354	-34.435	0.168	-0.093
-687.339	216.174	0.108	0.174
-686.324	-146.972	0.181	0.016
-685.310	-83.067	0.226	0.074
-684.295	323.614	-0.077	-0.149
-683.281	235.614	0.016	0.027
-682.266	293.820	0.049	-0.091
-681.251	-92.213	0.358	-0.102
-680.237	-63.268	-0.085	0.036
-679.222	-200.000	-0.012	-0.122
-678.208	-63.663	0.156	0.065
-677.193	800.000	-0.050	-0.198
-676.178	-15.269	0.165	-0.107
-675.164	800.000	0.120	0.469
-674.149	612.293	0.029	-0.075
-673.135	-200.000	-0.016	0.104
-672.120	-200.000	-0.051	-0.243
-671.105	-123.438	0.342	0.055
-670.091	674.450	0.108	-0.283
-669.076	-200.000	-0.020	-0.091
-668.062	-200.000	-0.009	0.199
-667.047	-52.663	-0.142	0.066
-666.032	800.000	-0.106	-0.369
-665.018	800.000	-0.049	0.216
-664.003	-80.123	0.227	-0.077
-662.989	-42.119	-0.109	0.056
-661.974	800.000	0.077	-0.269
-660.959	800.000	0.100	-0.390
-659.945	-200.000	-0.042	-0.206
-658.930	593.856	0.020	0.049
-657.916	-93.580	-0.223	-0.062
-656.901	96.461	0.146	0.169
-655.886	800.000	0.093	0.295
-654.872	-200.000	0.006	0.087
-653.857	800.000	-0.110	0.337
-652.843	251.043	0.243	-0.417
-651.828	-117.284	-0.255	0.047
-650.814	351.987	-0.132	0.265
-649.799	800.000	-0.027	0.087
-648.784	-125.518	-0.191	-0.029
-647.770	452.124	-0.071	-0.160
-646.755	-144.406	-0.297	0.028
-645.741	-38.815	-0.174	-0.093
-644.726	-62.252	0.160	-0.067
-643.711	166.441	0.133	-0.191
-642.697	-36.319	-0.299	-0.163
-641.682	-61.463	0.405	-0.172
-640.668	380.915	0.061	-0.126
-639.653	-143.175	0.337	0.033
-638.638	108.483	-0.185	0.224
-637.624	-59.928	0.213	0.092
-636.609	-92.845	-0.257	0.073
-635.595	-70.197	0.357	0.137
-634.580	69.926	0.099	0.103
-633.565	-200.000	-0.046	0.243
-632.551	772.781	-0.116	0.321
-631.536	27.039	0.094	0.079
-630.522	79.117	0.214	0.232
-629.507	800.000	0.066	-0.260
-628.492	-109.268	-0.027	0.006
-627.478	68.685	0.109	0.113
-626.463	-99.541	0.040	-0.010
-625.449	406.168	-0.028	0.060
-624.434	-77.186	-0.182	0.064
-623.419	-200.000	-0.017	0.085
-622.405	-200.000	0.002	0.038
-621.390	800.000	0.037	0.123
-620.376	-138.496	-0.155	0.017
-619.361	145.885	0.074	0.100
-618.346	-114.156	0.125	-0.024
-617.332	-200.000	-0.009	0.279
-616.317	84.608	0.178	0.197
-615.303	-94.167	-0.138	-0.038
-614.288	800.000	0.060	-0.241
-613.273	-200.000	0.095	0.439
-612.259	-200.000	-0.023	0.361
-611.244	419.970	-0.009	0.019
-610.230	255.214	0.174	0.300
-609.215	564.337	0.198	0.483
-608.201	122.529	-0.099	-0.125
-607.186	-182.544	0.416	-0.008
-606.171	-155.604	0.416	-0.027
-605.157	81.594	-0.120	-0.131
-604.142	-200.000	-0.059	0.295
-603.128	18.448	-0.313	-0.252
-602.113	557.676	-0.061	0.147
-601.098	-20.229	0.032	-0.020
-600.084	-200.000	-0.009	0.161
-599.069	140.224	0.146	-0.194
-598.055	-200.000	0.031	-0.438
-597.040	800.000	0.053	-0.179
-596.025	105.067	-0.133	0.158
-595.011	0.800	0.205	0.148
-593.996	206.045	-0.065	-0.102
-592.982	-67.934	-0.339	0.133
-591.967	-105.261	0.251	0.058
-590.952	-123.534	-0.314	-0.050
-589.938	731.406	-0.016	-0.043
-588.923	-178.702	0.230	-0.005
-587.909	-156.146	0.144	0.009
-586.894	646.908	-0.137	0.354
-585.879	364.033	-0.186	-0.378
-584.865	63.164	-0.132	-0.133
-583.850	-144.356	-0.150	-0.014
-582.836	800.000	0.115	0.493
-581.821	-200.000	0.000	-0.325
-580.806	-200.000	0.004	-0.080
-579.792	122.322	-0.019	-0.024
-578.777	426.839	-0.050	-0.109
-577.763	-44.915	-0.081	0.040
-576.748	-200.000	0.004	0.155
-575.733	-200.000	-0.019	-0.344
-574.719	-81.949	-0.236	0.078
-573.704	107.155	0.206	-0.247
-572.690	-189.293	-0.151	0.002
-571.675	114.939	-0.119	0.146
-570.661	397.923	-0.159	0.335
-569.646	23.730	0.277	0.230
-568.631	-200.000	0.001	0.142
-567.617	800.000	-0.046	-0.133
-566.602	-200.000	-0.014	0.194
-565.588	27.248	-0.194	-0.164
-564.573	357.993	-0.081	-0.162
-563.558	-123.854	0.098	-0.016
-562.544	-87.678	-0.108	-0.033
-561.529	25.645	-0.075	-0.063
-560.515	800.000	-0.082	0.307
-559.500	-196.008	0.252	-0.002
-558.485	-200.000	0.114	-0.000
-557.471	-191.918	-0.543	0.005
-556.456	510.808	-0.141	-0.330
-555.442	56.255	-0.305	-0.299
-554.427	-116.051	0.108	0.020
-553.412	104.123	-0.124	-0.146
-552.398	-122.607	-0.237	0.039
-551.383	-192.871	-0.275	0.003
-550.369	-200.000	0.004	-0.137
-549.354	-38.023	-0.123	0.066
-548.339	-139.783	0.136	-0.015
-547.325	-155.364	0.050	-0.003
-546.310	538.957	0.103	-0.246
-545.296	148.600	0.116	-0.158
-544.281	-69.636	-0.157	0.060
-543.266	-90.335	-0.220	0.064
-542.252	119.476	0.155	0.193
-541.237	-97.057	-0.227	-0.060
-540.223	-200.000	-0.052	-0.335
-539.208	-15.863	-0.160	-0.102
-538.193	-129.270	0.477	-0.067
-537.179	-87.677	-0.050	0.015
-536.164	37.811	-0.046	-0.041
-535.150	69.906	-0.104	-0.108
-534.135	525.507	-0.060	0.143
-533.121	-200.000	0.012	0.140
-532.106	10.777	0.231	0.177
-531.091	174.119	0.124	0.181
-530.077	-42.448	-0.229	-0.118
-529.062	-82.395	0.318	-0.104
-528.048	57.927	-0.170	0.168
-527.033	-67.986	0.281	-0.110
-526.018	800.000	0.084	-0.258
-525.004	-166.856	-0.334	-0.014
-523.989	-200.000	0.004	0.217
-522.975	159.303	0.055	0.076
-521.960	-99.776	0.036	0.009
-520.945	-16.280	-0.117	-0.074
-519.931	137.789	-0.143	-0.188
-518.916	-49.192	0.206	0.099
-517.902	588.993	0.007	-0.016
-516.887	-162.557	0.251	-0.012
-515.872	-32.294	-0.121	-0.068
-514.858	-48.892	-0.246	-0.119
-513.843	-22.043	0.193	-0.118
-512.829	-41.462	0.125	-0.065
-511.814	-4.052	0.207	0.144
-510.799	13.209	-0.124	0.096
-509.785	-35.108	-0.207	-0.113
-508.770	258.601	0.151	-0.261
-507.756	118.845	-0.213	-0.265
-506.741	800.000	0.054	-0.236
-505.726	800.000	0.076	0.266
-504.712	24.234	-0.341	-0.283
-503.697	800.000	-0.072	-0.292
-502.683	106.773	-0.083	0.099
-501.668	-200.000	-0.031	0.260
-500.653	-1.129	-0.138	0.098
-499.639	32.176	0.173	-0.150
-498.624	-200.000	-0.010	-0.202
-497.610	-200.000	-0.016	-0.255
-496.595	7.450	0.135	-0.101
-495.581	199.873	0.122	0.188
-494.566	426.627	-0.087	-0.188
-493.551	-63.447	0.127	0.052
-492.537	48.907	-0.151	-0.142
-491.522	-148.008	-0.058	-0.005
-490.508	-70.490	-0.172	0.065
-489.493	510.709	-0.062	-0.144
-488.478	225.366	-0.187	0.304
-487.464	-22.472	-0.271	0.165
-486.449	191.254	0.137	-0.208
-485.435	502.802	-0.015	-0.035
-484.420	-200.000	0.036	0.226
-483.405	-200.000	0.049	-0.217
-482.391	-200.000	-0.026	-0.142
-481.376	454.598	0.057	-0.127
-480.362	415.592	0.122	0.260
-479.347	-66.839	-0.405	-0.161
-478.332	594.331	0.114	-0.282
-477.318	331.419	-0.154	0.298
-476.303	97.287	-0.119	0.137
-475.289	-51.788	-0.161	0.075
-474.274	50.535	0.219	-0.208
-473.259	21.774	-0.133	0.109
-472.245	-88.600	-0.446	0.133
-471.230	-51.184	-0.246	-0.116
-470.216	305.741	0.196	-0.366
-469.201	23.400	0.205	-0.169
-468.186	800.000	0.046	0.166
-467.172	292.764	-0.192	0.351
-466.157	-97.837	-0.120	0.031
-465.143	-101.807	0.299	0.073
-464.128	313.506	0.046	-0.087
-463.113	108.152	-0.095	0.114
-462.099	-90.676	0.285	-0.083
-461.084	135.865	-0.188	0.246
-460.070	72.951	0.046	0.048
-459.055	-200.000	0.004	-0.071
-458.040	258.763	0.282	0.487
-457.026	208.250	0.114	-0.179
-456.011	-100.248	0.148	0.037
-454.997	800.000	0.078	-0.338
-453.982	206.122	0.083	-0.130
-452.968	-128.505	0.300	-0.043
-451.953	53.494	-0.107	0.103
-450.938	90.264	0.069	-0.077
-449.924	-200.000	0.009	0.163
-448.909	23.970	-0.215	0.178
-447.895	255.335	0.165	0.283
-446.880	-136.158	0.385	0.045
-445.865	-189.610	-0.129	-0.001
-444.851	-75.176	-0.216	-0.077
-443.836	59.647	-0.167	0.165
-442.822	127.548	0.162	0.206
-441.807	-56.172	0.098	0.044
-440.792	349.749	0.222	-0.440
-439.778	276.270	0.288	-0.512
-438.763	-29.849	0.099	0.057
-437.749	-46.188	0.238	-0.118
-436.734	800.000	-0.091	-0.401
-435.719	-200.000	-0.046	-0.313
-434.705	277.773	-0.123	-0.219
-433.690	-169.308	-0.160	0.006
-432.676	-200.000	0.019	0.140
-431.661	469.590	0.011	-0.025
-430.646	-11.897	-0.112	0.073
-429.632	244.286	-0.160	0.269
-428.617	-0.129	-0.072	-0.051
-427.603	-200.000	-0.045	0.216
-426.588	44.668	-0.049	0.045
-425.573	225.905	-0.175	-0.283
-424.559	146.775	0.103	-0.139
-423.544	-18.938	0.212	-0.132
-422.530	345.810	0.053	0.105
-421.515	-69.535	-0.306	0.117
-420.500	215.754	0.035	0.055
-419.486	106.353	0.195	-0.232
-418.471	-200.000	-0.003	-0.181
-417.457	363.956	-0.130	-0.262
-416.442	-68.729	-0.185	-0.072
-415.428	-146.398	0.127	-0.011
-414.413	49.335	-0.275	-0.258
-413.398	-200.000	0.048	0.340
-412.384	-34.603	-0.286	-0.157
-411.369	-97.504	-0.112	-0.029
-410.355	-138.807	0.048	0.005
-409.340	800.000	-0.038	-0.139
-408.325	-72.692	0.202	0.075
-407.311	-21.676	0.133	-0.081
-406.296	299.757	-0.051	0.094
-405.282	180.164	-0.221	0.324
-404.267	342.774	-0.114	-0.223
-403.252	21.809	0.161	-0.131
-402.238	800.000	-0.023	0.077
-401.223	-111.269	-0.278	0.057
-400.209	326.803	-0.071	-0.136
-399.194	129.023	0.342	-0.436
-398.179	-29.159	0.102	-0.058
-397.165	189.455	0.276	0.413
-396.150	57.137	0.388	0.378
-395.136	-23.182	-0.222	0.134
-394.121	-200.000	-0.002	-0.192
-393.106	-9.693	-0.237	-0.158
-392.092	-56.872	-0.388	0.171
-391.077	-58.022	0.244	-0.106
-390.063	10.500	-0.151	0.115
-389.048	4.593	0.175	0.128
-388.033	-15.078	-0.152	0.097
-387.019	57.805	0.083	-0.081
-386.004	-110.288	0.239	0.050
-384.990	-35.472	0.175	-0.095
-383.975	-45.181	-0.024	0.012
-382.960	441.703	-0.019	0.042
-381.946	251.810	0.032	-0.054
-380.931	46.046	-0.071	-0.066
-379.917	54.925	0.344	0.332
-378.902	-141.933	-0.113	0.011
-377.888	-200.000	-0.008	0.066
-376.873	194.360	0.133	-0.202
-375.858	-200.000	-0.017	0.150
-374.844	201.335	0.046	-0.071
-373.829	-30.737	-0.123	-0.070
-372.815	-200.000	-0.041	0.189
-371.800	238.861	0.107	0.178
-370.785	-38.608	0.117	-0.062
-369.771	104.217	0.134	0.157
-368.756	800.000	-0.035	0.148
-367.742	-200.000	0.010	0.178
-366.727	-157.267	-0.284	0.017
-365.712	142.309	-0.076	-0.100
-364.698	-200.000	-0.036	0.171
-363.683	68.963	-0.302	-0.310
-362.669	65.454	0.197	0.200
-361.654	71.948	-0.036	-0.038
-360.639	-125.271	-0.356	-0.054
-359.625	96.113	0.134	0.153
-358.610	100.860	0.230	0.268
-357.596	-24.558	-0.089	-0.053
-356.581	-57.700	0.036	-0.016
-355.566	260.906	0.103	-0.178
-354.552	-75.670	-0.418	-0.148
-353.537	20.567	0.032	-0.025
-352.523	-79.915	0.100	0.033
-351.508	271.148	0.068	-0.119
-350.493	341.007	-0.028	-0.055
-349.479	-2.317	0.080	-0.056
-348.464	0.231	0.234	0.167
-347.450	-41.936	-0.081	-0.041
-346.435	314.857	-0.058	-0.109
-345.420	41.780	0.081	-0.073
-344.406	43.267	0.129	-0.118
-343.391	327.697	-0.050	0.095
-342.377	-197.503	-0.074	-0.000
-341.362	-76.528	0.122	0.043
-340.348	17.327	0.177	-0.140
-339.333	149.382	0.149	-0.202
-338.318	432.170	0.117	-0.253
-337.304	6.749	-0.226	0.168
-336.289	-58.959	0.171	0.074
-335.275	90.539	-0.102	0.114
-334.260	108.780	0.206	0.246
-333.245	800.000	-0.128	0.381
-332.231	43.024	0.233	-0.212
-331.216	81.609	-0.037	0.040
-330.202	800.000	-0.063	-0.246
-329.187	46.340	-0.059	0.055
-328.172	-178.519	0.231	0.005
-327.158	-200.000	0.008	-0.161
-326.143	-22.206	0.116	0.070
-325.129	-200.000	-0.004	-0.298
-324.114	45.292	0.064	0.059
-323.099	-5.303	-0.066	0.045
-322.085	318.049	0.215	0.406
-321.070	-150.395	0.134	0.010
-320.056	-200.000	0.023	0.244
-319.041	-97.140	-0.119	-0.031
-318.026	800.000	-0.077	0.277
-317.012	-200.000	-0.013	0.127
-315.997	15.147	-0.194	-0.152
-314.983	119.200	-0.113	-0.140
-313.968	-200.000	0.017	0.153
-312.953	-13.449	-0.166	-0.107
-311.939	-200.000	-0.047	0.206
-310.924	390.255	0.056	0.116
-309.910	217.115	0.116	-0.185
-308.895	800.000	0.133	-0.400
-307.880	614.424	0.122	0.304
-306.866	6.308	-0.124	0.092
-305.851	-93.471	-0.037	0.010
-304.837	-44.842	0.339	-0.168
-303.822	35.167	0.207	0.180
-302.807	37.604	-0.206	-0.182
-301.793	-122.898	0.266	0.043
-300.778	104.188	-0.154	0.180
-299.764	-102.813	-0.199	0.047
-298.749	800.000	-0.104	-0.296
-297.735	41.957	0.269	-0.243
-296.720	355.532	-0.159	0.315
-295.705	800.000	0.044	0.190
-294.691	358.773	0.043	-0.085
-293.676	348.196	-0.047	-0.093
-292.662	-121.626	-0.611	0.101
-291.647	800.000	0.097	0.297
-290.632	-200.000	0.009	-0.262
-289.618	-60.047	-0.276	-0.118
-288.603	68.711	0.127	-0.130
-287.589	55.293	-0.254	-0.244
-286.574	46.766	0.144	0.133
-285.559	-147.328	-0.235	-0.020
-284.545	629.111	0.062	-0.156
-283.530	480.919	-0.100	-0.226
-282.516	-42.924	-0.193	-0.098
-281.501	-200.000	-0.007	-0.331
-280.486	-200.000	-0.008	0.210
-279.472	800.000	-0.037	0.124
-278.457	784.017	-0.076	-0.207
-277.443	-20.539	-0.278	-0.170
-276.428	-29.846	0.198	0.112
-275.413	-200.000	-0.016	0.220
-274.399	-102.326	-0.029	0.007
-273.384	-137.604	0.081	0.009
-272.370	-57.740	0.186	-0.081
-271.355	800.000	-0.044	-0.142
-270.340	800.000	-0.064	0.195
-269.326	-90.600	0.111	0.032
-268.311	-31.372	0.276	0.154
-267.297	-200.000	0.002	0.138
-266.282	53.456	-0.115	-0.110
-265.267	-200.000	-0.016	-0.371
-264.253	-200.000	0.045	0.348
-263.238	-200.000	0.062	0.273
-262.224	-82.577	0.122	0.039
-261.209	800.000	0.050	0.138
-260.195	356.739	0.056	0.112
-259.180	-200.000	-0.011	0.266
-258.165	800.000	-0.049	0.168
-257.151	-70.721	0.127	0.048
-256.136	110.819	-0.060	0.072
-255.122	800.000	-0.087	0.247
-254.107	-21.029	-0.056	0.034
-253.092	-17.148	0.088	-0.055
-252.078	-33.568	-0.225	-0.123
-251.063	-69.416	0.138	0.053
-250.049	-20.606	0.091	0.055
-249.034	-200.000	-0.038	-0.209
-248.019	800.000	0.077	-0.276
-247.005	40.645	0.065	0.058
-245.990	-122.246	0.031	0.005
-244.976	-120.292	-0.116	-0.020
-243.961	-53.252	-0.049	0.022
-242.946	135.045	0.148	0.191
-241.932	-200.000	-0.011	-0.075
-240.917	-137.547	-0.061	-0.007
-239.903	473.950	-0.092	-0.206
-238.888	464.865	0.090	-0.201
-237.873	661.964	-0.070	0.180
-236.859	-129.895	-0.037	0.005
-235.844	-118.467	-0.196	-0.035
-234.830	-200.000	0.039	0.191
-233.815	46.545	-0.155	-0.143
-232.800	0.294	0.267	0.190
-231.786	-134.380	0.322	0.039
-230.771	50.909	0.098	0.092
-229.757	-200.000	-0.002	0.128
-228.742	-80.621	0.206	0.068
-227.727	-200.000	-0.026	-0.153
-226.713	-5.463	0.094	0.064
-225.698	800.000	-0.037	-0.148
-224.684	-30.251	0.129	0.073
-223.669	-200.000	-0.022	-0.178
-222.655	-200.000	-0.028	-0.392
-221.640	431.298	-0.070	-0.150
-220.625	-106.699	0.440	-0.097
-219.611	-42.350	0.110	0.056
-218.596	-110.374	-0.269	-0.056
-217.582	-50.846	0.085	-0.040
-216.567	-8.972	0.230	0.153
-215.552	207.988	-0.111	0.173
-214.538	93.449	0.180	0.202
-213.523	89.365	-0.096	-0.107
-212.509	12.376	-0.249	0.190
-211.494	-200.000	-0.038	0.218
-210.479	91.037	-0.328	-0.366
-209.465	-200.000	-0.037	-0.271
-208.450	-41.607	0.098	0.050
-207.436	-45.571	0.389	-0.191
-206.421	-115.763	-0.064	-0.012
-205.406	800.000	-0.082	-0.245
-204.392	-200.000	0.015	-0.177
-203.377	-200.000	0.040	0.247
-202.363	-162.378	-0.231	0.011
-201.348	21.047	-0.127	-0.102
-200.333	441.218	0.187	-0.406
-199.319	-179.332	0.237	0.005
-198.304	45.756	0.191	0.175
-197.290	-47.371	0.135	-0.065
-196.275	207.399	-0.070	-0.109
-195.260	307.693	0.115	-0.213
-194.246	800.000	0.020	-0.067
-193.231	-33.183	-0.264	0.145
-192.217	20.147	-0.226	-0.181
-191.202	-167.954	0.111	0.004
-190.187	-91.553	-0.156	0.044
-189.173	-113.598	0.463	0.090
-188.158	-4.532	0.072	0.049
-187.144	-12.115	-0.188	-0.122
-186.129	-111.467	-0.386	0.078
-185.114	106.751	0.277	0.326
-184.100	332.302	-0.155	-0.296
-183.085	800.000	-0.065	-0.263
-182.071	33.650	0.230	-0.198
-181.056	-2.299	-0.107	-0.075
-180.042	800.000	0.014	-0.050
-179.027	56.138	-0.133	0.128
-178.012	-39.345	-0.167	0.087
-176.998	-157.516	0.347	0.021
-175.983	-30.831	-0.187	-0.105
-174.969	-200.000	0.163	-0.001
-173.954	800.000	0.126	0.349
-172.939	310.152	0.075	-0.139
-171.925	158.853	-0.181	0.249
-170.910	-200.000	-0.009	-0.211
-169.896	-200.000	0.016	0.169
-168.881	156.622	0.232	-0.318
-167.866	-200.000	0.037	0.186
-166.852	-131.178	-0.154	0.020
-165.837	-135.126	-0.091	-0.011
-164.823	-200.000	-0.004	0.422
-163.808	83.226	-0.111	-0.120
-162.793	-32.950	-0.174	0.096
-161.779	124.296	0.024	0.031
-160.764	-200.000	-0.007	0.248
-159.750	268.103	0.105	0.182
-158.735	-200.000	-0.019	0.155
-157.720	741.397	-0.101	0.268
-156.706	-174.477	0.141	0.004
-155.691	-164.481	0.256	0.012
-154.677	-80.497	0.092	0.030
-153.662	318.407	-0.101	-0.190
-152.647	-29.806	-0.152	0.086
-151.633	-200.000	-0.010	0.087
-150.618	-5.158	-0.057	-0.039
-149.604	44.295	0.224	0.204
-148.589	-200.000	0.056	-0.313
-147.574	-200.000	-0.005	0.174
-146.560	-148.755	0.290	0.023
-145.545	-200.000	0.013	0.367
-144.531	41.587	0.221	-0.199
-143.516	-200.000	0.056	0.388
-142.502	-200.000	0.032	0.369
-141.487	3.148	0.012	-0.008
-140.472	342.481	-0.135	0.261
-139.458	-120.711	-0.094	-0.016
-138.443	636.710	-0.183	0.460
-137.429	-40.654	-0.189	0.097
-136.414	-200.000	0.010	-0.168
-135.399	301.525	-0.064	-0.117
-134.385	216.330	0.110	0.173
-133.370	-6.531	0.327	0.221
-132.356	-200.000	0.006	-0.125
-131.341	308.489	-0.146	-0.270
-130.326	30.461	0.134	-0.113
-129.312	-102.686	0.210	-0.050
-128.297	-200.000	-0.000	-0.005
-127.283	-24.658	0.315	-0.186
-126.268	208.690	0.056	0.087
-125.253	163.401	-0.244	-0.339
-124.239	118.499	-0.179	0.219
-123.224	-109.179	-0.266	-0.056
-122.210	-76.738	0.237	-0.082
-121.195	-60.914	-0.075	-0.031
