DTS Sentinel unit serial number:	SN413079Multiplexer serial number:	ORYXHardware model number:	OX4-SRSoftware version number:	ORYX F/W v4.00 Oryx Data Collector v3.7.2.0data status	okinstallation	princeton_trtdifferential loss correction	single-endedforward channel	channel 4reverse channel	N/Adate	2019/09/14time	22:21:35forward acquisition time	60.00reverse acquisition time	0.00gamma	496.2192k internal	0.2306k external	0.2306temperature offset calibration	1.0066default loss term (dB/km)	0.3790temperature slope calibration	1.0000multiplexer offset coefficient	1.0000multiplexer slope coefficient	1.0000fibre end	0.00T internal ref (°C)	32.56T ext. ref 1 (°C)	4.69T ext. ref 2 (°C)	27.59length (m)	temperature (°C)	Stokes	anti-Stokes-747.200	-200.000	0.021	-0.321
-746.185	103.146	0.234	0.280
-745.171	-135.537	0.217	-0.026
-744.156	189.535	-0.384	0.586
-743.142	-30.183	-0.210	-0.121
-742.127	-200.000	0.028	0.166
-741.112	251.635	-0.052	-0.091
-740.098	-200.000	0.065	0.386
-739.083	-39.540	-0.211	-0.113
-738.069	-158.104	0.381	-0.023
-737.054	-20.166	0.020	0.013
-736.039	10.063	0.254	0.197
-735.025	-154.446	0.388	-0.026
-734.010	-36.825	-0.269	-0.147
-732.996	102.660	-0.238	-0.283
-731.981	47.853	0.271	-0.258
-730.966	116.603	0.016	0.020
-729.952	522.853	0.043	-0.104
-728.937	-200.000	0.019	-0.160
-727.923	-179.736	-0.106	0.002
-726.908	-158.366	-0.365	-0.022
-725.894	24.335	0.190	0.160
-724.879	195.081	0.074	-0.114
-723.864	-200.000	-0.006	-0.277
-722.850	-19.997	0.175	0.110
-721.835	208.566	-0.085	-0.135
-720.821	-58.578	0.132	0.058
-719.806	-71.997	0.273	-0.103
-718.791	103.113	-0.064	-0.076
-717.777	693.352	-0.106	-0.282
-716.762	139.026	0.266	0.356
-715.748	315.446	-0.156	-0.300
-714.733	-75.776	-0.185	0.067
-713.718	38.256	0.077	0.070
-712.704	-77.851	0.223	-0.078
-711.689	30.336	-0.311	0.270
-710.675	-74.096	-0.444	-0.163
-709.660	-200.000	-0.005	-0.342
-708.645	-14.355	-0.151	0.099
-707.631	-200.000	0.001	-0.036
-706.616	-200.000	-0.007	-0.189
-705.602	58.296	0.291	0.290
-704.587	315.097	0.013	0.025
-703.572	544.629	0.066	0.160
-702.558	4.719	0.110	0.082
-701.543	-135.549	-0.400	0.048
-700.529	-200.000	-0.025	0.146
-699.514	-102.711	-0.320	-0.077
-698.499	3.761	-0.243	0.180
-697.485	-119.459	-0.419	-0.074
-696.470	-83.162	0.322	0.105
-695.456	-128.468	-0.356	-0.051
-694.441	-135.996	0.140	0.017
-693.426	-45.027	0.185	-0.093
-692.412	83.131	-0.097	0.108
-691.397	481.116	-0.078	-0.179
-690.383	46.277	0.173	-0.163
-689.368	-124.284	-0.151	0.024
-688.354	-70.183	-0.086	-0.033
-687.339	-200.000	-0.012	-0.128
-686.324	-134.124	0.272	0.034
-685.310	552.469	-0.101	-0.246
-684.295	800.000	-0.145	-0.407
-683.281	-126.292	-0.060	-0.009
-682.266	-200.000	-0.047	0.422
-681.251	94.312	0.284	0.327
-680.237	800.000	0.065	0.261
-679.222	183.225	-0.189	-0.284
-678.208	46.283	-0.270	0.253
-677.193	26.601	-0.063	0.054
-676.178	-200.000	-0.014	-0.078
-675.164	37.229	-0.173	-0.156
-674.149	362.842	-0.100	-0.204
-673.135	-99.385	-0.117	0.030
-672.120	463.108	0.206	-0.467
-671.105	-44.429	0.289	-0.147
-670.091	169.489	0.292	0.423
-669.076	-200.000	0.024	0.181
-668.062	-200.000	-0.036	-0.164
-667.047	17.829	-0.183	-0.148
-666.032	-76.416	-0.154	0.055
-665.018	-200.000	0.038	0.248
-664.003	-113.325	0.164	-0.033
-662.989	-48.917	0.394	0.191
-661.974	51.659	0.188	-0.181
-660.959	1.700	0.294	0.215
-659.945	800.000	-0.072	-0.238
-658.930	-63.044	-0.172	0.072
-657.916	-200.000	0.002	0.096
-656.901	-75.036	0.146	0.053
-655.886	17.603	0.260	-0.210
-654.872	-113.736	-0.123	-0.024
-653.857	-48.314	-0.242	-0.118
-652.843	303.693	0.164	0.307
-651.828	36.744	0.139	-0.125
-650.814	22.161	-0.198	-0.164
-649.799	322.139	-0.096	0.186
-648.784	-76.156	0.478	0.171
-647.770	-154.003	-0.100	0.007
-646.755	173.554	-0.112	0.163
-645.741	-136.365	-0.226	-0.027
-644.726	560.375	0.062	-0.152
-643.711	151.842	-0.232	-0.321
-642.697	-200.000	0.017	-0.151
-641.682	-200.000	-0.022	-0.298
-640.668	430.789	-0.134	0.294
-639.653	-71.711	0.231	0.087
-638.638	-127.523	-0.111	0.016
-637.624	125.647	0.114	-0.145
-636.609	-48.914	-0.331	0.161
-635.595	789.730	0.030	-0.084
-634.580	420.363	-0.123	-0.267
-633.565	-176.821	-0.141	-0.004
-632.551	-170.488	-0.410	0.014
-631.536	38.447	-0.163	0.148
-630.522	215.200	-0.076	0.122
-629.507	-200.000	0.001	0.079
-628.492	-129.046	0.257	0.036
-627.478	-200.000	-0.021	-0.149
-626.463	17.730	-0.362	0.291
-625.449	-88.174	0.164	0.050
-624.434	-98.774	-0.181	0.047
-623.419	-138.374	-0.144	0.016
-622.405	-200.000	-0.027	-0.145
-621.390	763.437	0.072	-0.198
-620.376	-50.251	0.181	-0.087
-619.361	300.948	0.157	0.293
-618.346	-200.000	0.068	-0.353
-617.332	99.565	-0.105	-0.122
-616.317	366.225	-0.075	-0.154
-615.303	267.044	-0.138	-0.244
-614.288	70.153	0.194	-0.202
-613.273	32.292	-0.224	0.196
-612.259	-135.122	-0.115	-0.014
-611.244	-87.527	-0.315	-0.096
-610.230	800.000	0.041	0.125
-609.215	-200.000	-0.009	0.299
-608.201	-33.358	-0.241	-0.135
-607.186	754.565	0.056	-0.154
-606.171	-57.853	0.362	0.160
-605.157	-184.654	-0.269	0.004
-604.142	-200.000	-0.043	-0.321
-603.128	-97.378	0.280	-0.074
-602.113	129.241	0.156	-0.202
-601.098	-105.066	-0.280	0.065
-600.084	-75.254	0.118	-0.043
-599.069	16.819	0.269	-0.215
-598.055	-154.524	-0.310	-0.021
-597.040	-145.113	-0.243	-0.022
-596.025	4.741	0.068	0.051
-595.011	-99.569	-0.318	0.081
-593.996	-200.000	-0.003	-0.124
-592.982	-200.000	-0.023	0.179
-591.967	800.000	-0.098	0.348
-590.952	579.727	-0.043	0.107
-589.938	800.000	-0.044	-0.149
-588.923	-27.811	0.181	0.106
-587.909	-200.000	0.003	0.028
-586.894	-200.000	-0.003	-0.078
-585.879	276.988	-0.160	-0.287
-584.865	58.227	-0.150	0.148
-583.850	180.640	0.051	0.075
-582.836	-69.798	0.054	0.021
-581.821	800.000	0.046	0.168
-580.806	-66.041	-0.379	0.153
-579.792	91.765	0.169	0.192
-578.777	-139.878	-0.119	0.013
-577.763	-130.366	0.209	0.029
-576.748	-132.155	-0.271	-0.036
-575.733	800.000	-0.040	0.115
-574.719	800.000	0.025	-0.075
-573.704	800.000	0.015	-0.043
-572.690	231.102	0.082	-0.135
-571.675	-86.139	0.311	0.097
-570.661	293.739	-0.097	-0.180
-569.646	98.317	0.175	-0.204
-568.631	-45.682	0.156	-0.078
-567.617	342.284	0.109	0.216
-566.602	-108.576	0.276	-0.060
-565.588	800.000	0.065	-0.226
-564.573	-200.000	-0.007	-0.219
-563.558	-81.950	0.502	0.166
-562.544	-12.377	0.224	-0.148
-561.529	11.554	0.253	-0.196
-560.515	-200.000	-0.022	-0.194
-559.500	182.692	0.146	-0.218
-558.485	486.570	-0.145	-0.334
-557.471	44.945	0.131	0.122
-556.456	622.742	-0.177	0.450
-555.442	-200.000	0.057	0.251
-554.427	-200.000	0.017	-0.355
-553.412	-103.496	-0.176	-0.042
-552.398	-65.572	0.150	-0.061
-551.383	-26.373	0.203	-0.121
-550.369	-200.000	-0.018	0.311
-549.354	-17.351	0.163	0.104
-548.339	-80.137	-0.258	-0.087
-547.325	-200.000	-0.006	0.041
-546.310	-105.144	-0.295	0.068
-545.296	-98.572	0.024	-0.006
-544.281	-200.000	0.006	0.287
-543.266	-96.581	-0.247	-0.066
-542.252	27.425	-0.131	0.112
-541.237	-178.874	-0.125	-0.003
-540.223	244.282	-0.136	0.230
-539.208	-17.084	0.073	0.046
-538.193	-57.838	-0.458	-0.202
-537.179	-200.000	-0.053	-0.341
-536.164	-102.370	-0.006	0.002
-535.150	469.761	-0.040	0.091
-534.135	3.383	-0.231	0.170
-533.121	-200.000	-0.013	0.075
-532.106	-90.534	0.278	0.081
-531.091	800.000	0.148	-0.437
-530.077	539.093	0.021	-0.050
-529.062	800.000	-0.074	-0.221
-528.048	13.071	-0.133	-0.104
-527.033	-182.150	-0.018	-0.000
-526.018	54.017	-0.173	-0.168
-525.004	107.124	0.246	0.295
-523.989	-80.066	-0.260	0.088
-522.975	617.355	0.067	0.170
-521.960	795.969	-0.038	-0.105
-520.945	-47.874	0.189	-0.092
-519.931	-57.588	-0.320	-0.142
-518.916	-129.591	-0.589	0.082
-517.902	41.543	0.322	0.294
-516.887	800.000	-0.044	-0.185
-515.872	-200.000	-0.032	-0.239
-514.858	150.171	0.114	0.156
-513.843	-200.000	-0.022	0.401
-512.829	100.862	-0.069	-0.080
-511.814	-154.778	0.055	0.004
-510.799	130.157	0.056	-0.072
-509.785	-32.842	0.105	-0.059
-508.770	-58.445	0.044	0.019
-507.756	-49.456	0.143	-0.069
-506.741	-200.000	-0.029	0.137
-505.726	-47.164	0.022	-0.011
-504.712	-200.000	-0.025	0.251
-503.697	-123.971	0.283	-0.045
-502.683	-39.737	0.199	-0.105
-501.668	-32.416	-0.201	0.113
-500.653	-46.971	-0.166	0.082
-499.639	4.261	-0.150	-0.110
-498.624	18.406	0.147	0.118
-497.610	194.449	0.172	-0.263
-496.595	261.576	0.107	-0.188
-495.581	800.000	0.072	-0.269
-494.566	32.934	-0.175	0.152
-493.551	-103.364	0.350	0.083
-492.537	36.256	0.258	-0.229
-491.522	-105.299	0.168	0.039
-490.508	-117.607	-0.325	0.059
-489.493	-53.511	0.183	0.084
-488.478	-200.000	-0.040	0.325
-487.464	735.989	0.045	-0.122
-486.449	-121.278	-0.316	0.053
-485.435	-148.173	-0.452	-0.038
-484.420	207.575	0.073	0.116
-483.405	-200.000	-0.038	0.224
-482.391	-152.340	-0.303	-0.022
-481.376	244.008	0.034	0.058
-480.362	538.579	-0.055	0.131
-479.347	-136.305	0.076	0.009
-478.332	95.780	-0.248	-0.285
-477.318	50.592	-0.157	0.149
-476.303	-43.862	-0.398	0.202
-475.289	-200.000	0.027	-0.460
-474.274	156.228	-0.058	-0.081
-473.259	-200.000	-0.019	-0.169
-472.245	265.475	0.126	-0.221
-471.230	-200.000	-0.017	0.124
-470.216	-200.000	-0.088	0.514
-469.201	71.235	-0.051	0.053
-468.186	32.652	-0.180	0.156
-467.172	-81.591	-0.303	-0.100
-466.157	-101.787	-0.159	0.039
-465.143	-107.055	0.313	-0.070
-464.128	-28.825	-0.232	0.134
-463.113	-144.743	0.031	-0.003
-462.099	360.051	0.093	-0.188
-461.084	800.000	0.132	-0.513
-460.070	-15.906	-0.145	-0.093
-459.055	-161.608	-0.335	0.017
-458.040	-11.430	0.336	-0.223
-457.026	800.000	0.050	-0.219
-456.011	244.286	0.208	0.352
-454.997	24.193	0.147	-0.122
-453.982	-200.000	-0.001	-0.241
-452.968	-200.000	-0.019	-0.213
-451.953	510.151	-0.081	-0.188
-450.938	-94.534	-0.095	-0.026
-449.924	-50.987	0.128	0.060
-448.909	-7.388	0.193	-0.132
-447.895	-200.000	-0.013	0.135
-446.880	-46.583	0.176	0.087
-445.865	88.501	0.190	-0.212
-444.851	-200.000	0.029	0.291
-443.836	-99.980	-0.236	0.059
-442.822	86.045	0.085	-0.094
-441.807	769.778	-0.065	-0.179
-440.792	-200.000	0.030	0.371
-439.778	423.132	0.095	0.206
-438.763	-117.535	0.119	0.022
-437.749	-200.000	-0.032	0.143
-436.734	618.559	-0.072	0.183
-435.719	70.976	0.151	0.158
-434.705	-200.000	0.025	-0.322
-433.690	-50.295	0.060	0.028
-432.676	52.106	-0.243	-0.233
-431.661	-151.491	0.163	0.012
-430.646	-50.381	-0.137	-0.065
-429.632	665.824	-0.081	0.211
-428.617	138.023	-0.174	-0.230
-427.603	96.549	-0.116	0.134
-426.588	-140.099	0.409	0.043
-425.573	11.503	0.260	-0.200
-424.559	-200.000	-0.015	0.095
-423.544	-140.638	0.266	0.028
-422.530	-155.185	0.178	0.012
-421.515	-200.000	-0.050	-0.449
-420.500	-149.697	-0.194	-0.015
-419.486	-66.711	0.294	0.117
-418.471	800.000	-0.020	0.069
-417.457	38.384	-0.169	-0.151
-416.442	264.547	0.083	-0.145
-415.428	-200.000	-0.016	-0.142
-414.413	137.365	0.044	-0.058
-413.398	-200.000	0.007	0.114
-412.384	-116.605	0.260	0.048
-411.369	-66.884	0.158	0.063
-410.355	-95.921	0.275	0.074
-409.340	-43.316	0.106	-0.054
-408.325	145.094	0.226	-0.304
-407.311	-11.495	-0.302	0.199
-406.296	279.258	-0.073	0.131
-405.282	22.458	-0.344	-0.283
-404.267	-180.924	0.201	-0.004
-403.252	-93.771	0.244	0.067
-402.238	-200.000	-0.024	0.163
-401.223	267.824	0.125	-0.219
-400.209	17.411	-0.115	0.092
-399.194	-200.000	-0.030	0.200
-398.179	0.819	-0.120	0.086
-397.165	764.227	0.055	-0.149
-396.150	-77.251	-0.136	-0.048
-395.136	800.000	-0.020	0.072
-394.121	800.000	0.118	-0.493
-393.106	-200.000	-0.011	-0.469
-392.092	253.314	-0.077	0.133
-391.077	-52.331	0.165	-0.077
-390.063	-200.000	-0.064	-0.375
-389.048	528.288	0.076	0.179
-388.033	-40.690	-0.232	0.120
-387.019	292.201	-0.053	0.097
-386.004	383.555	0.045	-0.092
-384.990	-101.138	-0.411	0.101
-383.975	16.134	-0.045	-0.035
-382.960	182.401	-0.238	0.352
-381.946	-42.010	0.112	-0.057
-380.931	-200.000	0.003	-0.028
-379.917	800.000	-0.059	-0.246
-378.902	38.929	0.172	0.155
-377.888	353.419	-0.197	0.393
-376.873	308.634	-0.154	0.287
-375.858	492.469	-0.114	-0.261
-374.844	-192.126	0.082	-0.001
-373.829	-80.218	-0.191	-0.064
-372.815	-91.057	-0.304	0.087
-371.800	-200.000	0.037	0.168
-370.785	-94.551	-0.414	0.113
-369.771	306.856	0.021	0.038
-368.756	-15.933	0.104	0.066
-367.742	51.996	-0.260	0.248
-366.727	705.735	-0.017	0.046
-365.712	31.872	-0.254	0.219
-364.698	-175.492	-0.335	0.009
-363.683	-86.926	0.246	-0.075
-362.669	-49.437	-0.044	-0.021
-361.654	-91.299	0.046	-0.013
-360.639	63.096	0.200	0.200
-359.625	6.371	0.322	0.239
-358.610	-76.593	0.185	0.065
-357.596	-53.953	-0.057	0.026
-356.581	-122.420	-0.257	-0.042
-355.566	-200.000	0.025	0.230
-354.552	-134.344	-0.125	0.015
-353.537	-113.368	0.338	0.066
-352.523	100.143	0.247	-0.287
-351.508	-200.000	0.014	-0.255
-350.493	-25.106	0.276	0.164
-349.479	63.949	0.186	0.187
-348.464	-165.242	-0.341	0.015
-347.450	-185.615	-0.093	-0.001
-346.435	-108.465	0.231	0.050
-345.420	-200.000	0.011	0.051
-344.406	-200.000	0.024	-0.275
-343.391	273.539	-0.083	0.147
-342.377	-35.704	-0.339	-0.184
-341.362	287.037	0.109	0.198
-340.348	800.000	0.031	0.102
-339.333	-111.935	-0.025	-0.005
-338.318	-82.994	-0.322	-0.104
-337.304	-73.399	0.425	-0.156
-336.289	-90.644	0.191	-0.055
-335.275	-97.620	-0.339	0.088
-334.260	-125.558	-0.069	0.010
-333.245	-172.705	0.348	0.011
-332.231	505.825	0.117	0.271
-331.216	-200.000	-0.014	-0.178
-330.202	-60.551	-0.184	-0.078
-329.187	75.839	-0.132	-0.140
-328.172	230.751	0.137	0.225
-327.158	-20.764	0.056	0.034
-326.143	206.880	0.130	-0.202
-325.129	-31.387	-0.190	-0.107
-324.114	-200.000	-0.025	0.185
-323.099	800.000	0.065	0.229
-322.085	235.864	0.110	0.182
-321.070	-91.751	-0.281	0.080
-320.056	-111.528	0.122	-0.025
-319.041	-136.311	-0.036	0.004
-318.026	800.000	-0.032	-0.112
-317.012	800.000	-0.044	-0.138
-315.997	800.000	-0.109	-0.346
-314.983	800.000	-0.073	-0.263
-313.968	-200.000	-0.001	-0.096
-312.953	351.363	-0.057	0.113
-311.939	233.912	-0.013	-0.022
-310.924	21.545	-0.245	0.199
-309.910	158.676	0.094	-0.130
-308.895	26.681	-0.186	0.156
-307.880	319.438	-0.059	-0.112
-306.866	120.621	0.042	0.052
-305.851	11.703	-0.192	-0.148
-304.837	170.565	0.057	-0.082
-303.822	800.000	0.064	-0.217
-302.807	50.977	0.205	0.194
-301.793	800.000	-0.050	-0.174
-300.778	-33.804	-0.393	-0.216
-299.764	379.527	-0.077	-0.157
-298.749	601.918	-0.092	-0.229
-297.735	-95.121	0.154	-0.041
-296.720	-162.917	-0.267	0.013
-295.705	-200.000	0.035	0.285
-294.691	83.176	0.177	0.192
-293.676	662.568	0.037	0.095
-292.662	-43.685	0.375	-0.189
-291.647	213.353	-0.070	-0.110
-290.632	-200.000	0.005	-0.081
-289.618	-112.408	0.354	-0.071
-288.603	116.808	0.086	0.106
-287.589	-200.000	0.009	-0.418
-286.574	6.183	-0.056	0.042
-285.559	-121.537	0.279	-0.046
-284.545	-75.181	0.394	0.141
-283.530	-4.864	0.126	0.087
-282.516	22.772	0.030	0.025
-281.501	336.489	0.106	0.206
-280.486	-200.000	-0.064	0.387
-279.472	-74.682	0.307	-0.110
-278.457	-62.726	0.309	0.128
-277.443	11.301	-0.265	-0.203
-276.428	496.779	0.135	0.311
-275.413	-200.000	-0.032	-0.201
-274.399	800.000	-0.019	0.052
-273.384	-81.370	0.147	0.048
-272.370	536.634	0.124	0.294
-271.355	800.000	-0.095	-0.264
-270.340	2.033	-0.323	0.233
-269.326	25.624	-0.078	0.065
-268.311	0.658	0.055	0.039
-267.297	800.000	-0.022	-0.089
-266.282	286.943	-0.075	-0.136
-265.267	107.863	-0.080	-0.096
-264.253	83.870	-0.021	0.023
-263.238	301.873	-0.079	0.145
-262.224	13.948	0.109	0.085
-261.209	-23.942	-0.084	0.050
-260.195	-200.000	-0.045	0.212
-259.180	322.227	0.184	0.350
-258.165	161.332	0.136	0.190
-257.151	-200.000	-0.091	0.416
-256.136	377.833	0.148	0.301
-255.122	-53.650	-0.137	-0.062
-254.107	77.281	-0.109	-0.115
-253.092	-168.211	-0.067	-0.003
-252.078	96.733	-0.145	-0.166
-251.063	-200.000	-0.036	-0.286
-250.049	-122.980	-0.222	-0.036
-249.034	800.000	0.100	-0.414
-248.019	-47.024	0.188	-0.092
-247.005	62.479	-0.046	0.046
-245.990	-45.639	0.286	0.141
-244.976	-67.319	0.104	-0.041
-243.961	14.428	0.204	-0.159
-242.946	-85.554	-0.167	0.052
-241.932	7.758	0.082	0.061
-240.917	253.014	0.011	0.020
-239.903	168.677	-0.086	0.122
-238.888	71.214	0.212	0.219
-237.873	-86.601	-0.169	-0.052
-236.859	132.571	0.111	-0.143
-235.844	-200.000	-0.002	0.351
-234.830	-200.000	0.000	-0.170
-233.815	-22.150	-0.241	0.146
-232.800	-74.663	0.120	0.043
-231.786	-78.998	0.556	-0.189
-230.771	-153.873	0.128	0.009
-229.757	225.781	-0.072	-0.116
-228.742	-200.000	0.031	0.214
-227.727	-200.000	0.206	-0.000
-226.713	-66.825	0.172	-0.068
-225.698	-200.000	-0.038	-0.184
-224.684	28.240	-0.088	0.074
-223.669	-29.980	-0.284	-0.161
-222.655	-200.000	-0.033	-0.198
-221.640	253.248	0.054	-0.092
-220.625	630.172	0.106	-0.268
-219.611	-8.383	-0.223	0.150
-218.596	59.243	-0.098	-0.097
-217.582	463.642	0.063	0.139
-216.567	535.818	0.034	-0.080
-215.552	111.924	0.383	-0.461
-214.538	64.431	0.121	0.121
-213.523	-200.000	0.006	-0.085
-212.509	-200.000	0.071	0.394
-211.494	-92.367	-0.112	0.032
-210.479	-200.000	0.011	-0.143
-209.465	-72.803	0.052	0.019
-208.450	-107.327	-0.216	-0.047
-207.436	-32.865	0.314	0.174
-206.421	800.000	0.073	0.309
-205.406	-172.141	0.113	0.004
-204.392	-200.000	0.031	-0.143
-203.377	800.000	0.035	0.121
-202.363	12.608	0.092	0.071
-201.348	-200.000	0.036	-0.284
-200.333	-139.044	-0.069	-0.007
-199.319	-90.864	-0.181	0.052
-198.304	-104.354	-0.365	-0.084
-197.290	93.081	0.118	0.133
-196.275	-200.000	-0.015	0.085
-195.260	144.955	-0.104	0.138
-194.246	-200.000	-0.077	0.440
-193.231	125.612	0.263	0.331
-192.217	-45.801	-0.113	0.055
-191.202	288.530	0.092	-0.167
-190.187	81.269	0.193	0.207
-189.173	-200.000	0.002	-0.184
-188.158	165.460	-0.099	-0.140
-187.144	58.822	-0.206	0.202
-186.129	800.000	0.049	0.175
-185.114	800.000	0.069	0.257
-184.100	9.085	-0.116	-0.087
-183.085	-200.000	0.007	0.088
-182.071	-108.810	-0.281	0.060
-181.056	85.746	0.263	-0.288
-180.042	4.687	-0.260	-0.190
-179.027	-46.605	0.241	-0.118
-178.012	-4.943	-0.102	-0.070
-176.998	-90.464	0.493	-0.142
-175.983	-3.340	0.224	-0.155
-174.969	-52.750	-0.142	-0.065
-173.954	800.000	-0.110	0.322
-172.939	-32.099	0.186	-0.103
-171.925	-75.611	0.437	0.154
-170.910	76.488	-0.120	0.126
-169.896	-200.000	0.223	-0.000
-168.881	-123.156	0.194	-0.031
-167.866	132.962	-0.292	0.375
-166.852	61.105	0.083	0.082
-165.837	-200.000	-0.011	0.098
-164.823	-55.034	-0.152	0.068
-163.808	176.885	-0.073	-0.106
-162.793	800.000	0.079	-0.299
-161.779	239.092	0.046	0.076
-160.764	3.101	0.184	0.133
-159.750	-55.032	0.413	-0.185
-158.735	-114.874	-0.449	0.085
-157.720	201.166	-0.031	-0.047
-156.706	6.295	0.330	0.244
-155.691	800.000	-0.043	-0.168
-154.677	201.594	-0.141	-0.216
-153.662	-200.000	-0.012	0.121
-152.647	800.000	0.056	0.169
-151.633	1.705	-0.061	0.043
-150.618	88.539	0.183	0.202
-149.604	330.026	-0.099	-0.190
-148.589	-200.000	0.020	0.198
-147.574	-68.859	0.244	-0.094
-146.560	-107.924	-0.127	-0.027
-145.545	-118.046	0.252	-0.045
-144.531	114.176	-0.215	-0.260
-143.516	348.222	0.198	-0.389
-142.502	4.566	0.146	0.106
-141.487	-200.000	-0.018	-0.329
-140.472	15.364	0.273	-0.213
-139.458	52.062	-0.083	0.079
-138.443	-126.693	0.202	-0.030
-137.429	64.193	-0.127	0.127
-136.414	-200.000	0.040	0.372
-135.399	-118.429	0.460	0.081
-134.385	19.684	0.168	-0.134
-133.370	-51.528	-0.400	-0.186
-132.356	142.298	-0.048	0.063
-131.341	167.190	-0.034	0.047
-130.326	-93.907	-0.300	-0.082
-129.312	-200.000	-0.017	0.130
-128.297	-68.559	0.243	-0.093
-127.283	164.377	0.055	0.077
-126.268	201.283	0.142	-0.217
-125.253	-107.389	-0.316	-0.069
-124.239	312.343	-0.140	0.260
-123.224	56.529	0.265	-0.256
-122.210	-13.350	0.056	0.036
-121.195	-111.195	-0.192	0.039
