DTS Sentinel unit serial number:	SN413079Multiplexer serial number:	ORYXHardware model number:	OX4-SRSoftware version number:	ORYX F/W v4.00 Oryx Data Collector v3.7.2.0data status	okinstallation	princeton_trtdifferential loss correction	single-endedforward channel	channel 4reverse channel	N/Adate	2019/09/16time	16:13:35forward acquisition time	60.00reverse acquisition time	0.00gamma	496.2192k internal	0.2290k external	0.2290temperature offset calibration	0.9939default loss term (dB/km)	0.3790temperature slope calibration	1.0000multiplexer offset coefficient	1.0000multiplexer slope coefficient	1.0000fibre end	0.00T internal ref (°C)	40.69T ext. ref 1 (°C)	14.98T ext. ref 2 (°C)	34.85length (m)	temperature (°C)	Stokes	anti-Stokes-747.200	81.232	-0.270	0.299
-746.185	9.699	-0.049	-0.038
-745.171	-200.000	0.025	0.194
-744.156	-6.169	-0.291	0.203
-743.142	32.400	0.175	0.155
-742.127	-97.821	0.130	-0.035
-741.112	-24.195	-0.105	-0.064
-740.098	-22.731	-0.140	0.087
-739.083	-200.000	-0.020	0.368
-738.069	-74.066	0.267	0.099
-737.054	-200.000	-0.010	0.297
-736.039	-200.000	-0.022	0.138
-735.025	-160.427	0.098	0.005
-734.010	800.000	-0.080	-0.306
-732.996	161.897	-0.283	0.406
-731.981	-31.989	-0.157	0.090
-730.966	71.061	-0.070	0.074
-729.952	-152.178	-0.299	0.022
-728.937	-13.711	-0.305	0.202
-727.923	482.494	-0.032	-0.075
-726.908	800.000	-0.045	0.164
-725.894	-9.829	0.126	-0.086
-724.879	-72.904	0.163	0.061
-723.864	63.110	-0.089	0.091
-722.850	-200.000	-0.045	0.215
-721.835	42.850	-0.230	-0.215
-720.821	-200.000	0.027	0.297
-719.806	97.976	-0.191	0.225
-718.791	443.811	0.080	-0.180
-717.777	93.011	-0.202	-0.233
-716.762	800.000	0.041	0.133
-715.748	-34.419	0.443	0.249
-714.733	108.635	0.102	0.125
-713.718	74.609	0.145	0.156
-712.704	-200.000	-0.014	-0.077
-711.689	-63.597	-0.115	0.048
-710.675	-59.534	-0.161	-0.071
-709.660	-200.000	0.009	-0.088
-708.645	-200.000	-0.010	-0.107
-707.631	-36.750	-0.125	-0.069
-706.616	38.183	-0.121	-0.110
-705.602	800.000	0.125	-0.553
-704.587	-32.481	0.230	0.131
-703.572	101.883	-0.094	-0.112
-702.558	32.837	0.007	0.006
-701.543	-81.857	0.110	-0.037
-700.529	-11.011	-0.120	-0.081
-699.514	-113.432	-0.286	-0.057
-698.499	-96.267	-0.283	-0.077
-697.485	-62.560	-0.113	0.048
-696.470	-104.352	0.111	0.026
-695.456	14.557	0.108	-0.086
-694.441	91.439	-0.121	0.139
-693.426	-147.766	-0.216	0.018
-692.412	-3.648	-0.229	-0.163
-691.397	5.999	0.053	-0.040
-690.383	55.822	0.211	-0.209
-689.368	-118.794	-0.306	0.055
-688.354	202.626	-0.117	-0.185
-687.339	-200.000	-0.013	0.096
-686.324	70.683	-0.265	0.280
-685.310	227.132	0.146	0.242
-684.295	496.069	-0.167	-0.393
-683.281	243.015	0.129	-0.222
-682.266	-72.249	-0.282	-0.107
-681.251	76.315	-0.105	0.114
-680.237	-61.982	0.176	0.075
-679.222	800.000	0.062	-0.223
-678.208	336.170	0.123	-0.244
-677.193	-89.278	0.078	-0.024
-676.178	129.880	-0.272	-0.356
-675.164	-200.000	0.053	-0.353
-674.149	-47.893	0.388	0.192
-673.135	39.406	0.217	-0.198
-672.120	151.785	-0.268	-0.373
-671.105	-58.408	-0.213	-0.094
-670.091	-147.100	-0.171	-0.015
-669.076	-22.662	0.196	0.121
-668.062	-200.000	0.002	0.140
-667.047	318.103	-0.070	-0.135
-666.032	-200.000	-0.008	0.089
-665.018	-75.908	0.425	-0.154
-664.003	146.097	0.091	0.125
-662.989	-112.089	0.173	-0.036
-661.974	-200.000	-0.019	-0.343
-660.959	-200.000	0.036	0.284
-659.945	800.000	-0.093	-0.270
-658.930	-63.368	-0.159	-0.067
-657.916	-6.467	-0.176	-0.123
-656.901	-3.636	0.185	0.131
-655.886	-200.000	-0.006	-0.043
-654.872	154.485	0.105	-0.147
-653.857	109.487	0.039	0.048
-652.843	-45.885	0.147	-0.074
-651.828	-25.375	-0.212	-0.128
-650.814	-200.000	-0.002	0.199
-649.799	-200.000	0.059	0.405
-648.784	-145.247	-0.296	0.027
-647.770	-0.263	-0.222	-0.161
-646.755	712.328	0.061	0.165
-645.741	-200.000	-0.049	-0.358
-644.726	800.000	0.009	-0.030
-643.711	-62.629	0.182	0.077
-642.697	481.056	-0.178	0.413
-641.682	15.659	-0.178	0.143
-640.668	-7.995	0.105	0.072
-639.653	106.972	-0.225	-0.273
-638.638	800.000	0.026	-0.102
-637.624	401.791	0.058	-0.124
-636.609	800.000	-0.059	-0.228
-635.595	-70.403	0.233	-0.090
-634.580	136.822	-0.141	-0.187
-633.565	-47.841	-0.446	-0.221
-632.551	151.428	-0.019	-0.027
-631.536	800.000	-0.038	0.160
-630.522	503.199	0.026	-0.062
-629.507	362.987	-0.168	-0.345
-628.492	-200.000	-0.000	0.073
-627.478	116.251	0.096	0.120
-626.463	321.559	0.052	-0.100
-625.449	-40.534	-0.262	0.139
-624.434	91.252	0.051	0.058
-623.419	-40.582	0.229	0.121
-622.405	-60.651	0.236	-0.102
-621.390	-156.656	-0.387	0.024
-620.376	-200.000	-0.033	-0.274
-619.361	7.651	0.285	-0.217
-618.346	-200.000	0.013	0.220
-617.332	294.656	-0.125	-0.232
-616.317	29.071	-0.151	0.131
-615.303	29.070	-0.149	-0.129
-614.288	9.493	0.226	0.174
-613.273	-65.705	0.132	0.054
-612.259	766.523	0.066	-0.183
-611.244	800.000	0.017	-0.049
-610.230	-105.314	-0.285	0.066
-609.215	49.471	0.202	-0.194
-608.201	600.803	-0.024	-0.061
-607.186	-171.380	0.308	-0.010
-606.171	-60.062	-0.086	0.037
-605.157	-6.380	0.048	0.033
-604.142	-45.498	-0.083	-0.042
-603.128	363.699	0.086	-0.176
-602.113	378.601	-0.120	-0.251
-601.098	-81.413	-0.262	-0.088
-600.084	360.981	0.080	-0.164
-599.069	-62.536	-0.192	-0.081
-598.055	130.448	0.205	-0.268
-597.040	95.908	-0.112	-0.130
-596.025	-145.308	-0.045	-0.004
-595.011	-200.000	0.027	-0.148
-593.996	182.848	-0.079	-0.118
-592.982	-200.000	-0.024	-0.360
-591.967	-46.528	0.340	0.170
-590.952	-51.189	-0.201	-0.096
-589.938	-131.233	0.331	-0.045
-588.923	-200.000	-0.004	-0.227
-587.909	441.249	-0.056	-0.124
-586.894	-70.601	-0.306	-0.118
-585.879	386.225	-0.031	-0.066
-584.865	177.583	-0.178	0.264
-583.850	278.616	-0.070	-0.127
-582.836	201.344	-0.130	0.204
-581.821	165.697	-0.194	0.279
-580.806	171.202	-0.085	0.124
-579.792	-90.824	-0.133	-0.039
-578.777	800.000	0.055	0.222
-577.763	-56.502	-0.069	0.031
-576.748	-91.190	-0.087	0.025
-575.733	149.874	0.072	-0.100
-574.719	12.697	-0.033	-0.026
-573.704	800.000	-0.078	0.244
-572.690	-200.000	-0.005	-0.085
-571.675	514.777	-0.208	0.493
-570.661	58.777	-0.087	0.087
-569.646	385.513	-0.047	-0.099
-568.631	-142.187	0.562	-0.057
-567.617	-141.458	0.176	0.018
-566.602	473.008	0.134	-0.306
-565.588	13.904	0.047	-0.037
-564.573	-200.000	0.021	0.173
-563.558	-115.529	0.190	0.036
-562.544	120.666	-0.224	-0.284
-561.529	319.994	-0.044	-0.085
-560.515	-200.000	0.001	0.442
-559.500	-139.816	-0.219	-0.024
-558.485	-46.469	-0.156	0.078
-557.471	-200.000	0.011	-0.135
-556.456	-63.101	0.245	-0.103
-555.442	-167.123	0.128	-0.005
-554.427	-26.469	-0.316	0.188
-553.412	-117.181	0.163	-0.030
-552.398	-200.000	0.014	0.092
-551.383	-117.738	-0.167	0.031
-550.369	800.000	0.086	0.242
-549.354	-200.000	0.003	-0.029
-548.339	-121.481	0.082	0.014
-547.325	-178.727	0.190	-0.004
-546.310	-10.843	0.140	-0.094
-545.296	83.638	-0.065	-0.072
-544.281	290.096	0.112	-0.206
-543.266	-161.483	-0.252	-0.013
-542.252	-200.000	-0.067	-0.350
-541.237	-15.157	-0.170	-0.110
-540.223	556.136	-0.042	-0.102
-539.208	-111.415	-0.165	-0.034
-538.193	338.703	0.154	-0.305
-537.179	-200.000	-0.001	-0.203
-536.164	-87.306	-0.248	0.076
-535.150	-200.000	-0.008	-0.419
-534.135	37.920	0.108	-0.098
-533.121	-135.701	-0.136	0.016
-532.106	-200.000	0.010	0.146
-531.091	13.580	-0.234	-0.185
-530.077	165.941	-0.033	0.048
-529.062	-39.689	0.080	0.043
-528.048	-200.000	-0.050	0.272
-527.033	-55.685	-0.305	0.139
-526.018	54.677	0.150	-0.147
-525.004	-119.001	-0.245	0.044
-523.989	426.014	-0.055	-0.120
-522.975	-25.442	0.115	0.069
-521.960	-87.069	0.273	0.084
-520.945	-200.000	0.062	0.380
-519.931	-26.517	0.179	0.107
-518.916	-0.211	0.071	0.052
-517.902	-143.415	0.075	0.007
-516.887	150.606	0.134	0.185
-515.872	-3.390	-0.171	-0.121
-514.858	-68.029	-0.235	-0.093
-513.843	-36.417	-0.079	-0.043
-512.829	-70.882	-0.246	-0.094
-511.814	75.083	-0.149	0.159
-510.799	-113.350	-0.237	-0.047
-509.785	-176.048	-0.090	0.002
-508.770	765.918	-0.090	-0.247
-507.756	-120.987	0.150	-0.026
-506.741	-200.000	-0.023	-0.144
-505.726	-101.824	-0.392	-0.096
-504.712	83.436	0.092	0.102
-503.697	-200.000	0.064	0.306
-502.683	800.000	0.081	0.355
-501.668	-200.000	-0.023	-0.253
-500.653	-80.291	0.052	-0.018
-499.639	36.130	0.197	0.176
-498.624	-47.964	-0.159	-0.078
-497.610	29.280	0.094	-0.081
-496.595	-163.887	0.200	-0.009
-495.581	800.000	-0.092	0.268
-494.566	225.877	0.051	-0.084
-493.551	-200.000	0.007	0.036
-492.537	-200.000	0.045	0.278
-491.522	51.945	-0.261	0.252
-490.508	-90.475	-0.367	0.108
-489.493	800.000	-0.037	0.110
-488.478	68.165	0.257	0.267
-487.464	-12.098	0.075	-0.050
-486.449	-139.844	-0.124	-0.013
-485.435	266.223	0.083	0.147
-484.420	-128.223	0.301	-0.044
-483.405	-200.000	-0.034	0.224
-482.391	69.858	0.119	0.124
-481.376	800.000	0.043	0.177
-480.362	-74.183	-0.208	-0.076
-479.347	-74.981	0.441	0.160
-478.332	-180.663	-0.345	0.007
-477.318	800.000	-0.083	-0.366
-476.303	-27.959	0.266	-0.156
-475.289	647.024	0.192	-0.498
-474.274	800.000	0.062	-0.249
-473.259	20.470	-0.122	-0.100
-472.245	-38.724	-0.295	-0.158
-471.230	50.343	-0.187	0.179
-470.216	-200.000	-0.010	0.218
-469.201	-200.000	0.124	-0.551
-468.186	87.656	0.170	-0.191
-467.172	-153.474	-0.202	-0.014
-466.157	-10.010	-0.164	-0.111
-465.143	-200.000	0.049	0.338
-464.128	-137.544	-0.100	0.011
-463.113	-146.163	0.284	0.025
-462.099	-200.000	0.064	-0.378
-461.084	17.241	0.094	0.075
-460.070	-153.248	0.273	0.019
-459.055	-11.729	0.247	-0.164
-458.040	-200.000	0.028	-0.189
-457.026	-200.000	0.010	0.132
-456.011	158.609	0.045	0.063
-454.997	225.298	0.181	0.297
-453.982	-148.641	-0.181	0.015
-452.968	-42.216	-0.077	0.040
-451.953	261.094	0.123	0.215
-450.938	-140.363	0.343	0.036
-449.924	-200.000	-0.043	0.226
-448.909	-119.850	0.118	-0.021
-447.895	800.000	0.098	-0.308
-446.880	-200.000	-0.013	0.063
-445.865	-200.000	-0.001	-0.229
-444.851	-171.121	0.111	-0.004
-443.836	-200.000	0.022	0.425
-442.822	-200.000	0.028	0.176
-441.807	786.539	0.065	-0.181
-440.792	-116.362	-0.069	0.013
-439.778	-7.273	-0.221	0.152
-438.763	2.631	-0.070	-0.051
-437.749	800.000	-0.038	0.112
-436.734	-200.000	0.016	0.183
-435.719	800.000	0.023	0.083
-434.705	102.091	0.189	0.224
-433.690	-200.000	0.018	-0.125
-432.676	-181.520	-0.281	0.006
-431.661	-41.272	0.197	-0.103
-430.646	142.512	-0.067	0.090
-429.632	538.995	-0.125	0.300
-428.617	-8.105	0.230	-0.157
-427.603	-5.013	-0.043	-0.030
-426.588	37.239	-0.173	0.155
-425.573	57.505	-0.112	0.111
-424.559	65.136	0.094	-0.096
-423.544	-200.000	-0.010	0.058
-422.530	437.525	0.057	-0.126
-421.515	275.071	-0.127	-0.228
-420.500	153.146	0.171	-0.237
-419.486	-55.436	0.140	-0.063
-418.471	195.724	0.028	0.043
-417.457	-157.004	-0.105	-0.006
-416.442	-121.032	0.222	0.038
-415.428	-200.000	-0.021	0.329
-414.413	129.687	0.135	0.174
-413.398	515.091	0.060	-0.141
-412.384	-29.472	-0.234	-0.135
-411.369	-47.185	0.108	-0.053
-410.355	99.282	0.216	0.253
-409.340	22.439	0.135	0.112
-408.325	15.631	-0.137	0.109
-407.311	-22.845	-0.068	-0.042
-406.296	-105.046	0.385	-0.089
-405.282	-14.152	-0.257	-0.167
-404.267	-8.504	0.199	0.135
-403.252	194.092	-0.046	0.070
-402.238	5.227	-0.213	0.159
-401.223	-21.644	0.098	0.060
-400.209	800.000	-0.098	0.399
-399.194	339.641	-0.180	0.354
-398.179	-97.109	0.328	-0.087
-397.165	-175.913	0.404	0.011
-396.150	-200.000	0.004	-0.207
-395.136	-30.061	0.422	-0.242
-394.121	50.803	0.173	0.165
-393.106	-108.347	0.224	-0.049
-392.092	414.338	-0.033	0.070
-391.077	-200.000	0.014	0.269
-390.063	-11.373	0.260	0.173
-389.048	-61.145	-0.262	0.112
-388.033	-200.000	-0.002	-0.175
-387.019	92.776	-0.253	0.288
-386.004	-14.312	-0.277	-0.180
-384.990	363.514	0.072	0.147
-383.975	-20.896	-0.386	-0.239
-382.960	800.000	-0.094	-0.344
-381.946	344.755	0.177	-0.351
-380.931	159.855	0.193	0.271
-379.917	-200.000	0.008	-0.047
-378.902	156.095	0.142	0.197
-377.888	16.444	-0.268	0.213
-376.873	-200.000	0.009	-0.054
-375.858	-200.000	0.043	0.206
-374.844	800.000	0.042	-0.161
-373.829	58.083	0.198	-0.196
-372.815	-135.668	-0.337	-0.040
-371.800	147.823	0.200	-0.272
-370.785	-103.755	-0.147	-0.035
-369.771	-120.956	-0.336	-0.057
-368.756	800.000	0.104	0.346
-367.742	-27.362	-0.175	0.103
-366.727	-200.000	0.005	-0.178
-365.712	28.323	-0.209	0.178
-364.698	-121.533	0.051	0.009
-363.683	-79.981	-0.248	0.084
-362.669	-138.512	-0.302	-0.034
-361.654	-200.000	-0.004	-0.171
-360.639	800.000	0.148	0.420
-359.625	-126.357	0.039	-0.006
-358.610	-200.000	-0.001	0.045
-357.596	-62.510	0.391	-0.164
-356.581	-119.893	0.264	0.046
-355.566	-87.014	-0.287	-0.088
-354.552	800.000	-0.025	-0.093
-353.537	800.000	0.086	-0.267
-352.523	-85.373	0.279	-0.088
-351.508	-200.000	0.009	0.102
-350.493	-200.000	0.008	0.166
-349.479	-97.625	-0.263	-0.069
-348.464	-200.000	0.162	0.000
-347.450	800.000	-0.058	0.250
-346.435	-114.470	-0.240	-0.046
-345.420	-16.972	-0.108	0.069
-344.406	800.000	0.117	-0.366
-343.391	-159.677	0.148	-0.008
-342.377	-93.017	0.344	0.097
-341.362	-104.115	-0.138	0.032
-340.348	-120.195	-0.254	0.044
-339.333	318.037	-0.096	-0.184
-338.318	144.433	0.091	-0.123
-337.304	-119.130	0.134	-0.024
-336.289	-38.493	0.150	0.080
-335.275	-102.465	-0.434	-0.105
-334.260	800.000	-0.076	0.234
-333.245	800.000	-0.051	-0.193
-332.231	-200.000	0.014	0.128
-331.216	-200.000	-0.047	-0.283
-330.202	-137.480	0.175	0.020
-329.187	24.277	0.426	0.355
-328.172	140.619	0.096	0.127
-327.158	86.174	-0.100	0.111
-326.143	-30.875	-0.393	-0.224
-325.129	-15.850	-0.028	-0.018
-324.114	684.577	0.123	-0.324
-323.099	738.829	0.117	-0.315
-322.085	413.241	-0.064	-0.137
-321.070	-159.168	0.121	0.007
-320.056	70.534	-0.171	0.178
-319.041	-23.579	-0.223	0.135
-318.026	-200.000	-0.026	0.221
-317.012	-118.104	-0.157	0.028
-315.997	-29.246	0.212	-0.123
-314.983	514.684	0.155	0.363
-313.968	-152.769	-0.183	0.013
-312.953	800.000	0.068	0.250
-311.939	58.656	0.315	-0.311
-310.924	-106.334	-0.334	0.075
-309.910	777.044	0.128	-0.351
-308.895	160.402	0.125	-0.175
-307.880	204.406	0.068	-0.106
-306.866	-200.000	0.007	-0.240
-305.851	199.178	-0.143	-0.221
-304.837	126.040	-0.182	0.232
-303.822	-111.678	-0.131	0.027
-302.807	-200.000	-0.064	0.323
-301.793	160.288	0.078	0.110
-300.778	556.830	0.140	0.339
-299.764	69.383	0.072	0.074
-298.749	201.508	-0.088	-0.136
-297.735	800.000	0.145	0.458
-296.720	61.593	0.182	0.183
-295.705	-200.000	0.091	0.445
-294.691	-200.000	-0.024	0.138
-293.676	-55.512	0.210	-0.095
-292.662	-65.316	-0.105	0.042
-291.647	-200.000	-0.002	-0.217
-290.632	-200.000	0.001	0.362
-289.618	8.556	0.282	0.214
-288.603	-62.109	-0.049	-0.021
-287.589	106.177	-0.167	0.199
-286.574	-140.960	0.267	-0.028
-285.559	-7.549	-0.151	0.103
-284.545	11.015	-0.062	0.048
-283.530	-200.000	0.003	0.428
-282.516	116.130	0.111	0.137
-281.501	381.851	0.118	0.243
-280.486	-168.078	-0.245	-0.010
-279.472	-22.639	-0.123	0.075
-278.457	-156.840	-0.068	0.004
-277.443	-6.893	-0.126	-0.086
-276.428	-63.435	0.251	-0.104
-275.413	-200.000	0.020	-0.349
-274.399	18.138	-0.161	0.130
-273.384	-200.000	-0.029	0.266
-272.370	-109.950	-0.133	-0.028
-271.355	-109.507	0.110	-0.023
-270.340	13.917	0.455	0.356
-269.326	-36.575	-0.115	0.062
-268.311	-67.260	-0.368	0.146
-267.297	-92.620	0.123	0.035
-266.282	-200.000	-0.075	0.353
-265.267	200.552	0.033	0.051
-264.253	800.000	-0.052	-0.161
-263.238	33.488	-0.103	-0.090
-262.224	157.950	0.292	-0.407
-261.209	-83.898	0.214	-0.069
-260.195	-145.244	-0.448	-0.041
-259.180	-200.000	-0.077	-0.351
-258.165	66.924	-0.150	0.154
-257.151	-123.865	-0.198	-0.031
-256.136	-200.000	0.026	-0.127
-255.122	397.539	0.138	-0.290
-254.107	-32.823	-0.283	0.158
-253.092	-200.000	-0.003	0.078
-252.078	29.927	0.060	-0.051
-251.063	800.000	0.010	-0.040
-250.049	734.917	0.076	-0.205
-249.034	-96.121	-0.136	0.036
-248.019	800.000	0.064	-0.202
-247.005	338.274	0.167	0.326
-245.990	46.086	-0.233	-0.217
-244.976	-87.823	0.132	0.040
-243.961	165.221	-0.099	0.140
-242.946	-20.702	-0.258	0.159
-241.932	96.394	-0.146	0.168
-240.917	800.000	0.117	-0.332
-239.903	25.457	0.024	0.020
-238.888	-200.000	0.065	-0.402
-237.873	-35.697	-0.178	0.097
-236.859	-52.605	-0.243	-0.113
-235.844	-151.495	0.103	-0.008
-234.830	-46.626	-0.157	-0.077
-233.815	-200.000	-0.008	-0.242
-232.800	-38.990	-0.355	-0.188
-231.786	-200.000	-0.024	-0.163
-230.771	-57.958	-0.139	0.061
-229.757	-71.020	-0.237	-0.089
-228.742	24.168	0.354	-0.293
-227.727	-115.180	-0.245	-0.047
-226.713	355.362	-0.150	0.299
-225.698	-200.000	-0.024	-0.241
-224.684	177.325	0.277	-0.405
-223.669	-27.755	0.195	0.114
-222.655	-165.812	0.315	-0.014
-221.640	-107.892	0.302	-0.066
-220.625	-200.000	0.061	-0.357
-219.611	-85.430	0.222	-0.069
-218.596	-44.612	0.039	0.019
-217.582	322.963	-0.078	0.148
-216.567	96.552	-0.110	0.126
-215.552	-58.121	0.212	0.093
-214.538	800.000	-0.043	0.146
-213.523	16.288	-0.169	-0.134
-212.509	-200.000	-0.023	0.186
-211.494	800.000	-0.053	-0.189
-210.479	409.621	-0.096	0.204
-209.465	5.070	0.227	0.168
-208.450	-8.046	-0.258	0.175
-207.436	355.036	-0.020	0.041
-206.421	3.245	0.085	0.062
-205.406	-200.000	-0.036	0.180
-204.392	-134.074	0.173	0.021
-203.377	112.061	-0.103	-0.125
-202.363	592.280	-0.111	0.275
-201.348	-35.950	0.188	0.102
-200.333	-97.149	0.259	-0.068
-199.319	185.018	0.143	-0.212
-198.304	123.923	-0.266	-0.335
-197.290	258.372	0.061	-0.105
-196.275	1.841	-0.277	0.200
-195.260	-39.407	0.193	-0.101
-194.246	248.017	0.092	-0.155
-193.231	214.286	-0.236	-0.375
-192.217	13.670	0.201	-0.157
-191.202	-70.745	-0.047	-0.018
-190.187	165.729	-0.166	-0.236
-189.173	114.376	0.074	0.090
-188.158	-173.400	-0.427	0.013
-187.144	331.784	0.048	0.093
-186.129	306.475	0.227	0.423
-185.114	-143.124	0.300	0.029
-184.100	-39.839	0.066	0.034
-183.085	318.437	-0.085	0.162
-182.071	-200.000	0.017	0.105
-181.056	62.806	-0.114	0.114
-180.042	-32.248	-0.089	0.050
-179.027	-200.000	-0.041	-0.184
-178.012	-67.841	-0.203	0.079
-176.998	15.150	0.070	0.055
-175.983	800.000	0.079	-0.313
-174.969	-200.000	0.082	0.420
-173.954	59.943	0.219	0.217
-172.939	-129.849	0.048	0.007
-171.925	800.000	-0.064	-0.273
-170.910	49.809	0.372	-0.351
-169.896	800.000	-0.014	0.052
-168.881	109.982	-0.051	-0.061
-167.866	502.628	0.066	-0.153
-166.852	90.584	0.104	-0.117
-165.837	482.252	0.146	-0.333
-164.823	-200.000	0.012	-0.139
-163.808	124.350	0.194	-0.244
-162.793	-112.231	0.243	0.049
-161.779	-21.197	0.402	0.246
-160.764	-26.625	0.130	0.076
-159.750	-200.000	0.021	-0.381
-158.735	800.000	0.067	0.209
-157.720	227.778	0.120	0.195
-156.706	800.000	-0.044	0.183
-155.691	67.079	0.195	0.199
-154.677	-77.321	-0.187	0.065
-153.662	514.016	-0.040	-0.093
-152.647	-200.000	-0.021	-0.145
-151.633	-200.000	-0.073	0.331
-150.618	160.827	-0.146	-0.204
-149.604	800.000	0.102	-0.289
-148.589	65.470	-0.149	0.151
-147.574	-112.454	0.147	0.029
-146.560	-90.659	0.111	0.032
-145.545	-71.241	0.236	0.089
-144.531	-200.000	0.009	0.077
-143.516	123.682	-0.069	-0.087
-142.502	40.853	0.108	0.098
-141.487	-108.714	-0.207	-0.044
-140.472	-66.806	-0.605	-0.240
-139.458	326.924	0.212	-0.406
-138.443	800.000	0.059	0.255
-137.429	313.930	-0.093	0.176
-136.414	25.066	0.173	0.144
-135.399	-200.000	-0.068	-0.000
-134.385	800.000	-0.044	0.189
-133.370	-49.567	0.220	-0.105
-132.356	72.560	0.186	0.194
-131.341	-121.504	0.006	0.001
-130.326	140.408	0.055	-0.072
-129.312	-41.143	0.288	-0.149
-128.297	800.000	0.074	-0.223
-127.283	-70.922	0.223	0.084
-126.268	-2.641	0.215	0.150
-125.253	-123.396	0.140	0.022
-124.239	-200.000	-0.003	0.061
-123.224	189.894	-0.040	-0.059
-122.210	-115.224	0.068	0.013
-121.195	204.993	0.139	-0.216
