DTS Sentinel unit serial number:	SN413079Multiplexer serial number:	ORYXHardware model number:	OX4-SRSoftware version number:	ORYX F/W v4.00 Oryx Data Collector v3.7.2.0data status	okinstallation	princeton_trtdifferential loss correction	single-endedforward channel	channel 4reverse channel	N/Adate	2019/09/14time	10:41:35forward acquisition time	60.00reverse acquisition time	0.00gamma	496.2192k internal	0.2296k external	0.2296temperature offset calibration	1.0148default loss term (dB/km)	0.3790temperature slope calibration	1.0000multiplexer offset coefficient	1.0000multiplexer slope coefficient	1.0000fibre end	0.00T internal ref (°C)	35.30T ext. ref 1 (°C)	4.26T ext. ref 2 (°C)	32.90length (m)	temperature (°C)	Stokes	anti-Stokes-747.200	-128.171	-0.079	0.012
-746.185	13.382	0.290	0.230
-745.171	350.147	-0.101	0.204
-744.156	-200.000	0.010	-0.218
-743.142	800.000	0.071	-0.306
-742.127	669.249	0.076	-0.201
-741.112	104.358	0.220	0.264
-740.098	-68.494	-0.058	0.023
-739.083	-58.092	-0.178	-0.080
-738.069	-200.000	-0.041	0.292
-737.054	-43.007	-0.218	0.113
-736.039	800.000	0.026	0.088
-735.025	800.000	-0.013	0.039
-734.010	133.148	-0.219	-0.289
-732.996	57.479	-0.068	-0.067
-731.981	-10.251	-0.412	0.279
-730.966	60.368	0.140	0.142
-729.952	-62.872	-0.211	0.089
-728.937	16.562	-0.304	-0.246
-727.923	49.992	-0.186	-0.179
-726.908	-112.450	0.130	0.027
-725.894	800.000	0.054	0.208
-724.879	-40.434	-0.245	0.130
-723.864	-92.384	-0.174	-0.050
-722.850	800.000	0.050	-0.163
-721.835	-20.712	0.280	-0.175
-720.821	800.000	0.021	0.072
-719.806	-7.830	-0.164	-0.113
-718.791	-200.000	0.039	-0.177
-717.777	24.251	-0.096	-0.081
-716.762	418.271	0.091	-0.199
-715.748	-200.000	-0.022	-0.122
-714.733	30.719	-0.222	-0.194
-713.718	800.000	0.031	0.113
-712.704	-200.000	-0.037	-0.206
-711.689	-50.510	0.065	-0.031
-710.675	-200.000	0.049	0.292
-709.660	14.402	0.076	0.060
-708.645	-136.536	0.058	0.007
-707.631	-77.669	-0.337	-0.119
-706.616	-186.206	-0.178	-0.003
-705.602	-15.996	-0.078	0.051
-704.587	800.000	-0.045	-0.149
-703.572	104.810	0.081	0.098
-702.558	63.124	-0.284	-0.290
-701.543	-183.120	0.294	0.005
-700.529	-200.000	0.033	-0.149
-699.514	361.170	-0.051	-0.104
-698.499	223.379	-0.133	0.219
-697.485	-88.459	-0.131	0.040
-696.470	-118.566	0.296	0.053
-695.456	245.347	0.048	0.082
-694.441	-19.218	-0.136	-0.086
-693.426	0.192	0.145	-0.106
-692.412	-32.097	0.061	-0.035
-691.397	37.401	-0.075	-0.068
-690.383	-200.000	-0.044	0.245
-689.368	800.000	-0.068	0.248
-688.354	-95.167	-0.226	0.062
-687.339	-200.000	0.039	-0.269
-686.324	-86.472	0.060	-0.019
-685.310	82.572	-0.122	-0.135
-684.295	-156.827	0.165	-0.010
-683.281	-200.000	-0.004	0.023
-682.266	88.099	-0.169	-0.191
-681.251	11.760	0.144	-0.113
-680.237	-200.000	-0.024	0.135
-679.222	7.707	0.100	0.076
-678.208	303.850	-0.073	-0.137
-677.193	-129.723	0.095	-0.013
-676.178	139.855	0.229	0.307
-675.164	45.378	-0.072	-0.067
-674.149	136.288	0.097	0.128
-673.135	-64.577	-0.069	0.029
-672.120	578.004	0.072	-0.180
-671.105	437.776	-0.160	-0.355
-670.091	-152.276	0.181	-0.013
-669.076	-100.032	-0.203	-0.052
-668.062	183.098	0.076	-0.115
-667.047	6.794	0.023	-0.018
-666.032	43.489	-0.060	0.056
-665.018	374.033	0.071	0.146
-664.003	189.504	-0.085	-0.130
-662.989	227.039	0.075	-0.124
-661.974	388.080	0.080	-0.169
-660.959	-160.483	0.126	-0.007
-659.945	-200.000	-0.040	0.221
-658.930	416.176	-0.213	-0.463
-657.916	296.525	-0.121	-0.226
-656.901	13.558	-0.185	-0.146
-655.886	314.009	-0.134	0.257
-654.872	25.574	0.208	0.176
-653.857	-200.000	-0.062	0.328
-652.843	-200.000	-0.011	0.125
-651.828	26.512	0.194	-0.165
-650.814	-200.000	-0.029	-0.326
-649.799	800.000	0.032	0.109
-648.784	491.658	-0.015	-0.035
-647.770	702.283	0.121	-0.326
-646.755	-43.476	-0.271	-0.140
-645.741	54.272	0.214	-0.210
-644.726	800.000	0.041	-0.117
-643.711	800.000	0.038	0.113
-642.697	270.707	0.082	0.146
-641.682	501.012	-0.124	-0.292
-640.668	-116.464	0.235	0.044
-639.653	233.427	0.278	0.465
-638.638	36.492	-0.250	0.225
-637.624	-1.331	-0.262	0.188
-636.609	629.569	0.139	-0.358
-635.595	-200.000	-0.033	-0.158
-634.580	-200.000	0.020	-0.203
-633.565	18.913	-0.212	0.173
-632.551	-105.641	0.155	-0.036
-631.536	-27.125	-0.353	0.209
-630.522	-89.102	0.185	-0.056
-629.507	-134.155	-0.161	0.020
-628.492	-54.192	-0.185	-0.086
-627.478	104.721	-0.026	-0.031
-626.463	682.272	0.150	0.398
-625.449	692.436	-0.075	-0.201
-624.434	800.000	-0.104	0.416
-623.419	62.013	0.173	0.175
-622.405	172.951	-0.084	-0.123
-621.390	-174.106	-0.111	0.003
-620.376	-25.338	-0.285	0.171
-619.361	-47.354	0.426	0.211
-618.346	27.732	0.058	0.050
-617.332	33.045	-0.328	-0.289
-616.317	341.718	-0.189	-0.376
-615.303	25.288	0.123	0.104
-614.288	167.360	-0.176	0.254
-613.273	-200.000	0.004	-0.288
-612.259	154.405	-0.149	-0.209
-611.244	69.749	-0.208	-0.218
-610.230	796.928	0.132	0.370
-609.215	-101.833	-0.131	-0.032
-608.201	-144.719	-0.167	-0.016
-607.186	800.000	0.080	-0.354
-606.171	530.114	-0.061	-0.147
-605.157	-125.101	-0.186	-0.029
-604.142	156.500	-0.153	-0.215
-603.128	29.885	-0.270	0.233
-602.113	433.491	0.196	0.432
-601.098	66.711	-0.124	0.128
-600.084	233.830	0.152	-0.255
-599.069	800.000	0.085	-0.282
-598.055	-27.369	-0.329	0.195
-597.040	-129.306	0.296	-0.042
-596.025	632.214	-0.107	-0.275
-595.011	10.728	-0.099	-0.077
-593.996	-87.750	-0.046	-0.014
-592.982	-138.392	-0.304	0.034
-591.967	-73.457	0.183	-0.068
-590.952	28.136	-0.135	-0.116
-589.938	518.605	-0.052	0.124
-588.923	603.499	-0.024	0.061
-587.909	28.611	0.024	0.021
-586.894	644.605	0.011	0.029
-585.879	-55.270	-0.103	0.047
-584.865	-200.000	0.014	0.287
-583.850	196.040	0.064	0.098
-582.836	800.000	0.059	-0.191
-581.821	-30.863	-0.130	-0.075
-580.806	-68.816	-0.235	-0.092
-579.792	789.480	-0.145	-0.403
-578.777	623.860	-0.138	-0.353
-577.763	192.844	0.125	0.192
-576.748	-116.420	0.337	0.063
-575.733	82.700	0.142	-0.156
-574.719	28.274	0.063	-0.054
-573.704	-138.378	-0.208	0.023
-572.690	-9.086	-0.153	0.104
-571.675	70.054	-0.198	-0.207
-570.661	21.464	0.335	-0.276
-569.646	258.821	-0.175	0.306
-568.631	-112.653	0.367	-0.074
-567.617	104.501	0.270	-0.323
-566.602	227.434	0.109	-0.179
-565.588	800.000	-0.060	0.248
-564.573	-200.000	0.013	-0.084
-563.558	741.028	-0.060	0.163
-562.544	-63.245	0.192	0.080
-561.529	-144.062	0.283	0.027
-560.515	-33.105	-0.330	-0.186
-559.500	-91.104	0.192	-0.056
-558.485	3.697	-0.257	-0.190
-557.471	-146.765	-0.314	-0.027
-556.456	19.984	-0.240	-0.196
-555.442	63.836	0.307	0.313
-554.427	-27.842	0.223	0.131
-553.412	235.386	-0.228	-0.381
-552.398	-12.145	-0.164	0.109
-551.383	-124.358	-0.125	-0.020
-550.369	-200.000	0.005	0.139
-549.354	800.000	-0.055	0.197
-548.339	-47.562	0.200	-0.098
-547.325	-200.000	-0.024	-0.222
-546.310	-82.228	0.188	0.062
-545.296	-113.463	0.188	-0.037
-544.281	102.661	0.051	0.061
-543.266	-200.000	-0.000	0.038
-542.252	-120.670	0.261	0.045
-541.237	-107.070	-0.196	-0.044
-540.223	-200.000	-0.032	0.491
-539.208	69.037	-0.245	0.255
-538.193	105.513	-0.042	-0.050
-537.179	-136.999	0.470	0.055
-536.164	-200.000	-0.019	0.111
-535.150	118.910	-0.147	0.185
-534.135	800.000	-0.044	-0.142
-533.121	800.000	-0.044	-0.161
-532.106	-113.250	0.036	-0.007
-531.091	155.459	0.208	-0.290
-530.077	526.472	-0.083	-0.199
-529.062	-100.776	0.153	0.038
-528.048	196.409	0.141	-0.217
-527.033	27.820	0.035	-0.030
-526.018	-119.903	-0.154	0.027
-525.004	-200.000	-0.004	-0.395
-523.989	-85.202	-0.168	0.053
-522.975	-193.204	0.303	-0.003
-521.960	-2.532	-0.028	0.020
-520.945	-200.000	0.419	0.000
-519.931	439.724	0.054	0.121
-518.916	-65.868	0.218	0.088
-517.902	178.653	0.178	0.264
-516.887	141.048	-0.141	-0.189
-515.872	137.460	-0.128	0.170
-514.858	800.000	-0.078	0.231
-513.843	140.788	-0.093	0.125
-512.829	5.067	0.181	0.135
-511.814	0.217	0.275	-0.199
-510.799	-200.000	-0.023	-0.111
-509.785	-200.000	-0.017	0.119
-508.770	9.811	0.253	0.195
-507.756	13.078	-0.266	0.209
-506.741	-200.000	-0.018	0.097
-505.726	150.525	0.158	0.218
-504.712	69.931	0.033	0.034
-503.697	-200.000	-0.027	-0.239
-502.683	31.049	0.331	-0.287
-501.668	152.294	0.198	0.273
-500.653	106.884	-0.233	-0.280
-499.639	800.000	0.056	-0.174
-498.624	96.774	0.206	0.238
-497.610	15.989	0.168	-0.134
-496.595	134.907	-0.128	-0.168
-495.581	-39.788	0.043	-0.023
-494.566	115.302	0.238	0.294
-493.551	412.635	0.048	0.104
-492.537	163.181	0.017	-0.025
-491.522	-45.094	0.191	0.096
-490.508	-71.281	-0.138	0.052
-489.493	-74.356	-0.207	-0.076
-488.478	-61.378	0.090	0.038
-487.464	-168.245	0.319	0.012
-486.449	-200.000	-0.028	-0.186
-485.435	-10.964	-0.160	0.107
-484.420	-135.529	0.129	0.016
-483.405	-200.000	-0.006	-0.102
-482.391	800.000	-0.042	0.179
-481.376	800.000	-0.111	0.455
-480.362	-124.173	-0.119	-0.019
-479.347	259.640	-0.265	0.462
-478.332	472.835	0.163	-0.371
-477.318	-133.324	0.177	0.023
-476.303	-110.145	-0.087	-0.018
-475.289	227.133	0.123	0.203
-474.274	287.466	0.117	0.213
-473.259	-5.127	0.127	0.088
-472.245	-43.167	-0.120	0.061
-471.230	-29.082	0.141	0.082
-470.216	33.316	0.085	-0.075
-469.201	-99.008	0.219	-0.056
-468.186	26.700	0.130	-0.110
-467.172	75.820	-0.208	-0.222
-466.157	36.663	0.030	-0.027
-465.143	518.358	-0.087	0.206
-464.128	-200.000	-0.057	-0.281
-463.113	64.499	0.151	-0.154
-462.099	-200.000	0.017	-0.111
-461.084	-37.160	0.508	-0.274
-460.070	61.319	-0.428	-0.430
-459.055	-26.577	-0.242	-0.143
-458.040	50.917	0.208	-0.199
-457.026	694.038	0.057	-0.152
-456.011	-132.259	0.238	0.031
-454.997	79.149	0.266	-0.288
-453.982	-200.000	0.033	0.217
-452.968	-64.972	0.136	0.056
-451.953	154.822	0.077	-0.106
-450.938	54.037	0.172	-0.167
-449.924	86.868	-0.058	-0.065
-448.909	-155.682	-0.543	-0.035
-447.895	53.386	0.157	-0.152
-446.880	-3.938	0.247	0.173
-445.865	-200.000	0.035	0.196
-444.851	256.578	-0.235	0.408
-443.836	-148.133	0.160	-0.013
-442.822	232.429	0.023	0.038
-441.807	-62.958	-0.162	-0.068
-440.792	-162.677	-0.161	-0.008
-439.778	-200.000	-0.029	0.195
-438.763	800.000	-0.112	-0.324
-437.749	-106.906	0.226	0.051
-436.734	-22.716	0.194	0.118
-435.719	47.330	0.126	-0.119
-434.705	106.398	0.119	0.142
-433.690	-128.431	-0.297	-0.043
-432.676	-200.000	0.056	0.282
-431.661	-165.955	-0.283	-0.012
-430.646	-30.916	-0.229	0.130
-429.632	251.090	-0.131	0.225
-428.617	-66.475	-0.226	0.091
-427.603	17.221	0.213	-0.170
-426.588	-200.000	-0.008	0.104
-425.573	800.000	-0.031	-0.128
-424.559	-107.859	-0.249	0.055
-423.544	-200.000	-0.025	-0.131
-422.530	-156.650	0.292	0.018
-421.515	-174.760	-0.176	0.005
-420.500	31.489	0.065	-0.056
-419.486	369.415	0.063	0.128
-418.471	-61.919	-0.324	0.137
-417.457	296.689	-0.217	-0.401
-416.442	740.947	0.061	-0.165
-415.428	-35.190	-0.394	-0.216
-414.413	142.913	0.008	-0.011
-413.398	-146.816	-0.286	0.025
-412.384	431.995	-0.111	-0.242
-411.369	236.362	0.127	-0.211
-410.355	800.000	-0.045	-0.182
-409.340	165.785	-0.164	-0.233
-408.325	34.530	-0.263	-0.231
-407.311	-200.000	0.020	0.136
-406.296	-132.916	-0.528	0.068
-405.282	3.230	-0.411	0.301
-404.267	-200.000	0.027	0.131
-403.252	-122.710	-0.196	0.032
-402.238	-200.000	-0.003	0.052
-401.223	-200.000	0.024	0.158
-400.209	-32.827	0.326	-0.182
-399.194	32.556	-0.103	0.090
-398.179	419.212	-0.027	-0.059
-397.165	800.000	-0.014	-0.047
-396.150	-119.080	-0.205	0.036
-395.136	87.135	0.182	0.203
-394.121	380.870	-0.208	-0.430
-393.106	-126.858	0.272	0.040
-392.092	-93.376	-0.050	0.014
-391.077	-128.207	0.222	0.032
-390.063	215.445	0.070	0.111
-389.048	800.000	0.095	0.278
-388.033	34.051	-0.101	-0.089
-387.019	-4.330	0.180	0.125
-386.004	-106.795	-0.253	-0.057
-384.990	-200.000	-0.008	0.382
-383.975	-200.000	0.012	0.083
-382.960	163.523	0.248	0.352
-381.946	-27.953	0.209	0.122
-380.931	52.666	0.038	-0.037
-379.917	-183.310	-0.075	-0.001
-378.902	-81.498	0.421	0.139
-377.888	-108.427	-0.465	-0.101
-376.873	-200.000	0.028	0.254
-375.858	473.016	-0.086	-0.196
-374.844	65.607	-0.057	0.059
-373.829	800.000	-0.047	0.189
-372.815	275.647	0.087	0.155
-371.800	-92.055	0.278	-0.079
-370.785	119.608	0.236	0.294
-369.771	-200.000	-0.019	-0.084
-368.756	-97.453	-0.072	0.019
-367.742	22.895	-0.172	-0.142
-366.727	800.000	0.068	-0.198
-365.712	3.643	0.358	-0.263
-364.698	-76.775	-0.050	0.017
-363.683	-200.000	-0.000	-0.111
-362.669	155.445	0.238	-0.330
-361.654	170.976	-0.106	0.153
-360.639	86.156	-0.113	0.125
-359.625	-200.000	-0.003	-0.128
-358.610	-67.706	0.234	-0.092
-357.596	14.769	0.090	0.071
-356.581	-200.000	-0.004	-0.054
-355.566	-126.771	0.172	0.026
-354.552	-37.177	-0.175	-0.094
-353.537	-200.000	0.015	-0.180
-352.523	310.797	0.197	0.372
-351.508	169.775	-0.168	0.242
-350.493	207.560	-0.103	0.161
-349.479	-48.293	-0.343	0.166
-348.464	-40.575	0.150	-0.079
-347.450	35.133	-0.068	-0.060
-346.435	-200.000	0.010	-0.293
-345.420	-36.933	0.015	0.008
-344.406	-119.341	-0.310	-0.054
-343.391	31.775	-0.104	-0.090
-342.377	-200.000	-0.006	0.205
-341.362	800.000	-0.093	0.326
-340.348	-200.000	-0.018	0.151
-339.333	-130.106	0.314	-0.043
-338.318	-110.704	0.194	-0.040
-337.304	171.436	-0.111	-0.160
-336.289	800.000	-0.029	-0.099
-335.275	-130.886	0.465	0.063
-334.260	-200.000	0.015	-0.074
-333.245	233.387	-0.193	0.319
-332.231	299.574	-0.072	0.133
-331.216	-6.646	-0.132	0.091
-330.202	166.275	0.218	-0.311
-329.187	96.060	-0.164	-0.188
-328.172	-88.028	0.319	-0.096
-327.158	-139.661	-0.073	-0.008
-326.143	-79.681	-0.227	0.077
-325.129	250.862	0.130	-0.223
-324.114	-200.000	0.036	0.170
-323.099	-25.022	-0.245	-0.146
-322.085	443.640	-0.089	0.195
-321.070	-36.723	0.181	0.098
-320.056	-172.770	-0.417	-0.013
-319.041	-200.000	0.010	0.350
-318.026	-96.553	-0.272	0.072
-317.012	-92.202	0.185	0.052
-315.997	52.606	0.095	-0.091
-314.983	800.000	0.067	-0.250
-313.968	765.227	-0.045	0.124
-312.953	-3.477	-0.160	0.112
-311.939	-63.794	-0.263	-0.108
-310.924	-82.708	-0.176	-0.057
-309.910	-200.000	-0.033	-0.207
-308.895	72.210	0.041	-0.043
-307.880	52.349	0.273	-0.261
-306.866	-43.496	0.188	0.095
-305.851	-119.807	-0.269	-0.047
-304.837	-55.795	0.360	-0.161
-303.822	-63.084	-0.161	-0.067
-302.807	-14.051	0.241	0.156
-301.793	-112.961	-0.376	-0.075
-300.778	-11.108	-0.162	0.108
-299.764	-87.491	-0.228	0.069
-298.749	-200.000	-0.001	0.037
-297.735	-83.912	0.244	0.078
-296.720	217.464	0.224	0.359
-295.705	113.353	-0.139	-0.169
-294.691	748.545	-0.094	0.255
-293.676	-200.000	0.051	-0.281
-292.662	-74.707	0.222	-0.080
-291.647	800.000	-0.046	-0.198
-290.632	83.119	0.032	0.035
-289.618	259.658	-0.112	0.194
-288.603	3.399	-0.297	-0.217
-287.589	516.231	0.138	0.323
-286.574	38.063	-0.163	-0.146
-285.559	-200.000	0.004	0.025
-284.545	116.675	0.180	0.221
-283.530	800.000	-0.072	0.202
-282.516	41.215	0.092	0.084
-281.501	800.000	0.069	-0.241
-280.486	-61.163	0.119	0.050
-279.472	-200.000	-0.016	-0.340
-278.457	-28.804	0.185	-0.107
-277.443	130.734	0.095	-0.123
-276.428	250.155	0.194	-0.330
-275.413	-103.377	-0.177	0.042
-274.399	432.620	-0.130	0.283
-273.384	-70.447	-0.062	-0.024
-272.370	-150.113	-0.082	0.006
-271.355	-200.000	0.061	0.631
-270.340	-32.527	0.178	0.099
-269.326	800.000	-0.074	-0.208
-268.311	507.071	-0.035	-0.080
-267.297	800.000	0.055	0.188
-266.282	-200.000	-0.010	-0.122
-265.267	-200.000	0.078	-0.444
-264.253	-1.696	-0.070	-0.049
-263.238	-87.551	0.383	0.116
-262.224	800.000	0.073	-0.246
-261.209	-50.032	-0.103	-0.049
-260.195	223.592	-0.090	-0.146
-259.180	-70.241	-0.080	-0.030
-258.165	303.826	0.120	0.223
-257.151	-18.477	-0.138	0.086
-256.136	-120.436	-0.230	0.039
-255.122	-200.000	-0.003	0.222
-254.107	-61.145	-0.224	0.095
-253.092	-63.685	-0.022	-0.009
-252.078	116.839	0.136	-0.167
-251.063	391.074	-0.130	0.271
-250.049	-200.000	0.051	-0.264
-249.034	160.339	0.096	-0.134
-248.019	-42.130	0.188	-0.096
-247.005	-200.000	-0.004	-0.144
-245.990	691.514	-0.044	0.115
-244.976	738.172	0.088	0.236
-243.961	-200.000	0.020	0.118
-242.946	767.230	-0.121	-0.330
-241.932	-200.000	-0.003	0.036
-240.917	529.517	-0.030	-0.070
-239.903	97.088	0.244	0.280
-238.888	543.779	0.112	0.268
-237.873	507.067	0.108	0.250
-236.859	-2.927	-0.185	0.129
-235.844	375.235	-0.154	0.315
-234.830	585.434	-0.094	-0.231
-233.815	800.000	0.080	0.260
-232.800	-40.873	0.194	-0.100
-231.786	-95.697	-0.372	-0.100
-230.771	-200.000	-0.056	-0.367
-229.757	327.076	0.085	0.163
-228.742	214.747	-0.096	0.152
-227.727	-64.179	0.144	-0.059
-226.713	376.680	-0.092	0.189
-225.698	-30.846	-0.053	-0.030
-224.684	-140.679	-0.324	-0.034
-223.669	37.834	0.042	0.037
-222.655	-25.930	0.127	-0.075
-221.640	800.000	-0.026	0.112
-220.625	-9.174	-0.343	0.229
-219.611	800.000	0.033	0.104
-218.596	150.513	0.088	0.119
-217.582	647.221	-0.057	0.146
-216.567	210.716	0.215	-0.338
-215.552	37.826	0.320	-0.285
-214.538	-105.732	0.276	0.062
-213.523	185.289	0.197	-0.293
-212.509	-168.349	-0.066	-0.003
-211.494	800.000	-0.059	-0.246
-210.479	-95.321	0.342	-0.092
-209.465	54.050	-0.118	-0.113
-208.450	-200.000	-0.009	0.212
-207.436	-200.000	-0.034	-0.351
-206.421	800.000	-0.087	0.379
-205.406	-121.300	-0.240	0.040
-204.392	-200.000	-0.003	0.259
-203.377	-5.744	0.248	0.170
-202.363	-66.830	-0.138	0.054
-201.348	-200.000	0.011	0.201
-200.333	675.132	-0.075	-0.195
-199.319	-194.527	0.147	-0.001
-198.304	-50.123	-0.297	0.141
-197.290	-150.731	-0.146	-0.011
-196.275	-200.000	-0.007	-0.079
-195.260	-200.000	-0.015	-0.179
-194.246	-16.427	0.106	0.067
-193.231	-200.000	-0.023	-0.160
-192.217	-200.000	0.060	-0.273
-191.202	49.423	-0.248	0.233
-190.187	-200.000	-0.023	0.142
-189.173	302.981	-0.037	0.068
-188.158	70.782	0.092	0.096
-187.144	371.330	0.156	-0.316
-186.129	18.576	-0.179	0.143
-185.114	-2.235	0.283	-0.199
-184.100	17.452	0.081	0.064
-183.085	494.878	0.081	-0.185
-182.071	52.969	0.274	-0.262
-181.056	800.000	-0.044	-0.178
-180.042	-200.000	0.012	-0.076
-179.027	413.116	0.137	0.290
-178.012	246.025	0.131	-0.220
-176.998	173.187	-0.210	-0.302
-175.983	-31.194	0.225	0.127
-174.969	-113.647	-0.383	-0.075
-173.954	-200.000	0.033	-0.146
-172.939	-71.720	0.263	0.098
-171.925	216.590	0.089	0.141
-170.910	60.816	-0.065	-0.064
-169.896	-110.681	-0.086	0.018
-168.881	-200.000	-0.067	0.299
-167.866	172.463	0.218	0.314
-166.852	391.696	-0.109	0.227
-165.837	468.796	0.080	0.178
-164.823	-80.529	-0.177	0.059
-163.808	137.098	-0.161	0.210
-162.793	17.741	0.351	0.279
-161.779	22.106	-0.237	-0.193
-160.764	-85.758	0.096	0.030
-159.750	-200.000	-0.054	-0.251
-158.735	-200.000	0.054	-0.243
-157.720	678.335	0.088	-0.227
-156.706	-200.000	-0.008	-0.168
-155.691	-25.738	-0.133	0.078
-154.677	-200.000	0.054	0.262
-153.662	433.594	-0.061	-0.133
-152.647	-12.557	0.025	-0.016
-151.633	16.539	0.112	0.088
-150.618	-200.000	0.003	-0.095
-149.604	-102.049	0.364	-0.088
-148.589	76.528	-0.053	-0.057
-147.574	800.000	-0.075	0.225
-146.560	-200.000	-0.021	-0.266
-145.545	-137.132	0.223	-0.025
-144.531	295.786	-0.099	-0.181
-143.516	197.919	0.058	0.089
-142.502	-200.000	-0.017	0.128
-141.487	800.000	0.093	0.369
-140.472	160.861	0.243	-0.338
-139.458	-102.060	0.238	-0.057
-138.443	26.825	-0.293	0.245
-137.429	-200.000	-0.038	0.353
-136.414	-43.745	0.260	0.131
-135.399	-81.241	-0.172	0.057
-134.385	-200.000	0.091	-0.479
-133.370	729.440	0.059	0.157
-132.356	149.047	0.133	0.179
-131.341	-171.997	-0.178	0.006
-130.326	-88.480	-0.135	-0.040
-129.312	-135.837	0.285	-0.034
-128.297	-39.827	-0.218	-0.113
-127.283	84.048	-0.101	0.110
-126.268	-200.000	-0.007	-0.043
-125.253	-0.417	0.121	0.086
-124.239	69.483	0.211	0.217
-123.224	-180.784	0.112	-0.002
-122.210	-200.000	0.008	-0.176
-121.195	-200.000	0.024	0.242
