DTS Sentinel unit serial number:	SN413079Multiplexer serial number:	ORYXHardware model number:	OX4-SRSoftware version number:	ORYX F/W v4.00 Oryx Data Collector v3.7.2.0data status	okinstallation	princeton_trtdifferential loss correction	single-endedforward channel	channel 4reverse channel	N/Adate	2019/09/13time	18:21:35forward acquisition time	60.00reverse acquisition time	0.00gamma	496.2192k internal	0.2304k external	0.2304temperature offset calibration	1.0191default loss term (dB/km)	0.3790temperature slope calibration	1.0000multiplexer offset coefficient	1.0000multiplexer slope coefficient	1.0000fibre end	0.00T internal ref (°C)	33.86T ext. ref 1 (°C)	4.36T ext. ref 2 (°C)	26.74length (m)	temperature (°C)	Stokes	anti-Stokes-747.200	-30.560	-0.197	0.114
-746.185	-92.410	-0.102	0.029
-745.171	-93.029	0.314	-0.089
-744.156	89.596	0.050	0.056
-743.142	200.284	0.042	-0.065
-742.127	-51.022	-0.663	0.317
-741.112	-49.284	0.201	0.098
-740.098	544.342	-0.124	-0.302
-739.083	-200.000	0.044	0.392
-738.069	-51.265	-0.096	0.046
-737.054	-200.000	-0.002	0.150
-736.039	136.286	0.074	-0.099
-735.025	519.450	0.022	-0.052
-734.010	362.331	-0.089	-0.181
-732.996	69.659	-0.207	-0.218
-731.981	116.013	-0.217	-0.271
-730.966	243.162	0.112	-0.191
-729.952	171.490	-0.177	-0.258
-728.937	-27.227	-0.261	-0.155
-727.923	-96.690	-0.181	0.049
-726.908	800.000	0.067	-0.261
-725.894	-200.000	0.009	-0.215
-724.879	522.418	-0.041	0.098
-723.864	-159.079	-0.273	0.016
-722.850	527.798	-0.049	-0.117
-721.835	329.812	0.066	0.129
-720.821	-182.894	-0.129	-0.002
-719.806	-200.000	0.010	-0.081
-718.791	800.000	0.061	0.210
-717.777	694.346	-0.109	-0.291
-716.762	-120.239	0.178	-0.031
-715.748	-200.000	-0.027	-0.177
-714.733	-145.855	-0.261	-0.024
-713.718	7.590	-0.024	0.018
-712.704	-200.000	-0.006	-0.109
-711.689	-39.953	0.051	-0.027
-710.675	-200.000	0.032	0.150
-709.660	-200.000	-0.077	0.344
-708.645	243.960	-0.115	0.197
-707.631	482.433	0.075	-0.173
-706.616	214.373	-0.083	0.134
-705.602	-161.917	0.046	0.002
-704.587	148.505	0.189	-0.260
-703.572	-200.000	-0.009	0.115
-702.558	-200.000	0.048	0.275
-701.543	-113.608	-0.193	-0.038
-700.529	-109.387	0.244	0.053
-699.514	61.819	0.046	-0.047
-698.499	87.561	-0.158	-0.178
-697.485	-200.000	-0.015	-0.271
-696.470	-104.075	0.073	-0.017
-695.456	-150.531	-0.256	-0.020
-694.441	-181.962	-0.086	0.002
-693.426	-18.445	-0.087	0.055
-692.412	69.755	-0.145	0.152
-691.397	90.518	-0.088	-0.100
-690.383	397.085	0.114	-0.241
-689.368	-200.000	-0.015	-0.478
-688.354	226.469	-0.011	0.019
-687.339	-198.053	0.020	0.000
-686.324	-200.000	-0.041	0.190
-685.310	-178.836	-0.258	-0.006
-684.295	-17.108	-0.130	-0.083
-683.281	-200.000	-0.004	-0.235
-682.266	-49.579	0.140	-0.068
-681.251	722.171	-0.083	-0.225
-680.237	-200.000	0.007	-0.054
-679.222	642.277	-0.111	0.286
-678.208	-18.123	-0.262	0.167
-677.193	-68.380	-0.120	0.047
-676.178	63.638	0.115	-0.117
-675.164	-87.184	0.217	0.067
-674.149	800.000	-0.045	-0.172
-673.135	800.000	0.100	-0.443
-672.120	-107.202	0.254	0.057
-671.105	-60.314	0.411	-0.178
-670.091	-178.468	-0.265	0.006
-669.076	558.612	0.031	-0.076
-668.062	-70.609	-0.368	-0.141
-667.047	-11.254	-0.282	-0.189
-666.032	-200.000	0.056	-0.370
-665.018	-12.360	0.143	-0.095
-664.003	-110.020	0.093	-0.020
-662.989	215.013	-0.138	-0.222
-661.974	-200.000	0.010	0.128
-660.959	-200.000	0.029	-0.333
-659.945	-200.000	-0.052	-0.355
-658.930	553.132	0.119	-0.291
-657.916	-200.000	0.092	-0.466
-656.901	800.000	0.035	-0.138
-655.886	-200.000	0.010	-0.141
-654.872	-200.000	0.090	-0.512
-653.857	-25.398	-0.111	0.067
-652.843	-111.093	0.113	0.024
-651.828	749.602	-0.055	-0.149
-650.814	233.998	-0.116	-0.193
-649.799	74.840	-0.214	-0.228
-648.784	395.340	0.023	0.049
-647.770	-200.000	-0.075	0.364
-646.755	-3.133	0.219	0.155
-645.741	-200.000	-0.037	0.193
-644.726	-109.806	0.258	-0.055
-643.711	118.871	-0.240	-0.301
-642.697	8.958	-0.095	-0.072
-641.682	259.208	0.125	-0.219
-640.668	-21.997	-0.140	0.087
-639.653	-200.000	-0.045	0.225
-638.638	95.419	-0.242	-0.279
-637.624	-200.000	-0.008	-0.169
-636.609	-73.922	-0.176	-0.065
-635.595	137.579	0.089	-0.119
-634.580	-132.638	0.193	-0.025
-633.565	-63.145	-0.346	0.145
-632.551	103.470	-0.129	0.154
-631.536	296.740	0.099	-0.184
-630.522	-200.000	-0.002	0.066
-629.507	394.084	-0.052	0.110
-628.492	-141.115	-0.470	0.049
-627.478	325.428	-0.088	-0.170
-626.463	156.053	-0.058	0.081
-625.449	118.431	-0.127	-0.159
-624.434	800.000	0.130	-0.367
-623.419	7.160	-0.017	-0.013
-622.405	-163.838	-0.062	0.003
-621.390	97.479	0.196	-0.229
-620.376	247.079	0.149	-0.255
-619.361	77.743	0.081	0.088
-618.346	-93.958	-0.046	0.013
-617.332	-113.561	-0.273	0.054
-616.317	224.409	-0.248	-0.406
-615.303	-128.916	0.138	-0.020
-614.288	-150.231	0.341	-0.027
-613.273	90.093	0.009	0.010
-612.259	-54.279	0.411	0.189
-611.244	-159.719	-0.452	0.025
-610.230	-52.845	-0.114	0.053
-609.215	175.892	0.110	0.162
-608.201	-200.000	0.001	-0.076
-607.186	-42.639	-0.238	-0.123
-606.171	-123.105	0.314	0.051
-605.157	-13.161	-0.008	-0.005
-604.142	68.175	0.160	-0.166
-603.128	-134.450	0.082	0.010
-602.113	-85.825	-0.153	-0.048
-601.098	-200.000	0.018	0.098
-600.084	-67.925	-0.345	0.136
-599.069	-46.644	-0.299	0.148
-598.055	75.973	0.159	-0.170
-597.040	18.375	-0.111	0.089
-596.025	-200.000	-0.021	-0.143
-595.011	-89.600	0.559	0.166
-593.996	-200.000	-0.000	-0.072
-592.982	-200.000	0.013	0.221
-591.967	8.907	0.065	-0.049
-590.952	692.745	0.140	-0.372
-589.938	-101.435	0.162	0.040
-588.923	-126.153	0.230	-0.035
-587.909	125.851	-0.137	-0.175
-586.894	800.000	0.051	-0.148
-585.879	-66.797	-0.513	0.205
-584.865	-142.490	-0.258	-0.026
-583.850	-200.000	0.062	-0.460
-582.836	-200.000	-0.022	0.182
-581.821	-100.340	-0.142	-0.036
-580.806	-33.148	-0.233	-0.131
-579.792	-200.000	-0.012	-0.151
-578.777	397.795	0.038	-0.081
-577.763	-71.729	-0.340	0.128
-576.748	303.021	-0.074	0.138
-575.733	-200.000	-0.046	0.472
-574.719	-200.000	0.009	-0.334
-573.704	-2.225	-0.098	0.070
-572.690	19.214	0.181	-0.147
-571.675	-92.084	-0.265	0.076
-570.661	325.322	-0.027	-0.053
-569.646	61.734	0.144	-0.145
-568.631	-167.498	-0.389	-0.016
-567.617	800.000	-0.032	0.097
-566.602	-97.633	0.173	0.045
-565.588	-129.094	-0.141	-0.020
-564.573	-200.000	0.019	-0.099
-563.558	-82.038	-0.294	-0.097
-562.544	-200.000	0.002	-0.272
-561.529	-91.685	0.248	-0.071
-560.515	-200.000	0.005	-0.052
-559.500	315.544	0.097	0.185
-558.485	184.685	-0.042	-0.064
-557.471	800.000	-0.040	0.127
-556.456	-3.271	-0.219	0.154
-555.442	-131.632	-0.063	-0.008
-554.427	-79.728	-0.150	0.051
-553.412	-200.000	0.017	-0.369
-552.398	33.711	-0.189	-0.166
-551.383	30.932	-0.131	-0.114
-550.369	115.013	-0.125	-0.154
-549.354	-200.000	0.010	-0.426
-548.339	45.625	-0.189	-0.177
-547.325	-187.881	0.099	0.001
-546.310	-40.273	0.126	0.066
-545.296	2.419	0.160	-0.117
-544.281	154.752	-0.145	-0.201
-543.266	396.099	0.082	0.173
-542.252	-200.000	0.022	0.336
-541.237	115.899	-0.069	-0.085
-540.223	69.521	-0.108	-0.112
-539.208	209.876	0.211	0.335
-538.193	475.256	0.042	-0.095
-537.179	-21.441	-0.167	-0.103
-536.164	13.601	0.305	-0.239
-535.150	220.538	-0.045	-0.072
-534.135	51.088	-0.062	-0.060
-533.121	397.282	0.066	-0.140
-532.106	-127.850	-0.101	0.015
-531.091	-200.000	0.020	0.153
-530.077	440.833	0.063	0.139
-529.062	-200.000	0.051	0.257
-528.048	157.491	0.146	-0.204
-527.033	800.000	-0.023	-0.074
-526.018	15.047	-0.220	-0.174
-525.004	-200.000	-0.004	-0.115
-523.989	-26.428	-0.139	-0.082
-522.975	60.468	-0.246	-0.246
-521.960	-200.000	-0.006	-0.269
-520.945	336.153	-0.118	-0.231
-519.931	554.325	0.142	-0.345
-518.916	800.000	-0.034	-0.105
-517.902	21.554	-0.207	-0.170
-516.887	-3.286	0.180	-0.126
-515.872	-200.000	0.001	0.165
-514.858	248.733	0.054	0.092
-513.843	389.746	0.105	0.220
-512.829	42.467	0.078	-0.072
-511.814	-200.000	0.035	-0.227
-510.799	-49.502	0.038	-0.018
-509.785	-64.836	-0.031	0.013
-508.770	525.756	0.198	0.471
-507.756	10.793	-0.061	0.047
-506.741	769.686	-0.058	-0.160
-505.726	-117.070	0.215	0.040
-504.712	-55.060	0.373	-0.170
-503.697	635.429	0.073	0.188
-502.683	800.000	-0.013	0.055
-501.668	76.959	-0.124	0.133
-500.653	-88.679	0.090	0.027
-499.639	-143.297	0.402	-0.039
-498.624	800.000	0.050	0.165
-497.610	-156.980	0.219	-0.013
-496.595	208.954	0.104	0.165
-495.581	281.057	0.111	0.201
-494.566	-42.491	-0.183	-0.094
-493.551	800.000	-0.042	0.154
-492.537	44.703	-0.077	-0.071
-491.522	-96.745	-0.275	0.073
-490.508	-146.697	-0.294	-0.026
-489.493	-111.799	-0.202	0.041
-488.478	-200.000	-0.017	0.435
-487.464	-105.799	0.105	0.024
-486.449	-25.364	0.337	-0.201
-485.435	800.000	-0.064	0.271
-484.420	-200.000	-0.053	0.274
-483.405	458.843	0.110	0.246
-482.391	-56.002	0.428	0.192
-481.376	16.380	0.181	-0.144
-480.362	-27.376	-0.185	-0.109
-479.347	70.206	-0.092	-0.096
-478.332	20.112	0.164	0.133
-477.318	11.022	-0.148	-0.114
-476.303	-108.889	0.071	-0.015
-475.289	-200.000	0.004	-0.105
-474.274	-45.157	0.599	0.300
-473.259	2.258	0.322	-0.235
-472.245	29.093	0.041	-0.035
-471.230	800.000	0.046	0.189
-470.216	-133.300	0.265	-0.034
-469.201	800.000	-0.093	0.384
-468.186	800.000	0.032	-0.102
-467.172	28.938	0.117	0.100
-466.157	-72.882	-0.270	-0.100
-465.143	326.750	-0.111	-0.214
-464.128	-47.296	0.028	0.014
-463.113	-17.573	-0.331	0.210
-462.099	-106.429	-0.106	0.024
-461.084	-57.027	-0.187	-0.083
-460.070	88.789	-0.115	0.129
-459.055	-26.449	-0.050	-0.030
-458.040	-97.116	0.198	0.052
-457.026	-102.941	-0.307	-0.073
-456.011	151.168	0.068	0.093
-454.997	-200.000	-0.037	0.191
-453.982	-8.825	0.159	-0.108
-452.968	-188.264	-0.208	-0.003
-451.953	-138.359	0.075	0.008
-450.938	-87.058	0.216	0.066
-449.924	-74.458	-0.248	-0.090
-448.909	-20.639	-0.140	-0.087
-447.895	800.000	0.061	0.261
-446.880	-142.314	-0.150	0.015
-445.865	800.000	-0.113	0.324
-444.851	443.333	0.071	-0.157
-443.836	-200.000	-0.004	-0.052
-442.822	53.394	0.155	-0.150
-441.807	292.010	-0.111	0.203
-440.792	528.265	0.045	-0.106
-439.778	-104.106	0.133	-0.031
-438.763	-16.466	-0.083	-0.053
-437.749	-86.359	0.269	-0.083
-436.734	137.683	0.150	-0.197
-435.719	157.715	-0.114	0.158
-434.705	-48.640	-0.278	-0.135
-433.690	89.554	-0.142	-0.160
-432.676	-103.086	0.323	0.077
-431.661	39.253	0.103	0.093
-430.646	351.262	-0.098	0.196
-429.632	131.272	-0.155	0.200
-428.617	-200.000	-0.062	0.471
-427.603	159.518	-0.151	-0.212
-426.588	538.377	0.081	-0.194
-425.573	-61.946	-0.184	-0.078
-424.559	3.310	-0.202	0.148
-423.544	427.501	0.114	0.248
-422.530	-125.539	-0.112	0.017
-421.515	-200.000	-0.002	-0.289
-420.500	-31.502	0.111	-0.062
-419.486	-121.448	-0.282	0.047
-418.471	110.634	-0.078	-0.095
-417.457	8.983	-0.207	-0.157
-416.442	699.205	0.028	-0.075
-415.428	-102.410	0.126	0.030
-414.413	-89.446	0.115	0.034
-413.398	-37.055	-0.235	-0.126
-412.384	19.149	0.239	-0.193
-411.369	2.563	-0.110	-0.080
-410.355	195.230	0.157	0.239
-409.340	338.390	-0.115	0.225
-408.325	126.744	-0.154	-0.196
-407.311	-43.033	0.376	0.192
-406.296	-45.406	0.334	0.167
-405.282	800.000	0.143	-0.484
-404.267	-3.770	-0.276	0.193
-403.252	-146.247	0.474	0.042
-402.238	339.856	0.110	0.216
-401.223	94.284	-0.162	0.185
-400.209	0.339	0.092	0.066
-399.194	313.633	-0.121	0.229
-398.179	769.711	0.140	-0.382
-397.165	78.484	0.135	-0.145
-396.150	-200.000	-0.007	0.262
-395.136	-200.000	-0.017	0.171
-394.121	22.609	0.077	-0.063
-393.106	27.448	0.126	0.106
-392.092	59.296	0.284	0.281
-391.077	-5.985	-0.215	-0.147
-390.063	-200.000	-0.012	0.195
-389.048	800.000	0.075	-0.255
-388.033	-200.000	0.041	-0.497
-387.019	10.608	-0.214	-0.164
-386.004	80.946	0.146	-0.158
-384.990	-200.000	0.013	0.237
-383.975	440.007	-0.128	-0.280
-382.960	136.358	0.079	0.103
-381.946	-200.000	-0.003	-0.119
-380.931	8.646	0.018	-0.013
-379.917	-18.100	0.213	-0.134
-378.902	-68.199	0.168	-0.066
-377.888	-200.000	-0.007	-0.041
-376.873	307.946	-0.054	-0.101
-375.858	-200.000	0.028	0.147
-374.844	-135.466	0.297	-0.036
-373.829	-200.000	-0.016	-0.146
-372.815	50.060	0.234	-0.222
-371.800	800.000	0.049	0.145
-370.785	800.000	0.100	-0.369
-369.771	-128.627	-0.171	0.024
-368.756	161.548	0.121	0.170
-367.742	-200.000	0.031	0.204
-366.727	61.720	-0.260	-0.259
-365.712	144.026	0.074	-0.099
-364.698	367.300	0.002	0.003
-363.683	-26.147	0.211	-0.125
-362.669	-3.306	-0.267	-0.186
-361.654	7.434	0.059	-0.044
-360.639	241.719	-0.130	0.218
-359.625	598.677	0.070	0.174
-358.610	164.536	0.041	0.058
-357.596	-99.584	-0.114	0.029
-356.581	-200.000	-0.036	-0.263
-355.566	-110.449	-0.264	-0.055
-354.552	62.797	-0.151	-0.151
-353.537	519.533	-0.059	0.140
-352.523	800.000	-0.020	-0.061
-351.508	-68.997	0.201	-0.078
-350.493	-171.570	-0.057	0.002
-349.479	12.083	0.221	0.171
-348.464	-107.891	0.192	0.042
-347.450	800.000	0.029	0.105
-346.435	-37.644	0.098	0.053
-345.420	800.000	0.042	-0.119
-344.406	-200.000	-0.000	-0.151
-343.391	-99.061	-0.212	-0.054
-342.377	370.413	0.057	0.116
-341.362	95.542	0.208	-0.238
-340.348	132.061	0.043	0.055
-339.333	-200.000	-0.029	0.168
-338.318	230.396	0.214	-0.351
-337.304	-103.359	0.146	-0.035
-336.289	40.421	0.318	0.287
-335.275	-59.582	0.258	0.111
-334.260	-200.000	-0.062	0.307
-333.245	800.000	-0.062	0.177
-332.231	-91.238	-0.242	-0.069
-331.216	103.436	-0.092	-0.109
-330.202	-144.883	-0.123	-0.011
-329.187	-125.085	0.138	0.021
-328.172	8.114	-0.199	-0.150
-327.158	26.440	0.146	-0.122
-326.143	-200.000	0.017	0.264
-325.129	-200.000	0.020	0.150
-324.114	745.783	0.173	0.467
-323.099	-98.295	-0.133	0.034
-322.085	800.000	-0.016	-0.052
-321.070	800.000	-0.005	-0.014
-320.056	32.964	-0.098	-0.085
-319.041	-200.000	-0.026	-0.196
-318.026	62.950	-0.173	0.174
-317.012	-200.000	-0.088	0.443
-315.997	-144.620	0.180	0.017
-314.983	36.182	0.128	-0.113
-313.968	190.886	-0.163	0.246
-312.953	-145.883	-0.370	-0.033
-311.939	-200.000	0.065	-0.292
-310.924	-83.857	-0.179	0.057
-309.910	36.955	0.136	0.120
-308.895	-38.366	-0.044	0.023
-307.880	-200.000	0.009	0.236
-306.866	-33.166	0.130	-0.072
-305.851	800.000	-0.063	0.177
-304.837	-124.176	-0.145	-0.023
-303.822	-200.000	0.015	-0.086
-302.807	-95.918	0.416	0.111
-301.793	-3.962	0.248	-0.172
-300.778	89.613	0.128	0.143
-299.764	11.643	0.298	-0.229
-298.749	-200.000	-0.021	0.161
-297.735	-34.230	-0.277	-0.152
-296.720	42.668	0.171	0.156
-295.705	-172.676	0.166	-0.005
-294.691	-200.000	-0.032	0.168
-293.676	-74.230	0.183	-0.066
-292.662	-200.000	-0.011	-0.332
-291.647	-115.773	0.036	0.007
-290.632	-200.000	0.022	0.135
-289.618	-23.417	0.287	-0.173
-288.603	-137.168	0.287	0.033
-287.589	800.000	0.036	0.120
-286.574	800.000	-0.042	0.120
-285.559	-200.000	0.012	0.371
-284.545	666.368	-0.023	-0.060
-283.530	113.856	0.047	-0.058
-282.516	-108.194	-0.038	-0.008
-281.501	335.823	-0.088	0.172
-280.486	461.466	0.073	-0.164
-279.472	-102.113	-0.198	-0.048
-278.457	65.968	0.079	0.080
-277.443	-69.714	-0.412	0.157
-276.428	-103.123	-0.340	-0.080
-275.413	-155.300	-0.260	0.017
-274.399	-59.313	0.042	0.018
-273.384	40.827	-0.130	0.117
-272.370	-62.238	0.446	-0.186
-271.355	186.206	0.078	-0.116
-270.340	-172.281	-0.469	0.015
-269.326	-200.000	0.010	-0.255
-268.311	800.000	-0.038	0.109
-267.297	800.000	-0.009	-0.033
-266.282	3.112	0.220	-0.160
-265.267	-60.482	-0.274	-0.117
-264.253	-64.163	0.392	-0.160
-263.238	-200.000	-0.022	-0.128
-262.224	173.575	-0.103	0.148
-261.209	-200.000	-0.025	0.147
-260.195	-34.700	0.083	-0.046
-259.180	99.824	-0.144	-0.166
-258.165	-200.000	0.027	0.133
-257.151	-85.881	-0.197	-0.061
-256.136	800.000	0.061	0.201
-255.122	46.289	-0.172	-0.159
-254.107	-66.425	0.224	-0.089
-253.092	-82.751	-0.277	-0.090
-252.078	253.394	0.191	0.325
-251.063	800.000	0.094	0.300
-250.049	-73.697	-0.347	0.126
-249.034	-200.000	0.018	-0.279
-248.019	-154.109	-0.013	-0.001
-247.005	-37.928	0.059	0.031
-245.990	-159.432	-0.146	-0.008
-244.976	278.591	-0.199	-0.354
-243.961	-92.655	-0.159	0.044
-242.946	50.903	-0.297	-0.281
-241.932	224.325	0.064	0.103
-240.917	177.623	-0.150	0.219
-239.903	-38.051	0.269	-0.143
-238.888	-71.760	0.174	-0.065
-237.873	-7.031	0.046	0.031
-236.859	-200.000	0.028	0.186
-235.844	-200.000	0.042	0.209
-234.830	-113.249	0.590	0.116
-233.815	-200.000	0.184	0.000
-232.800	-153.142	0.148	0.010
-231.786	-200.000	0.010	0.049
-230.771	-98.656	-0.162	-0.041
-229.757	668.132	-0.101	0.260
-228.742	-200.000	0.016	0.492
-227.727	492.968	0.014	0.033
-226.713	706.077	-0.085	0.225
-225.698	-53.565	-0.204	-0.093
-224.684	36.714	0.191	-0.168
-223.669	-124.593	-0.300	0.046
-222.655	-129.457	0.253	-0.035
-221.640	-99.646	-0.090	-0.023
-220.625	-200.000	0.059	-0.274
-219.611	-123.847	-0.053	0.008
-218.596	-200.000	-0.036	-0.207
-217.582	-168.464	0.191	0.007
-216.567	520.050	-0.139	0.325
-215.552	264.627	-0.113	0.196
-214.538	800.000	-0.050	0.187
-213.523	348.429	-0.145	-0.286
-212.509	-114.120	0.144	0.028
-211.494	19.804	0.180	-0.145
-210.479	-200.000	-0.038	0.203
-209.465	-24.482	0.147	-0.087
-208.450	-112.140	0.249	0.050
-207.436	-200.000	0.033	0.313
-206.421	-83.440	-0.291	0.093
-205.406	-130.205	-0.049	0.007
-204.392	-200.000	-0.030	0.227
-203.377	31.220	0.108	0.093
-202.363	20.748	0.183	-0.148
-201.348	-200.000	-0.011	0.314
-200.333	-48.911	-0.212	-0.101
-199.319	246.554	-0.159	-0.268
-198.304	-16.842	-0.255	-0.161
-197.290	284.250	0.080	0.143
-196.275	-200.000	0.023	-0.117
-195.260	-100.998	-0.233	-0.057
-194.246	-154.419	-0.416	-0.028
-193.231	-157.537	0.115	0.007
-192.217	-72.494	0.084	0.031
-191.202	-25.252	-0.112	0.066
-190.187	80.480	0.091	-0.098
-189.173	-121.057	0.501	-0.084
-188.158	688.616	0.122	0.319
-187.144	9.387	-0.234	0.177
-186.129	800.000	-0.043	0.174
-185.114	-200.000	0.004	0.088
-184.100	-200.000	0.026	0.301
-183.085	800.000	-0.076	-0.274
-182.071	-68.074	-0.067	-0.026
-181.056	-200.000	0.010	-0.382
-180.042	432.236	0.035	-0.075
-179.027	-118.128	-0.177	0.031
-178.012	800.000	-0.046	0.176
-176.998	-37.569	-0.127	-0.068
-175.983	-200.000	-0.044	0.270
-174.969	88.265	0.096	0.107
-173.954	-200.000	0.068	-0.343
-172.939	-65.273	-0.224	0.090
-171.925	271.446	0.100	-0.175
-170.910	800.000	-0.030	0.114
-169.896	1.195	0.104	0.075
-168.881	-52.770	0.047	-0.022
-167.866	-200.000	0.018	-0.114
-166.852	-111.559	-0.242	0.049
-165.837	-200.000	-0.014	0.090
-164.823	-21.562	0.103	0.063
-163.808	-49.820	0.134	-0.063
-162.793	-200.000	0.006	-0.050
-161.779	-48.770	0.259	0.124
-160.764	-29.249	-0.017	-0.010
-159.750	323.080	0.127	0.241
-158.735	-92.528	0.155	-0.043
-157.720	-200.000	0.012	-0.058
-156.706	-59.328	-0.174	0.075
-155.691	800.000	-0.047	0.196
-154.677	-117.642	0.416	0.075
-153.662	139.185	0.029	-0.038
-152.647	82.937	0.094	-0.102
-151.633	-161.597	-0.294	-0.015
-150.618	-133.362	-0.325	0.041
-149.604	-200.000	0.026	-0.124
-148.589	800.000	-0.041	0.171
-147.574	34.726	0.070	0.061
-146.560	-200.000	-0.016	0.094
-145.545	108.294	-0.301	0.357
-144.531	-200.000	0.010	0.149
-143.516	70.416	-0.116	0.119
-142.502	410.011	-0.088	0.186
-141.487	-36.797	-0.266	-0.142
-140.472	-142.265	-0.424	0.042
-139.458	-184.080	0.064	-0.001
-138.443	-39.510	-0.195	-0.101
-137.429	29.901	0.139	-0.118
-136.414	-200.000	-0.007	0.176
-135.399	-168.969	-0.200	-0.007
-134.385	800.000	-0.087	-0.294
-133.370	-200.000	-0.070	-0.411
-132.356	-15.982	-0.106	0.067
-131.341	-149.357	0.157	0.012
-130.326	-119.620	-0.217	-0.037
-129.312	41.890	-0.186	0.167
-128.297	-200.000	-0.090	-0.619
-127.283	589.229	0.154	0.378
-126.268	368.751	0.085	0.171
-125.253	59.586	-0.037	0.036
-124.239	22.285	0.148	-0.120
-123.224	-125.743	0.146	0.022
