DTS Sentinel unit serial number:	SN413079Multiplexer serial number:	ORYXHardware model number:	OX4-SRSoftware version number:	ORYX F/W v4.00 Oryx Data Collector v3.7.2.0data status	okinstallation	princeton_trtdifferential loss correction	single-endedforward channel	channel 4reverse channel	N/Adate	2019/09/16time	00:33:34forward acquisition time	60.00reverse acquisition time	0.00gamma	496.2192k internal	0.2323k external	0.2323temperature offset calibration	0.9965default loss term (dB/km)	0.3790temperature slope calibration	1.0000multiplexer offset coefficient	1.0000multiplexer slope coefficient	1.0000fibre end	0.00T internal ref (°C)	27.52T ext. ref 1 (°C)	9.59T ext. ref 2 (°C)	21.62length (m)	temperature (°C)	Stokes	anti-Stokes-747.200	41.520	0.202	-0.185
-746.185	28.294	-0.407	0.347
-745.171	-29.216	-0.129	0.075
-744.156	530.023	0.054	0.130
-743.142	161.595	0.111	-0.157
-742.127	-128.417	-0.118	-0.017
-741.112	18.155	0.136	0.110
-740.098	9.955	-0.335	0.257
-739.083	17.257	0.245	0.196
-738.069	-97.122	0.399	-0.105
-737.054	-73.320	0.304	0.112
-736.039	-129.797	-0.219	0.030
-735.025	73.295	0.330	-0.349
-734.010	-43.696	-0.140	-0.071
-732.996	152.061	-0.037	0.051
-731.981	-20.913	-0.238	-0.147
-730.966	18.064	-0.266	0.214
-729.952	16.943	-0.158	-0.126
-728.937	-95.291	0.037	-0.010
-727.923	-179.404	-0.434	-0.010
-726.908	-12.165	0.055	-0.036
-725.894	387.036	0.158	-0.329
-724.879	409.957	0.139	-0.296
-723.864	49.218	-0.111	0.105
-722.850	-200.000	0.004	-0.158
-721.835	-45.787	-0.020	-0.010
-720.821	800.000	0.046	0.140
-719.806	-81.203	-0.322	-0.107
-718.791	-200.000	-0.026	-0.144
-717.777	-200.000	0.014	0.185
-716.762	9.744	0.111	0.085
-715.748	70.916	0.136	-0.143
-714.733	-56.567	-0.136	0.061
-713.718	-79.753	0.135	-0.046
-712.704	60.138	-0.196	-0.196
-711.689	153.256	-0.273	-0.377
-710.675	-152.612	-0.182	0.013
-709.660	-8.807	0.236	0.159
-708.645	-139.287	-0.327	0.035
-707.631	-141.400	0.260	0.027
-706.616	-200.000	0.066	0.298
-705.602	276.844	0.032	-0.058
-704.587	-200.000	0.042	0.303
-703.572	200.166	-0.135	-0.209
-702.558	77.592	0.057	-0.061
-701.543	-162.856	-0.398	-0.020
-700.529	-74.551	-0.104	-0.038
-699.514	97.787	-0.118	-0.137
-698.499	75.645	-0.089	0.094
-697.485	59.854	0.052	0.052
-696.470	467.980	0.108	-0.243
-695.456	-55.163	0.182	0.083
-694.441	197.319	0.178	-0.273
-693.426	-74.048	-0.067	-0.025
-692.412	800.000	-0.139	0.401
-691.397	-200.000	-0.052	0.259
-690.383	-1.499	0.142	0.101
-689.368	109.252	-0.011	0.013
-688.354	-200.000	-0.013	-0.216
-687.339	-167.427	-0.495	-0.020
-686.324	5.842	-0.369	0.275
-685.310	-98.254	-0.194	0.050
-684.295	-87.902	-0.304	-0.092
-683.281	-20.956	-0.157	0.097
-682.266	800.000	-0.049	0.176
-681.251	-200.000	-0.021	-0.101
-680.237	-147.975	-0.246	-0.021
-679.222	-135.354	0.159	0.019
-678.208	-104.327	-0.250	-0.058
-677.193	-115.375	-0.437	-0.083
-676.178	-200.000	0.045	0.199
-675.164	332.951	0.114	0.221
-674.149	-109.960	-0.167	0.035
-673.135	-53.387	-0.270	-0.125
-672.120	-200.000	0.018	0.690
-671.105	800.000	-0.100	0.287
-670.091	-124.507	0.272	0.043
-669.076	73.033	-0.239	0.252
-668.062	-89.397	-0.120	0.036
-667.047	-65.944	-0.255	0.102
-666.032	108.427	0.151	0.181
-665.018	-58.813	0.150	-0.066
-664.003	-99.597	0.086	-0.022
-662.989	61.080	0.175	-0.174
-661.974	-84.939	0.131	-0.041
-660.959	-128.707	-0.347	0.049
-659.945	532.372	-0.053	0.127
-658.930	-27.670	0.049	0.028
-657.916	-200.000	0.005	0.116
-656.901	800.000	-0.040	-0.159
-655.886	800.000	0.083	-0.335
-654.872	-128.570	-0.351	0.050
-653.857	-200.000	-0.067	-0.523
-652.843	-200.000	0.009	0.054
-651.828	59.048	0.131	-0.130
-650.814	374.003	-0.034	0.070
-649.799	265.115	0.182	0.319
-648.784	54.882	-0.085	0.083
-647.770	-8.058	0.087	0.059
-646.755	-62.986	0.244	0.101
-645.741	-52.005	0.153	-0.071
-644.726	17.350	0.198	-0.158
-643.711	-80.759	0.254	-0.085
-642.697	8.403	-0.232	0.175
-641.682	311.541	0.151	-0.284
-640.668	-105.554	0.105	-0.024
-639.653	68.823	-0.234	0.242
-638.638	23.418	0.047	0.039
-637.624	284.880	0.084	-0.153
-636.609	125.229	-0.349	-0.443
-635.595	-103.677	0.079	-0.019
-634.580	-18.019	-0.266	-0.168
-633.565	-52.050	-0.151	0.070
-632.551	-15.660	0.178	-0.114
-631.536	-74.007	0.419	-0.153
-630.522	800.000	-0.010	0.030
-629.507	282.589	0.058	-0.104
-628.492	45.234	-0.253	0.235
-627.478	93.904	0.362	0.413
-626.463	109.012	0.008	-0.009
-625.449	167.997	-0.139	0.199
-624.434	223.436	-0.083	-0.135
-623.419	-171.924	0.399	0.013
-622.405	242.196	0.023	0.039
-621.390	259.352	0.164	-0.285
-620.376	82.463	-0.292	0.319
-619.361	-22.223	0.109	0.067
-618.346	47.876	-0.182	-0.171
-617.332	26.083	0.171	0.144
-616.317	-4.652	-0.059	0.041
-615.303	-200.000	-0.004	0.039
-614.288	151.478	0.120	0.165
-613.273	-46.806	-0.281	-0.138
-612.259	362.004	0.065	0.130
-611.244	149.491	-0.194	0.264
-610.230	-200.000	0.009	0.053
-609.215	-83.511	0.211	-0.068
-608.201	-56.572	0.093	0.041
-607.186	-114.065	-0.164	-0.032
-606.171	62.253	-0.095	-0.095
-605.157	-85.206	-0.086	0.027
-604.142	-200.000	0.029	-0.144
-603.128	-200.000	0.001	0.070
-602.113	153.174	-0.017	0.024
-601.098	800.000	-0.094	-0.349
-600.084	-49.385	0.094	-0.045
-599.069	255.401	-0.089	-0.153
-598.055	43.413	0.212	-0.194
-597.040	-200.000	0.028	-0.276
-596.025	800.000	-0.136	-0.390
-595.011	-28.845	-0.066	-0.038
-593.996	-100.693	-0.179	0.044
-592.982	-86.974	-0.058	-0.018
-591.967	-200.000	0.028	-0.192
-590.952	45.883	0.132	0.122
-589.938	56.554	0.086	-0.084
-588.923	289.583	-0.089	-0.162
-587.909	-104.831	0.147	-0.034
-586.894	509.372	-0.025	0.059
-585.879	-13.296	-0.156	0.102
-584.865	33.733	0.071	-0.062
-583.850	-10.950	-0.271	-0.180
-582.836	-200.000	0.058	-0.285
-581.821	-200.000	0.006	0.121
-580.806	-52.034	-0.140	0.065
-579.792	-200.000	-0.016	-0.299
-578.777	-104.986	-0.204	-0.047
-577.763	-25.665	-0.295	0.175
-576.748	-10.468	0.074	-0.049
-575.733	219.889	0.156	-0.251
-574.719	800.000	-0.092	-0.284
-573.704	-200.000	0.025	0.167
-572.690	-10.189	0.221	-0.147
-571.675	88.189	-0.065	0.072
-570.661	-74.984	0.334	-0.120
-569.646	334.642	-0.181	-0.351
-568.631	-144.881	-0.026	0.002
-567.617	-7.602	0.238	-0.161
-566.602	255.467	0.107	-0.184
-565.588	-13.006	0.284	-0.185
-564.573	392.442	-0.089	-0.185
-563.558	-200.000	0.000	0.031
-562.544	800.000	-0.028	0.092
-561.529	49.383	0.017	0.016
-560.515	-197.221	-0.167	0.001
-559.500	416.630	-0.065	-0.139
-558.485	-200.000	-0.016	-0.455
-557.471	541.822	-0.165	0.394
-556.456	-51.942	0.258	-0.120
-555.442	-79.192	-0.171	0.058
-554.427	-47.194	-0.201	-0.098
-553.412	423.378	-0.037	-0.079
-552.398	85.864	0.082	0.090
-551.383	462.713	-0.114	-0.256
-550.369	-9.219	-0.126	0.085
-549.354	-19.814	-0.203	0.126
-548.339	55.745	0.139	-0.135
-547.325	-39.307	-0.221	0.116
-546.310	-17.701	-0.107	0.067
-545.296	133.333	-0.056	-0.072
-544.281	117.550	-0.107	-0.131
-543.266	38.918	0.150	0.134
-542.252	150.568	-0.247	0.336
-541.237	-39.332	-0.332	-0.175
-540.223	-131.272	-0.089	0.012
-539.208	75.038	-0.151	-0.159
-538.193	203.894	-0.058	0.090
-537.179	200.775	0.050	-0.077
-536.164	-200.000	-0.011	-0.088
-535.150	103.807	0.124	-0.146
-534.135	-163.555	0.134	-0.006
-533.121	-200.000	-0.038	0.201
-532.106	800.000	-0.057	-0.239
-531.091	49.577	-0.103	0.097
-530.077	-153.295	-0.191	-0.013
-529.062	-117.683	0.321	-0.058
-528.048	0.880	-0.262	0.188
-527.033	-99.040	0.355	-0.090
-526.018	500.378	0.072	-0.166
-525.004	148.386	0.239	0.324
-523.989	-152.632	-0.305	-0.022
-522.975	144.787	-0.183	-0.245
-521.960	-58.002	0.125	-0.055
-520.945	-137.387	-0.182	-0.021
-519.931	75.373	-0.314	-0.332
-518.916	229.299	0.303	-0.494
-517.902	-123.640	0.229	0.036
-516.887	800.000	-0.029	0.127
-515.872	481.963	-0.053	-0.121
-514.858	13.444	0.125	0.097
-513.843	-51.873	0.284	0.132
-512.829	286.287	-0.052	0.094
-511.814	-136.839	0.475	-0.055
-510.799	-188.448	0.142	0.002
-509.785	-57.832	-0.176	0.077
-508.770	-146.077	-0.279	0.025
-507.756	-150.290	0.316	-0.024
-506.741	37.749	-0.043	0.038
-505.726	3.343	0.170	0.124
-504.712	50.973	-0.119	-0.113
-503.697	181.598	0.062	0.092
-502.683	74.042	-0.144	-0.152
-501.668	-200.000	-0.012	0.354
-500.653	-11.668	0.135	-0.089
-499.639	253.453	0.080	0.137
-498.624	542.892	-0.111	0.266
-497.610	54.681	0.119	0.115
-496.595	800.000	0.122	0.411
-495.581	-200.000	0.025	-0.221
-494.566	227.620	-0.094	-0.154
-493.551	-25.750	-0.167	-0.099
-492.537	4.081	0.301	-0.220
-491.522	-105.331	-0.250	-0.057
-490.508	-200.000	-0.030	-0.209
-489.493	557.030	-0.138	0.333
-488.478	800.000	-0.018	0.060
-487.464	1.646	-0.146	-0.105
-486.449	185.799	-0.149	-0.221
-485.435	-69.270	-0.433	-0.166
-484.420	-158.602	-0.397	-0.023
-483.405	-200.000	0.025	0.183
-482.391	-75.850	0.167	-0.059
-481.376	-163.374	-0.190	0.009
-480.362	-200.000	-0.015	0.382
-479.347	545.301	0.057	-0.137
-478.332	87.091	-0.089	-0.098
-477.318	147.769	-0.174	-0.234
-476.303	254.903	0.113	-0.194
-475.289	-200.000	0.034	-0.157
-474.274	-8.013	0.178	0.120
-473.259	-43.062	-0.089	0.045
-472.245	-89.066	0.083	0.025
-471.230	76.822	0.325	0.344
-470.216	800.000	0.127	0.373
-469.201	163.948	0.108	0.152
-468.186	599.469	-0.057	0.142
-467.172	-82.092	-0.292	-0.095
-466.157	-11.357	-0.186	-0.123
-465.143	-160.986	-0.266	0.014
-464.128	-200.000	-0.042	-0.234
-463.113	-86.061	-0.163	0.050
-462.099	-155.846	-0.300	0.019
-461.084	161.343	-0.215	-0.300
-460.070	533.832	-0.090	0.213
-459.055	-200.000	0.029	-0.237
-458.040	-87.766	0.073	0.022
-457.026	359.063	-0.078	-0.155
-456.011	394.390	0.097	-0.202
-454.997	-200.000	0.008	-0.115
-453.982	44.567	0.179	-0.165
-452.968	28.097	0.090	-0.076
-451.953	532.306	-0.158	-0.373
-450.938	-28.977	-0.363	-0.208
-449.924	-112.182	-0.086	0.017
-448.909	210.287	-0.006	0.009
-447.895	-84.201	-0.054	-0.017
-446.880	550.457	-0.060	0.144
-445.865	800.000	0.048	-0.147
-444.851	16.100	-0.193	0.152
-443.836	-100.602	-0.239	-0.059
-442.822	-123.510	0.269	0.043
-441.807	-200.000	-0.000	-0.128
-440.792	800.000	0.142	-0.465
-439.778	-200.000	0.072	-0.367
-438.763	-147.735	-0.197	0.016
-437.749	-135.042	-0.136	-0.016
-436.734	-57.022	0.317	0.140
-435.719	66.941	-0.178	-0.181
-434.705	-104.617	-0.264	0.061
-433.690	-200.000	-0.024	-0.193
-432.676	-200.000	0.021	-0.131
-431.661	-116.477	-0.291	0.054
-430.646	181.227	-0.079	-0.116
-429.632	-200.000	-0.000	-0.141
-428.617	-125.906	0.122	0.018
-427.603	309.573	-0.115	0.215
-426.588	-117.545	-0.045	0.008
-425.573	-90.140	0.234	0.068
-424.559	-200.000	0.029	-0.143
-423.544	716.907	-0.037	0.098
-422.530	-24.341	0.202	0.120
-421.515	217.400	-0.083	0.132
-420.500	111.324	-0.008	-0.010
-419.486	-142.987	0.243	-0.023
-418.471	150.951	-0.023	-0.032
-417.457	39.541	0.073	-0.066
-416.442	141.432	-0.127	-0.167
-415.428	88.976	0.064	0.071
-414.413	-145.396	0.249	-0.022
-413.398	255.979	0.108	-0.185
-412.384	10.760	-0.040	0.030
-411.369	30.306	-0.178	-0.152
-410.355	-200.000	-0.020	0.158
-409.340	313.961	0.175	0.327
-408.325	318.643	0.186	-0.352
-407.311	800.000	-0.043	-0.163
-406.296	179.154	-0.135	-0.197
-405.282	-200.000	-0.019	-0.138
-404.267	-135.863	-0.313	0.037
-403.252	168.221	0.180	0.256
-402.238	-104.224	-0.250	-0.058
-401.223	93.559	-0.066	0.075
-400.209	117.705	0.190	-0.234
-399.194	-81.148	0.108	0.035
-398.179	-22.082	0.313	0.189
-397.165	-200.000	-0.003	-0.301
-396.150	-200.000	0.000	-0.193
-395.136	157.533	0.203	0.280
-394.121	-58.264	-0.160	0.069
-393.106	-200.000	-0.086	-0.449
-392.092	585.461	0.036	0.087
-391.077	-200.000	0.034	0.262
-390.063	175.874	0.128	-0.185
-389.048	-200.000	0.034	-0.375
-388.033	-200.000	0.022	-0.334
-387.019	-91.984	0.284	-0.080
-386.004	-200.000	-0.014	0.255
-384.990	-41.816	0.154	-0.079
-383.975	91.079	-0.228	-0.255
-382.960	52.543	0.104	0.099
-381.946	-23.730	0.080	0.047
-380.931	710.352	0.045	0.119
-379.917	25.890	0.069	-0.057
-378.902	-200.000	-0.031	-0.183
-377.888	800.000	-0.064	0.234
-376.873	-97.314	-0.385	0.100
-375.858	-200.000	-0.027	0.392
-374.844	-103.519	-0.156	0.037
-373.829	-111.615	0.317	0.064
-372.815	295.967	-0.056	0.103
-371.800	-152.524	-0.377	0.027
-370.785	383.319	0.108	0.220
-369.771	-82.604	0.307	0.099
-368.756	322.733	-0.104	-0.197
-367.742	-200.000	-0.020	-0.215
-366.727	-200.000	0.015	0.173
-365.712	-138.262	-0.285	-0.031
-364.698	-51.663	0.343	-0.159
-363.683	-71.386	-0.249	0.093
-362.669	800.000	-0.035	-0.130
-361.654	273.263	0.089	0.157
-360.639	15.423	0.205	0.160
-359.625	-57.424	-0.102	-0.045
-358.610	60.522	-0.024	-0.024
-357.596	-70.135	0.238	-0.090
-356.581	609.162	0.132	0.329
-355.566	-142.109	0.330	-0.033
-354.552	-93.568	0.456	0.125
-353.537	-10.973	-0.120	-0.079
-352.523	-105.635	0.417	0.094
-351.508	189.829	0.022	0.034
-350.493	-37.267	-0.207	0.110
-349.479	524.465	-0.022	-0.051
-348.464	-97.659	-0.089	-0.023
-347.450	216.568	0.037	-0.059
-346.435	96.855	0.179	-0.204
-345.420	160.436	-0.058	-0.080
-344.406	39.357	-0.255	0.227
-343.391	325.042	-0.089	-0.170
-342.377	-8.447	-0.242	0.162
-341.362	-200.000	-0.035	0.258
-340.348	93.298	0.064	0.071
-339.333	89.135	0.137	-0.152
-338.318	288.989	-0.092	-0.165
-337.304	-200.000	-0.003	0.222
-336.289	748.103	-0.018	0.049
-335.275	-153.422	-0.295	0.020
-334.260	502.433	0.114	0.261
-333.245	-200.000	0.031	-0.193
-332.231	111.048	-0.080	0.096
-331.216	149.072	-0.088	-0.119
-330.202	-200.000	-0.040	0.415
-329.187	215.803	-0.104	0.163
-328.172	458.085	-0.075	0.165
-327.158	-200.000	-0.064	0.326
-326.143	-15.226	-0.272	-0.173
-325.129	94.817	-0.095	-0.107
-324.114	189.610	0.129	0.192
-323.099	-87.385	0.275	-0.083
-322.085	478.647	-0.085	-0.191
-321.070	-60.744	0.051	0.021
-320.056	-127.977	0.176	0.025
-319.041	117.811	0.094	-0.115
-318.026	800.000	0.080	-0.334
-317.012	-114.680	-0.117	-0.022
-315.997	-32.665	0.166	0.092
-314.983	292.826	-0.055	0.100
-313.968	546.766	0.142	0.337
-312.953	323.511	-0.319	0.604
-311.939	47.045	0.236	-0.218
-310.924	-200.000	-0.038	-0.218
-309.910	800.000	0.034	-0.110
-308.895	-200.000	0.069	0.322
-307.880	1.278	0.125	0.089
-306.866	55.361	0.153	-0.147
-305.851	704.527	0.077	0.201
-304.837	-70.550	0.217	-0.082
-303.822	-116.699	0.213	-0.039
-302.807	16.228	-0.098	0.077
-301.793	79.625	-0.176	0.187
-300.778	800.000	0.106	0.393
-299.764	-124.993	0.365	-0.056
-298.749	-200.000	-0.036	0.209
-297.735	232.381	0.156	0.254
-296.720	800.000	-0.044	-0.161
-295.705	-160.273	-0.315	-0.017
-294.691	-134.179	-0.055	0.007
-293.676	-82.387	-0.112	0.036
-292.662	2.396	0.132	-0.095
-291.647	-155.613	0.209	0.013
-290.632	-7.144	0.172	0.116
-289.618	-191.564	0.433	-0.004
-288.603	447.686	-0.066	0.143
-287.589	-51.440	0.083	0.038
-286.574	366.677	0.258	-0.516
-285.559	-143.364	-0.123	0.012
-284.545	-200.000	-0.050	0.256
-283.530	-132.047	0.157	-0.020
-282.516	752.729	0.026	-0.069
-281.501	800.000	-0.082	0.247
-280.486	800.000	-0.111	0.332
-279.472	94.178	-0.112	-0.126
-278.457	-200.000	-0.037	0.318
-277.443	800.000	0.144	-0.522
-276.428	-156.913	-0.144	0.009
-275.413	518.320	-0.101	-0.234
-274.399	800.000	-0.073	-0.278
-273.384	-64.786	0.332	0.133
-272.370	-131.228	-0.354	0.047
-271.355	523.158	0.147	-0.341
-270.340	-200.000	-0.006	-0.033
-269.326	-107.743	-0.429	0.093
-268.311	46.407	0.124	0.114
-267.297	122.736	-0.148	0.183
-266.282	-32.176	0.274	-0.152
-265.267	-200.000	0.048	-0.307
-264.253	-97.600	-0.064	0.016
-263.238	-142.456	0.242	-0.024
-262.224	665.429	0.044	-0.114
-261.209	111.425	0.170	0.203
-260.195	-200.000	-0.168	-0.000
-259.180	-92.396	0.208	-0.058
-258.165	-84.703	0.158	-0.049
-257.151	157.600	0.104	0.143
-256.136	621.759	0.030	0.076
-255.122	-132.688	0.131	0.017
-254.107	-73.720	-0.415	-0.150
-253.092	332.125	-0.177	-0.339
-252.078	-123.922	-0.134	0.021
-251.063	-131.024	-0.284	0.038
-250.049	22.762	-0.120	0.097
-249.034	-79.881	-0.078	0.026
-248.019	-200.000	-0.001	-0.190
-247.005	192.970	-0.238	0.357
-245.990	-171.285	0.222	-0.007
-244.976	147.035	0.109	0.145
-243.961	-200.000	0.001	-0.077
-242.946	43.214	0.214	-0.194
-241.932	800.000	0.012	0.049
-240.917	-200.000	-0.027	0.125
-239.903	95.720	-0.132	0.149
-238.888	23.053	-0.200	0.163
-237.873	71.357	0.348	0.357
-236.859	800.000	0.033	0.102
-235.844	-108.769	-0.363	-0.077
-234.830	-14.306	0.313	0.199
-233.815	-152.707	0.136	-0.010
-232.800	-55.510	0.484	0.215
-231.786	-200.000	-0.014	0.071
-230.771	-111.283	0.286	-0.058
-229.757	-200.000	0.017	0.261
-228.742	-79.505	-0.250	0.083
-227.727	220.243	0.145	0.230
-226.713	800.000	0.080	0.306
-225.698	-53.225	-0.082	-0.037
-224.684	-184.808	-0.188	0.003
-223.669	-52.239	-0.077	0.035
-222.655	-200.000	-0.025	0.214
-221.640	-132.403	0.353	0.045
-220.625	-200.000	0.037	0.303
-219.611	-115.911	-0.323	-0.060
-218.596	316.308	-0.147	-0.275
-217.582	800.000	-0.045	0.159
-216.567	443.228	0.156	-0.339
-215.552	-200.000	-0.022	-0.232
-214.538	-32.596	-0.352	0.194
-213.523	248.611	0.148	0.248
-212.509	-24.887	-0.136	0.080
-211.494	-179.497	0.207	0.004
-210.479	58.174	-0.074	0.072
-209.465	19.243	0.131	0.104
-208.450	362.269	-0.076	-0.150
-207.436	-90.453	0.230	-0.066
-206.421	309.831	0.092	-0.170
-205.406	-92.041	-0.325	0.091
-204.392	800.000	0.046	0.145
-203.377	149.223	0.083	0.111
-202.363	118.590	0.128	0.156
-201.348	-200.000	0.021	0.456
-200.333	-67.328	-0.242	0.094
-199.319	-189.832	-0.280	0.003
-198.304	454.884	0.065	0.142
-197.290	28.969	0.077	0.065
-196.275	-135.438	-0.078	0.009
-195.260	-148.820	-0.381	-0.031
-194.246	221.759	0.068	0.107
-193.231	40.444	0.068	-0.061
-192.217	14.870	-0.113	-0.087
-191.202	-200.000	0.004	-0.330
-190.187	402.740	-0.044	-0.091
-189.173	761.029	0.114	0.306
-188.158	-200.000	-0.058	-0.380
-187.144	115.298	0.057	0.069
-186.129	185.939	-0.173	0.255
-185.114	142.756	0.202	0.265
-184.100	557.165	0.022	-0.054
-183.085	-200.000	0.056	0.312
-182.071	800.000	0.044	0.124
-181.056	159.226	-0.186	0.256
-180.042	-42.765	-0.182	-0.092
-179.027	-53.338	0.156	0.071
-178.012	401.756	0.053	0.110
-176.998	-110.833	0.205	-0.042
-175.983	-40.768	0.080	-0.041
-174.969	-200.000	0.019	-0.137
-173.954	-200.000	0.006	0.380
-172.939	138.124	0.067	0.086
-171.925	-143.820	-0.162	-0.015
-170.910	-94.424	0.024	-0.006
-169.896	-200.000	0.038	0.268
-168.881	-53.089	0.149	-0.068
-167.866	800.000	-0.059	-0.247
-166.852	-144.637	0.236	-0.021
-165.837	-33.680	0.204	0.111
-164.823	-88.837	0.326	0.096
-163.808	-133.903	0.233	-0.029
-162.793	-0.577	0.049	0.034
-161.779	145.418	0.191	-0.252
-160.764	800.000	-0.074	0.237
-159.750	132.563	-0.212	0.270
-158.735	699.415	0.033	0.086
-157.720	-125.133	-0.359	0.054
-156.706	523.761	-0.069	0.160
-155.691	-175.472	-0.127	0.003
-154.677	-39.308	0.206	-0.107
-153.662	-155.831	0.221	-0.014
-152.647	-7.844	-0.470	-0.313
-151.633	-172.769	-0.308	-0.009
-150.618	32.486	-0.229	-0.195
-149.604	-139.872	-0.300	-0.031
-148.589	-80.158	0.317	-0.105
-147.574	176.046	0.212	0.304
-146.560	267.138	0.189	-0.327
-145.545	-200.000	0.054	-0.240
-144.531	-64.073	-0.122	-0.049
-143.516	-26.641	0.203	-0.117
-142.502	146.184	0.184	0.244
-141.487	74.420	-0.273	-0.283
-140.472	146.332	0.038	-0.050
-139.458	-200.000	0.039	-0.471
-138.443	800.000	0.108	-0.368
-137.429	412.058	-0.125	-0.263
-136.414	-200.000	-0.049	-0.277
-135.399	435.337	-0.127	-0.272
-134.385	-139.786	-0.130	-0.014
-133.370	166.225	-0.124	0.174
-132.356	-200.000	0.004	0.054
-131.341	81.327	0.259	0.276
-130.326	-171.268	-0.113	0.004
-129.312	-198.623	0.240	0.001
-128.297	79.315	0.019	-0.020
-127.283	800.000	0.068	0.229
-126.268	800.000	0.040	0.118
-125.253	-140.536	0.081	0.008
-124.239	386.453	0.071	0.144
-123.224	-200.000	-0.032	0.282
-122.210	636.030	0.083	-0.209
-121.195	274.079	0.285	-0.497
