DTS Sentinel unit serial number:	SN413079Multiplexer serial number:	ORYXHardware model number:	OX4-SRSoftware version number:	ORYX F/W v4.00 Oryx Data Collector v3.7.2.0data status	okinstallation	princeton_trtdifferential loss correction	single-endedforward channel	channel 4reverse channel	N/Adate	2019/09/17time	03:01:34forward acquisition time	60.00reverse acquisition time	0.00gamma	496.2192k internal	0.2311k external	0.2311temperature offset calibration	0.9972default loss term (dB/km)	0.3790temperature slope calibration	1.0000multiplexer offset coefficient	1.0000multiplexer slope coefficient	1.0000fibre end	0.00T internal ref (°C)	29.94T ext. ref 1 (°C)	0.12T ext. ref 2 (°C)	24.83length (m)	temperature (°C)	Stokes	anti-Stokes-747.200	44.339	-0.208	-0.194
-746.185	458.295	0.208	0.469
-745.171	-200.000	0.018	0.122
-744.156	-176.928	-0.139	0.004
-743.142	-200.000	-0.047	0.248
-742.127	-121.013	0.126	0.021
-741.112	-26.099	-0.184	-0.110
-740.098	63.673	-0.227	0.231
-739.083	800.000	0.092	0.286
-738.069	342.440	0.145	0.287
-737.054	107.540	0.090	-0.109
-736.039	-143.552	-0.203	-0.020
-735.025	-71.276	0.292	-0.111
-734.010	-62.985	-0.239	-0.100
-732.996	800.000	-0.064	-0.211
-731.981	89.924	-0.093	0.105
-730.966	221.001	0.040	-0.065
-729.952	305.822	0.104	-0.196
-728.937	-200.000	-0.018	-0.116
-727.923	254.395	-0.077	0.133
-726.908	800.000	0.085	0.246
-725.894	649.879	-0.071	-0.184
-724.879	-9.778	-0.203	0.137
-723.864	17.232	0.083	0.067
-722.850	19.707	-0.163	-0.133
-721.835	-66.096	-0.046	-0.019
-720.821	-90.583	0.167	-0.049
-719.806	-162.030	-0.174	-0.009
-718.791	-89.569	-0.142	-0.042
-717.777	-34.416	0.330	0.183
-716.762	800.000	0.034	-0.109
-715.748	36.138	-0.097	0.086
-714.733	-22.027	0.115	0.071
-713.718	126.402	-0.066	-0.085
-712.704	539.704	0.025	-0.061
-711.689	-200.000	-0.031	0.174
-710.675	-152.015	0.068	-0.005
-709.660	141.213	-0.131	-0.176
-708.645	-61.614	0.340	0.145
-707.631	581.309	-0.010	-0.025
-706.616	16.324	0.090	0.072
-705.602	7.849	0.136	-0.104
-704.587	-95.609	-0.057	0.016
-703.572	-200.000	-0.002	-0.218
-702.558	-170.975	-0.557	-0.019
-701.543	-48.635	-0.124	0.060
-700.529	32.256	-0.175	-0.153
-699.514	280.869	0.146	-0.265
-698.499	-21.586	0.242	0.149
-697.485	96.012	0.148	-0.172
-696.470	-200.000	0.064	-0.331
-695.456	312.844	-0.053	0.100
-694.441	-200.000	0.037	-0.163
-693.426	800.000	0.132	0.379
-692.412	408.871	0.135	0.290
-691.397	-40.927	0.076	0.040
-690.383	97.564	-0.250	-0.291
-689.368	800.000	0.071	-0.233
-688.354	267.043	0.157	-0.278
-687.339	-161.996	-0.302	-0.015
-686.324	6.136	-0.128	-0.096
-685.310	-200.000	0.038	-0.310
-684.295	-136.358	-0.356	0.042
-683.281	-49.553	0.202	-0.097
-682.266	-144.026	-0.266	-0.025
-681.251	-32.876	-0.072	-0.040
-680.237	85.549	0.127	-0.141
-679.222	-108.814	-0.365	-0.079
-678.208	71.925	0.388	-0.409
-677.193	339.458	-0.096	-0.189
-676.178	-200.000	0.013	-0.063
-675.164	-92.341	-0.286	0.082
-674.149	185.046	-0.164	-0.246
-673.135	-53.121	0.119	-0.055
-672.120	-200.000	0.007	-0.218
-671.105	-200.000	0.015	-0.278
-670.091	-41.600	-0.083	-0.043
-669.076	83.699	-0.273	-0.301
-668.062	-151.094	-0.078	0.006
-667.047	77.173	-0.138	0.148
-666.032	169.281	-0.193	0.279
-665.018	28.861	-0.230	-0.198
-664.003	-38.347	0.170	-0.091
-662.989	-200.000	-0.017	0.360
-661.974	146.488	-0.057	0.077
-660.959	77.784	-0.396	0.427
-659.945	218.437	-0.144	-0.232
-658.930	132.446	-0.148	-0.193
-657.916	-10.809	-0.069	0.046
-656.901	-44.981	-0.146	0.074
-655.886	250.885	-0.114	-0.197
-654.872	-93.657	-0.172	0.048
-653.857	-200.000	-0.011	0.220
-652.843	-71.938	-0.277	-0.104
-651.828	20.819	-0.152	-0.125
-650.814	-200.000	-0.167	0.810
-649.799	658.976	0.139	0.362
-648.784	-1.596	-0.035	0.025
-647.770	217.647	0.119	0.192
-646.755	-118.053	-0.263	-0.048
-645.741	-200.000	-0.061	0.280
-644.726	-19.184	-0.150	0.094
-643.711	-57.228	0.122	0.054
-642.697	4.225	0.154	-0.114
-641.682	262.662	0.226	0.397
-640.668	-98.663	0.056	-0.015
-639.653	36.174	0.338	-0.301
-638.638	-200.000	0.019	0.138
-637.624	241.183	0.077	-0.130
-636.609	256.385	0.101	-0.174
-635.595	80.698	-0.206	-0.225
-634.580	-83.546	-0.160	-0.052
-633.565	-132.410	-0.190	0.025
-632.551	179.974	0.083	-0.123
-631.536	455.737	-0.220	-0.493
-630.522	-200.000	0.006	-0.169
-629.507	-90.602	0.322	0.094
-628.492	303.309	0.089	-0.166
-627.478	-161.088	-0.235	-0.012
-626.463	-72.844	0.146	0.054
-625.449	-169.715	-0.220	0.008
-624.434	-159.628	0.310	0.017
-623.419	129.911	-0.191	-0.247
-622.405	298.305	-0.113	0.209
-621.390	95.054	0.067	0.076
-620.376	268.523	-0.111	0.196
-619.361	282.721	-0.065	-0.119
-618.346	-56.178	-0.289	-0.130
-617.332	27.928	-0.260	0.221
-616.317	232.864	-0.080	-0.133
-615.303	-176.734	-0.224	-0.006
-614.288	800.000	-0.039	-0.156
-613.273	-200.000	-0.029	0.169
-612.259	12.445	-0.183	0.142
-611.244	-200.000	0.026	-0.240
-610.230	7.277	-0.309	-0.233
-609.215	66.688	-0.097	0.099
-608.201	800.000	0.008	-0.033
-607.186	51.612	0.195	-0.187
-606.171	-200.000	-0.056	-0.305
-605.157	-200.000	-0.057	-0.316
-604.142	-95.497	-0.101	-0.027
-603.128	-57.900	0.148	0.065
-602.113	800.000	-0.055	0.166
-601.098	-58.392	-0.032	-0.014
-600.084	6.057	-0.134	-0.100
-599.069	-148.149	-0.110	-0.009
-598.055	37.999	-0.114	-0.102
-597.040	800.000	-0.075	-0.224
-596.025	-31.051	0.074	0.042
-595.011	-200.000	-0.011	0.139
-593.996	-200.000	0.039	-0.256
-592.982	-63.740	0.257	0.106
-591.967	-18.402	0.254	0.160
-590.952	-103.585	0.134	0.032
-589.938	212.666	0.105	-0.167
-588.923	178.205	-0.054	-0.079
-587.909	-4.834	0.194	-0.135
-586.894	-200.000	-0.011	-0.332
-585.879	-200.000	0.040	-0.297
-584.865	-41.758	0.109	-0.056
-583.850	-200.000	-0.015	0.132
-582.836	177.037	0.062	0.091
-581.821	-71.777	-0.287	0.108
-580.806	-200.000	-0.000	0.172
-579.792	63.413	-0.120	-0.121
-578.777	511.605	0.091	0.215
-577.763	-200.000	0.023	-0.306
-576.748	110.107	0.034	-0.041
-575.733	-60.571	0.063	0.027
-574.719	-46.677	-0.074	0.037
-573.704	-200.000	0.044	-0.285
-572.690	652.678	0.055	-0.142
-571.675	-200.000	0.004	-0.070
-570.661	-97.203	0.226	0.059
-569.646	800.000	0.031	-0.096
-568.631	-156.506	-0.111	-0.007
-567.617	800.000	-0.089	-0.358
-566.602	224.857	-0.050	-0.082
-565.588	-170.099	-0.232	0.008
-564.573	44.842	-0.249	-0.231
-563.558	-1.834	-0.298	0.211
-562.544	800.000	0.088	-0.302
-561.529	-47.852	-0.320	-0.156
-560.515	-135.510	-0.352	0.042
-559.500	800.000	-0.057	0.180
-558.485	318.746	0.079	-0.152
-557.471	290.507	-0.108	0.198
-556.456	-144.519	-0.496	-0.046
-555.442	-156.820	0.284	0.018
-554.427	740.213	-0.053	-0.143
-553.412	430.731	-0.073	-0.158
-552.398	273.514	-0.065	-0.116
-551.383	-115.713	0.219	0.041
-550.369	87.262	-0.041	-0.046
-549.354	-73.470	-0.134	-0.049
-548.339	-109.437	-0.374	0.080
-547.325	-109.760	-0.384	0.081
-546.310	800.000	-0.075	0.228
-545.296	-200.000	0.037	-0.186
-544.281	800.000	0.040	-0.116
-543.266	-7.177	0.130	0.089
-542.252	-87.007	-0.244	-0.075
-541.237	-64.452	0.030	-0.012
-540.223	800.000	0.060	-0.235
-539.208	-150.819	0.403	0.031
-538.193	439.809	0.055	-0.122
-537.179	431.330	0.133	0.291
-536.164	121.092	-0.197	-0.247
-535.150	357.366	-0.106	-0.212
-534.135	-200.000	-0.015	-0.101
-533.121	-200.000	0.018	-0.108
-532.106	-34.181	0.422	0.233
-531.091	-122.469	0.480	0.079
-530.077	68.347	-0.126	-0.130
-529.062	60.601	-0.083	-0.082
-528.048	-24.051	-0.377	-0.227
-527.033	208.265	-0.171	0.269
-526.018	-161.873	-0.180	0.009
-525.004	157.261	-0.106	0.147
-523.989	-70.623	-0.021	-0.008
-522.975	-27.676	-0.218	0.127
-521.960	56.967	0.074	0.072
-520.945	-142.175	0.229	-0.023
-519.931	-200.000	0.004	-0.260
-518.916	-163.610	0.050	0.002
-517.902	36.261	-0.229	0.203
-516.887	-101.767	0.529	-0.129
-515.872	800.000	-0.054	0.231
-514.858	149.006	-0.063	-0.085
-513.843	-200.000	-0.004	-0.067
-512.829	532.996	0.136	-0.323
-511.814	-102.110	-0.280	0.068
-510.799	800.000	0.122	-0.360
-509.785	21.147	-0.182	-0.148
-508.770	6.650	-0.172	0.129
-507.756	91.811	0.114	-0.129
-506.741	800.000	-0.041	-0.150
-505.726	312.048	0.043	-0.081
-504.712	-82.119	0.357	-0.117
-503.697	-61.100	-0.394	0.167
-502.683	559.868	0.094	0.229
-501.668	-200.000	-0.003	0.018
-500.653	-49.700	0.276	0.132
-499.639	22.242	0.294	0.241
-498.624	144.689	-0.178	0.240
-497.610	800.000	0.077	0.235
-496.595	9.593	0.157	-0.119
-495.581	-110.432	-0.192	-0.040
-494.566	-90.828	0.203	0.059
-493.551	-92.642	-0.040	-0.011
-492.537	-28.386	-0.442	-0.256
-491.522	-145.087	-0.120	-0.011
-490.508	332.265	0.086	0.167
-489.493	-121.734	-0.178	0.030
-488.478	-141.099	0.500	0.051
-487.464	-101.279	-0.103	-0.025
-486.449	800.000	-0.065	-0.248
-485.435	-200.000	0.003	-0.151
-484.420	-200.000	0.043	-0.430
-483.405	392.196	-0.016	0.034
-482.391	-200.000	0.059	-0.598
-481.376	704.447	-0.087	-0.230
-480.362	136.723	-0.082	0.107
-479.347	-200.000	-0.033	0.193
-478.332	-41.249	0.160	-0.083
-477.318	71.562	-0.177	0.185
-476.303	149.640	0.154	0.210
-475.289	-104.540	0.212	-0.049
-474.274	129.706	-0.057	-0.073
-473.259	-200.000	0.002	-0.275
-472.245	-200.000	-0.025	-0.292
-471.230	-157.816	-0.117	-0.007
-470.216	98.290	-0.085	0.099
-469.201	343.236	0.115	-0.227
-468.186	295.699	0.040	-0.074
-467.172	-53.482	-0.247	-0.113
-466.157	5.310	0.199	0.147
-465.143	-21.295	-0.168	0.103
-464.128	-1.463	-0.319	0.226
-463.113	340.101	0.177	-0.347
-462.099	314.407	-0.018	0.034
-461.084	800.000	-0.105	0.406
-460.070	38.573	-0.297	-0.266
-459.055	-200.000	0.008	-0.038
-458.040	-125.041	-0.438	-0.068
-457.026	800.000	-0.022	-0.093
-456.011	-200.000	-0.017	0.337
-454.997	800.000	0.105	0.336
-453.982	450.721	0.037	-0.081
-452.968	282.297	-0.088	0.158
-451.953	-138.359	-0.187	-0.021
-450.938	227.072	-0.049	-0.080
-449.924	-18.199	-0.152	0.095
-448.909	-54.328	0.029	0.013
-447.895	-123.855	-0.176	-0.028
-446.880	-137.324	0.353	-0.040
-445.865	800.000	0.115	0.344
-444.851	-5.929	0.187	0.129
-443.836	-46.027	-0.264	-0.130
-442.822	675.260	0.098	-0.254
-441.807	76.774	0.018	-0.019
-440.792	168.277	-0.076	-0.109
-439.778	-179.281	0.160	0.004
-438.763	145.070	-0.090	0.121
-437.749	99.477	-0.090	-0.105
-436.734	-31.392	0.076	-0.043
-435.719	-58.364	0.125	-0.055
-434.705	147.304	0.257	0.347
-433.690	252.581	-0.194	-0.331
-432.676	-67.264	0.207	-0.082
-431.661	800.000	-0.012	0.048
-430.646	631.540	0.111	0.281
-429.632	72.879	-0.114	0.120
-428.617	27.626	-0.087	0.074
-427.603	800.000	-0.007	0.028
-426.588	293.536	-0.159	-0.291
-425.573	-26.685	-0.087	0.051
-424.559	-155.060	-0.302	0.020
-423.544	-120.018	-0.261	-0.045
-422.530	252.055	-0.154	-0.264
-421.515	-104.685	0.098	0.023
-420.500	-168.390	0.192	-0.007
-419.486	-137.223	-0.305	0.035
-418.471	-60.167	0.193	0.083
-417.457	-124.208	-0.152	0.024
-416.442	144.508	-0.042	0.056
-415.428	52.685	0.145	0.138
-414.413	-191.033	0.112	-0.001
-413.398	83.498	0.170	0.186
-412.384	-41.670	-0.106	0.055
-411.369	71.925	0.115	-0.120
-410.355	-189.579	0.191	-0.002
-409.340	-200.000	0.015	0.188
-408.325	-138.994	-0.183	0.020
-407.311	75.847	-0.106	0.112
-406.296	-88.535	-0.259	0.077
-405.282	-132.731	-0.390	-0.050
-404.267	-73.405	-0.070	0.026
-403.252	-12.842	-0.149	0.098
-402.238	-57.201	0.286	-0.126
-401.223	234.479	-0.128	0.211
-400.209	201.253	0.041	0.063
-399.194	303.672	-0.180	0.334
-398.179	-200.000	-0.027	0.215
-397.165	800.000	-0.101	0.332
-396.150	800.000	-0.121	-0.342
-395.136	-165.058	0.170	0.008
-394.121	134.718	0.128	0.167
-393.106	673.237	-0.024	0.063
-392.092	-200.000	0.021	-0.104
-391.077	-200.000	0.027	0.261
-390.063	113.356	0.259	-0.314
-389.048	19.170	0.065	0.052
-388.033	33.253	0.155	-0.135
-387.019	-200.000	0.029	0.183
-386.004	-200.000	0.010	-0.156
-384.990	-125.420	0.336	-0.051
-383.975	-48.607	-0.118	0.057
-382.960	86.914	0.060	0.066
-381.946	114.657	0.134	0.163
-380.931	-58.920	-0.051	-0.022
-379.917	800.000	-0.064	-0.202
-378.902	-176.180	0.192	-0.005
-377.888	270.318	-0.069	-0.122
-376.873	-200.000	0.073	0.399
-375.858	174.680	0.029	-0.042
-374.844	37.951	0.183	-0.163
-373.829	-159.099	-0.116	0.007
-372.815	800.000	-0.074	0.272
-371.800	-72.598	0.265	0.098
-370.785	-116.801	-0.136	0.025
-369.771	7.602	0.162	0.122
-368.756	-45.160	0.243	-0.121
-367.742	93.829	0.203	0.230
-366.727	-94.141	-0.120	-0.033
-365.712	93.272	-0.150	-0.169
-364.698	-99.603	-0.150	-0.038
-363.683	76.415	0.090	0.096
-362.669	100.099	-0.155	0.179
-361.654	-23.288	-0.341	-0.205
-360.639	-0.623	0.232	0.164
-359.625	-200.000	0.021	0.241
-358.610	33.656	-0.048	0.042
-357.596	-200.000	-0.027	0.134
-356.581	248.135	0.083	0.141
-355.566	-75.361	-0.216	0.077
-354.552	-41.030	-0.145	0.075
-353.537	674.093	0.095	-0.248
-352.523	72.659	-0.267	-0.278
-351.508	-87.383	0.492	0.149
-350.493	-200.000	-0.027	0.352
-349.479	800.000	-0.064	0.208
-348.464	-200.000	0.009	0.123
-347.450	-200.000	-0.080	0.359
-346.435	-200.000	-0.001	-0.090
-345.420	-99.381	-0.204	-0.051
-344.406	94.874	-0.165	0.187
-343.391	-15.100	0.220	-0.141
-342.377	-144.027	-0.130	-0.012
-341.362	-200.000	-0.018	-0.307
-340.348	648.632	-0.013	-0.034
-339.333	151.109	0.140	0.190
-338.318	59.086	-0.417	0.410
-337.304	-56.279	0.260	-0.115
-336.289	-3.934	-0.131	0.091
-335.275	-100.360	0.150	-0.037
-334.260	64.206	0.070	0.070
-333.245	800.000	0.119	-0.462
-332.231	16.482	0.226	-0.179
-331.216	-2.954	0.322	0.225
-330.202	-85.341	-0.181	-0.056
-329.187	-102.435	0.083	0.020
-328.172	-81.628	0.269	-0.088
-327.158	800.000	0.087	-0.250
-326.143	211.574	0.190	0.299
-325.129	304.608	-0.126	-0.234
-324.114	-69.482	0.354	-0.135
-323.099	132.565	0.084	-0.108
-322.085	5.626	0.127	-0.094
-321.070	12.388	-0.248	-0.191
-320.056	248.864	0.085	-0.143
-319.041	-200.000	0.218	0.000
-318.026	-200.000	0.031	0.429
-317.012	-106.449	0.305	-0.068
-315.997	800.000	0.076	-0.235
-314.983	800.000	0.044	-0.190
-313.968	-200.000	-0.025	-0.139
-312.953	-68.467	-0.150	0.058
-311.939	-118.258	0.344	0.061
-310.924	-12.026	0.324	0.212
-309.910	37.730	-0.287	0.255
-308.895	-200.000	-0.016	0.336
-307.880	-50.426	-0.281	-0.132
-306.866	-135.058	-0.068	0.008
-305.851	-110.435	0.120	-0.025
-304.837	-133.065	-0.153	-0.019
-303.822	800.000	-0.036	0.135
-302.807	10.690	0.193	-0.147
-301.793	488.895	-0.025	0.058
-300.778	-200.000	0.075	0.444
-299.764	-200.000	-0.002	0.261
-298.749	364.180	0.015	0.030
-297.735	-200.000	0.010	-0.159
-296.720	800.000	0.057	-0.168
-295.705	-65.437	-0.036	-0.014
-294.691	-91.651	-0.309	0.088
-293.676	132.414	-0.024	0.030
-292.662	265.460	0.170	-0.295
-291.647	56.469	0.134	-0.130
-290.632	187.745	-0.123	0.184
-289.618	-200.000	-0.005	-0.072
-288.603	99.038	-0.108	0.125
-287.589	800.000	0.089	0.310
-286.574	-200.000	0.016	0.110
-285.559	-200.000	0.080	0.385
-284.545	800.000	-0.011	0.044
-283.530	-60.148	0.097	-0.041
-282.516	-35.637	0.125	0.067
-281.501	18.638	0.327	-0.260
-280.486	20.015	0.293	0.235
-279.472	-52.518	0.371	-0.171
-278.457	-200.000	-0.002	0.054
-277.443	800.000	-0.060	0.179
-276.428	-30.381	-0.091	0.052
-275.413	-146.073	-0.175	0.015
-274.399	140.286	0.073	-0.096
-273.384	-30.923	0.192	-0.108
-272.370	609.008	0.042	-0.104
-271.355	-110.064	0.194	0.040
-270.340	-200.000	0.026	-0.160
-269.326	-120.275	0.181	0.031
-268.311	-147.471	-0.105	-0.009
-267.297	450.255	0.065	0.143
-266.282	269.604	0.069	0.122
-265.267	-47.410	-0.090	0.044
-264.253	-90.292	-0.199	0.058
-263.238	-200.000	-0.039	-0.199
-262.224	-140.921	-0.411	-0.042
-261.209	-76.152	0.157	-0.055
-260.195	24.738	-0.094	0.078
-259.180	25.924	0.208	0.172
-258.165	-200.000	-0.015	-0.094
-257.151	-95.304	0.259	-0.070
-256.136	735.529	0.092	0.247
-255.122	233.150	-0.076	-0.125
-254.107	-60.849	-0.037	-0.016
-253.092	292.053	0.205	-0.373
-252.078	81.452	-0.160	0.173
-251.063	-167.613	-0.348	-0.014
-250.049	-101.791	-0.260	0.063
-249.034	356.072	0.065	-0.129
-248.019	-91.156	0.237	0.068
-247.005	-108.018	0.245	-0.053
-245.990	64.923	-0.111	0.112
-244.976	-200.000	0.013	0.242
-243.961	800.000	-0.078	-0.261
-242.946	120.074	0.130	-0.160
-241.932	107.889	-0.019	0.023
-240.917	-125.725	-0.232	-0.035
-239.903	-127.218	-0.085	0.012
-238.888	89.412	-0.115	0.128
-237.873	-86.025	-0.160	-0.049
-236.859	231.184	0.109	-0.177
-235.844	83.301	0.304	0.329
-234.830	73.720	0.075	0.078
-233.815	641.549	-0.127	0.322
-232.800	-200.000	-0.035	-0.207
-231.786	273.127	0.138	0.242
-230.771	800.000	0.086	-0.356
-229.757	-129.675	0.236	0.032
-228.742	-151.306	0.156	-0.012
-227.727	-135.535	-0.189	0.022
-226.713	50.047	-0.176	0.165
-225.698	-200.000	0.062	0.332
-224.684	104.466	-0.221	-0.259
-223.669	63.104	-0.095	-0.095
-222.655	-74.839	0.278	-0.099
-221.640	-200.000	0.029	-0.169
-220.625	200.655	0.028	-0.043
-219.611	-200.000	0.114	0.516
-218.596	-136.619	-0.067	-0.008
-217.582	780.761	-0.020	-0.053
-216.567	-200.000	0.012	-0.242
-215.552	-10.101	0.138	0.091
-214.538	154.971	-0.153	0.209
-213.523	-91.448	0.449	0.127
-212.509	-23.889	0.085	0.051
-211.494	-62.611	-0.122	-0.051
-210.479	-120.635	0.065	0.011
-209.465	51.888	-0.108	0.102
-208.450	-65.360	0.281	-0.112
-207.436	-200.000	-0.068	-0.305
-206.421	-182.833	-0.173	0.003
-205.406	-200.000	0.013	0.367
-204.392	800.000	0.088	0.329
-203.377	226.037	0.105	0.169
-202.363	800.000	0.036	-0.126
-201.348	50.319	0.011	0.011
-200.333	-18.621	-0.256	-0.159
-199.319	364.023	-0.037	0.074
-198.304	-183.087	0.277	0.005
-197.290	-200.000	-0.010	0.274
-196.275	-200.000	0.035	0.218
-195.260	150.155	-0.219	0.296
-194.246	-67.402	-0.050	0.020
-193.231	-200.000	-0.046	-0.214
-192.217	515.865	-0.040	-0.093
-191.202	-65.862	-0.446	0.177
-190.187	112.647	-0.147	0.177
-189.173	226.474	-0.048	-0.077
-188.158	-120.610	-0.348	0.059
-187.144	101.174	0.256	-0.296
-186.129	33.888	0.194	0.168
-185.114	-2.524	-0.234	0.163
-184.100	117.855	-0.334	0.408
-183.085	55.484	0.118	-0.113
-182.071	33.669	-0.166	-0.143
-181.056	-74.929	-0.130	-0.046
-180.042	-200.000	-0.017	-0.198
-179.027	106.036	0.245	0.287
-178.012	208.590	0.106	0.165
-176.998	-169.686	0.264	0.010
-175.983	-200.000	0.005	0.033
-174.969	459.201	-0.144	0.317
-173.954	14.782	0.095	-0.074
-172.939	-29.688	0.186	-0.105
-171.925	-41.100	0.169	0.087
-170.910	320.377	0.026	-0.050
-169.896	452.708	0.116	-0.254
-168.881	167.893	0.184	-0.260
-167.866	169.704	-0.145	-0.206
-166.852	-115.908	0.234	0.043
-165.837	285.469	-0.105	-0.188
-164.823	800.000	-0.069	0.269
-163.808	454.550	0.104	0.229
-162.793	143.639	0.083	-0.110
-161.779	-24.254	0.268	0.158
-160.764	114.326	0.131	-0.159
-159.750	-156.664	0.121	-0.007
-158.735	-200.000	0.012	-0.571
-157.720	-56.959	-0.273	0.119
-156.706	-129.354	0.293	0.040
-155.691	-200.000	-0.023	0.146
-154.677	-127.450	0.117	-0.017
-153.662	5.096	-0.301	-0.220
-152.647	-200.000	0.028	-0.394
-151.633	407.333	0.095	0.198
-150.618	-200.000	0.060	0.342
-149.604	675.645	0.059	-0.152
-148.589	-162.610	-0.164	-0.008
-147.574	-34.862	0.276	0.149
-146.560	27.624	-0.118	-0.098
-145.545	79.673	0.027	0.028
-144.531	-200.000	0.028	-0.138
-143.516	-200.000	0.017	0.173
-142.502	-200.000	-0.074	0.343
-141.487	-77.544	0.270	0.093
-140.472	-59.738	0.207	-0.088
-139.458	339.399	-0.062	-0.119
-138.443	-20.177	0.102	0.062
-137.429	-7.611	0.235	0.157
-136.414	767.188	0.063	-0.170
-135.399	800.000	-0.095	-0.381
-134.385	17.323	-0.084	0.066
-133.370	144.815	-0.120	0.159
-132.356	-78.534	0.161	-0.055
-131.341	528.227	-0.071	0.167
-130.326	-186.699	-0.362	0.005
-129.312	778.607	-0.053	-0.143
-128.297	800.000	0.018	-0.061
-127.283	800.000	-0.045	0.135
-126.268	-34.710	0.184	0.099
-125.253	150.757	0.061	0.082
-124.239	-25.918	0.261	0.152
-123.224	126.051	-0.017	-0.021
-122.210	800.000	0.070	0.272
