DTS Sentinel unit serial number:	SN413079Multiplexer serial number:	ORYXHardware model number:	OX4-SRSoftware version number:	ORYX F/W v4.00 Oryx Data Collector v3.7.2.0data status	okinstallation	princeton_trtdifferential loss correction	single-endedforward channel	channel 4reverse channel	N/Adate	2019/09/19time	01:13:35forward acquisition time	60.00reverse acquisition time	0.00gamma	496.2192k internal	0.2339k external	0.2339temperature offset calibration	1.0030default loss term (dB/km)	0.3790temperature slope calibration	1.0000multiplexer offset coefficient	1.0000multiplexer slope coefficient	1.0000fibre end	0.00T internal ref (°C)	21.77T ext. ref 1 (°C)	0.71T ext. ref 2 (°C)	15.19length (m)	temperature (°C)	Stokes	anti-Stokes-747.200	202.537	0.200	-0.310
-746.185	-200.000	-0.013	0.161
-745.171	27.639	0.213	0.180
-744.156	325.465	0.178	-0.342
-743.142	800.000	-0.013	-0.055
-742.127	-49.807	-0.237	0.113
-741.112	-148.438	0.193	-0.016
-740.098	800.000	0.017	0.052
-739.083	-63.387	-0.185	0.076
-738.069	94.161	-0.164	0.187
-737.054	53.738	-0.215	0.207
-736.039	417.221	-0.074	-0.159
-735.025	-110.988	0.315	-0.065
-734.010	-48.687	-0.248	-0.120
-732.996	-124.843	-0.195	0.030
-731.981	50.059	0.277	-0.262
-730.966	60.095	-0.027	0.027
-729.952	125.097	-0.086	0.108
-728.937	587.971	-0.066	0.164
-727.923	-68.104	-0.226	0.088
-726.908	36.224	-0.159	-0.141
-725.894	-158.207	-0.285	-0.017
-724.879	800.000	0.087	-0.324
-723.864	59.661	0.056	-0.055
-722.850	314.354	0.158	0.298
-721.835	-200.000	0.049	0.224
-720.821	-121.609	-0.289	0.048
-719.806	-200.000	-0.045	-0.224
-718.791	800.000	0.089	-0.282
-717.777	-200.000	-0.014	-0.240
-716.762	-200.000	-0.014	-0.229
-715.748	800.000	-0.084	-0.315
-714.733	-45.588	0.381	0.189
-713.718	-140.253	0.135	-0.014
-712.704	-61.220	-0.192	0.081
-711.689	800.000	0.041	0.118
-710.675	-14.956	-0.104	0.067
-709.660	-200.000	-0.008	-0.174
-708.645	588.126	-0.103	0.255
-707.631	-52.356	0.272	-0.126
-706.616	148.077	-0.117	0.158
-705.602	-142.197	0.255	0.025
-704.587	124.645	-0.205	-0.258
-703.572	-14.639	0.231	0.149
-702.558	563.202	0.051	-0.124
-701.543	21.830	-0.213	-0.174
-700.529	-109.110	-0.093	0.020
-699.514	-41.743	-0.041	0.021
-698.499	233.200	0.146	-0.240
-697.485	800.000	0.074	-0.287
-696.470	5.156	-0.204	0.150
-695.456	-115.845	-0.031	0.006
-694.441	73.247	0.175	-0.183
-693.426	138.100	0.028	0.037
-692.412	369.201	0.047	-0.095
-691.397	-8.140	0.355	0.239
-690.383	-154.579	0.046	0.003
-689.368	-36.165	-0.062	-0.033
-688.354	195.943	0.058	-0.088
-687.339	27.859	0.095	0.080
-686.324	-200.000	-0.027	-0.127
-685.310	800.000	0.064	-0.274
-684.295	-18.720	0.096	0.060
-683.281	-93.587	-0.264	0.073
-682.266	-59.438	0.087	0.037
-681.251	-34.221	-0.323	-0.177
-680.237	6.423	-0.294	-0.219
-679.222	103.981	-0.115	-0.136
-678.208	-67.635	0.404	0.158
-677.193	800.000	-0.014	0.058
-676.178	-113.961	-0.258	-0.050
-675.164	-95.807	0.339	-0.091
-674.149	-140.017	-0.178	0.019
-673.135	430.220	-0.086	-0.187
-672.120	-24.731	0.048	0.029
-671.105	24.083	0.343	-0.283
-670.091	-85.553	0.133	0.041
-669.076	-200.000	0.025	-0.179
-668.062	41.177	-0.295	-0.267
-667.047	-12.685	-0.127	-0.083
-666.032	-96.227	0.236	-0.063
-665.018	-200.000	0.002	-0.022
-664.003	-34.085	-0.220	-0.121
-662.989	3.824	-0.378	-0.276
-661.974	310.227	0.090	-0.168
-660.959	360.374	-0.063	-0.127
-659.945	219.961	-0.211	-0.337
-658.930	-74.303	0.422	0.152
-657.916	17.996	0.325	-0.259
-656.901	-98.431	0.120	-0.031
-655.886	-54.529	0.193	-0.087
-654.872	-198.483	-0.533	-0.003
-653.857	24.302	0.177	-0.146
-652.843	312.195	0.043	-0.081
-651.828	-200.000	-0.015	0.142
-650.814	-200.000	-0.054	0.336
-649.799	109.549	0.121	-0.145
-648.784	-49.339	-0.065	0.031
-647.770	328.663	0.077	-0.148
-646.755	237.430	0.098	0.162
-645.741	183.801	0.066	0.097
-644.726	10.171	0.098	-0.075
-643.711	-51.933	0.156	0.073
-642.697	94.238	-0.051	0.058
-641.682	375.023	-0.152	0.309
-640.668	-129.021	0.179	-0.025
-639.653	-83.162	-0.131	0.042
-638.638	-200.000	-0.013	-0.089
-637.624	-94.063	0.315	0.086
-636.609	-31.236	-0.336	-0.189
-635.595	-30.557	-0.385	-0.218
-634.580	-125.373	-0.022	-0.003
-633.565	-31.702	-0.183	-0.103
-632.551	-70.706	0.163	0.062
-631.536	-61.005	0.143	0.060
-630.522	-200.000	0.027	0.268
-629.507	-55.758	0.098	0.044
-628.492	-200.000	0.007	-0.103
-627.478	-91.439	-0.310	0.089
-626.463	191.944	0.138	-0.207
-625.449	-185.013	-0.368	0.006
-624.434	-135.769	-0.315	0.037
-623.419	800.000	-0.056	0.162
-622.405	491.677	0.168	-0.384
-621.390	256.071	-0.116	0.198
-620.376	182.130	0.104	-0.153
-619.361	89.247	-0.209	0.233
-618.346	-200.000	-0.006	-0.125
-617.332	-144.234	-0.438	0.041
-616.317	-3.597	-0.199	-0.138
-615.303	-200.000	0.034	-0.311
-614.288	-200.000	-0.041	-0.218
-613.273	-200.000	-0.033	0.144
-612.259	232.153	0.204	-0.334
-611.244	156.070	0.114	-0.157
-610.230	-200.000	-0.074	-0.340
-609.215	800.000	0.061	0.263
-608.201	800.000	-0.059	0.175
-607.186	-62.005	-0.115	-0.048
-606.171	681.725	0.122	-0.317
-605.157	-98.401	-0.243	0.062
-604.142	1.648	0.244	-0.176
-603.128	-200.000	0.018	-0.089
-602.113	-200.000	0.008	-0.057
-601.098	-132.697	-0.287	0.037
-600.084	29.878	0.358	0.304
-599.069	-53.578	-0.191	-0.087
-598.055	-197.843	0.236	0.001
-597.040	-73.256	-0.296	0.108
-596.025	465.188	0.058	-0.130
-595.011	-110.906	0.434	0.089
-593.996	111.832	-0.200	0.241
-592.982	-200.000	0.002	-0.109
-591.967	148.301	-0.051	0.069
-590.952	226.391	-0.005	-0.008
-589.938	-128.132	0.196	0.028
-588.923	800.000	-0.054	0.160
-587.909	-200.000	-0.040	-0.293
-586.894	-105.258	-0.398	0.090
-585.879	170.394	-0.157	-0.223
-584.865	221.601	0.136	-0.217
-583.850	-50.894	-0.158	-0.074
-582.836	-0.460	0.316	0.224
-581.821	63.422	0.115	0.115
-580.806	48.660	-0.293	0.274
-579.792	-162.809	0.428	-0.021
-578.777	-7.656	0.013	0.009
-577.763	476.517	0.095	-0.214
-576.748	-77.905	0.351	-0.121
-575.733	96.768	-0.072	0.083
-574.719	53.433	-0.135	0.129
-573.704	152.270	0.014	-0.019
-572.690	67.445	-0.142	0.145
-571.675	318.810	-0.094	-0.178
-570.661	77.373	-0.113	-0.120
-569.646	-45.404	-0.190	0.094
-568.631	220.665	0.361	-0.577
-567.617	800.000	-0.069	0.220
-566.602	800.000	0.029	-0.079
-565.588	93.820	0.150	-0.170
-564.573	-136.436	-0.149	-0.017
-563.558	-118.944	-0.154	-0.027
-562.544	-200.000	0.037	-0.452
-561.529	-200.000	-0.001	-0.244
-560.515	-116.348	-0.238	-0.044
-559.500	-69.967	-0.381	-0.145
-558.485	-200.000	-0.012	-0.428
-557.471	-12.159	-0.147	-0.096
-556.456	28.941	0.176	0.149
-555.442	-200.000	0.004	0.132
-554.427	145.524	-0.153	-0.204
-553.412	800.000	0.077	-0.283
-552.398	28.802	0.136	-0.114
-551.383	-200.000	0.002	0.129
-550.369	-107.096	-0.210	0.046
-549.354	-170.218	-0.103	-0.004
-548.339	-119.899	-0.081	-0.014
-547.325	-91.355	-0.148	0.042
-546.310	43.539	-0.268	-0.244
-545.296	-79.365	0.124	0.042
-544.281	42.076	-0.099	-0.090
-543.266	-9.792	0.106	0.071
-542.252	570.199	-0.184	-0.446
-541.237	4.582	-0.056	-0.041
-540.223	-133.247	-0.169	0.021
-539.208	-89.115	-0.190	-0.056
-538.193	800.000	0.083	0.237
-537.179	393.547	0.146	0.303
-536.164	12.851	0.079	0.060
-535.150	-2.702	0.229	-0.160
-534.135	-200.000	0.012	-0.147
-533.121	-200.000	-0.009	-0.392
-532.106	47.976	-0.130	-0.120
-531.091	37.072	0.047	0.042
-530.077	-110.943	-0.384	-0.079
-529.062	-15.784	-0.046	-0.029
-528.048	-200.000	0.009	0.340
-527.033	800.000	-0.056	0.208
-526.018	-173.921	0.369	-0.011
-525.004	-200.000	0.013	-0.063
-523.989	800.000	-0.075	-0.255
-522.975	41.879	-0.121	0.109
-521.960	-200.000	-0.058	-0.380
-520.945	-112.089	0.266	-0.053
-519.931	-57.799	0.672	-0.292
-518.916	142.363	-0.081	-0.107
-517.902	-72.020	0.299	-0.110
-516.887	-20.402	-0.323	0.198
-515.872	-80.774	0.230	-0.076
-514.858	-91.746	0.144	0.041
-513.843	610.505	-0.088	-0.219
-512.829	-17.846	0.093	-0.058
-511.814	159.354	-0.194	0.268
-510.799	519.626	-0.115	0.267
-509.785	6.643	-0.045	0.033
-508.770	-53.988	0.301	0.136
-507.756	118.694	0.034	-0.042
-506.741	-102.785	-0.188	0.045
-505.726	800.000	-0.045	0.130
-504.712	-200.000	-0.006	-0.268
-503.697	-118.270	-0.241	0.043
-502.683	37.773	0.114	0.100
-501.668	-33.466	-0.160	0.088
-500.653	-200.000	0.020	-0.136
-499.639	142.426	0.113	-0.149
-498.624	61.401	-0.266	-0.262
-497.610	14.576	0.136	-0.105
-496.595	-146.736	0.446	0.038
-495.581	-171.294	0.209	0.007
-494.566	50.119	-0.152	-0.143
-493.551	-200.000	-0.025	-0.164
-492.537	800.000	-0.071	-0.236
-491.522	-29.853	0.226	0.128
-490.508	549.344	-0.043	0.103
-489.493	-23.517	0.161	0.096
-488.478	169.911	-0.264	-0.375
-487.464	800.000	-0.075	0.248
-486.449	-24.274	-0.116	0.069
-485.435	-42.851	-0.154	0.078
-484.420	-200.000	0.001	-0.009
-483.405	-123.420	-0.307	0.049
-482.391	27.143	-0.259	0.216
-481.376	-155.917	0.108	0.007
-480.362	31.286	-0.063	0.054
-479.347	-21.308	0.144	0.088
-478.332	800.000	0.023	0.085
-477.318	-200.000	-0.041	0.300
-476.303	86.237	0.187	0.205
-475.289	-200.000	0.014	-0.255
-474.274	-167.623	-0.013	-0.001
-473.259	296.125	0.250	-0.456
-472.245	-32.469	0.172	0.095
-471.230	72.154	0.105	-0.109
-470.216	88.876	-0.327	-0.361
-469.201	-35.542	-0.148	0.080
-468.186	-200.000	-0.104	0.564
-467.172	109.068	0.295	-0.351
-466.157	113.312	-0.178	-0.214
-465.143	143.034	-0.228	0.301
-464.128	785.107	0.060	-0.164
-463.113	-170.202	0.199	-0.007
-462.099	-60.501	-0.254	0.107
-461.084	-200.000	0.016	0.168
-460.070	-142.935	-0.124	0.012
-459.055	785.375	-0.029	0.079
-458.040	29.634	0.055	0.047
-457.026	800.000	-0.135	-0.433
-456.011	5.969	-0.264	-0.194
-454.997	-78.870	0.165	0.056
-453.982	-91.167	-0.460	-0.131
-452.968	-39.148	0.336	-0.175
-451.953	-200.000	-0.024	-0.126
-450.938	-142.718	-0.052	0.005
-449.924	800.000	0.044	0.128
-448.909	118.336	-0.125	-0.153
-447.895	-88.847	-0.342	0.101
-446.880	-124.626	0.250	-0.038
-445.865	-107.683	0.348	0.075
-444.851	275.648	0.072	-0.127
-443.836	-53.680	-0.228	0.103
-442.822	-200.000	-0.003	0.273
-441.807	-58.340	-0.100	-0.043
-440.792	666.037	0.117	0.299
-439.778	33.242	-0.082	0.071
-438.763	-200.000	0.019	-0.090
-437.749	-22.980	0.319	-0.191
-436.734	127.532	-0.142	-0.179
-435.719	-95.891	-0.187	0.049
-434.705	800.000	-0.032	0.090
-433.690	-200.000	-0.030	-0.183
-432.676	-136.850	-0.124	-0.014
-431.661	80.561	0.206	0.220
-430.646	-0.528	-0.187	0.131
-429.632	-133.546	0.093	0.011
-428.617	-158.523	-0.182	-0.010
-427.603	-200.000	0.012	0.272
-426.588	348.547	0.246	0.480
-425.573	-200.000	0.013	0.128
-424.559	-200.000	0.022	0.226
-423.544	-66.102	0.200	-0.079
-422.530	-108.436	-0.126	0.027
-421.515	98.567	-0.065	0.074
-420.500	66.297	-0.205	0.206
-419.486	324.184	0.114	0.216
-418.471	161.334	0.145	0.201
-417.457	-52.238	-0.429	-0.197
-416.442	1.594	0.073	0.052
-415.428	-50.672	-0.254	0.119
-414.413	436.510	0.082	0.176
-413.398	81.533	-0.170	0.182
-412.384	-99.731	0.062	-0.015
-411.369	189.801	-0.045	0.067
-410.355	-6.014	-0.148	-0.101
-409.340	85.335	0.068	0.074
-408.325	-148.520	0.152	-0.012
-407.311	372.981	0.049	-0.099
-406.296	800.000	0.061	0.192
-405.282	687.314	0.073	-0.190
-404.267	337.258	0.151	-0.291
-403.252	140.997	-0.194	0.254
-402.238	314.354	0.139	-0.259
-401.223	96.568	0.161	-0.183
-400.209	-68.961	0.075	0.029
-399.194	647.403	-0.086	0.219
-398.179	12.176	0.072	-0.055
-397.165	184.025	0.155	-0.227
-396.150	217.245	0.043	-0.067
-395.136	-43.592	-0.210	0.105
-394.121	-49.954	0.168	0.079
-393.106	140.831	0.169	0.221
-392.092	445.760	0.200	0.436
-391.077	185.465	0.063	-0.092
-390.063	800.000	-0.094	0.312
-389.048	-200.000	0.035	0.156
-388.033	255.188	-0.131	0.222
-387.019	228.413	0.184	-0.296
-386.004	-130.754	0.110	0.015
-384.990	-200.000	0.026	0.240
-383.975	-200.000	0.046	0.305
-382.960	6.262	-0.126	-0.093
-381.946	-144.145	0.111	-0.010
-380.931	19.532	0.128	-0.101
-379.917	-200.000	-0.020	-0.253
-378.902	-50.604	0.305	0.142
-377.888	-47.759	-0.279	0.134
-376.873	-113.401	-0.055	-0.011
-375.858	-49.875	0.287	-0.134
-374.844	5.701	-0.383	0.280
-373.829	245.947	0.084	-0.139
-372.815	800.000	0.072	0.260
-371.800	-137.930	-0.074	0.008
-370.785	79.839	-0.208	-0.221
-369.771	-200.000	0.018	-0.149
-368.756	78.606	0.146	-0.154
-367.742	-89.630	0.159	-0.046
-366.727	-200.000	-0.057	0.408
-365.712	800.000	0.139	0.431
-364.698	9.822	-0.523	-0.392
-363.683	-200.000	0.012	-0.107
-362.669	-54.225	-0.266	-0.119
-361.654	-82.854	0.276	-0.088
-360.639	110.803	0.143	-0.170
-359.625	-9.975	-0.184	-0.121
-358.610	-95.880	-0.233	0.061
-357.596	-177.355	0.207	-0.005
-356.581	-149.485	-0.115	0.009
-355.566	737.371	0.079	0.209
-354.552	-45.115	0.251	0.123
-353.537	-98.085	-0.067	-0.017
-352.523	42.430	0.040	0.036
-351.508	84.632	0.150	0.162
-350.493	92.586	0.272	0.303
-349.479	-200.000	0.008	0.056
-348.464	-40.714	-0.141	-0.072
-347.450	-130.377	0.293	-0.039
-346.435	149.298	0.148	-0.198
-345.420	75.692	-0.087	0.090
-344.406	574.584	0.211	0.508
-343.391	800.000	-0.097	-0.278
-342.377	-200.000	-0.031	-0.212
-341.362	-119.693	0.390	0.067
-340.348	-81.555	0.160	-0.052
-339.333	-200.000	0.067	0.468
-338.318	-119.954	-0.263	0.045
-337.304	-186.361	-0.115	-0.002
-336.289	800.000	0.100	-0.287
-335.275	266.085	-0.069	0.118
-334.260	-160.892	-0.221	-0.011
-333.245	146.950	0.109	0.145
-332.231	77.378	0.157	-0.164
-331.216	535.588	-0.131	0.307
-330.202	280.334	0.094	0.166
-329.187	-98.431	-0.423	0.107
-328.172	558.584	-0.038	-0.091
-327.158	530.664	0.068	0.158
-326.143	372.924	-0.194	0.390
-325.129	153.429	0.254	0.343
-324.114	-166.393	0.198	-0.008
-323.099	226.527	0.115	0.184
-322.085	13.332	0.127	-0.097
-321.070	-87.877	-0.192	-0.057
-320.056	218.718	0.051	-0.081
-319.041	800.000	-0.018	0.053
-318.026	-94.322	0.221	0.060
-317.012	31.941	0.240	-0.204
-315.997	704.057	-0.110	-0.286
-314.983	-32.134	-0.120	0.066
-313.968	-153.187	-0.482	0.033
-312.953	-102.760	0.201	0.047
-311.939	-165.404	-0.156	0.007
-310.924	-26.264	-0.244	-0.141
-309.910	800.000	0.081	-0.291
-308.895	-43.457	0.293	-0.146
-307.880	216.900	-0.094	-0.148
-306.866	-86.808	-0.211	-0.063
-305.851	-85.542	0.222	0.068
-304.837	442.998	-0.104	-0.225
-303.822	-62.210	0.118	-0.049
-302.807	221.853	-0.085	-0.136
-301.793	67.079	-0.286	0.288
-300.778	-73.245	-0.107	-0.039
-299.764	-90.934	0.309	0.088
-298.749	284.813	0.191	0.339
-297.735	-200.000	0.004	0.055
-296.720	609.976	0.141	0.347
-295.705	141.974	0.127	0.166
-294.691	297.063	0.129	0.233
-293.676	800.000	-0.069	0.202
-292.662	-200.000	-0.051	-0.374
-291.647	-200.000	-0.028	-0.282
-290.632	4.597	-0.243	-0.176
-289.618	-25.512	0.106	-0.062
-288.603	800.000	-0.020	-0.083
-287.589	-150.695	0.279	-0.021
-286.574	-84.647	-0.173	-0.054
-285.559	-167.252	0.304	0.012
-284.545	-28.535	-0.161	-0.092
-283.530	-150.767	0.158	0.012
-282.516	-200.000	0.029	-0.299
-281.501	-137.939	-0.005	-0.001
-280.486	-79.102	-0.141	-0.047
-279.472	-83.333	0.193	-0.061
-278.457	40.095	-0.089	0.079
-277.443	-58.511	-0.219	0.094
-276.428	50.600	0.164	-0.153
-275.413	-200.000	-0.044	-0.281
-274.399	-27.835	0.121	0.069
-273.384	633.015	0.087	0.217
-272.370	2.136	-0.114	-0.081
-271.355	-35.753	0.321	0.171
-270.340	434.433	-0.035	0.074
-269.326	-65.434	-0.314	0.124
-268.311	392.949	-0.085	0.175
-267.297	577.209	-0.131	0.316
-266.282	-103.487	-0.177	0.041
-265.267	-109.027	-0.422	0.089
-264.253	800.000	-0.011	0.039
-263.238	31.064	0.194	0.164
-262.224	-68.989	0.316	-0.120
-261.209	20.055	0.237	-0.188
-260.195	-200.000	0.015	-0.147
-259.180	-200.000	-0.030	-0.148
-258.165	800.000	0.062	0.218
-257.151	-66.535	0.036	0.014
-256.136	54.149	-0.136	0.128
-255.122	309.184	-0.096	0.177
-254.107	428.962	0.052	0.110
-253.092	555.659	-0.083	0.196
-252.078	408.872	-0.170	0.353
-251.063	287.550	0.026	0.046
-250.049	-200.000	-0.041	-0.179
-249.034	180.310	-0.222	-0.321
-248.019	800.000	0.095	-0.333
-247.005	619.395	-0.103	0.255
-245.990	-200.000	-0.017	-0.272
-244.976	-200.000	0.030	0.159
-243.961	-117.583	0.527	0.094
-242.946	-129.675	-0.183	-0.025
-241.932	53.922	-0.075	-0.070
-240.917	-49.480	-0.101	-0.047
-239.903	-200.000	0.152	0.703
-238.888	169.108	0.122	0.171
-237.873	-200.000	0.002	-0.104
-236.859	-200.000	0.002	-0.061
-235.844	46.192	-0.214	-0.195
-234.830	19.808	-0.165	0.131
-233.815	86.744	0.165	-0.179
-232.800	-200.000	0.003	0.145
-231.786	0.443	-0.490	0.344
-230.771	88.772	0.043	0.047
-229.757	300.057	0.044	0.080
-228.742	126.535	0.084	0.104
-227.727	-171.855	0.124	0.004
-226.713	-102.319	0.161	0.038
-225.698	-45.349	-0.461	-0.225
-224.684	-200.000	-0.038	-0.260
-223.669	-200.000	0.080	-0.481
-222.655	59.354	-0.191	0.185
-221.640	-200.000	0.016	-0.277
-220.625	-121.344	0.291	-0.048
-219.611	-200.000	-0.050	0.295
-218.596	800.000	-0.121	-0.403
-217.582	699.561	-0.042	-0.109
-216.567	-126.535	0.332	0.048
-215.552	-152.415	-0.250	-0.018
-214.538	330.524	0.142	0.268
-213.523	800.000	-0.143	0.388
-212.509	-50.123	-0.259	0.120
-211.494	107.017	0.103	-0.120
-210.479	666.451	-0.113	0.286
-209.465	-88.117	-0.127	0.037
-208.450	-200.000	0.299	-0.000
-207.436	84.804	0.220	-0.236
-206.421	-164.190	-0.090	0.004
-205.406	-110.892	-0.218	-0.044
-204.392	33.057	0.277	-0.236
-203.377	744.310	-0.067	0.176
-202.363	16.262	0.177	-0.137
-201.348	-53.703	0.200	-0.090
-200.333	800.000	-0.070	0.217
-199.319	756.084	0.163	0.433
-198.304	-69.727	-0.186	-0.070
-197.290	-200.000	0.035	0.241
-196.275	-104.208	0.250	-0.057
-195.260	238.272	-0.122	-0.199
-194.246	-99.169	-0.374	0.093
-193.231	-13.591	-0.232	0.147
-192.217	800.000	-0.043	-0.178
-191.202	299.262	-0.164	-0.297
-190.187	111.976	0.171	0.203
-189.173	133.669	0.139	-0.176
-188.158	-200.000	0.003	0.019
-187.144	-117.521	-0.046	-0.008
-186.129	590.770	0.060	0.144
-185.114	-65.260	0.082	0.033
-184.100	376.591	0.136	0.272
-183.085	-68.341	-0.402	-0.153
-182.071	97.499	0.087	0.098
-181.056	800.000	-0.047	-0.153
-180.042	-137.535	0.386	0.043
-179.027	-115.400	0.200	-0.037
-178.012	-119.624	0.384	-0.065
-176.998	185.112	-0.068	0.100
-175.983	-9.552	-0.229	-0.150
-174.969	103.487	-0.117	-0.135
-173.954	-154.233	0.440	0.029
-172.939	-100.489	-0.311	0.075
-171.925	800.000	0.041	-0.125
-170.910	446.755	0.090	-0.194
-169.896	39.618	-0.155	-0.136
-168.881	139.728	0.120	-0.155
-167.866	470.823	0.108	0.239
-166.852	53.635	0.125	-0.117
-165.837	244.414	0.191	0.314
-164.823	-136.323	0.324	-0.037
-163.808	181.147	0.187	-0.270
-162.793	-48.855	0.289	-0.136
-161.779	-89.859	-0.231	0.066
-160.764	-100.357	0.158	-0.038
-159.750	111.621	0.112	0.132
-158.735	137.640	0.125	0.161
-157.720	-200.000	-0.013	-0.087
-156.706	68.436	0.080	-0.081
-155.691	28.413	-0.163	-0.135
-154.677	356.849	-0.094	0.184
-153.662	-200.000	0.045	-0.217
-152.647	-60.499	0.158	-0.066
-151.633	63.396	-0.147	0.144
-150.618	-123.167	-0.095	-0.015
-149.604	-83.487	0.212	0.067
-148.589	-57.479	-0.289	-0.124
-147.574	-19.565	0.431	-0.261
-146.560	419.003	0.037	0.078
-145.545	522.949	0.132	-0.303
-144.531	800.000	-0.049	0.209
-143.516	-21.019	0.155	-0.093
-142.502	62.240	0.056	-0.054
-141.487	237.845	0.059	0.095
-140.472	468.282	-0.111	0.243
-139.458	69.457	-0.194	0.196
-138.443	235.118	0.028	0.046
-137.429	70.914	0.060	0.060
-136.414	141.532	0.100	0.129
-135.399	611.779	0.058	0.142
-134.385	105.880	-0.149	-0.172
-133.370	-13.772	0.216	0.137
-132.356	-197.377	0.240	0.001
-131.341	22.382	-0.196	0.157
-130.326	344.745	0.072	0.139
-129.312	-98.515	0.286	0.072
-128.297	342.192	0.151	0.289
-127.283	103.474	0.165	0.190
-126.268	61.694	0.090	-0.088
-125.253	-32.821	0.215	0.117
-124.239	123.477	0.106	0.130
-123.224	7.433	0.158	0.116
-122.210	-100.150	-0.366	0.089
-121.195	-200.000	-0.022	-0.229
-120.180	-16.994	-0.201	-0.124
