DTS Sentinel unit serial number:	SN413079Multiplexer serial number:	ORYXHardware model number:	OX4-SRSoftware version number:	ORYX F/W v4.00 Oryx Data Collector v3.7.2.0data status	okinstallation	princeton_trtdifferential loss correction	single-endedforward channel	channel 4reverse channel	N/Adate	2019/09/16time	03:21:34forward acquisition time	60.00reverse acquisition time	0.00gamma	496.2192k internal	0.2319k external	0.2319temperature offset calibration	0.9976default loss term (dB/km)	0.3790temperature slope calibration	1.0000multiplexer offset coefficient	1.0000multiplexer slope coefficient	1.0000fibre end	0.00T internal ref (°C)	27.69T ext. ref 1 (°C)	10.52T ext. ref 2 (°C)	21.82length (m)	temperature (°C)	Stokes	anti-Stokes-747.200	-200.000	0.053	0.456
-746.185	-71.718	-0.191	0.072
-745.171	570.237	0.079	-0.195
-744.156	-84.526	-0.068	0.022
-743.142	800.000	0.065	0.248
-742.127	149.585	-0.180	0.247
-741.112	-3.279	-0.356	-0.251
-740.098	-200.000	-0.009	0.363
-739.083	-40.199	-0.176	0.093
-738.069	-97.977	-0.172	0.045
-737.054	49.969	-0.261	0.249
-736.039	-110.431	-0.273	0.057
-735.025	-143.681	0.063	-0.006
-734.010	486.473	0.095	0.219
-732.996	-112.512	0.251	0.051
-731.981	-95.561	-0.382	0.104
-730.966	-200.000	0.024	0.134
-729.952	234.496	-0.138	0.230
-728.937	-91.513	-0.219	0.063
-727.923	-200.000	-0.017	-0.182
-726.908	-39.939	-0.159	0.084
-725.894	-200.000	-0.022	-0.242
-724.879	156.294	-0.181	-0.252
-723.864	-75.088	0.162	-0.059
-722.850	-16.890	0.152	0.097
-721.835	-200.000	0.016	0.139
-720.821	-81.888	-0.139	-0.046
-719.806	-49.788	-0.299	-0.143
-718.791	-200.000	-0.045	0.229
-717.777	-64.879	-0.131	-0.053
-716.762	474.326	-0.068	-0.156
-715.748	-99.804	-0.463	0.117
-714.733	3.917	-0.082	-0.061
-713.718	46.288	-0.226	0.212
-712.704	385.531	-0.072	-0.150
-711.689	-31.184	0.068	-0.039
-710.675	32.171	0.044	-0.038
-709.660	800.000	0.057	-0.217
-708.645	43.623	0.193	-0.178
-707.631	69.081	0.116	0.120
-706.616	687.393	-0.089	0.236
-705.602	181.048	0.081	-0.120
-704.587	-82.702	0.384	-0.125
-703.572	529.884	0.109	-0.261
-702.558	101.187	0.094	0.111
-701.543	800.000	-0.084	-0.345
-700.529	-200.000	-0.000	-0.180
-699.514	-63.220	0.067	0.028
-698.499	-34.744	-0.087	-0.048
-697.485	23.312	-0.347	-0.288
-696.470	-200.000	0.032	0.202
-695.456	-163.873	-0.051	0.002
-694.441	-121.712	-0.135	-0.022
-693.426	-104.609	-0.285	0.066
-692.412	-14.956	-0.112	0.073
-691.397	359.467	0.082	0.165
-690.383	-93.479	0.124	-0.035
-689.368	195.268	0.055	-0.084
-688.354	50.171	-0.059	-0.057
-687.339	-174.524	-0.145	0.004
-686.324	693.224	0.126	-0.334
-685.310	800.000	-0.092	-0.270
-684.295	290.606	-0.080	0.147
-683.281	-99.589	-0.214	0.054
-682.266	694.593	-0.039	-0.103
-681.251	-42.628	0.172	-0.089
-680.237	56.919	0.112	-0.110
-679.222	-200.000	0.127	-0.578
-678.208	595.346	0.084	-0.209
-677.193	800.000	-0.113	-0.417
-676.178	-135.113	-0.179	-0.022
-675.164	-69.478	-0.052	-0.020
-674.149	-71.382	0.191	-0.072
-673.135	800.000	0.076	0.234
-672.120	245.263	-0.025	0.042
-671.105	-5.933	0.254	0.175
-670.091	-180.609	-0.212	-0.004
-669.076	-200.000	-0.025	0.167
-668.062	-27.003	-0.182	0.107
-667.047	-81.815	-0.041	-0.013
-666.032	27.030	-0.061	0.051
-665.018	-82.209	-0.273	0.090
-664.003	-24.570	0.163	0.098
-662.989	-6.340	-0.453	0.311
-661.974	197.055	0.236	0.363
-660.959	247.906	-0.110	0.187
-659.945	122.464	-0.170	0.214
-658.930	-200.000	0.017	0.318
-657.916	800.000	0.074	-0.238
-656.901	-52.559	-0.283	0.132
-655.886	44.733	0.038	-0.035
-654.872	-129.304	-0.104	-0.015
-653.857	800.000	-0.093	-0.296
-652.843	-171.014	-0.262	-0.009
-651.828	-54.271	0.141	-0.065
-650.814	-96.976	0.090	-0.024
-649.799	9.746	-0.239	0.183
-648.784	-200.000	0.044	0.229
-647.770	-125.213	0.096	-0.015
-646.755	-200.000	0.057	-0.415
-645.741	10.504	0.182	0.140
-644.726	800.000	0.119	0.374
-643.711	9.847	-0.042	0.032
-642.697	-28.934	-0.149	-0.086
-641.682	800.000	0.104	0.328
-640.668	-200.000	0.036	-0.484
-639.653	-200.000	0.010	-0.342
-638.638	-91.587	0.226	-0.065
-637.624	-200.000	0.092	0.548
-636.609	55.968	0.090	-0.088
-635.595	67.986	-0.160	0.164
-634.580	-200.000	-0.055	0.266
-633.565	-200.000	-0.049	0.340
-632.551	-167.560	0.150	-0.006
-631.536	-128.786	0.032	0.004
-630.522	2.136	0.219	0.160
-629.507	-41.679	0.134	-0.069
-628.492	800.000	0.067	-0.219
-627.478	294.622	-0.108	-0.200
-626.463	91.373	-0.123	0.140
-625.449	-25.623	0.092	0.055
-624.434	-135.684	-0.387	0.046
-623.419	-60.465	0.185	0.079
-622.405	-13.777	0.232	0.151
-621.390	-39.858	-0.138	-0.073
-620.376	-13.087	0.258	-0.169
-619.361	103.316	-0.095	-0.112
-618.346	69.384	-0.307	-0.318
-617.332	47.664	0.211	-0.198
-616.317	76.530	-0.294	0.314
-615.303	739.619	0.023	-0.063
-614.288	-183.296	0.205	0.004
-613.273	-89.057	0.112	0.033
-612.259	109.097	-0.106	-0.127
-611.244	238.035	-0.221	-0.369
-610.230	37.913	-0.125	-0.111
-609.215	-80.627	0.232	0.078
-608.201	-52.261	0.202	0.094
-607.186	-200.000	0.000	0.104
-606.171	436.002	0.036	-0.080
-605.157	-113.134	-0.162	-0.032
-604.142	-52.055	-0.091	-0.042
-603.128	145.493	-0.196	-0.265
-602.113	-141.638	-0.304	-0.031
-601.098	-200.000	-0.006	-0.242
-600.084	-200.000	0.002	-0.103
-599.069	-200.000	-0.283	0.000
-598.055	-200.000	0.018	-0.091
-597.040	317.001	0.024	-0.046
-596.025	-5.654	-0.255	-0.176
-595.011	393.936	-0.210	0.439
-593.996	82.091	0.080	0.088
-592.982	-64.106	-0.317	0.130
-591.967	224.109	-0.073	-0.119
-590.952	24.073	-0.077	-0.064
-589.938	800.000	0.043	0.176
-588.923	-200.000	0.053	0.273
-587.909	-17.990	-0.163	-0.103
-586.894	-200.000	0.011	-0.150
-585.879	15.439	-0.161	0.127
-584.865	157.845	0.174	-0.242
-583.850	248.393	0.146	-0.249
-582.836	-117.835	0.244	-0.044
-581.821	54.869	0.170	0.165
-580.806	-34.024	0.253	0.140
-579.792	554.679	0.163	-0.395
-578.777	-89.838	0.231	0.068
-577.763	-88.527	0.450	0.135
-576.748	-143.459	0.178	0.017
-575.733	-58.278	0.436	-0.191
-574.719	-180.065	0.183	0.004
-573.704	183.113	-0.046	-0.068
-572.690	-4.859	-0.225	0.156
-571.675	-139.345	0.281	-0.030
-570.661	-55.466	-0.237	-0.107
-569.646	800.000	-0.097	-0.280
-568.631	203.202	-0.113	0.176
-567.617	246.313	-0.033	-0.056
-566.602	-62.105	0.209	-0.088
-565.588	99.883	-0.377	0.438
-564.573	-200.000	-0.025	-0.185
-563.558	49.899	-0.243	-0.231
-562.544	-43.435	0.230	-0.116
-561.529	1.289	-0.257	-0.185
-560.515	118.311	0.158	0.195
-559.500	800.000	-0.085	0.366
-558.485	-200.000	-0.010	0.114
-557.471	-105.468	-0.365	0.083
-556.456	19.897	-0.151	-0.122
-555.442	74.811	-0.266	-0.281
-554.427	-126.818	0.082	0.012
-553.412	129.408	0.143	0.183
-552.398	295.289	-0.015	-0.027
-551.383	-104.732	-0.317	0.073
-550.369	-2.517	-0.064	0.045
-549.354	142.465	-0.161	-0.214
-548.339	-100.729	0.346	0.086
-547.325	-4.351	0.115	0.080
-546.310	-96.536	0.179	0.047
-545.296	800.000	0.068	-0.263
-544.281	109.239	-0.231	-0.278
-543.266	110.977	-0.186	-0.225
-542.252	-200.000	0.058	-0.611
-541.237	-97.959	-0.453	0.117
-540.223	-81.358	0.082	-0.027
-539.208	221.317	0.090	0.144
-538.193	-200.000	0.008	-0.539
-537.179	99.042	-0.157	-0.182
-536.164	94.840	0.225	-0.256
-535.150	242.809	0.096	0.161
-534.135	-132.382	-0.216	0.028
-533.121	-41.762	0.349	-0.180
-532.106	41.982	-0.254	-0.231
-531.091	12.867	0.162	0.125
-530.077	119.938	0.025	0.031
-529.062	79.533	-0.104	-0.111
-528.048	59.355	0.096	-0.095
-527.033	-200.000	0.022	-0.126
-526.018	-200.000	-0.004	0.227
-525.004	384.009	-0.134	-0.277
-523.989	-36.176	0.282	0.153
-522.975	160.061	-0.107	-0.150
-521.960	800.000	-0.073	-0.298
-520.945	-192.384	-0.246	-0.002
-519.931	249.350	-0.121	-0.206
-518.916	-41.116	-0.218	-0.113
-517.902	-42.402	-0.182	0.093
-516.887	-96.011	0.254	-0.068
-515.872	-18.593	-0.193	0.121
-514.858	33.473	-0.156	0.136
-513.843	-144.868	-0.145	-0.013
-512.829	-165.801	-0.335	-0.014
-511.814	-25.662	-0.231	0.137
-510.799	-200.000	-0.015	-0.093
-509.785	-200.000	0.019	0.086
-508.770	182.003	-0.257	-0.380
-507.756	-200.000	-0.032	-0.243
-506.741	-200.000	-0.005	0.108
-505.726	99.212	-0.276	-0.319
-504.712	147.647	0.176	0.237
-503.697	171.445	0.092	0.132
-502.683	284.309	0.031	0.055
-501.668	-200.000	0.069	0.304
-500.653	-200.000	-0.018	-0.243
-499.639	-200.000	0.057	-0.340
-498.624	-200.000	-0.008	-0.138
-497.610	332.996	-0.071	0.138
-496.595	-40.888	0.167	0.087
-495.581	-62.795	0.081	0.034
-494.566	132.075	-0.156	0.202
-493.551	-92.859	-0.117	-0.033
-492.537	-200.000	0.016	-0.378
-491.522	109.003	-0.114	-0.137
-490.508	-32.252	0.131	0.073
-489.493	-148.013	-0.176	-0.015
-488.478	78.190	-0.264	-0.282
-487.464	-168.311	0.283	-0.011
-486.449	104.623	-0.253	0.299
-485.435	-74.524	-0.221	-0.080
-484.420	800.000	0.101	0.315
-483.405	-131.489	0.420	0.055
-482.391	84.289	-0.080	0.087
-481.376	800.000	-0.100	0.359
-480.362	462.686	0.126	0.281
-479.347	-130.638	0.176	0.024
-478.332	94.727	0.178	0.202
-477.318	-200.000	0.010	-0.318
-476.303	-133.926	0.239	-0.030
-475.289	-200.000	-0.039	0.190
-474.274	-106.689	0.155	-0.034
-473.259	94.525	-0.186	-0.211
-472.245	76.377	0.226	0.239
-471.230	-103.703	0.285	0.067
-470.216	-200.000	0.034	0.238
-469.201	-142.418	0.076	0.007
-468.186	545.771	-0.139	-0.333
-467.172	416.128	-0.063	0.135
-466.157	-119.934	0.223	-0.038
-465.143	-83.467	-0.156	0.050
-464.128	-113.751	0.340	-0.066
-463.113	29.393	-0.125	0.106
-462.099	3.768	0.349	0.255
-461.084	165.969	-0.157	0.222
-460.070	-200.000	0.094	0.439
-459.055	25.724	-0.190	0.159
-458.040	120.658	-0.222	-0.276
-457.026	184.034	-0.131	0.195
-456.011	-200.000	-0.085	-0.465
-454.997	48.429	0.084	-0.078
-453.982	23.814	0.146	0.120
-452.968	-78.395	0.165	-0.056
-451.953	-41.601	0.185	-0.095
-450.938	35.342	-0.153	-0.134
-449.924	-200.000	0.002	-0.139
-448.909	94.591	-0.176	0.200
-447.895	-200.000	0.020	-0.208
-446.880	-200.000	0.018	0.223
-445.865	-200.000	0.011	-0.115
-444.851	-35.254	0.123	-0.067
-443.836	-200.000	0.014	0.152
-442.822	140.642	0.116	-0.154
-441.807	-115.403	-0.298	0.056
-440.792	-200.000	-0.001	-0.099
-439.778	-4.956	-0.161	0.111
-438.763	-129.149	-0.295	-0.041
-437.749	-200.000	-0.023	-0.145
-436.734	146.800	0.113	0.152
-435.719	-200.000	-0.006	-0.156
-434.705	-39.225	-0.086	-0.045
-433.690	40.160	-0.163	-0.147
-432.676	-200.000	0.003	0.049
-431.661	800.000	0.059	0.166
-430.646	132.324	0.066	-0.084
-429.632	-200.000	-0.047	-0.208
-428.617	-139.289	-0.277	-0.030
-427.603	800.000	0.052	-0.164
-426.588	-200.000	0.008	0.323
-425.573	-200.000	0.004	-0.348
-424.559	-71.100	0.052	-0.020
-423.544	216.438	0.132	0.210
-422.530	-200.000	0.021	0.268
-421.515	-149.658	-0.263	-0.021
-420.500	-172.893	-0.190	-0.006
-419.486	800.000	0.105	-0.300
-418.471	-200.000	0.004	0.145
-417.457	-200.000	0.063	0.278
-416.442	-108.472	0.242	0.052
-415.428	-42.407	0.143	0.073
-414.413	-25.942	0.238	0.140
-413.398	-200.000	-0.013	-0.272
-412.384	-119.876	0.266	-0.046
-411.369	-60.392	-0.296	0.126
-410.355	-69.710	-0.085	-0.032
-409.340	-106.477	0.251	-0.056
-408.325	-52.581	-0.160	0.074
-407.311	-32.891	0.013	-0.007
-406.296	-97.715	0.307	-0.079
-405.282	275.672	0.035	-0.062
-404.267	-200.000	-0.016	0.190
-403.252	-200.000	0.008	0.259
-402.238	-25.430	0.056	0.033
-401.223	631.780	0.123	0.311
-400.209	-30.140	0.148	0.084
-399.194	336.856	0.085	-0.165
-398.179	-64.688	-0.109	-0.044
-397.165	-200.000	0.044	0.467
-396.150	-54.240	-0.361	-0.163
-395.136	62.541	0.142	-0.141
-394.121	-131.263	-0.203	0.027
-393.106	199.802	0.100	-0.153
-392.092	-167.758	-0.225	-0.009
-391.077	-101.617	-0.281	-0.068
-390.063	-126.898	0.060	-0.009
-389.048	37.263	-0.255	0.225
-388.033	-200.000	-0.006	-0.032
-387.019	-200.000	-0.016	-0.095
-386.004	-170.548	-0.121	0.004
-384.990	-137.391	0.274	-0.031
-383.975	-92.069	0.262	-0.074
-382.960	-34.186	-0.049	-0.027
-381.946	256.760	0.108	-0.184
-380.931	117.977	-0.192	-0.236
-379.917	-200.000	0.014	0.204
-378.902	18.292	-0.248	0.197
-377.888	-177.025	0.146	-0.004
-376.873	800.000	0.046	-0.160
-375.858	514.946	-0.108	0.251
-374.844	13.608	0.218	0.169
-373.829	-111.591	-0.216	-0.044
-372.815	-104.416	-0.426	-0.098
-371.800	800.000	0.059	0.233
-370.785	-39.616	0.330	-0.172
-369.771	-2.789	-0.110	-0.077
-368.756	393.571	0.094	-0.195
-367.742	-200.000	-0.026	0.177
-366.727	-200.000	0.024	0.204
-365.712	56.887	0.235	0.229
-364.698	-143.658	0.322	0.030
-363.683	259.153	-0.224	-0.386
-362.669	-32.074	-0.425	0.237
-361.654	72.590	-0.082	0.085
-360.639	14.472	0.158	0.122
-359.625	-200.000	-0.003	0.384
-358.610	-67.315	-0.161	-0.063
-357.596	800.000	-0.095	-0.389
-356.581	95.056	0.059	0.067
-355.566	65.456	0.276	-0.279
-354.552	-186.209	0.733	-0.011
-353.537	83.014	0.182	0.197
-352.523	115.555	0.223	0.271
-351.508	-187.319	-0.135	0.002
-350.493	95.726	0.170	-0.194
-349.479	-200.000	-0.005	-0.121
-348.464	-87.046	-0.086	-0.026
-347.450	274.464	0.072	-0.126
-346.435	6.553	-0.272	0.201
-345.420	800.000	-0.045	0.144
-344.406	-200.000	-0.008	0.084
-343.391	-43.301	0.261	0.132
-342.377	-80.970	-0.395	0.130
-341.362	-11.254	0.193	-0.127
-340.348	-96.269	-0.249	-0.066
-339.333	213.119	0.120	0.189
-338.318	-71.731	0.174	-0.064
-337.304	-168.629	0.207	-0.008
-336.289	800.000	0.134	0.440
-335.275	-200.000	0.006	-0.117
-334.260	48.263	-0.072	0.067
-333.245	800.000	-0.064	-0.215
-332.231	358.498	-0.265	0.528
-331.216	-112.423	-0.226	-0.045
-330.202	-200.000	0.050	-0.283
-329.187	-62.668	0.041	0.017
-328.172	398.704	0.054	-0.113
-327.158	-142.449	0.381	0.037
-326.143	28.954	0.123	-0.104
-325.129	800.000	0.008	0.027
-324.114	0.979	0.077	0.055
-323.099	800.000	0.073	0.314
-322.085	199.787	-0.037	0.057
-321.070	490.277	-0.062	-0.142
-320.056	351.054	0.162	-0.319
-319.041	-170.301	-0.107	0.004
-318.026	103.052	-0.148	-0.172
-317.012	-28.499	-0.052	-0.030
-315.997	485.113	0.052	0.118
-314.983	-109.452	-0.253	0.053
-313.968	594.361	0.101	0.248
-312.953	90.715	-0.323	-0.360
-311.939	209.550	0.098	0.153
-310.924	-200.000	0.056	0.456
-309.910	144.371	0.302	-0.401
-308.895	-200.000	0.010	0.461
-307.880	-1.553	-0.187	0.131
-306.866	109.105	-0.124	0.148
-305.851	-118.984	-0.226	0.039
-304.837	-74.131	-0.243	0.088
-303.822	-16.239	-0.131	-0.083
-302.807	-9.821	-0.070	-0.046
-301.793	-108.197	-0.224	-0.048
-300.778	130.615	0.074	-0.094
-299.764	-200.000	-0.055	0.337
-298.749	-200.000	0.032	-0.194
-297.735	-48.334	0.171	-0.082
-296.720	2.377	-0.166	0.120
-295.705	6.630	0.058	-0.043
-294.691	-24.473	0.320	0.189
-293.676	289.891	-0.045	0.081
-292.662	420.776	0.090	-0.191
-291.647	-200.000	0.009	-0.047
-290.632	800.000	-0.039	0.118
-289.618	-87.860	0.198	0.059
-288.603	177.554	0.181	0.263
-287.589	-200.000	-0.047	0.215
-286.574	-200.000	-0.003	0.193
-285.559	-200.000	0.025	0.142
-284.545	-43.198	0.173	0.087
-283.530	-109.984	0.094	0.019
-282.516	146.538	-0.205	-0.274
-281.501	800.000	0.099	-0.282
-280.486	-49.435	0.320	-0.152
-279.472	-200.000	0.078	0.351
-278.457	-97.653	-0.137	0.035
-277.443	213.076	0.058	-0.091
-276.428	125.171	0.212	-0.266
-275.413	-142.738	-0.307	0.030
-274.399	-105.434	-0.188	-0.042
-273.384	383.817	-0.095	0.194
-272.370	-200.000	0.018	-0.163
-271.355	-149.485	0.084	-0.007
-270.340	-106.329	-0.188	0.042
-269.326	800.000	-0.094	0.358
-268.311	-89.001	-0.255	0.075
-267.297	-146.330	0.252	-0.022
-266.282	-113.733	0.186	-0.036
-265.267	-191.199	-0.208	0.002
-264.253	79.533	0.287	-0.306
-263.238	115.861	0.126	-0.153
-262.224	-200.000	-0.049	-0.293
-261.209	-200.000	-0.078	0.364
-260.195	54.815	-0.148	0.142
-259.180	-200.000	-0.003	0.016
-258.165	800.000	-0.116	0.337
-257.151	-73.127	-0.199	0.072
-256.136	647.073	0.067	0.169
-255.122	-112.840	-0.038	-0.008
-254.107	-139.321	-0.210	0.022
-253.092	359.750	-0.104	0.205
-252.078	-87.515	-0.247	0.074
-251.063	-49.208	0.118	-0.056
-250.049	261.492	0.054	0.093
-249.034	-72.009	0.147	-0.054
-248.019	800.000	-0.042	-0.160
-247.005	-200.000	0.007	-0.119
-245.990	130.331	0.188	-0.239
-244.976	800.000	-0.090	-0.309
-243.961	-200.000	-0.054	0.309
-242.946	-117.859	0.185	-0.033
-241.932	68.304	0.146	0.148
-240.917	539.345	0.042	-0.099
-239.903	-78.825	0.017	-0.006
-238.888	303.526	-0.094	-0.173
-237.873	-200.000	-0.009	-0.202
-236.859	30.763	0.224	0.190
-235.844	764.389	-0.107	-0.287
-234.830	32.577	-0.200	0.172
-233.815	8.243	-0.199	-0.148
-232.800	-155.588	0.143	0.009
-231.786	800.000	0.014	-0.051
-230.771	430.856	-0.028	-0.060
-229.757	-88.692	-0.224	-0.066
-228.742	234.070	-0.065	-0.106
-227.727	-200.000	0.023	0.122
-226.713	-44.741	-0.232	0.115
-225.698	299.390	-0.071	-0.129
-224.684	-114.049	0.130	-0.025
-223.669	800.000	0.085	-0.243
-222.655	-73.725	0.221	-0.080
-221.640	207.376	0.214	-0.331
-220.625	30.134	-0.203	0.171
-219.611	-13.560	-0.206	-0.132
-218.596	80.500	-0.124	-0.132
-217.582	-94.903	0.345	-0.093
-216.567	-8.304	-0.204	-0.136
-215.552	-200.000	-0.077	-0.000
-214.538	-5.558	-0.223	0.151
-213.523	316.292	-0.079	-0.148
-212.509	-122.986	-0.154	0.025
-211.494	-155.573	0.102	-0.006
-210.479	-92.129	-0.180	-0.050
-209.465	-77.920	0.087	-0.030
-208.450	-200.000	0.053	-0.421
-207.436	-200.000	0.016	-0.127
-206.421	34.258	0.252	0.217
-205.406	-52.535	-0.086	-0.039
-204.392	595.380	-0.183	0.448
-203.377	126.469	-0.087	-0.109
-202.363	-200.000	0.020	0.093
-201.348	-54.893	-0.264	0.118
-200.333	-200.000	0.019	-0.250
-199.319	-67.838	0.229	0.089
-198.304	-39.582	-0.056	-0.029
-197.290	-200.000	-0.017	0.357
-196.275	-1.146	-0.315	0.220
-195.260	235.463	0.115	-0.187
-194.246	23.862	-0.219	0.179
-193.231	125.747	0.308	-0.385
-192.217	-200.000	-0.006	0.110
-191.202	32.481	0.240	0.205
-190.187	-4.587	-0.112	-0.076
-189.173	-15.018	-0.284	0.180
-188.158	-156.847	0.235	0.014
-187.144	106.184	-0.083	-0.097
-186.129	-200.000	-0.005	0.086
-185.114	-17.123	0.299	0.187
-184.100	361.228	0.130	0.258
-183.085	800.000	0.077	0.230
-182.071	-132.042	0.389	0.050
-181.056	653.889	-0.015	-0.038
-180.042	47.085	-0.125	0.115
-179.027	546.366	-0.046	-0.109
-178.012	800.000	-0.093	-0.267
-176.998	-54.725	0.101	0.045
-175.983	160.563	0.108	-0.148
-174.969	50.741	-0.077	-0.072
-173.954	82.929	0.131	0.141
-172.939	199.326	0.197	0.299
-171.925	41.755	0.185	0.166
-170.910	-3.656	0.172	-0.119
-169.896	-63.102	0.026	-0.011
-168.881	450.913	0.026	-0.058
-167.866	-200.000	-0.007	0.163
-166.852	-200.000	-0.021	-0.178
-165.837	-24.109	0.184	-0.109
-164.823	-200.000	-0.001	-0.285
-163.808	-126.992	0.261	-0.038
-162.793	272.468	0.164	0.285
-161.779	-200.000	-0.026	0.317
-160.764	46.191	-0.175	0.160
-159.750	148.664	-0.102	-0.137
-158.735	24.472	-0.133	0.109
-157.720	54.084	0.240	-0.229
-156.706	244.950	-0.095	0.157
-155.691	-99.175	0.191	0.048
-154.677	-104.173	-0.076	0.017
-153.662	-126.422	0.064	-0.009
-152.647	800.000	0.078	-0.296
-151.633	442.800	0.094	-0.203
-150.618	145.843	0.138	-0.183
-149.604	2.920	0.263	-0.189
-148.589	-68.169	0.305	0.117
-147.574	-151.420	-0.191	-0.014
-146.560	-72.943	0.143	0.052
-145.545	-82.744	-0.117	0.037
-144.531	-26.437	0.122	0.070
-143.516	153.464	0.198	-0.267
-142.502	-98.657	0.348	-0.088
-141.487	800.000	0.071	0.244
-140.472	113.730	0.070	-0.085
-139.458	-38.301	-0.261	-0.137
-138.443	149.105	0.069	-0.093
-137.429	13.405	0.099	0.076
-136.414	65.462	0.274	-0.274
-135.399	-163.223	0.207	0.010
-134.385	800.000	-0.227	-0.640
-133.370	-200.000	0.018	0.090
-132.356	800.000	0.056	-0.159
-131.341	508.231	-0.055	-0.126
-130.326	-200.000	-0.057	-0.341
-129.312	-111.655	0.071	-0.014
-128.297	-200.000	0.083	0.513
-127.283	104.591	0.040	0.046
-126.268	698.408	-0.088	0.229
-125.253	-56.780	-0.482	-0.210
-124.239	124.689	-0.165	0.205
-123.224	-49.954	-0.352	0.165
-122.210	70.770	-0.218	-0.223
