DTS Sentinel unit serial number:	SN413079Multiplexer serial number:	ORYXHardware model number:	OX4-SRSoftware version number:	ORYX F/W v4.00 Oryx Data Collector v3.7.2.0data status	okinstallation	princeton_trtdifferential loss correction	single-endedforward channel	channel 4reverse channel	N/Adate	2019/09/17time	04:37:35forward acquisition time	60.00reverse acquisition time	0.00gamma	496.2192k internal	0.2312k external	0.2312temperature offset calibration	0.9981default loss term (dB/km)	0.3790temperature slope calibration	1.0000multiplexer offset coefficient	1.0000multiplexer slope coefficient	1.0000fibre end	0.00T internal ref (°C)	29.64T ext. ref 1 (°C)	0.14T ext. ref 2 (°C)	24.08length (m)	temperature (°C)	Stokes	anti-Stokes-747.200	63.553	0.072	0.074
-746.185	48.456	0.196	0.186
-745.171	-7.252	0.014	-0.010
-744.156	540.335	0.081	0.196
-743.142	-25.795	-0.357	0.213
-742.127	664.037	-0.108	0.282
-741.112	-141.601	0.374	-0.038
-740.098	-7.639	-0.198	0.136
-739.083	-169.074	0.462	0.017
-738.069	13.115	-0.293	0.230
-737.054	800.000	0.038	0.151
-736.039	-160.626	-0.108	0.006
-735.025	-200.000	-0.049	0.269
-734.010	-24.118	-0.349	-0.212
-732.996	-52.195	0.114	-0.053
-731.981	88.009	-0.134	0.151
-730.966	-96.396	-0.228	-0.061
-729.952	127.778	-0.220	-0.284
-728.937	160.159	-0.017	-0.024
-727.923	800.000	-0.146	-0.562
-726.908	154.930	0.030	0.041
-725.894	23.165	0.196	0.163
-724.879	60.842	-0.274	0.276
-723.864	643.196	-0.101	-0.261
-722.850	-60.923	-0.069	0.030
-721.835	-108.527	-0.245	-0.053
-720.821	-97.529	-0.191	0.050
-719.806	-5.184	-0.168	0.117
-718.791	-75.481	0.081	-0.029
-717.777	-200.000	-0.015	-0.097
-716.762	-50.724	0.221	0.106
-715.748	-49.500	0.379	0.183
-714.733	137.874	-0.192	-0.256
-713.718	93.927	-0.121	-0.140
-712.704	-43.838	0.246	-0.126
-711.689	52.842	-0.037	-0.036
-710.675	328.490	-0.077	0.150
-709.660	-56.283	0.136	-0.061
-708.645	124.613	-0.103	-0.131
-707.631	210.799	0.095	0.151
-706.616	-127.431	-0.201	-0.030
-705.602	573.462	0.020	0.050
-704.587	151.899	-0.037	0.051
-703.572	653.137	0.083	-0.216
-702.558	800.000	0.051	-0.172
-701.543	-70.854	0.215	0.082
-700.529	787.346	0.094	-0.260
-699.514	-82.819	-0.294	0.096
-698.499	203.598	0.087	0.137
-697.485	-86.945	0.150	0.046
-696.470	-14.157	0.196	0.128
-695.456	-36.834	-0.314	-0.171
-694.441	24.075	0.220	0.184
-693.426	-86.203	0.080	0.025
-692.412	-16.508	0.169	0.109
-691.397	-120.553	-0.306	0.053
-690.383	244.571	0.078	-0.133
-689.368	-16.844	0.256	-0.164
-688.354	-13.747	0.329	0.215
-687.339	-155.409	-0.116	-0.008
-686.324	800.000	0.065	-0.199
-685.310	-25.247	0.242	-0.145
-684.295	425.265	-0.048	0.104
-683.281	62.091	0.165	-0.167
-682.266	-94.874	0.135	-0.037
-681.251	-41.621	-0.172	-0.089
-680.237	800.000	0.041	-0.158
-679.222	-200.000	0.022	-0.482
-678.208	-27.792	-0.208	-0.122
-677.193	-77.506	0.019	0.007
-676.178	178.585	-0.177	-0.262
-675.164	-118.898	0.416	-0.074
-674.149	-200.000	0.002	-0.466
-673.135	146.421	0.194	0.264
-672.120	-49.274	0.063	-0.031
-671.105	-172.344	0.016	0.001
-670.091	-154.973	-0.283	-0.019
-669.076	133.680	0.131	0.171
-668.062	232.287	0.171	-0.285
-667.047	800.000	0.056	-0.212
-666.032	-56.700	0.348	0.156
-665.018	800.000	-0.061	0.171
-664.003	-117.925	0.199	-0.036
-662.989	-200.000	0.008	-0.063
-661.974	322.828	-0.106	0.205
-660.959	348.978	0.082	0.163
-659.945	-45.252	-0.426	0.214
-658.930	344.449	-0.018	-0.036
-657.916	-200.000	-0.002	-0.166
-656.901	23.170	-0.251	-0.208
-655.886	-200.000	0.009	-0.138
-654.872	-136.897	0.039	0.005
-653.857	22.900	0.121	-0.100
-652.843	5.452	-0.199	0.149
-651.828	-51.941	0.080	-0.038
-650.814	-200.000	0.013	0.173
-649.799	-35.520	-0.390	0.214
-648.784	-143.031	0.278	-0.027
-647.770	310.602	0.053	-0.100
-646.755	-81.369	0.402	-0.134
-645.741	-108.401	0.166	-0.036
-644.726	94.010	-0.109	-0.124
-643.711	-200.000	0.018	-0.321
-642.697	414.112	0.147	-0.316
-641.682	40.574	0.226	-0.206
-640.668	25.560	0.328	0.276
-639.653	155.810	0.093	0.129
-638.638	800.000	-0.081	0.278
-637.624	-103.538	0.302	-0.072
-636.609	-162.516	0.287	-0.014
-635.595	402.833	0.128	0.273
-634.580	-200.000	0.022	0.383
-633.565	-200.000	-0.019	0.113
-632.551	-200.000	0.039	-0.212
-631.536	290.531	0.012	0.023
-630.522	89.553	-0.159	0.179
-629.507	415.083	-0.158	0.339
-628.492	800.000	0.043	-0.163
-627.478	-41.432	0.143	-0.075
-626.463	-200.000	-0.043	-0.361
-625.449	-200.000	0.041	0.184
-624.434	608.119	0.117	0.295
-623.419	507.735	0.008	-0.019
-622.405	-83.754	0.156	0.050
-621.390	78.277	-0.298	0.322
-620.376	18.440	0.330	0.266
-619.361	-69.114	0.178	0.069
-618.346	7.249	0.024	-0.018
-617.332	207.257	-0.196	-0.309
-616.317	28.705	0.041	-0.035
-615.303	-105.091	0.143	0.033
-614.288	-27.641	0.405	-0.238
-613.273	-162.932	0.253	0.012
-612.259	30.804	-0.273	-0.236
-611.244	-50.262	-0.189	0.090
-610.230	-193.816	0.200	-0.002
-609.215	14.837	-0.186	-0.147
-608.201	-135.824	-0.471	-0.056
-607.186	-81.313	-0.223	0.074
-606.171	-200.000	-0.004	-0.110
-605.157	337.226	-0.038	0.074
-604.142	800.000	0.067	-0.202
-603.128	-11.570	-0.316	-0.210
-602.113	-30.649	-0.212	-0.121
-601.098	-200.000	0.015	0.083
-600.084	-200.000	-0.004	-0.114
-599.069	-200.000	-0.055	0.420
-598.055	-6.681	-0.091	-0.063
-597.040	800.000	0.109	-0.462
-596.025	-119.013	-0.176	-0.031
-595.011	-200.000	-0.071	-0.389
-593.996	-148.288	-0.053	0.004
-592.982	-200.000	0.048	-0.266
-591.967	602.954	-0.161	0.404
-590.952	-200.000	0.005	-0.236
-589.938	-200.000	0.008	-0.071
-588.923	265.098	-0.162	-0.285
-587.909	-101.605	0.485	-0.119
-586.894	70.674	-0.266	0.278
-585.879	-200.000	-0.083	0.371
-584.865	169.658	-0.085	-0.122
-583.850	-200.000	0.030	0.158
-582.836	291.276	-0.099	-0.181
-581.821	-36.752	-0.075	0.040
-580.806	800.000	-0.046	-0.180
-579.792	487.797	-0.087	-0.200
-578.777	-200.000	0.059	-0.287
-577.763	273.803	0.153	-0.272
-576.748	-94.069	0.173	-0.048
-575.733	-200.000	0.003	0.013
-574.719	55.686	0.252	-0.246
-573.704	7.043	-0.237	-0.178
-572.690	-31.424	-0.156	0.089
-571.675	186.202	0.060	-0.089
-570.661	-71.479	0.276	-0.104
-569.646	-154.729	-0.247	-0.017
-568.631	-134.645	0.203	0.025
-567.617	-131.925	-0.045	-0.006
-566.602	600.316	0.074	-0.185
-565.588	-200.000	0.007	-0.132
-564.573	-109.812	0.108	0.023
-563.558	-200.000	-0.018	-0.353
-562.544	800.000	-0.019	-0.080
-561.529	-65.791	-0.126	-0.051
-560.515	22.676	0.005	0.004
-559.500	-120.378	0.196	0.034
-558.485	-174.133	0.409	-0.012
-557.471	-155.420	-0.106	0.007
-556.456	-67.675	0.184	-0.073
-555.442	76.761	-0.029	0.031
-554.427	800.000	-0.064	-0.179
-553.412	78.813	0.190	0.205
-552.398	800.000	0.109	0.343
-551.383	-78.938	-0.334	-0.114
-550.369	-147.125	0.255	0.022
-549.354	-13.152	0.158	-0.103
-548.339	131.998	-0.213	0.276
-547.325	51.816	0.069	0.066
-546.310	-200.000	-0.030	-0.196
-545.296	-200.000	-0.054	-0.307
-544.281	56.753	0.120	0.118
-543.266	-200.000	-0.038	0.365
-542.252	-82.634	-0.087	-0.028
-541.237	-200.000	-0.011	0.258
-540.223	473.636	0.114	-0.258
-539.208	378.635	-0.099	-0.203
-538.193	-146.064	-0.143	0.013
-537.179	800.000	0.087	0.251
-536.164	-200.000	0.005	0.084
-535.150	800.000	-0.055	0.183
-534.135	13.267	0.298	0.232
-533.121	-85.314	0.292	-0.092
-532.106	-200.000	0.011	-0.246
-531.091	18.442	-0.247	-0.199
-530.077	-140.132	-0.476	0.050
-529.062	66.676	-0.127	0.130
-528.048	-96.861	0.249	-0.066
-527.033	-200.000	-0.037	0.191
-526.018	137.982	0.248	0.326
-525.004	-200.000	-0.007	0.165
-523.989	-10.238	0.339	-0.227
-522.975	-172.471	-0.067	-0.002
-521.960	-200.000	-0.033	0.174
-520.945	658.171	0.071	0.185
-519.931	800.000	0.080	0.232
-518.916	266.518	0.123	0.216
-517.902	-14.303	-0.303	0.197
-516.887	-200.000	-0.012	-0.466
-515.872	800.000	-0.046	0.158
-514.858	-8.392	0.235	-0.159
-513.843	-26.738	-0.256	-0.151
-512.829	800.000	-0.061	-0.177
-511.814	152.635	0.160	-0.219
-510.799	-24.386	0.153	0.092
-509.785	-73.535	-0.155	0.057
-508.770	110.879	0.037	0.045
-507.756	-200.000	0.033	-0.148
-506.741	-8.687	-0.320	-0.216
-505.726	32.593	0.087	-0.075
-504.712	-122.315	-0.206	0.034
-503.697	235.760	0.141	0.235
-502.683	-38.609	-0.105	0.056
-501.668	-53.477	0.084	-0.039
-500.653	39.802	0.187	-0.168
-499.639	2.130	0.308	-0.223
-498.624	-171.105	0.277	0.009
-497.610	609.206	0.079	0.197
-496.595	118.042	0.074	0.092
-495.581	-200.000	0.007	-0.181
-494.566	28.929	0.145	0.124
-493.551	-131.938	-0.476	0.062
-492.537	154.795	-0.106	-0.146
-491.522	-90.127	-0.120	0.035
-490.508	344.777	-0.005	0.009
-489.493	-40.401	0.237	-0.124
-488.478	-25.750	0.066	-0.039
-487.464	263.268	-0.150	-0.262
-486.449	-104.936	-0.298	-0.069
-485.435	49.716	-0.103	-0.097
-484.420	800.000	-0.028	-0.089
-483.405	-200.000	-0.054	0.345
-482.391	-97.406	-0.220	0.058
-481.376	-183.318	-0.365	-0.006
-480.362	-78.736	0.129	-0.044
-479.347	800.000	-0.027	0.110
-478.332	20.315	-0.160	0.130
-477.318	-52.747	0.332	-0.154
-476.303	-200.000	0.007	-0.465
-475.289	-80.802	-0.380	0.127
-474.274	125.832	-0.100	0.127
-473.259	93.153	-0.056	-0.063
-472.245	-64.206	-0.157	-0.064
-471.230	-41.766	0.121	0.062
-470.216	777.555	-0.198	0.543
-469.201	-6.711	0.133	-0.091
-468.186	471.284	-0.040	0.089
-467.172	-200.000	0.008	-0.122
-466.157	-113.897	-0.159	0.031
-465.143	-138.512	0.282	0.031
-464.128	-111.818	-0.518	-0.105
-463.113	446.001	-0.104	0.229
-462.099	800.000	-0.043	0.140
-461.084	139.547	0.212	0.280
-460.070	148.064	0.087	-0.118
-459.055	-96.106	-0.180	0.048
-458.040	362.434	-0.043	-0.086
-457.026	800.000	-0.040	0.122
-456.011	-68.581	-0.361	0.140
-454.997	-200.000	0.001	-0.115
-453.982	686.608	-0.059	0.155
-452.968	-58.506	0.301	-0.131
-451.953	-200.000	0.006	-0.301
-450.938	800.000	-0.049	-0.177
-449.924	34.771	0.149	0.131
-448.909	1.586	0.182	0.131
-447.895	-95.136	-0.077	0.021
-446.880	-50.251	0.064	0.030
-445.865	-126.714	-0.147	-0.022
-444.851	-200.000	-0.013	-0.345
-443.836	-200.000	0.019	-0.261
-442.822	125.716	0.199	0.252
-441.807	459.365	-0.072	-0.160
-440.792	-120.055	-0.156	-0.027
-439.778	76.674	0.167	-0.178
-438.763	-69.442	0.213	-0.082
-437.749	-88.902	-0.068	0.020
-436.734	-75.776	0.038	-0.013
-435.719	800.000	-0.005	-0.022
-434.705	-21.174	-0.300	0.184
-433.690	-127.697	0.088	-0.013
-432.676	292.284	0.137	-0.250
-431.661	193.695	-0.036	0.054
-430.646	-21.138	-0.343	-0.211
-429.632	800.000	0.034	-0.096
-428.617	428.214	-0.097	-0.210
-427.603	-5.269	-0.125	0.086
-426.588	-200.000	-0.008	0.035
-425.573	-152.943	0.223	-0.016
-424.559	71.468	0.178	-0.185
-423.544	800.000	0.084	0.246
-422.530	517.668	-0.060	-0.140
-421.515	82.814	0.137	0.150
-420.500	39.610	-0.194	-0.175
-419.486	-3.767	-0.276	-0.192
-418.471	54.715	0.057	0.055
-417.457	-200.000	0.021	-0.278
-416.442	139.874	0.131	0.172
-415.428	800.000	0.028	-0.096
-414.413	118.227	0.200	0.248
-413.398	431.236	0.057	-0.123
-412.384	-193.791	0.154	0.001
-411.369	226.970	0.184	-0.299
-410.355	800.000	-0.017	0.062
-409.340	707.400	-0.064	0.170
-408.325	-200.000	-0.063	-0.400
-407.311	56.277	-0.086	-0.084
-406.296	109.487	-0.079	-0.095
-405.282	433.286	-0.180	0.392
-404.267	-200.000	0.018	0.374
-403.252	87.431	-0.031	-0.034
-402.238	-169.641	0.126	0.005
-401.223	531.316	0.053	-0.126
-400.209	-192.772	0.214	-0.002
-399.194	-10.583	0.206	0.137
-398.179	-107.085	0.222	0.049
-397.165	-200.000	-0.039	-0.211
-396.150	0.695	0.091	-0.065
-395.136	-116.113	0.088	0.016
-394.121	104.307	0.120	0.141
-393.106	643.493	-0.122	0.310
-392.092	-125.506	0.077	0.012
-391.077	87.746	-0.145	-0.160
-390.063	-40.812	0.138	0.072
-389.048	-97.973	0.267	0.069
-388.033	-36.397	-0.483	-0.260
-387.019	28.367	-0.148	-0.125
-386.004	145.519	0.063	-0.084
-384.990	31.604	-0.065	0.056
-383.975	-200.000	0.011	0.255
-382.960	-61.377	-0.146	-0.061
-381.946	-73.589	0.160	0.058
-380.931	800.000	0.097	0.414
-379.917	800.000	0.008	0.027
-378.902	549.809	-0.082	-0.196
-377.888	-200.000	-0.019	0.244
-376.873	-45.439	0.248	0.123
-375.858	267.331	0.022	-0.039
-374.844	-167.556	-0.288	0.011
-373.829	-200.000	-0.031	-0.216
-372.815	422.396	-0.133	-0.286
-371.800	500.952	0.052	-0.120
-370.785	-89.372	0.167	0.049
-369.771	-3.245	0.121	-0.084
-368.756	800.000	0.065	0.217
-367.742	-200.000	0.030	0.245
-366.727	201.613	0.218	0.337
-365.712	-28.919	-0.167	0.096
-364.698	-18.088	0.196	-0.123
-363.683	-145.582	-0.224	-0.020
-362.669	-200.000	-0.014	0.250
-361.654	800.000	-0.101	-0.327
-360.639	459.707	0.023	0.051
-359.625	101.946	-0.114	-0.133
-358.610	-91.281	0.100	-0.029
-357.596	-36.534	-0.226	0.121
-356.581	800.000	-0.138	0.426
-355.566	-200.000	-0.041	0.216
-354.552	114.407	0.157	-0.191
-353.537	-161.040	-0.224	-0.012
-352.523	495.023	0.057	-0.131
-351.508	-15.777	-0.161	0.103
-350.493	-23.230	-0.165	-0.099
-349.479	79.583	-0.169	0.181
-348.464	-40.292	-0.145	-0.076
-347.450	-92.855	-0.200	0.056
-346.435	-69.541	-0.092	-0.035
-345.420	-107.362	-0.170	0.037
-344.406	-163.437	0.279	-0.013
-343.391	800.000	-0.113	0.399
-342.377	800.000	-0.142	-0.509
-341.362	-68.998	0.116	0.045
-340.348	-200.000	0.006	0.079
-339.333	32.010	-0.259	-0.223
-338.318	296.988	0.264	0.483
-337.304	734.331	0.118	-0.315
-336.289	-200.000	0.015	0.087
-335.275	800.000	0.003	0.012
-334.260	-126.985	0.301	0.044
-333.245	-91.475	0.112	0.032
-332.231	-66.079	-0.182	-0.072
-331.216	297.959	-0.159	0.292
-330.202	-200.000	-0.050	0.339
-329.187	603.398	0.201	-0.500
-328.172	41.850	0.174	-0.158
-327.158	140.263	0.203	-0.267
-326.143	70.526	-0.294	0.304
-325.129	-147.645	-0.349	0.029
-324.114	-200.000	-0.004	0.168
-323.099	-200.000	-0.076	-0.631
-322.085	-71.850	0.216	-0.080
-321.070	45.122	0.216	0.199
-320.056	-111.105	-0.292	-0.060
-319.041	135.055	-0.088	0.114
-318.026	40.673	0.252	0.226
-317.012	130.521	-0.020	0.025
-315.997	-26.467	-0.282	-0.165
-314.983	-122.519	-0.094	-0.015
-313.968	-200.000	-0.016	0.104
-312.953	84.456	-0.336	0.367
-311.939	295.648	0.032	-0.058
-310.924	-60.657	0.181	0.077
-309.910	-76.240	-0.122	-0.043
-308.895	-200.000	0.047	-0.270
-307.880	11.175	0.134	0.102
-306.866	-133.029	-0.409	-0.052
-305.851	-200.000	-0.015	-0.357
-304.837	100.713	0.331	0.383
-303.822	154.474	0.172	0.236
-302.807	-59.665	0.123	0.053
-301.793	370.498	-0.076	0.154
-300.778	800.000	-0.077	-0.223
-299.764	-200.000	0.001	-0.008
-298.749	-200.000	-0.022	0.549
-297.735	-46.759	-0.176	0.086
-296.720	-156.311	-0.350	0.022
-295.705	132.540	0.059	0.076
-294.691	74.002	0.185	-0.193
-293.676	800.000	-0.094	-0.290
-292.662	-69.879	-0.214	0.081
-291.647	184.140	-0.396	0.584
-290.632	-47.286	-0.337	-0.163
-289.618	15.592	0.026	-0.021
-288.603	-65.317	0.041	-0.016
-287.589	-94.772	0.196	0.053
-286.574	-143.520	0.181	0.017
-285.559	-66.660	-0.371	-0.147
-284.545	-200.000	-0.007	0.244
-283.530	-119.593	0.136	-0.023
-282.516	800.000	-0.047	-0.192
-281.501	86.524	0.188	-0.207
-280.486	-123.138	0.045	-0.007
-279.472	-5.177	0.169	-0.116
-278.457	-73.314	0.133	-0.049
-277.443	85.402	0.195	-0.213
-276.428	-174.105	-0.291	-0.008
-275.413	82.232	0.108	0.117
-274.399	-200.000	-0.016	0.367
-273.384	-109.722	-0.051	0.011
-272.370	156.901	-0.142	-0.196
-271.355	-37.009	-0.186	-0.099
-270.340	240.564	-0.356	0.591
-269.326	-59.373	-0.163	-0.070
-268.311	-200.000	-0.041	0.415
-267.297	136.591	0.194	0.252
-266.282	250.795	-0.078	-0.132
-265.267	-87.574	0.410	-0.124
-264.253	800.000	0.023	0.075
-263.238	-140.589	0.193	-0.020
-262.224	-63.465	0.066	-0.027
-261.209	-200.000	-0.046	0.365
-260.195	-39.744	0.435	0.227
-259.180	-200.000	0.009	0.318
-258.165	-42.155	-0.092	0.047
-257.151	-83.743	-0.194	0.062
-256.136	672.402	0.152	-0.394
-255.122	800.000	-0.028	-0.100
-254.107	-43.066	0.139	0.070
-253.092	-200.000	0.041	-0.301
-252.078	234.763	0.116	0.191
-251.063	-74.112	-0.075	-0.027
-250.049	44.082	0.074	-0.067
-249.034	-75.463	-0.245	0.087
-248.019	800.000	0.090	0.257
-247.005	-117.464	0.122	-0.022
-245.990	8.223	0.217	-0.162
-244.976	-30.965	0.143	-0.080
-243.961	306.502	-0.127	0.236
-242.946	-113.212	0.125	0.025
-241.932	-89.245	-0.195	-0.057
-240.917	-48.800	-0.198	-0.094
-239.903	-99.332	-0.173	-0.043
-238.888	11.325	-0.195	-0.148
-237.873	16.699	-0.095	-0.075
-236.859	-36.848	-0.091	-0.049
-235.844	66.190	0.141	-0.143
-234.830	-55.686	-0.190	-0.085
-233.815	-165.024	-0.171	-0.008
-232.800	-38.654	-0.199	-0.105
-231.786	348.617	0.208	-0.408
-230.771	-53.623	-0.209	0.095
-229.757	-200.000	0.015	0.077
-228.742	-200.000	0.040	0.294
-227.727	142.938	-0.218	0.288
-226.713	-126.942	-0.125	0.018
-225.698	-149.766	0.358	0.028
-224.684	-88.970	-0.231	0.068
-223.669	800.000	0.079	0.225
-222.655	-110.491	0.396	-0.082
-221.640	230.533	0.158	-0.256
-220.625	800.000	0.035	0.110
-219.611	19.102	-0.037	-0.030
-218.596	401.153	0.095	0.199
-217.582	-55.180	-0.332	0.148
-216.567	-200.000	-0.018	-0.089
-215.552	-105.597	-0.193	0.043
-214.538	-8.964	-0.149	0.099
-213.523	-200.000	0.028	0.220
-212.509	-7.038	-0.263	0.177
-211.494	3.539	-0.061	-0.045
-210.479	37.380	0.008	0.007
-209.465	-107.174	-0.071	-0.016
-208.450	-200.000	0.051	0.263
-207.436	800.000	-0.052	0.170
-206.421	-170.823	0.376	-0.013
-205.406	43.252	-0.063	0.057
-204.392	35.246	-0.168	-0.146
-203.377	-200.000	-0.009	-0.498
-202.363	800.000	0.059	-0.170
-201.348	104.088	-0.192	-0.224
-200.333	-200.000	-0.001	0.055
-199.319	-160.599	-0.222	-0.012
-198.304	331.602	0.094	0.179
-197.290	-91.881	-0.230	0.065
-196.275	15.627	0.203	0.158
-195.260	-103.177	0.288	0.068
-194.246	25.073	-0.049	0.040
-193.231	29.131	0.222	0.187
-192.217	143.829	-0.074	0.098
-191.202	144.685	-0.199	-0.263
-190.187	-62.555	-0.213	-0.088
-189.173	-10.457	-0.046	-0.030
-188.158	-112.796	0.155	0.030
-187.144	800.000	0.014	0.059
-186.129	563.650	-0.074	-0.179
-185.114	-200.000	0.018	0.273
-184.100	71.231	0.113	0.117
-183.085	-2.112	0.207	-0.145
-182.071	76.741	0.294	0.310
-181.056	800.000	-0.035	0.123
-180.042	4.786	0.213	-0.155
-179.027	-7.149	0.199	0.134
-178.012	-200.000	-0.008	0.196
-176.998	-124.194	0.384	-0.060
-175.983	32.879	-0.069	-0.060
-174.969	-200.000	-0.040	-0.222
-173.954	616.282	0.014	-0.034
-172.939	19.182	0.539	0.429
-171.925	-87.319	-0.205	-0.062
-170.910	-103.385	-0.443	-0.104
-169.896	238.510	0.148	0.243
-168.881	-34.192	0.071	0.039
-167.866	-126.849	0.183	-0.027
-166.852	-129.732	0.110	-0.015
-165.837	-45.239	-0.186	-0.092
-164.823	-200.000	-0.026	0.325
-163.808	167.644	0.216	-0.305
-162.793	-121.588	-0.099	0.016
-161.779	421.831	-0.142	-0.303
-160.764	-200.000	-0.027	-0.144
-159.750	-200.000	0.271	0.000
-158.735	-200.000	-0.032	-0.175
-157.720	639.474	-0.135	-0.341
-156.706	70.969	0.078	-0.080
-155.691	-200.000	0.005	-0.456
-154.677	167.597	0.076	0.107
-153.662	800.000	-0.091	0.332
-152.647	126.238	0.099	-0.125
-151.633	-105.317	0.353	-0.080
-150.618	-26.127	0.055	-0.032
-149.604	-200.000	0.009	0.163
-148.589	50.516	0.138	0.129
-147.574	-162.274	0.259	-0.013
-146.560	800.000	0.048	0.194
-145.545	-145.998	-0.024	-0.002
-144.531	800.000	0.040	-0.155
-143.516	10.953	0.212	0.160
-142.502	-94.637	-0.128	-0.035
-141.487	270.349	0.164	-0.286
-140.472	-99.905	0.108	-0.027
-139.458	117.217	-0.184	-0.224
-138.443	94.966	0.125	0.141
-137.429	285.224	-0.205	-0.366
-136.414	-65.327	-0.040	0.016
-135.399	-136.779	-0.181	-0.021
-134.385	-200.000	0.064	-0.282
-133.370	-200.000	0.021	0.200
-132.356	-200.000	-0.022	0.232
-131.341	-111.804	-0.443	-0.089
-130.326	699.854	-0.035	0.091
-129.312	21.477	0.118	0.095
-128.297	51.416	-0.144	0.136
-127.283	196.413	-0.080	-0.121
-126.268	-144.375	0.331	0.031
-125.253	299.025	0.056	-0.103
-124.239	-200.000	-0.005	-0.084
-123.224	800.000	-0.164	0.559
-122.210	-100.553	0.278	-0.068
-121.195	-200.000	-0.006	-0.052
