DTS Sentinel unit serial number:	SN413079Multiplexer serial number:	ORYXHardware model number:	OX4-SRSoftware version number:	ORYX F/W v4.00 Oryx Data Collector v3.7.2.0data status	okinstallation	princeton_trtdifferential loss correction	single-endedforward channel	channel 4reverse channel	N/Adate	2019/09/16time	17:01:35forward acquisition time	60.00reverse acquisition time	0.00gamma	496.2192k internal	0.2294k external	0.2294temperature offset calibration	0.9941default loss term (dB/km)	0.3790temperature slope calibration	1.0000multiplexer offset coefficient	1.0000multiplexer slope coefficient	1.0000fibre end	0.00T internal ref (°C)	39.27T ext. ref 1 (°C)	15.29T ext. ref 2 (°C)	33.51length (m)	temperature (°C)	Stokes	anti-Stokes-747.200	-66.189	-0.222	0.090
-746.185	-84.198	-0.272	0.088
-745.171	11.710	-0.110	0.086
-744.156	-200.000	-0.017	0.288
-743.142	560.779	-0.034	-0.084
-742.127	13.986	0.079	-0.063
-741.112	800.000	0.028	0.096
-740.098	655.310	0.059	0.155
-739.083	-200.000	0.013	0.156
-738.069	385.829	0.101	0.213
-737.054	-200.000	0.032	-0.178
-736.039	-30.089	-0.194	0.113
-735.025	154.823	0.109	0.154
-734.010	239.220	-0.123	-0.210
-732.996	48.336	-0.356	-0.341
-731.981	33.151	-0.140	-0.124
-730.966	-148.631	-0.240	0.020
-729.952	411.165	-0.108	-0.233
-728.937	-87.404	-0.417	-0.129
-727.923	-10.573	-0.264	-0.179
-726.908	282.413	0.165	0.303
-725.894	800.000	-0.056	0.229
-724.879	-136.641	-0.233	0.028
-723.864	-200.000	0.007	0.033
-722.850	-130.644	0.244	-0.034
-721.835	800.000	-0.065	-0.247
-720.821	-200.000	-0.042	-0.229
-719.806	-57.821	-0.144	0.064
-718.791	-32.103	-0.075	-0.043
-717.777	130.798	0.055	0.072
-716.762	35.686	0.137	0.123
-715.748	800.000	0.024	-0.089
-714.733	353.961	-0.166	-0.337
-713.718	-52.303	0.094	-0.044
-712.704	84.156	-0.170	0.190
-711.689	15.584	-0.041	-0.033
-710.675	-8.521	0.203	0.139
-709.660	-170.422	-0.125	0.004
-708.645	-13.740	-0.223	-0.147
-707.631	218.066	-0.068	0.111
-706.616	406.194	0.030	-0.064
-705.602	196.083	0.081	0.126
-704.587	-200.000	0.017	-0.298
-703.572	281.601	0.074	0.135
-702.558	700.903	-0.036	0.097
-701.543	800.000	0.087	0.260
-700.529	-158.226	-0.185	0.011
-699.514	-79.413	-0.076	-0.026
-698.499	-200.000	0.017	-0.150
-697.485	-26.252	-0.216	0.129
-696.470	65.212	-0.011	-0.011
-695.456	321.452	-0.146	-0.283
-694.441	90.913	-0.235	-0.269
-693.426	-40.789	-0.237	0.125
-692.412	-200.000	0.036	-0.356
-691.397	-10.118	0.256	0.173
-690.383	-166.948	0.172	0.007
-689.368	-49.477	-0.345	-0.168
-688.354	-132.272	0.249	-0.033
-687.339	-113.014	0.227	0.046
-686.324	-150.410	-0.393	-0.031
-685.310	-25.935	0.111	-0.067
-684.295	-200.000	-0.012	-0.143
-683.281	-113.362	-0.247	-0.049
-682.266	800.000	-0.040	-0.160
-681.251	-170.484	-0.188	0.007
-680.237	199.053	-0.067	0.104
-679.222	-113.564	-0.095	-0.019
-678.208	800.000	0.054	-0.152
-677.193	-45.450	0.407	0.206
-676.178	31.502	-0.184	0.161
-675.164	-15.578	0.143	-0.093
-674.149	-200.000	0.050	0.366
-673.135	-38.446	-0.125	-0.068
-672.120	-14.580	-0.162	0.106
-671.105	130.228	0.146	0.191
-670.091	6.336	0.214	0.162
-669.076	-0.816	-0.113	0.082
-668.062	-46.492	0.263	0.132
-667.047	-66.844	0.247	-0.100
-666.032	85.057	-0.144	-0.161
-665.018	-112.915	-0.147	-0.030
-664.003	-57.998	-0.193	0.086
-662.989	682.108	0.063	0.167
-661.974	800.000	-0.096	0.308
-660.959	-41.814	0.196	0.103
-659.945	-200.000	-0.041	-0.277
-658.930	-12.971	0.339	0.225
-657.916	-31.907	0.059	-0.034
-656.901	-200.000	0.016	-0.477
-655.886	-106.043	-0.007	-0.002
-654.872	-169.571	0.092	-0.003
-653.857	453.538	0.147	0.331
-652.843	-200.000	0.034	0.204
-651.828	800.000	-0.127	0.558
-650.814	-140.101	-0.244	0.026
-649.799	-200.000	-0.060	-0.368
-648.784	-167.748	0.262	0.011
-647.770	-108.527	-0.078	-0.017
-646.755	179.085	-0.071	0.106
-645.741	-200.000	0.509	0.001
-644.726	26.701	0.281	-0.240
-643.711	136.293	0.095	0.126
-642.697	267.496	0.049	-0.087
-641.682	21.770	0.192	-0.159
-640.668	800.000	0.063	-0.192
-639.653	-141.273	0.141	-0.015
-638.638	360.999	-0.170	-0.347
-637.624	800.000	0.026	-0.093
-636.609	-90.514	0.261	-0.077
-635.595	219.382	-0.146	0.238
-634.580	-47.380	0.041	0.020
-633.565	-114.835	0.063	0.012
-632.551	-51.059	0.198	0.094
-631.536	-129.823	-0.279	0.039
-630.522	454.360	-0.141	-0.318
-629.507	-200.000	-0.007	-0.049
-628.492	527.214	0.060	-0.145
-627.478	132.337	0.206	-0.271
-626.463	-34.232	-0.159	0.089
-625.449	13.992	-0.453	-0.358
-624.434	291.801	-0.202	0.375
-623.419	-20.438	-0.171	0.107
-622.405	34.694	-0.080	-0.071
-621.390	-31.934	-0.195	-0.111
-620.376	800.000	-0.033	0.141
-619.361	-35.036	0.175	0.097
-618.346	-54.287	-0.290	0.134
-617.332	-71.870	0.304	-0.115
-616.317	17.197	0.165	-0.133
-615.303	-200.000	0.000	-0.012
-614.288	-85.984	-0.084	0.027
-613.273	-53.369	0.241	0.112
-612.259	16.145	-0.182	0.146
-611.244	-200.000	-0.013	-0.191
-610.230	43.390	0.178	0.166
-609.215	800.000	0.032	0.131
-608.201	-163.889	0.219	0.010
-607.186	-102.262	0.201	0.049
-606.171	-126.420	0.261	-0.039
-605.157	-6.089	0.125	0.087
-604.142	92.833	-0.206	-0.237
-603.128	-84.893	-0.155	0.049
-602.113	178.714	-0.094	0.139
-601.098	307.280	-0.062	-0.118
-600.084	21.689	-0.168	-0.139
-599.069	474.389	0.187	-0.430
-598.055	37.215	0.122	0.110
-597.040	-200.000	0.006	0.144
-596.025	60.191	0.281	-0.283
-595.011	-99.550	0.337	0.086
-593.996	-108.670	0.187	-0.041
-592.982	-84.314	0.134	0.043
-591.967	-159.872	-0.125	-0.007
-590.952	-70.622	-0.070	0.027
-589.938	48.500	-0.081	0.077
-588.923	-200.000	-0.006	-0.334
-587.909	-8.850	0.116	-0.079
-586.894	-71.833	0.225	-0.085
-585.879	9.192	-0.353	0.271
-584.865	-93.634	-0.067	0.019
-583.850	-33.733	-0.236	0.132
-582.836	-133.156	0.208	-0.027
-581.821	123.990	-0.113	-0.144
-580.806	14.592	0.302	0.239
-579.792	-37.573	-0.057	0.031
-578.777	11.353	0.060	-0.047
-577.763	-61.628	-0.245	-0.104
-576.748	-46.131	0.054	0.027
-575.733	546.237	-0.048	0.115
-574.719	636.749	-0.044	0.114
-573.704	800.000	-0.036	-0.151
-572.690	606.233	0.045	0.114
-571.675	759.783	-0.079	0.218
-570.661	-68.776	-0.104	-0.041
-569.646	-200.000	0.011	0.288
-568.631	-140.095	0.116	-0.012
-567.617	-141.357	0.146	0.015
-566.602	-46.819	-0.029	0.015
-565.588	-171.595	0.031	-0.001
-564.573	800.000	0.088	-0.288
-563.558	487.350	-0.079	-0.184
-562.544	-200.000	0.013	0.190
-561.529	-19.829	0.204	0.128
-560.515	4.351	0.160	0.119
-559.500	-200.000	-0.031	-0.243
-558.485	-187.009	0.429	0.006
-557.471	22.993	-0.260	-0.217
-556.456	251.141	-0.014	-0.023
-555.442	718.428	-0.120	-0.323
-554.427	180.715	-0.207	0.309
-553.412	627.330	0.005	0.014
-552.398	-121.304	0.158	-0.027
-551.383	-200.000	0.027	0.263
-550.369	98.455	0.145	0.169
-549.354	-74.464	-0.212	-0.077
-548.339	18.793	0.082	-0.066
-547.325	-200.000	-0.026	0.191
-546.310	800.000	-0.068	0.257
-545.296	420.100	-0.025	0.055
-544.281	346.625	-0.041	0.082
-543.266	-7.248	-0.126	0.086
-542.252	-200.000	-0.034	-0.201
-541.237	200.077	0.150	-0.233
-540.223	54.876	0.095	0.093
-539.208	34.619	-0.365	-0.324
-538.193	-144.965	-0.151	0.014
-537.179	462.474	0.054	-0.122
-536.164	84.791	-0.060	0.067
-535.150	-200.000	-0.006	0.095
-534.135	115.999	0.035	0.043
-533.121	-200.000	-0.027	-0.146
-532.106	3.273	0.294	-0.217
-531.091	-200.000	0.005	-0.193
-530.077	-13.889	-0.245	-0.161
-529.062	-200.000	0.002	0.204
-528.048	-156.861	-0.556	-0.035
-527.033	26.724	-0.137	-0.116
-526.018	81.471	0.050	0.055
-525.004	-67.728	-0.184	-0.073
-523.989	-150.850	-0.414	-0.032
-522.975	80.383	0.036	-0.039
-521.960	-200.000	0.003	0.159
-520.945	546.162	0.043	0.105
-519.931	-81.913	0.153	0.051
-518.916	-200.000	-0.019	-0.175
-517.902	-200.000	0.126	0.001
-516.887	-200.000	0.031	-0.376
-515.872	5.061	-0.144	-0.107
-514.858	311.096	0.114	-0.217
-513.843	-86.853	-0.309	-0.096
-512.829	-178.260	-0.155	-0.004
-511.814	-200.000	0.028	-0.208
-510.799	83.108	-0.042	0.046
-509.785	4.924	0.123	0.092
-508.770	-200.000	-0.053	-0.318
-507.756	-200.000	0.023	-0.230
-506.741	399.829	-0.081	-0.172
-505.726	800.000	-0.084	-0.364
-504.712	-38.095	0.299	0.161
-503.697	-9.865	-0.305	-0.206
-502.683	-200.000	-0.029	-0.220
-501.668	253.086	0.009	0.016
-500.653	-187.456	-0.163	-0.002
-499.639	108.594	-0.227	-0.275
-498.624	-166.200	0.252	-0.011
-497.610	800.000	-0.050	-0.160
-496.595	65.139	-0.155	-0.159
-495.581	119.304	0.262	-0.328
-494.566	661.393	0.081	0.212
-493.551	666.046	0.076	-0.198
-492.537	-200.000	-0.016	-0.264
-491.522	655.505	0.123	0.320
-490.508	-46.101	-0.185	0.092
-489.493	68.067	-0.145	-0.150
-488.478	182.954	-0.055	-0.083
-487.464	-117.261	0.096	0.018
-486.449	-26.051	0.056	0.034
-485.435	-20.106	-0.142	0.089
-484.420	-200.000	-0.011	-0.070
-483.405	-200.000	-0.004	-0.041
-482.391	-200.000	-0.046	-0.214
-481.376	-200.000	-0.051	0.391
-480.362	26.949	0.130	-0.111
-479.347	-70.499	-0.224	0.086
-478.332	80.401	0.156	0.170
-477.318	-105.842	0.146	0.033
-476.303	800.000	-0.079	0.223
-475.289	168.519	0.113	0.164
-474.274	71.803	-0.201	-0.212
-473.259	11.315	0.142	0.110
-472.245	-71.260	0.214	0.081
-471.230	463.649	-0.167	-0.379
-470.216	-107.282	-0.129	-0.029
-469.201	-170.591	-0.121	-0.004
-468.186	426.478	0.101	0.221
-467.172	-200.000	-0.018	0.179
-466.157	176.989	-0.095	-0.140
-465.143	-115.734	-0.296	-0.056
-464.128	11.043	0.087	0.067
-463.113	101.870	-0.234	-0.276
-462.099	-200.000	-0.001	-0.073
-461.084	-179.040	-0.042	0.001
-460.070	77.543	-0.246	-0.264
-459.055	-63.174	-0.267	-0.111
-458.040	-200.000	0.087	-0.566
-457.026	644.551	0.151	-0.390
-456.011	76.334	0.201	-0.215
-454.997	231.260	0.094	0.156
-453.982	129.574	0.113	0.147
-452.968	-129.878	-0.137	-0.019
-451.953	-48.103	-0.154	0.075
-450.938	-171.465	-0.267	-0.009
-449.924	-12.920	-0.136	-0.089
-448.909	-200.000	-0.100	-0.492
-447.895	67.003	0.160	-0.165
-446.880	-200.000	0.008	-0.154
-445.865	-90.726	-0.144	-0.042
-444.851	31.091	0.189	-0.163
-443.836	475.213	0.085	0.194
-442.822	-69.763	-0.147	-0.057
-441.807	176.510	-0.166	-0.244
-440.792	-25.004	0.139	-0.083
-439.778	-120.730	0.261	-0.045
-438.763	800.000	0.046	0.156
-437.749	740.608	-0.035	0.094
-436.734	-200.000	-0.010	-0.111
-435.719	800.000	-0.010	-0.032
-434.705	9.184	0.167	0.128
-433.690	149.820	0.056	-0.077
-432.676	131.916	-0.277	-0.361
-431.661	-200.000	-0.034	-0.284
-430.646	800.000	-0.042	-0.160
-429.632	82.199	-0.182	-0.199
-428.617	46.891	0.059	-0.055
-427.603	800.000	-0.061	-0.220
-426.588	-53.129	-0.075	0.035
-425.573	-200.000	0.029	0.166
-424.559	-15.495	0.084	-0.054
-423.544	-106.766	0.094	0.021
-422.530	43.561	-0.064	0.059
-421.515	800.000	0.090	0.283
-420.500	40.531	0.196	0.178
-419.486	38.630	-0.117	0.105
-418.471	800.000	0.063	-0.220
-417.457	1.203	-0.100	0.072
-416.442	426.191	-0.150	0.327
-415.428	-200.000	0.029	0.287
-414.413	-133.142	0.275	-0.035
-413.398	254.821	-0.113	0.195
-412.384	-86.244	-0.258	-0.080
-411.369	-162.181	-0.258	-0.013
-410.355	-86.306	-0.194	0.060
-409.340	665.200	0.064	0.167
-408.325	3.334	-0.171	-0.125
-407.311	-118.393	-0.122	0.022
-406.296	-83.359	0.257	-0.083
-405.282	-200.000	0.012	-0.176
-404.267	136.132	0.111	0.147
-403.252	-13.934	-0.273	0.178
-402.238	-106.221	0.099	-0.022
-401.223	-126.965	0.376	-0.056
-400.209	82.159	-0.092	0.101
-399.194	139.892	0.034	0.046
-398.179	365.423	0.028	-0.056
-397.165	800.000	0.066	-0.285
-396.150	43.920	-0.111	-0.103
-395.136	106.316	0.126	-0.151
-394.121	456.396	-0.050	0.113
-393.106	65.096	-0.113	-0.115
-392.092	-51.539	0.063	0.030
-391.077	-130.729	0.190	-0.026
-390.063	72.542	0.102	0.108
-389.048	800.000	-0.038	0.164
-388.033	261.966	0.007	0.012
-387.019	15.816	0.281	-0.223
-386.004	134.465	-0.133	0.174
-384.990	101.196	-0.191	0.224
-383.975	-37.044	-0.205	0.111
-382.960	-200.000	0.059	0.401
-381.946	-96.763	0.366	0.097
-380.931	-72.238	0.085	-0.032
-379.917	58.483	-0.149	0.148
-378.902	453.457	-0.121	-0.270
-377.888	-71.034	-0.191	-0.073
-376.873	-144.783	0.244	-0.023
-375.858	-200.000	-0.040	0.430
-374.844	-113.241	-0.263	-0.052
-373.829	105.791	-0.068	-0.081
-372.815	-149.235	-0.133	0.011
-371.800	757.520	0.021	-0.058
-370.785	579.223	-0.093	0.229
-369.771	-200.000	0.015	0.078
-368.756	3.692	0.383	0.282
-367.742	800.000	-0.081	0.238
-366.727	261.107	0.035	0.061
-365.712	22.630	0.267	-0.220
-364.698	800.000	0.068	0.260
-363.683	5.201	0.232	-0.172
-362.669	1.454	0.218	-0.158
-361.654	-200.000	-0.019	-0.367
-360.639	311.439	0.188	-0.354
-359.625	-200.000	0.041	0.192
-358.610	-131.670	-0.263	0.035
-357.596	133.853	0.181	-0.237
-356.581	-175.995	0.300	-0.008
-355.566	-90.653	-0.285	0.083
-354.552	800.000	-0.122	-0.516
-353.537	-58.709	-0.124	-0.054
-352.523	-106.008	-0.549	0.125
-351.508	720.480	-0.090	0.242
-350.493	-135.786	0.123	-0.015
-349.479	-20.483	-0.095	0.059
-348.464	-43.530	0.175	0.089
-347.450	-21.418	-0.034	0.021
-346.435	-200.000	0.007	0.311
-345.420	-162.167	0.184	0.009
-344.406	72.408	0.052	-0.054
-343.391	-33.775	0.361	-0.200
-342.377	800.000	0.067	-0.210
-341.362	-47.760	-0.118	-0.058
-340.348	-56.905	0.243	-0.108
-339.333	-200.000	-0.017	-0.132
-338.318	800.000	0.036	-0.103
-337.304	78.724	-0.142	0.153
-336.289	800.000	-0.056	0.231
-335.275	-65.696	-0.174	-0.070
-334.260	-108.259	-0.316	0.069
-333.245	-33.404	0.340	-0.189
-332.231	-14.602	0.115	0.075
-331.216	122.456	0.092	0.116
-330.202	109.223	-0.075	0.090
-329.187	-200.000	0.008	-0.035
-328.172	-200.000	0.055	0.337
-327.158	-125.194	0.245	0.038
-326.143	800.000	-0.095	0.375
-325.129	-128.700	-0.317	-0.045
-324.114	-32.451	0.271	-0.152
-323.099	-200.000	-0.029	0.365
-322.085	800.000	-0.047	0.171
-321.070	-200.000	-0.005	0.357
-320.056	369.178	0.083	0.168
-319.041	234.114	0.123	0.204
-318.026	-200.000	-0.008	0.120
-317.012	367.654	0.137	0.278
-315.997	592.956	-0.189	0.470
-314.983	-21.838	-0.169	0.104
-313.968	800.000	0.032	-0.098
-312.953	294.145	-0.067	0.122
-311.939	-3.876	0.040	0.028
-310.924	-13.658	0.041	0.027
-309.910	46.250	-0.079	-0.074
-308.895	800.000	0.022	-0.085
-307.880	800.000	0.026	0.082
-306.866	-39.168	0.202	0.107
-305.851	109.145	0.035	-0.042
-304.837	-172.459	0.100	-0.003
-303.822	-122.460	-0.199	0.033
-302.807	-71.894	0.091	-0.034
-301.793	701.947	0.134	-0.354
-300.778	151.038	0.077	-0.105
-299.764	-53.581	0.359	-0.165
-298.749	800.000	0.096	0.288
-297.735	-39.718	0.342	0.180
-296.720	800.000	0.038	0.138
-295.705	366.433	0.076	0.154
-294.691	-200.000	0.052	0.248
-293.676	-42.684	0.226	-0.115
-292.662	533.683	-0.097	0.231
-291.647	-1.686	-0.131	-0.092
-290.632	90.046	-0.108	-0.121
-289.618	124.761	-0.277	0.351
-288.603	800.000	0.099	0.354
-287.589	-132.665	0.444	-0.057
-286.574	-108.730	-0.120	-0.026
-285.559	-152.838	0.125	-0.009
-284.545	128.803	-0.200	0.256
-283.530	-138.992	0.439	0.048
-282.516	659.973	-0.098	-0.253
-281.501	800.000	-0.071	-0.284
-280.486	657.401	0.102	0.264
-279.472	-111.656	0.054	0.011
-278.457	-200.000	0.039	-0.190
-277.443	20.024	0.170	-0.138
-276.428	-17.419	-0.302	0.191
-275.413	-59.442	0.045	-0.020
-274.399	-113.826	0.326	0.064
-273.384	-152.352	0.088	0.006
-272.370	227.601	0.019	-0.032
-271.355	-200.000	-0.018	-0.137
-270.340	-110.735	0.365	0.076
-269.326	-25.349	-0.334	-0.199
-268.311	222.697	0.079	0.127
-267.297	-100.359	0.036	-0.009
-266.282	-200.000	0.019	-0.101
-265.267	-140.011	0.055	-0.006
-264.253	-94.753	0.183	-0.050
-263.238	60.142	-0.348	-0.345
-262.224	7.456	-0.072	-0.054
-261.209	-200.000	0.004	-0.236
-260.195	-129.857	-0.199	-0.027
-259.180	-90.228	0.209	0.061
-258.165	-200.000	-0.055	-0.296
-257.151	-200.000	-0.061	-0.275
-256.136	207.904	0.072	0.112
-255.122	-200.000	-0.022	-0.126
-254.107	-149.936	-0.084	-0.007
-253.092	641.523	-0.124	0.316
-252.078	-142.770	0.256	0.025
-251.063	36.508	0.108	-0.096
-250.049	-200.000	0.018	0.141
-249.034	-200.000	-0.028	0.227
-248.019	51.152	-0.131	0.124
-247.005	800.000	0.056	-0.220
-245.990	-57.978	0.307	-0.134
-244.976	-100.927	-0.142	0.035
-243.961	-200.000	-0.128	-0.001
-242.946	-200.000	-0.009	-0.053
-241.932	49.122	-0.174	-0.164
-240.917	-200.000	-0.004	-0.410
-239.903	785.251	0.049	0.135
-238.888	-134.385	0.140	-0.017
-237.873	800.000	0.062	0.174
-236.859	-200.000	-0.066	0.312
-235.844	-29.660	0.056	0.032
-234.830	96.924	-0.105	-0.121
-233.815	617.994	-0.101	0.253
-232.800	416.900	-0.093	0.199
-231.786	-119.897	-0.116	0.020
-230.771	-200.000	0.015	0.219
-229.757	248.598	0.192	-0.325
-228.742	-200.000	0.039	0.241
-227.727	800.000	0.012	-0.037
-226.713	72.623	-0.361	-0.378
-225.698	-44.796	0.285	-0.143
-224.684	-92.224	0.299	0.084
-223.669	-18.149	-0.110	-0.069
-222.655	474.708	0.183	0.415
-221.640	-200.000	-0.006	-0.223
-220.625	-200.000	-0.018	0.295
-219.611	800.000	0.049	0.143
-218.596	428.370	-0.089	0.193
-217.582	-170.393	-0.150	0.005
-216.567	-149.580	-0.154	0.012
-215.552	-30.754	-0.108	-0.061
-214.538	-200.000	0.035	0.288
-213.523	81.776	-0.265	0.287
-212.509	201.422	0.094	0.146
-211.494	-200.000	0.007	-0.047
-210.479	800.000	-0.046	0.147
-209.465	126.357	-0.071	0.090
-208.450	89.127	-0.221	0.247
-207.436	-122.312	-0.323	0.053
-206.421	-37.646	-0.203	-0.108
-205.406	-37.486	-0.392	-0.209
-204.392	-99.614	0.098	0.025
-203.377	53.991	0.191	0.184
-202.363	800.000	-0.026	-0.092
-201.348	-95.052	-0.032	0.009
-200.333	218.782	0.197	0.315
-199.319	177.145	0.177	0.258
-198.304	90.411	-0.050	0.056
-197.290	-54.719	-0.084	0.038
-196.275	-42.879	-0.194	0.099
-195.260	-168.327	0.098	-0.004
-194.246	-187.841	-0.183	0.002
-193.231	-200.000	-0.007	-0.124
-192.217	118.852	0.205	0.253
-191.202	-169.630	0.206	-0.007
-190.187	-65.211	0.230	0.093
-189.173	-200.000	0.021	0.239
-188.158	747.571	0.138	0.372
-187.144	-61.644	-0.349	0.146
-186.129	638.822	0.077	0.195
-185.114	-83.578	0.160	0.051
-184.100	800.000	-0.047	-0.186
-183.085	413.722	0.075	0.160
-182.071	13.178	-0.260	0.202
-181.056	-66.528	-0.169	0.067
-180.042	-125.196	-0.421	-0.065
-179.027	37.834	0.070	0.062
-178.012	-54.997	-0.127	-0.057
-176.998	-139.688	0.114	0.012
-175.983	19.928	-0.065	-0.053
-174.969	-176.423	-0.295	-0.008
-173.954	-47.162	0.266	0.130
-172.939	-19.000	-0.285	-0.177
-171.925	4.471	0.401	0.294
-170.910	-112.707	-0.190	-0.038
-169.896	473.265	0.065	-0.147
-168.881	8.749	-0.202	0.152
-167.866	283.932	0.267	0.479
-166.852	-2.645	0.330	0.231
-165.837	22.573	-0.175	0.143
-164.823	-200.000	-0.033	-0.298
-163.808	-200.000	0.013	-0.093
-162.793	244.202	-0.114	-0.192
-161.779	-200.000	0.001	-0.190
-160.764	-40.852	0.237	0.123
-159.750	-200.000	0.009	0.229
-158.735	374.429	-0.072	-0.146
-157.720	80.928	-0.091	0.098
-156.706	221.770	-0.158	-0.254
-155.691	-200.000	-0.018	-0.141
-154.677	136.856	-0.125	0.163
-153.662	169.411	-0.127	-0.181
-152.647	173.186	0.081	-0.117
-151.633	-48.409	0.164	0.079
-150.618	-200.000	-0.037	0.164
-149.604	263.683	-0.150	-0.260
-148.589	26.733	-0.209	-0.175
-147.574	-200.000	0.025	-0.193
-146.560	-130.165	-0.435	0.059
-145.545	-32.025	0.477	0.267
-144.531	800.000	-0.024	0.077
-143.516	71.075	0.396	0.410
-142.502	-133.044	-0.189	-0.024
-141.487	-200.000	0.037	0.206
-140.472	-62.556	0.304	-0.126
-139.458	-10.694	0.346	0.228
-138.443	362.049	0.043	-0.086
-137.429	348.333	-0.066	-0.130
-136.414	-6.921	0.058	0.040
-135.399	-65.305	0.231	0.093
-134.385	-149.243	0.230	-0.018
-133.370	-21.270	-0.140	0.085
-132.356	83.709	-0.137	0.149
-131.341	-30.686	0.115	0.065
-130.326	54.728	0.162	0.156
-129.312	-183.481	-0.162	-0.003
-128.297	9.775	0.321	-0.243
-127.283	-200.000	0.019	0.201
-126.268	-177.715	0.181	-0.004
-125.253	-54.363	0.189	0.086
-124.239	-137.371	-0.130	0.015
-123.224	800.000	-0.061	0.265
-122.210	362.801	-0.073	0.146
-121.195	-200.000	0.053	-0.397
