DTS Sentinel unit serial number:	SN413079Multiplexer serial number:	ORYXHardware model number:	OX4-SRSoftware version number:	ORYX F/W v4.00 Oryx Data Collector v3.7.2.0data status	okinstallation	princeton_trtdifferential loss correction	single-endedforward channel	channel 4reverse channel	N/Adate	2019/09/13time	08:25:35forward acquisition time	60.00reverse acquisition time	0.00gamma	496.2192k internal	0.2317k external	0.2317temperature offset calibration	1.0197default loss term (dB/km)	0.3790temperature slope calibration	1.0000multiplexer offset coefficient	1.0000multiplexer slope coefficient	1.0000fibre end	0.00T internal ref (°C)	27.36T ext. ref 1 (°C)	4.27T ext. ref 2 (°C)	23.92length (m)	temperature (°C)	Stokes	anti-Stokes-747.200	293.514	-0.065	0.120
-746.185	-41.531	-0.137	-0.071
-745.171	-127.251	-0.189	0.028
-744.156	125.170	0.060	0.077
-743.142	800.000	0.039	0.146
-742.127	21.246	0.117	-0.096
-741.112	473.192	-0.031	-0.071
-740.098	800.000	0.075	0.279
-739.083	-4.350	-0.200	-0.140
-738.069	-200.000	0.075	0.366
-737.054	-200.000	-0.014	0.156
-736.039	-115.713	-0.097	0.018
-735.025	265.201	-0.074	-0.130
-734.010	1.768	-0.165	-0.120
-732.996	-200.000	0.057	-0.334
-731.981	-200.000	-0.032	-0.444
-730.966	28.436	-0.247	0.212
-729.952	74.335	0.094	-0.100
-728.937	-44.550	0.326	0.165
-727.923	-46.257	-0.335	0.167
-726.908	-80.023	0.335	-0.114
-725.894	161.404	-0.244	0.346
-724.879	-178.239	0.024	-0.001
-723.864	-179.479	-0.222	0.005
-722.850	-82.774	-0.315	0.103
-721.835	-150.117	0.261	0.020
-720.821	-200.000	0.016	-0.076
-719.806	8.671	-0.077	0.058
-718.791	-127.284	-0.112	-0.017
-717.777	-66.026	-0.312	-0.126
-716.762	-200.000	-0.008	0.100
-715.748	135.750	-0.073	-0.096
-714.733	4.705	-0.091	0.068
-713.718	-200.000	-0.022	0.430
-712.704	-99.590	0.249	-0.063
-711.689	-117.082	-0.255	-0.047
-710.675	55.379	0.237	-0.232
-709.660	333.915	0.054	-0.106
-708.645	-106.873	0.140	0.031
-707.631	-200.000	0.050	0.363
-706.616	-98.178	0.159	0.041
-705.602	89.638	-0.114	0.128
-704.587	395.778	-0.080	-0.168
-703.572	-104.459	0.098	-0.023
-702.558	415.874	0.075	0.162
-701.543	-106.520	0.340	0.077
-700.529	140.677	-0.217	-0.290
-699.514	18.597	-0.068	-0.055
-698.499	-200.000	-0.006	-0.083
-697.485	402.822	0.071	0.150
-696.470	27.961	-0.223	-0.190
-695.456	87.261	-0.346	0.386
-694.441	800.000	-0.114	-0.383
-693.426	-134.110	-0.177	0.022
-692.412	-140.154	0.290	-0.031
-691.397	-84.635	-0.067	0.021
-690.383	6.724	-0.332	-0.250
-689.368	-146.462	0.168	-0.015
-688.354	-58.347	0.167	-0.073
-687.339	719.703	-0.065	0.175
-686.324	800.000	-0.073	-0.316
-685.310	-68.924	-0.248	-0.097
-684.295	-95.095	0.236	-0.064
-683.281	365.016	0.079	-0.162
-682.266	5.226	-0.110	0.082
-681.251	-92.328	0.262	-0.075
-680.237	-3.055	-0.119	-0.084
-679.222	-43.832	-0.207	-0.105
-678.208	800.000	-0.046	0.153
-677.193	257.114	-0.119	0.206
-676.178	-57.862	-0.296	-0.131
-675.164	-35.509	0.254	-0.139
-674.149	-17.162	0.108	0.069
-673.135	585.348	-0.079	-0.197
-672.120	-68.105	-0.178	0.070
-671.105	-200.000	-0.011	-0.081
-670.091	100.439	0.052	0.061
-669.076	114.085	-0.189	-0.232
-668.062	211.298	-0.329	-0.523
-667.047	-18.461	0.075	-0.048
-666.032	94.200	0.129	0.148
-665.018	-48.983	0.162	0.078
-664.003	788.722	0.069	-0.192
-662.989	169.391	0.126	-0.181
-661.974	-55.227	-0.032	0.015
-660.959	91.827	0.115	-0.130
-659.945	573.112	-0.076	0.186
-658.930	118.071	-0.129	-0.160
-657.916	610.762	0.030	-0.075
-656.901	-76.076	-0.180	-0.064
-655.886	-14.139	-0.201	0.131
-654.872	-200.000	0.009	-0.118
-653.857	-96.242	-0.266	0.071
-652.843	-200.000	-0.047	-0.229
-651.828	41.115	-0.139	0.127
-650.814	800.000	0.113	-0.470
-649.799	58.906	-0.209	-0.207
-648.784	-192.617	-0.250	-0.002
-647.770	166.741	-0.045	0.064
-646.755	-200.000	0.036	-0.250
-645.741	-200.000	0.060	-0.353
-644.726	-84.594	-0.336	0.107
-643.711	150.207	-0.116	0.159
-642.697	-200.000	-0.009	-0.122
-641.682	16.917	0.234	-0.187
-640.668	492.755	-0.090	-0.208
-639.653	800.000	-0.075	0.263
-638.638	800.000	-0.042	0.175
-637.624	-154.451	-0.215	0.015
-636.609	73.626	-0.161	0.170
-635.595	647.290	-0.070	-0.181
-634.580	2.111	0.227	-0.165
-633.565	252.616	-0.143	0.246
-632.551	800.000	0.041	0.118
-631.536	486.420	0.039	-0.089
-630.522	-200.000	-0.044	0.197
-629.507	246.191	-0.068	-0.116
-628.492	800.000	0.087	-0.276
-627.478	-67.832	-0.175	-0.069
-626.463	-61.413	0.056	-0.024
-625.449	144.492	-0.149	0.201
-624.434	-32.145	-0.075	0.042
-623.419	800.000	-0.030	0.090
-622.405	747.795	0.103	-0.278
-621.390	-76.118	0.119	-0.042
-620.376	-26.539	0.103	-0.061
-619.361	66.027	0.189	-0.193
-618.346	32.113	-0.056	0.049
-617.332	-200.000	-0.008	0.186
-616.317	-137.375	-0.355	-0.041
-615.303	358.741	0.059	0.119
-614.288	75.564	0.074	-0.079
-613.273	137.237	0.095	-0.124
-612.259	-32.619	0.098	-0.055
-611.244	481.043	-0.082	-0.189
-610.230	47.478	-0.035	-0.033
-609.215	-32.273	-0.191	0.107
-608.201	-63.409	-0.247	-0.102
-607.186	262.659	0.143	-0.250
-606.171	-80.632	-0.260	0.087
-605.157	214.891	0.159	0.254
-604.142	188.991	-0.106	-0.159
-603.128	-119.302	-0.155	-0.027
-602.113	-170.433	-0.390	-0.014
-601.098	-58.270	0.174	-0.076
-600.084	-77.432	0.264	-0.092
-599.069	-25.076	0.341	0.204
-598.055	11.227	0.255	-0.197
-597.040	196.726	0.129	0.199
-596.025	531.903	0.120	0.285
-595.011	-144.057	0.208	-0.020
-593.996	157.801	-0.025	0.035
-592.982	-127.079	-0.240	0.035
-591.967	23.195	-0.219	0.181
-590.952	800.000	0.028	0.108
-589.938	800.000	0.157	-0.437
-588.923	-57.584	0.132	-0.058
-587.909	-78.465	-0.292	-0.101
-586.894	443.264	-0.117	0.258
-585.879	110.543	0.277	0.336
-584.865	265.219	-0.063	0.111
-583.850	-200.000	-0.023	-0.131
-582.836	-4.102	0.217	-0.151
-581.821	660.007	0.061	0.159
-580.806	211.931	0.094	-0.150
-579.792	-37.020	-0.208	-0.112
-578.777	-138.760	-0.152	-0.017
-577.763	-27.101	0.262	-0.154
-576.748	-200.000	0.019	-0.229
-575.733	-200.000	0.063	-0.287
-574.719	-200.000	0.115	-0.000
-573.704	-82.639	-0.229	-0.075
-572.690	-113.164	-0.368	0.073
-571.675	-33.294	0.210	0.117
-570.661	607.035	-0.075	-0.187
-569.646	-200.000	-0.000	0.160
-568.631	-200.000	-0.029	0.237
-567.617	-194.215	-0.186	0.002
-566.602	-200.000	0.031	0.175
-565.588	-53.827	-0.024	0.011
-564.573	-61.852	0.280	-0.118
-563.558	-67.542	-0.273	-0.108
-562.544	269.016	0.080	0.142
-561.529	-99.927	-0.203	0.051
-560.515	-104.537	0.237	-0.055
-559.500	-200.000	0.112	0.000
-558.485	321.423	0.091	-0.174
-557.471	2.182	-0.203	-0.147
-556.456	-200.000	-0.007	0.088
-555.442	85.267	-0.299	-0.330
-554.427	-12.294	-0.064	-0.042
-553.412	800.000	0.030	0.109
-552.398	-148.060	0.122	-0.010
-551.383	15.184	-0.233	0.184
-550.369	-193.834	-0.214	0.002
-549.354	143.200	-0.183	0.245
-548.339	118.778	-0.268	-0.332
-547.325	50.443	-0.059	0.056
-546.310	-178.137	0.367	-0.009
-545.296	-200.000	-0.034	0.183
-544.281	161.883	0.088	-0.123
-543.266	-127.782	-0.296	0.043
-542.252	-68.731	0.139	-0.054
-541.237	73.225	-0.093	-0.097
-540.223	-200.000	0.001	0.124
-539.208	-200.000	0.012	0.134
-538.193	-9.328	-0.148	0.099
-537.179	107.240	-0.158	0.188
-536.164	-200.000	0.006	0.286
-535.150	-36.353	-0.270	0.146
-534.135	-200.000	0.022	0.260
-533.121	-80.224	0.445	-0.149
-532.106	-98.848	-0.206	0.053
-531.091	-39.974	-0.284	0.149
-530.077	-200.000	0.009	-0.144
-529.062	-107.652	0.215	-0.047
-528.048	-145.716	-0.330	0.030
-527.033	-93.294	0.189	0.053
-526.018	-44.831	-0.028	-0.014
-525.004	396.459	0.047	0.099
-523.989	-167.645	0.276	0.011
-522.975	228.350	-0.195	-0.319
-521.960	47.672	-0.227	0.213
-520.945	266.976	0.095	0.166
-519.931	136.776	0.154	0.202
-518.916	-200.000	-0.002	-0.097
-517.902	-200.000	0.041	-0.219
-516.887	-123.208	-0.221	-0.036
-515.872	-16.084	0.201	-0.128
-514.858	-169.777	0.276	0.010
-513.843	60.797	-0.105	-0.104
-512.829	-200.000	0.268	0.001
-511.814	-200.000	0.056	-0.277
-510.799	73.568	-0.227	-0.238
-509.785	34.316	0.206	0.180
-508.770	-20.023	-0.249	0.154
-507.756	150.240	0.064	0.087
-506.741	93.005	0.128	0.145
-505.726	800.000	0.151	-0.535
-504.712	298.057	0.034	-0.063
-503.697	221.435	-0.306	0.493
-502.683	-114.991	0.360	-0.069
-501.668	141.216	-0.198	0.263
-500.653	800.000	-0.038	0.147
-499.639	164.031	-0.044	-0.062
-498.624	17.426	0.210	-0.167
-497.610	-174.132	-0.262	-0.008
-496.595	76.297	0.262	0.278
-495.581	-165.091	0.204	0.009
-494.566	49.025	-0.204	-0.192
-493.551	671.328	-0.032	-0.084
-492.537	-165.017	-0.200	0.009
-491.522	800.000	-0.088	0.302
-490.508	-120.470	0.339	0.058
-489.493	35.967	-0.189	0.167
-488.478	800.000	-0.055	-0.209
-487.464	374.612	-0.128	-0.262
-486.449	5.035	-0.345	0.254
-485.435	59.632	-0.151	-0.150
-484.420	-118.144	-0.293	0.052
-483.405	-0.356	-0.225	-0.161
-482.391	144.974	-0.127	-0.170
-481.376	93.549	-0.120	-0.137
-480.362	-200.000	0.020	-0.253
-479.347	166.454	-0.310	-0.440
-478.332	800.000	-0.106	-0.387
-477.318	-40.993	0.254	-0.131
-476.303	-117.734	-0.147	0.026
-475.289	-16.323	-0.372	0.237
-474.274	-101.255	0.175	0.043
-473.259	-200.000	-0.010	-0.169
-472.245	800.000	-0.074	0.274
-471.230	-9.124	0.006	0.004
-470.216	388.031	0.043	-0.090
-469.201	-48.492	-0.123	-0.059
-468.186	110.472	-0.067	-0.081
-467.172	225.986	-0.050	-0.082
-466.157	6.949	-0.183	0.136
-465.143	35.658	0.266	0.234
-464.128	-200.000	-0.010	0.114
-463.113	-84.536	-0.319	0.101
-462.099	-48.204	-0.118	0.057
-461.084	372.637	-0.120	-0.243
-460.070	23.746	-0.243	-0.201
-459.055	438.797	-0.085	-0.185
-458.040	177.419	-0.027	0.039
-457.026	187.768	-0.080	-0.120
-456.011	122.451	-0.066	0.082
-454.997	72.935	0.145	0.151
-453.982	-149.572	-0.201	0.016
-452.968	407.468	-0.037	-0.079
-451.953	800.000	-0.018	0.054
-450.938	156.295	0.120	0.166
-449.924	-71.668	-0.182	-0.068
-448.909	-200.000	0.008	-0.070
-447.895	-94.987	0.351	0.095
-446.880	97.788	0.182	0.209
-445.865	111.297	-0.075	0.090
-444.851	227.258	0.026	-0.043
-443.836	-28.823	0.147	-0.085
-442.822	730.565	-0.106	-0.283
-441.807	-106.931	0.365	-0.081
-440.792	-131.679	-0.203	0.027
-439.778	-36.386	0.166	-0.090
-438.763	-200.000	0.037	-0.176
-437.749	-200.000	-0.013	0.075
-436.734	-200.000	0.015	0.239
-435.719	-60.427	0.210	-0.089
-434.705	-61.425	0.148	0.062
-433.690	-120.165	-0.088	0.015
-432.676	800.000	-0.033	-0.128
-431.661	-178.602	0.311	0.007
-430.646	-162.062	0.297	-0.015
-429.632	326.239	0.152	0.291
-428.617	249.922	-0.154	0.262
-427.603	43.407	0.145	-0.132
-426.588	770.705	-0.148	0.404
-425.573	-131.874	0.243	0.032
-424.559	-200.000	-0.017	0.110
-423.544	33.722	0.237	0.206
-422.530	7.300	-0.532	-0.397
-421.515	10.506	0.230	0.175
-420.500	149.387	-0.192	0.260
-419.486	-110.629	0.236	-0.049
-418.471	51.129	0.196	0.186
-417.457	-124.855	0.160	-0.025
-416.442	-44.349	-0.243	-0.122
-415.428	-82.719	-0.086	0.028
-414.413	321.022	-0.184	0.350
-413.398	-200.000	-0.012	0.120
-412.384	-77.946	0.083	-0.028
-411.369	229.470	0.089	0.145
-410.355	-78.868	0.434	-0.148
-409.340	192.331	-0.077	0.115
-408.325	-170.267	-0.077	0.003
-407.311	53.607	0.105	-0.101
-406.296	240.784	0.084	-0.140
-405.282	-27.382	-0.125	0.073
-404.267	-115.442	0.332	0.063
-403.252	-200.000	-0.032	-0.150
-402.238	-93.767	0.241	-0.066
-401.223	243.899	0.111	-0.187
-400.209	572.243	0.043	-0.104
-399.194	800.000	-0.087	0.259
-398.179	-138.355	0.080	-0.009
-397.165	112.180	-0.079	-0.095
-396.150	121.105	0.235	0.292
-395.136	99.310	-0.103	-0.119
-394.121	143.521	-0.077	0.103
-393.106	146.755	-0.153	-0.206
-392.092	77.893	-0.164	-0.175
-391.077	-200.000	0.014	-0.146
-390.063	74.406	0.218	0.229
-389.048	-50.419	0.382	0.180
-388.033	-118.757	0.106	0.019
-387.019	-200.000	0.007	0.206
-386.004	72.792	-0.153	0.160
-384.990	104.146	-0.252	-0.295
-383.975	-200.000	0.107	-0.000
-382.960	-44.080	0.041	0.021
-381.946	800.000	0.064	-0.186
-380.931	-200.000	-0.003	-0.085
-379.917	402.359	0.149	-0.313
-378.902	5.379	0.124	-0.091
-377.888	253.960	0.109	0.187
-376.873	62.280	-0.071	0.071
-375.858	97.078	-0.034	0.038
-374.844	206.201	-0.011	-0.017
-373.829	-125.589	0.060	-0.009
-372.815	217.024	0.048	-0.076
-371.800	-200.000	-0.004	-0.028
-370.785	113.997	-0.222	0.269
-369.771	-111.926	-0.076	0.015
-368.756	800.000	-0.103	0.311
-367.742	-200.000	0.018	0.105
-366.727	-76.496	0.146	0.051
-365.712	-200.000	0.037	0.288
-364.698	-98.637	0.182	-0.046
-363.683	-200.000	-0.028	0.201
-362.669	-108.642	0.351	0.075
-361.654	334.049	0.095	0.184
-360.639	-171.464	-0.296	0.010
-359.625	-33.423	-0.070	0.039
-358.610	-82.318	0.277	-0.090
-357.596	-142.675	-0.007	-0.001
-356.581	76.938	0.176	-0.186
-355.566	583.272	0.070	0.172
-354.552	150.068	-0.059	0.080
-353.537	-200.000	-0.004	-0.053
-352.523	-125.896	-0.197	0.030
-351.508	-86.081	0.105	-0.032
-350.493	65.223	-0.178	-0.180
-349.479	33.833	-0.282	0.245
-348.464	-200.000	0.002	0.112
-347.450	800.000	0.065	-0.213
-346.435	-150.383	-0.417	-0.032
-345.420	800.000	0.033	0.120
-344.406	-69.433	0.153	0.058
-343.391	-200.000	0.029	-0.327
-342.377	11.293	-0.289	0.220
-341.362	97.501	0.158	0.181
-340.348	-200.000	-0.048	0.343
-339.333	180.041	0.038	0.056
-338.318	90.621	-0.169	0.188
-337.304	323.461	-0.095	0.180
-336.289	-88.093	0.256	0.076
-335.275	-200.000	0.015	-0.205
-334.260	85.044	0.236	-0.257
-333.245	-200.000	-0.005	0.130
-332.231	445.974	-0.172	-0.376
-331.216	734.535	0.101	0.268
-330.202	-75.735	0.280	0.099
-329.187	174.566	0.192	-0.276
-328.172	-59.485	0.110	0.047
-327.158	-153.212	-0.017	0.001
-326.143	145.064	0.268	0.357
-325.129	-116.428	0.036	0.007
-324.114	-200.000	-0.025	-0.149
-323.099	-100.531	0.182	-0.045
-322.085	173.427	-0.166	0.239
-321.070	648.964	0.021	0.054
-320.056	311.886	0.052	-0.097
-319.041	51.745	-0.114	-0.108
-318.026	800.000	-0.026	-0.085
-317.012	-34.897	-0.088	0.048
-315.997	76.501	-0.227	-0.239
-314.983	-5.982	-0.270	0.184
-313.968	353.552	-0.060	-0.118
-312.953	428.893	-0.054	0.117
-311.939	452.881	0.104	-0.229
-310.924	170.045	0.156	0.221
-309.910	-200.000	0.016	0.208
-308.895	-59.388	0.304	-0.130
-307.880	800.000	-0.076	-0.213
-306.866	-200.000	-0.011	-0.158
-305.851	59.870	0.082	0.081
-304.837	27.103	0.106	-0.088
-303.822	-105.712	-0.091	-0.021
-302.807	-33.027	0.385	-0.213
-301.793	-135.135	-0.120	-0.014
-300.778	-64.015	-0.235	-0.096
-299.764	800.000	0.015	0.054
-298.749	35.906	0.182	-0.159
-297.735	152.305	0.254	-0.345
-296.720	182.213	0.105	0.155
-295.705	424.941	0.119	0.255
-294.691	451.344	0.082	-0.181
-293.676	800.000	0.076	-0.244
-292.662	4.143	-0.165	0.120
-291.647	121.807	-0.251	0.311
-290.632	-59.874	0.264	-0.112
-289.618	-200.000	-0.018	-0.119
-288.603	65.936	0.062	0.063
-287.589	361.479	-0.073	0.145
-286.574	330.117	0.078	-0.150
-285.559	127.861	-0.105	-0.132
-284.545	-200.000	-0.005	-0.126
-283.530	-200.000	-0.008	-0.253
-282.516	-93.629	0.302	-0.083
-281.501	-146.757	0.308	0.026
-280.486	-184.152	-0.271	0.004
-279.472	-28.580	-0.363	-0.208
-278.457	113.058	-0.108	0.130
-277.443	-117.967	0.314	0.056
-276.428	-86.987	0.442	-0.134
-275.413	-75.449	0.269	-0.095
-274.399	-101.460	0.263	0.064
-273.384	-96.540	-0.126	-0.033
-272.370	-85.886	-0.446	-0.137
-271.355	-123.847	0.375	-0.059
-270.340	-124.296	-0.144	0.022
-269.326	-200.000	-0.003	-0.081
-268.311	3.523	-0.136	0.098
-267.297	-200.000	0.004	-0.078
-266.282	648.918	-0.043	-0.110
-265.267	150.803	0.021	0.029
-264.253	59.398	-0.096	-0.094
-263.238	-200.000	-0.042	0.391
-262.224	167.876	0.088	0.125
-261.209	373.466	-0.035	0.071
-260.195	-49.228	-0.287	0.136
-259.180	-124.348	0.328	0.051
-258.165	-32.141	0.345	0.192
-257.151	68.826	0.175	0.178
-256.136	11.647	-0.099	0.076
-255.122	85.932	0.163	-0.178
-254.107	197.366	-0.188	-0.285
-253.092	-5.263	0.332	-0.227
-252.078	-136.638	0.049	0.006
-251.063	-138.282	0.043	-0.005
-250.049	111.488	-0.262	0.313
-249.034	38.797	-0.176	-0.156
-248.019	3.976	0.090	-0.065
-247.005	-200.000	-0.001	-0.027
-245.990	-200.000	0.020	-0.126
-244.976	-119.159	0.164	0.029
-243.961	673.116	-0.066	-0.169
-242.946	-59.807	0.021	0.009
-241.932	-66.144	-0.110	-0.044
-240.917	192.936	0.221	-0.332
-239.903	172.940	-0.035	-0.049
-238.888	224.156	-0.177	0.284
-237.873	-200.000	0.005	-0.278
-236.859	800.000	-0.041	-0.149
-235.844	255.790	-0.118	0.201
-234.830	-109.548	0.143	-0.030
-233.815	-200.000	0.011	-0.374
-232.800	97.243	-0.050	0.057
-231.786	-44.936	-0.192	-0.095
-230.771	-101.740	-0.389	0.093
-229.757	800.000	-0.030	-0.122
-228.742	249.652	-0.101	0.170
-227.727	-27.187	-0.146	0.084
-226.713	49.756	-0.210	0.196
-225.698	-100.145	0.190	0.047
-224.684	329.011	-0.066	-0.126
-223.669	319.279	0.080	0.150
-222.655	-200.000	-0.010	-0.058
-221.640	-31.579	-0.356	-0.199
-220.625	-154.715	0.179	-0.012
-219.611	17.809	-0.151	-0.119
-218.596	-48.931	0.220	0.104
-217.582	168.785	-0.038	-0.054
-216.567	240.786	-0.184	-0.305
-215.552	398.016	0.087	-0.180
-214.538	-173.780	0.298	0.009
-213.523	-161.471	-0.156	-0.008
-212.509	-36.779	-0.088	0.047
-211.494	-121.839	0.165	-0.027
-210.479	-111.532	-0.298	0.060
-209.465	306.568	-0.181	-0.334
-208.450	524.900	0.140	-0.327
-207.436	-63.675	0.153	0.062
-206.421	-18.580	-0.115	0.071
-205.406	-53.661	0.285	0.129
-204.392	105.093	-0.180	-0.210
-203.377	800.000	0.078	-0.267
-202.363	171.430	-0.273	0.388
-201.348	-41.369	-0.119	0.061
-200.333	132.935	-0.078	-0.099
-199.319	98.714	-0.182	-0.208
-198.304	-44.257	-0.087	-0.043
-197.290	-3.547	0.281	-0.194
-196.275	9.614	-0.147	-0.110
-195.260	254.238	-0.080	0.136
-194.246	167.873	0.030	0.043
-193.231	-200.000	0.048	0.445
-192.217	-84.458	0.080	0.025
-191.202	-129.434	0.109	-0.015
-190.187	-200.000	-0.010	-0.131
-189.173	377.177	0.044	0.088
-188.158	-1.417	-0.014	-0.009
-187.144	-101.846	-0.525	-0.126
-186.129	-200.000	0.235	-0.001
-185.114	800.000	0.048	-0.145
-184.100	-108.835	-0.131	0.028
-183.085	-120.875	0.056	-0.009
-182.071	-55.664	0.204	0.090
-181.056	-200.000	-0.073	0.378
-180.042	-200.000	-0.006	0.209
-179.027	105.203	-0.030	-0.035
-178.012	-200.000	-0.019	0.231
-176.998	50.450	0.041	-0.039
-175.983	-141.678	0.215	0.021
-174.969	-200.000	0.050	0.274
-173.954	380.427	0.183	0.372
-172.939	-200.000	0.009	0.069
-171.925	-199.922	0.218	0.001
-170.910	-200.000	-0.009	-0.098
-169.896	-139.027	0.430	0.046
-168.881	113.227	0.135	-0.162
-167.866	237.484	-0.113	0.185
-166.852	-14.310	-0.130	-0.083
-165.837	-164.702	0.187	0.008
-164.823	-57.590	0.267	0.116
-163.808	-2.947	0.160	-0.111
-162.793	-79.696	-0.028	0.009
-161.779	-108.302	-0.317	-0.068
-160.764	70.069	0.198	0.202
-159.750	-95.395	-0.224	0.059
-158.735	-200.000	-0.038	0.172
-157.720	160.025	0.073	-0.101
-156.706	122.986	0.171	-0.212
-155.691	-200.000	0.014	0.074
-154.677	800.000	0.074	0.210
-153.662	-200.000	-0.003	0.131
-152.647	-83.269	-0.180	0.057
-151.633	-200.000	0.053	0.231
-150.618	182.878	0.195	0.285
-149.604	-70.913	0.183	0.068
-148.589	-200.000	0.061	-0.369
-147.574	10.111	-0.119	0.090
-146.560	59.493	-0.114	0.111
-145.545	-7.608	-0.138	-0.092
-144.531	800.000	0.069	-0.221
-143.516	78.295	0.223	-0.235
-142.502	-51.671	0.184	-0.085
-141.487	-200.000	-0.052	-0.428
-140.472	-22.536	-0.545	-0.326
-139.458	28.366	0.100	-0.084
-138.443	21.686	-0.043	0.034
-137.429	-200.000	0.009	0.070
-136.414	310.809	-0.012	-0.022
-135.399	800.000	0.056	-0.169
-134.385	83.891	0.156	-0.168
-133.370	-77.078	0.324	0.112
-132.356	13.567	0.175	0.135
-131.341	11.070	-0.100	-0.075
-130.326	74.316	0.037	0.039
-129.312	800.000	0.043	0.165
-128.297	-133.419	-0.315	0.039
-127.283	-200.000	-0.004	0.133
-126.268	200.512	-0.114	0.173
-125.253	800.000	-0.018	0.060
-124.239	197.718	-0.216	-0.326
-123.224	-65.223	-0.310	-0.124
-122.210	800.000	-0.066	-0.234
