DTS Sentinel unit serial number:	SN413079Multiplexer serial number:	ORYXHardware model number:	OX4-SRSoftware version number:	ORYX F/W v4.00 Oryx Data Collector v3.7.2.0data status	okinstallation	princeton_trtdifferential loss correction	single-endedforward channel	channel 4reverse channel	N/Adate	2019/09/17time	06:57:35forward acquisition time	60.00reverse acquisition time	0.00gamma	496.2192k internal	0.2319k external	0.2319temperature offset calibration	0.9985default loss term (dB/km)	0.3790temperature slope calibration	1.0000multiplexer offset coefficient	1.0000multiplexer slope coefficient	1.0000fibre end	0.00T internal ref (°C)	27.56T ext. ref 1 (°C)	0.12T ext. ref 2 (°C)	21.05length (m)	temperature (°C)	Stokes	anti-Stokes-747.200	236.892	-0.077	-0.129
-746.185	-40.543	0.266	0.140
-745.171	-200.000	0.007	0.206
-744.156	800.000	0.126	0.460
-743.142	-142.868	-0.145	0.014
-742.127	697.096	0.080	0.213
-741.112	56.857	-0.266	-0.262
-740.098	464.425	-0.112	0.253
-739.083	-200.000	-0.015	0.320
-738.069	716.336	-0.088	0.235
-737.054	-130.732	0.291	0.040
-736.039	160.705	-0.191	0.270
-735.025	-139.460	0.093	0.010
-734.010	-148.903	-0.028	0.002
-732.996	32.047	-0.056	0.049
-731.981	-165.911	-0.197	-0.009
-730.966	-76.072	-0.218	-0.078
-729.952	325.132	-0.185	-0.357
-728.937	-200.000	0.028	0.141
-727.923	-26.743	0.328	-0.194
-726.908	111.216	0.152	-0.186
-725.894	800.000	-0.145	0.478
-724.879	-166.734	-0.422	-0.018
-723.864	42.822	-0.089	-0.082
-722.850	-200.000	0.002	-0.355
-721.835	-58.175	-0.111	-0.049
-720.821	-137.519	0.065	-0.007
-719.806	-24.794	-0.268	-0.161
-718.791	95.012	-0.248	-0.285
-717.777	39.538	0.178	-0.161
-716.762	-141.028	0.335	-0.035
-715.748	558.699	-0.134	-0.327
-714.733	60.485	0.095	-0.095
-713.718	-200.000	0.005	-0.283
-712.704	800.000	0.037	-0.148
-711.689	112.322	0.165	-0.201
-710.675	800.000	0.060	-0.232
-709.660	-200.000	-0.005	-0.292
-708.645	-94.934	0.189	-0.052
-707.631	0.134	-0.152	0.110
-706.616	-31.877	-0.023	-0.013
-705.602	-58.314	-0.175	0.077
-704.587	-110.737	-0.274	-0.057
-703.572	181.105	-0.044	-0.065
-702.558	-200.000	0.011	0.113
-701.543	659.122	0.095	0.247
-700.529	207.898	-0.099	0.156
-699.514	310.553	-0.095	-0.179
-698.499	-200.000	-0.022	-0.218
-697.485	435.647	-0.049	0.108
-696.470	-200.000	0.038	-0.177
-695.456	-200.000	0.010	-0.252
-694.441	-15.767	0.175	-0.113
-693.426	800.000	-0.180	0.574
-692.412	328.230	-0.139	0.268
-691.397	101.512	0.090	0.106
-690.383	794.306	-0.057	0.158
-689.368	-95.748	-0.271	-0.073
-688.354	800.000	-0.029	-0.112
-687.339	78.882	0.132	-0.143
-686.324	117.158	-0.128	0.159
-685.310	335.855	-0.171	-0.335
-684.295	-200.000	-0.008	-0.143
-683.281	286.618	0.019	-0.034
-682.266	47.731	-0.052	0.049
-681.251	68.482	-0.182	-0.188
-680.237	-146.316	-0.022	-0.002
-679.222	800.000	-0.042	0.138
-678.208	-122.559	-0.062	0.010
-677.193	-200.000	0.009	-0.320
-676.178	-200.000	0.057	-0.357
-675.164	153.334	-0.135	-0.187
-674.149	655.766	-0.092	-0.239
-673.135	-30.749	0.124	0.071
-672.120	-171.414	-0.238	-0.008
-671.105	-200.000	0.037	0.266
-670.091	-200.000	0.039	-0.307
-669.076	-122.375	-0.251	0.041
-668.062	16.938	-0.485	0.387
-667.047	800.000	-0.078	0.311
-666.032	74.188	0.150	0.158
-665.018	344.532	-0.089	-0.176
-664.003	624.547	-0.160	-0.406
-662.989	800.000	-0.059	0.211
-661.974	173.512	0.134	-0.195
-660.959	-200.000	0.002	0.084
-659.945	-200.000	-0.001	-0.226
-658.930	-200.000	0.045	-0.204
-657.916	-122.905	-0.513	-0.083
-656.901	-200.000	0.013	0.116
-655.886	-35.537	-0.124	0.068
-654.872	238.926	-0.079	-0.133
-653.857	-113.633	0.093	-0.018
-652.843	-89.361	-0.173	-0.051
-651.828	-155.214	-0.309	-0.020
-650.814	-22.487	0.150	0.092
-649.799	121.403	-0.049	0.062
-648.784	17.739	-0.227	-0.182
-647.770	800.000	0.049	0.139
-646.755	599.745	-0.118	-0.296
-645.741	-194.332	0.183	0.001
-644.726	436.801	-0.084	-0.184
-643.711	41.904	-0.071	-0.065
-642.697	2.273	0.135	0.098
-641.682	198.995	0.134	0.206
-640.668	265.403	0.036	0.064
-639.653	-76.714	0.152	0.054
-638.638	-188.308	-0.238	0.003
-637.624	122.873	-0.232	-0.293
-636.609	278.454	0.060	0.108
-635.595	-170.133	0.199	0.007
-634.580	307.696	0.076	0.143
-633.565	-200.000	0.003	-0.202
-632.551	-61.607	0.059	0.025
-631.536	609.411	0.043	-0.108
-630.522	-97.824	0.086	0.022
-629.507	-57.822	-0.188	0.083
-628.492	537.007	-0.058	-0.140
-627.478	-130.663	0.100	0.013
-626.463	189.983	-0.131	-0.197
-625.449	-35.537	-0.076	0.042
-624.434	-200.000	0.031	-0.140
-623.419	-34.268	-0.184	-0.102
-622.405	-171.046	0.189	-0.006
-621.390	75.203	0.143	-0.152
-620.376	800.000	-0.052	0.206
-619.361	-190.870	-0.322	0.003
-618.346	-1.988	0.183	0.130
-617.332	800.000	0.044	-0.133
-616.317	-112.211	-0.185	-0.037
-615.303	-135.023	-0.216	0.026
-614.288	-22.833	-0.214	0.130
-613.273	-12.140	-0.113	-0.074
-612.259	-45.770	-0.254	0.127
-611.244	149.272	0.090	-0.122
-610.230	-52.300	0.120	-0.056
-609.215	-130.091	0.209	-0.029
-608.201	-200.000	0.047	0.248
-607.186	744.721	0.129	0.350
-606.171	-46.116	0.179	-0.089
-605.157	800.000	0.088	-0.317
-604.142	131.867	-0.098	-0.127
-603.128	-22.745	0.220	0.134
-602.113	108.396	0.026	-0.031
-601.098	800.000	0.018	-0.071
-600.084	-66.681	-0.080	0.032
-599.069	-200.000	-0.004	0.330
-598.055	98.056	-0.108	0.125
-597.040	-139.688	-0.228	-0.024
-596.025	-16.281	0.252	0.161
-595.011	218.347	-0.118	0.189
-593.996	-44.445	-0.334	0.168
-592.982	-167.983	0.346	-0.014
-591.967	-85.695	-0.226	0.071
-590.952	800.000	-0.039	0.149
-589.938	120.773	0.144	0.180
-588.923	-68.211	-0.078	-0.031
-587.909	783.683	-0.062	-0.171
-586.894	-50.490	0.248	-0.118
-585.879	8.815	-0.218	-0.165
-584.865	733.723	-0.073	-0.196
-583.850	-200.000	-0.064	-0.569
-582.836	-200.000	0.010	-0.137
-581.821	760.969	-0.160	0.436
-580.806	-200.000	-0.065	0.378
-579.792	-74.825	0.063	-0.023
-578.777	85.224	-0.289	-0.319
-577.763	-200.000	0.009	-0.129
-576.748	-200.000	0.022	-0.317
-575.733	28.198	0.204	-0.173
-574.719	-200.000	0.019	0.148
-573.704	-200.000	0.015	-0.161
-572.690	406.029	0.208	0.441
-571.675	-102.500	0.241	-0.058
-570.661	54.862	0.224	-0.218
-569.646	84.361	0.150	-0.164
-568.631	-110.895	0.097	-0.020
-567.617	-200.000	0.049	-0.244
-566.602	48.193	-0.234	0.220
-565.588	606.090	0.063	-0.157
-564.573	-61.927	-0.278	-0.117
-563.558	800.000	0.068	-0.217
-562.544	-6.710	-0.145	0.099
-561.529	150.214	0.073	0.099
-560.515	389.319	0.180	0.374
-559.500	219.668	-0.043	0.069
-558.485	-59.941	-0.133	0.057
-557.471	-200.000	0.011	-0.082
-556.456	-62.658	0.203	0.085
-555.442	800.000	0.041	0.167
-554.427	-126.892	-0.198	-0.029
-553.412	-45.085	0.128	0.064
-552.398	48.949	-0.068	-0.064
-551.383	43.101	-0.084	0.077
-550.369	93.262	0.213	0.241
-549.354	54.073	0.332	-0.321
-548.339	-27.472	0.059	0.034
-547.325	327.803	-0.058	0.111
-546.310	-39.692	-0.114	-0.060
-545.296	-17.460	0.153	0.096
-544.281	-200.000	-0.025	-0.332
-543.266	127.013	0.212	0.270
-542.252	800.000	-0.014	-0.050
-541.237	-43.439	-0.179	-0.091
-540.223	343.529	0.076	0.150
-539.208	-200.000	0.024	-0.380
-538.193	111.042	-0.065	-0.079
-537.179	-200.000	0.007	-0.172
-536.164	491.609	-0.143	-0.328
-535.150	-16.134	0.265	0.169
-534.135	-50.360	0.082	-0.039
-533.121	-148.119	-0.131	0.011
-532.106	-54.517	-0.307	-0.140
-531.091	-87.471	-0.203	0.062
-530.077	-20.849	-0.191	0.117
-529.062	586.176	0.057	-0.141
-528.048	-74.750	-0.445	0.161
-527.033	-116.692	0.028	0.005
-526.018	800.000	-0.106	0.461
-525.004	17.067	-0.243	0.194
-523.989	800.000	-0.014	-0.049
-522.975	7.764	-0.045	0.034
-521.960	-200.000	0.005	0.027
-520.945	-85.824	-0.275	-0.085
-519.931	-32.005	-0.224	-0.126
-518.916	-165.102	0.158	-0.007
-517.902	513.482	-0.013	-0.030
-516.887	202.696	0.091	0.140
-515.872	-200.000	-0.027	-0.370
-514.858	-117.681	-0.311	0.056
-513.843	-200.000	-0.040	0.279
-512.829	428.873	-0.109	-0.236
-511.814	-153.489	0.072	-0.005
-510.799	-162.443	0.133	0.007
-509.785	-66.525	0.162	0.064
-508.770	-107.538	-0.379	-0.083
-507.756	-51.978	0.175	0.081
-506.741	64.004	0.161	0.162
-505.726	-115.571	-0.171	0.032
-504.712	199.573	-0.165	-0.254
-503.697	-21.037	-0.138	-0.085
-502.683	31.773	0.043	0.037
-501.668	-80.312	0.078	0.026
-500.653	-62.379	-0.204	-0.085
-499.639	144.812	0.105	0.141
-498.624	-108.616	0.180	-0.039
-497.610	522.027	0.157	-0.370
-496.595	117.651	-0.315	0.388
-495.581	-145.511	0.282	0.025
-494.566	800.000	-0.060	-0.196
-493.551	31.365	0.261	0.224
-492.537	116.314	0.073	-0.089
-491.522	800.000	0.013	0.039
-490.508	800.000	0.084	0.283
-489.493	800.000	0.082	0.242
-488.478	800.000	0.038	0.145
-487.464	-110.222	0.288	0.060
-486.449	690.980	0.006	0.017
-485.435	2.204	-0.145	-0.105
-484.420	-84.340	-0.229	-0.073
-483.405	-113.872	0.200	0.039
-482.391	-200.000	0.251	0.000
-481.376	-13.709	0.214	0.138
-480.362	-16.460	0.111	0.070
-479.347	-98.083	0.113	0.029
-478.332	160.540	0.084	-0.117
-477.318	178.137	-0.155	-0.227
-476.303	205.177	-0.162	0.251
-475.289	216.225	-0.081	-0.129
-474.274	-31.666	0.291	0.164
-473.259	339.457	0.164	0.320
-472.245	38.388	-0.079	-0.070
-471.230	22.367	0.249	-0.204
-470.216	-40.233	-0.291	-0.152
-469.201	800.000	0.052	0.228
-468.186	-30.421	0.043	-0.024
-467.172	229.406	0.101	0.165
-466.157	443.857	0.079	0.173
-465.143	99.529	-0.207	0.240
-464.128	800.000	-0.092	0.348
-463.113	-6.342	0.173	-0.118
-462.099	-200.000	-0.005	-0.278
-461.084	-10.448	-0.213	-0.141
-460.070	-200.000	-0.065	0.331
-459.055	-123.344	-0.310	-0.050
-458.040	-22.083	-0.305	-0.185
-457.026	-200.000	0.052	-0.248
-456.011	-106.476	-0.125	0.028
-454.997	-44.984	0.101	-0.050
-453.982	-158.044	0.301	0.018
-452.968	-200.000	-0.034	0.217
-451.953	-48.480	0.194	-0.093
-450.938	1.349	-0.317	-0.228
-449.924	-85.341	0.157	0.049
-448.909	-126.386	0.144	-0.021
-447.895	-94.921	0.253	-0.069
-446.880	-118.556	-0.282	0.050
-445.865	211.882	0.195	-0.308
-444.851	-32.572	0.360	-0.200
-443.836	-17.760	-0.210	-0.132
-442.822	23.268	-0.171	0.141
-441.807	-129.290	-0.133	-0.018
-440.792	34.727	0.072	0.063
-439.778	23.673	-0.262	0.216
-438.763	-120.607	0.084	-0.014
-437.749	-68.744	-0.037	0.014
-436.734	76.954	-0.110	-0.117
-435.719	-200.000	-0.103	0.460
-434.705	-0.134	0.166	0.118
-433.690	187.617	-0.208	0.310
-432.676	-100.364	0.175	0.043
-431.661	-119.383	0.212	-0.037
-430.646	667.490	0.099	0.255
-429.632	79.234	-0.057	-0.061
-428.617	-94.281	-0.311	0.085
-427.603	23.888	-0.120	0.099
-426.588	564.236	-0.127	-0.307
-425.573	-157.786	-0.041	-0.002
-424.559	185.012	-0.149	-0.221
-423.544	-110.987	-0.242	-0.050
-422.530	-72.018	0.317	-0.118
-421.515	222.656	0.279	-0.449
-420.500	800.000	-0.058	-0.225
-419.486	-200.000	-0.011	0.147
-418.471	101.059	-0.102	0.119
-417.457	-134.732	0.074	-0.009
-416.442	-175.080	-0.134	0.004
-415.428	432.275	0.085	-0.184
-414.413	-53.261	-0.298	0.136
-413.398	-35.009	0.205	-0.112
-412.384	322.967	-0.076	0.145
-411.369	-37.080	-0.156	-0.083
-410.355	45.983	0.159	0.147
-409.340	400.697	-0.080	0.168
-408.325	500.769	-0.139	0.319
-407.311	800.000	0.014	0.060
-406.296	-200.000	0.032	-0.166
-405.282	800.000	-0.049	0.168
-404.267	95.569	-0.255	0.291
-403.252	-90.725	-0.194	-0.056
-402.238	-45.925	0.235	-0.116
-401.223	-126.068	0.210	0.031
-400.209	-183.621	-0.425	0.007
-399.194	93.168	0.208	0.235
-398.179	-200.000	-0.047	-0.382
-397.165	697.845	0.111	-0.292
-396.150	29.633	0.279	0.237
-395.136	800.000	-0.083	0.326
-394.121	643.660	-0.049	0.123
-393.106	800.000	-0.084	0.298
-392.092	-18.901	0.085	-0.053
-391.077	-30.867	-0.060	-0.034
-390.063	800.000	-0.066	0.216
-389.048	-89.603	-0.134	-0.039
-388.033	-74.705	0.243	0.087
-387.019	6.489	-0.057	0.042
-386.004	60.381	-0.097	0.095
-384.990	24.556	-0.141	-0.116
-383.975	-11.287	-0.166	0.109
-382.960	243.666	0.069	0.116
-381.946	800.000	0.081	0.229
-380.931	87.307	0.135	0.148
-379.917	-39.373	0.152	0.080
-378.902	-131.702	-0.099	0.013
-377.888	676.389	-0.059	-0.154
-376.873	-200.000	-0.041	-0.246
-375.858	-200.000	0.009	-0.230
-374.844	-174.145	0.170	0.005
-373.829	-83.140	-0.138	0.044
-372.815	26.333	0.278	0.231
-371.800	-87.348	-0.265	-0.080
-370.785	-60.133	0.175	-0.074
-369.771	114.758	-0.159	-0.193
-368.756	-144.281	0.326	0.030
-367.742	-47.366	-0.397	0.193
-366.727	-200.000	-0.018	0.137
-365.712	42.802	0.035	0.032
-364.698	-200.000	-0.079	-0.647
-363.683	106.724	-0.289	-0.341
-362.669	74.254	0.199	-0.208
-361.654	-200.000	-0.011	-0.268
-360.639	129.113	-0.115	-0.147
-359.625	328.232	0.087	0.167
-358.610	326.152	-0.109	0.208
-357.596	-200.000	0.014	-0.095
-356.581	26.706	0.150	0.125
-355.566	88.995	0.199	0.221
-354.552	-55.471	-0.180	0.080
-353.537	180.101	-0.215	0.313
-352.523	198.948	-0.094	-0.143
-351.508	91.658	0.161	-0.180
-350.493	-87.405	0.122	0.037
-349.479	-96.130	-0.463	0.122
-348.464	272.661	0.131	-0.230
-347.450	7.197	-0.161	0.119
-346.435	-126.930	-0.210	-0.031
-345.420	-46.091	-0.302	0.148
-344.406	77.647	-0.300	-0.318
-343.391	79.096	-0.139	0.149
-342.377	-200.000	0.023	0.227
-341.362	-56.095	0.237	0.105
-340.348	-123.147	-0.198	0.032
-339.333	-191.140	0.188	0.002
-338.318	345.959	-0.114	0.223
-337.304	2.251	0.144	-0.103
-336.289	-200.000	-0.019	0.157
-335.275	371.670	-0.030	-0.061
-334.260	260.280	0.136	-0.234
-333.245	-131.645	-0.188	-0.025
-332.231	800.000	-0.059	-0.221
-331.216	800.000	0.086	0.283
-330.202	-200.000	-0.002	0.292
-329.187	52.558	0.253	-0.241
-328.172	800.000	-0.058	-0.193
-327.158	-200.000	0.004	-0.095
-326.143	62.129	-0.292	-0.290
-325.129	172.838	-0.159	-0.228
-324.114	-147.505	-0.230	-0.019
-323.099	65.194	0.087	0.087
-322.085	-15.205	-0.251	0.160
-321.070	-200.000	0.001	0.214
-320.056	203.103	0.036	0.055
-319.041	436.797	-0.121	-0.262
-318.026	38.768	-0.229	-0.203
-317.012	-9.416	0.371	0.246
-315.997	332.422	-0.105	0.201
-314.983	104.564	0.160	-0.188
-313.968	-54.411	0.169	-0.076
-312.953	286.374	-0.049	-0.088
-311.939	596.842	-0.054	-0.133
-310.924	-3.563	0.181	-0.125
-309.910	226.802	-0.177	0.285
-308.895	27.334	0.256	-0.214
-307.880	-200.000	-0.103	-0.472
-306.866	-33.534	0.062	0.034
-305.851	800.000	0.041	-0.172
-304.837	-88.570	0.144	-0.043
-303.822	-80.504	0.060	-0.020
-302.807	-82.178	-0.231	0.075
-301.793	5.123	0.123	0.090
-300.778	-170.997	0.131	-0.004
-299.764	-81.637	-0.221	0.072
-298.749	-128.704	-0.132	-0.019
-297.735	698.983	0.040	-0.105
-296.720	-48.779	0.218	0.104
-295.705	2.127	-0.125	-0.090
-294.691	-40.298	0.438	0.226
-293.676	158.084	-0.082	0.113
-292.662	46.673	0.182	-0.168
-291.647	-47.705	-0.251	-0.121
-290.632	-115.008	0.115	-0.022
-289.618	-144.049	-0.177	0.017
-288.603	800.000	-0.051	-0.185
-287.589	-20.286	-0.182	-0.111
-286.574	800.000	0.045	-0.155
-285.559	-200.000	0.007	-0.081
-284.545	200.394	0.140	0.213
-283.530	-181.458	-0.042	0.001
-282.516	-200.000	0.002	0.094
-281.501	-40.013	0.247	-0.128
-280.486	-124.854	0.241	0.037
-279.472	89.818	0.196	-0.218
-278.457	246.204	-0.120	-0.200
-277.443	222.211	0.137	0.218
-276.428	-200.000	0.013	-0.174
-275.413	-127.332	0.294	-0.043
-274.399	-81.670	0.104	0.034
-273.384	800.000	-0.078	0.324
-272.370	-53.909	0.057	0.026
-271.355	334.379	0.114	0.218
-270.340	-178.297	-0.217	0.005
-269.326	-200.000	0.003	-0.041
-268.311	-7.474	0.116	-0.078
-267.297	75.136	0.072	-0.076
-266.282	-50.399	0.147	-0.069
-265.267	304.198	0.046	-0.085
-264.253	800.000	-0.088	-0.289
-263.238	91.042	-0.084	0.093
-262.224	-88.328	-0.472	0.140
-261.209	319.956	0.219	0.412
-260.195	800.000	0.066	-0.201
-259.180	-200.000	0.007	0.149
-258.165	-78.223	0.330	0.113
-257.151	800.000	-0.053	0.216
-256.136	-69.642	-0.280	-0.106
-255.122	-33.260	0.282	-0.155
-254.107	33.577	-0.169	0.146
-253.092	-16.294	0.061	-0.038
-252.078	451.783	-0.125	-0.275
-251.063	-61.890	-0.111	-0.046
-250.049	-32.040	-0.108	-0.060
-249.034	-75.041	0.194	-0.069
-248.019	-14.005	0.070	0.045
-247.005	-194.809	-0.318	-0.002
-245.990	-113.712	-0.054	0.011
-244.976	32.877	0.106	0.091
-243.961	171.700	0.106	0.151
-242.946	-200.000	0.276	-0.001
-241.932	800.000	0.021	-0.086
-240.917	111.691	0.179	0.215
-239.903	553.850	0.012	0.029
-238.888	-200.000	0.038	0.259
-237.873	-151.197	-0.118	-0.009
-236.859	-200.000	0.020	0.221
-235.844	-118.998	-0.043	-0.007
-234.830	-200.000	0.097	-0.533
-233.815	438.750	0.068	-0.148
-232.800	-200.000	-0.043	0.449
-231.786	-13.108	-0.128	0.083
-230.771	-200.000	-0.021	-0.224
-229.757	-178.137	-0.165	0.004
-228.742	269.129	0.100	-0.175
-227.727	-57.827	-0.100	0.043
-226.713	-60.295	-0.034	0.014
-225.698	-6.613	-0.309	-0.209
-224.684	48.301	0.185	-0.172
-223.669	-53.575	0.253	0.115
-222.655	445.877	0.063	-0.137
-221.640	-200.000	0.010	-0.059
-220.625	-14.408	0.103	0.065
-219.611	-2.126	0.142	0.099
-218.596	16.385	-0.058	-0.046
-217.582	-132.873	0.383	0.048
-216.567	-138.488	0.377	0.041
-215.552	-200.000	-0.049	0.289
-214.538	443.745	0.009	0.020
-213.523	503.567	-0.079	-0.182
-212.509	-57.044	0.158	-0.069
-211.494	-90.146	0.429	-0.124
-210.479	28.070	-0.243	-0.203
-209.465	563.313	0.105	-0.252
-208.450	48.974	-0.239	-0.222
-207.436	632.560	0.100	-0.251
-206.421	-139.369	0.213	-0.023
-205.406	736.201	-0.129	0.342
-204.392	800.000	0.075	-0.309
-203.377	9.148	0.077	0.058
-202.363	-70.074	0.233	0.088
-201.348	-140.870	0.178	0.018
-200.333	-160.369	-0.196	0.010
-199.319	82.331	-0.191	-0.205
-198.304	121.950	0.292	0.361
-197.290	-25.773	-0.107	0.062
-196.275	636.688	-0.047	0.118
-195.260	-33.974	0.324	-0.177
-194.246	-143.672	0.155	0.015
-193.231	69.807	-0.212	-0.216
-192.217	270.022	-0.084	0.147
-191.202	-200.000	-0.015	-0.162
-190.187	-5.466	0.158	-0.108
-189.173	439.319	0.256	0.554
-188.158	263.502	0.075	0.130
-187.144	34.045	0.160	-0.138
-186.129	800.000	-0.042	0.146
-185.114	-2.959	0.261	0.180
-184.100	131.187	0.172	0.219
-183.085	800.000	0.082	0.257
-182.071	287.437	0.037	0.067
-181.056	-200.000	0.041	0.239
-180.042	122.783	-0.037	0.046
-179.027	-200.000	0.052	-0.309
-178.012	-30.885	-0.077	-0.043
-176.998	-153.560	0.256	-0.017
-175.983	800.000	0.018	0.072
-174.969	-150.304	0.286	0.022
-173.954	77.397	-0.168	-0.177
-172.939	153.067	0.059	0.080
-171.925	-200.000	-0.020	-0.120
-170.910	-200.000	-0.012	-0.416
-169.896	-11.881	-0.203	0.132
-168.881	214.539	-0.265	0.415
-167.866	-78.206	0.319	0.108
-166.852	-59.629	-0.248	0.105
-165.837	800.000	-0.008	-0.035
-164.823	-200.000	-0.056	-0.403
-163.808	800.000	-0.077	0.214
-162.793	-149.027	-0.231	-0.018
-161.779	-89.579	-0.064	-0.018
-160.764	-64.837	-0.222	-0.089
-159.750	-36.485	0.122	0.065
-158.735	-158.845	-0.084	0.005
-157.720	48.502	-0.248	-0.230
-156.706	-171.872	0.101	0.003
-155.691	-148.047	0.091	0.007
-154.677	-98.052	-0.418	0.106
-153.662	6.853	0.216	0.159
-152.647	2.636	-0.086	-0.062
-151.633	737.685	0.015	0.038
-150.618	21.710	0.199	-0.161
-149.604	-17.865	-0.195	-0.121
-148.589	800.000	-0.042	0.127
-147.574	119.148	0.204	0.249
-146.560	-56.822	-0.287	-0.125
-145.545	-157.255	-0.286	-0.017
-144.531	97.815	0.070	-0.079
-143.516	-41.219	0.256	-0.130
-142.502	47.109	0.178	-0.163
-141.487	-101.255	-0.070	0.017
-140.472	296.976	-0.211	0.382
-139.458	-59.860	-0.448	0.189
-138.443	418.684	-0.125	0.265
-137.429	-151.939	-0.270	0.019
-136.414	381.720	-0.053	-0.107
-135.399	-75.915	-0.425	-0.149
-134.385	-200.000	-0.034	-0.318
-133.370	-98.141	0.230	0.058
-132.356	-200.000	0.004	-0.348
-131.341	-200.000	-0.010	0.108
-130.326	88.837	0.170	0.187
-129.312	-200.000	-0.045	0.267
-128.297	800.000	0.030	-0.089
-127.283	-200.000	0.023	0.187
-126.268	-57.191	-0.066	0.029
-125.253	800.000	0.079	0.229
-124.239	-111.241	-0.126	0.025
-123.224	800.000	0.053	-0.214
-122.210	-178.014	0.045	0.001
-121.195	-96.459	0.107	-0.028
