DTS Sentinel unit serial number:	SN413079Multiplexer serial number:	ORYXHardware model number:	OX4-SRSoftware version number:	ORYX F/W v4.00 Oryx Data Collector v3.7.2.0data status	okinstallation	princeton_trtdifferential loss correction	single-endedforward channel	channel 4reverse channel	N/Adate	2019/09/18time	10:53:34forward acquisition time	60.00reverse acquisition time	0.00gamma	496.2192k internal	0.2314k external	0.2314temperature offset calibration	0.9988default loss term (dB/km)	0.3790temperature slope calibration	1.0000multiplexer offset coefficient	1.0000multiplexer slope coefficient	1.0000fibre end	0.00T internal ref (°C)	29.11T ext. ref 1 (°C)	0.38T ext. ref 2 (°C)	25.35length (m)	temperature (°C)	Stokes	anti-Stokes-747.200	-14.696	0.175	-0.114
-746.185	-128.957	-0.342	-0.049
-745.171	34.739	-0.055	-0.049
-744.156	105.345	-0.084	0.100
-743.142	-43.562	0.281	0.144
-742.127	-82.761	-0.104	0.034
-741.112	800.000	0.040	-0.141
-740.098	795.626	-0.130	0.362
-739.083	-200.000	0.049	-0.228
-738.069	122.076	-0.140	0.178
-737.054	-200.000	0.011	0.176
-736.039	-200.000	0.047	-0.218
-735.025	800.000	0.077	-0.243
-734.010	-198.187	-0.138	0.001
-732.996	-200.000	0.086	-0.383
-731.981	800.000	-0.011	-0.037
-730.966	-61.024	-0.134	-0.057
-729.952	-157.090	-0.222	-0.014
-728.937	-200.000	-0.037	-0.494
-727.923	9.419	-0.358	-0.274
-726.908	459.552	-0.066	-0.148
-725.894	-52.969	-0.204	-0.095
-724.879	297.061	-0.128	-0.237
-723.864	336.319	0.079	0.156
-722.850	-144.512	-0.122	0.011
-721.835	-15.896	0.211	-0.136
-720.821	-66.749	0.119	-0.048
-719.806	106.941	-0.195	-0.235
-718.791	326.096	0.134	-0.261
-717.777	32.563	-0.129	0.113
-716.762	-116.698	-0.387	0.072
-715.748	800.000	0.083	0.318
-714.733	-78.912	0.190	0.066
-713.718	576.584	-0.052	-0.128
-712.704	-200.000	-0.014	-0.401
-711.689	-200.000	0.055	-0.273
-710.675	-50.240	-0.369	0.177
-709.660	800.000	0.088	-0.373
-708.645	543.614	-0.045	-0.110
-707.631	28.756	-0.172	0.148
-706.616	653.511	-0.108	0.280
-705.602	37.366	0.246	0.220
-704.587	-200.000	-0.053	-0.244
-703.572	-168.220	-0.263	0.010
-702.558	-65.195	0.228	-0.093
-701.543	-200.000	-0.011	-0.366
-700.529	-172.580	0.100	-0.003
-699.514	46.238	0.072	-0.068
-698.499	-63.254	-0.280	-0.117
-697.485	-100.111	0.173	0.044
-696.470	156.534	0.169	-0.237
-695.456	-15.801	0.189	-0.122
-694.441	-200.000	0.068	-0.320
-693.426	14.788	-0.116	-0.091
-692.412	133.337	0.178	0.233
-691.397	-5.863	0.195	-0.135
-690.383	398.543	-0.134	0.285
-689.368	41.743	-0.062	-0.057
-688.354	-22.490	-0.348	-0.213
-687.339	800.000	-0.064	0.180
-686.324	442.444	-0.084	-0.187
-685.310	135.830	-0.142	-0.187
-684.295	410.694	-0.091	0.194
-683.281	-99.793	-0.209	0.053
-682.266	-115.245	-0.307	-0.059
-681.251	15.625	0.231	-0.183
-680.237	-46.192	0.135	0.067
-679.222	152.485	-0.185	-0.255
-678.208	-102.806	-0.266	0.064
-677.193	35.140	0.190	-0.168
-676.178	534.014	0.083	-0.198
-675.164	95.361	0.251	-0.289
-674.149	-117.499	-0.244	0.045
-673.135	-54.861	-0.130	0.060
-672.120	131.375	-0.155	-0.202
-671.105	-34.630	0.131	0.073
-670.091	100.097	-0.336	0.394
-669.076	118.838	-0.069	-0.086
-668.062	203.921	0.151	-0.237
-667.047	-142.872	-0.282	-0.028
-666.032	447.933	0.082	0.183
-665.018	-51.932	-0.217	0.102
-664.003	-87.152	0.141	-0.043
-662.989	88.645	0.200	0.225
-661.974	-69.748	-0.194	-0.075
-660.959	426.390	0.074	-0.161
-659.945	-41.578	-0.298	-0.155
-658.930	-92.375	0.171	-0.049
-657.916	-84.360	-0.044	-0.014
-656.901	800.000	0.050	0.148
-655.886	534.022	-0.110	0.264
-654.872	-147.245	-0.023	0.002
-653.857	-27.160	-0.261	0.154
-652.843	-2.850	0.262	-0.185
-651.828	566.348	0.047	0.116
-650.814	-200.000	-0.035	0.225
-649.799	-116.188	-0.128	0.024
-648.784	-9.216	0.167	-0.113
-647.770	-7.482	-0.195	0.133
-646.755	-71.265	0.172	0.065
-645.741	26.938	-0.191	-0.162
-644.726	17.488	0.126	-0.101
-643.711	-58.758	-0.300	0.131
-642.697	402.170	0.072	-0.152
-641.682	-200.000	-0.014	0.206
-640.668	800.000	-0.016	0.057
-639.653	317.124	-0.098	0.187
-638.638	-95.787	-0.109	-0.029
-637.624	-200.000	0.042	-0.277
-636.609	-20.620	0.052	-0.032
-635.595	183.036	0.071	-0.105
-634.580	-96.428	0.229	-0.061
-633.565	-75.421	0.198	0.071
-632.551	306.511	0.100	0.189
-631.536	-41.445	-0.285	0.148
-630.522	274.593	0.156	-0.279
-629.507	135.036	0.166	-0.218
-628.492	-148.769	0.050	-0.004
-627.478	16.311	0.221	-0.176
-626.463	68.519	-0.270	-0.279
-625.449	289.207	-0.135	-0.247
-624.434	-200.000	-0.055	-0.378
-623.419	157.388	-0.085	-0.118
-622.405	-200.000	0.024	-0.178
-621.390	-108.726	0.273	-0.059
-620.376	-145.810	0.143	0.013
-619.361	-42.310	-0.134	-0.069
-618.346	191.287	-0.242	0.367
-617.332	-113.071	0.242	0.048
-616.317	800.000	-0.033	-0.106
-615.303	800.000	0.133	-0.514
-614.288	9.407	-0.244	-0.186
-613.273	87.474	-0.211	-0.236
-612.259	-200.000	0.017	0.240
-611.244	29.239	-0.042	0.036
-610.230	-200.000	-0.050	0.400
-609.215	-200.000	-0.088	-0.397
-608.201	800.000	0.018	0.053
-607.186	267.967	-0.084	0.148
-606.171	22.880	-0.170	0.140
-605.157	315.093	0.153	0.291
-604.142	-50.497	-0.345	-0.164
-603.128	-150.296	-0.136	0.011
-602.113	-121.111	-0.021	0.003
-601.098	172.978	0.100	-0.145
-600.084	-111.773	0.270	0.055
-599.069	-80.698	0.228	-0.076
-598.055	-24.915	0.213	-0.128
-597.040	-200.000	-0.020	0.197
-596.025	-168.903	-0.276	0.010
-595.011	568.413	0.039	-0.097
-593.996	-3.985	0.164	-0.115
-592.982	-126.630	0.065	0.010
-591.967	-169.877	-0.027	0.001
-590.952	85.467	0.077	-0.085
-589.938	-200.000	-0.032	-0.188
-588.923	-42.864	0.256	0.131
-587.909	156.337	0.202	-0.281
-586.894	-51.989	-0.170	-0.080
-585.879	757.403	0.066	-0.179
-584.865	-3.984	-0.162	0.113
-583.850	4.818	0.320	0.237
-582.836	7.496	-0.385	0.290
-581.821	255.866	0.291	0.502
-580.806	-45.565	-0.182	0.091
-579.792	68.280	-0.132	0.136
-578.777	13.034	-0.112	-0.087
-577.763	353.140	0.262	0.523
-576.748	-44.264	0.229	-0.116
-575.733	-27.438	0.176	-0.103
-574.719	800.000	-0.129	-0.439
-573.704	-85.268	0.093	0.029
-572.690	364.668	0.058	-0.117
-571.675	-200.000	0.000	0.004
-570.661	28.101	-0.078	0.067
-569.646	-200.000	0.005	-0.162
-568.631	208.862	-0.101	0.159
-567.617	-84.338	-0.354	-0.113
-566.602	-47.597	-0.098	-0.048
-565.588	70.439	0.053	-0.056
-564.573	-122.878	-0.453	0.074
-563.558	-39.988	-0.141	0.074
-562.544	-98.435	0.119	0.031
-561.529	-200.000	-0.007	-0.236
-560.515	-61.567	-0.049	0.021
-559.500	800.000	0.033	-0.108
-558.485	-108.158	-0.197	-0.043
-557.471	-112.612	-0.145	-0.029
-556.456	-110.971	-0.226	-0.047
-555.442	639.622	0.096	-0.246
-554.427	-107.089	0.170	-0.038
-553.412	-61.703	-0.251	0.106
-552.398	10.698	0.235	-0.180
-551.383	57.795	0.088	-0.086
-550.369	-23.002	-0.043	0.026
-549.354	-30.125	-0.166	-0.095
-548.339	-200.000	0.066	-0.707
-547.325	-47.761	-0.121	-0.059
-546.310	4.062	-0.098	-0.072
-545.296	-200.000	-0.026	0.186
-544.281	-114.201	0.357	-0.069
-543.266	-106.298	-0.066	-0.015
-542.252	260.493	-0.023	0.040
-541.237	-103.392	0.209	0.050
-540.223	55.160	-0.242	0.235
-539.208	318.205	-0.045	-0.085
-538.193	293.623	0.171	-0.314
-537.179	-102.019	0.202	0.049
-536.164	-200.000	0.021	0.166
-535.150	-138.033	0.088	-0.010
-534.135	354.693	-0.051	0.103
-533.121	335.589	-0.011	0.022
-532.106	-200.000	-0.001	0.194
-531.091	136.801	0.026	0.034
-530.077	244.548	-0.050	0.084
-529.062	-157.828	0.118	-0.007
-528.048	-115.777	-0.297	0.056
-527.033	449.437	0.057	0.127
-526.018	-200.000	0.029	-0.342
-525.004	800.000	0.079	-0.264
-523.989	800.000	-0.064	0.194
-522.975	-200.000	-0.002	0.090
-521.960	-43.157	-0.214	-0.109
-520.945	4.135	-0.196	-0.144
-519.931	149.684	-0.102	0.139
-518.916	-179.637	-0.282	0.006
-517.902	-187.571	-0.193	0.003
-516.887	-18.931	-0.124	0.077
-515.872	-49.297	0.201	-0.096
-514.858	135.647	0.084	0.110
-513.843	187.917	-0.178	-0.267
-512.829	800.000	-0.050	0.214
-511.814	-196.022	0.285	-0.002
-510.799	-118.172	-0.099	-0.018
-509.785	800.000	-0.012	0.041
-508.770	-40.076	-0.116	0.061
-507.756	-69.155	0.141	-0.054
-506.741	-151.408	-0.342	0.026
-505.726	-74.847	0.087	-0.031
-504.712	615.033	0.057	0.144
-503.697	196.509	-0.083	-0.127
-502.683	-29.241	-0.171	-0.098
-501.668	-131.123	0.448	0.060
-500.653	800.000	0.050	0.187
-499.639	-14.804	-0.041	0.027
-498.624	-8.665	0.184	0.124
-497.610	35.537	0.091	-0.080
-496.595	-181.201	-0.093	-0.002
-495.581	-3.833	-0.118	-0.082
-494.566	-82.310	0.358	-0.117
-493.551	-26.314	0.411	0.242
-492.537	14.399	0.128	-0.100
-491.522	41.448	-0.237	0.215
-490.508	-80.549	-0.361	-0.121
-489.493	3.787	-0.244	-0.179
-488.478	92.564	0.251	-0.284
-487.464	615.592	-0.127	-0.318
-486.449	-132.853	-0.253	-0.032
-485.435	-163.005	-0.102	-0.005
-484.420	-163.100	0.305	0.015
-483.405	-71.290	0.090	-0.034
-482.391	-136.368	-0.023	-0.003
-481.376	800.000	0.028	0.112
-480.362	-111.400	-0.106	-0.022
-479.347	-96.757	0.122	0.032
-478.332	800.000	-0.053	-0.198
-477.318	206.529	-0.021	0.034
-476.303	800.000	-0.067	0.282
-475.289	-105.720	0.242	-0.055
-474.274	18.264	0.135	-0.108
-473.259	-200.000	-0.032	-0.356
-472.245	201.745	0.100	-0.154
-471.230	329.286	-0.106	-0.205
-470.216	181.710	-0.132	0.195
-469.201	-162.300	0.194	-0.010
-468.186	-53.733	0.232	0.106
-467.172	-88.181	-0.196	-0.059
-466.157	118.929	-0.031	0.039
-465.143	-180.324	0.109	0.002
-464.128	-53.687	0.127	-0.058
-463.113	800.000	0.178	-0.516
-462.099	-70.243	0.386	0.147
-461.084	117.275	0.284	-0.350
-460.070	-46.250	0.225	-0.111
-459.055	2.339	-0.175	0.127
-458.040	-200.000	0.008	-0.326
-457.026	-95.635	-0.400	0.107
-456.011	-33.674	-0.163	-0.090
-454.997	548.636	0.051	-0.123
-453.982	-106.927	0.269	-0.060
-452.968	-57.725	0.056	-0.024
-451.953	-26.036	0.045	0.026
-450.938	148.018	-0.159	0.216
-449.924	-11.362	-0.149	-0.098
-448.909	45.764	0.203	0.188
-447.895	-24.644	0.168	-0.100
-446.880	-200.000	0.005	0.051
-445.865	166.665	-0.142	0.201
-444.851	800.000	-0.029	0.095
-443.836	111.731	-0.233	0.282
-442.822	-84.835	-0.417	-0.131
-441.807	800.000	0.046	0.187
-440.792	-50.218	0.243	0.115
-439.778	800.000	0.128	-0.393
-438.763	677.008	-0.040	-0.103
-437.749	-60.941	0.458	-0.194
-436.734	74.593	-0.068	-0.072
-435.719	25.392	0.185	0.154
-434.705	-77.021	-0.068	0.024
-433.690	667.181	0.088	-0.229
-432.676	19.624	-0.234	0.188
-431.661	36.230	0.312	0.275
-430.646	-102.556	0.315	-0.075
-429.632	-56.077	-0.234	0.104
-428.617	131.048	-0.100	0.129
-427.603	-107.508	-0.137	0.030
-426.588	212.686	0.135	-0.213
-425.573	123.275	-0.173	-0.217
-424.559	-71.085	-0.172	-0.065
-423.544	-27.131	-0.323	-0.189
-422.530	193.164	-0.166	0.251
-421.515	-93.639	0.187	0.052
-420.500	-69.618	-0.110	0.042
-419.486	299.384	0.039	-0.072
-418.471	98.955	-0.148	-0.171
-417.457	-72.224	0.124	0.046
-416.442	26.303	-0.117	0.098
-415.428	80.518	0.130	-0.141
-414.413	-22.984	0.033	-0.020
-413.398	44.613	-0.166	0.153
-412.384	-159.106	0.326	0.018
-411.369	127.816	0.222	0.282
-410.355	48.318	0.267	-0.250
-409.340	-131.089	-0.108	-0.014
-408.325	230.470	0.109	0.178
-407.311	-31.121	-0.203	0.115
-406.296	-45.445	0.035	-0.017
-405.282	163.027	-0.069	-0.096
-404.267	-200.000	-0.001	-0.026
-403.252	156.849	0.020	-0.028
-402.238	-33.103	-0.239	-0.133
-401.223	-85.166	-0.226	-0.071
-400.209	-46.748	-0.034	-0.017
-399.194	14.171	-0.264	0.206
-398.179	-52.653	0.176	-0.081
-397.165	157.316	-0.062	0.085
-396.150	800.000	-0.086	-0.275
-395.136	-200.000	-0.019	-0.115
-394.121	-81.410	0.085	0.028
-393.106	800.000	-0.038	0.158
-392.092	-112.627	0.262	0.052
-391.077	-48.732	0.263	-0.126
-390.063	-111.725	0.114	-0.023
-389.048	-114.173	0.089	-0.017
-388.033	-200.000	-0.001	0.211
-387.019	-12.756	-0.276	0.180
-386.004	375.465	0.052	0.105
-384.990	-100.928	0.123	0.030
-383.975	219.241	0.083	0.133
-382.960	30.128	0.118	0.101
-381.946	800.000	-0.061	0.227
-380.931	800.000	0.048	-0.139
-379.917	141.229	0.134	0.177
-378.902	-200.000	-0.082	0.414
-377.888	596.833	-0.063	0.155
-376.873	-144.936	0.199	0.018
-375.858	-66.757	0.134	-0.053
-374.844	48.875	0.208	0.195
-373.829	-64.687	0.151	-0.061
-372.815	29.060	0.281	-0.238
-371.800	64.603	-0.114	-0.114
-370.785	-42.592	-0.083	-0.042
-369.771	-74.813	0.161	-0.058
-368.756	143.994	0.118	0.157
-367.742	432.414	-0.058	-0.125
-366.727	-117.815	0.100	0.018
-365.712	-36.998	-0.382	0.205
-364.698	96.860	-0.171	0.196
-363.683	63.745	0.158	-0.158
-362.669	-200.000	0.066	-0.295
-361.654	-121.090	-0.214	0.036
-360.639	494.958	-0.053	0.122
-359.625	-139.709	0.083	-0.009
-358.610	146.702	-0.136	0.183
-357.596	704.754	-0.055	0.144
-356.581	-71.590	-0.152	-0.057
-355.566	-42.697	0.258	0.131
-354.552	-22.217	-0.187	0.113
-353.537	65.033	0.145	0.146
-352.523	-128.101	0.375	-0.054
-351.508	-5.664	0.229	-0.157
-350.493	200.030	-0.151	-0.231
-349.479	-130.862	-0.279	-0.037
-348.464	-0.882	-0.218	0.154
-347.450	232.919	0.091	0.149
-346.435	-200.000	-0.003	-0.296
-345.420	790.191	0.132	0.363
-344.406	91.616	-0.274	-0.307
-343.391	-200.000	-0.050	0.462
-342.377	-200.000	0.015	-0.212
-341.362	800.000	0.112	-0.331
-340.348	-150.754	-0.529	0.040
-339.333	-53.948	-0.218	-0.099
-338.318	-18.219	-0.262	-0.163
-337.304	-200.000	0.012	0.186
-336.289	-200.000	0.034	0.284
-335.275	476.346	-0.149	-0.336
-334.260	-200.000	-0.041	-0.354
-333.245	56.276	-0.199	-0.193
-332.231	529.927	0.112	0.264
-331.216	-200.000	-0.030	0.144
-330.202	73.937	-0.039	0.041
-329.187	4.732	0.219	0.160
-328.172	-99.007	-0.227	0.057
-327.158	144.858	0.158	0.211
-326.143	351.509	0.176	-0.347
-325.129	-91.166	-0.210	0.060
-324.114	8.117	-0.197	0.148
-323.099	116.419	0.072	0.088
-322.085	34.599	-0.115	0.100
-321.070	85.462	-0.147	0.161
-320.056	800.000	0.040	0.141
-319.041	-111.311	0.180	-0.037
-318.026	-53.234	0.061	-0.028
-317.012	800.000	0.045	-0.158
-315.997	49.016	0.156	0.146
-314.983	36.279	-0.101	0.089
-313.968	800.000	-0.013	0.039
-312.953	-89.278	0.145	-0.042
-311.939	38.973	0.071	0.063
-310.924	-12.808	0.212	-0.137
-309.910	117.951	-0.156	-0.192
-308.895	-200.000	-0.004	0.336
-307.880	-200.000	-0.075	0.000
-306.866	432.088	-0.059	0.127
-305.851	748.468	0.100	0.269
-304.837	222.985	-0.181	-0.290
-303.822	721.742	-0.078	-0.208
-302.807	-37.181	-0.148	-0.079
-301.793	211.218	0.041	0.065
-300.778	-23.947	-0.036	-0.022
-299.764	643.465	0.073	-0.186
-298.749	-159.538	0.192	-0.011
-297.735	-22.237	-0.087	0.052
-296.720	463.886	0.019	-0.043
-295.705	800.000	0.062	0.241
-294.691	38.671	0.209	0.186
-293.676	135.237	0.073	0.094
-292.662	-91.867	-0.039	-0.011
-291.647	-200.000	-0.009	-0.270
-290.632	-167.671	0.140	0.006
-289.618	89.552	0.032	0.035
-288.603	42.008	-0.147	0.133
-287.589	-60.583	-0.190	0.080
-286.574	228.172	0.163	0.265
-285.559	-200.000	-0.019	-0.253
-284.545	-128.654	-0.147	-0.021
-283.530	-39.448	-0.195	-0.102
-282.516	-109.363	0.213	-0.045
-281.501	-47.308	0.125	-0.061
-280.486	-200.000	0.034	0.201
-279.472	416.746	0.121	-0.257
-278.457	271.871	-0.092	0.162
-277.443	-66.475	-0.011	0.005
-276.428	261.419	-0.078	0.134
-275.413	98.137	-0.115	0.132
-274.399	327.963	0.118	-0.226
-273.384	-200.000	0.027	0.525
-272.370	118.895	0.213	0.262
-271.355	50.586	0.181	-0.170
-270.340	25.332	0.160	0.132
-269.326	-177.909	-0.302	-0.007
-268.311	-200.000	0.028	-0.150
-267.297	250.404	-0.056	-0.095
-266.282	800.000	-0.009	-0.033
-265.267	-54.180	-0.132	-0.060
-264.253	-10.934	0.094	-0.062
-263.238	175.639	-0.090	0.130
-262.224	800.000	-0.078	0.257
-261.209	198.183	-0.082	-0.125
-260.195	0.023	-0.271	0.192
-259.180	800.000	0.038	0.148
-258.165	153.927	0.085	-0.116
-257.151	19.786	-0.139	-0.111
-256.136	-89.583	-0.075	-0.022
-255.122	-200.000	-0.051	0.240
-254.107	800.000	0.056	-0.170
-253.092	-124.071	-0.267	-0.042
-252.078	800.000	-0.010	-0.039
-251.063	140.295	-0.145	0.190
-250.049	-23.126	0.191	0.114
-249.034	-200.000	0.048	0.363
-248.019	-74.928	-0.039	0.014
-247.005	78.758	-0.087	-0.093
-245.990	-64.113	0.098	-0.040
-244.976	-108.012	-0.401	-0.087
-243.961	-112.370	0.137	0.027
-242.946	800.000	0.032	0.097
-241.932	243.588	0.124	-0.207
-240.917	-72.492	0.083	0.030
-239.903	-200.000	0.049	-0.297
-238.888	-174.143	0.181	-0.005
-237.873	503.907	0.044	0.102
-236.859	-200.000	-0.063	0.306
-235.844	-33.087	-0.264	-0.146
-234.830	433.576	0.069	0.150
-233.815	-41.747	0.303	-0.155
-232.800	26.757	0.053	-0.044
-231.786	33.873	-0.070	0.060
-230.771	7.448	-0.099	0.074
-229.757	30.150	-0.133	0.113
-228.742	800.000	-0.080	0.245
-227.727	250.355	-0.236	0.398
-226.713	-26.010	-0.142	-0.083
-225.698	76.342	-0.084	-0.088
-224.684	-30.170	-0.319	-0.180
-223.669	-138.882	0.091	-0.010
-222.655	-200.000	0.022	0.192
-221.640	154.039	0.025	-0.034
-220.625	-108.575	0.298	-0.064
-219.611	-82.868	0.101	0.032
-218.596	-90.247	0.142	-0.041
-217.582	87.704	-0.143	-0.158
-216.567	-20.659	0.337	-0.206
-215.552	-40.550	0.199	-0.102
-214.538	790.098	0.049	0.134
-213.523	-26.058	-0.108	0.063
-212.509	-24.277	-0.430	-0.255
-211.494	139.826	-0.036	0.047
-210.479	800.000	0.144	-0.464
-209.465	800.000	0.020	0.068
-208.450	71.009	0.096	-0.099
-207.436	-10.980	0.104	0.068
-206.421	-39.906	0.254	0.131
-205.406	400.661	0.044	-0.091
-204.392	-44.117	-0.139	-0.069
-203.377	-150.718	-0.242	-0.018
-202.363	-135.122	0.205	-0.025
-201.348	224.079	0.084	0.135
-200.333	-76.165	0.289	0.101
-199.319	-163.266	-0.363	-0.017
-198.304	32.443	-0.359	0.308
-197.290	800.000	0.118	0.366
-196.275	49.224	-0.043	-0.041
-195.260	-200.000	-0.124	0.637
-194.246	-48.147	0.280	0.134
-193.231	171.878	-0.056	-0.080
-192.217	-22.972	0.315	-0.188
-191.202	10.469	0.121	0.091
-190.187	-200.000	0.038	0.217
-189.173	76.484	0.270	-0.284
-188.158	800.000	0.071	-0.275
-187.144	-77.960	0.497	0.170
-186.129	-135.598	0.148	-0.017
-185.114	163.852	-0.066	-0.092
-184.100	533.199	0.143	0.336
-183.085	54.772	-0.053	-0.050
-182.071	8.378	0.277	-0.207
-181.056	104.660	-0.211	-0.246
-180.042	4.630	-0.163	-0.119
-179.027	-23.203	0.120	-0.072
-178.012	-200.000	-0.051	-0.383
-176.998	-200.000	-0.013	0.236
-175.983	188.587	-0.104	0.154
-174.969	-200.000	-0.028	0.248
-173.954	-178.785	0.056	0.001
-172.939	467.931	-0.198	0.440
-171.925	-2.757	-0.131	0.091
-170.910	-109.334	0.148	0.031
-169.896	-31.432	-0.131	0.073
-168.881	-69.750	-0.189	0.072
-167.866	-78.363	-0.129	-0.044
-166.852	44.626	0.064	0.059
-165.837	209.162	0.124	-0.193
-164.823	-96.929	-0.284	0.074
-163.808	18.432	0.136	0.108
-162.793	-47.724	0.076	-0.036
-161.779	64.528	0.163	-0.163
-160.764	64.921	0.158	-0.159
-159.750	800.000	-0.036	0.119
-158.735	800.000	-0.075	-0.312
-157.720	347.218	0.079	0.153
-156.706	-129.579	-0.114	-0.016
-155.691	17.851	-0.224	0.177
-154.677	148.646	-0.129	0.172
-153.662	292.523	-0.054	0.097
-152.647	-39.279	0.169	0.088
-151.633	707.168	0.015	-0.038
-150.618	35.291	-0.281	-0.244
-149.604	10.563	-0.057	0.043
-148.589	-200.000	0.000	0.248
-147.574	80.099	-0.327	0.348
-146.560	-16.781	0.152	0.095
-145.545	800.000	0.046	-0.159
-144.531	-121.472	-0.202	-0.033
-143.516	8.631	0.367	-0.274
-142.502	-78.724	0.102	-0.034
-141.487	257.600	-0.017	0.029
-140.472	-112.587	-0.405	0.080
-139.458	141.045	0.177	0.232
-138.443	35.889	-0.152	0.132
-137.429	-191.433	-0.200	-0.002
-136.414	-200.000	-0.010	0.252
-135.399	-34.330	0.119	0.065
-134.385	-51.003	-0.180	0.084
-133.370	70.856	0.306	-0.314
-132.356	123.155	-0.147	0.182
-131.341	95.704	-0.205	0.232
-130.326	24.637	0.423	-0.346
-129.312	-96.760	0.305	0.079
-128.297	131.817	0.013	0.017
-127.283	163.717	0.055	0.077
-126.268	-28.767	0.190	-0.108
-125.253	277.556	0.185	0.326
-124.239	-69.343	-0.390	0.148
-123.224	-200.000	-0.043	-0.339
-122.210	21.037	0.230	-0.185
-121.195	-142.402	0.299	0.029
-120.180	-89.960	0.275	0.079
