DTS Sentinel unit serial number:	SN413079Multiplexer serial number:	ORYXHardware model number:	OX4-SRSoftware version number:	ORYX F/W v4.00 Oryx Data Collector v3.7.2.0data status	okinstallation	princeton_trtdifferential loss correction	single-endedforward channel	channel 4reverse channel	N/Adate	2019/09/13time	09:33:35forward acquisition time	60.00reverse acquisition time	0.00gamma	496.2192k internal	0.2312k external	0.2312temperature offset calibration	1.0195default loss term (dB/km)	0.3790temperature slope calibration	1.0000multiplexer offset coefficient	1.0000multiplexer slope coefficient	1.0000fibre end	0.00T internal ref (°C)	29.56T ext. ref 1 (°C)	4.43T ext. ref 2 (°C)	25.75length (m)	temperature (°C)	Stokes	anti-Stokes-747.200	73.620	-0.144	-0.153
-746.185	-9.421	-0.055	0.037
-745.171	53.953	-0.324	-0.316
-744.156	228.823	-0.138	0.229
-743.142	-95.679	-0.252	-0.069
-742.127	99.710	-0.307	0.360
-741.112	-200.000	-0.002	-0.039
-740.098	-200.000	-0.083	0.388
-739.083	-83.124	0.160	0.052
-738.069	-200.000	-0.005	0.123
-737.054	-29.749	0.184	0.107
-736.039	-138.210	-0.384	-0.043
-735.025	359.003	0.168	0.340
-734.010	-66.959	-0.207	-0.083
-732.996	168.788	-0.145	-0.210
-731.981	29.076	-0.037	-0.032
-730.966	35.143	-0.211	-0.188
-729.952	-0.610	-0.260	0.187
-728.937	320.626	0.081	0.156
-727.923	-88.595	-0.194	-0.058
-726.908	-88.092	-0.235	0.071
-725.894	-200.000	-0.008	-0.045
-724.879	-84.825	0.203	0.065
-723.864	-166.574	-0.446	0.019
-722.850	158.812	0.090	-0.127
-721.835	-200.000	-0.002	-0.185
-720.821	511.112	0.043	0.101
-719.806	-200.000	0.018	0.080
-718.791	-0.187	-0.059	0.043
-717.777	79.235	-0.092	0.100
-716.762	283.393	-0.100	0.182
-715.748	151.507	0.139	-0.192
-714.733	-5.699	0.107	-0.074
-713.718	115.394	0.142	-0.175
-712.704	558.535	-0.080	-0.195
-711.689	-200.000	-0.012	-0.139
-710.675	800.000	0.022	0.080
-709.660	104.623	-0.098	0.117
-708.645	32.657	0.216	-0.189
-707.631	-150.778	-0.335	-0.026
-706.616	646.616	-0.054	0.140
-705.602	-66.123	0.096	0.039
-704.587	-15.074	0.114	0.074
-703.572	-128.538	-0.189	-0.027
-702.558	-200.000	0.007	-0.249
-701.543	-135.323	0.433	0.053
-700.529	-145.995	0.359	0.032
-699.514	36.993	0.134	0.120
-698.499	-72.293	0.187	0.070
-697.485	-200.000	-0.009	-0.109
-696.470	120.234	0.015	0.019
-695.456	-21.705	-0.080	-0.050
-694.441	-187.001	0.214	0.003
-693.426	-38.978	0.176	0.094
-692.412	800.000	-0.043	-0.182
-691.397	643.400	-0.095	-0.245
-690.383	-58.788	0.214	0.094
-689.368	-118.087	-0.167	-0.030
-688.354	-119.621	-0.294	-0.051
-687.339	270.489	-0.098	-0.174
-686.324	800.000	-0.089	-0.281
-685.310	-109.857	0.316	0.067
-684.295	-200.000	-0.016	-0.101
-683.281	37.350	0.203	0.182
-682.266	31.047	-0.020	-0.017
-681.251	-77.553	0.114	-0.040
-680.237	-86.981	0.160	-0.049
-679.222	-44.407	-0.313	0.159
-678.208	-200.000	0.011	-0.132
-677.193	-89.664	0.475	0.141
-676.178	-200.000	0.001	-0.102
-675.164	28.377	0.232	-0.199
-674.149	38.884	0.140	-0.127
-673.135	165.043	-0.163	-0.233
-672.120	273.300	-0.051	-0.090
-671.105	-72.770	0.216	0.080
-670.091	-18.036	-0.180	0.114
-669.076	-200.000	0.004	0.136
-668.062	-200.000	0.030	0.228
-667.047	72.035	-0.265	-0.279
-666.032	245.642	0.197	-0.336
-665.018	-80.373	-0.222	0.075
-664.003	-146.956	0.265	0.023
-662.989	21.657	-0.042	0.034
-661.974	-180.758	-0.136	-0.003
-660.959	800.000	-0.038	0.162
-659.945	17.506	-0.152	-0.122
-658.930	-54.213	0.092	0.042
-657.916	-200.000	0.010	-0.179
-656.901	268.159	0.107	0.189
-655.886	152.443	-0.135	0.186
-654.872	86.541	-0.083	-0.093
-653.857	-83.407	0.387	0.126
-652.843	-89.816	-0.189	-0.056
-651.828	-54.782	0.252	0.115
-650.814	-66.364	0.103	0.041
-649.799	217.279	0.094	0.151
-648.784	-200.000	0.074	0.329
-647.770	-110.645	-0.160	-0.034
-646.755	58.936	-0.264	0.262
-645.741	-144.999	-0.168	0.015
-644.726	146.841	0.041	-0.055
-643.711	-200.000	0.016	-0.212
-642.697	58.753	-0.097	-0.097
-641.682	104.430	0.146	0.173
-640.668	81.812	-0.054	-0.059
-639.653	-37.381	0.086	-0.047
-638.638	213.333	0.154	0.245
-637.624	-140.773	0.205	-0.021
-636.609	43.784	-0.053	-0.049
-635.595	120.622	-0.033	-0.041
-634.580	-200.000	0.040	0.230
-633.565	-200.000	0.030	0.438
-632.551	-111.109	-0.223	0.046
-631.536	-58.277	-0.153	-0.067
-630.522	-200.000	0.054	-0.264
-629.507	-200.000	0.041	0.242
-628.492	391.620	0.115	0.241
-627.478	90.886	-0.211	-0.239
-626.463	-69.941	0.176	0.068
-625.449	18.058	-0.144	0.116
-624.434	-99.640	0.144	-0.036
-623.419	9.025	-0.350	-0.267
-622.405	306.476	0.030	0.056
-621.390	441.346	-0.127	0.282
-620.376	800.000	-0.061	0.244
-619.361	44.667	0.256	0.238
-618.346	-200.000	0.016	-0.230
-617.332	1.887	0.137	-0.100
-616.317	-136.514	-0.166	0.019
-615.303	170.546	-0.087	-0.126
-614.288	-128.832	0.205	-0.029
-613.273	480.814	0.127	0.290
-612.259	58.256	-0.065	0.065
-611.244	-115.746	-0.079	-0.015
-610.230	-122.642	-0.208	-0.034
-609.215	260.566	-0.176	0.307
-608.201	322.311	0.126	-0.242
-607.186	350.586	-0.185	0.369
-606.171	269.089	0.211	-0.373
-605.157	549.114	0.136	-0.328
-604.142	800.000	0.043	-0.176
-603.128	-200.000	-0.017	-0.078
-602.113	-117.717	0.059	-0.011
-601.098	-109.583	0.252	-0.054
-600.084	19.426	0.055	-0.044
-599.069	53.559	-0.258	0.249
-598.055	800.000	-0.022	-0.098
-597.040	-34.117	0.106	0.059
-596.025	-112.660	-0.325	-0.065
-595.011	302.417	0.166	-0.310
-593.996	-200.000	0.079	-0.424
-592.982	-122.056	-0.160	0.027
-591.967	373.880	-0.134	-0.276
-590.952	-2.026	-0.022	0.015
-589.938	-200.000	0.017	-0.189
-588.923	776.950	-0.065	-0.178
-587.909	181.898	-0.113	-0.168
-586.894	489.557	-0.050	0.115
-585.879	-109.539	-0.095	-0.020
-584.865	-200.000	-0.027	0.199
-583.850	-2.610	0.318	0.224
-582.836	-140.388	-0.465	-0.049
-581.821	-3.966	-0.145	0.102
-580.806	300.777	-0.108	-0.201
-579.792	13.727	-0.201	0.158
-578.777	-200.000	0.008	0.201
-577.763	64.953	-0.143	-0.146
-576.748	-59.875	0.235	-0.101
-575.733	557.070	0.049	-0.119
-574.719	-75.203	0.140	0.050
-573.704	-11.716	0.197	0.131
-572.690	-200.000	0.011	0.081
-571.675	438.769	0.025	0.054
-570.661	-200.000	0.010	0.094
-569.646	-139.121	-0.223	-0.024
-568.631	753.884	0.040	-0.109
-567.617	-200.000	-0.032	-0.143
-566.602	-67.217	-0.243	-0.097
-565.588	-200.000	0.026	-0.332
-564.573	-200.000	-0.006	0.157
-563.558	335.391	-0.090	0.175
-562.544	-171.437	-0.070	-0.002
-561.529	-200.000	-0.040	-0.205
-560.515	31.249	-0.083	0.072
-559.500	-37.320	-0.071	-0.038
-558.485	86.785	0.133	-0.148
-557.471	-151.883	-0.268	0.020
-556.456	100.126	-0.097	-0.114
-555.442	-12.164	-0.128	0.084
-554.427	800.000	-0.090	-0.285
-553.412	1.909	-0.144	0.104
-552.398	-200.000	-0.009	-0.047
-551.383	-200.000	-0.011	-0.060
-550.369	-41.718	0.055	0.029
-549.354	-200.000	-0.023	-0.168
-548.339	561.548	-0.064	0.156
-547.325	800.000	-0.016	-0.052
-546.310	166.153	-0.288	0.410
-545.296	62.624	-0.170	-0.171
-544.281	117.891	-0.091	0.113
-543.266	-58.973	0.212	-0.092
-542.252	5.817	-0.086	0.064
-541.237	-200.000	0.025	0.139
-540.223	84.343	-0.155	0.171
-539.208	-66.510	-0.459	0.183
-538.193	84.002	0.127	-0.140
-537.179	-120.479	0.158	0.027
-536.164	170.820	-0.408	0.589
-535.150	-200.000	-0.063	0.471
-534.135	-68.265	-0.111	0.044
-533.121	36.712	0.101	0.090
-532.106	-200.000	-0.024	-0.149
-531.091	-85.763	-0.477	-0.149
-530.077	-200.000	0.047	-0.352
-529.062	800.000	0.096	-0.341
-528.048	-100.656	0.110	-0.027
-527.033	157.371	-0.018	0.026
-526.018	-96.847	-0.104	-0.028
-525.004	-103.531	0.344	-0.081
-523.989	-200.000	-0.008	0.057
-522.975	-2.519	0.108	-0.076
-521.960	248.092	-0.033	0.056
-520.945	189.249	-0.035	-0.053
-519.931	-130.859	0.345	-0.047
-518.916	455.493	-0.028	0.063
-517.902	-127.645	0.136	0.020
-516.887	297.331	-0.111	-0.206
-515.872	17.344	-0.112	-0.089
-514.858	157.342	-0.084	-0.117
-513.843	-200.000	-0.024	-0.230
-512.829	477.183	-0.101	0.229
-511.814	117.927	-0.053	-0.066
-510.799	128.249	-0.333	-0.426
-509.785	-21.239	0.106	-0.065
-508.770	718.742	0.033	-0.089
-507.756	14.550	0.189	-0.148
-506.741	-132.890	0.243	-0.031
-505.726	44.608	0.251	0.232
-504.712	-200.000	-0.018	0.122
-503.697	114.565	0.081	-0.100
-502.683	-87.106	0.556	0.170
-501.668	98.361	0.063	-0.073
-500.653	-108.148	0.199	-0.043
-499.639	-43.064	0.087	-0.044
-498.624	356.776	0.185	-0.371
-497.610	4.517	-0.079	0.058
-496.595	800.000	-0.083	-0.280
-495.581	36.516	0.314	-0.279
-494.566	-168.085	0.114	-0.004
-493.551	-19.282	-0.083	-0.052
-492.537	87.306	-0.094	-0.104
-491.522	-122.301	-0.132	0.022
-490.508	-11.491	-0.221	-0.146
-489.493	76.185	0.264	-0.281
-488.478	-155.069	-0.153	0.010
-487.464	800.000	-0.090	-0.259
-486.449	-135.875	-0.222	0.026
-485.435	-180.107	-0.329	0.007
-484.420	-12.339	-0.148	0.097
-483.405	40.125	0.065	-0.059
-482.391	560.047	-0.053	0.128
-481.376	-76.327	0.359	0.127
-480.362	800.000	0.116	-0.370
-479.347	800.000	0.083	-0.290
-478.332	1.787	0.178	-0.129
-477.318	-31.827	-0.320	-0.180
-476.303	800.000	-0.063	-0.196
-475.289	-20.600	-0.109	-0.067
-474.274	-200.000	-0.059	0.286
-473.259	-112.783	0.217	0.043
-472.245	-41.287	0.116	0.060
-471.230	-59.325	-0.253	0.109
-470.216	164.564	-0.107	-0.152
-469.201	-17.649	0.175	0.110
-468.186	57.611	0.138	0.136
-467.172	179.348	-0.127	-0.186
-466.157	178.503	-0.073	-0.108
-465.143	-200.000	-0.038	0.200
-464.128	211.735	0.134	-0.212
-463.113	239.337	-0.206	-0.344
-462.099	800.000	-0.126	0.363
-461.084	-75.688	-0.119	-0.042
-460.070	178.354	-0.208	0.304
-459.055	267.863	0.275	-0.483
-458.040	-200.000	-0.026	-0.118
-457.026	28.800	0.345	-0.293
-456.011	57.831	0.215	-0.212
-454.997	365.858	-0.094	0.190
-453.982	-75.337	-0.435	-0.156
-452.968	-123.523	-0.063	-0.010
-451.953	689.471	0.067	-0.175
-450.938	134.301	0.126	0.164
-449.924	317.656	0.081	-0.154
-448.909	-153.753	-0.267	-0.018
-447.895	89.308	-0.089	-0.099
-446.880	295.793	0.090	-0.166
-445.865	133.984	-0.061	0.079
-444.851	-84.739	0.064	0.020
-443.836	-200.000	-0.063	0.369
-442.822	242.574	-0.089	0.149
-441.807	76.354	0.151	0.160
-440.792	-6.733	0.065	-0.044
-439.778	30.520	-0.332	-0.285
-438.763	31.650	0.242	-0.209
-437.749	-200.000	0.016	-0.136
-436.734	-120.444	-0.405	-0.069
-435.719	62.401	-0.297	0.298
-434.705	-12.433	-0.132	-0.086
-433.690	472.020	-0.117	-0.264
-432.676	180.302	0.002	-0.003
-431.661	-148.026	0.358	-0.030
-430.646	140.793	-0.183	-0.242
-429.632	-178.910	-0.052	0.001
-428.617	-125.062	-0.073	0.011
-427.603	103.637	0.237	-0.279
-426.588	-200.000	0.023	-0.125
-425.573	-200.000	-0.033	-0.274
-424.559	782.085	-0.163	-0.446
-423.544	-0.459	0.076	0.054
-422.530	-91.351	0.103	0.029
-421.515	-13.377	-0.179	0.116
-420.500	-63.037	0.305	-0.126
-419.486	93.840	0.202	-0.229
-418.471	-93.368	-0.035	-0.010
-417.457	61.819	0.106	0.106
-416.442	-79.484	-0.046	0.016
-415.428	119.020	-0.067	-0.083
-414.413	-149.180	0.243	0.019
-413.398	-70.863	0.358	0.135
-412.384	147.668	0.121	0.163
-411.369	800.000	0.057	-0.199
-410.355	-121.989	0.167	-0.027
-409.340	-200.000	0.026	0.375
-408.325	12.597	0.125	-0.096
-407.311	-200.000	-0.017	-0.106
-406.296	598.989	0.079	-0.195
-405.282	258.142	-0.094	-0.162
-404.267	259.854	0.156	0.269
-403.252	-200.000	-0.036	-0.171
-402.238	800.000	-0.020	-0.066
-401.223	40.131	0.106	0.096
-400.209	800.000	0.065	-0.251
-399.194	-54.615	0.185	0.084
-398.179	104.070	0.335	0.394
-397.165	345.688	-0.087	0.170
-396.150	-15.258	0.086	0.055
-395.136	800.000	0.090	-0.299
-394.121	-200.000	0.006	0.146
-393.106	69.254	-0.012	0.013
-392.092	49.395	-0.187	0.176
-391.077	-184.980	0.216	0.003
-390.063	-13.170	0.119	-0.077
-389.048	-100.673	-0.150	-0.037
-388.033	202.151	-0.068	0.104
-387.019	117.464	0.217	-0.267
-386.004	-200.000	0.038	-0.324
-384.990	-200.000	0.009	-0.125
-383.975	-39.824	-0.216	-0.113
-382.960	-200.000	0.110	-0.000
-381.946	30.769	-0.116	0.100
-380.931	800.000	0.051	-0.162
-379.917	63.842	0.155	0.156
-378.902	673.551	-0.086	0.223
-377.888	-107.513	-0.242	-0.053
-376.873	-101.264	0.213	-0.052
-375.858	-74.379	-0.075	-0.027
-374.844	148.005	0.063	0.085
-373.829	276.770	0.149	-0.265
-372.815	-200.000	0.038	0.235
-371.800	157.192	0.077	-0.106
-370.785	-83.027	-0.100	-0.032
-369.771	-200.000	-0.053	0.407
-368.756	519.409	0.030	-0.070
-367.742	158.552	0.152	0.211
-366.727	-30.692	0.115	0.065
-365.712	-200.000	-0.006	0.081
-364.698	-124.270	0.197	0.031
-363.683	124.980	-0.130	-0.164
-362.669	317.905	0.132	0.249
-361.654	-200.000	0.008	-0.133
-360.639	800.000	0.087	0.352
-359.625	79.905	0.077	0.083
-358.610	45.845	0.225	0.208
-357.596	800.000	-0.016	-0.061
-356.581	-91.748	-0.389	-0.111
-355.566	-123.608	0.165	0.026
-354.552	-108.826	0.191	0.041
-353.537	195.362	-0.134	-0.203
-352.523	800.000	-0.014	0.056
-351.508	-200.000	-0.007	0.344
-350.493	146.150	-0.099	0.132
-349.479	-200.000	0.012	0.170
-348.464	800.000	0.051	-0.166
-347.450	247.092	-0.081	0.137
-346.435	109.610	0.055	-0.065
-345.420	800.000	-0.111	-0.398
-344.406	-81.301	0.150	-0.049
-343.391	569.018	-0.040	0.096
-342.377	218.762	0.163	0.260
-341.362	484.433	0.074	0.168
-340.348	131.697	-0.137	0.176
-339.333	-18.236	0.143	-0.090
-338.318	-97.167	-0.164	0.043
-337.304	-200.000	-0.072	0.463
-336.289	116.096	-0.105	-0.129
-335.275	524.773	0.076	0.178
-334.260	800.000	-0.078	0.249
-333.245	277.729	-0.057	0.101
-332.231	712.258	0.088	0.233
-331.216	7.243	0.359	0.267
-330.202	-157.858	0.276	0.016
-329.187	800.000	-0.048	-0.177
-328.172	-122.865	-0.275	-0.044
-327.158	-115.194	0.223	-0.042
-326.143	38.400	-0.365	0.325
-325.129	-200.000	-0.009	0.205
-324.114	15.718	0.254	-0.200
-323.099	-19.232	-0.189	-0.117
-322.085	56.603	0.131	0.127
-321.070	29.345	-0.208	-0.177
-320.056	134.300	0.054	0.070
-319.041	-21.181	0.070	0.043
-318.026	30.949	0.169	0.144
-317.012	-31.442	-0.167	0.094
-315.997	164.878	0.174	0.245
-314.983	-200.000	0.041	0.418
-313.968	-166.813	-0.267	0.011
-312.953	-200.000	-0.045	0.403
-311.939	-200.000	-0.035	0.199
-310.924	559.236	-0.062	0.149
-309.910	800.000	-0.039	0.122
-308.895	59.610	0.198	0.195
-307.880	-134.325	-0.102	0.012
-306.866	345.328	0.154	-0.302
-305.851	349.135	0.005	0.009
-304.837	-162.985	-0.260	-0.013
-303.822	79.049	-0.042	-0.045
-302.807	-80.210	0.177	0.059
-301.793	205.700	-0.114	0.177
-300.778	-79.574	-0.177	0.060
-299.764	123.376	-0.064	0.080
-298.749	800.000	-0.103	-0.344
-297.735	-105.558	-0.197	0.045
-296.720	-20.749	0.037	-0.023
-295.705	-63.744	0.225	-0.092
-294.691	51.300	-0.143	-0.136
-293.676	-200.000	0.093	0.548
-292.662	360.042	0.090	0.180
-291.647	-47.910	-0.262	-0.126
-290.632	-200.000	-0.023	-0.479
-289.618	-200.000	-0.034	-0.167
-288.603	-46.581	0.041	0.020
-287.589	754.470	0.011	-0.029
-286.574	-48.973	0.313	0.150
-285.559	-186.616	-0.389	-0.005
-284.545	-200.000	0.047	-0.234
-283.530	-116.906	0.307	0.056
-282.516	-200.000	-0.012	0.084
-281.501	-166.954	0.142	0.006
-280.486	-200.000	-0.039	0.182
-279.472	-200.000	-0.018	0.162
-278.457	447.330	-0.122	0.267
-277.443	202.170	-0.195	0.299
-276.428	755.778	0.095	0.256
-275.413	800.000	0.065	-0.215
-274.399	-200.000	-0.020	-0.176
-273.384	-101.315	0.317	0.077
-272.370	-77.377	-0.116	0.040
-271.355	-100.210	-0.373	0.092
-270.340	130.791	-0.084	0.108
-269.326	264.527	-0.146	0.254
-268.311	800.000	-0.048	0.191
-267.297	-200.000	0.018	0.085
-266.282	-58.777	-0.285	0.123
-265.267	97.565	0.203	0.232
-264.253	175.575	-0.207	0.299
-263.238	427.295	-0.113	-0.242
-262.224	357.664	0.044	0.088
-261.209	-200.000	0.010	-0.229
-260.195	-84.621	-0.218	-0.068
-259.180	-48.068	-0.270	-0.130
-258.165	-68.728	0.144	-0.056
-257.151	-200.000	-0.007	0.116
-256.136	200.013	0.131	-0.200
-255.122	25.189	-0.092	-0.076
-254.107	-200.000	0.060	-0.367
-253.092	-147.816	0.159	-0.013
-252.078	357.193	-0.041	-0.081
-251.063	-103.921	0.161	-0.037
-250.049	163.756	0.195	0.273
-249.034	406.271	-0.109	0.228
-248.019	724.231	-0.106	-0.282
-247.005	-23.053	0.192	0.115
-245.990	-58.353	0.180	-0.078
-244.976	-95.358	0.212	-0.057
-243.961	-54.324	0.134	-0.061
-242.946	37.648	-0.065	0.058
-241.932	-44.982	0.134	0.066
-240.917	443.580	-0.058	0.126
-239.903	42.061	0.226	-0.204
-238.888	-131.770	0.196	0.026
-237.873	308.031	0.137	-0.255
-236.859	-105.024	-0.215	-0.049
-235.844	-33.598	-0.144	0.079
-234.830	5.014	0.165	-0.121
-233.815	206.750	0.188	-0.291
-232.800	290.939	0.244	-0.441
-231.786	141.171	-0.245	-0.323
-230.771	443.000	-0.094	0.205
-229.757	-33.212	0.085	-0.047
-228.742	-200.000	-0.021	0.218
-227.727	8.691	-0.139	0.104
-226.713	31.412	0.097	-0.083
-225.698	-173.384	0.157	-0.005
-224.684	-200.000	0.046	-0.211
-223.669	-147.533	-0.303	0.025
-222.655	-139.695	0.266	-0.028
-221.640	339.321	0.074	0.142
-220.625	65.684	-0.113	0.114
-219.611	-124.662	-0.299	-0.046
-218.596	-200.000	-0.006	0.099
-217.582	428.914	-0.079	0.170
-216.567	-79.450	0.134	0.045
-215.552	-88.482	-0.165	-0.049
-214.538	-200.000	0.016	-0.201
-213.523	251.764	0.175	-0.295
-212.509	80.662	0.118	0.126
-211.494	94.096	0.132	0.149
-210.479	1.792	-0.116	0.083
-209.465	11.666	-0.115	0.088
-208.450	110.040	0.153	-0.182
-207.436	-41.314	-0.327	-0.167
-206.421	244.646	-0.036	-0.061
-205.406	-35.104	-0.173	0.094
-204.392	-13.156	0.251	0.162
-203.377	800.000	0.025	-0.070
-202.363	-146.920	-0.109	0.009
-201.348	322.110	0.113	0.214
-200.333	206.489	-0.083	-0.128
-199.319	-90.551	-0.122	0.035
-198.304	-39.959	0.193	-0.100
-197.290	59.972	0.061	-0.059
-196.275	216.389	-0.166	-0.262
-195.260	-200.000	0.118	-0.000
-194.246	-199.252	0.084	-0.000
-193.231	261.394	0.208	-0.358
-192.217	-91.706	-0.201	-0.057
-191.202	3.692	-0.172	-0.124
-190.187	185.377	0.088	0.130
-189.173	-49.401	-0.107	0.051
-188.158	8.396	0.250	-0.187
-187.144	-188.735	0.364	-0.004
-186.129	800.000	0.056	0.182
-185.114	-166.682	-0.112	0.005
-184.100	-163.068	0.201	0.010
-183.085	-200.000	0.033	-0.323
-182.071	605.166	-0.090	0.223
-181.056	-32.788	-0.070	-0.039
-180.042	290.279	0.072	0.130
-179.027	3.588	0.587	0.425
-178.012	-82.530	-0.329	0.106
-176.998	-43.760	0.253	0.127
-175.983	-200.000	0.010	0.367
-174.969	-107.906	0.340	-0.073
-173.954	-134.734	-0.218	-0.026
-172.939	138.944	-0.161	0.210
-171.925	9.765	-0.034	0.026
-170.910	-131.057	-0.176	0.023
-169.896	-65.109	-0.195	-0.078
-168.881	-29.298	0.125	0.071
-167.866	-64.004	0.128	0.052
-166.852	-124.506	-0.189	0.029
-165.837	-41.722	0.068	-0.035
-164.823	-73.215	0.064	-0.023
-163.808	-8.622	-0.227	-0.151
-162.793	-200.000	-0.017	0.310
-161.779	191.386	0.073	0.109
-160.764	628.173	0.021	0.051
-159.750	182.745	0.072	0.105
-158.735	-73.704	0.159	0.057
-157.720	-114.048	0.239	0.046
-156.706	-200.000	0.014	-0.142
-155.691	-156.934	-0.195	-0.012
-154.677	239.198	0.024	0.039
-153.662	-67.822	-0.338	-0.131
-152.647	290.743	-0.142	0.255
-151.633	-132.635	0.222	0.028
-150.618	-146.410	-0.204	-0.018
-149.604	800.000	0.099	-0.363
-148.589	119.338	0.079	0.097
-147.574	348.757	-0.142	-0.277
-146.560	-156.796	0.073	0.004
-145.545	-45.479	0.511	0.251
-144.531	800.000	-0.034	0.116
-143.516	-137.570	-0.289	0.032
-142.502	-117.368	-0.233	0.042
-141.487	-8.825	-0.226	0.150
-140.472	-68.342	0.122	-0.047
-139.458	-200.000	-0.005	0.379
-138.443	-102.846	0.316	-0.074
-137.429	800.000	0.072	-0.267
-136.414	-118.367	-0.111	-0.020
-135.399	365.965	0.055	-0.110
-134.385	7.899	0.108	0.080
-133.370	-200.000	0.034	0.156
-132.356	114.461	-0.125	0.151
-131.341	800.000	-0.037	0.139
-130.326	507.513	0.144	-0.331
-129.312	217.353	-0.122	-0.193
-128.297	-180.557	-0.190	0.004
-127.283	9.187	0.195	-0.146
-126.268	338.758	-0.092	0.177
-125.253	800.000	-0.101	0.316
-124.239	105.769	0.238	-0.279
-123.224	800.000	-0.103	-0.373
-122.210	-23.286	0.143	-0.085
-121.195	-80.894	-0.026	0.008
