DTS Sentinel unit serial number:	SN413079Multiplexer serial number:	ORYXHardware model number:	OX4-SRSoftware version number:	ORYX F/W v4.00 Oryx Data Collector v3.7.2.0data status	okinstallation	princeton_trtdifferential loss correction	single-endedforward channel	channel 4reverse channel	N/Adate	2019/09/19time	10:57:35forward acquisition time	60.00reverse acquisition time	0.00gamma	496.2192k internal	0.2327k external	0.2327temperature offset calibration	1.0019default loss term (dB/km)	0.3790temperature slope calibration	1.0000multiplexer offset coefficient	1.0000multiplexer slope coefficient	1.0000fibre end	0.00T internal ref (°C)	24.81T ext. ref 1 (°C)	0.75T ext. ref 2 (°C)	20.38length (m)	temperature (°C)	Stokes	anti-Stokes-747.200	-110.573	-0.064	0.013
-746.185	-75.823	-0.283	0.101
-745.171	-107.760	-0.085	0.019
-744.156	800.000	0.060	0.176
-743.142	-200.000	0.058	0.465
-742.127	-200.000	-0.043	0.201
-741.112	800.000	0.060	0.225
-740.098	16.277	-0.128	0.102
-739.083	800.000	0.126	-0.527
-738.069	-200.000	0.003	0.107
-737.054	-54.516	-0.107	-0.049
-736.039	-180.438	-0.517	-0.011
-735.025	-200.000	0.006	0.155
-734.010	-69.284	-0.276	-0.107
-732.996	800.000	-0.009	0.029
-731.981	9.899	0.024	0.018
-730.966	-45.919	0.243	-0.121
-729.952	-86.893	-0.163	-0.050
-728.937	-61.275	-0.288	-0.122
-727.923	95.806	0.097	-0.111
-726.908	-106.025	-0.204	-0.046
-725.894	-200.000	-0.113	0.523
-724.879	-200.000	0.022	0.115
-723.864	512.534	-0.075	-0.175
-722.850	-18.743	-0.105	0.066
-721.835	-70.935	-0.509	0.193
-720.821	800.000	0.012	0.043
-719.806	368.230	0.024	-0.049
-718.791	-83.255	-0.215	0.069
-717.777	-22.653	-0.064	0.039
-716.762	260.803	0.066	0.115
-715.748	-200.000	0.013	0.314
-714.733	-200.000	0.006	-0.125
-713.718	-38.204	0.087	0.047
-712.704	-200.000	0.006	0.090
-711.689	-152.454	0.185	-0.013
-710.675	46.085	-0.165	-0.154
-709.660	-11.759	0.192	-0.127
-708.645	96.200	0.319	-0.368
-707.631	606.352	0.028	0.071
-706.616	62.919	-0.194	0.195
-705.602	-81.413	0.487	-0.161
-704.587	12.960	0.143	-0.112
-703.572	-4.046	0.257	-0.179
-702.558	180.535	-0.258	0.381
-701.543	101.436	-0.200	0.235
-700.529	45.234	0.254	-0.236
-699.514	-5.356	-0.347	0.240
-698.499	-200.000	-0.058	-0.310
-697.485	-117.858	0.153	-0.028
-696.470	565.997	0.078	-0.190
-695.456	-128.875	-0.444	-0.063
-694.441	10.148	0.173	0.133
-693.426	2.688	-0.163	-0.119
-692.412	800.000	0.043	0.148
-691.397	162.424	0.213	0.301
-690.383	-127.280	-0.318	0.047
-689.368	-90.047	0.209	-0.061
-688.354	662.396	0.049	0.127
-687.339	-143.826	0.264	0.025
-686.324	-185.475	-0.534	-0.008
-685.310	-36.978	-0.318	-0.171
-684.295	36.806	-0.169	-0.150
-683.281	-90.011	0.259	-0.076
-682.266	-66.586	-0.101	-0.040
-681.251	268.363	-0.120	-0.211
-680.237	800.000	-0.033	-0.140
-679.222	-135.085	-0.104	-0.013
-678.208	293.732	0.100	0.183
-677.193	-113.604	0.324	0.064
-676.178	232.175	0.092	0.152
-675.164	-22.623	0.219	0.133
-674.149	60.148	0.080	-0.080
-673.135	795.861	-0.069	-0.190
-672.120	355.301	-0.073	-0.145
-671.105	92.811	-0.080	-0.091
-670.091	800.000	-0.071	-0.311
-669.076	-200.000	0.012	0.189
-668.062	311.112	0.080	0.150
-667.047	-90.759	0.346	0.100
-666.032	29.793	-0.218	-0.186
-665.018	-5.885	0.234	-0.161
-664.003	800.000	-0.118	0.379
-662.989	-113.541	-0.106	0.021
-661.974	-4.943	-0.130	-0.090
-660.959	800.000	-0.103	0.374
-659.945	647.491	0.097	0.250
-658.930	-200.000	-0.013	-0.221
-657.916	-200.000	-0.035	-0.178
-656.901	67.928	-0.123	-0.126
-655.886	81.141	0.090	-0.098
-654.872	-200.000	0.008	-0.131
-653.857	-111.254	-0.374	0.077
-652.843	390.603	0.098	-0.204
-651.828	800.000	0.085	0.332
-650.814	549.572	0.068	0.164
-649.799	35.341	0.080	0.070
-648.784	-86.718	-0.189	0.058
-647.770	70.314	0.050	-0.052
-646.755	-43.741	-0.148	-0.075
-645.741	-29.076	-0.109	-0.063
-644.726	800.000	-0.018	-0.070
-643.711	-200.000	0.024	0.235
-642.697	-188.514	0.166	-0.002
-641.682	800.000	-0.062	-0.178
-640.668	643.421	-0.032	0.082
-639.653	90.322	-0.263	-0.295
-638.638	-110.362	-0.176	0.037
-637.624	-200.000	-0.044	-0.213
-636.609	800.000	0.046	0.156
-635.595	537.606	0.125	0.298
-634.580	-144.444	-0.416	0.039
-633.565	488.090	0.206	0.472
-632.551	-56.231	0.266	-0.119
-631.536	430.251	-0.042	0.091
-630.522	81.515	-0.220	-0.239
-629.507	18.445	0.304	-0.244
-628.492	-109.217	-0.284	-0.061
-627.478	252.995	-0.259	0.444
-626.463	-200.000	-0.029	-0.143
-625.449	-200.000	0.050	-0.222
-624.434	66.108	0.343	-0.350
-623.419	-200.000	0.030	0.161
-622.405	-93.985	-0.182	-0.050
-621.390	-94.019	-0.073	0.020
-620.376	-97.083	0.165	0.043
-619.361	800.000	-0.068	0.214
-618.346	-38.367	-0.436	-0.231
-617.332	439.562	0.042	-0.092
-616.317	-78.253	-0.066	-0.023
-615.303	-1.001	-0.023	-0.016
-614.288	372.050	-0.120	-0.245
-613.273	498.965	0.164	0.378
-612.259	-99.420	-0.225	-0.057
-611.244	-15.594	-0.179	0.114
-610.230	69.954	-0.166	0.172
-609.215	327.497	-0.106	0.204
-608.201	489.345	-0.028	-0.065
-607.186	0.532	-0.129	-0.093
-606.171	-42.729	0.235	-0.120
-605.157	21.991	-0.072	0.059
-604.142	-81.622	-0.237	0.078
-603.128	-200.000	-0.028	0.320
-602.113	400.326	-0.098	0.206
-601.098	103.932	-0.290	0.342
-600.084	-200.000	-0.007	-0.056
-599.069	-131.123	-0.286	0.038
-598.055	-6.270	-0.350	0.239
-597.040	120.885	0.040	0.050
-596.025	79.510	0.086	0.093
-595.011	119.692	0.269	-0.335
-593.996	-89.587	-0.294	-0.087
-592.982	76.972	-0.156	-0.166
-591.967	-178.230	-0.201	-0.005
-590.952	-45.676	0.070	0.035
-589.938	-77.094	0.070	0.024
-588.923	-200.000	-0.024	-0.159
-587.909	129.647	-0.142	-0.182
-586.894	-4.322	0.217	-0.151
-585.879	-200.000	0.024	0.231
-584.865	-177.093	-0.037	-0.001
-583.850	-129.147	-0.363	-0.051
-582.836	-176.497	-0.334	-0.009
-581.821	-116.818	-0.232	-0.043
-580.806	-111.594	-0.084	0.017
-579.792	-39.415	-0.185	-0.097
-578.777	-200.000	-0.017	0.215
-577.763	-130.371	-0.148	0.020
-576.748	662.174	-0.076	-0.197
-575.733	-200.000	-0.007	0.186
-574.719	-11.042	-0.182	0.120
-573.704	800.000	-0.089	-0.260
-572.690	-76.929	0.106	0.037
-571.675	-200.000	0.003	0.455
-570.661	-200.000	0.168	0.000
-569.646	-163.581	-0.288	0.014
-568.631	-35.372	-0.157	-0.085
-567.617	-46.650	0.318	-0.156
-566.602	-0.990	0.247	0.175
-565.588	-147.567	-0.327	-0.028
-564.573	-87.755	-0.123	-0.037
-563.558	44.276	-0.139	-0.127
-562.544	-146.867	0.210	-0.018
-561.529	-200.000	0.004	0.075
-560.515	-200.000	-0.025	-0.283
-559.500	-200.000	0.026	-0.214
-558.485	330.010	-0.109	-0.210
-557.471	-200.000	0.018	0.462
-556.456	53.239	0.159	-0.153
-555.442	115.359	-0.240	-0.294
-554.427	137.638	0.183	-0.240
-553.412	271.034	0.105	-0.184
-552.398	-200.000	-0.056	-0.280
-551.383	-147.897	0.290	0.024
-550.369	106.502	-0.020	-0.023
-549.354	-184.098	0.285	-0.005
-548.339	159.379	0.089	0.123
-547.325	-61.246	-0.155	0.065
-546.310	-200.000	0.007	-0.085
-545.296	-63.336	0.117	0.048
-544.281	376.389	-0.111	0.227
-543.266	800.000	0.094	-0.271
-542.252	7.878	0.020	-0.015
-541.237	-39.195	-0.295	0.155
-540.223	-135.594	-0.436	0.052
-539.208	58.839	0.212	0.209
-538.193	800.000	0.065	0.274
-537.179	65.431	-0.159	0.161
-536.164	-69.057	-0.221	0.085
-535.150	-73.571	-0.189	-0.069
-534.135	-106.409	0.269	0.060
-533.121	-200.000	-0.023	-0.220
-532.106	145.329	-0.136	-0.182
-531.091	-112.956	0.306	0.061
-530.077	443.537	-0.100	0.219
-529.062	129.634	-0.051	-0.065
-528.048	441.472	0.020	-0.044
-527.033	80.905	0.070	-0.075
-526.018	-48.621	0.046	0.022
-525.004	-200.000	0.079	0.427
-523.989	-200.000	0.030	-0.140
-522.975	333.214	-0.118	-0.228
-521.960	800.000	0.078	0.241
-520.945	367.359	0.088	-0.178
-519.931	5.568	0.159	-0.117
-518.916	-148.561	-0.365	0.030
-517.902	149.014	-0.104	0.140
-516.887	421.102	-0.180	-0.385
-515.872	17.179	0.332	0.263
-514.858	-200.000	-0.042	-0.288
-513.843	134.271	-0.103	0.133
-512.829	306.770	-0.046	-0.085
-511.814	-200.000	0.006	-0.065
-510.799	21.821	-0.088	0.072
-509.785	-148.249	0.258	-0.021
-508.770	145.138	-0.134	0.179
-507.756	-200.000	0.027	-0.344
-506.741	-142.831	0.206	0.020
-505.726	800.000	-0.022	0.086
-504.712	49.863	0.105	0.099
-503.697	254.372	-0.263	0.450
-502.683	10.837	0.235	-0.180
-501.668	194.077	-0.032	0.049
-500.653	-61.849	0.072	-0.030
-499.639	-15.876	-0.161	-0.103
-498.624	128.994	-0.108	0.138
-497.610	-162.999	0.393	-0.019
-496.595	315.728	-0.198	-0.373
-495.581	82.054	-0.140	-0.152
-494.566	148.228	-0.097	0.131
-493.551	57.694	0.249	0.243
-492.537	-22.645	0.219	-0.132
-491.522	-24.483	-0.332	0.198
-490.508	185.565	0.044	0.066
-489.493	13.411	-0.092	0.071
-488.478	13.749	0.159	-0.124
-487.464	-200.000	0.011	0.059
-486.449	-55.102	0.136	-0.061
-485.435	24.759	0.100	0.083
-484.420	30.941	-0.124	-0.106
-483.405	800.000	0.204	-0.567
-482.391	-200.000	-0.015	0.385
-481.376	800.000	0.034	-0.134
-480.362	-32.204	-0.004	-0.002
-479.347	-19.834	-0.284	-0.175
-478.332	109.921	-0.058	-0.069
-477.318	741.841	-0.108	0.290
-476.303	-200.000	0.020	0.108
-475.289	-78.761	-0.204	-0.069
-474.274	-84.344	0.204	-0.064
-473.259	-0.056	-0.179	-0.127
-472.245	-169.865	-0.323	0.012
-471.230	-171.439	0.077	-0.003
-470.216	238.570	-0.063	-0.104
-469.201	27.605	-0.232	-0.195
-468.186	800.000	-0.074	0.216
-467.172	-200.000	-0.016	0.132
-466.157	1.771	-0.405	-0.291
-465.143	-200.000	-0.002	0.026
-464.128	11.416	-0.121	-0.093
-463.113	-19.489	-0.159	0.098
-462.099	-62.390	-0.098	0.040
-461.084	29.215	0.284	0.240
-460.070	-30.430	-0.127	-0.072
-459.055	800.000	0.041	-0.113
-458.040	-135.266	-0.040	-0.005
-457.026	227.403	-0.024	-0.039
-456.011	309.590	0.073	0.137
-454.997	214.570	0.122	-0.192
-453.982	-4.698	0.081	-0.056
-452.968	-200.000	-0.024	-0.119
-451.953	-66.467	0.190	0.075
-450.938	-200.000	-0.000	0.060
-449.924	-75.739	0.148	0.052
-448.909	-71.794	0.121	-0.045
-447.895	800.000	0.076	-0.305
-446.880	800.000	-0.112	-0.399
-445.865	-47.906	0.249	-0.120
-444.851	46.634	-0.181	-0.167
-443.836	-40.538	-0.211	-0.109
-442.822	8.446	-0.355	0.266
-441.807	800.000	-0.101	0.293
-440.792	-119.617	0.353	-0.061
-439.778	-69.706	-0.099	-0.038
-438.763	-138.416	-0.347	-0.038
-437.749	-200.000	-0.036	-0.177
-436.734	-200.000	0.027	-0.255
-435.719	-95.633	-0.253	-0.068
-434.705	-200.000	-0.031	-0.169
-433.690	204.012	0.022	0.034
-432.676	800.000	-0.039	0.157
-431.661	-200.000	-0.005	-0.102
-430.646	800.000	0.082	0.259
-429.632	-200.000	-0.007	0.165
-428.617	-112.526	-0.162	0.032
-427.603	-200.000	0.058	0.296
-426.588	-14.550	0.133	0.085
-425.573	398.601	0.101	0.211
-424.559	41.839	0.148	-0.134
-423.544	24.670	-0.067	0.055
-422.530	524.231	-0.084	0.198
-421.515	800.000	-0.067	0.244
-420.500	-200.000	0.007	0.270
-419.486	31.574	0.308	0.264
-418.471	800.000	0.056	-0.170
-417.457	32.696	-0.139	0.119
-416.442	231.638	0.096	0.157
-415.428	171.364	0.167	-0.238
-414.413	485.336	0.026	-0.060
-413.398	48.085	0.199	0.185
-412.384	800.000	-0.023	0.072
-411.369	52.696	-0.072	-0.069
-410.355	-200.000	-0.022	0.309
-409.340	7.989	0.074	-0.055
-408.325	-200.000	-0.002	-0.123
-407.311	-42.560	-0.194	-0.098
-406.296	-200.000	-0.087	-0.491
-405.282	-200.000	0.007	-0.105
-404.267	-162.540	0.062	0.003
-403.252	800.000	0.086	-0.266
-402.238	356.701	0.062	0.123
-401.223	367.723	0.149	0.300
-400.209	-200.000	0.003	0.100
-399.194	94.843	0.211	0.239
-398.179	22.199	-0.143	-0.116
-397.165	-19.417	0.319	0.197
-396.150	-77.434	-0.158	-0.055
-395.136	-200.000	-0.012	0.301
-394.121	800.000	-0.047	0.201
-393.106	-200.000	0.031	0.204
-392.092	132.078	-0.145	0.185
-391.077	-100.202	0.450	0.111
-390.063	19.455	-0.295	-0.236
-389.048	-119.932	0.065	-0.011
-388.033	82.383	-0.043	0.047
-387.019	78.554	0.165	-0.176
-386.004	41.098	0.289	-0.259
-384.990	593.936	0.110	0.271
-383.975	341.564	0.079	0.153
-382.960	-200.000	0.011	0.064
-381.946	-200.000	0.006	0.106
-380.931	64.410	-0.107	-0.107
-379.917	-73.317	0.455	0.165
-378.902	-121.870	-0.175	-0.029
-377.888	193.422	0.229	0.344
-376.873	800.000	0.069	0.288
-375.858	-149.284	0.380	-0.030
-374.844	-200.000	-0.027	0.345
-373.829	-13.021	0.034	-0.022
-372.815	-112.741	-0.373	0.074
-371.800	-10.107	0.150	0.099
-370.785	-200.000	-0.041	0.188
-369.771	-200.000	0.018	-0.214
-368.756	15.795	0.094	0.074
-367.742	800.000	0.023	-0.076
-366.727	-113.563	0.266	0.052
-365.712	583.994	-0.132	-0.323
-364.698	-200.000	0.056	0.296
-363.683	-162.839	-0.111	-0.005
-362.669	-148.828	-0.166	0.013
-361.654	238.974	0.050	-0.083
-360.639	-72.262	0.360	-0.132
-359.625	51.042	0.278	-0.262
-358.610	-25.835	0.219	0.128
-357.596	-150.974	0.246	-0.018
-356.581	136.923	-0.024	-0.032
-355.566	-132.242	-0.241	-0.031
-354.552	-30.945	-0.126	-0.070
-353.537	-37.655	0.182	-0.096
-352.523	-90.927	0.131	-0.037
-351.508	-10.454	-0.200	-0.132
-350.493	-200.000	0.003	0.185
-349.479	-158.589	0.326	0.019
-348.464	402.669	-0.044	0.092
-347.450	-114.609	-0.345	0.066
-346.435	309.800	0.196	-0.364
-345.420	-113.842	-0.437	0.084
-344.406	-200.000	0.001	0.132
-343.391	-41.396	-0.167	-0.085
-342.377	-200.000	-0.014	0.264
-341.362	-141.259	0.168	-0.017
-340.348	711.999	-0.074	0.194
-339.333	578.808	-0.033	-0.079
-338.318	37.234	0.231	-0.203
-337.304	-108.893	0.144	-0.030
-336.289	-49.432	-0.276	0.131
-335.275	163.994	-0.096	0.134
-334.260	-200.000	0.015	-0.176
-333.245	-184.579	0.197	-0.003
-332.231	-107.576	-0.052	0.011
-331.216	137.682	0.137	-0.178
-330.202	109.411	0.194	0.231
-329.187	-87.851	-0.505	-0.151
-328.172	800.000	0.076	-0.309
-327.158	800.000	-0.060	0.173
-326.143	214.195	-0.036	-0.057
-325.129	212.246	0.065	0.102
-324.114	-134.439	0.251	-0.031
-323.099	-105.350	-0.080	-0.018
-322.085	-124.153	0.268	0.042
-321.070	800.000	-0.032	-0.120
-320.056	-122.419	0.276	0.045
-319.041	-124.976	0.195	-0.030
-318.026	-148.766	-0.258	-0.021
-317.012	330.167	0.036	0.069
-315.997	9.673	-0.071	0.053
-314.983	324.145	-0.101	-0.191
-313.968	-85.088	0.167	0.052
-312.953	-12.076	0.510	-0.331
-311.939	-152.111	-0.103	0.007
-310.924	-89.089	0.350	-0.102
-309.910	628.996	-0.064	0.162
-308.895	-200.000	-0.001	-0.062
-307.880	641.366	0.054	-0.135
-306.866	172.365	-0.163	-0.233
-305.851	800.000	-0.046	-0.137
-304.837	163.838	0.119	0.167
-303.822	-78.685	0.171	0.058
-302.807	-200.000	-0.012	-0.071
-301.793	-116.062	0.389	0.072
-300.778	-107.219	-0.356	0.078
-299.764	25.112	-0.033	-0.027
-298.749	100.261	0.133	0.153
-297.735	148.297	0.067	0.089
-296.720	121.574	-0.131	0.162
-295.705	-200.000	-0.016	-0.292
-294.691	-119.469	0.157	-0.027
-293.676	-7.678	0.287	-0.192
-292.662	219.440	-0.232	0.368
-291.647	-25.476	0.183	0.107
-290.632	-67.110	0.085	-0.033
-289.618	-200.000	-0.024	-0.157
-288.603	-83.458	0.128	-0.041
-287.589	800.000	0.043	0.126
-286.574	-1.542	-0.138	0.096
-285.559	479.598	0.143	-0.321
-284.545	-96.339	0.214	0.056
-283.530	-24.716	-0.222	0.131
-282.516	-200.000	0.045	0.250
-281.501	132.652	0.354	-0.453
-280.486	-13.651	-0.081	-0.052
-279.472	379.906	-0.208	0.421
-278.457	-79.049	0.255	0.086
-277.443	800.000	0.065	-0.243
-276.428	-200.000	0.060	0.370
-275.413	-58.602	0.243	-0.105
-274.399	-110.724	0.230	0.047
-273.384	-200.000	-0.015	-0.124
-272.370	391.366	0.152	0.312
-271.355	-200.000	-0.017	0.089
-270.340	35.257	0.138	-0.120
-269.326	-200.000	0.040	-0.279
-268.311	-85.021	0.165	0.051
-267.297	-200.000	0.009	0.426
-266.282	615.683	0.164	-0.407
-265.267	800.000	-0.036	0.141
-264.253	-71.678	0.318	-0.117
-263.238	41.349	0.068	0.061
-262.224	800.000	-0.087	-0.291
-261.209	-15.380	0.149	0.094
-260.195	-200.000	-0.005	0.052
-259.180	-0.866	-0.269	-0.188
-258.165	-200.000	-0.020	0.142
-257.151	-30.832	0.060	0.033
-256.136	-72.457	-0.210	0.077
-255.122	-200.000	-0.003	-0.222
-254.107	-200.000	-0.029	-0.715
-253.092	-200.000	-0.002	-0.259
-252.078	-200.000	0.001	-0.080
-251.063	-200.000	-0.016	-0.097
-250.049	-124.986	0.102	-0.015
-249.034	-9.809	0.132	0.087
-248.019	-64.753	-0.117	0.047
-247.005	800.000	0.052	-0.221
-245.990	-119.369	-0.263	-0.045
-244.976	-70.173	0.247	0.093
-243.961	-35.471	-0.074	-0.040
-242.946	-81.368	0.390	-0.127
-241.932	4.182	0.126	-0.091
-240.917	427.385	-0.098	-0.209
-239.903	-48.228	-0.074	-0.035
-238.888	-119.840	0.126	-0.021
-237.873	9.216	-0.144	0.107
-236.859	471.720	0.029	0.064
-235.844	531.523	-0.149	0.347
-234.830	92.058	0.300	-0.334
-233.815	-200.000	0.039	0.188
-232.800	247.855	-0.135	0.225
-231.786	-7.425	0.239	-0.160
-230.771	-120.206	0.111	0.019
-229.757	-119.817	-0.161	-0.027
-228.742	506.642	0.063	-0.144
-227.727	-200.000	-0.035	0.169
-226.713	-69.648	0.349	-0.132
-225.698	-154.262	-0.486	0.032
-224.684	151.320	0.113	0.153
-223.669	83.004	0.248	-0.266
-222.655	-24.630	-0.218	-0.128
-221.640	-26.438	-0.107	0.062
-220.625	97.497	-0.194	0.220
-219.611	800.000	-0.054	-0.203
-218.596	-2.086	0.067	0.046
-217.582	-158.280	-0.212	-0.012
-216.567	-25.444	-0.172	-0.100
-215.552	-41.868	0.327	-0.166
-214.538	-47.687	-0.174	0.083
-213.523	-94.606	0.161	0.043
-212.509	-70.873	0.076	0.028
-211.494	-56.638	-0.191	0.083
-210.479	-89.520	-0.105	0.031
-209.465	-118.257	-0.163	0.029
-208.450	195.775	0.035	0.053
-207.436	-200.000	0.022	0.190
-206.421	67.611	-0.245	-0.247
-205.406	-137.183	0.231	-0.026
-204.392	51.398	0.295	0.277
-203.377	-200.000	-0.001	0.193
-202.363	38.225	-0.170	-0.149
-201.348	-63.175	0.296	-0.120
-200.333	109.542	-0.231	-0.273
-199.319	-118.236	-0.282	0.050
-198.304	503.438	-0.089	0.202
-197.290	-94.432	0.073	-0.020
-196.275	46.170	-0.181	-0.166
-195.260	86.073	0.225	-0.244
-194.246	-71.330	-0.084	0.031
-193.231	75.716	0.084	0.088
-192.217	-95.752	-0.166	-0.044
-191.202	258.998	-0.154	0.262
-190.187	307.502	-0.127	0.234
-189.173	1.909	0.069	0.049
-188.158	17.396	0.098	0.077
-187.144	-83.687	0.254	0.080
-186.129	-200.000	0.051	-0.379
-185.114	-4.174	0.302	-0.207
-184.100	45.126	-0.329	-0.299
-183.085	-11.573	-0.163	-0.106
-182.071	306.820	-0.146	-0.269
-181.056	-200.000	-0.027	-0.162
-180.042	-19.335	0.369	0.226
-179.027	384.097	-0.103	0.208
-178.012	259.442	-0.103	0.176
-176.998	47.908	0.008	-0.007
-175.983	49.444	-0.422	0.392
-174.969	-200.000	-0.021	-0.143
-173.954	800.000	-0.073	0.240
-172.939	282.361	0.192	0.340
-171.925	-9.947	-0.130	-0.086
-170.910	800.000	-0.021	-0.069
-169.896	-119.723	0.417	-0.071
-168.881	360.385	-0.135	-0.266
-167.866	43.236	0.085	-0.076
-166.852	259.516	-0.210	-0.357
-165.837	23.888	0.184	0.150
-164.823	9.860	0.190	-0.142
-163.808	-200.000	0.026	0.153
-162.793	-31.566	-0.233	0.129
-161.779	351.071	0.051	-0.099
-160.764	800.000	-0.053	-0.220
-159.750	144.063	0.201	0.264
-158.735	162.274	-0.123	0.170
-157.720	91.810	-0.111	0.123
-156.706	-77.973	0.191	0.065
-155.691	-200.000	0.013	0.153
-154.677	-200.000	-0.003	0.203
-153.662	-45.705	0.480	-0.234
-152.647	-125.257	-0.169	0.025
-151.633	0.402	-0.043	-0.030
-150.618	72.951	0.179	0.184
-149.604	-200.000	-0.000	-0.241
-148.589	219.270	0.272	0.429
-147.574	-19.576	-0.277	0.169
-146.560	362.368	0.104	0.205
-145.545	-55.647	-0.240	0.106
-144.531	-51.896	0.345	-0.158
-143.516	262.412	-0.128	-0.218
-142.502	604.931	0.070	0.171
-141.487	-200.000	-0.047	0.385
-140.472	-200.000	-0.004	0.332
-139.458	-9.358	0.062	0.040
-138.443	-200.000	-0.009	-0.168
-137.429	-10.544	0.383	-0.249
-136.414	-90.894	0.047	0.013
-135.399	800.000	0.055	0.156
-134.385	-136.636	0.429	0.049
-133.370	-71.771	0.198	-0.073
-132.356	-166.569	0.301	-0.012
-131.341	-1.273	-0.176	0.122
-130.326	-108.538	-0.323	0.068
-129.312	-200.000	0.020	-0.200
-128.297	-13.372	0.225	0.143
-127.283	50.616	0.355	0.330
-126.268	120.636	-0.063	-0.077
-125.253	-61.167	-0.341	-0.142
-124.239	771.477	-0.114	0.305
-123.224	-23.993	-0.224	-0.132
-122.210	-122.307	0.118	-0.019
-121.195	-76.069	0.079	-0.028
