DTS Sentinel unit serial number:	SN413079Multiplexer serial number:	ORYXHardware model number:	OX4-SRSoftware version number:	ORYX F/W v4.00 Oryx Data Collector v3.7.2.0data status	okinstallation	princeton_trtdifferential loss correction	single-endedforward channel	channel 4reverse channel	N/Adate	2019/09/16time	02:17:35forward acquisition time	60.00reverse acquisition time	0.00gamma	496.2192k internal	0.2321k external	0.2321temperature offset calibration	0.9969default loss term (dB/km)	0.3790temperature slope calibration	1.0000multiplexer offset coefficient	1.0000multiplexer slope coefficient	1.0000fibre end	0.00T internal ref (°C)	27.56T ext. ref 1 (°C)	10.19T ext. ref 2 (°C)	22.55length (m)	temperature (°C)	Stokes	anti-Stokes-747.200	-45.908	0.237	-0.118
-746.185	-76.038	0.075	-0.027
-745.171	-124.195	-0.079	0.013
-744.156	-86.528	0.073	0.023
-743.142	22.440	-0.276	0.228
-742.127	800.000	-0.012	-0.046
-741.112	163.513	0.194	-0.276
-740.098	-35.561	0.222	0.122
-739.083	423.774	0.116	-0.252
-738.069	37.205	0.327	-0.293
-737.054	-200.000	-0.075	0.448
-736.039	-200.000	0.036	0.300
-735.025	800.000	-0.065	0.241
-734.010	10.349	-0.338	-0.260
-732.996	-97.140	-0.149	0.039
-731.981	-200.000	0.005	-0.218
-730.966	40.053	0.102	-0.093
-729.952	-88.863	-0.210	-0.063
-728.937	-58.101	0.037	0.016
-727.923	-137.315	0.237	0.027
-726.908	58.073	0.207	-0.205
-725.894	-87.709	0.302	-0.092
-724.879	59.918	-0.189	-0.189
-723.864	800.000	-0.075	-0.234
-722.850	113.931	0.095	0.117
-721.835	800.000	0.068	-0.192
-720.821	-200.000	0.001	0.233
-719.806	32.002	0.198	0.173
-718.791	84.570	-0.168	0.186
-717.777	-200.000	0.010	0.128
-716.762	-140.670	0.195	0.020
-715.748	281.082	0.044	0.079
-714.733	127.513	-0.197	-0.253
-713.718	580.442	0.060	-0.149
-712.704	-200.000	0.043	0.206
-711.689	358.837	0.060	-0.121
-710.675	-136.747	0.193	0.022
-709.660	225.599	-0.203	-0.332
-708.645	-200.000	-0.046	-0.386
-707.631	-172.044	-0.123	0.004
-706.616	-200.000	-0.018	0.107
-705.602	-91.418	0.146	0.042
-704.587	-143.632	0.095	0.009
-703.572	88.886	0.093	-0.105
-702.558	-59.238	0.142	-0.062
-701.543	-163.800	0.113	0.005
-700.529	-200.000	0.039	0.248
-699.514	-143.862	-0.235	-0.022
-698.499	800.000	-0.046	0.139
-697.485	-97.336	0.101	-0.027
-696.470	-182.799	0.348	0.006
-695.456	128.014	0.035	0.045
-694.441	-140.943	-0.115	0.012
-693.426	-91.832	-0.176	0.050
-692.412	-76.614	-0.037	-0.013
-691.397	-200.000	0.006	-0.035
-690.383	-105.692	0.256	-0.058
-689.368	-100.294	-0.241	0.060
-688.354	113.064	-0.075	-0.092
-687.339	-200.000	-0.052	-0.289
-686.324	-200.000	0.020	-0.271
-685.310	-161.218	-0.511	0.027
-684.295	-151.387	0.255	-0.019
-683.281	-116.294	0.342	-0.064
-682.266	-147.475	-0.413	-0.035
-681.251	173.093	-0.103	0.149
-680.237	-200.000	0.023	-0.295
-679.222	-149.323	-0.288	-0.023
-678.208	-28.017	0.050	0.029
-677.193	-99.395	0.274	0.070
-676.178	139.364	-0.139	0.184
-675.164	299.923	0.041	0.075
-674.149	-182.211	0.214	-0.004
-673.135	-22.685	0.079	0.048
-672.120	787.470	0.109	-0.301
-671.105	777.545	-0.017	0.046
-670.091	800.000	0.035	-0.104
-669.076	-69.711	0.144	0.055
-668.062	-67.517	0.138	-0.055
-667.047	140.471	-0.173	-0.230
-666.032	113.699	0.167	-0.205
-665.018	416.275	-0.062	0.134
-664.003	-162.194	0.142	-0.007
-662.989	800.000	-0.056	0.238
-661.974	-33.084	0.021	-0.012
-660.959	-123.296	-0.179	0.029
-659.945	27.750	-0.199	0.169
-658.930	-55.368	0.037	-0.017
-657.916	800.000	-0.099	0.284
-656.901	66.686	0.293	-0.300
-655.886	-93.384	-0.097	-0.027
-654.872	510.057	0.138	-0.323
-653.857	253.616	0.052	-0.089
-652.843	174.533	-0.150	-0.218
-651.828	-114.700	-0.124	-0.024
-650.814	220.029	0.211	0.341
-649.799	-87.125	0.280	0.086
-648.784	0.659	-0.094	0.067
-647.770	-200.000	0.076	-0.552
-646.755	-47.965	0.316	-0.154
-645.741	156.195	-0.224	-0.311
-644.726	-200.000	0.039	-0.241
-643.711	-12.178	0.373	-0.246
-642.697	120.872	-0.172	-0.215
-641.682	50.984	0.101	0.097
-640.668	-200.000	0.018	0.364
-639.653	-0.479	0.175	0.125
-638.638	71.128	0.056	-0.058
-637.624	268.247	-0.108	-0.191
-636.609	-200.000	-0.051	-0.262
-635.595	-112.381	-0.066	-0.013
-634.580	-71.657	-0.187	0.070
-633.565	-26.738	0.108	-0.064
-632.551	-64.029	-0.290	0.119
-631.536	-200.000	-0.023	-0.368
-630.522	-200.000	-0.016	-0.240
-629.507	-136.160	-0.104	0.012
-628.492	-31.640	0.099	0.056
-627.478	236.500	-0.125	-0.208
-626.463	-200.000	-0.029	-0.218
-625.449	-109.917	0.191	-0.040
-624.434	0.860	-0.459	-0.331
-623.419	-69.248	0.130	-0.050
-622.405	575.457	0.154	0.377
-621.390	-200.000	-0.001	0.273
-620.376	-8.318	-0.225	-0.152
-619.361	800.000	0.093	-0.369
-618.346	17.933	0.161	-0.129
-617.332	800.000	0.024	0.106
-616.317	-200.000	0.003	-0.042
-615.303	34.678	0.269	-0.237
-614.288	340.403	0.043	0.084
-613.273	-76.828	0.106	-0.037
-612.259	493.272	0.206	-0.475
-611.244	97.455	0.101	-0.116
-610.230	424.392	-0.101	-0.219
-609.215	475.015	0.114	-0.259
-608.201	76.572	0.082	0.088
-607.186	-67.264	-0.239	-0.095
-606.171	-132.983	-0.143	-0.018
-605.157	-23.004	-0.213	0.129
-604.142	800.000	-0.079	-0.303
-603.128	339.135	-0.065	-0.128
-602.113	800.000	-0.044	0.188
-601.098	-200.000	0.001	0.186
-600.084	271.950	-0.054	-0.095
-599.069	-127.836	0.143	0.021
-598.055	25.873	0.018	-0.015
-597.040	84.473	-0.199	0.218
-596.025	293.974	-0.027	-0.050
-595.011	36.379	-0.199	-0.177
-593.996	-200.000	-0.050	-0.244
-592.982	-118.660	0.364	0.065
-591.967	-2.173	0.173	-0.122
-590.952	-15.192	0.253	0.163
-589.938	-81.858	0.088	-0.029
-588.923	800.000	-0.012	-0.037
-587.909	-200.000	-0.047	0.297
-586.894	800.000	-0.091	0.387
-585.879	-200.000	-0.007	-0.060
-584.865	-168.938	-0.017	-0.001
-583.850	800.000	-0.054	-0.217
-582.836	-200.000	-0.001	0.342
-581.821	-200.000	0.017	-0.122
-580.806	137.297	0.079	0.104
-579.792	-142.777	-0.211	0.021
-578.777	800.000	0.024	0.100
-577.763	-93.366	-0.179	-0.050
-576.748	-75.441	-0.131	-0.047
-575.733	-200.000	0.025	-0.120
-574.719	-24.971	-0.016	-0.009
-573.704	-194.340	0.459	0.004
-572.690	137.668	0.074	-0.097
-571.675	145.693	0.164	0.221
-570.661	-83.297	0.277	0.089
-569.646	107.272	-0.090	0.107
-568.631	-24.297	0.051	0.030
-567.617	-189.589	-0.280	-0.003
-566.602	-200.000	-0.074	-0.348
-565.588	125.377	0.058	-0.073
-564.573	568.610	-0.064	-0.156
-563.558	-200.000	-0.029	0.330
-562.544	-68.730	-0.069	0.027
-561.529	124.321	0.131	0.165
-560.515	-143.974	-0.157	-0.015
-559.500	619.001	0.049	0.123
-558.485	-91.385	0.165	0.047
-557.471	800.000	0.108	-0.347
-556.456	-200.000	0.002	-0.419
-555.442	-200.000	-0.166	0.000
-554.427	233.530	-0.114	0.189
-553.412	679.451	0.090	0.236
-552.398	-200.000	0.020	0.211
-551.383	800.000	-0.118	-0.368
-550.369	-15.804	0.114	0.073
-549.354	-200.000	-0.018	-0.084
-548.339	-21.985	0.167	-0.102
-547.325	-159.050	0.024	0.001
-546.310	-200.000	-0.007	-0.068
-545.296	226.074	0.129	-0.210
-544.281	-105.935	-0.351	0.079
-543.266	248.392	-0.026	0.045
-542.252	-70.098	-0.046	0.018
-541.237	63.833	0.315	0.317
-540.223	50.768	-0.076	-0.073
-539.208	-131.220	0.374	0.050
-538.193	-200.000	-0.072	-0.339
-537.179	-200.000	0.004	-0.288
-536.164	176.931	-0.229	0.334
-535.150	-73.959	0.077	-0.028
-534.135	-200.000	0.033	0.174
-533.121	-38.578	-0.121	0.064
-532.106	-200.000	-0.016	-0.134
-531.091	12.981	-0.130	0.101
-530.077	595.236	0.113	-0.281
-529.062	369.893	0.235	-0.476
-528.048	-127.846	-0.193	0.028
-527.033	580.854	0.038	-0.093
-526.018	800.000	-0.042	-0.173
-525.004	9.560	0.045	0.034
-523.989	-200.000	0.012	-0.078
-522.975	-200.000	-0.010	0.220
-521.960	148.189	-0.105	0.142
-520.945	305.657	-0.076	-0.142
-519.931	-200.000	0.033	-0.247
-518.916	73.195	0.101	-0.105
-517.902	60.076	-0.022	0.022
-516.887	62.881	0.093	0.093
-515.872	-200.000	-0.049	0.364
-514.858	117.302	-0.068	0.084
-513.843	259.288	-0.177	-0.306
-512.829	-87.540	-0.353	0.107
-511.814	800.000	-0.060	-0.228
-510.799	346.577	-0.097	0.191
-509.785	800.000	0.057	-0.180
-508.770	-111.699	0.158	0.032
-507.756	500.432	0.103	-0.239
-506.741	62.404	-0.206	-0.206
-505.726	69.667	-0.123	0.127
-504.712	-25.166	-0.067	0.040
-503.697	800.000	-0.021	0.067
-502.683	47.318	-0.054	-0.051
-501.668	800.000	0.062	-0.193
-500.653	102.754	0.039	-0.046
-499.639	206.332	-0.058	-0.091
-498.624	-83.739	0.056	-0.018
-497.610	-200.000	-0.012	0.217
-496.595	104.773	-0.046	-0.055
-495.581	-200.000	-0.013	-0.210
-494.566	-54.535	-0.322	0.146
-493.551	800.000	-0.043	-0.133
-492.537	-18.282	-0.295	0.184
-491.522	72.459	-0.221	-0.231
-490.508	-109.022	-0.265	0.056
-489.493	113.953	-0.036	0.044
-488.478	800.000	0.139	-0.424
-487.464	-114.364	-0.216	0.042
-486.449	312.324	-0.100	0.189
-485.435	800.000	-0.042	0.136
-484.420	800.000	0.115	0.492
-483.405	127.890	-0.287	-0.365
-482.391	-154.075	-0.094	0.006
-481.376	24.583	0.126	0.104
-480.362	-200.000	0.020	0.241
-479.347	-200.000	0.003	0.053
-478.332	-43.870	-0.286	-0.144
-477.318	-46.821	-0.214	0.105
-476.303	-200.000	0.041	0.261
-475.289	-92.633	-0.116	-0.033
-474.274	120.491	-0.081	-0.101
-473.259	800.000	-0.096	0.279
-472.245	-133.847	-0.191	-0.024
-471.230	5.700	0.107	-0.079
-470.216	-200.000	0.251	0.001
-469.201	-100.870	0.090	0.022
-468.186	114.912	-0.119	0.145
-467.172	-90.316	-0.304	0.088
-466.157	-200.000	0.011	0.071
-465.143	268.550	-0.071	0.124
-464.128	800.000	-0.037	0.147
-463.113	30.143	0.223	0.190
-462.099	20.215	0.569	-0.459
-461.084	-48.378	0.176	0.085
-460.070	-200.000	-0.000	-0.085
-459.055	-55.499	0.243	-0.109
-458.040	267.124	-0.214	0.374
-457.026	454.409	-0.051	0.112
-456.011	5.279	-0.086	-0.063
-454.997	-76.694	0.286	0.100
-453.982	-200.000	0.070	-0.564
-452.968	-42.158	-0.029	0.015
-451.953	158.480	0.104	0.145
-450.938	148.377	-0.116	0.156
-449.924	-200.000	-0.016	-0.080
-448.909	1.527	-0.099	0.071
-447.895	532.984	0.104	0.246
-446.880	800.000	0.053	0.218
-445.865	-2.893	-0.137	0.096
-444.851	61.049	0.020	0.020
-443.836	696.685	0.061	-0.159
-442.822	198.580	0.146	0.223
-441.807	205.623	0.046	-0.071
-440.792	-200.000	-0.008	-0.134
-439.778	133.453	0.195	-0.252
-438.763	-200.000	-0.044	-0.223
-437.749	800.000	0.084	0.299
-436.734	242.911	-0.026	0.043
-435.719	-107.809	-0.202	-0.044
-434.705	-200.000	-0.046	0.317
-433.690	-200.000	-0.020	-0.146
-432.676	145.374	0.204	-0.273
-431.661	133.974	-0.124	-0.161
-430.646	800.000	0.061	0.244
-429.632	-200.000	-0.052	0.425
-428.617	-68.864	0.164	0.063
-427.603	-200.000	0.039	0.183
-426.588	94.325	0.045	0.051
-425.573	65.384	-0.048	-0.049
-424.559	-200.000	-0.011	-0.258
-423.544	331.313	-0.083	-0.161
-422.530	-74.480	-0.297	-0.107
-421.515	1.385	0.033	-0.024
-420.500	45.397	-0.181	0.167
-419.486	99.057	0.128	0.147
-418.471	-11.831	0.184	-0.120
-417.457	-136.474	0.164	0.019
-416.442	-200.000	0.030	0.167
-415.428	-3.435	0.174	0.121
-414.413	158.630	0.095	0.132
-413.398	-200.000	-0.025	-0.118
-412.384	219.565	-0.152	0.242
-411.369	35.466	-0.153	0.134
-410.355	800.000	-0.048	-0.207
-409.340	291.744	-0.095	0.173
-408.325	-200.000	0.072	0.352
-407.311	206.041	-0.068	0.105
-406.296	352.713	-0.082	-0.163
-405.282	-116.200	0.154	-0.028
-404.267	-90.922	-0.092	0.026
-403.252	-29.550	0.234	-0.134
-402.238	-61.832	0.320	0.134
-401.223	101.587	0.180	0.209
-400.209	-32.292	-0.157	0.087
-399.194	657.427	-0.028	0.072
-398.179	244.868	0.165	-0.276
-397.165	-200.000	0.015	0.094
-396.150	-104.463	0.242	-0.056
-395.136	219.001	0.133	-0.211
-394.121	134.699	0.262	0.339
-393.106	-105.139	-0.305	-0.070
-392.092	-200.000	0.086	0.426
-391.077	278.944	0.068	-0.120
-390.063	-123.556	-0.193	-0.031
-389.048	-91.307	-0.267	-0.076
-388.033	-47.254	0.327	-0.159
-387.019	-81.654	-0.190	0.062
-386.004	38.354	-0.185	-0.165
-384.990	-70.128	0.045	-0.017
-383.975	-176.164	-0.066	0.002
-382.960	153.564	0.209	0.285
-381.946	-29.922	-0.125	0.071
-380.931	-5.196	0.279	0.191
-379.917	38.583	-0.201	0.178
-378.902	-70.249	0.222	0.084
-377.888	74.259	0.335	-0.350
-376.873	-159.660	-0.511	0.028
-375.858	-132.605	-0.265	-0.034
-374.844	85.518	-0.096	0.106
-373.829	235.876	-0.106	-0.174
-372.815	214.513	0.238	0.376
-371.800	-200.000	0.019	-0.097
-370.785	-200.000	-0.004	0.085
-369.771	-47.559	0.318	-0.154
-368.756	-169.114	-0.356	-0.013
-367.742	-111.717	-0.137	0.028
-366.727	-200.000	0.041	0.183
-365.712	-94.794	0.157	-0.042
-364.698	-93.504	0.259	-0.071
-363.683	-138.018	-0.289	-0.032
-362.669	173.034	-0.040	-0.057
-361.654	399.821	0.077	-0.161
-360.639	110.481	0.158	-0.190
-359.625	-11.119	-0.152	-0.100
-358.610	-200.000	0.018	-0.205
-357.596	-137.572	-0.291	0.033
-356.581	-134.264	-0.197	0.024
-355.566	-200.000	0.054	-0.241
-354.552	-75.823	0.078	0.028
-353.537	-122.688	-0.212	-0.034
-352.523	-83.665	0.306	0.097
-351.508	-130.435	-0.072	-0.010
-350.493	800.000	-0.048	-0.179
-349.479	126.506	0.094	0.118
-348.464	277.657	0.056	0.099
-347.450	-2.863	0.285	-0.198
-346.435	800.000	0.035	0.148
-345.420	55.706	0.117	0.113
-344.406	-146.179	-0.293	-0.026
-343.391	-200.000	-0.014	0.118
-342.377	26.618	0.048	-0.040
-341.362	-93.678	-0.144	-0.040
-340.348	800.000	0.069	0.278
-339.333	-104.933	0.292	-0.067
-338.318	-200.000	-0.007	-0.057
-337.304	-103.983	0.210	0.049
-336.289	-121.121	0.272	0.045
-335.275	72.155	-0.310	-0.321
-334.260	800.000	0.014	0.043
-333.245	173.350	0.049	0.070
-332.231	100.537	-0.064	-0.074
-331.216	-54.388	0.291	-0.131
-330.202	800.000	0.062	-0.202
-329.187	-28.003	-0.189	0.109
-328.172	27.662	0.164	-0.137
-327.158	68.395	-0.170	-0.173
-326.143	-200.000	-0.041	-0.236
-325.129	-130.892	-0.068	0.009
-324.114	36.479	-0.417	0.366
-323.099	-200.000	0.026	-0.182
-322.085	588.881	-0.153	0.374
-321.070	-45.564	0.216	-0.106
-320.056	-103.699	-0.273	0.064
-319.041	800.000	0.090	-0.292
-318.026	-9.418	-0.126	-0.084
-317.012	10.072	-0.262	0.198
-315.997	21.942	0.204	0.166
-314.983	62.899	-0.100	0.099
-313.968	158.264	0.247	-0.341
-312.953	22.211	-0.189	-0.153
-311.939	172.899	-0.118	0.169
-310.924	800.000	0.112	0.399
-309.910	-200.000	0.037	0.188
-308.895	800.000	-0.070	-0.209
-307.880	36.695	0.274	-0.240
-306.866	-50.550	0.374	0.175
-305.851	-112.104	0.206	0.041
-304.837	28.081	0.204	-0.171
-303.822	-83.895	-0.076	0.024
-302.807	-200.000	0.036	-0.297
-301.793	800.000	0.084	0.269
-300.778	-50.734	-0.235	0.110
-299.764	14.499	-0.276	0.214
-298.749	-28.698	0.293	-0.168
-297.735	-153.189	0.186	0.013
-296.720	-135.276	0.173	-0.021
-295.705	-200.000	0.028	0.228
-294.691	140.133	-0.076	-0.100
-293.676	-200.000	0.003	-0.212
-292.662	-200.000	-0.006	-0.030
-291.647	800.000	-0.122	0.484
-290.632	644.923	0.048	0.121
-289.618	-200.000	-0.025	-0.161
-288.603	203.092	0.116	-0.179
-287.589	-27.852	0.384	0.221
-286.574	-46.611	-0.054	0.026
-285.559	22.677	0.244	-0.198
-284.545	-200.000	-0.030	0.201
-283.530	253.729	-0.005	-0.008
-282.516	800.000	0.041	-0.124
-281.501	-24.841	-0.202	-0.119
-280.486	-191.176	0.221	-0.002
-279.472	-144.158	-0.192	0.018
-278.457	81.330	-0.070	0.076
-277.443	-19.510	0.192	-0.118
-276.428	-51.310	-0.358	0.166
-275.413	-200.000	0.024	0.670
-274.399	327.408	-0.091	0.174
-273.384	800.000	-0.004	0.014
-272.370	-119.728	-0.141	0.024
-271.355	-200.000	-0.041	-0.246
-270.340	430.664	-0.051	-0.109
-269.326	55.897	-0.238	0.229
-268.311	39.220	-0.102	-0.090
-267.297	343.983	-0.066	-0.129
-266.282	354.571	-0.109	0.216
-265.267	-61.410	0.162	0.068
-264.253	-36.783	-0.082	-0.044
-263.238	-54.679	0.285	0.128
-262.224	-200.000	-0.065	0.332
-261.209	-75.560	0.231	0.082
-260.195	-200.000	0.028	0.190
-259.180	171.762	-0.048	-0.069
-258.165	800.000	-0.034	-0.093
-257.151	169.127	0.066	0.093
-256.136	157.062	-0.039	-0.054
-255.122	-200.000	-0.002	0.236
-254.107	-66.858	-0.079	-0.031
-253.092	-200.000	-0.062	-0.287
-252.078	-112.293	0.167	0.033
-251.063	173.055	-0.170	0.242
-250.049	51.917	-0.171	0.161
-249.034	-7.825	0.045	0.030
-248.019	-200.000	0.025	0.375
-247.005	-118.025	-0.300	0.053
-245.990	273.100	0.140	-0.245
-244.976	777.052	0.121	0.329
-243.961	-71.063	0.131	0.049
-242.946	-144.389	-0.134	0.012
-241.932	668.830	0.076	0.195
-240.917	-200.000	0.039	-0.201
-239.903	-68.241	-0.396	-0.153
-238.888	-95.724	-0.235	-0.062
-237.873	-200.000	0.033	0.235
-236.859	-94.875	-0.098	-0.026
-235.844	27.998	0.233	-0.194
-234.830	-98.433	-0.413	0.105
-233.815	-105.483	0.269	0.061
-232.800	-63.609	-0.390	0.159
-231.786	-133.690	-0.189	0.023
-230.771	800.000	0.047	-0.145
-229.757	-113.668	-0.142	-0.027
-228.742	-70.555	-0.381	-0.143
-227.727	25.313	-0.121	0.100
-226.713	84.503	-0.059	-0.064
-225.698	-44.603	0.287	-0.142
-224.684	227.372	-0.075	0.121
-223.669	-195.656	0.469	0.003
-222.655	74.543	0.234	-0.243
-221.640	-34.996	0.119	-0.064
-220.625	-200.000	0.012	-0.171
-219.611	-70.616	-0.392	-0.147
-218.596	13.412	0.464	0.357
-217.582	-89.644	-0.114	-0.033
-216.567	-139.649	0.302	-0.032
-215.552	397.459	-0.085	0.177
-214.538	-122.200	-0.200	-0.032
-213.523	171.365	0.208	0.295
-212.509	699.949	0.023	0.061
-211.494	-200.000	-0.012	-0.351
-210.479	-123.243	0.062	0.010
-209.465	-94.200	0.060	-0.016
-208.450	800.000	0.055	-0.179
-207.436	323.663	-0.099	-0.186
-206.421	124.271	-0.222	-0.276
-205.406	-200.000	-0.003	0.104
-204.392	110.889	0.082	0.098
-203.377	72.782	0.209	0.216
-202.363	-200.000	-0.018	0.078
-201.348	113.447	0.035	0.042
-200.333	13.125	0.301	-0.230
-199.319	152.729	0.025	-0.033
-198.304	-180.215	-0.272	0.006
-197.290	109.907	-0.072	0.085
-196.275	271.231	-0.062	-0.109
-195.260	35.350	0.042	0.036
-194.246	38.951	-0.148	-0.131
-193.231	381.535	-0.044	0.090
-192.217	-151.280	0.125	0.009
-191.202	-144.786	-0.133	0.012
-190.187	-118.490	0.255	-0.045
-189.173	6.980	0.153	0.113
-188.158	167.414	-0.075	-0.106
-187.144	111.334	-0.040	0.047
-186.129	239.100	0.184	0.303
-185.114	800.000	-0.167	0.493
-184.100	5.062	0.171	-0.124
-183.085	14.200	0.204	0.157
-182.071	-35.337	-0.367	-0.197
-181.056	-64.586	0.067	0.027
-180.042	-200.000	0.018	0.102
-179.027	-32.474	-0.280	0.154
-178.012	43.170	-0.128	0.116
-176.998	-200.000	-0.038	0.181
-175.983	129.405	0.136	0.172
-174.969	-46.713	0.544	0.263
-173.954	800.000	-0.098	-0.295
-172.939	-35.315	-0.252	-0.136
-171.925	-200.000	-0.002	-0.110
-170.910	-200.000	-0.004	0.204
-169.896	-200.000	-0.021	-0.120
-168.881	-150.911	0.337	0.025
-167.866	-128.657	0.473	-0.066
-166.852	584.664	-0.103	0.250
-165.837	133.068	-0.081	-0.103
-164.823	-111.286	-0.118	0.024
-163.808	-25.093	0.237	-0.139
-162.793	-200.000	-0.002	-0.127
-161.779	261.905	-0.122	-0.209
-160.764	-8.199	-0.389	0.259
-159.750	747.079	0.132	-0.352
-158.735	-112.991	-0.140	-0.027
-157.720	800.000	-0.032	-0.118
-156.706	-200.000	-0.011	-0.246
-155.691	-178.435	0.233	0.005
-154.677	97.909	0.109	-0.124
-153.662	223.175	0.222	0.353
-152.647	39.959	-0.215	0.191
-151.633	-123.585	-0.181	-0.028
-150.618	27.862	0.073	0.061
-149.604	112.477	0.158	-0.189
-148.589	136.524	-0.158	-0.203
-147.574	112.484	-0.025	-0.029
-146.560	293.311	0.142	-0.256
-145.545	344.537	0.162	-0.313
-144.531	-147.366	0.189	0.016
-143.516	85.360	0.059	-0.064
-142.502	460.585	0.123	-0.270
-141.487	581.649	0.054	0.131
-140.472	67.509	-0.157	0.159
-139.458	7.780	0.113	0.083
-138.443	167.611	0.142	-0.199
-137.429	336.550	0.055	0.105
-136.414	-77.000	0.258	-0.089
-135.399	-200.000	0.025	0.489
-134.385	-65.121	-0.081	-0.032
-133.370	-64.953	0.393	-0.157
-132.356	-115.824	-0.267	-0.049
-131.341	-200.000	0.097	0.562
-130.326	262.493	-0.221	0.378
-129.312	800.000	-0.057	0.208
-128.297	-127.260	-0.363	-0.052
-127.283	-200.000	0.018	0.154
-126.268	735.224	0.083	0.221
-125.253	-152.569	0.357	-0.025
-124.239	-38.413	0.247	-0.129
-123.224	-45.218	0.246	-0.120
-122.210	800.000	-0.066	0.189
