DTS Sentinel unit serial number:	SN413079Multiplexer serial number:	ORYXHardware model number:	OX4-SRSoftware version number:	ORYX F/W v4.00 Oryx Data Collector v3.7.2.0data status	okinstallation	princeton_trtdifferential loss correction	single-endedforward channel	channel 4reverse channel	N/Adate	2019/09/11time	07:15:10forward acquisition time	60.00reverse acquisition time	0.00gamma	496.2192k internal	0.2311k external	0.2311temperature offset calibration	0.9942default loss term (dB/km)	0.3790temperature slope calibration	1.0000multiplexer offset coefficient	1.0000multiplexer slope coefficient	1.0000fibre end	0.00T internal ref (°C)	30.55T ext. ref 1 (°C)	-0.09T ext. ref 2 (°C)	26.90length (m)	temperature (°C)	Stokes	anti-Stokes-747.200	-200.000	-0.001	-0.486
-746.185	-139.982	-0.132	-0.014
-745.171	25.368	0.192	-0.162
-744.156	124.734	0.142	-0.182
-743.142	246.586	-0.133	-0.228
-742.127	-200.000	-0.006	0.122
-741.112	118.282	-0.136	0.171
-740.098	59.650	0.099	0.099
-739.083	-17.260	-0.153	-0.098
-738.069	70.797	0.151	0.159
-737.054	148.570	0.012	0.017
-736.039	800.000	0.055	-0.194
-735.025	167.300	-0.046	-0.066
-734.010	20.280	-0.362	-0.297
-732.996	175.765	-0.198	-0.291
-731.981	-200.000	-0.090	-0.408
-730.966	143.311	-0.128	-0.173
-729.952	-200.000	0.004	0.036
-728.937	135.711	-0.108	0.143
-727.923	-59.174	-0.416	0.182
-726.908	-200.000	-0.001	0.181
-725.894	-200.000	-0.003	-0.212
-724.879	24.937	-0.078	-0.065
-723.864	47.162	0.087	-0.082
-722.850	-10.244	0.080	0.054
-721.835	223.951	0.147	0.240
-720.821	800.000	-0.078	-0.271
-719.806	195.707	-0.032	0.049
-718.791	50.016	0.151	0.145
-717.777	369.537	-0.140	0.287
-716.762	-37.755	0.125	-0.067
-715.748	-200.000	0.016	0.160
-714.733	-200.000	0.017	-0.098
-713.718	83.017	0.149	0.165
-712.704	224.778	0.309	0.507
-711.689	-27.968	0.274	-0.161
-710.675	-126.209	0.204	-0.031
-709.660	-143.200	-0.163	0.016
-708.645	308.548	-0.107	-0.202
-707.631	-95.830	-0.278	-0.075
-706.616	-152.702	0.168	-0.012
-705.602	-108.471	0.216	-0.047
-704.587	232.879	0.074	0.124
-703.572	800.000	-0.121	-0.459
-702.558	56.037	-0.068	0.066
-701.543	517.699	0.069	0.163
-700.529	89.457	0.213	0.241
-699.514	-200.000	-0.030	-0.229
-698.499	-66.420	0.124	0.050
-697.485	189.628	-0.364	-0.553
-696.470	-71.161	0.110	-0.042
-695.456	-110.000	0.283	0.060
-694.441	365.723	0.075	-0.153
-693.426	-200.000	-0.036	-0.183
-692.412	-49.445	0.337	-0.163
-691.397	332.021	0.187	-0.365
-690.383	407.736	-0.098	0.210
-689.368	-141.469	0.130	-0.013
-688.354	189.971	-0.124	-0.188
-687.339	-200.000	-0.016	0.440
-686.324	159.884	-0.216	0.305
-685.310	-58.530	-0.212	0.093
-684.295	113.343	0.172	-0.211
-683.281	152.719	-0.078	-0.107
-682.266	-17.735	-0.252	0.160
-681.251	-12.289	0.157	-0.104
-680.237	800.000	0.063	-0.194
-679.222	800.000	-0.100	-0.289
-678.208	-109.628	0.368	0.079
-677.193	582.237	0.115	-0.287
-676.178	143.848	-0.119	-0.161
-675.164	72.437	-0.187	-0.198
-674.149	555.059	0.041	-0.099
-673.135	-56.849	0.055	-0.025
-672.120	-21.308	-0.121	0.075
-671.105	800.000	-0.116	-0.371
-670.091	-4.805	-0.166	-0.116
-669.076	565.039	0.107	0.262
-668.062	-28.697	-0.183	0.107
-667.047	-26.163	-0.142	0.084
-666.032	-86.101	0.249	-0.078
-665.018	-200.000	-0.001	0.126
-664.003	-35.858	-0.437	0.239
-662.989	-43.784	0.202	0.103
-661.974	739.395	-0.086	-0.234
-660.959	-83.824	0.120	0.039
-659.945	140.432	-0.121	0.162
-658.930	-31.287	-0.289	0.165
-657.916	65.354	0.147	-0.151
-656.901	800.000	0.056	0.159
-655.886	275.169	-0.129	0.231
-654.872	-200.000	0.031	0.191
-653.857	-68.167	-0.106	0.042
-652.843	-200.000	-0.051	0.247
-651.828	79.564	-0.074	-0.081
-650.814	-200.000	-0.032	0.207
-649.799	555.510	0.028	0.068
-648.784	611.027	-0.075	0.190
-647.770	-107.513	-0.264	0.058
-646.755	328.922	0.035	-0.068
-645.741	-165.358	-0.101	0.004
-644.726	48.560	0.281	0.266
-643.711	-93.578	-0.205	0.057
-642.697	-119.403	-0.069	-0.012
-641.682	23.478	0.334	-0.278
-640.668	-58.930	0.273	0.119
-639.653	-28.696	-0.152	0.088
-638.638	-127.714	0.066	0.010
-637.624	3.984	-0.093	0.069
-636.609	-186.768	0.163	-0.002
-635.595	472.376	-0.109	-0.248
-634.580	800.000	0.158	-0.486
-633.565	-200.000	-0.042	-0.398
-632.551	800.000	-0.016	0.068
-631.536	419.176	0.045	-0.097
-630.522	121.431	0.125	-0.157
-629.507	-24.601	0.043	0.026
-628.492	552.855	0.036	0.087
-627.478	288.403	-0.067	-0.123
-626.463	-200.000	-0.017	-0.380
-625.449	68.366	-0.111	0.115
-624.434	-200.000	0.014	-0.326
-623.419	-75.652	-0.054	-0.020
-622.405	-7.374	-0.125	0.086
-621.390	779.801	-0.046	-0.128
-620.376	-101.425	-0.336	0.083
-619.361	42.381	0.136	0.125
-618.346	-42.734	0.114	0.059
-617.332	-118.993	0.140	0.025
-616.317	120.375	-0.142	-0.178
-615.303	-200.000	0.030	0.149
-614.288	-200.000	-0.007	-0.135
-613.273	7.941	-0.211	-0.160
-612.259	-72.033	-0.229	-0.086
-611.244	800.000	0.085	-0.300
-610.230	7.409	-0.185	-0.140
-609.215	-200.000	-0.003	0.215
-608.201	723.257	-0.102	-0.273
-607.186	-87.847	0.383	0.116
-606.171	-163.065	-0.250	0.012
-605.157	-200.000	0.012	0.142
-604.142	-200.000	-0.024	0.122
-603.128	-39.749	0.304	-0.160
-602.113	-51.786	0.094	0.044
-601.098	-36.663	-0.204	-0.111
-600.084	47.702	-0.072	-0.067
-599.069	122.249	0.230	-0.290
-598.055	-200.000	0.004	0.381
-597.040	-171.009	0.201	-0.007
-596.025	176.777	-0.120	0.177
-595.011	800.000	-0.017	-0.055
-593.996	-200.000	0.237	-0.001
-592.982	-6.198	-0.106	0.073
-591.967	-165.717	-0.270	0.012
-590.952	800.000	0.064	-0.240
-589.938	-70.672	-0.078	-0.030
-588.923	-200.000	0.006	0.028
-587.909	-156.295	0.017	0.001
-586.894	-59.379	0.023	0.010
-585.879	-200.000	-0.014	-0.526
-584.865	800.000	-0.041	-0.176
-583.850	-40.815	-0.165	-0.086
-582.836	-51.463	0.070	-0.033
-581.821	12.105	0.113	0.088
-580.806	-200.000	-0.005	-0.149
-579.792	768.909	0.143	-0.393
-578.777	-200.000	0.014	-0.175
-577.763	-200.000	0.004	-0.304
-576.748	-67.621	-0.070	-0.028
-575.733	-114.541	-0.285	0.055
-574.719	182.723	-0.054	0.080
-573.704	-60.756	-0.161	0.069
-572.690	19.319	-0.312	0.252
-571.675	213.892	0.097	0.155
-570.661	-8.293	0.235	0.159
-569.646	-200.000	-0.039	0.278
-568.631	-200.000	-0.020	0.102
-567.617	-17.107	0.243	-0.154
-566.602	800.000	-0.057	-0.240
-565.588	-60.219	-0.277	0.119
-564.573	21.433	-0.085	-0.069
-563.558	399.378	-0.080	0.168
-562.544	538.619	0.095	0.228
-561.529	-200.000	-0.066	0.453
-560.515	401.120	-0.076	-0.160
-559.500	-34.034	-0.393	0.218
-558.485	-200.000	-0.011	0.169
-557.471	-89.261	0.210	-0.062
-556.456	234.322	-0.017	-0.029
-555.442	-200.000	-0.019	0.107
-554.427	239.473	-0.242	-0.407
-553.412	-183.939	-0.277	-0.005
-552.398	-5.768	0.083	0.057
-551.383	308.643	-0.013	-0.025
-550.369	-6.852	-0.026	0.018
-549.354	-48.314	-0.301	0.146
-548.339	-145.093	0.447	0.041
-547.325	273.467	0.148	-0.264
-546.310	800.000	-0.062	-0.241
-545.296	21.845	-0.245	-0.201
-544.281	-81.657	-0.466	-0.154
-543.266	242.213	0.296	0.499
-542.252	-153.641	-0.322	-0.022
-541.237	-22.367	0.037	0.022
-540.223	-12.536	0.072	-0.047
-539.208	654.163	-0.054	0.139
-538.193	-27.198	0.063	0.037
-537.179	-5.607	-0.124	-0.085
-536.164	-131.905	0.376	-0.049
-535.150	800.000	0.026	-0.110
-534.135	-17.972	0.305	-0.193
-533.121	-71.317	0.221	0.084
-532.106	441.592	0.102	-0.225
-531.091	-132.041	-0.063	-0.008
-530.077	-43.858	-0.077	0.039
-529.062	-102.162	0.295	0.072
-528.048	-153.133	-0.232	-0.016
-527.033	313.594	-0.164	0.310
-526.018	-62.080	-0.106	-0.045
-525.004	-56.630	-0.076	-0.034
-523.989	-61.160	0.189	0.080
-522.975	44.776	0.124	-0.115
-521.960	-39.766	-0.105	0.055
-520.945	-69.783	0.247	0.095
-519.931	-31.699	-0.091	-0.051
-518.916	800.000	0.037	0.111
-517.902	-81.079	0.160	-0.053
-516.887	-127.709	-0.157	0.023
-515.872	84.609	-0.171	-0.188
-514.858	-101.801	0.265	0.065
-513.843	800.000	-0.057	-0.168
-512.829	-126.618	0.290	-0.043
-511.814	-43.239	0.113	-0.057
-510.799	-99.083	0.108	0.028
-509.785	96.897	-0.141	0.163
-508.770	352.464	-0.037	-0.075
-507.756	-200.000	0.003	-0.084
-506.741	386.046	-0.106	-0.220
-505.726	90.622	-0.080	0.090
-504.712	-200.000	0.015	-0.256
-503.697	-200.000	0.063	-0.448
-502.683	-16.103	-0.078	0.050
-501.668	-46.939	0.481	-0.237
-500.653	415.249	-0.119	-0.254
-499.639	52.433	0.120	-0.115
-498.624	32.687	-0.191	0.167
-497.610	30.319	0.284	-0.244
-496.595	730.723	-0.184	-0.495
-495.581	-200.000	0.016	-0.381
-494.566	800.000	-0.104	-0.313
-493.551	-62.266	-0.169	-0.071
-492.537	-79.289	0.343	0.117
-491.522	-122.004	0.491	-0.081
-490.508	23.323	0.301	-0.248
-489.493	-94.057	-0.184	-0.051
-488.478	-200.000	0.063	-0.354
-487.464	128.743	0.082	-0.106
-486.449	559.218	0.091	0.221
-485.435	-52.156	0.058	0.027
-484.420	123.148	0.220	-0.278
-483.405	63.503	0.266	0.268
-482.391	800.000	-0.047	0.180
-481.376	1.685	0.148	0.107
-480.362	64.618	-0.177	0.179
-479.347	800.000	-0.082	-0.232
-478.332	37.749	-0.132	0.118
-477.318	-200.000	-0.002	-0.023
-476.303	750.863	0.047	-0.126
-475.289	-50.829	0.141	0.067
-474.274	89.218	0.067	-0.075
-473.259	-75.305	-0.144	0.052
-472.245	-53.499	-0.152	0.070
-471.230	23.936	0.137	0.114
-470.216	800.000	0.022	-0.088
-469.201	-139.235	-0.111	0.012
-468.186	-133.871	0.135	-0.017
-467.172	-138.126	-0.190	-0.021
-466.157	155.119	0.073	0.101
-465.143	139.365	0.007	0.010
-464.128	-200.000	0.034	-0.222
-463.113	145.142	-0.111	0.149
-462.099	-158.889	-0.160	-0.009
-461.084	-200.000	-0.012	-0.072
-460.070	-35.421	0.126	0.069
-459.055	71.837	-0.201	0.210
-458.040	-200.000	-0.032	0.299
-457.026	75.183	-0.165	-0.174
-456.011	709.781	0.134	0.356
-454.997	800.000	-0.145	0.432
-453.982	-159.238	0.269	0.015
-452.968	-51.051	-0.245	0.115
-451.953	-28.603	0.243	-0.140
-450.938	743.661	0.080	-0.216
-449.924	-47.420	-0.270	-0.132
-448.909	109.762	-0.348	-0.418
-447.895	-98.044	0.453	-0.117
-446.880	-159.794	0.278	-0.015
-445.865	-200.000	-0.032	-0.214
-444.851	-49.640	-0.152	0.072
-443.836	4.485	0.196	-0.144
-442.822	386.112	-0.148	-0.307
-441.807	-141.174	0.439	0.045
-440.792	-165.434	0.170	0.007
-439.778	-200.000	0.010	0.165
-438.763	-66.073	-0.316	-0.127
-437.749	800.000	0.069	0.238
-436.734	-200.000	0.022	0.165
-435.719	57.238	0.076	-0.074
-434.705	-72.899	-0.245	-0.091
-433.690	-101.738	-0.203	0.049
-432.676	86.619	-0.214	-0.237
-431.661	-200.000	-0.003	0.407
-430.646	252.929	-0.019	-0.032
-429.632	14.823	0.100	0.079
-428.617	-54.828	0.305	-0.138
-427.603	-51.012	-0.247	0.116
-426.588	247.600	0.045	-0.075
-425.573	-47.598	-0.350	-0.170
-424.559	-200.000	0.054	0.260
-423.544	-107.895	0.206	-0.045
-422.530	175.706	0.065	0.094
-421.515	-115.832	-0.414	-0.078
-420.500	-31.180	-0.045	0.026
-419.486	78.307	0.044	0.047
-418.471	800.000	-0.041	0.121
-417.457	-200.000	-0.058	0.328
-416.442	13.901	0.091	-0.071
-415.428	-70.027	-0.023	0.009
-414.413	-54.166	-0.263	0.120
-413.398	-61.690	-0.218	0.092
-412.384	354.366	-0.137	-0.272
-411.369	1.951	-0.088	0.064
-410.355	-120.198	0.211	0.036
-409.340	800.000	0.060	-0.247
-408.325	800.000	0.169	0.549
-407.311	-200.000	-0.009	0.289
-406.296	-200.000	-0.015	-0.142
-405.282	71.635	-0.308	-0.321
-404.267	800.000	0.066	-0.193
-403.252	-200.000	0.029	-0.277
-402.238	-200.000	0.021	0.116
-401.223	114.072	0.136	-0.166
-400.209	-89.045	0.241	-0.071
-399.194	-4.879	0.096	-0.066
-398.179	23.144	0.321	0.264
-397.165	25.171	0.188	0.157
-396.150	13.678	0.028	-0.022
-395.136	-200.000	0.019	-0.315
-394.121	-151.622	0.091	-0.007
-393.106	-200.000	-0.025	-0.215
-392.092	55.902	-0.198	0.192
-391.077	-23.201	0.089	-0.054
-390.063	8.205	0.089	-0.067
-389.048	-174.033	-0.330	0.010
-388.033	62.667	0.064	-0.064
-387.019	73.169	0.077	-0.080
-386.004	414.750	-0.045	-0.096
-384.990	298.705	0.205	-0.377
-383.975	94.296	-0.162	-0.184
-382.960	-200.000	-0.065	-0.299
-381.946	148.135	-0.123	0.166
-380.931	-200.000	0.026	-0.155
-379.917	-11.581	0.507	0.334
-378.902	-174.451	0.137	-0.004
-377.888	502.243	0.056	-0.129
-376.873	-51.685	0.205	0.096
-375.858	58.975	-0.114	-0.112
-374.844	32.185	-0.142	-0.123
-373.829	-189.518	0.132	0.002
-372.815	-72.422	0.216	0.080
-371.800	101.511	-0.060	-0.070
-370.785	-27.672	-0.249	-0.144
-369.771	611.272	-0.120	-0.301
-368.756	-190.313	0.167	0.002
-367.742	-200.000	0.106	0.631
-366.727	120.466	0.088	0.109
-365.712	158.086	0.221	0.307
-364.698	17.257	-0.130	0.103
-363.683	768.432	0.032	-0.088
-362.669	648.258	-0.172	0.440
-361.654	-10.124	-0.160	0.106
-360.639	-200.000	-0.020	-0.127
-359.625	184.634	-0.145	0.215
-358.610	800.000	-0.034	0.124
-357.596	11.620	-0.166	0.128
-356.581	-94.663	-0.066	0.018
-355.566	-70.247	-0.041	0.015
-354.552	-152.771	-0.191	0.014
-353.537	445.601	-0.139	0.304
-352.523	-200.000	-0.021	-0.177
-351.508	-200.000	-0.003	-0.123
-350.493	-49.360	0.228	0.109
-349.479	73.906	0.080	0.084
-348.464	8.575	-0.142	-0.107
-347.450	118.449	-0.209	0.257
-346.435	140.836	-0.137	0.180
-345.420	-81.498	-0.449	-0.148
-344.406	-7.085	0.343	0.233
-343.391	240.313	0.098	-0.163
-342.377	551.986	-0.133	0.319
-341.362	-200.000	0.014	0.165
-340.348	234.749	-0.032	0.052
-339.333	-108.863	0.039	-0.008
-338.318	180.166	-0.129	-0.189
-337.304	-75.064	-0.245	0.088
-336.289	94.023	0.138	0.156
-335.275	-54.848	-0.007	-0.003
-334.260	-77.069	0.386	-0.135
-333.245	584.271	-0.006	-0.014
-332.231	-200.000	0.002	-0.201
-331.216	156.139	-0.166	-0.229
-330.202	-76.909	0.218	0.076
-329.187	-200.000	-0.007	-0.049
-328.172	98.879	-0.025	0.029
-327.158	-75.444	0.313	0.111
-326.143	-39.754	0.457	0.238
-325.129	-200.000	-0.009	0.266
-324.114	48.557	0.116	0.108
-323.099	250.452	-0.184	0.312
-322.085	72.335	-0.153	0.159
-321.070	-200.000	-0.014	0.072
-320.056	-46.773	0.070	0.034
-319.041	-147.046	0.575	-0.049
-318.026	174.638	-0.177	-0.255
-317.012	102.207	0.105	0.123
-315.997	-166.014	-0.147	0.006
-314.983	-104.823	0.137	0.031
-313.968	-79.709	-0.118	-0.040
-312.953	-98.617	0.328	0.084
-311.939	177.306	-0.165	-0.240
-310.924	-74.572	-0.218	-0.078
-309.910	1.131	-0.343	-0.246
-308.895	800.000	0.053	-0.197
-307.880	-44.920	-0.236	0.117
-306.866	-126.668	-0.257	-0.038
-305.851	739.393	0.087	-0.233
-304.837	-97.453	0.122	-0.032
-303.822	147.167	-0.123	-0.166
-302.807	34.308	0.169	0.147
-301.793	-200.000	0.005	-0.370
-300.778	210.998	-0.162	-0.253
-299.764	-200.000	0.182	0.000
-298.749	-26.463	0.119	0.070
-297.735	-139.463	0.091	-0.010
-296.720	-122.676	-0.247	0.040
-295.705	-142.633	0.146	0.014
-294.691	800.000	-0.040	-0.112
-293.676	-133.584	0.057	-0.007
-292.662	4.403	0.208	-0.152
-291.647	1.356	0.018	-0.013
-290.632	61.249	-0.166	-0.165
-289.618	12.832	-0.231	-0.178
-288.603	-200.000	0.007	-0.096
-287.589	-28.725	-0.479	-0.275
-286.574	-77.144	-0.231	-0.080
-285.559	25.324	-0.027	-0.022
-284.545	-61.956	0.105	-0.044
-283.530	385.018	-0.112	0.231
-282.516	-200.000	-0.003	0.348
-281.501	80.212	-0.094	-0.101
-280.486	-54.146	0.388	-0.176
-279.472	-200.000	0.026	0.166
-278.457	-200.000	-0.017	-0.091
-277.443	48.451	-0.020	-0.019
-276.428	47.429	0.275	0.256
-275.413	-98.268	0.153	0.039
-274.399	119.410	-0.270	0.333
-273.384	-114.279	0.181	0.035
-272.370	333.989	-0.100	0.193
-271.355	217.315	0.025	-0.040
-270.340	-60.879	-0.524	-0.221
-269.326	-67.340	0.183	-0.072
-268.311	-146.391	-0.282	-0.025
-267.297	-111.275	0.121	-0.025
-266.282	48.273	0.052	0.049
-265.267	800.000	-0.133	0.431
-264.253	-177.884	-0.128	-0.003
-263.238	152.534	0.121	0.165
-262.224	-200.000	0.005	0.190
-261.209	-122.852	-0.216	-0.035
-260.195	182.806	-0.069	0.101
-259.180	166.957	0.139	0.197
-258.165	-94.662	-0.009	-0.002
-257.151	-116.555	0.219	-0.040
-256.136	-42.539	0.317	-0.161
-255.122	19.432	0.318	0.255
-254.107	-40.118	-0.182	-0.095
-253.092	42.902	0.155	0.140
-252.078	-89.131	0.384	-0.113
-251.063	399.562	-0.065	0.136
-250.049	-82.676	0.200	-0.065
-249.034	-94.009	-0.203	-0.055
-248.019	109.513	-0.275	-0.328
-247.005	-200.000	0.027	0.195
-245.990	-200.000	0.035	0.176
-244.976	-200.000	0.002	-0.186
-243.961	-60.371	0.178	0.075
-242.946	-58.362	0.236	-0.102
-241.932	-200.000	-0.007	0.092
-240.917	575.361	-0.044	-0.108
-239.903	-150.785	-0.199	0.015
-238.888	-200.000	-0.040	0.317
-237.873	-200.000	-0.041	0.379
-236.859	-200.000	-0.034	-0.215
-235.844	-40.638	-0.078	0.040
-234.830	277.027	0.128	0.226
-233.815	-200.000	-0.005	-0.239
-232.800	6.746	0.110	-0.081
-231.786	119.204	-0.106	0.131
-230.771	-116.779	-0.246	0.045
-229.757	18.011	-0.120	-0.095
-228.742	168.543	-0.158	0.224
-227.727	800.000	-0.027	0.108
-226.713	-22.018	0.190	-0.115
-225.698	-91.394	0.218	-0.062
-224.684	-177.819	-0.219	0.005
-223.669	-47.548	-0.221	0.107
-222.655	-24.860	-0.341	-0.202
-221.640	-54.515	0.161	-0.073
-220.625	-200.000	0.035	0.284
-219.611	-152.770	-0.295	-0.021
-218.596	-84.094	-0.257	0.081
-217.582	-200.000	0.043	0.209
-216.567	-200.000	-0.084	0.378
-215.552	-66.288	-0.181	0.072
-214.538	-16.946	-0.095	-0.060
-213.523	109.520	0.122	0.145
-212.509	-0.273	0.267	0.189
-211.494	1.393	0.246	0.176
-210.479	721.329	-0.063	0.166
-209.465	-49.098	0.342	0.163
-208.450	41.915	-0.071	0.064
-207.436	58.773	0.063	0.062
-206.421	677.746	-0.164	0.424
-205.406	-112.459	0.240	0.048
-204.392	201.433	0.065	-0.099
-203.377	-109.177	-0.372	0.079
-202.363	-113.388	0.320	0.062
-201.348	-200.000	-0.027	0.124
-200.333	-92.261	-0.330	0.093
-199.319	45.776	0.056	0.052
-198.304	-200.000	-0.036	0.331
-197.290	-167.775	0.152	0.006
-196.275	31.005	-0.072	-0.061
-195.260	800.000	0.007	-0.019
-194.246	-100.248	-0.143	-0.035
-193.231	-200.000	0.005	-0.067
-192.217	201.221	-0.101	0.154
-191.202	-115.729	-0.123	-0.023
-190.187	-200.000	0.006	-0.135
-189.173	62.243	-0.231	0.229
-188.158	-200.000	0.038	0.265
-187.144	106.965	-0.056	0.066
-186.129	4.519	0.119	0.086
-185.114	-43.764	-0.226	0.113
-184.100	491.796	-0.072	-0.164
-183.085	150.909	0.141	-0.191
-182.071	-116.764	0.328	0.060
-181.056	-200.000	-0.023	0.313
-180.042	214.907	-0.129	-0.204
-179.027	-44.730	-0.120	0.059
-178.012	-39.794	-0.101	-0.052
-176.998	-90.727	-0.196	-0.056
-175.983	357.787	0.084	0.167
-174.969	34.853	-0.260	0.226
-173.954	-200.000	0.007	-0.370
-172.939	-8.295	0.190	-0.127
-171.925	-75.795	0.430	-0.151
-170.910	-17.637	0.238	0.148
-169.896	280.968	-0.092	0.163
-168.881	788.153	-0.093	0.253
-167.866	241.076	-0.128	-0.212
-166.852	-113.476	-0.170	0.033
-165.837	-100.093	0.308	0.076
-164.823	-51.941	-0.031	0.014
-163.808	77.126	0.204	-0.215
-162.793	-200.000	-0.033	-0.221
-161.779	11.299	0.035	0.026
-160.764	-58.353	0.443	0.191
-159.750	-41.597	0.257	-0.131
-158.735	31.422	0.104	0.089
-157.720	524.196	-0.098	-0.229
-156.706	-140.695	0.200	0.021
-155.691	613.835	-0.116	0.287
-154.677	254.540	0.101	0.171
-153.662	29.589	-0.096	0.081
-152.647	800.000	0.074	-0.258
-151.633	14.984	-0.167	0.129
-150.618	404.498	-0.165	-0.345
-149.604	-87.642	-0.102	-0.030
-148.589	10.498	0.078	-0.059
-147.574	-10.753	0.081	0.053
-146.560	313.279	-0.086	-0.161
-145.545	13.911	-0.205	0.158
-144.531	50.505	0.071	0.067
-143.516	6.249	0.292	0.215
-142.502	-200.000	-0.066	0.395
-141.487	259.830	0.057	0.098
-140.472	-47.968	0.233	-0.112
-139.458	490.433	-0.090	-0.204
-138.443	-53.257	0.130	-0.059
-137.429	-110.137	0.046	-0.009
-136.414	128.467	0.098	-0.124
-135.399	-41.621	0.144	0.073
-134.385	68.231	0.082	-0.083
-133.370	-31.844	-0.198	0.110
-132.356	800.000	0.066	-0.197
-131.341	540.034	-0.065	-0.152
-130.326	-200.000	-0.023	-0.108
-129.312	-114.176	0.155	-0.030
-128.297	-21.632	0.331	0.200
-127.283	-200.000	0.010	0.157
-126.268	-113.841	0.439	0.085
-125.253	13.781	0.176	-0.136
-124.239	226.839	-0.109	0.175
-123.224	179.927	0.182	0.265
-122.210	468.382	-0.027	-0.061
-121.195	-58.713	0.242	-0.104
