DTS Sentinel unit serial number:	SN413079Multiplexer serial number:	ORYXHardware model number:	OX4-SRSoftware version number:	ORYX F/W v4.00 Oryx Data Collector v3.7.2.0data status	okinstallation	princeton_trtdifferential loss correction	single-endedforward channel	channel 4reverse channel	N/Adate	2019/09/11time	19:31:11forward acquisition time	60.00reverse acquisition time	0.00gamma	496.2192k internal	0.2295k external	0.2295temperature offset calibration	1.0045default loss term (dB/km)	0.3790temperature slope calibration	1.0000multiplexer offset coefficient	1.0000multiplexer slope coefficient	1.0000fibre end	0.00T internal ref (°C)	40.37T ext. ref 1 (°C)	1.32T ext. ref 2 (°C)	32.41length (m)	temperature (°C)	Stokes	anti-Stokes-747.200	14.598	0.302	0.241
-746.185	800.000	-0.093	0.282
-745.171	-200.000	-0.005	0.148
-744.156	291.732	-0.135	0.250
-743.142	-18.713	0.154	0.098
-742.127	51.127	-0.200	0.194
-741.112	9.743	0.059	-0.046
-740.098	-116.278	0.180	0.034
-739.083	-54.577	0.450	0.208
-738.069	50.195	0.198	0.191
-737.054	149.439	-0.079	0.109
-736.039	-63.748	-0.396	-0.166
-735.025	80.148	-0.106	0.117
-734.010	-200.000	0.019	-0.162
-732.996	-99.139	-0.435	-0.112
-731.981	-200.000	-0.013	0.216
-730.966	379.564	0.157	-0.328
-729.952	16.713	-0.074	-0.060
-728.937	800.000	0.043	0.139
-727.923	-0.970	-0.292	-0.211
-726.908	-117.601	0.247	0.045
-725.894	260.526	0.046	0.081
-724.879	-63.734	-0.110	0.046
-723.864	-29.924	-0.105	0.061
-722.850	-200.000	0.034	-0.253
-721.835	-125.027	-0.200	-0.031
-720.821	348.464	0.098	-0.196
-719.806	-16.502	-0.109	0.071
-718.791	-12.983	-0.095	0.063
-717.777	645.420	-0.108	0.282
-716.762	-37.279	-0.168	0.091
-715.748	-27.572	0.325	-0.192
-714.733	16.380	0.303	-0.244
-713.718	696.833	-0.118	0.318
-712.704	-112.768	-0.412	0.083
-711.689	-200.000	0.032	-0.233
-710.675	88.761	0.219	0.249
-709.660	104.375	-0.119	-0.144
-708.645	-159.625	0.214	0.012
-707.631	773.303	-0.023	0.064
-706.616	616.479	0.083	0.212
-705.602	800.000	0.031	-0.117
-704.587	259.969	-0.086	-0.151
-703.572	-71.175	-0.297	-0.114
-702.558	34.512	0.201	0.179
-701.543	-200.000	-0.001	-0.191
-700.529	-1.863	-0.266	-0.191
-699.514	56.206	0.107	0.106
-698.499	570.904	-0.048	-0.119
-697.485	-107.549	0.068	-0.015
-696.470	-134.047	-0.135	0.017
-695.456	62.455	-0.088	-0.090
-694.441	53.069	-0.324	0.316
-693.426	213.333	-0.199	0.320
-692.412	-25.190	-0.243	-0.147
-691.397	22.172	0.296	-0.246
-690.383	-26.953	-0.190	-0.113
-689.368	82.191	0.243	0.268
-688.354	-69.159	0.114	-0.045
-687.339	-90.123	-0.169	-0.050
-686.324	-200.000	-0.032	-0.295
-685.310	-200.000	0.034	-0.215
-684.295	619.622	-0.085	-0.218
-683.281	-200.000	0.068	-0.322
-682.266	-76.601	0.248	-0.089
-681.251	393.816	0.075	-0.159
-680.237	34.486	-0.290	-0.258
-679.222	0.719	-0.182	-0.133
-678.208	228.752	0.090	0.150
-677.193	-200.000	0.002	0.124
-676.178	-200.000	-0.031	-0.302
-675.164	-86.073	0.272	0.086
-674.149	29.392	0.119	0.103
-673.135	17.570	0.141	0.114
-672.120	-15.662	-0.199	0.129
-671.105	-170.406	-0.301	0.011
-670.091	311.835	-0.050	-0.095
-669.076	-141.780	-0.011	-0.001
-668.062	424.296	0.078	0.172
-667.047	-165.988	-0.180	-0.008
-666.032	-200.000	-0.007	0.036
-665.018	199.316	-0.219	-0.342
-664.003	-71.672	-0.292	0.111
-662.989	-121.346	-0.037	-0.006
-661.974	800.000	0.139	-0.460
-660.959	32.271	0.082	0.072
-659.945	329.527	-0.086	0.169
-658.930	168.622	0.024	-0.035
-657.916	-200.000	0.004	0.191
-656.901	-156.290	0.134	-0.009
-655.886	-81.290	-0.182	0.061
-654.872	-13.883	0.235	-0.155
-653.857	41.952	-0.066	0.061
-652.843	123.564	-0.253	-0.324
-651.828	581.659	-0.073	0.181
-650.814	-118.484	0.075	-0.013
-649.799	36.734	0.209	-0.188
-648.784	-200.000	0.013	-0.211
-647.770	-200.000	-0.027	0.197
-646.755	68.805	0.078	-0.082
-645.741	-79.159	0.248	-0.086
-644.726	-137.271	0.107	0.012
-643.711	35.577	0.135	0.120
-642.697	-24.554	0.199	0.121
-641.682	90.802	0.075	-0.085
-640.668	-164.496	-0.116	0.005
-639.653	-174.888	0.241	-0.007
-638.638	-124.147	-0.040	0.006
-637.624	-60.211	-0.162	0.070
-636.609	-55.867	0.209	0.095
-635.595	-200.000	0.026	-0.152
-634.580	-81.958	0.335	-0.112
-633.565	106.792	0.246	0.297
-632.551	448.686	0.167	0.375
-631.536	326.370	-0.153	-0.298
-630.522	424.831	-0.079	0.174
-629.507	-200.000	0.010	0.258
-628.492	-7.385	-0.305	0.211
-627.478	-134.612	0.058	-0.007
-626.463	-156.506	0.223	0.014
-625.449	104.427	0.041	-0.049
-624.434	-73.482	0.287	-0.107
-623.419	422.967	0.076	0.167
-622.405	533.618	0.012	-0.028
-621.390	-200.000	0.138	0.000
-620.376	170.616	0.103	-0.150
-619.361	-48.998	0.204	0.100
-618.346	-200.000	-0.032	0.209
-617.332	-160.790	-0.078	-0.004
-616.317	174.915	0.042	0.062
-615.303	251.128	0.101	0.175
-614.288	-200.000	-0.013	0.189
-613.273	-200.000	-0.026	-0.204
-612.259	-142.836	-0.195	-0.019
-611.244	-121.195	-0.286	0.049
-610.230	359.267	-0.153	-0.310
-609.215	404.007	-0.132	-0.282
-608.201	400.813	0.020	0.042
-607.186	800.000	-0.008	-0.035
-606.171	-0.672	0.164	-0.118
-605.157	-126.383	0.147	0.022
-604.142	-13.050	-0.138	-0.091
-603.128	-58.755	0.306	-0.135
-602.113	-58.886	-0.114	-0.050
-601.098	136.240	0.074	-0.098
-600.084	7.258	0.153	0.116
-599.069	384.875	0.121	-0.253
-598.055	800.000	-0.083	0.242
-597.040	-78.479	-0.311	-0.108
-596.025	-64.165	0.191	0.079
-595.011	316.370	-0.067	0.128
-593.996	79.988	-0.177	-0.194
-592.982	219.466	0.264	-0.429
-591.967	131.702	-0.177	-0.232
-590.952	-6.549	-0.034	0.024
-589.938	444.897	0.127	-0.283
-588.923	-24.350	-0.304	0.184
-587.909	-142.285	-0.209	0.021
-586.894	207.476	-0.142	-0.225
-585.879	800.000	-0.042	-0.133
-584.865	205.241	0.025	-0.040
-583.850	-200.000	0.009	0.066
-582.836	103.174	-0.103	0.122
-581.821	129.303	0.195	0.253
-580.806	-200.000	0.002	-0.094
-579.792	800.000	-0.082	-0.237
-578.777	45.122	-0.283	-0.265
-577.763	-200.000	0.042	-0.345
-576.748	-100.148	0.036	0.009
-575.733	-49.205	-0.276	0.134
-574.719	-124.916	0.352	-0.055
-573.704	800.000	-0.099	-0.307
-572.690	573.718	0.144	-0.356
-571.675	-76.600	-0.176	-0.063
-570.661	-200.000	-0.017	-0.183
-569.646	-138.927	-0.116	0.013
-568.631	265.004	0.025	-0.045
-567.617	-119.676	0.326	0.057
-566.602	-200.000	-0.059	0.376
-565.588	-36.254	-0.200	-0.109
-564.573	-10.156	0.303	0.204
-563.558	-107.170	0.117	-0.026
-562.544	512.493	-0.110	0.260
-561.529	-200.000	0.063	-0.416
-560.515	-138.434	0.132	0.015
-559.500	21.773	-0.180	-0.149
-558.485	-83.322	-0.561	0.183
-557.471	673.964	-0.095	-0.250
-556.456	-124.444	-0.095	0.015
-555.442	533.701	0.100	-0.240
-554.427	-21.347	-0.003	0.002
-553.412	-159.996	0.010	-0.001
-552.398	-200.000	-0.001	-0.024
-551.383	311.209	-0.144	0.273
-550.369	70.989	-0.107	0.113
-549.354	42.922	-0.049	-0.045
-548.339	152.707	0.148	0.206
-547.325	794.354	-0.089	-0.248
-546.310	800.000	-0.029	0.091
-545.296	160.158	-0.138	-0.195
-544.281	-6.284	-0.295	0.204
-543.266	-68.104	-0.314	-0.124
-542.252	-53.318	-0.281	0.130
-541.237	697.102	0.045	0.119
-540.223	238.395	0.120	0.202
-539.208	435.052	0.138	0.304
-538.193	-51.435	-0.167	-0.079
-537.179	136.761	-0.028	0.038
-536.164	-50.859	-0.027	0.013
-535.150	289.844	0.145	-0.266
-534.135	-47.234	0.304	-0.150
-533.121	561.949	0.087	0.213
-532.106	222.800	-0.159	-0.259
-531.091	10.927	-0.102	-0.079
-530.077	97.492	-0.290	-0.338
-529.062	-200.000	-0.027	-0.208
-528.048	-142.678	-0.200	0.020
-527.033	800.000	-0.027	0.105
-526.018	236.215	0.329	-0.552
-525.004	450.778	-0.033	-0.073
-523.989	92.404	-0.290	0.331
-522.975	800.000	0.040	-0.156
-521.960	-18.924	0.155	0.098
-520.945	-0.909	-0.168	-0.120
-519.931	6.231	-0.317	-0.238
-518.916	800.000	-0.121	0.339
-517.902	-200.000	-0.028	-0.200
-516.887	138.319	-0.073	-0.097
-515.872	-27.101	0.266	-0.157
-514.858	291.011	-0.037	-0.067
-513.843	139.356	0.161	-0.215
-512.829	19.717	0.091	0.074
-511.814	143.645	-0.188	0.253
-510.799	-115.667	-0.309	0.059
-509.785	-186.474	0.159	0.002
-508.770	-200.000	0.057	-0.491
-507.756	160.316	0.136	-0.191
-506.741	5.730	-0.305	-0.229
-505.726	800.000	-0.067	0.241
-504.712	-200.000	0.009	-0.070
-503.697	-139.613	0.166	0.018
-502.683	-133.989	0.196	-0.025
-501.668	-200.000	-0.023	-0.167
-500.653	40.776	0.163	0.149
-499.639	-107.742	0.198	-0.044
-498.624	98.526	0.144	-0.168
-497.610	310.587	-0.013	0.025
-496.595	-36.044	0.192	0.105
-495.581	172.052	-0.150	-0.218
-494.566	220.102	-0.101	-0.164
-493.551	89.983	-0.172	-0.195
-492.537	-119.764	-0.347	-0.061
-491.522	-200.000	0.039	0.191
-490.508	124.642	-0.240	0.306
-489.493	437.785	0.079	0.175
-488.478	800.000	-0.052	0.192
-487.464	598.368	-0.083	-0.208
-486.449	-40.194	0.275	-0.145
-485.435	-200.000	-0.040	0.207
-484.420	-18.791	0.112	-0.071
-483.405	-105.759	0.218	-0.050
-482.391	-200.000	0.017	0.114
-481.376	-49.799	-0.175	-0.084
-480.362	-88.581	0.150	0.045
-479.347	-0.074	-0.198	0.142
-478.332	269.050	0.054	0.095
-477.318	-200.000	0.013	-0.065
-476.303	-200.000	0.029	-0.254
-475.289	-178.979	-0.250	-0.006
-474.274	-3.683	-0.170	-0.120
-473.259	559.966	0.087	-0.212
-472.245	-200.000	0.108	0.527
-471.230	17.592	-0.337	-0.271
-470.216	-154.258	-0.058	-0.004
-469.201	61.651	0.246	-0.247
-468.186	-24.826	0.219	0.131
-467.172	76.619	0.176	-0.189
-466.157	247.062	0.149	-0.255
-465.143	488.591	0.070	-0.161
-464.128	-200.000	-0.024	-0.284
-463.113	236.178	-0.008	-0.014
-462.099	-82.376	-0.238	0.078
-461.084	-200.000	0.002	-0.175
-460.070	-200.000	0.053	-0.353
-459.055	-90.441	-0.032	0.009
-458.040	-200.000	0.056	0.410
-457.026	-21.214	0.252	0.156
-456.011	404.148	0.135	0.287
-454.997	-85.195	0.248	0.078
-453.982	248.069	0.062	-0.106
-452.968	109.704	0.090	-0.109
-451.953	800.000	0.106	0.312
-450.938	147.271	0.144	0.196
-449.924	-200.000	-0.003	-0.232
-448.909	-98.771	-0.331	0.085
-447.895	-65.253	0.357	0.145
-446.880	-200.000	-0.036	0.160
-445.865	26.874	0.179	0.151
-444.851	-54.489	-0.386	-0.177
-443.836	435.636	0.086	-0.188
-442.822	150.356	-0.201	0.276
-441.807	-161.126	0.089	-0.005
-440.792	-200.000	-0.004	-0.042
-439.778	-138.834	-0.171	-0.019
-438.763	-200.000	0.019	0.147
-437.749	-7.358	-0.032	0.022
-436.734	-200.000	0.036	0.377
-435.719	32.527	0.268	0.234
-434.705	281.075	-0.070	-0.126
-433.690	-56.870	0.084	0.038
-432.676	129.866	-0.059	-0.076
-431.661	184.911	0.114	0.170
-430.646	-82.614	0.123	-0.040
-429.632	-69.606	0.208	-0.080
-428.617	-44.808	-0.137	0.069
-427.603	-95.525	-0.124	-0.034
-426.588	-87.026	0.092	0.028
-425.573	-52.952	-0.134	-0.062
-424.559	-95.087	-0.133	0.036
-423.544	-200.000	-0.040	0.296
-422.530	266.403	-0.104	-0.184
-421.515	-113.505	0.127	-0.025
-420.500	424.373	0.127	0.275
-419.486	86.096	-0.046	-0.051
-418.471	281.281	-0.054	-0.098
-417.457	48.181	0.053	-0.050
-416.442	-188.663	-0.172	-0.002
-415.428	-200.000	0.050	-0.380
-414.413	65.641	-0.060	-0.061
-413.398	-179.344	-0.242	0.005
-412.384	-148.451	0.283	-0.023
-411.369	-23.310	-0.175	0.106
-410.355	-2.506	-0.207	0.146
-409.340	-50.870	-0.276	-0.131
-408.325	-169.485	-0.106	-0.004
-407.311	104.993	0.149	-0.177
-406.296	-77.370	0.319	-0.112
-405.282	18.462	-0.193	-0.156
-404.267	494.294	-0.071	0.164
-403.252	88.785	0.154	0.173
-402.238	-81.173	-0.195	-0.065
-401.223	110.674	0.174	0.212
-400.209	800.000	-0.021	-0.069
-399.194	521.733	-0.042	-0.101
-398.179	678.634	-0.034	-0.089
-397.165	327.911	-0.212	0.410
-396.150	800.000	-0.094	0.283
-395.136	-5.659	-0.123	0.085
-394.121	800.000	-0.037	0.125
-393.106	800.000	0.120	-0.415
-392.092	-200.000	-0.060	0.331
-391.077	-31.452	0.276	0.156
-390.063	-122.284	-0.192	0.032
-389.048	359.530	0.066	-0.134
-388.033	-200.000	0.006	0.057
-387.019	-6.018	0.353	-0.244
-386.004	-200.000	-0.013	0.221
-384.990	-200.000	0.059	0.469
-383.975	652.960	-0.106	-0.273
-382.960	-158.099	-0.095	-0.006
-381.946	800.000	0.035	0.100
-380.931	-75.562	-0.431	0.155
-379.917	-62.035	-0.029	0.012
-378.902	47.845	0.060	-0.057
-377.888	726.283	0.079	0.213
-376.873	380.889	-0.016	-0.032
-375.858	-42.858	-0.228	-0.117
-374.844	-130.421	-0.054	0.007
-373.829	-114.360	-0.439	-0.085
-372.815	-29.762	0.150	0.086
-371.800	-94.966	0.250	0.068
-370.785	-31.105	-0.140	-0.080
-369.771	-126.002	0.124	0.019
-368.756	-200.000	-0.006	0.053
-367.742	-200.000	0.021	0.170
-366.727	800.000	-0.067	-0.264
-365.712	-200.000	0.036	0.243
-364.698	280.863	0.174	-0.313
-363.683	414.993	-0.155	-0.333
-362.669	-54.213	0.264	-0.121
-361.654	-200.000	-0.025	0.130
-360.639	113.960	-0.088	0.108
-359.625	-101.389	0.174	0.043
-358.610	-161.889	-0.252	-0.013
-357.596	-27.705	-0.277	0.162
-356.581	-135.640	0.092	0.011
-355.566	-29.428	0.245	-0.141
-354.552	800.000	0.011	-0.045
-353.537	612.342	-0.078	0.196
-352.523	-200.000	-0.005	-0.060
-351.508	127.723	-0.138	-0.176
-350.493	766.576	-0.093	0.254
-349.479	402.923	0.127	-0.269
-348.464	80.195	0.044	0.048
-347.450	278.633	0.136	0.244
-346.435	71.354	0.149	0.155
-345.420	-200.000	-0.099	0.546
-344.406	-64.092	0.293	-0.120
-343.391	-90.826	-0.187	0.054
-342.377	28.980	-0.102	0.087
-341.362	-73.735	0.159	-0.058
-340.348	-61.191	0.055	-0.023
-339.333	-200.000	-0.007	-0.053
-338.318	34.282	0.122	0.107
-337.304	328.698	-0.107	-0.207
-336.289	-23.877	0.085	-0.051
-335.275	165.478	0.198	-0.281
-334.260	-32.072	-0.046	0.026
-333.245	-200.000	0.033	0.168
-332.231	228.719	0.095	0.156
-331.216	-112.214	0.176	0.036
-330.202	-200.000	-0.051	0.287
-329.187	-200.000	-0.007	0.053
-328.172	800.000	0.045	-0.165
-327.158	95.690	-0.223	-0.256
-326.143	-24.946	-0.059	0.035
-325.129	590.109	0.087	0.216
-324.114	-200.000	0.006	-0.141
-323.099	17.080	0.250	0.199
-322.085	-95.547	-0.421	0.114
-321.070	350.010	-0.141	0.281
-320.056	-200.000	-0.020	0.226
-319.041	-109.928	0.198	0.042
-318.026	-143.087	0.089	0.009
-317.012	211.318	0.122	0.193
-315.997	-45.153	-0.231	-0.115
-314.983	-161.592	0.451	0.023
-313.968	-87.808	0.100	-0.030
-312.953	-200.000	0.026	0.151
-311.939	800.000	-0.083	0.298
-310.924	104.314	-0.227	-0.269
-309.910	78.285	0.126	-0.135
-308.895	-76.734	-0.185	0.065
-307.880	-49.476	0.272	0.130
-306.866	-24.179	-0.154	0.092
-305.851	800.000	-0.064	0.209
-304.837	-32.435	-0.074	-0.042
-303.822	11.502	0.043	-0.033
-302.807	245.202	0.138	-0.233
-301.793	-200.000	-0.014	-0.198
-300.778	92.179	-0.120	-0.136
-299.764	166.296	0.052	-0.074
-298.749	-192.764	-0.234	-0.002
-297.735	-145.094	0.111	0.010
-296.720	196.701	0.107	0.164
-295.705	-90.049	0.323	-0.095
-294.691	53.998	0.216	-0.209
-293.676	393.450	-0.038	-0.079
-292.662	-148.930	-0.263	0.021
-291.647	-91.266	0.111	-0.032
-290.632	371.747	-0.144	-0.294
-289.618	-200.000	-0.020	-0.435
-288.603	44.455	-0.029	0.026
-287.589	29.041	-0.043	-0.036
-286.574	469.624	0.091	-0.205
-285.559	-45.065	-0.144	-0.072
-284.545	182.587	-0.056	-0.084
-283.530	-200.000	-0.005	-0.138
-282.516	800.000	-0.058	-0.210
-281.501	-200.000	-0.015	-0.195
-280.486	32.166	-0.202	0.175
-279.472	383.007	0.034	0.070
-278.457	230.225	-0.206	0.338
-277.443	800.000	-0.048	0.137
-276.428	800.000	-0.053	-0.205
-275.413	-7.437	0.441	0.300
-274.399	-138.034	0.626	0.070
-273.384	-66.934	0.083	-0.033
-272.370	-70.285	0.233	0.089
-271.355	-128.727	-0.338	-0.048
-270.340	27.004	-0.047	0.039
-269.326	84.772	-0.086	-0.094
-268.311	-200.000	-0.064	-0.447
-267.297	-84.611	-0.166	-0.052
-266.282	482.916	-0.077	-0.175
-265.267	558.474	0.067	-0.163
-264.253	-5.439	-0.167	0.115
-263.238	-200.000	0.010	0.256
-262.224	797.574	-0.053	0.147
-261.209	35.318	0.084	-0.074
-260.195	23.890	-0.138	-0.114
-259.180	-131.702	0.063	0.008
-258.165	159.198	0.135	0.188
-257.151	-200.000	-0.077	0.449
-256.136	113.974	-0.218	-0.266
-255.122	252.864	0.088	0.150
-254.107	-200.000	-0.053	0.377
-253.092	800.000	0.029	-0.099
-252.078	-73.761	-0.346	-0.126
-251.063	800.000	-0.084	-0.295
-250.049	205.714	-0.064	-0.099
-249.034	543.422	-0.121	0.289
-248.019	-87.413	-0.309	-0.094
-247.005	-200.000	-0.090	-0.397
-245.990	110.964	0.269	-0.324
-244.976	-167.474	0.090	0.004
-243.961	-73.733	0.341	-0.124
-242.946	-200.000	0.001	0.098
-241.932	800.000	0.055	-0.154
-240.917	428.677	-0.089	-0.192
-239.903	-200.000	-0.040	-0.246
-238.888	37.250	-0.017	-0.015
-237.873	466.981	-0.020	0.045
-236.859	-75.122	0.295	-0.106
-235.844	117.284	0.186	0.229
-234.830	41.272	0.087	0.079
-233.815	-123.942	0.271	-0.043
-232.800	21.515	-0.141	0.115
-231.786	-120.645	0.222	-0.038
-230.771	62.423	-0.232	0.232
-229.757	282.313	0.100	0.180
-228.742	-200.000	-0.021	0.359
-227.727	-166.278	-0.132	0.006
-226.713	70.694	-0.074	-0.077
-225.698	800.000	0.034	0.109
-224.684	-130.755	-0.119	-0.016
-223.669	-185.178	0.415	0.006
-222.655	170.768	0.153	0.219
-221.640	-200.000	-0.011	-0.066
-220.625	-82.842	0.124	-0.040
-219.611	-28.718	-0.067	-0.038
-218.596	455.708	0.043	0.095
-217.582	-45.906	0.121	0.060
-216.567	-51.343	-0.321	0.150
-215.552	-87.493	0.226	0.069
-214.538	-200.000	-0.046	0.341
-213.523	12.627	0.206	0.159
-212.509	-85.873	0.093	-0.029
-211.494	800.000	0.046	-0.132
-210.479	302.844	0.105	0.195
-209.465	-28.421	0.123	-0.071
-208.450	214.914	-0.204	-0.323
-207.436	145.056	-0.190	0.254
-206.421	-165.848	-0.411	0.018
-205.406	23.057	-0.150	0.123
-204.392	-22.494	0.266	-0.161
-203.377	-113.396	-0.266	0.052
-202.363	-42.738	-0.168	0.085
-201.348	2.429	0.080	0.058
-200.333	-142.960	0.464	0.045
-199.319	800.000	-0.075	0.268
-198.304	-200.000	-0.031	0.424
-197.290	-131.557	0.118	-0.015
-196.275	-200.000	0.048	0.357
-195.260	-75.328	-0.223	-0.079
-194.246	-97.205	-0.276	-0.072
-193.231	-130.622	0.313	-0.042
-192.217	800.000	0.043	0.168
-191.202	-45.202	-0.110	0.055
-190.187	124.483	0.259	0.325
-189.173	115.396	0.223	0.273
-188.158	-20.455	0.101	0.062
-187.144	800.000	0.053	0.172
-186.129	418.142	0.185	0.395
-185.114	-105.457	0.101	-0.023
-184.100	-200.000	-0.005	-0.253
-183.085	19.317	-0.338	-0.271
-182.071	-103.751	0.091	-0.021
-181.056	-50.840	-0.024	-0.011
-180.042	800.000	-0.042	0.132
-179.027	-200.000	-0.021	0.384
-178.012	63.391	-0.105	0.106
-176.998	-200.000	-0.036	-0.335
-175.983	-68.292	0.131	0.051
-174.969	189.019	0.088	0.131
-173.954	-44.061	-0.248	-0.125
-172.939	-200.000	0.056	0.340
-171.925	800.000	-0.112	-0.337
-170.910	254.036	-0.075	-0.128
-169.896	214.369	-0.197	0.312
-168.881	-135.866	0.228	-0.027
-167.866	86.381	-0.160	-0.176
-166.852	800.000	-0.074	-0.273
-165.837	-155.210	-0.178	0.012
-164.823	800.000	-0.059	0.227
-163.808	800.000	-0.068	-0.280
-162.793	-65.352	0.313	-0.126
-161.779	-200.000	0.016	-0.138
-160.764	-200.000	-0.010	0.085
-159.750	-186.052	0.189	-0.003
-158.735	-200.000	0.016	-0.088
-157.720	-93.043	-0.168	-0.047
-156.706	-129.805	-0.051	-0.007
-155.691	139.257	-0.132	0.174
-154.677	71.932	0.155	0.161
-153.662	66.180	-0.288	-0.292
-152.647	-70.768	0.047	-0.018
-151.633	186.028	-0.072	0.107
-150.618	4.433	-0.098	0.071
-149.604	167.580	-0.184	0.261
-148.589	-124.369	-0.180	0.028
-147.574	-200.000	0.008	-0.113
-146.560	-200.000	-0.002	-0.178
-145.545	-0.969	0.064	-0.045
-144.531	384.726	-0.052	-0.108
-143.516	354.236	-0.076	0.150
-142.502	28.844	0.299	-0.253
-141.487	58.671	-0.150	-0.147
-140.472	-159.684	-0.050	-0.003
-139.458	-58.092	0.144	0.062
-138.443	-136.594	0.369	0.043
-137.429	-22.240	0.102	-0.062
-136.414	-146.120	-0.168	0.015
-135.399	-8.201	-0.256	-0.172
-134.385	800.000	-0.078	0.223
-133.370	-200.000	-0.008	0.288
-132.356	-52.760	0.383	0.176
-131.341	345.086	0.102	-0.201
-130.326	54.714	-0.171	-0.165
-129.312	-121.920	-0.419	0.069
-128.297	-108.186	0.450	-0.097
-127.283	569.344	0.107	0.261
-126.268	800.000	0.095	0.266
-125.253	800.000	0.117	0.391
-124.239	261.740	0.107	-0.185
-123.224	31.576	0.079	0.068
-122.210	800.000	0.058	0.190
