DTS Sentinel unit serial number:	SN413079Multiplexer serial number:	ORYXHardware model number:	OX4-SRSoftware version number:	ORYX F/W v4.00 Oryx Data Collector v3.7.2.0data status	okinstallation	princeton_trtdifferential loss correction	single-endedforward channel	channel 4reverse channel	N/Adate	2019/09/13time	04:45:35forward acquisition time	60.00reverse acquisition time	0.00gamma	496.2192k internal	0.2322k external	0.2322temperature offset calibration	1.0195default loss term (dB/km)	0.3790temperature slope calibration	1.0000multiplexer offset coefficient	1.0000multiplexer slope coefficient	1.0000fibre end	0.00T internal ref (°C)	26.56T ext. ref 1 (°C)	4.06T ext. ref 2 (°C)	21.15length (m)	temperature (°C)	Stokes	anti-Stokes-747.200	-104.131	0.105	-0.025
-746.185	54.125	-0.231	-0.225
-745.171	-61.497	0.126	0.053
-744.156	-194.029	-0.196	0.002
-743.142	578.926	0.060	0.147
-742.127	174.045	-0.077	0.113
-741.112	477.278	-0.098	0.224
-740.098	91.190	0.216	-0.245
-739.083	612.343	-0.125	-0.315
-738.069	-73.581	-0.060	0.022
-737.054	111.712	0.179	0.219
-736.039	800.000	-0.173	-0.559
-735.025	-200.000	0.006	0.352
-734.010	-200.000	0.020	-0.528
-732.996	1.809	-0.200	0.146
-731.981	58.394	-0.280	-0.278
-730.966	46.471	-0.244	0.229
-729.952	-144.009	0.081	0.008
-728.937	63.284	-0.167	0.169
-727.923	603.234	0.063	0.158
-726.908	800.000	-0.028	-0.080
-725.894	-200.000	-0.007	-0.306
-724.879	-68.787	0.198	-0.077
-723.864	0.734	0.189	-0.137
-722.850	800.000	-0.071	0.250
-721.835	-130.810	-0.289	0.039
-720.821	-161.609	0.112	-0.006
-719.806	-200.000	-0.006	-0.197
-718.791	77.318	-0.109	-0.117
-717.777	-43.589	-0.259	-0.132
-716.762	-135.159	-0.387	0.047
-715.748	-200.000	0.005	-0.106
-714.733	-138.102	-0.115	-0.013
-713.718	175.332	0.043	0.063
-712.704	-99.820	-0.323	0.082
-711.689	-200.000	-0.029	-0.430
-710.675	-200.000	0.031	0.205
-709.660	-159.795	-0.558	0.031
-708.645	-200.000	0.009	0.117
-707.631	800.000	0.046	0.154
-706.616	800.000	-0.135	-0.388
-705.602	-82.948	0.350	-0.114
-704.587	241.013	0.273	0.460
-703.572	-84.744	-0.244	-0.078
-702.558	-156.211	0.189	0.012
-701.543	428.191	0.072	-0.157
-700.529	456.726	0.167	-0.374
-699.514	-16.200	-0.218	-0.139
-698.499	595.749	0.135	-0.338
-697.485	-115.807	0.112	-0.021
-696.470	2.391	0.144	-0.105
-695.456	-116.416	-0.239	-0.044
-694.441	301.943	-0.028	-0.051
-693.426	66.740	0.267	0.274
-692.412	-200.000	0.059	0.340
-691.397	-45.580	-0.145	-0.072
-690.383	16.904	0.121	-0.096
-689.368	402.355	0.126	0.268
-688.354	800.000	-0.047	0.145
-687.339	800.000	-0.014	0.044
-686.324	-200.000	-0.032	-0.216
-685.310	164.001	0.049	-0.069
-684.295	218.800	-0.170	-0.274
-683.281	-200.000	0.004	-0.152
-682.266	-175.433	0.355	-0.010
-681.251	-83.391	-0.167	0.054
-680.237	800.000	0.020	0.064
-679.222	-9.525	-0.306	0.206
-678.208	110.418	-0.018	0.022
-677.193	73.123	-0.063	0.066
-676.178	-83.352	0.197	-0.064
-675.164	-67.593	-0.348	0.138
-674.149	-155.548	0.233	-0.015
-673.135	372.693	-0.063	0.129
-672.120	112.081	-0.084	-0.103
-671.105	-182.280	-0.252	-0.005
-670.091	-119.036	0.369	-0.065
-669.076	-105.564	0.274	-0.063
-668.062	103.663	0.061	-0.072
-667.047	339.502	0.100	-0.196
-666.032	459.617	-0.059	-0.133
-665.018	800.000	-0.134	-0.551
-664.003	83.939	0.217	-0.238
-662.989	-58.689	0.177	-0.077
-661.974	-65.278	0.122	-0.049
-660.959	-200.000	0.030	0.138
-659.945	-33.970	-0.270	-0.150
-658.930	-84.395	0.108	0.034
-657.916	-105.018	-0.239	0.055
-656.901	-200.000	-0.011	0.082
-655.886	-163.963	-0.228	0.011
-654.872	-8.730	0.033	0.022
-653.857	115.303	0.193	-0.238
-652.843	-118.157	-0.271	-0.049
-651.828	-91.331	0.223	-0.064
-650.814	-115.792	-0.348	0.066
-649.799	-200.000	-0.004	0.244
-648.784	-30.469	0.155	0.089
-647.770	-18.052	0.106	-0.067
-646.755	-91.633	-0.180	0.052
-645.741	-105.084	-0.297	-0.068
-644.726	-130.298	0.060	0.008
-643.711	-147.669	-0.170	0.014
-642.697	412.750	0.126	-0.270
-641.682	-200.000	-0.039	-0.174
-640.668	73.568	-0.191	-0.201
-639.653	-87.593	0.071	-0.022
-638.638	255.689	0.084	0.145
-637.624	-1.351	0.141	-0.100
-636.609	-155.051	-0.420	-0.028
-635.595	6.264	-0.133	-0.100
-634.580	701.814	-0.127	-0.337
-633.565	3.658	-0.195	-0.143
-632.551	761.648	0.104	0.283
-631.536	55.386	0.145	0.141
-630.522	800.000	-0.052	0.226
-629.507	-106.912	0.433	0.096
-628.492	-40.016	0.365	-0.192
-627.478	-90.029	-0.135	-0.040
-626.463	653.700	0.107	-0.276
-625.449	5.146	-0.190	-0.141
-624.434	93.222	0.198	0.225
-623.419	39.678	0.194	-0.175
-622.405	-50.175	-0.263	0.125
-621.390	316.340	0.105	0.200
-620.376	-41.792	-0.328	-0.169
-619.361	800.000	-0.035	0.102
-618.346	25.912	0.106	-0.089
-617.332	800.000	-0.098	-0.368
-616.317	99.665	-0.179	-0.208
-615.303	-158.740	-0.129	0.007
-614.288	-200.000	-0.004	0.381
-613.273	-142.888	0.190	0.019
-612.259	69.452	-0.414	-0.428
-611.244	195.253	-0.230	-0.351
-610.230	311.259	0.128	0.242
-609.215	-51.136	-0.417	0.196
-608.201	-200.000	0.032	-0.164
-607.186	800.000	-0.060	-0.196
-606.171	78.424	-0.213	0.228
-605.157	-55.370	-0.159	0.072
-604.142	800.000	-0.044	-0.130
-603.128	-81.966	0.114	-0.037
-602.113	-80.116	0.423	0.142
-601.098	-200.000	0.029	-0.243
-600.084	-200.000	0.009	-0.348
-599.069	-28.584	-0.164	-0.095
-598.055	-184.380	-0.280	0.005
-597.040	43.524	-0.141	-0.129
-596.025	464.446	-0.060	-0.135
-595.011	-78.758	-0.255	-0.087
-593.996	-200.000	0.017	0.236
-592.982	56.659	-0.299	0.292
-591.967	-65.498	0.212	-0.085
-590.952	-64.839	0.397	-0.161
-589.938	-61.489	-0.339	0.143
-588.923	125.177	-0.175	0.222
-587.909	68.592	0.238	0.245
-586.894	70.385	0.312	-0.324
-585.879	556.016	0.167	-0.404
-584.865	350.723	-0.109	0.216
-583.850	-121.924	-0.238	-0.039
-582.836	-134.132	0.183	-0.023
-581.821	-200.000	0.021	0.202
-580.806	-200.000	-0.053	0.298
-579.792	-57.287	0.209	-0.092
-578.777	467.392	0.093	-0.209
-577.763	272.680	0.117	-0.208
-576.748	33.631	0.114	0.099
-575.733	-152.026	0.190	-0.014
-574.719	800.000	-0.033	-0.119
-573.704	248.099	0.137	-0.232
-572.690	-165.638	-0.269	0.012
-571.675	-124.698	0.346	0.054
-570.661	310.413	0.120	0.225
-569.646	77.325	-0.217	-0.231
-568.631	83.938	-0.208	0.227
-567.617	-41.343	-0.172	-0.089
-566.602	-200.000	-0.057	-0.349
-565.588	26.939	-0.163	0.137
-564.573	-200.000	0.002	-0.111
-563.558	36.110	0.280	-0.247
-562.544	63.135	0.174	0.175
-561.529	800.000	0.056	-0.180
-560.515	150.172	-0.044	0.060
-559.500	-120.422	-0.328	-0.056
-558.485	-70.740	-0.160	0.061
-557.471	359.406	0.071	0.142
-556.456	41.219	0.137	-0.124
-555.442	403.144	0.087	-0.184
-554.427	125.628	0.174	0.220
-553.412	25.105	0.219	-0.182
-552.398	-200.000	0.080	-0.364
-551.383	-3.971	-0.074	-0.051
-550.369	-24.480	-0.306	0.183
-549.354	800.000	0.027	0.096
-548.339	-185.885	0.258	-0.004
-547.325	15.475	-0.066	0.052
-546.310	-200.000	0.031	-0.146
-545.296	-108.048	-0.176	-0.038
-544.281	-1.971	-0.114	-0.080
-543.266	-113.624	-0.356	0.070
-542.252	-200.000	-0.016	-0.082
-541.237	118.592	-0.239	-0.295
-540.223	470.502	-0.026	0.058
-539.208	-16.710	-0.122	0.077
-538.193	-103.809	-0.263	-0.062
-537.179	-178.713	0.136	0.003
-536.164	126.225	-0.009	-0.012
-535.150	800.000	0.037	-0.160
-534.135	104.174	0.142	-0.167
-533.121	209.406	-0.117	-0.183
-532.106	-8.324	-0.189	0.128
-531.091	-4.634	-0.494	0.342
-530.077	-65.166	-0.316	-0.128
-529.062	-200.000	0.010	-0.059
-528.048	-34.887	-0.230	0.126
-527.033	-200.000	0.044	0.232
-526.018	-79.052	-0.238	-0.081
-525.004	-24.776	0.244	-0.145
-523.989	30.814	0.310	0.266
-522.975	-56.743	0.038	0.017
-521.960	-65.058	0.128	-0.052
-520.945	131.147	-0.130	0.167
-519.931	226.290	-0.154	-0.250
-518.916	12.654	0.178	0.137
-517.902	53.093	-0.119	0.114
-516.887	403.710	0.087	0.184
-515.872	18.650	0.214	-0.171
-514.858	-42.969	-0.293	-0.149
-513.843	433.254	-0.035	-0.076
-512.829	245.735	0.101	0.171
-511.814	122.345	0.076	0.095
-510.799	-200.000	0.060	0.295
-509.785	-66.064	0.134	-0.053
-508.770	-200.000	-0.003	0.275
-507.756	-200.000	-0.045	0.266
-506.741	232.428	-0.068	-0.111
-505.726	6.058	-0.142	-0.105
-504.712	9.473	-0.226	0.171
-503.697	105.724	0.148	-0.176
-502.683	290.976	0.199	-0.363
-501.668	-68.904	0.394	-0.152
-500.653	-17.565	-0.157	0.099
-499.639	-96.505	-0.082	-0.022
-498.624	1.232	0.191	0.137
-497.610	-38.183	0.290	-0.154
-496.595	-200.000	0.005	-0.154
-495.581	-64.373	-0.061	-0.025
-494.566	-131.709	-0.537	0.071
-493.551	58.058	-0.172	-0.169
-492.537	358.850	0.073	-0.147
-491.522	-200.000	-0.020	0.127
-490.508	194.047	0.199	-0.302
-489.493	585.783	-0.021	-0.052
-488.478	407.873	0.065	0.138
-487.464	800.000	-0.065	-0.217
-486.449	-165.251	-0.346	0.015
-485.435	394.210	0.071	-0.148
-484.420	-200.000	0.037	0.201
-483.405	-148.128	0.260	0.022
-482.391	-130.676	-0.102	-0.014
-481.376	-82.382	0.269	0.088
-480.362	-100.754	-0.223	-0.055
-479.347	726.257	-0.067	0.178
-478.332	-138.789	0.122	-0.013
-477.318	-55.415	-0.225	-0.101
-476.303	66.586	-0.136	-0.138
-475.289	-53.916	0.331	0.151
-474.274	668.537	0.015	0.038
-473.259	800.000	0.052	-0.150
-472.245	800.000	0.048	-0.144
-471.230	132.184	0.058	0.075
-470.216	-11.114	0.270	0.178
-469.201	744.081	-0.064	0.173
-468.186	13.351	-0.191	-0.148
-467.172	-90.504	0.050	-0.014
-466.157	71.696	0.178	0.184
-465.143	-118.592	0.064	-0.011
-464.128	-15.171	-0.353	0.226
-463.113	800.000	0.052	0.174
-462.099	-21.831	-0.049	0.030
-461.084	-35.456	0.223	-0.121
-460.070	85.054	-0.140	0.154
-459.055	379.141	-0.070	-0.143
-458.040	47.462	0.157	-0.146
-457.026	-40.633	-0.175	-0.091
-456.011	26.181	-0.160	0.133
-454.997	-131.291	0.299	0.040
-453.982	-166.259	0.236	0.010
-452.968	-200.000	0.031	-0.158
-451.953	-11.920	-0.136	-0.089
-450.938	-57.394	-0.109	0.048
-449.924	-126.831	0.245	-0.036
-448.909	-89.915	0.096	0.028
-447.895	-92.706	0.449	-0.126
-446.880	730.124	-0.127	0.338
-445.865	-200.000	-0.015	0.174
-444.851	-39.201	0.174	-0.091
-443.836	-125.692	-0.193	-0.029
-442.822	413.220	-0.063	0.135
-441.807	234.265	-0.122	-0.202
-440.792	-71.765	-0.135	-0.050
-439.778	800.000	0.076	0.239
-438.763	52.967	0.066	-0.063
-437.749	-58.827	-0.188	0.081
-436.734	1.488	0.139	-0.100
-435.719	20.566	-0.206	-0.166
-434.705	312.494	0.187	-0.350
-433.690	-67.934	0.359	-0.140
-432.676	-45.743	-0.419	-0.207
-431.661	-200.000	0.030	0.188
-430.646	-200.000	0.010	-0.117
-429.632	302.475	0.144	-0.265
-428.617	-121.823	-0.237	0.039
-427.603	800.000	0.018	-0.075
-426.588	100.349	-0.084	-0.098
-425.573	-160.715	0.601	-0.032
-424.559	-61.393	0.047	0.020
-423.544	679.390	-0.025	-0.065
-422.530	-41.953	-0.270	-0.138
-421.515	3.062	0.041	0.030
-420.500	40.209	0.111	-0.100
-419.486	-122.506	0.166	-0.027
-418.471	442.179	0.091	0.198
-417.457	-31.614	-0.187	0.105
-416.442	-89.583	-0.200	0.059
-415.428	103.129	-0.099	-0.115
-414.413	800.000	0.041	0.115
-413.398	129.830	-0.180	0.229
-412.384	-200.000	0.044	-0.237
-411.369	-180.236	-0.056	-0.001
-410.355	-47.088	0.288	0.140
-409.340	-4.307	0.117	-0.081
-408.325	800.000	-0.147	0.528
-407.311	-200.000	-0.030	0.312
-406.296	-200.000	0.001	-0.021
-405.282	-200.000	0.007	-0.173
-404.267	-139.210	0.112	-0.012
-403.252	704.803	0.054	-0.143
-402.238	-200.000	0.012	0.143
-401.223	-200.000	-0.042	0.329
-400.209	242.127	-0.043	0.071
-399.194	-200.000	-0.036	0.235
-398.179	-78.817	-0.299	-0.102
-397.165	-120.839	0.503	0.085
-396.150	-191.880	0.121	-0.001
-395.136	800.000	-0.059	-0.174
-394.121	-133.717	-0.218	0.027
-393.106	30.158	-0.138	0.118
-392.092	-200.000	-0.036	-0.370
-391.077	-71.640	0.192	0.071
-390.063	55.596	-0.055	0.054
-389.048	29.841	0.215	0.183
-388.033	16.072	0.174	0.137
-387.019	-200.000	-0.057	0.277
-386.004	289.381	-0.069	0.125
-384.990	800.000	-0.010	-0.039
-383.975	71.493	-0.201	-0.208
-382.960	32.469	0.243	-0.210
-381.946	337.742	0.161	-0.312
-380.931	800.000	-0.053	0.206
-379.917	261.599	-0.060	0.104
-378.902	-135.766	-0.098	-0.012
-377.888	-58.102	0.227	-0.099
-376.873	-200.000	0.036	0.219
-375.858	606.270	0.125	-0.311
-374.844	513.000	0.060	-0.140
-373.829	-143.737	-0.226	-0.021
-372.815	1.461	-0.059	-0.042
-371.800	125.196	-0.109	-0.137
-370.785	-105.953	0.205	-0.046
-369.771	800.000	-0.032	-0.122
-368.756	-47.563	0.097	0.047
-367.742	-200.000	-0.299	0.001
-366.727	-111.946	-0.268	0.054
-365.712	469.794	-0.096	0.214
-364.698	-63.213	-0.044	0.018
-363.683	-135.306	-0.434	0.052
-362.669	24.051	-0.293	0.240
-361.654	-48.655	-0.147	0.070
-360.639	64.519	-0.069	-0.069
-359.625	9.168	-0.156	0.117
-358.610	-200.000	0.054	-0.337
-357.596	-17.541	0.305	-0.191
-356.581	-161.059	0.207	-0.011
-355.566	20.011	0.227	0.182
-354.552	-100.176	0.143	0.035
-353.537	-200.000	-0.043	0.411
-352.523	201.096	0.120	-0.184
-351.508	-200.000	0.119	0.649
-350.493	343.576	-0.109	0.213
-349.479	303.736	-0.133	0.245
-348.464	145.266	0.250	0.333
-347.450	-200.000	-0.024	-0.358
-346.435	95.919	0.226	0.256
-345.420	711.409	-0.042	0.111
-344.406	250.587	-0.080	-0.135
-343.391	-200.000	0.000	-0.094
-342.377	-119.188	-0.145	0.025
-341.362	536.167	0.075	0.177
-340.348	-76.183	-0.277	-0.097
-339.333	184.519	-0.133	0.196
-338.318	-200.000	0.002	-0.206
-337.304	344.811	0.174	-0.339
-336.289	32.183	0.055	-0.047
-335.275	218.619	0.115	0.182
-334.260	-200.000	-0.030	-0.171
-333.245	585.238	-0.064	0.157
-332.231	-200.000	-0.026	0.303
-331.216	-200.000	0.031	0.294
-330.202	-200.000	-0.006	-0.047
-329.187	-38.840	0.234	-0.123
-328.172	-200.000	0.002	-0.055
-327.158	800.000	-0.004	0.015
-326.143	-36.947	-0.109	-0.058
-325.129	296.820	0.033	0.061
-324.114	-145.131	0.263	0.024
-323.099	-57.950	0.171	-0.074
-322.085	-136.691	-0.177	0.020
-321.070	55.865	0.176	-0.170
-320.056	-70.881	0.190	0.071
-319.041	800.000	0.102	0.281
-318.026	795.635	-0.097	-0.266
-317.012	800.000	0.120	-0.412
-315.997	277.525	-0.097	-0.172
-314.983	-159.687	0.338	0.019
-313.968	54.213	0.144	-0.138
-312.953	-54.295	0.148	0.067
-311.939	-8.708	0.096	0.064
-310.924	800.000	-0.051	-0.207
-309.910	-200.000	-0.041	-0.282
-308.895	-126.238	0.296	-0.044
-307.880	237.933	0.076	0.125
-306.866	198.519	-0.240	0.365
-305.851	29.203	0.069	-0.058
-304.837	-52.413	-0.088	0.040
-303.822	743.675	-0.149	-0.398
-302.807	-94.429	0.198	-0.054
-301.793	800.000	0.072	0.280
-300.778	-60.693	-0.112	0.047
-299.764	35.662	-0.226	-0.197
-298.749	-19.317	0.038	0.023
-297.735	-200.000	0.028	-0.172
-296.720	-88.055	0.496	-0.148
-295.705	-144.656	-0.326	0.030
-294.691	40.872	0.323	-0.290
-293.676	800.000	-0.070	-0.268
-292.662	9.886	0.084	-0.063
-291.647	277.551	-0.044	-0.078
-290.632	-28.926	-0.070	0.040
-289.618	-94.602	0.098	-0.027
-288.603	55.523	0.194	-0.187
-287.589	-185.391	-0.224	0.003
-286.574	759.835	-0.056	0.151
-285.559	800.000	0.022	-0.088
-284.545	800.000	-0.036	0.112
-283.530	53.192	0.239	0.227
-282.516	7.006	-0.067	-0.049
-281.501	-106.529	-0.265	-0.059
-280.486	359.068	-0.046	0.090
-279.472	-200.000	-0.015	0.180
-278.457	-90.265	-0.075	0.022
-277.443	-34.139	-0.196	-0.107
-276.428	266.157	0.087	0.150
-275.413	103.461	0.015	-0.017
-274.399	-148.594	0.253	-0.020
-273.384	-104.713	-0.124	0.028
-272.370	-143.841	0.380	0.036
-271.355	115.456	-0.209	-0.254
-270.340	-31.550	-0.129	0.072
-269.326	-200.000	0.086	0.398
-268.311	-200.000	-0.013	-0.164
-267.297	-200.000	0.016	-0.186
-266.282	-39.619	0.222	0.115
-265.267	206.319	0.164	-0.254
-264.253	-151.781	0.208	0.015
-263.238	110.877	-0.228	-0.272
-262.224	-141.040	-0.137	0.014
-261.209	-108.437	-0.239	0.051
-260.195	-200.000	-0.043	0.212
-259.180	87.572	0.174	0.190
-258.165	-175.830	0.156	-0.004
-257.151	38.725	0.213	0.189
-256.136	-200.000	0.019	0.386
-255.122	47.908	-0.283	0.262
-254.107	254.634	-0.192	0.326
-253.092	-104.007	0.226	0.052
-252.078	567.322	-0.159	0.382
-251.063	24.664	0.302	0.248
-250.049	-200.000	0.000	-0.159
-249.034	-170.107	0.341	-0.012
-248.019	14.728	-0.124	-0.096
-247.005	188.851	0.057	0.084
-245.990	-200.000	0.035	-0.190
-244.976	-153.560	-0.145	-0.010
-243.961	67.143	0.206	0.208
-242.946	-200.000	-0.001	-0.175
-241.932	153.587	-0.026	-0.035
-240.917	-72.608	0.397	0.145
-239.903	55.652	-0.225	0.216
-238.888	-125.008	-0.185	0.028
-237.873	-188.989	-0.186	-0.002
-236.859	55.035	-0.077	0.074
-235.844	31.660	0.085	-0.073
-234.830	136.774	0.194	-0.250
-233.815	36.756	-0.263	-0.230
-232.800	-176.677	0.129	0.003
-231.786	440.007	-0.040	-0.088
-230.771	-154.557	0.334	0.022
-229.757	646.076	0.087	-0.219
-228.742	-157.455	0.192	-0.011
-227.727	248.453	-0.246	0.412
-226.713	-200.000	-0.032	-0.262
-225.698	143.779	0.100	0.132
-224.684	-200.000	0.000	0.092
-223.669	800.000	-0.068	0.188
-222.655	-200.000	0.009	0.332
-221.640	-200.000	0.001	-0.209
-220.625	590.674	0.076	-0.186
-219.611	179.111	0.067	-0.097
-218.596	401.303	0.024	-0.050
-217.582	623.841	0.051	-0.127
-216.567	-200.000	0.024	0.297
-215.552	-200.000	0.018	0.140
-214.538	-28.189	0.274	0.157
-213.523	-99.572	0.187	0.046
-212.509	800.000	-0.058	-0.173
-211.494	800.000	0.058	-0.228
-210.479	-33.175	-0.208	-0.114
-209.465	-149.328	0.088	0.007
-208.450	-200.000	-0.052	0.255
-207.436	-7.038	0.234	0.157
-206.421	-169.141	-0.162	0.006
-205.406	82.844	-0.214	0.230
-204.392	53.468	-0.120	0.114
-203.377	800.000	0.097	0.381
-202.363	744.474	0.063	-0.167
-201.348	-200.000	0.003	-0.054
-200.333	99.536	0.156	0.179
-199.319	-29.807	-0.252	0.142
-198.304	30.289	-0.156	-0.132
-197.290	800.000	-0.036	0.123
-196.275	477.312	-0.023	-0.051
-195.260	-9.785	-0.279	0.184
-194.246	-200.000	-0.001	-0.188
-193.231	-200.000	-0.035	-0.469
-192.217	-200.000	-0.006	-0.116
-191.202	-82.449	-0.366	-0.118
-190.187	602.650	-0.088	0.216
-189.173	-32.149	0.272	-0.151
-188.158	248.051	-0.175	0.293
-187.144	201.087	-0.013	-0.019
-186.129	332.129	0.198	0.377
-185.114	-3.945	0.066	0.045
-184.100	-89.839	0.191	-0.055
-183.085	-200.000	0.025	0.172
-182.071	-200.000	-0.002	-0.228
-181.056	-92.436	0.174	-0.048
-180.042	323.225	0.014	-0.027
-179.027	400.788	-0.066	0.137
-178.012	178.264	0.094	-0.136
-176.998	-140.338	-0.098	-0.010
-175.983	-29.131	-0.131	-0.074
-174.969	-161.839	-0.038	-0.002
-173.954	46.682	-0.139	0.128
-172.939	-151.811	-0.266	-0.019
-171.925	-185.155	-0.424	0.007
-170.910	-200.000	-0.001	-0.058
-169.896	37.248	0.099	-0.087
-168.881	114.795	-0.071	-0.085
-167.866	-147.422	0.300	0.025
-166.852	73.503	-0.099	0.102
-165.837	-126.087	0.134	-0.020
-164.823	13.407	0.148	0.114
-163.808	333.502	-0.061	-0.116
-162.793	380.800	-0.089	0.180
-161.779	-118.379	0.205	-0.036
-160.764	800.000	0.100	-0.308
-159.750	292.007	-0.195	0.350
-158.735	-200.000	0.228	0.001
-157.720	52.564	-0.105	-0.099
-156.706	-77.125	-0.132	0.046
-155.691	136.380	0.079	0.102
-154.677	-70.538	0.132	-0.049
-153.662	800.000	-0.094	0.362
-152.647	-39.928	-0.265	-0.137
-151.633	54.717	0.042	0.040
-150.618	73.849	0.130	-0.135
-149.604	-31.990	0.048	-0.027
-148.589	-200.000	-0.027	0.356
-147.574	-200.000	-0.027	-0.123
-146.560	-200.000	-0.040	0.237
-145.545	88.817	-0.193	-0.212
-144.531	-26.371	0.338	-0.196
-143.516	-115.620	-0.470	-0.087
-142.502	664.644	0.049	0.124
-141.487	800.000	0.081	-0.255
-140.472	800.000	-0.094	-0.270
-139.458	3.772	-0.092	0.066
-138.443	-200.000	0.033	0.370
-137.429	25.763	0.254	0.209
-136.414	63.324	-0.098	0.097
-135.399	33.997	0.091	0.078
-134.385	-128.498	-0.195	0.027
-133.370	2.982	-0.101	-0.072
-132.356	190.442	0.070	0.103
-131.341	42.636	-0.102	-0.092
-130.326	92.233	-0.206	-0.229
-129.312	-200.000	-0.016	-0.140
-128.297	291.805	-0.105	-0.188
-127.283	548.037	0.024	0.057
-126.268	444.144	0.062	0.133
-125.253	-114.918	0.255	-0.048
-124.239	800.000	0.119	0.339
-123.224	800.000	-0.026	0.108
-122.210	-200.000	0.017	-0.096
-121.195	-79.754	0.271	-0.090
