DTS Sentinel unit serial number:	SN413079Multiplexer serial number:	ORYXHardware model number:	OX4-SRSoftware version number:	ORYX F/W v4.00 Oryx Data Collector v3.7.2.0data status	okinstallation	princeton_trtdifferential loss correction	single-endedforward channel	channel 4reverse channel	N/Adate	2019/09/14time	17:53:34forward acquisition time	60.00reverse acquisition time	0.00gamma	496.2192k internal	0.2296k external	0.2296temperature offset calibration	1.0110default loss term (dB/km)	0.3790temperature slope calibration	1.0000multiplexer offset coefficient	1.0000multiplexer slope coefficient	1.0000fibre end	0.00T internal ref (°C)	37.44T ext. ref 1 (°C)	5.02T ext. ref 2 (°C)	32.22length (m)	temperature (°C)	Stokes	anti-Stokes-747.200	-33.083	0.212	-0.120
-746.185	1.958	-0.234	-0.173
-745.171	313.049	0.110	0.212
-744.156	-108.752	0.087	-0.019
-743.142	-11.801	-0.104	-0.070
-742.127	-142.408	-0.124	0.012
-741.112	94.648	-0.103	0.120
-740.098	-24.187	0.266	0.162
-739.083	184.271	0.297	0.449
-738.069	52.835	-0.182	-0.178
-737.054	-61.775	0.230	0.098
-736.039	-120.562	-0.294	-0.051
-735.025	-180.698	0.308	0.006
-734.010	-36.229	-0.250	-0.138
-732.996	800.000	-0.090	-0.270
-731.981	-200.000	0.017	0.170
-730.966	-102.348	-0.158	-0.039
-729.952	-55.773	-0.329	-0.150
-728.937	328.342	-0.144	-0.283
-727.923	-200.000	0.134	-0.631
-726.908	106.223	-0.254	-0.307
-725.894	800.000	0.039	0.128
-724.879	800.000	-0.068	0.205
-723.864	214.246	0.039	-0.063
-722.850	-200.000	0.023	0.270
-721.835	138.268	0.064	0.085
-720.821	-200.000	-0.055	0.320
-719.806	-135.333	0.184	-0.023
-718.791	-123.148	-0.550	0.090
-717.777	144.939	0.029	0.040
-716.762	-77.124	-0.549	0.195
-715.748	192.724	-0.053	-0.082
-714.733	-200.000	0.002	0.203
-713.718	13.512	0.217	-0.172
-712.704	186.706	-0.066	-0.101
-711.689	-71.460	0.104	0.040
-710.675	238.904	-0.074	-0.126
-709.660	-4.714	0.186	0.131
-708.645	-198.726	-0.090	0.001
-707.631	-179.840	-0.305	-0.007
-706.616	-5.116	0.059	-0.041
-705.602	-200.000	-0.003	0.111
-704.587	-62.604	0.452	0.191
-703.572	120.402	-0.102	-0.130
-702.558	17.586	0.147	-0.120
-701.543	800.000	-0.014	-0.047
-700.529	-200.000	-0.014	0.188
-699.514	769.079	-0.060	0.166
-698.499	58.006	-0.150	-0.150
-697.485	-102.366	-0.050	-0.012
-696.470	228.415	-0.099	-0.165
-695.456	-50.156	0.240	-0.116
-694.441	-70.704	-0.143	0.055
-693.426	93.824	0.178	0.206
-692.412	-200.000	-0.038	-0.206
-691.397	-11.848	0.042	-0.028
-690.383	147.276	-0.124	0.170
-689.368	70.951	0.119	0.126
-688.354	307.848	0.108	0.204
-687.339	-13.818	-0.154	0.102
-686.324	-17.548	-0.329	0.211
-685.310	-149.606	-0.260	-0.021
-684.295	-122.586	-0.370	0.061
-683.281	114.173	0.262	-0.325
-682.266	800.000	-0.025	0.076
-681.251	-128.923	0.051	-0.007
-680.237	-101.931	-0.396	-0.098
-679.222	-200.000	-0.019	-0.091
-678.208	184.150	0.241	-0.364
-677.193	-109.833	-0.266	0.057
-676.178	388.178	0.267	0.563
-675.164	-27.588	-0.134	0.079
-674.149	46.581	0.085	0.080
-673.135	268.627	0.122	0.218
-672.120	-135.751	0.112	0.014
-671.105	11.032	0.128	0.100
-670.091	-62.895	-0.064	-0.027
-669.076	-10.093	0.167	0.113
-668.062	15.067	0.100	-0.080
-667.047	-67.779	0.154	-0.062
-666.032	-139.979	0.225	0.024
-665.018	570.345	-0.101	-0.250
-664.003	405.920	-0.113	-0.243
-662.989	800.000	0.136	-0.425
-661.974	63.229	-0.183	-0.187
-660.959	-159.872	0.133	-0.007
-659.945	-200.000	0.061	-0.312
-658.930	675.943	0.046	0.123
-657.916	-200.000	0.020	0.172
-656.901	228.000	0.184	-0.305
-655.886	50.600	-0.127	-0.122
-654.872	-200.000	0.001	0.209
-653.857	-191.902	-0.246	0.002
-652.843	800.000	0.039	-0.116
-651.828	-42.508	-0.303	-0.157
-650.814	-143.258	0.123	-0.012
-649.799	-12.046	-0.179	0.120
-648.784	-100.706	-0.159	0.040
-647.770	-30.857	-0.242	0.139
-646.755	4.727	-0.217	-0.162
-645.741	-51.395	-0.461	-0.219
-644.726	22.723	-0.194	0.162
-643.711	60.317	0.150	-0.151
-642.697	-104.570	0.073	0.017
-641.682	-47.011	0.059	0.029
-640.668	349.176	-0.117	-0.235
-639.653	119.897	-0.231	0.291
-638.638	-200.000	0.070	0.364
-637.624	800.000	0.039	-0.147
-636.609	-88.700	0.170	-0.051
-635.595	166.156	0.287	0.414
-634.580	-56.066	0.211	0.096
-633.565	-36.300	-0.063	0.034
-632.551	544.562	-0.160	-0.389
-631.536	-68.018	-0.121	0.048
-630.522	-200.000	0.039	-0.306
-629.507	-170.687	0.107	0.004
-628.492	-126.041	0.205	0.031
-627.478	138.993	-0.202	0.270
-626.463	-39.600	0.272	0.145
-625.449	206.430	0.151	0.240
-624.434	314.561	0.139	-0.267
-623.419	-43.154	-0.231	-0.119
-622.405	800.000	0.086	0.373
-621.390	-58.673	0.197	-0.087
-620.376	-80.180	0.237	-0.081
-619.361	7.645	-0.379	0.289
-618.346	197.766	0.135	-0.210
-617.332	-200.000	-0.018	-0.126
-616.317	-154.832	-0.198	0.013
-615.303	266.762	0.121	0.215
-614.288	800.000	-0.083	-0.311
-613.273	-89.174	-0.287	-0.086
-612.259	-20.880	-0.182	-0.114
-611.244	60.345	-0.195	-0.196
-610.230	290.179	-0.273	-0.504
-609.215	63.195	0.081	0.082
-608.201	-133.809	-0.231	-0.029
-607.186	800.000	-0.067	0.294
-606.171	-161.029	0.259	0.014
-605.157	2.484	0.100	0.074
-604.142	136.278	0.173	-0.230
-603.128	800.000	-0.021	-0.079
-602.113	216.683	-0.026	-0.042
-601.098	67.119	0.133	0.138
-600.084	-172.997	0.180	-0.006
-599.069	291.755	0.082	0.152
-598.055	-200.000	-0.012	-0.289
-597.040	-200.000	0.013	-0.357
-596.025	-101.734	0.341	0.084
-595.011	633.900	0.043	-0.112
-593.996	-95.239	-0.119	-0.032
-592.982	-200.000	-0.013	-0.059
-591.967	800.000	0.061	-0.206
-590.952	322.791	0.060	-0.116
-589.938	-153.990	0.122	0.008
-588.923	62.045	0.060	0.061
-587.909	800.000	0.017	0.049
-586.894	-200.000	-0.033	-0.483
-585.879	-104.068	-0.322	-0.076
-584.865	-200.000	0.015	-0.152
-583.850	136.674	0.172	-0.228
-582.836	223.671	0.142	-0.233
-581.821	-200.000	-0.017	-0.102
-580.806	-33.536	0.420	-0.235
-579.792	57.979	0.013	-0.013
-578.777	13.301	-0.208	-0.164
-577.763	719.062	-0.066	-0.178
-576.748	-86.379	0.086	0.027
-575.733	-200.000	0.002	-0.093
-574.719	177.021	-0.101	-0.149
-573.704	-171.873	-0.331	-0.011
-572.690	573.034	-0.119	-0.296
-571.675	113.968	0.113	0.140
-570.661	6.965	-0.108	0.082
-569.646	-170.949	0.222	0.008
-568.631	-200.000	0.056	0.328
-567.617	278.746	0.037	-0.068
-566.602	-87.552	-0.420	0.129
-565.588	-7.923	0.255	-0.175
-564.573	-54.331	0.058	-0.027
-563.558	2.946	0.241	0.178
-562.544	-200.000	-0.050	-0.374
-561.529	-200.000	-0.010	-0.181
-560.515	-99.500	-0.314	0.080
-559.500	-87.559	-0.305	-0.094
-558.485	-91.892	-0.174	-0.050
-557.471	800.000	0.050	0.223
-556.456	266.699	-0.080	0.141
-555.442	178.833	-0.036	0.053
-554.427	-112.601	-0.029	-0.006
-553.412	-8.634	-0.223	-0.152
-552.398	-200.000	0.015	0.268
-551.383	-200.000	-0.000	-0.031
-550.369	-200.000	-0.001	-0.056
-549.354	-8.944	0.137	-0.093
-548.339	172.504	-0.155	-0.226
-547.325	327.485	0.043	-0.084
-546.310	-156.254	0.348	0.022
-545.296	-200.000	0.011	0.278
-544.281	25.570	0.193	-0.163
-543.266	-17.835	-0.170	-0.108
-542.252	267.494	-0.112	-0.199
-541.237	-200.000	0.058	0.414
-540.223	-200.000	-0.005	0.023
-539.208	110.786	0.182	0.222
-538.193	800.000	-0.063	-0.266
-537.179	21.436	-0.247	0.204
-536.164	800.000	0.072	-0.293
-535.150	800.000	0.108	-0.355
-534.135	-39.613	0.086	0.046
-533.121	128.306	-0.132	0.170
-532.106	-133.944	0.265	-0.033
-531.091	-60.793	-0.090	0.039
-530.077	-105.673	0.186	0.043
-529.062	800.000	-0.057	0.185
-528.048	-147.750	-0.134	0.011
-527.033	-65.253	0.101	0.041
-526.018	-61.005	-0.284	0.122
-525.004	-133.657	0.032	-0.004
-523.989	-200.000	-0.022	0.230
-522.975	99.499	-0.113	-0.133
-521.960	800.000	0.080	-0.346
-520.945	-54.107	0.133	0.061
-519.931	-200.000	0.005	0.247
-518.916	800.000	-0.090	0.289
-517.902	800.000	-0.054	0.198
-516.887	273.420	0.206	-0.368
-515.872	162.489	-0.080	-0.114
-514.858	184.218	-0.065	0.097
-513.843	98.394	0.141	0.165
-512.829	-200.000	-0.040	-0.228
-511.814	-200.000	-0.040	-0.235
-510.799	19.135	0.197	0.160
-509.785	364.090	0.060	0.123
-508.770	-200.000	-0.006	0.166
-507.756	193.202	0.130	-0.199
-506.741	-200.000	0.008	-0.206
-505.726	-200.000	-0.041	0.270
-504.712	107.745	0.268	0.323
-503.697	800.000	0.065	0.190
-502.683	476.827	0.130	0.297
-501.668	514.106	-0.126	0.296
-500.653	74.365	0.183	-0.194
-499.639	508.935	0.071	0.167
-498.624	-104.243	-0.194	0.046
-497.610	189.105	0.085	-0.129
-496.595	600.482	0.070	-0.177
-495.581	253.173	0.017	0.029
-494.566	800.000	0.023	0.098
-493.551	800.000	0.049	-0.177
-492.537	-200.000	-0.027	0.141
-491.522	-53.469	-0.074	0.034
-490.508	-127.314	-0.324	0.048
-489.493	71.276	0.051	-0.054
-488.478	45.044	-0.269	-0.251
-487.464	482.964	-0.171	-0.393
-486.449	-76.678	0.260	0.092
-485.435	-54.513	0.247	0.113
-484.420	-167.992	0.251	0.010
-483.405	-133.911	0.206	0.026
-482.391	-79.470	-0.423	0.145
-481.376	-98.538	0.271	-0.070
-480.362	-23.701	-0.435	0.264
-479.347	593.188	-0.138	0.344
-478.332	97.364	-0.255	-0.296
-477.318	-74.429	0.286	-0.104
-476.303	-200.000	0.014	0.092
-475.289	-18.505	-0.086	-0.054
-474.274	124.934	0.140	-0.179
-473.259	1.619	0.212	0.155
-472.245	-105.312	-0.080	-0.018
-471.230	-97.297	0.302	-0.080
-470.216	216.371	-0.049	0.078
-469.201	97.108	0.143	0.166
-468.186	800.000	-0.022	0.064
-467.172	95.384	-0.162	0.187
-466.157	582.896	0.068	-0.170
-465.143	121.660	-0.156	0.197
-464.128	-32.622	-0.125	0.070
-463.113	-6.136	0.120	-0.083
-462.099	20.407	-0.023	0.019
-461.084	-152.494	0.054	-0.004
-460.070	-47.191	0.147	0.072
-459.055	23.234	0.084	-0.070
-458.040	425.493	-0.088	-0.192
-457.026	-185.662	0.228	0.003
-456.011	-181.021	-0.358	-0.007
-454.997	-120.876	0.239	-0.041
-453.982	-14.806	-0.198	-0.129
-452.968	19.086	0.156	-0.127
-451.953	18.706	0.326	0.263
-450.938	-200.000	0.022	0.127
-449.924	92.568	-0.195	-0.222
-448.909	-71.422	0.129	-0.049
-447.895	-96.063	0.079	-0.021
-446.880	32.356	-0.099	0.086
-445.865	56.142	0.104	0.102
-444.851	-73.151	-0.230	-0.085
-443.836	57.198	-0.308	0.304
-442.822	-107.537	0.285	-0.063
-441.807	-94.793	-0.239	0.066
-440.792	425.347	0.070	-0.151
-439.778	-136.583	0.270	0.032
-438.763	218.521	-0.116	0.188
-437.749	189.651	-0.108	-0.164
-436.734	-64.325	-0.035	0.014
-435.719	-127.901	0.387	-0.056
-434.705	72.142	0.125	0.131
-433.690	189.019	0.116	-0.175
-432.676	737.683	-0.133	0.360
-431.661	800.000	0.073	0.307
-430.646	150.556	0.175	0.240
-429.632	206.964	0.106	-0.167
-428.617	-90.570	-0.123	-0.036
-427.603	46.477	0.081	0.075
-426.588	-21.299	-0.290	-0.179
-425.573	800.000	-0.066	-0.202
-424.559	415.446	-0.091	-0.197
-423.544	-83.589	-0.164	0.053
-422.530	-200.000	-0.068	0.392
-421.515	-200.000	-0.015	-0.080
-420.500	-176.361	0.455	-0.012
-419.486	58.564	-0.287	-0.285
-418.471	-56.141	0.221	0.099
-417.457	-163.268	0.135	0.007
-416.442	-122.895	0.196	-0.032
-415.428	-60.123	0.332	0.143
-414.413	-88.076	-0.386	-0.117
-413.398	24.546	0.245	-0.205
-412.384	800.000	-0.121	0.419
-411.369	-101.933	0.068	0.017
-410.355	-44.128	0.125	0.063
-409.340	-164.897	-0.374	0.017
-408.325	-76.315	-0.121	0.043
-407.311	-200.000	-0.030	-0.141
-406.296	119.939	0.048	-0.060
-405.282	-113.711	-0.231	-0.045
-404.267	-60.115	0.197	0.085
-403.252	-22.451	0.060	0.037
-402.238	188.040	-0.124	0.187
-401.223	57.047	-0.135	0.133
-400.209	213.138	-0.236	-0.376
-399.194	-85.845	0.381	0.119
-398.179	689.133	0.082	0.216
-397.165	-98.068	0.068	-0.018
-396.150	356.239	0.130	-0.262
-395.136	122.101	-0.202	0.254
-394.121	778.331	-0.040	-0.111
-393.106	406.619	0.106	-0.226
-392.092	-11.813	0.170	0.113
-391.077	800.000	-0.102	-0.347
-390.063	-200.000	-0.010	-0.281
-389.048	-42.670	-0.119	-0.061
-388.033	730.042	-0.063	0.168
-387.019	800.000	-0.023	-0.087
-386.004	-200.000	0.012	-0.280
-384.990	-29.261	0.070	-0.040
-383.975	231.498	-0.006	-0.010
-382.960	-28.189	0.177	-0.103
-381.946	149.241	-0.207	0.282
-380.931	308.177	-0.110	-0.206
-379.917	-14.113	0.110	0.072
-378.902	74.773	0.193	0.204
-377.888	-11.227	-0.191	0.127
-376.873	800.000	0.036	0.140
-375.858	-114.469	0.183	0.035
-374.844	165.131	-0.086	0.123
-373.829	-200.000	0.031	-0.189
-372.815	800.000	0.051	-0.196
-371.800	183.992	0.116	0.173
-370.785	485.444	0.057	0.130
-369.771	736.178	-0.101	0.273
-368.756	477.320	0.086	0.197
-367.742	88.623	0.110	-0.123
-366.727	1.899	-0.308	-0.224
-365.712	-61.911	0.105	0.044
-364.698	-200.000	0.042	0.286
-363.683	-136.263	0.390	0.046
-362.669	152.446	0.280	0.385
-361.654	-64.482	0.359	0.147
-360.639	-114.130	-0.319	-0.062
-359.625	-75.472	-0.097	-0.035
-358.610	-70.544	-0.045	0.017
-357.596	128.173	-0.109	0.139
-356.581	-200.000	0.012	0.175
-355.566	138.795	0.190	-0.251
-354.552	130.233	0.200	-0.258
-353.537	-200.000	0.006	-0.275
-352.523	-110.123	-0.339	-0.071
-351.508	800.000	-0.054	-0.206
-350.493	-114.403	-0.086	0.017
-349.479	-51.781	-0.186	0.087
-348.464	169.237	-0.195	0.280
-347.450	95.100	-0.085	0.098
-346.435	195.858	0.052	-0.080
-345.420	-200.000	0.048	0.334
-344.406	38.027	0.168	0.151
-343.391	-68.375	-0.177	-0.069
-342.377	203.648	-0.095	-0.148
-341.362	-200.000	-0.003	-0.267
-340.348	-24.195	-0.028	0.017
-339.333	-200.000	-0.021	-0.136
-338.318	178.821	0.205	0.301
-337.304	105.021	-0.055	0.065
-336.289	-200.000	-0.052	0.284
-335.275	-61.188	0.228	-0.097
-334.260	-116.598	0.249	0.046
-333.245	-133.526	0.041	0.005
-332.231	-200.000	-0.018	-0.184
-331.216	-87.990	0.160	0.048
-330.202	-200.000	0.027	0.275
-329.187	30.660	0.327	-0.281
-328.172	800.000	0.043	0.156
-327.158	-98.139	-0.145	-0.037
-326.143	-74.374	-0.185	0.067
-325.129	-200.000	0.000	0.195
-324.114	-200.000	-0.002	-0.095
-323.099	299.841	-0.210	0.389
-322.085	-200.000	-0.003	-0.078
-321.070	-95.257	0.261	0.071
-320.056	-4.412	-0.156	-0.109
-319.041	-200.000	-0.011	-0.116
-318.026	80.738	0.123	-0.134
-317.012	119.687	0.210	0.261
-315.997	800.000	0.029	0.109
-314.983	200.181	-0.017	-0.026
-313.968	-39.071	-0.066	0.035
-312.953	11.543	0.146	0.113
-311.939	238.654	0.102	-0.171
-310.924	-58.770	-0.140	0.061
-309.910	-55.053	-0.304	-0.138
-308.895	-200.000	0.104	-0.475
-307.880	30.475	-0.095	0.082
-306.866	348.033	-0.089	0.176
-305.851	-92.381	0.374	-0.106
-304.837	365.344	0.132	0.268
-303.822	-200.000	-0.009	0.167
-302.807	-200.000	0.045	-0.212
-301.793	8.941	-0.069	0.052
-300.778	-17.025	-0.328	-0.208
-299.764	-166.438	0.567	-0.024
-298.749	95.143	-0.195	-0.223
-297.735	-200.000	0.014	0.142
-296.720	186.361	0.196	-0.292
-295.705	-200.000	0.001	-0.075
-294.691	-164.415	-0.202	-0.009
-293.676	-74.640	0.328	0.119
-292.662	-200.000	0.058	-0.274
-291.647	79.148	-0.125	-0.134
-290.632	463.196	-0.078	0.174
-289.618	57.374	0.176	-0.173
-288.603	216.649	0.224	0.358
-287.589	-200.000	-0.037	-0.370
-286.574	-200.000	0.014	-0.313
-285.559	-69.953	0.255	0.098
-284.545	-114.303	-0.149	-0.029
-283.530	-200.000	0.030	-0.206
-282.516	625.994	-0.061	-0.155
-281.501	-200.000	0.028	0.253
-280.486	143.816	-0.068	-0.091
-279.472	-200.000	-0.026	-0.387
-278.457	-200.000	-0.090	-0.445
-277.443	42.402	0.065	0.060
-276.428	800.000	-0.085	0.290
-275.413	-200.000	-0.073	-0.339
-274.399	-200.000	-0.071	-0.353
-273.384	-192.390	0.298	0.003
-272.370	-102.774	-0.203	0.048
-271.355	197.559	-0.121	0.185
-270.340	61.921	-0.056	-0.056
-269.326	-83.503	0.256	-0.082
-268.311	-153.926	-0.345	-0.024
-267.297	38.426	0.244	0.218
-266.282	40.737	0.164	0.148
-265.267	2.392	0.125	0.091
-264.253	341.063	0.087	0.171
-263.238	-73.005	0.188	-0.069
-262.224	28.203	-0.274	0.232
-261.209	-86.394	0.188	-0.058
-260.195	479.334	0.087	0.198
-259.180	-173.946	0.271	0.008
-258.165	-31.125	0.338	0.191
-257.151	-200.000	0.056	0.458
-256.136	8.526	-0.080	0.060
-255.122	-74.933	-0.413	-0.149
-254.107	-137.694	-0.215	-0.024
-253.092	163.300	-0.202	0.284
-252.078	171.667	-0.233	-0.335
-251.063	-200.000	-0.024	-0.220
-250.049	316.896	0.164	-0.311
-249.034	108.227	-0.209	-0.250
-248.019	529.600	-0.073	0.173
-247.005	-8.675	-0.200	0.134
-245.990	-134.856	-0.228	0.028
-244.976	27.806	-0.156	-0.131
-243.961	176.637	0.110	-0.160
-242.946	800.000	0.088	0.320
-241.932	-200.000	-0.020	0.299
-240.917	-129.587	0.072	0.010
-239.903	-200.000	0.098	-0.000
-238.888	-200.000	-0.028	0.228
-237.873	-200.000	0.035	0.177
-236.859	-10.774	0.207	0.137
-235.844	13.911	0.208	-0.162
-234.830	-27.326	-0.171	0.100
-233.815	-86.827	-0.333	0.102
-232.800	-52.158	0.230	-0.107
-231.786	-200.000	-0.036	-0.249
-230.771	-200.000	-0.006	0.114
-229.757	300.949	0.055	-0.102
-228.742	35.077	-0.155	0.136
-227.727	-200.000	0.046	0.355
-226.713	-200.000	-0.031	-0.159
-225.698	410.818	-0.057	0.122
-224.684	50.809	0.234	-0.222
-223.669	2.475	0.156	0.113
-222.655	-52.338	-0.085	0.039
-221.640	-32.273	-0.261	-0.146
-220.625	53.152	-0.073	-0.070
-219.611	800.000	0.030	0.095
-218.596	-41.110	-0.358	0.185
-217.582	294.840	0.012	-0.023
-216.567	153.096	-0.076	-0.104
-215.552	-126.124	0.392	-0.059
-214.538	800.000	0.053	0.222
-213.523	-84.057	-0.280	-0.089
-212.509	-81.964	0.392	0.128
-211.494	-81.999	-0.095	-0.031
-210.479	-55.995	-0.279	-0.125
-209.465	7.627	-0.179	0.134
-208.450	-65.152	-0.405	0.163
-207.436	-200.000	-0.014	0.071
-206.421	-74.895	0.266	0.095
-205.406	187.854	-0.144	0.215
-204.392	288.769	0.212	0.384
-203.377	-158.328	-0.284	0.017
-202.363	38.698	-0.246	0.219
-201.348	-200.000	0.005	-0.046
-200.333	133.974	0.071	-0.092
-199.319	-16.669	0.181	0.114
-198.304	11.778	-0.517	0.397
-197.290	-200.000	-0.052	-0.316
-196.275	-141.320	-0.220	0.022
-195.260	-62.148	-0.175	0.073
-194.246	-200.000	0.028	0.186
-193.231	601.350	0.099	0.247
-192.217	-117.414	-0.082	-0.015
-191.202	-39.886	0.093	-0.049
-190.187	131.824	0.106	-0.137
-189.173	543.918	0.044	-0.104
-188.158	-45.233	0.144	-0.072
-187.144	-61.965	0.038	-0.016
-186.129	-93.776	-0.151	-0.042
-185.114	59.985	-0.074	-0.073
-184.100	-200.000	-0.073	0.429
-183.085	800.000	-0.042	-0.166
-182.071	-200.000	-0.013	-0.119
-181.056	-100.152	-0.264	0.066
-180.042	346.057	0.009	-0.018
-179.027	216.424	-0.109	-0.174
-178.012	23.699	0.377	0.310
-176.998	-13.565	0.039	-0.025
-175.983	800.000	-0.065	-0.192
-174.969	-33.678	-0.243	0.134
-173.954	-105.936	-0.335	-0.075
-172.939	594.672	-0.057	0.140
-171.925	189.316	0.221	0.330
-170.910	-200.000	-0.015	-0.096
-169.896	349.857	0.241	-0.477
-168.881	460.681	0.149	-0.331
-167.866	215.754	-0.271	0.430
-166.852	-106.954	-0.047	0.010
-165.837	468.256	-0.139	-0.312
-164.823	37.835	0.018	0.016
-163.808	321.558	-0.079	0.149
-162.793	133.165	0.065	-0.084
-161.779	496.796	-0.110	-0.253
-160.764	49.604	0.162	-0.152
-159.750	-200.000	-0.028	-0.271
-158.735	-46.336	0.091	-0.045
-157.720	-1.105	0.309	0.218
-156.706	8.381	0.197	0.148
-155.691	140.452	-0.285	0.375
-154.677	-200.000	-0.043	0.203
-153.662	52.697	-0.390	-0.372
-152.647	-200.000	-0.034	-0.251
-151.633	-200.000	0.056	-0.327
-150.618	-14.874	0.204	-0.131
-149.604	-200.000	-0.017	0.098
-148.589	-95.622	-0.095	0.025
-147.574	159.256	0.192	-0.266
-146.560	438.322	-0.129	-0.280
-145.545	97.437	-0.182	-0.208
-144.531	25.114	0.144	0.120
-143.516	-150.275	-0.215	0.017
-142.502	10.944	-0.107	-0.081
-141.487	16.712	0.229	0.181
-140.472	-94.542	-0.128	0.035
-139.458	-200.000	0.015	-0.179
-138.443	-90.014	0.356	-0.104
-137.429	-1.242	-0.216	-0.152
-136.414	-125.170	0.105	0.016
-135.399	111.007	0.075	-0.090
-134.385	226.369	-0.157	0.254
-133.370	800.000	-0.033	-0.093
-132.356	-200.000	0.005	-0.055
-131.341	-57.073	0.316	0.139
-130.326	-15.792	-0.056	0.035
-129.312	-144.313	0.369	-0.034
-128.297	299.755	0.148	-0.271
-127.283	-200.000	-0.063	-0.338
-126.268	800.000	-0.074	0.241
-125.253	-19.327	-0.116	0.072
-124.239	-152.130	-0.183	-0.013
-123.224	-179.098	-0.106	0.002
-122.210	-101.613	0.183	0.044
-121.195	-16.712	0.236	-0.149
