DTS Sentinel unit serial number:	SN413079Multiplexer serial number:	ORYXHardware model number:	OX4-SRSoftware version number:	ORYX F/W v4.00 Oryx Data Collector v3.7.2.0data status	okinstallation	princeton_trtdifferential loss correction	single-endedforward channel	channel 4reverse channel	N/Adate	2019/09/14time	18:33:35forward acquisition time	60.00reverse acquisition time	0.00gamma	496.2192k internal	0.2299k external	0.2299temperature offset calibration	1.0103default loss term (dB/km)	0.3790temperature slope calibration	1.0000multiplexer offset coefficient	1.0000multiplexer slope coefficient	1.0000fibre end	0.00T internal ref (°C)	36.50T ext. ref 1 (°C)	4.91T ext. ref 2 (°C)	30.26length (m)	temperature (°C)	Stokes	anti-Stokes-747.200	-48.632	-0.201	0.099
-746.185	177.658	0.235	0.350
-745.171	126.471	0.068	-0.088
-744.156	-1.772	-0.187	0.135
-743.142	-59.839	-0.162	0.071
-742.127	-143.586	-0.076	0.007
-741.112	71.523	-0.067	0.071
-740.098	-42.113	0.267	0.139
-739.083	27.926	-0.030	-0.026
-738.069	98.741	-0.253	0.297
-737.054	71.857	0.187	0.198
-736.039	397.821	0.070	-0.149
-735.025	28.511	0.225	0.194
-734.010	-112.663	-0.368	-0.075
-732.996	-145.355	-0.145	0.013
-731.981	-103.137	-0.223	-0.054
-730.966	-92.895	-0.218	0.062
-729.952	71.652	-0.221	-0.234
-728.937	21.431	-0.241	0.200
-727.923	306.159	-0.038	-0.071
-726.908	158.608	0.147	-0.207
-725.894	-95.406	-0.427	-0.117
-724.879	-4.814	0.153	-0.108
-723.864	0.488	-0.226	0.165
-722.850	-5.329	0.222	-0.155
-721.835	348.305	-0.113	-0.227
-720.821	316.289	-0.198	-0.381
-719.806	251.211	-0.019	-0.033
-718.791	-162.030	-0.027	0.001
-717.777	-13.007	-0.154	0.102
-716.762	-200.000	0.006	-0.346
-715.748	800.000	-0.088	0.318
-714.733	151.109	-0.079	-0.110
-713.718	124.917	-0.111	0.143
-712.704	800.000	-0.117	-0.405
-711.689	-155.902	-0.114	0.007
-710.675	-157.289	-0.252	-0.016
-709.660	376.794	0.146	0.305
-708.645	234.574	0.048	-0.080
-707.631	507.552	-0.014	0.033
-706.616	-34.879	-0.162	0.090
-705.602	162.119	0.047	-0.067
-704.587	119.929	0.170	0.215
-703.572	-85.642	0.156	0.049
-702.558	-200.000	0.005	-0.055
-701.543	800.000	0.079	-0.314
-700.529	231.795	-0.120	0.200
-699.514	-4.486	0.147	-0.104
-698.499	-11.615	-0.059	-0.040
-697.485	-178.510	-0.044	-0.001
-696.470	100.701	0.132	-0.156
-695.456	-161.835	-0.255	-0.013
-694.441	-29.412	0.168	-0.098
-693.426	-200.000	-0.009	0.136
-692.412	-75.069	0.279	0.102
-691.397	-200.000	0.071	-0.532
-690.383	21.030	-0.084	0.070
-689.368	-98.590	-0.345	0.090
-688.354	-142.718	0.127	0.013
-687.339	624.526	0.132	-0.339
-686.324	-4.254	-0.144	-0.102
-685.310	262.984	0.130	-0.230
-684.295	522.008	0.109	-0.260
-683.281	-90.921	-0.234	0.068
-682.266	301.971	0.038	0.071
-681.251	-15.025	-0.121	0.079
-680.237	800.000	-0.077	-0.281
-679.222	-161.303	-0.143	0.008
-678.208	14.782	-0.109	0.087
-677.193	-83.632	0.292	-0.095
-676.178	-71.150	0.113	0.043
-675.164	-113.737	-0.356	-0.071
-674.149	375.812	-0.058	0.120
-673.135	800.000	0.066	0.215
-672.120	-130.824	-0.049	-0.007
-671.105	-134.453	0.345	0.043
-670.091	747.501	-0.078	0.214
-669.076	-181.528	-0.322	-0.006
-668.062	281.596	-0.106	0.194
-667.047	-10.218	0.212	-0.143
-666.032	696.649	-0.014	0.039
-665.018	-200.000	-0.017	-0.364
-664.003	800.000	0.101	0.327
-662.989	-105.997	-0.166	-0.038
-661.974	261.617	-0.083	0.147
-660.959	-85.146	-0.219	0.070
-659.945	-99.716	0.283	0.072
-658.930	-144.547	0.117	0.011
-657.916	-93.830	-0.426	0.119
-656.901	46.994	0.148	-0.140
-655.886	98.358	-0.155	-0.181
-654.872	800.000	-0.045	0.184
-653.857	-200.000	-0.035	-0.169
-652.843	-52.546	0.249	0.117
-651.828	45.089	0.334	0.313
-650.814	0.723	0.296	0.216
-649.799	389.952	-0.140	-0.295
-648.784	13.856	0.110	-0.087
-647.770	-109.087	-0.232	0.050
-646.755	111.216	0.075	0.092
-645.741	-1.155	-0.210	0.151
-644.726	289.164	0.078	0.144
-643.711	-90.165	0.240	-0.071
-642.697	-64.425	0.199	-0.082
-641.682	-160.894	-0.254	-0.014
-640.668	-94.859	-0.111	-0.031
-639.653	800.000	-0.089	-0.357
-638.638	142.379	-0.248	-0.335
-637.624	250.925	0.134	-0.232
-636.609	800.000	-0.046	0.137
-635.595	-200.000	-0.014	0.149
-634.580	-148.653	-0.181	0.015
-633.565	4.374	-0.341	0.254
-632.551	-63.485	0.075	-0.031
-631.536	800.000	0.057	-0.220
-630.522	112.135	-0.250	0.307
-629.507	204.106	-0.142	0.224
-628.492	85.329	-0.135	0.151
-627.478	-165.665	-0.336	-0.015
-626.463	-200.000	-0.023	-0.296
-625.449	-44.366	-0.306	-0.156
-624.434	-200.000	-0.020	0.115
-623.419	-174.896	-0.168	0.005
-622.405	-123.611	0.309	-0.050
-621.390	-123.797	-0.301	-0.048
-620.376	4.606	0.049	0.036
-619.361	24.685	-0.212	0.178
-618.346	-200.000	-0.028	0.153
-617.332	303.228	0.079	-0.149
-616.317	-84.470	0.172	0.055
-615.303	-61.125	-0.166	-0.071
-614.288	-37.591	-0.115	0.062
-613.273	191.356	0.078	0.119
-612.259	203.558	-0.047	-0.074
-611.244	-200.000	0.024	-0.261
-610.230	800.000	-0.035	-0.137
-609.215	348.925	-0.087	-0.174
-608.201	800.000	-0.094	-0.415
-607.186	307.730	0.137	0.259
-606.171	-71.597	-0.154	-0.058
-605.157	-200.000	0.022	0.183
-604.142	-180.885	-0.181	-0.004
-603.128	-54.860	-0.308	-0.141
-602.113	38.672	-0.093	0.084
-601.098	800.000	0.067	-0.205
-600.084	36.373	0.051	-0.045
-599.069	55.522	0.196	0.193
-598.055	7.818	-0.032	0.024
-597.040	-35.162	0.168	0.093
-596.025	178.519	-0.098	-0.145
-595.011	-200.000	-0.025	0.166
-593.996	-119.231	-0.036	0.006
-592.982	47.118	0.218	0.206
-591.967	-62.717	0.259	0.109
-590.952	-200.000	0.014	0.111
-589.938	579.460	0.080	0.199
-588.923	603.002	-0.041	-0.102
-587.909	800.000	-0.045	0.142
-586.894	-49.869	0.336	0.162
-585.879	-200.000	0.066	0.373
-584.865	85.772	-0.301	0.336
-583.850	-200.000	-0.003	-0.147
-582.836	-200.000	-0.004	-0.078
-581.821	224.786	0.056	-0.091
-580.806	-29.460	-0.226	-0.131
-579.792	-94.630	0.131	-0.036
-578.777	-142.870	-0.131	0.013
-577.763	-114.252	-0.142	0.028
-576.748	800.000	-0.029	0.125
-575.733	-142.012	-0.091	-0.009
-574.719	423.794	0.066	0.144
-573.704	68.033	-0.111	-0.115
-572.690	-104.566	0.152	-0.036
-571.675	27.204	0.095	-0.080
-570.661	-193.971	0.305	0.003
-569.646	183.572	0.042	0.062
-568.631	79.980	0.068	0.074
-567.617	800.000	-0.113	-0.415
-566.602	43.913	0.189	0.175
-565.588	800.000	-0.028	-0.094
-564.573	-153.690	0.181	0.013
-563.558	216.189	0.088	0.142
-562.544	-78.153	-0.338	-0.118
-561.529	-125.349	0.281	0.043
-560.515	-66.874	0.338	0.135
-559.500	-76.522	-0.403	0.143
-558.485	131.396	-0.194	0.253
-557.471	800.000	0.091	0.318
-556.456	-200.000	-0.035	-0.175
-555.442	-159.328	-0.230	-0.013
-554.427	-200.000	0.016	0.290
-553.412	-56.933	0.187	0.083
-552.398	-105.770	-0.288	0.066
-551.383	-107.409	0.275	0.061
-550.369	55.601	-0.086	0.084
-549.354	-16.219	0.152	0.098
-548.339	596.014	0.245	-0.615
-547.325	42.229	0.028	-0.025
-546.310	-17.651	-0.037	0.024
-545.296	-200.000	0.022	0.353
-544.281	800.000	-0.027	0.112
-543.266	-88.390	-0.128	-0.039
-542.252	800.000	-0.087	0.251
-541.237	2.219	0.081	0.059
-540.223	368.084	0.034	-0.069
-539.208	-140.369	-0.151	0.016
-538.193	302.675	-0.158	0.296
-537.179	63.729	0.222	0.225
-536.164	244.335	-0.081	0.138
-535.150	235.648	0.080	-0.133
-534.135	-42.720	-0.121	0.062
-533.121	-200.000	0.014	0.320
-532.106	30.883	-0.227	0.197
-531.091	-200.000	-0.058	0.331
-530.077	-123.542	-0.090	-0.014
-529.062	122.746	-0.143	-0.181
-528.048	62.632	0.151	0.153
-527.033	-128.115	0.279	-0.040
-526.018	800.000	0.118	-0.421
-525.004	-102.390	-0.123	0.030
-523.989	-103.408	0.102	0.024
-522.975	-122.968	0.238	-0.039
-521.960	-200.000	-0.020	0.299
-520.945	-200.000	-0.034	0.239
-519.931	-200.000	0.004	-0.239
-518.916	-136.666	0.141	-0.016
-517.902	-200.000	-0.049	-0.325
-516.887	-137.442	0.139	0.016
-515.872	192.784	-0.108	0.165
-514.858	105.460	0.174	-0.208
-513.843	-89.408	0.078	0.023
-512.829	800.000	-0.054	-0.168
-511.814	-38.950	0.246	0.131
-510.799	83.139	0.090	-0.099
-509.785	-31.699	-0.248	-0.141
-508.770	-93.162	0.081	0.023
-507.756	101.503	0.071	-0.083
-506.741	-200.000	0.003	-0.143
-505.726	-111.615	0.333	0.068
-504.712	782.975	0.077	-0.213
-503.697	-125.225	0.276	-0.043
-502.683	-130.505	-0.419	0.057
-501.668	800.000	-0.115	-0.391
-500.653	-12.538	0.021	-0.014
-499.639	562.141	0.053	0.130
-498.624	61.077	0.131	0.132
-497.610	69.928	0.208	0.217
-496.595	140.563	0.089	-0.118
-495.581	102.328	-0.172	0.203
-494.566	800.000	-0.027	0.098
-493.551	-37.298	-0.128	-0.069
-492.537	294.916	0.120	0.222
-491.522	719.930	0.082	-0.220
-490.508	-82.005	-0.340	-0.112
-489.493	3.914	0.264	0.195
-488.478	133.195	-0.037	-0.049
-487.464	340.844	0.128	-0.253
-486.449	35.072	-0.075	0.066
-485.435	-25.068	0.010	-0.006
-484.420	469.209	0.045	0.102
-483.405	-118.398	-0.190	0.034
-482.391	48.447	-0.126	-0.119
-481.376	800.000	-0.092	-0.310
-480.362	-125.527	-0.133	-0.020
-479.347	-150.703	0.269	0.021
-478.332	800.000	0.049	-0.171
-477.318	306.122	0.175	0.328
-476.303	795.714	-0.114	-0.317
-475.289	20.902	0.163	0.133
-474.274	-13.351	-0.267	0.175
-473.259	160.934	0.089	0.125
-472.245	51.774	0.365	-0.351
-471.230	-200.000	0.015	-0.367
-470.216	38.190	-0.271	0.243
-469.201	221.928	0.066	0.108
-468.186	-200.000	-0.063	-0.344
-467.172	800.000	-0.022	-0.078
-466.157	-87.241	-0.133	0.041
-465.143	87.945	-0.226	-0.252
-464.128	-78.172	-0.068	-0.024
-463.113	-200.000	0.025	-0.331
-462.099	-74.939	-0.442	0.160
-461.084	-90.682	0.139	-0.040
-460.070	105.420	0.049	-0.058
-459.055	-37.651	-0.181	-0.097
-458.040	166.762	-0.054	0.077
-457.026	-41.070	-0.302	0.157
-456.011	-200.000	0.003	0.379
-454.997	23.160	-0.174	-0.144
-453.982	275.706	0.014	0.025
-452.968	-136.818	-0.185	-0.021
-451.953	-95.544	-0.149	0.040
-450.938	-49.241	-0.242	-0.117
-449.924	8.392	0.109	-0.082
-448.909	257.377	0.041	0.071
-447.895	642.406	0.128	0.330
-446.880	61.262	0.116	0.116
-445.865	800.000	-0.004	0.014
-444.851	-76.158	0.180	0.064
-443.836	800.000	-0.111	-0.310
-442.822	41.089	0.251	-0.229
-441.807	-200.000	-0.054	0.438
-440.792	-89.772	-0.324	-0.096
-439.778	32.652	0.162	-0.141
-438.763	800.000	0.047	-0.205
-437.749	122.202	0.116	-0.146
-436.734	223.075	0.055	-0.089
-435.719	493.280	-0.084	-0.195
-434.705	31.622	0.046	0.040
-433.690	800.000	-0.079	0.240
-432.676	184.944	0.208	-0.311
-431.661	-52.599	0.071	-0.033
-430.646	69.667	-0.070	-0.073
-429.632	141.673	0.004	-0.005
-428.617	33.844	0.240	-0.211
-427.603	-24.724	0.072	0.043
-426.588	385.883	-0.077	0.160
-425.573	-58.452	0.299	-0.131
-424.559	150.961	0.271	-0.371
-423.544	392.441	0.159	-0.333
-422.530	-200.000	-0.003	-0.104
-421.515	295.577	-0.167	-0.307
-420.500	-49.542	-0.162	0.078
-419.486	-200.000	-0.004	-0.129
-418.471	-16.053	0.109	0.070
-417.457	-17.848	-0.293	-0.185
-416.442	151.886	0.242	-0.332
-415.428	25.804	-0.238	-0.200
-414.413	-85.587	0.142	0.044
-413.398	-200.000	-0.007	0.085
-412.384	99.788	0.056	-0.065
-411.369	32.553	-0.154	-0.134
-410.355	76.109	-0.078	0.084
-409.340	-71.625	-0.285	0.107
-408.325	194.343	-0.209	0.320
-407.311	-61.692	-0.154	-0.065
-406.296	-30.467	0.183	0.104
-405.282	-39.302	-0.119	-0.063
-404.267	-56.363	0.086	-0.038
-403.252	491.226	0.119	-0.274
-402.238	3.800	0.183	0.135
-401.223	-137.408	0.147	0.017
-400.209	-3.513	-0.155	0.109
-399.194	44.348	0.198	0.183
-398.179	530.407	0.121	0.289
-397.165	3.722	-0.091	-0.067
-396.150	800.000	0.045	0.134
-395.136	61.431	-0.155	-0.155
-394.121	-35.037	0.128	0.070
-393.106	117.788	-0.165	-0.205
-392.092	53.400	-0.280	0.270
-391.077	-200.000	-0.102	0.550
-390.063	800.000	0.019	0.075
-389.048	-120.642	0.309	0.053
-388.033	-188.235	-0.259	0.003
-387.019	-122.535	-0.188	-0.031
-386.004	-146.728	0.171	0.015
-384.990	-126.714	-0.291	0.043
-383.975	66.726	-0.142	0.146
-382.960	-70.857	-0.361	-0.137
-381.946	50.021	0.149	-0.142
-380.931	-200.000	0.012	0.285
-379.917	-0.965	-0.357	-0.254
-378.902	-200.000	-0.004	0.265
-377.888	-176.681	0.240	-0.006
-376.873	-63.913	0.287	-0.118
-375.858	-34.706	-0.254	0.140
-374.844	-200.000	0.024	-0.128
-373.829	156.984	-0.051	-0.070
-372.815	-110.584	0.492	-0.102
-371.800	-29.766	0.302	0.173
-370.785	467.639	0.052	-0.118
-369.771	-105.773	-0.021	-0.005
-368.756	522.341	0.036	0.084
-367.742	655.798	-0.064	0.166
-366.727	95.104	0.071	0.081
-365.712	56.504	-0.306	-0.299
-364.698	-7.186	0.273	-0.186
-363.683	-95.033	0.481	-0.131
-362.669	53.669	0.080	0.078
-361.654	277.946	-0.070	0.125
-360.639	319.464	0.167	-0.318
-359.625	160.901	0.025	0.035
-358.610	353.603	0.030	-0.061
-357.596	-55.507	-0.128	0.058
-356.581	-200.000	0.050	-0.277
-355.566	-108.489	-0.264	0.057
-354.552	29.061	-0.236	-0.201
-353.537	339.947	0.069	-0.135
-352.523	800.000	0.051	-0.188
-351.508	11.081	-0.065	0.050
-350.493	345.681	0.123	0.242
-349.479	180.141	-0.035	0.052
-348.464	-65.753	0.251	0.101
-347.450	-64.148	0.091	-0.037
-346.435	68.791	0.109	-0.112
-345.420	31.741	0.200	0.173
-344.406	-38.682	0.100	0.053
-343.391	-101.888	-0.047	0.011
-342.377	13.129	-0.067	-0.052
-341.362	696.512	-0.023	0.062
-340.348	-200.000	-0.043	-0.287
-339.333	310.679	0.115	-0.217
-338.318	55.684	-0.182	-0.177
-337.304	99.756	-0.144	-0.167
-336.289	177.097	0.095	-0.138
-335.275	691.398	0.089	-0.233
-334.260	-116.467	0.318	0.059
-333.245	-200.000	0.038	-0.245
-332.231	141.296	0.053	-0.070
-331.216	-31.334	-0.150	-0.085
-330.202	-200.000	0.011	-0.151
-329.187	-153.088	0.275	-0.019
-328.172	-98.876	-0.021	-0.005
-327.158	-86.122	0.461	-0.143
-326.143	-6.584	-0.121	0.083
-325.129	-174.338	0.124	0.004
-324.114	-23.139	-0.040	0.024
-323.099	494.079	-0.056	-0.129
-322.085	-200.000	0.032	0.401
-321.070	-14.377	0.144	0.093
-320.056	-144.819	0.264	0.024
-319.041	82.251	0.043	0.047
-318.026	-71.465	-0.130	0.049
-317.012	-89.251	0.238	-0.070
-315.997	-121.363	-0.294	-0.049
-314.983	-156.870	-0.208	-0.013
-313.968	-200.000	0.050	0.341
-312.953	480.602	0.105	-0.240
-311.939	-200.000	0.007	-0.336
-310.924	753.536	0.059	-0.160
-309.910	532.264	0.105	0.248
-308.895	132.404	-0.237	0.307
-307.880	119.370	0.026	-0.032
-306.866	-25.780	-0.242	-0.143
-305.851	-124.522	-0.069	0.011
-304.837	-49.588	0.357	-0.171
-303.822	84.367	0.104	0.114
-302.807	-136.362	0.224	-0.026
-301.793	-200.000	0.024	-0.173
-300.778	-66.324	-0.328	-0.131
-299.764	6.462	-0.090	-0.067
-298.749	-13.871	-0.256	-0.166
-297.735	795.997	-0.074	0.204
-296.720	-14.798	0.041	-0.026
-295.705	-172.858	-0.171	0.005
-294.691	-8.212	-0.199	0.135
-293.676	-155.318	0.305	0.020
-292.662	800.000	-0.106	0.296
-291.647	797.016	0.196	-0.541
-290.632	36.151	0.070	0.062
-289.618	-200.000	-0.042	-0.247
-288.603	2.462	-0.183	-0.132
-287.589	-94.665	-0.239	0.065
-286.574	96.547	-0.073	0.084
-285.559	16.346	0.286	0.226
-284.545	88.333	0.119	0.133
-283.530	-72.318	0.187	-0.069
-282.516	9.676	-0.048	-0.036
-281.501	-10.844	-0.045	0.030
-280.486	84.378	-0.188	0.206
-279.472	-75.376	-0.269	-0.096
-278.457	189.140	0.233	0.349
-277.443	800.000	-0.023	-0.079
-276.428	-167.038	-0.419	-0.017
-275.413	-57.615	-0.156	0.068
-274.399	800.000	0.063	0.210
-273.384	129.356	-0.099	-0.127
-272.370	-33.454	-0.055	-0.030
-271.355	-101.595	-0.362	-0.088
-270.340	-46.733	-0.093	-0.046
-269.326	-57.999	-0.330	-0.144
-268.311	-144.985	0.082	-0.008
-267.297	-62.809	0.121	-0.050
-266.282	76.392	0.283	0.300
-265.267	244.095	-0.077	0.129
-264.253	188.234	0.075	0.113
-263.238	800.000	0.099	-0.382
-262.224	-62.045	-0.293	0.122
-261.209	-190.583	0.261	0.003
-260.195	800.000	-0.046	-0.169
-259.180	-6.514	-0.288	0.196
-258.165	503.460	0.096	-0.221
-257.151	33.071	0.335	-0.291
-256.136	138.422	-0.181	0.238
-255.122	239.230	-0.088	0.147
-254.107	-97.474	-0.175	-0.045
-253.092	-200.000	0.021	0.163
-252.078	-200.000	-0.005	-0.191
-251.063	698.833	-0.147	0.387
-250.049	800.000	-0.031	-0.102
-249.034	-200.000	0.001	0.041
-248.019	-124.287	0.175	-0.027
-247.005	0.468	0.235	-0.168
-245.990	156.102	-0.263	0.363
-244.976	4.838	-0.229	-0.168
-243.961	-57.353	0.269	-0.118
-242.946	800.000	-0.067	-0.292
-241.932	-49.335	0.321	-0.153
-240.917	454.092	-0.051	0.114
-239.903	121.762	-0.196	-0.244
-238.888	800.000	-0.051	-0.192
-237.873	-158.290	-0.226	-0.013
-236.859	-200.000	0.021	0.164
-235.844	800.000	-0.018	0.062
-234.830	332.680	-0.055	0.106
-233.815	403.195	0.219	-0.462
-232.800	800.000	-0.023	-0.078
-231.786	-200.000	-0.025	0.233
-230.771	160.799	0.159	0.222
-229.757	-200.000	0.019	-0.193
-228.742	800.000	0.087	0.331
-227.727	-43.037	-0.230	0.117
-226.713	800.000	0.116	-0.504
-225.698	-7.655	0.409	0.276
-224.684	-113.120	0.064	0.013
-223.669	-157.962	0.214	0.013
-222.655	87.900	-0.238	0.264
-221.640	-113.670	-0.356	0.069
-220.625	-81.118	0.217	0.072
-219.611	109.358	0.214	-0.257
-218.596	-200.000	-0.073	0.330
-217.582	355.099	0.057	-0.112
-216.567	-5.725	0.339	0.232
-215.552	-133.592	-0.210	0.026
-214.538	-46.166	-0.121	-0.060
-213.523	85.044	-0.212	0.232
-212.509	-83.686	0.195	0.062
-211.494	65.341	0.164	-0.166
-210.479	50.676	-0.241	0.228
-209.465	-38.134	-0.172	-0.091
-208.450	170.921	0.086	0.124
-207.436	-200.000	-0.020	0.220
-206.421	-200.000	-0.002	0.335
-205.406	106.889	0.059	0.070
-204.392	-32.497	-0.048	-0.027
-203.377	-77.436	0.163	-0.056
-202.363	314.571	0.068	0.127
-201.348	-15.937	0.098	-0.062
-200.333	-102.972	-0.109	-0.026
-199.319	325.685	0.180	0.344
-198.304	21.739	0.077	0.063
-197.290	-196.454	-0.277	-0.002
-196.275	75.651	0.124	-0.131
-195.260	800.000	-0.038	0.149
-194.246	239.704	0.105	-0.174
-193.231	-6.363	0.423	0.288
-192.217	232.383	0.091	-0.150
-191.202	51.694	-0.221	-0.210
-190.187	409.040	-0.047	-0.099
-189.173	22.448	-0.170	-0.139
-188.158	61.748	-0.052	0.052
-187.144	347.950	-0.062	0.123
-186.129	758.266	0.069	0.187
-185.114	-56.261	0.177	0.079
-184.100	94.205	0.121	0.138
-183.085	412.788	0.201	-0.427
-182.071	78.601	0.093	0.099
-181.056	7.551	-0.139	-0.104
-180.042	-9.158	-0.207	0.138
-179.027	-88.702	0.240	-0.071
-178.012	-131.309	-0.280	-0.037
-176.998	800.000	-0.027	0.110
-175.983	800.000	0.031	0.131
-174.969	169.617	-0.111	0.159
-173.954	800.000	-0.031	0.104
-172.939	-70.877	0.163	0.061
-171.925	-200.000	0.003	-0.108
-170.910	-200.000	-0.036	-0.436
-169.896	-136.639	0.280	-0.032
-168.881	33.888	-0.104	0.090
-167.866	-200.000	-0.005	0.155
-166.852	-200.000	0.028	-0.135
-165.837	-200.000	-0.001	0.084
-164.823	800.000	-0.033	0.130
-163.808	147.001	0.143	-0.192
-162.793	126.624	0.069	-0.088
-161.779	99.887	-0.097	-0.112
-160.764	-200.000	-0.038	0.220
-159.750	-42.736	0.277	0.140
-158.735	-200.000	0.183	-0.000
-157.720	385.985	0.147	0.304
-156.706	789.012	0.097	0.265
-155.691	-108.482	-0.358	-0.077
-154.677	-121.123	0.157	-0.026
-153.662	-200.000	-0.002	0.036
-152.647	612.228	0.071	0.178
-151.633	63.782	0.088	-0.088
-150.618	-200.000	-0.006	-0.162
-149.604	800.000	-0.059	-0.174
-148.589	-29.778	-0.022	-0.012
-147.574	-71.630	-0.172	-0.064
-146.560	110.633	-0.026	-0.032
-145.545	65.974	-0.254	-0.256
-144.531	-76.663	0.172	-0.060
-143.516	-86.519	-0.324	-0.099
-142.502	-200.000	0.038	0.283
-141.487	-187.554	-0.324	0.004
-140.472	73.157	0.011	-0.011
-139.458	-139.600	0.160	-0.017
-138.443	217.616	0.076	0.121
-137.429	61.106	-0.127	0.126
-136.414	-40.898	0.263	0.136
-135.399	334.573	0.164	-0.317
-134.385	108.969	-0.116	-0.138
-133.370	161.055	0.115	0.160
-132.356	-200.000	-0.019	0.128
-131.341	-200.000	-0.002	0.207
-130.326	-9.990	-0.148	0.098
-129.312	-94.631	-0.037	-0.010
-128.297	111.393	0.146	0.175
-127.283	279.364	0.061	0.109
-126.268	27.538	0.255	0.214
-125.253	-21.585	0.075	0.046
-124.239	-182.121	-0.243	-0.005
-123.224	-53.427	-0.093	-0.042
-122.210	182.858	-0.248	-0.365
-121.195	186.843	0.177	-0.263
-120.180	800.000	0.140	0.498
