DTS Sentinel unit serial number:	SN413079Multiplexer serial number:	ORYXHardware model number:	OX4-SRSoftware version number:	ORYX F/W v4.00 Oryx Data Collector v3.7.2.0data status	okinstallation	princeton_trtdifferential loss correction	single-endedforward channel	channel 4reverse channel	N/Adate	2019/09/12time	18:07:19forward acquisition time	15.00reverse acquisition time	0.00gamma	496.2192k internal	0.2307k external	0.2307temperature offset calibration	1.0134default loss term (dB/km)	0.3790temperature slope calibration	1.0000multiplexer offset coefficient	1.0000multiplexer slope coefficient	1.0000fibre end	0.00T internal ref (°C)	33.69T ext. ref 1 (°C)	2.94T ext. ref 2 (°C)	28.22length (m)	temperature (°C)	Stokes	anti-Stokes-747.200	-57.090	0.557	0.250
-746.185	-9.481	-0.501	-0.340
-745.171	-122.542	-0.455	0.075
-744.156	105.705	0.341	-0.410
-743.142	12.136	0.453	-0.355
-742.127	86.784	0.740	0.831
-741.112	60.699	-0.273	0.275
-740.098	120.576	0.521	0.659
-739.083	-31.804	0.879	0.501
-738.069	45.773	-0.299	0.281
-737.054	380.859	0.403	0.841
-736.039	800.000	-0.181	-0.529
-735.025	216.948	-0.495	-0.801
-734.010	14.015	-0.467	-0.369
-732.996	-200.000	0.003	-0.320
-731.981	266.522	-0.314	0.559
-730.966	128.403	-0.341	0.441
-729.952	-53.946	0.528	-0.244
-728.937	97.552	0.448	0.524
-727.923	-200.000	-0.016	0.338
-726.908	-108.638	-0.796	0.174
-725.894	473.509	0.391	0.895
-724.879	-52.461	-0.223	0.105
-723.864	69.936	0.713	0.747
-722.850	77.519	0.441	0.477
-721.835	-76.734	0.305	0.108
-720.821	27.266	-0.268	-0.229
-719.806	227.269	-0.275	0.455
-718.791	-69.089	-0.052	0.020
-717.777	94.205	0.244	-0.281
-716.762	52.939	0.451	0.438
-715.748	800.000	-0.159	-0.492
-714.733	6.126	-0.367	-0.277
-713.718	-200.000	0.048	0.337
-712.704	-39.607	0.303	0.161
-711.689	6.250	0.424	-0.319
-710.675	136.272	0.079	-0.104
-709.660	-110.694	-0.516	-0.108
-708.645	-46.690	0.332	0.165
-707.631	-200.000	0.010	0.046
-706.616	-161.062	0.185	-0.010
-705.602	-85.701	0.640	-0.202
-704.587	-115.706	0.499	0.095
-703.572	-200.000	0.095	0.484
-702.558	800.000	0.200	0.586
-701.543	-147.010	-0.978	0.085
-700.529	-99.129	-0.419	-0.108
-699.514	-16.751	-0.577	-0.370
-698.499	-75.224	-0.325	-0.118
-697.485	-200.000	-0.024	0.350
-696.470	-27.492	-0.429	0.253
-695.456	67.156	-0.347	-0.359
-694.441	34.457	-0.465	-0.412
-693.426	-200.000	0.137	0.696
-692.412	207.545	-0.046	0.072
-691.397	-44.952	0.531	-0.268
-690.383	214.211	0.227	-0.365
-689.368	-200.000	0.002	0.472
-688.354	143.585	0.189	-0.255
-687.339	34.898	0.699	-0.621
-686.324	141.700	-0.308	0.415
-685.310	-200.000	-0.014	-0.135
-684.295	800.000	-0.086	-0.280
-683.281	-144.438	0.468	-0.044
-682.266	155.976	-0.123	-0.172
-681.251	-200.000	0.077	-0.803
-680.237	-176.277	-0.754	0.020
-679.222	311.855	0.252	0.481
-678.208	-134.908	-0.659	0.081
-677.193	-149.519	0.843	0.068
-676.178	89.115	-0.259	0.293
-675.164	239.746	0.356	-0.601
-674.149	-200.000	0.160	-0.853
-673.135	-54.797	0.682	-0.312
-672.120	284.290	0.172	0.313
-671.105	-31.566	-0.690	-0.393
-670.091	334.893	0.191	0.376
-669.076	28.336	0.365	0.312
-668.062	-200.000	0.153	0.707
-667.047	-200.000	0.033	0.557
-666.032	604.643	0.213	-0.538
-665.018	-51.957	0.378	0.178
-664.003	-139.135	0.241	-0.026
-662.989	16.336	-0.362	-0.290
-661.974	785.026	-0.251	0.699
-660.959	-119.215	0.460	0.081
-659.945	-200.000	-0.054	-0.505
-658.930	728.936	0.267	-0.724
-657.916	-200.000	0.005	0.745
-656.901	-36.541	0.140	-0.077
-655.886	-200.000	0.058	-0.320
-654.872	290.644	0.213	-0.393
-653.857	521.101	0.153	0.363
-652.843	-60.263	-0.816	0.352
-651.828	-200.000	0.058	0.442
-650.814	681.332	0.291	0.769
-649.799	-30.732	-0.656	0.376
-648.784	-113.221	0.333	0.066
-647.770	-160.512	-0.508	-0.028
-646.755	-111.561	0.651	-0.134
-645.741	10.697	0.109	0.085
-644.726	-45.674	-0.810	-0.406
-643.711	7.809	0.658	-0.499
-642.697	-158.639	0.736	0.043
-641.682	-86.918	-1.385	0.428
-640.668	133.077	-0.106	-0.138
-639.653	-47.660	-0.359	0.177
-638.638	-22.968	0.134	-0.082
-637.624	-200.000	-0.007	-0.591
-636.609	-123.157	0.061	-0.010
-635.595	-54.035	-0.402	0.185
-634.580	222.457	0.355	-0.579
-633.565	552.591	-0.074	0.180
-632.551	800.000	0.212	0.822
-631.536	259.826	-0.291	-0.509
-630.522	-102.579	0.671	-0.162
-629.507	25.920	0.320	-0.271
-628.492	-200.000	-0.101	-0.572
-627.478	800.000	0.073	-0.257
-626.463	167.688	0.604	0.870
-625.449	80.883	-0.069	-0.076
-624.434	16.243	-0.260	0.207
-623.419	-200.000	-0.022	-0.370
-622.405	-139.524	1.206	-0.130
-621.390	-84.375	0.094	0.030
-620.376	42.110	0.423	0.389
-619.361	26.491	-0.168	0.142
-618.346	-37.042	0.519	0.282
-617.332	-49.696	0.390	-0.188
-616.317	199.766	-0.718	1.116
-615.303	106.611	0.364	-0.437
-614.288	148.745	0.281	-0.385
-613.273	-109.500	1.355	0.290
-612.259	-200.000	-0.073	-0.330
-611.244	-82.349	0.551	-0.181
-610.230	-200.000	-0.304	1.372
-609.215	-59.294	-0.541	-0.236
-608.201	677.453	0.472	-1.242
-607.186	697.704	-0.209	-0.555
-606.171	800.000	0.059	-0.172
-605.157	45.603	-0.700	-0.654
-604.142	226.803	0.174	-0.287
-603.128	-200.000	-0.018	0.324
-602.113	49.412	-0.074	-0.070
-601.098	-108.164	0.747	-0.163
-600.084	-124.832	-0.282	0.044
-599.069	-17.236	0.545	0.348
-598.055	-200.000	-0.031	-0.301
-597.040	-200.000	-0.009	0.147
-596.025	-24.964	-0.485	0.291
-595.011	-52.357	0.261	0.122
-593.996	207.924	-0.294	0.465
-592.982	-200.000	0.058	0.513
-591.967	-134.899	0.349	-0.043
-590.952	71.712	0.556	0.584
-589.938	173.274	-0.357	-0.521
-588.923	-79.730	0.747	-0.254
-587.909	-24.171	-0.580	0.350
-586.894	81.930	0.618	0.676
-585.879	137.465	-0.594	-0.785
-584.865	15.945	0.470	-0.374
-583.850	59.603	0.495	0.494
-582.836	147.696	0.254	-0.346
-581.821	365.784	-0.306	-0.622
-580.806	-130.225	-0.883	-0.121
-579.792	110.143	0.427	0.518
-578.777	-200.000	-0.023	-0.111
-577.763	-6.074	-0.407	0.281
-576.748	474.269	0.223	0.508
-575.733	-200.000	0.045	0.912
-574.719	77.036	0.156	0.167
-573.704	-195.343	-0.185	0.001
-572.690	-200.000	0.041	-0.199
-571.675	214.479	0.221	-0.353
-570.661	34.696	0.277	0.245
-569.646	-123.180	-0.612	-0.099
-568.631	-200.000	-0.030	-0.287
-567.617	38.871	0.445	-0.401
-566.602	-200.000	0.030	0.228
-565.588	-200.000	-0.023	0.206
-564.573	-30.598	0.708	0.405
-563.558	-14.831	-0.410	-0.266
-562.544	-200.000	-0.011	0.078
-561.529	306.609	0.047	0.088
-560.515	-200.000	0.049	0.264
-559.500	-200.000	0.001	-0.046
-558.485	-200.000	-0.002	0.256
-557.471	661.919	-0.211	-0.550
-556.456	-61.430	0.093	0.039
-555.442	-142.051	0.382	0.038
-554.427	525.656	0.157	0.374
-553.412	-121.915	-0.399	0.066
-552.398	-200.000	0.049	0.877
-551.383	196.807	-0.091	-0.139
-550.369	56.815	-0.194	-0.191
-549.354	-200.000	-0.150	-0.792
-548.339	800.000	-0.395	-1.537
-547.325	718.832	-0.294	0.788
-546.310	-200.000	0.069	0.321
-545.296	-129.107	-0.037	-0.005
-544.281	35.226	0.256	-0.227
-543.266	15.037	-0.232	-0.183
-542.252	-118.708	0.622	0.111
-541.237	13.141	0.428	0.335
-540.223	-171.165	-0.152	0.005
-539.208	342.041	-0.267	-0.527
-538.193	136.467	-0.212	0.278
-537.179	-115.536	0.219	-0.042
-536.164	228.292	-0.549	0.902
-535.150	8.506	-0.210	0.160
-534.135	-49.405	-0.215	0.104
-533.121	33.247	-0.403	-0.353
-532.106	0.603	-1.266	-0.913
-531.091	90.657	-0.538	0.608
-530.077	-23.887	-0.209	-0.126
-529.062	-29.231	-0.200	-0.115
-528.048	-200.000	0.121	0.659
-527.033	-67.151	0.708	0.281
-526.018	31.067	-0.926	-0.801
-525.004	109.011	-0.124	0.149
-523.989	-69.331	-0.725	0.281
-522.975	26.005	0.511	0.429
-521.960	158.753	-0.476	0.666
-520.945	195.525	-0.041	-0.063
-519.931	503.068	-0.410	-0.957
-518.916	481.866	0.375	-0.858
-517.902	-39.650	0.285	-0.150
-516.887	76.731	0.310	-0.332
-515.872	45.315	0.356	0.331
-514.858	3.175	-0.698	0.512
-513.843	-45.295	0.298	0.149
-512.829	-34.157	-0.881	0.488
-511.814	-200.000	-0.037	-0.217
-510.799	81.709	0.594	0.648
-509.785	208.228	-0.220	-0.346
-508.770	17.657	-0.490	0.393
-507.756	-200.000	0.060	-0.839
-506.741	40.333	-0.730	0.662
-505.726	-200.000	-0.002	0.565
-504.712	-93.538	0.742	-0.207
-503.697	-200.000	-0.061	0.288
-502.683	766.528	-0.087	-0.239
-501.668	87.820	0.651	0.726
-500.653	-7.644	0.303	-0.206
-499.639	166.043	0.387	0.551
-498.624	-86.266	-0.323	0.100
-497.610	-99.399	-0.554	-0.141
-496.595	-42.724	-0.525	-0.269
-495.581	-200.000	0.003	0.046
-494.566	-106.905	0.269	0.060
-493.551	-200.000	0.034	0.315
-492.537	-153.109	0.808	-0.057
-491.522	-200.000	-0.044	0.485
-490.508	-200.000	0.060	-0.266
-489.493	23.694	-0.780	-0.647
-488.478	143.246	0.260	-0.349
-487.464	-72.648	-0.276	0.103
-486.449	-200.000	0.047	-0.430
-485.435	8.480	0.417	0.316
-484.420	220.022	0.173	-0.279
-483.405	72.187	0.844	0.885
-482.391	-45.715	-0.411	-0.205
-481.376	-40.520	0.995	-0.520
-480.362	-43.237	0.580	0.295
-479.347	-200.000	-0.076	0.344
-478.332	800.000	0.194	-0.738
-477.318	-200.000	0.041	-0.230
-476.303	-117.498	0.239	-0.043
-475.289	-164.900	0.772	0.035
-474.274	-200.000	-0.048	0.866
-473.259	-158.024	-0.217	-0.013
-472.245	-200.000	0.017	-0.219
-471.230	284.302	-0.345	0.624
-470.216	-200.000	-0.058	-0.306
-469.201	-107.035	-0.390	0.087
-468.186	794.680	0.130	-0.359
-467.172	-130.994	0.528	-0.071
-466.157	103.236	-0.569	0.671
-465.143	-56.097	-0.204	0.091
-464.128	-200.000	-0.020	-0.562
-463.113	24.707	0.642	0.535
-462.099	-200.000	0.094	-0.600
-461.084	71.285	0.826	-0.862
-460.070	0.663	0.238	-0.172
-459.055	-160.204	0.328	0.018
-458.040	-45.602	0.699	0.348
-457.026	-200.000	0.054	0.413
-456.011	-0.402	0.468	0.334
-454.997	-22.524	-0.941	-0.572
-453.982	51.565	0.519	-0.496
-452.968	178.416	0.293	0.431
-451.953	-71.822	0.557	-0.209
-450.938	-200.000	-0.006	-1.241
-449.924	-131.777	-0.759	-0.100
-448.909	280.188	-0.313	0.563
-447.895	-140.245	-0.286	-0.030
-446.880	-52.231	-0.435	0.203
-445.865	-148.332	0.910	0.075
-444.851	10.399	0.642	-0.492
-443.836	-90.129	-0.676	0.198
-442.822	-40.006	0.603	-0.316
-441.807	309.488	0.238	-0.447
-440.792	-30.951	-0.509	-0.289
-439.778	-115.714	-0.501	0.094
-438.763	-100.225	0.279	-0.070
-437.749	269.658	0.131	0.231
-436.734	7.988	-0.420	-0.317
-435.719	-200.000	-0.081	0.934
-434.705	-200.000	-0.057	-0.563
-433.690	-81.706	0.814	0.268
-432.676	-52.289	-0.168	0.078
-431.661	194.424	-0.408	0.621
-430.646	17.803	0.438	0.351
-429.632	-200.000	0.039	-0.850
-428.617	299.513	0.274	-0.507
-427.603	-101.851	1.146	0.279
-426.588	129.182	0.283	-0.363
-425.573	82.611	-0.246	0.268
-424.559	-100.572	-0.296	0.073
-423.544	178.501	-0.543	0.797
-422.530	-128.290	-0.521	-0.075
-421.515	59.912	-0.775	0.768
-420.500	-6.168	-0.337	-0.231
-419.486	249.965	0.425	0.725
-418.471	-4.394	0.634	0.441
-417.457	800.000	-0.211	0.598
-416.442	484.151	-0.085	0.195
-415.428	-96.591	0.799	0.211
-414.413	56.477	0.615	-0.600
-413.398	800.000	0.176	-0.590
-412.384	199.868	0.194	0.300
-411.369	158.364	-0.281	-0.391
-410.355	51.221	0.443	-0.423
-409.340	-89.302	-0.360	0.106
-408.325	-150.817	0.581	0.044
-407.311	-43.277	0.757	-0.384
-406.296	173.742	0.146	0.211
-405.282	153.313	-0.274	0.377
-404.267	99.878	0.561	-0.652
-403.252	-200.000	0.138	0.721
-402.238	278.339	0.437	-0.781
-401.223	170.813	-0.412	0.592
-400.209	-171.832	-0.388	0.013
-399.194	-128.262	-0.907	-0.130
-398.179	80.575	-0.194	0.210
-397.165	557.550	0.156	0.377
-396.150	109.524	-0.334	-0.402
-395.136	257.032	0.322	-0.555
-394.121	-28.507	-0.456	0.264
-393.106	376.655	-0.231	0.473
-392.092	-111.617	0.222	-0.045
-391.077	-126.582	-0.650	-0.097
-390.063	-33.082	-0.411	0.229
-389.048	-33.183	0.141	-0.078
-388.033	-91.141	0.543	-0.156
-387.019	-30.681	-0.560	0.318
-386.004	-25.549	0.378	-0.224
-384.990	800.000	-0.106	0.407
-383.975	-179.484	0.114	0.003
-382.960	62.919	-0.444	-0.445
-381.946	-58.975	0.408	0.177
-380.931	-20.555	0.490	-0.302
-379.917	-182.719	-0.388	-0.007
-378.902	-200.000	0.175	-1.333
-377.888	218.648	-0.304	-0.487
-376.873	-91.669	0.161	0.046
-375.858	341.750	0.252	-0.495
-374.844	-200.000	-0.080	0.430
-373.829	261.588	-0.118	-0.206
-372.815	726.662	-0.466	-1.247
-371.800	-72.413	-0.447	0.166
-370.785	-200.000	-0.029	-0.221
-369.771	-100.595	-0.370	-0.092
-368.756	184.700	0.230	-0.342
-367.742	-129.506	1.016	0.141
-366.727	-200.000	0.147	-0.730
-365.712	-68.475	0.377	0.146
-364.698	-200.000	-0.080	0.603
-363.683	24.998	-0.523	0.435
-362.669	-57.500	-0.560	0.246
-361.654	-192.181	-0.541	0.005
-360.639	-1.233	0.491	0.348
-359.625	-200.000	-0.135	-0.966
-358.610	163.525	0.151	-0.213
-357.596	55.817	-0.366	-0.356
-356.581	-200.000	-0.021	0.190
-355.566	-19.506	-1.004	0.623
-354.552	800.000	-0.202	0.623
-353.537	800.000	0.102	0.331
-352.523	-200.000	0.000	0.455
-351.508	288.772	-0.766	1.390
-350.493	7.012	0.677	-0.506
-349.479	-25.849	-0.568	0.335
-348.464	-67.536	-0.992	0.390
-347.450	10.644	0.611	0.467
-346.435	4.972	0.265	-0.195
-345.420	-154.246	0.617	0.042
-344.406	-60.837	-0.346	0.147
-343.391	22.819	-0.500	-0.411
-342.377	-10.356	0.614	-0.408
-341.362	215.009	-0.025	0.040
-340.348	-19.594	-0.419	0.260
-339.333	800.000	-0.161	-0.465
-338.318	209.750	-0.322	0.506
-337.304	-74.477	-0.480	0.173
-336.289	173.525	-0.610	-0.882
-335.275	146.176	-0.338	-0.454
-334.260	-146.452	0.859	0.075
-333.245	-73.251	0.202	-0.074
-332.231	-38.992	-0.515	0.271
-331.216	-100.350	-0.596	0.148
-330.202	800.000	-0.050	-0.142
-329.187	-87.453	-0.449	-0.136
-328.172	-200.000	0.057	-0.473
-327.158	1.370	-0.078	-0.056
-326.143	-181.281	0.515	-0.010
-325.129	-64.015	-0.664	-0.272
-324.114	-106.839	0.449	-0.100
-323.099	288.044	0.151	-0.273
-322.085	505.704	0.161	-0.374
-321.070	-50.626	0.429	-0.202
-320.056	-135.534	0.890	-0.106
-319.041	24.879	-0.989	-0.820
-318.026	65.016	0.076	0.077
-317.012	258.398	0.410	0.707
-315.997	458.876	-0.246	0.547
-314.983	10.278	0.627	0.477
-313.968	-154.196	-1.057	-0.071
-312.953	-200.000	0.080	0.517
-311.939	-56.241	-0.724	0.322
-310.924	444.029	0.099	0.217
-309.910	-200.000	0.021	-0.237
-308.895	-200.000	0.009	0.045
-307.880	108.256	-0.690	-0.822
-306.866	800.000	0.255	0.731
-305.851	-63.424	0.398	0.164
-304.837	-189.105	0.321	0.004
-303.822	-10.805	0.362	-0.239
-302.807	191.429	0.291	-0.438
-301.793	-200.000	-0.044	0.240
-300.778	81.956	0.454	0.492
-299.764	226.771	-0.376	-0.611
-298.749	-139.654	-0.786	-0.084
-297.735	-95.113	0.425	0.115
-296.720	76.501	-0.677	0.717
-295.705	22.559	-0.364	-0.298
-294.691	229.452	-0.322	-0.526
-293.676	-8.774	-0.663	0.444
-292.662	85.302	0.324	-0.355
-291.647	-75.727	-0.860	-0.305
-290.632	800.000	0.147	0.467
-289.618	-21.793	-0.548	0.333
-288.603	512.788	-0.057	-0.132
-287.589	66.395	-0.270	-0.274
-286.574	-92.346	0.491	-0.138
-285.559	-62.848	-0.061	-0.025
-284.545	-128.043	-0.101	-0.015
-283.530	-59.733	-0.114	0.049
-282.516	-83.935	-0.466	0.148
-281.501	-200.000	-0.007	-0.420
-280.486	-112.665	-0.432	0.086
-279.472	-99.549	0.045	-0.011
-278.457	82.304	0.373	0.404
-277.443	5.720	-0.374	-0.276
-276.428	-83.174	0.381	0.122
-275.413	54.867	0.441	0.425
-274.399	31.614	0.476	-0.409
-273.384	-164.359	0.675	0.031
-272.370	800.000	0.127	-0.445
-271.355	232.618	0.206	-0.338
-270.340	-52.328	-0.503	0.233
-269.326	-200.000	-0.024	-0.254
-268.311	-76.483	-0.073	0.026
-267.297	800.000	-0.178	-0.537
-266.282	67.495	0.461	0.470
-265.267	200.677	0.311	0.478
-264.253	-200.000	-0.035	-0.267
-263.238	-28.724	-0.297	-0.170
-262.224	104.459	0.526	-0.618
-261.209	-200.000	0.124	0.569
-260.195	67.243	0.415	0.422
-259.180	-200.000	-0.010	0.107
-258.165	26.216	0.477	-0.398
-257.151	-200.000	0.001	0.345
-256.136	-200.000	0.101	-0.669
-255.122	-47.965	-0.748	0.361
-254.107	-91.331	0.804	0.229
-253.092	800.000	-0.110	-0.357
-252.078	-200.000	-0.007	-0.842
-251.063	100.214	-0.156	-0.181
-250.049	-60.978	-0.726	0.306
-249.034	-29.884	-0.345	0.196
-248.019	-200.000	-0.036	0.391
-247.005	-12.880	0.328	-0.213
-245.990	140.519	-0.083	0.109
-244.976	-69.019	0.360	-0.138
-243.961	-113.963	-0.476	-0.092
-242.946	-200.000	-0.077	-0.806
-241.932	-159.087	-0.179	-0.010
-240.917	-200.000	-0.063	-0.327
-239.903	-70.705	1.424	-0.536
-238.888	179.365	-0.635	0.926
-237.873	20.740	0.419	0.339
-236.859	-92.736	0.482	-0.135
-235.844	-200.000	0.014	0.330
-234.830	125.284	0.549	-0.691
-233.815	-121.666	0.187	0.031
-232.800	697.061	0.015	-0.038
-231.786	-200.000	-0.010	-0.076
-230.771	102.395	-0.343	-0.400
-229.757	57.319	-0.266	0.259
-228.742	-82.428	-0.878	-0.284
-227.727	-38.933	0.611	-0.321
-226.713	-27.071	0.625	0.363
-225.698	272.288	0.174	0.306
-224.684	-90.680	-0.791	-0.228
-223.669	-53.235	-0.517	0.237
-222.655	121.378	0.578	0.718
-221.640	-145.781	0.700	-0.062
-220.625	190.244	-0.231	-0.345
-219.611	-200.000	-0.043	0.252
-218.596	117.069	0.414	0.507
-217.582	15.905	-0.150	0.118
-216.567	-136.013	-0.856	-0.100
-215.552	183.344	-0.335	-0.493
-214.538	-121.418	1.028	0.171
-213.523	800.000	-0.131	0.552
-212.509	-156.903	-0.720	0.044
-211.494	800.000	-0.456	1.841
-210.479	236.048	0.374	-0.615
-209.465	186.392	-0.326	-0.483
-208.450	699.455	0.158	0.415
-207.436	8.688	-0.358	0.269
-206.421	19.270	0.444	0.355
-205.406	386.519	0.201	-0.414
-204.392	-111.961	0.869	0.175
-203.377	-75.041	0.545	0.194
-202.363	-157.364	-0.451	-0.027
-201.348	-200.000	-0.053	-0.269
-200.333	135.363	-0.204	-0.265
-199.319	-122.821	0.843	-0.135
-198.304	-200.000	-0.073	0.376
-197.290	479.118	-0.234	0.527
-196.275	-156.100	0.516	-0.032
-195.260	-145.484	-0.366	0.033
-194.246	109.944	-0.162	0.193
-193.231	-85.833	-0.363	-0.112
-192.217	-7.507	-0.642	-0.433
-191.202	516.817	0.217	-0.504
-190.187	55.994	0.175	-0.169
-189.173	-66.125	-0.483	-0.192
-188.158	-1.317	0.552	-0.388
-187.144	302.055	0.202	-0.372
-186.129	-200.000	0.047	0.472
-185.114	116.113	-0.383	0.467
-184.100	800.000	-0.106	-0.339
-183.085	-54.314	-0.792	-0.358
-182.071	-121.514	-0.399	-0.066
-181.056	-157.561	0.541	0.032
-180.042	-196.958	0.937	-0.006
-179.027	800.000	-0.129	-0.356
-178.012	112.148	-0.489	0.587
-176.998	-146.134	-0.920	0.081
-175.983	-200.000	0.006	0.082
-174.969	-200.000	-0.058	0.260
-173.954	166.534	-0.273	0.385
-172.939	800.000	-0.148	-0.407
-171.925	-98.696	0.459	-0.116
-170.910	336.800	-0.390	-0.754
-169.896	37.676	0.349	-0.308
-168.881	458.276	-0.036	0.079
-167.866	-131.716	-0.434	-0.057
-166.852	-73.428	-0.930	0.338
-165.837	490.314	-0.214	0.487
-164.823	-200.000	-0.002	-0.419
-163.808	119.494	-0.119	0.147
-162.793	800.000	-0.085	-0.349
-161.779	-111.070	-0.446	0.091
-160.764	17.100	0.482	0.380
-159.750	-78.838	0.545	0.185
-158.735	-200.000	-0.138	0.661
-157.720	86.816	0.281	-0.309
-156.706	116.585	0.223	-0.272
-155.691	-102.566	-0.168	0.040
-154.677	-92.648	-0.798	0.222
-153.662	103.683	0.312	-0.364
-152.647	-200.000	0.027	0.271
-151.633	-173.564	0.624	0.019
-150.618	106.719	0.417	-0.491
-149.604	-200.000	0.029	-0.190
-148.589	800.000	-0.168	0.672
-147.574	800.000	0.098	0.343
-146.560	138.680	0.089	0.116
-145.545	-39.786	-0.655	0.340
-144.531	800.000	0.297	-0.962
-143.516	24.859	0.199	-0.164
-142.502	216.621	-0.419	0.662
-141.487	110.601	-0.597	0.713
-140.472	-11.163	-0.149	0.098
-139.458	-54.457	-0.481	-0.217
-138.443	-13.153	-0.273	-0.176
-137.429	-200.000	0.094	-0.714
-136.414	-192.130	0.380	0.004
-135.399	800.000	0.065	-0.210
-134.385	-48.978	0.313	-0.149
-133.370	162.790	-0.434	0.605
-132.356	403.023	-0.127	-0.266
-131.341	-144.870	0.362	-0.033
-130.326	45.913	-0.330	0.303
-129.312	-48.066	0.134	0.064
-128.297	-9.164	0.191	-0.127
-127.283	-122.703	-0.511	0.082
-126.268	-107.660	-0.243	0.053
-125.253	8.587	0.121	0.091
-124.239	-194.655	0.804	0.006
-123.224	-70.460	0.469	-0.176
-122.210	393.547	0.123	-0.255
-121.195	-78.286	0.602	0.205
