DTS Sentinel unit serial number:	SN413079Multiplexer serial number:	ORYXHardware model number:	OX4-SRSoftware version number:	ORYX F/W v4.00 Oryx Data Collector v3.7.2.0data status	okinstallation	princeton_trtdifferential loss correction	single-endedforward channel	channel 4reverse channel	N/Adate	2019/09/14time	01:25:35forward acquisition time	60.00reverse acquisition time	0.00gamma	496.2192k internal	0.2323k external	0.2323temperature offset calibration	1.0128default loss term (dB/km)	0.3790temperature slope calibration	1.0000multiplexer offset coefficient	1.0000multiplexer slope coefficient	1.0000fibre end	0.00T internal ref (°C)	26.42T ext. ref 1 (°C)	3.19T ext. ref 2 (°C)	21.45length (m)	temperature (°C)	Stokes	anti-Stokes-747.200	-29.219	0.285	-0.165
-746.185	42.987	-0.100	0.092
-745.171	390.942	0.155	-0.324
-744.156	-200.000	-0.016	0.156
-743.142	-2.043	0.043	0.031
-742.127	787.533	0.123	0.341
-741.112	-72.776	0.244	0.091
-740.098	-32.556	-0.144	-0.081
-739.083	13.244	0.154	-0.120
-738.069	52.409	0.116	0.112
-737.054	194.691	-0.070	0.108
-736.039	56.697	-0.183	-0.180
-735.025	-120.165	0.270	0.047
-734.010	-139.831	0.209	-0.022
-732.996	-200.000	-0.011	-0.114
-731.981	658.225	-0.100	0.260
-730.966	-85.836	-0.388	0.121
-729.952	-6.094	0.136	-0.094
-728.937	-160.178	-0.161	0.009
-727.923	-50.739	0.167	0.079
-726.908	-111.433	-0.199	0.041
-725.894	-83.737	-0.351	-0.113
-724.879	82.035	0.106	0.116
-723.864	490.509	0.138	-0.319
-722.850	42.129	0.088	0.081
-721.835	-39.131	0.112	-0.060
-720.821	-55.321	0.132	-0.060
-719.806	255.977	-0.114	-0.197
-718.791	36.361	0.040	0.036
-717.777	-200.000	-0.010	-0.157
-716.762	-200.000	0.012	-0.079
-715.748	-200.000	0.002	0.028
-714.733	9.883	0.016	0.012
-713.718	-63.839	-0.293	-0.121
-712.704	800.000	0.077	-0.237
-711.689	14.776	-0.080	0.063
-710.675	-44.651	0.251	0.127
-709.660	-200.000	-0.014	-0.154
-708.645	37.263	-0.170	-0.152
-707.631	-183.624	-0.299	-0.005
-706.616	-200.000	0.041	-0.374
-705.602	800.000	0.056	-0.209
-704.587	147.094	0.076	0.103
-703.572	800.000	0.074	-0.268
-702.558	-28.820	-0.177	0.102
-701.543	800.000	0.004	0.014
-700.529	107.825	-0.054	-0.065
-699.514	-200.000	-0.001	-0.051
-698.499	-86.476	0.128	0.040
-697.485	274.416	-0.093	-0.165
-696.470	-80.065	-0.309	0.104
-695.456	110.949	-0.117	0.141
-694.441	-65.364	0.054	-0.022
-693.426	538.026	-0.058	0.140
-692.412	-45.331	-0.266	-0.133
-691.397	800.000	0.020	0.080
-690.383	606.679	0.038	0.096
-689.368	-102.931	-0.276	-0.066
-688.354	800.000	-0.052	-0.191
-687.339	39.058	0.131	-0.118
-686.324	304.389	-0.218	0.407
-685.310	-56.279	-0.152	-0.068
-684.295	-63.781	0.180	0.074
-683.281	190.479	0.179	0.271
-682.266	142.265	-0.079	-0.105
-681.251	-13.625	0.155	0.101
-680.237	-200.000	0.013	-0.112
-679.222	-8.603	-0.087	-0.059
-678.208	694.873	-0.115	0.305
-677.193	-96.496	-0.419	-0.111
-676.178	-200.000	-0.002	-0.067
-675.164	-59.439	0.339	-0.147
-674.149	187.177	0.068	0.102
-673.135	166.243	-0.084	-0.119
-672.120	747.124	-0.141	0.383
-671.105	66.688	-0.100	-0.103
-670.091	-72.802	-0.186	0.069
-669.076	120.605	-0.156	0.195
-668.062	-97.392	0.236	-0.062
-667.047	-152.897	0.435	0.031
-666.032	-116.418	-0.175	-0.033
-665.018	-200.000	-0.036	-0.310
-664.003	2.177	0.213	0.155
-662.989	-97.526	0.351	0.092
-661.974	800.000	-0.019	0.077
-660.959	142.790	-0.129	-0.173
-659.945	-42.781	0.249	-0.128
-658.930	-50.759	0.182	-0.086
-657.916	-101.611	0.232	-0.057
-656.901	17.982	-0.092	0.074
-655.886	339.925	-0.185	-0.363
-654.872	-129.196	-0.540	-0.076
-653.857	-23.424	-0.110	0.067
-652.843	343.541	0.182	-0.359
-651.828	800.000	0.082	0.266
-650.814	460.729	-0.057	-0.128
-649.799	-93.679	-0.058	-0.016
-648.784	-26.153	-0.337	0.199
-647.770	-109.045	0.299	0.064
-646.755	403.367	-0.124	0.262
-645.741	800.000	0.043	0.165
-644.726	-117.221	0.189	0.035
-643.711	146.254	-0.113	0.152
-642.697	25.158	0.419	0.350
-641.682	215.063	0.068	-0.108
-640.668	238.766	0.081	-0.135
-639.653	47.781	-0.128	0.120
-638.638	116.025	-0.156	-0.192
-637.624	38.749	-0.024	0.022
-636.609	-99.044	-0.115	0.029
-635.595	-107.629	-0.387	0.085
-634.580	162.607	-0.086	-0.121
-633.565	-200.000	0.086	0.490
-632.551	800.000	-0.073	0.281
-631.536	209.315	0.095	-0.149
-630.522	-200.000	-0.030	-0.252
-629.507	-200.000	0.049	0.231
-628.492	766.804	-0.125	0.342
-627.478	-99.834	0.096	0.024
-626.463	800.000	0.122	-0.339
-625.449	345.793	0.101	0.199
-624.434	-32.809	0.144	-0.080
-623.419	39.776	-0.033	-0.030
-622.405	283.334	0.173	-0.313
-621.390	211.895	-0.108	-0.170
-620.376	-200.000	-0.000	-0.032
-619.361	800.000	-0.063	-0.194
-618.346	230.318	-0.283	-0.465
-617.332	267.845	-0.108	-0.190
-616.317	-70.390	-0.437	-0.167
-615.303	-68.254	0.110	-0.043
-614.288	-138.544	-0.277	-0.031
-613.273	-145.451	0.127	0.012
-612.259	578.636	-0.017	0.041
-611.244	-135.984	-0.306	0.036
-610.230	-157.578	-0.274	0.016
-609.215	-200.000	-0.066	0.428
-608.201	404.760	0.120	0.254
-607.186	-116.207	-0.040	-0.007
-606.171	-200.000	0.021	-0.177
-605.157	-200.000	-0.014	0.077
-604.142	-17.883	-0.157	-0.099
-603.128	-200.000	0.026	-0.155
-602.113	-200.000	0.010	-0.147
-601.098	265.354	-0.226	-0.395
-600.084	-143.174	-0.176	0.017
-599.069	-131.971	-0.171	0.022
-598.055	460.269	0.088	0.196
-597.040	-51.646	-0.113	-0.053
-596.025	-200.000	-0.013	0.058
-595.011	-59.285	-0.295	-0.127
-593.996	-128.451	0.171	-0.024
-592.982	-157.414	0.588	0.036
-591.967	-84.263	-0.190	0.060
-590.952	222.276	-0.191	-0.309
-589.938	400.561	0.022	0.046
-588.923	-1.424	-0.251	-0.178
-587.909	-97.142	0.183	0.048
-586.894	-200.000	-0.019	0.207
-585.879	630.728	0.073	-0.187
-584.865	-126.504	-0.386	0.058
-583.850	11.243	0.191	0.147
-582.836	-16.725	0.194	0.123
-581.821	-114.815	0.073	-0.014
-580.806	255.739	-0.100	0.172
-579.792	202.284	0.160	0.248
-578.777	7.484	-0.248	0.186
-577.763	129.259	-0.086	-0.111
-576.748	352.087	-0.076	0.150
-575.733	-200.000	0.013	-0.127
-574.719	-200.000	0.008	0.066
-573.704	-200.000	0.018	0.129
-572.690	61.641	-0.269	-0.269
-571.675	67.634	-0.053	0.054
-570.661	-119.346	0.038	0.007
-569.646	97.797	0.207	-0.239
-568.631	113.517	-0.168	0.204
-567.617	74.058	0.136	-0.143
-566.602	277.834	-0.191	-0.341
-565.588	-200.000	0.024	0.120
-564.573	800.000	-0.014	-0.045
-563.558	66.176	0.400	0.407
-562.544	652.397	-0.039	0.101
-561.529	-139.524	-0.088	-0.009
-560.515	-200.000	0.011	-0.254
-559.500	126.179	-0.253	-0.320
-558.485	93.971	0.202	-0.230
-557.471	-200.000	0.029	-0.416
-556.456	490.095	-0.062	0.143
-555.442	-23.449	-0.370	0.223
-554.427	-62.022	-0.160	-0.067
-553.412	160.920	0.129	-0.181
-552.398	51.997	0.059	0.056
-551.383	-126.126	0.283	0.043
-550.369	800.000	-0.004	-0.013
-549.354	-143.134	-0.606	0.059
-548.339	20.738	0.172	0.140
-547.325	-119.643	-0.102	-0.018
-546.310	1.074	-0.374	0.269
-545.296	-109.060	0.088	-0.019
-544.281	-169.832	-0.351	-0.013
-543.266	-200.000	-0.007	0.137
-542.252	-93.629	-0.194	0.054
-541.237	-162.711	0.154	-0.008
-540.223	-89.483	-0.362	-0.106
-539.208	-200.000	-0.028	-0.285
-538.193	-136.155	0.127	0.015
-537.179	-200.000	-0.001	-0.168
-536.164	-200.000	-0.010	-0.262
-535.150	-67.990	-0.084	-0.033
-534.135	-148.429	-0.104	0.009
-533.121	173.876	0.161	0.233
-532.106	-200.000	0.040	0.277
-531.091	800.000	-0.080	-0.251
-530.077	-200.000	0.034	-0.235
-529.062	102.944	0.055	0.065
-528.048	467.027	-0.137	0.308
-527.033	462.205	-0.100	-0.222
-526.018	-99.456	-0.349	-0.088
-525.004	800.000	-0.049	-0.140
-523.989	-29.052	-0.277	-0.159
-522.975	299.545	0.166	-0.306
-521.960	-200.000	-0.017	-0.212
-520.945	-95.557	-0.365	0.098
-519.931	268.374	0.115	-0.201
-518.916	194.953	-0.099	-0.150
-517.902	800.000	-0.027	-0.085
-516.887	-200.000	-0.020	-0.282
-515.872	587.407	0.042	0.104
-514.858	800.000	0.070	-0.275
-513.843	346.248	0.148	-0.291
-512.829	-68.731	-0.224	-0.087
-511.814	70.603	-0.143	-0.148
-510.799	239.156	-0.242	-0.402
-509.785	-15.170	0.040	-0.025
-508.770	264.643	-0.029	0.050
-507.756	43.488	0.259	-0.237
-506.741	22.987	-0.074	0.060
-505.726	17.753	-0.161	-0.129
-504.712	-91.637	-0.419	0.119
-503.697	93.860	-0.058	0.065
-502.683	-200.000	0.006	-0.096
-501.668	-122.208	-0.249	-0.041
-500.653	-48.748	0.204	0.098
-499.639	-75.502	-0.202	0.072
-498.624	-200.000	0.017	0.175
-497.610	800.000	-0.053	0.193
-496.595	30.232	0.179	0.153
-495.581	245.741	-0.157	-0.264
-494.566	-94.423	-0.303	-0.083
-493.551	-158.322	0.310	0.018
-492.537	315.941	0.117	0.221
-491.522	-67.458	-0.151	0.059
-490.508	800.000	0.041	-0.140
-489.493	-200.000	0.010	0.230
-488.478	-37.947	-0.318	0.169
-487.464	414.870	-0.017	-0.035
-486.449	501.138	-0.117	-0.269
-485.435	-200.000	0.023	0.164
-484.420	-200.000	-0.026	-0.123
-483.405	-200.000	0.017	-0.136
-482.391	-200.000	0.024	0.276
-481.376	639.112	0.109	-0.277
-480.362	400.439	0.101	0.212
-479.347	-87.877	-0.251	-0.075
-478.332	-200.000	-0.020	-0.347
-477.318	800.000	-0.055	0.198
-476.303	512.877	-0.090	0.209
-475.289	-125.818	-0.152	-0.023
-474.274	-51.624	0.165	0.077
-473.259	-200.000	0.023	-0.220
-472.245	545.305	-0.130	-0.310
-471.230	224.467	0.113	0.183
-470.216	281.300	0.071	-0.126
-469.201	14.718	-0.099	-0.077
-468.186	-28.469	0.202	0.117
-467.172	378.020	-0.068	0.140
-466.157	800.000	0.057	0.227
-465.143	-67.143	0.482	-0.190
-464.128	-200.000	0.020	0.094
-463.113	-106.292	-0.194	-0.043
-462.099	800.000	0.121	-0.471
-461.084	-200.000	-0.016	0.082
-460.070	352.410	0.082	0.162
-459.055	327.063	-0.096	-0.183
-458.040	800.000	0.036	-0.129
-457.026	167.564	-0.059	-0.084
-456.011	800.000	0.089	-0.346
-454.997	800.000	0.132	0.477
-453.982	78.097	0.024	0.025
-452.968	-92.271	-0.258	-0.073
-451.953	288.407	0.212	0.384
-450.938	161.393	-0.031	-0.043
-449.924	65.431	-0.183	-0.185
-448.909	710.746	-0.068	0.179
-447.895	-62.329	0.242	-0.101
-446.880	607.503	-0.123	-0.306
-445.865	-125.976	-0.242	0.036
-444.851	-200.000	0.017	-0.098
-443.836	800.000	0.031	-0.134
-442.822	233.091	0.068	-0.112
-441.807	12.787	0.154	0.119
-440.792	-200.000	0.004	-0.049
-439.778	-96.961	0.333	-0.087
-438.763	-200.000	0.014	0.081
-437.749	-200.000	0.068	-0.345
-436.734	-200.000	0.013	0.193
-435.719	413.248	0.076	-0.162
-434.705	286.549	0.060	0.108
-433.690	44.072	0.201	0.184
-432.676	138.729	0.088	-0.116
-431.661	384.971	-0.095	-0.196
-430.646	800.000	0.037	0.139
-429.632	-55.355	0.224	-0.100
-428.617	78.614	-0.190	-0.203
-427.603	800.000	0.063	-0.183
-426.588	715.282	0.025	0.066
-425.573	-200.000	-0.022	0.298
-424.559	-200.000	-0.007	-0.431
-423.544	-200.000	0.075	0.421
-422.530	-178.381	0.175	-0.004
-421.515	-67.135	0.408	-0.160
-420.500	800.000	0.036	0.110
-419.486	-200.000	0.045	0.347
-418.471	-143.235	-0.101	-0.010
-417.457	800.000	0.059	0.209
-416.442	170.032	0.096	0.137
-415.428	-144.633	-0.195	0.018
-414.413	-200.000	0.346	0.001
-413.398	-200.000	-0.004	-0.027
-412.384	149.953	-0.177	0.239
-411.369	78.822	0.029	-0.031
-410.355	-122.698	0.089	-0.014
-409.340	23.492	0.137	-0.112
-408.325	48.896	-0.133	-0.125
-407.311	292.923	0.130	-0.235
-406.296	544.449	0.090	-0.215
-405.282	-18.819	0.097	-0.060
-404.267	64.352	-0.161	-0.162
-403.252	100.829	0.141	0.163
-402.238	-200.000	0.029	-0.140
-401.223	-15.040	-0.167	0.107
-400.209	33.658	0.176	0.153
-399.194	-200.000	-0.011	0.229
-398.179	-200.000	0.002	-0.210
-397.165	137.272	-0.291	0.379
-396.150	-105.468	0.110	-0.025
-395.136	-20.952	-0.054	-0.033
-394.121	800.000	-0.042	0.156
-393.106	-200.000	0.015	0.187
-392.092	149.785	0.103	-0.139
-391.077	69.924	0.262	0.269
-390.063	322.856	0.097	0.184
-389.048	-96.167	-0.132	0.035
-388.033	800.000	0.058	-0.170
-387.019	116.240	0.142	0.174
-386.004	-200.000	0.001	0.111
-384.990	234.907	0.098	0.161
-383.975	337.306	0.146	-0.283
-382.960	-48.318	-0.220	-0.106
-381.946	-123.883	0.244	-0.038
-380.931	750.531	0.013	-0.035
-379.917	50.585	0.179	-0.169
-378.902	48.655	0.352	0.329
-377.888	70.786	0.029	0.030
-376.873	112.562	0.137	-0.165
-375.858	-200.000	-0.030	-0.311
-374.844	-109.450	0.065	-0.014
-373.829	-61.026	0.261	-0.110
-372.815	-1.096	0.220	-0.155
-371.800	800.000	0.054	0.205
-370.785	800.000	-0.040	0.156
-369.771	186.233	0.120	0.178
-368.756	-200.000	-0.090	-0.401
-367.742	64.794	-0.107	-0.107
-366.727	-103.005	0.235	-0.056
-365.712	76.173	-0.078	-0.082
-364.698	800.000	-0.050	-0.146
-363.683	-27.694	0.245	-0.141
-362.669	249.569	0.197	-0.332
-361.654	112.265	0.349	-0.420
-360.639	-8.342	-0.060	-0.040
-359.625	521.649	-0.051	-0.118
-358.610	106.911	0.226	0.267
-357.596	93.405	-0.001	0.002
-356.581	-200.000	-0.011	-0.049
-355.566	236.848	0.057	-0.095
-354.552	181.937	0.143	-0.209
-353.537	-200.000	-0.002	-0.027
-352.523	800.000	-0.052	-0.181
-351.508	140.788	0.260	0.341
-350.493	-129.415	-0.144	-0.020
-349.479	0.357	-0.189	-0.134
-348.464	154.698	0.208	-0.284
-347.450	-32.196	-0.101	0.056
-346.435	623.165	-0.130	0.325
-345.420	312.042	0.090	0.168
-344.406	144.750	0.216	0.287
-343.391	-72.634	-0.135	0.050
-342.377	-88.306	-0.186	-0.055
-341.362	60.892	-0.136	0.134
-340.348	271.297	-0.079	-0.139
-339.333	623.057	0.090	0.226
-338.318	235.343	0.199	0.326
-337.304	800.000	0.054	0.154
-336.289	118.203	0.044	-0.053
-335.275	-200.000	-0.004	0.255
-334.260	43.140	-0.287	0.260
-333.245	-13.100	0.155	-0.100
-332.231	14.455	-0.240	0.186
-331.216	-200.000	0.006	0.124
-330.202	114.513	-0.135	0.164
-329.187	-45.235	0.169	-0.083
-328.172	167.974	0.118	0.167
-327.158	32.279	0.146	-0.125
-326.143	-200.000	-0.041	0.433
-325.129	105.301	0.102	0.120
-324.114	-172.139	-0.139	0.004
-323.099	800.000	-0.084	-0.319
-322.085	-79.754	-0.211	0.071
-321.070	90.029	-0.186	0.207
-320.056	-136.856	-0.127	0.015
-319.041	5.526	-0.057	-0.042
-318.026	-200.000	0.048	0.373
-317.012	-200.000	0.022	-0.107
-315.997	209.386	-0.069	-0.107
-314.983	-149.198	0.324	0.026
-313.968	329.372	0.131	0.251
-312.953	618.380	0.137	0.343
-311.939	147.208	-0.070	0.093
-310.924	-71.104	0.122	0.045
-309.910	-200.000	0.015	-0.245
-308.895	29.996	0.052	0.044
-307.880	-200.000	0.017	0.370
-306.866	800.000	0.040	-0.133
-305.851	-83.919	0.216	-0.068
-304.837	107.672	0.009	0.011
-303.822	-32.270	-0.111	-0.062
-302.807	-57.795	0.196	-0.085
-301.793	142.635	0.070	-0.092
-300.778	-141.865	-0.254	-0.025
-299.764	800.000	-0.037	-0.103
-298.749	800.000	0.019	0.058
-297.735	-68.907	-0.348	0.133
-296.720	-43.824	0.372	0.186
-295.705	150.314	-0.192	0.259
-294.691	-63.003	-0.072	0.029
-293.676	156.191	0.144	-0.197
-292.662	-200.000	0.033	-0.170
-291.647	-128.589	0.134	-0.019
-290.632	572.513	-0.187	0.453
-289.618	-78.046	0.276	0.094
-288.603	-187.678	0.301	0.004
-287.589	-138.216	-0.248	-0.027
-286.574	126.391	0.139	-0.174
-285.559	800.000	0.056	0.195
-284.545	-200.000	0.062	-0.374
-283.530	792.501	-0.074	-0.201
-282.516	-28.626	0.102	-0.058
-281.501	192.707	-0.154	0.230
-280.486	481.035	-0.056	0.126
-279.472	-200.000	0.035	-0.177
-278.457	800.000	0.096	-0.286
-277.443	-124.076	-0.440	-0.068
-276.428	-200.000	0.064	0.335
-275.413	370.980	0.106	0.214
-274.399	-200.000	0.006	-0.143
-273.384	-170.611	-0.160	0.005
-272.370	544.189	0.199	0.471
-271.355	155.309	0.159	0.217
-270.340	-50.823	0.153	-0.071
-269.326	-70.962	-0.136	0.051
-268.311	166.636	-0.095	0.133
-267.297	34.432	-0.130	0.113
-266.282	-107.902	0.442	0.095
-265.267	-98.315	-0.296	-0.075
-264.253	-200.000	0.007	-0.086
-263.238	-200.000	0.000	0.288
-262.224	381.532	-0.215	-0.438
-261.209	38.198	0.125	0.110
-260.195	35.211	-0.282	0.245
-259.180	166.986	0.125	0.175
-258.165	-104.754	0.428	0.097
-257.151	-200.000	0.026	-0.223
-256.136	413.708	0.079	-0.166
-255.122	28.762	0.104	-0.087
-254.107	199.505	-0.096	0.146
-253.092	238.420	-0.038	0.062
-252.078	672.758	0.088	-0.227
-251.063	-155.282	-0.412	0.027
-250.049	531.680	0.103	0.242
-249.034	-121.825	0.215	0.035
-248.019	-105.133	-0.360	-0.082
-247.005	-101.198	0.072	-0.017
-245.990	-153.085	0.265	0.018
-244.976	-165.750	-0.416	-0.018
-243.961	-200.000	0.003	-0.068
-242.946	-200.000	0.009	0.410
-241.932	-200.000	-0.029	0.343
-240.917	413.791	-0.213	-0.448
-239.903	-27.736	-0.263	0.151
-238.888	182.724	0.150	-0.219
-237.873	800.000	-0.083	-0.332
-236.859	55.498	-0.161	0.154
-235.844	-45.487	-0.064	0.032
-234.830	-113.040	0.115	0.022
-233.815	18.980	-0.193	0.153
-232.800	28.634	-0.130	0.109
-231.786	416.467	0.122	0.258
-230.771	-200.000	0.004	-0.104
-229.757	-200.000	-0.053	0.260
-228.742	-84.394	0.203	-0.064
-227.727	155.588	-0.049	0.066
-226.713	435.424	0.176	-0.380
-225.698	-82.984	0.260	-0.083
-224.684	-42.668	-0.165	0.083
-223.669	-23.688	-0.083	0.049
-222.655	-160.711	-0.163	-0.009
-221.640	-11.878	0.153	-0.099
-220.625	-191.738	0.032	0.000
-219.611	411.873	-0.176	-0.369
-218.596	-200.000	0.002	-0.069
-217.582	98.031	0.125	0.143
-216.567	51.218	-0.134	-0.126
-215.552	-65.506	-0.116	0.046
-214.538	311.667	0.123	0.228
-213.523	163.838	0.069	0.096
-212.509	-88.880	0.133	-0.039
-211.494	-72.890	0.083	0.030
-210.479	-168.950	0.289	0.011
-209.465	307.952	0.108	-0.199
-208.450	-3.774	0.153	0.105
-207.436	-117.505	0.299	-0.053
-206.421	672.006	-0.117	0.301
-205.406	-33.966	0.116	-0.063
-204.392	92.222	-0.266	-0.296
-203.377	800.000	0.127	0.515
-202.363	-199.823	-0.092	0.000
-201.348	414.560	0.016	0.034
-200.333	-32.286	0.214	-0.118
-199.319	-200.000	0.034	0.203
-198.304	42.590	-0.077	0.069
-197.290	377.026	0.019	0.038
-196.275	-200.000	-0.002	-0.303
-195.260	-200.000	0.022	0.180
-194.246	-200.000	-0.004	-0.099
-193.231	-137.591	-0.123	0.014
-192.217	800.000	-0.023	-0.068
-191.202	-23.735	-0.126	0.075
-190.187	15.293	0.480	-0.372
-189.173	-200.000	-0.018	-0.455
-188.158	217.144	-0.109	0.172
-187.144	-34.736	-0.279	-0.151
-186.129	-13.381	0.486	0.311
-185.114	134.813	0.065	0.083
-184.100	800.000	-0.056	-0.173
-183.085	140.253	-0.295	0.384
-182.071	-200.000	0.000	0.197
-181.056	-123.636	0.299	0.047
-180.042	800.000	-0.084	0.238
-179.027	-200.000	0.030	0.254
-178.012	296.568	0.207	-0.375
-176.998	-14.854	-0.203	0.128
-175.983	-49.551	0.085	-0.040
-174.969	800.000	0.017	-0.058
-173.954	44.167	0.306	0.278
-172.939	665.672	0.029	-0.074
-171.925	7.031	-0.076	-0.056
-170.910	-70.399	0.190	0.071
-169.896	-9.351	0.067	-0.044
-168.881	800.000	-0.058	-0.243
-167.866	91.912	-0.333	0.370
-166.852	-51.380	0.152	-0.070
-165.837	-167.267	0.209	0.008
-164.823	104.647	0.109	-0.127
-163.808	525.582	-0.067	0.157
-162.793	-200.000	0.025	-0.134
-161.779	-115.221	-0.182	0.034
-160.764	9.916	0.229	0.171
-159.750	-168.008	0.043	0.002
-158.735	11.650	-0.143	0.109
-157.720	-200.000	-0.055	-0.264
-156.706	-200.000	0.010	0.145
-155.691	267.111	-0.150	-0.258
-154.677	736.986	-0.085	-0.224
-153.662	800.000	-0.098	-0.323
-152.647	-121.860	-0.137	-0.022
-151.633	323.450	0.068	0.128
-150.618	-111.565	-0.155	-0.031
-149.604	166.386	-0.196	0.274
-148.589	-200.000	0.039	0.316
-147.574	147.606	0.147	0.195
-146.560	98.054	0.074	-0.084
-145.545	-200.000	-0.006	-0.194
-144.531	345.296	-0.176	0.341
-143.516	-174.498	-0.078	-0.002
-142.502	-171.968	-0.382	0.012
-141.487	94.476	0.105	-0.117
-140.472	55.874	-0.088	0.084
-139.458	-145.349	-0.136	-0.012
-138.443	456.796	0.147	0.321
-137.429	800.000	0.118	0.326
-136.414	397.771	-0.106	0.220
-135.399	-200.000	-0.036	0.230
-134.385	-104.977	-0.205	-0.046
-133.370	-130.556	-0.266	0.035
-132.356	67.233	0.163	0.164
-131.341	-145.300	-0.226	-0.020
-130.326	24.218	-0.390	-0.318
-129.312	-200.000	-0.035	-0.173
-128.297	-200.000	-0.001	-0.250
-127.283	38.142	-0.146	0.128
-126.268	-142.072	-0.070	0.007
-125.253	-19.182	-0.266	-0.163
-124.239	-111.951	0.242	0.048
-123.224	462.199	0.043	-0.094
-122.210	-179.371	-0.098	-0.002
