DTS Sentinel unit serial number:	SN413079Multiplexer serial number:	ORYXHardware model number:	OX4-SRSoftware version number:	ORYX F/W v4.00 Oryx Data Collector v3.7.2.0data status	okinstallation	princeton_trtdifferential loss correction	single-endedforward channel	channel 4reverse channel	N/Adate	2019/09/17time	10:21:35forward acquisition time	60.00reverse acquisition time	0.00gamma	496.2192k internal	0.2311k external	0.2311temperature offset calibration	0.9974default loss term (dB/km)	0.3790temperature slope calibration	1.0000multiplexer offset coefficient	1.0000multiplexer slope coefficient	1.0000fibre end	0.00T internal ref (°C)	29.89T ext. ref 1 (°C)	0.16T ext. ref 2 (°C)	25.48length (m)	temperature (°C)	Stokes	anti-Stokes-747.200	-200.000	-0.004	-0.183
-746.185	-121.674	0.061	0.010
-745.171	-200.000	0.045	-0.443
-744.156	-116.219	-0.279	-0.052
-743.142	-150.591	0.424	-0.033
-742.127	418.955	0.090	0.196
-741.112	204.312	0.165	0.260
-740.098	324.919	-0.161	0.313
-739.083	-93.971	0.071	0.020
-738.069	86.877	0.159	0.179
-737.054	-89.451	-0.098	0.029
-736.039	-119.436	-0.355	-0.063
-735.025	-107.278	0.370	0.083
-734.010	-122.453	0.255	-0.042
-732.996	54.382	-0.100	-0.098
-731.981	12.727	0.241	-0.189
-730.966	-15.519	-0.031	-0.020
-729.952	190.906	-0.016	-0.025
-728.937	292.279	-0.155	-0.286
-727.923	-92.510	0.119	0.034
-726.908	-200.000	0.025	0.224
-725.894	-104.186	-0.107	0.025
-724.879	93.526	-0.136	-0.157
-723.864	-12.969	0.181	0.120
-722.850	-119.872	-0.227	-0.040
-721.835	380.995	-0.096	0.200
-720.821	-154.696	-0.145	-0.010
-719.806	23.009	0.162	-0.135
-718.791	800.000	-0.124	-0.524
-717.777	-200.000	-0.017	-0.226
-716.762	-72.012	0.078	0.029
-715.748	-138.835	-0.051	-0.006
-714.733	96.276	-0.201	0.233
-713.718	-57.082	-0.196	0.088
-712.704	-200.000	-0.013	0.179
-711.689	-176.238	-0.256	-0.007
-710.675	156.354	-0.011	0.015
-709.660	148.259	-0.142	-0.194
-708.645	-33.491	-0.108	0.060
-707.631	-33.501	0.082	-0.046
-706.616	-4.057	0.133	-0.094
-705.602	-136.046	-0.510	-0.061
-704.587	-126.359	-0.136	0.021
-703.572	-35.976	0.143	0.078
-702.558	-0.571	-0.090	0.065
-701.543	-147.633	-0.285	-0.024
-700.529	6.282	-0.051	-0.038
-699.514	-200.000	-0.030	-0.175
-698.499	2.512	0.238	0.175
-697.485	-36.746	-0.227	0.124
-696.470	10.205	-0.153	0.118
-695.456	-10.395	0.269	0.181
-694.441	-200.000	-0.004	-0.204
-693.426	-95.409	0.294	0.080
-692.412	-200.000	-0.066	-0.304
-691.397	435.917	-0.047	-0.103
-690.383	-174.788	-0.271	0.008
-689.368	-116.924	-0.148	-0.027
-688.354	282.568	0.041	-0.074
-687.339	-200.000	0.011	-0.151
-686.324	20.453	-0.289	-0.237
-685.310	-200.000	-0.026	-0.142
-684.295	32.938	-0.248	-0.218
-683.281	-200.000	0.046	-0.279
-682.266	57.836	-0.044	0.043
-681.251	800.000	0.018	0.073
-680.237	-200.000	-0.036	-0.330
-679.222	-200.000	-0.010	-0.151
-678.208	-200.000	-0.036	-0.342
-677.193	199.625	0.204	-0.317
-676.178	-93.408	-0.200	-0.056
-675.164	-60.635	0.045	0.019
-674.149	800.000	0.064	-0.244
-673.135	-133.362	0.285	0.036
-672.120	-48.968	-0.481	-0.233
-671.105	-16.327	-0.176	0.113
-670.091	-170.551	0.150	-0.005
-669.076	800.000	-0.080	-0.236
-668.062	730.122	0.032	0.087
-667.047	-85.532	0.223	0.070
-666.032	-33.350	-0.412	0.231
-665.018	-61.230	0.041	0.018
-664.003	800.000	-0.080	0.340
-662.989	-52.264	0.236	-0.111
-661.974	-49.458	0.052	0.025
-660.959	-129.573	0.261	0.036
-659.945	45.257	-0.158	-0.148
-658.930	-167.367	0.189	-0.008
-657.916	42.825	0.067	-0.062
-656.901	-121.919	0.270	0.045
-655.886	194.775	0.125	0.192
-654.872	44.288	-0.153	-0.142
-653.857	308.407	0.107	-0.202
-652.843	34.981	0.156	0.138
-651.828	-200.000	-0.003	0.094
-650.814	261.822	0.158	-0.277
-649.799	290.050	-0.088	0.163
-648.784	-140.020	-0.224	-0.024
-647.770	-71.523	-0.164	-0.062
-646.755	-200.000	0.015	-0.124
-645.741	-50.099	-0.345	0.165
-644.726	205.728	-0.067	0.105
-643.711	120.956	-0.193	-0.243
-642.697	-89.795	0.067	0.020
-641.682	-200.000	-0.004	-0.069
-640.668	800.000	-0.048	-0.179
-639.653	800.000	0.044	0.148
-638.638	-200.000	-0.037	-0.236
-637.624	455.640	-0.019	-0.044
-636.609	70.114	-0.089	-0.093
-635.595	-130.303	-0.108	-0.015
-634.580	-19.983	-0.266	-0.166
-633.565	800.000	0.115	0.374
-632.551	-200.000	0.029	0.281
-631.536	-86.023	0.141	-0.044
-630.522	242.556	0.009	0.016
-629.507	213.385	-0.106	-0.170
-628.492	800.000	-0.106	-0.324
-627.478	158.090	0.225	0.315
-626.463	77.118	-0.097	0.104
-625.449	800.000	0.069	0.214
-624.434	-200.000	-0.008	-0.264
-623.419	800.000	0.062	0.181
-622.405	35.556	-0.156	0.138
-621.390	73.468	-0.117	-0.124
-620.376	214.883	0.090	-0.143
-619.361	665.332	-0.118	-0.308
-618.346	4.653	-0.003	-0.002
-617.332	242.117	0.062	0.104
-616.317	-183.173	-0.201	0.004
-615.303	517.078	0.148	0.350
-614.288	-115.288	-0.487	0.093
-613.273	337.620	-0.108	-0.213
-612.259	-104.914	-0.173	0.040
-611.244	-95.615	0.134	0.036
-610.230	800.000	0.105	-0.325
-609.215	-172.853	-0.289	0.009
-608.201	337.667	0.076	0.149
-607.186	196.857	0.102	0.157
-606.171	-33.868	-0.220	0.122
-605.157	-200.000	0.000	-0.078
-604.142	-96.865	-0.258	0.068
-603.128	-160.182	-0.261	0.014
-602.113	-75.845	-0.259	-0.093
-601.098	650.481	-0.044	-0.114
-600.084	410.597	-0.121	0.259
-599.069	-33.807	0.328	-0.182
-598.055	405.672	0.023	0.050
-597.040	-75.319	-0.085	0.031
-596.025	182.115	-0.134	-0.200
-595.011	-200.000	-0.002	-0.230
-593.996	-26.624	0.017	0.010
-592.982	-81.687	0.184	-0.061
-591.967	-89.056	-0.262	0.078
-590.952	129.893	0.283	-0.365
-589.938	93.375	-0.100	-0.115
-588.923	80.026	-0.219	0.237
-587.909	-38.008	-0.111	0.059
-586.894	-125.425	0.273	0.042
-585.879	541.836	0.148	0.357
-584.865	497.573	-0.034	-0.080
-583.850	-93.157	0.003	0.001
-582.836	800.000	-0.048	-0.149
-581.821	211.068	-0.046	-0.073
-580.806	-83.837	0.221	0.071
-579.792	-105.019	-0.270	-0.062
-578.777	0.547	-0.265	-0.191
-577.763	356.684	0.138	0.278
-576.748	-39.740	0.088	0.047
-575.733	-44.108	0.163	0.082
-574.719	-74.417	-0.257	0.094
-573.704	255.340	-0.044	-0.077
-572.690	-40.694	-0.120	0.063
-571.675	-97.646	0.386	0.101
-570.661	-200.000	0.013	-0.132
-569.646	64.932	-0.124	-0.126
-568.631	36.042	-0.128	-0.114
-567.617	-104.794	0.053	0.012
-566.602	-21.899	0.228	-0.140
-565.588	222.211	-0.124	0.201
-564.573	-200.000	-0.036	-0.232
-563.558	-200.000	0.043	-0.217
-562.544	133.739	0.149	0.194
-561.529	-200.000	-0.013	0.090
-560.515	337.467	0.034	-0.067
-559.500	-57.699	-0.186	0.082
-558.485	-143.954	0.101	0.010
-557.471	-66.504	0.172	-0.069
-556.456	-136.936	0.135	0.016
-555.442	-162.804	-0.241	0.012
-554.427	800.000	-0.044	-0.151
-553.412	-42.999	0.264	0.135
-552.398	365.400	0.058	-0.117
-551.383	-172.743	-0.267	-0.008
-550.369	417.029	-0.044	0.096
-549.354	-137.832	-0.220	0.025
-548.339	-200.000	0.028	-0.283
-547.325	14.727	-0.193	0.152
-546.310	-200.000	0.066	-0.505
-545.296	-200.000	-0.001	0.114
-544.281	-70.585	-0.184	-0.070
-543.266	-52.925	0.194	0.090
-542.252	-182.323	0.132	-0.002
-541.237	-60.569	-0.236	-0.101
-540.223	800.000	0.087	-0.301
-539.208	439.046	-0.112	-0.245
-538.193	-200.000	-0.015	-0.108
-537.179	201.232	-0.202	0.313
-536.164	-102.752	-0.070	-0.017
-535.150	-200.000	0.039	-0.206
-534.135	800.000	-0.073	-0.293
-533.121	-127.473	-0.320	-0.047
-532.106	-155.736	-0.362	0.023
-531.091	55.761	0.161	0.157
-530.077	-22.917	0.202	0.123
-529.062	38.875	-0.353	0.317
-528.048	47.980	0.173	-0.163
-527.033	57.701	-0.245	-0.241
-526.018	45.821	0.285	0.265
-525.004	-82.776	-0.259	0.084
-523.989	-102.864	-0.444	-0.106
-522.975	759.156	-0.078	0.212
-521.960	-48.385	-0.209	-0.101
-520.945	800.000	-0.065	-0.268
-519.931	138.580	0.058	0.077
-518.916	-77.502	-0.257	-0.090
-517.902	157.830	-0.048	0.067
-516.887	133.895	0.284	-0.370
-515.872	91.903	-0.237	0.268
-514.858	-22.920	0.169	-0.103
-513.843	-50.859	-0.418	0.198
-512.829	-200.000	-0.017	-0.267
-511.814	-200.000	0.008	0.079
-510.799	-48.108	0.141	-0.068
-509.785	331.039	-0.019	0.036
-508.770	-56.468	-0.380	0.170
-507.756	204.801	-0.068	0.106
-506.741	147.073	0.292	0.395
-505.726	375.002	0.022	0.044
-504.712	-78.203	-0.111	-0.039
-503.697	-44.386	-0.403	0.203
-502.683	-60.269	-0.382	-0.163
-501.668	800.000	-0.012	0.045
-500.653	-182.503	0.250	0.005
-499.639	-34.699	-0.171	-0.094
-498.624	800.000	-0.090	-0.269
-497.610	-200.000	-0.009	0.184
-496.595	10.912	0.260	-0.200
-495.581	-21.211	-0.224	0.138
-494.566	-21.910	-0.296	-0.181
-493.551	800.000	-0.017	0.066
-492.537	424.405	-0.105	-0.228
-491.522	-91.311	0.170	0.049
-490.508	-200.000	-0.007	-0.071
-489.493	-200.000	-0.013	-0.068
-488.478	-200.000	-0.029	-0.158
-487.464	33.105	0.297	0.259
-486.449	-77.818	-0.149	-0.052
-485.435	-157.296	-0.118	0.007
-484.420	-155.718	-0.218	-0.014
-483.405	138.448	-0.099	0.131
-482.391	800.000	0.106	-0.389
-481.376	201.501	0.179	0.277
-480.362	-77.196	0.128	0.045
-479.347	-88.711	0.131	-0.039
-478.332	-91.747	-0.353	-0.101
-477.318	307.826	-0.123	-0.230
-476.303	-200.000	-0.005	-0.093
-475.289	-200.000	0.016	-0.122
-474.274	32.403	-0.373	-0.323
-473.259	655.304	0.014	-0.037
-472.245	-85.473	0.301	-0.094
-471.230	-145.441	-0.165	-0.015
-470.216	-200.000	0.018	-0.122
-469.201	-123.750	-0.102	0.016
-468.186	16.116	0.158	0.125
-467.172	800.000	-0.091	0.277
-466.157	595.018	0.029	-0.071
-465.143	-200.000	-0.029	0.149
-464.128	17.148	0.065	-0.052
-463.113	501.502	0.099	0.230
-462.099	146.830	-0.155	-0.209
-461.084	-24.000	0.097	-0.058
-460.070	275.564	0.138	-0.246
-459.055	-169.021	-0.145	-0.005
-458.040	156.086	-0.040	0.056
-457.026	-158.259	0.059	0.003
-456.011	-118.965	0.234	-0.041
-454.997	800.000	0.084	-0.274
-453.982	800.000	0.116	-0.354
-452.968	525.043	-0.073	-0.172
-451.953	-26.486	0.044	0.026
-450.938	800.000	0.086	-0.280
-449.924	165.126	0.065	0.093
-448.909	800.000	0.021	-0.087
-447.895	467.463	-0.124	0.280
-446.880	133.686	-0.152	-0.197
-445.865	-50.696	-0.055	0.026
-444.851	-164.649	-0.175	-0.008
-443.836	-138.066	-0.114	0.013
-442.822	391.630	0.054	-0.112
-441.807	341.824	0.111	0.217
-440.792	85.575	-0.047	0.052
-439.778	-19.006	0.089	0.056
-438.763	800.000	0.093	0.271
-437.749	300.197	0.071	0.131
-436.734	-200.000	-0.003	0.174
-435.719	84.327	0.312	-0.342
-434.705	176.187	-0.139	0.203
-433.690	-35.244	-0.414	0.226
-432.676	-200.000	-0.062	0.346
-431.661	-160.190	-0.103	-0.006
-430.646	208.446	-0.199	-0.312
-429.632	-200.000	0.048	-0.307
-428.617	-52.682	-0.039	0.018
-427.603	-169.032	0.114	-0.004
-426.588	-4.263	-0.096	-0.067
-425.573	-157.544	0.079	-0.005
-424.559	9.084	0.332	-0.251
-423.544	773.183	0.128	0.350
-422.530	-101.549	0.282	0.069
-421.515	-117.101	-0.093	-0.017
-420.500	190.427	-0.164	-0.247
-419.486	228.737	0.116	0.190
-418.471	-73.282	0.205	-0.075
-417.457	-124.452	-0.175	0.027
-416.442	166.244	0.113	-0.161
-415.428	-102.744	-0.152	0.036
-414.413	-112.539	-0.470	0.094
-413.398	-76.348	0.274	-0.097
-412.384	-32.478	0.059	-0.033
-411.369	-143.151	-0.152	0.015
-410.355	-25.048	0.228	0.135
-409.340	327.446	0.213	0.410
-408.325	22.343	0.106	-0.087
-407.311	-149.457	0.342	0.027
-406.296	-200.000	0.066	0.511
-405.282	21.118	0.241	-0.196
-404.267	455.407	-0.100	-0.223
-403.252	121.884	0.034	0.043
-402.238	-19.390	0.103	0.064
-401.223	38.893	0.112	0.100
-400.209	134.243	0.012	0.015
-399.194	-200.000	-0.046	-0.373
-398.179	31.692	0.126	-0.108
-397.165	-128.918	0.321	-0.045
-396.150	774.265	-0.170	0.466
-395.136	-102.610	-0.038	-0.009
-394.121	-29.330	0.290	0.166
-393.106	-71.979	-0.136	-0.051
-392.092	299.370	-0.258	0.475
-391.077	800.000	0.049	-0.170
-390.063	-90.941	0.143	-0.041
-389.048	203.988	0.108	-0.167
-388.033	-63.869	-0.235	0.096
-387.019	-200.000	0.014	-0.295
-386.004	526.341	-0.094	-0.221
-384.990	-156.898	-0.150	0.009
-383.975	15.000	-0.169	0.133
-382.960	-73.146	-0.212	-0.078
-381.946	-200.000	0.011	0.181
-380.931	160.198	-0.130	-0.182
-379.917	-17.578	-0.108	-0.068
-378.902	119.389	-0.013	0.016
-377.888	-200.000	0.035	0.284
-376.873	-141.062	-0.035	0.004
-375.858	112.370	-0.216	0.262
-374.844	42.806	-0.055	0.050
-373.829	174.562	0.178	-0.258
-372.815	-138.389	-0.428	-0.047
-371.800	98.696	-0.076	0.088
-370.785	199.651	0.088	0.135
-369.771	86.853	0.160	0.177
-368.756	113.722	-0.090	0.110
-367.742	205.867	0.072	-0.112
-366.727	42.384	-0.170	0.154
-365.712	-107.566	0.146	0.032
-364.698	-200.000	0.000	-0.050
-363.683	-9.418	0.362	-0.242
-362.669	-81.422	0.236	-0.078
-361.654	136.890	0.059	-0.077
-360.639	-200.000	0.004	0.058
-359.625	-149.756	-0.042	0.003
-358.610	66.445	0.221	-0.225
-357.596	-200.000	0.016	0.168
-356.581	27.213	-0.195	-0.164
-355.566	8.802	0.131	-0.099
-354.552	-200.000	-0.007	0.202
-353.537	-200.000	0.012	-0.181
-352.523	114.047	0.285	-0.347
-351.508	505.924	-0.100	0.231
-350.493	-17.476	0.040	0.025
-349.479	-85.994	0.124	-0.038
-348.464	72.633	0.061	-0.063
-347.450	-89.001	0.180	-0.053
-346.435	-38.350	-0.080	0.042
-345.420	0.959	0.421	0.302
-344.406	-200.000	0.039	-0.358
-343.391	-46.945	0.245	-0.120
-342.377	86.278	-0.084	-0.092
-341.362	31.518	-0.124	0.106
-340.348	24.958	-0.203	-0.169
-339.333	323.718	0.131	0.251
-338.318	69.520	-0.125	0.129
-337.304	-200.000	0.016	-0.099
-336.289	-148.094	0.139	-0.012
-335.275	-180.898	-0.252	0.005
-334.260	336.035	-0.179	0.348
-333.245	-123.734	-0.228	0.036
-332.231	-200.000	0.036	0.212
-331.216	-2.271	0.150	-0.105
-330.202	800.000	-0.032	0.093
-329.187	-200.000	-0.003	-0.200
-328.172	-200.000	-0.009	0.339
-327.158	-117.651	-0.085	0.015
-326.143	-5.185	0.234	0.161
-325.129	9.492	-0.113	-0.085
-324.114	-0.667	-0.346	0.245
-323.099	491.809	-0.057	0.130
-322.085	-200.000	0.015	0.290
-321.070	466.606	0.041	0.091
-320.056	-200.000	0.033	0.244
-319.041	-197.149	-0.170	0.001
-318.026	-200.000	-0.057	-0.253
-317.012	-179.462	-0.097	0.002
-315.997	155.467	0.016	0.022
-314.983	-200.000	0.012	0.270
-313.968	-28.561	-0.220	0.127
-312.953	-200.000	-0.021	0.165
-311.939	-110.861	0.162	0.033
-310.924	-200.000	-0.005	-0.211
-309.910	241.632	0.171	0.286
-308.895	800.000	-0.078	-0.250
-307.880	-200.000	0.021	-0.171
-306.866	340.636	0.096	-0.187
-305.851	702.876	0.026	-0.068
-304.837	60.952	0.111	-0.110
-303.822	314.094	0.103	0.193
-302.807	283.614	0.323	-0.579
-301.793	-200.000	-0.009	0.094
-300.778	-43.973	0.121	0.061
-299.764	-88.385	-0.133	-0.040
-298.749	-97.523	-0.159	0.041
-297.735	186.340	-0.147	-0.218
-296.720	-200.000	-0.014	-0.272
-295.705	94.922	-0.032	-0.036
-294.691	-26.825	-0.151	-0.088
-293.676	-62.544	0.184	-0.076
-292.662	-200.000	0.012	0.143
-291.647	-111.762	-0.184	0.037
-290.632	452.834	0.090	0.199
-289.618	-111.785	-0.172	-0.035
-288.603	-131.399	-0.063	0.008
-287.589	3.398	0.257	0.187
-286.574	-80.869	-0.282	0.093
-285.559	-169.764	0.198	0.007
-284.545	552.456	-0.242	0.580
-283.530	800.000	0.142	0.410
-282.516	-32.946	-0.327	-0.181
-281.501	800.000	0.026	-0.092
-280.486	-200.000	0.030	0.286
-279.472	-65.561	-0.085	0.034
-278.457	-91.882	0.347	-0.098
-277.443	29.317	0.121	0.103
-276.428	-200.000	0.044	-0.220
-275.413	-152.030	0.239	0.017
-274.399	-200.000	0.010	0.380
-273.384	-21.413	0.051	-0.031
-272.370	-3.005	0.180	-0.125
-271.355	38.443	0.282	-0.251
-270.340	1.934	0.039	-0.028
-269.326	306.536	-0.174	-0.322
-268.311	-200.000	-0.004	-0.339
-267.297	-200.000	0.031	0.460
-266.282	-0.647	0.265	-0.187
-265.267	-92.824	0.264	-0.074
-264.253	277.519	-0.107	0.190
-263.238	-124.150	0.455	0.071
-262.224	800.000	0.161	0.463
-261.209	-43.186	0.163	0.082
-260.195	23.351	-0.236	0.193
-259.180	-200.000	0.024	0.197
-258.165	-123.430	0.282	-0.045
-257.151	-200.000	0.046	0.310
-256.136	87.354	0.115	0.127
-255.122	-16.017	0.091	-0.058
-254.107	-49.077	0.277	-0.132
-253.092	-112.299	0.249	0.050
-252.078	12.055	-0.238	-0.182
-251.063	53.157	0.170	0.162
-250.049	68.499	0.096	-0.098
-249.034	65.617	0.079	-0.080
-248.019	466.321	0.116	-0.258
-247.005	515.102	-0.071	0.165
-245.990	-183.900	-0.244	-0.004
-244.976	-111.628	0.219	0.044
-243.961	58.019	0.038	-0.037
-242.946	-77.755	0.183	0.063
-241.932	-156.760	0.159	-0.010
-240.917	-97.550	-0.025	-0.007
-239.903	123.811	0.082	0.103
-238.888	800.000	-0.042	-0.152
-237.873	-100.361	0.237	-0.059
-236.859	-113.117	-0.285	-0.056
-235.844	-85.432	-0.271	0.084
-234.830	800.000	-0.061	0.204
-233.815	-110.672	-0.112	-0.023
-232.800	-62.656	-0.321	0.132
-231.786	-31.084	0.084	0.047
-230.771	49.835	-0.174	0.163
-229.757	-68.859	0.182	-0.070
-228.742	-173.303	0.176	-0.005
-227.727	210.436	0.168	0.262
-226.713	-56.479	-0.150	-0.066
-225.698	-19.259	-0.134	0.082
-224.684	-42.038	-0.249	-0.127
-223.669	-129.759	-0.121	0.017
-222.655	-26.376	-0.056	0.033
-221.640	137.566	-0.095	-0.123
-220.625	426.002	-0.081	-0.174
-219.611	144.932	-0.059	0.078
-218.596	-120.835	0.145	-0.024
-217.582	-153.741	0.550	0.038
-216.567	-73.232	-0.380	-0.138
-215.552	-39.659	-0.075	0.039
-214.538	800.000	0.030	0.121
-213.523	84.266	0.136	-0.147
-212.509	-200.000	0.011	-0.255
-211.494	-96.075	0.171	0.045
-210.479	-24.689	0.181	0.107
-209.465	-200.000	-0.022	-0.134
-208.450	-9.245	-0.088	-0.058
-207.436	-42.775	0.155	-0.079
-206.421	80.061	0.174	0.186
-205.406	-93.948	-0.184	0.050
-204.392	92.476	0.194	-0.218
-203.377	-200.000	-0.001	-0.239
-202.363	389.387	0.240	-0.494
-201.348	-99.603	0.115	-0.029
-200.333	-110.916	0.454	0.093
-199.319	-200.000	0.010	0.051
-198.304	329.799	0.108	-0.206
-197.290	2.106	0.101	-0.072
-196.275	-124.362	0.395	0.061
-195.260	-200.000	-0.001	0.173
-194.246	262.605	-0.025	0.043
-193.231	538.114	-0.046	-0.108
-192.217	-71.307	0.231	0.086
-191.202	63.944	-0.038	-0.038
-190.187	-142.247	0.181	0.018
-189.173	-22.734	-0.215	-0.129
-188.158	-200.000	0.098	0.455
-187.144	-38.787	0.142	0.074
-186.129	-200.000	-0.015	-0.124
-185.114	53.923	0.050	-0.048
-184.100	95.529	0.314	0.356
-183.085	91.558	-0.186	0.208
-182.071	8.251	0.063	-0.047
-181.056	179.805	-0.182	0.265
-180.042	338.101	0.049	0.095
-179.027	315.543	0.122	0.229
-178.012	587.076	-0.049	0.120
-176.998	-48.851	0.139	-0.066
-175.983	800.000	-0.094	0.384
-174.969	-200.000	-0.031	-0.233
-173.954	-58.819	0.250	0.107
-172.939	319.070	0.145	0.274
-171.925	33.927	-0.301	0.260
-170.910	-124.375	-0.113	-0.017
-169.896	-61.874	-0.199	0.083
-168.881	-38.430	-0.128	-0.067
-167.866	10.528	0.345	-0.261
-166.852	237.687	0.142	-0.234
-165.837	-106.796	-0.316	-0.070
-164.823	108.006	-0.182	0.215
-163.808	-71.589	0.337	0.125
-162.793	-38.306	-0.053	-0.028
-161.779	-26.388	0.510	-0.297
-160.764	38.359	-0.191	-0.169
-159.750	165.562	0.131	0.184
-158.735	1.441	0.040	-0.029
-157.720	800.000	0.106	0.323
-156.706	-200.000	0.019	-0.239
-155.691	76.593	-0.169	-0.177
-154.677	-200.000	0.040	-0.374
-153.662	-119.975	0.344	-0.059
-152.647	800.000	0.074	-0.233
-151.633	-96.068	0.265	-0.070
-150.618	-200.000	-0.050	-0.222
-149.604	-30.577	0.390	0.219
-148.589	-58.566	0.073	0.031
-147.574	466.130	0.026	-0.058
-146.560	318.768	-0.121	0.228
-145.545	38.576	-0.113	-0.100
-144.531	-92.950	0.191	0.053
-143.516	-67.013	0.051	0.020
-142.502	800.000	0.059	-0.189
-141.487	-200.000	-0.017	0.129
-140.472	-200.000	-0.026	0.179
-139.458	-50.347	0.453	-0.212
-138.443	-137.934	-0.150	-0.017
-137.429	-200.000	-0.015	0.234
-136.414	-68.405	0.156	-0.060
-135.399	94.866	0.146	0.164
-134.385	10.746	0.134	0.101
-133.370	19.783	0.027	0.022
-132.356	72.975	-0.155	0.161
-131.341	325.756	-0.155	0.294
-130.326	325.566	0.085	-0.161
-129.312	-124.480	-0.099	0.015
-128.297	-48.284	0.257	0.123
-127.283	-23.703	0.140	0.083
-126.268	159.093	0.098	0.135
-125.253	-93.886	-0.411	-0.112
-124.239	-200.000	-0.023	-0.145
-123.224	443.641	-0.122	-0.266
-122.210	475.026	-0.099	0.222
-121.195	800.000	-0.109	0.358
