DTS Sentinel unit serial number:	SN413079Multiplexer serial number:	ORYXHardware model number:	OX4-SRSoftware version number:	ORYX F/W v4.00 Oryx Data Collector v3.7.2.0data status	okinstallation	princeton_trtdifferential loss correction	single-endedforward channel	channel 4reverse channel	N/Adate	2019/09/12time	06:27:10forward acquisition time	60.00reverse acquisition time	0.00gamma	496.2192k internal	0.2307k external	0.2307temperature offset calibration	1.0061default loss term (dB/km)	0.3790temperature slope calibration	1.0000multiplexer offset coefficient	1.0000multiplexer slope coefficient	1.0000fibre end	0.00T internal ref (°C)	32.17T ext. ref 1 (°C)	1.58T ext. ref 2 (°C)	27.37length (m)	temperature (°C)	Stokes	anti-Stokes-747.200	-114.799	0.247	0.048
-746.185	-10.973	-0.172	-0.116
-745.171	713.532	-0.104	-0.281
-744.156	-181.465	-0.499	-0.010
-743.142	711.547	-0.019	-0.052
-742.127	-123.307	-0.609	0.099
-741.112	-104.363	-0.238	0.056
-740.098	-16.640	-0.181	0.117
-739.083	-167.070	-0.276	-0.011
-738.069	-112.462	0.066	-0.013
-737.054	-109.935	-0.336	-0.072
-736.039	-57.838	-0.115	-0.051
-735.025	-200.000	0.005	0.142
-734.010	-106.717	0.108	-0.024
-732.996	-200.000	0.032	0.214
-731.981	-46.553	0.042	-0.021
-730.966	667.859	-0.023	-0.062
-729.952	-200.000	0.058	0.305
-728.937	218.556	-0.117	-0.190
-727.923	727.354	-0.094	0.255
-726.908	-137.081	0.262	0.030
-725.894	83.853	-0.315	-0.350
-724.879	-39.075	0.092	-0.049
-723.864	-103.652	-0.240	0.057
-722.850	-122.119	0.214	-0.036
-721.835	183.042	-0.092	-0.139
-720.821	3.069	0.301	0.222
-719.806	-200.000	0.018	-0.208
-718.791	-200.000	0.016	0.159
-717.777	800.000	0.014	0.062
-716.762	170.248	0.102	0.148
-715.748	-67.614	-0.148	-0.059
-714.733	-173.638	-0.194	0.006
-713.718	393.388	-0.240	-0.508
-712.704	-29.687	0.155	0.090
-711.689	-39.839	-0.162	-0.086
-710.675	-60.145	-0.263	0.114
-709.660	-174.656	-0.483	0.014
-708.645	-147.600	-0.104	0.009
-707.631	800.000	0.026	0.110
-706.616	-40.286	0.129	0.068
-705.602	795.461	0.132	0.370
-704.587	-200.000	0.019	-0.186
-703.572	-200.000	0.017	0.129
-702.558	20.216	0.305	0.250
-701.543	194.660	-0.110	-0.169
-700.529	-135.175	-0.123	-0.015
-699.514	-200.000	-0.042	-0.238
-698.499	472.955	0.133	-0.305
-697.485	-200.000	0.003	-0.376
-696.470	68.903	0.239	0.249
-695.456	-95.463	-0.318	-0.087
-694.441	-200.000	0.036	0.268
-693.426	800.000	0.044	-0.142
-692.412	179.557	0.079	0.118
-691.397	554.952	-0.127	0.309
-690.383	98.350	-0.128	0.149
-689.368	0.852	-0.154	-0.112
-688.354	-23.980	-0.115	0.070
-687.339	-92.458	-0.324	0.092
-686.324	800.000	0.037	-0.152
-685.310	-89.681	-0.100	0.030
-684.295	652.846	-0.039	-0.102
-683.281	-95.934	-0.190	0.051
-682.266	521.682	0.066	-0.157
-681.251	-105.877	-0.457	-0.105
-680.237	-159.209	-0.208	-0.012
-679.222	-34.733	0.408	-0.226
-678.208	-51.497	0.119	-0.056
-677.193	49.363	0.202	-0.193
-676.178	-100.707	-0.082	0.020
-675.164	59.689	0.057	-0.057
-674.149	291.778	0.106	0.196
-673.135	-200.000	-0.035	0.189
-672.120	86.878	0.219	-0.245
-671.105	373.471	-0.163	0.336
-670.091	86.476	-0.170	-0.190
-669.076	-119.913	-0.105	-0.018
-668.062	-178.450	0.221	-0.005
-667.047	273.026	0.188	-0.336
-666.032	284.843	-0.104	-0.190
-665.018	-41.548	-0.142	-0.074
-664.003	-22.302	0.122	-0.075
-662.989	-200.000	-0.036	-0.207
-661.974	-130.903	0.161	-0.022
-660.959	-93.999	0.045	0.013
-659.945	-200.000	0.006	-0.353
-658.930	423.619	-0.112	0.244
-657.916	-127.081	0.138	0.020
-656.901	800.000	0.040	-0.135
-655.886	-125.790	0.365	-0.056
-654.872	800.000	-0.059	-0.186
-653.857	102.729	-0.103	-0.122
-652.843	-79.124	-0.184	0.063
-651.828	68.958	-0.094	-0.098
-650.814	8.322	-0.067	-0.051
-649.799	-200.000	0.044	-0.201
-648.784	-116.917	0.359	-0.067
-647.770	-162.997	-0.592	0.029
-646.755	-200.000	-0.062	-0.328
-645.741	58.107	0.130	0.129
-644.726	-4.389	-0.153	0.107
-643.711	-199.004	0.238	0.001
-642.697	-136.321	-0.162	0.019
-641.682	800.000	-0.092	0.351
-640.668	-148.146	0.538	-0.045
-639.653	800.000	-0.077	0.334
-638.638	457.283	0.040	-0.090
-637.624	99.501	-0.073	-0.086
-636.609	-78.011	0.045	-0.016
-635.595	115.338	-0.205	-0.254
-634.580	42.490	-0.258	-0.237
-633.565	-72.277	-0.151	0.056
-632.551	124.852	0.191	-0.244
-631.536	800.000	-0.139	0.410
-630.522	-200.000	0.114	0.000
-629.507	-200.000	0.006	-0.238
-628.492	-5.125	0.135	-0.094
-627.478	41.989	-0.375	0.345
-626.463	-178.907	-0.557	0.013
-625.449	-200.000	-0.074	0.356
-624.434	-66.293	-0.107	0.043
-623.419	-200.000	-0.020	0.111
-622.405	-71.763	0.149	0.056
-621.390	-127.748	-0.449	-0.066
-620.376	107.218	0.107	0.129
-619.361	-200.000	0.021	0.238
-618.346	87.396	0.047	-0.053
-617.332	-96.879	0.162	-0.043
-616.317	-105.888	0.146	-0.033
-615.303	-200.000	-0.020	-0.258
-614.288	113.006	-0.211	0.259
-613.273	-31.446	0.223	0.127
-612.259	-71.624	0.319	-0.120
-611.244	-33.423	0.134	0.075
-610.230	-151.037	0.194	-0.015
-609.215	-95.947	-0.023	0.006
-608.201	-200.000	-0.006	-0.046
-607.186	36.996	-0.097	-0.087
-606.171	99.078	0.171	-0.200
-605.157	-121.163	0.410	-0.069
-604.142	189.176	-0.100	-0.152
-603.128	460.877	0.131	-0.295
-602.113	800.000	-0.087	-0.296
-601.098	362.161	-0.167	-0.340
-600.084	16.922	0.111	-0.089
-599.069	221.472	-0.124	0.202
-598.055	800.000	0.086	0.245
-597.040	-81.947	-0.231	-0.076
-596.025	-23.369	-0.105	-0.064
-595.011	646.915	-0.085	-0.218
-593.996	-26.204	0.280	-0.166
-592.982	84.486	0.234	-0.259
-591.967	-200.000	-0.024	-0.415
-590.952	71.649	0.330	-0.346
-589.938	-71.660	-0.055	0.021
-588.923	218.020	-0.093	-0.150
-587.909	-200.000	-0.029	0.353
-586.894	-113.604	-0.379	-0.075
-585.879	-50.855	0.203	0.097
-584.865	-9.459	0.168	-0.113
-583.850	-200.000	0.024	0.225
-582.836	-200.000	-0.011	-0.143
-581.821	800.000	0.089	-0.323
-580.806	107.270	0.112	0.135
-579.792	-200.000	-0.012	0.158
-578.777	185.475	-0.197	0.295
-577.763	-14.059	0.299	-0.195
-576.748	-83.426	-0.163	0.053
-575.733	-200.000	-0.009	-0.064
-574.719	800.000	0.030	-0.096
-573.704	-97.622	0.135	0.035
-572.690	-11.391	0.202	-0.134
-571.675	-143.777	-0.194	0.019
-570.661	291.964	-0.129	0.237
-569.646	-200.000	0.026	-0.122
-568.631	-200.000	0.062	0.342
-567.617	800.000	0.067	0.242
-566.602	-99.010	0.146	0.037
-565.588	-139.931	0.164	0.018
-564.573	215.790	-0.013	0.020
-563.558	800.000	-0.062	-0.225
-562.544	-200.000	-0.027	0.266
-561.529	567.254	0.122	0.298
-560.515	800.000	0.072	-0.231
-559.500	17.344	0.076	-0.061
-558.485	-200.000	0.030	0.212
-557.471	-78.012	0.147	-0.051
-556.456	73.454	0.111	-0.118
-555.442	-98.393	0.269	-0.070
-554.427	-116.741	0.169	-0.031
-553.412	417.351	0.059	0.127
-552.398	-122.258	-0.342	-0.056
-551.383	289.342	0.116	-0.213
-550.369	399.553	0.115	-0.243
-549.354	-18.841	-0.181	-0.114
-548.339	22.013	0.221	0.182
-547.325	326.869	0.061	0.118
-546.310	-116.719	-0.108	-0.020
-545.296	-127.562	0.158	-0.023
-544.281	-179.935	-0.212	0.005
-543.266	338.392	0.144	0.283
-542.252	5.866	-0.080	-0.060
-541.237	46.776	-0.147	-0.138
-540.223	686.497	0.094	-0.248
-539.208	148.300	0.051	0.070
-538.193	-168.473	0.292	-0.011
-537.179	-104.251	-0.202	-0.047
-536.164	-83.032	0.254	0.082
-535.150	-123.646	-0.251	-0.040
-534.135	148.323	-0.125	0.171
-533.121	-178.124	-0.125	0.003
-532.106	-89.723	-0.137	-0.040
-531.091	-88.228	-0.219	0.066
-530.077	458.781	0.120	-0.270
-529.062	-200.000	0.000	-0.086
-528.048	-200.000	0.010	-0.292
-527.033	-51.727	-0.237	-0.111
-526.018	-103.023	-0.232	-0.055
-525.004	-11.888	0.193	-0.128
-523.989	800.000	-0.111	0.345
-522.975	800.000	-0.061	0.177
-521.960	800.000	-0.106	-0.321
-520.945	800.000	0.035	0.114
-519.931	-200.000	-0.022	-0.127
-518.916	-23.767	0.088	0.053
-517.902	351.033	-0.039	-0.079
-516.887	-106.246	-0.087	0.020
-515.872	-200.000	0.003	0.201
-514.858	499.087	-0.088	0.204
-513.843	-61.620	-0.240	0.101
-512.829	68.850	-0.055	0.057
-511.814	-66.533	-0.288	0.115
-510.799	120.434	-0.056	0.070
-509.785	420.103	-0.122	-0.264
-508.770	23.824	0.144	0.119
-507.756	-200.000	0.027	-0.260
-506.741	1.127	-0.200	-0.145
-505.726	57.787	0.100	0.098
-504.712	-200.000	-0.021	0.098
-503.697	-78.952	-0.142	0.049
-502.683	405.481	-0.060	-0.128
-501.668	140.648	0.049	0.066
-500.653	800.000	0.053	0.157
-499.639	-200.000	-0.035	-0.398
-498.624	-200.000	0.003	-0.064
-497.610	-174.112	-0.241	0.007
-496.595	12.945	-0.150	0.117
-495.581	-200.000	-0.005	-0.151
-494.566	177.498	-0.147	0.216
-493.551	3.871	0.133	-0.098
-492.537	-142.568	-0.185	0.018
-491.522	-59.763	-0.456	0.197
-490.508	-98.073	0.268	0.070
-489.493	-127.163	0.162	0.024
-488.478	-72.969	-0.301	-0.111
-487.464	238.087	0.084	0.140
-486.449	-60.284	-0.188	-0.081
-485.435	284.019	0.133	-0.240
-484.420	60.506	-0.061	-0.061
-483.405	119.165	0.106	-0.132
-482.391	800.000	0.094	-0.336
-481.376	794.432	-0.003	-0.009
-480.362	-166.755	-0.296	0.012
-479.347	-133.069	-0.020	-0.003
-478.332	-200.000	-0.018	-0.223
-477.318	-4.157	0.139	0.097
-476.303	687.452	-0.140	-0.368
-475.289	98.300	-0.125	0.145
-474.274	428.714	-0.147	-0.319
-473.259	6.120	0.116	-0.087
-472.245	62.680	0.131	-0.132
-471.230	39.782	-0.072	0.065
-470.216	116.025	-0.076	-0.094
-469.201	-83.739	-0.382	-0.123
-468.186	-200.000	0.011	0.137
-467.172	800.000	-0.017	-0.070
-466.157	17.757	0.295	0.236
-465.143	800.000	-0.038	0.115
-464.128	5.285	-0.093	-0.069
-463.113	27.086	-0.183	0.154
-462.099	195.676	0.046	0.070
-461.084	-200.000	0.007	0.038
-460.070	-200.000	-0.026	0.124
-459.055	-143.701	-0.244	0.023
-458.040	-153.546	0.109	0.008
-457.026	-112.572	-0.459	-0.092
-456.011	-83.829	0.116	0.037
-454.997	-6.226	-0.149	-0.103
-453.982	-55.955	0.238	0.107
-452.968	-110.549	0.301	0.063
-451.953	-29.614	0.210	0.121
-450.938	-166.789	-0.214	0.009
-449.924	47.575	-0.067	-0.063
-448.909	-200.000	0.024	-0.158
-447.895	497.038	0.059	-0.137
-446.880	26.706	0.270	-0.227
-445.865	140.758	-0.183	-0.242
-444.851	800.000	0.160	0.543
-443.836	-144.560	0.181	0.017
-442.822	60.841	0.120	0.120
-441.807	800.000	-0.094	0.284
-440.792	-30.439	-0.283	0.162
-439.778	746.792	0.065	0.176
-438.763	-65.624	-0.127	0.051
-437.749	-200.000	-0.037	0.210
-436.734	-200.000	-0.000	0.127
-435.719	370.392	0.085	-0.172
-434.705	-200.000	0.039	0.201
-433.690	800.000	0.026	0.110
-432.676	-200.000	0.046	0.300
-431.661	127.991	0.086	0.110
-430.646	-1.234	0.172	0.122
-429.632	-116.056	0.112	0.021
-428.617	-3.454	0.293	0.205
-427.603	-58.655	0.190	-0.083
-426.588	-200.000	0.016	-0.248
-425.573	-200.000	0.068	0.618
-424.559	126.071	-0.080	-0.101
-423.544	3.244	0.176	0.129
-422.530	-25.148	0.262	-0.156
-421.515	800.000	-0.065	-0.266
-420.500	-200.000	0.023	-0.143
-419.486	652.953	0.028	0.071
-418.471	17.869	-0.097	-0.078
-417.457	-66.066	0.054	0.022
-416.442	800.000	-0.008	-0.035
-415.428	-58.058	-0.423	0.185
-414.413	800.000	-0.051	0.212
-413.398	-89.598	0.077	0.023
-412.384	494.042	-0.039	-0.091
-411.369	14.146	-0.208	0.163
-410.355	-118.136	-0.181	0.032
-409.340	-200.000	-0.003	0.110
-408.325	-26.309	-0.209	0.123
-407.311	695.139	-0.116	0.305
-406.296	-94.657	0.247	0.067
-405.282	109.915	-0.190	-0.229
-404.267	-34.785	0.223	0.122
-403.252	16.682	0.102	0.081
-402.238	622.668	0.066	0.167
-401.223	220.015	0.094	0.151
-400.209	-200.000	-0.016	0.077
-399.194	-191.043	-0.169	-0.002
-398.179	-83.121	0.089	0.029
-397.165	161.481	0.168	0.235
-396.150	-108.211	0.396	0.086
-395.136	-200.000	-0.001	-0.357
-394.121	297.367	0.090	0.166
-393.106	-200.000	0.055	0.411
-392.092	-66.892	0.242	0.096
-391.077	409.004	-0.032	-0.067
-390.063	144.407	-0.134	-0.180
-389.048	800.000	0.066	-0.234
-388.033	-200.000	0.027	0.160
-387.019	-71.162	0.238	0.090
-386.004	-45.998	-0.061	0.030
-384.990	-200.000	-0.014	0.215
-383.975	145.320	0.232	-0.311
-382.960	36.953	0.075	0.067
-381.946	-200.000	0.012	0.094
-380.931	-26.372	0.031	-0.018
-379.917	-162.655	-0.238	-0.012
-378.902	-200.000	-0.003	-0.043
-377.888	-10.609	-0.186	0.123
-376.873	-50.416	-0.090	-0.043
-375.858	-161.219	0.218	0.011
-374.844	-119.330	-0.272	-0.047
-373.829	-200.000	0.063	0.329
-372.815	-15.766	0.200	0.127
-371.800	14.653	-0.042	0.033
-370.785	-18.540	-0.016	0.010
-369.771	745.354	0.005	0.015
-368.756	100.415	-0.208	0.242
-367.742	-159.841	0.390	0.021
-366.727	-125.577	0.133	0.020
-365.712	-65.095	0.028	0.011
-364.698	302.992	0.124	-0.231
-363.683	91.462	-0.149	-0.167
-362.669	-17.854	-0.266	-0.167
-361.654	74.110	-0.160	0.168
-360.639	-44.513	0.088	-0.044
-359.625	-200.000	-0.010	0.062
-358.610	6.429	-0.402	0.299
-357.596	-48.355	0.288	-0.139
-356.581	600.307	0.148	0.369
-355.566	248.331	0.193	0.327
-354.552	-157.633	-0.074	-0.004
-353.537	57.900	0.192	0.188
-352.523	-200.000	-0.000	0.402
-351.508	139.066	0.202	-0.266
-350.493	-172.022	0.151	0.005
-349.479	33.317	-0.083	-0.072
-348.464	37.265	-0.219	-0.195
-347.450	521.965	0.162	-0.380
-346.435	-112.828	0.254	0.050
-345.420	800.000	0.026	-0.103
-344.406	-200.000	-0.048	-0.326
-343.391	244.002	0.100	0.169
-342.377	-50.301	-0.189	-0.089
-341.362	-30.734	0.262	0.148
-340.348	755.512	0.119	-0.321
-339.333	-12.099	-0.136	0.089
-338.318	64.886	-0.112	0.114
-337.304	647.877	-0.117	-0.300
-336.289	-69.341	-0.115	0.044
-335.275	-120.479	-0.161	-0.027
-334.260	9.320	0.181	0.137
-333.245	243.794	-0.198	-0.333
-332.231	-67.496	-0.338	0.133
-331.216	269.690	-0.026	-0.046
-330.202	800.000	0.058	0.183
-329.187	-24.866	-0.259	0.154
-328.172	-200.000	-0.007	-0.283
-327.158	0.060	0.164	-0.117
-326.143	-121.837	-0.086	0.014
-325.129	-128.286	0.135	0.019
-324.114	-200.000	0.032	-0.183
-323.099	-151.745	-0.188	-0.014
-322.085	219.960	-0.109	-0.175
-321.070	800.000	-0.107	-0.426
-320.056	570.070	0.105	0.256
-319.041	800.000	-0.025	-0.082
-318.026	-40.664	-0.196	-0.101
-317.012	-92.903	-0.215	0.060
-315.997	800.000	-0.080	-0.308
-314.983	-124.576	0.205	-0.032
-313.968	140.721	-0.096	-0.127
-312.953	-140.286	-0.235	-0.025
-311.939	-86.397	-0.203	0.062
-310.924	89.854	-0.080	-0.089
-309.910	-200.000	0.013	-0.142
-308.895	52.945	0.149	0.142
-307.880	-83.751	0.294	-0.094
-306.866	-165.356	0.408	0.018
-305.851	-40.279	-0.291	-0.151
-304.837	-119.449	-0.151	0.026
-303.822	-12.872	0.253	-0.165
-302.807	-11.841	0.147	-0.096
-301.793	-10.104	0.118	-0.078
-300.778	164.040	0.142	-0.200
-299.764	-200.000	0.014	-0.239
-298.749	-27.377	-0.259	0.151
-297.735	352.444	0.064	0.126
-296.720	-200.000	-0.155	-0.000
-295.705	-200.000	-0.018	-0.110
-294.691	-103.504	-0.248	0.058
-293.676	-200.000	0.007	0.322
-292.662	-97.620	0.501	0.130
-291.647	-65.409	-0.203	-0.082
-290.632	-41.897	-0.126	0.064
-289.618	144.440	0.225	-0.300
-288.603	259.327	-0.085	-0.146
-287.589	800.000	0.081	-0.260
-286.574	268.002	-0.102	0.179
-285.559	-34.378	-0.166	0.091
-284.545	-120.961	-0.238	0.040
-283.530	53.680	-0.112	0.107
-282.516	315.984	-0.179	-0.338
-281.501	776.139	0.093	0.253
-280.486	-9.548	0.269	-0.179
-279.472	103.402	0.040	-0.047
-278.457	126.298	-0.222	0.281
-277.443	554.000	0.086	-0.206
-276.428	29.476	-0.140	0.119
-275.413	-65.623	0.161	0.064
-274.399	800.000	-0.046	0.150
-273.384	184.430	0.085	-0.126
-272.370	-200.000	-0.082	0.469
-271.355	800.000	-0.011	0.046
-270.340	2.579	0.090	-0.065
-269.326	-200.000	-0.015	-0.279
-268.311	-200.000	0.039	-0.193
-267.297	55.924	-0.149	0.144
-266.282	187.531	-0.146	0.218
-265.267	-25.160	0.170	-0.100
-264.253	113.043	-0.100	-0.120
-263.238	233.614	-0.124	0.203
-262.224	57.566	0.290	0.283
-261.209	43.079	-0.037	-0.034
-260.195	4.637	-0.228	-0.167
-259.180	-176.324	0.092	0.002
-258.165	81.966	0.272	-0.294
-257.151	-20.250	-0.109	-0.067
-256.136	-57.020	-0.263	0.116
-255.122	528.208	0.058	0.137
-254.107	-200.000	-0.022	-0.342
-253.092	-26.739	0.345	0.201
-252.078	-55.221	0.451	0.202
-251.063	45.546	0.110	-0.102
-250.049	62.259	0.111	-0.110
-249.034	711.942	-0.068	0.179
-248.019	800.000	0.067	0.223
-247.005	-139.387	-0.375	-0.040
-245.990	-120.754	0.321	-0.054
-244.976	-117.348	0.176	-0.032
-243.961	21.383	-0.144	-0.117
-242.946	-81.592	-0.289	-0.095
-241.932	66.610	-0.283	-0.287
-240.917	-200.000	-0.048	0.380
-239.903	27.263	0.115	0.096
-238.888	-119.960	-0.121	-0.021
-237.873	101.883	0.171	0.199
-236.859	800.000	-0.043	0.129
-235.844	179.142	0.165	-0.241
-234.830	57.538	0.060	0.059
-233.815	608.612	0.126	-0.313
-232.800	-200.000	0.097	-0.556
-231.786	-86.145	0.290	0.089
-230.771	249.657	-0.232	-0.392
-229.757	52.000	-0.111	-0.106
-228.742	-200.000	-0.071	0.359
-227.727	-200.000	-0.019	-0.219
-226.713	-102.293	0.305	-0.073
-225.698	800.000	-0.016	-0.060
-224.684	800.000	-0.023	0.080
-223.669	-200.000	-0.003	0.093
-222.655	-162.947	0.119	-0.006
-221.640	-200.000	-0.183	0.001
-220.625	800.000	0.048	0.174
-219.611	-68.452	0.180	0.070
-218.596	-141.043	-0.115	0.012
-217.582	-138.082	0.139	0.015
-216.567	800.000	-0.070	-0.265
-215.552	205.462	0.139	0.215
-214.538	800.000	-0.030	0.105
-213.523	-17.118	0.140	0.088
-212.509	115.415	0.117	-0.142
-211.494	119.234	-0.013	-0.016
-210.479	-183.690	-0.217	-0.004
-209.465	111.186	-0.159	0.190
-208.450	-200.000	0.056	-0.262
-207.436	800.000	-0.061	0.169
-206.421	-104.488	0.073	0.017
-205.406	76.446	-0.048	-0.051
-204.392	-193.391	-0.170	-0.001
-203.377	-11.836	0.174	0.114
-202.363	52.165	-0.024	0.023
-201.348	-65.637	-0.102	-0.041
-200.333	-200.000	0.009	0.138
-199.319	-200.000	0.044	-0.577
-198.304	-76.405	-0.293	-0.102
-197.290	-200.000	-0.014	0.088
-196.275	-23.897	0.024	-0.014
-195.260	341.358	-0.085	0.166
-194.246	-200.000	-0.256	0.001
-193.231	-62.871	0.338	0.139
-192.217	58.799	0.185	0.181
-191.202	-50.455	-0.039	-0.018
-190.187	-200.000	0.018	-0.292
-189.173	-41.143	0.083	0.042
-188.158	368.982	0.123	0.248
-187.144	249.431	0.102	0.173
-186.129	-38.957	0.268	-0.140
-185.114	-75.963	-0.274	0.096
-184.100	-200.000	0.038	0.355
-183.085	-200.000	0.154	-0.000
-182.071	-98.062	-0.226	-0.058
-181.056	19.640	0.162	0.130
-180.042	772.909	-0.058	0.157
-179.027	-101.065	-0.035	0.009
-178.012	253.618	0.113	0.193
-176.998	-200.000	0.037	0.214
-175.983	2.343	-0.113	0.081
-174.969	-114.756	-0.111	-0.021
-173.954	-161.971	-0.245	-0.012
-172.939	-200.000	0.017	-0.273
-171.925	22.098	0.067	0.054
-170.910	97.358	-0.200	0.228
-169.896	222.647	0.042	0.067
-168.881	250.848	0.161	-0.272
-167.866	-200.000	0.033	-0.207
-166.852	506.525	0.011	-0.024
-165.837	-58.082	0.143	0.062
-164.823	518.083	-0.041	0.095
-163.808	-105.403	-0.317	-0.072
-162.793	-57.652	0.068	0.029
-161.779	492.908	0.079	0.180
-160.764	-200.000	-0.026	-0.142
-159.750	759.809	0.112	0.301
-158.735	147.254	-0.260	-0.348
-157.720	-200.000	0.012	0.164
-156.706	-53.216	0.208	-0.095
-155.691	-8.907	-0.177	0.118
-154.677	-200.000	-0.009	-0.069
-153.662	288.984	0.080	-0.144
-152.647	-135.223	0.294	0.035
-151.633	630.236	-0.058	-0.146
-150.618	-200.000	-0.035	-0.318
-149.604	-105.634	-0.135	0.030
-148.589	800.000	-0.041	-0.144
-147.574	-200.000	0.025	0.426
-146.560	26.457	-0.263	0.218
-145.545	-41.960	-0.182	-0.092
-144.531	259.160	0.080	0.137
-143.516	800.000	-0.105	0.342
-142.502	-200.000	0.016	-0.206
-141.487	-32.303	-0.163	-0.090
-140.472	-46.902	-0.196	0.095
-139.458	731.492	-0.068	0.181
-138.443	49.925	0.165	0.155
-137.429	42.448	-0.013	-0.012
-136.414	423.435	0.077	0.164
-135.399	-89.842	-0.225	-0.065
-134.385	-136.174	0.167	-0.019
-133.370	269.690	0.121	-0.211
-132.356	104.775	0.104	0.122
-131.341	267.658	0.112	-0.195
-130.326	-130.159	0.338	0.046
-129.312	-194.732	0.097	0.001
-128.297	-200.000	0.009	0.202
-127.283	125.118	-0.139	0.173
-126.268	-86.036	0.171	-0.052
-125.253	283.609	0.153	0.273
-124.239	-200.000	0.014	-0.341
-123.224	-133.409	0.087	0.011
-122.210	-18.325	0.134	-0.083
