DTS Sentinel unit serial number:	SN413079Multiplexer serial number:	ORYXHardware model number:	OX4-SRSoftware version number:	ORYX F/W v4.00 Oryx Data Collector v3.7.2.0data status	okinstallation	princeton_trtdifferential loss correction	single-endedforward channel	channel 4reverse channel	N/Adate	2019/09/10time	21:51:11forward acquisition time	60.00reverse acquisition time	0.00gamma	496.2192k internal	0.2314k external	0.2314temperature offset calibration	0.9947default loss term (dB/km)	0.3790temperature slope calibration	1.0000multiplexer offset coefficient	1.0000multiplexer slope coefficient	1.0000fibre end	0.00T internal ref (°C)	30.81T ext. ref 1 (°C)	-0.31T ext. ref 2 (°C)	24.07length (m)	temperature (°C)	Stokes	anti-Stokes-747.200	-54.968	0.099	0.045
-746.185	-104.721	-0.403	0.094
-745.171	539.835	0.089	0.214
-744.156	800.000	-0.079	0.278
-743.142	-200.000	-0.003	-0.216
-742.127	-108.997	-0.084	0.018
-741.112	601.257	-0.112	-0.281
-740.098	264.044	0.162	0.285
-739.083	3.520	0.002	0.002
-738.069	-200.000	-0.021	-0.110
-737.054	64.348	-0.224	-0.229
-736.039	-194.120	-0.119	-0.001
-735.025	800.000	-0.073	0.227
-734.010	204.373	0.074	-0.116
-732.996	212.846	-0.133	-0.213
-731.981	-200.000	-0.007	-0.128
-730.966	-127.362	0.257	-0.038
-729.952	-200.000	0.037	0.186
-728.937	-90.697	0.210	0.061
-727.923	-83.126	0.194	0.063
-726.908	800.000	0.054	-0.168
-725.894	-153.664	-0.239	0.017
-724.879	213.831	0.099	-0.159
-723.864	42.328	-0.257	0.237
-722.850	36.552	0.205	-0.184
-721.835	-48.174	0.238	-0.116
-720.821	-141.525	-0.149	0.015
-719.806	3.504	-0.151	-0.111
-718.791	-114.389	-0.284	0.055
-717.777	219.022	-0.065	-0.105
-716.762	607.565	-0.062	0.156
-715.748	-29.469	-0.255	-0.147
-714.733	-136.660	0.065	0.008
-713.718	45.058	0.009	-0.009
-712.704	-30.509	-0.144	0.083
-711.689	-7.018	0.150	0.103
-710.675	-200.000	-0.014	-0.110
-709.660	-200.000	0.002	0.172
-708.645	73.582	-0.215	-0.228
-707.631	13.715	0.082	0.064
-706.616	800.000	0.032	0.101
-705.602	488.327	0.105	-0.243
-704.587	-118.555	0.326	-0.058
-703.572	50.978	0.165	-0.158
-702.558	800.000	0.162	-0.500
-701.543	139.996	-0.130	0.174
-700.529	800.000	0.016	-0.065
-699.514	-200.000	-0.041	0.222
-698.499	-200.000	0.038	-0.253
-697.485	-91.072	-0.172	-0.050
-696.470	28.214	0.037	-0.031
-695.456	800.000	-0.094	0.270
-694.441	510.828	-0.114	0.268
-693.426	-200.000	0.009	-0.187
-692.412	800.000	0.046	0.176
-691.397	131.936	0.240	-0.312
-690.383	196.047	0.094	-0.145
-689.368	113.239	-0.133	0.164
-688.354	-200.000	-0.037	-0.183
-687.339	-43.151	-0.068	-0.035
-686.324	140.953	0.039	-0.052
-685.310	-61.518	-0.192	0.081
-684.295	11.649	-0.327	0.254
-683.281	-108.874	0.137	0.030
-682.266	-178.156	-0.255	-0.006
-681.251	-196.481	-0.375	0.003
-680.237	-91.648	-0.294	-0.085
-679.222	-107.070	-0.287	-0.064
-678.208	65.432	0.037	0.038
-677.193	-200.000	-0.101	-0.479
-676.178	-20.910	0.176	-0.109
-675.164	-200.000	0.101	-0.451
-674.149	28.607	0.149	0.127
-673.135	-122.264	0.291	0.048
-672.120	375.500	-0.117	0.241
-671.105	-160.337	-0.035	-0.002
-670.091	-92.255	0.191	0.054
-669.076	114.072	-0.043	0.053
-668.062	-200.000	-0.012	-0.083
-667.047	139.697	0.045	0.060
-666.032	275.150	0.153	-0.275
-665.018	-38.912	0.139	-0.074
-664.003	150.734	0.131	-0.180
-662.989	49.196	0.078	-0.074
-661.974	223.867	-0.045	-0.073
-660.959	-30.811	0.223	0.128
-659.945	-59.063	-0.272	-0.118
-658.930	-112.060	-0.164	0.033
-657.916	800.000	-0.044	0.187
-656.901	56.711	-0.217	-0.213
-655.886	-32.985	-0.144	0.081
-654.872	-68.003	-0.141	0.055
-653.857	-200.000	-0.021	-0.126
-652.843	-200.000	-0.040	-0.232
-651.828	44.259	-0.395	0.366
-650.814	-86.844	-0.220	-0.068
-649.799	-51.849	-0.163	0.077
-648.784	-146.749	-0.054	-0.005
-647.770	251.190	0.088	0.151
-646.755	-130.274	-0.212	-0.029
-645.741	-200.000	0.001	0.069
-644.726	620.160	-0.085	-0.216
-643.711	38.561	-0.067	0.060
-642.697	294.499	0.111	-0.204
-641.682	-132.387	-0.120	-0.016
-640.668	-200.000	-0.077	-0.761
-639.653	-44.337	-0.154	0.078
-638.638	164.190	0.239	0.339
-637.624	92.662	0.251	0.286
-636.609	366.440	0.061	-0.124
-635.595	-178.710	0.110	-0.003
-634.580	-200.000	-0.038	-0.167
-633.565	7.083	-0.271	-0.204
-632.551	-26.394	0.251	0.149
-631.536	403.752	0.061	-0.129
-630.522	800.000	-0.052	-0.154
-629.507	-125.702	-0.434	-0.066
-628.492	-200.000	0.040	-0.261
-627.478	-200.000	-0.000	-0.328
-626.463	-130.082	-0.109	-0.015
-625.449	-70.278	-0.135	0.052
-624.434	-120.156	0.354	-0.061
-623.419	-62.836	0.293	-0.122
-622.405	142.372	0.266	0.356
-621.390	-200.000	0.030	-0.158
-620.376	-29.193	-0.227	0.131
-619.361	480.813	-0.162	0.370
-618.346	-200.000	0.015	-0.107
-617.332	-200.000	-0.032	0.219
-616.317	22.405	0.246	0.203
-615.303	492.594	-0.044	0.102
-614.288	-47.765	0.090	-0.044
-613.273	-17.271	-0.414	-0.263
-612.259	-115.165	0.257	0.049
-611.244	-55.822	-0.097	0.044
-610.230	-121.873	0.211	-0.035
-609.215	-125.779	0.331	-0.050
-608.201	-47.879	0.215	0.105
-607.186	-200.000	-0.130	-0.000
-606.171	685.526	0.090	0.237
-605.157	-114.082	0.052	-0.010
-604.142	-20.140	-0.193	0.120
-603.128	800.000	0.010	-0.044
-602.113	61.990	0.207	-0.208
-601.098	-37.416	-0.165	0.089
-600.084	47.820	-0.311	-0.292
-599.069	179.149	-0.200	-0.295
-598.055	-200.000	0.005	-0.244
-597.040	-72.495	-0.139	0.052
-596.025	100.532	-0.035	-0.040
-595.011	-126.847	0.279	-0.042
-593.996	368.694	0.185	0.376
-592.982	-200.000	-0.013	-0.236
-591.967	800.000	0.099	0.277
-590.952	382.694	-0.063	-0.130
-589.938	-6.311	0.251	0.173
-588.923	-23.386	-0.092	-0.056
-587.909	430.036	-0.068	0.148
-586.894	-200.000	0.026	0.309
-585.879	-200.000	-0.001	0.061
-584.865	-147.858	0.091	0.008
-583.850	-110.888	0.071	-0.015
-582.836	547.664	0.030	0.072
-581.821	-200.000	0.000	0.008
-580.806	-118.145	-0.365	-0.066
-579.792	-96.068	-0.124	0.033
-578.777	129.480	-0.060	-0.077
-577.763	-67.092	0.115	0.046
-576.748	-156.849	0.088	0.005
-575.733	223.948	-0.061	-0.099
-574.719	73.758	0.216	0.228
-573.704	-23.674	0.151	0.091
-572.690	144.431	0.049	-0.065
-571.675	132.075	0.020	0.026
-570.661	-200.000	0.004	-0.326
-569.646	-133.069	-0.114	0.015
-568.631	-0.109	-0.063	0.045
-567.617	647.576	0.088	-0.225
-566.602	-72.006	-0.252	-0.094
-565.588	362.482	0.024	0.049
-564.573	800.000	-0.024	-0.078
-563.558	15.218	0.257	-0.203
-562.544	-148.723	-0.122	-0.010
-561.529	-120.621	-0.203	0.035
-560.515	157.612	-0.081	-0.113
-559.500	-97.902	0.084	0.022
-558.485	71.407	-0.094	-0.098
-557.471	212.253	0.124	-0.197
-556.456	-7.361	-0.257	-0.175
-555.442	-200.000	0.005	-0.029
-554.427	-91.769	-0.132	-0.038
-553.412	117.038	-0.065	0.080
-552.398	30.629	0.054	-0.047
-551.383	48.059	0.118	-0.111
-550.369	-200.000	-0.007	0.164
-549.354	-55.367	0.215	-0.097
-548.339	-44.494	-0.350	0.176
-547.325	628.394	0.143	0.364
-546.310	-8.911	0.120	0.081
-545.296	394.356	-0.110	-0.230
-544.281	138.847	-0.037	0.049
-543.266	-97.402	0.255	-0.067
-542.252	54.794	0.486	-0.471
-541.237	-48.823	-0.208	0.100
-540.223	-53.239	0.173	0.080
-539.208	-62.877	-0.248	0.103
-538.193	-46.298	-0.127	-0.063
-537.179	-110.422	0.289	-0.060
-536.164	-67.403	-0.025	-0.010
-535.150	90.877	-0.162	0.183
-534.135	800.000	-0.057	0.197
-533.121	-81.476	0.040	0.013
-532.106	-157.254	-0.093	-0.006
-531.091	243.745	-0.038	-0.063
-530.077	-200.000	-0.022	-0.450
-529.062	-142.354	-0.066	0.007
-528.048	-200.000	-0.059	0.298
-527.033	221.368	0.179	0.289
-526.018	-200.000	-0.011	0.392
-525.004	-78.217	-0.243	-0.084
-523.989	-200.000	0.034	-0.240
-522.975	-200.000	0.005	0.247
-521.960	-35.559	-0.228	-0.124
-520.945	14.990	-0.133	0.104
-519.931	800.000	-0.047	0.154
-518.916	-200.000	-0.040	-0.323
-517.902	-33.988	0.215	-0.119
-516.887	-80.913	0.261	0.087
-515.872	22.349	-0.134	-0.110
-514.858	116.542	-0.158	0.195
-513.843	7.197	0.225	0.168
-512.829	535.136	0.095	0.227
-511.814	800.000	-0.043	-0.138
-510.799	28.321	0.094	0.080
-509.785	141.419	-0.103	0.137
-508.770	-88.796	-0.243	-0.073
-507.756	162.468	-0.221	0.312
-506.741	-200.000	0.049	-0.258
-505.726	-59.805	0.146	0.063
-504.712	52.770	0.180	0.173
-503.697	550.383	-0.180	0.435
-502.683	-144.738	-0.471	0.043
-501.668	53.945	0.165	-0.160
-500.653	-49.034	0.136	-0.065
-499.639	-200.000	-0.032	-0.194
-498.624	713.724	-0.049	-0.129
-497.610	60.017	-0.129	0.128
-496.595	-145.468	0.383	0.035
-495.581	-7.607	0.147	-0.100
-494.566	-200.000	-0.032	-0.233
-493.551	55.006	0.350	-0.339
-492.537	30.772	-0.182	-0.156
-491.522	-130.387	-0.170	0.023
-490.508	-200.000	-0.015	-0.250
-489.493	-200.000	0.034	0.249
-488.478	-123.939	0.340	0.054
-487.464	48.604	-0.196	-0.185
-486.449	300.496	0.090	-0.167
-485.435	-60.992	0.344	-0.146
-484.420	-7.595	-0.233	0.158
-483.405	-186.929	0.105	0.001
-482.391	236.151	-0.061	0.102
-481.376	163.613	-0.189	-0.266
-480.362	100.887	0.137	0.159
-479.347	-200.000	0.028	0.148
-478.332	-36.845	-0.148	-0.080
-477.318	48.580	0.174	0.163
-476.303	153.252	0.043	-0.059
-475.289	283.468	0.036	-0.065
-474.274	-104.299	-0.229	-0.053
-473.259	-143.662	-0.160	0.015
-472.245	101.330	0.174	0.203
-471.230	474.547	0.036	0.083
-470.216	16.652	-0.119	0.095
-469.201	72.691	-0.218	-0.228
-468.186	796.362	0.137	-0.378
-467.172	-70.493	0.083	0.031
-466.157	527.878	0.177	0.419
-465.143	-145.889	-0.211	0.019
-464.128	-146.677	0.115	0.010
-463.113	203.250	-0.139	0.216
-462.099	4.300	-0.299	-0.220
-461.084	-84.635	-0.123	-0.039
-460.070	-22.403	0.007	0.004
-459.055	123.253	0.073	0.092
-458.040	800.000	0.126	-0.362
-457.026	800.000	0.054	0.231
-456.011	115.463	-0.121	-0.148
-454.997	-107.416	0.195	0.043
-453.982	53.427	-0.107	-0.103
-452.968	-41.528	0.172	0.088
-451.953	-46.269	-0.231	0.114
-450.938	-200.000	0.076	0.437
-449.924	173.445	0.055	0.079
-448.909	-56.310	-0.297	0.132
-447.895	-179.493	0.221	-0.005
-446.880	-62.333	-0.111	-0.046
-445.865	-17.152	-0.217	-0.137
-444.851	-200.000	0.026	0.180
-443.836	-29.345	-0.223	0.128
-442.822	-200.000	-0.111	-0.000
-441.807	275.734	-0.163	-0.289
-440.792	-144.565	-0.131	0.012
-439.778	800.000	-0.039	-0.128
-438.763	-160.881	0.244	-0.013
-437.749	15.015	0.134	0.105
-436.734	-200.000	0.058	0.331
-435.719	39.582	-0.207	0.186
-434.705	185.337	0.159	0.236
-433.690	800.000	-0.058	-0.230
-432.676	-7.338	-0.154	-0.104
-431.661	5.275	-0.146	-0.108
-430.646	-111.851	-0.070	0.014
-429.632	207.351	-0.090	-0.141
-428.617	-200.000	0.043	0.228
-427.603	207.585	0.306	-0.478
-426.588	-55.919	-0.139	0.062
-425.573	71.833	0.169	-0.176
-424.559	-96.089	-0.306	0.082
-423.544	526.017	-0.103	0.243
-422.530	445.408	-0.028	0.061
-421.515	33.448	0.294	0.256
-420.500	-30.736	-0.288	0.163
-419.486	75.791	-0.284	-0.300
-418.471	201.903	-0.212	-0.327
-417.457	-73.030	-0.241	-0.089
-416.442	50.893	-0.291	-0.276
-415.428	-200.000	-0.026	0.141
-414.413	-54.607	0.310	-0.140
-413.398	185.116	0.080	-0.119
-412.384	-72.904	-0.071	0.026
-411.369	-131.930	-0.617	-0.081
-410.355	-200.000	0.101	0.000
-409.340	296.305	0.039	0.072
-408.325	-72.014	-0.199	-0.074
-407.311	33.809	-0.257	0.224
-406.296	-200.000	0.013	-0.322
-405.282	-200.000	0.011	-0.068
-404.267	-86.279	0.524	-0.161
-403.252	203.067	-0.124	0.191
-402.238	-18.721	0.257	-0.160
-401.223	-48.181	-0.321	-0.155
-400.209	-200.000	0.012	-0.140
-399.194	-31.223	0.125	-0.071
-398.179	-200.000	0.056	-0.433
-397.165	119.074	0.353	-0.437
-396.150	-49.976	-0.075	0.036
-395.136	-63.367	0.071	0.029
-394.121	83.252	0.025	-0.027
-393.106	-78.070	-0.154	0.053
-392.092	-47.140	-0.262	0.128
-391.077	-43.360	-0.348	0.176
-390.063	-75.930	0.080	-0.028
-389.048	-47.112	-0.213	-0.104
-388.033	800.000	0.143	0.440
-387.019	95.772	-0.138	0.157
-386.004	2.679	0.087	0.063
-384.990	43.750	0.071	0.065
-383.975	342.246	0.160	0.313
-382.960	-46.247	-0.217	-0.107
-381.946	116.001	0.092	-0.113
-380.931	461.075	0.149	-0.332
-379.917	157.659	0.201	0.278
-378.902	-200.000	0.081	0.383
-377.888	-111.641	0.037	-0.007
-376.873	-200.000	-0.056	0.267
-375.858	102.856	0.266	-0.311
-374.844	330.823	-0.052	-0.100
-373.829	-200.000	0.075	-0.441
-372.815	42.740	0.110	0.100
-371.800	-200.000	0.033	-0.382
-370.785	-24.842	-0.095	0.056
-369.771	33.838	0.251	0.218
-368.756	-200.000	-0.000	-0.089
-367.742	-110.256	-0.334	-0.070
-366.727	-102.501	0.323	0.077
-365.712	-200.000	0.002	-0.289
-364.698	69.816	0.241	0.248
-363.683	800.000	-0.110	0.343
-362.669	-200.000	-0.007	-0.215
-361.654	-127.431	0.188	0.027
-360.639	-142.145	0.143	0.014
-359.625	800.000	0.106	0.376
-358.610	-200.000	-0.021	0.177
-357.596	-118.943	0.140	0.025
-356.581	116.287	-0.054	0.066
-355.566	101.431	-0.101	0.117
-354.552	-129.197	-0.095	-0.013
-353.537	266.735	0.188	0.329
-352.523	-127.241	-0.361	-0.053
-351.508	43.225	0.077	0.070
-350.493	800.000	-0.028	-0.089
-349.479	-64.763	0.121	-0.049
-348.464	28.723	0.105	0.089
-347.450	-12.625	0.265	-0.172
-346.435	-26.602	-0.143	0.084
-345.420	800.000	-0.087	-0.288
-344.406	-51.756	-0.227	0.105
-343.391	800.000	-0.027	0.087
-342.377	800.000	0.024	-0.089
-341.362	180.090	-0.109	-0.159
-340.348	-13.527	0.255	0.165
-339.333	-153.506	0.030	-0.002
-338.318	-200.000	-0.006	-0.260
-337.304	800.000	-0.094	-0.310
-336.289	246.897	0.115	0.194
-335.275	800.000	-0.105	-0.315
-334.260	-156.403	0.156	-0.010
-333.245	800.000	0.034	-0.121
-332.231	-200.000	-0.046	-0.278
-331.216	-200.000	0.004	0.097
-330.202	-200.000	0.032	0.147
-329.187	154.142	0.110	0.150
-328.172	-200.000	-0.039	-0.344
-327.158	-80.968	0.228	0.075
-326.143	-38.443	-0.006	-0.003
-325.129	52.526	-0.124	0.118
-324.114	-200.000	0.002	-0.178
-323.099	337.233	-0.073	-0.142
-322.085	261.258	0.054	0.093
-321.070	800.000	-0.019	0.077
-320.056	65.869	0.184	0.186
-319.041	800.000	0.061	0.256
-318.026	483.952	-0.120	0.273
-317.012	-186.074	0.181	0.003
-315.997	138.298	-0.110	0.143
-314.983	-83.721	0.210	-0.067
-313.968	-178.252	-0.243	0.006
-312.953	1.609	-0.223	-0.160
-311.939	-100.063	-0.086	0.021
-310.924	-200.000	0.003	-0.126
-309.910	79.630	-0.229	-0.245
-308.895	-179.950	-0.098	-0.002
-307.880	753.616	0.068	0.183
-306.866	-200.000	0.060	0.402
-305.851	-73.451	0.292	-0.106
-304.837	46.418	-0.138	-0.128
-303.822	-200.000	-0.028	-0.178
-302.807	800.000	0.043	-0.126
-301.793	800.000	0.074	0.235
-300.778	155.847	-0.190	0.261
-299.764	800.000	-0.081	0.327
-298.749	-70.713	-0.160	-0.060
-297.735	51.132	0.127	-0.120
-296.720	-3.319	0.191	-0.133
-295.705	-98.172	0.238	-0.061
-294.691	77.673	-0.252	0.267
-293.676	800.000	0.114	0.364
-292.662	-37.338	0.243	-0.129
-291.647	344.587	-0.064	0.125
-290.632	-21.910	0.210	-0.127
-289.618	687.292	0.040	-0.104
-288.603	-200.000	0.023	-0.159
-287.589	8.305	-0.104	0.078
-286.574	-54.571	-0.242	0.109
-285.559	-200.000	-0.014	-0.357
-284.545	-29.569	0.122	0.070
-283.530	530.020	-0.038	-0.089
-282.516	79.781	0.015	-0.016
-281.501	800.000	0.040	-0.135
-280.486	-71.141	0.169	-0.063
-279.472	496.365	0.076	0.174
-278.457	-134.750	0.047	-0.006
-277.443	56.786	-0.153	0.148
-276.428	800.000	-0.088	-0.356
-275.413	800.000	-0.044	0.156
-274.399	-76.666	0.335	0.117
-273.384	89.159	0.047	-0.053
-272.370	43.215	-0.103	-0.094
-271.355	-85.975	0.199	0.061
-270.340	800.000	-0.033	-0.095
-269.326	-148.248	-0.347	0.029
-268.311	-110.363	-0.090	-0.019
-267.297	-200.000	-0.024	-0.218
-266.282	-50.668	-0.254	-0.119
-265.267	585.528	0.083	-0.202
-264.253	408.456	-0.121	-0.254
-263.238	254.242	-0.056	0.095
-262.224	-23.637	0.067	0.040
-261.209	800.000	-0.028	0.113
-260.195	98.165	-0.040	-0.046
-259.180	-165.887	0.230	0.010
-258.165	-200.000	-0.050	0.263
-257.151	800.000	-0.091	0.300
-256.136	42.864	0.136	0.124
-255.122	217.677	-0.117	0.185
-254.107	-71.244	-0.377	0.141
-253.092	613.505	0.144	0.358
-252.078	-21.433	0.308	0.187
-251.063	122.720	-0.163	-0.203
-250.049	27.530	0.172	-0.144
-249.034	704.931	0.122	-0.319
-248.019	-98.292	-0.335	0.086
-247.005	-30.463	0.204	-0.115
-245.990	14.719	0.251	0.195
-244.976	39.741	0.018	-0.016
-243.961	-200.000	0.011	0.061
-242.946	-185.182	0.041	0.001
-241.932	-127.427	0.211	0.031
-240.917	800.000	-0.056	0.162
-239.903	753.899	-0.077	-0.206
-238.888	261.622	0.049	-0.084
-237.873	74.012	0.170	-0.177
-236.859	800.000	-0.047	0.167
-235.844	-111.937	0.263	-0.053
-234.830	273.284	-0.228	-0.400
-233.815	-0.246	0.165	-0.116
-232.800	-200.000	0.002	0.059
-231.786	-31.250	0.227	0.127
-230.771	-161.760	-0.184	-0.009
-229.757	62.536	0.105	0.104
-228.742	181.290	-0.139	-0.202
-227.727	50.829	0.156	0.147
-226.713	255.861	0.126	-0.215
-225.698	-16.937	0.198	-0.124
-224.684	-132.440	-0.146	0.019
-223.669	-170.814	0.095	0.003
-222.655	94.368	-0.105	0.118
-221.640	-40.213	-0.065	0.034
-220.625	302.973	0.094	-0.173
-219.611	-33.858	-0.142	0.078
-218.596	-75.473	0.237	0.084
-217.582	-121.251	0.430	-0.071
-216.567	-200.000	-0.003	0.155
-215.552	-0.879	-0.099	0.070
-214.538	-180.790	-0.328	-0.007
-213.523	213.757	-0.120	-0.189
-212.509	-94.553	-0.379	0.102
-211.494	190.161	0.172	-0.256
-210.479	-114.912	-0.223	-0.042
-209.465	-200.000	0.037	0.318
-208.450	91.790	-0.094	-0.105
-207.436	70.408	-0.172	0.176
-206.421	54.368	-0.103	0.098
-205.406	81.325	0.047	-0.050
-204.392	472.950	-0.112	0.250
-203.377	-95.334	0.204	-0.055
-202.363	-0.736	-0.148	0.104
-201.348	-200.000	0.032	-0.197
-200.333	-60.137	0.223	-0.094
-199.319	-73.845	0.037	0.013
-198.304	-170.828	-0.260	-0.009
-197.290	35.387	-0.234	-0.204
-196.275	800.000	0.084	0.355
-195.260	122.873	-0.045	-0.056
-194.246	28.868	0.270	0.227
-193.231	241.506	0.028	-0.046
-192.217	-200.000	0.014	0.361
-191.202	-72.011	-0.232	0.085
-190.187	-200.000	0.003	0.295
-189.173	-200.000	-0.022	0.129
-188.158	-7.887	0.036	0.024
-187.144	-162.816	-0.190	0.009
-186.129	-24.684	0.196	-0.116
-185.114	-5.407	0.116	0.079
-184.100	-127.600	0.203	-0.029
-183.085	-20.882	0.246	0.150
-182.071	-103.632	-0.188	-0.044
-181.056	-200.000	0.024	-0.112
-180.042	-181.681	-0.222	-0.004
-179.027	481.014	-0.137	0.307
-178.012	605.462	0.086	0.212
-176.998	-49.850	0.024	0.011
-175.983	-73.408	0.211	0.076
-174.969	-200.000	0.015	-0.387
-173.954	46.609	0.196	-0.180
-172.939	230.906	-0.181	0.294
-171.925	77.752	-0.133	0.141
-170.910	-74.086	-0.215	0.077
-169.896	156.621	0.240	-0.329
-168.881	89.832	0.150	-0.166
-167.866	47.451	0.092	-0.085
-166.852	800.000	0.089	0.361
-165.837	-61.627	-0.136	-0.057
-164.823	316.291	0.061	0.115
-163.808	-50.520	0.217	-0.102
-162.793	65.601	-0.097	-0.097
-161.779	-128.145	0.301	-0.043
-160.764	127.352	0.099	0.124
-159.750	79.518	-0.203	0.216
-158.735	800.000	0.093	-0.259
-157.720	-200.000	-0.006	-0.155
-156.706	272.334	0.117	-0.204
-155.691	-141.800	0.201	0.020
-154.677	119.592	-0.123	0.151
-153.662	-32.581	-0.220	0.122
-152.647	52.556	-0.227	0.215
-151.633	211.343	0.142	-0.221
-150.618	-88.391	0.086	0.025
-149.604	-200.000	-0.051	-0.251
-148.589	-62.749	-0.036	0.015
-147.574	-200.000	0.043	0.198
-146.560	-101.136	0.193	0.047
-145.545	-181.246	0.096	-0.002
-144.531	-200.000	-0.014	-0.487
-143.516	-22.754	0.208	-0.125
-142.502	65.325	-0.216	0.217
-141.487	0.894	0.208	-0.148
-140.472	28.931	-0.067	0.056
-139.458	-9.000	-0.091	0.060
-138.443	-200.000	0.050	0.316
-137.429	800.000	0.153	-0.466
-136.414	219.990	0.157	-0.248
-135.399	800.000	-0.035	-0.097
-134.385	51.821	0.325	0.306
-133.370	15.980	0.168	0.131
-132.356	-38.584	0.194	0.101
-131.341	263.621	-0.126	0.217
-130.326	-14.111	0.156	-0.099
-129.312	299.162	0.039	0.071
-128.297	164.391	-0.204	-0.285
-127.283	-33.210	0.160	0.088
-126.268	557.253	0.170	0.406
-125.253	321.678	0.128	-0.240
-124.239	-138.316	0.048	-0.005
-123.224	-77.231	0.032	-0.011
-122.210	800.000	0.018	0.052
-121.195	-136.679	0.173	0.020
