DTS Sentinel unit serial number:	SN413079Multiplexer serial number:	ORYXHardware model number:	OX4-SRSoftware version number:	ORYX F/W v4.00 Oryx Data Collector v3.7.2.0data status	okinstallation	princeton_trtdifferential loss correction	single-endedforward channel	channel 4reverse channel	N/Adate	2019/09/13time	04:57:35forward acquisition time	60.00reverse acquisition time	0.00gamma	496.2192k internal	0.2322k external	0.2322temperature offset calibration	1.0193default loss term (dB/km)	0.3790temperature slope calibration	1.0000multiplexer offset coefficient	1.0000multiplexer slope coefficient	1.0000fibre end	0.00T internal ref (°C)	26.50T ext. ref 1 (°C)	4.04T ext. ref 2 (°C)	20.97length (m)	temperature (°C)	Stokes	anti-Stokes-747.200	800.000	0.029	0.125
-746.185	76.773	-0.334	0.358
-745.171	-41.717	0.211	0.109
-744.156	-94.414	0.191	0.053
-743.142	-141.228	0.069	0.007
-742.127	381.484	0.064	0.133
-741.112	3.597	0.172	-0.127
-740.098	667.987	-0.112	0.293
-739.083	-200.000	-0.013	0.178
-738.069	139.029	-0.192	-0.255
-737.054	583.781	0.038	0.095
-736.039	240.964	-0.168	0.283
-735.025	-131.423	0.155	0.021
-734.010	-137.023	0.147	0.017
-732.996	-49.694	-0.091	-0.044
-731.981	-43.649	0.281	0.143
-730.966	-97.607	-0.236	-0.062
-729.952	-68.698	-0.040	-0.016
-728.937	-110.230	0.178	-0.038
-727.923	-184.171	-0.285	-0.005
-726.908	202.037	0.080	0.125
-725.894	-43.410	0.093	0.048
-724.879	-35.905	-0.275	0.150
-723.864	-200.000	0.057	-0.300
-722.850	124.025	0.197	-0.250
-721.835	800.000	0.041	-0.131
-720.821	29.756	0.254	0.218
-719.806	493.508	-0.070	0.162
-718.791	116.593	-0.022	0.027
-717.777	-68.714	-0.128	-0.050
-716.762	721.151	0.131	-0.351
-715.748	-200.000	0.007	0.107
-714.733	-200.000	-0.024	0.113
-713.718	-97.045	0.177	-0.047
-712.704	-51.902	-0.034	0.016
-711.689	800.000	-0.074	-0.254
-710.675	78.623	-0.134	0.145
-709.660	6.935	-0.189	-0.142
-708.645	-118.504	0.284	0.051
-707.631	-55.494	0.134	0.060
-706.616	-200.000	-0.020	0.148
-705.602	-39.107	-0.223	0.118
-704.587	-80.902	-0.161	-0.054
-703.572	-200.000	0.006	-0.305
-702.558	-200.000	-0.009	0.165
-701.543	800.000	0.031	0.126
-700.529	-179.087	-0.244	-0.006
-699.514	344.285	0.054	0.106
-698.499	-200.000	0.058	-0.308
-697.485	589.934	0.022	-0.054
-696.470	-200.000	0.018	-0.209
-695.456	-9.142	-0.127	-0.085
-694.441	-200.000	0.005	0.225
-693.426	800.000	-0.073	-0.287
-692.412	3.334	0.098	0.072
-691.397	-40.220	0.316	0.166
-690.383	8.691	-0.300	0.228
-689.368	-31.136	0.247	0.140
-688.354	-200.000	0.021	0.228
-687.339	800.000	-0.064	-0.223
-686.324	-200.000	0.007	-0.640
-685.310	505.147	-0.133	0.310
-684.295	348.665	0.115	0.228
-683.281	-62.043	-0.277	-0.116
-682.266	-71.731	-0.093	-0.035
-681.251	-122.715	-0.301	-0.049
-680.237	800.000	-0.025	-0.072
-679.222	-75.159	0.242	-0.087
-678.208	-112.662	-0.134	-0.027
-677.193	-200.000	-0.017	0.099
-676.178	-121.562	0.128	-0.021
-675.164	-86.602	-0.084	-0.026
-674.149	38.488	0.187	-0.168
-673.135	-111.726	0.212	0.043
-672.120	-161.366	0.096	0.005
-671.105	193.207	0.357	-0.544
-670.091	120.734	0.207	-0.260
-669.076	-200.000	0.001	-0.207
-668.062	-131.849	-0.234	-0.031
-667.047	-200.000	-0.051	-0.305
-666.032	249.885	-0.126	-0.216
-665.018	-92.524	-0.260	0.074
-664.003	-105.477	0.043	-0.010
-662.989	-172.795	0.156	-0.005
-661.974	111.408	-0.052	-0.063
-660.959	-20.878	0.220	0.136
-659.945	75.591	-0.223	-0.237
-658.930	128.295	-0.150	-0.192
-657.916	-200.000	0.025	0.176
-656.901	-96.328	0.238	0.063
-655.886	21.400	-0.215	-0.176
-654.872	713.296	0.042	0.113
-653.857	800.000	-0.059	-0.232
-652.843	494.101	0.102	-0.236
-651.828	800.000	-0.094	0.284
-650.814	-200.000	-0.012	-0.200
-649.799	-200.000	0.064	-0.475
-648.784	-200.000	0.009	0.205
-647.770	56.805	0.184	0.181
-646.755	-71.947	-0.087	0.033
-645.741	-12.782	0.029	0.019
-644.726	47.681	0.105	0.098
-643.711	-89.718	-0.254	-0.075
-642.697	-175.159	0.122	0.003
-641.682	-200.000	-0.009	0.140
-640.668	354.179	-0.072	0.144
-639.653	54.099	-0.128	0.124
-638.638	580.626	0.099	-0.243
-637.624	30.084	0.163	0.140
-636.609	101.804	-0.063	-0.074
-635.595	167.369	0.375	-0.536
-634.580	188.032	-0.179	0.269
-633.565	124.690	-0.150	0.190
-632.551	-114.161	-0.284	-0.055
-631.536	491.219	0.052	0.120
-630.522	-59.478	0.290	0.125
-629.507	-155.339	0.255	-0.017
-628.492	-104.623	-0.287	0.067
-627.478	9.450	-0.109	0.083
-626.463	-184.260	0.144	-0.002
-625.449	-200.000	0.026	0.127
-624.434	-200.000	-0.008	0.088
-623.419	356.617	-0.036	-0.071
-622.405	-125.038	0.352	-0.054
-621.390	714.881	-0.101	0.270
-620.376	-200.000	0.029	0.138
-619.361	-200.000	-0.023	0.341
-618.346	128.068	0.130	0.166
-617.332	-200.000	0.074	-0.446
-616.317	113.177	0.239	0.291
-615.303	-69.587	-0.344	0.133
-614.288	13.596	-0.133	0.103
-613.273	266.771	0.144	0.253
-612.259	23.296	-0.125	-0.103
-611.244	32.390	-0.181	0.157
-610.230	-94.735	0.179	0.049
-609.215	195.419	0.105	-0.160
-608.201	586.610	-0.089	0.221
-607.186	-110.418	-0.244	-0.051
-606.171	-200.000	-0.063	0.281
-605.157	-50.408	-0.233	0.110
-604.142	75.378	-0.185	-0.196
-603.128	249.532	0.044	-0.075
-602.113	800.000	0.068	0.259
-601.098	46.830	-0.219	0.204
-600.084	800.000	-0.073	0.263
-599.069	758.149	-0.104	0.282
-598.055	-60.683	-0.196	0.083
-597.040	451.553	0.093	0.207
-596.025	197.026	0.071	-0.109
-595.011	-44.596	0.306	-0.153
-593.996	800.000	0.021	-0.077
-592.982	-69.199	-0.100	-0.039
-591.967	104.914	-0.175	-0.208
-590.952	295.458	-0.022	0.040
-589.938	159.761	0.158	0.221
-588.923	186.687	0.045	-0.067
-587.909	32.819	0.127	-0.110
-586.894	-36.323	0.049	-0.026
-585.879	70.603	-0.057	-0.060
-584.865	-152.489	-0.262	-0.019
-583.850	14.141	0.106	0.083
-582.836	800.000	0.032	-0.124
-581.821	357.722	0.110	-0.221
-580.806	-109.770	-0.284	-0.060
-579.792	-101.856	0.321	0.078
-578.777	800.000	0.029	-0.096
-577.763	736.030	0.102	-0.273
-576.748	-190.704	0.391	-0.004
-575.733	64.343	0.195	-0.197
-574.719	800.000	0.029	-0.124
-573.704	-101.384	0.189	-0.046
-572.690	148.548	-0.239	-0.324
-571.675	576.141	0.124	-0.303
-570.661	-35.819	-0.073	0.040
-569.646	-37.799	-0.103	-0.055
-568.631	-112.995	0.338	0.067
-567.617	-112.882	0.203	-0.040
-566.602	-163.461	-0.528	0.025
-565.588	118.646	0.063	0.078
-564.573	800.000	0.060	-0.179
-563.558	72.719	-0.138	0.144
-562.544	-119.240	0.255	-0.045
-561.529	347.412	0.103	0.203
-560.515	-157.198	-0.285	0.017
-559.500	256.236	-0.128	0.220
-558.485	63.025	0.232	-0.233
-557.471	800.000	0.006	-0.017
-556.456	-200.000	0.018	0.139
-555.442	-104.428	0.197	0.046
-554.427	-67.922	0.323	0.126
-553.412	800.000	-0.075	-0.246
-552.398	-87.077	-0.319	-0.097
-551.383	-33.202	-0.062	0.035
-550.369	-19.861	0.151	0.094
-549.354	-76.794	0.344	-0.121
-548.339	-34.582	-0.077	-0.042
-547.325	122.563	-0.060	-0.075
-546.310	-40.332	-0.302	0.158
-545.296	19.704	0.136	0.110
-544.281	-182.052	-0.401	-0.008
-543.266	-12.308	0.084	0.055
-542.252	339.888	0.133	-0.261
-541.237	156.395	-0.112	0.156
-540.223	-64.587	-0.240	-0.097
-539.208	-200.000	0.008	0.331
-538.193	800.000	-0.102	0.328
-537.179	95.060	-0.204	-0.233
-536.164	38.620	-0.086	-0.077
-535.150	334.520	-0.113	0.220
-534.135	578.415	0.130	-0.318
-533.121	-97.943	0.098	0.025
-532.106	17.648	-0.054	-0.043
-531.091	-200.000	-0.065	0.304
-530.077	183.612	-0.054	-0.080
-529.062	800.000	0.050	0.208
-528.048	-130.748	0.141	0.019
-527.033	-200.000	-0.052	-0.299
-526.018	-151.344	-0.149	0.011
-525.004	-108.629	-0.281	-0.061
-523.989	-194.167	0.275	-0.002
-522.975	743.380	-0.054	0.144
-521.960	-172.569	-0.351	0.011
-520.945	-16.626	0.183	0.116
-519.931	411.205	0.036	0.076
-518.916	-49.435	-0.164	-0.078
-517.902	-88.903	-0.468	-0.139
-516.887	46.571	-0.062	0.057
-515.872	800.000	-0.135	-0.376
-514.858	-137.832	0.125	-0.014
-513.843	-128.700	-0.128	0.018
-512.829	-200.000	-0.014	-0.222
-511.814	149.477	-0.144	-0.196
-510.799	34.794	-0.166	0.145
-509.785	167.223	0.105	-0.150
-508.770	-200.000	-0.057	0.655
-507.756	528.388	-0.059	-0.140
-506.741	-41.362	-0.219	-0.113
-505.726	-95.415	-0.321	-0.086
-504.712	-22.624	0.167	0.101
-503.697	36.778	0.182	-0.161
-502.683	43.875	-0.340	-0.312
-501.668	-70.285	0.335	-0.127
-500.653	200.523	0.146	0.225
-499.639	-116.978	-0.100	0.018
-498.624	-200.000	0.080	-0.391
-497.610	37.586	0.069	-0.061
-496.595	73.101	-0.170	0.178
-495.581	-112.121	0.141	0.028
-494.566	-182.169	-0.586	-0.011
-493.551	760.908	0.099	-0.269
-492.537	107.401	0.122	-0.145
-491.522	747.526	-0.071	-0.190
-490.508	800.000	0.043	-0.120
-489.493	117.673	-0.042	0.051
-488.478	-31.382	-0.241	-0.136
-487.464	172.304	-0.124	-0.178
-486.449	-69.916	-0.200	-0.076
-485.435	-200.000	-0.020	0.225
-484.420	800.000	-0.006	0.017
-483.405	-200.000	-0.029	0.156
-482.391	-12.198	-0.192	-0.126
-481.376	705.599	0.054	-0.143
-480.362	110.584	0.149	-0.179
-479.347	459.258	0.038	-0.084
-478.332	124.764	0.146	0.184
-477.318	331.834	-0.128	-0.246
-476.303	254.891	0.108	-0.184
-475.289	800.000	0.032	0.110
-474.274	-126.724	-0.046	0.007
-473.259	-126.508	-0.200	-0.030
-472.245	688.646	-0.039	0.101
-471.230	-126.104	0.593	0.089
-470.216	18.927	-0.049	0.040
-469.201	477.589	0.120	0.272
-468.186	-79.614	-0.144	-0.049
-467.172	85.299	0.073	0.080
-466.157	-199.796	0.142	0.001
-465.143	-200.000	0.045	-0.206
-464.128	341.749	0.140	-0.273
-463.113	226.931	0.110	0.178
-462.099	-129.164	-0.070	-0.010
-461.084	-88.733	0.231	0.069
-460.070	-83.531	0.175	0.056
-459.055	1.611	0.066	0.048
-458.040	-12.011	0.247	0.162
-457.026	-55.272	0.386	-0.173
-456.011	92.472	0.115	0.129
-454.997	800.000	0.034	-0.106
-453.982	71.919	-0.230	0.239
-452.968	79.202	0.083	0.089
-451.953	-100.517	-0.211	0.052
-450.938	-130.789	0.234	-0.031
-449.924	18.075	-0.268	-0.213
-448.909	84.422	-0.061	0.067
-447.895	211.150	0.034	-0.054
-446.880	-134.441	0.251	-0.031
-445.865	554.128	0.027	-0.065
-444.851	247.545	-0.049	-0.083
-443.836	-35.215	0.140	-0.076
-442.822	-75.800	-0.230	-0.081
-441.807	340.195	-0.144	0.281
-440.792	-161.832	-0.302	-0.015
-439.778	348.621	0.027	-0.053
-438.763	-64.169	-0.187	-0.076
-437.749	490.910	0.171	-0.390
-436.734	-135.707	0.176	-0.021
-435.719	-68.971	-0.221	0.085
-434.705	615.774	0.045	-0.112
-433.690	412.777	0.156	-0.330
-432.676	-50.266	0.293	0.138
-431.661	14.002	-0.197	-0.153
-430.646	-179.905	-0.248	0.005
-429.632	46.359	-0.068	0.063
-428.617	-200.000	0.030	-0.199
-427.603	-79.944	0.359	-0.120
-426.588	107.799	-0.232	0.276
-425.573	-55.768	0.192	-0.085
-424.559	-200.000	0.078	-0.495
-423.544	800.000	0.017	-0.057
-422.530	-129.344	0.198	-0.027
-421.515	800.000	0.062	-0.208
-420.500	-4.669	-0.254	-0.175
-419.486	1.504	0.135	-0.097
-418.471	544.814	0.122	-0.290
-417.457	-114.719	-0.157	-0.030
-416.442	-64.911	-0.186	-0.075
-415.428	4.995	-0.277	0.203
-414.413	-76.846	0.309	-0.108
-413.398	42.876	-0.134	-0.121
-412.384	800.000	-0.063	0.235
-411.369	51.276	-0.300	-0.284
-410.355	-171.801	0.144	0.005
-409.340	800.000	-0.023	0.083
-408.325	85.784	0.147	0.161
-407.311	580.657	0.089	-0.217
-406.296	80.857	0.153	-0.164
-405.282	181.991	-0.124	0.182
-404.267	-105.945	-0.045	-0.010
-403.252	-33.630	0.380	-0.209
-402.238	107.538	0.176	-0.209
-401.223	-121.599	0.216	-0.036
-400.209	-200.000	-0.039	-0.203
-399.194	-200.000	0.003	0.133
-398.179	761.658	0.119	0.322
-397.165	377.580	-0.043	-0.088
-396.150	-175.126	-0.103	-0.003
-395.136	-126.245	-0.131	-0.019
-394.121	-200.000	0.005	0.133
-393.106	33.032	-0.152	-0.131
-392.092	-200.000	0.037	0.231
-391.077	-51.728	0.216	0.101
-390.063	335.802	-0.273	0.527
-389.048	-200.000	0.006	0.132
-388.033	122.391	-0.247	-0.308
-387.019	204.763	0.026	-0.040
-386.004	-128.960	0.054	-0.008
-384.990	-111.525	-0.275	0.056
-383.975	-32.828	0.314	-0.174
-382.960	45.018	-0.139	-0.127
-381.946	69.562	0.085	-0.087
-380.931	-113.428	0.218	0.043
-379.917	-145.317	0.159	-0.014
-378.902	-200.000	-0.026	0.542
-377.888	167.959	0.031	0.044
-376.873	-89.660	0.217	-0.063
-375.858	241.542	-0.197	0.329
-374.844	271.180	-0.055	0.097
-373.829	131.935	0.036	-0.046
-372.815	573.256	-0.130	0.316
-371.800	800.000	-0.059	0.198
-370.785	-200.000	-0.046	-0.272
-369.771	454.843	0.073	0.160
-368.756	800.000	0.048	-0.182
-367.742	-120.814	0.129	0.022
-366.727	574.021	-0.069	0.169
-365.712	-95.218	0.079	0.021
-364.698	213.811	0.235	0.371
-363.683	-66.716	-0.088	0.035
-362.669	-80.813	-0.098	0.032
-361.654	-25.741	-0.305	0.179
-360.639	505.503	-0.041	0.093
-359.625	146.108	0.103	0.138
-358.610	758.371	-0.048	-0.130
-357.596	-200.000	-0.019	-0.193
-356.581	438.383	0.036	0.078
-355.566	163.086	0.138	0.192
-354.552	-147.775	0.500	0.042
-353.537	61.366	0.097	-0.096
-352.523	-44.139	-0.220	-0.110
-351.508	-164.558	-0.122	-0.006
-350.493	-168.494	0.105	0.004
-349.479	39.249	-0.067	0.060
-348.464	800.000	0.143	0.462
-347.450	-98.775	0.171	0.043
-346.435	-60.149	0.139	0.059
-345.420	-114.779	0.301	0.057
-344.406	161.164	-0.036	0.051
-343.391	-41.757	0.220	-0.112
-342.377	10.689	0.313	0.238
-341.362	-75.833	-0.145	-0.051
-340.348	295.408	0.084	-0.153
-339.333	-94.072	0.175	0.048
-338.318	17.359	0.211	0.166
-337.304	-76.654	0.287	-0.100
-336.289	122.934	-0.172	0.215
-335.275	-0.697	0.046	0.032
-334.260	423.023	0.093	-0.199
-333.245	-48.505	0.497	0.238
-332.231	-140.588	-0.063	0.007
-331.216	-10.134	0.357	-0.236
-330.202	81.429	0.107	0.115
-329.187	-131.145	0.108	-0.014
-328.172	-18.361	-0.238	0.148
-327.158	-157.916	0.450	-0.026
-326.143	-73.505	0.102	0.037
-325.129	800.000	0.002	-0.010
-324.114	-200.000	0.020	0.213
-323.099	26.104	0.222	-0.184
-322.085	-200.000	0.022	0.160
-321.070	-98.562	0.063	-0.016
-320.056	425.422	0.106	-0.228
-319.041	26.554	0.123	-0.102
-318.026	349.704	0.070	-0.137
-317.012	64.873	-0.254	0.255
-315.997	-200.000	0.001	0.204
-314.983	79.405	-0.145	0.155
-313.968	800.000	-0.031	0.091
-312.953	55.082	-0.173	0.166
-311.939	43.025	-0.135	0.122
-310.924	-200.000	-0.023	0.141
-309.910	-19.933	-0.137	-0.084
-308.895	94.435	0.162	0.183
-307.880	-89.762	-0.220	0.064
-306.866	336.234	0.098	0.189
-305.851	-7.286	-0.317	-0.213
-304.837	-107.365	0.281	0.061
-303.822	142.092	0.247	0.325
-302.807	-55.731	0.139	-0.062
-301.793	-97.179	0.192	0.050
-300.778	428.463	-0.009	0.019
-299.764	-200.000	0.010	0.453
-298.749	-200.000	-0.006	-0.050
-297.735	-138.012	0.183	-0.020
-296.720	800.000	-0.012	0.045
-295.705	-200.000	0.017	-0.251
-294.691	-200.000	0.025	0.264
-293.676	401.792	-0.083	-0.174
-292.662	-200.000	-0.030	0.361
-291.647	36.207	-0.381	-0.333
-290.632	-62.170	-0.172	-0.071
-289.618	398.042	0.036	-0.074
-288.603	-23.490	0.319	0.190
-287.589	-69.827	0.144	-0.055
-286.574	800.000	-0.040	0.109
-285.559	-200.000	-0.004	0.141
-284.545	25.151	-0.330	0.272
-283.530	70.767	0.214	-0.220
-282.516	-101.872	-0.196	0.047
-281.501	800.000	-0.106	-0.446
-280.486	-60.266	-0.147	-0.062
-279.472	138.821	0.101	0.131
-278.457	-156.724	-0.157	0.010
-277.443	370.813	-0.114	-0.229
-276.428	-147.858	0.165	-0.014
-275.413	124.803	-0.135	-0.169
-274.399	45.528	0.250	0.229
-273.384	-200.000	-0.029	0.165
-272.370	-200.000	-0.068	0.368
-271.355	-200.000	-0.020	0.134
-270.340	8.599	-0.229	-0.171
-269.326	-60.540	0.241	0.101
-268.311	-100.881	0.181	0.044
-267.297	-57.441	-0.094	-0.041
-266.282	210.167	-0.133	0.206
-265.267	311.630	0.058	0.108
-264.253	237.360	-0.053	-0.087
-263.238	-200.000	-0.006	-0.153
-262.224	68.350	0.107	0.108
-261.209	-200.000	0.022	-0.103
-260.195	-159.990	-0.173	-0.009
-259.180	-125.159	-0.098	-0.015
-258.165	-200.000	-0.018	0.150
-257.151	-95.998	0.412	-0.109
-256.136	-182.588	-0.452	-0.008
-255.122	-49.076	0.108	-0.051
-254.107	412.599	0.022	0.047
-253.092	-128.436	-0.166	0.023
-252.078	-52.329	-0.119	0.055
-251.063	528.383	-0.014	-0.033
-250.049	95.097	0.193	0.218
-249.034	36.821	-0.077	0.067
-248.019	-66.885	0.169	-0.066
-247.005	-125.965	0.425	-0.063
-245.990	800.000	0.053	0.229
-244.976	-121.401	-0.122	-0.020
-243.961	-73.863	-0.353	0.127
-242.946	283.663	0.213	-0.380
-241.932	15.063	-0.194	0.151
-240.917	592.442	0.064	-0.156
-239.903	33.797	-0.083	-0.072
-238.888	8.946	-0.114	-0.085
-237.873	-200.000	0.060	-0.429
-236.859	252.731	-0.216	-0.365
-235.844	-130.990	-0.345	0.046
-234.830	-73.053	-0.291	-0.106
-233.815	-25.363	-0.281	0.165
-232.800	-158.577	0.062	0.004
-231.786	36.391	0.136	0.119
-230.771	58.343	0.132	-0.128
-229.757	-20.034	-0.191	-0.117
-228.742	320.604	-0.063	0.118
-227.727	-75.184	-0.183	0.065
-226.713	174.855	0.147	0.211
-225.698	-83.858	-0.273	0.086
-224.684	177.356	0.084	0.121
-223.669	-123.157	-0.091	-0.014
-222.655	100.454	-0.194	0.223
-221.640	-87.694	0.078	-0.023
-220.625	-37.831	0.295	-0.155
-219.611	59.809	-0.307	-0.300
-218.596	800.000	-0.055	-0.226
-217.582	800.000	0.083	0.287
-216.567	-79.479	-0.227	0.076
-215.552	-151.726	-0.238	0.017
-214.538	-149.600	0.133	-0.010
-213.523	-169.983	-0.207	-0.007
-212.509	215.220	-0.162	0.254
-211.494	-153.034	-0.230	-0.016
-210.479	-95.290	0.250	-0.066
-209.465	-46.083	0.016	0.008
-208.450	93.042	0.307	-0.343
-207.436	-63.139	-0.210	-0.086
-206.421	-54.181	-0.209	0.094
-205.406	218.615	0.081	-0.128
-204.392	390.890	0.045	0.093
-203.377	-93.786	-0.085	0.023
-202.363	117.860	-0.123	-0.150
-201.348	259.862	0.102	0.174
-200.333	-94.363	-0.357	0.096
-199.319	800.000	0.042	-0.150
-198.304	129.236	0.045	-0.057
-197.290	-66.735	-0.317	0.124
-196.275	800.000	-0.067	0.252
-195.260	-157.780	0.166	0.010
-194.246	-200.000	-0.048	-0.400
-193.231	-196.531	-0.205	-0.001
-192.217	-81.602	-0.237	-0.077
-191.202	-103.099	0.315	0.074
-190.187	239.247	0.054	-0.088
-189.173	-200.000	0.048	-0.250
-188.158	-200.000	0.023	-0.239
-187.144	-128.579	0.188	0.026
-186.129	171.403	0.115	0.164
-185.114	-51.254	0.319	-0.148
-184.100	-129.760	-0.016	0.002
-183.085	-10.029	-0.126	-0.082
-182.071	425.101	-0.129	0.275
-181.056	-150.853	-0.231	0.017
-180.042	-22.324	-0.336	-0.201
-179.027	150.119	0.174	-0.233
-178.012	800.000	-0.111	-0.399
-176.998	-88.655	-0.164	0.048
-175.983	317.529	-0.127	-0.237
-174.969	800.000	-0.034	-0.108
-173.954	-200.000	0.002	0.012
-172.939	-200.000	0.027	-0.173
-171.925	-6.821	0.173	0.117
-170.910	-97.177	0.188	0.048
-169.896	-63.031	-0.541	0.221
-168.881	141.106	0.092	0.120
-167.866	47.742	0.032	0.030
-166.852	400.936	-0.139	0.289
-165.837	280.777	0.032	0.056
-164.823	-18.914	-0.140	-0.086
-163.808	-200.000	-0.012	-0.118
-162.793	66.917	-0.080	0.081
-161.779	173.806	0.064	0.091
-160.764	93.650	0.102	-0.115
-159.750	-103.597	0.070	-0.016
-158.735	64.617	0.143	-0.142
-157.720	394.334	0.081	0.166
-156.706	300.177	0.210	-0.383
-155.691	45.373	0.153	0.140
-154.677	-200.000	-0.005	-0.240
-153.662	-200.000	0.052	-0.302
-152.647	20.273	0.253	-0.202
-151.633	128.604	-0.179	-0.225
-150.618	-23.854	-0.125	0.074
-149.604	-30.715	0.279	-0.156
-148.589	800.000	-0.029	0.093
-147.574	256.404	0.058	-0.097
-146.560	-39.411	-0.214	-0.111
-145.545	-120.709	-0.124	-0.021
-144.531	-167.258	-0.390	0.016
-143.516	-200.000	0.221	-0.000
-142.502	31.468	-0.164	0.139
-141.487	-200.000	-0.082	0.412
-140.472	228.522	-0.070	-0.113
-139.458	800.000	0.068	-0.213
-138.443	-141.831	-0.425	-0.042
-137.429	-159.524	0.170	0.009
-136.414	-200.000	0.019	0.234
-135.399	-52.532	-0.008	-0.004
-134.385	345.723	0.072	0.140
-133.370	-98.238	-0.092	0.023
-132.356	74.396	-0.176	-0.183
-131.341	551.049	-0.125	0.296
-130.326	-190.124	0.381	-0.004
-129.312	-200.000	0.018	0.144
-128.297	-146.842	-0.073	0.006
-127.283	-56.111	-0.142	0.062
-126.268	-200.000	-0.019	0.225
-125.253	41.745	-0.180	-0.161
-124.239	-6.209	-0.399	0.268
-123.224	136.368	-0.112	-0.145
-122.210	-115.456	-0.363	-0.068
-121.195	50.370	0.357	0.333
