DTS Sentinel unit serial number:	SN413079Multiplexer serial number:	ORYXHardware model number:	OX4-SRSoftware version number:	ORYX F/W v4.00 Oryx Data Collector v3.7.2.0data status	okinstallation	princeton_trtdifferential loss correction	single-endedforward channel	channel 4reverse channel	N/Adate	2019/09/15time	12:53:35forward acquisition time	60.00reverse acquisition time	0.00gamma	496.2192k internal	0.2292k external	0.2292temperature offset calibration	1.0010default loss term (dB/km)	0.3790temperature slope calibration	1.0000multiplexer offset coefficient	1.0000multiplexer slope coefficient	1.0000fibre end	0.00T internal ref (°C)	36.16T ext. ref 1 (°C)	5.03T ext. ref 2 (°C)	34.26length (m)	temperature (°C)	Stokes	anti-Stokes-747.200	410.329	-0.031	-0.067
-746.185	-123.180	-0.145	0.024
-745.171	2.912	0.318	-0.236
-744.156	-76.440	-0.260	0.093
-743.142	130.718	-0.114	0.149
-742.127	49.582	0.031	0.030
-741.112	800.000	0.035	-0.107
-740.098	-71.311	-0.304	0.117
-739.083	227.060	-0.086	0.143
-738.069	-139.621	-0.246	0.027
-737.054	-200.000	-0.013	-0.070
-736.039	106.701	-0.155	0.188
-735.025	17.790	0.025	0.020
-734.010	-200.000	-0.040	-0.428
-732.996	348.636	-0.132	-0.267
-731.981	-157.426	0.339	0.021
-730.966	106.877	-0.041	0.050
-729.952	-188.537	0.231	0.003
-728.937	-167.314	-0.149	0.006
-727.923	24.696	-0.100	0.084
-726.908	-131.014	0.181	-0.025
-725.894	-200.000	-0.018	0.310
-724.879	43.921	-0.102	0.096
-723.864	-99.441	-0.131	0.034
-722.850	542.146	-0.103	-0.250
-721.835	176.205	0.078	-0.116
-720.821	61.817	0.293	0.298
-719.806	325.497	0.059	-0.115
-718.791	54.440	-0.114	0.113
-717.777	243.331	-0.106	-0.182
-716.762	-200.000	0.042	-0.251
-715.748	343.055	0.136	0.273
-714.733	188.725	-0.183	0.280
-713.718	-61.856	-0.277	0.119
-712.704	56.316	-0.146	0.145
-711.689	-40.291	0.182	-0.097
-710.675	800.000	0.114	0.494
-709.660	84.009	0.071	-0.079
-708.645	234.345	0.211	-0.356
-707.631	-25.001	-0.047	0.029
-706.616	-200.000	0.044	0.326
-705.602	-33.716	0.086	0.049
-704.587	-53.432	0.171	0.080
-703.572	546.015	-0.105	-0.256
-702.558	800.000	0.032	0.107
-701.543	-180.295	0.311	0.007
-700.529	-200.000	-0.051	-0.304
-699.514	-200.000	0.005	-0.069
-698.499	-149.230	0.159	-0.013
-697.485	-8.190	0.041	-0.028
-696.470	800.000	-0.064	-0.255
-695.456	-119.359	0.172	0.031
-694.441	306.542	0.073	0.138
-693.426	800.000	-0.108	-0.353
-692.412	-132.576	0.353	-0.046
-691.397	58.870	-0.199	-0.200
-690.383	-127.592	-0.431	-0.064
-689.368	-133.302	0.094	0.012
-688.354	4.151	-0.343	-0.257
-687.339	-48.414	-0.201	0.099
-686.324	800.000	0.024	-0.102
-685.310	-28.007	-0.236	0.139
-684.295	800.000	0.081	-0.272
-683.281	-200.000	-0.008	-0.227
-682.266	800.000	-0.035	-0.120
-681.251	-123.317	0.154	0.025
-680.237	-44.676	0.135	-0.069
-679.222	-113.521	-0.113	-0.023
-678.208	-114.144	-0.395	-0.078
-677.193	209.976	-0.029	-0.047
-676.178	95.177	0.102	0.118
-675.164	-200.000	-0.018	-0.152
-674.149	800.000	-0.065	0.198
-673.135	33.624	0.172	-0.153
-672.120	-200.000	0.027	-0.470
-671.105	800.000	-0.092	-0.290
-670.091	-154.946	0.217	-0.015
-669.076	-200.000	0.030	0.221
-668.062	-200.000	0.006	-0.275
-667.047	-70.689	-0.172	0.066
-666.032	479.582	0.094	-0.217
-665.018	-106.744	0.168	-0.038
-664.003	69.610	-0.097	-0.102
-662.989	-140.239	-0.250	-0.027
-661.974	-84.816	-0.228	0.073
-660.959	800.000	-0.103	-0.318
-659.945	-156.962	0.146	0.009
-658.930	501.980	-0.104	0.244
-657.916	-200.000	0.000	-0.393
-656.901	-200.000	-0.005	-0.191
-655.886	16.921	-0.299	-0.242
-654.872	196.692	-0.043	0.067
-653.857	122.600	0.256	-0.327
-652.843	-130.417	-0.276	-0.038
-651.828	800.000	-0.077	0.277
-650.814	-39.685	-0.128	-0.068
-649.799	-24.192	-0.301	-0.183
-648.784	-153.733	-0.140	-0.010
-647.770	-111.858	-0.123	-0.025
-646.755	-200.000	0.043	-0.207
-645.741	800.000	0.093	-0.381
-644.726	-104.842	-0.160	-0.037
-643.711	-49.212	0.203	-0.099
-642.697	-150.781	-0.309	-0.024
-641.682	-98.254	0.379	-0.099
-640.668	-200.000	0.000	-0.566
-639.653	87.370	0.150	-0.169
-638.638	-29.523	-0.130	-0.076
-637.624	493.656	0.113	0.265
-636.609	310.100	0.046	-0.087
-635.595	109.657	0.110	0.135
-634.580	-80.420	0.145	0.049
-633.565	800.000	-0.008	-0.034
-632.551	-91.459	0.168	0.049
-631.536	88.314	-0.079	-0.090
-630.522	-35.344	-0.319	0.177
-629.507	56.345	0.175	-0.173
-628.492	473.571	0.112	-0.256
-627.478	-200.000	-0.026	-0.224
-626.463	-82.345	-0.031	0.010
-625.449	30.018	0.189	-0.164
-624.434	-200.000	0.002	-0.042
-623.419	-200.000	-0.026	-0.238
-622.405	-109.062	0.118	-0.026
-621.390	50.632	0.175	-0.169
-620.376	800.000	-0.065	0.187
-619.361	550.605	-0.035	0.084
-618.346	60.766	-0.099	-0.100
-617.332	-86.281	-0.380	-0.119
-616.317	-62.827	-0.242	0.102
-615.303	800.000	0.029	0.120
-614.288	26.066	0.206	-0.175
-613.273	-32.693	0.153	0.086
-612.259	-91.760	-0.281	0.081
-611.244	-169.140	0.304	0.011
-610.230	-135.774	0.446	-0.054
-609.215	-200.000	0.014	0.190
-608.201	800.000	-0.032	-0.134
-607.186	-16.439	-0.353	-0.228
-606.171	-200.000	0.025	-0.117
-605.157	-21.418	-0.520	0.323
-604.142	-81.439	0.462	0.155
-603.128	-20.043	0.120	0.075
-602.113	800.000	-0.165	-0.555
-601.098	101.821	0.114	-0.135
-600.084	-153.821	0.319	-0.022
-599.069	-136.415	-0.177	0.021
-598.055	32.568	0.134	0.118
-597.040	-172.955	0.251	-0.008
-596.025	108.426	0.057	-0.069
-595.011	32.756	-0.194	-0.171
-593.996	385.522	0.122	-0.256
-592.982	-120.367	-0.254	-0.044
-591.967	-124.000	0.215	0.034
-590.952	-200.000	0.000	-0.081
-589.938	319.459	-0.015	-0.029
-588.923	586.781	-0.055	-0.137
-587.909	800.000	-0.037	0.119
-586.894	-200.000	-0.027	0.306
-585.879	-63.938	-0.313	0.130
-584.865	-81.318	0.288	-0.097
-583.850	390.013	0.110	-0.231
-582.836	-200.000	0.005	-0.140
-581.821	-200.000	0.034	-0.431
-580.806	-200.000	-0.072	-0.325
-579.792	-163.698	0.396	0.019
-578.777	412.014	-0.128	0.277
-577.763	-83.619	-0.143	-0.046
-576.748	-158.139	0.479	0.029
-575.733	-124.190	-0.426	-0.068
-574.719	-178.081	-0.385	0.009
-573.704	335.356	0.071	0.140
-572.690	-90.416	-0.121	0.036
-571.675	-44.747	0.124	0.063
-570.661	34.925	0.142	-0.126
-569.646	-17.367	-0.145	0.093
-568.631	25.710	0.242	0.205
-567.617	18.754	0.081	-0.066
-566.602	61.108	-0.072	0.072
-565.588	800.000	0.040	0.127
-564.573	-113.645	0.184	-0.037
-563.558	262.882	-0.022	0.038
-562.544	-87.538	0.261	0.080
-561.529	800.000	0.071	0.242
-560.515	-45.785	-0.309	-0.155
-559.500	800.000	0.084	-0.336
-558.485	96.361	0.082	0.095
-557.471	176.455	-0.023	0.035
-556.456	-23.012	-0.031	-0.019
-555.442	800.000	0.091	-0.328
-554.427	-200.000	0.026	0.133
-553.412	-90.944	-0.338	0.099
-552.398	-49.984	0.218	0.105
-551.383	56.884	0.074	-0.073
-550.369	640.784	0.068	0.177
-549.354	-200.000	-0.013	-0.162
-548.339	-200.000	0.081	-0.576
-547.325	88.871	0.085	-0.096
-546.310	-22.269	-0.126	-0.078
-545.296	-143.137	0.178	0.017
-544.281	-103.195	-0.181	-0.043
-543.266	-200.000	-0.054	0.519
-542.252	-60.819	0.433	0.186
-541.237	406.206	-0.128	0.274
-540.223	483.740	0.125	0.288
-539.208	-72.519	-0.105	-0.039
-538.193	27.260	-0.176	-0.150
-537.179	149.649	-0.111	0.152
-536.164	240.495	-0.122	0.207
-535.150	-200.000	-0.005	0.092
-534.135	-3.425	-0.198	-0.140
-533.121	682.769	-0.067	-0.176
-532.106	-200.000	-0.027	0.138
-531.091	-80.579	-0.184	0.062
-530.077	-155.030	-0.139	0.009
-529.062	181.266	0.205	0.306
-528.048	200.634	0.114	-0.179
-527.033	-85.359	-0.183	-0.058
-526.018	-22.048	-0.045	0.028
-525.004	167.940	-0.068	0.097
-523.989	-139.570	0.140	0.015
-522.975	-200.000	0.038	-0.238
-521.960	-200.000	0.070	0.417
-520.945	-141.856	0.346	-0.035
-519.931	-85.164	-0.108	-0.034
-518.916	-0.116	-0.143	-0.103
-517.902	800.000	-0.023	0.067
-516.887	-32.973	-0.190	-0.107
-515.872	151.784	-0.165	-0.228
-514.858	-33.980	0.149	-0.083
-513.843	-200.000	0.020	-0.131
-512.829	99.803	-0.152	-0.179
-511.814	199.157	-0.106	-0.165
-510.799	-80.187	-0.219	0.074
-509.785	157.403	-0.195	-0.273
-508.770	-200.000	-0.001	-0.114
-507.756	59.298	-0.212	-0.212
-506.741	-43.963	0.242	-0.123
-505.726	-89.186	0.294	0.088
-504.712	-200.000	0.008	-0.117
-503.697	800.000	0.033	-0.101
-502.683	192.156	-0.216	-0.330
-501.668	-17.275	-0.193	0.123
-500.653	-76.244	0.236	0.084
-499.639	249.775	-0.130	-0.224
-498.624	-200.000	-0.017	-0.418
-497.610	-74.906	-0.148	-0.054
-496.595	-67.114	-0.163	-0.065
-495.581	-126.027	0.128	-0.019
-494.566	-61.617	-0.090	-0.038
-493.551	52.691	0.191	-0.185
-492.537	-130.610	-0.361	0.049
-491.522	175.205	0.172	-0.253
-490.508	-200.000	-0.009	0.182
-489.493	-200.000	0.022	-0.174
-488.478	30.692	-0.199	0.172
-487.464	113.054	-0.136	-0.167
-486.449	800.000	0.062	0.202
-485.435	-126.796	0.145	0.022
-484.420	-142.049	0.174	-0.018
-483.405	4.106	-0.022	0.016
-482.391	-173.484	0.340	-0.010
-481.376	418.507	0.021	0.046
-480.362	-113.720	0.109	0.022
-479.347	-163.714	0.039	-0.002
-478.332	-200.000	0.089	0.469
-477.318	-55.660	-0.070	-0.032
-476.303	-177.521	0.103	-0.003
-475.289	-32.268	0.305	0.173
-474.274	102.445	0.228	-0.270
-473.259	-190.914	-0.133	0.001
-472.245	800.000	-0.064	0.187
-471.230	-69.216	-0.137	-0.053
-470.216	109.430	0.169	0.205
-469.201	-195.128	-0.185	0.001
-468.186	-84.290	0.201	0.065
-467.172	184.343	-0.029	0.043
-466.157	549.946	0.125	0.304
-465.143	597.266	0.110	0.275
-464.128	-186.316	-0.194	-0.003
-463.113	-200.000	-0.012	0.107
-462.099	133.361	0.094	-0.122
-461.084	2.010	-0.253	0.185
-460.070	-200.000	0.003	-0.152
-459.055	9.502	0.156	-0.119
-458.040	-86.418	-0.273	0.085
-457.026	-145.510	-0.180	-0.016
-456.011	590.050	0.022	-0.055
-454.997	-21.712	-0.184	0.113
-453.982	-5.866	0.077	0.054
-452.968	-200.000	-0.012	-0.065
-451.953	107.160	-0.171	0.205
-450.938	-21.919	-0.235	-0.144
-449.924	66.442	0.154	0.158
-448.909	348.435	0.169	0.337
-447.895	800.000	0.033	0.113
-446.880	-133.345	-0.257	0.033
-445.865	132.917	-0.105	-0.138
-444.851	-141.196	0.176	-0.018
-443.836	641.332	-0.099	0.256
-442.822	55.115	-0.090	-0.088
-441.807	160.618	-0.364	0.513
-440.792	-20.582	0.294	0.183
-439.778	25.725	0.162	-0.136
-438.763	-200.000	0.001	0.083
-437.749	236.285	0.184	0.307
-436.734	460.283	-0.068	-0.154
-435.719	-90.477	-0.305	-0.089
-434.705	-37.776	0.249	-0.134
-433.690	566.377	-0.146	-0.359
-432.676	703.348	-0.136	-0.362
-431.661	134.261	-0.133	0.175
-430.646	-22.024	0.199	0.123
-429.632	-77.590	0.210	0.074
-428.617	-163.325	-0.250	0.012
-427.603	-200.000	-0.002	-0.235
-426.588	800.000	0.092	0.322
-425.573	363.357	0.140	-0.285
-424.559	-200.000	0.046	0.242
-423.544	218.729	-0.136	0.219
-422.530	800.000	-0.045	0.184
-421.515	-200.000	0.018	-0.221
-420.500	-86.439	-0.026	-0.008
-419.486	141.663	-0.217	-0.290
-418.471	800.000	-0.096	0.281
-417.457	80.957	-0.153	0.166
-416.442	-110.556	-0.181	0.038
-415.428	-29.842	0.168	0.097
-414.413	-44.599	0.380	0.192
-413.398	87.351	-0.348	0.389
-412.384	80.304	0.199	0.217
-411.369	-11.089	-0.154	-0.103
-410.355	38.475	-0.098	0.088
-409.340	-200.000	-0.014	0.152
-408.325	-60.120	0.163	0.070
-407.311	-88.765	0.197	0.059
-406.296	-200.000	0.019	-0.296
-405.282	96.754	0.060	-0.070
-404.267	-68.715	0.114	0.045
-403.252	100.075	0.126	-0.147
-402.238	-27.436	-0.159	-0.094
-401.223	52.610	0.118	-0.114
-400.209	-93.384	-0.122	-0.034
-399.194	800.000	0.039	-0.166
-398.179	21.300	0.383	-0.314
-397.165	353.405	-0.091	0.183
-396.150	402.741	-0.062	0.131
-395.136	146.791	-0.174	0.235
-394.121	-73.912	0.196	0.072
-393.106	-49.339	-0.258	-0.124
-392.092	-30.588	-0.168	-0.096
-391.077	-200.000	-0.041	-0.185
-390.063	800.000	-0.083	-0.264
-389.048	-98.301	0.124	0.032
-388.033	-94.205	-0.102	0.028
-387.019	-39.230	0.273	-0.145
-386.004	132.407	-0.139	0.180
-384.990	800.000	-0.055	0.225
-383.975	800.000	-0.015	-0.066
-382.960	233.746	0.086	0.142
-381.946	252.512	0.066	0.114
-380.931	-121.533	0.125	0.021
-379.917	17.479	0.054	0.043
-378.902	-200.000	0.034	-0.386
-377.888	77.096	0.055	0.059
-376.873	-114.461	-0.191	0.037
-375.858	-82.450	-0.412	0.135
-374.844	-200.000	0.063	-0.369
-373.829	93.706	-0.076	0.087
-372.815	-39.647	-0.162	-0.085
-371.800	111.858	0.088	-0.107
-370.785	-102.710	0.118	-0.028
-369.771	14.888	0.045	-0.036
-368.756	111.606	0.156	0.190
-367.742	75.508	0.182	-0.194
-366.727	45.209	-0.149	-0.138
-365.712	62.287	-0.052	-0.053
-364.698	-110.105	-0.255	0.054
-363.683	-200.000	0.024	-0.110
-362.669	3.446	0.130	0.096
-361.654	246.284	0.077	0.130
-360.639	-200.000	-0.021	0.148
-359.625	226.840	0.102	0.166
-358.610	-105.009	-0.104	0.024
-357.596	399.673	0.116	-0.246
-356.581	800.000	0.008	0.028
-355.566	33.958	-0.103	-0.090
-354.552	423.308	-0.044	0.096
-353.537	-104.388	0.218	0.051
-352.523	687.770	-0.127	-0.335
-351.508	-87.928	0.151	-0.046
-350.493	-130.218	0.122	0.017
-349.479	-200.000	-0.050	0.438
-348.464	800.000	-0.084	0.235
-347.450	249.735	-0.075	0.129
-346.435	-8.853	0.246	0.166
-345.420	-22.959	0.161	0.098
-344.406	-77.437	-0.075	-0.026
-343.391	-14.815	-0.265	-0.171
-342.377	78.810	0.072	-0.078
-341.362	800.000	0.092	0.368
-340.348	-47.137	0.271	0.133
-339.333	114.380	-0.028	-0.035
-338.318	-26.631	0.214	-0.126
-337.304	90.387	0.028	0.031
-336.289	55.263	-0.142	0.139
-335.275	-114.519	0.145	-0.028
-334.260	-71.680	0.208	0.078
-333.245	800.000	0.021	0.065
-332.231	-95.959	0.144	0.039
-331.216	479.991	0.070	0.160
-330.202	-200.000	-0.012	-0.193
-329.187	-157.321	0.245	-0.015
-328.172	345.041	-0.099	-0.196
-327.158	-27.188	-0.077	-0.045
-326.143	-175.235	-0.241	-0.007
-325.129	-200.000	-0.014	-0.209
-324.114	800.000	-0.066	0.219
-323.099	493.526	-0.142	0.329
-322.085	800.000	0.094	0.310
-321.070	-182.767	-0.371	0.007
-320.056	95.436	0.215	0.247
-319.041	800.000	0.088	0.333
-318.026	56.234	0.108	-0.105
-317.012	5.794	0.065	0.048
-315.997	89.773	-0.245	0.275
-314.983	-7.680	-0.158	0.108
-313.968	185.694	-0.059	-0.088
-312.953	-200.000	-0.012	0.195
-311.939	-200.000	-0.006	-0.256
-310.924	575.134	0.025	0.060
-309.910	540.411	0.058	0.138
-308.895	-200.000	-0.019	0.114
-307.880	80.622	0.096	-0.105
-306.866	800.000	0.072	-0.282
-305.851	-200.000	0.028	0.166
-304.837	-126.687	0.277	0.041
-303.822	-19.475	0.182	0.113
-302.807	1.322	-0.185	-0.134
-301.793	-51.767	0.160	0.075
-300.778	319.610	-0.117	0.224
-299.764	145.195	0.238	-0.320
-298.749	-51.425	0.077	-0.036
-297.735	108.313	-0.012	0.014
-296.720	800.000	0.084	-0.289
-295.705	-200.000	0.006	0.134
-294.691	419.178	-0.188	-0.404
-293.676	134.650	-0.126	-0.165
-292.662	528.665	0.139	-0.331
-291.647	-104.444	-0.163	0.038
-290.632	-153.447	0.320	0.022
-289.618	138.906	0.177	-0.233
-288.603	135.737	0.086	-0.113
-287.589	41.655	-0.136	0.124
-286.574	-66.206	-0.393	0.157
-285.559	305.398	0.160	-0.300
-284.545	-96.265	-0.173	-0.046
-283.530	-57.389	0.137	0.060
-282.516	-37.015	-0.062	0.033
-281.501	373.709	0.064	-0.131
-280.486	-87.502	0.007	0.002
-279.472	-200.000	-0.029	-0.168
-278.457	-59.442	0.266	-0.115
-277.443	383.850	-0.047	-0.097
-276.428	14.753	0.157	0.124
-275.413	-62.700	-0.288	0.120
-274.399	-124.517	-0.120	-0.019
-273.384	141.602	-0.043	-0.058
-272.370	96.121	-0.068	0.078
-271.355	-200.000	0.057	0.402
-270.340	73.573	0.132	0.139
-269.326	-148.381	-0.161	0.013
-268.311	-88.170	-0.310	-0.093
-267.297	-6.247	-0.013	0.009
-266.282	199.293	-0.128	0.197
-265.267	539.600	0.129	-0.307
-264.253	592.981	-0.047	-0.118
-263.238	-67.118	0.433	-0.171
-262.224	800.000	-0.025	0.100
-261.209	-200.000	0.039	-0.193
-260.195	39.227	-0.061	0.055
-259.180	-62.729	0.432	0.180
-258.165	293.678	0.049	0.090
-257.151	494.499	0.187	0.431
-256.136	-200.000	0.005	0.175
-255.122	167.002	-0.048	0.068
-254.107	182.055	-0.168	-0.249
-253.092	-200.000	-0.011	-0.179
-252.078	-25.839	0.342	-0.203
-251.063	-111.004	-0.078	-0.016
-250.049	-127.322	-0.399	0.058
-249.034	800.000	0.012	-0.041
-248.019	-63.672	0.147	0.061
-247.005	125.418	-0.217	-0.274
-245.990	142.673	-0.181	-0.242
-244.976	-84.673	0.057	0.018
-243.961	-200.000	-0.012	-0.091
-242.946	800.000	0.054	0.167
-241.932	-49.132	-0.467	-0.224
-240.917	-200.000	0.014	-0.292
-239.903	-120.790	0.070	0.012
-238.888	800.000	0.045	-0.162
-237.873	-200.000	0.021	0.285
-236.859	-84.579	-0.197	0.062
-235.844	-26.434	-0.179	0.105
-234.830	336.432	0.170	0.332
-233.815	-66.628	0.195	0.077
-232.800	-114.412	0.102	0.020
-231.786	-200.000	0.072	0.444
-230.771	-200.000	-0.030	0.211
-229.757	409.321	0.029	-0.062
-228.742	24.113	-0.095	0.078
-227.727	-2.681	0.236	-0.165
-226.713	284.294	-0.078	-0.141
-225.698	800.000	0.063	0.240
-224.684	-24.305	-0.359	0.215
-223.669	-200.000	0.013	-0.164
-222.655	-61.560	0.161	-0.068
-221.640	12.497	-0.267	0.207
-220.625	-63.536	0.239	0.098
-219.611	-96.530	0.284	0.075
-218.596	17.215	0.088	-0.070
-217.582	114.700	-0.063	0.077
-216.567	-28.070	0.085	0.049
-215.552	62.347	0.256	0.256
-214.538	42.091	-0.202	-0.184
-213.523	433.460	0.053	-0.114
-212.509	191.061	-0.086	0.130
-211.494	117.391	0.182	-0.225
-210.479	707.426	-0.081	-0.215
-209.465	-200.000	-0.004	-0.266
-208.450	800.000	-0.029	-0.122
-207.436	221.462	0.234	-0.378
-206.421	-157.498	0.174	0.010
-205.406	-200.000	0.023	0.129
-204.392	-115.216	-0.123	0.023
-203.377	-4.978	-0.330	-0.228
-202.363	-69.047	-0.375	0.145
-201.348	-165.850	0.260	0.011
-200.333	-152.121	0.495	-0.036
-199.319	231.638	-0.093	-0.153
-198.304	-93.799	-0.293	0.081
-197.290	-200.000	-0.008	-0.273
-196.275	-70.003	0.170	0.065
-195.260	-16.930	0.101	0.064
-194.246	-200.000	-0.015	0.239
-193.231	-56.456	0.151	0.067
-192.217	800.000	-0.070	0.288
-191.202	416.794	0.059	0.126
-190.187	-200.000	-0.024	0.208
-189.173	-18.850	0.217	0.135
-188.158	-200.000	0.036	0.260
-187.144	-2.391	0.098	0.069
-186.129	-120.539	0.160	-0.027
-185.114	-66.323	0.322	-0.128
-184.100	-89.406	-0.142	0.042
-183.085	-134.027	-0.272	-0.034
-182.071	2.188	0.234	0.169
-181.056	50.443	-0.224	0.212
-180.042	444.380	0.083	0.182
-179.027	-64.193	-0.476	0.194
-178.012	101.279	-0.093	0.109
-176.998	-72.541	-0.129	0.048
-175.983	-24.855	-0.243	-0.144
-174.969	-67.900	0.108	0.042
-173.954	800.000	-0.083	-0.280
-172.939	800.000	0.078	-0.255
-171.925	-159.021	-0.210	-0.012
-170.910	213.869	0.073	0.115
-169.896	28.512	-0.324	-0.274
-168.881	54.584	-0.284	0.274
-167.866	-76.944	-0.105	0.037
-166.852	526.817	0.087	0.205
-165.837	113.215	-0.234	0.285
-164.823	-200.000	-0.061	0.267
-163.808	-126.767	0.274	-0.040
-162.793	-200.000	-0.000	-0.054
-161.779	14.245	0.318	-0.248
-160.764	112.331	-0.319	0.386
-159.750	109.642	-0.064	-0.077
-158.735	-24.997	-0.092	0.055
-157.720	-200.000	-0.036	0.189
-156.706	-100.629	0.087	-0.022
-155.691	-131.984	-0.356	0.046
-154.677	-200.000	0.070	-0.351
-153.662	-71.241	0.157	0.059
-152.647	643.218	-0.152	-0.388
-151.633	-145.895	-0.198	0.018
-150.618	-124.108	-0.326	-0.051
-149.604	800.000	0.052	0.159
-148.589	-113.088	0.157	0.031
-147.574	800.000	0.036	-0.124
-146.560	800.000	0.146	0.426
-145.545	-104.097	-0.304	-0.071
-144.531	36.928	0.071	0.063
-143.516	-37.219	-0.046	-0.025
-142.502	-200.000	0.038	0.419
-141.487	11.193	0.120	0.092
-140.472	-200.000	0.018	-0.086
-139.458	116.997	0.104	0.127
-138.443	-200.000	0.005	0.236
-137.429	60.408	-0.174	-0.172
-136.414	-200.000	0.004	-0.204
-135.399	2.134	0.241	0.174
-134.385	-200.000	-0.054	0.326
-133.370	66.119	-0.095	0.096
-132.356	800.000	-0.067	-0.215
-131.341	-200.000	0.015	-0.300
-130.326	23.982	0.086	-0.071
-129.312	108.966	-0.174	-0.208
-128.297	189.980	0.094	0.141
-127.283	-200.000	-0.072	-0.342
-126.268	373.951	-0.037	-0.074
-125.253	800.000	0.076	-0.214
-124.239	146.797	-0.069	0.093
-123.224	52.301	0.115	0.109
-122.210	-26.203	0.127	-0.075
-121.195	-136.945	-0.014	-0.002
