DTS Sentinel unit serial number:	SN413079Multiplexer serial number:	ORYXHardware model number:	OX4-SRSoftware version number:	ORYX F/W v4.00 Oryx Data Collector v3.7.2.0data status	okinstallation	princeton_trtdifferential loss correction	single-endedforward channel	channel 4reverse channel	N/Adate	2019/09/13time	16:25:35forward acquisition time	60.00reverse acquisition time	0.00gamma	496.2192k internal	0.2295k external	0.2295temperature offset calibration	1.0217default loss term (dB/km)	0.3790temperature slope calibration	1.0000multiplexer offset coefficient	1.0000multiplexer slope coefficient	1.0000fibre end	0.00T internal ref (°C)	35.03T ext. ref 1 (°C)	4.88T ext. ref 2 (°C)	31.01length (m)	temperature (°C)	Stokes	anti-Stokes-747.200	436.444	0.080	0.177
-746.185	-136.160	-0.109	0.013
-745.171	81.625	0.319	-0.353
-744.156	594.531	-0.106	0.268
-743.142	-133.083	0.260	-0.034
-742.127	-200.000	-0.004	0.189
-741.112	-15.030	0.108	0.070
-740.098	-200.000	0.045	0.408
-739.083	49.938	0.124	0.119
-738.069	47.148	-0.046	0.044
-737.054	24.743	-0.082	0.069
-736.039	-39.309	-0.222	0.119
-735.025	-200.000	-0.060	-0.306
-734.010	54.076	0.149	0.146
-732.996	-41.360	-0.178	0.094
-731.981	49.869	0.157	-0.151
-730.966	404.640	0.028	-0.061
-729.952	-69.149	0.416	0.164
-728.937	15.478	-0.084	0.068
-727.923	107.557	-0.143	0.174
-726.908	88.678	-0.143	-0.163
-725.894	-200.000	-0.040	0.235
-724.879	73.015	-0.133	0.142
-723.864	46.890	0.076	-0.072
-722.850	800.000	-0.022	0.094
-721.835	767.454	0.045	-0.126
-720.821	188.583	0.219	-0.335
-719.806	145.625	0.339	-0.464
-718.791	705.212	-0.034	-0.091
-717.777	98.864	0.077	0.091
-716.762	-30.586	0.157	0.091
-715.748	1.978	0.209	-0.154
-714.733	5.101	0.106	0.080
-713.718	466.961	0.142	0.326
-712.704	-200.000	-0.045	0.275
-711.689	28.260	-0.264	0.228
-710.675	-91.096	0.047	-0.014
-709.660	-11.688	-0.321	-0.215
-708.645	-75.509	0.179	-0.065
-707.631	-43.985	0.064	0.033
-706.616	-18.002	-0.216	-0.138
-705.602	133.425	-0.193	-0.254
-704.587	-200.000	-0.038	0.290
-703.572	37.770	-0.065	0.059
-702.558	10.310	0.223	-0.173
-701.543	-15.928	-0.065	0.042
-700.529	67.534	0.225	-0.235
-699.514	-52.602	-0.081	0.038
-698.499	-200.000	0.030	-0.346
-697.485	187.726	-0.089	0.136
-696.470	12.711	0.288	-0.227
-695.456	-200.000	-0.095	-0.558
-694.441	128.606	-0.135	0.175
-693.426	800.000	0.077	-0.280
-692.412	800.000	0.053	-0.211
-691.397	-74.105	-0.370	0.137
-690.383	-200.000	0.011	0.274
-689.368	-200.000	-0.023	-0.184
-688.354	-176.675	0.168	0.004
-687.339	-200.000	-0.024	-0.349
-686.324	-155.741	0.122	0.008
-685.310	-129.067	-0.120	-0.017
-684.295	185.214	-0.110	-0.166
-683.281	-143.531	-0.507	-0.049
-682.266	-124.839	0.274	-0.043
-681.251	-107.762	-0.108	-0.024
-680.237	11.755	-0.150	0.117
-679.222	285.100	-0.039	-0.072
-678.208	195.466	-0.216	-0.335
-677.193	-200.000	-0.057	-0.389
-676.178	0.043	-0.311	-0.226
-675.164	114.114	-0.163	-0.203
-674.149	529.687	-0.096	-0.230
-673.135	-200.000	-0.405	0.001
-672.120	65.181	-0.163	0.168
-671.105	157.093	-0.106	0.150
-670.091	-71.585	0.350	0.133
-669.076	144.006	-0.098	-0.134
-668.062	479.244	0.025	0.057
-667.047	-24.323	0.141	-0.086
-666.032	205.496	-0.050	0.079
-665.018	-44.124	0.080	-0.041
-664.003	227.689	-0.222	0.368
-662.989	-199.687	0.077	0.000
-661.974	-200.000	-0.020	-0.207
-660.959	-66.858	-0.212	0.085
-659.945	-5.674	-0.367	-0.256
-658.930	-200.000	0.033	-0.253
-657.916	680.521	0.045	-0.119
-656.901	302.680	0.060	-0.112
-655.886	-55.637	0.254	-0.116
-654.872	30.483	-0.029	-0.026
-653.857	-92.065	-0.230	0.066
-652.843	10.566	0.210	-0.163
-651.828	-14.393	0.196	-0.128
-650.814	35.044	-0.252	-0.225
-649.799	-200.000	0.016	-0.163
-648.784	407.869	-0.070	0.150
-647.770	536.383	0.169	-0.408
-646.755	-15.923	-0.216	-0.140
-645.741	-9.611	-0.271	-0.184
-644.726	-200.000	0.004	-0.213
-643.711	-153.977	0.153	0.011
-642.697	-62.025	0.260	-0.110
-641.682	-88.264	-0.052	0.016
-640.668	-200.000	0.008	0.178
-639.653	-200.000	0.054	0.253
-638.638	-144.805	0.343	0.032
-637.624	800.000	-0.068	0.220
-636.609	189.849	-0.282	-0.431
-635.595	370.096	-0.210	-0.434
-634.580	800.000	0.047	0.198
-633.565	16.030	0.017	-0.014
-632.551	-158.400	-0.399	0.024
-631.536	800.000	-0.126	-0.416
-630.522	-200.000	0.010	-0.081
-629.507	222.475	-0.156	0.255
-628.492	-47.415	0.370	-0.183
-627.478	-43.598	0.078	-0.040
-626.463	-184.753	0.089	0.001
-625.449	36.225	0.117	-0.104
-624.434	26.503	0.271	0.231
-623.419	28.261	0.186	0.159
-622.405	-72.226	-0.205	-0.077
-621.390	-170.290	0.105	-0.004
-620.376	-28.070	-0.047	-0.027
-619.361	-108.432	-0.012	-0.003
-618.346	625.096	-0.118	0.302
-617.332	-32.116	-0.108	0.061
-616.317	94.768	-0.164	0.189
-615.303	800.000	0.039	0.158
-614.288	-96.332	-0.378	0.102
-613.273	388.905	0.055	0.116
-612.259	-200.000	0.002	-0.163
-611.244	99.270	-0.281	-0.330
-610.230	-122.232	-0.283	-0.047
-609.215	133.590	0.161	0.212
-608.201	-200.000	0.008	0.145
-607.186	-26.888	-0.018	0.011
-606.171	36.062	0.060	0.054
-605.157	730.055	0.189	-0.514
-604.142	212.488	-0.042	0.067
-603.128	-13.316	0.082	0.054
-602.113	800.000	0.012	-0.046
-601.098	22.544	0.221	0.184
-600.084	-104.752	-0.174	-0.041
-599.069	-200.000	0.031	-0.183
-598.055	27.503	0.179	0.153
-597.040	-18.873	0.461	0.291
-596.025	-32.259	-0.205	-0.116
-595.011	-130.466	-0.205	0.028
-593.996	-46.802	0.201	0.100
-592.982	-200.000	-0.002	0.024
-591.967	-200.000	-0.037	-0.197
-590.952	6.101	-0.118	0.089
-589.938	-145.025	0.296	0.027
-588.923	7.955	-0.303	0.230
-587.909	281.598	0.083	-0.151
-586.894	29.523	-0.033	0.029
-585.879	-178.882	0.101	0.002
-584.865	800.000	0.047	0.201
-583.850	-116.536	0.280	0.052
-582.836	-93.287	0.279	0.079
-581.821	-6.139	0.191	0.132
-580.806	-87.795	0.187	-0.057
-579.792	113.252	0.200	0.246
-578.777	-200.000	0.002	-0.291
-577.763	2.748	0.119	-0.088
-576.748	348.728	0.086	-0.173
-575.733	48.896	0.049	0.046
-574.719	-92.338	-0.200	0.057
-573.704	242.546	0.167	-0.284
-572.690	-105.768	0.228	0.052
-571.675	747.933	-0.090	-0.247
-570.661	-87.664	-0.429	0.132
-569.646	-69.301	-0.119	-0.046
-568.631	245.246	-0.095	-0.161
-567.617	800.000	0.034	-0.148
-566.602	-200.000	0.032	-0.385
-565.588	-76.300	0.218	-0.078
-564.573	-53.454	0.042	-0.019
-563.558	162.058	-0.150	-0.214
-562.544	-118.103	-0.158	-0.029
-561.529	-24.561	-0.151	0.091
-560.515	-164.882	-0.102	-0.005
-559.500	-200.000	-0.034	0.216
-558.485	-6.794	-0.157	-0.109
-557.471	-161.234	-0.150	-0.008
-556.456	-120.242	0.066	-0.011
-555.442	-162.349	-0.134	0.007
-554.427	53.297	0.225	0.218
-553.412	-8.543	-0.184	-0.125
-552.398	26.071	-0.165	0.140
-551.383	800.000	-0.125	0.358
-550.369	-148.686	0.120	0.010
-549.354	24.142	-0.190	-0.159
-548.339	163.179	0.238	0.339
-547.325	-200.000	0.025	0.224
-546.310	377.150	-0.181	0.376
-545.296	464.397	-0.166	0.377
-544.281	160.521	0.113	-0.160
-543.266	36.131	-0.141	-0.126
-542.252	-118.351	0.305	0.055
-541.237	-200.000	0.010	-0.436
-540.223	800.000	0.050	0.191
-539.208	-145.387	-0.055	0.005
-538.193	-59.504	0.244	0.106
-537.179	-200.000	0.000	-0.188
-536.164	436.984	-0.064	-0.141
-535.150	800.000	-0.114	0.323
-534.135	-200.000	0.069	-0.365
-533.121	125.493	0.050	0.064
-532.106	-0.113	0.053	-0.038
-531.091	-34.573	-0.123	-0.068
-530.077	149.575	-0.109	0.150
-529.062	-125.434	-0.206	0.032
-528.048	73.509	-0.187	0.199
-527.033	-33.363	-0.113	-0.064
-526.018	-173.340	0.175	-0.005
-525.004	-60.454	-0.141	0.061
-523.989	-169.799	-0.083	-0.003
-522.975	76.074	0.108	0.116
-521.960	26.509	-0.076	-0.064
-520.945	140.478	0.169	0.225
-519.931	-63.329	0.370	-0.154
-518.916	-38.863	0.357	-0.191
-517.902	-141.128	0.157	-0.016
-516.887	449.214	0.086	-0.193
-515.872	-116.989	-0.187	-0.035
-514.858	800.000	0.004	0.012
-513.843	-68.992	-0.206	-0.080
-512.829	-200.000	-0.004	0.249
-511.814	179.196	0.075	-0.111
-510.799	158.301	0.098	0.138
-509.785	-86.876	0.524	-0.162
-508.770	800.000	0.102	0.310
-507.756	552.284	-0.118	0.286
-506.741	-120.782	-0.280	-0.048
-505.726	-40.344	-0.123	0.065
-504.712	588.506	0.042	0.106
-503.697	-160.905	-0.446	-0.024
-502.683	45.102	-0.207	-0.193
-501.668	72.053	0.110	0.116
-500.653	-200.000	0.032	-0.151
-499.639	104.209	-0.058	0.069
-498.624	117.858	0.041	-0.051
-497.610	-200.000	-0.027	-0.132
-496.595	-27.584	-0.178	0.104
-495.581	-41.721	-0.143	0.074
-494.566	33.281	0.181	0.159
-493.551	-110.662	0.094	-0.020
-492.537	-200.000	0.058	0.291
-491.522	-121.471	0.267	-0.045
-490.508	-200.000	0.017	0.105
-489.493	95.150	0.206	0.237
-488.478	-200.000	0.013	0.083
-487.464	311.430	-0.088	0.167
-486.449	92.286	0.152	-0.174
-485.435	-200.000	-0.004	-0.322
-484.420	2.509	-0.081	0.059
-483.405	379.978	0.058	-0.121
-482.391	-123.374	-0.204	0.033
-481.376	463.342	-0.133	0.299
-480.362	-91.850	-0.269	-0.077
-479.347	-200.000	0.013	-0.319
-478.332	209.806	-0.073	-0.116
-477.318	800.000	0.023	-0.102
-476.303	30.044	0.168	-0.145
-475.289	295.650	0.037	-0.069
-474.274	-200.000	-0.001	-0.163
-473.259	-119.846	0.198	-0.034
-472.245	198.812	0.215	-0.332
-471.230	-49.807	0.183	0.088
-470.216	58.973	-0.086	0.085
-469.201	110.534	-0.191	0.232
-468.186	106.235	-0.121	0.145
-467.172	652.662	0.023	0.060
-466.157	-200.000	-0.007	-0.324
-465.143	-200.000	-0.020	-0.252
-464.128	-200.000	-0.015	-0.095
-463.113	741.658	0.030	-0.082
-462.099	585.971	0.028	0.069
-461.084	-200.000	0.057	0.295
-460.070	395.895	-0.024	0.051
-459.055	-200.000	-0.051	0.467
-458.040	800.000	-0.102	-0.324
-457.026	443.329	-0.028	-0.062
-456.011	374.576	0.049	0.102
-454.997	118.219	0.088	0.110
-453.982	800.000	0.070	0.236
-452.968	51.762	-0.192	-0.185
-451.953	107.846	-0.096	-0.116
-450.938	-31.399	-0.200	0.114
-449.924	-43.118	0.181	0.093
-448.909	155.776	-0.083	0.115
-447.895	-57.814	-0.265	-0.117
-446.880	-157.459	-0.204	0.012
-445.865	226.934	0.096	0.157
-444.851	236.082	0.068	0.113
-443.836	800.000	-0.026	-0.084
-442.822	-137.815	0.378	-0.043
-441.807	-200.000	0.083	0.481
-440.792	407.517	0.099	0.212
-439.778	-134.263	-0.154	0.019
-438.763	83.771	0.057	0.062
-437.749	56.183	-0.375	-0.367
-436.734	345.359	-0.258	-0.511
-435.719	33.343	0.265	0.232
-434.705	-30.803	-0.138	0.079
-433.690	256.599	-0.051	-0.088
-432.676	-200.000	0.038	-0.200
-431.661	-86.802	-0.087	0.027
-430.646	773.657	-0.070	-0.193
-429.632	388.930	-0.095	0.198
-428.617	161.600	0.130	-0.183
-427.603	80.767	0.192	0.209
-426.588	-81.382	-0.240	0.080
-425.573	-200.000	-0.010	-0.083
-424.559	149.649	0.038	-0.052
-423.544	-173.450	0.274	-0.008
-422.530	571.117	-0.107	0.264
-421.515	-95.279	-0.114	0.031
-420.500	344.808	0.259	-0.513
-419.486	-193.044	0.077	0.001
-418.471	-84.737	-0.276	-0.088
-417.457	112.055	0.098	0.119
-416.442	101.850	0.210	-0.247
-415.428	-180.763	0.269	-0.006
-414.413	582.492	0.057	-0.141
-413.398	-146.650	0.201	-0.018
-412.384	126.755	-0.173	0.222
-411.369	379.991	-0.179	0.370
-410.355	-86.321	-0.241	0.075
-409.340	-113.070	-0.300	-0.060
-408.325	302.023	-0.020	0.037
-407.311	-52.169	0.076	0.035
-406.296	226.781	-0.047	-0.077
-405.282	-58.714	-0.542	-0.237
-404.267	349.378	-0.034	0.068
-403.252	-200.000	0.003	0.123
-402.238	248.803	0.027	0.046
-401.223	63.866	-0.157	-0.160
-400.209	800.000	0.024	0.078
-399.194	-200.000	0.014	-0.351
-398.179	-65.528	0.315	-0.127
-397.165	141.753	0.079	-0.105
-396.150	131.366	0.081	0.105
-395.136	-200.000	-0.040	-0.337
-394.121	219.728	-0.049	-0.080
-393.106	46.803	0.104	0.098
-392.092	102.937	-0.127	-0.150
-391.077	-75.423	0.142	0.051
-390.063	-112.333	-0.141	0.028
-389.048	-47.094	0.070	0.034
-388.033	-15.335	-0.097	-0.062
-387.019	55.086	0.133	0.130
-386.004	161.216	0.072	-0.102
-384.990	-74.760	-0.071	-0.026
-383.975	114.969	0.151	-0.186
-382.960	-136.670	0.353	0.041
-381.946	800.000	0.109	-0.391
-380.931	-200.000	0.033	0.307
-379.917	56.624	-0.060	-0.059
-378.902	-9.809	-0.077	0.051
-377.888	-200.000	0.045	0.323
-376.873	-66.786	0.239	-0.095
-375.858	800.000	0.008	-0.031
-374.844	-46.283	-0.230	-0.114
-373.829	-200.000	-0.028	-0.418
-372.815	137.211	-0.143	0.188
-371.800	800.000	-0.056	-0.175
-370.785	63.412	0.209	0.211
-369.771	-200.000	0.017	-0.259
-368.756	800.000	0.009	-0.035
-367.742	800.000	-0.155	0.443
-366.727	-200.000	0.048	-0.334
-365.712	1.959	-0.300	0.218
-364.698	-15.627	-0.077	-0.050
-363.683	-108.690	0.188	-0.041
-362.669	-119.770	-0.266	-0.046
-361.654	625.388	-0.005	0.013
-360.639	-60.021	0.187	-0.080
-359.625	800.000	-0.061	0.181
-358.610	-65.443	0.098	-0.040
-357.596	-24.065	-0.279	-0.168
-356.581	289.683	-0.133	-0.243
-355.566	-200.000	0.044	0.237
-354.552	-81.317	0.377	-0.125
-353.537	-102.791	0.054	0.013
-352.523	-100.260	0.032	-0.008
-351.508	-0.308	-0.072	-0.052
-350.493	-200.000	-0.025	-0.255
-349.479	-184.392	-0.202	-0.003
-348.464	-200.000	0.004	-0.234
-347.450	322.164	0.090	-0.173
-346.435	-24.171	0.357	0.214
-345.420	-50.899	0.162	0.077
-344.406	128.943	0.115	-0.147
-343.391	162.021	0.216	0.304
-342.377	56.548	0.341	-0.334
-341.362	216.696	-0.099	0.158
-340.348	-131.603	-0.093	0.012
-339.333	800.000	0.052	-0.222
-338.318	-46.932	0.401	-0.197
-337.304	-200.000	-0.033	-0.189
-336.289	103.905	0.115	-0.136
-335.275	-92.025	0.370	-0.105
-334.260	-200.000	-0.017	0.091
-333.245	-53.445	0.311	0.143
-332.231	-197.519	0.184	0.001
-331.216	143.128	0.054	0.073
-330.202	-150.663	-0.242	-0.019
-329.187	-83.891	0.051	-0.016
-328.172	-36.305	0.298	-0.161
-327.158	442.999	0.058	-0.128
-326.143	-164.331	-0.217	-0.010
-325.129	174.492	0.076	0.110
-324.114	-200.000	0.015	0.320
-323.099	-136.197	0.405	-0.048
-322.085	39.082	-0.428	-0.385
-321.070	800.000	0.056	-0.203
-320.056	-200.000	0.011	0.323
-319.041	59.170	-0.179	0.178
-318.026	-169.320	0.199	0.007
-317.012	662.545	0.103	0.266
-315.997	484.051	-0.070	-0.159
-314.983	-31.890	0.054	-0.030
-313.968	-114.860	-0.308	-0.059
-312.953	196.377	0.107	0.164
-311.939	-200.000	-0.008	0.370
-310.924	66.232	0.223	-0.227
-309.910	-200.000	0.022	0.195
-308.895	-200.000	-0.067	-0.307
-307.880	21.689	0.325	0.266
-306.866	730.085	-0.174	0.468
-305.851	-96.071	-0.228	0.061
-304.837	326.017	0.110	-0.212
-303.822	206.190	-0.078	0.122
-302.807	-135.694	0.215	0.026
-301.793	-200.000	-0.033	-0.185
-300.778	5.510	0.178	0.132
-299.764	-118.614	-0.371	-0.066
-298.749	-42.252	-0.164	0.084
-297.735	-182.790	0.199	-0.004
-296.720	-122.634	-0.617	0.101
-295.705	-44.562	0.191	0.096
-294.691	800.000	-0.068	-0.257
-293.676	-128.759	0.101	0.014
-292.662	342.615	0.035	-0.068
-291.647	800.000	0.022	-0.084
-290.632	29.869	-0.255	0.218
-289.618	-89.672	-0.411	0.121
-288.603	331.417	-0.061	-0.118
-287.589	252.232	0.124	-0.211
-286.574	-85.170	-0.139	0.044
-285.559	-121.137	0.019	0.003
-284.545	146.791	0.087	-0.117
-283.530	26.710	-0.057	0.048
-282.516	-200.000	-0.008	-0.111
-281.501	181.066	-0.221	-0.325
-280.486	72.668	0.215	-0.225
-279.472	63.104	-0.078	0.078
-278.457	-200.000	0.023	-0.179
-277.443	800.000	-0.016	0.047
-276.428	-20.068	0.122	-0.075
-275.413	-57.961	0.313	-0.137
-274.399	-28.934	-0.355	0.205
-273.384	64.904	0.217	-0.220
-272.370	-98.978	-0.042	0.011
-271.355	-33.409	-0.213	-0.118
-270.340	800.000	-0.097	0.344
-269.326	800.000	-0.034	0.140
-268.311	745.147	0.131	0.354
-267.297	-92.405	0.207	-0.058
-266.282	-18.312	-0.352	-0.221
-265.267	736.185	-0.030	0.081
-264.253	-52.284	0.118	-0.055
-263.238	-90.236	-0.109	-0.032
-262.224	275.924	-0.083	0.148
-261.209	-141.376	-0.238	-0.024
-260.195	-16.828	-0.352	0.223
-259.180	-71.216	0.030	0.011
-258.165	55.504	0.098	-0.096
-257.151	21.691	0.126	-0.103
-256.136	58.707	0.053	-0.052
-255.122	-132.877	-0.222	-0.028
-254.107	10.517	0.334	0.256
-253.092	-200.000	-0.030	0.221
-252.078	51.601	-0.100	0.096
-251.063	-94.737	0.409	0.111
-250.049	4.088	-0.224	0.164
-249.034	-159.960	0.113	0.006
-248.019	226.769	-0.046	-0.075
-247.005	-61.887	-0.278	-0.117
-245.990	14.855	0.045	-0.035
-244.976	-200.000	-0.017	0.115
-243.961	-59.091	-0.153	0.066
-242.946	-89.627	-0.251	0.074
-241.932	-200.000	0.003	0.208
-240.917	-200.000	-0.007	0.085
-239.903	-200.000	-0.007	0.110
-238.888	800.000	0.130	0.399
-237.873	-27.575	0.132	0.077
-236.859	13.350	0.056	-0.044
-235.844	115.151	0.310	0.380
-234.830	-200.000	0.051	0.290
-233.815	-71.813	-0.054	-0.020
-232.800	245.662	0.199	-0.336
-231.786	-71.130	-0.314	0.118
-230.771	318.046	-0.089	-0.169
-229.757	-67.127	0.037	-0.015
-228.742	-68.694	-0.129	-0.050
-227.727	800.000	0.067	-0.221
-226.713	320.225	-0.071	0.135
-225.698	-200.000	0.035	0.235
-224.684	-109.621	0.180	0.038
-223.669	67.092	-0.110	0.112
-222.655	800.000	0.059	0.220
-221.640	218.646	0.238	-0.380
-220.625	-3.885	0.175	0.122
-219.611	43.094	-0.080	0.073
-218.596	-152.216	-0.122	0.009
-217.582	-19.057	-0.151	0.094
-216.567	-93.899	0.111	-0.031
-215.552	-40.001	0.169	0.088
-214.538	343.001	0.201	0.395
-213.523	-200.000	0.014	-0.063
-212.509	-68.964	-0.128	-0.050
-211.494	-21.898	-0.186	0.113
-210.479	16.509	-0.300	0.237
-209.465	800.000	-0.021	-0.069
-208.450	-200.000	-0.002	0.246
-207.436	466.005	0.062	-0.139
-206.421	171.662	-0.104	-0.149
-205.406	-200.000	-0.031	-0.256
-204.392	265.158	0.053	0.092
-203.377	800.000	-0.159	-0.462
-202.363	790.205	-0.067	0.186
-201.348	800.000	-0.092	0.334
-200.333	185.652	-0.083	-0.123
-199.319	-80.258	-0.167	0.056
-198.304	-6.123	-0.219	-0.150
-197.290	800.000	-0.065	-0.243
-196.275	800.000	0.081	0.228
-195.260	-10.909	-0.037	-0.025
-194.246	25.908	-0.155	-0.129
-193.231	-32.105	-0.155	0.087
-192.217	-43.009	0.035	-0.018
-191.202	-200.000	0.005	-0.116
-190.187	800.000	-0.043	0.186
-189.173	-147.510	-0.173	0.015
-188.158	-80.994	-0.239	-0.079
-187.144	-184.069	0.279	-0.005
-186.129	-129.653	0.074	-0.010
-185.114	-86.326	0.092	-0.028
-184.100	118.114	0.103	-0.127
-183.085	-200.000	0.055	0.347
-182.071	-200.000	0.008	-0.129
-181.056	420.601	0.020	0.043
-180.042	106.277	-0.046	0.054
-179.027	216.690	0.094	0.150
-178.012	-115.625	0.108	-0.020
-176.998	76.151	-0.199	-0.211
-175.983	-74.370	-0.099	-0.036
-174.969	93.755	0.236	0.267
-173.954	800.000	0.047	-0.173
-172.939	-135.054	-0.145	-0.017
-171.925	-55.747	0.276	0.123
-170.910	73.951	-0.114	-0.119
-169.896	204.599	-0.104	0.161
-168.881	167.019	0.072	0.102
-167.866	-200.000	0.034	-0.271
-166.852	268.211	0.155	-0.271
-165.837	399.415	0.057	-0.120
-164.823	800.000	0.046	-0.143
-163.808	78.634	0.046	-0.049
-162.793	-200.000	0.005	-0.075
-161.779	80.122	-0.055	-0.059
-160.764	76.344	0.121	-0.128
-159.750	403.010	0.017	0.035
-158.735	721.594	-0.133	0.353
-157.720	314.632	-0.107	-0.201
-156.706	293.183	-0.134	0.243
-155.691	-30.716	-0.067	0.038
-154.677	-198.685	-0.229	0.001
-153.662	-18.348	0.115	0.072
-152.647	800.000	0.055	-0.181
-151.633	-154.726	0.415	-0.027
-150.618	293.408	0.126	0.230
-149.604	-84.536	-0.203	-0.064
-148.589	75.705	-0.130	0.137
-147.574	509.777	0.024	0.055
-146.560	-1.111	-0.176	0.125
-145.545	15.557	0.167	-0.131
-144.531	-17.105	-0.078	0.049
-143.516	92.881	0.032	0.036
-142.502	-186.895	0.188	0.003
-141.487	394.109	-0.119	-0.247
-140.472	201.864	0.056	0.086
-139.458	-41.308	0.135	0.070
-138.443	-147.628	0.342	-0.029
-137.429	-139.530	-0.160	-0.017
-136.414	-47.556	0.214	-0.104
-135.399	62.568	0.081	0.081
-134.385	-172.375	-0.366	-0.012
-133.370	153.938	0.129	-0.177
-132.356	-200.000	-0.002	0.176
-131.341	-59.236	0.334	0.143
-130.326	-200.000	-0.058	-0.393
-129.312	104.244	-0.263	-0.309
-128.297	-37.448	0.203	-0.108
-127.283	-194.441	-0.117	-0.001
-126.268	-110.076	0.123	-0.026
-125.253	39.764	-0.114	-0.102
-124.239	-200.000	0.024	-0.291
-123.224	219.941	0.132	-0.211
-122.210	-200.000	-0.018	0.274
-121.195	-141.324	0.155	0.016
