DTS Sentinel unit serial number:	SN413079Multiplexer serial number:	ORYXHardware model number:	OX4-SRSoftware version number:	ORYX F/W v4.00 Oryx Data Collector v3.7.2.0data status	okinstallation	princeton_trtdifferential loss correction	single-endedforward channel	channel 4reverse channel	N/Adate	2019/09/14time	19:21:35forward acquisition time	60.00reverse acquisition time	0.00gamma	496.2192k internal	0.2303k external	0.2303temperature offset calibration	1.0096default loss term (dB/km)	0.3790temperature slope calibration	1.0000multiplexer offset coefficient	1.0000multiplexer slope coefficient	1.0000fibre end	0.00T internal ref (°C)	35.00T ext. ref 1 (°C)	4.88T ext. ref 2 (°C)	29.08length (m)	temperature (°C)	Stokes	anti-Stokes-747.200	618.731	-0.059	-0.151
-746.185	310.369	0.104	0.198
-745.171	-149.045	0.225	-0.018
-744.156	-200.000	-0.028	0.201
-743.142	-63.121	-0.103	-0.043
-742.127	204.740	0.095	-0.149
-741.112	-56.457	-0.121	0.055
-740.098	52.960	-0.278	-0.271
-739.083	300.894	-0.169	-0.317
-738.069	-200.000	0.024	-0.161
-737.054	546.107	-0.021	0.052
-736.039	-11.944	-0.289	0.193
-735.025	313.077	0.047	-0.089
-734.010	800.000	0.133	-0.411
-732.996	800.000	-0.017	-0.054
-731.981	800.000	0.025	0.082
-730.966	-200.000	-0.037	-0.191
-729.952	-175.044	-0.295	0.008
-728.937	202.528	-0.136	-0.214
-727.923	-166.703	-0.301	-0.013
-726.908	555.083	-0.089	-0.218
-725.894	-200.000	-0.036	0.328
-724.879	-94.058	0.282	-0.079
-723.864	-32.740	-0.198	-0.112
-722.850	-163.613	-0.187	0.009
-721.835	-200.000	-0.057	0.293
-720.821	-158.285	0.157	0.009
-719.806	116.263	-0.005	-0.006
-718.791	-198.598	-0.084	-0.000
-717.777	29.961	-0.217	-0.188
-716.762	-200.000	-0.051	-0.233
-715.748	311.399	-0.055	0.105
-714.733	26.626	0.135	0.115
-713.718	-97.601	-0.138	-0.036
-712.704	800.000	-0.150	0.438
-711.689	-200.000	0.036	-0.217
-710.675	382.760	-0.007	0.014
-709.660	800.000	-0.077	0.305
-708.645	85.221	-0.154	-0.171
-707.631	217.467	-0.163	-0.264
-706.616	-26.163	0.100	0.060
-705.602	13.415	-0.036	0.028
-704.587	800.000	0.137	-0.470
-703.572	99.081	0.103	0.121
-702.558	-150.235	-0.429	0.034
-701.543	158.780	0.027	-0.038
-700.529	-45.997	0.120	-0.060
-699.514	309.898	0.149	-0.283
-698.499	-87.527	-0.141	0.043
-697.485	306.028	0.190	-0.359
-696.470	-158.927	-0.201	-0.012
-695.456	460.235	0.112	-0.254
-694.441	30.830	-0.215	0.187
-693.426	342.761	-0.125	-0.249
-692.412	-200.000	-0.009	0.163
-691.397	37.219	0.218	0.196
-690.383	87.839	-0.092	0.104
-689.368	54.778	-0.085	0.083
-688.354	18.922	0.193	-0.157
-687.339	-200.000	0.058	-0.277
-686.324	-114.033	0.358	-0.070
-685.310	341.402	-0.141	-0.280
-684.295	68.414	0.148	0.154
-683.281	-33.784	-0.120	0.067
-682.266	30.239	-0.140	0.122
-681.251	800.000	0.025	0.097
-680.237	-35.713	0.326	-0.180
-679.222	-3.702	0.229	-0.162
-678.208	-101.667	-0.041	0.010
-677.193	-200.000	0.029	-0.300
-676.178	800.000	0.072	-0.311
-675.164	-120.297	-0.264	-0.046
-674.149	-94.998	-0.212	0.058
-673.135	-200.000	0.035	-0.257
-672.120	133.345	0.098	-0.128
-671.105	-200.000	-0.089	0.429
-670.091	81.648	0.198	-0.217
-669.076	332.043	-0.101	-0.199
-668.062	-92.936	0.115	0.033
-667.047	347.170	-0.070	-0.140
-666.032	-187.512	-0.276	-0.004
-665.018	-102.960	0.343	0.083
-664.003	800.000	-0.055	-0.170
-662.989	-200.000	-0.057	-0.464
-661.974	14.256	-0.195	0.154
-660.959	-154.197	-0.213	-0.015
-659.945	-200.000	0.006	0.138
-658.930	9.316	-0.067	-0.051
-657.916	329.925	0.119	-0.232
-656.901	405.235	-0.071	0.153
-655.886	800.000	-0.110	0.469
-654.872	-96.936	-0.094	-0.025
-653.857	-200.000	-0.011	0.168
-652.843	-200.000	0.048	-0.291
-651.828	63.382	-0.024	0.024
-650.814	-168.999	0.205	0.008
-649.799	-200.000	0.023	-0.177
-648.784	485.329	-0.152	0.351
-647.770	-200.000	-0.017	-0.130
-646.755	-200.000	-0.004	0.077
-645.741	-104.070	-0.146	-0.034
-644.726	-105.252	-0.246	-0.057
-643.711	-32.416	-0.150	-0.085
-642.697	-157.546	0.174	0.011
-641.682	800.000	-0.031	-0.121
-640.668	-200.000	-0.031	0.190
-639.653	-146.080	-0.385	0.035
-638.638	-103.783	0.221	-0.053
-637.624	183.791	-0.242	-0.364
-636.609	-129.158	0.096	-0.014
-635.595	41.642	0.237	-0.218
-634.580	25.759	-0.131	-0.111
-633.565	-5.953	0.219	-0.152
-632.551	-38.285	0.201	0.108
-631.536	448.155	-0.092	-0.206
-630.522	800.000	-0.058	-0.210
-629.507	684.545	0.079	0.210
-628.492	-200.000	0.020	-0.124
-627.478	-200.000	-0.024	-0.169
-626.463	-84.601	-0.073	0.023
-625.449	-200.000	-0.007	-0.252
-624.434	236.297	0.099	-0.166
-623.419	-200.000	0.007	-0.143
-622.405	-200.000	0.003	-0.077
-621.390	800.000	-0.024	-0.074
-620.376	-200.000	0.013	0.260
-619.361	800.000	0.029	0.092
-618.346	800.000	-0.093	-0.406
-617.332	-45.166	-0.400	-0.202
-616.317	47.056	-0.109	-0.102
-615.303	-200.000	-0.007	0.057
-614.288	230.479	0.108	0.180
-613.273	-83.583	-0.227	0.074
-612.259	515.282	-0.130	-0.307
-611.244	478.793	0.094	-0.215
-610.230	110.389	0.118	0.143
-609.215	490.171	0.103	-0.238
-608.201	86.700	0.312	-0.349
-607.186	-56.759	-0.239	0.107
-606.171	392.325	0.155	0.327
-605.157	-149.042	-0.071	0.006
-604.142	800.000	0.067	0.198
-603.128	800.000	-0.036	0.157
-602.113	-117.202	-0.115	0.021
-601.098	112.406	0.092	0.112
-600.084	146.421	-0.146	-0.198
-599.069	-154.681	-0.223	-0.015
-598.055	-200.000	-0.007	-0.163
-597.040	-55.079	-0.196	0.089
-596.025	61.148	-0.235	-0.236
-595.011	-128.614	0.113	0.016
-593.996	800.000	0.027	-0.086
-592.982	-31.294	-0.215	-0.123
-591.967	-65.100	0.393	0.161
-590.952	-1.192	-0.145	0.104
-589.938	11.858	0.214	-0.167
-588.923	800.000	-0.112	0.333
-587.909	-17.342	-0.227	0.145
-586.894	-200.000	-0.014	-0.070
-585.879	89.862	-0.229	-0.259
-584.865	39.711	0.220	0.200
-583.850	-200.000	0.000	-0.006
-582.836	-200.000	-0.056	-0.392
-581.821	255.939	0.065	0.112
-580.806	294.633	0.124	-0.230
-579.792	491.686	0.064	-0.148
-578.777	-200.000	-0.030	-0.202
-577.763	7.736	-0.241	0.182
-576.748	-40.236	-0.071	0.037
-575.733	-135.336	-0.005	0.001
-574.719	-200.000	-0.004	0.114
-573.704	118.978	0.174	-0.217
-572.690	25.977	-0.249	-0.210
-571.675	58.405	-0.019	0.019
-570.661	162.053	0.032	-0.046
-569.646	-71.313	0.102	-0.039
-568.631	33.629	0.165	0.145
-567.617	159.630	-0.093	-0.131
-566.602	800.000	-0.115	0.340
-565.588	-115.650	-0.054	-0.010
-564.573	289.575	-0.095	0.175
-563.558	-152.143	0.215	0.016
-562.544	-200.000	-0.072	-0.355
-561.529	800.000	-0.075	-0.249
-560.515	-107.892	-0.090	0.020
-559.500	198.383	0.191	-0.295
-558.485	-91.431	0.233	0.067
-557.471	-30.949	-0.338	0.193
-556.456	2.714	-0.206	-0.151
-555.442	299.886	-0.225	0.419
-554.427	-3.129	-0.077	-0.054
-553.412	270.117	0.221	-0.393
-552.398	-168.588	0.016	-0.001
-551.383	423.605	0.104	0.227
-550.369	-141.253	0.072	-0.007
-549.354	800.000	-0.043	0.186
-548.339	-200.000	-0.016	0.085
-547.325	800.000	0.067	-0.294
-546.310	-200.000	-0.050	0.248
-545.296	-200.000	0.077	0.000
-544.281	800.000	-0.014	0.057
-543.266	-79.044	0.118	0.041
-542.252	243.918	0.093	0.158
-541.237	242.378	-0.119	0.202
-540.223	-200.000	0.002	-0.336
-539.208	16.775	-0.120	0.096
-538.193	485.150	-0.080	0.185
-537.179	800.000	-0.114	0.355
-536.164	-200.000	0.003	0.260
-535.150	-113.412	0.269	0.053
-534.135	800.000	0.085	0.275
-533.121	144.059	-0.089	0.120
-532.106	-200.000	0.038	-0.175
-531.091	-62.273	-0.237	0.100
-530.077	-68.776	-0.320	0.125
-529.062	-150.859	0.197	-0.015
-528.048	-200.000	0.015	0.122
-527.033	187.775	-0.124	0.187
-526.018	136.865	0.202	-0.266
-525.004	62.566	0.250	0.252
-523.989	-200.000	-0.057	0.359
-522.975	-200.000	-0.031	0.274
-521.960	112.836	0.149	0.182
-520.945	-97.089	-0.333	-0.088
-519.931	-137.767	0.284	-0.032
-518.916	-24.469	-0.113	-0.068
-517.902	800.000	0.044	0.133
-516.887	-112.161	0.273	-0.055
-515.872	108.137	-0.087	0.105
-514.858	-200.000	-0.028	-0.133
-513.843	43.986	-0.063	-0.058
-512.829	800.000	-0.027	-0.084
-511.814	622.073	-0.045	0.116
-510.799	-164.628	0.261	-0.012
-509.785	-200.000	0.054	0.307
-508.770	0.576	-0.113	0.082
-507.756	800.000	0.104	0.417
-506.741	-91.115	-0.432	0.125
-505.726	-200.000	-0.031	0.387
-504.712	-39.267	0.159	0.084
-503.697	-200.000	0.004	0.245
-502.683	800.000	-0.050	-0.161
-501.668	123.724	0.037	-0.047
-500.653	-200.000	0.007	-0.127
-499.639	-34.770	-0.086	0.047
-498.624	61.193	-0.070	0.070
-497.610	800.000	-0.030	0.127
-496.595	-134.353	0.108	-0.013
-495.581	-129.770	0.292	0.041
-494.566	-60.228	-0.062	0.027
-493.551	32.123	0.316	-0.275
-492.537	-58.515	0.070	0.031
-491.522	116.069	-0.120	0.149
-490.508	-91.550	-0.130	0.037
-489.493	35.498	-0.183	-0.162
-488.478	16.842	-0.172	0.137
-487.464	-200.000	-0.058	-0.281
-486.449	17.237	-0.269	0.215
-485.435	-93.853	0.163	-0.045
-484.420	101.423	-0.147	-0.173
-483.405	-11.642	0.059	0.039
-482.391	290.070	-0.022	-0.040
-481.376	-200.000	-0.021	-0.228
-480.362	-200.000	-0.036	0.414
-479.347	-155.333	0.097	0.006
-478.332	7.259	-0.266	0.200
-477.318	-181.047	-0.285	0.006
-476.303	56.782	-0.144	-0.141
-475.289	-120.965	-0.113	0.019
-474.274	315.921	-0.067	0.128
-473.259	-117.512	0.125	0.023
-472.245	-200.000	-0.066	0.467
-471.230	320.537	0.023	0.045
-470.216	-66.703	-0.385	-0.154
-469.201	-200.000	-0.006	-0.243
-468.186	129.360	0.251	0.324
-467.172	-131.593	0.051	-0.007
-466.157	800.000	-0.050	-0.166
-465.143	800.000	0.087	0.263
-464.128	555.042	-0.120	-0.292
-463.113	-55.454	0.498	-0.225
-462.099	-133.132	-0.200	0.026
-461.084	-167.507	0.575	-0.023
-460.070	10.365	-0.053	-0.041
-459.055	-109.822	-0.271	-0.057
-458.040	407.876	-0.173	0.368
-457.026	173.108	0.189	0.274
-456.011	-29.076	-0.271	-0.157
-454.997	-200.000	0.302	0.000
-453.982	-72.748	0.057	-0.021
-452.968	304.905	-0.088	0.165
-451.953	800.000	-0.023	-0.082
-450.938	800.000	0.055	0.187
-449.924	-200.000	-0.012	0.242
-448.909	30.788	-0.039	-0.034
-447.895	460.712	-0.090	-0.202
-446.880	-200.000	0.048	0.271
-445.865	800.000	-0.028	-0.102
-444.851	-39.685	0.093	-0.049
-443.836	800.000	-0.098	-0.395
-442.822	74.069	-0.081	0.086
-441.807	287.898	0.098	0.178
-440.792	-51.601	-0.341	-0.160
-439.778	-122.068	0.315	0.052
-438.763	331.513	-0.037	-0.071
-437.749	-200.000	0.009	0.130
-436.734	800.000	0.020	-0.077
-435.719	-200.000	-0.021	0.174
-434.705	800.000	0.047	0.178
-433.690	-91.516	-0.355	0.102
-432.676	-16.742	0.154	-0.098
-431.661	33.175	0.171	0.150
-430.646	-9.001	0.177	-0.119
-429.632	-200.000	-0.011	-0.053
-428.617	-77.582	0.176	-0.061
-427.603	-88.066	-0.257	0.078
-426.588	111.210	-0.135	-0.164
-425.573	-53.015	-0.234	0.108
-424.559	-200.000	0.015	-0.132
-423.544	163.322	0.099	0.141
-422.530	203.462	0.132	-0.205
-421.515	-89.954	0.058	-0.017
-420.500	-112.740	0.285	0.057
-419.486	-200.000	-0.021	0.133
-418.471	606.315	-0.111	-0.278
-417.457	50.728	0.131	0.125
-416.442	167.309	0.089	-0.127
-415.428	-88.173	0.342	0.103
-414.413	-200.000	0.007	0.134
-413.398	-126.015	0.182	0.027
-412.384	-16.536	-0.144	-0.092
-411.369	-175.139	-0.381	-0.011
-410.355	-97.278	-0.207	0.054
-409.340	649.851	-0.090	-0.232
-408.325	800.000	0.028	-0.102
-407.311	800.000	-0.010	0.042
-406.296	-79.750	-0.291	-0.098
-405.282	-200.000	0.054	-0.245
-404.267	530.884	-0.147	0.348
-403.252	800.000	-0.088	0.265
-402.238	-12.765	0.195	0.128
-401.223	676.180	0.044	0.114
-400.209	-200.000	0.020	0.191
-399.194	322.042	0.023	-0.045
-398.179	80.170	-0.217	0.235
-397.165	-200.000	0.033	-0.178
-396.150	250.408	0.113	0.193
-395.136	-200.000	0.054	-0.254
-394.121	-69.123	0.179	0.069
-393.106	-28.860	0.204	-0.118
-392.092	433.506	0.147	0.320
-391.077	-12.814	0.185	-0.121
-390.063	-4.847	-0.284	-0.197
-389.048	-2.489	0.174	0.123
-388.033	114.339	0.204	-0.250
-387.019	54.308	0.281	0.272
-386.004	-51.129	0.305	0.144
-384.990	-16.761	0.071	0.045
-383.975	-7.325	0.290	-0.197
-382.960	-56.552	0.221	-0.099
-381.946	116.867	0.199	-0.245
-380.931	800.000	0.031	0.116
-379.917	-159.524	-0.204	0.011
-378.902	-9.272	0.106	-0.071
-377.888	437.603	-0.074	-0.162
-376.873	134.641	0.141	0.184
-375.858	800.000	0.039	-0.129
-374.844	-88.033	0.372	0.112
-373.829	800.000	0.080	0.336
-372.815	-96.160	0.295	-0.079
-371.800	85.490	0.032	-0.035
-370.785	-54.302	0.139	-0.064
-369.771	177.514	-0.236	-0.346
-368.756	-43.172	0.221	0.112
-367.742	-124.955	0.110	-0.017
-366.727	47.366	-0.121	-0.113
-365.712	-200.000	0.018	0.281
-364.698	72.366	0.141	0.148
-363.683	-127.183	-0.180	-0.026
-362.669	20.819	-0.065	-0.053
-361.654	639.745	0.047	-0.120
-360.639	82.257	0.244	0.266
-359.625	-200.000	0.006	0.065
-358.610	-200.000	-0.343	-0.001
-357.596	-81.767	0.351	-0.116
-356.581	800.000	0.100	-0.291
-355.566	-26.543	-0.066	-0.039
-354.552	-84.592	0.138	0.044
-353.537	386.161	0.039	0.080
-352.523	518.444	-0.054	0.128
-351.508	-63.386	-0.229	0.094
-350.493	208.199	0.177	0.277
-349.479	-156.847	-0.406	0.025
-348.464	208.117	0.078	-0.123
-347.450	-160.723	0.426	0.023
-346.435	36.407	-0.133	-0.118
-345.420	-200.000	-0.093	0.644
-344.406	-86.397	0.159	-0.049
-343.391	-200.000	-0.004	-0.314
-342.377	-133.705	-0.368	0.046
-341.362	252.779	0.121	0.206
-340.348	-92.639	-0.515	-0.145
-339.333	364.040	-0.032	-0.064
-338.318	139.174	-0.120	-0.158
-337.304	-200.000	-0.027	-0.141
-336.289	-158.084	0.102	-0.006
-335.275	800.000	-0.056	-0.189
-334.260	535.874	0.025	0.059
-333.245	-75.720	-0.411	0.146
-332.231	-200.000	0.023	-0.099
-331.216	532.811	-0.093	0.220
-330.202	-30.873	-0.205	-0.116
-329.187	-103.884	-0.215	0.050
-328.172	-200.000	-0.027	0.355
-327.158	-57.920	0.214	0.094
-326.143	7.373	0.293	-0.220
-325.129	-146.374	-0.207	-0.018
-324.114	-80.272	0.287	0.096
-323.099	-26.440	-0.130	0.076
-322.085	-46.053	0.274	0.135
-321.070	-1.112	-0.151	-0.107
-320.056	-76.912	-0.333	-0.116
-319.041	12.855	0.048	-0.037
-318.026	75.263	-0.116	-0.122
-317.012	141.411	-0.115	-0.153
-315.997	78.133	-0.059	-0.063
-314.983	28.447	0.136	0.115
-313.968	-97.201	0.253	-0.066
-312.953	-38.019	0.328	-0.175
-311.939	119.645	-0.058	-0.072
-310.924	-200.000	0.047	0.307
-309.910	-76.745	0.033	0.011
-308.895	-49.352	-0.337	0.161
-307.880	398.562	0.158	-0.330
-306.866	-200.000	-0.048	-0.318
-305.851	2.291	-0.241	-0.174
-304.837	-146.593	0.087	-0.008
-303.822	27.186	0.164	0.138
-302.807	151.872	-0.090	0.123
-301.793	268.796	-0.161	0.283
-300.778	-106.834	0.119	0.027
-299.764	-122.413	-0.179	-0.029
-298.749	-200.000	-0.015	-0.136
-297.735	-200.000	0.072	-0.370
-296.720	800.000	-0.009	-0.036
-295.705	800.000	-0.058	0.166
-294.691	-200.000	0.015	0.068
-293.676	-200.000	-0.034	-0.375
-292.662	-84.462	-0.225	-0.071
-291.647	87.041	-0.145	-0.160
-290.632	72.133	-0.270	-0.281
-289.618	-48.629	0.537	0.258
-288.603	-11.676	-0.166	0.109
-287.589	71.790	0.201	0.209
-286.574	-102.340	0.045	0.011
-285.559	-112.945	0.265	-0.052
-284.545	-112.150	0.158	0.032
-283.530	132.397	0.072	-0.093
-282.516	437.609	0.179	-0.391
-281.501	49.156	0.178	-0.168
-280.486	-91.952	-0.378	0.107
-279.472	-200.000	0.010	0.150
-278.457	-117.735	-0.305	0.055
-277.443	142.625	-0.158	-0.209
-276.428	-60.820	0.178	0.075
-275.413	264.012	-0.067	-0.116
-274.399	86.723	0.224	-0.248
-273.384	-157.236	-0.077	-0.005
-272.370	800.000	0.075	0.307
-271.355	-200.000	-0.021	0.137
-270.340	-60.150	-0.304	0.130
-269.326	-28.888	-0.341	-0.196
-268.311	-200.000	0.004	-0.219
-267.297	-200.000	-0.032	0.170
-266.282	-93.123	0.298	-0.083
-265.267	-200.000	0.005	0.049
-264.253	800.000	-0.032	-0.105
-263.238	-42.293	0.128	0.065
-262.224	-18.646	0.110	-0.069
-261.209	-12.723	-0.029	-0.019
-260.195	-145.902	-0.088	0.008
-259.180	-200.000	0.066	0.396
-258.165	-200.000	0.035	-0.273
-257.151	-200.000	0.018	-0.140
-256.136	316.686	-0.121	-0.229
-255.122	-200.000	-0.004	0.213
-254.107	50.468	0.077	0.072
-253.092	-76.462	-0.202	-0.071
-252.078	97.873	-0.062	0.072
-251.063	16.471	-0.291	-0.230
-250.049	47.059	-0.322	0.300
-249.034	203.328	-0.030	-0.046
-248.019	-56.249	0.189	-0.084
-247.005	-165.253	-0.146	0.006
-245.990	-148.201	0.224	0.018
-244.976	131.438	0.044	-0.056
-243.961	8.380	-0.242	-0.182
-242.946	-70.173	-0.252	0.096
-241.932	-9.418	-0.160	0.107
-240.917	325.326	-0.094	0.181
-239.903	2.434	0.075	0.054
-238.888	-34.712	-0.233	-0.127
-237.873	-200.000	0.029	-0.164
-236.859	-68.270	-0.312	-0.121
-235.844	-63.522	-0.125	0.051
-234.830	-111.345	0.286	0.058
-233.815	212.056	-0.233	0.366
-232.800	-42.466	0.376	0.191
-231.786	-200.000	-0.015	0.154
-230.771	-130.380	0.081	0.011
-229.757	13.471	0.087	-0.067
-228.742	272.862	-0.108	-0.191
-227.727	-185.877	-0.272	-0.004
-226.713	-200.000	0.042	-0.288
-225.698	-200.000	-0.001	-0.018
-224.684	-200.000	0.033	-0.145
-223.669	-7.409	0.109	-0.074
-222.655	-51.682	-0.092	-0.043
-221.640	85.798	0.190	-0.209
-220.625	-155.650	0.193	-0.012
-219.611	-37.101	-0.047	-0.025
-218.596	-164.969	0.364	0.016
-217.582	-67.126	0.201	0.079
-216.567	783.810	0.150	-0.409
-215.552	9.743	0.125	-0.094
-214.538	382.503	-0.153	0.313
-213.523	-193.854	0.110	-0.001
-212.509	-42.396	0.259	-0.132
-211.494	-161.162	0.334	-0.017
-210.479	-194.554	-0.273	-0.002
-209.465	208.719	-0.113	0.177
-208.450	-50.900	-0.221	-0.104
-207.436	29.966	-0.286	-0.243
-206.421	7.146	-0.107	-0.080
-205.406	800.000	-0.015	-0.050
-204.392	-200.000	0.011	0.116
-203.377	25.846	0.170	-0.142
-202.363	115.884	0.159	-0.194
-201.348	137.578	0.086	0.112
-200.333	-109.156	0.300	-0.064
-199.319	-200.000	0.062	0.328
-198.304	-33.534	-0.173	-0.095
-197.290	-66.947	0.060	0.024
-196.275	228.039	0.088	0.142
-195.260	-200.000	0.043	0.200
-194.246	-148.076	0.286	-0.024
-193.231	85.478	0.300	-0.328
-192.217	56.142	0.213	-0.206
-191.202	108.268	0.121	-0.144
-190.187	-200.000	-0.001	-0.131
-189.173	-63.709	-0.321	0.131
-188.158	72.462	-0.061	0.063
-187.144	-200.000	0.036	-0.345
-186.129	-4.088	0.269	-0.186
-185.114	63.454	-0.160	0.160
-184.100	-173.164	-0.152	0.005
-183.085	200.934	-0.134	0.205
-182.071	95.246	0.138	0.156
-181.056	-200.000	-0.006	-0.216
-180.042	-72.227	0.218	0.081
-179.027	323.759	-0.206	0.391
-178.012	-140.562	-0.283	0.029
-176.998	-65.630	0.363	0.145
-175.983	-120.459	-0.141	0.024
-174.969	-96.768	-0.050	-0.013
-173.954	800.000	-0.096	-0.332
-172.939	81.056	-0.015	-0.016
-171.925	-56.870	-0.310	0.136
-170.910	-122.409	0.512	0.083
-169.896	-117.816	0.077	-0.014
-168.881	-19.932	0.081	-0.050
-167.866	167.551	-0.155	0.219
-166.852	551.907	-0.053	-0.127
-165.837	-171.861	0.176	-0.006
-164.823	137.018	0.125	-0.163
-163.808	84.243	0.114	-0.124
-162.793	-13.645	-0.169	-0.109
-161.779	139.194	0.091	-0.120
-160.764	-41.115	0.113	0.058
-159.750	442.702	-0.055	0.121
-158.735	-160.964	0.355	-0.019
-157.720	-53.771	-0.090	0.041
-156.706	-52.927	-0.196	-0.090
-155.691	-52.497	0.064	-0.030
-154.677	53.375	-0.088	0.084
-153.662	-67.419	-0.088	-0.034
-152.647	-77.042	0.262	0.091
-151.633	138.070	-0.200	0.261
-150.618	-59.769	0.228	0.097
-149.604	-41.800	-0.258	-0.132
-148.589	-93.618	-0.091	0.025
-147.574	-200.000	0.004	0.171
-146.560	711.689	0.071	-0.188
-145.545	-52.078	0.368	-0.170
-144.531	800.000	0.147	0.412
-143.516	-92.092	-0.140	0.039
-142.502	133.173	0.073	-0.094
-141.487	-88.832	0.094	0.028
-140.472	-52.502	-0.132	-0.061
-139.458	-125.316	0.353	0.054
-138.443	-147.301	0.246	-0.021
-137.429	208.867	-0.188	0.293
-136.414	-78.030	-0.235	0.080
-135.399	68.868	0.055	-0.056
-134.385	377.310	-0.030	-0.061
-133.370	-200.000	-0.019	0.161
-132.356	-95.864	-0.144	0.038
-131.341	-17.748	-0.183	0.114
-130.326	328.131	-0.158	0.302
-129.312	77.703	0.177	0.187
-128.297	-32.452	-0.187	-0.104
-127.283	330.844	-0.110	0.211
-126.268	-46.840	0.096	-0.047
-125.253	800.000	0.027	0.117
-124.239	800.000	0.187	0.528
-123.224	-200.000	0.002	0.433
-122.210	147.726	-0.171	0.229
