DTS Sentinel unit serial number:	SN413079Multiplexer serial number:	ORYXHardware model number:	OX4-SRSoftware version number:	ORYX F/W v4.00 Oryx Data Collector v3.7.2.0data status	okinstallation	princeton_trtdifferential loss correction	single-endedforward channel	channel 4reverse channel	N/Adate	2019/09/18time	00:57:35forward acquisition time	60.00reverse acquisition time	0.00gamma	496.2192k internal	0.2334k external	0.2334temperature offset calibration	1.0000default loss term (dB/km)	0.3790temperature slope calibration	1.0000multiplexer offset coefficient	1.0000multiplexer slope coefficient	1.0000fibre end	0.00T internal ref (°C)	23.31T ext. ref 1 (°C)	0.16T ext. ref 2 (°C)	16.98length (m)	temperature (°C)	Stokes	anti-Stokes-747.200	-92.839	0.238	-0.067
-746.185	2.948	-0.047	0.035
-745.171	-200.000	0.006	0.042
-744.156	130.404	-0.173	0.223
-743.142	-115.226	0.208	0.040
-742.127	186.530	0.150	0.224
-741.112	721.105	0.072	-0.192
-740.098	-79.391	-0.466	0.159
-739.083	101.907	-0.107	0.126
-738.069	-200.000	0.015	0.302
-737.054	800.000	0.057	0.222
-736.039	-17.031	-0.348	-0.221
-735.025	-110.689	0.154	0.032
-734.010	-97.374	-0.094	-0.025
-732.996	-200.000	-0.003	-0.042
-731.981	582.558	-0.072	0.178
-730.966	800.000	-0.092	-0.260
-729.952	329.442	-0.174	-0.336
-728.937	-43.965	0.152	0.077
-727.923	-43.233	-0.151	-0.077
-726.908	71.505	0.211	-0.220
-725.894	-200.000	0.021	-0.151
-724.879	50.035	-0.114	-0.108
-723.864	800.000	-0.055	0.237
-722.850	-137.915	-0.227	0.025
-721.835	-130.579	-0.228	-0.031
-720.821	148.160	0.175	-0.237
-719.806	-123.044	0.350	-0.056
-718.791	-60.643	-0.366	0.156
-717.777	-116.731	-0.278	0.051
-716.762	357.881	0.165	-0.330
-715.748	-86.919	0.131	-0.040
-714.733	-200.000	-0.029	0.277
-713.718	-37.670	0.174	0.093
-712.704	435.975	-0.037	-0.081
-711.689	-200.000	-0.037	0.284
-710.675	143.796	0.150	0.200
-709.660	-114.973	-0.560	-0.107
-708.645	749.643	0.057	0.154
-707.631	-200.000	-0.011	0.113
-706.616	110.707	0.180	-0.217
-705.602	510.053	0.111	-0.258
-704.587	-200.000	0.033	0.356
-703.572	-200.000	0.012	0.122
-702.558	-200.000	0.089	-0.495
-701.543	12.645	0.128	0.099
-700.529	-117.030	0.054	-0.010
-699.514	-33.816	0.171	-0.095
-698.499	-200.000	-0.029	0.209
-697.485	-28.412	-0.184	-0.106
-696.470	51.444	0.091	-0.087
-695.456	-200.000	-0.016	0.388
-694.441	-13.722	-0.252	0.164
-693.426	59.482	-0.064	-0.064
-692.412	63.865	-0.049	-0.050
-691.397	-110.762	0.176	0.036
-690.383	-171.443	-0.222	-0.007
-689.368	115.879	0.119	-0.146
-688.354	108.193	-0.209	-0.250
-687.339	-7.469	0.297	-0.202
-686.324	195.440	0.166	-0.252
-685.310	-128.020	-0.296	0.043
-684.295	-200.000	0.005	0.148
-683.281	-13.733	-0.325	0.211
-682.266	-200.000	0.006	0.290
-681.251	20.823	-0.201	-0.164
-680.237	145.487	0.058	0.077
-679.222	-103.999	-0.354	0.083
-678.208	-72.957	0.347	-0.128
-677.193	800.000	0.009	-0.033
-676.178	627.775	0.072	0.182
-675.164	94.857	0.047	0.054
-674.149	-92.156	0.143	0.041
-673.135	-66.936	0.105	-0.042
-672.120	-31.702	-0.289	-0.163
-671.105	218.735	0.122	0.195
-670.091	271.070	-0.054	-0.095
-669.076	-200.000	-0.002	0.104
-668.062	-64.530	-0.227	0.092
-667.047	-126.692	0.159	-0.024
-666.032	-8.665	-0.121	-0.081
-665.018	128.065	0.170	-0.217
-664.003	39.946	0.149	0.134
-662.989	-63.860	0.076	-0.031
-661.974	800.000	-0.041	-0.176
-660.959	-200.000	0.011	-0.086
-659.945	486.065	0.020	-0.046
-658.930	800.000	-0.071	-0.205
-657.916	-140.354	0.334	-0.035
-656.901	-71.553	-0.272	-0.102
-655.886	-200.000	0.046	-0.216
-654.872	281.850	-0.143	-0.257
-653.857	226.267	0.247	-0.402
-652.843	-87.434	-0.268	-0.081
-651.828	-125.520	-0.148	-0.023
-650.814	-62.643	-0.066	0.027
-649.799	-38.653	0.165	-0.087
-648.784	198.851	-0.215	-0.330
-647.770	800.000	-0.049	-0.144
-646.755	-27.903	-0.230	0.134
-645.741	-200.000	-0.330	-0.001
-644.726	-200.000	-0.063	-0.288
-643.711	-200.000	0.042	0.211
-642.697	-200.000	-0.052	0.299
-641.682	93.550	-0.118	0.134
-640.668	-128.700	0.085	-0.012
-639.653	-54.513	-0.421	-0.191
-638.638	-25.827	0.150	-0.089
-637.624	-102.324	0.138	0.033
-636.609	189.689	0.132	-0.198
-635.595	-200.000	0.000	0.106
-634.580	-31.029	0.249	0.140
-633.565	-137.609	-0.250	-0.028
-632.551	-112.979	-0.367	0.073
-631.536	-118.339	0.220	-0.039
-630.522	43.197	0.216	0.198
-629.507	-13.788	0.235	-0.152
-628.492	-142.265	-0.368	0.036
-627.478	651.519	-0.120	-0.307
-626.463	800.000	0.089	-0.259
-625.449	91.689	0.109	0.123
-624.434	-200.000	-0.023	-0.156
-623.419	-47.088	0.286	-0.139
-622.405	166.474	0.164	-0.232
-621.390	211.800	-0.149	0.234
-620.376	-13.035	-0.189	-0.123
-619.361	800.000	0.038	-0.155
-618.346	31.344	0.101	0.087
-617.332	800.000	-0.067	0.188
-616.317	-71.234	-0.119	-0.045
-615.303	252.263	0.145	0.247
-614.288	277.021	-0.160	-0.285
-613.273	-134.365	-0.100	-0.012
-612.259	800.000	0.050	0.179
-611.244	800.000	-0.006	0.024
-610.230	543.387	-0.075	0.179
-609.215	-42.434	-0.289	-0.147
-608.201	95.508	0.126	-0.143
-607.186	273.818	0.048	0.085
-606.171	63.141	0.257	0.258
-605.157	98.265	0.156	0.179
-604.142	40.311	0.121	-0.109
-603.128	195.835	0.119	0.181
-602.113	-200.000	-0.053	0.455
-601.098	-200.000	0.004	0.230
-600.084	58.897	0.170	-0.168
-599.069	-29.401	-0.239	-0.137
-598.055	-89.148	0.324	-0.096
-597.040	64.175	-0.071	0.071
-596.025	94.062	-0.209	0.237
-595.011	-55.380	-0.390	-0.175
-593.996	61.397	0.134	-0.134
-592.982	800.000	0.052	-0.200
-591.967	168.127	-0.116	0.165
-590.952	80.943	0.150	0.162
-589.938	436.051	-0.042	0.092
-588.923	446.544	0.183	-0.403
-587.909	-146.231	-0.334	0.029
-586.894	-45.445	-0.159	-0.079
-585.879	-54.489	-0.153	0.069
-584.865	-49.642	0.176	-0.084
-583.850	77.756	-0.146	-0.155
-582.836	126.643	-0.148	0.187
-581.821	70.994	0.334	0.346
-580.806	-131.939	0.143	-0.019
-579.792	138.155	-0.176	-0.230
-578.777	-200.000	-0.077	0.361
-577.763	183.664	-0.037	-0.055
-576.748	286.902	0.141	-0.254
-575.733	-108.642	0.094	0.020
-574.719	-131.895	-0.145	-0.019
-573.704	-68.699	-0.378	0.146
-572.690	-200.000	0.018	-0.117
-571.675	-200.000	-0.043	0.231
-570.661	-188.242	0.117	0.001
-569.646	-200.000	0.012	0.209
-568.631	121.154	0.161	-0.200
-567.617	-200.000	0.024	-0.291
-566.602	340.763	-0.042	-0.082
-565.588	800.000	-0.051	0.165
-564.573	-200.000	0.016	-0.087
-563.558	85.368	-0.075	-0.082
-562.544	-200.000	-0.090	0.395
-561.529	-97.935	-0.431	-0.111
-560.515	378.359	0.148	-0.301
-559.500	-101.422	0.121	-0.030
-558.485	-200.000	-0.014	0.095
-557.471	800.000	0.105	-0.454
-556.456	194.196	0.293	-0.443
-555.442	262.055	0.035	-0.060
-554.427	-200.000	0.007	-0.137
-553.412	-25.311	0.115	-0.068
-552.398	93.876	0.059	-0.067
-551.383	456.162	0.148	-0.327
-550.369	-49.962	-0.236	-0.111
-549.354	-200.000	0.025	0.254
-548.339	-200.000	-0.023	-0.121
-547.325	154.613	0.050	0.069
-546.310	748.892	0.044	0.117
-545.296	-80.515	0.142	0.047
-544.281	-200.000	0.048	-0.296
-543.266	-200.000	0.030	0.166
-542.252	200.914	0.106	-0.162
-541.237	143.413	0.068	-0.090
-540.223	-158.651	-0.375	0.021
-539.208	-8.235	-0.101	-0.068
-538.193	22.476	0.196	0.160
-537.179	-10.656	-0.345	0.227
-536.164	-154.111	0.311	0.021
-535.150	88.651	-0.089	0.098
-534.135	-200.000	0.043	-0.209
-533.121	634.040	-0.106	0.269
-532.106	257.959	-0.138	0.237
-531.091	-172.554	-0.349	-0.011
-530.077	-104.551	-0.327	0.075
-529.062	-107.840	-0.175	-0.038
-528.048	107.696	-0.066	0.078
-527.033	-78.505	-0.235	-0.080
-526.018	624.272	-0.072	-0.180
-525.004	378.217	-0.047	-0.096
-523.989	3.723	0.071	-0.052
-522.975	-140.823	-0.329	0.034
-521.960	227.275	-0.036	0.058
-520.945	-184.854	-0.301	-0.005
-519.931	36.255	-0.190	-0.167
-518.916	-200.000	0.001	0.128
-517.902	-44.304	0.275	0.137
-516.887	-132.198	-0.576	-0.074
-515.872	-151.851	-0.108	0.008
-514.858	-200.000	-0.013	0.095
-513.843	768.372	0.070	-0.189
-512.829	-200.000	-0.008	-0.294
-511.814	27.215	-0.219	0.183
-510.799	-200.000	0.131	0.000
-509.785	112.964	0.090	0.108
-508.770	-200.000	0.032	-0.264
-507.756	-200.000	0.005	0.241
-506.741	152.673	0.196	0.267
-505.726	-66.909	0.374	0.147
-504.712	703.810	0.071	-0.186
-503.697	290.693	0.081	-0.146
-502.683	-17.050	0.244	-0.153
-501.668	-200.000	0.018	-0.208
-500.653	45.461	-0.255	0.234
-499.639	-0.305	-0.244	0.172
-498.624	-29.855	-0.350	0.199
-497.610	-79.172	0.232	-0.078
-496.595	-49.700	0.164	-0.078
-495.581	-200.000	0.050	-0.277
-494.566	57.880	-0.269	-0.262
-493.551	-200.000	0.016	-0.200
-492.537	11.897	0.171	-0.131
-491.522	-69.811	0.409	0.155
-490.508	-146.146	-0.093	-0.008
-489.493	-200.000	-0.047	0.307
-488.478	-40.443	-0.250	-0.129
-487.464	-161.168	-0.080	-0.004
-486.449	-152.085	-0.233	0.017
-485.435	800.000	-0.084	0.277
-484.420	-98.543	0.065	0.017
-483.405	60.073	-0.172	0.169
-482.391	-200.000	0.002	0.073
-481.376	-200.000	0.008	0.166
-480.362	20.047	-0.072	-0.058
-479.347	-57.736	0.085	-0.037
-478.332	122.362	-0.167	0.208
-477.318	27.509	-0.314	0.263
-476.303	34.106	0.142	0.123
-475.289	-200.000	-0.029	0.306
-474.274	68.346	-0.146	0.149
-473.259	-200.000	-0.001	0.095
-472.245	36.230	0.145	-0.127
-471.230	445.844	-0.074	0.162
-470.216	37.650	0.231	-0.204
-469.201	104.488	0.091	0.107
-468.186	-71.369	0.107	0.040
-467.172	-193.361	-0.240	0.002
-466.157	-71.334	0.136	0.051
-465.143	-103.825	-0.136	0.032
-464.128	800.000	-0.043	-0.142
-463.113	636.480	0.070	0.177
-462.099	12.408	0.164	0.126
-461.084	243.137	-0.089	-0.149
-460.070	-200.000	0.001	0.027
-459.055	-200.000	-0.072	0.358
-458.040	-131.752	0.189	-0.025
-457.026	-200.000	-0.020	0.251
-456.011	800.000	-0.041	-0.121
-454.997	463.329	0.050	0.111
-453.982	74.484	0.215	-0.225
-452.968	-200.000	0.008	-0.041
-451.953	-70.498	0.233	-0.088
-450.938	-108.154	-0.529	-0.114
-449.924	-70.993	-0.108	0.040
-448.909	81.640	0.170	0.183
-447.895	-31.142	-0.125	-0.070
-446.880	800.000	-0.021	0.078
-445.865	360.757	0.073	-0.146
-444.851	-92.314	-0.267	-0.075
-443.836	-88.537	-0.176	0.052
-442.822	407.125	-0.092	-0.194
-441.807	-41.737	-0.133	0.068
-440.792	-87.388	0.180	-0.054
-439.778	-143.219	0.206	0.020
-438.763	-82.564	-0.119	0.038
-437.749	-200.000	-0.038	0.190
-436.734	-115.989	0.559	-0.103
-435.719	185.477	-0.070	-0.103
-434.705	154.564	-0.146	0.199
-433.690	-29.710	0.345	0.196
-432.676	82.192	0.014	0.015
-431.661	-200.000	0.007	-0.051
-430.646	529.162	-0.010	-0.024
-429.632	46.076	-0.061	0.056
-428.617	48.348	0.153	-0.142
-427.603	9.817	-0.111	0.084
-426.588	-200.000	0.043	-0.392
-425.573	-47.461	-0.161	-0.078
-424.559	223.430	0.044	-0.070
-423.544	36.318	-0.046	-0.040
-422.530	800.000	-0.056	-0.183
-421.515	800.000	-0.029	0.123
-420.500	-167.857	0.258	0.010
-419.486	-56.036	-0.021	-0.010
-418.471	-57.340	-0.250	-0.109
-417.457	-69.828	0.068	-0.026
-416.442	-200.000	0.086	0.449
-415.428	51.713	0.050	-0.047
-414.413	-200.000	-0.058	-0.258
-413.398	-194.449	0.338	-0.003
-412.384	176.666	-0.058	-0.083
-411.369	152.715	0.219	0.297
-410.355	800.000	0.015	0.051
-409.340	-200.000	-0.019	-0.209
-408.325	-200.000	0.056	0.281
-407.311	-138.898	-0.530	0.057
-406.296	-200.000	0.005	-0.083
-405.282	96.545	-0.115	-0.131
-404.267	74.562	0.245	0.256
-403.252	-200.000	-0.013	-0.157
-402.238	-71.878	-0.252	-0.093
-401.223	68.905	-0.168	-0.171
-400.209	170.557	0.014	-0.020
-399.194	-95.696	-0.087	0.023
-398.179	800.000	0.023	-0.066
-397.165	-95.089	-0.179	0.048
-396.150	-110.630	-0.190	-0.039
-395.136	800.000	-0.066	0.217
-394.121	454.904	-0.058	-0.128
-393.106	757.340	0.055	0.148
-392.092	689.717	-0.052	-0.135
-391.077	-66.255	0.181	-0.072
-390.063	-200.000	-0.032	0.146
-389.048	800.000	0.073	0.302
-388.033	81.679	-0.203	0.218
-387.019	-52.179	-0.104	-0.048
-386.004	449.538	0.186	-0.406
-384.990	103.926	0.101	-0.117
-383.975	-200.000	0.035	0.360
-382.960	-147.757	-0.168	-0.014
-381.946	-67.854	0.417	0.162
-380.931	-200.000	-0.011	0.165
-379.917	-50.313	-0.113	0.053
-378.902	-5.966	0.069	0.047
-377.888	-21.724	0.179	0.108
-376.873	-13.010	0.287	-0.185
-375.858	800.000	0.103	-0.292
-374.844	277.190	-0.125	0.221
-373.829	171.595	-0.130	-0.185
-372.815	-56.968	0.041	-0.018
-371.800	800.000	0.084	0.242
-370.785	-200.000	-0.042	-0.275
-369.771	-134.442	-0.067	-0.008
-368.756	84.245	0.139	0.151
-367.742	168.327	-0.055	0.078
-366.727	-40.992	0.213	-0.109
-365.712	252.080	-0.243	-0.410
-364.698	-16.404	0.152	0.095
-363.683	-127.853	0.243	0.035
-362.669	36.263	-0.039	-0.034
-361.654	204.362	0.118	-0.182
-360.639	-64.526	0.212	0.085
-359.625	259.188	0.093	-0.159
-358.610	-133.665	0.283	0.035
-357.596	434.413	-0.038	0.081
-356.581	-48.460	-0.438	0.209
-355.566	-90.907	-0.073	-0.021
-354.552	-200.000	0.022	-0.223
-353.537	-106.237	0.129	-0.029
-352.523	104.826	0.148	0.173
-351.508	-41.935	-0.317	-0.161
-350.493	257.159	0.063	0.107
-349.479	-1.282	-0.060	-0.042
-348.464	100.405	-0.143	-0.164
-347.450	-200.000	0.020	0.100
-346.435	170.823	0.141	0.199
-345.420	348.650	-0.104	-0.203
-344.406	-200.000	0.007	0.143
-343.391	71.419	-0.233	-0.240
-342.377	-11.019	-0.142	0.093
-341.362	88.193	-0.314	0.345
-340.348	-139.555	-0.069	-0.007
-339.333	-121.070	-0.208	0.035
-338.318	-200.000	-0.025	0.305
-337.304	-200.000	-0.028	0.136
-336.289	-67.861	0.318	-0.123
-335.275	94.087	0.040	-0.045
-334.260	-66.693	0.081	-0.032
-333.245	-75.960	0.325	0.114
-332.231	6.099	-0.058	0.042
-331.216	-28.064	-0.077	-0.044
-330.202	-160.617	0.386	-0.020
-329.187	28.860	0.148	-0.124
-328.172	-4.879	-0.082	0.056
-327.158	91.816	0.297	0.330
-326.143	-123.926	-0.084	0.013
-325.129	53.221	-0.380	-0.360
-324.114	118.623	0.043	0.052
-323.099	-48.732	0.245	0.117
-322.085	-145.726	0.098	-0.009
-321.070	-49.773	0.075	0.035
-320.056	-200.000	0.055	-0.342
-319.041	293.994	0.042	-0.075
-318.026	800.000	-0.057	-0.185
-317.012	-97.957	-0.057	-0.015
-315.997	60.624	0.021	-0.020
-314.983	800.000	0.064	0.229
-313.968	74.028	-0.199	0.207
-312.953	-65.417	-0.148	0.059
-311.939	33.438	-0.077	-0.066
-310.924	-70.438	-0.124	0.046
-309.910	576.884	-0.087	-0.210
-308.895	2.821	-0.289	-0.208
-307.880	-33.068	0.234	0.128
-306.866	-131.183	-0.089	-0.012
-305.851	218.844	-0.078	-0.123
-304.837	-88.244	-0.309	0.091
-303.822	103.123	0.176	-0.203
-302.807	-200.000	-0.001	-0.227
-301.793	0.773	-0.207	-0.146
-300.778	800.000	0.120	-0.356
-299.764	-64.771	0.131	0.052
-298.749	0.288	0.143	0.100
-297.735	-22.548	-0.232	0.139
-296.720	374.860	0.089	-0.180
-295.705	-68.745	0.158	-0.060
-294.691	118.799	-0.071	-0.087
-293.676	-200.000	-0.091	-0.435
-292.662	-180.042	0.318	0.007
-291.647	800.000	0.051	-0.156
-290.632	66.747	-0.262	-0.263
-289.618	-200.000	-0.005	0.298
-288.603	26.021	0.123	-0.102
-287.589	-50.425	0.180	0.084
-286.574	187.787	0.009	-0.014
-285.559	-200.000	-0.015	-0.120
-284.545	256.298	-0.062	0.105
-283.530	800.000	0.167	-0.501
-282.516	271.625	0.143	0.249
-281.501	111.698	-0.124	-0.148
-280.486	32.662	0.391	-0.334
-279.472	-117.692	0.264	0.047
-278.457	43.357	-0.022	-0.019
-277.443	118.822	-0.051	0.063
-276.428	-200.000	0.028	-0.186
-275.413	-164.049	-0.415	-0.019
-274.399	-3.125	0.056	0.039
-273.384	23.328	0.099	-0.080
-272.370	-93.488	0.238	0.065
-271.355	-173.535	-0.354	0.011
-270.340	73.415	-0.121	0.125
-269.326	800.000	-0.051	-0.205
-268.311	544.740	0.145	-0.342
-267.297	-200.000	0.051	-0.229
-266.282	24.374	-0.093	-0.076
-265.267	109.342	0.061	0.072
-264.253	371.243	-0.058	-0.116
-263.238	204.864	-0.055	0.085
-262.224	800.000	-0.059	-0.227
-261.209	333.323	0.095	-0.182
-260.195	-145.921	0.281	-0.025
-259.180	54.130	0.280	-0.266
-258.165	-35.806	0.181	0.097
-257.151	145.812	0.115	0.153
-256.136	18.203	0.072	0.057
-255.122	325.126	0.142	0.268
-254.107	-104.465	0.060	-0.014
-253.092	-37.354	-0.278	-0.146
-252.078	-28.282	0.188	0.107
-251.063	568.851	-0.051	0.122
-250.049	609.480	0.084	-0.206
-249.034	-200.000	-0.008	0.040
-248.019	175.461	-0.102	0.146
-247.005	800.000	0.115	0.355
-245.990	-177.926	0.616	-0.015
-244.976	-129.616	0.205	0.028
-243.961	-200.000	0.010	0.502
-242.946	175.444	-0.133	-0.190
-241.932	-89.531	-0.168	-0.049
-240.917	-118.755	0.124	-0.022
-239.903	-74.863	0.113	-0.040
-238.888	56.107	0.230	0.220
-237.873	-200.000	0.054	-0.419
-236.859	800.000	-0.056	-0.210
-235.844	-18.838	0.344	0.211
-234.830	-15.900	0.245	-0.153
-233.815	368.189	0.078	0.156
-232.800	800.000	-0.042	0.154
-231.786	-102.824	0.147	-0.034
-230.771	256.530	-0.158	0.268
-229.757	124.208	0.244	0.302
-228.742	800.000	0.049	0.134
-227.727	-200.000	-0.016	0.158
-226.713	-29.599	0.102	-0.057
-225.698	-134.694	-0.080	-0.010
-224.684	145.887	0.037	0.049
-223.669	-170.302	-0.167	0.006
-222.655	-94.774	0.300	-0.080
-221.640	-200.000	0.034	0.430
-220.625	-200.000	-0.071	0.320
-219.611	-127.563	-0.375	0.054
-218.596	-200.000	0.050	0.404
-217.582	-136.272	-0.239	-0.027
-216.567	-200.000	-0.038	0.203
-215.552	146.947	0.106	0.141
-214.538	44.828	0.215	0.195
-213.523	-107.294	-0.229	0.050
-212.509	-200.000	-0.031	0.303
-211.494	-200.000	-0.031	-0.262
-210.479	69.280	-0.092	0.094
-209.465	251.813	-0.094	0.158
-208.450	-103.858	-0.175	-0.040
-207.436	-200.000	0.020	-0.169
-206.421	123.295	0.098	0.121
-205.406	800.000	0.041	0.166
-204.392	27.402	0.148	0.122
-203.377	42.157	-0.228	0.204
-202.363	-83.051	-0.025	0.008
-201.348	2.231	-0.205	-0.146
-200.333	572.363	0.092	-0.222
-199.319	193.124	-0.070	-0.103
-198.304	274.864	0.026	0.045
-197.290	800.000	0.049	-0.194
-196.275	400.165	-0.092	-0.190
-195.260	800.000	-0.032	-0.111
-194.246	114.188	0.114	0.137
-193.231	-11.947	-0.284	0.183
-192.217	-97.038	0.268	0.069
-191.202	800.000	-0.119	0.373
-190.187	154.212	-0.115	0.155
-189.173	311.711	0.089	0.165
-188.158	-57.333	-0.101	0.044
-187.144	-2.300	-0.306	0.211
-186.129	302.158	0.074	0.134
-185.114	58.385	0.162	0.157
-184.100	-46.400	-0.147	-0.071
-183.085	-33.878	-0.071	0.038
-182.071	-132.231	0.290	-0.037
-181.056	-141.243	-0.228	0.023
-180.042	281.504	-0.063	0.111
-179.027	-106.582	0.332	-0.073
-178.012	800.000	0.025	-0.085
-176.998	564.305	0.130	0.310
-175.983	103.190	0.171	0.197
-174.969	800.000	-0.097	-0.328
-173.954	-167.321	-0.246	0.010
-172.939	100.045	-0.138	0.157
-171.925	-94.027	0.094	0.025
-170.910	-200.000	-0.018	-0.133
-169.896	-200.000	0.010	-0.182
-168.881	-81.378	0.176	-0.057
-167.866	-16.351	0.171	0.107
-166.852	585.654	-0.095	-0.229
-165.837	800.000	0.128	-0.362
-164.823	-200.000	0.053	-0.375
-163.808	602.656	0.115	0.282
-162.793	-20.286	-0.097	0.059
-161.779	78.349	0.132	0.138
-160.764	-86.393	0.298	-0.090
-159.750	-200.000	0.007	-0.098
-158.735	196.759	0.145	0.217
-157.720	-149.080	-0.312	0.025
-156.706	-71.927	-0.205	-0.075
-155.691	385.032	-0.261	-0.528
-154.677	334.873	-0.060	-0.115
-153.662	-69.855	0.272	-0.102
-152.647	-78.302	0.277	0.093
-151.633	451.265	0.161	-0.350
-150.618	183.032	0.270	-0.392
-149.604	36.067	-0.076	-0.066
-148.589	156.613	0.219	-0.296
-147.574	-200.000	0.027	0.214
-146.560	800.000	-0.063	-0.174
-145.545	-200.000	0.005	-0.064
-144.531	-22.267	0.083	-0.050
-143.516	380.630	-0.130	-0.261
-142.502	-200.000	-0.009	-0.232
-141.487	-200.000	0.004	0.071
-140.472	-154.387	-0.265	0.017
-139.458	-111.927	0.167	0.033
-138.443	-82.222	-0.263	0.084
-137.429	642.106	0.043	0.106
-136.414	-14.001	0.114	-0.072
-135.399	-179.463	-0.035	-0.001
-134.385	-200.000	0.037	0.258
-133.370	-106.854	-0.303	-0.066
-132.356	59.691	-0.188	0.182
-131.341	-34.767	-0.324	0.174
-130.326	-124.527	-0.388	-0.059
-129.312	123.510	0.020	0.025
-128.297	0.076	-0.400	0.280
-127.283	800.000	0.128	-0.366
-126.268	224.653	-0.102	-0.162
-125.253	-200.000	-0.061	0.372
-124.239	29.033	-0.145	0.121
-123.224	-200.000	-0.007	-0.048
-122.210	179.722	0.097	-0.139
