DTS Sentinel unit serial number:	SN413079Multiplexer serial number:	ORYXHardware model number:	OX4-SRSoftware version number:	ORYX F/W v4.00 Oryx Data Collector v3.7.2.0data status	okinstallation	princeton_trtdifferential loss correction	single-endedforward channel	channel 4reverse channel	N/Adate	2019/09/18time	11:45:34forward acquisition time	60.00reverse acquisition time	0.00gamma	496.2192k internal	0.2309k external	0.2309temperature offset calibration	0.9983default loss term (dB/km)	0.3790temperature slope calibration	1.0000multiplexer offset coefficient	1.0000multiplexer slope coefficient	1.0000fibre end	0.00T internal ref (°C)	31.08T ext. ref 1 (°C)	0.46T ext. ref 2 (°C)	28.41length (m)	temperature (°C)	Stokes	anti-Stokes-747.200	-59.773	-0.104	0.045
-746.185	-61.035	-0.106	-0.045
-745.171	-149.266	0.351	-0.028
-744.156	317.247	-0.120	0.230
-743.142	-70.744	0.161	-0.062
-742.127	8.372	-0.319	0.244
-741.112	-200.000	0.003	-0.165
-740.098	-125.408	-0.352	-0.054
-739.083	23.255	0.067	0.056
-738.069	727.329	0.061	0.164
-737.054	701.006	0.141	0.378
-736.039	-200.000	-0.058	0.265
-735.025	800.000	-0.134	0.594
-734.010	108.447	0.244	0.295
-732.996	-5.785	-0.096	0.067
-731.981	-5.569	-0.384	-0.267
-730.966	-137.875	-0.206	0.023
-729.952	-65.130	-0.190	0.078
-728.937	800.000	-0.099	-0.379
-727.923	800.000	0.078	0.277
-726.908	191.429	-0.139	-0.213
-725.894	-35.351	-0.247	-0.136
-724.879	-100.214	0.174	0.044
-723.864	-200.000	0.054	-0.384
-722.850	62.161	-0.123	0.125
-721.835	-128.535	-0.091	-0.013
-720.821	-56.285	-0.152	-0.069
-719.806	47.429	-0.114	-0.108
-718.791	-46.246	-0.302	-0.151
-717.777	24.975	-0.268	0.226
-716.762	-200.000	-0.044	0.231
-715.748	447.290	-0.105	-0.235
-714.733	95.237	0.127	0.147
-713.718	-200.000	0.022	-0.158
-712.704	-29.356	0.210	0.122
-711.689	141.032	-0.033	0.045
-710.675	-23.766	-0.298	-0.181
-709.660	-19.036	0.156	-0.098
-708.645	-200.000	-0.014	-0.138
-707.631	-8.878	0.139	0.094
-706.616	800.000	-0.044	0.144
-705.602	4.982	0.110	0.082
-704.587	379.567	-0.097	0.201
-703.572	-170.204	0.388	0.014
-702.558	488.003	0.045	-0.105
-701.543	-200.000	-0.028	-0.176
-700.529	800.000	0.085	-0.350
-699.514	44.061	0.106	0.099
-698.499	274.676	-0.066	0.119
-697.485	36.703	-0.173	-0.155
-696.470	729.929	0.098	-0.266
-695.456	111.526	0.130	0.159
-694.441	23.608	0.129	-0.107
-693.426	800.000	0.064	-0.214
-692.412	75.056	-0.238	-0.254
-691.397	417.745	0.096	-0.207
-690.383	129.677	0.127	0.165
-689.368	44.877	0.078	0.073
-688.354	6.673	-0.140	-0.105
-687.339	-155.092	0.060	0.004
-686.324	-200.000	0.011	0.074
-685.310	271.724	0.103	0.184
-684.295	76.083	-0.257	-0.276
-683.281	-44.907	-0.352	0.178
-682.266	-110.264	-0.156	-0.033
-681.251	800.000	0.106	0.345
-680.237	-101.278	-0.248	0.061
-679.222	-108.318	0.073	-0.016
-678.208	144.439	-0.188	-0.254
-677.193	-117.395	0.197	-0.036
-676.178	-77.981	0.342	0.120
-675.164	-95.122	0.188	0.051
-674.149	-200.000	-0.058	0.386
-673.135	-64.115	-0.055	-0.023
-672.120	-200.000	-0.013	0.114
-671.105	29.825	0.210	-0.181
-670.091	-200.000	-0.006	0.233
-669.076	128.329	-0.035	-0.045
-668.062	38.847	0.146	0.132
-667.047	-44.832	-0.249	-0.126
-666.032	800.000	0.025	-0.093
-665.018	71.967	-0.129	0.136
-664.003	-36.145	-0.038	0.021
-662.989	-108.086	0.067	0.015
-661.974	-89.767	0.047	-0.014
-660.959	521.343	0.102	0.241
-659.945	-78.972	0.291	-0.100
-658.930	-200.000	0.065	-0.337
-657.916	-65.036	-0.121	-0.049
-656.901	22.255	-0.086	0.071
-655.886	-200.000	-0.011	0.112
-654.872	-200.000	-0.002	-0.142
-653.857	-200.000	0.154	-0.000
-652.843	-54.716	0.247	-0.113
-651.828	70.600	-0.115	-0.121
-650.814	117.716	0.082	0.103
-649.799	-8.435	0.206	-0.140
-648.784	800.000	0.024	-0.100
-647.770	66.668	-0.203	0.209
-646.755	434.875	0.066	0.146
-645.741	138.425	-0.104	0.138
-644.726	10.177	-0.255	-0.196
-643.711	87.940	-0.037	0.042
-642.697	-97.854	-0.257	-0.067
-641.682	-148.357	0.070	-0.006
-640.668	201.324	0.038	-0.058
-639.653	-200.000	0.028	-0.285
-638.638	239.936	0.057	0.097
-637.624	-200.000	0.013	0.080
-636.609	375.888	-0.063	0.130
-635.595	800.000	-0.053	-0.222
-634.580	577.622	-0.050	0.125
-633.565	280.038	-0.127	0.230
-632.551	65.850	-0.283	-0.291
-631.536	-58.030	-0.185	0.082
-630.522	42.668	0.138	0.127
-629.507	28.266	-0.164	-0.140
-628.492	-200.000	0.064	0.447
-627.478	32.385	-0.057	0.050
-626.463	-61.224	0.322	0.137
-625.449	307.863	-0.024	0.044
-624.434	94.611	-0.183	0.210
-623.419	-166.393	0.244	0.010
-622.405	355.231	-0.219	-0.441
-621.390	-164.790	-0.532	-0.024
-620.376	45.020	0.191	0.178
-619.361	-69.769	-0.211	0.081
-618.346	-200.000	0.018	-0.169
-617.332	-52.099	-0.149	0.070
-616.317	-121.190	-0.176	0.030
-615.303	-93.975	0.180	-0.050
-614.288	205.963	-0.073	0.114
-613.273	-2.755	-0.253	0.179
-612.259	-82.112	0.332	-0.109
-611.244	-46.723	-0.175	-0.087
-610.230	800.000	0.101	-0.306
-609.215	180.534	0.120	-0.178
-608.201	135.082	0.196	-0.257
-607.186	-74.445	0.113	0.041
-606.171	438.185	-0.069	-0.152
-605.157	-200.000	-0.071	0.333
-604.142	-145.636	-0.308	0.028
-603.128	33.594	-0.107	-0.094
-602.113	-200.000	-0.000	0.028
-601.098	56.004	0.275	0.269
-600.084	-31.305	0.212	0.120
-599.069	374.218	-0.092	-0.190
-598.055	-129.167	-0.387	-0.055
-597.040	-200.000	-0.013	0.190
-596.025	-154.235	0.210	0.014
-595.011	-58.195	-0.259	0.114
-593.996	-200.000	0.004	0.084
-592.982	104.727	0.035	-0.041
-591.967	3.159	-0.199	-0.146
-590.952	36.461	-0.202	-0.180
-589.938	179.170	0.165	0.244
-588.923	-200.000	0.015	0.235
-587.909	-84.266	0.187	-0.060
-586.894	-56.540	0.333	-0.149
-585.879	-79.389	0.339	0.116
-584.865	169.981	-0.058	-0.084
-583.850	-128.803	0.152	-0.022
-582.836	-136.399	-0.173	0.020
-581.821	39.528	0.349	0.316
-580.806	-102.659	-0.258	0.062
-579.792	-79.375	-0.191	-0.065
-578.777	-200.000	-0.026	-0.348
-577.763	-51.967	-0.212	-0.100
-576.748	-71.844	0.029	0.011
-575.733	219.506	-0.171	-0.276
-574.719	22.326	0.216	0.178
-573.704	636.883	-0.074	0.190
-572.690	153.108	0.192	0.265
-571.675	-200.000	-0.029	0.504
-570.661	-36.242	-0.062	0.034
-569.646	142.587	0.106	-0.142
-568.631	703.916	0.107	-0.285
-567.617	413.239	-0.091	-0.196
-566.602	144.518	0.008	-0.011
-565.588	301.331	0.087	-0.162
-564.573	-7.728	-0.485	0.330
-563.558	375.551	0.094	-0.194
-562.544	800.000	-0.056	0.203
-561.529	800.000	-0.093	-0.298
-560.515	-200.000	-0.080	-0.366
-559.500	23.826	-0.059	0.049
-558.485	-94.093	0.123	-0.034
-557.471	-15.859	0.171	-0.110
-556.456	-104.161	0.164	0.039
-555.442	-10.874	0.217	0.145
-554.427	-2.805	0.121	-0.085
-553.412	-62.471	-0.097	-0.041
-552.398	-151.276	0.108	0.008
-551.383	697.761	0.121	0.320
-550.369	-200.000	0.010	-0.143
-549.354	-17.791	-0.141	-0.089
-548.339	552.548	-0.114	-0.276
-547.325	295.384	-0.087	-0.160
-546.310	-124.193	0.368	-0.058
-545.296	701.362	0.100	-0.265
-544.281	-200.000	-0.000	0.085
-543.266	135.834	-0.128	-0.168
-542.252	-27.514	-0.268	0.157
-541.237	179.204	0.142	0.209
-540.223	294.241	-0.047	-0.086
-539.208	478.046	-0.119	-0.272
-538.193	-42.713	-0.175	-0.090
-537.179	-200.000	0.024	-0.372
-536.164	108.306	-0.157	-0.189
-535.150	800.000	0.071	0.203
-534.135	-200.000	-0.013	0.448
-533.121	-200.000	-0.018	0.170
-532.106	-136.762	0.274	-0.032
-531.091	773.727	0.060	0.166
-530.077	-200.000	-0.047	-0.246
-529.062	242.690	0.176	0.298
-528.048	-7.904	0.063	0.043
-527.033	-44.312	0.197	-0.099
-526.018	-102.935	-0.366	0.087
-525.004	-200.000	-0.010	-0.220
-523.989	-200.000	0.017	-0.127
-522.975	-77.594	-0.360	0.125
-521.960	-33.624	0.166	0.092
-520.945	250.821	0.081	0.139
-519.931	-38.534	-0.070	0.037
-518.916	-141.656	0.255	-0.026
-517.902	581.789	-0.081	0.200
-516.887	75.247	0.078	0.083
-515.872	-151.339	0.575	-0.043
-514.858	394.832	-0.076	-0.159
-513.843	166.388	0.082	0.116
-512.829	800.000	-0.061	-0.249
-511.814	83.025	0.188	-0.206
-510.799	-85.315	0.117	-0.037
-509.785	800.000	-0.055	0.220
-508.770	120.818	-0.112	-0.141
-507.756	-200.000	0.019	0.103
-506.741	8.175	-0.164	-0.124
-505.726	447.701	-0.162	0.358
-504.712	657.634	-0.069	0.178
-503.697	-124.157	-0.095	0.015
-502.683	-200.000	0.010	-0.075
-501.668	800.000	0.079	-0.237
-500.653	-200.000	-0.009	-0.159
-499.639	288.518	0.062	0.113
-498.624	-29.222	0.226	0.130
-497.610	291.742	0.058	0.107
-496.595	174.401	-0.113	0.165
-495.581	-200.000	-0.006	0.030
-494.566	-17.611	-0.156	0.099
-493.551	655.043	-0.116	0.300
-492.537	3.916	0.148	-0.109
-491.522	-33.827	-0.307	0.170
-490.508	800.000	0.021	-0.080
-489.493	-200.000	0.009	-0.039
-488.478	226.073	-0.106	0.172
-487.464	629.552	-0.104	0.264
-486.449	-143.481	-0.221	0.021
-485.435	-22.009	-0.212	0.130
-484.420	-116.619	0.160	0.030
-483.405	-6.724	0.259	0.177
-482.391	-151.590	-0.136	-0.010
-481.376	-181.253	-0.171	0.003
-480.362	-200.000	-0.013	-0.229
-479.347	697.369	0.112	-0.295
-478.332	-141.465	-0.224	0.023
-477.318	133.441	0.090	-0.117
-476.303	-86.272	0.089	0.028
-475.289	128.394	0.121	0.155
-474.274	-38.553	-0.147	-0.078
-473.259	800.000	0.041	0.159
-472.245	-39.617	-0.183	0.097
-471.230	316.808	-0.052	0.098
-470.216	-76.028	-0.219	0.078
-469.201	-200.000	0.089	0.439
-468.186	-200.000	0.014	0.518
-467.172	-200.000	0.018	0.106
-466.157	-29.341	0.076	-0.044
-465.143	42.987	0.190	-0.174
-464.128	326.890	-0.077	-0.148
-463.113	800.000	-0.094	-0.270
-462.099	-200.000	-0.043	0.320
-461.084	104.446	-0.146	-0.172
-460.070	73.561	-0.199	0.209
-459.055	-112.577	-0.277	-0.055
-458.040	53.737	0.127	0.123
-457.026	116.788	-0.069	0.085
-456.011	-200.000	0.005	0.093
-454.997	-19.417	0.292	0.182
-453.982	133.439	-0.063	0.082
-452.968	201.413	0.036	-0.056
-451.953	-65.693	-0.300	-0.121
-450.938	533.240	0.094	0.223
-449.924	346.947	-0.067	-0.132
-448.909	85.554	-0.083	-0.091
-447.895	228.461	-0.172	0.281
-446.880	290.001	-0.167	0.304
-445.865	-200.000	0.044	0.512
-444.851	54.374	0.289	-0.279
-443.836	-88.498	0.112	0.034
-442.822	-137.066	-0.192	0.022
-441.807	-200.000	-0.021	-0.154
-440.792	43.171	-0.247	0.227
-439.778	-200.000	-0.037	0.205
-438.763	7.969	-0.305	0.230
-437.749	-68.830	0.284	-0.110
-436.734	800.000	-0.113	-0.330
-435.719	-73.890	-0.354	-0.129
-434.705	-131.023	0.034	0.005
-433.690	505.434	0.215	0.500
-432.676	555.584	0.052	-0.125
-431.661	696.579	-0.088	0.233
-430.646	800.000	0.078	-0.305
-429.632	-200.000	-0.026	0.214
-428.617	-52.125	-0.154	-0.072
-427.603	-3.894	0.077	-0.053
-426.588	262.118	0.087	0.151
-425.573	-28.908	0.113	0.065
-424.559	94.610	-0.042	-0.048
-423.544	-130.761	0.092	0.012
-422.530	-72.431	-0.379	-0.141
-421.515	-53.101	-0.119	0.055
-420.500	800.000	0.030	0.091
-419.486	-41.995	-0.211	-0.108
-418.471	-90.984	-0.194	0.056
-417.457	235.991	0.027	-0.045
-416.442	491.487	0.046	-0.106
-415.428	-102.183	0.018	0.004
-414.413	175.898	0.040	0.058
-413.398	169.869	0.060	-0.086
-412.384	-200.000	0.009	0.068
-411.369	-200.000	0.037	-0.254
-410.355	-67.361	-0.248	0.098
-409.340	-163.508	0.183	0.009
-408.325	-107.542	0.281	0.062
-407.311	800.000	0.109	-0.381
-406.296	-161.893	0.377	-0.019
-405.282	-200.000	-0.005	0.064
-404.267	155.020	0.213	-0.294
-403.252	-85.359	0.237	0.074
-402.238	-200.000	0.039	-0.275
-401.223	3.669	0.341	-0.249
-400.209	-87.406	-0.200	0.061
-399.194	-111.114	-0.239	-0.049
-398.179	800.000	-0.090	0.317
-397.165	370.536	-0.093	-0.188
-396.150	772.797	0.107	-0.293
-395.136	16.646	-0.081	-0.064
-394.121	800.000	0.046	0.157
-393.106	-120.308	-0.240	0.041
-392.092	-79.016	0.295	0.101
-391.077	455.000	-0.115	-0.256
-390.063	-24.839	-0.253	0.151
-389.048	-200.000	-0.026	0.152
-388.033	76.002	0.054	-0.057
-387.019	800.000	-0.115	0.425
-386.004	36.022	-0.233	0.205
-384.990	800.000	-0.028	-0.113
-383.975	-196.048	-0.024	-0.000
-382.960	-200.000	0.078	-0.373
-381.946	74.912	0.150	0.158
-380.931	-85.888	0.036	0.011
-379.917	-85.991	-0.230	-0.071
-378.902	-32.268	-0.257	0.144
-377.888	222.244	0.104	-0.168
-376.873	-200.000	-0.050	-0.275
-375.858	-75.281	-0.127	-0.046
-374.844	800.000	0.056	-0.244
-373.829	415.253	0.096	0.206
-372.815	289.696	-0.161	0.293
-371.800	-200.000	-0.033	0.158
-370.785	141.799	-0.184	-0.244
-369.771	-168.233	0.134	0.005
-368.756	-124.812	-0.121	0.019
-367.742	-159.672	0.064	0.004
-366.727	-0.477	0.116	-0.083
-365.712	-200.000	0.057	-0.321
-364.698	9.530	0.269	-0.204
-363.683	-54.935	0.283	0.128
-362.669	216.874	0.082	-0.130
-361.654	50.197	0.063	-0.060
-360.639	325.246	-0.081	0.154
-359.625	-21.444	-0.151	0.092
-358.610	230.657	0.016	-0.027
-357.596	800.000	0.062	0.263
-356.581	324.850	-0.135	0.258
-355.566	382.819	0.088	-0.181
-354.552	160.142	0.186	-0.260
-353.537	-3.306	0.304	-0.212
-352.523	800.000	-0.050	0.172
-351.508	142.070	-0.079	-0.105
-350.493	220.185	-0.266	0.427
-349.479	-200.000	0.052	-0.251
-348.464	-117.412	-0.100	0.018
-347.450	-104.157	0.302	0.070
-346.435	-59.234	-0.334	0.144
-345.420	19.389	-0.162	0.130
-344.406	-110.518	-0.284	-0.059
-343.391	-45.128	0.328	-0.163
-342.377	-93.064	0.325	0.091
-341.362	-200.000	-0.010	-0.153
-340.348	-128.931	0.282	-0.040
-339.333	-200.000	0.092	-0.476
-338.318	112.252	0.086	0.103
-337.304	136.024	0.050	-0.065
-336.289	64.143	-0.167	0.168
-335.275	36.099	-0.079	-0.069
-334.260	800.000	-0.056	-0.239
-333.245	-148.770	0.316	0.026
-332.231	69.126	0.073	0.075
-331.216	-200.000	-0.014	-0.262
-330.202	245.301	-0.179	0.301
-329.187	-28.171	-0.302	-0.175
-328.172	-167.252	-0.260	0.010
-327.158	214.511	-0.112	0.177
-326.143	-29.831	-0.269	-0.153
-325.129	-200.000	0.006	0.033
-324.114	-101.915	0.231	0.056
-323.099	-200.000	0.084	0.454
-322.085	37.209	0.022	-0.019
-321.070	-77.853	-0.377	-0.130
-320.056	104.425	0.126	-0.149
-319.041	-80.554	0.238	-0.079
-318.026	800.000	0.122	0.446
-317.012	78.618	-0.318	-0.339
-315.997	198.400	-0.208	-0.317
-314.983	340.990	-0.064	0.125
-313.968	800.000	0.086	0.264
-312.953	-187.687	-0.339	-0.004
-311.939	33.788	0.115	0.100
-310.924	-56.645	0.155	-0.068
-309.910	-29.615	0.381	-0.217
-308.895	15.176	0.011	-0.009
-307.880	95.332	0.195	0.222
-306.866	0.094	-0.208	-0.148
-305.851	-128.518	0.319	0.045
-304.837	-84.370	-0.130	-0.041
-303.822	181.931	0.138	0.202
-302.807	-11.641	0.105	-0.069
-301.793	-40.699	-0.211	0.109
-300.778	-88.095	-0.094	-0.028
-299.764	-85.285	0.142	-0.044
-298.749	-200.000	0.085	-0.381
-297.735	-200.000	0.029	-0.284
-296.720	-196.793	0.155	0.001
-295.705	-200.000	-0.070	0.335
-294.691	-159.654	-0.247	-0.014
-293.676	-104.764	-0.478	-0.110
-292.662	188.718	0.049	-0.074
-291.647	16.111	-0.355	0.279
-290.632	587.404	-0.071	0.175
-289.618	-90.223	0.231	0.067
-288.603	-114.808	0.074	-0.014
-287.589	-172.162	-0.216	0.007
-286.574	86.887	-0.132	0.145
-285.559	-22.268	0.249	-0.151
-284.545	-91.149	0.241	-0.069
-283.530	41.772	0.096	-0.087
-282.516	-200.000	-0.008	-0.256
-281.501	183.022	-0.085	-0.125
-280.486	-200.000	-0.009	0.166
-279.472	-38.438	0.151	0.079
-278.457	-200.000	0.017	-0.120
-277.443	130.848	0.218	-0.279
-276.428	800.000	-0.115	-0.345
-275.413	-87.059	-0.121	0.037
-274.399	-80.868	0.105	-0.035
-273.384	192.803	-0.137	-0.206
-272.370	-133.219	-0.140	0.018
-271.355	-200.000	0.002	-0.493
-270.340	-9.266	0.295	0.196
-269.326	800.000	-0.137	-0.425
-268.311	10.840	-0.066	-0.050
-267.297	-0.234	-0.043	0.031
-266.282	72.637	-0.283	-0.294
-265.267	-200.000	0.004	0.180
-264.253	52.663	0.236	0.225
-263.238	46.770	-0.225	0.209
-262.224	-145.852	0.202	0.018
-261.209	91.275	0.174	-0.195
-260.195	-37.602	-0.221	0.117
-259.180	-142.077	-0.343	-0.034
-258.165	-131.740	0.269	0.035
-257.151	800.000	0.043	-0.121
-256.136	161.789	-0.094	-0.132
-255.122	226.923	-0.181	0.294
-254.107	800.000	0.046	0.176
-253.092	-156.187	0.148	0.009
-252.078	-200.000	0.031	0.364
-251.063	638.722	0.084	-0.212
-250.049	579.868	0.112	-0.274
-249.034	-135.051	0.426	-0.051
-248.019	-61.185	0.104	-0.044
-247.005	67.602	-0.037	-0.038
-245.990	-33.454	-0.416	-0.229
-244.976	201.146	0.168	-0.257
-243.961	-200.000	0.019	-0.157
-242.946	-41.287	0.239	0.122
-241.932	-200.000	-0.001	-0.034
-240.917	9.600	0.254	-0.192
-239.903	-200.000	0.059	0.442
-238.888	800.000	-0.036	-0.101
-237.873	-171.250	0.146	0.005
-236.859	-163.979	-0.385	-0.018
-235.844	800.000	-0.062	-0.183
-234.830	779.822	0.040	0.109
-233.815	800.000	-0.113	0.475
-232.800	-200.000	-0.009	-0.257
-231.786	191.491	0.053	-0.080
-230.771	-144.529	0.381	0.035
-229.757	-200.000	-0.005	-0.255
-228.742	-87.610	-0.422	-0.127
-227.727	-200.000	0.003	-0.116
-226.713	-79.280	0.281	-0.095
-225.698	-200.000	-0.015	-0.122
-224.684	-48.679	-0.195	-0.093
-223.669	-13.114	0.159	0.103
-222.655	-141.519	0.264	-0.027
-221.640	-200.000	0.009	-0.074
-220.625	-25.496	-0.196	0.115
-219.611	-160.976	0.321	-0.017
-218.596	132.628	-0.286	-0.367
-217.582	-92.726	0.172	-0.048
-216.567	800.000	0.021	-0.079
-215.552	30.079	0.068	0.058
-214.538	-40.723	0.144	0.074
-213.523	176.674	0.188	-0.272
-212.509	800.000	0.095	-0.348
-211.494	75.472	0.108	-0.114
-210.479	-200.000	0.053	0.256
-209.465	800.000	-0.066	-0.231
-208.450	-200.000	-0.023	0.231
-207.436	-200.000	-0.011	0.213
-206.421	-11.379	0.287	0.188
-205.406	800.000	-0.029	-0.109
-204.392	597.089	0.095	-0.234
-203.377	91.059	0.218	0.244
-202.363	-200.000	-0.032	0.285
-201.348	62.676	-0.088	-0.087
-200.333	-89.505	0.236	0.069
-199.319	-7.452	-0.104	0.070
-198.304	-200.000	0.046	-0.256
-197.290	-95.641	-0.572	-0.152
-196.275	-130.109	-0.121	-0.016
-195.260	44.450	0.285	0.260
-194.246	-58.855	0.111	0.048
-193.231	472.872	-0.032	-0.072
-192.217	-139.896	0.106	-0.011
-191.202	-200.000	-0.022	-0.131
-190.187	-200.000	-0.056	0.314
-189.173	-8.371	-0.255	0.170
-188.158	-57.833	-0.043	-0.019
-187.144	-200.000	-0.021	0.091
-186.129	800.000	0.151	0.431
-185.114	-200.000	-0.026	-0.201
-184.100	299.249	-0.072	0.131
-183.085	800.000	-0.094	0.298
-182.071	-67.393	-0.264	0.103
-181.056	-112.183	0.419	0.084
-180.042	-200.000	-0.046	-0.374
-179.027	-61.172	0.300	0.126
-178.012	694.366	0.183	-0.478
-176.998	-60.723	0.278	-0.117
-175.983	135.852	0.060	-0.077
-174.969	-200.000	-0.035	-0.198
-173.954	800.000	-0.092	0.291
-172.939	800.000	0.014	0.042
-171.925	43.373	-0.219	0.198
-170.910	360.231	0.192	0.383
-169.896	-104.812	0.229	-0.052
-168.881	-151.248	0.211	0.016
-167.866	-112.483	0.116	-0.023
-166.852	-99.039	0.194	0.049
-165.837	-68.680	0.128	0.049
-164.823	300.909	-0.116	-0.213
-163.808	52.535	0.185	0.175
-162.793	-200.000	-0.008	-0.218
-161.779	-8.169	-0.241	0.161
-160.764	800.000	-0.054	-0.233
-159.750	594.467	0.070	-0.172
-158.735	-163.379	-0.131	0.006
-157.720	-200.000	-0.033	0.207
-156.706	800.000	0.134	0.494
-155.691	131.987	0.199	0.254
-154.677	-108.192	0.118	0.025
-153.662	800.000	-0.097	-0.313
-152.647	161.995	-0.090	-0.124
-151.633	-104.548	0.228	-0.052
-150.618	-200.000	-0.049	0.253
-149.604	-54.384	0.225	0.101
-148.589	-19.698	0.169	-0.104
-147.574	800.000	-0.082	0.314
-146.560	800.000	0.086	-0.360
-145.545	-66.136	0.066	-0.026
-144.531	-200.000	0.022	0.244
-143.516	-87.758	-0.377	-0.113
-142.502	643.675	-0.121	0.305
-141.487	-159.931	0.155	0.008
-140.472	236.537	0.127	-0.209
-139.458	800.000	-0.115	0.439
-138.443	-200.000	0.043	-0.268
-137.429	-105.247	0.067	-0.015
-136.414	-38.170	-0.029	0.015
-135.399	-200.000	0.007	0.177
-134.385	136.633	0.092	0.119
-133.370	-200.000	-0.011	0.058
-132.356	800.000	0.113	0.336
-131.341	-120.053	-0.208	-0.035
-130.326	394.636	-0.062	0.128
-129.312	-173.529	0.272	0.008
-128.297	-200.000	-0.007	0.140
-127.283	-14.189	0.222	-0.142
-126.268	-168.720	0.339	0.013
-125.253	-200.000	0.000	0.259
-124.239	37.367	0.122	0.107
-123.224	-65.125	0.226	-0.091
-122.210	800.000	0.090	-0.284
-121.195	-146.244	0.058	-0.005
