DTS Sentinel unit serial number:	SN413079Multiplexer serial number:	ORYXHardware model number:	OX4-SRSoftware version number:	ORYX F/W v4.00 Oryx Data Collector v3.7.2.0data status	okinstallation	princeton_trtdifferential loss correction	single-endedforward channel	channel 4reverse channel	N/Adate	2019/09/19time	10:41:35forward acquisition time	60.00reverse acquisition time	0.00gamma	496.2192k internal	0.2328k external	0.2328temperature offset calibration	1.0018default loss term (dB/km)	0.3790temperature slope calibration	1.0000multiplexer offset coefficient	1.0000multiplexer slope coefficient	1.0000fibre end	0.00T internal ref (°C)	24.56T ext. ref 1 (°C)	0.73T ext. ref 2 (°C)	20.13length (m)	temperature (°C)	Stokes	anti-Stokes-747.200	110.823	0.179	0.217
-746.185	222.511	-0.157	0.255
-745.171	-200.000	0.006	0.261
-744.156	119.182	0.103	0.129
-743.142	-200.000	0.020	0.166
-742.127	800.000	-0.077	0.272
-741.112	-134.758	0.423	0.052
-740.098	-176.349	-0.411	-0.011
-739.083	-200.000	-0.040	0.346
-738.069	188.426	0.357	0.538
-737.054	472.179	0.063	-0.142
-736.039	-136.326	-0.234	0.027
-735.025	137.627	-0.099	0.131
-734.010	-55.551	0.187	0.085
-732.996	800.000	-0.062	0.241
-731.981	-200.000	-0.027	-0.189
-730.966	-103.646	-0.286	-0.068
-729.952	-52.310	-0.336	0.157
-728.937	109.164	0.248	-0.299
-727.923	196.155	-0.132	0.203
-726.908	-200.000	-0.014	-0.089
-725.894	800.000	-0.072	-0.283
-724.879	131.919	0.072	-0.093
-723.864	-159.930	-0.198	-0.011
-722.850	-97.420	-0.216	-0.057
-721.835	-28.711	-0.189	0.109
-720.821	239.631	0.089	-0.150
-719.806	243.271	0.113	0.191
-718.791	800.000	-0.101	0.317
-717.777	-58.906	0.362	0.157
-716.762	-86.972	0.167	-0.051
-715.748	512.294	0.140	-0.329
-714.733	800.000	0.030	0.130
-713.718	800.000	-0.086	-0.341
-712.704	-179.880	0.216	-0.005
-711.689	173.744	0.118	-0.172
-710.675	34.557	-0.134	-0.118
-709.660	-101.935	0.274	-0.067
-708.645	-86.474	-0.210	-0.065
-707.631	158.843	0.088	0.123
-706.616	-7.386	0.173	0.118
-705.602	-75.926	0.087	0.031
-704.587	787.358	-0.140	-0.385
-703.572	11.994	-0.339	0.262
-702.558	-200.000	-0.030	-0.208
-701.543	273.858	0.120	-0.214
-700.529	-200.000	0.027	-0.166
-699.514	-171.893	-0.128	0.004
-698.499	56.909	0.230	0.226
-697.485	377.194	-0.139	0.286
-696.470	740.568	-0.119	-0.320
-695.456	-200.000	-0.019	-0.354
-694.441	-200.000	-0.002	-0.116
-693.426	-0.386	-0.203	-0.145
-692.412	-161.659	0.459	-0.024
-691.397	-200.000	-0.021	0.271
-690.383	-200.000	-0.037	0.226
-689.368	-15.039	-0.265	-0.171
-688.354	-13.847	-0.096	-0.062
-687.339	-200.000	0.051	-0.358
-686.324	-97.664	0.172	-0.045
-685.310	183.101	-0.222	-0.330
-684.295	96.524	-0.245	-0.282
-683.281	153.358	-0.222	-0.305
-682.266	45.569	-0.121	-0.112
-681.251	-58.934	-0.082	0.036
-680.237	-200.000	-0.000	0.073
-679.222	233.224	-0.174	-0.288
-678.208	72.736	-0.090	0.095
-677.193	-200.000	-0.013	0.121
-676.178	217.331	0.092	0.148
-675.164	357.945	-0.243	-0.488
-674.149	37.929	-0.113	-0.101
-673.135	96.907	-0.244	0.281
-672.120	-93.202	0.119	0.033
-671.105	-86.539	-0.032	0.010
-670.091	-17.486	-0.135	0.086
-669.076	-141.159	0.391	0.040
-668.062	25.591	0.056	-0.047
-667.047	61.703	-0.196	-0.196
-666.032	-138.561	-0.459	0.051
-665.018	282.239	-0.124	0.224
-664.003	-162.121	0.219	0.011
-662.989	607.865	0.081	0.202
-661.974	95.963	0.162	-0.186
-660.959	-108.074	0.136	0.030
-659.945	12.429	-0.421	0.326
-658.930	-126.956	-0.323	-0.048
-657.916	-115.172	0.413	-0.079
-656.901	92.279	0.137	0.155
-655.886	562.474	-0.108	0.263
-654.872	-164.336	-0.194	0.009
-653.857	-200.000	0.027	0.286
-652.843	-200.000	-0.006	-0.092
-651.828	-200.000	0.003	0.228
-650.814	14.494	-0.077	0.061
-649.799	202.604	0.065	0.101
-648.784	-120.180	0.265	0.046
-647.770	45.668	-0.249	-0.231
-646.755	-200.000	0.003	-0.350
-645.741	0.121	-0.407	-0.291
-644.726	-149.081	0.337	0.027
-643.711	37.817	0.181	0.161
-642.697	800.000	0.047	-0.130
-641.682	72.389	0.097	0.102
-640.668	-200.000	0.039	-0.188
-639.653	-142.278	-0.107	-0.011
-638.638	-19.176	0.160	-0.100
-637.624	-172.129	-0.246	0.008
-636.609	-105.537	0.468	-0.107
-635.595	-200.000	-0.036	-0.188
-634.580	188.246	0.103	-0.154
-633.565	262.055	-0.152	-0.265
-632.551	35.581	-0.247	0.218
-631.536	-45.558	0.308	0.153
-630.522	800.000	-0.062	-0.232
-629.507	-121.070	0.112	0.019
-628.492	-31.815	-0.176	-0.099
-627.478	27.253	-0.234	0.197
-626.463	46.017	-0.171	-0.159
-625.449	-39.615	0.056	0.029
-624.434	-200.000	0.006	-0.197
-623.419	800.000	-0.082	-0.286
-622.405	-123.044	-0.464	-0.075
-621.390	-200.000	0.012	0.108
-620.376	354.673	-0.161	-0.321
-619.361	396.532	0.163	-0.340
-618.346	485.151	-0.040	-0.091
-617.332	-78.263	0.218	-0.075
-616.317	56.979	0.276	-0.270
-615.303	305.163	0.112	-0.208
-614.288	800.000	0.039	-0.111
-613.273	733.513	-0.043	-0.116
-612.259	-30.569	0.136	0.077
-611.244	136.013	-0.096	-0.126
-610.230	-71.093	0.233	0.088
-609.215	-58.693	-0.177	0.077
-608.201	5.035	0.067	-0.049
-607.186	-66.926	0.220	-0.087
-606.171	-200.000	-0.018	0.123
-605.157	-17.478	-0.150	0.095
-604.142	-98.894	0.270	-0.069
-603.128	-200.000	0.034	0.175
-602.113	326.336	0.061	0.117
-601.098	-200.000	0.006	-0.119
-600.084	115.614	-0.057	0.069
-599.069	-99.817	0.159	-0.040
-598.055	800.000	-0.047	-0.190
-597.040	-146.513	0.515	-0.045
-596.025	-15.613	0.194	0.124
-595.011	-177.224	-0.433	0.011
-593.996	-69.741	0.302	0.116
-592.982	196.208	-0.242	0.370
-591.967	-137.550	-0.086	0.010
-590.952	123.916	0.101	0.127
-589.938	74.106	0.311	-0.327
-588.923	-127.167	-0.046	-0.007
-587.909	131.031	0.119	0.152
-586.894	-200.000	0.041	-0.328
-585.879	-22.986	-0.063	0.038
-584.865	-39.520	0.201	0.105
-583.850	185.388	0.223	-0.331
-582.836	52.771	0.101	-0.096
-581.821	-44.771	0.205	0.102
-580.806	12.801	-0.304	-0.235
-579.792	-200.000	0.009	0.204
-578.777	-128.271	-0.334	-0.048
-577.763	219.787	0.073	-0.117
-576.748	-48.341	-0.242	-0.117
-575.733	17.242	0.245	0.195
-574.719	-200.000	0.212	0.001
-573.704	239.380	-0.075	0.124
-572.690	110.718	0.309	0.372
-571.675	536.827	0.077	0.182
-570.661	-169.042	0.176	-0.007
-569.646	110.407	0.259	-0.312
-568.631	-130.352	0.098	-0.013
-567.617	72.707	0.079	0.082
-566.602	176.316	0.086	-0.124
-565.588	-63.386	-0.218	0.090
-564.573	800.000	0.012	0.053
-563.558	556.250	0.151	-0.365
-562.544	-112.129	0.194	0.039
-561.529	42.597	0.273	-0.248
-560.515	-200.000	0.015	-0.191
-559.500	-200.000	-0.105	0.000
-558.485	171.113	-0.183	0.262
-557.471	368.405	0.066	-0.133
-556.456	-109.308	0.200	0.042
-555.442	52.755	0.227	-0.217
-554.427	-115.169	-0.189	-0.036
-553.412	379.343	0.116	-0.237
-552.398	-141.708	-0.067	-0.007
-551.383	-200.000	0.040	0.293
-550.369	800.000	0.043	0.135
-549.354	35.045	-0.211	-0.185
-548.339	-148.657	-0.329	0.027
-547.325	-186.581	-0.247	-0.004
-546.310	-90.607	0.243	-0.070
-545.296	-150.352	-0.037	0.003
-544.281	-200.000	-0.017	-0.244
-543.266	525.663	0.025	-0.059
-542.252	-128.260	0.391	0.056
-541.237	-122.235	0.107	0.018
-540.223	-200.000	-0.013	0.193
-539.208	-58.840	0.158	0.068
-538.193	396.911	0.120	-0.250
-537.179	-200.000	-0.008	0.041
-536.164	-114.087	-0.126	-0.024
-535.150	-200.000	-0.009	0.266
-534.135	-96.074	-0.511	-0.136
-533.121	774.330	-0.015	0.041
-532.106	-126.080	-0.345	0.052
-531.091	-200.000	0.059	0.379
-530.077	230.005	-0.154	0.251
-529.062	-76.229	-0.326	-0.115
-528.048	166.869	0.153	-0.217
-527.033	-200.000	0.211	0.000
-526.018	236.104	0.148	-0.245
-525.004	2.941	-0.082	-0.060
-523.989	-81.670	0.424	-0.139
-522.975	-200.000	0.018	0.296
-521.960	195.115	0.079	0.119
-520.945	-200.000	0.029	0.195
-519.931	-141.250	0.075	0.008
-518.916	76.208	-0.119	-0.126
-517.902	141.642	-0.102	0.135
-516.887	-200.000	-0.005	-0.091
-515.872	-200.000	-0.021	0.190
-514.858	132.297	-0.161	0.207
-513.843	-200.000	0.010	0.315
-512.829	6.645	0.086	-0.064
-511.814	60.033	0.257	0.254
-510.799	-19.451	-0.113	0.070
-509.785	328.798	0.041	-0.078
-508.770	60.006	-0.195	-0.193
-507.756	-138.412	0.582	-0.064
-506.741	-6.904	-0.194	0.132
-505.726	-200.000	0.011	-0.172
-504.712	192.510	-0.182	-0.274
-503.697	800.000	-0.086	0.258
-502.683	-154.485	-0.631	0.042
-501.668	-88.934	0.107	-0.032
-500.653	130.039	-0.163	0.208
-499.639	800.000	0.081	-0.275
-498.624	800.000	0.074	-0.224
-497.610	-102.643	0.213	0.051
-496.595	22.494	0.067	0.054
-495.581	160.103	-0.022	0.031
-494.566	-7.296	0.263	0.178
-493.551	-200.000	-0.078	-0.472
-492.537	622.179	0.036	0.090
-491.522	-44.142	-0.137	0.068
-490.508	41.357	0.026	0.024
-489.493	-187.568	-0.295	-0.004
-488.478	-64.345	-0.106	-0.043
-487.464	145.096	-0.088	-0.117
-486.449	103.859	-0.201	0.235
-485.435	-105.046	0.144	0.033
-484.420	26.335	0.205	0.171
-483.405	-200.000	0.004	-0.167
-482.391	-120.784	0.050	0.008
-481.376	87.301	-0.048	-0.053
-480.362	170.631	0.199	-0.285
-479.347	273.709	-0.134	-0.237
-478.332	479.296	-0.079	0.179
-477.318	-92.875	-0.390	0.109
-476.303	9.577	0.250	0.189
-475.289	-9.087	-0.287	-0.192
-474.274	-200.000	0.011	-0.296
-473.259	-172.289	-0.040	0.001
-472.245	800.000	-0.052	-0.221
-471.230	-19.782	0.096	0.059
-470.216	159.591	0.280	-0.389
-469.201	-187.711	-0.298	-0.004
-468.186	-114.247	-0.163	-0.031
-467.172	-22.701	-0.228	-0.137
-466.157	-29.658	-0.238	-0.135
-465.143	800.000	0.068	-0.203
-464.128	-200.000	-0.009	-0.093
-463.113	358.540	-0.149	-0.296
-462.099	-12.012	-0.333	0.217
-461.084	-99.972	0.234	-0.058
-460.070	-149.013	0.138	-0.011
-459.055	-149.563	0.091	-0.007
-458.040	-35.074	0.310	0.169
-457.026	800.000	0.084	-0.246
-456.011	800.000	0.051	-0.202
-454.997	-145.303	-0.317	-0.029
-453.982	-35.746	-0.123	-0.066
-452.968	-200.000	0.035	0.161
-451.953	209.365	-0.041	0.064
-450.938	-28.089	-0.394	0.227
-449.924	-124.530	0.089	0.014
-448.909	83.963	0.231	-0.252
-447.895	246.611	0.074	0.124
-446.880	-54.659	-0.170	0.076
-445.865	-57.192	0.299	-0.131
-444.851	-19.004	0.487	0.302
-443.836	107.156	0.183	-0.217
-442.822	-38.403	-0.206	-0.108
-441.807	-75.524	-0.073	0.026
-440.792	-74.760	-0.191	-0.068
-439.778	-200.000	0.025	-0.325
-438.763	206.526	-0.013	0.021
-437.749	-78.278	-0.258	0.088
-436.734	-80.695	0.035	0.012
-435.719	-43.638	-0.226	0.113
-434.705	672.102	0.148	-0.383
-433.690	668.718	-0.066	-0.171
-432.676	26.910	-0.060	0.050
-431.661	-200.000	0.051	-0.259
-430.646	46.896	0.399	-0.370
-429.632	-104.591	-0.388	-0.089
-428.617	490.160	-0.088	-0.200
-427.603	-67.081	0.266	-0.105
-426.588	-200.000	-0.023	-0.259
-425.573	28.783	-0.081	0.068
-424.559	-13.504	0.281	0.181
-423.544	-7.881	0.094	0.063
-422.530	58.015	-0.303	0.296
-421.515	310.942	-0.152	-0.283
-420.500	158.809	-0.112	0.155
-419.486	-200.000	-0.022	0.231
-418.471	20.697	-0.322	-0.259
-417.457	-117.204	-0.191	-0.035
-416.442	36.052	-0.139	0.121
-415.428	-186.554	-0.206	-0.003
-414.413	-127.602	-0.217	-0.031
-413.398	256.756	0.077	-0.132
-412.384	800.000	-0.060	0.166
-411.369	-200.000	-0.047	-0.251
-410.355	48.494	-0.048	0.045
-409.340	4.848	0.201	0.147
-408.325	43.111	0.091	-0.083
-407.311	134.110	-0.039	-0.050
-406.296	-200.000	0.004	0.407
-405.282	800.000	-0.069	0.226
-404.267	-85.802	-0.222	-0.068
-403.252	17.774	0.141	0.112
-402.238	-106.709	0.495	-0.109
-401.223	-9.799	0.177	-0.117
-400.209	296.026	-0.036	0.066
-399.194	278.671	-0.166	0.295
-398.179	-158.901	0.124	-0.007
-397.165	800.000	-0.082	0.313
-396.150	-56.681	0.379	-0.167
-395.136	-200.000	0.063	0.413
-394.121	800.000	0.042	0.165
-393.106	800.000	-0.014	0.049
-392.092	-200.000	0.046	0.240
-391.077	-85.843	0.194	-0.060
-390.063	800.000	0.089	-0.343
-389.048	93.898	0.145	-0.163
-388.033	-10.922	0.141	-0.093
-387.019	380.072	0.039	0.080
-386.004	-200.000	-0.002	-0.218
-384.990	211.809	0.077	0.120
-383.975	800.000	-0.087	0.288
-382.960	717.660	-0.072	-0.191
-381.946	-169.260	0.244	-0.009
-380.931	-55.340	-0.078	-0.035
-379.917	149.180	0.070	-0.094
-378.902	203.677	-0.073	0.112
-377.888	37.088	0.174	-0.153
-376.873	-98.676	0.088	-0.022
-375.858	3.719	-0.278	0.201
-374.844	-200.000	0.002	0.109
-373.829	-200.000	0.008	0.117
-372.815	-200.000	0.035	0.198
-371.800	-20.048	-0.133	0.082
-370.785	93.853	-0.192	0.216
-369.771	-200.000	0.039	-0.284
-368.756	-99.525	0.150	-0.037
-367.742	379.391	0.126	0.256
-366.727	154.824	-0.039	0.054
-365.712	-200.000	-0.074	0.330
-364.698	-116.606	-0.191	-0.035
-363.683	547.411	0.074	-0.177
-362.669	-7.688	0.188	0.126
-361.654	-200.000	0.003	-0.294
-360.639	-65.677	0.374	-0.149
-359.625	-110.224	0.265	0.055
-358.610	-58.120	0.278	-0.120
-357.596	-63.318	0.158	0.064
-356.581	161.677	0.085	0.119
-355.566	-15.175	0.276	0.176
-354.552	-27.009	-0.221	-0.128
-353.537	-47.945	-0.126	0.060
-352.523	356.097	-0.083	0.163
-351.508	800.000	-0.024	-0.071
-350.493	-89.821	0.454	-0.132
-349.479	-200.000	0.052	0.352
-348.464	-32.888	-0.344	0.189
-347.450	-200.000	0.011	-0.052
-346.435	296.886	0.088	0.160
-345.420	534.531	0.099	0.234
-344.406	75.023	-0.219	0.229
-343.391	473.517	0.026	-0.058
-342.377	232.491	-0.090	0.147
-341.362	37.305	-0.174	0.153
-340.348	377.347	-0.038	0.076
-339.333	-87.429	0.164	-0.049
-338.318	-200.000	-0.008	-0.185
-337.304	800.000	-0.114	-0.323
-336.289	-135.680	-0.108	-0.013
-335.275	773.198	0.082	0.222
-334.260	-135.908	-0.249	-0.029
-333.245	206.437	-0.193	-0.298
-332.231	574.892	0.054	-0.130
-331.216	-200.000	-0.014	0.109
-330.202	-200.000	0.001	0.031
-329.187	-79.437	-0.226	0.076
-328.172	-94.475	-0.192	0.052
-327.158	-200.000	-0.010	-0.083
-326.143	-200.000	-0.002	0.096
-325.129	33.405	-0.283	0.244
-324.114	-110.706	-0.100	-0.020
-323.099	-46.791	-0.238	-0.115
-322.085	44.220	-0.170	0.155
-321.070	-120.648	0.231	0.039
-320.056	53.042	-0.080	-0.076
-319.041	-200.000	0.062	-0.385
-318.026	-67.986	-0.302	-0.117
-317.012	-110.735	-0.041	-0.008
-315.997	-1.032	-0.157	0.110
-314.983	-68.123	0.165	-0.064
-313.968	-200.000	-0.057	0.579
-312.953	-200.000	0.012	0.063
-311.939	307.263	-0.092	0.170
-310.924	430.262	-0.041	-0.088
-309.910	-8.347	0.155	0.104
-308.895	66.988	-0.078	0.079
-307.880	-50.987	-0.093	0.043
-306.866	-143.734	-0.170	0.016
-305.851	-16.051	0.273	0.172
-304.837	800.000	-0.134	0.391
-303.822	-110.701	-0.357	0.073
-302.807	-200.000	-0.029	0.174
-301.793	-109.940	-0.191	0.040
-300.778	285.483	0.055	0.097
-299.764	-38.272	0.121	-0.064
-298.749	800.000	0.123	0.488
-297.735	-200.000	0.063	-0.318
-296.720	339.593	-0.008	-0.016
-295.705	211.404	-0.165	-0.257
-294.691	127.696	-0.303	-0.381
-293.676	341.210	-0.177	0.342
-292.662	637.198	-0.055	-0.138
-291.647	800.000	0.060	-0.178
-290.632	-60.862	-0.248	0.104
-289.618	102.020	0.258	-0.298
-288.603	-200.000	0.039	-0.175
-287.589	800.000	-0.126	-0.362
-286.574	-200.000	-0.005	0.038
-285.559	-82.994	0.190	-0.061
-284.545	83.522	0.029	0.031
-283.530	-17.811	-0.193	-0.120
-282.516	4.453	0.101	-0.073
-281.501	-48.321	0.083	-0.039
-280.486	38.872	-0.193	0.171
-279.472	800.000	-0.055	-0.159
-278.457	-82.903	0.197	0.063
-277.443	-47.077	0.218	-0.105
-276.428	-28.592	-0.273	0.155
-275.413	197.675	0.042	0.064
-274.399	10.378	0.131	-0.099
-273.384	231.236	0.187	0.302
-272.370	-11.544	-0.038	0.025
-271.355	15.013	0.263	0.204
-270.340	-52.329	0.055	0.025
-269.326	-138.954	0.110	0.012
-268.311	60.761	-0.140	-0.138
-267.297	-70.558	0.230	-0.086
-266.282	-54.063	-0.197	0.088
-265.267	-94.819	-0.455	-0.122
-264.253	106.514	-0.135	0.159
-263.238	-25.928	0.085	0.049
-262.224	133.994	-0.171	0.220
-261.209	-126.798	-0.049	-0.007
-260.195	-122.670	0.278	0.045
-259.180	136.048	-0.010	0.013
-258.165	-55.653	0.161	0.071
-257.151	-200.000	-0.041	-0.294
-256.136	103.538	0.095	-0.110
-255.122	-108.077	-0.131	0.028
-254.107	149.776	-0.249	0.334
-253.092	-33.495	0.347	0.190
-252.078	800.000	-0.054	-0.185
-251.063	141.698	0.117	-0.154
-250.049	600.581	0.195	0.479
-249.034	-200.000	0.028	0.448
-248.019	448.304	0.131	0.284
-247.005	-68.360	0.257	-0.099
-245.990	-75.403	0.145	0.051
-244.976	-200.000	0.005	0.093
-243.961	223.956	0.157	-0.250
-242.946	-200.000	-0.008	-0.151
-241.932	-110.950	0.175	-0.035
-240.917	-36.413	-0.126	-0.067
-239.903	200.502	-0.167	0.254
-238.888	224.651	-0.076	-0.122
-237.873	534.888	0.163	-0.381
-236.859	-88.362	-0.349	0.103
-235.844	-15.102	0.074	0.047
-234.830	-60.836	-0.088	-0.037
-233.815	-200.000	0.019	-0.156
-232.800	-16.253	-0.201	0.126
-231.786	284.918	0.046	-0.083
-230.771	7.607	0.060	-0.045
-229.757	-200.000	-0.015	-0.084
-228.742	44.603	0.158	0.144
-227.727	-107.591	-0.237	-0.051
-226.713	-200.000	0.016	0.336
-225.698	443.040	0.174	-0.376
-224.684	-97.423	0.068	-0.018
-223.669	-38.248	-0.259	0.136
-222.655	150.504	0.088	0.119
-221.640	-45.153	-0.104	-0.051
-220.625	-200.000	0.017	-0.119
-219.611	488.900	0.029	-0.065
-218.596	77.645	0.140	0.147
-217.582	-118.135	0.389	0.069
-216.567	800.000	0.081	0.247
-215.552	208.318	-0.232	0.357
-214.538	54.349	0.081	-0.077
-213.523	612.308	0.121	0.298
-212.509	-92.178	0.200	-0.056
-211.494	-25.085	-0.229	0.134
-210.479	800.000	-0.073	-0.206
-209.465	30.058	-0.139	0.117
-208.450	-200.000	0.016	0.180
-207.436	353.732	0.088	0.172
-206.421	97.102	-0.302	0.342
-205.406	100.888	-0.276	0.316
-204.392	-21.101	-0.124	-0.075
-203.377	288.273	-0.122	0.218
-202.363	-185.316	0.305	0.005
-201.348	-55.578	-0.154	-0.068
-200.333	284.252	-0.195	-0.347
-199.319	-194.391	-0.232	-0.002
-198.304	-200.000	0.005	-0.064
-197.290	22.665	0.072	-0.058
-196.275	-118.675	0.205	-0.036
-195.260	-143.186	0.057	-0.005
-194.246	135.146	-0.076	-0.097
-193.231	100.733	0.224	0.257
-192.217	-126.854	0.281	-0.041
-191.202	-200.000	0.099	-0.475
-190.187	7.999	-0.243	-0.180
-189.173	-70.333	0.328	0.123
-188.158	-97.393	0.147	0.038
-187.144	-42.674	0.119	0.060
-186.129	92.499	-0.109	0.121
-185.114	332.829	-0.090	-0.172
-184.100	-69.723	-0.083	0.031
-183.085	383.257	0.067	0.136
-182.071	-102.212	0.138	0.033
-181.056	800.000	-0.077	-0.316
-180.042	-11.130	0.106	-0.069
-179.027	95.681	0.062	0.070
-178.012	-102.269	0.194	0.046
-176.998	10.608	0.160	0.120
-175.983	-56.174	-0.406	-0.178
-174.969	-78.120	-0.022	-0.007
-173.954	372.281	-0.069	0.139
-172.939	800.000	0.006	-0.020
-171.925	-172.519	-0.150	-0.005
-170.910	-200.000	0.011	-0.341
-169.896	-7.147	-0.120	-0.080
-168.881	-200.000	0.001	0.169
-167.866	464.476	-0.123	-0.272
-166.852	-200.000	-0.019	0.097
-165.837	213.204	-0.287	0.447
-164.823	-81.642	0.163	0.053
-163.808	-14.749	-0.210	0.133
-162.793	116.677	-0.252	0.305
-161.779	-200.000	-0.002	0.475
-160.764	1.278	0.147	-0.104
-159.750	-42.110	-0.238	0.120
-158.735	212.110	0.258	-0.400
-157.720	64.638	-0.079	-0.079
-156.706	40.422	0.236	0.210
-155.691	-128.090	-0.243	-0.034
-154.677	-70.006	-0.143	0.054
-153.662	119.210	0.142	0.173
-152.647	119.515	-0.104	0.127
-151.633	-124.888	-0.370	0.056
-150.618	-180.959	0.004	0.000
-149.604	268.682	-0.084	-0.145
-148.589	711.160	0.038	0.099
-147.574	-63.694	0.327	0.132
-146.560	-200.000	0.067	-0.314
-145.545	145.065	-0.129	-0.170
-144.531	-6.348	-0.250	-0.168
-143.516	-200.000	-0.008	0.172
-142.502	-98.679	0.164	-0.041
-141.487	-48.142	0.196	0.093
-140.472	-147.669	0.188	0.016
-139.458	146.708	0.205	0.271
-138.443	149.250	-0.034	0.045
-137.429	22.525	0.164	-0.132
-136.414	-62.313	-0.193	-0.079
-135.399	-87.684	0.102	0.030
-134.385	109.798	0.170	-0.200
-133.370	-27.834	-0.191	0.109
-132.356	-45.468	-0.243	0.118
-131.341	800.000	-0.037	0.132
-130.326	-57.647	-0.057	-0.025
-129.312	-200.000	-0.025	0.273
-128.297	-200.000	-0.047	0.296
-127.283	800.000	0.079	0.276
-126.268	10.653	-0.271	0.203
-125.253	320.427	0.136	-0.254
-124.239	148.876	0.002	-0.003
-123.224	0.933	0.350	0.247
-122.210	284.195	0.245	-0.433
-121.195	44.630	0.237	-0.214
