DTS Sentinel unit serial number:	SN413079Multiplexer serial number:	ORYXHardware model number:	OX4-SRSoftware version number:	ORYX F/W v4.00 Oryx Data Collector v3.7.2.0data status	okinstallation	princeton_trtdifferential loss correction	single-endedforward channel	channel 4reverse channel	N/Adate	2019/09/17time	10:01:35forward acquisition time	60.00reverse acquisition time	0.00gamma	496.2192k internal	0.2311k external	0.2311temperature offset calibration	0.9975default loss term (dB/km)	0.3790temperature slope calibration	1.0000multiplexer offset coefficient	1.0000multiplexer slope coefficient	1.0000fibre end	0.00T internal ref (°C)	29.64T ext. ref 1 (°C)	0.16T ext. ref 2 (°C)	25.31length (m)	temperature (°C)	Stokes	anti-Stokes-747.200	-72.509	0.361	0.135
-746.185	112.095	-0.130	0.160
-745.171	28.038	0.209	0.179
-744.156	-9.380	-0.257	0.174
-743.142	-200.000	0.013	0.309
-742.127	265.332	0.030	0.053
-741.112	653.793	-0.141	0.367
-740.098	800.000	-0.106	0.336
-739.083	-122.147	0.254	-0.042
-738.069	52.576	-0.156	0.152
-737.054	556.572	-0.059	0.144
-736.039	311.948	0.088	-0.168
-735.025	115.556	-0.115	-0.143
-734.010	66.831	-0.095	-0.098
-732.996	-101.783	0.178	0.044
-731.981	-19.600	-0.167	-0.105
-730.966	107.132	-0.182	0.220
-729.952	555.433	-0.012	-0.030
-728.937	-200.000	0.001	-0.053
-727.923	40.207	-0.173	0.158
-726.908	800.000	0.002	0.008
-725.894	507.125	-0.108	-0.255
-724.879	168.654	-0.136	-0.196
-723.864	-0.030	0.117	-0.085
-722.850	-200.000	0.007	-0.183
-721.835	-65.133	-0.323	0.132
-720.821	-200.000	0.080	-0.371
-719.806	488.025	0.053	0.123
-718.791	-200.000	-0.025	0.283
-717.777	-6.665	-0.093	0.064
-716.762	-97.035	-0.353	0.094
-715.748	90.556	-0.202	0.229
-714.733	312.793	-0.080	-0.153
-713.718	-100.829	-0.119	-0.030
-712.704	7.924	-0.194	0.148
-711.689	-200.000	-0.039	-0.452
-710.675	66.026	-0.037	-0.038
-709.660	170.472	0.284	-0.412
-708.645	185.904	-0.111	-0.167
-707.631	-200.000	0.014	-0.350
-706.616	800.000	-0.061	-0.172
-705.602	-46.826	-0.287	-0.142
-704.587	-200.000	-0.021	-0.213
-703.572	335.126	-0.199	0.392
-702.558	-140.776	-0.250	0.026
-701.543	5.844	0.239	-0.179
-700.529	-134.123	0.215	-0.027
-699.514	-200.000	0.073	-0.372
-698.499	-200.000	-0.014	-0.085
-697.485	684.834	0.117	-0.310
-696.470	-124.428	0.280	0.044
-695.456	20.229	-0.118	0.096
-694.441	-200.000	-0.079	0.423
-693.426	199.150	-0.100	0.155
-692.412	-73.476	0.323	0.120
-691.397	-79.041	0.109	0.037
-690.383	31.267	0.080	0.069
-689.368	800.000	-0.074	-0.214
-688.354	8.703	-0.086	0.065
-687.339	56.419	-0.242	-0.238
-686.324	-200.000	-0.015	0.295
-685.310	-200.000	0.026	-0.252
-684.295	-87.260	0.232	-0.071
-683.281	373.574	0.015	-0.030
-682.266	-163.464	-0.488	-0.023
-681.251	-14.222	-0.240	-0.157
-680.237	-53.983	0.495	-0.228
-679.222	-116.839	0.123	0.023
-678.208	83.203	0.194	-0.214
-677.193	-45.047	0.407	-0.205
-676.178	-200.000	-0.005	-0.346
-675.164	-200.000	0.021	0.189
-674.149	20.500	0.172	-0.141
-673.135	76.688	0.170	0.183
-672.120	-64.838	0.026	-0.011
-671.105	-200.000	-0.002	0.104
-670.091	180.282	-0.007	0.010
-669.076	-200.000	0.011	-0.129
-668.062	800.000	-0.098	-0.322
-667.047	444.893	0.047	-0.105
-666.032	-200.000	0.023	-0.243
-665.018	-154.176	-0.237	0.016
-664.003	-25.154	0.222	-0.133
-662.989	-200.000	0.031	-0.319
-661.974	-16.245	-0.221	-0.142
-660.959	130.283	-0.068	-0.088
-659.945	189.259	-0.109	0.165
-658.930	271.705	0.034	-0.060
-657.916	-49.726	-0.201	-0.097
-656.901	800.000	-0.073	-0.311
-655.886	345.998	0.170	-0.337
-654.872	-200.000	0.029	-0.167
-653.857	302.663	0.081	0.151
-652.843	-175.452	-0.369	-0.010
-651.828	-10.294	0.206	0.138
-650.814	12.073	0.234	-0.182
-649.799	286.836	-0.146	-0.267
-648.784	131.390	-0.137	-0.178
-647.770	-59.071	0.151	-0.066
-646.755	-34.350	0.087	-0.048
-645.741	-88.339	-0.172	-0.052
-644.726	-141.070	0.336	-0.035
-643.711	-200.000	-0.016	0.121
-642.697	-42.732	-0.228	-0.117
-641.682	-109.924	-0.177	0.037
-640.668	44.017	0.217	0.201
-639.653	66.784	0.056	-0.057
-638.638	128.294	0.099	0.128
-637.624	135.278	0.154	0.202
-636.609	19.170	-0.093	-0.076
-635.595	-146.937	0.260	-0.023
-634.580	-129.069	-0.164	0.023
-633.565	697.651	0.073	0.195
-632.551	-200.000	-0.016	0.121
-631.536	-200.000	-0.017	-0.192
-630.522	58.837	0.150	-0.149
-629.507	-25.125	0.087	0.052
-628.492	-200.000	-0.020	0.141
-627.478	-68.487	-0.182	-0.071
-626.463	-35.140	0.156	0.086
-625.449	-48.021	0.166	0.081
-624.434	-99.412	0.111	0.028
-623.419	294.460	0.070	-0.130
-622.405	-200.000	-0.057	-0.319
-621.390	125.517	0.141	-0.179
-620.376	-200.000	0.003	-0.145
-619.361	146.970	0.067	-0.091
-618.346	108.091	0.055	-0.067
-617.332	-97.411	-0.189	-0.050
-616.317	-41.328	-0.126	0.066
-615.303	-155.377	-0.141	-0.009
-614.288	-200.000	-0.013	0.101
-613.273	-200.000	0.019	-0.256
-612.259	11.752	0.124	0.096
-611.244	-83.422	-0.081	-0.026
-610.230	33.238	-0.234	-0.205
-609.215	188.793	0.093	0.141
-608.201	-63.091	0.296	-0.123
-607.186	770.259	-0.082	-0.225
-606.171	219.528	0.097	-0.157
-605.157	254.257	-0.133	0.229
-604.142	-4.518	0.130	-0.091
-603.128	-200.000	0.012	-0.100
-602.113	-200.000	-0.016	0.130
-601.098	108.787	-0.190	0.230
-600.084	-57.670	-0.245	0.108
-599.069	-24.535	0.195	-0.117
-598.055	-48.170	0.117	0.057
-597.040	-56.080	-0.307	-0.138
-596.025	800.000	-0.080	-0.235
-595.011	21.745	-0.079	-0.065
-593.996	293.535	-0.063	-0.117
-592.982	-118.973	0.140	0.025
-591.967	-4.379	-0.125	-0.087
-590.952	-91.908	-0.294	-0.084
-589.938	312.290	0.125	-0.237
-588.923	-200.000	0.069	-0.459
-587.909	-200.000	0.010	0.161
-586.894	-96.840	0.075	0.020
-585.879	-200.000	-0.013	0.246
-584.865	-119.053	-0.203	0.036
-583.850	-131.876	-0.297	-0.039
-582.836	800.000	0.039	-0.146
-581.821	-77.413	0.317	-0.111
-580.806	19.514	-0.117	-0.095
-579.792	332.580	-0.099	-0.192
-578.777	391.566	0.049	0.103
-577.763	-200.000	0.022	0.098
-576.748	800.000	-0.057	-0.214
-575.733	-200.000	0.023	0.547
-574.719	447.252	0.128	-0.284
-573.704	228.065	-0.120	0.197
-572.690	106.762	0.045	0.054
-571.675	-28.539	-0.334	-0.194
-570.661	87.551	-0.094	0.105
-569.646	350.800	0.097	0.194
-568.631	526.517	0.040	-0.094
-567.617	-129.915	-0.089	-0.012
-566.602	-183.974	-0.153	0.003
-565.588	800.000	0.046	0.155
-564.573	204.812	-0.160	-0.251
-563.558	-162.987	-0.146	0.007
-562.544	62.793	0.034	0.035
-561.529	3.889	-0.184	0.136
-560.515	-87.811	-0.118	-0.036
-559.500	-115.298	-0.182	0.035
-558.485	-200.000	-0.050	-0.252
-557.471	-141.363	0.131	0.013
-556.456	14.994	-0.285	0.225
-555.442	298.633	-0.023	-0.042
-554.427	180.645	0.182	0.269
-553.412	800.000	0.034	0.115
-552.398	355.123	-0.128	0.256
-551.383	-200.000	-0.056	-0.320
-550.369	123.794	0.056	0.071
-549.354	-200.000	0.012	-0.099
-548.339	206.988	0.057	0.090
-547.325	57.528	-0.197	-0.194
-546.310	-200.000	0.020	0.188
-545.296	142.021	0.152	-0.203
-544.281	175.751	-0.217	-0.317
-543.266	-165.831	-0.629	-0.027
-542.252	10.382	-0.209	-0.160
-541.237	163.165	0.286	-0.404
-540.223	6.926	-0.251	0.188
-539.208	384.255	-0.071	-0.147
-538.193	-33.879	0.116	0.064
-537.179	-72.040	0.285	0.106
-536.164	331.333	0.139	0.269
-535.150	-70.424	0.202	-0.077
-534.135	716.830	0.100	0.266
-533.121	-193.090	0.169	0.002
-532.106	-78.083	0.365	-0.127
-531.091	-200.000	0.007	-0.116
-530.077	104.853	0.045	0.054
-529.062	-200.000	0.052	-0.347
-528.048	645.915	-0.073	-0.188
-527.033	-200.000	0.017	-0.122
-526.018	-17.202	-0.175	0.111
-525.004	95.807	-0.059	-0.068
-523.989	70.572	-0.195	0.203
-522.975	-29.475	-0.254	-0.146
-521.960	106.631	0.190	0.226
-520.945	-145.725	-0.428	0.038
-519.931	167.593	-0.132	0.189
-518.916	-200.000	-0.034	0.206
-517.902	800.000	-0.075	-0.279
-516.887	335.258	0.021	-0.041
-515.872	-80.429	0.437	0.147
-514.858	-34.427	-0.193	-0.106
-513.843	127.467	-0.017	0.022
-512.829	7.725	-0.256	0.193
-511.814	85.065	-0.351	-0.387
-510.799	42.640	0.235	-0.216
-509.785	-200.000	-0.035	-0.182
-508.770	-200.000	0.001	0.281
-507.756	-200.000	0.018	0.110
-506.741	123.437	-0.080	0.101
-505.726	-200.000	0.012	0.328
-504.712	-140.718	-0.393	-0.041
-503.697	-48.496	0.405	0.196
-502.683	-200.000	-0.044	-0.300
-501.668	-200.000	0.215	-0.000
-500.653	220.544	0.246	0.396
-499.639	207.621	-0.229	-0.359
-498.624	800.000	0.047	-0.179
-497.610	800.000	0.056	-0.223
-496.595	97.412	0.162	-0.187
-495.581	-200.000	0.005	-0.144
-494.566	6.912	0.189	0.142
-493.551	477.606	-0.017	-0.038
-492.537	-99.229	-0.264	-0.067
-491.522	-110.741	-0.420	-0.087
-490.508	-200.000	-0.013	-0.091
-489.493	181.892	0.262	-0.388
-488.478	-200.000	0.011	0.170
-487.464	434.189	-0.151	-0.329
-486.449	-200.000	-0.009	-0.136
-485.435	-100.955	-0.360	-0.089
-484.420	-200.000	-0.037	0.166
-483.405	793.914	-0.068	0.189
-482.391	67.976	-0.181	-0.186
-481.376	-72.619	-0.071	0.026
-480.362	104.610	-0.173	0.205
-479.347	-29.707	-0.092	0.053
-478.332	-25.424	-0.061	0.037
-477.318	-107.249	0.069	-0.015
-476.303	603.189	-0.092	0.230
-475.289	-43.146	0.277	0.141
-474.274	-34.325	0.265	-0.146
-473.259	574.760	0.064	0.156
-472.245	-121.267	0.137	0.023
-471.230	510.385	0.113	-0.265
-470.216	800.000	-0.079	-0.226
-469.201	129.625	-0.125	0.160
-468.186	97.108	-0.197	-0.227
-467.172	-200.000	-0.006	-0.091
-466.157	-36.166	0.324	0.176
-465.143	391.884	0.049	0.102
-464.128	-200.000	-0.016	0.324
-463.113	-118.879	0.161	0.028
-462.099	-120.231	0.455	-0.078
-461.084	800.000	0.101	0.353
-460.070	510.515	-0.152	0.354
-459.055	75.464	0.127	0.134
-458.040	298.647	0.060	-0.111
-457.026	-113.071	-0.097	-0.019
-456.011	8.483	-0.142	0.107
-454.997	-200.000	-0.035	0.363
-453.982	-200.000	0.043	0.236
-452.968	-58.459	-0.221	0.096
-451.953	313.030	0.038	-0.071
-450.938	428.402	0.143	-0.309
-449.924	-99.717	0.230	-0.058
-448.909	-200.000	-0.024	-0.500
-447.895	800.000	0.029	0.105
-446.880	688.076	-0.131	0.343
-445.865	-67.547	-0.203	-0.080
-444.851	19.959	-0.079	0.064
-443.836	101.304	0.097	0.113
-442.822	-200.000	-0.020	-0.289
-441.807	-200.000	0.039	0.225
-440.792	-200.000	-0.004	-0.386
-439.778	310.324	-0.058	-0.108
-438.763	-200.000	0.035	0.232
-437.749	800.000	0.049	-0.210
-436.734	-122.421	-0.252	-0.041
-435.719	25.582	-0.200	0.167
-434.705	187.651	0.121	0.181
-433.690	192.053	-0.171	-0.259
-432.676	96.430	0.085	-0.098
-431.661	-135.954	0.252	-0.030
-430.646	5.888	0.281	-0.208
-429.632	-200.000	0.003	0.295
-428.617	222.634	-0.113	0.182
-427.603	-82.667	0.258	-0.084
-426.588	481.561	0.108	0.246
-425.573	-84.871	0.316	0.099
-424.559	-200.000	-0.021	-0.206
-423.544	70.289	0.124	0.128
-422.530	27.667	-0.218	-0.184
-421.515	-164.818	-0.404	-0.018
-420.500	-147.780	0.183	0.015
-419.486	660.199	-0.172	-0.443
-418.471	-54.313	-0.088	0.040
-417.457	90.436	0.144	-0.162
-416.442	-88.146	0.216	-0.065
-415.428	67.240	0.079	0.081
-414.413	-12.130	-0.025	0.017
-413.398	-39.805	0.110	-0.058
-412.384	71.689	-0.129	0.134
-411.369	-172.390	0.134	-0.004
-410.355	2.336	-0.231	0.167
-409.340	40.001	-0.185	-0.167
-408.325	-1.754	-0.109	0.077
-407.311	647.840	0.067	0.171
-406.296	-121.520	-0.050	0.008
-405.282	-50.243	-0.043	-0.020
-404.267	411.613	-0.122	-0.260
-403.252	189.683	-0.393	-0.591
-402.238	-51.099	-0.337	0.158
-401.223	800.000	-0.032	-0.116
-400.209	800.000	-0.069	0.226
-399.194	-71.570	-0.216	0.081
-398.179	-125.382	0.425	0.065
-397.165	800.000	-0.116	0.374
-396.150	-200.000	-0.038	-0.183
-395.136	-92.835	0.208	-0.058
-394.121	800.000	0.089	-0.314
-393.106	-71.506	0.168	0.063
-392.092	800.000	0.047	-0.161
-391.077	35.727	-0.036	0.032
-390.063	-121.751	0.241	-0.040
-389.048	-144.321	-0.214	0.020
-388.033	-200.000	-0.001	-0.008
-387.019	17.318	-0.188	-0.150
-386.004	800.000	0.012	0.044
-384.990	391.218	0.137	0.285
-383.975	-76.909	0.337	-0.118
-382.960	130.931	0.131	-0.168
-381.946	430.116	0.031	0.067
-380.931	-76.218	-0.208	-0.073
-379.917	-19.775	0.263	-0.163
-378.902	496.391	-0.099	0.228
-377.888	-8.832	0.227	-0.153
-376.873	190.310	0.178	0.268
-375.858	-200.000	-0.011	-0.245
-374.844	353.621	-0.010	0.020
-373.829	-102.177	0.261	0.063
-372.815	-16.425	-0.245	0.156
-371.800	-140.512	0.230	0.024
-370.785	513.253	0.063	0.147
-369.771	-59.480	0.224	0.096
-368.756	-158.414	-0.441	-0.026
-367.742	-18.956	0.232	0.145
-366.727	195.243	0.085	-0.129
-365.712	-200.000	0.025	-0.120
-364.698	69.555	0.176	0.181
-363.683	-65.029	-0.150	-0.061
-362.669	247.218	0.165	0.278
-361.654	132.251	0.196	-0.253
-360.639	168.853	0.085	0.121
-359.625	-169.004	-0.304	0.011
-358.610	-200.000	-0.038	-0.367
-357.596	31.456	0.100	0.086
-356.581	373.212	0.051	0.104
-355.566	-117.009	0.097	0.018
-354.552	-59.862	-0.078	0.033
-353.537	102.440	0.068	-0.080
-352.523	-200.000	0.059	-0.473
-351.508	760.270	-0.062	0.169
-350.493	-128.739	-0.186	-0.026
-349.479	10.899	0.196	-0.150
-348.464	-180.395	-0.048	-0.001
-347.450	800.000	0.055	0.223
-346.435	-200.000	-0.094	-0.489
-345.420	-10.809	0.193	0.128
-344.406	177.384	0.137	-0.199
-343.391	-200.000	-0.044	-0.212
-342.377	800.000	-0.002	0.009
-341.362	-155.360	-0.058	-0.004
-340.348	743.109	-0.033	-0.088
-339.333	56.036	-0.196	-0.190
-338.318	-49.685	0.182	-0.087
-337.304	-134.332	0.198	-0.024
-336.289	576.029	0.043	-0.105
-335.275	21.410	-0.341	0.277
-334.260	62.022	-0.366	-0.364
-333.245	-40.296	0.367	0.191
-332.231	800.000	0.075	0.252
-331.216	-170.332	-0.133	0.005
-330.202	-200.000	0.044	-0.341
-329.187	-123.175	0.289	-0.046
-328.172	98.338	0.076	0.087
-327.158	-200.000	0.032	-0.141
-326.143	79.578	-0.250	-0.268
-325.129	800.000	0.019	-0.055
-324.114	-44.490	-0.185	-0.092
-323.099	410.938	0.041	0.086
-322.085	230.394	0.182	-0.296
-321.070	180.658	-0.121	-0.177
-320.056	-200.000	0.018	0.110
-319.041	-200.000	-0.017	-0.086
-318.026	-114.010	-0.164	-0.032
-317.012	428.328	-0.048	0.103
-315.997	-49.422	0.176	0.084
-314.983	-10.703	-0.230	0.152
-313.968	-3.667	0.202	-0.140
-312.953	-93.220	0.140	0.039
-311.939	188.178	0.052	0.077
-310.924	30.264	-0.126	-0.108
-309.910	-146.756	-0.272	0.023
-308.895	-12.743	-0.035	-0.023
-307.880	40.536	-0.152	0.136
-306.866	42.619	0.160	-0.146
-305.851	203.200	0.128	0.198
-304.837	-8.680	-0.205	0.137
-303.822	-167.833	-0.397	0.016
-302.807	197.943	0.058	0.088
-301.793	99.440	0.130	0.150
-300.778	-104.232	-0.064	0.015
-299.764	-49.397	0.172	-0.082
-298.749	-151.987	0.577	-0.042
-297.735	246.039	0.117	0.197
-296.720	-37.172	-0.449	0.240
-295.705	15.027	0.082	-0.064
-294.691	-196.104	-0.096	-0.001
-293.676	-200.000	0.034	0.221
-292.662	-200.000	0.009	0.202
-291.647	-99.261	0.486	0.122
-290.632	178.429	-0.150	0.219
-289.618	-173.648	0.125	0.004
-288.603	800.000	-0.044	-0.138
-287.589	-200.000	0.007	-0.082
-286.574	-47.181	0.195	0.095
-285.559	-200.000	-0.007	0.322
-284.545	171.767	0.151	-0.216
-283.530	12.816	-0.107	-0.083
-282.516	800.000	0.050	0.142
-281.501	-15.451	-0.266	0.170
-280.486	-29.954	0.144	0.082
-279.472	-200.000	-0.041	0.280
-278.457	800.000	0.085	0.256
-277.443	68.314	-0.067	0.069
-276.428	-117.693	0.119	0.021
-275.413	-200.000	0.024	0.129
-274.399	-134.049	-0.276	-0.034
-273.384	-137.037	0.424	-0.048
-272.370	280.438	-0.159	0.283
-271.355	-132.640	-0.397	0.051
-270.340	-46.245	0.194	0.095
-269.326	-69.192	0.232	-0.089
-268.311	24.760	-0.194	0.160
-267.297	-200.000	-0.012	0.202
-266.282	-25.543	0.080	-0.047
-265.267	297.892	-0.103	-0.189
-264.253	243.424	-0.117	0.195
-263.238	-49.379	0.105	-0.050
-262.224	-90.616	0.227	0.065
-261.209	-55.091	0.060	0.027
-260.195	2.508	-0.238	0.172
-259.180	124.446	0.100	-0.125
-258.165	-200.000	-0.025	-0.121
-257.151	-34.639	0.389	0.212
-256.136	800.000	-0.008	-0.033
-255.122	222.901	0.121	0.194
-254.107	-200.000	0.046	-0.262
-253.092	-130.430	0.373	-0.050
-252.078	800.000	-0.072	0.201
-251.063	5.943	0.033	0.024
-250.049	800.000	0.041	-0.128
-249.034	41.356	0.129	-0.116
-248.019	800.000	-0.183	0.513
-247.005	143.716	-0.076	-0.101
-245.990	-94.751	-0.193	-0.052
-244.976	707.250	-0.129	-0.339
-243.961	18.605	0.226	-0.180
-242.946	-86.706	0.246	0.075
-241.932	-76.570	0.322	-0.112
-240.917	-66.495	0.303	-0.120
-239.903	64.340	-0.182	-0.183
-238.888	-200.000	0.095	-0.444
-237.873	-131.483	0.162	0.021
-236.859	-153.451	-0.116	0.008
-235.844	-84.955	-0.196	-0.061
-234.830	6.221	-0.065	-0.048
-233.815	-2.465	-0.376	-0.262
-232.800	-72.443	-0.089	0.033
-231.786	-133.486	0.215	-0.027
-230.771	603.311	0.162	0.402
-229.757	17.773	-0.115	0.091
-228.742	-200.000	-0.072	0.395
-227.727	-200.000	0.062	-0.512
-226.713	-200.000	0.039	0.263
-225.698	-38.493	-0.246	0.130
-224.684	-130.074	0.217	0.030
-223.669	-200.000	0.029	0.130
-222.655	12.540	0.232	0.178
-221.640	-88.903	-0.170	0.050
-220.625	74.773	-0.127	-0.133
-219.611	-200.000	0.003	-0.021
-218.596	411.763	-0.121	0.255
-217.582	-38.696	0.284	-0.149
-216.567	-200.000	0.014	-0.110
-215.552	800.000	-0.104	-0.342
-214.538	10.954	0.075	0.057
-213.523	198.946	0.224	0.341
-212.509	-200.000	0.087	0.421
-211.494	-169.735	-0.233	-0.008
-210.479	171.153	-0.033	0.047
-209.465	277.750	0.077	0.136
-208.450	-200.000	-0.009	0.082
-207.436	-130.683	-0.119	0.016
-206.421	486.720	0.129	-0.293
-205.406	-65.340	-0.270	-0.108
-204.392	44.250	-0.287	0.262
-203.377	-90.973	0.115	-0.033
-202.363	217.795	0.046	-0.074
-201.348	396.399	0.070	-0.144
-200.333	-200.000	0.001	0.043
-199.319	16.145	-0.158	-0.124
-198.304	-122.747	-0.308	-0.049
-197.290	436.026	0.013	-0.028
-196.275	-200.000	-0.015	0.261
-195.260	39.617	0.049	0.044
-194.246	101.158	-0.240	-0.277
-193.231	269.250	0.078	0.136
-192.217	-200.000	-0.008	-0.054
-191.202	-200.000	-0.041	0.289
-190.187	800.000	0.061	-0.256
-189.173	33.274	-0.065	-0.056
-188.158	374.213	0.063	0.127
-187.144	1.065	-0.122	0.087
-186.129	800.000	-0.098	0.395
-185.114	360.337	-0.056	-0.112
-184.100	-38.061	-0.256	-0.135
-183.085	718.986	-0.056	0.147
-182.071	-200.000	-0.030	0.157
-181.056	-167.524	0.039	0.002
-180.042	-79.318	-0.044	-0.015
-179.027	249.166	0.111	-0.186
-178.012	217.580	-0.145	-0.229
-176.998	12.569	0.221	0.170
-175.983	800.000	0.078	0.221
-174.969	-73.616	-0.351	0.127
-173.954	-49.690	0.274	0.129
-172.939	-200.000	-0.035	0.304
-171.925	-200.000	0.020	-0.144
-170.910	3.188	0.081	0.058
-169.896	-99.972	0.353	-0.088
-168.881	-200.000	0.041	0.442
-167.866	-117.793	0.045	-0.008
-166.852	-58.174	0.223	0.097
-165.837	700.688	-0.064	-0.166
-164.823	-25.459	0.108	0.064
-163.808	-79.661	-0.160	0.053
-162.793	269.784	0.178	0.311
-161.779	-38.589	-0.116	-0.061
-160.764	-50.484	0.171	-0.080
-159.750	-200.000	-0.066	0.298
-158.735	307.641	-0.170	-0.314
-157.720	-90.942	-0.105	0.030
-156.706	-131.379	0.102	-0.013
-155.691	-200.000	-0.036	0.163
-154.677	-200.000	0.034	0.178
-153.662	7.824	0.267	-0.199
-152.647	-96.112	-0.319	0.084
-151.633	-200.000	0.028	0.150
-150.618	-200.000	0.020	0.235
-149.604	73.168	0.177	-0.184
-148.589	256.104	0.091	0.155
-147.574	61.922	0.135	-0.134
-146.560	-162.665	0.184	-0.009
-145.545	405.170	-0.078	-0.162
-144.531	800.000	0.045	-0.129
-143.516	53.695	0.064	-0.061
-142.502	800.000	-0.083	0.277
-141.487	185.158	0.080	-0.117
-140.472	15.435	0.249	0.194
-139.458	-173.410	-0.073	-0.002
-138.443	298.796	0.049	-0.090
-137.429	-110.023	0.284	0.059
-136.414	-55.286	-0.176	0.078
-135.399	-7.155	0.230	0.154
-134.385	-86.163	-0.344	0.105
-133.370	-116.855	0.125	-0.023
-132.356	-195.846	-0.094	0.001
-131.341	656.465	0.185	-0.472
-130.326	-200.000	-0.014	0.104
-129.312	-200.000	-0.006	-0.233
-128.297	182.879	0.298	0.435
-127.283	-102.729	0.084	-0.020
-126.268	-162.062	-0.138	0.007
-125.253	79.108	0.123	0.130
-124.239	800.000	0.074	-0.259
-123.224	186.216	0.085	-0.125
-122.210	800.000	-0.086	0.240
-121.195	-111.204	0.233	-0.047
