DTS Sentinel unit serial number:	SN413079Multiplexer serial number:	ORYXHardware model number:	OX4-SRSoftware version number:	ORYX F/W v4.00 Oryx Data Collector v3.7.2.0data status	okinstallation	princeton_trtdifferential loss correction	single-endedforward channel	channel 4reverse channel	N/Adate	2019/09/10time	18:27:11forward acquisition time	60.00reverse acquisition time	0.00gamma	496.2192k internal	0.2300k external	0.2300temperature offset calibration	0.9940default loss term (dB/km)	0.3790temperature slope calibration	1.0000multiplexer offset coefficient	1.0000multiplexer slope coefficient	1.0000fibre end	0.00T internal ref (°C)	36.00T ext. ref 1 (°C)	-0.41T ext. ref 2 (°C)	28.01length (m)	temperature (°C)	Stokes	anti-Stokes-747.200	361.106	0.155	-0.317
-746.185	111.311	0.102	0.125
-745.171	-21.842	-0.072	-0.045
-744.156	-130.175	0.048	-0.007
-743.142	800.000	-0.052	-0.184
-742.127	-110.389	0.129	0.027
-741.112	-15.324	-0.313	0.204
-740.098	92.599	0.077	-0.088
-739.083	-114.768	0.350	-0.068
-738.069	800.000	-0.070	0.263
-737.054	-200.000	-0.048	-0.350
-736.039	-22.093	-0.033	0.020
-735.025	-65.478	-0.109	0.045
-734.010	-112.877	-0.121	0.025
-732.996	-145.588	-0.326	0.030
-731.981	-43.307	-0.144	-0.074
-730.966	-44.977	-0.235	0.119
-729.952	-110.809	-0.397	0.083
-728.937	-200.000	-0.004	0.162
-727.923	-46.929	0.089	-0.044
-726.908	117.946	0.151	-0.189
-725.894	62.233	0.262	-0.267
-724.879	-83.975	0.169	0.055
-723.864	-193.198	-0.177	-0.002
-722.850	-63.073	-0.284	-0.119
-721.835	163.707	-0.213	0.305
-720.821	545.208	-0.040	-0.098
-719.806	-64.009	-0.207	0.086
-718.791	-68.053	-0.083	0.033
-717.777	-63.754	-0.248	0.103
-716.762	800.000	-0.060	-0.176
-715.748	245.135	0.119	-0.203
-714.733	-200.000	0.020	-0.177
-713.718	-172.089	0.256	-0.008
-712.704	-110.571	0.183	0.039
-711.689	800.000	0.086	0.345
-710.675	800.000	-0.040	0.171
-709.660	-37.844	0.181	-0.098
-708.645	27.177	-0.270	-0.231
-707.631	-137.112	-0.026	-0.003
-706.616	516.443	-0.015	0.035
-705.602	-106.608	-0.158	0.036
-704.587	489.686	-0.130	-0.302
-703.572	-82.582	0.177	-0.058
-702.558	-6.340	-0.210	-0.146
-701.543	270.425	-0.088	-0.158
-700.529	31.069	-0.208	0.181
-699.514	42.581	-0.274	-0.253
-698.499	-128.208	-0.260	0.038
-697.485	56.462	-0.226	-0.223
-696.470	-200.000	-0.013	0.063
-695.456	29.649	0.253	-0.219
-694.441	148.990	-0.158	0.217
-693.426	-28.642	0.266	0.156
-692.412	-67.601	-0.250	-0.100
-691.397	800.000	0.075	0.238
-690.383	-3.837	-0.211	-0.149
-689.368	516.224	-0.127	-0.302
-688.354	776.713	0.095	-0.264
-687.339	-51.428	-0.130	-0.062
-686.324	92.179	0.024	0.027
-685.310	-55.231	-0.386	-0.176
-684.295	-8.487	0.167	0.114
-683.281	658.271	-0.051	0.134
-682.266	-101.012	-0.193	0.048
-681.251	-141.642	0.137	-0.014
-680.237	-200.000	0.008	0.166
-679.222	127.124	0.150	0.193
-678.208	800.000	-0.076	0.268
-677.193	800.000	-0.056	0.245
-676.178	-166.663	-0.280	0.012
-675.164	739.978	-0.058	-0.159
-674.149	-200.000	0.003	0.204
-673.135	17.379	0.122	0.099
-672.120	-34.274	0.204	0.114
-671.105	-6.772	0.188	0.130
-670.091	17.178	-0.172	0.139
-669.076	78.412	-0.158	-0.171
-668.062	0.592	-0.153	-0.111
-667.047	548.310	-0.130	-0.316
-666.032	-54.922	-0.239	-0.110
-665.018	183.898	0.038	0.058
-664.003	-48.611	-0.126	0.062
-662.989	4.426	0.245	0.183
-661.974	-26.854	0.328	0.195
-660.959	112.927	-0.175	0.216
-659.945	13.679	-0.100	0.079
-658.930	93.979	-0.091	0.105
-657.916	73.724	-0.331	-0.353
-656.901	-169.327	0.013	0.000
-655.886	435.127	-0.124	-0.274
-654.872	-68.829	0.264	0.104
-653.857	800.000	-0.102	-0.390
-652.843	-200.000	-0.019	0.187
-651.828	167.012	-0.147	0.211
-650.814	100.677	-0.091	0.108
-649.799	46.624	0.171	-0.161
-648.784	-54.623	-0.158	-0.072
-647.770	-37.025	0.218	-0.119
-646.755	-183.912	-0.466	-0.008
-645.741	117.228	0.289	-0.360
-644.726	66.559	-0.245	-0.253
-643.711	47.044	0.103	-0.098
-642.697	19.824	-0.055	-0.045
-641.682	36.874	-0.305	0.274
-640.668	800.000	0.037	0.161
-639.653	110.342	-0.244	-0.298
-638.638	-56.791	-0.587	-0.264
-637.624	-200.000	-0.009	0.046
-636.609	-34.897	-0.078	-0.043
-635.595	-139.400	-0.157	0.017
-634.580	-200.000	0.012	0.137
-633.565	291.718	0.064	0.118
-632.551	-78.682	-0.279	-0.097
-631.536	-69.731	-0.164	-0.064
-630.522	800.000	-0.096	-0.291
-629.507	219.138	0.139	0.226
-628.492	32.732	-0.130	-0.114
-627.478	333.971	0.109	-0.215
-626.463	-34.396	0.405	-0.225
-625.449	-76.853	-0.181	-0.064
-624.434	-104.738	-0.109	0.025
-623.419	-169.684	-0.196	-0.007
-622.405	-200.000	0.026	0.458
-621.390	70.066	-0.148	0.155
-620.376	152.650	0.230	0.319
-619.361	-47.113	0.266	-0.132
-618.346	-200.000	-0.029	0.244
-617.332	-43.704	0.177	-0.090
-616.317	502.987	-0.085	-0.200
-615.303	697.530	-0.226	0.602
-614.288	183.802	0.101	0.151
-613.273	800.000	0.083	-0.290
-612.259	492.680	-0.008	-0.018
-611.244	-125.306	0.254	0.039
-610.230	437.246	-0.154	0.339
-609.215	166.973	-0.161	0.232
-608.201	24.810	-0.040	0.034
-607.186	-164.712	-0.219	0.010
-606.171	649.769	-0.136	0.354
-605.157	85.216	0.073	-0.081
-604.142	66.826	-0.199	-0.205
-603.128	-132.680	0.169	-0.022
-602.113	-62.844	-0.129	-0.054
-601.098	157.834	-0.159	-0.223
-600.084	800.000	-0.066	-0.200
-599.069	-200.000	-0.029	-0.137
-598.055	-133.434	-0.188	-0.024
-597.040	22.875	-0.109	0.090
-596.025	800.000	0.013	0.053
-595.011	187.744	0.197	-0.298
-593.996	-200.000	0.027	-0.271
-592.982	-23.697	-0.241	-0.147
-591.967	29.307	-0.164	0.142
-590.952	-28.332	0.262	-0.154
-589.938	-16.188	-0.219	-0.141
-588.923	800.000	0.083	-0.338
-587.909	-200.000	0.032	0.179
-586.894	-131.344	-0.251	-0.034
-585.879	-41.144	-0.123	-0.064
-584.865	-124.113	0.067	-0.011
-583.850	-21.223	0.307	0.190
-582.836	44.126	-0.142	-0.132
-581.821	140.416	0.152	-0.203
-580.806	-87.302	-0.271	-0.083
-579.792	-8.414	-0.238	0.162
-578.777	-52.528	0.176	0.082
-577.763	353.709	0.193	-0.388
-576.748	57.372	0.034	0.034
-575.733	-57.643	0.303	0.135
-574.719	-200.000	-0.009	-0.302
-573.704	269.815	-0.036	-0.063
-572.690	-93.834	-0.199	0.055
-571.675	800.000	-0.028	0.081
-570.661	432.816	-0.132	0.291
-569.646	60.808	-0.173	0.174
-568.631	-200.000	-0.004	-0.148
-567.617	-200.000	-0.023	0.248
-566.602	698.813	0.098	-0.262
-565.588	-55.396	-0.091	0.041
-564.573	501.687	0.057	-0.134
-563.558	800.000	0.103	0.337
-562.544	45.923	-0.197	0.184
-561.529	178.573	0.141	0.209
-560.515	25.112	0.042	0.036
-559.500	800.000	0.078	0.230
-558.485	-73.168	-0.464	-0.172
-557.471	-71.905	-0.181	0.068
-556.456	-169.861	0.178	-0.006
-555.442	236.780	-0.108	0.181
-554.427	-181.498	0.124	0.002
-553.412	-56.703	-0.105	-0.047
-552.398	-200.000	0.005	0.173
-551.383	70.101	-0.179	0.187
-550.369	142.275	-0.159	-0.213
-549.354	436.824	-0.068	-0.151
-548.339	107.243	-0.108	-0.130
-547.325	800.000	0.024	-0.091
-546.310	46.648	0.102	0.096
-545.296	-97.435	0.262	0.069
-544.281	-153.485	-0.052	-0.004
-543.266	118.804	0.124	0.155
-542.252	27.713	-0.106	-0.090
-541.237	79.726	-0.092	-0.100
-540.223	800.000	-0.085	-0.291
-539.208	800.000	0.058	-0.216
-538.193	206.272	0.028	0.044
-537.179	79.967	-0.215	-0.234
-536.164	-57.934	-0.148	0.066
-535.150	-62.427	-0.173	-0.073
-534.135	-200.000	-0.066	-0.368
-533.121	152.456	-0.152	0.210
-532.106	31.141	-0.124	-0.108
-531.091	-200.000	0.000	0.082
-530.077	-147.898	0.244	0.021
-529.062	800.000	-0.082	-0.234
-528.048	-200.000	0.057	-0.407
-527.033	-95.939	-0.220	0.059
-526.018	768.402	0.031	-0.086
-525.004	-72.188	0.180	-0.067
-523.989	41.743	0.162	0.149
-522.975	-122.349	0.122	-0.020
-521.960	-200.000	0.068	0.304
-520.945	98.001	-0.179	0.208
-519.931	157.815	-0.171	-0.240
-518.916	92.067	-0.208	-0.236
-517.902	304.089	0.060	-0.112
-516.887	272.407	-0.199	-0.354
-515.872	-160.882	0.160	0.009
-514.858	49.957	0.190	0.181
-513.843	-128.704	-0.100	0.014
-512.829	290.390	0.162	0.298
-511.814	-43.221	0.179	0.092
-510.799	-0.529	-0.190	0.136
-509.785	104.887	-0.068	0.081
-508.770	206.827	-0.046	-0.072
-507.756	93.598	0.127	-0.146
-506.741	-83.378	-0.212	-0.069
-505.726	32.790	0.024	0.021
-504.712	77.650	-0.071	-0.077
-503.697	-200.000	-0.033	0.253
-502.683	-200.000	0.018	-0.084
-501.668	737.387	0.084	-0.227
-500.653	248.276	-0.195	0.334
-499.639	-16.102	0.158	0.102
-498.624	-92.944	0.304	0.086
-497.610	267.663	-0.208	0.368
-496.595	-133.636	-0.369	0.047
-495.581	-126.712	-0.290	0.043
-494.566	-18.444	-0.294	0.185
-493.551	21.518	-0.098	-0.080
-492.537	243.398	0.146	0.247
-491.522	-178.761	-0.042	-0.001
-490.508	-110.195	0.098	-0.021
-489.493	800.000	0.054	0.170
-488.478	-145.303	0.416	-0.038
-487.464	-200.000	0.005	0.066
-486.449	-200.000	0.014	-0.082
-485.435	-200.000	0.014	0.063
-484.420	-158.228	0.268	0.016
-483.405	229.906	-0.091	-0.151
-482.391	13.166	-0.182	-0.142
-481.376	521.040	-0.077	0.183
-480.362	-200.000	-0.019	-0.151
-479.347	267.457	-0.141	0.249
-478.332	111.210	0.199	0.242
-477.318	52.905	-0.126	-0.122
-476.303	20.865	0.334	0.273
-475.289	-21.516	-0.172	-0.106
-474.274	34.645	0.358	-0.316
-473.259	-17.548	0.133	-0.084
-472.245	-200.000	0.043	0.234
-471.230	-30.076	0.197	-0.113
-470.216	27.115	-0.140	-0.119
-469.201	342.003	0.035	-0.069
-468.186	95.757	0.242	-0.278
-467.172	122.912	-0.165	-0.208
-466.157	15.142	0.153	0.121
-465.143	10.747	-0.171	0.131
-464.128	100.535	-0.099	-0.116
-463.113	573.157	-0.098	-0.241
-462.099	371.728	0.107	-0.219
-461.084	-188.907	-0.503	0.006
-460.070	-54.886	0.429	0.195
-459.055	-128.449	-0.278	-0.040
-458.040	-135.689	0.099	-0.012
-457.026	-68.641	0.156	0.061
-456.011	620.795	0.032	-0.080
-454.997	800.000	0.157	0.443
-453.982	371.202	-0.075	0.153
-452.968	-200.000	0.051	-0.302
-451.953	544.101	-0.104	0.251
-450.938	-69.084	0.358	0.139
-449.924	-72.095	-0.083	-0.031
-448.909	-124.806	0.404	0.063
-447.895	-200.000	-0.038	-0.199
-446.880	-87.873	0.123	-0.037
-445.865	580.860	0.136	0.336
-444.851	800.000	-0.038	-0.132
-443.836	145.610	-0.124	-0.167
-442.822	-200.000	0.065	-0.299
-441.807	800.000	0.065	-0.277
-440.792	-102.362	-0.414	0.100
-439.778	-200.000	-0.053	0.247
-438.763	418.251	0.057	-0.122
-437.749	-200.000	-0.015	-0.401
-436.734	-106.972	0.394	-0.088
-435.719	-173.669	-0.401	0.012
-434.705	-200.000	-0.053	0.337
-433.690	-114.202	0.110	-0.021
-432.676	800.000	-0.145	0.512
-431.661	195.390	0.073	0.112
-430.646	-200.000	0.072	-0.432
-429.632	137.112	0.057	-0.075
-428.617	34.845	-0.327	0.288
-427.603	-43.549	0.130	-0.066
-426.588	-200.000	0.040	-0.388
-425.573	-31.752	-0.196	-0.111
-424.559	509.972	0.182	0.426
-423.544	403.654	-0.104	0.220
-422.530	526.310	-0.116	-0.276
-421.515	800.000	-0.125	0.397
-420.500	6.622	0.309	0.232
-419.486	-200.000	-0.072	0.336
-418.471	800.000	0.026	0.112
-417.457	-37.541	-0.111	0.060
-416.442	-113.422	-0.211	-0.042
-415.428	81.164	0.267	-0.290
-414.413	800.000	-0.120	-0.341
-413.398	-100.481	-0.058	-0.015
-412.384	113.368	0.288	0.352
-411.369	33.646	0.268	0.235
-410.355	-57.863	0.167	-0.073
-409.340	-113.720	-0.234	0.046
-408.325	47.577	-0.081	-0.076
-407.311	83.483	-0.049	0.054
-406.296	-22.575	0.081	0.049
-405.282	74.206	0.161	0.170
-404.267	-176.828	-0.125	-0.003
-403.252	70.657	0.229	0.238
-402.238	-57.156	0.289	0.128
-401.223	-25.537	-0.251	0.149
-400.209	-40.763	-0.200	-0.104
-399.194	-200.000	-0.033	0.231
-398.179	12.988	0.190	0.148
-397.165	-48.507	-0.209	-0.101
-396.150	-78.339	-0.173	0.060
-395.136	-29.568	-0.166	0.095
-394.121	774.178	-0.041	0.111
-393.106	-8.050	0.254	-0.172
-392.092	135.252	-0.165	-0.216
-391.077	-98.759	-0.408	0.104
-390.063	-107.450	-0.182	0.040
-389.048	156.229	0.157	0.218
-388.033	-84.440	0.418	0.133
-387.019	130.538	0.012	0.015
-386.004	800.000	0.007	-0.022
-384.990	-200.000	-0.022	0.247
-383.975	-97.360	0.229	-0.060
-382.960	123.239	-0.093	-0.117
-381.946	-82.182	0.347	-0.114
-380.931	340.527	0.206	-0.403
-379.917	800.000	0.063	0.243
-378.902	123.366	-0.127	0.160
-377.888	696.322	-0.026	-0.069
-376.873	-200.000	0.033	0.263
-375.858	-16.126	-0.272	0.174
-374.844	480.746	-0.033	0.076
-373.829	-12.519	0.128	-0.084
-372.815	-103.723	-0.301	0.071
-371.800	800.000	-0.112	0.448
-370.785	800.000	-0.056	0.193
-369.771	-200.000	-0.006	-0.050
-368.756	187.963	0.141	0.212
-367.742	55.953	0.357	0.348
-366.727	-92.099	0.177	0.050
-365.712	-31.222	0.409	0.232
-364.698	113.839	0.023	0.028
-363.683	-196.343	0.206	-0.001
-362.669	-163.219	0.222	0.011
-361.654	136.420	-0.133	0.174
-360.639	362.329	0.075	-0.150
-359.625	800.000	0.099	-0.321
-358.610	-96.438	-0.420	-0.112
-357.596	188.324	0.092	0.138
-356.581	-90.387	-0.243	-0.071
-355.566	602.345	0.088	0.220
-354.552	366.498	0.046	-0.094
-353.537	154.058	-0.141	-0.194
-352.523	110.469	0.272	-0.328
-351.508	-200.000	0.043	-0.205
-350.493	598.445	0.064	-0.160
-349.479	-72.649	-0.246	0.091
-348.464	-200.000	-0.075	-0.362
-347.450	-101.574	-0.141	-0.035
-346.435	-6.435	0.262	-0.179
-345.420	-114.953	0.098	0.019
-344.406	-11.424	-0.158	-0.104
-343.391	267.158	0.262	0.459
-342.377	-154.336	-0.115	0.008
-341.362	-131.512	0.407	-0.054
-340.348	-129.301	0.487	-0.068
-339.333	205.647	-0.226	0.353
-338.318	255.794	0.041	-0.070
-337.304	43.595	-0.155	0.142
-336.289	-200.000	-0.023	0.235
-335.275	-108.922	0.108	-0.023
-334.260	305.799	0.079	-0.147
-333.245	20.554	0.101	-0.082
-332.231	-55.316	0.375	0.169
-331.216	-178.757	-0.178	0.004
-330.202	-183.193	0.459	-0.008
-329.187	-11.113	0.105	0.070
-328.172	-42.072	0.274	-0.141
-327.158	102.777	0.078	0.092
-326.143	15.231	-0.280	-0.220
-325.129	308.915	0.154	-0.288
-324.114	-68.638	-0.153	0.060
-323.099	-144.652	-0.149	-0.014
-322.085	-71.496	0.267	-0.100
-321.070	-200.000	0.027	-0.251
-320.056	-65.689	0.212	-0.085
-319.041	-178.130	-0.147	0.003
-318.026	-200.000	-0.001	-0.520
-317.012	-100.261	-0.391	0.097
-315.997	-129.847	0.194	-0.027
-314.983	-103.907	0.496	-0.116
-313.968	-78.901	-0.151	-0.051
-312.953	800.000	-0.028	0.100
-311.939	582.205	0.097	-0.238
-310.924	-38.156	0.115	-0.061
-309.910	264.314	-0.027	-0.046
-308.895	211.857	-0.172	-0.272
-307.880	1.826	-0.050	0.036
-306.866	-73.767	-0.398	-0.145
-305.851	179.187	-0.105	-0.153
-304.837	172.136	-0.234	0.337
-303.822	-33.405	0.226	-0.125
-302.807	-108.402	-0.086	-0.019
-301.793	-139.415	0.199	0.021
-300.778	15.889	0.144	-0.114
-299.764	511.964	0.035	-0.082
-298.749	-200.000	-0.001	-0.102
-297.735	-22.394	-0.201	-0.122
-296.720	-121.507	-0.057	0.010
-295.705	-200.000	-0.088	-0.509
-294.691	-37.693	0.122	-0.065
-293.676	461.255	0.051	-0.115
-292.662	-86.567	-0.132	-0.040
-291.647	-82.613	-0.242	0.078
-290.632	-51.499	-0.162	-0.076
-289.618	-52.120	-0.118	0.055
-288.603	441.528	0.151	0.331
-287.589	800.000	0.058	0.197
-286.574	20.031	-0.134	-0.108
-285.559	-200.000	0.059	0.295
-284.545	104.251	0.405	0.477
-283.530	-200.000	0.004	0.116
-282.516	12.640	-0.080	-0.062
-281.501	278.743	-0.092	-0.164
-280.486	-72.026	0.095	-0.035
-279.472	-167.666	-0.117	0.005
-278.457	-140.979	-0.327	-0.034
-277.443	800.000	0.082	-0.261
-276.428	-34.398	-0.105	-0.057
-275.413	-200.000	-0.071	-0.431
-274.399	122.283	0.194	0.242
-273.384	55.825	-0.078	-0.076
-272.370	-115.895	0.285	-0.053
-271.355	800.000	0.056	-0.179
-270.340	145.441	-0.085	-0.114
-269.326	133.468	-0.204	0.264
-268.311	70.309	-0.115	-0.119
-267.297	-59.058	0.272	0.117
-266.282	-200.000	0.026	0.312
-265.267	-79.765	0.261	-0.088
-264.253	21.654	0.144	-0.117
-263.238	652.484	-0.020	0.051
-262.224	624.701	-0.110	0.279
-261.209	77.575	0.038	-0.041
-260.195	-200.000	0.082	-0.384
-259.180	-82.466	0.209	-0.068
-258.165	106.758	0.279	0.331
-257.151	-66.324	-0.226	0.090
-256.136	800.000	-0.123	-0.478
-255.122	-200.000	-0.007	-0.032
-254.107	2.834	0.170	0.124
-253.092	120.458	0.178	0.221
-252.078	-175.351	-0.046	0.001
-251.063	621.068	-0.097	-0.244
-250.049	-200.000	0.047	-0.338
-249.034	-22.471	0.181	0.109
-248.019	40.396	0.309	-0.278
-247.005	-79.874	0.287	0.096
-245.990	-78.114	-0.171	0.059
-244.976	176.706	-0.243	-0.354
-243.961	631.116	0.086	0.218
-242.946	433.894	0.122	-0.265
-241.932	-116.597	0.332	0.061
-240.917	-200.000	0.028	-0.251
-239.903	-131.655	0.231	-0.030
-238.888	800.000	0.106	-0.337
-237.873	65.019	-0.276	-0.279
-236.859	43.361	-0.059	-0.054
-235.844	-190.544	0.118	-0.001
-234.830	-16.724	0.326	0.206
-233.815	-200.000	0.043	0.281
-232.800	-38.557	-0.079	-0.042
-231.786	-29.589	0.193	-0.110
-230.771	-140.772	0.270	-0.028
-229.757	800.000	0.007	0.028
-228.742	-112.497	0.317	-0.063
-227.727	-81.026	-0.232	-0.077
-226.713	-117.445	-0.035	-0.006
-225.698	800.000	0.058	-0.193
-224.684	-30.687	0.135	0.077
-223.669	-200.000	-0.006	0.101
-222.655	-69.408	0.232	0.089
-221.640	56.036	0.139	-0.135
-220.625	-157.745	-0.320	0.019
-219.611	693.092	0.056	-0.147
-218.596	183.671	-0.266	-0.393
-217.582	800.000	-0.026	0.094
-216.567	37.589	-0.288	0.255
-215.552	-18.645	0.054	-0.034
-214.538	800.000	-0.051	-0.191
-213.523	800.000	-0.112	0.322
-212.509	-12.025	0.203	-0.133
-211.494	-189.359	0.058	-0.001
-210.479	57.744	-0.189	-0.184
-209.465	78.647	0.010	0.011
-208.450	-138.820	0.140	-0.015
-207.436	800.000	0.049	-0.209
-206.421	260.903	0.049	0.085
-205.406	81.876	0.118	-0.127
-204.392	-118.056	-0.150	-0.027
-203.377	-200.000	0.045	0.282
-202.363	-85.822	-0.017	-0.005
-201.348	-80.098	-0.304	0.102
-200.333	-70.494	0.288	0.109
-199.319	59.770	-0.057	0.056
-198.304	800.000	0.086	-0.362
-197.290	-138.530	-0.171	-0.019
-196.275	-200.000	-0.009	0.175
-195.260	-68.674	-0.168	0.065
-194.246	70.890	-0.203	0.209
-193.231	32.235	-0.163	-0.141
-192.217	69.696	-0.235	0.242
-191.202	-12.750	0.080	0.052
-190.187	162.147	0.144	0.201
-189.173	-142.922	-0.268	-0.026
-188.158	320.019	0.098	-0.186
-187.144	130.523	-0.328	0.420
-186.129	800.000	-0.043	-0.185
-185.114	-28.803	-0.237	-0.136
-184.100	245.023	-0.053	0.088
-183.085	-200.000	-0.028	0.242
-182.071	-40.635	-0.199	0.103
-181.056	-200.000	-0.033	-0.154
-180.042	170.034	0.239	0.340
-179.027	-200.000	-0.024	0.294
-178.012	-76.405	-0.304	-0.107
-176.998	800.000	-0.125	-0.441
-175.983	-41.015	0.201	-0.103
-174.969	-36.338	0.351	0.189
-173.954	-200.000	0.029	0.371
-172.939	47.347	-0.334	0.310
-171.925	235.347	0.127	0.209
-170.910	800.000	-0.118	0.395
-169.896	-200.000	0.005	0.042
-168.881	-169.675	-0.113	0.004
-167.866	-110.717	-0.198	0.041
-166.852	133.272	0.155	-0.199
-165.837	-200.000	-0.013	0.060
-164.823	242.659	0.170	0.284
-163.808	-200.000	-0.024	0.104
-162.793	-28.926	0.110	-0.063
-161.779	800.000	0.026	0.083
-160.764	-200.000	-0.028	-0.317
-159.750	216.655	0.142	0.225
-158.735	-200.000	-0.020	0.107
-157.720	-42.637	0.148	-0.075
-156.706	-163.640	0.441	-0.021
-155.691	-53.656	-0.169	-0.077
-154.677	800.000	-0.054	0.229
-153.662	46.836	-0.150	0.139
-152.647	-50.998	-0.155	0.072
-151.633	-99.655	0.385	-0.096
-150.618	-149.919	0.260	-0.020
-149.604	-200.000	0.021	-0.146
-148.589	-135.276	-0.107	0.013
-147.574	-165.143	0.354	0.016
-146.560	-193.066	-0.276	-0.002
-145.545	800.000	-0.027	0.109
-144.531	-125.378	0.140	-0.021
-143.516	800.000	-0.043	-0.144
-142.502	162.605	-0.084	-0.118
-141.487	331.896	-0.056	-0.108
-140.472	168.392	-0.076	-0.107
-139.458	80.251	0.036	0.039
-138.443	-60.696	-0.282	0.119
-137.429	390.867	0.170	0.352
-136.414	56.556	-0.017	-0.016
-135.399	-151.368	-0.174	-0.013
-134.385	60.447	-0.246	-0.243
-133.370	-36.320	0.445	-0.239
-132.356	-64.162	-0.376	-0.153
-131.341	109.682	-0.108	-0.129
-130.326	220.636	0.098	0.157
-129.312	6.582	-0.303	0.224
-128.297	-115.775	-0.169	0.032
-127.283	108.690	-0.221	0.263
-126.268	81.983	0.215	0.231
-125.253	-132.284	-0.459	0.059
-124.239	-200.000	-0.017	-0.417
-123.224	-21.075	0.216	-0.132
-122.210	800.000	0.092	0.315
