DTS Sentinel unit serial number:	SN413079Multiplexer serial number:	ORYXHardware model number:	OX4-SRSoftware version number:	ORYX F/W v4.00 Oryx Data Collector v3.7.2.0data status	okinstallation	princeton_trtdifferential loss correction	single-endedforward channel	channel 4reverse channel	N/Adate	2019/09/19time	04:09:35forward acquisition time	60.00reverse acquisition time	0.00gamma	496.2192k internal	0.2340k external	0.2340temperature offset calibration	1.0028default loss term (dB/km)	0.3790temperature slope calibration	1.0000multiplexer offset coefficient	1.0000multiplexer slope coefficient	1.0000fibre end	0.00T internal ref (°C)	20.37T ext. ref 1 (°C)	0.63T ext. ref 2 (°C)	13.86length (m)	temperature (°C)	Stokes	anti-Stokes-747.200	-200.000	0.077	-0.349
-746.185	77.091	-0.299	0.319
-745.171	-112.567	-0.192	-0.038
-744.156	26.751	-0.326	0.274
-743.142	-107.449	0.357	0.078
-742.127	-200.000	0.001	0.057
-741.112	800.000	0.027	0.092
-740.098	-86.545	-0.238	0.073
-739.083	680.060	-0.069	0.181
-738.069	-200.000	0.003	-0.109
-737.054	-77.910	-0.224	0.078
-736.039	21.439	-0.100	-0.082
-735.025	-152.195	0.513	-0.037
-734.010	-200.000	-0.033	-0.408
-732.996	57.407	-0.230	-0.225
-731.981	-101.242	-0.126	0.031
-730.966	243.868	0.094	0.158
-729.952	-80.051	-0.219	0.074
-728.937	-84.870	-0.253	0.080
-727.923	-115.366	-0.546	0.103
-726.908	-159.603	0.123	-0.007
-725.894	336.513	0.049	-0.094
-724.879	-200.000	-0.026	0.201
-723.864	242.034	-0.217	0.363
-722.850	-36.634	-0.210	-0.113
-721.835	50.934	0.224	-0.213
-720.821	800.000	0.122	-0.345
-719.806	-200.000	0.024	0.214
-718.791	290.926	0.241	-0.439
-717.777	495.768	-0.117	-0.270
-716.762	406.792	-0.070	-0.149
-715.748	-197.177	-0.225	-0.001
-714.733	42.951	-0.242	-0.221
-713.718	10.494	-0.181	-0.138
-712.704	-19.924	-0.323	-0.200
-711.689	-158.312	0.169	0.010
-710.675	-89.424	-0.067	0.020
-709.660	286.626	0.202	-0.366
-708.645	-43.800	0.129	0.065
-707.631	382.702	-0.135	0.277
-706.616	355.914	-0.034	0.067
-705.602	204.481	-0.128	-0.198
-704.587	168.360	0.264	-0.376
-703.572	29.447	-0.199	-0.169
-702.558	-200.000	0.105	-0.505
-701.543	800.000	-0.056	-0.219
-700.529	-200.000	0.077	-0.356
-699.514	770.975	-0.070	-0.190
-698.499	7.678	0.256	-0.192
-697.485	63.136	-0.061	-0.062
-696.470	470.137	0.015	-0.033
-695.456	-108.652	-0.183	0.039
-694.441	-3.409	0.221	-0.154
-693.426	203.250	-0.013	-0.021
-692.412	-64.951	0.238	-0.096
-691.397	135.075	0.110	-0.143
-690.383	787.997	-0.034	-0.094
-689.368	128.359	-0.155	0.197
-688.354	764.704	0.059	-0.160
-687.339	105.722	-0.197	-0.233
-686.324	-67.074	0.289	-0.114
-685.310	333.507	-0.108	0.209
-684.295	-30.693	0.200	0.113
-683.281	-48.857	-0.106	-0.051
-682.266	-156.031	0.257	0.016
-681.251	-56.635	-0.165	-0.073
-680.237	-38.402	-0.062	0.033
-679.222	-118.453	0.103	-0.018
-678.208	800.000	0.026	0.096
-677.193	152.859	-0.288	-0.394
-676.178	-73.597	0.147	-0.054
-675.164	492.008	0.052	0.120
-674.149	122.866	0.086	0.107
-673.135	-66.343	-0.271	-0.108
-672.120	198.716	0.080	-0.123
-671.105	-78.353	-0.182	0.062
-670.091	-200.000	0.009	0.291
-669.076	800.000	0.086	0.311
-668.062	800.000	0.061	0.247
-667.047	-10.020	-0.069	-0.046
-666.032	-200.000	-0.017	-0.161
-665.018	-29.143	0.061	0.035
-664.003	-51.197	0.097	-0.045
-662.989	-12.855	0.114	-0.074
-661.974	800.000	-0.066	0.254
-660.959	45.330	-0.202	0.186
-659.945	113.446	-0.028	0.034
-658.930	-88.287	0.336	-0.101
-657.916	800.000	-0.023	-0.071
-656.901	503.404	0.062	-0.142
-655.886	334.603	-0.078	-0.152
-654.872	-200.000	0.024	-0.150
-653.857	225.181	0.186	-0.301
-652.843	-200.000	0.009	-0.126
-651.828	260.543	0.180	0.311
-650.814	-166.446	0.026	0.001
-649.799	49.214	-0.304	-0.285
-648.784	-200.000	0.069	-0.318
-647.770	-200.000	0.007	-0.236
-646.755	7.374	-0.408	0.304
-645.741	-200.000	0.035	-0.280
-644.726	800.000	0.060	-0.206
-643.711	-23.000	-0.186	0.112
-642.697	36.208	0.055	-0.048
-641.682	164.716	-0.095	0.134
-640.668	-27.557	0.185	-0.107
-639.653	42.514	-0.133	0.121
-638.638	800.000	-0.047	-0.187
-637.624	734.018	0.027	-0.072
-636.609	186.162	0.072	-0.107
-635.595	800.000	-0.044	0.180
-634.580	-200.000	0.064	-0.321
-633.565	-72.309	-0.085	0.031
-632.551	629.938	-0.118	0.298
-631.536	-142.450	0.113	-0.011
-630.522	-68.530	0.150	0.058
-629.507	620.624	-0.163	-0.409
-628.492	8.644	-0.247	-0.186
-627.478	118.573	-0.246	0.303
-626.463	-192.608	0.333	-0.003
-625.449	-103.109	-0.253	-0.060
-624.434	113.287	-0.138	0.167
-623.419	-69.273	-0.143	-0.055
-622.405	212.183	0.270	0.425
-621.390	238.904	-0.078	0.129
-620.376	505.159	0.025	0.058
-619.361	40.222	-0.097	0.087
-618.346	-200.000	0.026	0.123
-617.332	-30.873	0.078	-0.044
-616.317	-92.215	0.094	0.026
-615.303	-193.055	-0.182	0.002
-614.288	-50.636	0.283	0.133
-613.273	13.808	0.061	0.047
-612.259	155.196	-0.076	0.104
-611.244	-75.526	0.125	-0.045
-610.230	-92.861	0.068	0.019
-609.215	-200.000	-0.038	0.292
-608.201	-162.700	0.169	-0.008
-607.186	15.056	0.043	-0.034
-606.171	-200.000	-0.005	-0.073
-605.157	-83.599	-0.198	0.063
-604.142	166.478	-0.098	-0.138
-603.128	713.460	0.139	-0.367
-602.113	-200.000	-0.018	-0.304
-601.098	-68.472	0.105	0.040
-600.084	4.586	-0.329	-0.241
-599.069	-96.384	0.383	-0.101
-598.055	1.120	0.187	-0.134
-597.040	800.000	-0.033	-0.127
-596.025	2.382	-0.023	-0.017
-595.011	-200.000	-0.021	-0.305
-593.996	-200.000	-0.009	-0.299
-592.982	-135.825	-0.267	0.031
-591.967	173.332	0.044	0.063
-590.952	-30.755	-0.301	0.170
-589.938	-157.994	0.400	0.023
-588.923	21.812	-0.284	-0.231
-587.909	183.073	-0.126	-0.185
-586.894	-5.439	0.293	-0.200
-585.879	800.000	-0.156	-0.572
-584.865	32.398	0.271	0.233
-583.850	-46.587	0.165	0.081
-582.836	-34.598	0.045	-0.024
-581.821	-144.073	-0.170	0.016
-580.806	46.042	0.121	-0.112
-579.792	-33.510	0.207	0.114
-578.777	-136.251	0.065	0.008
-577.763	-200.000	-0.020	-0.177
-576.748	-185.445	-0.244	-0.004
-575.733	72.246	-0.314	-0.326
-574.719	-200.000	-0.032	-0.153
-573.704	-200.000	-0.001	-0.249
-572.690	-63.941	0.479	-0.195
-571.675	756.609	-0.096	0.259
-570.661	455.749	-0.137	0.302
-569.646	-65.306	-0.275	-0.110
-568.631	-70.677	-0.172	-0.065
-567.617	7.553	0.133	0.099
-566.602	-200.000	-0.017	0.317
-565.588	-95.344	-0.064	0.017
-564.573	-133.503	-0.385	-0.048
-563.558	-30.957	-0.113	0.064
-562.544	-16.150	-0.147	0.093
-561.529	26.045	0.022	-0.018
-560.515	-200.000	0.087	0.000
-559.500	110.151	-0.080	0.095
-558.485	-200.000	0.030	-0.237
-557.471	800.000	0.039	-0.168
-556.456	693.189	-0.122	0.318
-555.442	-156.991	-0.264	0.016
-554.427	-200.000	0.019	-0.106
-553.412	388.861	-0.130	0.268
-552.398	-180.000	0.176	-0.004
-551.383	131.283	0.245	0.313
-550.369	-79.509	-0.228	-0.077
-549.354	-35.461	0.250	0.135
-548.339	277.313	-0.167	0.296
-547.325	127.865	-0.156	0.197
-546.310	800.000	0.061	-0.206
-545.296	-130.660	-0.292	0.039
-544.281	405.763	-0.124	-0.261
-543.266	19.746	0.110	0.088
-542.252	-92.432	-0.128	-0.036
-541.237	-200.000	-0.008	0.105
-540.223	-200.000	0.026	-0.316
-539.208	-200.000	-0.026	-0.235
-538.193	-52.206	-0.253	0.117
-537.179	-200.000	-0.063	-0.313
-536.164	6.399	-0.280	-0.206
-535.150	-200.000	0.024	-0.170
-534.135	-200.000	-0.045	0.239
-533.121	141.009	-0.120	-0.158
-532.106	17.412	0.134	-0.106
-531.091	-124.206	0.076	0.012
-530.077	-80.958	0.109	-0.036
-529.062	-127.809	0.305	0.044
-528.048	-200.000	-0.041	0.193
-527.033	119.893	-0.152	0.187
-526.018	-64.455	0.223	0.090
-525.004	-83.199	-0.163	-0.052
-523.989	-43.388	0.221	0.111
-522.975	800.000	0.074	-0.206
-521.960	-130.762	0.353	-0.047
-520.945	-122.543	-0.118	0.019
-519.931	-158.222	0.248	0.014
-518.916	357.779	-0.132	0.261
-517.902	46.142	-0.092	-0.084
-516.887	-66.100	0.154	0.061
-515.872	364.203	0.165	0.330
-514.858	800.000	-0.079	0.324
-513.843	-135.630	0.077	-0.009
-512.829	315.018	0.174	-0.326
-511.814	594.078	-0.175	-0.430
-510.799	-123.336	0.118	0.019
-509.785	139.616	0.038	0.049
-508.770	-79.631	-0.207	0.069
-507.756	134.993	-0.065	-0.084
-506.741	5.477	0.208	-0.153
-505.726	-112.274	0.113	-0.023
-504.712	-109.494	0.647	0.136
-503.697	-24.166	-0.045	-0.026
-502.683	800.000	0.153	0.488
-501.668	-93.292	-0.294	0.081
-500.653	-129.080	0.421	0.058
-499.639	-87.663	0.110	0.033
-498.624	-136.831	-0.117	0.013
-497.610	800.000	0.050	0.182
-496.595	-200.000	-0.029	-0.155
-495.581	703.042	-0.093	-0.243
-494.566	34.418	0.229	-0.198
-493.551	21.586	0.033	0.027
-492.537	568.610	0.169	0.408
-491.522	-143.225	-0.138	-0.013
-490.508	7.264	-0.221	0.164
-489.493	-200.000	-0.034	0.290
-488.478	-200.000	-0.028	-0.356
-487.464	-200.000	0.004	0.093
-486.449	-66.607	-0.548	0.216
-485.435	238.639	0.034	0.055
-484.420	-101.132	-0.404	-0.098
-483.405	27.506	-0.095	-0.080
-482.391	133.908	-0.176	-0.226
-481.376	192.355	-0.053	0.079
-480.362	-200.000	0.011	0.341
-479.347	35.269	-0.210	0.183
-478.332	-99.860	-0.055	-0.014
-477.318	-8.855	0.299	-0.199
-476.303	-200.000	0.004	-0.252
-475.289	659.373	-0.129	0.330
-474.274	-200.000	-0.032	-0.317
-473.259	19.436	0.418	0.333
-472.245	-200.000	0.027	-0.210
-471.230	800.000	-0.085	-0.239
-470.216	-79.250	0.060	0.020
-469.201	125.118	-0.312	-0.390
-468.186	244.404	0.118	0.196
-467.172	286.167	-0.064	0.114
-466.157	-200.000	-0.054	-0.280
-465.143	359.710	-0.114	0.226
-464.128	205.365	-0.130	-0.200
-463.113	-74.100	0.201	0.072
-462.099	-29.997	0.092	0.052
-461.084	-85.421	0.079	0.024
-460.070	187.536	-0.265	0.393
-459.055	523.497	-0.061	0.142
-458.040	-88.001	0.229	0.068
-457.026	281.494	0.123	0.219
-456.011	126.946	-0.061	0.077
-454.997	-94.786	0.053	0.014
-453.982	-200.000	-0.063	-0.285
-452.968	-137.850	-0.050	-0.005
-451.953	478.899	-0.126	-0.282
-450.938	413.816	0.054	-0.114
-449.924	105.233	0.121	0.142
-448.909	-200.000	0.012	-0.208
-447.895	-200.000	-0.001	-0.254
-446.880	129.553	0.032	0.040
-445.865	-94.953	-0.248	-0.067
-444.851	-124.101	0.209	0.032
-443.836	201.372	-0.085	0.130
-442.822	272.941	0.137	-0.240
-441.807	-28.612	-0.189	0.108
-440.792	-8.187	-0.224	0.149
-439.778	-131.575	-0.146	0.019
-438.763	-69.305	0.187	-0.071
-437.749	101.183	0.168	-0.194
-436.734	-94.553	0.394	0.106
-435.719	-18.937	-0.052	-0.032
-434.705	-200.000	0.072	-0.332
-433.690	118.559	-0.188	0.230
-432.676	-200.000	-0.011	0.268
-431.661	-125.447	0.242	0.037
-430.646	570.617	0.086	0.208
-429.632	800.000	-0.106	0.291
-428.617	-72.441	-0.292	0.107
-427.603	-114.193	-0.296	0.057
-426.588	-115.674	-0.216	-0.040
-425.573	-138.675	0.117	0.013
-424.559	77.498	0.258	-0.272
-423.544	-200.000	0.016	-0.138
-422.530	-200.000	0.060	0.324
-421.515	71.542	-0.040	0.041
-420.500	139.573	-0.144	0.188
-419.486	89.222	-0.478	-0.527
-418.471	106.599	-0.102	-0.120
-417.457	-7.378	0.163	0.109
-416.442	8.526	0.264	0.197
-415.428	-47.213	-0.273	-0.132
-414.413	350.737	-0.106	-0.208
-413.398	800.000	-0.047	0.161
-412.384	-200.000	0.005	0.025
-411.369	-70.102	-0.055	0.021
-410.355	800.000	-0.042	0.132
-409.340	-51.212	-0.211	0.098
-408.325	800.000	-0.099	-0.356
-407.311	-43.645	-0.283	-0.141
-406.296	-143.747	-0.239	0.022
-405.282	201.876	-0.179	-0.272
-404.267	-142.112	0.089	0.009
-403.252	108.946	-0.042	-0.050
-402.238	242.597	0.044	-0.073
-401.223	-15.940	-0.200	-0.126
-400.209	-151.384	-0.427	0.031
-399.194	-13.407	-0.261	-0.168
-398.179	278.613	-0.054	0.094
-397.165	-200.000	0.056	-0.269
-396.150	-16.536	0.135	-0.085
-395.136	737.191	-0.158	0.420
-394.121	-111.382	-0.272	-0.055
-393.106	-200.000	0.028	0.430
-392.092	579.585	0.098	0.237
-391.077	-200.000	-0.003	-0.163
-390.063	-27.443	0.238	-0.137
-389.048	19.884	0.079	0.063
-388.033	52.054	-0.105	0.099
-387.019	236.268	0.115	-0.188
-386.004	800.000	-0.023	0.092
-384.990	102.325	-0.106	0.122
-383.975	-200.000	0.037	0.190
-382.960	-153.241	-0.233	-0.016
-381.946	-200.000	-0.026	0.333
-380.931	-200.000	-0.026	0.163
-379.917	-85.945	-0.370	0.113
-378.902	-200.000	-0.000	-0.164
-377.888	64.472	0.065	0.065
-376.873	201.720	0.083	0.126
-375.858	373.353	0.055	-0.110
-374.844	-200.000	-0.044	0.473
-373.829	-16.855	-0.296	-0.185
-372.815	634.686	-0.156	0.391
-371.800	319.217	-0.109	-0.205
-370.785	465.215	-0.068	0.149
-369.771	205.277	-0.108	0.166
-368.756	-109.683	0.235	-0.049
-367.742	240.987	-0.164	-0.270
-366.727	-100.491	-0.365	-0.089
-365.712	800.000	-0.026	0.085
-364.698	-169.123	-0.240	0.009
-363.683	-200.000	-0.009	0.055
-362.669	800.000	-0.026	0.110
-361.654	204.072	0.079	-0.121
-360.639	-73.801	0.078	-0.028
-359.625	6.442	-0.113	0.083
-358.610	-40.706	0.120	-0.062
-357.596	-200.000	0.004	-0.206
-356.581	246.313	-0.117	-0.195
-355.566	-19.330	-0.164	0.100
-354.552	132.735	0.033	-0.042
-353.537	119.252	-0.080	0.098
-352.523	-200.000	0.047	0.213
-351.508	-92.163	0.409	0.114
-350.493	-174.528	-0.159	0.004
-349.479	1.038	-0.121	0.086
-348.464	274.496	0.077	-0.135
-347.450	767.793	0.024	0.064
-346.435	96.602	-0.107	-0.121
-345.420	207.295	-0.173	-0.267
-344.406	-63.179	0.229	-0.093
-343.391	-200.000	-0.004	0.047
-342.377	-119.344	0.164	0.028
-341.362	-200.000	-0.037	-0.325
-340.348	-90.352	0.136	-0.039
-339.333	10.716	0.166	0.125
-338.318	-8.377	0.090	-0.060
-337.304	-200.000	0.038	-0.173
-336.289	-66.480	0.029	-0.012
-335.275	800.000	-0.058	-0.194
-334.260	-63.225	0.448	0.182
-333.245	-58.091	-0.127	-0.054
-332.231	-4.261	0.074	0.051
-331.216	-200.000	-0.006	0.082
-330.202	216.867	0.085	0.134
-329.187	-200.000	0.004	-0.115
-328.172	22.548	-0.089	0.072
-327.158	-118.304	0.241	-0.042
-326.143	-174.243	0.268	-0.008
-325.129	-8.593	0.215	-0.143
-324.114	-55.494	0.432	0.191
-323.099	-42.037	-0.138	-0.070
-322.085	-158.609	-0.164	-0.009
-321.070	-200.000	0.021	-0.157
-320.056	-200.000	-0.042	0.203
-319.041	-28.149	-0.280	0.160
-318.026	20.288	-0.065	-0.052
-317.012	800.000	-0.064	-0.252
-315.997	-200.000	-0.011	-0.295
-314.983	800.000	-0.038	-0.125
-313.968	-5.614	-0.346	-0.234
-312.953	-47.408	0.357	0.171
-311.939	-3.887	0.156	-0.106
-310.924	-78.873	-0.190	0.064
-309.910	-200.000	-0.011	-0.066
-308.895	800.000	0.063	0.234
-307.880	800.000	0.032	0.119
-306.866	126.508	0.222	-0.278
-305.851	-200.000	-0.008	-0.060
-304.837	477.686	0.131	0.293
-303.822	-27.710	-0.410	-0.234
-302.807	-200.000	-0.026	0.264
-301.793	130.359	0.098	-0.123
-300.778	-200.000	0.015	0.189
-299.764	161.979	-0.151	-0.208
-298.749	800.000	0.017	-0.069
-297.735	703.701	-0.079	0.206
-296.720	800.000	-0.029	0.112
-295.705	-31.518	-0.274	0.151
-294.691	19.685	-0.283	-0.224
-293.676	63.001	0.190	-0.187
-292.662	800.000	0.086	-0.304
-291.647	800.000	-0.112	-0.360
-290.632	-200.000	-0.003	0.033
-289.618	-151.082	0.172	-0.013
-288.603	-80.490	0.397	-0.130
-287.589	5.008	0.073	0.053
-286.574	-123.502	0.294	0.046
-285.559	-200.000	-0.048	0.221
-284.545	-150.707	0.132	0.010
-283.530	-176.600	0.319	0.008
-282.516	-49.599	-0.143	0.067
-281.501	-147.758	-0.284	-0.023
-280.486	113.838	-0.250	-0.299
-279.472	-129.582	0.473	-0.064
-278.457	-144.715	-0.226	0.020
-277.443	75.617	-0.380	0.395
-276.428	-200.000	-0.053	-0.290
-275.413	800.000	0.069	0.269
-274.399	800.000	0.031	0.088
-273.384	800.000	0.037	0.119
-272.370	-34.963	-0.150	-0.081
-271.355	-83.496	-0.248	0.078
-270.340	82.613	0.145	-0.155
-269.326	-51.871	-0.044	0.020
-268.311	-138.269	0.368	-0.040
-267.297	-176.906	0.121	0.003
-266.282	-152.448	0.203	0.014
-265.267	-200.000	-0.037	-0.373
-264.253	-136.391	0.154	0.018
-263.238	-200.000	-0.021	0.265
-262.224	-121.462	0.229	-0.038
-261.209	-107.989	0.335	-0.072
-260.195	-11.715	0.235	0.152
-259.180	220.410	-0.134	0.212
-258.165	162.218	0.057	-0.078
-257.151	54.301	0.249	0.236
-256.136	-200.000	-0.037	0.368
-255.122	371.636	0.114	-0.228
-254.107	-200.000	0.027	0.166
-253.092	15.297	-0.108	0.083
-252.078	-200.000	0.006	-0.095
-251.063	-40.848	0.258	-0.131
-250.049	36.243	0.045	-0.039
-249.034	-135.200	0.048	0.006
-248.019	-51.258	0.176	0.081
-247.005	800.000	-0.055	0.180
-245.990	-200.000	-0.130	-0.000
-244.976	0.877	0.222	0.156
-243.961	243.395	0.047	-0.077
-242.946	800.000	0.030	-0.092
-241.932	370.535	0.070	0.140
-240.917	55.691	0.183	-0.174
-239.903	87.499	-0.157	-0.170
-238.888	-18.797	0.403	-0.247
-237.873	-118.663	-0.132	0.023
-236.859	-29.827	-0.154	0.086
-235.844	141.163	-0.077	0.101
-234.830	-200.000	-0.051	0.340
-233.815	-144.109	0.380	-0.035
-232.800	-149.574	0.102	0.008
-231.786	-38.516	-0.114	-0.059
-230.771	-195.346	0.258	-0.002
-229.757	800.000	0.038	-0.113
-228.742	181.216	-0.152	0.220
-227.727	800.000	-0.089	0.324
-226.713	-5.874	0.122	0.082
-225.698	-133.360	0.089	0.011
-224.684	201.086	-0.053	-0.081
-223.669	-104.802	-0.147	-0.033
-222.655	-200.000	-0.042	-0.216
-221.640	86.925	0.004	0.004
-220.625	-111.635	-0.096	0.019
-219.611	-200.000	-0.073	-0.556
-218.596	800.000	0.117	0.334
-217.582	800.000	0.047	-0.148
-216.567	800.000	0.080	0.343
-215.552	-200.000	0.045	0.224
-214.538	-90.451	-0.463	-0.132
-213.523	-52.451	-0.197	0.089
-212.509	800.000	-0.128	0.352
-211.494	-55.364	-0.338	0.149
-210.479	-65.206	0.273	0.108
-209.465	-84.445	-0.132	-0.041
-208.450	-56.114	-0.194	-0.085
-207.436	61.475	0.224	0.219
-206.421	-160.535	-0.055	0.003
-205.406	800.000	0.056	-0.241
-204.392	273.588	-0.006	0.011
-203.377	-158.228	-0.145	-0.008
-202.363	-29.433	0.210	-0.118
-201.348	-36.768	0.058	0.031
-200.333	647.382	0.051	-0.128
-199.319	-33.840	-0.089	0.048
-198.304	-200.000	-0.020	0.279
-197.290	800.000	0.094	0.325
-196.275	191.384	0.123	-0.182
-195.260	-44.950	-0.151	-0.074
-194.246	-86.007	0.363	0.110
-193.231	530.878	0.038	-0.089
-192.217	-200.000	0.319	-0.000
-191.202	-96.777	0.126	0.033
-190.187	-92.507	0.159	0.044
-189.173	-133.347	0.459	-0.057
-188.158	-10.192	0.191	-0.124
-187.144	-20.281	0.167	0.101
-186.129	-108.499	0.137	0.029
-185.114	201.169	0.281	0.424
-184.100	531.875	-0.055	0.128
-183.085	49.851	-0.148	0.137
-182.071	225.719	-0.054	-0.086
-181.056	146.218	0.169	0.223
-180.042	800.000	0.050	-0.172
-179.027	800.000	-0.035	0.135
-178.012	-56.857	-0.055	0.024
-176.998	-18.380	0.374	0.229
-175.983	-200.000	-0.024	-0.156
-174.969	407.390	0.065	-0.135
-173.954	426.387	-0.036	-0.076
-172.939	-43.709	-0.076	-0.038
-171.925	-30.904	-0.260	-0.144
-170.910	362.748	0.012	0.024
-169.896	-158.736	-0.398	-0.022
-168.881	-200.000	0.056	0.246
-167.866	99.111	0.199	0.226
-166.852	-200.000	0.038	-0.323
-165.837	102.183	-0.106	-0.121
-164.823	800.000	0.118	-0.347
-163.808	334.739	0.038	0.073
-162.793	800.000	0.132	0.422
-161.779	-108.110	0.257	0.055
-160.764	-200.000	0.027	-0.132
-159.750	189.625	0.149	0.218
-158.735	41.990	-0.229	-0.204
-157.720	-200.000	0.041	-0.201
-156.706	800.000	-0.098	-0.310
-155.691	243.588	-0.211	0.347
-154.677	-107.212	0.148	-0.032
-153.662	25.001	0.304	-0.247
-152.647	94.325	0.231	0.257
-151.633	-63.777	0.193	-0.077
-150.618	-53.480	0.041	-0.018
-149.604	565.077	-0.104	0.247
-148.589	-200.000	0.014	-0.106
-147.574	-21.786	-0.152	0.091
-146.560	800.000	0.042	-0.158
-145.545	-40.533	-0.186	-0.094
-144.531	-25.722	0.183	-0.106
-143.516	-33.774	0.258	0.139
-142.502	-92.021	-0.183	-0.051
-141.487	-23.252	-0.096	0.056
-140.472	517.942	-0.052	-0.120
-139.458	-200.000	0.007	0.094
-138.443	-200.000	0.057	-0.355
-137.429	-183.310	-0.214	-0.004
-136.414	0.711	-0.118	-0.082
-135.399	366.850	0.117	0.231
-134.385	-136.671	0.182	0.021
-133.370	800.000	-0.029	0.116
-132.356	-136.422	0.120	0.014
-131.341	-80.154	-0.278	0.091
-130.326	-129.516	0.332	0.045
-129.312	-200.000	-0.007	-0.189
-128.297	-81.501	-0.180	0.058
-127.283	800.000	0.008	-0.022
-126.268	756.733	-0.072	-0.192
-125.253	125.015	-0.114	0.140
-124.239	-123.666	-0.089	0.014
-123.224	800.000	-0.032	-0.103
-122.210	660.345	0.112	-0.283
