DTS Sentinel unit serial number:	SN413079Multiplexer serial number:	ORYXHardware model number:	OX4-SRSoftware version number:	ORYX F/W v4.00 Oryx Data Collector v3.7.2.0data status	okinstallation	princeton_trtdifferential loss correction	single-endedforward channel	channel 4reverse channel	N/Adate	2019/09/13time	03:49:34forward acquisition time	60.00reverse acquisition time	0.00gamma	496.2192k internal	0.2320k external	0.2320temperature offset calibration	1.0196default loss term (dB/km)	0.3790temperature slope calibration	1.0000multiplexer offset coefficient	1.0000multiplexer slope coefficient	1.0000fibre end	0.00T internal ref (°C)	27.12T ext. ref 1 (°C)	4.07T ext. ref 2 (°C)	21.40length (m)	temperature (°C)	Stokes	anti-Stokes-747.200	15.410	0.149	-0.118
-746.185	29.371	-0.227	0.195
-745.171	-52.241	-0.138	-0.065
-744.156	-61.727	-0.120	0.051
-743.142	800.000	-0.056	0.212
-742.127	-200.000	-0.060	0.267
-741.112	-68.526	-0.306	-0.120
-740.098	800.000	0.033	0.095
-739.083	-51.457	0.109	-0.052
-738.069	-51.763	0.264	-0.124
-737.054	142.863	-0.097	0.131
-736.039	5.786	-0.094	-0.070
-735.025	-151.459	-0.125	0.009
-734.010	-82.824	-0.346	-0.113
-732.996	-34.217	-0.432	0.240
-731.981	60.578	-0.119	0.119
-730.966	-48.619	-0.215	0.105
-729.952	-35.070	0.103	-0.057
-728.937	-67.207	-0.347	0.138
-727.923	800.000	-0.078	0.238
-726.908	-200.000	-0.012	-0.195
-725.894	-61.215	0.097	-0.041
-724.879	-137.600	-0.353	0.040
-723.864	800.000	-0.097	0.280
-722.850	-75.776	-0.248	-0.089
-721.835	-200.000	-0.423	-0.002
-720.821	-121.577	-0.361	0.061
-719.806	800.000	0.076	-0.331
-718.791	19.881	-0.035	-0.029
-717.777	-200.000	0.049	-0.322
-716.762	-200.000	-0.037	-0.200
-715.748	-81.660	-0.286	-0.095
-714.733	-200.000	-0.046	0.213
-713.718	-99.550	0.216	-0.055
-712.704	-33.224	0.274	0.153
-711.689	408.602	0.117	-0.251
-710.675	-140.315	-0.012	-0.001
-709.660	143.550	0.188	-0.253
-708.645	-54.071	-0.242	-0.111
-707.631	-119.752	0.294	-0.051
-706.616	-21.240	-0.211	0.130
-705.602	-200.000	-0.003	-0.275
-704.587	-24.249	0.187	-0.112
-703.572	800.000	0.022	-0.095
-702.558	-128.306	-0.507	0.073
-701.543	-60.777	-0.063	0.027
-700.529	28.875	-0.327	-0.280
-699.514	-99.852	-0.371	0.094
-698.499	-48.268	-0.301	0.146
-697.485	69.864	0.319	-0.332
-696.470	566.496	0.125	-0.306
-695.456	85.310	0.197	-0.218
-694.441	41.633	0.122	-0.111
-693.426	105.173	-0.192	-0.229
-692.412	800.000	-0.121	-0.392
-691.397	-148.032	-0.238	0.020
-690.383	139.695	0.102	-0.136
-689.368	-200.000	0.019	-0.160
-688.354	-200.000	-0.025	0.226
-687.339	800.000	0.022	0.094
-686.324	-76.087	0.094	-0.034
-685.310	200.855	-0.279	-0.433
-684.295	150.146	0.110	-0.151
-683.281	5.582	-0.340	-0.253
-682.266	800.000	-0.050	0.171
-681.251	170.930	0.275	-0.397
-680.237	12.925	-0.121	-0.094
-679.222	-200.000	0.051	-0.363
-678.208	215.269	-0.182	-0.290
-677.193	255.588	-0.100	-0.173
-676.178	-9.238	-0.120	0.081
-675.164	349.489	-0.081	-0.162
-674.149	335.568	-0.054	0.106
-673.135	-105.008	-0.132	-0.030
-672.120	189.801	-0.100	-0.151
-671.105	-121.718	-0.294	-0.049
-670.091	748.199	-0.170	0.463
-669.076	54.317	-0.198	-0.192
-668.062	-119.156	0.236	-0.042
-667.047	-123.562	-0.119	0.019
-666.032	-22.785	0.205	-0.125
-665.018	-200.000	-0.006	0.198
-664.003	-76.316	0.208	0.074
-662.989	180.452	0.023	-0.034
-661.974	800.000	-0.115	-0.370
-660.959	800.000	-0.082	-0.236
-659.945	179.730	0.158	-0.233
-658.930	359.588	-0.135	-0.272
-657.916	-100.556	-0.157	0.039
-656.901	17.312	0.354	-0.283
-655.886	-200.000	-0.008	-0.552
-654.872	224.216	0.198	0.323
-653.857	-200.000	0.004	-0.120
-652.843	330.772	0.049	-0.095
-651.828	-103.954	-0.146	-0.034
-650.814	-31.629	0.255	-0.144
-649.799	8.921	0.122	0.093
-648.784	800.000	0.114	0.332
-647.770	-16.190	0.269	-0.172
-646.755	69.244	-0.196	-0.204
-645.741	-96.160	0.340	-0.091
-644.726	-54.237	0.257	-0.118
-643.711	800.000	-0.039	0.144
-642.697	-178.216	0.015	-0.000
-641.682	0.208	-0.063	-0.045
-640.668	-200.000	0.012	-0.233
-639.653	-200.000	-0.009	-0.161
-638.638	-8.050	-0.208	-0.141
-637.624	800.000	0.055	0.209
-636.609	61.616	-0.066	-0.066
-635.595	-0.482	0.188	-0.134
-634.580	-55.774	-0.213	-0.096
-633.565	68.067	-0.243	-0.250
-632.551	-200.000	-0.031	-0.341
-631.536	287.338	-0.069	-0.126
-630.522	-123.605	-0.160	-0.026
-629.507	-110.122	0.317	0.067
-628.492	385.024	-0.093	0.194
-627.478	-101.945	0.285	-0.069
-626.463	800.000	0.037	-0.121
-625.449	-200.000	-0.036	-0.228
-624.434	800.000	-0.105	-0.294
-623.419	-116.088	0.273	0.051
-622.405	-200.000	-0.024	0.228
-621.390	167.170	0.173	-0.247
-620.376	-64.984	0.047	-0.019
-619.361	167.765	0.248	-0.355
-618.346	-43.815	0.309	-0.157
-617.332	150.812	-0.179	-0.245
-616.317	-200.000	0.058	-0.345
-615.303	-87.358	-0.197	0.060
-614.288	258.886	-0.152	-0.264
-613.273	-137.994	0.119	-0.013
-612.259	800.000	0.005	0.020
-611.244	56.685	0.132	-0.129
-610.230	105.600	-0.064	0.076
-609.215	-176.793	0.106	0.003
-608.201	107.455	0.169	0.202
-607.186	-6.668	-0.258	-0.176
-606.171	800.000	0.080	-0.346
-605.157	-29.208	0.098	0.057
-604.142	-24.881	-0.231	-0.138
-603.128	-102.310	-0.170	0.041
-602.113	372.158	0.153	-0.312
-601.098	-200.000	-0.049	0.442
-600.084	101.993	-0.112	-0.131
-599.069	-114.999	-0.141	-0.027
-598.055	-37.171	0.192	-0.103
-597.040	142.448	-0.084	0.112
-596.025	-200.000	-0.011	-0.092
-595.011	-200.000	-0.021	0.197
-593.996	-132.019	0.487	-0.064
-592.982	664.332	-0.063	0.164
-591.967	-200.000	0.010	0.242
-590.952	39.249	0.277	-0.249
-589.938	3.222	-0.107	-0.078
-588.923	11.411	0.307	-0.237
-587.909	204.881	0.046	0.071
-586.894	228.676	0.180	0.294
-585.879	-37.873	0.126	0.068
-584.865	-108.196	0.133	-0.029
-583.850	-84.355	0.400	-0.127
-582.836	-200.000	0.024	-0.250
-581.821	-94.309	0.231	0.064
-580.806	112.088	0.023	0.028
-579.792	-200.000	-0.008	0.383
-578.777	-58.799	-0.064	-0.028
-577.763	-200.000	0.057	0.333
-576.748	-200.000	-0.002	-0.045
-575.733	112.350	0.155	0.188
-574.719	468.802	0.073	-0.166
-573.704	-82.931	0.016	-0.005
-572.690	80.194	-0.137	0.148
-571.675	-200.000	-0.025	-0.223
-570.661	-55.077	-0.252	0.114
-569.646	22.502	0.118	-0.097
-568.631	800.000	-0.049	-0.153
-567.617	-100.187	-0.099	-0.025
-566.602	-49.268	-0.059	0.028
-565.588	-91.153	-0.238	-0.068
-564.573	568.751	0.157	0.384
-563.558	-27.347	0.229	0.134
-562.544	32.568	-0.153	0.133
-561.529	-3.390	-0.086	0.060
-560.515	-30.195	0.230	-0.131
-559.500	-44.253	-0.278	0.140
-558.485	365.207	-0.307	-0.621
-557.471	-200.000	-0.005	0.045
-556.456	-94.806	0.265	0.072
-555.442	-95.039	0.154	-0.042
-554.427	-116.341	0.066	0.012
-553.412	-200.000	-0.014	0.268
-552.398	-137.521	-0.268	-0.030
-551.383	42.124	0.292	0.266
-550.369	19.984	-0.284	-0.230
-549.354	122.645	-0.218	-0.273
-548.339	-200.000	0.001	-0.230
-547.325	-200.000	-0.003	-0.238
-546.310	187.038	-0.185	-0.277
-545.296	552.929	-0.061	-0.146
-544.281	-67.239	0.397	0.157
-543.266	193.876	-0.094	-0.142
-542.252	-40.717	0.102	-0.053
-541.237	151.531	0.071	0.097
-540.223	176.458	-0.105	-0.153
-539.208	-200.000	0.006	-0.038
-538.193	-11.857	0.454	0.299
-537.179	-23.522	-0.311	0.187
-536.164	154.252	0.047	-0.065
-535.150	800.000	0.053	-0.215
-534.135	800.000	-0.061	0.168
-533.121	85.355	0.145	-0.160
-532.106	507.558	0.071	0.166
-531.091	-200.000	-0.066	-0.341
-530.077	800.000	-0.077	0.257
-529.062	17.926	0.365	0.291
-528.048	83.459	-0.157	-0.171
-527.033	6.890	-0.234	-0.175
-526.018	311.754	0.108	-0.203
-525.004	17.756	-0.036	0.029
-523.989	-66.653	-0.230	-0.091
-522.975	502.073	0.094	-0.217
-521.960	30.506	0.037	-0.032
-520.945	-70.206	0.201	0.076
-519.931	65.433	-0.144	-0.146
-518.916	281.752	0.196	-0.353
-517.902	800.000	0.087	-0.264
-516.887	-200.000	0.006	0.044
-515.872	-200.000	0.032	0.288
-514.858	143.873	0.049	0.066
-513.843	89.720	0.020	0.022
-512.829	88.174	-0.312	-0.347
-511.814	-16.393	-0.190	-0.121
-510.799	201.400	0.188	-0.291
-509.785	-3.457	0.188	0.131
-508.770	15.550	-0.137	-0.108
-507.756	-47.907	0.078	-0.038
-506.741	-200.000	-0.050	0.231
-505.726	41.263	0.219	-0.199
-504.712	800.000	0.150	-0.431
-503.697	-200.000	0.033	0.234
-502.683	-200.000	0.005	0.219
-501.668	-10.215	-0.149	-0.099
-500.653	800.000	0.028	-0.081
-499.639	19.642	-0.226	0.182
-498.624	14.687	0.087	-0.068
-497.610	49.420	-0.163	0.154
-496.595	-5.998	-0.143	0.098
-495.581	-31.803	-0.258	-0.145
-494.566	196.053	0.021	0.032
-493.551	-92.418	0.347	-0.098
-492.537	-87.236	0.147	0.045
-491.522	800.000	-0.034	0.111
-490.508	-0.078	-0.220	0.157
-489.493	-76.279	0.215	0.076
-488.478	-200.000	0.016	0.252
-487.464	-85.186	-0.118	-0.037
-486.449	59.615	-0.060	-0.059
-485.435	800.000	-0.012	-0.050
-484.420	20.397	-0.117	0.095
-483.405	55.670	-0.265	-0.257
-482.391	-3.299	0.141	-0.098
-481.376	88.586	-0.086	-0.095
-480.362	-84.958	-0.222	-0.070
-479.347	97.973	0.095	-0.110
-478.332	-49.295	-0.179	-0.086
-477.318	-42.808	0.287	-0.146
-476.303	585.093	-0.087	-0.215
-475.289	-20.946	0.142	-0.087
-474.274	28.726	0.104	-0.088
-473.259	-200.000	-0.052	-0.243
-472.245	-84.367	0.293	-0.093
-471.230	226.650	0.133	-0.216
-470.216	111.722	0.160	-0.193
-469.201	-94.229	-0.219	0.060
-468.186	-9.911	0.264	0.176
-467.172	80.004	0.114	0.123
-466.157	23.074	-0.180	-0.147
-465.143	-101.429	-0.133	0.032
-464.128	98.518	-0.049	-0.057
-463.113	-77.225	-0.228	-0.079
-462.099	31.261	0.085	-0.073
-461.084	-200.000	-0.054	-0.374
-460.070	97.210	0.362	-0.415
-459.055	397.194	0.003	0.006
-458.040	69.064	0.214	0.220
-457.026	-36.602	-0.159	0.085
-456.011	-200.000	0.010	0.318
-454.997	-126.902	0.264	0.039
-453.982	164.102	0.265	-0.373
-452.968	-5.014	0.071	0.049
-451.953	-36.066	-0.239	0.129
-450.938	155.082	0.049	0.067
-449.924	-40.029	-0.085	0.045
-448.909	-143.063	0.159	-0.015
-447.895	-101.510	0.306	-0.074
-446.880	-117.231	-0.307	-0.056
-445.865	410.557	0.172	0.365
-444.851	728.476	0.058	0.156
-443.836	138.181	-0.095	-0.124
-442.822	96.429	-0.238	-0.273
-441.807	-10.034	-0.214	-0.142
-440.792	-34.568	-0.174	0.095
-439.778	800.000	-0.081	-0.283
-438.763	800.000	0.033	0.122
-437.749	432.861	0.097	-0.210
-436.734	94.542	0.147	-0.167
-435.719	14.371	-0.080	-0.062
-434.705	-104.546	0.048	0.011
-433.690	-200.000	-0.119	0.000
-432.676	-155.626	-0.155	0.010
-431.661	800.000	-0.044	0.159
-430.646	-12.722	0.172	-0.112
-429.632	122.553	-0.230	-0.288
-428.617	-200.000	-0.032	0.187
-427.603	681.011	0.148	-0.386
-426.588	36.467	-0.191	-0.168
-425.573	-56.715	0.106	0.047
-424.559	-146.952	0.095	0.008
-423.544	162.957	-0.290	0.407
-422.530	800.000	-0.043	-0.150
-421.515	-121.011	-0.426	0.071
-420.500	-200.000	0.058	0.392
-419.486	800.000	0.011	-0.030
-418.471	-200.000	0.035	0.365
-417.457	-200.000	0.072	0.367
-416.442	-200.000	0.034	0.198
-415.428	-18.384	0.200	-0.125
-414.413	-83.223	-0.146	0.047
-413.398	160.591	0.109	-0.151
-412.384	-85.467	-0.116	-0.036
-411.369	253.288	0.127	0.217
-410.355	-38.669	0.232	-0.122
-409.340	-134.509	-0.240	-0.029
-408.325	800.000	-0.077	-0.258
-407.311	-200.000	-0.007	0.171
-406.296	366.676	0.042	0.085
-405.282	-113.891	-0.161	-0.031
-404.267	289.909	0.009	0.016
-403.252	-48.782	-0.111	-0.053
-402.238	118.979	0.087	-0.108
-401.223	6.054	0.053	0.039
-400.209	-20.433	0.386	-0.237
-399.194	285.216	-0.062	0.111
-398.179	246.585	0.183	0.307
-397.165	-200.000	-0.029	0.212
-396.150	-102.561	-0.210	0.050
-395.136	800.000	0.091	-0.354
-394.121	103.415	0.162	-0.189
-393.106	2.527	0.178	0.128
-392.092	-200.000	-0.021	0.196
-391.077	800.000	-0.036	-0.148
-390.063	-91.867	-0.319	0.090
-389.048	48.545	-0.104	-0.097
-388.033	-200.000	-0.007	-0.307
-387.019	163.906	0.100	-0.140
-386.004	-77.296	0.204	0.071
-384.990	302.671	-0.251	0.463
-383.975	-47.111	0.303	-0.147
-382.960	-119.325	-0.186	0.032
-381.946	-200.000	-0.001	0.231
-380.931	-42.976	-0.196	0.099
-379.917	-93.987	0.068	-0.019
-378.902	-117.230	0.260	0.047
-377.888	-200.000	-0.035	-0.242
-376.873	-200.000	-0.014	0.134
-375.858	43.512	-0.084	0.077
-374.844	-171.849	0.134	0.004
-373.829	-5.350	-0.175	-0.120
-372.815	-112.152	-0.092	-0.018
-371.800	382.386	0.045	0.093
-370.785	-43.405	-0.092	0.046
-369.771	-200.000	-0.004	0.065
-368.756	800.000	0.055	-0.232
-367.742	134.358	-0.031	-0.040
-366.727	244.497	-0.026	0.044
-365.712	-200.000	-0.058	0.571
-364.698	392.374	-0.101	-0.209
-363.683	692.382	0.085	-0.222
-362.669	-84.859	0.109	-0.034
-361.654	429.566	-0.064	-0.137
-360.639	-200.000	-0.000	0.006
-359.625	-84.719	-0.243	-0.076
-358.610	800.000	-0.169	0.577
-357.596	278.063	0.127	0.226
-356.581	199.870	0.126	-0.192
-355.566	800.000	0.078	-0.275
-354.552	-85.024	-0.382	0.119
-353.537	89.141	0.120	0.133
-352.523	672.964	0.018	0.046
-351.508	-200.000	-0.076	0.377
-350.493	564.256	0.028	-0.068
-349.479	-34.567	-0.208	0.113
-348.464	140.695	0.185	-0.243
-347.450	-160.210	-0.241	-0.013
-346.435	2.589	-0.175	-0.126
-345.420	-200.000	-0.001	0.027
-344.406	800.000	-0.065	0.211
-343.391	-117.350	0.247	-0.045
-342.377	478.529	-0.085	0.191
-341.362	244.843	-0.138	0.231
-340.348	800.000	0.088	-0.321
-339.333	-89.066	-0.087	-0.026
-338.318	-89.216	-0.262	-0.077
-337.304	43.648	0.145	-0.132
-336.289	-198.385	0.298	-0.002
-335.275	5.304	-0.083	0.061
-334.260	-15.810	-0.060	-0.038
-333.245	-200.000	-0.208	0.001
-332.231	6.571	-0.265	-0.196
-331.216	-200.000	0.070	0.000
-330.202	800.000	-0.095	0.361
-329.187	256.518	-0.089	-0.153
-328.172	26.593	-0.125	0.104
-327.158	-200.000	0.085	-0.404
-326.143	-175.022	-0.227	0.006
-325.129	-193.465	-0.159	0.001
-324.114	213.213	-0.086	-0.135
-323.099	167.253	-0.204	-0.288
-322.085	-88.772	-0.216	0.064
-321.070	-29.033	-0.139	-0.079
-320.056	226.116	-0.238	0.383
-319.041	112.446	0.057	-0.069
-318.026	-102.019	0.312	0.075
-317.012	-87.170	0.508	-0.154
-315.997	79.562	0.201	0.215
-314.983	-77.506	-0.395	-0.136
-313.968	-122.698	-0.046	-0.007
-312.953	177.660	0.212	-0.307
-311.939	-49.236	0.271	0.129
-310.924	-63.883	0.225	-0.092
-309.910	115.148	-0.098	-0.119
-308.895	-86.838	-0.272	0.082
-307.880	800.000	-0.087	0.344
-306.866	38.775	0.148	0.131
-305.851	-200.000	-0.001	0.172
-304.837	-130.037	-0.385	-0.052
-303.822	-79.385	0.312	0.105
-302.807	-124.285	0.137	-0.021
-301.793	67.391	0.230	0.233
-300.778	-24.530	-0.281	0.166
-299.764	244.210	0.074	-0.124
-298.749	69.105	-0.162	0.165
-297.735	-65.543	0.222	0.089
-296.720	-62.062	0.204	0.085
-295.705	394.240	0.173	0.358
-294.691	-200.000	-0.066	0.398
-293.676	90.893	-0.263	-0.293
-292.662	800.000	0.028	-0.095
-291.647	254.870	-0.163	0.278
-290.632	194.314	-0.181	0.272
-289.618	-57.794	-0.175	-0.076
-288.603	800.000	-0.109	-0.302
-287.589	800.000	0.075	-0.222
-286.574	312.132	0.090	-0.168
-285.559	36.972	0.123	0.108
-284.545	88.886	-0.161	0.178
-283.530	-200.000	0.019	-0.310
-282.516	220.675	0.028	0.044
-281.501	-0.426	0.098	-0.069
-280.486	-94.278	-0.274	0.074
-279.472	-36.350	0.128	0.068
-278.457	153.735	0.177	0.241
-277.443	-139.195	-0.438	0.047
-276.428	8.791	-0.301	-0.225
-275.413	331.089	-0.107	0.206
-274.399	-124.087	0.281	0.044
-273.384	-200.000	0.001	-0.008
-272.370	-192.892	0.194	-0.002
-271.355	-54.478	0.145	-0.065
-270.340	11.253	0.156	-0.119
-269.326	800.000	0.063	-0.229
-268.311	90.638	-0.200	-0.223
-267.297	154.275	0.120	0.163
-266.282	191.584	-0.236	0.353
-265.267	-142.695	0.400	0.039
-264.253	800.000	-0.058	0.185
-263.238	495.639	0.066	0.150
-262.224	-48.226	0.318	-0.152
-261.209	49.955	-0.183	0.171
-260.195	800.000	0.091	-0.273
-259.180	-200.000	-0.013	-0.191
-258.165	119.599	-0.067	-0.082
-257.151	-123.378	0.104	-0.017
-256.136	165.419	-0.011	0.016
-255.122	-10.725	0.278	0.182
-254.107	-63.385	-0.208	-0.085
-253.092	-12.917	0.032	-0.021
-252.078	240.325	0.081	0.133
-251.063	149.634	0.105	-0.141
-250.049	-127.158	0.063	-0.009
-249.034	46.890	0.135	-0.124
-248.019	800.000	0.019	0.069
-247.005	147.166	-0.273	0.364
-245.990	-200.000	0.009	0.138
-244.976	144.269	-0.219	0.290
-243.961	-184.939	0.300	-0.005
-242.946	-179.240	0.320	0.007
-241.932	229.175	0.124	0.200
-240.917	-200.000	0.001	-0.005
-239.903	-53.122	-0.200	0.091
-238.888	133.054	-0.190	0.244
-237.873	800.000	-0.113	0.346
-236.859	-132.296	-0.114	0.015
-235.844	-97.165	0.234	0.061
-234.830	-154.613	-0.497	0.033
-233.815	275.226	0.105	0.185
-232.800	-200.000	0.030	0.143
-231.786	42.494	-0.157	-0.141
-230.771	800.000	-0.067	-0.224
-229.757	-77.867	0.174	-0.060
-228.742	-123.474	0.159	-0.025
-227.727	-200.000	0.035	0.466
-226.713	800.000	0.032	-0.105
-225.698	412.330	0.094	0.198
-224.684	800.000	0.098	0.392
-223.669	-8.430	-0.213	-0.142
-222.655	81.751	-0.131	0.140
-221.640	56.552	-0.250	-0.241
-220.625	767.501	0.097	-0.260
-219.611	-135.161	-0.153	-0.018
-218.596	66.259	-0.147	0.148
-217.582	408.503	-0.115	-0.240
-216.567	-3.591	-0.193	-0.133
-215.552	-139.545	0.340	-0.036
-214.538	305.267	0.115	-0.211
-213.523	-200.000	0.045	-0.379
-212.509	89.829	0.171	-0.189
-211.494	30.348	-0.138	-0.116
-210.479	643.258	-0.028	0.070
-209.465	-200.000	0.020	0.344
-208.450	800.000	-0.039	-0.123
-207.436	-52.866	-0.242	0.110
-206.421	-200.000	-0.033	-0.174
-205.406	77.942	0.221	0.234
-204.392	800.000	0.096	0.325
-203.377	362.181	-0.058	0.116
-202.363	-26.013	-0.279	0.163
-201.348	800.000	-0.036	-0.131
-200.333	76.588	-0.271	0.285
-199.319	512.516	-0.141	0.324
-198.304	22.434	0.072	-0.058
-197.290	-161.833	0.340	0.017
-196.275	77.446	-0.151	0.159
-195.260	-52.698	-0.059	-0.027
-194.246	-136.279	0.134	-0.015
-193.231	-48.563	0.227	0.108
-192.217	-200.000	0.016	0.090
-191.202	-100.339	-0.129	0.032
-190.187	-159.235	0.129	-0.007
-189.173	40.036	-0.319	0.283
-188.158	800.000	0.097	0.293
-187.144	-200.000	0.018	0.285
-186.129	800.000	-0.110	0.306
-185.114	54.978	-0.148	0.142
-184.100	-99.042	-0.120	-0.030
-183.085	109.963	-0.190	0.225
-182.071	-97.542	0.255	-0.066
-181.056	-62.051	0.249	0.103
-180.042	-174.213	-0.095	-0.003
-179.027	800.000	0.021	-0.090
-178.012	98.498	0.090	0.103
-176.998	-105.692	0.418	0.094
-175.983	-76.265	0.228	0.079
-174.969	243.272	-0.205	0.340
-173.954	-86.667	-0.381	-0.115
-172.939	152.277	-0.109	-0.148
-171.925	212.480	0.224	0.349
-170.910	72.524	0.072	0.074
-169.896	-165.576	-0.181	-0.008
-168.881	-114.626	0.103	0.019
-167.866	-73.927	0.188	0.067
-166.852	30.093	-0.172	0.145
-165.837	261.698	0.141	-0.242
-164.823	124.230	-0.120	-0.149
-163.808	800.000	-0.043	-0.133
-162.793	-108.867	0.386	-0.081
-161.779	-113.391	-0.230	-0.045
-160.764	-172.318	0.079	-0.002
-159.750	800.000	0.054	-0.149
-158.735	-36.058	0.059	-0.032
-157.720	-42.534	-0.155	-0.078
-156.706	518.950	-0.036	0.083
-155.691	-200.000	-0.047	0.303
-154.677	-166.975	-0.406	-0.016
-153.662	64.118	-0.103	0.102
-152.647	106.637	-0.322	0.378
-151.633	201.278	0.037	-0.056
-150.618	30.642	0.269	-0.227
-149.604	800.000	-0.065	-0.187
-148.589	-148.129	0.278	0.023
-147.574	71.858	-0.130	0.134
-146.560	-200.000	-0.003	0.017
-145.545	285.633	0.211	0.375
-144.531	152.248	-0.241	0.325
-143.516	-3.179	-0.136	0.093
-142.502	110.503	-0.101	0.120
-141.487	-24.626	-0.235	-0.138
-140.472	-151.960	0.116	0.008
-139.458	136.875	0.215	0.278
-138.443	-200.000	0.037	0.212
-137.429	-73.382	-0.165	0.060
-136.414	-25.333	0.023	0.014
-135.399	-142.709	-0.381	-0.037
-134.385	-26.621	0.109	0.063
-133.370	33.867	0.152	0.130
-132.356	-63.852	-0.328	0.132
-131.341	-96.440	-0.174	-0.045
-130.326	655.237	-0.025	-0.063
-129.312	23.703	-0.211	-0.171
-128.297	-75.100	-0.169	-0.060
-127.283	-200.000	0.019	0.146
-126.268	-87.756	0.158	0.047
-125.253	-2.152	-0.070	-0.049
-124.239	-19.198	-0.201	0.123
-123.224	-130.610	0.289	0.038
-122.210	509.466	-0.023	-0.052
-121.195	12.713	0.085	0.065
