DTS Sentinel unit serial number:	SN413079Multiplexer serial number:	ORYXHardware model number:	OX4-SRSoftware version number:	ORYX F/W v4.00 Oryx Data Collector v3.7.2.0data status	okinstallation	princeton_trtdifferential loss correction	single-endedforward channel	channel 4reverse channel	N/Adate	2019/09/14time	05:57:34forward acquisition time	60.00reverse acquisition time	0.00gamma	496.2192k internal	0.2322k external	0.2322temperature offset calibration	1.0133default loss term (dB/km)	0.3790temperature slope calibration	1.0000multiplexer offset coefficient	1.0000multiplexer slope coefficient	1.0000fibre end	0.00T internal ref (°C)	26.86T ext. ref 1 (°C)	3.40T ext. ref 2 (°C)	21.11length (m)	temperature (°C)	Stokes	anti-Stokes-747.200	2.920	-0.208	-0.152
-746.185	543.772	-0.086	-0.207
-745.171	-49.934	0.399	-0.191
-744.156	103.951	0.234	0.278
-743.142	-138.368	-0.301	0.034
-742.127	570.332	-0.073	0.180
-741.112	-117.488	0.622	0.114
-740.098	46.162	0.184	0.173
-739.083	800.000	0.006	0.021
-738.069	82.764	0.246	0.270
-737.054	-200.000	0.146	0.000
-736.039	-200.000	-0.035	-0.199
-735.025	-134.276	-0.328	0.041
-734.010	800.000	0.014	-0.045
-732.996	72.413	0.022	-0.023
-731.981	-8.284	-0.142	-0.096
-730.966	-67.424	-0.193	-0.076
-729.952	250.315	0.101	0.174
-728.937	-31.541	-0.340	0.193
-727.923	-200.000	0.005	0.118
-726.908	165.142	-0.243	-0.347
-725.894	20.502	-0.138	0.112
-724.879	-88.254	-0.553	-0.167
-723.864	341.532	0.067	0.133
-722.850	44.985	-0.090	0.084
-721.835	79.649	0.073	-0.079
-720.821	451.302	-0.025	0.056
-719.806	443.698	-0.198	-0.439
-718.791	-110.089	-0.230	0.048
-717.777	-54.722	0.134	0.061
-716.762	-200.000	0.080	-0.436
-715.748	126.717	0.130	-0.166
-714.733	-200.000	0.004	0.083
-713.718	-67.497	0.334	0.132
-712.704	-97.848	0.150	0.039
-711.689	-77.664	-0.224	0.078
-710.675	-97.516	0.289	0.076
-709.660	-72.301	0.055	-0.020
-708.645	-82.207	0.259	0.085
-707.631	-51.066	0.113	0.053
-706.616	-200.000	-0.003	-0.118
-705.602	-101.790	0.141	-0.034
-704.587	115.327	-0.180	-0.222
-703.572	166.526	-0.059	0.084
-702.558	-47.871	-0.214	0.104
-701.543	-89.824	-0.365	0.108
-700.529	75.244	0.216	-0.230
-699.514	129.023	-0.167	-0.215
-698.499	103.124	0.155	-0.183
-697.485	67.630	-0.234	-0.241
-696.470	-99.752	0.337	-0.085
-695.456	234.824	0.208	-0.346
-694.441	-53.616	-0.402	-0.185
-693.426	800.000	0.096	-0.411
-692.412	-98.247	0.200	-0.052
-691.397	-40.716	-0.168	0.088
-690.383	237.389	-0.121	-0.202
-689.368	-81.322	0.248	0.082
-688.354	-48.080	-0.328	-0.160
-687.339	76.755	0.224	-0.239
-686.324	-200.000	0.018	0.099
-685.310	64.022	0.207	-0.209
-684.295	230.893	-0.101	0.167
-683.281	-0.736	-0.138	0.098
-682.266	233.841	-0.157	-0.260
-681.251	112.487	0.191	-0.232
-680.237	800.000	-0.124	0.368
-679.222	320.991	0.241	-0.461
-678.208	98.200	-0.142	0.165
-677.193	-175.812	-0.354	0.010
-676.178	331.078	-0.173	0.336
-675.164	-58.735	0.075	0.033
-674.149	800.000	-0.046	0.185
-673.135	117.186	-0.160	-0.199
-672.120	-200.000	-0.004	-0.105
-671.105	800.000	-0.064	0.255
-670.091	397.687	0.141	0.296
-669.076	-148.272	0.149	0.012
-668.062	-200.000	-0.046	-0.243
-667.047	58.036	-0.134	-0.132
-666.032	800.000	-0.119	-0.375
-665.018	800.000	-0.025	-0.089
-664.003	-53.045	-0.238	0.110
-662.989	-146.772	-0.286	-0.025
-661.974	330.891	0.102	-0.198
-660.959	800.000	-0.077	-0.292
-659.945	-71.854	-0.193	-0.072
-658.930	282.351	-0.083	-0.149
-657.916	9.905	0.208	-0.159
-656.901	146.930	0.150	0.203
-655.886	774.181	-0.028	-0.077
-654.872	9.486	0.194	-0.148
-653.857	800.000	-0.101	-0.311
-652.843	540.045	-0.091	0.218
-651.828	-200.000	-0.013	0.155
-650.814	9.919	0.163	0.124
-649.799	339.864	0.088	-0.173
-648.784	649.442	0.052	0.134
-647.770	48.647	-0.150	0.141
-646.755	-200.000	-0.019	0.094
-645.741	-98.505	0.106	-0.027
-644.726	65.880	0.153	0.156
-643.711	-200.000	-0.033	0.179
-642.697	51.425	-0.207	0.198
-641.682	800.000	-0.076	0.258
-640.668	62.301	-0.183	0.184
-639.653	-176.880	-0.113	-0.003
-638.638	-141.080	0.614	-0.063
-637.624	-79.318	0.275	-0.094
-636.609	-163.698	0.474	0.022
-635.595	-130.860	0.252	-0.034
-634.580	327.094	0.131	0.253
-633.565	505.075	0.093	0.217
-632.551	-122.170	-0.190	0.031
-631.536	-16.162	-0.279	-0.178
-630.522	-15.569	-0.212	0.136
-629.507	-97.759	0.265	0.069
-628.492	24.280	0.109	0.090
-627.478	-80.555	-0.132	-0.044
-626.463	-45.918	0.141	-0.070
-625.449	120.376	0.204	-0.254
-624.434	148.177	0.164	-0.222
-623.419	-141.085	-0.473	-0.049
-622.405	379.902	-0.054	-0.111
-621.390	343.334	0.042	0.084
-620.376	-122.092	-0.067	0.011
-619.361	25.023	-0.146	-0.122
-618.346	-200.000	0.066	-0.348
-617.332	-200.000	0.001	-0.146
-616.317	-178.626	0.184	-0.004
-615.303	-103.700	-0.263	0.062
-614.288	800.000	0.029	-0.125
-613.273	-27.630	-0.168	-0.098
-612.259	-200.000	-0.028	0.140
-611.244	-200.000	0.021	0.304
-610.230	34.680	-0.207	0.182
-609.215	47.143	-0.073	0.068
-608.201	-200.000	0.020	-0.094
-607.186	-200.000	0.036	-0.236
-606.171	-91.785	0.092	-0.026
-605.157	-101.654	0.308	-0.075
-604.142	-200.000	0.034	-0.299
-603.128	-200.000	0.002	0.258
-602.113	-200.000	0.010	-0.093
-601.098	-13.790	0.083	0.054
-600.084	236.836	0.092	0.153
-599.069	17.393	-0.067	-0.053
-598.055	310.659	-0.093	0.175
-597.040	552.427	0.009	0.022
-596.025	-162.634	0.092	-0.005
-595.011	-49.078	0.216	0.104
-593.996	451.778	0.038	0.084
-592.982	-73.559	0.122	0.045
-591.967	165.575	0.061	-0.086
-590.952	3.369	-0.128	0.094
-589.938	-200.000	-0.027	0.207
-588.923	-200.000	-0.003	-0.343
-587.909	37.918	-0.205	-0.183
-586.894	389.531	-0.129	0.269
-585.879	76.629	0.126	-0.135
-584.865	269.589	0.075	0.132
-583.850	161.862	0.060	-0.085
-582.836	800.000	-0.066	-0.194
-581.821	-46.526	-0.160	0.079
-580.806	42.228	0.260	0.237
-579.792	-200.000	0.006	0.310
-578.777	278.780	-0.141	0.253
-577.763	-144.247	-0.045	-0.004
-576.748	39.953	0.064	-0.057
-575.733	800.000	-0.035	0.122
-574.719	800.000	-0.080	0.245
-573.704	218.759	-0.075	0.120
-572.690	-16.761	0.207	0.132
-571.675	-2.487	0.206	0.145
-570.661	800.000	-0.130	0.396
-569.646	-200.000	0.033	-0.150
-568.631	14.203	-0.228	-0.179
-567.617	96.140	-0.107	-0.122
-566.602	119.713	-0.038	0.047
-565.588	-200.000	0.050	0.340
-564.573	-200.000	0.022	0.461
-563.558	-200.000	0.055	0.307
-562.544	294.460	0.044	-0.080
-561.529	304.768	-0.096	0.179
-560.515	-82.319	0.195	-0.064
-559.500	199.942	0.056	0.086
-558.485	-116.394	0.109	-0.020
-557.471	-200.000	0.009	-0.221
-556.456	-77.990	0.110	-0.038
-555.442	-34.704	-0.167	0.091
-554.427	123.995	0.108	0.136
-553.412	777.276	0.082	0.226
-552.398	-71.154	-0.312	-0.117
-551.383	142.996	-0.343	-0.457
-550.369	-82.907	0.165	-0.053
-549.354	-179.287	0.149	0.003
-548.339	77.818	0.071	0.076
-547.325	-31.450	0.192	0.108
-546.310	-56.869	0.270	0.119
-545.296	-53.303	-0.099	-0.045
-544.281	-184.478	-0.322	-0.005
-543.266	-128.241	-0.449	-0.064
-542.252	-200.000	-0.038	-0.200
-541.237	800.000	-0.079	-0.261
-540.223	-143.711	-0.046	0.004
-539.208	117.526	0.112	-0.138
-538.193	-45.056	0.310	0.155
-537.179	-109.756	0.237	0.050
-536.164	340.943	0.068	0.133
-535.150	800.000	-0.081	0.246
-534.135	182.851	-0.147	-0.217
-533.121	90.295	-0.121	-0.136
-532.106	-119.090	0.129	0.023
-531.091	-200.000	0.032	-0.165
-530.077	57.317	0.306	-0.299
-529.062	701.563	0.067	-0.178
-528.048	-4.263	0.125	0.087
-527.033	-200.000	-0.049	0.391
-526.018	338.368	-0.274	-0.535
-525.004	800.000	0.069	-0.218
-523.989	800.000	0.036	-0.099
-522.975	-106.989	-0.115	-0.025
-521.960	288.379	0.068	0.124
-520.945	800.000	0.042	-0.155
-519.931	800.000	0.055	-0.241
-518.916	-130.954	0.122	0.016
-517.902	528.220	-0.036	-0.085
-516.887	266.128	0.184	0.322
-515.872	-200.000	-0.006	0.500
-514.858	292.486	0.135	0.246
-513.843	-71.789	-0.318	-0.119
-512.829	236.772	-0.057	-0.095
-511.814	-52.293	-0.147	-0.068
-510.799	-200.000	-0.062	-0.294
-509.785	696.102	-0.072	0.190
-508.770	334.852	-0.172	0.334
-507.756	25.127	-0.172	-0.143
-506.741	-200.000	-0.022	-0.180
-505.726	-8.994	0.204	-0.137
-504.712	337.663	-0.095	0.185
-503.697	398.016	-0.033	0.068
-502.683	-19.609	-0.193	0.120
-501.668	57.351	-0.163	-0.159
-500.653	800.000	0.030	-0.115
-499.639	-200.000	0.016	0.078
-498.624	-200.000	0.028	-0.126
-497.610	758.635	-0.050	0.134
-496.595	-80.345	0.186	0.062
-495.581	148.910	-0.159	-0.215
-494.566	-59.717	-0.360	-0.155
-493.551	582.779	-0.045	-0.112
-492.537	214.231	-0.119	-0.189
-491.522	-200.000	0.020	0.104
-490.508	-100.208	-0.036	-0.009
-489.493	429.700	-0.121	0.262
-488.478	-200.000	0.015	0.148
-487.464	-28.706	-0.349	-0.201
-486.449	-19.109	0.097	-0.060
-485.435	115.562	0.172	0.211
-484.420	-19.952	0.224	0.139
-483.405	-200.000	0.007	0.368
-482.391	17.972	0.343	-0.273
-481.376	-165.958	-0.220	0.009
-480.362	-15.352	-0.148	-0.094
-479.347	17.345	0.276	-0.219
-478.332	449.004	0.114	-0.252
-477.318	800.000	-0.072	-0.222
-476.303	-200.000	-0.063	0.392
-475.289	-30.462	0.093	-0.053
-474.274	270.748	-0.009	-0.015
-473.259	-5.783	-0.243	0.166
-472.245	800.000	0.116	-0.375
-471.230	39.987	-0.054	0.048
-470.216	-174.393	-0.208	0.006
-469.201	-43.360	-0.174	0.088
-468.186	-90.976	-0.137	0.039
-467.172	-200.000	0.034	-0.266
-466.157	-186.926	-0.260	0.004
-465.143	-78.958	0.117	0.040
-464.128	509.867	0.172	0.399
-463.113	-148.731	-0.144	0.012
-462.099	-200.000	0.016	-0.417
-461.084	-72.764	-0.067	-0.025
-460.070	-132.515	0.394	0.051
-459.055	82.128	-0.112	-0.121
-458.040	-105.427	-0.265	-0.060
-457.026	-200.000	-0.017	-0.256
-456.011	-60.398	-0.040	-0.017
-454.997	758.967	0.059	-0.159
-453.982	79.343	0.261	-0.280
-452.968	74.830	-0.293	0.308
-451.953	3.295	0.106	0.077
-450.938	-200.000	0.004	0.203
-449.924	-122.100	-0.066	0.011
-448.909	-136.566	-0.317	-0.037
-447.895	-82.284	-0.143	-0.047
-446.880	-200.000	0.003	0.022
-445.865	-139.681	0.450	0.048
-444.851	461.783	-0.131	-0.292
-443.836	-89.944	-0.112	0.033
-442.822	-47.695	0.220	0.107
-441.807	747.588	-0.065	0.175
-440.792	203.362	-0.158	-0.244
-439.778	-200.000	0.029	-0.302
-438.763	189.842	0.093	0.140
-437.749	170.534	0.176	-0.252
-436.734	91.580	-0.061	0.068
-435.719	318.835	0.097	0.184
-434.705	380.812	0.091	0.186
-433.690	76.385	-0.313	0.331
-432.676	-200.000	0.033	0.217
-431.661	321.171	-0.132	0.251
-430.646	-200.000	0.008	-0.289
-429.632	-200.000	-0.022	-0.144
-428.617	350.356	-0.058	-0.114
-427.603	124.233	-0.121	-0.152
-426.588	105.898	-0.152	0.179
-425.573	-65.738	-0.229	-0.091
-424.559	143.316	0.290	-0.385
-423.544	-25.728	0.060	-0.036
-422.530	-67.974	0.218	-0.085
-421.515	-200.000	0.015	0.305
-420.500	-142.208	-0.092	-0.009
-419.486	-103.360	-0.141	0.033
-418.471	-200.000	-0.018	0.314
-417.457	-136.494	-0.134	-0.016
-416.442	-167.903	0.282	-0.011
-415.428	-44.927	-0.157	-0.078
-414.413	-32.828	-0.211	0.117
-413.398	-0.752	-0.064	0.046
-412.384	343.706	-0.097	0.189
-411.369	134.954	0.120	0.155
-410.355	307.351	0.092	-0.171
-409.340	-28.749	-0.216	-0.124
-408.325	16.740	0.229	0.181
-407.311	-200.000	-0.029	-0.168
-406.296	-107.115	0.171	0.038
-405.282	544.631	0.038	-0.091
-404.267	-153.401	-0.155	0.011
-403.252	75.564	-0.308	-0.324
-402.238	-200.000	0.007	0.202
-401.223	-169.929	-0.309	0.011
-400.209	73.166	0.066	0.069
-399.194	292.193	0.221	-0.402
-398.179	246.280	0.099	-0.167
-397.165	-200.000	0.046	0.342
-396.150	227.039	0.031	-0.050
-395.136	65.105	0.106	0.106
-394.121	7.852	0.296	0.221
-393.106	34.681	0.189	0.164
-392.092	-200.000	0.038	0.171
-391.077	800.000	-0.129	0.358
-390.063	-44.147	0.141	-0.070
-389.048	-26.975	0.215	0.125
-388.033	-84.296	0.306	-0.096
-387.019	-132.464	-0.242	-0.031
-386.004	375.106	-0.061	-0.123
-384.990	800.000	-0.070	-0.260
-383.975	-92.585	-0.114	-0.032
-382.960	-15.757	-0.247	-0.157
-381.946	-59.877	-0.290	-0.123
-380.931	-21.204	0.168	0.102
-379.917	134.031	0.078	0.100
-378.902	576.446	0.066	-0.161
-377.888	-200.000	-0.068	-0.369
-376.873	-33.595	-0.088	-0.049
-375.858	-200.000	-0.060	-0.280
-374.844	-200.000	0.250	0.001
-373.829	3.931	0.200	0.146
-372.815	-120.997	0.275	0.046
-371.800	82.942	0.250	0.271
-370.785	-54.091	0.135	-0.061
-369.771	-200.000	-0.043	0.277
-368.756	800.000	0.109	-0.381
-367.742	-140.345	0.287	-0.030
-366.727	442.079	-0.059	-0.129
-365.712	256.167	0.047	-0.080
-364.698	573.898	0.161	-0.391
-363.683	55.135	-0.148	0.143
-362.669	-169.568	0.461	-0.017
-361.654	163.852	0.025	-0.036
-360.639	189.881	-0.161	-0.241
-359.625	-146.914	0.259	0.022
-358.610	59.905	0.086	0.085
-357.596	170.042	-0.310	-0.441
-356.581	800.000	-0.084	0.232
-355.566	42.942	0.133	-0.121
-354.552	-200.000	0.006	0.150
-353.537	800.000	0.107	0.369
-352.523	-153.967	-0.342	-0.023
-351.508	27.974	-0.078	-0.066
-350.493	-73.348	-0.226	-0.082
-349.479	16.871	-0.089	-0.070
-348.464	478.202	-0.076	0.171
-347.450	78.491	0.063	-0.067
-346.435	800.000	-0.041	-0.117
-345.420	-200.000	-0.054	-0.279
-344.406	-200.000	-0.012	-0.094
-343.391	319.673	-0.036	-0.068
-342.377	-119.250	0.079	-0.014
-341.362	800.000	-0.067	0.201
-340.348	-118.174	-0.229	0.041
-339.333	-200.000	-0.005	0.109
-338.318	-159.005	-0.067	0.004
-337.304	191.125	0.229	-0.343
-336.289	-200.000	-0.047	0.376
-335.275	-0.616	0.076	0.054
-334.260	773.624	-0.132	-0.359
-333.245	-36.051	-0.319	0.171
-332.231	-50.318	0.290	0.136
-331.216	773.848	0.068	-0.185
-330.202	-64.258	0.221	0.090
-329.187	125.903	-0.102	0.129
-328.172	-166.474	-0.073	0.003
-327.158	-12.340	0.155	-0.101
-326.143	800.000	-0.070	0.209
-325.129	-51.311	-0.129	-0.060
-324.114	-14.175	0.105	-0.067
-323.099	-29.877	0.112	-0.063
-322.085	65.546	0.081	-0.081
-321.070	115.329	0.058	0.071
-320.056	-103.309	-0.151	-0.035
-319.041	-96.372	0.255	-0.067
-318.026	800.000	0.083	0.239
-317.012	-13.976	-0.061	-0.039
-315.997	-46.580	-0.495	-0.241
-314.983	735.452	0.050	0.133
-313.968	494.074	0.137	0.312
-312.953	397.376	-0.180	0.375
-311.939	610.752	0.169	0.420
-310.924	-15.697	-0.142	-0.090
-309.910	-8.823	0.343	-0.229
-308.895	70.840	-0.083	-0.085
-307.880	-190.399	0.255	-0.003
-306.866	173.840	0.013	0.019
-305.851	169.472	-0.097	0.137
-304.837	800.000	0.041	-0.172
-303.822	578.288	-0.043	0.105
-302.807	179.072	-0.068	-0.098
-301.793	-200.000	0.084	-0.403
-300.778	-129.886	0.378	-0.051
-299.764	182.563	-0.190	-0.279
-298.749	-200.000	-0.021	-0.210
-297.735	-88.780	-0.037	0.011
-296.720	696.540	0.035	0.092
-295.705	800.000	-0.020	0.074
-294.691	695.527	-0.030	-0.077
-293.676	-59.733	-0.084	-0.036
-292.662	-97.784	0.418	0.107
-291.647	187.449	-0.114	-0.169
-290.632	700.389	-0.038	0.100
-289.618	-200.000	-0.007	-0.046
-288.603	-200.000	-0.001	-0.131
-287.589	235.048	-0.032	0.053
-286.574	30.546	0.256	-0.217
-285.559	182.453	0.074	-0.108
-284.545	650.615	0.050	-0.128
-283.530	-8.598	0.418	0.279
-282.516	-200.000	0.005	0.208
-281.501	151.647	-0.222	0.300
-280.486	215.867	-0.064	-0.101
-279.472	-36.741	0.369	-0.197
-278.457	800.000	-0.030	0.094
-277.443	356.790	-0.092	-0.181
-276.428	-94.489	0.209	0.056
-275.413	800.000	-0.099	0.299
-274.399	-63.590	-0.281	-0.114
-273.384	-139.137	0.317	0.034
-272.370	126.255	-0.019	-0.024
-271.355	-70.584	-0.177	-0.067
-270.340	206.225	0.234	-0.362
-269.326	-162.913	0.060	-0.003
-268.311	289.555	0.086	0.155
-267.297	218.615	0.069	-0.109
-266.282	-11.238	0.215	0.140
-265.267	-136.057	-0.510	0.059
-264.253	-16.632	-0.311	0.195
-263.238	-16.977	-0.094	-0.059
-262.224	28.759	-0.136	0.114
-261.209	800.000	-0.046	-0.151
-260.195	800.000	-0.056	0.241
-259.180	22.711	-0.127	-0.103
-258.165	-64.257	-0.139	-0.056
-257.151	-200.000	-0.024	-0.227
-256.136	-32.116	0.206	-0.114
-255.122	3.752	-0.244	0.176
-254.107	72.309	-0.087	0.089
-253.092	-71.362	-0.146	0.054
-252.078	140.433	-0.068	-0.089
-251.063	-41.601	-0.039	0.020
-250.049	-103.812	-0.257	0.060
-249.034	-2.758	0.176	0.122
-248.019	-200.000	-0.013	-0.183
-247.005	-34.057	-0.263	-0.143
-245.990	-175.459	-0.172	-0.005
-244.976	-83.335	0.122	0.039
-243.961	-18.512	-0.118	0.073
-242.946	-17.545	-0.218	0.136
-241.932	-200.000	-0.006	-0.246
-240.917	-48.127	0.119	0.057
-239.903	82.246	-0.121	-0.130
-238.888	359.422	-0.140	-0.277
-237.873	-124.375	-0.063	0.010
-236.859	-128.189	0.091	0.013
-235.844	7.860	0.250	0.185
-234.830	-200.000	-0.024	0.110
-233.815	135.563	0.074	0.095
-232.800	-28.993	-0.147	0.084
-231.786	145.769	-0.181	-0.240
-230.771	-69.739	-0.161	-0.061
-229.757	-125.421	-0.075	-0.011
-228.742	-144.753	-0.037	-0.003
-227.727	800.000	-0.047	-0.138
-226.713	-87.047	-0.051	0.015
-225.698	800.000	0.096	-0.275
-224.684	211.966	0.070	-0.109
-223.669	-132.035	0.104	-0.013
-222.655	66.258	0.038	-0.038
-221.640	-200.000	0.093	-0.458
-220.625	-24.333	-0.313	0.185
-219.611	-22.766	-0.273	0.163
-218.596	-50.789	-0.174	-0.081
-217.582	800.000	-0.055	-0.176
-216.567	1.752	-0.111	0.079
-215.552	108.303	0.058	0.069
-214.538	-6.378	0.192	0.130
-213.523	-93.613	-0.123	0.034
-212.509	40.378	0.065	0.058
-211.494	-168.727	-0.129	0.005
-210.479	542.710	0.140	-0.331
-209.465	-89.941	0.091	-0.026
-208.450	-118.864	0.077	-0.013
-207.436	-5.087	0.201	-0.137
-206.421	-200.000	0.008	0.053
-205.406	800.000	-0.129	-0.407
-204.392	-200.000	0.006	-0.305
-203.377	193.729	-0.034	0.050
-202.363	-200.000	-0.073	-0.464
-201.348	-107.162	0.240	-0.052
-200.333	47.684	-0.103	0.095
-199.319	-35.810	-0.234	0.125
-198.304	410.031	0.182	0.381
-197.290	437.091	0.048	0.104
-196.275	-175.448	-0.398	0.011
-195.260	9.574	0.196	0.147
-194.246	800.000	0.034	0.101
-193.231	-51.229	0.257	-0.119
-192.217	-108.144	0.234	-0.050
-191.202	69.016	-0.047	0.048
-190.187	-95.982	0.073	0.019
-189.173	-164.597	-0.260	0.012
-188.158	-200.000	0.011	0.289
-187.144	-200.000	0.034	0.289
-186.129	-88.919	-0.367	0.108
-185.114	570.911	-0.127	0.306
-184.100	-200.000	-0.005	-0.026
-183.085	51.945	-0.232	-0.219
-182.071	-200.000	-0.050	-0.357
-181.056	5.616	0.295	0.215
-180.042	-27.121	0.312	0.180
-179.027	-61.811	-0.084	0.035
-178.012	27.986	0.170	0.142
-176.998	-54.701	-0.316	-0.141
-175.983	-200.000	-0.005	0.175
-174.969	800.000	-0.062	0.230
-173.954	-200.000	0.000	-0.081
-172.939	800.000	0.028	0.113
-171.925	40.864	0.139	0.124
-170.910	-65.255	-0.098	-0.039
-169.896	-200.000	-0.012	0.000
-168.881	170.663	-0.084	0.119
-167.866	0.125	0.158	0.112
-166.852	800.000	0.121	0.354
-165.837	210.373	0.142	-0.220
-164.823	-90.902	0.281	-0.080
-163.808	-101.645	0.194	-0.046
-162.793	190.268	0.091	0.136
-161.779	-123.887	0.347	0.054
-160.764	171.393	-0.072	0.102
-159.750	140.499	0.230	-0.300
-158.735	-152.568	-0.381	-0.027
-157.720	285.545	-0.117	0.208
-156.706	800.000	0.002	0.009
-155.691	-157.735	0.107	0.006
-154.677	-87.354	0.361	0.108
-153.662	55.735	-0.270	0.258
-152.647	-200.000	-0.007	-0.387
-151.633	-46.220	0.088	-0.043
-150.618	-20.701	-0.189	-0.115
-149.604	60.673	0.109	0.106
-148.589	636.402	0.015	0.037
-147.574	-200.000	-0.018	0.177
-146.560	112.959	0.166	0.199
-145.545	13.618	-0.374	0.287
-144.531	-1.632	0.202	0.140
-143.516	800.000	-0.037	-0.141
-142.502	89.153	-0.076	-0.084
-141.487	738.903	0.102	-0.271
-140.472	-60.381	0.194	0.082
-139.458	800.000	0.041	-0.171
-138.443	-131.566	0.094	0.012
-137.429	3.430	-0.219	0.157
-136.414	280.003	-0.162	-0.286
-135.399	209.409	0.069	0.107
-134.385	-200.000	0.001	-0.217
-133.370	-140.088	0.013	0.001
-132.356	-66.327	-0.302	0.119
-131.341	443.034	0.110	-0.238
-130.326	800.000	-0.017	0.068
-129.312	81.837	0.186	-0.198
-128.297	-157.770	0.100	0.006
-127.283	266.338	0.108	0.185
-126.268	71.177	0.201	-0.205
-125.253	-27.645	-0.175	0.100
-124.239	-144.246	-0.099	0.009
-123.224	509.499	-0.069	-0.158
-122.210	-200.000	-0.037	-0.220
-121.195	83.933	-0.054	-0.058
