DTS Sentinel unit serial number:	SN413079Multiplexer serial number:	ORYXHardware model number:	OX4-SRSoftware version number:	ORYX F/W v4.00 Oryx Data Collector v3.7.2.0data status	okinstallation	princeton_trtdifferential loss correction	single-endedforward channel	channel 4reverse channel	N/Adate	2019/09/12time	07:59:10forward acquisition time	60.00reverse acquisition time	0.00gamma	496.2192k internal	0.2303k external	0.2303temperature offset calibration	1.0068default loss term (dB/km)	0.3790temperature slope calibration	1.0000multiplexer offset coefficient	1.0000multiplexer slope coefficient	1.0000fibre end	0.00T internal ref (°C)	33.02T ext. ref 1 (°C)	1.67T ext. ref 2 (°C)	29.45length (m)	temperature (°C)	Stokes	anti-Stokes-747.200	589.461	0.038	-0.095
-746.185	-200.000	-0.010	-0.077
-745.171	62.611	-0.244	-0.248
-744.156	613.991	0.107	0.274
-743.142	-121.028	0.175	-0.030
-742.127	800.000	0.058	0.243
-741.112	-200.000	0.029	0.187
-740.098	8.988	-0.247	0.190
-739.083	800.000	0.105	0.301
-738.069	-200.000	-0.001	0.213
-737.054	-140.297	-0.500	0.053
-736.039	89.495	-0.165	0.188
-735.025	-97.686	0.306	0.081
-734.010	800.000	0.039	-0.119
-732.996	157.524	-0.265	-0.374
-731.981	102.660	0.101	-0.121
-730.966	-89.810	0.183	0.054
-729.952	-169.566	0.195	-0.007
-728.937	-200.000	-0.008	-0.226
-727.923	28.773	-0.261	0.225
-726.908	-84.539	0.099	0.032
-725.894	210.811	-0.059	-0.095
-724.879	108.325	0.125	-0.152
-723.864	-200.000	0.204	0.001
-722.850	70.080	0.151	-0.158
-721.835	-96.720	0.271	0.073
-720.821	-26.201	-0.218	-0.130
-719.806	-54.333	-0.081	-0.037
-718.791	-200.000	-0.039	-0.391
-717.777	166.624	-0.059	-0.086
-716.762	-200.000	-0.011	0.178
-715.748	-80.807	0.176	-0.060
-714.733	-200.000	0.084	-0.375
-713.718	361.209	-0.028	-0.058
-712.704	118.326	0.103	0.129
-711.689	287.840	-0.131	0.241
-710.675	-128.739	0.139	0.020
-709.660	681.760	-0.031	0.083
-708.645	15.439	-0.112	-0.089
-707.631	35.713	0.046	-0.041
-706.616	-200.000	-0.002	-0.149
-705.602	-156.480	-0.032	-0.002
-704.587	152.862	-0.169	0.235
-703.572	206.733	-0.131	0.207
-702.558	-41.377	0.122	-0.064
-701.543	4.818	-0.328	-0.246
-700.529	-200.000	0.103	0.000
-699.514	-200.000	0.003	0.075
-698.499	217.890	-0.148	0.240
-697.485	24.729	0.234	-0.197
-696.470	-79.566	-0.340	-0.117
-695.456	366.880	-0.039	-0.079
-694.441	275.501	0.147	-0.265
-693.426	-200.000	0.002	-0.038
-692.412	-165.877	-0.264	-0.012
-691.397	-105.361	0.291	-0.067
-690.383	-13.058	-0.280	0.185
-689.368	-118.158	-0.118	0.021
-688.354	10.061	-0.126	-0.097
-687.339	-136.824	-0.385	0.045
-686.324	-100.081	0.246	-0.062
-685.310	-200.000	0.013	-0.107
-684.295	-200.000	-0.002	-0.225
-683.281	-175.050	-0.297	-0.008
-682.266	800.000	-0.017	-0.065
-681.251	-17.374	0.163	-0.104
-680.237	-24.503	-0.341	-0.206
-679.222	131.468	0.115	0.150
-678.208	279.160	0.041	0.075
-677.193	-144.909	0.079	-0.007
-676.178	241.267	0.212	0.360
-675.164	624.992	-0.182	0.467
-674.149	-188.188	0.363	-0.005
-673.135	100.005	-0.214	-0.252
-672.120	68.666	-0.267	-0.278
-671.105	125.945	0.112	-0.143
-670.091	314.115	-0.174	-0.333
-669.076	-120.492	-0.367	-0.063
-668.062	294.318	-0.068	-0.126
-667.047	81.128	-0.111	0.121
-666.032	88.524	0.288	-0.325
-665.018	-163.249	0.202	0.010
-664.003	-57.271	-0.117	-0.052
-662.989	-56.042	0.349	-0.158
-661.974	-98.303	-0.510	-0.133
-660.959	17.008	0.250	0.201
-659.945	69.030	0.233	0.243
-658.930	-37.278	0.352	0.191
-657.916	646.538	0.012	-0.032
-656.901	-200.000	-0.014	-0.398
-655.886	-106.877	-0.246	-0.055
-654.872	-100.041	0.204	-0.052
-653.857	-78.962	-0.267	0.092
-652.843	-89.021	-0.135	0.041
-651.828	-200.000	-0.019	0.447
-650.814	153.976	-0.175	-0.244
-649.799	390.450	0.065	-0.136
-648.784	35.379	0.260	0.232
-647.770	278.711	-0.191	-0.346
-646.755	-43.399	-0.330	-0.169
-645.741	-20.843	-0.163	0.102
-644.726	126.337	0.021	0.026
-643.711	91.126	-0.093	-0.106
-642.697	800.000	-0.104	-0.302
-641.682	11.984	-0.169	0.132
-640.668	59.719	-0.157	0.157
-639.653	-134.717	0.405	-0.050
-638.638	-73.609	-0.437	-0.162
-637.624	178.549	-0.050	0.074
-636.609	203.018	-0.171	-0.268
-635.595	-200.000	-0.034	-0.307
-634.580	-13.288	-0.294	-0.194
-633.565	800.000	-0.038	-0.111
-632.551	37.193	-0.162	-0.146
-631.536	75.588	0.086	-0.092
-630.522	-93.202	0.256	-0.072
-629.507	359.428	0.084	0.170
-628.492	-200.000	-0.012	-0.125
-627.478	188.014	-0.093	0.141
-626.463	441.437	-0.121	0.269
-625.449	31.759	-0.189	-0.165
-624.434	-86.831	-0.339	-0.105
-623.419	97.353	0.057	0.066
-622.405	-200.000	0.016	-0.212
-621.390	222.609	0.137	-0.224
-620.376	618.365	0.060	0.153
-619.361	329.695	-0.088	-0.172
-618.346	-39.896	-0.194	0.103
-617.332	1.002	-0.186	-0.135
-616.317	-200.000	-0.017	-0.410
-615.303	-200.000	-0.025	-0.157
-614.288	329.829	-0.130	0.254
-613.273	800.000	0.027	0.090
-612.259	432.933	0.088	-0.193
-611.244	42.357	-0.199	-0.184
-610.230	253.942	-0.187	-0.323
-609.215	358.903	0.137	-0.277
-608.201	362.895	-0.170	0.347
-607.186	-126.366	-0.180	0.027
-606.171	-200.000	0.021	-0.353
-605.157	800.000	-0.040	0.167
-604.142	29.404	0.076	0.066
-603.128	23.219	-0.044	0.036
-602.113	-55.862	-0.153	0.069
-601.098	-19.020	-0.128	0.081
-600.084	76.980	-0.104	0.112
-599.069	112.200	0.099	-0.121
-598.055	-61.014	-0.074	-0.032
-597.040	-200.000	0.002	-0.196
-596.025	70.485	-0.063	0.066
-595.011	-140.794	-0.286	0.030
-593.996	-200.000	-0.026	-0.127
-592.982	354.972	-0.140	0.282
-591.967	650.587	-0.021	0.054
-590.952	385.350	-0.049	-0.103
-589.938	-90.609	-0.296	0.087
-588.923	-123.368	-0.065	0.011
-587.909	-17.063	0.267	-0.171
-586.894	-200.000	-0.006	-0.377
-585.879	98.458	-0.188	0.220
-584.865	471.895	0.060	0.137
-583.850	-200.000	-0.060	-0.276
-582.836	268.011	-0.024	0.042
-581.821	-200.000	-0.053	0.504
-580.806	-55.288	-0.033	0.015
-579.792	-200.000	-0.018	-0.216
-578.777	-90.578	0.103	-0.030
-577.763	-149.737	0.240	-0.019
-576.748	-200.000	-0.044	-0.546
-575.733	-163.253	-0.343	0.017
-574.719	-35.548	-0.124	-0.068
-573.704	800.000	0.131	-0.373
-572.690	206.340	0.098	0.155
-571.675	-200.000	0.001	-0.234
-570.661	233.534	-0.207	0.345
-569.646	45.427	-0.274	-0.256
-568.631	207.141	-0.117	0.185
-567.617	-197.294	-0.030	0.000
-566.602	46.226	0.139	-0.130
-565.588	93.071	-0.190	0.218
-564.573	-12.453	0.218	-0.144
-563.558	14.967	0.213	0.169
-562.544	-51.266	-0.289	-0.137
-561.529	800.000	-0.085	-0.249
-560.515	-154.372	-0.117	-0.008
-559.500	17.618	0.381	0.307
-558.485	-59.937	0.113	-0.049
-557.471	59.385	0.146	0.146
-556.456	-55.579	0.371	-0.168
-555.442	-200.000	-0.006	-0.176
-554.427	-24.506	0.183	-0.110
-553.412	623.241	-0.118	-0.301
-552.398	-200.000	-0.013	0.083
-551.383	800.000	-0.004	0.015
-550.369	-28.023	-0.178	-0.104
-549.354	382.278	0.095	0.197
-548.339	-53.593	-0.230	-0.106
-547.325	51.134	0.166	-0.160
-546.310	602.893	0.055	0.138
-545.296	-55.140	0.148	-0.067
-544.281	-200.000	-0.008	0.098
-543.266	-71.686	0.168	0.063
-542.252	-5.896	0.151	-0.105
-541.237	-200.000	-0.014	-0.124
-540.223	-200.000	0.065	0.318
-539.208	-98.632	-0.342	0.088
-538.193	-134.711	-0.310	-0.038
-537.179	293.913	0.152	-0.280
-536.164	-97.275	0.111	-0.029
-535.150	800.000	-0.017	-0.068
-534.135	162.257	0.096	0.136
-533.121	-200.000	-0.059	0.288
-532.106	146.125	-0.164	0.223
-531.091	178.460	0.055	-0.080
-530.077	466.000	-0.042	-0.095
-529.062	-62.544	-0.122	0.051
-528.048	-200.000	-0.051	0.645
-527.033	15.922	0.443	0.352
-526.018	-200.000	0.014	0.065
-525.004	580.734	-0.015	0.036
-523.989	2.350	0.465	0.340
-522.975	-122.308	0.346	-0.057
-521.960	-47.851	-0.212	-0.104
-520.945	97.152	0.186	0.215
-519.931	800.000	0.079	-0.288
-518.916	59.290	-0.065	-0.064
-517.902	-200.000	0.018	0.079
-516.887	-29.782	0.238	-0.137
-515.872	180.026	-0.139	-0.206
-514.858	-98.868	0.050	-0.013
-513.843	489.333	0.158	0.365
-512.829	-200.000	0.007	0.104
-511.814	-80.524	0.201	0.067
-510.799	104.466	0.169	0.201
-509.785	504.490	0.125	0.293
-508.770	-91.525	0.175	0.050
-507.756	-137.342	-0.259	0.030
-506.741	-81.981	-0.228	-0.075
-505.726	-176.306	-0.190	-0.005
-504.712	-21.559	0.134	0.083
-503.697	800.000	0.062	0.258
-502.683	92.374	-0.409	-0.465
-501.668	85.413	-0.135	-0.149
-500.653	-200.000	-0.025	0.265
-499.639	84.974	-0.067	0.074
-498.624	750.652	0.062	0.168
-497.610	800.000	0.054	0.220
-496.595	-78.091	0.111	-0.038
-495.581	-20.128	-0.084	-0.052
-494.566	-200.000	0.010	0.068
-493.551	800.000	0.069	0.204
-492.537	96.632	0.181	-0.209
-491.522	800.000	0.034	-0.143
-490.508	-52.144	0.128	-0.060
-489.493	377.832	-0.203	0.419
-488.478	85.514	-0.079	-0.088
-487.464	-101.148	0.381	-0.094
-486.449	13.851	0.080	-0.063
-485.435	13.294	-0.179	0.140
-484.420	77.127	0.111	0.119
-483.405	166.383	-0.148	0.211
-482.391	22.154	0.213	0.176
-481.376	133.199	-0.069	-0.090
-480.362	-79.793	-0.402	0.136
-479.347	361.379	-0.116	-0.234
-478.332	-21.960	-0.270	-0.165
-477.318	800.000	0.016	-0.050
-476.303	-33.875	0.216	0.120
-475.289	-67.209	-0.219	-0.087
-474.274	195.554	-0.129	-0.198
-473.259	-118.994	0.148	0.026
-472.245	576.307	0.070	0.173
-471.230	319.158	-0.063	0.121
-470.216	800.000	-0.082	-0.260
-469.201	-116.220	0.159	-0.030
-468.186	-177.497	-0.221	-0.005
-467.172	-12.364	-0.234	-0.154
-466.157	89.115	0.192	0.216
-465.143	-110.596	-0.228	-0.048
-464.128	91.984	-0.198	0.224
-463.113	-200.000	-0.058	0.318
-462.099	-200.000	0.058	0.304
-461.084	173.279	-0.131	-0.190
-460.070	-200.000	-0.042	-0.236
-459.055	150.565	0.121	-0.165
-458.040	-91.704	0.345	0.099
-457.026	101.293	0.063	-0.074
-456.011	-200.000	-0.032	-0.170
-454.997	-82.263	-0.253	0.083
-453.982	-86.968	0.246	0.076
-452.968	523.296	0.150	-0.354
-451.953	-94.718	-0.220	-0.060
-450.938	-200.000	0.002	-0.228
-449.924	-42.907	0.036	-0.018
-448.909	196.812	0.079	-0.122
-447.895	-145.542	-0.365	0.033
-446.880	-62.905	0.096	0.040
-445.865	-123.593	0.071	-0.011
-444.851	-22.412	0.424	-0.259
-443.836	800.000	0.040	-0.117
-442.822	93.186	-0.121	-0.138
-441.807	-60.883	-0.095	0.041
-440.792	115.441	0.214	-0.263
-439.778	-24.902	0.428	-0.256
-438.763	105.717	0.078	-0.093
-437.749	179.001	0.203	-0.298
-436.734	-200.000	0.014	0.214
-435.719	19.953	-0.318	-0.258
-434.705	-200.000	0.045	-0.199
-433.690	-200.000	0.038	0.230
-432.676	-167.352	-0.200	-0.008
-431.661	35.771	0.315	0.279
-430.646	-188.810	-0.137	0.002
-429.632	13.908	-0.094	0.074
-428.617	-69.507	-0.126	0.049
-427.603	-134.815	0.058	-0.007
-426.588	800.000	-0.069	0.215
-425.573	173.503	-0.089	0.130
-424.559	224.206	0.112	0.181
-423.544	-78.997	0.397	0.136
-422.530	-50.535	0.387	0.183
-421.515	-90.313	-0.126	0.037
-420.500	-111.443	0.118	0.024
-419.486	800.000	-0.093	0.278
-418.471	-36.155	0.240	-0.130
-417.457	-22.819	0.205	0.125
-416.442	144.903	0.030	0.040
-415.428	81.784	-0.164	0.179
-414.413	154.394	-0.064	-0.089
-413.398	-89.559	0.102	-0.030
-412.384	75.276	0.138	-0.146
-411.369	349.738	-0.021	0.041
-410.355	-200.000	-0.061	-0.290
-409.340	-172.758	-0.055	-0.002
-408.325	73.748	0.089	-0.094
-407.311	-105.383	-0.053	-0.012
-406.296	6.848	0.114	-0.085
-405.282	549.698	-0.045	0.109
-404.267	-64.400	-0.089	0.036
-403.252	72.650	-0.032	-0.034
-402.238	-23.660	0.205	-0.124
-401.223	17.732	0.260	-0.208
-400.209	158.769	-0.183	0.256
-399.194	-102.900	-0.396	0.094
-398.179	-78.373	-0.259	-0.089
-397.165	-13.662	-0.136	0.088
-396.150	-119.449	-0.271	0.047
-395.136	-70.055	-0.057	0.022
-394.121	-54.309	0.184	-0.084
-393.106	187.855	-0.041	0.061
-392.092	-200.000	0.045	-0.248
-391.077	-125.838	0.030	0.004
-390.063	-5.987	-0.064	-0.044
-389.048	111.136	0.264	0.320
-388.033	-76.950	0.406	0.143
-387.019	-31.059	0.185	-0.105
-386.004	682.116	0.197	0.515
-384.990	-108.527	-0.208	0.045
-383.975	-8.060	0.150	-0.101
-382.960	-117.556	0.169	-0.031
-381.946	-170.050	0.192	0.007
-380.931	20.607	0.148	0.121
-379.917	-88.484	-0.253	0.076
-378.902	-79.470	0.073	0.025
-377.888	-13.617	-0.299	0.194
-376.873	58.383	-0.067	0.066
-375.858	-125.216	0.290	-0.045
-374.844	-54.017	-0.093	-0.042
-373.829	-200.000	-0.064	-0.341
-372.815	93.464	-0.170	-0.193
-371.800	-200.000	0.092	0.413
-370.785	-54.670	-0.203	0.092
-369.771	126.215	0.207	0.263
-368.756	800.000	0.119	-0.367
-367.742	-18.815	0.273	0.171
-366.727	429.876	0.094	0.204
-365.712	-20.158	-0.249	-0.154
-364.698	-46.930	0.352	-0.173
-363.683	-117.506	0.228	-0.041
-362.669	-42.741	0.041	0.021
-361.654	-200.000	-0.005	-0.340
-360.639	-200.000	-0.003	-0.103
-359.625	-200.000	0.048	0.265
-358.610	357.332	0.065	0.130
-357.596	53.912	0.161	0.156
-356.581	-27.149	0.053	0.031
-355.566	672.740	0.084	-0.218
-354.552	386.668	0.031	-0.064
-353.537	-99.728	0.274	-0.069
-352.523	174.516	0.124	-0.180
-351.508	800.000	-0.089	-0.357
-350.493	800.000	0.132	-0.455
-349.479	-200.000	0.085	0.402
-348.464	-200.000	0.016	-0.095
-347.450	304.574	0.105	0.196
-346.435	800.000	0.103	-0.370
-345.420	-200.000	0.014	-0.156
-344.406	-162.036	0.175	-0.009
-343.391	-138.658	-0.108	-0.012
-342.377	-200.000	0.046	0.220
-341.362	-200.000	0.013	-0.104
-340.348	134.329	0.099	0.128
-339.333	-133.083	-0.439	0.056
-338.318	375.253	-0.066	-0.135
-337.304	-5.854	-0.138	0.094
-336.289	100.859	0.378	0.441
-335.275	-41.912	0.162	-0.083
-334.260	-35.995	0.430	0.233
-333.245	800.000	-0.143	-0.424
-332.231	800.000	0.060	-0.215
-331.216	124.260	-0.108	-0.136
-330.202	-142.418	-0.291	-0.029
-329.187	-200.000	-0.005	0.263
-328.172	35.107	-0.036	-0.031
-327.158	800.000	0.087	0.271
-326.143	-23.607	-0.218	0.131
-325.129	-177.253	0.211	0.005
-324.114	800.000	-0.091	-0.376
-323.099	277.057	0.081	0.144
-322.085	-69.052	-0.298	0.115
-321.070	-90.203	-0.182	0.053
-320.056	69.118	0.200	0.206
-319.041	-117.804	-0.168	-0.030
-318.026	-40.329	0.257	-0.134
-317.012	3.340	0.255	0.186
-315.997	83.331	0.185	-0.202
-314.983	0.134	0.149	-0.107
-313.968	429.224	0.049	0.106
-312.953	800.000	-0.058	-0.203
-311.939	147.740	0.166	-0.224
-310.924	800.000	0.019	0.081
-309.910	-200.000	-0.039	-0.252
-308.895	-19.934	-0.177	-0.109
-307.880	-143.884	-0.242	0.023
-306.866	800.000	0.020	-0.066
-305.851	-115.102	0.208	0.039
-304.837	416.669	0.022	0.048
-303.822	-89.371	0.093	-0.028
-302.807	76.320	0.245	0.260
-301.793	-34.803	-0.281	-0.154
-300.778	100.098	-0.150	-0.174
-299.764	306.851	-0.088	-0.164
-298.749	800.000	-0.022	-0.090
-297.735	800.000	-0.067	0.251
-296.720	800.000	-0.008	-0.031
-295.705	40.043	0.119	0.107
-294.691	754.058	0.036	-0.098
-293.676	340.419	0.078	0.152
-292.662	-108.276	-0.146	0.032
-291.647	88.075	-0.200	-0.222
-290.632	230.460	-0.245	0.401
-289.618	215.538	0.073	-0.116
-288.603	-114.630	0.105	0.020
-287.589	-132.051	-0.087	0.011
-286.574	-57.243	0.081	-0.036
-285.559	-39.737	0.210	-0.110
-284.545	-78.814	0.144	0.049
-283.530	-140.908	-0.249	-0.026
-282.516	67.660	-0.139	0.142
-281.501	-13.141	-0.165	0.107
-280.486	-142.316	-0.148	0.015
-279.472	-4.053	0.093	0.065
-278.457	243.753	0.127	-0.213
-277.443	-49.474	0.211	0.101
-276.428	800.000	-0.028	0.088
-275.413	-200.000	-0.048	0.359
-274.399	-122.814	0.336	0.054
-273.384	148.495	-0.129	0.175
-272.370	-142.779	0.228	-0.022
-271.355	-99.510	0.445	-0.112
-270.340	-30.705	0.186	-0.105
-269.326	-113.570	0.207	-0.040
-268.311	-200.000	0.017	0.164
-267.297	148.249	-0.054	0.072
-266.282	-200.000	0.006	-0.107
-265.267	-65.966	0.472	-0.189
-264.253	227.162	-0.198	-0.322
-263.238	280.444	0.080	0.144
-262.224	333.353	-0.083	-0.160
-261.209	34.909	0.139	0.122
-260.195	-18.212	0.234	0.146
-259.180	-82.282	0.265	-0.086
-258.165	-200.000	-0.033	0.220
-257.151	453.023	-0.075	0.166
-256.136	164.199	-0.151	0.213
-255.122	-103.403	-0.256	0.060
-254.107	202.307	-0.123	0.190
-253.092	-150.843	-0.193	-0.015
-252.078	133.448	0.150	-0.194
-251.063	508.526	-0.064	-0.150
-250.049	-62.583	0.070	-0.029
-249.034	129.081	-0.319	-0.407
-248.019	-50.664	0.145	0.068
-247.005	-79.033	-0.460	0.156
-245.990	-163.673	0.248	-0.012
-244.976	11.054	-0.272	-0.208
-243.961	116.576	-0.131	-0.160
-242.946	-80.066	0.276	-0.092
-241.932	368.623	0.045	-0.091
-240.917	99.621	0.208	-0.240
-239.903	230.539	-0.070	0.114
-238.888	-200.000	0.009	0.104
-237.873	210.529	-0.023	0.037
-236.859	800.000	-0.068	0.253
-235.844	800.000	-0.086	0.296
-234.830	-94.760	-0.338	-0.092
-233.815	-200.000	0.038	-0.174
-232.800	333.895	-0.109	0.210
-231.786	241.433	-0.108	0.181
-230.771	-200.000	0.023	-0.118
-229.757	-73.419	-0.139	0.051
-228.742	-27.745	-0.402	-0.233
-227.727	-200.000	0.012	-0.163
-226.713	-126.217	0.199	-0.030
-225.698	-15.808	-0.083	-0.053
-224.684	-200.000	0.022	0.227
-223.669	800.000	-0.068	-0.289
-222.655	-200.000	0.049	0.343
-221.640	-164.787	0.127	0.006
-220.625	-72.543	-0.304	0.112
-219.611	-98.367	0.255	-0.065
-218.596	-141.355	0.139	-0.014
-217.582	-56.504	-0.261	-0.116
-216.567	3.534	0.241	0.175
-215.552	-76.947	-0.140	0.049
-214.538	43.382	0.182	0.166
-213.523	-23.237	-0.029	-0.018
-212.509	-29.085	-0.205	0.118
-211.494	-200.000	0.408	-0.000
-210.479	-114.410	-0.199	-0.038
-209.465	-200.000	-0.004	0.092
-208.450	173.613	0.135	-0.194
-207.436	127.902	-0.148	0.188
-206.421	76.589	0.182	-0.193
-205.406	-95.233	-0.172	-0.046
-204.392	-165.212	-0.361	0.016
-203.377	-96.864	0.349	-0.091
-202.363	800.000	-0.089	0.390
-201.348	44.020	0.309	0.282
-200.333	195.050	0.152	-0.230
-199.319	146.409	-0.188	0.252
-198.304	-26.609	0.170	0.100
-197.290	-108.804	-0.121	-0.026
-196.275	61.717	-0.331	-0.329
-195.260	686.264	0.105	0.274
-194.246	44.657	-0.166	-0.152
-193.231	-42.826	0.147	-0.074
-192.217	101.450	-0.172	-0.200
-191.202	-109.586	-0.194	0.041
-190.187	-26.341	0.067	0.039
-189.173	-125.519	-0.239	-0.036
-188.158	-124.723	0.115	-0.018
-187.144	34.070	-0.205	0.178
-186.129	-106.894	0.194	0.043
-185.114	40.163	-0.273	0.244
-184.100	-200.000	0.023	0.228
-183.085	-18.509	0.199	0.124
-182.071	-112.236	-0.208	0.042
-181.056	800.000	0.056	0.197
-180.042	59.358	-0.144	0.141
-179.027	-70.853	-0.065	-0.024
-178.012	-104.564	-0.434	-0.100
-176.998	-200.000	-0.023	-0.157
-175.983	124.352	0.120	0.150
-174.969	-200.000	-0.028	-0.206
-173.954	-37.811	-0.113	0.060
-172.939	800.000	-0.038	-0.118
-171.925	-73.949	0.318	-0.115
-170.910	-110.588	0.156	0.032
-169.896	800.000	0.039	-0.149
-168.881	-138.770	0.125	-0.014
-167.866	-200.000	-0.020	-0.214
-166.852	800.000	-0.057	-0.176
-165.837	-111.499	0.256	-0.052
-164.823	-49.913	-0.232	0.110
-163.808	800.000	-0.081	0.286
-162.793	0.010	-0.252	0.179
-161.779	-200.000	0.021	0.225
-160.764	-21.240	-0.343	-0.209
-159.750	-200.000	0.011	-0.170
-158.735	800.000	0.016	-0.060
-157.720	800.000	-0.059	0.177
-156.706	-35.070	0.070	-0.038
-155.691	380.939	-0.063	0.128
-154.677	800.000	0.018	0.071
-153.662	-200.000	-0.009	0.453
-152.647	-72.813	0.318	-0.117
-151.633	138.108	0.220	0.287
-150.618	348.366	-0.054	-0.107
-149.604	-112.007	-0.022	0.004
-148.589	-119.008	-0.194	-0.034
-147.574	-137.979	-0.219	-0.024
-146.560	-149.964	-0.253	-0.020
-145.545	756.281	-0.090	0.243
-144.531	-200.000	0.020	-0.205
-143.516	-200.000	0.041	0.210
-142.502	-163.694	0.343	0.016
-141.487	199.399	-0.150	0.229
-140.472	800.000	-0.076	0.233
-139.458	120.958	-0.032	-0.040
-138.443	204.379	-0.368	-0.567
-137.429	-93.414	-0.116	0.032
-136.414	8.642	0.575	-0.431
-135.399	550.937	-0.152	0.362
-134.385	-200.000	-0.012	0.176
-133.370	-65.725	-0.200	-0.080
-132.356	-100.452	-0.396	-0.098
-131.341	-126.810	0.045	0.007
-130.326	236.188	0.019	0.032
-129.312	-172.025	0.293	-0.009
-128.297	-85.477	0.164	-0.051
-127.283	-154.062	-0.198	0.013
-126.268	-9.585	-0.152	0.101
-125.253	-200.000	0.023	0.139
-124.239	-200.000	0.021	0.464
-123.224	-133.861	0.394	-0.049
-122.210	800.000	0.070	0.283
