DTS Sentinel unit serial number:	SN413079Multiplexer serial number:	ORYXHardware model number:	OX4-SRSoftware version number:	ORYX F/W v4.00 Oryx Data Collector v3.7.2.0data status	okinstallation	princeton_trtdifferential loss correction	single-endedforward channel	channel 4reverse channel	N/Adate	2019/09/11time	20:15:11forward acquisition time	60.00reverse acquisition time	0.00gamma	496.2192k internal	0.2302k external	0.2302temperature offset calibration	1.0052default loss term (dB/km)	0.3790temperature slope calibration	1.0000multiplexer offset coefficient	1.0000multiplexer slope coefficient	1.0000fibre end	0.00T internal ref (°C)	38.17T ext. ref 1 (°C)	1.43T ext. ref 2 (°C)	31.50length (m)	temperature (°C)	Stokes	anti-Stokes-747.200	-122.954	0.245	0.040
-746.185	200.080	0.148	0.232
-745.171	-89.026	0.391	-0.118
-744.156	800.000	-0.141	0.423
-743.142	447.000	0.132	-0.297
-742.127	83.769	0.233	0.260
-741.112	188.758	0.198	0.303
-740.098	-176.154	-0.311	-0.008
-739.083	-34.692	-0.274	0.153
-738.069	-200.000	-0.024	-0.152
-737.054	99.785	-0.038	-0.045
-736.039	-22.036	-0.229	0.142
-735.025	91.865	0.186	0.214
-734.010	-93.408	-0.070	-0.020
-732.996	-118.840	0.229	-0.041
-731.981	-53.124	-0.192	-0.090
-730.966	800.000	-0.001	-0.004
-729.952	-1.255	0.101	-0.073
-728.937	395.330	-0.072	0.153
-727.923	-64.719	0.225	0.093
-726.908	-32.594	-0.418	0.237
-725.894	22.308	-0.134	-0.111
-724.879	144.996	-0.092	0.125
-723.864	-47.252	0.227	0.113
-722.850	-133.793	-0.407	-0.052
-721.835	-200.000	0.048	-0.238
-720.821	503.640	0.049	-0.116
-719.806	-44.808	-0.218	-0.110
-718.791	42.458	-0.138	-0.128
-717.777	205.859	-0.104	-0.164
-716.762	-115.799	0.111	-0.021
-715.748	-78.093	0.371	-0.130
-714.733	27.619	-0.350	0.300
-713.718	-44.452	-0.141	-0.072
-712.704	88.873	-0.061	0.069
-711.689	333.984	-0.078	-0.154
-710.675	109.589	-0.208	0.254
-709.660	241.327	-0.239	-0.406
-708.645	63.177	-0.164	-0.167
-707.631	172.244	0.264	-0.386
-706.616	-5.376	-0.256	0.179
-705.602	262.643	0.106	0.187
-704.587	-200.000	0.010	-0.391
-703.572	449.502	0.038	-0.085
-702.558	800.000	-0.048	0.208
-701.543	-100.571	-0.192	-0.048
-700.529	52.449	-0.072	-0.070
-699.514	-20.739	0.202	0.126
-698.499	-100.315	-0.217	0.055
-697.485	70.548	0.140	0.147
-696.470	-36.828	-0.256	-0.140
-695.456	-200.000	-0.028	-0.240
-694.441	-114.319	-0.457	-0.090
-693.426	2.273	0.164	-0.120
-692.412	800.000	0.022	0.064
-691.397	-12.702	0.123	-0.081
-690.383	-200.000	-0.040	-0.428
-689.368	653.953	0.062	-0.162
-688.354	555.597	0.071	0.175
-687.339	71.799	-0.114	0.121
-686.324	-76.758	0.160	0.057
-685.310	-180.180	0.240	0.005
-684.295	370.078	-0.073	0.151
-683.281	-101.694	0.295	-0.073
-682.266	-200.000	0.085	0.434
-681.251	43.626	-0.235	0.219
-680.237	406.896	0.044	-0.094
-679.222	186.459	-0.021	-0.031
-678.208	-200.000	0.038	-0.298
-677.193	-200.000	-0.042	-0.242
-676.178	-103.335	0.170	0.041
-675.164	-40.500	0.123	-0.065
-674.149	37.556	0.105	-0.095
-673.135	-3.632	0.336	-0.238
-672.120	-13.759	0.070	0.046
-671.105	340.713	0.198	0.393
-670.091	-96.161	-0.062	-0.017
-669.076	480.512	0.066	0.151
-668.062	31.615	-0.384	0.335
-667.047	-71.779	0.271	0.103
-666.032	-200.000	0.035	-0.241
-665.018	-200.000	0.002	-0.373
-664.003	133.132	-0.153	-0.200
-662.989	-71.748	0.177	-0.067
-661.974	86.579	0.338	-0.379
-660.959	-119.664	-0.172	-0.030
-659.945	800.000	-0.086	0.256
-658.930	-10.919	0.110	0.074
-657.916	198.002	0.206	0.320
-656.901	386.389	-0.072	0.152
-655.886	-26.863	-0.171	0.102
-654.872	350.297	-0.028	0.056
-653.857	-200.000	0.021	0.191
-652.843	-61.233	-0.458	-0.196
-651.828	800.000	0.038	0.158
-650.814	-97.709	0.064	0.017
-649.799	2.523	0.179	-0.132
-648.784	-115.887	-0.072	0.014
-647.770	800.000	-0.048	0.161
-646.755	399.682	-0.112	-0.239
-645.741	302.308	0.246	0.461
-644.726	-108.785	0.027	-0.006
-643.711	-151.380	0.110	0.008
-642.697	8.601	0.340	-0.260
-641.682	18.596	0.098	0.079
-640.668	-129.978	-0.107	-0.015
-639.653	-139.598	-0.240	-0.026
-638.638	114.725	0.309	0.382
-637.624	-57.030	0.374	0.167
-636.609	-149.934	-0.140	0.011
-635.595	-155.767	-0.183	-0.012
-634.580	-37.581	-0.175	-0.095
-633.565	79.802	0.104	-0.113
-632.551	59.690	-0.200	-0.200
-631.536	-32.569	-0.092	-0.052
-630.522	-124.022	0.215	0.034
-629.507	-41.315	-0.201	-0.105
-628.492	216.434	-0.151	-0.243
-627.478	36.277	0.070	-0.062
-626.463	800.000	-0.053	-0.201
-625.449	214.026	-0.123	0.197
-624.434	-81.860	-0.152	-0.050
-623.419	310.055	0.152	-0.289
-622.405	34.532	-0.257	0.228
-621.390	-200.000	-0.041	0.421
-620.376	-10.364	-0.159	0.107
-619.361	32.495	0.308	0.270
-618.346	-70.624	-0.320	-0.123
-617.332	-158.847	-0.080	-0.005
-616.317	-39.683	-0.160	0.085
-615.303	800.000	-0.012	-0.044
-614.288	727.310	0.130	-0.351
-613.273	-5.603	0.321	0.223
-612.259	-95.964	-0.332	-0.090
-611.244	-88.136	-0.357	0.109
-610.230	-101.089	-0.288	-0.071
-609.215	99.051	0.245	0.287
-608.201	-44.683	0.347	0.176
-607.186	109.351	-0.271	-0.329
-606.171	-200.000	0.014	0.353
-605.157	229.153	-0.063	-0.105
-604.142	76.639	0.224	0.241
-603.128	-113.998	0.260	-0.051
-602.113	3.799	-0.185	0.137
-601.098	-139.101	0.268	0.029
-600.084	-200.000	0.015	-0.304
-599.069	346.618	-0.103	-0.205
-598.055	-8.834	0.156	-0.106
-597.040	25.015	0.041	0.034
-596.025	-200.000	0.014	-0.146
-595.011	800.000	-0.025	-0.080
-593.996	-124.194	-0.190	0.030
-592.982	10.839	0.194	0.150
-591.967	-47.361	-0.066	0.032
-590.952	-63.314	0.119	-0.050
-589.938	361.628	-0.101	0.206
-588.923	-31.179	-0.350	-0.200
-587.909	594.286	0.069	-0.173
-586.894	-70.317	-0.077	0.030
-585.879	537.271	-0.074	-0.177
-584.865	800.000	0.044	0.154
-583.850	-90.214	-0.371	0.109
-582.836	-80.067	-0.154	0.052
-581.821	219.130	-0.127	-0.206
-580.806	-146.896	0.143	-0.012
-579.792	-200.000	-0.292	0.000
-578.777	-93.930	-0.178	0.050
-577.763	320.674	-0.154	-0.296
-576.748	-90.491	-0.144	-0.042
-575.733	800.000	0.054	0.181
-574.719	-51.145	0.058	0.028
-573.704	-22.961	-0.215	-0.131
-572.690	-9.028	0.319	-0.216
-571.675	455.043	0.082	-0.185
-570.661	-65.484	-0.118	0.048
-569.646	-200.000	0.007	0.206
-568.631	192.255	0.137	0.210
-567.617	-135.061	0.329	0.040
-566.602	800.000	0.174	-0.559
-565.588	-200.000	-0.060	-0.284
-564.573	-64.725	-0.210	0.086
-563.558	-133.614	-0.538	0.068
-562.544	800.000	0.015	-0.064
-561.529	192.059	0.189	0.288
-560.515	-119.637	-0.093	-0.016
-559.500	118.978	0.151	-0.188
-558.485	-98.593	0.322	-0.083
-557.471	31.521	0.174	-0.152
-556.456	-144.842	-0.404	0.037
-555.442	339.256	-0.109	-0.215
-554.427	73.690	0.121	-0.129
-553.412	-97.934	0.079	0.021
-552.398	-71.949	-0.243	-0.091
-551.383	-105.440	-0.273	0.063
-550.369	800.000	-0.078	-0.262
-549.354	70.011	-0.185	-0.193
-548.339	-62.356	0.114	-0.048
-547.325	-54.675	-0.120	-0.055
-546.310	-89.069	-0.169	0.051
-545.296	-200.000	0.034	0.183
-544.281	-26.441	0.176	-0.105
-543.266	-7.996	0.131	0.089
-542.252	588.177	-0.014	0.034
-541.237	139.967	0.158	0.211
-540.223	-93.296	-0.365	-0.102
-539.208	658.724	-0.114	-0.296
-538.193	186.690	-0.238	0.359
-537.179	-200.000	-0.010	-0.232
-536.164	-106.860	0.182	0.041
-535.150	800.000	0.034	-0.112
-534.135	800.000	0.089	-0.283
-533.121	0.037	-0.135	-0.097
-532.106	-111.841	0.223	-0.046
-531.091	3.614	-0.035	0.026
-530.077	-200.000	-0.019	0.418
-529.062	-52.893	0.229	-0.106
-528.048	-20.835	-0.237	-0.147
-527.033	245.398	-0.057	0.096
-526.018	-77.543	0.123	-0.043
-525.004	-34.950	-0.101	-0.056
-523.989	8.194	0.361	-0.274
-522.975	-13.660	0.192	-0.126
-521.960	8.242	-0.192	-0.146
-520.945	-200.000	-0.061	0.289
-519.931	87.938	0.368	0.412
-518.916	800.000	0.085	0.373
-517.902	-200.000	0.063	-0.316
-516.887	30.295	0.087	0.075
-515.872	533.964	0.081	-0.195
-514.858	-200.000	0.016	-0.215
-513.843	257.593	0.226	-0.393
-512.829	-30.844	0.106	0.060
-511.814	-200.000	-0.063	0.349
-510.799	-76.066	0.306	0.109
-509.785	-16.777	-0.284	0.181
-508.770	-172.339	-0.063	0.002
-507.756	800.000	0.037	0.118
-506.741	-48.938	0.078	0.038
-505.726	191.083	-0.080	-0.121
-504.712	322.445	0.093	-0.180
-503.697	-62.468	-0.226	-0.095
-502.683	155.965	0.135	-0.188
-501.668	-146.955	-0.248	-0.022
-500.653	89.420	-0.128	0.144
-499.639	-200.000	0.004	-0.252
-498.624	-105.644	0.053	0.012
-497.610	27.897	-0.268	0.228
-496.595	800.000	0.039	-0.133
-495.581	26.479	-0.043	-0.036
-494.566	-200.000	-0.030	0.220
-493.551	-107.551	0.263	0.058
-492.537	800.000	0.057	-0.161
-491.522	-179.638	0.297	0.007
-490.508	-162.952	0.029	0.001
-489.493	-98.717	0.187	0.048
-488.478	-132.570	-0.156	-0.020
-487.464	800.000	0.062	0.194
-486.449	90.134	0.067	-0.076
-485.435	12.342	-0.117	0.091
-484.420	-200.000	-0.001	-0.011
-483.405	219.502	-0.034	-0.054
-482.391	86.215	-0.099	0.110
-481.376	46.636	0.219	0.206
-480.362	369.559	0.237	-0.483
-479.347	-200.000	-0.018	-0.172
-478.332	362.335	-0.125	0.253
-477.318	-164.774	-0.166	0.008
-476.303	-200.000	0.037	0.422
-475.289	60.862	0.099	-0.099
-474.274	-70.760	-0.205	-0.078
-473.259	-140.724	0.084	-0.009
-472.245	211.737	0.297	-0.471
-471.230	31.113	-0.116	-0.101
-470.216	491.212	0.138	-0.319
-469.201	344.971	0.063	-0.125
-468.186	379.896	0.185	0.383
-467.172	-5.611	-0.434	0.300
-466.157	-99.329	-0.191	0.049
-465.143	-44.361	0.240	0.121
-464.128	-147.738	0.172	-0.015
-463.113	800.000	-0.071	-0.227
-462.099	595.299	0.123	-0.306
-461.084	64.677	-0.142	-0.144
-460.070	-200.000	-0.000	-0.370
-459.055	472.769	0.148	-0.336
-458.040	93.029	-0.076	-0.087
-457.026	16.193	0.331	0.263
-456.011	800.000	-0.045	0.143
-454.997	202.770	0.071	-0.111
-453.982	-89.860	0.172	0.051
-452.968	-104.717	-0.163	0.038
-451.953	26.962	-0.120	-0.101
-450.938	-17.291	-0.251	-0.159
-449.924	448.682	-0.081	0.180
-448.909	443.674	0.032	0.071
-447.895	33.321	-0.259	-0.226
-446.880	385.487	0.035	-0.072
-445.865	-57.065	-0.104	-0.046
-444.851	-200.000	-0.047	-0.432
-443.836	72.068	0.084	0.088
-442.822	-84.324	-0.122	-0.039
-441.807	-30.097	0.232	0.133
-440.792	42.359	-0.097	0.089
-439.778	-42.834	0.241	-0.123
-438.763	-100.659	0.352	0.088
-437.749	-62.222	0.238	-0.100
-436.734	800.000	0.061	0.252
-435.719	23.143	-0.155	0.128
-434.705	-39.861	0.318	0.167
-433.690	800.000	-0.111	0.359
-432.676	-72.881	-0.208	0.077
-431.661	104.557	-0.290	0.343
-430.646	208.413	-0.146	-0.229
-429.632	800.000	0.104	0.396
-428.617	661.004	0.104	0.271
-427.603	800.000	-0.151	-0.423
-426.588	-148.309	-0.056	-0.005
-425.573	-49.182	0.157	0.076
-424.559	-139.175	-0.145	0.016
-423.544	49.872	-0.253	0.240
-422.530	-196.463	0.237	0.002
-421.515	-105.060	0.164	-0.038
-420.500	208.750	0.083	0.130
-419.486	-81.762	-0.097	-0.032
-418.471	167.419	-0.108	-0.154
-417.457	29.063	-0.179	-0.152
-416.442	-190.739	-0.292	-0.003
-415.428	-200.000	-0.283	-0.001
-414.413	-137.050	0.245	0.028
-413.398	-0.413	0.107	0.077
-412.384	800.000	0.044	0.171
-411.369	-200.000	-0.052	0.372
-410.355	-144.996	-0.155	-0.014
-409.340	82.950	-0.149	-0.163
-408.325	34.138	0.026	-0.023
-407.311	148.055	-0.072	-0.098
-406.296	491.011	-0.189	0.435
-405.282	800.000	-0.106	0.346
-404.267	-200.000	-0.025	0.338
-403.252	-165.993	0.109	0.005
-402.238	800.000	-0.086	0.293
-401.223	-102.676	-0.105	0.025
-400.209	800.000	0.096	0.291
-399.194	-200.000	-0.003	0.139
-398.179	148.724	-0.056	0.077
-397.165	-77.943	-0.208	0.072
-396.150	-200.000	-0.063	-0.278
-395.136	162.914	-0.119	0.168
-394.121	-8.735	0.341	-0.230
-393.106	-200.000	-0.082	-0.366
-392.092	-97.037	-0.383	-0.101
-391.077	-144.386	0.041	0.004
-390.063	-79.824	0.095	-0.032
-389.048	317.573	-0.080	-0.151
-388.033	37.024	-0.063	-0.056
-387.019	187.787	0.135	0.203
-386.004	56.695	0.169	-0.166
-384.990	-37.364	-0.135	-0.072
-383.975	27.593	0.160	0.136
-382.960	-135.121	0.091	-0.011
-381.946	129.902	-0.329	0.423
-380.931	-29.473	0.361	0.207
-379.917	-200.000	-0.046	0.487
-378.902	800.000	0.037	-0.133
-377.888	-17.702	-0.098	0.062
-376.873	167.698	-0.018	-0.026
-375.858	-200.000	-0.031	-0.206
-374.844	-153.872	0.129	0.009
-373.829	15.695	0.226	0.179
-372.815	-200.000	-0.005	-0.063
-371.800	670.781	-0.146	-0.380
-370.785	-81.970	0.401	-0.132
-369.771	-84.841	-0.238	0.075
-368.756	800.000	0.072	0.262
-367.742	-66.771	-0.007	0.003
-366.727	-200.000	0.010	0.220
-365.712	215.111	0.177	0.282
-364.698	800.000	0.062	-0.251
-363.683	42.334	-0.133	0.121
-362.669	-200.000	-0.010	-0.152
-361.654	-162.076	0.205	0.010
-360.639	-35.500	-0.160	0.087
-359.625	22.780	-0.103	0.085
-358.610	-200.000	0.038	0.284
-357.596	478.050	-0.090	-0.205
-356.581	170.072	-0.260	-0.373
-355.566	35.321	-0.274	-0.241
-354.552	230.231	0.095	-0.156
-353.537	65.686	-0.044	-0.044
-352.523	191.488	0.035	-0.053
-351.508	235.632	0.169	0.280
-350.493	800.000	-0.119	-0.363
-349.479	-200.000	0.005	-0.033
-348.464	800.000	0.077	0.297
-347.450	186.001	0.177	0.264
-346.435	364.413	0.043	-0.087
-345.420	-152.096	0.205	0.015
-344.406	129.132	0.216	0.276
-343.391	-200.000	0.021	-0.179
-342.377	-156.025	-0.342	0.022
-341.362	500.544	-0.024	0.056
-340.348	373.256	0.096	0.196
-339.333	406.901	-0.057	-0.121
-338.318	-61.569	-0.105	0.044
-337.304	139.269	0.028	0.037
-336.289	-149.249	0.137	-0.011
-335.275	228.281	0.177	-0.289
-334.260	368.851	-0.036	-0.073
-333.245	-84.852	0.030	0.009
-332.231	-34.576	0.251	0.138
-331.216	192.063	0.081	-0.123
-330.202	251.664	0.045	-0.077
-329.187	-40.885	0.201	0.104
-328.172	10.469	0.353	0.270
-327.158	231.527	0.152	-0.251
-326.143	167.809	-0.276	-0.394
-325.129	-122.712	0.199	0.032
-324.114	-200.000	-0.017	-0.151
-323.099	-200.000	0.014	-0.167
-322.085	11.028	0.027	-0.021
-321.070	-116.489	-0.447	-0.083
-320.056	-161.443	0.411	-0.021
-319.041	158.174	-0.147	0.205
-318.026	-84.443	-0.305	-0.097
-317.012	-200.000	0.007	-0.137
-315.997	-75.902	-0.159	-0.056
-314.983	-200.000	-0.025	-0.229
-313.968	98.473	0.048	-0.055
-312.953	81.825	-0.064	-0.070
-311.939	311.992	-0.051	-0.095
-310.924	-33.286	0.062	0.035
-309.910	-200.000	-0.011	0.158
-308.895	11.893	0.163	-0.125
-307.880	116.955	-0.057	0.071
-306.866	-200.000	0.040	0.179
-305.851	72.395	-0.076	-0.079
-304.837	-169.933	-0.228	-0.008
-303.822	-15.902	0.192	-0.122
-302.807	-54.616	-0.260	0.118
-301.793	800.000	-0.098	-0.370
-300.778	-102.327	0.412	-0.099
-299.764	446.266	0.083	-0.182
-298.749	230.789	-0.105	0.172
-297.735	-200.000	0.072	0.347
-296.720	70.148	0.062	-0.064
-295.705	16.931	0.147	0.117
-294.691	-93.617	-0.267	-0.074
-293.676	238.365	-0.042	0.070
-292.662	220.454	0.056	0.090
-291.647	-185.287	0.271	-0.004
-290.632	-200.000	-0.044	-0.444
-289.618	43.296	0.199	-0.182
-288.603	397.022	-0.186	0.389
-287.589	-200.000	-0.001	0.263
-286.574	-200.000	0.058	-0.294
-285.559	-2.058	0.183	-0.129
-284.545	76.166	-0.111	0.118
-283.530	-200.000	0.013	-0.209
-282.516	-135.180	0.196	-0.024
-281.501	-126.957	0.349	-0.051
-280.486	180.429	-0.279	-0.410
-279.472	-200.000	0.033	-0.184
-278.457	-48.843	-0.244	-0.117
-277.443	304.774	0.087	-0.162
-276.428	379.349	-0.158	-0.323
-275.413	-41.731	-0.016	-0.008
-274.399	-38.690	-0.124	-0.065
-273.384	-200.000	-0.001	0.232
-272.370	-145.378	-0.082	-0.007
-271.355	800.000	0.056	0.187
-270.340	17.190	-0.092	0.073
-269.326	787.132	0.070	-0.193
-268.311	-107.356	-0.387	-0.085
-267.297	139.012	0.050	0.065
-266.282	139.234	-0.071	-0.094
-265.267	609.635	-0.111	-0.277
-264.253	208.480	-0.173	-0.270
-263.238	16.390	0.283	0.223
-262.224	63.443	-0.086	-0.086
-261.209	-70.323	0.139	0.053
-260.195	-9.687	0.243	-0.162
-259.180	329.427	0.187	0.360
-258.165	-42.650	-0.124	-0.063
-257.151	234.524	-0.176	-0.291
-256.136	-200.000	0.041	-0.305
-255.122	-200.000	-0.027	0.449
-254.107	800.000	-0.085	-0.307
-253.092	800.000	-0.058	0.177
-252.078	-200.000	-0.020	-0.150
-251.063	-200.000	0.014	0.103
-250.049	-200.000	0.090	-0.424
-249.034	800.000	0.035	0.119
-248.019	-67.941	-0.084	-0.033
-247.005	-107.243	-0.142	0.031
-245.990	175.907	-0.188	0.273
-244.976	184.365	0.041	0.060
-243.961	325.908	0.086	-0.165
-242.946	-113.552	-0.210	0.041
-241.932	-78.104	0.223	0.077
-240.917	311.617	0.093	0.175
-239.903	-69.289	-0.200	-0.077
-238.888	150.660	0.291	0.394
-237.873	-24.596	-0.170	0.101
-236.859	-93.998	0.209	0.057
-235.844	23.693	-0.267	-0.219
-234.830	376.682	-0.052	-0.106
-233.815	-200.000	0.032	-0.161
-232.800	476.714	0.237	0.536
-231.786	69.696	-0.306	0.315
-230.771	391.116	-0.050	-0.104
-229.757	367.132	0.128	0.258
-228.742	159.019	-0.248	0.344
-227.727	-200.000	-0.001	-0.027
-226.713	-57.877	-0.144	-0.063
-225.698	-118.497	-0.248	-0.044
-224.684	63.518	-0.111	-0.111
-223.669	1.613	0.158	0.113
-222.655	-78.564	-0.097	-0.033
-221.640	-104.684	-0.319	-0.073
-220.625	23.557	-0.169	0.139
-219.611	728.411	0.066	0.176
-218.596	524.547	-0.048	0.112
-217.582	185.120	0.283	0.420
-216.567	245.147	0.062	-0.104
-215.552	-168.729	-0.239	0.009
-214.538	83.728	-0.270	0.294
-213.523	-136.539	0.180	0.021
-212.509	169.269	-0.193	-0.276
-211.494	302.951	0.074	0.137
-210.479	-47.244	0.150	-0.073
-209.465	158.231	0.075	0.104
-208.450	15.811	-0.133	-0.104
-207.436	46.069	0.152	-0.140
-206.421	-156.656	-0.208	0.013
-205.406	-105.650	0.146	0.033
-204.392	-200.000	-0.019	0.202
-203.377	-169.945	0.175	-0.006
-202.363	-35.856	0.126	0.068
-201.348	-200.000	0.017	-0.281
-200.333	800.000	0.101	0.350
-199.319	-26.935	-0.064	0.037
-198.304	94.067	0.084	-0.095
-197.290	-200.000	0.019	0.082
-196.275	-200.000	-0.001	-0.042
-195.260	355.833	0.114	0.225
-194.246	-122.051	-0.097	0.016
-193.231	-73.655	-0.153	-0.056
-192.217	-8.887	0.290	-0.194
-191.202	-113.804	0.244	-0.047
-190.187	-107.448	0.294	-0.064
-189.173	117.579	0.187	0.229
-188.158	20.972	0.381	-0.308
-187.144	-104.606	0.307	-0.071
-186.129	630.284	0.096	0.242
-185.114	-200.000	0.003	-0.083
-184.100	-69.274	0.165	0.063
-183.085	-31.069	0.262	0.147
-182.071	12.039	-0.168	-0.129
-181.056	800.000	0.046	0.175
-180.042	576.970	-0.099	-0.241
-179.027	-200.000	-0.038	0.271
-178.012	-200.000	0.001	-0.291
-176.998	-101.148	0.210	0.051
-175.983	24.223	-0.236	0.194
-174.969	-89.429	-0.153	-0.045
-173.954	-198.306	-0.367	-0.002
-172.939	187.183	-0.189	0.281
-171.925	-200.000	0.052	0.306
-170.910	-60.193	0.271	0.115
-169.896	-200.000	0.009	0.072
-168.881	-167.300	0.365	-0.015
-167.866	78.412	0.140	-0.149
-166.852	472.580	-0.050	0.111
-165.837	800.000	-0.019	0.065
-164.823	-39.347	-0.218	-0.114
-163.808	611.419	-0.055	-0.138
-162.793	191.751	0.125	0.188
-161.779	49.411	0.073	0.068
-160.764	-200.000	-0.018	0.203
-159.750	-200.000	0.020	0.175
-158.735	1.122	0.044	-0.031
-157.720	-65.685	0.007	0.003
-156.706	298.222	0.132	-0.242
-155.691	156.556	-0.031	-0.043
-154.677	800.000	-0.017	0.056
-153.662	-200.000	-0.008	-0.255
-152.647	166.405	-0.116	0.164
-151.633	-200.000	0.025	0.183
-150.618	165.075	0.264	-0.372
-149.604	-200.000	-0.072	-0.405
-148.589	375.319	0.319	0.648
-147.574	-160.741	0.294	0.016
-146.560	253.788	-0.125	-0.213
-145.545	107.834	0.150	-0.178
-144.531	800.000	-0.135	0.419
-143.516	-107.739	0.145	0.032
-142.502	-72.393	0.324	-0.119
-141.487	-74.470	0.229	0.082
-140.472	-171.322	-0.196	-0.007
-139.458	243.615	-0.116	-0.193
-138.443	-200.000	0.011	0.175
-137.429	-47.190	-0.250	0.121
-136.414	-124.122	0.404	-0.063
-135.399	28.707	0.086	0.073
-134.385	247.342	0.221	-0.371
-133.370	262.162	0.076	0.131
-132.356	-200.000	-0.028	-0.149
-131.341	-200.000	0.015	0.195
-130.326	10.018	0.268	0.202
-129.312	701.912	-0.019	0.050
-128.297	746.928	0.085	-0.227
-127.283	-34.244	0.168	0.092
-126.268	508.591	0.050	-0.115
-125.253	-40.688	-0.317	0.163
-124.239	-50.225	0.259	-0.122
-123.224	635.653	0.134	-0.338
-122.210	66.639	-0.236	0.239
-121.195	-200.000	0.101	0.498
