DTS Sentinel unit serial number:	SN413079Multiplexer serial number:	ORYXHardware model number:	OX4-SRSoftware version number:	ORYX F/W v4.00 Oryx Data Collector v3.7.2.0data status	okinstallation	princeton_trtdifferential loss correction	single-endedforward channel	channel 4reverse channel	N/Adate	2019/09/14time	15:49:35forward acquisition time	60.00reverse acquisition time	0.00gamma	496.2192k internal	0.2292k external	0.2292temperature offset calibration	1.0135default loss term (dB/km)	0.3790temperature slope calibration	1.0000multiplexer offset coefficient	1.0000multiplexer slope coefficient	1.0000fibre end	0.00T internal ref (°C)	38.75T ext. ref 1 (°C)	5.11T ext. ref 2 (°C)	33.92length (m)	temperature (°C)	Stokes	anti-Stokes-747.200	-200.000	-0.027	-0.186
-746.185	-132.354	-0.113	0.015
-745.171	-3.013	0.007	0.005
-744.156	-15.024	-0.144	0.095
-743.142	-122.914	0.253	-0.042
-742.127	-71.659	0.137	-0.052
-741.112	1.899	0.023	-0.017
-740.098	259.895	-0.192	0.339
-739.083	800.000	-0.051	0.163
-738.069	-45.682	0.091	0.046
-737.054	800.000	-0.035	-0.117
-736.039	-200.000	0.027	-0.223
-735.025	72.430	0.040	-0.043
-734.010	13.705	-0.233	-0.186
-732.996	-75.304	0.257	0.094
-731.981	711.675	-0.118	-0.321
-730.966	-44.521	0.223	0.114
-729.952	-53.983	-0.190	0.088
-728.937	-10.087	-0.138	0.094
-727.923	-95.216	-0.177	-0.049
-726.908	-63.009	-0.430	-0.182
-725.894	-200.000	-0.001	-0.165
-724.879	-25.517	-0.065	0.040
-723.864	-26.583	0.140	0.084
-722.850	-114.117	-0.273	0.054
-721.835	-200.000	0.050	-0.376
-720.821	107.537	-0.092	0.112
-719.806	298.504	0.114	-0.214
-718.791	342.895	0.125	-0.250
-717.777	232.544	-0.110	-0.185
-716.762	602.031	-0.138	0.350
-715.748	-52.472	-0.034	-0.016
-714.733	-167.779	0.143	-0.006
-713.718	1.134	-0.180	0.132
-712.704	37.710	-0.188	0.170
-711.689	55.107	0.049	-0.049
-710.675	-200.000	0.050	-0.342
-709.660	-103.441	-0.290	-0.070
-708.645	-39.541	0.327	-0.175
-707.631	291.450	-0.142	-0.264
-706.616	237.036	0.062	0.105
-705.602	-138.220	0.391	0.044
-704.587	-161.336	-0.154	-0.008
-703.572	-170.564	-0.182	0.006
-702.558	-126.594	-0.036	0.005
-701.543	-200.000	0.052	0.277
-700.529	800.000	-0.044	-0.139
-699.514	626.176	-0.053	-0.136
-698.499	-15.115	-0.162	-0.106
-697.485	171.893	0.073	0.107
-696.470	-200.000	0.059	-0.391
-695.456	-38.963	0.265	-0.143
-694.441	125.732	0.020	-0.026
-693.426	800.000	-0.061	0.229
-692.412	-200.000	-0.040	0.398
-691.397	-200.000	-0.051	-0.317
-690.383	-200.000	-0.002	0.076
-689.368	-200.000	0.034	0.370
-688.354	48.085	0.197	0.189
-687.339	570.742	-0.062	0.155
-686.324	800.000	0.010	0.038
-685.310	-115.309	-0.059	-0.011
-684.295	234.316	0.129	0.217
-683.281	800.000	-0.076	-0.302
-682.266	-200.000	-0.027	0.150
-681.251	-149.293	-0.210	-0.017
-680.237	436.329	-0.111	-0.247
-679.222	102.382	-0.233	-0.278
-678.208	800.000	-0.050	-0.164
-677.193	1.986	-0.234	-0.172
-676.178	-200.000	-0.039	-0.237
-675.164	194.543	0.121	0.187
-674.149	49.772	-0.164	0.157
-673.135	-64.324	-0.139	-0.058
-672.120	250.951	-0.045	-0.077
-671.105	-79.300	0.040	0.014
-670.091	-200.000	-0.019	-0.102
-669.076	-200.000	-0.047	-0.333
-668.062	20.921	0.159	-0.131
-667.047	-8.576	-0.455	-0.312
-666.032	-135.356	-0.115	-0.014
-665.018	-83.043	0.341	0.112
-664.003	-200.000	-0.007	0.086
-662.989	-200.000	-0.018	-0.239
-661.974	264.062	-0.124	0.221
-660.959	800.000	-0.066	-0.254
-659.945	-7.755	-0.144	-0.099
-658.930	-37.138	-0.151	0.082
-657.916	67.856	0.244	-0.255
-656.901	2.000	-0.160	-0.118
-655.886	150.894	0.098	-0.137
-654.872	800.000	-0.066	-0.219
-653.857	71.061	-0.096	-0.102
-652.843	-69.825	-0.123	0.048
-651.828	-102.500	0.253	0.062
-650.814	-62.458	0.133	0.056
-649.799	-200.000	0.020	-0.166
-648.784	10.146	0.436	0.338
-647.770	-200.000	0.031	0.234
-646.755	41.239	-0.146	-0.134
-645.741	-63.535	-0.213	0.089
-644.726	119.573	0.149	0.189
-643.711	-46.014	-0.374	-0.188
-642.697	77.922	0.116	0.126
-641.682	-112.402	-0.283	0.058
-640.668	-200.000	-0.030	0.193
-639.653	-46.069	0.292	-0.146
-638.638	-128.838	0.263	0.038
-637.624	800.000	-0.056	0.166
-636.609	-126.710	0.493	0.074
-635.595	20.044	-0.261	0.214
-634.580	-144.168	0.144	-0.014
-633.565	-136.579	0.256	-0.030
-632.551	415.926	-0.171	-0.371
-631.536	18.478	-0.245	0.200
-630.522	60.164	-0.198	-0.199
-629.507	17.187	-0.210	0.170
-628.492	34.487	-0.177	0.158
-627.478	-70.150	-0.148	0.057
-626.463	474.866	-0.036	0.083
-625.449	-160.522	-0.275	0.015
-624.434	168.278	-0.029	-0.042
-623.419	-134.332	-0.084	-0.011
-622.405	37.739	-0.204	-0.184
-621.390	-200.000	0.037	0.193
-620.376	-13.887	-0.203	-0.134
-619.361	-200.000	-0.004	0.222
-618.346	-200.000	0.012	0.199
-617.332	106.226	-0.177	-0.214
-616.317	-70.599	0.123	-0.047
-615.303	-32.237	-0.271	0.154
-614.288	-101.958	-0.075	0.018
-613.273	-68.502	-0.318	0.126
-612.259	-200.000	-0.046	-0.230
-611.244	-86.300	-0.141	0.044
-610.230	800.000	0.057	-0.186
-609.215	59.463	0.077	0.077
-608.201	-25.195	0.108	-0.065
-607.186	800.000	-0.062	-0.198
-606.171	12.720	0.275	-0.216
-605.157	-29.168	0.135	0.079
-604.142	-42.833	0.256	0.132
-603.128	-61.522	0.153	-0.065
-602.113	-200.000	-0.011	-0.136
-601.098	-200.000	0.034	0.181
-600.084	13.014	0.280	0.220
-599.069	719.342	-0.101	-0.274
-598.055	355.458	-0.087	0.175
-597.040	168.953	-0.096	0.139
-596.025	166.176	-0.148	0.213
-595.011	-54.536	0.113	-0.052
-593.996	173.781	0.071	-0.104
-592.982	800.000	-0.067	-0.293
-591.967	-200.000	0.031	0.147
-590.952	-47.016	0.252	-0.125
-589.938	18.579	-0.274	-0.223
-588.923	-81.902	0.132	0.044
-587.909	-99.581	0.157	0.040
-586.894	1.299	-0.085	0.062
-585.879	-200.000	-0.039	-0.332
-584.865	-200.000	-0.002	0.235
-583.850	800.000	0.063	-0.181
-582.836	-200.000	0.004	-0.120
-581.821	-82.626	-0.168	-0.055
-580.806	126.217	-0.122	-0.157
-579.792	-200.000	0.008	0.216
-578.777	-200.000	0.018	-0.212
-577.763	-54.297	0.173	-0.080
-576.748	-180.896	-0.252	0.005
-575.733	309.923	0.139	-0.264
-574.719	289.786	-0.062	-0.114
-573.704	-50.461	-0.178	0.085
-572.690	34.175	0.236	-0.209
-571.675	-101.662	-0.350	0.086
-570.661	-13.631	-0.344	-0.226
-569.646	800.000	0.049	0.158
-568.631	-148.800	-0.220	0.018
-567.617	-109.683	-0.259	0.055
-566.602	0.962	-0.034	-0.025
-565.588	138.469	0.177	0.236
-564.573	-200.000	-0.005	0.103
-563.558	401.913	-0.066	0.142
-562.544	91.331	0.058	0.066
-561.529	204.807	0.050	-0.078
-560.515	149.534	0.074	-0.102
-559.500	-5.686	0.037	-0.026
-558.485	-72.300	0.174	-0.066
-557.471	-161.522	-0.143	-0.007
-556.456	-143.179	-0.358	-0.035
-555.442	-200.000	-0.039	0.179
-554.427	-91.715	0.280	-0.081
-553.412	-200.000	0.028	-0.369
-552.398	800.000	-0.091	-0.327
-551.383	-153.804	-0.267	-0.019
-550.369	-112.754	0.252	-0.051
-549.354	800.000	0.109	-0.400
-548.339	800.000	-0.011	0.045
-547.325	800.000	0.073	0.286
-546.310	82.923	0.106	-0.117
-545.296	-42.995	0.221	0.114
-544.281	-154.021	0.178	-0.012
-543.266	-110.543	-0.383	0.081
-542.252	800.000	0.076	0.226
-541.237	16.114	0.030	0.024
-540.223	-200.000	0.064	-0.592
-539.208	55.831	0.153	0.150
-538.193	769.942	-0.133	-0.368
-537.179	800.000	-0.040	-0.118
-536.164	-1.848	-0.152	-0.109
-535.150	-109.143	0.258	0.056
-534.135	-168.567	-0.257	0.010
-533.121	62.397	-0.423	-0.429
-532.106	103.040	0.123	-0.146
-531.091	185.894	0.120	0.181
-530.077	-47.666	0.287	0.141
-529.062	-17.346	0.300	-0.191
-528.048	-93.802	-0.292	0.082
-527.033	800.000	0.054	0.235
-526.018	-36.464	-0.145	0.079
-525.004	1.377	-0.078	-0.057
-523.989	-200.000	0.005	0.127
-522.975	-200.000	0.021	0.350
-521.960	800.000	0.076	0.223
-520.945	10.210	-0.147	-0.113
-519.931	-73.992	0.235	0.086
-518.916	800.000	0.082	0.268
-517.902	-52.590	0.054	-0.026
-516.887	800.000	-0.036	0.138
-515.872	-200.000	0.007	-0.116
-514.858	-200.000	0.009	0.151
-513.843	-117.771	-0.153	0.028
-512.829	-200.000	-0.004	-0.116
-511.814	-200.000	-0.001	0.071
-510.799	2.293	-0.135	0.099
-509.785	38.310	0.212	-0.191
-508.770	-187.910	-0.096	0.001
-507.756	285.493	0.051	-0.093
-506.741	-40.114	-0.211	0.111
-505.726	136.060	0.015	0.020
-504.712	482.492	0.068	-0.157
-503.697	73.541	0.249	-0.265
-502.683	684.960	-0.124	-0.329
-501.668	-180.765	0.273	-0.006
-500.653	-77.532	0.535	-0.188
-499.639	40.343	-0.265	-0.242
-498.624	48.968	-0.181	0.172
-497.610	108.012	0.295	0.356
-496.595	125.367	-0.095	-0.122
-495.581	-200.000	0.037	0.251
-494.566	530.805	0.078	-0.187
-493.551	-200.000	0.059	0.332
-492.537	-200.000	0.008	0.134
-491.522	47.405	0.099	-0.093
-490.508	20.615	0.180	0.147
-489.493	-12.915	0.339	0.224
-488.478	295.214	0.069	0.128
-487.464	-100.287	0.280	-0.071
-486.449	774.295	-0.054	0.149
-485.435	48.749	-0.140	0.133
-484.420	-18.542	0.176	-0.111
-483.405	8.761	0.204	-0.156
-482.391	-91.770	0.204	0.059
-481.376	-42.092	-0.078	-0.040
-480.362	800.000	0.044	-0.163
-479.347	173.964	0.155	0.227
-478.332	-7.288	-0.226	0.155
-477.318	-51.818	-0.070	-0.033
-476.303	-128.471	-0.237	0.034
-475.289	800.000	-0.041	-0.173
-474.274	8.346	0.191	0.145
-473.259	23.538	-0.026	-0.021
-472.245	800.000	0.043	0.140
-471.230	-200.000	0.003	0.033
-470.216	800.000	-0.064	0.192
-469.201	800.000	-0.048	0.171
-468.186	-60.080	-0.286	-0.123
-467.172	450.198	0.061	-0.135
-466.157	800.000	-0.025	0.096
-465.143	259.104	0.047	-0.082
-464.128	800.000	-0.038	-0.135
-463.113	-200.000	0.011	0.170
-462.099	156.924	-0.091	-0.128
-461.084	492.595	0.066	-0.153
-460.070	-19.964	0.241	0.151
-459.055	88.535	-0.113	-0.127
-458.040	289.629	0.232	0.427
-457.026	-127.961	0.268	-0.039
-456.011	-200.000	-0.020	0.178
-454.997	-92.733	-0.139	-0.039
-453.982	-200.000	-0.026	0.417
-452.968	-200.000	-0.045	0.312
-451.953	188.811	-0.121	-0.183
-450.938	-104.010	0.128	-0.030
-449.924	569.719	0.190	0.467
-448.909	-48.807	-0.218	0.106
-447.895	444.782	-0.082	-0.181
-446.880	800.000	0.073	-0.212
-445.865	800.000	0.157	-0.470
-444.851	109.888	-0.135	0.164
-443.836	760.045	0.023	0.063
-442.822	-200.000	-0.012	-0.251
-441.807	-37.022	-0.107	0.058
-440.792	-0.162	0.480	-0.345
-439.778	-128.630	-0.259	-0.037
-438.763	-82.950	-0.456	-0.149
-437.749	-60.508	0.081	0.035
-436.734	-10.638	0.151	-0.101
-435.719	-63.246	0.045	-0.019
-434.705	-200.000	0.013	0.133
-433.690	68.033	0.299	-0.309
-432.676	800.000	0.021	-0.071
-431.661	-19.139	-0.094	-0.059
-430.646	-200.000	-0.000	-0.203
-429.632	212.395	0.062	-0.098
-428.617	-200.000	0.040	-0.312
-427.603	-77.234	-0.048	0.017
-426.588	800.000	-0.126	-0.417
-425.573	86.568	-0.231	-0.258
-424.559	244.227	0.132	0.225
-423.544	190.355	0.079	0.119
-422.530	-135.434	-0.272	0.033
-421.515	-200.000	-0.010	-0.161
-420.500	89.770	-0.120	-0.136
-419.486	191.052	0.016	-0.024
-418.471	-6.409	0.273	-0.188
-417.457	-84.374	-0.223	-0.071
-416.442	-79.554	0.270	-0.092
-415.428	293.282	-0.076	-0.141
-414.413	-170.449	0.025	-0.001
-413.398	-200.000	-0.019	0.133
-412.384	-172.522	-0.329	0.011
-411.369	-64.555	-0.209	0.086
-410.355	-171.595	-0.164	0.005
-409.340	-156.451	0.133	-0.008
-408.325	-200.000	0.007	0.036
-407.311	266.078	0.006	0.011
-406.296	800.000	0.191	0.586
-405.282	-200.000	0.008	-0.049
-404.267	12.189	0.211	-0.164
-403.252	26.596	0.131	0.111
-402.238	-76.903	0.062	0.022
-401.223	-74.238	0.081	-0.029
-400.209	-44.065	-0.371	0.188
-399.194	-200.000	0.007	0.040
-398.179	300.010	0.092	0.172
-397.165	245.531	0.061	-0.104
-396.150	139.049	-0.245	-0.325
-395.136	-40.685	0.091	0.047
-394.121	-69.811	0.067	-0.026
-393.106	-200.000	0.166	-0.000
-392.092	579.855	0.141	0.350
-391.077	-200.000	0.016	0.289
-390.063	76.938	-0.056	0.060
-389.048	195.683	0.152	0.234
-388.033	-48.678	-0.352	-0.171
-387.019	-200.000	0.013	-0.105
-386.004	582.499	-0.129	-0.319
-384.990	-38.527	-0.409	0.218
-383.975	39.639	0.144	-0.130
-382.960	385.633	0.151	0.314
-381.946	800.000	0.048	-0.155
-380.931	169.989	-0.071	-0.102
-379.917	-50.925	-0.119	-0.056
-378.902	177.633	-0.079	-0.116
-377.888	800.000	-0.096	-0.358
-376.873	98.809	-0.191	-0.223
-375.858	132.500	0.159	0.207
-374.844	-34.051	0.162	-0.090
-373.829	85.005	0.057	-0.063
-372.815	141.753	-0.100	-0.133
-371.800	-200.000	0.008	-0.195
-370.785	511.331	0.067	0.156
-369.771	-109.474	-0.380	0.081
-368.756	104.239	-0.355	0.421
-367.742	-200.000	0.044	0.320
-366.727	-10.832	-0.090	0.060
-365.712	-200.000	-0.064	0.286
-364.698	-7.399	-0.254	-0.174
-363.683	-156.615	0.114	0.007
-362.669	75.931	0.297	0.317
-361.654	-200.000	0.008	0.078
-360.639	-200.000	0.017	0.203
-359.625	-57.864	0.235	0.104
-358.610	32.325	0.088	-0.077
-357.596	792.005	-0.037	-0.104
-356.581	96.605	-0.242	-0.279
-355.566	-200.000	-0.044	0.400
-354.552	309.211	-0.133	-0.251
-353.537	-57.993	0.124	-0.054
-352.523	32.719	-0.222	0.194
-351.508	141.594	0.167	0.223
-350.493	33.227	0.178	-0.156
-349.479	-155.395	-0.098	0.006
-348.464	-17.387	0.268	-0.170
-347.450	447.374	0.116	0.258
-346.435	-19.133	0.075	-0.047
-345.420	66.958	-0.174	0.179
-344.406	-200.000	-0.004	0.256
-343.391	389.005	0.095	-0.199
-342.377	-200.000	-0.012	-0.289
-341.362	-117.617	0.447	0.081
-340.348	-200.000	0.001	0.059
-339.333	-9.994	0.093	-0.062
-338.318	-200.000	0.001	0.010
-337.304	-200.000	0.036	0.183
-336.289	800.000	-0.076	-0.296
-335.275	129.571	-0.108	0.139
-334.260	-101.428	-0.388	-0.095
-333.245	-72.699	-0.110	-0.041
-332.231	-173.943	0.307	0.009
-331.216	-172.999	0.081	0.003
-330.202	-200.000	0.056	0.326
-329.187	-200.000	-0.025	0.402
-328.172	-115.995	-0.274	0.051
-327.158	-155.759	-0.080	0.005
-326.143	800.000	-0.097	0.354
-325.129	-200.000	0.017	0.287
-324.114	28.030	-0.057	0.048
-323.099	-200.000	0.003	-0.166
-322.085	59.194	-0.082	0.082
-321.070	-9.229	-0.095	0.064
-320.056	800.000	-0.054	-0.163
-319.041	116.298	0.191	0.236
-318.026	129.329	-0.047	-0.060
-317.012	253.698	0.056	0.097
-315.997	783.002	0.026	-0.073
-314.983	-43.711	-0.052	0.026
-313.968	528.571	0.137	-0.324
-312.953	-192.373	0.220	-0.002
-311.939	797.791	0.017	-0.046
-310.924	-59.557	-0.174	-0.075
-309.910	-200.000	-0.036	-0.247
-308.895	-3.953	0.207	0.144
-307.880	-200.000	0.030	0.212
-306.866	-76.570	-0.164	0.058
-305.851	63.365	-0.281	0.284
-304.837	-200.000	0.090	0.515
-303.822	-200.000	0.000	0.007
-302.807	-200.000	0.013	-0.093
-301.793	39.703	-0.026	0.023
-300.778	39.171	-0.195	-0.176
-299.764	-96.524	0.157	0.042
-298.749	800.000	0.082	-0.295
-297.735	-200.000	0.017	-0.284
-296.720	408.888	0.134	0.286
-295.705	800.000	-0.090	0.253
-294.691	45.575	0.209	0.194
-293.676	-200.000	0.041	-0.395
-292.662	169.498	0.150	-0.216
-291.647	-133.336	0.336	-0.043
-290.632	6.263	0.201	0.150
-289.618	-133.404	0.187	0.024
-288.603	81.101	0.099	-0.107
-287.589	133.114	-0.235	-0.305
-286.574	-164.241	0.150	0.007
-285.559	-68.708	-0.407	0.158
-284.545	179.070	-0.205	-0.302
-283.530	-200.000	-0.036	0.299
-282.516	-200.000	-0.016	0.173
-281.501	-15.533	0.249	0.160
-280.486	-88.219	-0.316	-0.095
-279.472	800.000	0.084	-0.332
-278.457	-11.139	-0.294	-0.195
-277.443	-140.001	0.290	-0.031
-276.428	-159.894	-0.148	0.008
-275.413	-38.647	0.200	0.106
-274.399	-200.000	-0.037	-0.178
-273.384	-55.864	-0.116	0.052
-272.370	-110.318	-0.249	0.052
-271.355	-200.000	0.023	0.126
-270.340	12.506	0.204	0.158
-269.326	692.213	-0.086	0.227
-268.311	-88.984	-0.119	0.035
-267.297	-44.682	-0.118	0.059
-266.282	83.048	-0.456	0.499
-265.267	-200.000	0.024	0.142
-264.253	-28.765	-0.228	0.132
-263.238	-55.741	-0.308	-0.138
-262.224	101.600	0.208	0.244
-261.209	-51.151	0.166	-0.078
-260.195	-200.000	-0.062	-0.587
-259.180	-200.000	-0.070	0.307
-258.165	800.000	0.093	-0.286
-257.151	-200.000	0.023	-0.312
-256.136	-53.297	0.079	-0.036
-255.122	675.657	-0.025	0.066
-254.107	3.413	-0.079	0.058
-253.092	65.374	0.338	-0.343
-252.078	-58.440	0.044	-0.019
-251.063	363.277	0.107	-0.216
-250.049	-200.000	-0.069	-0.304
-249.034	-71.284	0.204	0.077
-248.019	-154.872	0.215	0.014
-247.005	800.000	0.078	-0.279
-245.990	-200.000	0.003	0.555
-244.976	-97.140	0.182	0.048
-243.961	242.317	0.179	0.301
-242.946	800.000	0.060	-0.239
-241.932	57.943	-0.168	0.165
-240.917	186.301	-0.179	0.268
-239.903	-21.038	-0.222	0.137
-238.888	81.817	0.089	0.097
-237.873	-73.056	0.068	0.025
-236.859	410.923	0.145	0.308
-235.844	-200.000	-0.003	-0.167
-234.830	-38.443	0.102	0.054
-233.815	749.523	-0.064	0.173
-232.800	-107.317	0.076	-0.017
-231.786	31.553	-0.130	-0.112
-230.771	50.917	0.174	0.166
-229.757	32.987	0.082	0.071
-228.742	4.737	-0.303	-0.223
-227.727	-200.000	-0.008	-0.159
-226.713	-86.629	-0.117	0.036
-225.698	-200.000	-0.012	-0.191
-224.684	-38.932	-0.078	-0.041
-223.669	-127.956	0.294	-0.042
-222.655	-200.000	0.024	-0.214
-221.640	-105.958	-0.274	0.062
-220.625	-126.833	-0.193	-0.029
-219.611	179.018	-0.045	0.067
-218.596	-113.491	0.277	-0.054
-217.582	-188.153	0.034	0.000
-216.567	189.721	-0.091	-0.136
-215.552	-200.000	-0.041	0.193
-214.538	500.008	-0.083	-0.192
-213.523	23.088	0.203	-0.167
-212.509	29.862	-0.250	-0.213
-211.494	143.640	0.131	-0.175
-210.479	-60.506	0.230	0.098
-209.465	-39.132	-0.201	-0.106
-208.450	-200.000	0.023	-0.221
-207.436	-200.000	-0.052	0.243
-206.421	28.798	-0.349	0.297
-205.406	-124.093	-0.285	-0.045
-204.392	-171.950	-0.039	-0.001
-203.377	-111.383	0.374	0.076
-202.363	-200.000	-0.055	-0.309
-201.348	-97.046	-0.090	0.024
-200.333	-43.030	0.031	-0.016
-199.319	-83.650	-0.164	0.052
-198.304	-200.000	-0.057	-0.414
-197.290	-120.872	0.221	0.037
-196.275	84.919	0.021	0.023
-195.260	-117.073	-0.125	0.023
-194.246	127.067	0.108	0.137
-193.231	-65.741	0.189	0.076
-192.217	-118.219	-0.387	0.069
-191.202	70.669	0.032	-0.033
-190.187	214.438	-0.178	-0.282
-189.173	81.736	0.099	-0.107
-188.158	800.000	0.058	-0.214
-187.144	-144.812	0.394	0.036
-186.129	444.619	-0.119	0.261
-185.114	109.405	-0.016	0.020
-184.100	432.093	-0.100	0.218
-183.085	-74.837	0.101	-0.036
-182.071	27.804	-0.203	0.171
-181.056	63.196	0.482	0.484
-180.042	-16.589	0.230	0.146
-179.027	-129.177	0.186	0.026
-178.012	53.437	0.108	-0.103
-176.998	800.000	0.095	0.350
-175.983	-58.140	0.054	-0.024
-174.969	755.951	-0.092	-0.250
-173.954	159.108	0.151	0.211
-172.939	800.000	-0.095	-0.318
-171.925	-200.000	0.071	-0.315
-170.910	41.712	-0.154	-0.140
-169.896	-200.000	0.025	-0.161
-168.881	800.000	0.095	-0.294
-167.866	53.811	0.260	-0.250
-166.852	95.722	-0.156	-0.178
-165.837	-200.000	-0.007	-0.242
-164.823	-200.000	-0.001	0.091
-163.808	105.536	0.177	0.209
-162.793	-200.000	-0.002	-0.089
-161.779	-159.717	-0.063	-0.003
-160.764	-200.000	0.008	-0.198
-159.750	-55.119	-0.212	0.095
-158.735	-89.193	-0.336	-0.099
-157.720	-4.170	-0.378	0.262
-156.706	-137.884	0.166	-0.019
-155.691	-200.000	-0.026	0.148
-154.677	47.218	0.153	-0.143
-153.662	-51.016	0.093	0.044
-152.647	-158.434	-0.082	-0.005
-151.633	-44.203	0.202	-0.101
-150.618	-177.261	0.359	0.009
-149.604	-30.124	-0.042	-0.024
-148.589	-200.000	-0.012	-0.202
-147.574	-200.000	-0.010	0.108
-146.560	-66.114	-0.500	-0.200
-145.545	92.134	0.243	0.274
-144.531	54.746	0.331	0.319
-143.516	-200.000	-0.017	-0.325
-142.502	800.000	0.071	0.288
-141.487	-1.326	0.143	-0.101
-140.472	278.483	0.110	0.196
-139.458	645.889	0.082	0.210
-138.443	16.454	-0.114	0.090
-137.429	289.506	0.185	0.336
-136.414	208.719	-0.083	0.130
-135.399	800.000	0.047	-0.171
-134.385	-4.892	-0.203	-0.140
-133.370	84.200	-0.171	-0.186
-132.356	61.363	-0.110	0.109
-131.341	-15.092	-0.370	0.237
-130.326	-41.828	-0.055	-0.028
-129.312	-78.929	0.187	-0.064
-128.297	-115.616	-0.211	0.040
-127.283	753.816	-0.168	0.452
-126.268	58.783	0.261	0.256
-125.253	163.016	0.106	-0.149
-124.239	403.798	0.164	0.344
-123.224	-200.000	0.010	-0.321
-122.210	-15.548	0.445	0.284
-121.195	-32.347	-0.314	-0.175
