DTS Sentinel unit serial number:	SN413079Multiplexer serial number:	ORYXHardware model number:	OX4-SRSoftware version number:	ORYX F/W v4.00 Oryx Data Collector v3.7.2.0data status	okinstallation	princeton_trtdifferential loss correction	single-endedforward channel	channel 4reverse channel	N/Adate	2019/09/15time	12:37:34forward acquisition time	60.00reverse acquisition time	0.00gamma	496.2192k internal	0.2293k external	0.2293temperature offset calibration	1.0011default loss term (dB/km)	0.3790temperature slope calibration	1.0000multiplexer offset coefficient	1.0000multiplexer slope coefficient	1.0000fibre end	0.00T internal ref (°C)	35.44T ext. ref 1 (°C)	5.04T ext. ref 2 (°C)	33.40length (m)	temperature (°C)	Stokes	anti-Stokes-747.200	-200.000	-0.009	0.277
-746.185	-200.000	0.008	0.177
-745.171	-5.820	-0.188	-0.132
-744.156	-200.000	-0.017	0.080
-743.142	-110.361	0.499	0.106
-742.127	106.607	0.089	0.108
-741.112	407.700	0.099	-0.215
-740.098	10.538	0.216	0.168
-739.083	-65.015	0.083	-0.034
-738.069	-124.176	0.351	0.056
-737.054	762.614	-0.098	0.272
-736.039	64.736	-0.271	-0.279
-735.025	26.686	-0.249	-0.214
-734.010	-82.287	0.047	-0.016
-732.996	-175.192	0.195	-0.006
-731.981	187.440	0.128	0.195
-730.966	-14.562	-0.180	-0.118
-729.952	-200.000	-0.010	0.084
-728.937	-14.253	-0.325	0.214
-727.923	368.816	-0.091	-0.188
-726.908	-110.835	-0.340	0.072
-725.894	800.000	0.039	0.125
-724.879	97.057	-0.217	-0.254
-723.864	102.378	0.070	-0.084
-722.850	800.000	-0.104	-0.357
-721.835	210.993	-0.051	-0.081
-720.821	-117.650	0.093	-0.017
-719.806	-76.191	0.204	-0.074
-718.791	186.813	0.100	-0.153
-717.777	298.679	0.138	0.259
-716.762	373.081	0.092	-0.190
-715.748	62.432	-0.230	0.235
-714.733	-37.462	-0.033	0.018
-713.718	-94.362	-0.231	0.064
-712.704	-87.177	-0.205	-0.064
-711.689	24.054	0.310	0.261
-710.675	153.727	0.126	0.177
-709.660	-200.000	0.043	0.269
-708.645	76.125	-0.172	-0.186
-707.631	49.862	0.054	-0.052
-706.616	-138.967	0.056	0.006
-705.602	180.021	-0.182	-0.273
-704.587	40.744	0.157	-0.145
-703.572	-200.000	0.010	0.088
-702.558	-99.887	0.333	0.085
-701.543	295.666	-0.177	0.331
-700.529	-95.487	-0.177	-0.048
-699.514	-200.000	0.032	0.188
-698.499	147.110	0.163	-0.224
-697.485	-12.402	-0.069	-0.046
-696.470	237.033	0.117	-0.199
-695.456	-54.222	-0.026	0.012
-694.441	494.115	0.088	0.206
-693.426	347.277	-0.146	0.294
-692.412	7.080	-0.364	-0.277
-691.397	503.014	0.106	-0.249
-690.383	-0.676	-0.102	-0.074
-689.368	107.519	0.135	0.164
-688.354	119.136	-0.121	-0.153
-687.339	262.634	0.081	-0.144
-686.324	-133.149	-0.406	-0.052
-685.310	-150.623	0.137	0.011
-684.295	800.000	-0.058	0.164
-683.281	65.089	0.125	-0.129
-682.266	-40.147	-0.169	0.090
-681.251	-102.606	-0.151	-0.037
-680.237	35.720	0.149	-0.133
-679.222	214.522	0.124	-0.200
-678.208	-200.000	0.061	-0.449
-677.193	405.768	0.081	-0.175
-676.178	-200.000	-0.011	-0.060
-675.164	-90.090	-0.113	-0.034
-674.149	102.645	0.146	-0.174
-673.135	6.030	0.328	-0.248
-672.120	-200.000	-0.009	-0.160
-671.105	-200.000	-0.038	0.346
-670.091	123.119	-0.080	0.102
-669.076	31.769	0.242	0.212
-668.062	728.273	-0.162	-0.442
-667.047	60.058	0.298	-0.301
-666.032	73.684	-0.113	-0.121
-665.018	411.055	-0.074	-0.160
-664.003	-200.000	0.012	-0.202
-662.989	-116.080	0.022	0.004
-661.974	-77.813	0.062	-0.022
-660.959	198.482	-0.155	0.241
-659.945	448.554	-0.167	0.375
-658.930	-70.343	0.255	0.099
-657.916	-134.084	-0.260	-0.033
-656.901	4.708	0.186	0.140
-655.886	267.715	-0.107	-0.191
-654.872	800.000	-0.004	0.014
-653.857	329.657	-0.162	-0.317
-652.843	-120.241	0.116	-0.020
-651.828	-96.763	0.162	-0.043
-650.814	800.000	-0.045	0.167
-649.799	-93.066	0.372	0.106
-648.784	87.965	-0.196	-0.222
-647.770	89.642	0.250	-0.284
-646.755	562.884	-0.031	-0.077
-645.741	-102.879	0.167	-0.040
-644.726	800.000	0.134	-0.485
-643.711	-200.000	0.008	-0.166
-642.697	-130.319	0.131	0.018
-641.682	182.550	-0.121	0.182
-640.668	48.908	-0.029	0.028
-639.653	-78.931	-0.192	-0.067
-638.638	-0.510	-0.206	0.149
-637.624	14.839	0.137	0.109
-636.609	42.075	-0.165	0.153
-635.595	-137.103	-0.325	0.038
-634.580	601.584	-0.096	0.244
-633.565	-19.605	-0.296	0.186
-632.551	238.140	0.154	-0.260
-631.536	153.642	0.128	0.178
-630.522	144.772	-0.115	0.157
-629.507	-116.004	-0.225	0.043
-628.492	-200.000	-0.082	-0.372
-627.478	148.728	-0.234	-0.322
-626.463	3.612	0.170	-0.126
-625.449	-109.691	-0.333	0.071
-624.434	-72.646	0.072	0.027
-623.419	73.428	-0.129	0.137
-622.405	96.020	-0.073	0.085
-621.390	800.000	-0.035	-0.147
-620.376	-184.474	0.206	-0.003
-619.361	122.630	-0.113	-0.144
-618.346	2.446	0.294	-0.217
-617.332	-75.856	0.260	0.094
-616.317	-43.650	0.020	-0.010
-615.303	584.293	0.120	0.301
-614.288	458.697	0.113	-0.257
-613.273	125.161	-0.156	0.200
-612.259	-184.681	0.036	0.001
-611.244	-65.364	0.123	0.051
-610.230	800.000	-0.087	0.291
-609.215	-40.866	-0.209	0.110
-608.201	800.000	-0.150	0.446
-607.186	-76.439	0.432	-0.155
-606.171	-200.000	-0.022	-0.196
-605.157	-74.287	0.100	-0.037
-604.142	-100.852	0.431	-0.108
-603.128	-114.058	0.099	-0.019
-602.113	-200.000	0.018	-0.114
-601.098	-200.000	0.015	0.371
-600.084	-159.151	0.132	0.008
-599.069	-67.980	0.110	-0.044
-598.055	69.279	-0.065	-0.068
-597.040	56.038	0.179	-0.177
-596.025	119.290	-0.059	0.075
-595.011	800.000	-0.025	0.088
-593.996	-200.000	-0.061	-0.276
-592.982	-200.000	-0.024	0.225
-591.967	-172.507	-0.143	-0.005
-590.952	-31.175	-0.196	-0.112
-589.938	10.108	-0.153	0.118
-588.923	163.863	-0.022	-0.032
-587.909	-45.809	-0.202	-0.101
-586.894	-141.611	0.138	-0.014
-585.879	800.000	-0.057	0.175
-584.865	-78.128	0.258	0.090
-583.850	197.639	0.116	0.180
-582.836	800.000	0.135	0.454
-581.821	29.695	0.094	0.082
-580.806	-200.000	0.058	0.340
-579.792	-135.086	-0.126	-0.015
-578.777	397.917	-0.107	0.228
-577.763	-114.036	0.103	0.020
-576.748	-39.217	0.096	-0.051
-575.733	-151.871	0.514	0.038
-574.719	160.908	-0.080	-0.114
-573.704	261.672	-0.187	0.329
-572.690	-101.049	-0.181	-0.045
-571.675	336.169	0.026	0.052
-570.661	38.552	0.216	-0.196
-569.646	425.333	0.048	-0.105
-568.631	5.539	-0.051	0.038
-567.617	-33.113	0.316	-0.178
-566.602	312.769	-0.059	-0.112
-565.588	10.221	0.113	-0.087
-564.573	209.590	0.128	0.204
-563.558	-65.476	-0.130	-0.053
-562.544	-23.193	-0.004	0.002
-561.529	449.706	0.121	0.271
-560.515	800.000	0.037	0.129
-559.500	800.000	-0.023	-0.073
-558.485	7.562	-0.096	0.073
-557.471	-114.744	0.302	-0.059
-556.456	251.224	0.240	-0.415
-555.442	23.203	0.301	0.251
-554.427	4.785	-0.234	-0.175
-553.412	93.029	0.144	-0.165
-552.398	-35.722	0.138	-0.076
-551.383	-79.818	0.085	0.029
-550.369	329.756	0.083	-0.161
-549.354	800.000	0.016	0.049
-548.339	-139.082	0.248	0.027
-547.325	-200.000	0.000	0.052
-546.310	243.660	0.060	-0.102
-545.296	-200.000	-0.037	-0.210
-544.281	673.017	-0.058	-0.152
-543.266	-200.000	0.001	0.040
-542.252	197.027	-0.080	0.124
-541.237	-124.925	-0.016	0.003
-540.223	-200.000	-0.039	0.181
-539.208	800.000	-0.101	0.407
-538.193	-162.139	0.087	0.004
-537.179	-11.397	-0.174	0.117
-536.164	-102.650	0.403	0.098
-535.150	129.939	0.099	0.129
-534.135	-200.000	-0.006	-0.208
-533.121	32.963	-0.223	-0.196
-532.106	31.767	-0.072	-0.063
-531.091	-18.710	0.355	-0.225
-530.077	-116.893	-0.286	-0.053
-529.062	-160.666	0.206	0.011
-528.048	-22.909	-0.165	-0.101
-527.033	-58.165	-0.303	-0.134
-526.018	109.420	-0.275	-0.335
-525.004	140.867	0.073	0.098
-523.989	290.438	0.192	0.353
-522.975	-67.380	0.150	0.060
-521.960	-120.141	0.303	-0.053
-520.945	-200.000	-0.030	-0.169
-519.931	-200.000	0.003	0.083
-518.916	-187.557	0.165	-0.002
-517.902	77.175	-0.092	-0.099
-516.887	376.222	-0.204	-0.422
-515.872	-88.253	0.169	0.051
-514.858	60.796	0.149	-0.150
-513.843	-40.817	-0.299	-0.157
-512.829	-10.051	-0.293	0.197
-511.814	-67.233	-0.117	-0.047
-510.799	-30.613	0.293	-0.168
-509.785	-200.000	-0.047	-0.227
-508.770	-117.155	0.068	0.013
-507.756	265.500	-0.164	0.290
-506.741	153.122	-0.099	0.138
-505.726	1.612	-0.229	-0.167
-504.712	28.639	0.245	-0.210
-503.697	26.609	-0.290	0.246
-502.683	-180.354	0.295	-0.006
-501.668	-200.000	0.052	0.233
-500.653	280.971	0.095	0.172
-499.639	240.046	-0.168	0.283
-498.624	164.233	-0.150	0.214
-497.610	-12.708	-0.383	0.253
-496.595	129.673	-0.192	0.249
-495.581	-45.495	0.188	0.094
-494.566	-112.731	-0.293	-0.059
-493.551	-100.199	-0.265	-0.067
-492.537	275.114	-0.015	0.028
-491.522	114.586	-0.056	0.070
-490.508	792.243	0.131	0.366
-489.493	3.076	0.292	0.215
-488.478	-9.502	-0.074	0.050
-487.464	18.350	0.253	-0.204
-486.449	23.130	-0.147	-0.122
-485.435	-162.382	-0.386	-0.019
-484.420	69.858	0.088	0.092
-483.405	-78.335	-0.324	0.112
-482.391	-151.663	0.403	0.030
-481.376	739.435	-0.070	-0.191
-480.362	14.637	-0.089	0.071
-479.347	8.271	0.258	-0.196
-478.332	-150.468	-0.183	-0.014
-477.318	-76.293	0.384	-0.137
-476.303	28.845	0.191	-0.164
-475.289	-168.739	-0.225	-0.009
-474.274	85.089	-0.201	0.223
-473.259	-91.129	0.368	-0.107
-472.245	-76.665	-0.316	-0.112
-471.230	-165.322	0.257	-0.011
-470.216	-83.113	0.272	-0.089
-469.201	-3.900	0.109	-0.076
-468.186	-164.424	-0.122	-0.006
-467.172	45.625	-0.088	-0.082
-466.157	70.609	-0.083	-0.087
-465.143	-5.189	-0.088	0.061
-464.128	-78.041	0.206	-0.072
-463.113	677.355	-0.046	0.120
-462.099	-45.863	0.105	0.053
-461.084	128.217	-0.266	-0.343
-460.070	148.150	0.216	0.294
-459.055	727.068	-0.116	0.314
-458.040	-92.398	-0.366	0.104
-457.026	-54.875	-0.212	-0.097
-456.011	456.465	0.157	-0.352
-454.997	-200.000	-0.007	0.077
-453.982	202.699	-0.093	0.145
-452.968	118.897	0.208	0.260
-451.953	207.626	0.127	-0.201
-450.938	800.000	-0.101	-0.370
-449.924	748.803	-0.043	-0.117
-448.909	800.000	0.036	-0.117
-447.895	512.333	0.141	0.333
-446.880	-200.000	-0.000	0.086
-445.865	800.000	0.040	0.152
-444.851	-6.800	-0.247	-0.170
-443.836	-200.000	-0.027	-0.383
-442.822	-134.724	0.344	-0.042
-441.807	-42.954	-0.103	0.053
-440.792	-200.000	0.013	-0.340
-439.778	15.926	0.120	0.096
-438.763	-81.114	-0.191	0.064
-437.749	501.080	-0.108	-0.253
-436.734	-148.122	0.142	-0.012
-435.719	19.745	0.211	-0.172
-434.705	-66.747	-0.237	-0.095
-433.690	800.000	-0.065	0.206
-432.676	153.982	-0.091	0.126
-431.661	-83.731	0.148	-0.048
-430.646	-200.000	0.028	-0.131
-429.632	-91.961	-0.058	0.017
-428.617	-150.614	0.543	0.042
-427.603	-200.000	-0.019	-0.469
-426.588	-117.563	0.427	-0.078
-425.573	-39.147	0.434	-0.230
-424.559	800.000	-0.024	0.096
-423.544	-114.493	-0.261	-0.051
-422.530	-200.000	-0.019	0.210
-421.515	-200.000	0.009	-0.302
-420.500	107.698	-0.087	0.105
-419.486	17.671	0.252	-0.202
-418.471	9.547	-0.263	-0.201
-417.457	-94.345	-0.298	0.082
-416.442	263.043	0.171	-0.299
-415.428	-140.393	-0.228	-0.024
-414.413	41.285	0.069	0.063
-413.398	568.061	-0.021	0.050
-412.384	-112.663	-0.214	-0.043
-411.369	-57.136	0.191	0.085
-410.355	-121.579	-0.399	-0.067
-409.340	-200.000	0.017	0.122
-408.325	29.794	0.124	-0.107
-407.311	67.060	-0.130	0.133
-406.296	-39.067	-0.339	-0.180
-405.282	-200.000	0.009	0.084
-404.267	379.701	0.145	-0.299
-403.252	238.439	0.130	-0.219
-402.238	-31.088	0.121	0.069
-401.223	-48.977	-0.061	-0.030
-400.209	310.501	-0.056	0.106
-399.194	267.472	-0.099	-0.174
-398.179	486.058	-0.056	-0.128
-397.165	-12.879	0.225	-0.148
-396.150	800.000	-0.062	0.219
-395.136	-2.776	-0.168	0.119
-394.121	88.605	0.101	-0.113
-393.106	800.000	0.103	0.304
-392.092	314.704	-0.053	-0.100
-391.077	149.097	-0.235	0.322
-390.063	11.005	0.173	0.133
-389.048	451.101	-0.056	0.124
-388.033	220.664	0.138	0.223
-387.019	-200.000	0.004	-0.154
-386.004	800.000	-0.046	0.196
-384.990	205.358	-0.041	-0.064
-383.975	-136.665	-0.124	0.015
-382.960	-113.620	-0.025	-0.005
-381.946	-200.000	-0.068	-0.393
-380.931	-96.865	0.179	0.047
-379.917	-184.283	0.177	0.003
-378.902	-18.802	-0.188	0.118
-377.888	-200.000	-0.026	0.159
-376.873	-200.000	-0.003	0.164
-375.858	433.100	0.040	-0.088
-374.844	-88.463	0.202	-0.061
-373.829	-102.365	0.104	0.025
-372.815	44.091	0.093	0.086
-371.800	-200.000	-0.049	0.219
-370.785	-44.663	0.279	-0.140
-369.771	-127.084	0.095	-0.014
-368.756	78.674	-0.234	0.252
-367.742	-30.865	-0.313	0.178
-366.727	-200.000	0.052	0.292
-365.712	427.006	-0.147	0.319
-364.698	-65.171	0.217	-0.088
-363.683	-160.684	0.291	-0.016
-362.669	130.435	-0.140	0.181
-361.654	122.866	0.058	0.073
-360.639	-31.631	-0.158	0.089
-359.625	295.740	0.206	0.381
-358.610	205.427	-0.085	-0.133
-357.596	53.496	-0.083	0.081
-356.581	-138.138	-0.262	-0.029
-355.566	-200.000	-0.009	-0.435
-354.552	-193.405	0.271	-0.002
-353.537	-200.000	-0.038	-0.213
-352.523	327.360	-0.108	-0.208
-351.508	-106.041	0.377	-0.086
-350.493	194.209	0.104	-0.158
-349.479	-85.905	-0.092	0.029
-348.464	87.662	-0.246	-0.275
-347.450	-200.000	-0.003	0.079
-346.435	-200.000	-0.029	0.399
-345.420	-200.000	0.005	0.213
-344.406	-100.893	0.424	-0.105
-343.391	271.895	-0.066	0.118
-342.377	336.983	-0.087	0.170
-341.362	18.205	-0.051	-0.041
-340.348	5.636	0.081	0.060
-339.333	-57.069	0.320	0.142
-338.318	49.122	-0.214	0.203
-337.304	800.000	0.012	0.041
-336.289	-15.195	-0.257	-0.166
-335.275	800.000	-0.047	-0.186
-334.260	71.147	-0.543	-0.567
-333.245	-104.482	-0.093	0.022
-332.231	-200.000	0.006	-0.058
-331.216	410.597	0.141	0.302
-330.202	48.734	0.320	0.302
-329.187	-122.881	-0.147	-0.024
-328.172	-19.725	-0.297	0.185
-327.158	110.134	0.021	-0.026
-326.143	5.824	-0.105	0.078
-325.129	-106.902	-0.103	0.023
-324.114	800.000	-0.015	-0.056
-323.099	38.173	0.289	-0.259
-322.085	180.543	0.157	-0.232
-321.070	-171.039	0.252	-0.009
-320.056	-119.484	0.114	0.020
-319.041	-95.840	-0.274	0.074
-318.026	-200.000	-0.001	-0.266
-317.012	88.741	-0.070	0.078
-315.997	738.397	0.076	-0.204
-314.983	77.458	0.052	-0.055
-313.968	52.281	0.082	-0.079
-312.953	-92.816	-0.254	0.071
-311.939	238.204	0.190	0.318
-310.924	-41.727	0.062	-0.032
-309.910	373.329	-0.045	-0.092
-308.895	293.713	0.158	-0.290
-307.880	-134.878	0.195	0.024
-306.866	448.583	0.160	0.356
-305.851	-200.000	0.012	0.088
-304.837	-200.000	0.030	0.153
-303.822	-15.002	0.168	0.109
-302.807	146.039	0.160	0.216
-301.793	492.930	-0.114	0.264
-300.778	-112.495	0.206	-0.041
-299.764	-128.378	0.184	-0.026
-298.749	-37.964	-0.222	-0.119
-297.735	-200.000	0.007	0.105
-296.720	800.000	-0.060	-0.175
-295.705	-41.094	0.076	-0.039
-294.691	207.200	-0.119	-0.187
-293.676	316.422	0.090	-0.172
-292.662	-154.594	0.068	0.005
-291.647	-31.483	0.054	0.031
-290.632	121.682	-0.200	0.250
-289.618	106.855	-0.186	-0.222
-288.603	-79.700	-0.310	0.105
-287.589	-23.181	-0.139	-0.084
-286.574	-155.056	0.057	-0.004
-285.559	-82.098	-0.180	-0.059
-284.545	5.422	0.262	0.194
-283.530	-33.011	0.160	0.089
-282.516	-200.000	0.007	-0.049
-281.501	628.107	-0.057	0.146
-280.486	-131.140	-0.347	0.046
-279.472	392.379	0.027	-0.056
-278.457	366.782	-0.162	-0.328
-277.443	-101.316	-0.267	-0.066
-276.428	-196.766	-0.242	0.002
-275.413	168.912	0.085	-0.122
-274.399	800.000	-0.089	-0.299
-273.384	-42.652	-0.022	0.011
-272.370	-200.000	-0.033	-0.330
-271.355	800.000	0.023	0.095
-270.340	-200.000	-0.068	-0.000
-269.326	800.000	-0.077	0.268
-268.311	485.281	-0.160	-0.365
-267.297	-103.403	-0.366	0.087
-266.282	800.000	0.066	0.216
-265.267	-41.094	-0.265	-0.138
-264.253	800.000	0.037	-0.127
-263.238	-150.281	-0.170	0.013
-262.224	37.473	-0.067	-0.060
-261.209	-7.127	0.186	0.127
-260.195	-115.745	0.405	0.076
-259.180	800.000	0.026	-0.101
-258.165	800.000	0.062	-0.247
-257.151	286.854	0.142	0.258
-256.136	-85.034	-0.166	-0.052
-255.122	-123.418	0.282	-0.045
-254.107	54.849	-0.165	0.160
-253.092	-13.347	-0.126	0.082
-252.078	-172.504	0.099	-0.003
-251.063	-42.203	0.163	0.083
-250.049	-75.013	0.347	0.125
-249.034	-39.265	-0.161	-0.085
-248.019	71.573	-0.075	-0.079
-247.005	-30.740	-0.152	0.087
-245.990	-34.427	0.213	-0.117
-244.976	-200.000	-0.018	0.115
-243.961	-29.351	-0.020	-0.011
-242.946	-82.340	-0.189	0.062
-241.932	66.735	0.031	0.032
-240.917	57.560	0.072	0.070
-239.903	-200.000	0.017	0.100
-238.888	-123.666	0.114	-0.018
-237.873	-98.494	-0.181	0.046
-236.859	-25.743	0.249	0.147
-235.844	-131.185	0.244	-0.032
-234.830	-180.684	0.065	0.001
-233.815	29.940	-0.138	0.118
-232.800	-200.000	0.001	0.011
-231.786	480.915	-0.028	-0.064
-230.771	800.000	-0.033	0.140
-229.757	800.000	0.068	0.230
-228.742	-14.481	-0.100	0.064
-227.727	800.000	-0.091	-0.311
-226.713	-27.505	0.104	0.061
-225.698	20.541	-0.086	0.070
-224.684	84.615	0.194	-0.213
-223.669	-200.000	0.032	0.393
-222.655	-200.000	0.005	-0.070
-221.640	-8.362	-0.273	-0.184
-220.625	-200.000	0.029	-0.275
-219.611	800.000	0.072	-0.221
-218.596	-119.796	-0.513	0.089
-217.582	-14.362	-0.282	0.182
-216.567	800.000	0.043	0.180
-215.552	-19.553	-0.060	0.037
-214.538	-44.154	0.063	0.032
-213.523	-200.000	0.011	-0.090
-212.509	-200.000	-0.070	-0.529
-211.494	-18.606	0.141	0.088
-210.479	-184.644	-0.285	0.005
-209.465	179.046	-0.118	0.173
-208.450	-121.589	-0.036	0.006
-207.436	-51.220	0.191	-0.090
-206.421	800.000	0.019	0.071
-205.406	-35.547	0.345	0.188
-204.392	-87.264	-0.301	-0.091
-203.377	-200.000	0.005	-0.047
-202.363	-200.000	0.005	0.297
-201.348	800.000	-0.104	-0.304
-200.333	-23.749	0.260	-0.156
-199.319	-200.000	0.005	0.023
-198.304	309.658	-0.067	0.125
-197.290	-7.731	0.102	0.069
-196.275	70.409	-0.200	-0.207
-195.260	11.121	-0.155	0.119
-194.246	800.000	-0.067	0.233
-193.231	-200.000	0.017	0.215
-192.217	-26.153	0.073	0.043
-191.202	-140.102	0.226	0.024
-190.187	130.170	0.159	-0.203
-189.173	-91.392	0.170	0.049
-188.158	-200.000	-0.049	0.437
-187.144	-81.301	0.207	0.068
-186.129	-125.723	-0.173	-0.026
-185.114	-34.349	-0.070	0.038
-184.100	-162.197	-0.157	0.008
-183.085	-112.562	0.263	-0.052
-182.071	-91.171	-0.231	0.066
-181.056	-26.921	-0.267	-0.156
-180.042	-163.583	0.194	0.009
-179.027	800.000	-0.015	-0.043
-178.012	800.000	-0.019	-0.061
-176.998	100.842	0.061	0.071
-175.983	237.076	0.030	0.050
-174.969	800.000	0.110	0.376
-173.954	73.895	0.274	-0.288
-172.939	-67.702	-0.057	0.022
-171.925	56.082	-0.307	-0.298
-170.910	177.101	0.188	0.273
-169.896	800.000	-0.030	-0.132
-168.881	-109.587	-0.254	-0.054
-167.866	-50.508	-0.289	-0.137
-166.852	114.098	-0.249	-0.303
-165.837	-156.090	0.063	-0.004
-164.823	-200.000	0.039	-0.259
-163.808	-90.913	0.215	0.062
-162.793	560.234	0.106	-0.257
-161.779	-200.000	0.014	0.127
-160.764	41.567	0.143	-0.130
-159.750	284.526	-0.082	0.147
-158.735	-200.000	0.010	-0.085
-157.720	-122.761	-0.106	-0.017
-156.706	233.219	0.129	-0.212
-155.691	123.085	-0.156	0.195
-154.677	-156.887	-0.362	0.022
-153.662	-31.209	-0.211	0.119
-152.647	-200.000	-0.005	0.041
-151.633	-200.000	-0.009	-0.106
-150.618	25.356	-0.134	0.111
-149.604	-85.753	0.174	0.054
-148.589	-97.401	0.251	-0.065
-147.574	409.550	0.097	-0.206
-146.560	-127.124	0.257	-0.038
-145.545	434.862	0.067	-0.145
-144.531	75.986	0.169	0.179
-143.516	800.000	0.139	0.420
-142.502	800.000	0.110	-0.313
-141.487	287.332	0.181	0.327
-140.472	-97.719	0.140	-0.036
-139.458	-14.749	-0.262	-0.168
-138.443	63.574	0.166	0.166
-137.429	-163.797	0.215	0.010
-136.414	800.000	-0.043	-0.157
-135.399	203.604	0.099	0.153
-134.385	-200.000	-0.011	0.373
-133.370	-200.000	-0.004	0.111
-132.356	800.000	-0.047	-0.150
-131.341	34.902	-0.352	0.308
-130.326	800.000	0.039	-0.138
-129.312	800.000	0.032	-0.101
-128.297	435.757	0.031	0.067
-127.283	-98.491	-0.118	0.030
-126.268	-133.385	0.235	0.029
-125.253	-200.000	0.025	0.177
-124.239	800.000	-0.081	0.305
-123.224	-200.000	-0.004	0.130
-122.210	-61.731	0.083	-0.035
-121.195	800.000	0.051	0.206
