DTS Sentinel unit serial number:	SN413079Multiplexer serial number:	ORYXHardware model number:	OX4-SRSoftware version number:	ORYX F/W v4.00 Oryx Data Collector v3.7.2.0data status	okinstallation	princeton_trtdifferential loss correction	single-endedforward channel	channel 4reverse channel	N/Adate	2019/09/14time	19:17:35forward acquisition time	60.00reverse acquisition time	0.00gamma	496.2192k internal	0.2303k external	0.2303temperature offset calibration	1.0098default loss term (dB/km)	0.3790temperature slope calibration	1.0000multiplexer offset coefficient	1.0000multiplexer slope coefficient	1.0000fibre end	0.00T internal ref (°C)	35.14T ext. ref 1 (°C)	4.87T ext. ref 2 (°C)	29.12length (m)	temperature (°C)	Stokes	anti-Stokes-747.200	800.000	0.016	0.065
-746.185	32.035	-0.070	0.061
-745.171	206.567	-0.156	-0.248
-744.156	47.189	-0.172	0.163
-743.142	-200.000	0.012	0.165
-742.127	800.000	0.095	0.286
-741.112	-40.667	-0.208	0.110
-740.098	14.565	-0.239	0.190
-739.083	78.065	0.086	0.094
-738.069	356.618	0.103	0.209
-737.054	-200.000	-0.002	0.093
-736.039	800.000	0.057	-0.248
-735.025	-168.713	0.202	-0.008
-734.010	616.901	-0.050	-0.127
-732.996	-200.000	0.080	-0.359
-731.981	-48.736	-0.270	-0.132
-730.966	800.000	-0.109	-0.324
-729.952	-112.696	0.497	0.101
-728.937	768.771	0.064	0.176
-727.923	800.000	0.038	-0.108
-726.908	241.376	-0.198	-0.337
-725.894	-47.797	-0.210	0.104
-724.879	-200.000	0.008	-0.085
-723.864	-200.000	0.004	0.137
-722.850	18.244	0.023	0.018
-721.835	550.845	0.083	0.204
-720.821	103.800	-0.374	0.448
-719.806	-48.063	0.226	0.111
-718.791	418.055	0.120	-0.260
-717.777	-14.093	-0.112	-0.074
-716.762	20.675	-0.163	-0.135
-715.748	-68.353	-0.123	0.049
-714.733	-200.000	-0.001	0.053
-713.718	-103.858	-0.293	-0.070
-712.704	-65.173	-0.233	-0.095
-711.689	218.294	0.064	0.104
-710.675	-115.800	-0.631	0.120
-709.660	327.162	-0.081	-0.157
-708.645	-19.642	-0.362	-0.228
-707.631	-142.629	-0.216	-0.022
-706.616	800.000	-0.048	-0.181
-705.602	-200.000	0.034	-0.324
-704.587	-11.013	-0.135	0.090
-703.572	800.000	-0.097	0.292
-702.558	27.045	-0.120	-0.103
-701.543	290.989	-0.099	0.184
-700.529	-142.215	-0.066	-0.007
-699.514	34.911	0.163	-0.145
-698.499	-18.508	0.315	0.200
-697.485	800.000	-0.109	-0.318
-696.470	800.000	0.054	0.190
-695.456	-81.020	-0.184	-0.062
-694.441	-176.663	0.031	-0.001
-693.426	-200.000	0.010	0.141
-692.412	83.423	0.064	-0.071
-691.397	-200.000	-0.039	0.176
-690.383	-89.915	-0.135	-0.040
-689.368	-76.483	0.359	0.128
-688.354	-77.237	-0.281	0.100
-687.339	-8.723	-0.196	-0.134
-686.324	82.594	0.101	0.111
-685.310	-200.000	0.034	-0.207
-684.295	-39.398	-0.170	-0.090
-683.281	-15.303	-0.141	-0.091
-682.266	560.911	0.055	-0.134
-681.251	-126.066	0.130	0.020
-680.237	55.312	0.204	-0.201
-679.222	-2.770	0.043	0.031
-678.208	-79.322	-0.372	-0.128
-677.193	-102.631	-0.062	0.015
-676.178	-105.750	-0.238	0.055
-675.164	19.490	0.438	0.358
-674.149	-126.767	0.290	0.044
-673.135	87.522	-0.082	0.092
-672.120	-130.565	0.250	-0.034
-671.105	577.991	0.068	0.168
-670.091	63.039	-0.304	-0.309
-669.076	-72.261	0.231	0.087
-668.062	-115.872	0.040	-0.008
-667.047	800.000	-0.021	-0.072
-666.032	-70.851	-0.206	-0.079
-665.018	-16.311	-0.380	0.245
-664.003	-62.873	-0.382	0.161
-662.989	800.000	-0.105	0.299
-661.974	-115.412	-0.323	-0.062
-660.959	-173.672	0.089	-0.003
-659.945	33.512	-0.066	0.058
-658.930	455.777	0.127	0.286
-657.916	-91.274	-0.109	-0.032
-656.901	578.632	-0.085	-0.210
-655.886	-121.283	0.078	0.013
-654.872	-92.705	-0.075	0.021
-653.857	800.000	0.075	-0.214
-652.843	-108.945	-0.217	0.047
-651.828	-92.967	-0.132	-0.037
-650.814	8.016	-0.175	0.133
-649.799	-28.528	0.103	-0.060
-648.784	159.299	0.165	-0.233
-647.770	-52.366	-0.215	-0.101
-646.755	-104.022	0.135	0.032
-645.741	-200.000	-0.010	0.143
-644.726	-119.647	0.096	-0.017
-643.711	-17.411	0.319	0.204
-642.697	-91.158	0.268	0.078
-641.682	199.529	-0.057	-0.089
-640.668	800.000	0.055	0.158
-639.653	293.475	0.073	-0.135
-638.638	8.208	-0.332	-0.253
-637.624	286.783	0.103	-0.188
-636.609	-200.000	0.081	-0.424
-635.595	-125.104	-0.176	0.027
-634.580	-125.241	0.164	-0.025
-633.565	5.487	0.052	0.039
-632.551	73.420	0.078	-0.083
-631.536	-41.168	0.069	0.036
-630.522	245.035	0.150	0.257
-629.507	-105.737	-0.347	-0.080
-628.492	107.036	0.115	-0.138
-627.478	-90.608	0.171	-0.050
-626.463	-4.298	0.217	-0.152
-625.449	548.360	-0.121	0.294
-624.434	92.304	0.188	0.215
-623.419	-88.199	-0.325	-0.099
-622.405	800.000	0.045	-0.169
-621.390	-45.361	0.253	0.127
-620.376	-97.378	0.100	-0.026
-619.361	800.000	0.030	0.104
-618.346	-6.554	0.242	0.167
-617.332	-87.911	-0.151	0.046
-616.317	-51.926	-0.196	-0.092
-615.303	-200.000	0.049	0.339
-614.288	-200.000	0.003	-0.039
-613.273	-62.084	0.142	0.060
-612.259	-14.719	-0.300	-0.195
-611.244	78.229	0.173	-0.187
-610.230	225.259	0.224	-0.367
-609.215	-21.793	-0.249	-0.153
-608.201	-38.586	-0.247	-0.132
-607.186	-69.460	-0.137	0.053
-606.171	453.386	-0.073	-0.165
-605.157	-200.000	-0.014	-0.219
-604.142	-36.232	-0.118	-0.065
-603.128	-53.389	-0.109	-0.051
-602.113	190.790	0.190	-0.289
-601.098	-74.651	-0.164	-0.060
-600.084	184.600	0.095	0.142
-599.069	251.122	0.104	0.180
-598.055	-200.000	0.036	0.000
-597.040	104.608	-0.037	-0.044
-596.025	98.201	-0.164	-0.192
-595.011	111.430	0.089	0.108
-593.996	-59.219	0.321	0.140
-592.982	-200.000	-0.025	-0.164
-591.967	-135.213	-0.443	0.054
-590.952	-200.000	0.003	-0.057
-589.938	800.000	0.071	-0.291
-588.923	296.044	-0.173	0.321
-587.909	-48.791	-0.137	0.067
-586.894	-39.190	-0.261	-0.139
-585.879	87.629	-0.283	0.317
-584.865	800.000	0.073	0.229
-583.850	-200.000	0.004	-0.055
-582.836	751.818	0.129	-0.351
-581.821	-200.000	0.030	-0.230
-580.806	515.082	-0.105	-0.249
-579.792	-1.894	-0.450	0.320
-578.777	-200.000	0.059	0.473
-577.763	239.187	-0.042	0.070
-576.748	-97.581	-0.369	-0.097
-575.733	160.119	0.169	-0.239
-574.719	-50.416	0.367	0.176
-573.704	-25.701	-0.265	0.158
-572.690	-200.000	-0.088	0.462
-571.675	-63.830	-0.291	0.120
-570.661	512.670	0.079	-0.186
-569.646	64.503	-0.091	-0.093
-568.631	168.167	0.159	-0.229
-567.617	-200.000	-0.032	0.273
-566.602	-116.337	0.294	0.055
-565.588	-126.173	-0.307	-0.046
-564.573	-96.003	0.257	-0.069
-563.558	30.657	0.162	-0.140
-562.544	-45.415	0.084	-0.042
-561.529	-62.997	-0.208	0.087
-560.515	48.603	-0.231	-0.219
-559.500	-200.000	-0.030	-0.227
-558.485	27.189	0.014	0.012
-557.471	-200.000	0.009	-0.124
-556.456	9.720	-0.116	0.089
-555.442	71.133	0.059	0.061
-554.427	743.009	-0.070	-0.190
-553.412	-92.433	-0.280	0.080
-552.398	-200.000	0.014	-0.123
-551.383	-200.000	0.039	-0.188
-550.369	44.650	-0.127	-0.118
-549.354	800.000	0.040	0.114
-548.339	130.625	0.213	0.276
-547.325	53.937	-0.135	-0.131
-546.310	800.000	0.068	0.293
-545.296	3.549	-0.132	0.097
-544.281	-107.281	0.116	-0.026
-543.266	-140.839	-0.235	-0.025
-542.252	-52.615	0.103	0.048
-541.237	-200.000	-0.082	0.387
-540.223	115.406	0.160	0.197
-539.208	-102.752	0.307	0.074
-538.193	-81.111	0.079	0.027
-537.179	435.697	0.083	0.181
-536.164	800.000	0.056	-0.199
-535.150	-42.337	0.336	0.173
-534.135	221.345	0.126	0.204
-533.121	-56.636	-0.221	-0.099
-532.106	-146.533	-0.259	0.023
-531.091	-49.916	0.185	-0.089
-530.077	-142.356	-0.129	0.013
-529.062	688.378	-0.092	0.244
-528.048	-158.900	0.081	0.005
-527.033	-82.342	0.401	-0.132
-526.018	-158.112	-0.242	0.014
-525.004	30.314	0.060	0.052
-523.989	-67.612	0.352	0.139
-522.975	545.455	-0.092	0.222
-521.960	-158.004	-0.236	0.014
-520.945	-181.457	0.256	-0.005
-519.931	112.965	-0.089	-0.109
-518.916	-154.381	0.118	0.008
-517.902	35.224	0.200	0.177
-516.887	80.282	0.211	0.230
-515.872	12.356	0.095	0.074
-514.858	-136.154	-0.258	-0.030
-513.843	-188.259	0.238	0.003
-512.829	27.611	-0.194	0.165
-511.814	92.686	0.207	-0.236
-510.799	655.035	-0.089	-0.232
-509.785	248.197	0.149	-0.254
-508.770	538.861	-0.147	-0.352
-507.756	-83.253	-0.146	0.047
-506.741	-81.902	-0.169	-0.056
-505.726	-114.238	0.129	-0.025
-504.712	800.000	-0.047	0.204
-503.697	5.100	-0.017	-0.013
-502.683	-200.000	-0.016	-0.124
-501.668	-200.000	-0.032	0.391
-500.653	800.000	-0.056	-0.220
-499.639	0.588	-0.054	0.039
-498.624	-200.000	0.014	0.128
-497.610	270.160	0.083	-0.146
-496.595	447.511	-0.095	0.211
-495.581	800.000	-0.091	0.256
-494.566	-157.594	0.202	0.012
-493.551	-100.609	-0.023	0.006
-492.537	-138.788	-0.212	-0.023
-491.522	-140.585	-0.053	0.006
-490.508	210.089	0.160	-0.253
-489.493	412.029	0.044	-0.094
-488.478	-62.957	-0.073	0.030
-487.464	-46.068	0.103	-0.051
-486.449	7.774	0.232	-0.175
-485.435	-165.674	0.270	-0.012
-484.420	625.126	-0.113	0.288
-483.405	182.856	0.135	0.200
-482.391	-107.389	-0.119	-0.026
-481.376	800.000	-0.074	-0.226
-480.362	-5.258	-0.194	-0.135
-479.347	90.708	-0.165	-0.186
-478.332	-56.215	0.252	0.113
-477.318	-104.619	-0.224	-0.052
-476.303	-200.000	-0.070	-0.481
-475.289	-28.387	-0.138	-0.080
-474.274	-26.348	-0.178	0.105
-473.259	-68.421	-0.202	-0.079
-472.245	-200.000	-0.038	0.266
-471.230	5.048	0.155	-0.115
-470.216	422.254	-0.063	0.135
-469.201	-200.000	-0.054	-0.272
-468.186	-89.388	0.278	0.082
-467.172	23.210	0.069	0.057
-466.157	88.012	-0.132	-0.147
-465.143	-57.680	-0.384	0.169
-464.128	245.156	-0.145	0.247
-463.113	11.468	0.345	0.266
-462.099	-79.514	0.422	-0.144
-461.084	675.448	-0.098	-0.257
-460.070	363.217	0.166	-0.335
-459.055	800.000	-0.050	-0.148
-458.040	539.927	0.082	0.196
-457.026	56.323	0.075	-0.074
-456.011	-93.241	-0.222	0.062
-454.997	-133.078	0.096	0.012
-453.982	-200.000	-0.022	-0.211
-452.968	-62.328	0.096	0.040
-451.953	124.219	-0.135	0.171
-450.938	-41.292	0.058	0.030
-449.924	339.530	-0.045	0.089
-448.909	-200.000	-0.019	0.283
-447.895	800.000	0.083	0.291
-446.880	-96.322	-0.312	0.083
-445.865	-33.762	-0.048	0.027
-444.851	-156.633	-0.358	-0.022
-443.836	-45.485	0.162	-0.081
-442.822	448.478	-0.130	0.288
-441.807	800.000	-0.155	0.445
-440.792	-103.876	0.131	-0.031
-439.778	33.096	-0.092	0.080
-438.763	31.384	0.177	-0.153
-437.749	-32.396	0.256	0.144
-436.734	-69.204	-0.162	-0.063
-435.719	271.339	0.148	-0.262
-434.705	-104.282	0.175	0.041
-433.690	22.972	-0.351	-0.289
-432.676	-200.000	0.025	0.159
-431.661	52.798	-0.048	0.046
-430.646	800.000	0.097	0.331
-429.632	-80.983	0.161	0.054
-428.617	74.905	0.163	0.173
-427.603	800.000	-0.033	0.102
-426.588	135.906	-0.202	0.265
-425.573	-109.042	-0.269	-0.058
-424.559	254.074	-0.111	0.190
-423.544	-113.147	-0.080	0.016
-422.530	151.651	0.214	-0.293
-421.515	800.000	0.054	-0.201
-420.500	-34.543	0.083	-0.046
-419.486	737.775	0.034	0.091
-418.471	3.409	-0.470	0.344
-417.457	-64.388	0.417	0.171
-416.442	800.000	-0.052	-0.216
-415.428	800.000	0.058	-0.195
-414.413	17.783	-0.341	-0.273
-413.398	-51.230	-0.136	0.064
-412.384	-139.400	-0.200	0.022
-411.369	79.664	0.032	0.034
-410.355	-50.356	-0.209	0.099
-409.340	800.000	-0.023	-0.081
-408.325	-65.360	-0.213	0.086
-407.311	800.000	-0.079	-0.238
-406.296	-99.347	0.242	-0.061
-405.282	496.314	-0.111	0.256
-404.267	-103.545	0.170	-0.040
-403.252	-27.616	0.129	0.075
-402.238	-95.093	-0.290	0.079
-401.223	23.420	0.216	-0.178
-400.209	9.790	-0.149	0.113
-399.194	-72.986	-0.197	0.073
-398.179	-141.957	-0.097	0.010
-397.165	-32.063	-0.255	0.144
-396.150	-97.062	-0.118	-0.031
-395.136	-44.529	-0.250	-0.126
-394.121	-157.099	-0.241	-0.015
-393.106	-160.527	-0.215	0.012
-392.092	118.984	-0.075	-0.093
-391.077	-14.415	-0.432	0.279
-390.063	-109.744	0.064	0.014
-389.048	800.000	0.047	0.135
-388.033	-200.000	-0.014	-0.135
-387.019	172.473	0.147	0.213
-386.004	-161.428	-0.348	-0.018
-384.990	-200.000	-0.004	0.113
-383.975	-200.000	-0.010	0.257
-382.960	3.892	-0.206	-0.151
-381.946	-200.000	-0.072	-0.462
-380.931	729.886	0.027	0.072
-379.917	366.274	0.035	-0.071
-378.902	-103.319	-0.196	0.046
-377.888	-22.104	-0.030	0.018
-376.873	76.797	-0.204	0.217
-375.858	-200.000	-0.008	-0.287
-374.844	-200.000	-0.009	0.149
-373.829	-47.214	0.379	0.186
-372.815	73.288	-0.221	0.233
-371.800	-126.439	-0.168	0.025
-370.785	-97.189	0.293	0.077
-369.771	17.497	0.081	0.065
-368.756	-200.000	0.030	-0.284
-367.742	116.411	0.259	-0.319
-366.727	30.614	-0.077	-0.066
-365.712	-162.678	-0.131	-0.006
-364.698	-200.000	-0.015	-0.183
-363.683	-200.000	0.050	-0.219
-362.669	-57.454	-0.160	-0.070
-361.654	-114.066	0.185	0.036
-360.639	-71.259	0.114	0.043
-359.625	-60.531	-0.151	-0.064
-358.610	-132.392	0.102	0.013
-357.596	-107.414	-0.293	0.065
-356.581	62.023	0.043	0.043
-355.566	-156.526	0.241	-0.015
-354.552	-52.210	-0.404	-0.188
-353.537	-200.000	0.029	-0.253
-352.523	230.223	-0.089	0.146
-351.508	-200.000	0.030	-0.265
-350.493	-91.209	-0.167	0.048
-349.479	800.000	-0.046	-0.159
-348.464	800.000	0.064	0.208
-347.450	-200.000	0.000	0.240
-346.435	-200.000	-0.003	-0.096
-345.420	598.467	-0.144	0.359
-344.406	-57.819	-0.085	0.037
-343.391	-149.178	-0.278	0.022
-342.377	-200.000	-0.041	0.287
-341.362	-91.916	0.147	-0.042
-340.348	-48.432	-0.109	0.053
-339.333	-107.103	-0.229	0.051
-338.318	800.000	0.042	0.167
-337.304	483.044	-0.127	-0.290
-336.289	800.000	0.130	-0.472
-335.275	-17.780	0.148	-0.093
-334.260	-44.220	0.288	-0.145
-333.245	800.000	0.092	-0.339
-332.231	86.472	-0.049	-0.055
-331.216	69.337	0.048	-0.050
-330.202	400.736	-0.128	0.269
-329.187	-0.026	-0.205	0.147
-328.172	-200.000	0.028	0.269
-327.158	3.673	0.268	-0.196
-326.143	20.321	-0.025	0.020
-325.129	-168.612	-0.111	0.004
-324.114	146.163	-0.212	0.284
-323.099	-158.770	-0.120	-0.007
-322.085	-101.302	0.452	0.111
-321.070	-40.723	-0.032	-0.017
-320.056	-200.000	-0.040	-0.254
-319.041	-200.000	0.029	0.131
-318.026	13.150	0.144	0.111
-317.012	80.401	0.110	-0.119
-315.997	127.837	-0.090	0.114
-314.983	118.696	0.067	-0.083
-313.968	-106.209	-0.200	-0.045
-312.953	130.761	0.020	0.026
-311.939	-28.088	0.168	0.097
-310.924	-200.000	0.051	-0.368
-309.910	-94.312	-0.215	-0.059
-308.895	-62.475	0.176	-0.073
-307.880	192.041	0.065	-0.098
-306.866	-146.520	-0.025	0.002
-305.851	-43.600	0.234	0.118
-304.837	-62.453	-0.193	0.080
-303.822	800.000	0.024	-0.092
-302.807	19.311	0.303	0.243
-301.793	-144.279	-0.334	-0.031
-300.778	-40.506	-0.076	-0.040
-299.764	-72.985	0.100	-0.037
-298.749	58.684	0.078	-0.076
-297.735	-200.000	-0.031	0.259
-296.720	-157.254	-0.138	0.008
-295.705	-171.965	0.182	0.006
-294.691	-200.000	0.043	0.321
-293.676	-125.613	-0.156	-0.024
-292.662	-120.836	0.269	0.045
-291.647	-61.730	0.463	-0.194
-290.632	-103.844	-0.267	-0.062
-289.618	325.375	-0.023	-0.043
-288.603	-200.000	0.013	-0.267
-287.589	800.000	0.008	-0.025
-286.574	428.320	-0.049	0.106
-285.559	-18.588	0.171	-0.107
-284.545	96.877	-0.047	0.054
-283.530	-200.000	-0.004	-0.506
-282.516	-200.000	0.007	0.270
-281.501	70.965	-0.073	-0.076
-280.486	800.000	-0.036	0.126
-279.472	-49.575	-0.185	0.088
-278.457	800.000	0.030	-0.130
-277.443	12.004	0.111	-0.085
-276.428	166.702	-0.006	0.009
-275.413	800.000	0.108	-0.402
-274.399	-65.845	0.106	0.042
-273.384	191.375	0.089	-0.134
-272.370	-98.513	-0.299	-0.077
-271.355	24.106	-0.009	-0.008
-270.340	-64.167	0.269	-0.110
-269.326	-185.662	0.373	0.006
-268.311	-152.974	0.205	-0.014
-267.297	-161.709	0.096	-0.005
-266.282	-193.889	-0.257	-0.002
-265.267	519.747	0.077	-0.181
-264.253	-41.840	0.299	0.153
-263.238	-1.965	-0.150	0.106
-262.224	-200.000	0.019	0.135
-261.209	-116.582	-0.210	-0.039
-260.195	-173.650	0.107	0.003
-259.180	-60.263	0.148	0.063
-258.165	-200.000	0.009	0.129
-257.151	-51.067	-0.335	-0.157
-256.136	-200.000	-0.013	-0.266
-255.122	323.777	-0.055	0.104
-254.107	29.455	-0.002	-0.002
-253.092	96.920	0.020	0.023
-252.078	125.140	0.076	-0.096
-251.063	-200.000	0.009	0.106
-250.049	-30.787	-0.174	0.098
-249.034	-200.000	0.044	0.216
-248.019	-114.085	0.182	0.035
-247.005	-200.000	-0.012	0.188
-245.990	47.466	-0.050	-0.047
-244.976	-200.000	0.037	0.248
-243.961	-200.000	-0.089	0.417
-242.946	-8.833	-0.175	-0.117
-241.932	-53.497	-0.056	0.026
-240.917	170.906	-0.069	0.098
-239.903	-95.391	-0.061	-0.016
-238.888	13.232	0.122	-0.095
-237.873	-200.000	0.017	0.362
-236.859	158.232	0.117	-0.162
-235.844	-95.970	0.102	0.027
-234.830	-200.000	0.015	-0.087
-233.815	-125.309	-0.401	0.061
-232.800	127.258	0.190	-0.241
-231.786	285.909	0.174	-0.313
-230.771	228.682	0.148	-0.241
-229.757	58.498	0.159	0.155
-228.742	-11.673	0.374	-0.245
-227.727	-39.865	0.086	0.045
-226.713	-56.303	-0.091	-0.040
-225.698	99.080	-0.115	0.133
-224.684	-185.942	-0.029	0.000
-223.669	99.820	-0.037	-0.043
-222.655	-66.643	0.180	0.071
-221.640	229.655	0.195	-0.317
-220.625	363.568	-0.176	0.353
-219.611	-91.846	-0.251	-0.071
-218.596	-54.442	-0.112	-0.050
-217.582	-30.257	0.294	0.167
-216.567	572.120	0.029	0.071
-215.552	-130.267	0.235	-0.032
-214.538	602.515	-0.071	0.176
-213.523	800.000	-0.072	0.213
-212.509	-80.430	-0.219	-0.073
-211.494	-200.000	0.005	-0.272
-210.479	-133.606	0.358	-0.045
-209.465	124.414	0.105	0.131
-208.450	-48.127	-0.231	-0.111
-207.436	-35.381	0.093	-0.050
-206.421	-76.286	0.237	-0.083
-205.406	57.967	0.162	0.158
-204.392	-25.847	0.148	0.087
-203.377	35.952	0.305	0.268
-202.363	154.056	-0.031	0.042
-201.348	-47.284	-0.204	0.099
-200.333	-200.000	0.021	0.346
-199.319	-55.755	0.370	-0.165
-198.304	-32.042	-0.081	-0.045
-197.290	167.380	0.050	0.071
-196.275	-86.550	-0.143	-0.044
-195.260	39.283	-0.268	0.239
-194.246	-148.810	0.167	0.013
-193.231	157.702	-0.071	-0.098
-192.217	57.807	-0.103	0.100
-191.202	95.752	0.256	-0.291
-190.187	-99.304	0.387	0.097
-189.173	-37.764	-0.264	-0.140
-188.158	-100.565	0.265	-0.065
-187.144	211.247	0.135	-0.212
-186.129	800.000	0.040	0.122
-185.114	-200.000	0.002	0.214
-184.100	-27.336	0.050	-0.029
-183.085	-169.322	0.087	-0.003
-182.071	25.357	0.176	0.146
-181.056	87.756	-0.184	0.203
-180.042	-86.284	-0.270	0.083
-179.027	-7.159	0.266	0.180
-178.012	195.843	-0.043	-0.065
-176.998	391.291	0.119	-0.246
-175.983	800.000	-0.028	-0.097
-174.969	-88.159	0.033	-0.010
-173.954	207.538	-0.089	0.138
-172.939	-200.000	0.061	-0.410
-171.925	-65.725	0.403	-0.161
-170.910	50.267	0.082	-0.078
-169.896	121.353	0.174	-0.216
-168.881	134.121	-0.168	-0.217
-167.866	-26.229	-0.196	0.114
-166.852	-200.000	-0.005	-0.112
-165.837	-15.855	0.239	0.152
-164.823	-200.000	0.010	0.156
-163.808	284.829	0.111	-0.200
-162.793	-30.295	-0.159	-0.090
-161.779	-200.000	-0.005	-0.244
-160.764	-29.171	0.226	-0.129
-159.750	32.766	0.052	-0.045
-158.735	-74.484	-0.403	-0.145
-157.720	-26.917	-0.172	-0.100
-156.706	-200.000	-0.049	0.232
-155.691	-200.000	0.046	0.276
-154.677	-200.000	0.288	-0.001
-153.662	161.307	0.102	-0.141
-152.647	36.418	0.119	0.104
-151.633	336.163	0.051	0.099
-150.618	4.728	-0.118	0.086
-149.604	-45.443	-0.132	-0.065
-148.589	236.433	-0.089	-0.146
-147.574	-2.139	-0.257	-0.179
-146.560	71.347	0.156	0.161
-145.545	172.908	-0.083	0.119
-144.531	417.849	-0.034	0.073
-143.516	15.470	-0.079	-0.061
-142.502	-67.303	-0.128	0.050
-141.487	-43.569	0.126	-0.063
-140.472	-45.777	0.327	-0.161
-139.458	800.000	0.064	0.203
-138.443	-70.939	-0.084	0.031
-137.429	4.498	0.188	0.137
-136.414	674.002	-0.098	-0.253
-135.399	-123.581	0.139	-0.022
-134.385	-108.557	-0.109	-0.023
-133.370	-6.807	0.303	-0.205
-132.356	800.000	0.131	0.470
-131.341	-200.000	0.032	0.306
-130.326	57.417	0.163	0.158
-129.312	548.806	0.075	0.178
-128.297	182.335	0.026	-0.038
-127.283	-200.000	0.003	0.082
-126.268	-34.653	0.349	-0.190
-125.253	-200.000	-0.041	0.225
-124.239	800.000	0.031	-0.124
-123.224	800.000	-0.023	-0.077
-122.210	108.671	-0.328	0.389
-121.195	-66.669	-0.379	0.149
-120.180	41.664	-0.088	-0.079
