DTS Sentinel unit serial number:	SN413079Multiplexer serial number:	ORYXHardware model number:	OX4-SRSoftware version number:	ORYX F/W v4.00 Oryx Data Collector v3.7.2.0data status	okinstallation	princeton_trtdifferential loss correction	single-endedforward channel	channel 4reverse channel	N/Adate	2019/09/17time	14:13:35forward acquisition time	60.00reverse acquisition time	0.00gamma	496.2192k internal	0.2296k external	0.2296temperature offset calibration	0.9989default loss term (dB/km)	0.3790temperature slope calibration	1.0000multiplexer offset coefficient	1.0000multiplexer slope coefficient	1.0000fibre end	0.00T internal ref (°C)	35.95T ext. ref 1 (°C)	0.41T ext. ref 2 (°C)	32.85length (m)	temperature (°C)	Stokes	anti-Stokes-747.200	334.137	0.053	0.105
-746.185	800.000	-0.011	0.044
-745.171	357.992	-0.142	-0.290
-744.156	67.305	-0.053	0.056
-743.142	800.000	0.024	0.095
-742.127	29.920	-0.177	0.154
-741.112	750.724	-0.057	0.158
-740.098	192.985	0.197	0.305
-739.083	400.944	0.090	0.192
-738.069	9.634	0.251	0.195
-737.054	800.000	0.049	0.199
-736.039	-200.000	0.049	0.281
-735.025	92.145	0.017	0.020
-734.010	450.898	0.038	-0.086
-732.996	800.000	-0.096	0.396
-731.981	72.766	0.244	-0.260
-730.966	-53.111	0.293	-0.137
-729.952	-61.483	0.431	0.185
-728.937	800.000	0.025	-0.090
-727.923	-69.261	-0.192	0.075
-726.908	50.741	-0.186	-0.180
-725.894	-116.450	-0.181	-0.034
-724.879	30.632	-0.103	-0.090
-723.864	312.252	-0.127	0.243
-722.850	-200.000	-0.020	0.123
-721.835	800.000	0.047	-0.162
-720.821	23.880	-0.061	-0.051
-719.806	568.380	-0.126	0.312
-718.791	228.603	0.091	-0.151
-717.777	-26.155	0.151	0.091
-716.762	-81.092	-0.332	0.112
-715.748	-122.929	0.101	0.017
-714.733	-85.366	-0.150	-0.048
-713.718	-134.837	0.179	0.022
-712.704	-105.049	-0.133	-0.031
-711.689	-52.598	-0.169	-0.080
-710.675	-200.000	-0.002	-0.111
-709.660	348.336	-0.084	-0.170
-708.645	-200.000	0.001	-0.072
-707.631	223.737	0.131	-0.216
-706.616	13.079	-0.196	-0.155
-705.602	655.113	-0.030	-0.078
-704.587	-200.000	-0.026	-0.219
-703.572	44.158	0.024	0.023
-702.558	800.000	0.123	0.519
-701.543	73.698	-0.171	-0.183
-700.529	-171.310	0.337	-0.012
-699.514	-200.000	-0.033	-0.321
-698.499	-172.184	-0.061	0.002
-697.485	-200.000	0.009	0.074
-696.470	-200.000	-0.009	0.173
-695.456	-200.000	0.013	-0.086
-694.441	-185.076	-0.322	-0.005
-693.426	660.992	-0.119	-0.312
-692.412	-97.089	-0.229	0.061
-691.397	-30.432	-0.203	0.117
-690.383	2.900	-0.036	-0.027
-689.368	-82.598	0.134	0.044
-688.354	100.039	0.177	-0.209
-687.339	35.463	0.196	-0.176
-686.324	55.109	-0.307	-0.302
-685.310	110.717	-0.158	0.193
-684.295	-80.915	-0.263	0.089
-683.281	5.796	-0.180	0.135
-682.266	-106.201	-0.392	-0.090
-681.251	112.498	0.052	-0.064
-680.237	-139.737	0.019	-0.002
-679.222	800.000	0.054	-0.217
-678.208	61.426	-0.145	0.147
-677.193	-200.000	0.036	0.176
-676.178	-62.130	0.021	0.009
-675.164	-63.326	0.389	0.163
-674.149	-89.476	-0.272	-0.081
-673.135	115.584	-0.203	-0.253
-672.120	-200.000	-0.050	0.262
-671.105	355.360	0.056	0.113
-670.091	356.582	0.139	-0.283
-669.076	136.971	0.208	0.276
-668.062	800.000	0.117	0.403
-667.047	-13.538	-0.291	-0.192
-666.032	-29.160	-0.250	0.146
-665.018	-78.320	-0.130	-0.046
-664.003	-200.000	0.026	0.461
-662.989	665.668	-0.047	0.125
-661.974	90.322	-0.256	-0.291
-660.959	-27.592	-0.107	0.063
-659.945	-14.358	-0.066	0.044
-658.930	64.652	0.113	0.116
-657.916	-173.236	-0.169	0.005
-656.901	800.000	-0.060	0.213
-655.886	690.624	-0.039	0.105
-654.872	800.000	-0.017	0.076
-653.857	-179.118	-0.030	-0.001
-652.843	-81.215	-0.031	-0.010
-651.828	-58.151	0.242	-0.107
-650.814	-21.716	0.260	0.161
-649.799	-200.000	0.025	-0.224
-648.784	800.000	0.012	0.040
-647.770	-11.787	-0.161	0.108
-646.755	365.981	-0.148	-0.304
-645.741	28.675	0.131	0.113
-644.726	-26.730	0.151	0.090
-643.711	311.768	0.062	-0.118
-642.697	8.316	-0.211	-0.161
-641.682	-9.938	-0.195	-0.132
-640.668	-79.763	-0.291	0.100
-639.653	-200.000	0.000	0.353
-638.638	-200.000	0.108	-0.588
-637.624	-200.000	-0.011	-0.147
-636.609	585.482	-0.059	-0.148
-635.595	-200.000	-0.006	-0.155
-634.580	-200.000	0.015	0.258
-633.565	-169.884	-0.079	0.003
-632.551	800.000	-0.055	0.186
-631.536	159.385	-0.087	0.123
-630.522	11.672	-0.147	0.115
-629.507	-31.575	-0.206	-0.117
-628.492	29.925	-0.124	-0.108
-627.478	-24.488	-0.148	0.089
-626.463	589.431	0.069	-0.172
-625.449	246.247	-0.140	-0.239
-624.434	229.124	0.148	-0.246
-623.419	46.165	0.052	0.049
-622.405	212.200	0.235	-0.376
-621.390	291.106	-0.159	-0.295
-620.376	86.609	-0.116	0.130
-619.361	205.358	-0.174	-0.275
-618.346	-158.488	-0.445	-0.026
-617.332	-123.297	-0.286	-0.046
-616.317	-75.031	-0.199	0.072
-615.303	-200.000	-0.005	0.151
-614.288	-24.519	-0.176	-0.106
-613.273	-64.805	-0.071	-0.029
-612.259	800.000	0.030	-0.122
-611.244	172.219	0.092	0.134
-610.230	-116.634	0.281	0.053
-609.215	197.070	-0.321	-0.498
-608.201	800.000	-0.023	-0.088
-607.186	-121.266	-0.405	-0.069
-606.171	-45.291	0.230	-0.116
-605.157	71.361	0.094	0.099
-604.142	-200.000	-0.013	0.218
-603.128	357.820	-0.137	0.278
-602.113	369.170	0.164	0.337
-601.098	46.270	0.128	0.120
-600.084	534.199	-0.086	0.208
-599.069	-103.719	-0.390	-0.093
-598.055	-82.363	0.131	-0.043
-597.040	-137.747	-0.252	-0.029
-596.025	-12.123	0.191	0.127
-595.011	44.827	-0.038	-0.036
-593.996	364.091	0.135	0.276
-592.982	800.000	-0.072	-0.237
-591.967	-158.430	0.247	0.015
-590.952	-105.842	-0.098	-0.023
-589.938	-125.623	0.220	0.034
-588.923	9.850	-0.200	-0.154
-587.909	-55.004	-0.418	-0.191
-586.894	34.623	-0.253	0.224
-585.879	68.950	-0.294	-0.307
-584.865	-152.885	0.125	-0.009
-583.850	109.627	0.164	-0.200
-582.836	659.437	0.088	-0.231
-581.821	188.812	-0.120	0.183
-580.806	800.000	-0.026	-0.116
-579.792	305.899	-0.033	-0.063
-578.777	136.588	-0.062	-0.082
-577.763	-200.000	-0.074	-0.514
-576.748	-48.866	-0.143	0.070
-575.733	-145.126	0.250	-0.023
-574.719	800.000	-0.026	-0.105
-573.704	33.450	-0.220	-0.194
-572.690	-46.475	0.236	0.118
-571.675	-66.240	0.180	-0.073
-570.661	-23.533	-0.284	-0.173
-569.646	75.302	0.058	0.062
-568.631	-200.000	-0.027	-0.134
-567.617	800.000	-0.070	0.204
-566.602	-177.509	-0.134	0.003
-565.588	-21.191	0.191	0.119
-564.573	800.000	-0.047	0.172
-563.558	-170.113	0.193	0.007
-562.544	158.256	-0.053	-0.074
-561.529	38.852	-0.234	0.212
-560.515	449.130	0.106	-0.238
-559.500	-200.000	0.006	-0.150
-558.485	-112.537	-0.047	-0.010
-557.471	-195.803	-0.391	-0.003
-556.456	57.832	0.045	0.044
-555.442	45.236	-0.132	-0.123
-554.427	-9.992	-0.086	-0.058
-553.412	-60.736	-0.166	-0.071
-552.398	177.188	0.048	0.071
-551.383	323.354	-0.127	0.245
-550.369	-128.954	0.110	0.016
-549.354	271.627	0.225	-0.403
-548.339	-102.100	-0.338	0.083
-547.325	-77.850	0.122	0.043
-546.310	-200.000	0.055	0.281
-545.296	-7.940	-0.329	-0.225
-544.281	338.159	0.031	-0.062
-543.266	465.263	0.197	0.448
-542.252	-160.494	0.236	0.013
-541.237	-128.703	-0.124	0.018
-540.223	-96.735	-0.339	0.090
-539.208	354.184	-0.050	0.100
-538.193	327.007	-0.140	-0.272
-537.179	800.000	0.059	-0.212
-536.164	-136.396	-0.221	0.026
-535.150	-57.126	-0.085	-0.038
-534.135	-119.801	0.258	-0.045
-533.121	23.886	0.173	0.144
-532.106	800.000	0.121	-0.363
-531.091	800.000	0.038	0.139
-530.077	-101.778	-0.110	0.027
-529.062	-200.000	0.026	0.387
-528.048	5.139	-0.135	0.101
-527.033	-200.000	0.060	-0.426
-526.018	800.000	-0.056	-0.245
-525.004	-200.000	0.015	-0.214
-523.989	-78.574	0.098	-0.034
-522.975	474.110	0.083	0.191
-521.960	-200.000	0.019	-0.254
-520.945	82.359	-0.271	-0.297
-519.931	-143.644	-0.343	-0.033
-518.916	165.209	-0.196	0.281
-517.902	-27.134	0.031	0.018
-516.887	-165.432	-0.257	0.011
-515.872	-200.000	0.034	0.419
-514.858	-147.573	-0.082	-0.007
-513.843	-137.627	-0.098	0.011
-512.829	-64.036	-0.220	0.091
-511.814	-200.000	-0.011	-0.240
-510.799	-200.000	-0.024	-0.176
-509.785	-200.000	0.043	0.209
-508.770	210.029	-0.124	-0.198
-507.756	-200.000	0.010	0.100
-506.741	25.039	-0.074	-0.062
-505.726	-164.809	0.204	-0.009
-504.712	184.135	-0.206	0.308
-503.697	93.552	0.028	0.032
-502.683	800.000	0.041	-0.133
-501.668	-200.000	-0.012	-0.300
-500.653	678.912	-0.066	0.174
-499.639	-19.214	0.021	0.013
-498.624	-102.170	0.147	0.036
-497.610	324.716	0.145	-0.279
-496.595	-35.959	0.151	-0.082
-495.581	-152.671	-0.127	-0.009
-494.566	211.760	-0.274	0.436
-493.551	117.740	0.017	-0.021
-492.537	192.746	0.160	0.245
-491.522	-91.921	0.667	-0.191
-490.508	2.862	-0.148	-0.109
-489.493	-135.508	-0.303	-0.036
-488.478	658.635	0.063	-0.165
-487.464	-100.779	0.422	0.105
-486.449	-200.000	0.027	0.199
-485.435	-69.037	0.137	-0.053
-484.420	800.000	-0.022	-0.075
-483.405	117.588	0.102	0.127
-482.391	579.052	-0.063	-0.157
-481.376	-145.709	-0.368	-0.033
-480.362	-200.000	0.005	-0.199
-479.347	-21.409	-0.273	0.168
-478.332	-174.570	0.154	0.004
-477.318	800.000	0.117	-0.405
-476.303	440.652	0.024	-0.054
-475.289	-200.000	0.007	-0.192
-474.274	-200.000	0.001	0.368
-473.259	144.144	-0.156	0.211
-472.245	404.015	0.073	0.155
-471.230	27.064	0.316	-0.268
-470.216	-200.000	-0.180	0.001
-469.201	-200.000	0.015	0.102
-468.186	6.388	-0.315	0.237
-467.172	85.374	0.061	0.067
-466.157	-170.571	-0.111	-0.004
-465.143	-1.994	-0.221	0.157
-464.128	56.625	-0.103	-0.101
-463.113	-59.973	0.449	0.194
-462.099	800.000	-0.035	0.131
-461.084	-44.493	0.137	0.069
-460.070	-200.000	0.012	0.151
-459.055	309.072	0.094	0.178
-458.040	-14.126	-0.246	0.160
-457.026	800.000	0.054	-0.189
-456.011	1.882	-0.187	0.136
-454.997	302.298	-0.136	-0.254
-453.982	-200.000	0.011	0.427
-452.968	137.660	0.147	0.194
-451.953	383.182	0.075	-0.156
-450.938	800.000	0.026	-0.074
-449.924	314.995	0.052	-0.098
-448.909	-200.000	-0.006	0.033
-447.895	-48.051	0.201	-0.098
-446.880	130.215	0.170	-0.220
-445.865	651.493	-0.055	-0.143
-444.851	800.000	-0.021	0.074
-443.836	-200.000	-0.038	-0.230
-442.822	-74.503	0.238	-0.087
-441.807	416.987	0.097	-0.208
-440.792	248.047	0.191	0.327
-439.778	-64.118	0.364	0.150
-438.763	800.000	-0.003	0.009
-437.749	-200.000	-0.029	0.176
-436.734	-154.058	0.120	0.008
-435.719	475.798	0.094	-0.215
-434.705	800.000	0.063	0.266
-433.690	13.909	0.103	0.081
-432.676	342.739	0.073	-0.144
-431.661	119.986	-0.051	-0.064
-430.646	-200.000	-0.005	-0.159
-429.632	348.024	-0.145	0.289
-428.617	-200.000	0.034	0.157
-427.603	-35.508	0.125	-0.069
-426.588	-90.378	0.351	0.103
-425.573	-51.337	0.144	-0.068
-424.559	212.283	0.073	0.115
-423.544	-114.194	-0.284	-0.055
-422.530	37.156	0.063	-0.056
-421.515	-47.584	-0.161	0.079
-420.500	81.152	0.369	0.402
-419.486	-31.812	-0.049	-0.028
-418.471	-60.160	-0.229	-0.098
-417.457	-16.988	-0.081	0.052
-416.442	186.683	-0.122	0.183
-415.428	18.141	0.212	0.171
-414.413	166.105	-0.024	0.034
-413.398	155.259	-0.205	0.285
-412.384	337.008	0.180	0.352
-411.369	245.231	0.034	0.058
-410.355	-83.705	0.116	-0.037
-409.340	29.968	0.165	-0.142
-408.325	26.758	-0.075	0.064
-407.311	-60.030	-0.022	-0.009
-406.296	-200.000	-0.045	-0.365
-405.282	311.704	0.118	-0.224
-404.267	51.709	0.200	0.192
-403.252	-122.497	-0.114	0.019
-402.238	-169.059	0.195	0.007
-401.223	255.495	0.178	-0.307
-400.209	269.434	0.224	-0.397
-399.194	339.053	0.024	0.047
-398.179	-159.729	0.065	0.004
-397.165	212.961	-0.127	0.201
-396.150	241.732	0.045	-0.076
-395.136	697.854	0.106	0.280
-394.121	278.595	0.097	-0.174
-393.106	-62.597	-0.221	-0.092
-392.092	-78.154	-0.166	-0.058
-391.077	50.484	-0.126	0.120
-390.063	-200.000	-0.003	-0.099
-389.048	-117.807	-0.310	0.056
-388.033	-200.000	0.022	0.338
-387.019	-84.823	-0.288	0.091
-386.004	-100.233	0.180	0.045
-384.990	164.062	-0.151	0.215
-383.975	-60.272	0.072	0.031
-382.960	-119.751	-0.318	0.055
-381.946	-98.064	0.212	0.055
-380.931	-8.049	0.334	-0.227
-379.917	-71.281	0.205	-0.077
-378.902	-29.005	-0.261	-0.151
-377.888	270.272	0.104	-0.184
-376.873	179.684	0.100	0.147
-375.858	-4.698	-0.366	0.255
-374.844	-21.973	0.358	-0.219
-373.829	-200.000	-0.032	-0.149
-372.815	347.484	-0.092	-0.182
-371.800	-99.300	0.241	0.061
-370.785	239.113	0.181	-0.303
-369.771	45.297	-0.085	0.079
-368.756	-23.536	0.073	-0.044
-367.742	224.171	0.073	-0.119
-366.727	-92.340	0.266	-0.076
-365.712	-39.453	0.283	-0.149
-364.698	-80.852	-0.258	0.086
-363.683	-200.000	0.008	-0.225
-362.669	-200.000	0.019	-0.214
-361.654	-65.988	-0.051	-0.020
-360.639	396.563	-0.184	-0.387
-359.625	-19.426	0.073	-0.046
-358.610	-200.000	0.332	-0.001
-357.596	-46.591	-0.170	-0.084
-356.581	32.243	-0.334	-0.290
-355.566	-90.592	0.096	-0.028
-354.552	-103.353	0.113	0.027
-353.537	1.678	0.104	0.075
-352.523	-141.767	0.175	-0.018
-351.508	-137.538	0.141	-0.016
-350.493	-56.943	0.103	0.046
-349.479	161.921	0.069	-0.098
-348.464	-170.055	-0.082	0.003
-347.450	412.367	0.071	0.152
-346.435	189.798	0.160	0.241
-345.420	111.668	0.123	0.150
-344.406	220.702	0.093	-0.150
-343.391	129.247	-0.119	-0.153
-342.377	-141.141	0.197	-0.020
-341.362	-193.830	-0.235	0.002
-340.348	-130.481	0.038	-0.005
-339.333	-43.080	-0.143	-0.073
-338.318	33.133	0.239	0.209
-337.304	51.830	-0.176	0.169
-336.289	-26.519	0.279	-0.164
-335.275	-200.000	0.021	0.124
-334.260	-29.703	0.206	-0.118
-333.245	574.588	-0.073	0.180
-332.231	-104.268	0.131	0.031
-331.216	34.964	-0.036	0.032
-330.202	-25.991	-0.133	0.079
-329.187	-105.815	-0.137	0.031
-328.172	-9.779	-0.372	0.249
-327.158	251.803	0.091	-0.156
-326.143	-47.906	0.188	-0.091
-325.129	-200.000	0.075	0.436
-324.114	-200.000	-0.032	0.145
-323.099	595.609	0.004	0.009
-322.085	-200.000	-0.016	0.088
-321.070	0.284	0.323	-0.232
-320.056	-44.335	-0.359	-0.181
-319.041	-58.148	0.430	-0.188
-318.026	34.918	0.135	0.119
-317.012	-7.040	-0.125	-0.085
-315.997	172.208	-0.162	-0.235
-314.983	-27.246	0.400	0.234
-313.968	-118.869	-0.309	-0.054
-312.953	-200.000	-0.009	-0.046
-311.939	245.694	-0.018	-0.031
-310.924	-152.138	-0.123	0.009
-309.910	73.741	0.129	-0.135
-308.895	-200.000	0.074	-0.394
-307.880	-101.227	0.180	-0.044
-306.866	384.453	0.127	-0.262
-305.851	219.692	0.143	0.231
-304.837	-0.091	-0.245	0.175
-303.822	800.000	0.064	0.246
-302.807	-95.490	-0.237	0.064
-301.793	125.251	0.288	-0.365
-300.778	-63.899	0.129	0.053
-299.764	51.510	-0.181	0.173
-298.749	-200.000	-0.001	0.154
-297.735	-200.000	0.053	-0.354
-296.720	288.797	0.099	0.179
-295.705	115.321	0.189	-0.231
-294.691	244.369	-0.084	-0.141
-293.676	88.538	0.277	0.309
-292.662	-82.950	0.119	-0.038
-291.647	-0.939	-0.345	-0.245
-290.632	-137.583	0.291	-0.033
-289.618	-139.801	-0.092	0.010
-288.603	234.837	0.071	-0.118
-287.589	-18.734	0.266	0.167
-286.574	-0.700	-0.164	0.116
-285.559	-59.262	0.307	-0.133
-284.545	279.640	-0.059	-0.105
-283.530	-94.426	0.203	-0.056
-282.516	800.000	-0.011	0.043
-281.501	204.984	0.103	0.160
-280.486	199.327	0.057	-0.087
-279.472	207.304	0.091	0.142
-278.457	268.863	-0.072	-0.127
-277.443	-116.586	-0.511	0.094
-276.428	57.591	0.069	-0.068
-275.413	-1.973	-0.040	0.028
-274.399	-147.656	-0.135	0.011
-273.384	17.202	-0.065	0.051
-272.370	-42.516	0.196	-0.100
-271.355	-68.674	-0.080	0.031
-270.340	-11.106	0.293	-0.194
-269.326	800.000	-0.047	0.153
-268.311	-93.129	-0.094	-0.026
-267.297	-118.518	-0.031	0.005
-266.282	585.505	-0.079	0.195
-265.267	-57.026	-0.110	-0.049
-264.253	-97.397	-0.240	0.063
-263.238	-26.210	0.296	0.175
-262.224	800.000	-0.031	0.121
-261.209	-132.545	0.181	0.023
-260.195	-68.743	0.353	0.137
-259.180	-142.794	0.167	0.016
-258.165	-200.000	-0.028	-0.257
-257.151	445.608	0.080	0.176
-256.136	4.897	-0.273	-0.201
-255.122	-200.000	-0.001	0.071
-254.107	117.710	0.104	-0.128
-253.092	25.023	-0.140	0.116
-252.078	-200.000	0.017	0.201
-251.063	-101.134	0.270	-0.066
-250.049	-58.899	-0.148	0.064
-249.034	51.684	0.220	0.210
-248.019	-200.000	-0.000	-0.087
-247.005	800.000	-0.013	0.040
-245.990	87.770	-0.053	-0.059
-244.976	134.117	0.289	0.375
-243.961	-67.313	0.463	-0.182
-242.946	335.632	0.187	0.364
-241.932	-81.898	-0.199	0.065
-240.917	-53.417	0.253	-0.116
-239.903	-83.642	-0.151	-0.048
-238.888	534.120	0.016	0.038
-237.873	252.809	-0.045	0.078
-236.859	17.634	0.133	0.106
-235.844	20.763	-0.283	0.230
-234.830	800.000	0.044	0.161
-233.815	-107.719	-0.051	0.011
-232.800	-200.000	-0.035	-0.191
-231.786	211.847	-0.182	0.287
-230.771	716.800	-0.091	-0.241
-229.757	-98.827	-0.231	-0.059
-228.742	-132.221	-0.135	-0.018
-227.727	62.169	-0.234	-0.233
-226.713	-3.241	-0.200	-0.140
-225.698	-4.132	0.206	0.143
-224.684	-200.000	-0.024	0.135
-223.669	104.227	0.197	-0.232
-222.655	-89.714	-0.262	-0.077
-221.640	-200.000	-0.053	0.315
-220.625	-200.000	-0.044	0.311
-219.611	-145.187	-0.256	-0.023
-218.596	800.000	-0.032	0.131
-217.582	-200.000	-0.013	-0.338
-216.567	-13.440	-0.251	-0.163
-215.552	-138.420	-0.095	0.010
-214.538	800.000	0.007	-0.027
-213.523	-200.000	-0.059	0.328
-212.509	20.246	-0.047	0.038
-211.494	-55.950	-0.278	0.124
-210.479	15.344	0.170	0.133
-209.465	-200.000	-0.014	0.339
-208.450	-14.752	-0.362	0.233
-207.436	-102.073	-0.278	0.067
-206.421	-17.727	-0.158	0.099
-205.406	56.860	-0.151	0.147
-204.392	-200.000	0.024	0.122
-203.377	107.249	-0.191	0.227
-202.363	-17.586	0.268	-0.169
-201.348	-200.000	0.026	0.159
-200.333	-200.000	-0.005	-0.108
-199.319	239.427	0.099	0.164
-198.304	-47.025	0.112	0.055
-197.290	-85.264	0.304	-0.095
-196.275	18.875	0.126	0.101
-195.260	-122.533	-0.330	-0.054
-194.246	-42.215	-0.155	0.079
-193.231	119.823	-0.285	0.353
-192.217	19.118	-0.148	0.119
-191.202	392.701	-0.089	0.186
-190.187	78.396	0.163	-0.174
-189.173	299.103	-0.121	0.223
-188.158	-55.449	0.191	0.085
-187.144	176.362	-0.139	-0.201
-186.129	-4.124	0.171	-0.119
-185.114	-200.000	0.026	0.242
-184.100	71.510	0.128	-0.133
-183.085	46.880	0.292	0.271
-182.071	155.408	-0.152	-0.209
-181.056	800.000	0.035	0.120
-180.042	-6.377	0.207	-0.141
-179.027	727.407	-0.151	0.402
-178.012	-33.865	-0.154	0.085
-176.998	-162.376	0.124	0.006
-175.983	-146.998	0.205	-0.018
-174.969	-168.674	0.261	-0.010
-173.954	1.795	-0.205	0.148
-172.939	547.702	0.103	0.247
-171.925	-94.180	-0.223	0.061
-170.910	-37.297	0.150	-0.080
-169.896	800.000	-0.083	-0.330
-168.881	-129.456	0.250	-0.035
-167.866	-70.548	0.130	-0.049
-166.852	-160.448	-0.231	0.012
-165.837	-0.416	0.147	0.105
-164.823	42.103	-0.046	-0.041
-163.808	-8.633	0.408	0.274
-162.793	800.000	-0.018	-0.071
-161.779	-200.000	0.033	-0.191
-160.764	-12.572	0.369	-0.240
-159.750	94.394	0.042	-0.047
-158.735	389.876	0.070	0.145
-157.720	800.000	-0.066	-0.286
-156.706	181.153	0.087	-0.128
-155.691	-200.000	-0.042	-0.246
-154.677	-30.436	0.214	-0.121
-153.662	193.694	-0.128	-0.193
-152.647	154.076	-0.086	0.118
-151.633	-28.233	0.165	0.095
-150.618	699.264	-0.087	0.228
-149.604	800.000	0.014	-0.050
-148.589	-104.402	0.103	-0.024
-147.574	-23.551	0.255	-0.153
-146.560	-12.372	0.160	-0.104
-145.545	-54.090	-0.136	-0.062
-144.531	-119.312	0.236	0.041
-143.516	-106.015	-0.297	0.067
-142.502	-71.168	0.214	-0.080
-141.487	-56.139	-0.104	0.046
-140.472	481.089	0.069	-0.157
-139.458	-73.491	-0.401	0.146
-138.443	-6.942	-0.227	0.154
-137.429	-12.124	0.251	0.164
-136.414	-120.286	-0.356	-0.060
-135.399	-137.294	0.074	-0.008
-134.385	-129.150	-0.012	-0.002
-133.370	-144.801	0.198	0.018
-132.356	-200.000	-0.077	-0.472
-131.341	-18.206	-0.213	-0.133
-130.326	-69.180	-0.223	-0.086
-129.312	60.284	0.104	-0.102
-128.297	-156.785	-0.160	0.010
-127.283	253.626	-0.110	0.187
-126.268	257.810	-0.137	-0.234
-125.253	91.393	-0.171	0.191
-124.239	-128.635	-0.247	0.035
-123.224	-100.524	0.218	-0.054
-122.210	800.000	-0.076	0.284
-121.195	406.949	-0.237	0.499
