DTS Sentinel unit serial number:	SN413079Multiplexer serial number:	ORYXHardware model number:	OX4-SRSoftware version number:	ORYX F/W v4.00 Oryx Data Collector v3.7.2.0data status	okinstallation	princeton_trtdifferential loss correction	single-endedforward channel	channel 4reverse channel	N/Adate	2019/09/12time	11:19:11forward acquisition time	60.00reverse acquisition time	0.00gamma	496.2192k internal	0.2293k external	0.2293temperature offset calibration	1.0071default loss term (dB/km)	0.3790temperature slope calibration	1.0000multiplexer offset coefficient	1.0000multiplexer slope coefficient	1.0000fibre end	0.00T internal ref (°C)	39.02T ext. ref 1 (°C)	1.98T ext. ref 2 (°C)	36.41length (m)	temperature (°C)	Stokes	anti-Stokes-747.200	-94.272	-0.089	0.025
-746.185	721.375	-0.112	0.304
-745.171	696.347	0.060	0.161
-744.156	800.000	-0.059	0.212
-743.142	-36.763	-0.125	0.068
-742.127	202.129	-0.042	-0.066
-741.112	-135.338	0.301	0.037
-740.098	-41.896	-0.146	-0.077
-739.083	-166.594	-0.423	0.018
-738.069	-13.542	0.366	0.243
-737.054	20.289	-0.103	-0.085
-736.039	-37.305	-0.242	0.132
-735.025	800.000	0.063	0.203
-734.010	-55.850	-0.549	-0.251
-732.996	284.067	0.053	-0.098
-731.981	39.863	0.048	-0.044
-730.966	800.000	-0.031	-0.095
-729.952	144.604	0.145	0.198
-728.937	-64.774	-0.253	-0.105
-727.923	-140.999	-0.312	0.033
-726.908	-200.000	0.049	-0.451
-725.894	763.529	-0.071	0.197
-724.879	-200.000	0.020	0.171
-723.864	82.362	0.123	-0.136
-722.850	10.915	0.185	-0.144
-721.835	75.449	0.094	0.102
-720.821	800.000	-0.083	0.308
-719.806	344.215	-0.103	-0.207
-718.791	800.000	-0.060	0.183
-717.777	800.000	0.023	0.075
-716.762	-27.885	-0.187	0.111
-715.748	-200.000	-0.008	-0.050
-714.733	-169.152	-0.072	0.003
-713.718	-75.069	0.064	0.023
-712.704	-37.368	-0.099	0.054
-711.689	800.000	0.031	0.128
-710.675	674.281	0.064	-0.171
-709.660	-119.961	0.293	0.051
-708.645	-46.483	-0.205	0.103
-707.631	-63.448	-0.249	-0.104
-706.616	-45.095	-0.492	0.250
-705.602	-87.108	-0.330	0.102
-704.587	311.787	-0.209	-0.401
-703.572	151.263	0.169	-0.235
-702.558	-200.000	-0.038	-0.214
-701.543	-200.000	0.004	-0.056
-700.529	-8.587	-0.150	-0.103
-699.514	800.000	0.058	0.202
-698.499	-43.565	0.094	0.048
-697.485	-200.000	0.010	0.264
-696.470	102.673	0.109	-0.130
-695.456	-76.278	0.140	0.050
-694.441	-40.258	-0.145	-0.077
-693.426	800.000	0.124	0.433
-692.412	-154.933	0.284	-0.019
-691.397	-78.322	-0.084	-0.030
-690.383	-89.608	-0.344	0.103
-689.368	-124.259	0.232	0.037
-688.354	579.041	-0.107	-0.268
-687.339	-34.509	-0.374	0.209
-686.324	-3.871	0.196	-0.139
-685.310	-43.540	-0.087	-0.045
-684.295	610.629	-0.051	0.130
-683.281	-16.399	0.074	0.048
-682.266	-12.930	-0.245	-0.163
-681.251	81.032	-0.075	0.083
-680.237	-110.055	-0.335	-0.072
-679.222	-14.927	0.162	0.106
-678.208	324.269	0.101	-0.197
-677.193	-200.000	-0.075	-0.352
-676.178	-92.490	-0.510	-0.146
-675.164	800.000	-0.080	-0.335
-674.149	131.031	-0.162	-0.213
-673.135	277.892	0.025	0.046
-672.120	-112.745	-0.177	0.036
-671.105	-146.316	-0.130	-0.012
-670.091	-123.828	0.362	-0.058
-669.076	-33.478	-0.149	0.084
-668.062	183.633	-0.235	0.354
-667.047	391.939	-0.083	0.176
-666.032	369.310	0.074	-0.152
-665.018	-163.730	-0.366	-0.018
-664.003	-82.210	0.105	0.035
-662.989	-16.790	0.098	0.063
-661.974	-29.953	-0.128	0.074
-660.959	-200.000	0.035	-0.172
-659.945	800.000	0.033	-0.106
-658.930	30.102	0.091	0.079
-657.916	-117.662	0.205	0.038
-656.901	-185.813	-0.203	0.003
-655.886	275.761	0.196	-0.354
-654.872	-18.239	-0.194	-0.124
-653.857	44.752	-0.129	-0.121
-652.843	-82.415	0.100	-0.033
-651.828	-90.881	-0.156	-0.046
-650.814	-200.000	-0.007	0.265
-649.799	-34.421	-0.095	0.053
-648.784	-7.178	0.183	0.126
-647.770	-200.000	0.037	-0.235
-646.755	-59.405	-0.294	0.129
-645.741	153.413	-0.124	-0.173
-644.726	466.288	-0.162	0.370
-643.711	235.514	-0.119	0.200
-642.697	51.755	-0.084	-0.081
-641.682	-59.100	0.121	0.053
-640.668	270.982	-0.064	-0.116
-639.653	-200.000	-0.013	-0.414
-638.638	-70.407	0.350	-0.135
-637.624	33.387	-0.137	0.121
-636.609	142.129	-0.294	-0.397
-635.595	129.785	0.122	-0.159
-634.580	656.086	0.074	-0.192
-633.565	-106.870	0.246	-0.056
-632.551	-120.983	-0.229	0.039
-631.536	-200.000	-0.181	-0.000
-630.522	-16.048	-0.250	-0.162
-629.507	373.751	0.057	-0.119
-628.492	-55.555	0.275	-0.126
-627.478	108.642	-0.267	0.325
-626.463	-34.061	-0.181	-0.102
-625.449	44.380	0.196	0.184
-624.434	-106.802	0.169	0.038
-623.419	-200.000	0.014	0.074
-622.405	800.000	0.052	-0.194
-621.390	-200.000	0.029	-0.332
-620.376	-200.000	-0.006	0.139
-619.361	371.379	0.029	0.060
-618.346	-36.581	-0.244	-0.134
-617.332	800.000	0.025	-0.082
-616.317	62.421	0.258	0.263
-615.303	-79.579	-0.228	0.078
-614.288	-133.477	0.164	-0.021
-613.273	-200.000	0.057	0.279
-612.259	30.821	0.192	0.167
-611.244	117.335	0.030	0.038
-610.230	131.873	0.196	-0.257
-609.215	-200.000	0.009	-0.374
-608.201	22.325	-0.303	-0.252
-607.186	0.475	-0.242	0.176
-606.171	76.487	-0.060	-0.065
-605.157	-200.000	0.023	-0.197
-604.142	-71.307	0.319	-0.122
-603.128	800.000	0.066	-0.226
-602.113	-55.173	-0.152	-0.070
-601.098	-200.000	0.005	-0.089
-600.084	-89.231	0.267	0.080
-599.069	62.446	-0.109	-0.111
-598.055	-200.000	0.015	0.075
-597.040	-200.000	0.028	-0.140
-596.025	-72.069	-0.115	0.043
-595.011	286.420	0.118	-0.216
-593.996	-48.059	0.056	-0.028
-592.982	-16.981	0.075	-0.048
-591.967	157.636	-0.164	0.231
-590.952	-66.183	0.132	0.053
-589.938	255.005	-0.084	0.146
-588.923	-120.129	0.212	0.037
-587.909	352.088	0.058	-0.117
-586.894	-0.714	-0.354	0.255
-585.879	25.663	0.113	-0.095
-584.865	224.153	-0.127	0.208
-583.850	583.798	0.093	-0.231
-582.836	736.539	-0.076	0.207
-581.821	147.573	0.038	-0.052
-580.806	106.300	0.105	-0.126
-579.792	-200.000	-0.005	-0.128
-578.777	252.394	-0.102	0.177
-577.763	37.553	0.169	-0.152
-576.748	-9.568	-0.290	0.196
-575.733	125.111	-0.099	0.127
-574.719	-27.533	-0.336	0.199
-573.704	-38.642	-0.048	-0.026
-572.690	393.646	-0.074	0.157
-571.675	-200.000	-0.036	-0.370
-570.661	61.454	-0.096	-0.097
-569.646	20.118	0.179	0.147
-568.631	-3.089	-0.191	0.136
-567.617	586.590	-0.062	0.154
-566.602	-35.576	-0.207	-0.114
-565.588	-142.867	-0.138	0.014
-564.573	42.479	0.358	0.331
-563.558	714.081	-0.152	0.409
-562.544	-3.129	-0.028	-0.020
-561.529	800.000	0.042	0.142
-560.515	-124.358	0.160	-0.025
-559.500	56.454	-0.211	0.208
-558.485	135.524	-0.047	-0.062
-557.471	800.000	0.068	0.271
-556.456	-179.036	0.251	-0.006
-555.442	-50.130	-0.275	0.132
-554.427	-18.227	-0.342	-0.217
-553.412	-200.000	0.004	-0.050
-552.398	-0.945	-0.270	0.194
-551.383	-85.593	-0.146	-0.046
-550.369	-78.047	-0.211	-0.074
-549.354	10.412	0.298	0.230
-548.339	-200.000	-0.035	0.243
-547.325	800.000	-0.010	-0.041
-546.310	371.580	-0.090	0.186
-545.296	-200.000	0.041	-0.238
-544.281	198.105	0.080	0.124
-543.266	800.000	0.046	-0.148
-542.252	-20.466	0.071	0.045
-541.237	299.180	0.039	-0.072
-540.223	-58.581	-0.194	0.085
-539.208	281.526	-0.084	-0.152
-538.193	-151.905	-0.071	-0.005
-537.179	800.000	0.059	-0.177
-536.164	194.323	0.121	-0.186
-535.150	-200.000	0.004	0.350
-534.135	-88.627	0.486	0.147
-533.121	64.794	-0.238	0.243
-532.106	-140.678	-0.362	0.038
-531.091	45.814	-0.076	0.071
-530.077	-68.210	0.078	0.031
-529.062	-146.584	0.515	0.045
-528.048	800.000	0.022	-0.065
-527.033	89.343	-0.172	-0.195
-526.018	-60.524	0.116	-0.050
-525.004	800.000	-0.088	0.252
-523.989	-17.873	0.256	0.163
-522.975	-8.830	-0.222	0.151
-521.960	229.434	0.162	-0.268
-520.945	-130.823	-0.259	-0.035
-519.931	-200.000	-0.094	-0.449
-518.916	-200.000	0.031	-0.170
-517.902	-146.398	0.003	-0.000
-516.887	800.000	-0.119	-0.489
-515.872	688.908	-0.058	-0.153
-514.858	800.000	0.073	0.244
-513.843	38.665	0.303	-0.274
-512.829	-70.075	0.269	0.104
-511.814	-200.000	0.005	0.133
-510.799	-200.000	-0.075	0.454
-509.785	-200.000	0.026	0.268
-508.770	-87.878	-0.115	-0.035
-507.756	800.000	0.107	0.347
-506.741	451.031	0.076	0.171
-505.726	105.723	-0.109	0.131
-504.712	-62.196	0.053	-0.022
-503.697	-20.713	-0.067	-0.042
-502.683	-200.000	0.010	0.327
-501.668	-200.000	-0.028	0.402
-500.653	800.000	0.083	-0.245
-499.639	-153.580	0.056	-0.004
-498.624	-79.718	0.249	-0.085
-497.610	65.473	-0.160	0.164
-496.595	-200.000	-0.016	-0.072
-495.581	-8.655	0.053	-0.036
-494.566	7.295	-0.220	-0.166
-493.551	206.196	0.066	-0.104
-492.537	-70.311	-0.226	0.087
-491.522	-36.961	-0.352	-0.191
-490.508	-80.746	0.130	-0.044
-489.493	-200.000	0.021	0.145
-488.478	-200.000	0.023	-0.147
-487.464	-200.000	0.004	-0.175
-486.449	235.518	-0.104	-0.174
-485.435	375.745	0.120	-0.247
-484.420	-10.095	-0.165	-0.111
-483.405	-119.371	0.244	0.043
-482.391	-123.287	0.306	0.050
-481.376	137.636	0.174	-0.231
-480.362	24.295	0.239	0.200
-479.347	-0.871	-0.131	-0.094
-478.332	-200.000	0.001	0.076
-477.318	-15.850	0.204	-0.131
-476.303	800.000	0.023	-0.092
-475.289	-23.710	-0.125	-0.076
-474.274	75.302	0.093	-0.099
-473.259	100.092	-0.298	0.349
-472.245	64.240	-0.394	-0.401
-471.230	-53.569	-0.250	0.116
-470.216	88.976	0.116	0.131
-469.201	31.422	-0.022	-0.019
-468.186	800.000	-0.057	0.168
-467.172	-200.000	-0.004	0.167
-466.157	-160.872	0.344	0.018
-465.143	509.949	-0.099	-0.232
-464.128	-200.000	0.043	0.224
-463.113	-200.000	0.015	-0.224
-462.099	-166.653	-0.282	0.012
-461.084	50.993	0.173	-0.166
-460.070	150.833	0.222	0.306
-459.055	-83.775	-0.072	0.023
-458.040	239.798	0.149	-0.251
-457.026	800.000	0.036	0.147
-456.011	-200.000	0.006	-0.077
-454.997	-189.760	0.085	-0.001
-453.982	476.509	-0.154	-0.353
-452.968	381.497	0.087	-0.180
-451.953	-73.479	0.249	0.092
-450.938	-171.783	-0.351	0.012
-449.924	-76.424	0.130	-0.046
-448.909	71.032	0.105	0.110
-447.895	331.500	-0.080	0.157
-446.880	51.458	0.188	-0.181
-445.865	283.537	-0.032	-0.058
-444.851	-154.258	-0.188	-0.013
-443.836	-128.282	0.312	-0.045
-442.822	800.000	-0.016	-0.061
-441.807	-143.314	0.240	-0.023
-440.792	-200.000	0.008	0.193
-439.778	-6.634	0.219	0.151
-438.763	17.985	-0.192	0.155
-437.749	-200.000	0.029	-0.149
-436.734	800.000	0.035	0.149
-435.719	83.209	0.145	0.159
-434.705	-17.165	-0.253	0.161
-433.690	800.000	-0.013	0.053
-432.676	116.245	0.031	0.039
-431.661	-87.779	0.076	-0.023
-430.646	-99.770	0.170	-0.043
-429.632	-60.934	0.152	0.065
-428.617	-98.941	0.041	-0.010
-427.603	-200.000	0.002	0.052
-426.588	-8.440	-0.053	0.036
-425.573	-200.000	0.028	0.264
-424.559	-121.094	0.077	-0.013
-423.544	153.441	0.212	0.293
-422.530	-10.071	0.172	-0.115
-421.515	-160.671	-0.183	-0.010
-420.500	800.000	-0.024	0.074
-419.486	276.786	-0.090	-0.161
-418.471	407.154	0.019	-0.040
-417.457	148.309	-0.044	0.060
-416.442	800.000	-0.089	0.254
-415.428	151.373	-0.128	-0.176
-414.413	-200.000	0.012	-0.167
-413.398	-200.000	-0.016	-0.082
-412.384	800.000	-0.077	-0.224
-411.369	800.000	0.006	0.019
-410.355	800.000	0.063	0.216
-409.340	-200.000	0.034	-0.158
-408.325	-94.426	0.201	-0.055
-407.311	-190.641	-0.043	-0.000
-406.296	236.677	-0.120	-0.201
-405.282	-8.216	-0.007	-0.004
-404.267	-103.275	-0.150	0.036
-403.252	-53.881	-0.087	0.040
-402.238	-200.000	-0.022	-0.278
-401.223	29.803	-0.101	0.087
-400.209	39.284	0.036	-0.033
-399.194	-15.093	-0.244	0.158
-398.179	-75.816	0.381	-0.136
-397.165	-64.758	-0.096	0.039
-396.150	-99.408	0.245	0.062
-395.136	-91.015	-0.409	0.118
-394.121	-200.000	0.027	0.269
-393.106	800.000	0.050	-0.183
-392.092	-151.773	0.379	-0.028
-391.077	58.445	-0.068	0.067
-390.063	-200.000	-0.002	-0.157
-389.048	-91.262	0.272	-0.078
-388.033	-200.000	0.006	0.038
-387.019	-52.190	0.288	-0.135
-386.004	-200.000	-0.028	-0.138
-384.990	800.000	-0.014	0.044
-383.975	211.750	-0.066	0.104
-382.960	-111.124	-0.169	-0.035
-381.946	163.503	-0.060	0.085
-380.931	-168.493	-0.289	-0.011
-379.917	-124.792	0.115	0.018
-378.902	-200.000	0.003	-0.137
-377.888	-31.041	-0.063	-0.036
-376.873	-73.678	-0.232	-0.085
-375.858	-110.543	-0.249	0.052
-374.844	139.083	0.122	0.161
-373.829	-200.000	-0.024	0.119
-372.815	19.775	-0.267	-0.217
-371.800	800.000	0.110	0.361
-370.785	-112.054	-0.379	-0.077
-369.771	-135.067	0.282	-0.034
-368.756	-41.289	0.222	0.116
-367.742	66.151	0.070	0.072
-366.727	-122.940	0.073	-0.012
-365.712	-30.898	-0.293	0.167
-364.698	2.692	-0.322	0.236
-363.683	-200.000	0.010	0.066
-362.669	34.161	-0.198	-0.174
-361.654	800.000	-0.012	0.045
-360.639	-84.538	0.062	-0.020
-359.625	122.867	-0.180	-0.227
-358.610	-171.241	-0.266	0.009
-357.596	67.295	0.233	0.240
-356.581	-150.471	0.261	-0.020
-355.566	-48.694	-0.116	0.056
-354.552	800.000	-0.052	0.227
-353.537	-69.983	0.261	-0.100
-352.523	-200.000	0.082	-0.409
-351.508	47.997	0.210	-0.198
-350.493	800.000	-0.031	-0.103
-349.479	11.409	0.088	0.068
-348.464	484.135	-0.026	0.061
-347.450	-23.258	0.319	-0.193
-346.435	368.605	0.095	-0.194
-345.420	-38.302	0.253	0.135
-344.406	-66.426	0.056	-0.022
-343.391	-110.078	0.214	0.045
-342.377	-167.913	0.151	-0.006
-341.362	-37.855	-0.257	-0.138
-340.348	286.194	0.062	0.113
-339.333	125.745	0.178	-0.226
-338.318	-54.258	0.136	-0.062
-337.304	188.228	0.107	-0.161
-336.289	94.847	0.159	-0.183
-335.275	172.651	0.046	0.066
-334.260	-128.390	0.145	0.021
-333.245	800.000	0.050	-0.174
-332.231	-33.030	-0.263	-0.147
-331.216	-1.064	-0.291	-0.207
-330.202	437.276	-0.073	-0.160
-329.187	184.848	0.098	-0.147
-328.172	698.755	0.017	-0.045
-327.158	38.898	0.091	0.082
-326.143	-200.000	-0.017	-0.412
-325.129	-24.578	0.154	-0.092
-324.114	251.452	0.072	-0.124
-323.099	510.309	0.007	-0.016
-322.085	-85.166	-0.109	0.034
-321.070	800.000	-0.065	0.181
-320.056	-100.852	0.543	0.134
-319.041	461.565	-0.128	0.286
-318.026	-200.000	-0.011	-0.635
-317.012	-200.000	0.024	-0.187
-315.997	42.055	-0.323	0.295
-314.983	-83.884	0.337	-0.108
-313.968	-25.296	0.178	0.106
-312.953	-61.421	0.078	0.033
-311.939	-28.802	0.199	0.115
-310.924	79.589	0.123	0.133
-309.910	800.000	0.053	0.152
-308.895	-53.383	-0.182	0.084
-307.880	-200.000	0.008	-0.062
-306.866	-132.573	-0.290	-0.037
-305.851	461.935	-0.045	-0.100
-304.837	57.215	-0.177	0.174
-303.822	-104.945	0.312	-0.072
-302.807	487.187	0.060	-0.137
-301.793	-200.000	0.021	0.224
-300.778	-121.715	0.290	0.048
-299.764	-172.043	-0.119	-0.004
-298.749	41.841	-0.259	-0.236
-297.735	-200.000	0.042	-0.204
-296.720	229.759	0.185	0.305
-295.705	-200.000	-0.010	0.229
-294.691	98.242	0.087	0.100
-293.676	-200.000	0.048	0.422
-292.662	-82.202	0.253	-0.083
-291.647	-89.543	-0.092	-0.027
-290.632	533.982	-0.047	0.112
-289.618	262.060	-0.085	-0.148
-288.603	-184.367	-0.229	0.004
-287.589	54.074	-0.116	-0.112
-286.574	-6.357	-0.184	-0.126
-285.559	82.449	0.097	0.105
-284.545	41.017	0.134	0.122
-283.530	800.000	-0.175	0.531
-282.516	-0.958	-0.259	-0.184
-281.501	204.902	-0.140	0.218
-280.486	-144.917	-0.114	-0.010
-279.472	-18.142	-0.196	-0.123
-278.457	-200.000	0.005	-0.112
-277.443	-39.829	-0.349	-0.183
-276.428	-107.921	0.228	0.050
-275.413	168.394	0.143	0.204
-274.399	-200.000	-0.024	0.238
-273.384	-17.725	0.104	0.066
-272.370	-110.639	-0.227	0.047
-271.355	-51.348	0.288	0.135
-270.340	713.155	0.054	-0.143
-269.326	-52.170	-0.068	-0.031
-268.311	375.963	-0.064	-0.132
-267.297	324.085	-0.059	0.113
-266.282	-30.272	-0.442	-0.252
-265.267	-16.220	0.123	-0.078
-264.253	-171.005	-0.176	-0.006
-263.238	-109.312	0.102	-0.022
-262.224	446.407	-0.126	-0.278
-261.209	138.149	-0.267	0.351
-260.195	-124.182	-0.214	-0.034
-259.180	-183.762	0.297	-0.005
-258.165	631.835	0.033	0.083
-257.151	90.720	0.122	-0.137
-256.136	-37.458	0.263	0.141
-255.122	-118.348	-0.299	-0.053
-254.107	-82.312	0.235	0.077
-253.092	-200.000	-0.057	0.311
-252.078	71.884	-0.121	0.126
-251.063	-200.000	-0.018	-0.233
-250.049	-200.000	-0.002	-0.172
-249.034	6.337	-0.178	-0.133
-248.019	-72.841	-0.097	0.036
-247.005	181.889	-0.114	0.168
-245.990	-170.587	0.113	-0.004
-244.976	-200.000	0.018	0.131
-243.961	9.645	-0.205	0.156
-242.946	800.000	-0.047	-0.152
-241.932	-143.783	-0.130	0.012
-240.917	-200.000	-0.007	-0.154
-239.903	800.000	-0.097	0.291
-238.888	800.000	-0.077	-0.231
-237.873	149.925	-0.084	-0.115
-236.859	2.355	-0.064	0.046
-235.844	-55.896	0.249	0.111
-234.830	25.889	0.131	0.110
-233.815	58.133	-0.234	0.230
-232.800	79.068	-0.113	0.121
-231.786	-33.715	0.236	-0.130
-230.771	-44.287	-0.237	0.119
-229.757	-200.000	0.040	0.609
-228.742	800.000	0.107	0.306
-227.727	799.080	0.142	-0.393
-226.713	-200.000	0.020	0.090
-225.698	-200.000	-0.003	-0.233
-224.684	-71.574	-0.247	0.092
-223.669	800.000	0.074	0.316
-222.655	-88.529	-0.046	0.014
-221.640	-101.535	0.159	-0.039
-220.625	162.396	0.022	-0.031
-219.611	-41.575	-0.165	0.085
-218.596	288.440	0.169	0.307
-217.582	674.781	0.103	-0.267
-216.567	-200.000	0.071	-0.394
-215.552	-200.000	-0.016	-0.178
-214.538	800.000	0.070	-0.265
-213.523	-146.887	0.030	-0.003
-212.509	-51.796	0.258	0.120
-211.494	57.457	-0.127	-0.124
-210.479	258.189	0.040	0.069
-209.465	-36.423	-0.127	0.069
-208.450	-39.659	0.199	0.104
-207.436	800.000	0.187	-0.571
-206.421	639.485	-0.079	-0.200
-205.406	103.550	0.175	-0.206
-204.392	-130.298	-0.239	-0.033
-203.377	-200.000	-0.031	-0.141
-202.363	-200.000	-0.008	0.497
-201.348	43.695	0.245	0.225
-200.333	-0.346	-0.110	-0.078
-199.319	-200.000	0.000	-0.180
-198.304	-16.625	-0.247	-0.157
-197.290	24.988	-0.080	0.067
-196.275	-200.000	0.019	-0.123
-195.260	17.895	-0.200	-0.160
-194.246	162.527	0.064	-0.089
-193.231	358.047	-0.159	0.317
-192.217	213.809	0.057	-0.090
-191.202	-167.804	0.126	-0.005
-190.187	-200.000	-0.016	0.251
-189.173	88.916	0.129	0.143
-188.158	-8.001	-0.297	-0.201
-187.144	322.033	0.030	-0.057
-186.129	-104.827	-0.204	-0.047
-185.114	-200.000	-0.036	-0.347
-184.100	-130.222	0.117	0.016
-183.085	65.581	-0.272	-0.276
-182.071	-161.503	0.383	0.020
-181.056	656.710	0.127	0.327
-180.042	-200.000	0.023	0.297
-179.027	-52.565	-0.258	0.119
-178.012	-28.846	0.047	-0.027
-176.998	181.411	-0.112	0.165
-175.983	-200.000	0.014	-0.071
-174.969	-200.000	0.003	-0.095
-173.954	-181.381	0.210	0.004
-172.939	199.611	0.068	0.105
-171.925	595.759	-0.013	0.032
-170.910	344.811	0.107	0.211
-169.896	-116.467	0.132	0.024
-168.881	-1.891	0.139	0.098
-167.866	-200.000	-0.006	-0.033
-166.852	206.912	0.126	0.196
-165.837	51.855	-0.143	-0.136
-164.823	259.282	-0.058	-0.100
-163.808	279.671	0.083	-0.149
-162.793	-200.000	0.011	-0.123
-161.779	288.460	0.102	0.184
-160.764	-200.000	0.056	-0.279
-159.750	-200.000	-0.027	-0.260
-158.735	724.547	-0.044	0.118
-157.720	800.000	0.070	0.210
-156.706	800.000	0.054	0.188
-155.691	800.000	0.025	-0.091
-154.677	-200.000	0.021	0.131
-153.662	730.119	-0.079	-0.210
-152.647	-200.000	0.017	-0.113
-151.633	-26.430	0.137	0.080
-150.618	11.195	-0.217	-0.166
-149.604	554.718	-0.076	-0.182
-148.589	800.000	-0.050	0.195
-147.574	-64.683	0.133	-0.054
-146.560	10.037	-0.212	0.161
-145.545	-200.000	-0.024	-0.347
-144.531	-200.000	0.012	0.186
-143.516	27.248	-0.183	-0.154
-142.502	591.001	-0.011	0.027
-141.487	78.616	0.270	-0.289
-140.472	800.000	0.059	0.191
-139.458	174.648	0.248	-0.358
-138.443	57.151	0.045	-0.044
-137.429	40.429	0.221	-0.199
-136.414	800.000	-0.038	0.147
-135.399	-14.547	-0.209	0.135
-134.385	-2.839	-0.192	0.134
-133.370	-25.476	0.384	-0.227
-132.356	-200.000	-0.013	0.162
-131.341	673.767	-0.023	0.059
-130.326	10.102	0.173	-0.131
-129.312	-200.000	0.036	-0.217
-128.297	280.304	-0.083	0.148
-127.283	800.000	0.076	0.254
-126.268	24.710	0.186	-0.154
-125.253	308.723	0.179	-0.335
-124.239	210.951	-0.041	-0.065
-123.224	800.000	-0.057	0.195
-122.210	-200.000	-0.017	0.218
-121.195	122.254	0.092	-0.115
