DTS Sentinel unit serial number:	SN413079Multiplexer serial number:	ORYXHardware model number:	OX4-SRSoftware version number:	ORYX F/W v4.00 Oryx Data Collector v3.7.2.0data status	okinstallation	princeton_trtdifferential loss correction	single-endedforward channel	channel 4reverse channel	N/Adate	2019/09/17time	22:29:34forward acquisition time	60.00reverse acquisition time	0.00gamma	496.2192k internal	0.2330k external	0.2330temperature offset calibration	0.9993default loss term (dB/km)	0.3790temperature slope calibration	1.0000multiplexer offset coefficient	1.0000multiplexer slope coefficient	1.0000fibre end	0.00T internal ref (°C)	25.34T ext. ref 1 (°C)	0.18T ext. ref 2 (°C)	18.59length (m)	temperature (°C)	Stokes	anti-Stokes-747.200	800.000	-0.075	0.240
-746.185	38.264	0.124	0.112
-745.171	-106.854	-0.055	0.012
-744.156	132.675	0.139	0.181
-743.142	-77.453	0.119	-0.042
-742.127	-173.706	0.377	0.011
-741.112	-172.191	0.302	0.010
-740.098	674.281	-0.162	0.424
-739.083	800.000	-0.058	-0.197
-738.069	-72.900	-0.354	0.131
-737.054	-31.617	-0.277	-0.157
-736.039	-200.000	0.010	-0.058
-735.025	-200.000	-0.100	-0.464
-734.010	7.683	0.105	-0.079
-732.996	-200.000	-0.045	-0.355
-731.981	800.000	-0.084	0.303
-730.966	461.078	-0.146	-0.328
-729.952	12.612	-0.034	-0.026
-728.937	-111.610	-0.097	0.020
-727.923	800.000	0.079	0.295
-726.908	691.119	0.073	-0.192
-725.894	-144.064	-0.282	-0.027
-724.879	-200.000	0.022	-0.291
-723.864	-200.000	0.008	0.378
-722.850	-200.000	-0.016	0.303
-721.835	149.479	0.146	0.199
-720.821	32.908	-0.276	0.240
-719.806	311.437	-0.139	0.263
-718.791	231.374	-0.154	-0.254
-717.777	-186.483	-0.193	-0.003
-716.762	-200.000	-0.017	-0.080
-715.748	-173.083	0.248	-0.008
-714.733	-105.652	-0.247	0.056
-713.718	735.472	-0.088	-0.237
-712.704	-88.633	0.245	0.073
-711.689	197.698	-0.138	-0.212
-710.675	-200.000	0.005	0.158
-709.660	-33.341	-0.394	-0.219
-708.645	-200.000	0.039	-0.299
-707.631	13.874	0.089	-0.070
-706.616	-11.421	0.191	-0.126
-705.602	-200.000	0.036	-0.478
-704.587	-200.000	0.002	-0.047
-703.572	-175.465	-0.296	-0.008
-702.558	-132.963	-0.100	-0.013
-701.543	800.000	0.064	-0.227
-700.529	523.058	0.126	0.297
-699.514	-123.496	0.333	0.053
-698.499	-200.000	0.016	-0.186
-697.485	43.507	-0.063	-0.058
-696.470	35.233	0.169	0.149
-695.456	-57.016	-0.177	-0.079
-694.441	-200.000	0.018	0.177
-693.426	-200.000	-0.014	0.072
-692.412	126.198	0.039	-0.049
-691.397	-200.000	0.006	0.036
-690.383	-69.246	0.085	-0.033
-689.368	-200.000	0.003	-0.245
-688.354	800.000	0.133	-0.495
-687.339	-7.193	0.340	-0.232
-686.324	86.202	0.076	-0.084
-685.310	260.755	0.200	-0.348
-684.295	241.971	0.172	0.288
-683.281	800.000	-0.110	-0.305
-682.266	-200.000	-0.004	-0.138
-681.251	-22.770	-0.390	-0.237
-680.237	204.683	-0.090	-0.141
-679.222	392.872	-0.031	-0.064
-678.208	192.519	0.093	-0.141
-677.193	180.907	0.112	0.165
-676.178	36.763	-0.324	-0.287
-675.164	-114.639	0.312	0.060
-674.149	-168.883	0.196	0.007
-673.135	58.492	-0.242	0.239
-672.120	5.623	-0.130	-0.097
-671.105	800.000	0.066	0.191
-670.091	-36.578	-0.226	-0.122
-669.076	-200.000	-0.001	-0.193
-668.062	-200.000	-0.048	0.255
-667.047	-37.860	-0.148	0.079
-666.032	126.520	-0.059	0.075
-665.018	-117.075	-0.335	0.061
-664.003	26.088	-0.354	-0.297
-662.989	-200.000	0.002	-0.140
-661.974	-200.000	0.028	0.246
-660.959	-168.104	-0.092	0.004
-659.945	7.908	0.189	0.142
-658.930	-10.257	-0.430	-0.286
-657.916	-200.000	0.010	-0.185
-656.901	111.749	0.115	-0.139
-655.886	496.265	0.050	-0.115
-654.872	579.617	-0.052	-0.127
-653.857	-200.000	0.026	0.209
-652.843	-200.000	0.000	0.070
-651.828	166.769	-0.144	0.205
-650.814	-200.000	-0.009	0.099
-649.799	-117.971	-0.209	-0.038
-648.784	800.000	0.033	-0.140
-647.770	-163.172	0.175	0.008
-646.755	31.950	-0.159	0.138
-645.741	206.850	0.030	0.046
-644.726	112.966	0.106	-0.128
-643.711	-7.554	-0.090	-0.061
-642.697	-90.757	-0.157	-0.045
-641.682	-200.000	0.098	0.496
-640.668	-22.451	-0.222	0.135
-639.653	226.904	0.155	-0.252
-638.638	-200.000	0.040	-0.258
-637.624	33.384	0.195	0.170
-636.609	-121.263	-0.052	0.009
-635.595	62.208	0.253	0.253
-634.580	-43.928	-0.181	-0.091
-633.565	80.710	-0.164	0.177
-632.551	653.753	-0.034	0.088
-631.536	53.204	0.072	0.069
-630.522	-200.000	-0.042	-0.189
-629.507	73.124	0.064	-0.067
-628.492	98.407	-0.248	0.287
-627.478	-57.611	0.152	-0.067
-626.463	-200.000	-0.066	0.302
-625.449	224.967	0.098	0.159
-624.434	6.040	-0.224	0.166
-623.419	-113.425	-0.312	-0.061
-622.405	-133.963	-0.133	-0.017
-621.390	-28.156	-0.214	-0.124
-620.376	380.105	-0.071	0.147
-619.361	60.568	-0.055	-0.055
-618.346	-66.070	0.190	0.076
-617.332	198.810	0.100	0.154
-616.317	-23.028	0.053	0.032
-615.303	41.110	-0.101	0.092
-614.288	275.059	0.167	-0.297
-613.273	-54.746	0.269	0.122
-612.259	79.083	-0.143	-0.154
-611.244	0.085	0.136	-0.097
-610.230	46.248	-0.115	0.107
-609.215	231.471	-0.225	-0.370
-608.201	-200.000	-0.035	0.160
-607.186	-59.928	0.145	0.062
-606.171	-200.000	-0.055	-0.287
-605.157	337.477	-0.133	-0.259
-604.142	196.616	0.022	0.034
-603.128	83.889	0.149	-0.163
-602.113	-100.235	-0.105	-0.026
-601.098	178.864	0.146	-0.214
-600.084	-64.046	-0.098	0.040
-599.069	69.872	-0.078	-0.081
-598.055	126.267	0.081	-0.103
-597.040	50.425	-0.213	-0.201
-596.025	800.000	-0.034	-0.098
-595.011	19.585	-0.320	0.258
-593.996	179.220	0.149	-0.219
-592.982	-12.365	0.256	0.167
-591.967	1.304	0.156	-0.112
-590.952	2.103	-0.337	-0.244
-589.938	567.804	0.111	-0.269
-588.923	614.171	0.105	0.264
-587.909	-200.000	-0.011	-0.112
-586.894	-66.709	-0.126	0.050
-585.879	9.273	-0.087	-0.066
-584.865	-135.421	-0.083	0.010
-583.850	800.000	0.017	0.074
-582.836	101.973	0.205	-0.239
-581.821	-5.468	0.121	0.083
-580.806	217.439	0.094	0.151
-579.792	800.000	0.107	0.343
-578.777	-168.775	0.365	0.014
-577.763	546.587	0.149	-0.356
-576.748	174.905	-0.251	-0.363
-575.733	-137.606	-0.142	0.016
-574.719	128.798	0.175	0.224
-573.704	-200.000	0.029	0.140
-572.690	172.841	-0.131	-0.189
-571.675	445.427	-0.051	-0.112
-570.661	-63.765	0.173	0.071
-569.646	204.962	-0.169	-0.263
-568.631	-3.621	-0.143	-0.099
-567.617	-112.033	-0.240	-0.048
-566.602	-38.368	-0.276	0.146
-565.588	-40.950	-0.206	-0.107
-564.573	-84.325	-0.204	0.065
-563.558	-173.453	0.350	0.011
-562.544	-200.000	-0.058	0.292
-561.529	336.124	0.108	0.209
-560.515	251.146	-0.083	-0.141
-559.500	282.220	0.139	-0.249
-558.485	285.600	-0.055	-0.099
-557.471	800.000	-0.090	0.263
-556.456	800.000	-0.025	-0.074
-555.442	-18.523	0.195	-0.122
-554.427	-72.681	0.189	-0.070
-553.412	-136.957	0.147	0.017
-552.398	755.073	-0.093	0.251
-551.383	-14.250	-0.149	-0.096
-550.369	800.000	-0.047	-0.164
-549.354	800.000	0.038	-0.154
-548.339	-43.376	0.357	-0.180
-547.325	-66.461	0.250	-0.099
-546.310	-200.000	0.006	0.095
-545.296	-200.000	-0.003	0.140
-544.281	-110.144	-0.161	-0.034
-543.266	11.430	0.010	-0.007
-542.252	-34.783	-0.212	0.116
-541.237	157.042	-0.280	0.387
-540.223	-180.139	0.084	-0.002
-539.208	13.864	-0.122	-0.095
-538.193	-200.000	-0.015	0.110
-537.179	-123.299	-0.111	-0.018
-536.164	562.048	0.179	-0.433
-535.150	-200.000	0.032	-0.153
-534.135	-200.000	-0.013	0.218
-533.121	47.716	-0.050	0.046
-532.106	-74.183	0.146	-0.053
-531.091	-200.000	0.022	0.236
-530.077	142.171	-0.178	-0.236
-529.062	-2.023	0.162	0.114
-528.048	287.008	-0.081	-0.145
-527.033	-8.357	0.373	0.250
-526.018	102.101	0.112	0.130
-525.004	-159.104	-0.152	-0.009
-523.989	74.133	0.169	-0.177
-522.975	174.019	0.052	-0.074
-521.960	-86.951	-0.116	0.035
-520.945	-27.669	-0.122	0.071
-519.931	800.000	0.060	-0.222
-518.916	800.000	0.015	0.054
-517.902	-68.410	0.079	0.031
-516.887	-200.000	-0.013	0.145
-515.872	577.928	0.183	0.448
-514.858	123.330	0.181	-0.227
-513.843	221.152	-0.098	0.157
-512.829	795.225	-0.107	-0.295
-511.814	-156.826	0.485	0.030
-510.799	-30.477	-0.203	-0.115
-509.785	226.758	0.066	0.107
-508.770	-120.118	0.128	-0.022
-507.756	-61.252	-0.343	-0.144
-506.741	-200.000	-0.012	0.139
-505.726	49.144	0.162	-0.151
-504.712	-45.233	0.170	0.084
-503.697	178.141	-0.112	0.163
-502.683	-80.373	0.225	-0.075
-501.668	34.772	-0.126	0.110
-500.653	-200.000	0.005	0.120
-499.639	191.397	-0.072	0.107
-498.624	75.815	-0.230	0.243
-497.610	-200.000	-0.020	0.199
-496.595	-37.093	-0.221	-0.118
-495.581	-38.404	0.286	-0.151
-494.566	-200.000	-0.004	0.316
-493.551	-106.077	0.264	-0.059
-492.537	477.705	0.102	0.230
-491.522	-200.000	0.050	-0.224
-490.508	-200.000	-0.044	0.360
-489.493	-28.747	-0.150	-0.086
-488.478	51.220	0.114	0.108
-487.464	163.320	-0.212	0.297
-486.449	-100.205	0.260	-0.064
-485.435	800.000	-0.054	-0.223
-484.420	-54.706	0.146	-0.066
-483.405	29.311	0.280	-0.237
-482.391	168.853	0.217	-0.309
-481.376	-138.409	0.108	0.012
-480.362	-82.944	0.133	-0.043
-479.347	-200.000	0.006	-0.416
-478.332	-130.314	0.092	0.012
-477.318	-62.185	0.154	0.064
-476.303	-200.000	0.025	0.167
-475.289	-92.942	-0.107	-0.030
-474.274	42.091	0.125	0.113
-473.259	265.729	0.196	0.340
-472.245	-119.822	-0.231	-0.040
-471.230	800.000	0.098	-0.348
-470.216	-200.000	-0.086	-0.532
-469.201	48.114	0.139	-0.129
-468.186	-200.000	0.033	0.276
-467.172	-200.000	-0.008	0.062
-466.157	82.418	-0.228	-0.246
-465.143	185.317	-0.122	0.181
-464.128	136.225	0.115	0.149
-463.113	-200.000	0.015	0.069
-462.099	-40.472	-0.368	-0.190
-461.084	773.533	-0.063	-0.171
-460.070	-8.504	-0.160	-0.107
-459.055	-115.786	-0.397	-0.074
-458.040	258.071	0.172	-0.296
-457.026	688.909	-0.100	-0.260
-456.011	302.046	-0.171	0.314
-454.997	-94.022	0.399	0.109
-453.982	-147.048	-0.099	-0.008
-452.968	174.169	-0.177	-0.254
-451.953	96.737	-0.161	-0.184
-450.938	340.115	-0.104	0.201
-449.924	193.795	0.261	0.393
-448.909	-168.735	0.154	-0.006
-447.895	-25.034	0.089	0.053
-446.880	-121.103	0.304	-0.051
-445.865	-122.814	-0.197	0.032
-444.851	-57.745	0.199	0.087
-443.836	-200.000	-0.024	-0.175
-442.822	69.285	-0.257	-0.263
-441.807	-102.517	-0.278	-0.066
-440.792	68.570	-0.175	-0.178
-439.778	-25.618	0.143	-0.084
-438.763	-62.691	-0.107	-0.044
-437.749	-19.516	0.185	0.114
-436.734	-49.791	0.041	0.020
-435.719	-200.000	0.055	0.281
-434.705	-47.657	0.198	-0.096
-433.690	62.075	0.308	0.305
-432.676	643.312	-0.190	-0.482
-431.661	-65.201	0.124	0.050
-430.646	-100.610	-0.151	-0.037
-429.632	-200.000	-0.006	-0.335
-428.617	-21.800	-0.141	-0.085
-427.603	-98.108	-0.351	0.090
-426.588	-200.000	-0.010	-0.207
-425.573	-19.749	-0.188	-0.116
-424.559	39.964	0.061	0.055
-423.544	-85.159	0.102	0.032
-422.530	-139.366	-0.339	0.036
-421.515	-200.000	-0.035	-0.362
-420.500	-36.609	0.091	-0.049
-419.486	-129.514	0.334	-0.046
-418.471	72.317	-0.245	0.253
-417.457	-92.419	0.256	0.072
-416.442	-200.000	0.016	-0.107
-415.428	-131.387	0.184	0.024
-414.413	-0.003	-0.286	0.202
-413.398	591.565	0.077	-0.189
-412.384	434.785	-0.029	-0.063
-411.369	-181.938	-0.241	-0.005
-410.355	-35.722	-0.394	-0.212
-409.340	160.080	0.120	-0.167
-408.325	162.614	0.035	-0.049
-407.311	-182.842	-0.210	0.004
-406.296	304.411	-0.024	-0.045
-405.282	100.680	-0.147	-0.170
-404.267	95.856	0.136	0.155
-403.252	-6.565	0.205	0.139
-402.238	-200.000	0.019	0.577
-401.223	-133.588	0.239	-0.030
-400.209	-200.000	0.018	0.369
-399.194	-140.157	-0.243	0.025
-398.179	502.223	-0.099	-0.228
-397.165	65.821	0.180	0.181
-396.150	-200.000	-0.026	-0.150
-395.136	-200.000	-0.051	0.376
-394.121	26.249	-0.107	-0.089
-393.106	508.829	-0.181	-0.417
-392.092	12.060	-0.233	0.178
-391.077	-200.000	0.007	0.054
-390.063	-113.814	0.423	0.082
-389.048	-86.881	-0.267	0.081
-388.033	204.420	0.179	0.276
-387.019	-89.872	-0.299	-0.087
-386.004	-35.576	-0.113	-0.061
-384.990	-129.994	-0.121	0.016
-383.975	-161.302	0.302	-0.016
-382.960	-200.000	0.013	0.205
-381.946	310.305	0.036	-0.067
-380.931	-33.079	-0.174	0.096
-379.917	99.538	0.199	0.229
-378.902	179.044	0.049	0.072
-377.888	58.736	-0.088	0.086
-376.873	-156.763	0.341	-0.021
-375.858	5.034	-0.156	-0.114
-374.844	97.535	-0.160	-0.183
-373.829	-200.000	-0.016	-0.398
-372.815	428.275	0.041	-0.088
-371.800	112.608	-0.119	-0.143
-370.785	800.000	0.036	0.120
-369.771	800.000	0.042	-0.165
-368.756	-140.903	0.030	-0.003
-367.742	800.000	-0.048	-0.165
-366.727	-200.000	-0.027	-0.166
-365.712	205.440	-0.048	0.074
-364.698	2.498	0.247	0.178
-363.683	-157.785	0.174	0.010
-362.669	800.000	-0.073	-0.280
-361.654	-200.000	0.003	-0.055
-360.639	2.046	0.237	0.170
-359.625	800.000	-0.055	0.169
-358.610	-44.601	0.108	0.053
-357.596	800.000	0.096	-0.351
-356.581	-117.860	0.208	0.037
-355.566	-200.000	0.026	-0.281
-354.552	14.588	0.112	0.087
-353.537	-36.173	0.111	-0.059
-352.523	6.680	-0.165	0.122
-351.508	-110.702	-0.316	-0.065
-350.493	-200.000	0.018	0.199
-349.479	239.988	-0.079	-0.131
-348.464	343.719	-0.076	0.147
-347.450	42.300	0.387	0.348
-346.435	-35.853	0.086	-0.046
-345.420	351.789	0.042	-0.083
-344.406	-200.000	0.043	0.494
-343.391	-70.705	0.049	-0.018
-342.377	-147.013	-0.236	0.020
-341.362	-200.000	-0.018	0.184
-340.348	250.716	-0.038	0.064
-339.333	-153.051	0.174	-0.012
-338.318	457.370	0.059	-0.131
-337.304	55.241	0.043	0.042
-336.289	-42.131	0.179	-0.091
-335.275	800.000	-0.094	-0.310
-334.260	-97.411	0.456	-0.118
-333.245	-150.005	0.027	0.002
-332.231	-113.761	-0.109	0.021
-331.216	68.840	0.118	-0.120
-330.202	800.000	0.033	0.107
-329.187	800.000	-0.049	0.160
-328.172	-116.538	-0.332	-0.061
-327.158	495.649	-0.117	-0.265
-326.143	431.981	-0.087	-0.187
-325.129	-200.000	0.036	0.284
-324.114	-161.620	-0.183	-0.009
-323.099	53.276	0.097	-0.092
-322.085	6.515	0.166	0.122
-321.070	-17.800	0.190	-0.118
-320.056	800.000	0.031	-0.085
-319.041	-92.460	0.217	0.060
-318.026	-49.214	-0.264	0.125
-317.012	-79.674	0.569	0.190
-315.997	-200.000	0.030	-0.315
-314.983	-110.441	-0.162	-0.033
-313.968	-13.356	-0.259	-0.166
-312.953	237.627	-0.084	0.138
-311.939	-74.390	-0.107	0.038
-310.924	-78.060	-0.093	0.032
-309.910	-65.439	0.367	0.146
-308.895	486.275	0.077	-0.174
-307.880	104.376	0.062	0.073
-306.866	-200.000	0.004	0.093
-305.851	-147.168	0.018	0.002
-304.837	-86.026	-0.323	0.099
-303.822	182.182	-0.149	-0.218
-302.807	800.000	-0.103	0.378
-301.793	-22.071	0.088	-0.053
-300.778	73.592	-0.147	-0.152
-299.764	567.345	-0.096	-0.230
-298.749	234.162	-0.128	0.208
-297.735	-26.330	-0.210	-0.122
-296.720	401.693	0.109	-0.226
-295.705	-160.400	-0.323	-0.017
-294.691	-68.676	0.177	-0.068
-293.676	108.570	-0.131	-0.155
-292.662	281.564	0.172	0.305
-291.647	608.050	0.145	0.358
-290.632	-65.497	-0.050	-0.020
-289.618	800.000	-0.079	-0.284
-288.603	800.000	0.059	-0.213
-287.589	0.262	0.218	0.154
-286.574	800.000	0.065	0.187
-285.559	298.191	0.025	-0.045
-284.545	-27.832	0.218	0.125
-283.530	8.642	0.033	0.025
-282.516	-39.645	-0.166	-0.086
-281.501	195.337	-0.043	0.064
-280.486	117.747	-0.092	0.112
-279.472	259.004	0.105	0.180
-278.457	-200.000	0.014	0.190
-277.443	-10.781	0.147	-0.096
-276.428	-21.895	-0.222	0.134
-275.413	-153.124	-0.166	-0.012
-274.399	230.923	0.086	-0.140
-273.384	-109.229	-0.311	-0.065
-272.370	-200.000	0.004	0.348
-271.355	-87.204	-0.275	0.082
-270.340	-54.970	-0.356	-0.159
-269.326	-45.062	0.327	0.161
-268.311	-53.322	0.317	0.143
-267.297	47.105	0.365	0.335
-266.282	-200.000	0.021	0.108
-265.267	-61.997	-0.166	0.068
-264.253	127.861	0.241	-0.303
-263.238	60.159	0.230	0.225
-262.224	-66.038	-0.061	-0.024
-261.209	-99.885	-0.260	-0.064
-260.195	102.539	-0.088	0.102
-259.180	-200.000	0.006	0.180
-258.165	90.817	0.054	-0.059
-257.151	-37.891	0.075	0.040
-256.136	-0.108	-0.082	-0.058
-255.122	221.617	-0.082	-0.130
-254.107	149.188	-0.186	0.248
-253.092	-123.046	0.171	0.027
-252.078	175.006	0.146	0.209
-251.063	-136.863	0.294	0.033
-250.049	159.438	0.217	-0.299
-249.034	-200.000	-0.016	0.183
-248.019	3.531	-0.265	-0.190
-247.005	-25.297	-0.186	0.109
-245.990	706.055	-0.154	-0.400
-244.976	11.396	-0.046	0.034
-243.961	800.000	0.106	-0.316
-242.946	662.907	-0.111	-0.282
-241.932	-200.000	-0.009	0.044
-240.917	34.828	-0.161	0.139
-239.903	-36.882	0.180	-0.095
-238.888	124.190	-0.093	0.116
-237.873	-87.320	-0.264	0.079
-236.859	-23.263	0.239	0.142
-235.844	381.270	-0.160	0.325
-234.830	19.866	-0.124	0.099
-233.815	-42.889	0.224	-0.112
-232.800	800.000	0.040	-0.111
-231.786	800.000	-0.042	0.130
-230.771	-62.015	0.375	0.155
-229.757	-200.000	-0.012	0.080
-228.742	27.605	-0.036	-0.030
-227.727	-21.781	-0.094	-0.056
-226.713	-101.409	-0.172	-0.041
-225.698	141.339	0.201	-0.263
-224.684	179.309	0.076	-0.109
-223.669	153.096	0.079	-0.107
-222.655	440.753	-0.199	0.429
-221.640	-134.197	0.072	0.009
-220.625	86.032	-0.057	0.062
-219.611	-105.675	0.084	-0.019
-218.596	532.484	0.062	-0.144
-217.582	800.000	0.074	0.252
-216.567	0.758	-0.285	-0.201
-215.552	-59.846	0.271	0.114
-214.538	-37.856	0.138	-0.072
-213.523	53.523	-0.208	0.197
-212.509	-115.247	0.257	0.048
-211.494	327.026	-0.201	-0.379
-210.479	-56.456	-0.079	-0.035
-209.465	129.025	-0.115	0.145
-208.450	174.000	-0.147	-0.209
-207.436	800.000	0.056	0.219
-206.421	63.784	-0.274	-0.272
-205.406	800.000	0.008	0.029
-204.392	-200.000	-0.022	-0.182
-203.377	-149.906	-0.027	-0.002
-202.363	104.454	-0.069	0.081
-201.348	800.000	0.089	0.265
-200.333	-120.716	0.046	0.008
-199.319	276.193	0.063	0.110
-198.304	67.274	0.132	-0.133
-197.290	-73.128	-0.173	0.063
-196.275	78.112	0.197	0.207
-195.260	-152.387	-0.186	0.013
-194.246	-62.979	0.120	0.049
-193.231	353.461	-0.042	-0.083
-192.217	-118.814	0.260	-0.045
-191.202	-62.788	-0.111	-0.045
-190.187	-73.936	-0.157	-0.056
-189.173	783.391	0.144	0.389
-188.158	800.000	0.021	0.060
-187.144	800.000	-0.023	-0.068
-186.129	-92.609	-0.157	-0.043
-185.114	-50.724	-0.169	-0.078
-184.100	-46.452	-0.044	-0.021
-183.085	129.787	-0.058	-0.073
-182.071	458.351	0.081	-0.177
-181.056	174.155	-0.087	0.124
-180.042	467.262	0.057	0.125
-179.027	-169.373	-0.057	0.002
-178.012	-104.842	-0.511	-0.116
-176.998	44.114	0.100	-0.090
-175.983	-27.902	-0.145	0.082
-174.969	-76.492	-0.063	0.022
-173.954	-168.498	-0.135	0.005
-172.939	-100.076	-0.198	0.048
-171.925	261.642	0.038	-0.065
-170.910	-111.573	-0.153	-0.031
-169.896	-114.192	0.128	0.024
-168.881	800.000	-0.083	0.335
-167.866	-130.230	0.262	-0.035
-166.852	44.924	-0.167	0.152
-165.837	13.789	0.034	-0.026
-164.823	800.000	0.028	-0.096
-163.808	-53.076	0.241	-0.109
-162.793	101.808	-0.185	-0.213
-161.779	-58.751	0.193	-0.082
-160.764	800.000	0.173	0.489
-159.750	-21.875	0.144	-0.086
-158.735	290.264	-0.070	0.125
-157.720	-27.076	-0.113	-0.065
-156.706	68.826	0.068	-0.069
-155.691	-200.000	0.017	-0.131
-154.677	-200.000	0.052	0.436
-153.662	-200.000	-0.007	0.118
-152.647	-36.639	0.166	-0.088
-151.633	-94.593	0.370	-0.099
-150.618	800.000	0.078	0.301
-149.604	68.611	0.054	0.055
-148.589	260.170	-0.190	0.323
-147.574	-25.107	-0.359	0.209
-146.560	-154.805	-0.223	-0.015
-145.545	-102.848	0.287	0.067
-144.531	-3.934	0.141	-0.096
-143.516	495.177	0.139	-0.314
-142.502	-78.118	-0.226	0.076
-141.487	-57.931	0.207	-0.089
-140.472	-77.279	-0.153	0.052
-139.458	-98.341	0.269	0.068
-138.443	51.228	0.205	-0.191
-137.429	-82.418	0.253	0.081
-136.414	-35.118	0.153	-0.082
-135.399	171.102	-0.033	-0.046
-134.385	800.000	0.023	-0.100
-133.370	800.000	-0.103	-0.330
-132.356	-93.229	-0.248	0.068
-131.341	-200.000	0.032	0.185
-130.326	11.916	0.117	0.088
-129.312	418.032	-0.056	0.118
-128.297	236.422	0.179	0.291
-127.283	-75.450	-0.139	-0.049
-126.268	-107.517	-0.204	0.044
-125.253	-200.000	0.022	0.183
-124.239	-59.820	-0.212	-0.089
-123.224	766.041	-0.059	-0.158
-122.210	77.675	-0.239	0.250
-121.195	-100.615	-0.123	-0.030
