DTS Sentinel unit serial number:	SN413079Multiplexer serial number:	ORYXHardware model number:	OX4-SRSoftware version number:	ORYX F/W v4.00 Oryx Data Collector v3.7.2.0data status	okinstallation	princeton_trtdifferential loss correction	single-endedforward channel	channel 4reverse channel	N/Adate	2019/09/15time	00:25:35forward acquisition time	60.00reverse acquisition time	0.00gamma	496.2192k internal	0.2307k external	0.2307temperature offset calibration	1.0046default loss term (dB/km)	0.3790temperature slope calibration	1.0000multiplexer offset coefficient	1.0000multiplexer slope coefficient	1.0000fibre end	0.00T internal ref (°C)	32.12T ext. ref 1 (°C)	4.58T ext. ref 2 (°C)	27.18length (m)	temperature (°C)	Stokes	anti-Stokes-747.200	-14.663	-0.199	-0.130
-746.185	-119.510	-0.307	0.054
-745.171	800.000	-0.015	0.064
-744.156	-200.000	-0.009	0.264
-743.142	511.005	0.057	-0.136
-742.127	173.509	0.097	0.143
-741.112	346.946	-0.079	-0.159
-740.098	306.124	-0.196	-0.370
-739.083	-63.354	-0.152	0.064
-738.069	-200.000	0.111	0.570
-737.054	-200.000	0.011	0.058
-736.039	-14.479	-0.027	-0.018
-735.025	800.000	0.014	0.047
-734.010	-200.000	-0.030	0.155
-732.996	207.275	-0.156	-0.248
-731.981	800.000	-0.086	0.244
-730.966	-82.088	-0.118	-0.039
-729.952	-55.553	-0.177	0.081
-728.937	-200.000	-0.032	-0.212
-727.923	-127.729	-0.184	-0.027
-726.908	-200.000	-0.038	-0.352
-725.894	-200.000	-0.003	-0.202
-724.879	-104.460	0.518	-0.122
-723.864	-200.000	-0.047	-0.274
-722.850	180.159	0.146	-0.217
-721.835	-107.981	0.036	0.008
-720.821	93.195	0.054	-0.062
-719.806	449.042	0.084	0.189
-718.791	-101.199	-0.422	-0.105
-717.777	-17.869	0.103	0.066
-716.762	-52.860	-0.017	0.008
-715.748	-36.614	-0.278	-0.152
-714.733	-61.701	-0.074	0.032
-713.718	-200.000	0.020	0.116
-712.704	7.498	0.160	-0.121
-711.689	-18.243	0.288	-0.183
-710.675	-44.162	0.370	-0.188
-709.660	286.942	0.051	-0.094
-708.645	99.939	-0.295	-0.347
-707.631	365.489	-0.089	-0.181
-706.616	800.000	0.082	-0.235
-705.602	8.947	0.168	-0.129
-704.587	426.359	-0.086	-0.189
-703.572	-104.787	-0.303	-0.071
-702.558	-26.543	-0.314	-0.187
-701.543	-58.966	0.215	-0.094
-700.529	-200.000	-0.012	-0.241
-699.514	-139.023	0.200	0.022
-698.499	-117.547	-0.319	0.059
-697.485	405.525	-0.099	0.211
-696.470	-188.399	0.178	-0.002
-695.456	-128.339	-0.182	-0.026
-694.441	324.540	0.165	0.321
-693.426	-138.480	0.176	0.020
-692.412	-30.436	-0.211	0.122
-691.397	-200.000	0.029	-0.269
-690.383	-65.754	0.193	0.078
-689.368	25.655	-0.233	0.197
-688.354	-94.149	-0.197	-0.055
-687.339	60.994	-0.162	0.163
-686.324	23.306	-0.173	-0.144
-685.310	-61.625	-0.303	0.129
-684.295	-41.081	0.179	0.094
-683.281	99.365	0.103	-0.121
-682.266	-191.411	0.140	0.001
-681.251	-200.000	0.026	-0.201
-680.237	-174.047	0.261	-0.008
-679.222	-127.615	0.287	-0.042
-678.208	-117.679	-0.172	-0.031
-677.193	-18.120	0.163	-0.104
-676.178	212.512	0.140	0.224
-675.164	-200.000	-0.023	-0.144
-674.149	137.980	-0.071	-0.095
-673.135	-30.628	-0.409	-0.235
-672.120	800.000	-0.058	0.192
-671.105	9.658	-0.103	0.079
-670.091	92.802	-0.045	-0.051
-669.076	152.337	0.181	0.250
-668.062	290.538	0.064	0.118
-667.047	-147.273	-0.223	-0.019
-666.032	21.103	-0.085	0.070
-665.018	131.756	-0.258	-0.336
-664.003	597.839	-0.103	-0.259
-662.989	746.844	-0.030	-0.082
-661.974	-8.271	-0.087	-0.059
-660.959	800.000	-0.094	0.265
-659.945	-200.000	0.017	0.135
-658.930	-11.187	0.187	0.125
-657.916	16.575	-0.205	-0.164
-656.901	143.513	-0.064	-0.087
-655.886	-200.000	0.072	-0.386
-654.872	-88.278	0.015	0.005
-653.857	-192.835	-0.269	0.002
-652.843	-141.419	-0.176	0.018
-651.828	190.395	0.114	0.174
-650.814	-200.000	0.008	0.129
-649.799	-200.000	0.015	0.307
-648.784	330.608	0.043	-0.084
-647.770	-200.000	-0.021	0.094
-646.755	426.657	0.057	0.124
-645.741	-33.851	-0.074	0.041
-644.726	66.480	0.067	0.069
-643.711	-23.104	-0.097	0.059
-642.697	-200.000	0.006	-0.158
-641.682	707.620	0.054	-0.144
-640.668	-70.564	-0.330	0.126
-639.653	-75.214	-0.089	-0.032
-638.638	-51.005	-0.101	0.048
-637.624	-122.862	0.101	-0.017
-636.609	256.697	-0.099	-0.172
-635.595	119.795	-0.130	0.163
-634.580	183.901	0.095	0.143
-633.565	246.559	-0.055	0.093
-632.551	200.244	-0.058	-0.090
-631.536	242.513	-0.072	-0.123
-630.522	-94.265	0.247	0.068
-629.507	-97.552	-0.382	0.101
-628.492	170.421	-0.102	0.147
-627.478	201.124	0.202	0.314
-626.463	-102.773	0.198	-0.048
-625.449	626.158	-0.060	-0.153
-624.434	-166.058	-0.116	0.005
-623.419	7.350	-0.313	0.237
-622.405	-149.153	-0.049	0.004
-621.390	-200.000	-0.009	0.306
-620.376	-200.000	-0.032	-0.246
-619.361	-200.000	-0.003	0.040
-618.346	-35.868	-0.274	0.150
-617.332	-49.140	-0.085	0.041
-616.317	24.046	0.209	0.175
-615.303	782.495	0.032	0.089
-614.288	105.744	0.251	-0.301
-613.273	21.839	-0.311	0.257
-612.259	-12.982	0.161	0.106
-611.244	800.000	-0.065	-0.262
-610.230	434.560	0.050	-0.110
-609.215	7.961	-0.109	0.083
-608.201	-200.000	-0.002	0.121
-607.186	71.729	0.139	0.147
-606.171	-105.964	-0.402	0.092
-605.157	-32.487	0.437	-0.246
-604.142	-17.285	-0.177	-0.113
-603.128	58.610	-0.131	0.130
-602.113	800.000	0.020	0.079
-601.098	-67.715	-0.029	0.011
-600.084	-89.605	-0.561	0.167
-599.069	591.072	-0.119	0.298
-598.055	800.000	-0.035	-0.112
-597.040	-88.081	-0.343	-0.104
-596.025	-200.000	-0.015	-0.162
-595.011	-126.233	0.228	-0.034
-593.996	-200.000	0.003	0.145
-592.982	3.041	0.058	-0.042
-591.967	-173.844	0.152	0.005
-590.952	-200.000	0.007	-0.222
-589.938	-200.000	-0.017	0.101
-588.923	-168.461	0.254	-0.010
-587.909	35.469	-0.316	0.280
-586.894	800.000	-0.023	0.073
-585.879	77.406	-0.198	-0.213
-584.865	32.337	-0.162	0.141
-583.850	-13.854	-0.304	-0.199
-582.836	157.205	0.184	-0.257
-581.821	-200.000	0.011	-0.128
-580.806	201.882	-0.173	0.270
-579.792	101.417	-0.250	0.294
-578.777	-148.963	0.132	0.011
-577.763	-156.682	-0.253	0.016
-576.748	-34.093	0.123	0.068
-575.733	145.695	0.044	0.060
-574.719	800.000	0.055	0.216
-573.704	-144.412	-0.144	-0.014
-572.690	-200.000	0.036	-0.237
-571.675	-29.909	-0.204	-0.117
-570.661	94.448	-0.170	0.195
-569.646	800.000	0.076	0.253
-568.631	-200.000	-0.000	-0.012
-567.617	-65.115	0.399	-0.162
-566.602	-6.990	-0.053	0.036
-565.588	-200.000	0.049	-0.246
-564.573	25.639	0.094	-0.079
-563.558	800.000	-0.037	0.136
-562.544	-14.971	-0.135	-0.087
-561.529	212.650	-0.094	-0.150
-560.515	-8.381	-0.185	-0.126
-559.500	57.011	0.168	-0.166
-558.485	-200.000	-0.026	-0.371
-557.471	800.000	-0.115	-0.332
-556.456	561.231	0.090	-0.220
-555.442	-106.110	-0.289	-0.065
-554.427	-200.000	0.023	0.232
-553.412	596.683	-0.062	-0.155
-552.398	-40.097	0.246	-0.129
-551.383	-145.830	-0.300	0.027
-550.369	800.000	-0.025	0.078
-549.354	195.251	0.176	0.270
-548.339	-90.344	0.195	-0.057
-547.325	-200.000	-0.013	-0.146
-546.310	-200.000	0.014	-0.275
-545.296	437.462	0.067	-0.147
-544.281	529.213	0.049	-0.117
-543.266	-78.025	0.210	0.073
-542.252	-99.029	-0.292	-0.075
-541.237	85.015	-0.445	0.492
-540.223	670.268	0.059	-0.155
-539.208	-200.000	0.014	-0.320
-538.193	-161.841	-0.573	0.029
-537.179	-104.271	-0.123	-0.029
-536.164	800.000	-0.057	0.177
-535.150	-200.000	-0.001	0.028
-534.135	493.608	0.067	0.155
-533.121	371.946	-0.219	0.448
-532.106	-200.000	-0.007	0.067
-531.091	-200.000	0.027	-0.135
-530.077	414.546	-0.077	-0.166
-529.062	-155.878	0.320	0.021
-528.048	-200.000	-0.004	-0.047
-527.033	-200.000	-0.198	0.000
-526.018	-129.697	-0.280	0.039
-525.004	-93.342	0.186	0.052
-523.989	7.028	-0.097	0.073
-522.975	-153.238	0.065	0.005
-521.960	-200.000	0.031	0.259
-520.945	-35.552	0.079	0.043
-519.931	24.139	0.112	-0.094
-518.916	-29.584	-0.226	0.130
-517.902	6.434	0.219	0.164
-516.887	-103.996	0.260	-0.061
-515.872	206.026	0.120	0.189
-514.858	48.915	-0.159	-0.150
-513.843	2.999	0.198	-0.145
-512.829	136.489	-0.167	0.220
-511.814	-34.173	0.066	0.037
-510.799	-89.879	0.223	-0.066
-509.785	301.735	0.173	0.322
-508.770	-200.000	0.004	-0.090
-507.756	-15.432	0.277	-0.178
-506.741	121.218	0.206	-0.259
-505.726	548.189	0.079	0.190
-504.712	17.836	-0.167	0.134
-503.697	3.747	0.236	-0.173
-502.683	527.216	0.116	-0.275
-501.668	-70.697	-0.375	0.143
-500.653	20.855	0.149	-0.122
-499.639	108.228	0.207	0.249
-498.624	343.259	0.171	0.337
-497.610	248.620	-0.140	-0.239
-496.595	-139.679	0.329	0.035
-495.581	-200.000	0.023	0.200
-494.566	-59.570	-0.333	0.144
-493.551	798.062	0.153	-0.424
-492.537	800.000	0.101	-0.287
-491.522	-53.563	-0.369	0.170
-490.508	36.890	0.074	-0.066
-489.493	66.650	-0.116	0.118
-488.478	742.710	-0.056	0.152
-487.464	-200.000	0.059	-0.272
-486.449	-200.000	0.006	-0.170
-485.435	61.181	0.043	-0.043
-484.420	-200.000	0.027	-0.322
-483.405	-200.000	0.016	0.131
-482.391	-37.699	-0.227	0.122
-481.376	52.123	-0.124	0.119
-480.362	-47.634	-0.254	-0.124
-479.347	-200.000	-0.018	0.133
-478.332	159.652	0.016	-0.023
-477.318	-2.916	0.248	-0.174
-476.303	-200.000	0.041	0.229
-475.289	6.510	-0.154	-0.115
-474.274	-53.983	0.140	0.064
-473.259	94.934	0.063	0.072
-472.245	-96.591	0.093	0.025
-471.230	-52.720	-0.172	-0.080
-470.216	-57.420	-0.103	0.045
-469.201	-104.122	-0.325	-0.076
-468.186	225.536	-0.128	0.209
-467.172	-117.804	-0.122	-0.022
-466.157	800.000	0.061	-0.176
-465.143	-45.703	-0.156	0.078
-464.128	-200.000	-0.019	0.435
-463.113	-200.000	-0.006	-0.061
-462.099	161.021	0.077	0.108
-461.084	331.070	-0.040	0.078
-460.070	83.983	0.127	-0.140
-459.055	-130.420	-0.196	-0.027
-458.040	526.507	0.123	0.293
-457.026	141.753	-0.051	0.068
-456.011	78.652	0.100	0.107
-454.997	-39.078	-0.161	-0.085
-453.982	-200.000	0.006	0.233
-452.968	592.298	0.099	0.246
-451.953	-75.592	0.186	-0.067
-450.938	800.000	-0.076	-0.317
-449.924	-200.000	-0.048	-0.231
-448.909	326.916	-0.172	-0.332
-447.895	33.429	0.247	-0.216
-446.880	-19.804	0.186	-0.116
-445.865	-5.896	-0.096	-0.066
-444.851	-192.622	-0.133	-0.001
-443.836	-8.561	-0.322	-0.217
-442.822	23.306	0.099	-0.082
-441.807	-200.000	0.059	-0.359
-440.792	51.818	0.181	-0.173
-439.778	156.009	-0.251	0.347
-438.763	-49.398	0.262	0.126
-437.749	138.191	-0.213	0.281
-436.734	-3.736	-0.297	-0.208
-435.719	51.297	-0.211	-0.202
-434.705	-109.430	-0.215	-0.046
-433.690	-41.594	-0.049	-0.025
-432.676	195.931	0.216	0.331
-431.661	-200.000	-0.014	0.187
-430.646	800.000	-0.043	0.121
-429.632	231.324	0.096	-0.157
-428.617	800.000	-0.052	-0.153
-427.603	-104.428	-0.147	-0.034
-426.588	-80.847	-0.296	0.099
-425.573	-86.203	0.159	-0.049
-424.559	130.172	0.105	-0.135
-423.544	-67.009	0.367	-0.145
-422.530	-38.624	0.201	-0.106
-421.515	800.000	-0.027	-0.114
-420.500	-200.000	0.034	-0.216
-419.486	-161.606	0.059	-0.003
-418.471	114.509	-0.110	0.134
-417.457	800.000	-0.021	-0.065
-416.442	118.951	0.175	0.217
-415.428	230.344	-0.105	0.173
-414.413	312.187	0.083	-0.156
-413.398	-122.027	-0.186	-0.031
-412.384	-200.000	0.017	-0.289
-411.369	37.474	0.078	-0.070
-410.355	-5.448	-0.182	0.125
-409.340	-200.000	-0.005	-0.095
-408.325	27.916	-0.103	-0.087
-407.311	227.737	-0.107	0.174
-406.296	-43.361	-0.267	-0.136
-405.282	-61.340	0.337	-0.142
-404.267	643.535	-0.074	-0.189
-403.252	-15.506	0.121	0.078
-402.238	648.638	0.099	-0.254
-401.223	-97.363	-0.299	-0.078
-400.209	-200.000	-0.165	-0.000
-399.194	225.782	-0.155	0.252
-398.179	-200.000	0.034	-0.232
-397.165	92.514	0.158	-0.179
-396.150	96.330	0.315	-0.362
-395.136	295.294	0.185	-0.339
-394.121	-200.000	-0.002	-0.150
-393.106	-200.000	0.010	0.203
-392.092	-96.435	0.298	-0.079
-391.077	-200.000	0.046	-0.287
-390.063	-103.219	0.082	0.019
-389.048	-200.000	0.004	0.105
-388.033	501.356	0.046	0.106
-387.019	-139.460	-0.283	0.030
-386.004	236.346	-0.172	-0.285
-384.990	46.896	0.212	-0.198
-383.975	448.471	0.078	-0.172
-382.960	-125.172	0.340	-0.052
-381.946	201.535	0.163	0.252
-380.931	-159.187	-0.145	-0.008
-379.917	-66.902	0.135	0.054
-378.902	-87.973	0.429	-0.129
-377.888	178.449	-0.263	-0.385
-376.873	87.598	0.190	-0.211
-375.858	-66.018	0.094	0.038
-374.844	79.903	0.085	-0.091
-373.829	-200.000	-0.000	0.398
-372.815	-200.000	-0.400	0.002
-371.800	-83.947	0.306	0.098
-370.785	-200.000	0.065	0.484
-369.771	800.000	0.064	0.237
-368.756	-198.943	0.262	0.001
-367.742	-7.119	0.109	0.074
-366.727	-174.522	0.128	0.004
-365.712	-13.772	0.114	-0.074
-364.698	20.320	0.069	-0.056
-363.683	114.652	-0.081	0.099
-362.669	800.000	-0.120	0.387
-361.654	800.000	0.084	0.277
-360.639	-115.622	-0.055	-0.010
-359.625	-65.259	0.161	-0.065
-358.610	800.000	-0.139	-0.435
-357.596	493.364	-0.088	0.203
-356.581	269.673	0.130	-0.228
-355.566	-90.234	0.202	-0.059
-354.552	-200.000	-0.046	-0.275
-353.537	-200.000	-0.017	0.285
-352.523	312.542	0.078	0.147
-351.508	800.000	-0.049	0.209
-350.493	101.211	0.059	-0.069
-349.479	481.319	-0.077	0.176
-348.464	-53.056	0.260	0.120
-347.450	-43.540	-0.253	0.128
-346.435	800.000	0.062	-0.255
-345.420	-200.000	-0.010	-0.176
-344.406	-200.000	0.073	0.362
-343.391	-63.312	-0.201	-0.083
-342.377	-96.182	-0.098	-0.026
-341.362	305.272	0.122	-0.228
-340.348	102.854	0.144	-0.169
-339.333	44.031	0.031	-0.028
-338.318	-161.888	-0.025	0.001
-337.304	580.832	0.121	0.296
-336.289	78.117	-0.272	0.291
-335.275	-14.723	0.174	0.112
-334.260	-89.867	0.329	0.096
-333.245	-86.084	-0.150	-0.046
-332.231	45.693	0.110	-0.102
-331.216	-200.000	0.080	-0.000
-330.202	286.954	-0.024	0.043
-329.187	-177.701	0.372	0.009
-328.172	220.178	-0.144	0.230
-327.158	707.963	-0.186	0.493
-326.143	-200.000	-0.023	0.252
-325.129	-200.000	-0.005	-0.237
-324.114	-111.902	-0.258	0.052
-323.099	473.982	-0.036	-0.081
-322.085	-39.522	0.145	0.076
-321.070	-200.000	0.001	-0.111
-320.056	-200.000	-0.018	-0.255
-319.041	-147.705	-0.131	-0.011
-318.026	-41.931	-0.174	0.089
-317.012	26.176	-0.196	-0.163
-315.997	7.997	0.042	0.031
-314.983	28.267	-0.224	-0.189
-313.968	583.770	0.074	-0.181
-312.953	4.608	0.487	-0.357
-311.939	324.202	0.096	-0.184
-310.924	-133.055	-0.287	-0.036
-309.910	-52.325	-0.253	0.117
-308.895	-135.032	0.281	0.034
-307.880	-81.608	-0.141	-0.046
-306.866	300.248	-0.071	-0.131
-305.851	595.352	0.060	-0.149
-304.837	34.639	0.094	-0.082
-303.822	-200.000	-0.002	-0.076
-302.807	-101.716	0.172	0.042
-301.793	-198.321	0.214	-0.001
-300.778	194.168	-0.150	-0.227
-299.764	-111.399	0.167	0.034
-298.749	83.668	0.137	-0.149
-297.735	-200.000	0.028	-0.148
-296.720	-200.000	-0.024	-0.334
-295.705	151.431	-0.118	-0.160
-294.691	800.000	-0.093	0.312
-293.676	613.775	0.172	0.431
-292.662	-107.795	0.047	-0.010
-291.647	-200.000	-0.023	0.322
-290.632	238.003	0.099	-0.164
-289.618	8.315	-0.041	0.031
-288.603	-147.627	-0.022	-0.002
-287.589	54.631	0.145	-0.140
-286.574	-58.857	0.174	0.075
-285.559	409.331	-0.035	0.073
-284.545	175.924	0.120	-0.174
-283.530	-112.349	-0.224	-0.045
-282.516	-17.534	-0.234	0.147
-281.501	-99.453	-0.277	0.070
-280.486	-200.000	-0.162	-0.000
-279.472	247.204	0.179	0.302
-278.457	451.153	0.068	-0.151
-277.443	-200.000	0.018	0.305
-276.428	69.302	-0.119	0.122
-275.413	-58.664	-0.030	0.013
-274.399	-200.000	-0.008	0.179
-273.384	-200.000	-0.012	0.072
-272.370	-200.000	-0.022	0.160
-271.355	800.000	0.052	0.202
-270.340	-81.969	-0.175	0.057
-269.326	-200.000	-0.008	-0.302
-268.311	545.747	0.022	-0.053
-267.297	578.663	-0.075	-0.183
-266.282	-200.000	0.022	0.105
-265.267	-35.202	-0.392	-0.213
-264.253	407.992	0.118	0.249
-263.238	800.000	0.067	0.252
-262.224	-200.000	-0.051	0.269
-261.209	189.578	-0.062	-0.092
-260.195	-198.567	-0.202	0.001
-259.180	-35.558	-0.115	-0.063
-258.165	136.573	0.064	0.084
-257.151	166.753	0.123	0.175
-256.136	-200.000	-0.039	-0.181
-255.122	280.419	-0.104	-0.185
-254.107	116.343	0.250	0.306
-253.092	-45.066	0.078	0.039
-252.078	28.181	-0.079	0.067
-251.063	-113.624	-0.170	0.033
-250.049	800.000	-0.022	-0.089
-249.034	800.000	0.084	0.286
-248.019	-0.809	-0.387	0.274
-247.005	-74.767	-0.046	0.016
-245.990	15.312	0.159	0.124
-244.976	76.586	-0.102	0.108
-243.961	-200.000	0.014	-0.422
-242.946	800.000	0.086	0.306
-241.932	-106.802	0.136	-0.030
-240.917	294.929	0.159	-0.291
-239.903	-5.797	-0.160	-0.109
-238.888	107.627	0.090	0.107
-237.873	800.000	-0.019	-0.078
-236.859	-100.901	0.253	-0.062
-235.844	-19.513	0.040	-0.025
-234.830	527.034	0.057	0.135
-233.815	294.417	0.111	0.202
-232.800	-139.357	-0.219	0.023
-231.786	-119.653	0.051	0.009
-230.771	-200.000	-0.015	0.183
-229.757	-40.888	-0.069	0.036
-228.742	-86.986	0.195	0.059
-227.727	382.845	-0.158	-0.323
-226.713	-134.228	-0.135	0.017
-225.698	111.397	0.334	0.401
-224.684	-200.000	-0.031	0.300
-223.669	-22.062	0.095	0.057
-222.655	-51.022	-0.388	-0.182
-221.640	-70.471	0.179	0.068
-220.625	91.814	0.176	-0.197
-219.611	-91.983	-0.320	-0.090
-218.596	11.724	-0.063	0.048
-217.582	-200.000	-0.016	-0.447
-216.567	381.595	-0.102	-0.209
-215.552	-200.000	0.015	0.228
-214.538	85.997	0.101	0.111
-213.523	800.000	0.035	-0.108
-212.509	56.700	0.159	0.154
-211.494	-4.336	-0.271	-0.187
-210.479	-75.569	-0.150	0.053
-209.465	-147.413	-0.152	-0.013
-208.450	-90.107	0.126	-0.037
-207.436	-200.000	-0.020	-0.118
-206.421	721.412	-0.026	-0.069
-205.406	-39.145	-0.245	0.128
-204.392	199.714	0.096	0.146
-203.377	800.000	-0.036	-0.137
-202.363	79.972	0.081	0.087
-201.348	-110.154	0.210	0.044
-200.333	167.594	0.286	-0.404
-199.319	800.000	0.102	0.322
-198.304	-90.268	-0.471	-0.136
-197.290	8.169	0.218	0.163
-196.275	-200.000	-0.035	0.413
-195.260	-69.306	0.407	0.156
-194.246	-200.000	0.045	-0.368
-193.231	-126.906	-0.120	0.018
-192.217	-34.161	0.085	-0.046
-191.202	-111.301	0.218	0.044
-190.187	-156.858	0.226	-0.014
-189.173	589.078	0.083	-0.203
-188.158	344.122	0.015	-0.030
-187.144	-101.389	-0.122	-0.030
-186.129	-121.063	0.177	-0.030
-185.114	-50.841	0.201	0.094
-184.100	228.778	-0.025	-0.040
-183.085	11.938	0.150	0.115
-182.071	-13.371	0.204	0.131
-181.056	11.700	-0.220	0.168
-180.042	-146.546	0.262	0.023
-179.027	151.531	0.102	0.138
-178.012	3.149	0.197	0.142
-176.998	-200.000	-0.027	0.165
-175.983	-71.185	-0.398	-0.149
-174.969	-200.000	0.052	0.250
-173.954	323.196	0.107	0.203
-172.939	12.522	0.165	0.127
-171.925	800.000	-0.035	-0.134
-170.910	190.548	0.139	-0.208
-169.896	-96.977	-0.183	-0.048
-168.881	94.441	0.066	-0.075
-167.866	70.204	0.117	-0.120
-166.852	-161.835	0.169	0.009
-165.837	304.043	0.149	-0.276
-164.823	-37.361	0.122	-0.065
-163.808	-130.686	0.444	-0.059
-162.793	258.504	-0.103	-0.176
-161.779	-200.000	0.029	-0.177
-160.764	29.882	-0.132	-0.112
-159.750	-200.000	-0.002	0.042
-158.735	30.368	-0.166	-0.141
-157.720	-152.764	-0.085	0.006
-156.706	-200.000	0.005	-0.393
-155.691	4.005	0.074	-0.054
-154.677	-125.009	0.153	-0.023
-153.662	800.000	-0.026	0.101
-152.647	-134.496	0.148	-0.018
-151.633	144.289	0.089	0.118
-150.618	-200.000	0.022	0.128
-149.604	304.508	-0.175	-0.322
-148.589	-90.849	0.203	0.058
-147.574	94.466	0.265	0.300
-146.560	-99.716	0.332	0.083
-145.545	-200.000	0.004	0.025
-144.531	468.759	0.053	-0.119
-143.516	-200.000	-0.054	-0.318
-142.502	67.298	0.037	0.038
-141.487	214.456	0.120	0.190
-140.472	-7.532	-0.042	-0.028
-139.458	-54.353	0.144	0.065
-138.443	107.203	-0.197	-0.232
-137.429	41.536	0.091	-0.082
-136.414	-200.000	0.029	-0.132
-135.399	-58.415	-0.315	-0.136
-134.385	800.000	-0.077	0.247
-133.370	-61.650	-0.283	-0.118
-132.356	-155.736	-0.167	0.011
-131.341	-71.583	-0.236	0.088
-130.326	-200.000	0.043	0.191
-129.312	-149.267	-0.220	0.017
-128.297	330.118	-0.104	-0.198
-127.283	161.117	0.123	0.171
-126.268	-168.557	-0.301	0.011
-125.253	-58.417	-0.075	0.032
-124.239	-200.000	-0.008	0.090
-123.224	-24.278	0.238	0.141
-122.210	-76.498	0.114	-0.040
