DTS Sentinel unit serial number:	SN413079Multiplexer serial number:	ORYXHardware model number:	OX4-SRSoftware version number:	ORYX F/W v4.00 Oryx Data Collector v3.7.2.0data status	okinstallation	princeton_trtdifferential loss correction	single-endedforward channel	channel 4reverse channel	N/Adate	2019/09/13time	03:57:35forward acquisition time	60.00reverse acquisition time	0.00gamma	496.2192k internal	0.2321k external	0.2321temperature offset calibration	1.0195default loss term (dB/km)	0.3790temperature slope calibration	1.0000multiplexer offset coefficient	1.0000multiplexer slope coefficient	1.0000fibre end	0.00T internal ref (°C)	27.05T ext. ref 1 (°C)	4.07T ext. ref 2 (°C)	21.30length (m)	temperature (°C)	Stokes	anti-Stokes-747.200	-79.009	-0.346	0.119
-746.185	800.000	-0.043	0.141
-745.171	-54.008	0.114	0.053
-744.156	-1.656	-0.225	0.160
-743.142	681.656	0.029	0.077
-742.127	182.189	-0.105	0.157
-741.112	-200.000	-0.004	0.270
-740.098	800.000	-0.051	0.154
-739.083	119.195	0.057	-0.072
-738.069	-54.439	-0.320	0.147
-737.054	-53.273	0.173	0.080
-736.039	-37.401	-0.226	0.122
-735.025	800.000	-0.057	0.164
-734.010	-183.394	-0.648	-0.011
-732.996	-116.750	-0.274	-0.051
-731.981	-134.689	0.199	0.024
-730.966	-162.674	0.537	-0.027
-729.952	48.463	0.061	0.058
-728.937	-24.198	0.071	-0.043
-727.923	12.428	-0.134	-0.104
-726.908	56.696	-0.213	0.210
-725.894	-158.757	-0.289	-0.017
-724.879	-134.536	-0.235	0.029
-723.864	-45.872	0.137	-0.068
-722.850	13.241	-0.178	-0.139
-721.835	238.151	0.143	0.240
-720.821	189.739	-0.233	-0.354
-719.806	-75.635	0.282	0.101
-718.791	800.000	0.013	-0.041
-717.777	-125.060	-0.299	0.046
-716.762	220.908	0.130	0.210
-715.748	-81.546	-0.153	-0.051
-714.733	-77.205	0.282	0.099
-713.718	800.000	-0.029	0.114
-712.704	-82.646	-0.074	0.024
-711.689	-14.724	-0.082	0.053
-710.675	-16.706	-0.140	0.089
-709.660	-200.000	-0.058	-0.259
-708.645	-61.452	0.185	0.078
-707.631	-55.851	-0.331	0.149
-706.616	140.547	-0.068	-0.091
-705.602	-50.392	0.110	-0.052
-704.587	800.000	-0.056	-0.239
-703.572	-200.000	0.000	-0.046
-702.558	-200.000	-0.004	-0.132
-701.543	800.000	0.022	0.079
-700.529	-141.958	-0.162	-0.016
-699.514	363.978	-0.017	-0.034
-698.499	363.448	-0.177	-0.359
-697.485	800.000	-0.022	0.076
-696.470	-138.372	-0.232	0.026
-695.456	-200.000	0.030	0.188
-694.441	-44.589	0.312	0.157
-693.426	76.757	0.273	-0.292
-692.412	333.066	0.026	-0.050
-691.397	11.257	0.093	-0.072
-690.383	-139.356	0.151	0.016
-689.368	101.796	0.056	-0.066
-688.354	-115.127	-0.054	0.010
-687.339	-172.374	0.318	-0.010
-686.324	60.867	-0.208	-0.208
-685.310	-200.000	-0.011	-0.090
-684.295	-146.361	0.238	-0.021
-683.281	-89.221	-0.117	0.035
-682.266	-129.716	0.162	0.023
-681.251	23.277	0.233	0.193
-680.237	500.517	0.098	0.227
-679.222	-200.000	0.022	0.148
-678.208	800.000	-0.109	-0.397
-677.193	-200.000	0.055	0.309
-676.178	188.475	0.174	0.262
-675.164	-185.254	0.182	0.003
-674.149	8.045	0.022	-0.017
-673.135	-12.523	0.183	-0.120
-672.120	-200.000	-0.017	-0.085
-671.105	-200.000	-0.004	0.173
-670.091	-85.650	-0.202	0.063
-669.076	-94.640	-0.300	0.082
-668.062	800.000	0.042	0.173
-667.047	-17.504	-0.177	-0.112
-666.032	-200.000	-0.012	0.163
-665.018	-124.004	0.236	-0.037
-664.003	-171.753	-0.048	-0.002
-662.989	-2.895	-0.106	-0.075
-661.974	-0.751	-0.164	-0.117
-660.959	202.692	-0.162	-0.252
-659.945	-119.220	-0.392	0.069
-658.930	800.000	-0.016	-0.051
-657.916	-166.922	-0.116	0.005
-656.901	800.000	0.008	-0.025
-655.886	-146.451	-0.285	-0.025
-654.872	51.181	-0.093	0.089
-653.857	31.378	0.241	0.209
-652.843	11.018	-0.193	-0.148
-651.828	-200.000	-0.062	0.348
-650.814	-103.536	-0.185	-0.044
-649.799	-138.994	-0.334	0.037
-648.784	-49.567	0.152	0.073
-647.770	-200.000	-0.032	-0.174
-646.755	748.938	-0.065	0.177
-645.741	800.000	0.072	-0.260
-644.726	-70.139	0.170	0.065
-643.711	-109.201	-0.243	0.052
-642.697	-60.594	-0.056	0.024
-641.682	-148.220	0.397	-0.033
-640.668	-136.412	0.233	-0.027
-639.653	110.852	-0.170	-0.206
-638.638	89.430	-0.154	-0.173
-637.624	63.441	-0.068	-0.068
-636.609	176.904	-0.026	-0.038
-635.595	-75.117	-0.208	-0.075
-634.580	9.448	0.230	0.176
-633.565	-135.097	0.251	-0.030
-632.551	-118.788	0.280	0.050
-631.536	87.829	-0.137	-0.153
-630.522	-200.000	-0.018	0.294
-629.507	-83.761	-0.216	-0.069
-628.492	218.343	-0.105	-0.168
-627.478	-63.783	-0.077	-0.032
-626.463	33.602	-0.141	0.124
-625.449	-138.726	0.307	-0.034
-624.434	-114.691	-0.208	0.040
-623.419	-98.953	0.022	0.006
-622.405	-200.000	-0.013	0.329
-621.390	-16.259	-0.301	0.192
-620.376	-82.079	0.523	-0.172
-619.361	100.600	-0.247	-0.288
-618.346	316.852	-0.113	-0.215
-617.332	423.280	-0.125	-0.271
-616.317	-32.202	0.200	-0.112
-615.303	117.233	0.202	0.249
-614.288	18.132	0.065	0.052
-613.273	-200.000	0.006	-0.241
-612.259	-116.277	-0.154	0.029
-611.244	361.245	-0.103	0.208
-610.230	114.615	0.241	-0.295
-609.215	800.000	0.130	0.437
-608.201	-200.000	0.007	0.132
-607.186	18.639	-0.094	-0.076
-606.171	69.747	0.102	0.105
-605.157	-134.486	-0.148	-0.018
-604.142	102.014	-0.106	-0.124
-603.128	201.204	0.097	-0.150
-602.113	-34.251	-0.260	-0.143
-601.098	800.000	0.094	0.281
-600.084	-46.535	0.187	-0.092
-599.069	118.682	0.233	-0.289
-598.055	-200.000	-0.005	-0.083
-597.040	34.707	-0.108	0.094
-596.025	467.812	-0.159	-0.358
-595.011	-114.243	-0.129	-0.025
-593.996	370.631	-0.105	-0.214
-592.982	27.612	-0.234	0.198
-591.967	-160.876	-0.123	0.007
-590.952	282.306	-0.173	-0.311
-589.938	-146.029	-0.187	0.017
-588.923	-146.514	0.331	0.029
-587.909	-71.877	-0.170	-0.063
-586.894	-157.414	-0.193	-0.012
-585.879	-95.009	-0.233	-0.063
-584.865	-123.831	-0.125	-0.020
-583.850	-16.155	-0.035	0.022
-582.836	-200.000	0.046	-0.204
-581.821	-98.770	0.210	0.054
-580.806	326.821	-0.069	0.134
-579.792	-200.000	0.045	-0.377
-578.777	33.267	-0.153	0.134
-577.763	-200.000	0.002	0.073
-576.748	191.222	-0.095	-0.144
-575.733	726.732	-0.104	-0.277
-574.719	6.419	0.020	0.015
-573.704	194.060	-0.042	0.064
-572.690	-111.562	-0.274	-0.056
-571.675	-140.191	0.335	-0.035
-570.661	234.267	-0.255	0.421
-569.646	-200.000	-0.009	0.278
-568.631	33.463	-0.247	-0.216
-567.617	-88.168	-0.095	-0.028
-566.602	-12.201	0.283	-0.186
-565.588	-99.888	0.221	0.055
-564.573	-30.773	-0.180	0.102
-563.558	62.825	-0.223	0.224
-562.544	49.193	-0.139	0.131
-561.529	127.417	-0.138	0.175
-560.515	210.502	-0.199	-0.314
-559.500	-200.000	0.033	-0.150
-558.485	255.002	0.133	-0.229
-557.471	-200.000	0.018	-0.093
-556.456	395.747	-0.026	0.055
-555.442	47.780	0.078	0.073
-554.427	-106.050	0.021	-0.005
-553.412	9.083	0.157	-0.119
-552.398	-200.000	0.052	-0.318
-551.383	-133.844	0.239	0.030
-550.369	185.834	0.115	-0.171
-549.354	-66.595	-0.194	-0.077
-548.339	-28.004	-0.058	-0.034
-547.325	-169.407	0.186	0.007
-546.310	81.433	-0.134	-0.146
-545.296	20.191	-0.287	-0.232
-544.281	-200.000	0.019	0.176
-543.266	39.972	0.059	-0.053
-542.252	-103.504	0.198	-0.047
-541.237	36.177	0.025	-0.022
-540.223	90.638	0.166	-0.186
-539.208	800.000	-0.091	-0.251
-538.193	51.746	0.058	-0.055
-537.179	-80.977	-0.234	0.078
-536.164	716.267	0.027	0.072
-535.150	-99.902	0.084	-0.021
-534.135	-86.969	-0.125	-0.038
-533.121	-5.085	0.198	-0.136
-532.106	100.100	-0.076	-0.089
-531.091	800.000	0.069	0.250
-530.077	-101.619	0.224	0.054
-529.062	-48.482	0.243	-0.117
-528.048	-127.065	-0.162	-0.024
-527.033	-39.450	0.006	0.003
-526.018	-77.447	-0.158	0.055
-525.004	-200.000	-0.015	-0.145
-523.989	72.018	0.162	-0.169
-522.975	-200.000	-0.007	0.056
-521.960	-200.000	0.017	0.228
-520.945	-200.000	-0.010	0.117
-519.931	-115.028	0.291	0.055
-518.916	-200.000	-0.011	-0.351
-517.902	-163.145	-0.211	-0.010
-516.887	45.801	0.337	-0.312
-515.872	187.112	-0.141	-0.211
-514.858	398.729	-0.091	0.190
-513.843	96.943	0.107	-0.123
-512.829	52.165	0.023	0.022
-511.814	-67.671	-0.348	-0.137
-510.799	131.521	-0.264	0.340
-509.785	568.111	0.089	-0.217
-508.770	537.923	-0.194	-0.461
-507.756	-200.000	0.069	-0.330
-506.741	153.183	-0.081	-0.111
-505.726	553.077	0.034	-0.081
-504.712	-132.611	0.494	0.063
-503.697	29.708	0.254	-0.217
-502.683	-200.000	-0.032	0.166
-501.668	-93.864	0.144	-0.040
-500.653	236.844	0.051	0.084
-499.639	800.000	-0.062	0.211
-498.624	-187.446	0.123	0.002
-497.610	213.701	-0.067	-0.106
-496.595	117.404	-0.101	-0.125
-495.581	21.312	-0.162	-0.132
-494.566	283.721	-0.025	-0.045
-493.551	-48.225	0.280	-0.135
-492.537	-49.229	-0.426	-0.204
-491.522	44.310	0.082	-0.075
-490.508	-200.000	-0.013	-0.158
-489.493	-200.000	0.020	-0.104
-488.478	-25.543	-0.295	-0.175
-487.464	-200.000	-0.007	-0.406
-486.449	-38.335	0.138	-0.073
-485.435	-47.480	-0.216	0.105
-484.420	-128.519	0.134	0.019
-483.405	-60.378	-0.126	-0.054
-482.391	-21.784	0.269	-0.163
-481.376	-49.417	0.406	0.194
-480.362	-137.822	-0.053	-0.006
-479.347	-28.954	-0.229	0.132
-478.332	-164.300	-0.177	-0.008
-477.318	97.438	0.136	0.156
-476.303	-49.222	-0.395	0.189
-475.289	51.102	-0.195	-0.185
-474.274	140.746	0.019	0.025
-473.259	-11.095	0.137	-0.090
-472.245	-200.000	0.003	-0.030
-471.230	188.686	0.036	-0.055
-470.216	195.305	0.146	-0.222
-469.201	800.000	-0.050	-0.201
-468.186	43.027	-0.138	0.126
-467.172	-140.420	0.084	-0.009
-466.157	590.704	-0.039	0.097
-465.143	52.758	0.327	0.312
-464.128	-79.547	-0.341	0.115
-463.113	-136.502	-0.396	-0.046
-462.099	-67.525	0.255	-0.100
-461.084	60.014	0.292	-0.288
-460.070	-43.024	0.190	0.096
-459.055	-200.000	-0.010	0.194
-458.040	154.943	-0.184	-0.253
-457.026	800.000	-0.070	0.222
-456.011	800.000	0.148	0.446
-454.997	-174.249	0.006	0.000
-453.982	385.945	0.139	0.286
-452.968	429.922	0.045	0.096
-451.953	318.778	-0.065	-0.123
-450.938	-177.779	0.171	-0.004
-449.924	-46.034	-0.050	-0.025
-448.909	-200.000	-0.028	-0.325
-447.895	-200.000	-0.064	-0.398
-446.880	-81.588	0.182	-0.060
-445.865	63.384	-0.098	0.098
-444.851	800.000	-0.159	0.467
-443.836	-73.524	-0.512	-0.187
-442.822	110.996	-0.101	0.121
-441.807	-88.555	-0.311	-0.092
-440.792	101.201	-0.072	0.084
-439.778	-100.866	0.082	0.020
-438.763	-57.662	-0.117	0.051
-437.749	800.000	0.104	-0.339
-436.734	-41.704	-0.290	0.149
-435.719	531.629	-0.050	0.118
-434.705	-200.000	-0.052	0.240
-433.690	-36.695	-0.229	-0.123
-432.676	453.348	-0.081	0.179
-431.661	350.156	0.092	0.181
-430.646	549.741	0.143	-0.343
-429.632	-200.000	0.031	0.307
-428.617	-88.332	-0.111	0.033
-427.603	193.075	-0.150	-0.226
-426.588	51.716	0.068	-0.064
-425.573	-104.545	-0.056	-0.013
-424.559	-28.033	-0.077	0.044
-423.544	-23.761	0.390	-0.233
-422.530	-200.000	0.001	0.269
-421.515	-80.193	-0.163	-0.054
-420.500	-67.343	-0.205	-0.080
-419.486	-79.055	-0.047	0.016
-418.471	-200.000	-0.002	-0.185
-417.457	568.612	0.077	0.187
-416.442	-200.000	0.071	0.332
-415.428	800.000	0.119	0.386
-414.413	-29.748	0.192	0.109
-413.398	800.000	0.071	-0.274
-412.384	24.314	-0.131	-0.108
-411.369	98.673	0.169	0.194
-410.355	-76.914	-0.310	0.108
-409.340	38.193	0.128	-0.113
-408.325	201.778	-0.155	0.238
-407.311	-125.838	0.275	-0.041
-406.296	-96.296	0.245	0.065
-405.282	-200.000	-0.012	0.126
-404.267	800.000	-0.075	-0.302
-403.252	-125.019	0.403	-0.062
-402.238	-146.981	0.346	-0.030
-401.223	-200.000	-0.002	0.136
-400.209	-200.000	-0.034	-0.291
-399.194	24.356	-0.153	-0.126
-398.179	-87.040	-0.174	-0.053
-397.165	-200.000	-0.031	0.227
-396.150	132.400	0.089	-0.115
-395.136	-200.000	-0.033	0.168
-394.121	690.663	-0.084	0.220
-393.106	-72.014	-0.302	-0.112
-392.092	-114.173	0.139	0.027
-391.077	-200.000	-0.032	-0.208
-390.063	255.671	0.197	0.337
-389.048	77.793	-0.208	0.221
-388.033	-79.422	-0.218	-0.074
-387.019	121.846	0.159	0.198
-386.004	10.230	-0.151	-0.115
-384.990	-88.643	-0.131	-0.039
-383.975	104.938	0.090	0.106
-382.960	-200.000	0.043	0.217
-381.946	-143.324	-0.102	-0.010
-380.931	-200.000	-0.011	-0.232
-379.917	259.938	0.142	0.244
-378.902	-55.190	0.253	0.113
-377.888	-200.000	0.006	-0.090
-376.873	800.000	0.034	-0.116
-375.858	-84.519	-0.018	-0.006
-374.844	-200.000	-0.001	0.212
-373.829	564.882	0.098	-0.236
-372.815	-31.466	0.128	0.072
-371.800	-13.203	-0.083	0.054
-370.785	106.986	-0.081	0.096
-369.771	800.000	0.045	-0.177
-368.756	5.182	-0.196	0.144
-367.742	-43.378	-0.027	-0.013
-366.727	219.396	-0.063	0.100
-365.712	52.975	-0.092	0.087
-364.698	6.548	-0.125	0.092
-363.683	81.224	0.138	0.148
-362.669	160.479	-0.260	0.361
-361.654	198.348	-0.073	0.110
-360.639	-79.050	0.330	-0.112
-359.625	9.294	0.219	0.165
-358.610	-200.000	0.022	-0.125
-357.596	7.488	0.203	0.151
-356.581	-40.585	-0.264	-0.137
-355.566	800.000	0.005	0.019
-354.552	-12.424	0.436	-0.284
-353.537	800.000	0.056	0.202
-352.523	-146.927	0.105	-0.009
-351.508	65.652	0.242	0.244
-350.493	-42.216	0.081	-0.041
-349.479	-92.018	0.230	-0.065
-348.464	425.373	-0.022	-0.047
-347.450	-65.425	0.292	0.117
-346.435	-71.225	-0.040	0.015
-345.420	152.424	-0.023	0.031
-344.406	-200.000	-0.014	-0.198
-343.391	-200.000	-0.049	0.325
-342.377	105.965	0.038	0.045
-341.362	-130.791	0.137	0.018
-340.348	147.487	0.100	-0.134
-339.333	-200.000	-0.007	-0.145
-338.318	-153.684	-0.203	-0.014
-337.304	800.000	0.091	0.311
-336.289	-146.107	0.062	-0.005
-335.275	800.000	-0.060	0.217
-334.260	19.277	0.339	0.271
-333.245	26.438	-0.266	-0.221
-332.231	19.395	0.165	0.132
-331.216	18.697	-0.065	0.051
-330.202	-200.000	-0.041	0.352
-329.187	117.095	-0.167	-0.204
-328.172	-24.043	-0.167	-0.099
-327.158	-34.200	0.352	-0.193
-326.143	66.559	-0.054	-0.055
-325.129	-200.000	-0.013	0.183
-324.114	800.000	-0.045	0.165
-323.099	-200.000	0.036	0.198
-322.085	-127.516	0.025	0.004
-321.070	71.413	-0.143	0.148
-320.056	35.818	-0.222	0.194
-319.041	-1.328	-0.068	-0.048
-318.026	-181.897	-0.515	-0.010
-317.012	151.388	-0.168	-0.227
-315.997	134.115	-0.048	0.061
-314.983	-113.929	-0.137	-0.027
-313.968	41.917	-0.190	-0.171
-312.953	800.000	-0.033	0.127
-311.939	-11.540	0.097	-0.063
-310.924	-35.068	-0.233	-0.126
-309.910	-99.828	0.427	0.106
-308.895	490.415	0.065	0.148
-307.880	-71.563	0.517	0.192
-306.866	-200.000	0.010	0.347
-305.851	12.897	-0.124	0.096
-304.837	4.255	-0.428	-0.312
-303.822	294.637	-0.084	-0.152
-302.807	-200.000	-0.000	-0.070
-301.793	-127.004	-0.275	-0.040
-300.778	-73.959	0.233	0.084
-299.764	341.387	-0.110	0.213
-298.749	800.000	-0.050	0.174
-297.735	-183.632	-0.158	0.003
-296.720	-200.000	0.009	0.082
-295.705	50.980	0.239	-0.225
-294.691	81.636	-0.210	-0.225
-293.676	71.907	-0.072	-0.075
-292.662	-200.000	0.000	0.556
-291.647	160.589	0.223	0.310
-290.632	29.525	-0.146	0.123
-289.618	-36.963	-0.166	0.089
-288.603	-84.222	-0.406	-0.128
-287.589	-200.000	-0.021	0.254
-286.574	152.504	-0.200	0.271
-285.559	202.154	-0.148	0.227
-284.545	237.536	0.194	-0.319
-283.530	-97.959	0.233	-0.060
-282.516	-156.910	0.246	0.015
-281.501	112.565	0.261	-0.313
-280.486	167.742	-0.074	0.104
-279.472	31.883	0.119	-0.102
-278.457	456.174	0.045	0.100
-277.443	-53.610	0.333	0.151
-276.428	-157.051	0.222	-0.013
-275.413	432.529	-0.124	0.267
-274.399	-52.767	-0.042	0.019
-273.384	33.700	-0.178	0.154
-272.370	800.000	-0.042	-0.137
-271.355	67.141	-0.069	0.070
-270.340	800.000	0.018	0.066
-269.326	-87.921	0.261	-0.078
-268.311	-200.000	-0.033	-0.194
-267.297	-104.805	0.191	0.043
-266.282	-49.938	-0.078	-0.037
-265.267	39.322	-0.192	0.170
-264.253	614.092	-0.057	-0.142
-263.238	381.108	0.105	-0.213
-262.224	50.394	0.133	-0.125
-261.209	-200.000	-0.054	-0.502
-260.195	41.552	0.079	-0.071
-259.180	356.271	0.229	-0.452
-258.165	108.517	0.048	-0.057
-257.151	386.555	-0.119	0.243
-256.136	263.828	-0.203	0.350
-255.122	338.968	0.118	0.228
-254.107	-138.951	-0.029	0.003
-253.092	-200.000	-0.019	-0.226
-252.078	50.902	-0.104	-0.098
-251.063	-135.006	-0.190	0.023
-250.049	-163.993	-0.247	-0.011
-249.034	-97.955	0.227	0.058
-248.019	-70.397	0.169	0.063
-247.005	-200.000	-0.040	-0.176
-245.990	44.966	0.057	0.052
-244.976	-126.224	-0.192	0.028
-243.961	613.504	0.046	-0.114
-242.946	263.951	0.125	-0.216
-241.932	230.931	-0.174	0.283
-240.917	-200.000	-0.053	-0.338
-239.903	47.507	0.216	0.199
-238.888	-31.633	0.055	0.031
-237.873	549.538	0.080	0.190
-236.859	548.390	0.081	-0.193
-235.844	800.000	-0.011	0.040
-234.830	121.977	-0.143	0.177
-233.815	16.355	0.323	0.253
-232.800	150.566	-0.045	-0.061
-231.786	104.974	0.349	-0.408
-230.771	-200.000	0.070	0.309
-229.757	-155.761	0.185	0.012
-228.742	77.835	-0.336	0.355
-227.727	387.600	0.143	0.294
-226.713	-200.000	-0.023	0.106
-225.698	285.415	0.050	-0.090
-224.684	281.368	0.066	0.117
-223.669	-200.000	-0.045	-0.380
-222.655	-200.000	-0.032	-0.288
-221.640	-72.767	0.154	0.056
-220.625	345.107	0.063	-0.123
-219.611	800.000	0.062	0.225
-218.596	264.986	-0.223	0.384
-217.582	-64.173	0.178	0.072
-216.567	-32.260	0.253	0.140
-215.552	-200.000	-0.023	0.117
-214.538	-200.000	-0.026	0.155
-213.523	561.207	-0.042	-0.099
-212.509	-200.000	-0.063	0.296
-211.494	188.114	0.276	0.408
-210.479	405.650	0.085	0.178
-209.465	-117.655	0.312	0.056
-208.450	186.065	-0.089	-0.131
-207.436	-51.213	0.176	0.082
-206.421	-200.000	0.009	-0.102
-205.406	38.066	-0.096	0.084
-204.392	210.541	-0.281	0.437
-203.377	-53.981	0.314	-0.142
-202.363	-200.000	0.047	0.237
-201.348	-93.513	0.218	0.060
-200.333	-61.045	-0.120	0.050
-199.319	-155.402	0.171	-0.011
-198.304	-200.000	0.014	-0.204
-197.290	20.738	0.239	-0.192
-196.275	-84.396	0.163	-0.051
-195.260	479.444	-0.114	0.255
-194.246	-200.000	-0.022	0.152
-193.231	-128.719	0.273	0.038
-192.217	-200.000	-0.014	0.306
-191.202	70.369	0.219	-0.224
-190.187	112.642	0.095	0.114
-189.173	350.556	-0.141	-0.275
-188.158	303.990	0.211	-0.387
-187.144	727.247	-0.058	0.152
-186.129	681.270	0.154	-0.398
-185.114	310.043	-0.145	-0.268
-184.100	581.042	0.059	0.144
-183.085	58.464	-0.220	0.214
-182.071	18.658	-0.052	0.041
-181.056	29.378	-0.133	-0.112
-180.042	-49.802	-0.163	0.077
-179.027	165.972	0.060	0.083
-178.012	55.327	0.147	0.140
-176.998	208.467	0.078	-0.120
-175.983	-28.031	-0.244	-0.139
-174.969	-192.572	0.263	0.002
-173.954	-200.000	-0.039	0.285
-172.939	61.223	-0.025	0.024
-171.925	-22.803	-0.169	0.101
-170.910	-89.597	0.004	-0.001
-169.896	-75.233	-0.201	-0.071
-168.881	5.840	0.161	-0.118
-167.866	14.014	-0.170	-0.130
-166.852	123.894	-0.123	-0.153
-165.837	77.539	0.077	0.081
-164.823	-52.881	-0.219	-0.100
-163.808	-148.554	-0.231	-0.019
-162.793	800.000	-0.017	-0.062
-161.779	65.626	0.133	-0.133
-160.764	520.220	0.077	0.178
-159.750	119.224	0.080	-0.098
-158.735	133.062	-0.152	0.194
-157.720	-160.944	0.305	-0.016
-156.706	430.607	0.144	-0.307
-155.691	56.353	-0.099	0.095
-154.677	-158.286	-0.423	0.024
-153.662	105.014	-0.179	-0.209
-152.647	-200.000	0.021	0.244
-151.633	432.714	0.159	-0.342
-150.618	147.746	-0.130	-0.173
-149.604	-169.240	-0.138	-0.005
-148.589	-67.734	0.108	0.042
-147.574	-40.513	-0.310	-0.159
-146.560	-198.351	-0.110	0.001
-145.545	-200.000	0.003	0.079
-144.531	-110.345	-0.187	-0.038
-143.516	-42.959	-0.199	-0.100
-142.502	369.659	-0.046	0.092
-141.487	237.096	0.188	-0.308
-140.472	-200.000	0.004	0.181
-139.458	-200.000	0.028	0.255
-138.443	67.638	0.114	0.114
-137.429	109.488	-0.085	-0.101
-136.414	-68.494	0.258	0.099
-135.399	165.677	-0.246	-0.344
-134.385	-49.270	-0.393	-0.185
-133.370	38.610	-0.200	-0.176
-132.356	800.000	0.026	-0.083
-131.341	-56.791	0.313	-0.137
-130.326	-200.000	-0.041	-0.307
-129.312	485.157	0.067	-0.151
-128.297	-200.000	-0.003	0.086
-127.283	471.088	-0.077	0.172
-126.268	0.128	-0.093	0.065
-125.253	-14.856	-0.243	0.154
-124.239	135.452	-0.129	-0.166
-123.224	-200.000	0.005	-0.054
-122.210	-121.222	-0.054	0.009
