DTS Sentinel unit serial number:	SN413079Multiplexer serial number:	ORYXHardware model number:	OX4-SRSoftware version number:	ORYX F/W v4.00 Oryx Data Collector v3.7.2.0data status	okinstallation	princeton_trtdifferential loss correction	single-endedforward channel	channel 4reverse channel	N/Adate	2019/09/14time	10:37:35forward acquisition time	60.00reverse acquisition time	0.00gamma	496.2192k internal	0.2296k external	0.2296temperature offset calibration	1.0144default loss term (dB/km)	0.3790temperature slope calibration	1.0000multiplexer offset coefficient	1.0000multiplexer slope coefficient	1.0000fibre end	0.00T internal ref (°C)	35.12T ext. ref 1 (°C)	4.26T ext. ref 2 (°C)	33.08length (m)	temperature (°C)	Stokes	anti-Stokes-747.200	151.964	0.161	-0.225
-746.185	90.421	-0.307	-0.351
-745.171	147.462	-0.064	-0.088
-744.156	126.211	0.034	-0.044
-743.142	11.486	0.119	0.093
-742.127	31.611	-0.332	0.291
-741.112	-200.000	-0.046	0.362
-740.098	-200.000	0.045	0.217
-739.083	-47.054	-0.158	0.079
-738.069	531.805	0.040	-0.096
-737.054	340.759	-0.199	-0.397
-736.039	-73.619	-0.111	0.041
-735.025	-29.830	0.380	0.221
-734.010	96.508	-0.087	0.102
-732.996	-200.000	0.014	-0.220
-731.981	-200.000	0.103	-0.513
-730.966	-69.217	-0.061	-0.024
-729.952	800.000	0.090	-0.261
-728.937	-27.612	-0.232	-0.137
-727.923	-98.212	-0.273	-0.072
-726.908	-165.996	0.228	-0.010
-725.894	-200.000	0.034	0.199
-724.879	-121.307	0.141	0.024
-723.864	-148.381	-0.068	0.006
-722.850	-200.000	-0.060	0.373
-721.835	236.916	-0.098	0.166
-720.821	-72.888	0.353	0.132
-719.806	98.248	-0.260	0.306
-718.791	-41.809	0.232	0.121
-717.777	800.000	0.086	0.355
-716.762	9.931	-0.048	0.037
-715.748	373.624	-0.117	0.243
-714.733	-66.761	0.286	0.115
-713.718	112.196	-0.031	-0.038
-712.704	800.000	0.047	0.185
-711.689	-35.663	0.092	-0.051
-710.675	-34.891	-0.322	0.180
-709.660	-61.966	-0.266	0.114
-708.645	-200.000	0.051	-0.400
-707.631	-21.925	-0.124	0.077
-706.616	-63.908	0.283	0.118
-705.602	-104.418	-0.354	0.084
-704.587	-200.000	-0.005	-0.244
-703.572	-200.000	-0.074	-0.351
-702.558	90.839	0.102	0.117
-701.543	571.443	-0.073	-0.181
-700.529	-128.445	0.274	-0.040
-699.514	147.536	0.146	0.200
-698.499	-0.546	0.236	0.171
-697.485	-29.806	-0.097	-0.056
-696.470	-200.000	-0.040	-0.179
-695.456	192.997	-0.114	-0.176
-694.441	-3.193	-0.051	0.036
-693.426	212.668	0.189	0.304
-692.412	47.999	0.143	-0.137
-691.397	-200.000	-0.093	-0.498
-690.383	-21.718	-0.264	0.164
-689.368	-19.473	-0.196	-0.124
-688.354	-146.329	0.185	0.016
-687.339	171.707	0.231	-0.338
-686.324	-14.004	0.098	0.065
-685.310	800.000	-0.006	0.027
-684.295	-200.000	-0.016	-0.212
-683.281	800.000	-0.023	0.074
-682.266	11.563	0.172	-0.134
-681.251	-113.417	-0.254	0.051
-680.237	128.665	0.087	0.113
-679.222	126.100	-0.127	0.163
-678.208	251.814	-0.084	-0.145
-677.193	800.000	-0.084	0.263
-676.178	206.693	0.135	0.215
-675.164	-79.761	-0.063	0.022
-674.149	-82.754	-0.117	0.039
-673.135	-14.333	0.133	-0.088
-672.120	-40.711	0.079	0.042
-671.105	-200.000	0.005	-0.223
-670.091	-67.220	0.126	-0.051
-669.076	-200.000	0.004	-0.124
-668.062	14.158	0.054	0.043
-667.047	-42.683	-0.264	0.137
-666.032	800.000	-0.128	0.404
-665.018	117.313	0.081	0.102
-664.003	283.687	-0.056	0.102
-662.989	-49.909	0.141	-0.068
-661.974	-200.000	-0.101	-0.704
-660.959	800.000	-0.048	-0.142
-659.945	140.106	-0.163	-0.219
-658.930	62.942	0.137	-0.139
-657.916	-37.910	0.153	-0.083
-656.901	383.133	0.126	0.264
-655.886	-200.000	0.005	-0.059
-654.872	-194.930	0.181	0.001
-653.857	-106.171	-0.080	-0.018
-652.843	363.480	-0.049	0.100
-651.828	-200.000	-0.006	-0.381
-650.814	209.114	0.054	0.086
-649.799	261.054	0.142	0.250
-648.784	-57.711	0.335	0.149
-647.770	-55.508	0.391	0.178
-646.755	35.605	-0.075	-0.067
-645.741	290.027	0.063	-0.116
-644.726	800.000	0.118	-0.401
-643.711	189.448	0.042	0.064
-642.697	22.981	0.199	0.166
-641.682	-117.039	0.182	0.034
-640.668	-155.878	-0.130	0.008
-639.653	-93.013	-0.454	0.129
-638.638	289.323	0.095	-0.175
-637.624	-76.969	0.273	-0.097
-636.609	188.388	-0.190	-0.289
-635.595	-90.520	-0.331	0.097
-634.580	-53.275	0.165	0.077
-633.565	118.649	0.083	0.104
-632.551	-4.675	0.042	0.030
-631.536	-54.869	-0.313	-0.144
-630.522	556.342	0.047	0.115
-629.507	343.005	-0.175	-0.348
-628.492	59.168	-0.166	-0.166
-627.478	-200.000	0.020	-0.154
-626.463	-200.000	0.029	-0.173
-625.449	276.929	-0.023	-0.042
-624.434	702.618	-0.057	0.154
-623.419	30.326	0.200	-0.174
-622.405	-200.000	-0.047	-0.314
-621.390	-22.426	0.384	-0.236
-620.376	387.597	-0.087	0.183
-619.361	-29.615	-0.148	0.086
-618.346	-67.987	-0.117	-0.046
-617.332	-200.000	-0.011	-0.143
-616.317	218.828	-0.088	0.144
-615.303	-82.860	0.018	-0.006
-614.288	181.316	-0.148	-0.222
-613.273	557.202	-0.104	-0.254
-612.259	-60.270	-0.169	-0.073
-611.244	117.120	-0.124	-0.155
-610.230	-148.823	-0.107	-0.009
-609.215	414.330	0.186	0.402
-608.201	50.118	0.230	0.221
-607.186	508.453	-0.077	-0.181
-606.171	-159.957	0.199	-0.011
-605.157	42.041	0.153	0.141
-604.142	20.673	0.111	0.091
-603.128	-200.000	0.020	0.129
-602.113	-200.000	0.020	-0.326
-601.098	13.087	-0.037	0.029
-600.084	800.000	0.057	0.207
-599.069	24.075	0.227	-0.190
-598.055	-106.335	0.404	0.092
-597.040	-85.404	-0.156	-0.049
-596.025	-200.000	0.006	-0.247
-595.011	-119.525	-0.465	-0.082
-593.996	-200.000	-0.005	-0.085
-592.982	-129.175	0.292	-0.041
-591.967	46.015	-0.217	0.204
-590.952	-140.156	0.245	-0.026
-589.938	275.018	-0.131	-0.236
-588.923	309.911	-0.128	0.243
-587.909	-200.000	0.009	-0.088
-586.894	-111.910	0.256	-0.052
-585.879	-135.394	-0.229	-0.028
-584.865	-84.174	-0.196	0.063
-583.850	-11.466	-0.139	0.093
-582.836	624.094	0.063	-0.161
-581.821	800.000	-0.051	0.219
-580.806	-69.040	-0.181	0.071
-579.792	-47.935	0.066	-0.033
-578.777	-200.000	-0.017	0.237
-577.763	-200.000	0.024	-0.281
-576.748	-27.521	-0.298	-0.176
-575.733	-15.595	0.112	-0.073
-574.719	-200.000	0.008	-0.068
-573.704	-200.000	0.018	0.164
-572.690	245.161	-0.050	-0.085
-571.675	-59.661	0.245	0.107
-570.661	212.137	0.114	0.182
-569.646	-79.541	0.440	0.151
-568.631	-107.776	0.421	-0.093
-567.617	-84.558	0.238	0.076
-566.602	-200.000	0.005	-0.086
-565.588	62.104	0.122	-0.124
-564.573	-83.088	-0.115	-0.038
-563.558	-95.620	0.178	0.048
-562.544	4.876	0.259	0.193
-561.529	-152.194	-0.118	0.009
-560.515	-200.000	-0.029	0.244
-559.500	-54.087	0.105	0.048
-558.485	137.495	0.213	0.282
-557.471	45.949	0.106	0.100
-556.456	687.011	0.090	-0.239
-555.442	564.789	-0.116	-0.286
-554.427	418.823	0.125	-0.272
-553.412	133.147	0.075	-0.099
-552.398	518.019	0.146	-0.346
-551.383	408.487	0.061	-0.131
-550.369	22.807	-0.147	-0.122
-549.354	-122.172	0.165	-0.027
-548.339	71.312	0.142	0.149
-547.325	296.521	0.134	-0.248
-546.310	-72.135	-0.069	0.026
-545.296	24.863	0.082	0.069
-544.281	-200.000	0.016	-0.209
-543.266	-75.917	0.238	-0.085
-542.252	207.193	-0.076	-0.120
-541.237	-28.855	-0.241	0.140
-540.223	287.757	0.067	0.123
-539.208	48.803	-0.168	-0.160
-538.193	264.793	-0.252	0.446
-537.179	275.225	0.029	-0.052
-536.164	491.872	0.026	-0.061
-535.150	-200.000	0.014	-0.091
-534.135	-69.879	-0.207	0.080
-533.121	800.000	0.065	0.224
-532.106	800.000	0.056	0.209
-531.091	-29.550	-0.263	-0.152
-530.077	-68.734	0.222	0.087
-529.062	-174.626	0.033	-0.001
-528.048	244.776	0.096	0.164
-527.033	-52.174	-0.428	0.201
-526.018	59.693	0.412	-0.412
-525.004	800.000	0.056	0.209
-523.989	-200.000	0.052	0.288
-522.975	-18.398	0.139	-0.088
-521.960	-155.973	0.157	0.010
-520.945	330.183	-0.144	0.280
-519.931	-200.000	0.043	-0.293
-518.916	-132.590	0.085	0.011
-517.902	-25.641	-0.104	-0.062
-516.887	-49.995	0.226	0.108
-515.872	-200.000	0.075	0.370
-514.858	124.936	-0.178	0.227
-513.843	-61.134	0.325	-0.139
-512.829	-38.302	0.201	0.108
-511.814	135.497	0.167	0.220
-510.799	-110.288	0.241	0.051
-509.785	-113.396	-0.333	-0.066
-508.770	-200.000	0.000	0.277
-507.756	152.639	-0.194	0.268
-506.741	800.000	0.061	0.258
-505.726	-136.483	0.376	-0.044
-504.712	-102.899	-0.194	0.047
-503.697	95.725	0.059	0.068
-502.683	-153.601	0.387	-0.027
-501.668	336.590	-0.110	-0.215
-500.653	1.518	-0.198	-0.144
-499.639	57.427	0.094	0.093
-498.624	257.787	0.073	-0.128
-497.610	178.554	-0.055	-0.081
-496.595	-200.000	0.022	-0.155
-495.581	712.921	0.100	-0.267
-494.566	-27.960	0.136	-0.080
-493.551	148.887	0.094	-0.128
-492.537	-83.934	-0.147	-0.047
-491.522	9.236	-0.105	-0.080
-490.508	-200.000	-0.030	0.243
-489.493	-71.112	0.110	-0.042
-488.478	-4.964	0.090	0.062
-487.464	54.184	0.285	0.277
-486.449	-144.229	0.219	0.021
-485.435	-108.283	0.159	0.035
-484.420	-20.874	0.343	0.212
-483.405	93.766	0.034	0.039
-482.391	497.528	-0.085	-0.197
-481.376	50.319	0.082	-0.079
-480.362	-13.135	0.114	-0.075
-479.347	96.537	-0.168	-0.195
-478.332	-200.000	0.160	0.000
-477.318	38.764	-0.137	0.124
-476.303	1.361	0.375	-0.272
-475.289	-200.000	-0.006	-0.058
-474.274	-124.331	-0.111	-0.018
-473.259	11.145	-0.095	-0.074
-472.245	125.092	-0.067	-0.086
-471.230	-128.826	-0.130	0.019
-470.216	-64.722	0.256	0.105
-469.201	-200.000	-0.052	0.312
-468.186	193.447	0.058	-0.089
-467.172	-131.407	0.194	0.026
-466.157	-94.486	0.126	0.035
-465.143	800.000	0.030	-0.115
-464.128	-97.497	0.446	0.117
-463.113	800.000	-0.081	0.335
-462.099	143.956	-0.109	0.147
-461.084	-200.000	0.089	-0.401
-460.070	800.000	-0.069	0.305
-459.055	-200.000	0.028	-0.394
-458.040	-26.755	0.469	-0.277
-457.026	800.000	-0.056	0.167
-456.011	-200.000	0.021	-0.100
-454.997	-55.745	-0.063	0.028
-453.982	-101.646	-0.404	0.099
-452.968	-120.608	0.268	-0.046
-451.953	800.000	0.021	0.073
-450.938	-50.888	-0.208	0.099
-449.924	-25.273	-0.168	0.101
-448.909	-200.000	0.005	0.038
-447.895	377.094	0.232	0.478
-446.880	-69.608	0.155	-0.060
-445.865	-57.205	0.235	-0.104
-444.851	-200.000	-0.064	-0.322
-443.836	-200.000	0.025	-0.189
-442.822	-157.421	-0.463	-0.028
-441.807	-74.993	-0.161	-0.058
-440.792	800.000	-0.083	0.335
-439.778	-68.917	-0.033	0.013
-438.763	-57.269	-0.166	0.074
-437.749	143.654	0.025	0.033
-436.734	451.996	0.094	0.209
-435.719	162.650	-0.084	-0.119
-434.705	564.637	0.121	-0.295
-433.690	199.140	0.097	-0.150
-432.676	-200.000	-0.006	0.302
-431.661	800.000	-0.068	-0.263
-430.646	-163.302	-0.393	0.019
-429.632	800.000	-0.054	-0.179
-428.617	-47.736	-0.307	-0.150
-427.603	800.000	0.098	-0.309
-426.588	-104.246	0.033	-0.008
-425.573	800.000	0.088	0.302
-424.559	36.882	0.253	0.226
-423.544	-57.174	-0.112	-0.050
-422.530	210.235	-0.127	0.201
-421.515	196.623	0.145	-0.224
-420.500	-36.361	-0.179	-0.097
-419.486	35.606	0.175	-0.155
-418.471	369.395	0.092	0.188
-417.457	92.853	-0.285	0.325
-416.442	-121.089	0.417	-0.070
-415.428	-200.000	0.015	-0.086
-414.413	-185.856	-0.514	0.008
-413.398	779.096	0.115	-0.316
-412.384	800.000	0.017	-0.051
-411.369	118.088	-0.249	0.310
-410.355	-45.094	0.059	-0.030
-409.340	480.841	-0.052	0.119
-408.325	-99.749	0.343	0.087
-407.311	-200.000	-0.031	0.216
-406.296	-200.000	-0.014	0.250
-405.282	-128.004	-0.287	-0.042
-404.267	-200.000	0.073	-0.359
-403.252	85.710	0.007	0.007
-402.238	-83.940	0.188	-0.060
-401.223	-68.557	-0.094	0.037
-400.209	124.319	-0.263	-0.334
-399.194	800.000	0.124	0.497
-398.179	311.655	0.164	0.309
-397.165	-166.293	0.169	-0.007
-396.150	641.233	-0.032	-0.083
-395.136	29.947	-0.346	-0.297
-394.121	98.286	0.232	-0.269
-393.106	-200.000	-0.069	-0.330
-392.092	-200.000	-0.002	-0.157
-391.077	30.381	-0.175	0.151
-390.063	-96.449	0.139	-0.037
-389.048	-123.733	0.345	-0.055
-388.033	-24.969	-0.272	0.163
-387.019	-153.874	0.098	0.007
-386.004	172.968	-0.245	0.356
-384.990	-154.647	0.182	-0.012
-383.975	-46.954	-0.193	-0.095
-382.960	358.892	0.024	0.049
-381.946	-200.000	0.005	-0.042
-380.931	-41.591	0.118	-0.061
-379.917	-105.620	-0.284	-0.065
-378.902	19.330	-0.254	-0.206
-377.888	-29.929	-0.299	0.171
-376.873	-200.000	0.017	0.142
-375.858	-43.921	-0.171	0.086
-374.844	-66.350	0.110	-0.044
-373.829	-200.000	0.008	0.464
-372.815	104.798	-0.126	0.149
-371.800	32.979	0.069	0.060
-370.785	-65.764	-0.224	0.090
-369.771	-200.000	-0.041	-0.285
-368.756	-200.000	-0.005	0.095
-367.742	-97.069	-0.321	0.085
-366.727	-200.000	-0.016	-0.184
-365.712	284.679	0.104	-0.189
-364.698	133.010	0.091	-0.118
-363.683	-72.104	-0.077	0.029
-362.669	45.991	-0.157	0.146
-361.654	712.110	0.154	0.410
-360.639	-200.000	-0.010	-0.184
-359.625	95.890	0.215	0.247
-358.610	-114.765	-0.058	0.011
-357.596	262.345	0.029	-0.051
-356.581	86.427	0.027	0.030
-355.566	800.000	0.049	-0.144
-354.552	-165.508	-0.316	-0.014
-353.537	102.266	0.143	-0.168
-352.523	-75.873	0.243	0.087
-351.508	660.079	0.043	0.111
-350.493	-52.305	0.174	0.081
-349.479	-75.012	-0.348	0.125
-348.464	-26.757	-0.311	-0.183
-347.450	3.993	0.299	-0.220
-346.435	-39.764	-0.115	0.060
-345.420	413.506	0.077	-0.165
-344.406	-17.529	-0.258	-0.163
-343.391	3.049	-0.426	0.311
-342.377	-200.000	-0.007	-0.088
-341.362	96.411	-0.023	0.027
-340.348	-86.456	0.076	-0.023
-339.333	22.937	0.065	0.054
-338.318	-118.935	-0.137	-0.024
-337.304	352.739	0.074	0.148
-336.289	212.998	-0.092	-0.146
-335.275	-76.746	-0.140	-0.049
-334.260	-91.388	0.429	0.123
-333.245	-37.158	0.165	-0.089
-332.231	-77.561	-0.261	0.091
-331.216	213.565	-0.072	0.114
-330.202	-200.000	-0.033	-0.166
-329.187	-117.843	0.421	0.076
-328.172	-104.388	-0.167	-0.039
-327.158	-93.119	-0.274	0.077
-326.143	-155.086	-0.269	0.018
-325.129	-54.275	0.145	0.066
-324.114	-200.000	-0.005	-0.083
-323.099	-200.000	-0.004	-0.064
-322.085	-37.846	-0.240	-0.128
-321.070	-80.802	0.158	-0.053
-320.056	-200.000	-0.111	0.000
-319.041	-3.299	0.090	-0.063
-318.026	-166.169	0.176	0.008
-317.012	-53.766	-0.161	0.074
-315.997	-200.000	-0.047	0.419
-314.983	484.013	0.134	0.307
-313.968	-51.060	0.044	-0.021
-312.953	83.612	0.240	-0.263
-311.939	-200.000	0.011	-0.133
-310.924	147.217	-0.240	-0.324
-309.910	435.346	-0.147	-0.321
-308.895	-157.362	-0.462	-0.028
-307.880	121.721	0.235	-0.294
-306.866	-200.000	-0.016	-0.074
-305.851	-81.898	0.119	-0.039
-304.837	29.236	-0.272	-0.232
-303.822	-200.000	-0.011	0.182
-302.807	370.559	-0.254	0.516
-301.793	-200.000	-0.009	-0.066
-300.778	-57.179	-0.201	-0.089
-299.764	-200.000	-0.016	0.095
-298.749	-69.036	0.283	0.110
-297.735	800.000	-0.106	0.340
-296.720	-200.000	-0.019	-0.179
-295.705	60.828	-0.158	-0.157
-294.691	582.836	-0.078	0.193
-293.676	-16.480	-0.058	0.037
-292.662	-109.155	0.211	-0.045
-291.647	27.332	-0.116	-0.098
-290.632	800.000	0.043	0.171
-289.618	299.983	-0.081	0.150
-288.603	-115.547	0.145	0.027
-287.589	-58.916	0.242	-0.105
-286.574	85.327	0.096	0.105
-285.559	-200.000	0.122	-0.637
-284.545	-102.691	-0.444	-0.106
-283.530	-168.587	0.278	0.011
-282.516	-114.884	-0.469	-0.090
-281.501	287.236	0.037	-0.066
-280.486	80.676	-0.129	0.139
-279.472	-156.509	0.272	-0.017
-278.457	-65.143	0.284	0.115
-277.443	800.000	0.006	-0.022
-276.428	21.037	0.148	0.121
-275.413	-110.015	0.301	0.063
-274.399	-200.000	0.022	-0.183
-273.384	-46.808	-0.080	0.039
-272.370	124.909	0.085	0.107
-271.355	394.389	-0.060	-0.124
-270.340	-170.997	0.100	0.003
-269.326	146.226	0.214	0.288
-268.311	-9.310	-0.130	0.087
-267.297	-103.668	-0.215	-0.051
-266.282	-62.276	-0.164	0.069
-265.267	422.550	-0.051	0.111
-264.253	315.544	-0.052	-0.097
-263.238	-200.000	-0.010	0.219
-262.224	-99.273	0.358	-0.091
-261.209	31.284	0.144	0.124
-260.195	800.000	-0.111	-0.311
-259.180	-44.876	0.103	0.051
-258.165	323.623	0.041	0.078
-257.151	147.752	-0.236	0.318
-256.136	87.744	0.049	0.054
-255.122	13.930	-0.121	-0.094
-254.107	-15.944	0.154	0.098
-253.092	139.010	0.053	0.070
-252.078	67.023	-0.251	-0.256
-251.063	-134.042	-0.174	0.022
-250.049	-200.000	-0.013	0.314
-249.034	274.773	-0.175	-0.311
-248.019	-52.954	-0.115	-0.053
-247.005	200.225	0.100	-0.154
-245.990	-87.536	-0.054	0.016
-244.976	-200.000	-0.027	0.271
-243.961	153.666	0.115	0.158
-242.946	-200.000	0.016	0.072
-241.932	-96.597	-0.203	-0.054
-240.917	-200.000	0.006	-0.034
-239.903	-158.579	0.365	0.021
-238.888	45.085	0.220	-0.203
-237.873	532.887	0.029	-0.070
-236.859	-200.000	-0.008	0.154
-235.844	800.000	0.058	-0.247
-234.830	-97.611	-0.205	0.053
-233.815	-200.000	-0.031	-0.247
-232.800	72.675	-0.249	0.260
-231.786	800.000	-0.019	0.063
-230.771	-200.000	0.008	0.203
-229.757	-114.704	-0.142	0.027
-228.742	23.491	-0.133	-0.109
-227.727	-200.000	-0.010	-0.185
-226.713	-9.494	0.031	-0.020
-225.698	80.731	-0.291	-0.314
-224.684	119.437	-0.160	-0.198
-223.669	-200.000	-0.055	0.283
-222.655	-64.818	0.223	-0.090
-221.640	-30.091	0.278	-0.158
-220.625	-97.841	-0.422	-0.109
-219.611	-20.995	0.224	-0.137
-218.596	-105.535	-0.045	-0.010
-217.582	-200.000	-0.016	-0.439
-216.567	-8.141	0.055	0.037
-215.552	800.000	0.118	0.493
-214.538	63.557	-0.114	0.115
-213.523	-72.331	0.178	-0.066
-212.509	-53.117	0.415	-0.191
-211.494	-157.954	0.297	0.018
-210.479	800.000	0.046	0.136
-209.465	-95.706	-0.189	0.050
-208.450	520.464	0.053	-0.124
-207.436	-87.922	0.342	-0.103
-206.421	-131.467	-0.040	-0.005
-205.406	44.725	-0.179	-0.165
-204.392	-147.247	-0.184	0.016
-203.377	-41.756	-0.355	0.182
-202.363	800.000	-0.043	-0.135
-201.348	-126.148	-0.215	-0.032
-200.333	0.204	-0.316	0.225
-199.319	64.316	-0.120	0.121
-198.304	800.000	-0.022	-0.095
-197.290	-11.109	-0.028	-0.019
-196.275	236.451	-0.148	-0.245
-195.260	800.000	0.069	0.193
-194.246	76.457	-0.107	-0.114
-193.231	-44.144	0.277	0.139
-192.217	632.344	0.088	0.223
-191.202	-200.000	-0.237	-0.001
-190.187	-200.000	0.005	0.197
-189.173	293.056	-0.147	0.269
-188.158	-12.570	-0.140	0.091
-187.144	-114.793	-0.480	0.092
-186.129	-107.785	-0.066	0.014
-185.114	-193.659	0.315	0.003
-184.100	83.052	0.227	0.247
-183.085	-69.277	0.368	-0.141
-182.071	-71.752	-0.041	0.015
-181.056	800.000	-0.152	-0.647
-180.042	-113.750	0.144	0.028
-179.027	-27.337	0.115	-0.067
-178.012	142.930	-0.216	0.286
-176.998	-27.301	-0.298	0.173
-175.983	-200.000	0.018	-0.189
-174.969	-200.000	-0.024	-0.108
-173.954	-200.000	-0.039	0.301
-172.939	127.178	0.219	0.278
-171.925	38.132	0.116	0.103
-170.910	4.041	-0.223	-0.163
-169.896	8.007	-0.183	0.137
-168.881	-152.150	-0.154	0.011
-167.866	-96.775	-0.192	0.050
-166.852	-200.000	-0.041	0.191
-165.837	317.282	0.042	0.080
-164.823	-138.973	-0.389	0.042
-163.808	-183.293	0.039	0.001
-162.793	-31.162	-0.228	-0.128
-161.779	-146.911	-0.388	-0.033
-160.764	-200.000	-0.006	-0.197
-159.750	-200.000	-0.041	0.199
-158.735	108.729	0.368	-0.438
-157.720	155.257	-0.183	-0.251
-156.706	-132.803	0.151	0.019
-155.691	25.165	-0.243	-0.202
-154.677	-2.565	0.102	-0.071
-153.662	148.627	-0.009	0.012
-152.647	299.505	0.191	0.350
-151.633	41.999	-0.135	0.122
-150.618	-18.444	0.132	-0.082
-149.604	154.229	0.147	-0.201
-148.589	197.892	-0.113	0.172
-147.574	40.378	-0.169	0.151
-146.560	-143.391	0.367	0.035
-145.545	-9.629	0.092	0.061
-144.531	128.553	-0.144	-0.183
-143.516	-109.144	-0.369	0.078
-142.502	49.987	-0.044	-0.042
-141.487	-125.025	0.270	-0.041
-140.472	-183.639	-0.088	0.001
-139.458	80.128	0.085	-0.091
-138.443	-41.234	-0.074	-0.038
-137.429	-63.420	-0.247	-0.101
-136.414	-22.584	0.224	0.135
-135.399	70.968	-0.165	0.171
-134.385	-132.058	0.196	0.025
-133.370	-200.000	0.009	0.271
-132.356	105.176	-0.137	0.161
-131.341	-200.000	-0.038	0.168
-130.326	20.673	-0.163	-0.131
-129.312	-113.098	0.091	0.018
-128.297	-150.536	0.410	0.031
-127.283	-200.000	-0.000	-0.008
-126.268	622.289	-0.092	-0.231
-125.253	-50.947	0.079	-0.037
-124.239	800.000	-0.057	0.213
-123.224	-77.711	0.351	0.121
-122.210	800.000	-0.056	-0.188
-121.195	-200.000	0.034	0.155
