DTS Sentinel unit serial number:	SN413079Multiplexer serial number:	ORYXHardware model number:	OX4-SRSoftware version number:	ORYX F/W v4.00 Oryx Data Collector v3.7.2.0data status	okinstallation	princeton_trtdifferential loss correction	single-endedforward channel	channel 4reverse channel	N/Adate	2019/09/13time	10:01:35forward acquisition time	60.00reverse acquisition time	0.00gamma	496.2192k internal	0.2310k external	0.2310temperature offset calibration	1.0189default loss term (dB/km)	0.3790temperature slope calibration	1.0000multiplexer offset coefficient	1.0000multiplexer slope coefficient	1.0000fibre end	0.00T internal ref (°C)	30.27T ext. ref 1 (°C)	4.50T ext. ref 2 (°C)	27.73length (m)	temperature (°C)	Stokes	anti-Stokes-747.200	-91.850	-0.103	0.030
-746.185	-45.234	-0.078	-0.039
-745.171	-200.000	-0.001	-0.057
-744.156	-68.253	-0.171	-0.068
-743.142	-200.000	0.005	-0.021
-742.127	18.788	-0.343	0.279
-741.112	51.867	0.260	0.251
-740.098	-200.000	-0.001	0.204
-739.083	-173.187	0.054	0.002
-738.069	-69.815	0.318	0.123
-737.054	-95.928	0.119	-0.032
-736.039	-41.641	0.117	-0.061
-735.025	5.004	0.436	-0.326
-734.010	-200.000	-0.008	0.274
-732.996	-33.207	-0.076	0.043
-731.981	19.823	-0.346	0.283
-730.966	-15.421	0.330	0.214
-729.952	-172.378	-0.093	0.003
-728.937	-30.846	-0.066	-0.038
-727.923	-200.000	0.027	-0.616
-726.908	-200.000	0.005	-0.149
-725.894	80.138	-0.218	0.238
-724.879	31.279	-0.182	-0.158
-723.864	289.150	0.097	-0.179
-722.850	71.127	-0.145	0.152
-721.835	-200.000	-0.033	-0.229
-720.821	79.660	0.193	-0.210
-719.806	-34.373	0.119	-0.066
-718.791	-41.559	-0.126	-0.066
-717.777	-62.806	0.189	0.080
-716.762	224.173	0.180	-0.294
-715.748	-90.472	0.140	0.041
-714.733	195.424	-0.223	-0.344
-713.718	700.684	-0.081	-0.216
-712.704	337.094	-0.114	-0.224
-711.689	-200.000	-0.037	0.173
-710.675	-53.749	-0.122	-0.057
-709.660	-43.231	-0.236	-0.121
-708.645	800.000	-0.083	-0.264
-707.631	18.801	-0.090	-0.073
-706.616	82.843	-0.219	-0.241
-705.602	-89.167	-0.212	0.064
-704.587	75.397	0.196	0.210
-703.572	-119.388	0.071	-0.012
-702.558	-69.346	0.288	-0.112
-701.543	-138.717	0.177	0.020
-700.529	800.000	-0.074	-0.216
-699.514	-200.000	0.013	-0.060
-698.499	-3.159	-0.178	-0.126
-697.485	800.000	-0.101	-0.365
-696.470	-120.731	0.280	0.048
-695.456	-200.000	-0.013	0.132
-694.441	-103.645	0.290	0.069
-693.426	-200.000	0.005	0.208
-692.412	-128.540	-0.074	0.011
-691.397	-62.069	-0.122	-0.052
-690.383	98.228	0.208	-0.243
-689.368	139.099	0.268	-0.357
-688.354	157.018	-0.154	-0.215
-687.339	5.884	0.081	0.061
-686.324	10.002	0.302	0.232
-685.310	-75.311	0.079	-0.029
-684.295	145.595	0.118	-0.160
-683.281	-120.821	-0.064	-0.011
-682.266	47.222	0.093	0.087
-681.251	-200.000	-0.029	-0.135
-680.237	611.996	-0.161	-0.409
-679.222	-189.290	0.264	0.003
-678.208	-19.975	-0.099	0.062
-677.193	-124.920	-0.230	0.036
-676.178	-23.497	0.071	0.043
-675.164	321.213	0.122	-0.234
-674.149	351.919	0.147	-0.295
-673.135	-88.951	-0.195	0.059
-672.120	-69.266	-0.127	-0.050
-671.105	800.000	0.057	0.174
-670.091	-25.554	-0.179	-0.107
-669.076	-200.000	0.022	-0.125
-668.062	-7.962	0.169	-0.115
-667.047	13.820	-0.234	-0.184
-666.032	-200.000	-0.002	-0.067
-665.018	-200.000	-0.018	0.100
-664.003	-21.950	0.034	0.021
-662.989	-21.981	-0.066	-0.040
-661.974	-74.795	0.153	0.056
-660.959	800.000	0.090	0.259
-659.945	-13.388	-0.336	0.221
-658.930	28.311	-0.044	0.037
-657.916	-153.376	0.501	-0.035
-656.901	-102.579	0.595	0.144
-655.886	-138.258	0.049	-0.005
-654.872	-200.000	0.037	-0.264
-653.857	31.252	-0.388	-0.337
-652.843	-160.008	-0.048	-0.003
-651.828	64.250	0.056	-0.057
-650.814	-79.576	0.104	0.036
-649.799	-132.193	-0.108	0.014
-648.784	-187.192	-0.153	0.002
-647.770	-200.000	-0.023	0.197
-646.755	51.795	-0.184	-0.177
-645.741	7.278	-0.135	0.102
-644.726	-21.074	-0.076	0.047
-643.711	-76.589	0.119	-0.042
-642.697	-67.345	0.137	-0.054
-641.682	0.957	0.173	0.125
-640.668	800.000	0.053	-0.230
-639.653	-104.819	-0.038	0.009
-638.638	-110.098	0.156	-0.033
-637.624	580.143	-0.048	-0.119
-636.609	431.767	0.078	-0.172
-635.595	12.331	0.252	0.196
-634.580	539.065	0.053	-0.128
-633.565	-20.369	0.065	-0.040
-632.551	-23.069	-0.215	-0.131
-631.536	-200.000	0.102	-0.542
-630.522	-200.000	0.031	-0.179
-629.507	-105.741	0.096	0.022
-628.492	-153.563	0.281	0.020
-627.478	-200.000	-0.005	-0.139
-626.463	-200.000	0.035	-0.171
-625.449	38.748	-0.099	0.089
-624.434	333.267	0.106	-0.208
-623.419	-200.000	-0.026	0.154
-622.405	-93.803	0.146	-0.041
-621.390	800.000	0.066	-0.223
-620.376	46.065	-0.143	-0.134
-619.361	-200.000	-0.068	0.309
-618.346	396.120	-0.103	-0.217
-617.332	210.402	0.076	-0.121
-616.317	46.759	-0.149	0.140
-615.303	500.453	-0.049	0.113
-614.288	-159.797	-0.480	-0.027
-613.273	2.890	-0.209	-0.154
-612.259	-200.000	0.029	-0.194
-611.244	-59.962	-0.215	-0.093
-610.230	134.182	-0.307	-0.402
-609.215	735.321	-0.070	-0.188
-608.201	640.045	0.089	0.229
-607.186	85.461	-0.053	0.059
-606.171	-67.334	0.245	0.097
-605.157	-109.756	-0.341	-0.072
-604.142	13.260	-0.173	-0.136
-603.128	48.925	-0.152	0.144
-602.113	111.490	-0.107	0.130
-601.098	-200.000	-0.012	0.186
-600.084	-52.522	0.152	0.071
-599.069	49.454	-0.047	-0.045
-598.055	274.250	-0.186	0.332
-597.040	78.709	-0.125	-0.135
-596.025	508.143	-0.155	-0.363
-595.011	508.554	-0.043	-0.102
-593.996	78.906	0.107	0.115
-592.982	-200.000	0.038	-0.214
-591.967	-99.642	-0.223	-0.057
-590.952	-200.000	-0.010	0.321
-589.938	169.476	0.114	-0.164
-588.923	214.837	0.181	0.290
-587.909	-19.728	0.077	-0.048
-586.894	-101.347	0.067	-0.017
-585.879	147.680	0.188	-0.256
-584.865	-200.000	0.026	0.116
-583.850	-74.404	0.223	0.081
-582.836	-114.935	-0.139	-0.027
-581.821	-200.000	0.000	-0.182
-580.806	546.009	-0.114	0.276
-579.792	-95.997	-0.324	-0.087
-578.777	93.077	0.037	0.042
-577.763	-52.012	0.116	-0.054
-576.748	-200.000	-0.032	-0.236
-575.733	-61.232	0.222	0.094
-574.719	-77.630	0.235	0.082
-573.704	529.007	0.061	0.144
-572.690	-69.269	-0.343	0.133
-571.675	353.600	-0.147	0.294
-570.661	-20.649	-0.352	-0.218
-569.646	-199.715	0.195	-0.001
-568.631	4.924	0.231	0.172
-567.617	-136.642	-0.238	0.028
-566.602	141.621	-0.158	-0.211
-565.588	-17.050	-0.061	-0.039
-564.573	-1.603	-0.163	-0.116
-563.558	-200.000	-0.011	-0.214
-562.544	-144.016	-0.449	0.042
-561.529	-200.000	-0.029	-0.226
-560.515	279.177	0.089	0.160
-559.500	-94.487	-0.368	-0.101
-558.485	-64.165	-0.132	0.054
-557.471	-61.638	-0.114	-0.048
-556.456	-89.380	0.173	0.051
-555.442	12.453	-0.141	-0.109
-554.427	800.000	-0.060	0.205
-553.412	-200.000	-0.020	-0.107
-552.398	239.642	0.118	0.197
-551.383	176.975	-0.091	-0.133
-550.369	800.000	-0.128	0.466
-549.354	127.113	-0.042	-0.054
-548.339	800.000	0.143	-0.560
-547.325	800.000	0.042	-0.172
-546.310	231.150	-0.100	0.165
-545.296	160.605	-0.132	-0.185
-544.281	42.568	-0.236	0.217
-543.266	95.667	0.236	0.271
-542.252	36.628	0.139	0.124
-541.237	800.000	-0.029	-0.081
-540.223	-36.329	0.113	-0.061
-539.208	-200.000	-0.002	0.058
-538.193	211.025	-0.194	0.308
-537.179	187.387	0.146	-0.220
-536.164	800.000	-0.095	-0.277
-535.150	511.306	-0.147	0.344
-534.135	-104.814	0.164	0.038
-533.121	-2.444	0.269	0.190
-532.106	-103.003	0.098	0.023
-531.091	-200.000	0.034	0.315
-530.077	-34.337	-0.110	0.061
-529.062	254.289	-0.050	0.087
-528.048	-86.564	0.411	0.127
-527.033	-150.746	0.173	0.013
-526.018	800.000	-0.081	0.232
-525.004	-89.462	0.222	-0.066
-523.989	141.330	-0.106	-0.141
-522.975	-200.000	0.299	0.001
-521.960	800.000	-0.016	-0.065
-520.945	-200.000	0.003	0.136
-519.931	-97.410	-0.202	-0.053
-518.916	26.078	-0.176	-0.148
-517.902	800.000	0.067	0.206
-516.887	85.406	0.259	0.286
-515.872	-132.026	-0.423	0.055
-514.858	-200.000	-0.003	-0.181
-513.843	117.523	0.140	0.174
-512.829	77.236	-0.183	0.196
-511.814	90.018	0.082	0.092
-510.799	109.873	-0.071	-0.086
-509.785	53.286	0.300	-0.289
-508.770	-25.394	-0.429	0.255
-507.756	-43.645	0.217	-0.110
-506.741	-22.553	-0.295	-0.180
-505.726	214.200	-0.105	-0.167
-504.712	-94.710	-0.101	-0.028
-503.697	800.000	0.133	-0.376
-502.683	-123.576	-0.271	0.043
-501.668	800.000	-0.025	-0.073
-500.653	800.000	0.083	-0.281
-499.639	-200.000	0.022	-0.196
-498.624	-65.921	-0.124	0.050
-497.610	21.409	-0.188	-0.154
-496.595	-117.834	-0.250	0.045
-495.581	-200.000	0.054	-0.315
-494.566	253.024	-0.098	-0.169
-493.551	-200.000	0.044	0.205
-492.537	-171.273	-0.089	0.003
-491.522	-95.248	0.347	-0.094
-490.508	-85.933	-0.171	-0.053
-489.493	-166.282	0.071	0.003
-488.478	-200.000	-0.021	0.137
-487.464	21.912	-0.191	0.157
-486.449	33.017	0.044	0.038
-485.435	63.769	-0.107	-0.108
-484.420	-73.039	0.191	-0.071
-483.405	-57.387	-0.233	-0.103
-482.391	-137.708	0.197	0.022
-481.376	203.416	0.089	0.138
-480.362	-29.667	0.150	-0.086
-479.347	782.076	0.119	-0.328
-478.332	57.215	-0.104	0.102
-477.318	-200.000	0.010	-0.253
-476.303	-9.122	-0.286	0.192
-475.289	-88.962	-0.085	0.025
-474.274	511.407	0.079	0.186
-473.259	5.962	-0.188	-0.140
-472.245	273.949	-0.141	0.251
-471.230	481.250	0.070	-0.160
-470.216	-46.268	0.036	0.018
-469.201	-200.000	-0.007	0.047
-468.186	-2.164	-0.209	-0.147
-467.172	-137.351	-0.118	0.013
-466.157	22.139	-0.215	-0.177
-465.143	-13.224	-0.117	-0.077
-464.128	-88.195	0.127	-0.038
-463.113	12.150	-0.062	-0.048
-462.099	800.000	0.063	-0.187
-461.084	-77.375	-0.189	-0.066
-460.070	-200.000	0.030	0.211
-459.055	-30.806	0.277	-0.157
-458.040	236.863	-0.122	0.203
-457.026	-47.140	-0.093	0.045
-456.011	393.307	0.135	0.282
-454.997	-200.000	-0.026	0.183
-453.982	-97.105	0.214	0.056
-452.968	-137.476	0.176	-0.020
-451.953	24.245	-0.111	0.092
-450.938	-58.892	0.185	0.080
-449.924	-47.144	0.363	0.178
-448.909	-200.000	0.004	0.373
-447.895	173.690	-0.220	0.318
-446.880	-197.496	0.278	-0.002
-445.865	-141.177	0.211	-0.022
-444.851	-200.000	0.014	0.248
-443.836	-117.548	0.195	0.035
-442.822	355.440	0.029	-0.059
-441.807	-161.227	-0.231	0.012
-440.792	-78.574	-0.132	0.045
-439.778	-120.902	0.458	0.077
-438.763	-127.611	0.013	0.002
-437.749	800.000	-0.074	0.230
-436.734	-94.386	-0.374	-0.103
-435.719	-108.091	0.227	0.049
-434.705	-65.105	-0.139	0.056
-433.690	-200.000	0.003	0.245
-432.676	-82.258	0.095	0.031
-431.661	452.384	-0.081	-0.180
-430.646	-52.644	0.190	-0.088
-429.632	51.046	-0.454	-0.432
-428.617	-200.000	-0.020	-0.242
-427.603	-133.511	0.105	0.013
-426.588	43.164	0.222	0.203
-425.573	-28.175	0.135	-0.078
-424.559	-200.000	-0.100	-0.472
-423.544	80.811	0.330	-0.357
-422.530	-111.305	0.135	-0.028
-421.515	-81.119	-0.072	-0.024
-420.500	349.260	0.249	-0.492
-419.486	282.669	-0.061	-0.110
-418.471	-61.266	-0.132	0.056
-417.457	5.690	-0.307	-0.228
-416.442	461.623	-0.063	0.141
-415.428	40.549	-0.236	0.213
-414.413	800.000	-0.071	0.308
-413.398	687.719	0.107	-0.281
-412.384	-13.191	-0.185	-0.121
-411.369	-71.857	0.283	0.106
-410.355	-78.047	-0.156	-0.054
-409.340	485.118	0.033	0.076
-408.325	34.414	0.233	0.204
-407.311	800.000	-0.094	0.326
-406.296	800.000	0.069	0.239
-405.282	-200.000	-0.022	0.126
-404.267	800.000	0.019	-0.071
-403.252	-30.926	0.241	0.137
-402.238	-200.000	0.009	-0.188
-401.223	52.717	0.209	-0.200
-400.209	-200.000	-0.045	-0.300
-399.194	-81.277	-0.193	-0.064
-398.179	-42.924	0.179	0.091
-397.165	115.123	0.227	0.277
-396.150	-108.079	0.323	0.070
-395.136	-185.875	0.157	-0.002
-394.121	-200.000	-0.015	0.081
-393.106	-90.919	-0.130	-0.038
-392.092	28.808	-0.145	0.123
-391.077	-200.000	0.019	0.219
-390.063	-90.587	-0.039	0.011
-389.048	-32.916	-0.342	0.190
-388.033	-200.000	-0.040	-0.241
-387.019	-161.458	0.216	0.011
-386.004	-140.718	-0.150	-0.016
-384.990	-200.000	-0.080	0.567
-383.975	39.618	-0.083	0.075
-382.960	-110.362	0.025	0.005
-381.946	800.000	-0.031	-0.090
-380.931	-62.953	-0.118	-0.049
-379.917	9.687	0.340	-0.258
-378.902	35.021	-0.134	-0.117
-377.888	-30.192	-0.374	0.213
-376.873	331.869	-0.062	0.119
-375.858	42.985	0.265	0.242
-374.844	-57.038	0.162	0.072
-373.829	132.612	0.086	-0.111
-372.815	147.221	-0.008	-0.011
-371.800	800.000	-0.079	0.297
-370.785	-200.000	-0.000	0.206
-369.771	-101.202	-0.068	-0.017
-368.756	486.734	0.124	-0.283
-367.742	220.267	-0.175	-0.280
-366.727	83.115	-0.119	0.130
-365.712	8.339	0.064	-0.048
-364.698	800.000	0.019	-0.081
-363.683	-71.366	0.322	0.121
-362.669	484.744	-0.021	-0.049
-361.654	-200.000	-0.029	-0.154
-360.639	110.362	-0.146	0.176
-359.625	79.408	0.020	0.021
-358.610	139.754	-0.090	-0.118
-357.596	-10.608	-0.309	0.205
-356.581	800.000	0.096	-0.300
-355.566	456.730	-0.250	-0.555
-354.552	-82.687	-0.164	-0.053
-353.537	18.951	-0.197	-0.158
-352.523	-26.278	0.220	0.129
-351.508	81.966	-0.157	-0.170
-350.493	85.975	-0.258	-0.284
-349.479	-128.486	0.101	0.014
-348.464	-8.420	0.106	0.071
-347.450	182.086	0.095	0.140
-346.435	112.568	-0.196	0.237
-345.420	-104.630	0.232	0.053
-344.406	67.304	0.167	-0.170
-343.391	355.735	-0.032	-0.063
-342.377	-52.534	0.373	-0.173
-341.362	-175.488	-0.424	-0.012
-340.348	-200.000	0.022	-0.422
-339.333	-200.000	0.020	0.230
-338.318	25.837	0.239	0.199
-337.304	800.000	-0.064	0.268
-336.289	800.000	-0.017	-0.066
-335.275	-66.683	-0.024	0.010
-334.260	-200.000	-0.050	0.300
-333.245	-87.391	0.104	0.031
-332.231	-108.976	-0.258	0.055
-331.216	-154.329	-0.155	0.010
-330.202	121.655	-0.118	-0.147
-329.187	-148.297	0.248	-0.020
-328.172	-63.996	-0.224	0.092
-327.158	800.000	0.074	-0.275
-326.143	6.136	-0.154	0.114
-325.129	546.295	0.109	-0.261
-324.114	-200.000	0.025	0.138
-323.099	800.000	0.078	-0.224
-322.085	800.000	-0.013	-0.054
-321.070	-127.882	0.075	-0.011
-320.056	800.000	0.119	0.346
-319.041	-200.000	-0.036	-0.388
-318.026	-100.037	0.246	0.061
-317.012	127.552	0.168	0.213
-315.997	-28.229	0.442	0.255
-314.983	261.512	0.058	0.100
-313.968	30.596	0.186	-0.159
-312.953	-14.346	-0.076	0.049
-311.939	39.871	-0.126	-0.113
-310.924	57.906	0.177	-0.173
-309.910	66.844	0.138	-0.141
-308.895	29.135	-0.246	0.209
-307.880	-61.504	0.171	0.072
-306.866	800.000	-0.048	0.201
-305.851	291.902	0.063	-0.114
-304.837	-31.609	0.110	-0.062
-303.822	-159.986	0.327	0.018
-302.807	-200.000	0.000	-0.134
-301.793	-200.000	-0.029	-0.304
-300.778	52.411	-0.173	0.164
-299.764	-13.039	0.211	0.137
-298.749	-29.683	-0.210	-0.119
-297.735	768.654	-0.056	-0.153
-296.720	-74.329	0.086	0.031
-295.705	-200.000	-0.000	0.136
-294.691	-158.532	0.252	-0.014
-293.676	-96.940	0.050	-0.013
-292.662	800.000	-0.035	0.129
-291.647	-80.887	0.168	-0.056
-290.632	135.512	-0.176	0.228
-289.618	-13.200	-0.155	-0.101
-288.603	-90.000	0.442	-0.129
-287.589	-200.000	-0.021	0.335
-286.574	-72.466	-0.151	0.056
-285.559	-200.000	-0.031	-0.147
-284.545	-117.222	-0.231	-0.042
-283.530	227.033	-0.047	-0.076
-282.516	-200.000	0.054	0.276
-281.501	6.416	0.072	0.053
-280.486	108.563	-0.043	0.051
-279.472	6.021	0.089	0.066
-278.457	-144.195	-0.231	0.022
-277.443	-200.000	0.047	0.280
-276.428	65.167	-0.136	-0.137
-275.413	-0.704	0.032	-0.022
-274.399	-200.000	0.007	-0.101
-273.384	800.000	-0.094	-0.342
-272.370	800.000	0.074	-0.208
-271.355	-72.199	-0.375	0.138
-270.340	176.675	-0.107	0.155
-269.326	-20.739	0.130	0.080
-268.311	608.724	0.146	0.362
-267.297	-36.210	0.182	-0.098
-266.282	-200.000	-0.039	-0.334
-265.267	-108.137	-0.085	0.018
-264.253	-133.031	0.265	-0.033
-263.238	-200.000	-0.012	0.232
-262.224	-14.651	0.305	0.195
-261.209	800.000	0.098	-0.372
-260.195	-4.743	0.097	0.066
-259.180	-140.219	0.048	-0.005
-258.165	-157.811	0.284	0.017
-257.151	-92.076	0.261	0.073
-256.136	-152.931	0.228	0.016
-255.122	43.545	0.142	0.129
-254.107	-200.000	-0.001	-0.235
-253.092	-98.794	0.312	-0.079
-252.078	45.473	-0.082	0.075
-251.063	-155.277	0.423	-0.027
-250.049	-200.000	0.031	-0.262
-249.034	800.000	-0.105	-0.384
-248.019	-76.846	0.315	0.110
-247.005	-25.911	-0.096	-0.056
-245.990	-47.994	0.245	-0.118
-244.976	196.538	-0.078	-0.118
-243.961	-158.954	-0.263	0.015
-242.946	502.294	-0.057	0.130
-241.932	-200.000	0.008	0.122
-240.917	-200.000	-0.014	-0.109
-239.903	3.684	-0.116	0.084
-238.888	89.135	0.092	0.103
-237.873	147.030	0.323	-0.433
-236.859	-200.000	-0.001	0.024
-235.844	-81.351	-0.295	0.097
-234.830	39.092	-0.235	-0.210
-233.815	-94.441	-0.134	0.036
-232.800	511.655	0.021	-0.048
-231.786	-135.928	-0.204	0.024
-230.771	367.707	-0.091	0.183
-229.757	39.676	0.125	0.112
-228.742	-36.591	0.091	-0.049
-227.727	-108.029	0.180	0.039
-226.713	-73.241	-0.060	-0.022
-225.698	133.494	-0.039	0.051
-224.684	39.733	-0.222	0.199
-223.669	71.652	0.238	0.246
-222.655	455.830	0.028	-0.062
-221.640	23.326	0.174	0.142
-220.625	-127.233	0.167	-0.024
-219.611	-56.960	-0.123	-0.054
-218.596	16.041	-0.015	-0.012
-217.582	-43.027	-0.096	-0.049
-216.567	-122.359	0.133	-0.022
-215.552	202.295	-0.201	-0.309
-214.538	-10.913	-0.336	-0.221
-213.523	181.608	0.140	-0.206
-212.509	-200.000	0.019	0.203
-211.494	800.000	-0.021	-0.080
-210.479	437.412	0.063	0.137
-209.465	295.968	-0.101	0.183
-208.450	-48.984	-0.227	0.108
-207.436	114.557	0.113	0.136
-206.421	170.945	0.134	0.191
-205.406	800.000	0.045	-0.181
-204.392	-200.000	0.073	0.427
-203.377	145.989	-0.198	0.265
-202.363	190.284	-0.020	0.030
-201.348	68.015	0.043	-0.044
-200.333	-14.170	-0.255	0.163
-199.319	686.943	0.161	-0.419
-198.304	530.777	0.017	-0.039
-197.290	35.021	-0.240	0.209
-196.275	61.168	0.111	-0.110
-195.260	-55.394	-0.078	-0.035
-194.246	-185.887	-0.148	-0.002
-193.231	-200.000	-0.008	-0.045
-192.217	262.252	0.052	0.090
-191.202	121.719	0.134	0.166
-190.187	-11.170	0.178	-0.117
-189.173	129.892	0.153	0.194
-188.158	-30.805	0.110	0.062
-187.144	-200.000	0.014	0.074
-186.129	800.000	-0.020	-0.060
-185.114	-200.000	-0.030	0.254
-184.100	-48.144	0.088	0.042
-183.085	237.290	0.196	0.323
-182.071	-144.320	0.294	0.027
-181.056	-123.822	-0.262	-0.041
-180.042	11.146	-0.181	0.138
-179.027	-55.045	0.154	-0.069
-178.012	800.000	0.055	-0.176
-176.998	-200.000	-0.005	-0.247
-175.983	-131.901	-0.170	-0.022
-174.969	-116.151	0.388	0.072
-173.954	-106.821	-0.075	-0.016
-172.939	91.547	0.115	-0.128
-171.925	800.000	-0.034	0.107
-170.910	27.938	0.146	0.122
-169.896	-24.432	-0.145	0.086
-168.881	523.338	-0.026	0.062
-167.866	-109.339	-0.206	-0.043
-166.852	-54.669	-0.117	0.053
-165.837	800.000	-0.048	-0.158
-164.823	-95.735	-0.230	-0.061
-163.808	261.823	-0.045	0.077
-162.793	-148.180	0.067	0.006
-161.779	-61.380	0.287	-0.120
-160.764	-43.494	0.283	0.142
-159.750	41.076	0.262	-0.235
-158.735	640.270	-0.097	0.245
-157.720	-100.501	-0.191	-0.047
-156.706	-2.769	0.229	-0.159
-155.691	-95.619	-0.038	-0.010
-154.677	-200.000	0.063	0.337
-153.662	85.424	-0.082	0.089
-152.647	-75.581	-0.342	-0.121
-151.633	75.720	-0.218	0.229
-150.618	-130.711	-0.136	-0.018
-149.604	-200.000	0.016	-0.216
-148.589	463.137	0.117	0.260
-147.574	-118.284	0.255	-0.045
-146.560	800.000	0.089	-0.265
-145.545	246.451	0.119	-0.199
-144.531	3.636	-0.239	0.173
-143.516	379.180	0.182	0.370
-142.502	720.232	-0.044	-0.117
-141.487	11.108	-0.089	0.067
-140.472	84.109	-0.227	-0.246
-139.458	287.647	-0.110	-0.197
-138.443	-87.216	0.443	-0.134
-137.429	40.731	0.278	0.249
-136.414	-200.000	0.007	-0.087
-135.399	-200.000	-0.071	0.318
-134.385	-80.220	0.367	-0.122
-133.370	14.818	0.197	0.153
-132.356	-29.042	-0.320	0.182
-131.341	-187.641	-0.138	0.002
-130.326	3.344	-0.225	0.163
-129.312	161.651	-0.034	0.048
-128.297	161.969	0.008	0.010
-127.283	-70.100	0.256	-0.097
-126.268	370.098	0.071	0.142
-125.253	-9.987	-0.185	-0.122
-124.239	-43.015	-0.105	-0.053
-123.224	99.730	0.082	-0.094
-122.210	221.191	-0.259	-0.412
-121.195	-149.444	0.479	-0.038
