DTS Sentinel unit serial number:	SN413079Multiplexer serial number:	ORYXHardware model number:	OX4-SRSoftware version number:	ORYX F/W v4.00 Oryx Data Collector v3.7.2.0data status	okinstallation	princeton_trtdifferential loss correction	single-endedforward channel	channel 4reverse channel	N/Adate	2019/09/15time	11:49:34forward acquisition time	60.00reverse acquisition time	0.00gamma	496.2192k internal	0.2298k external	0.2298temperature offset calibration	1.0014default loss term (dB/km)	0.3790temperature slope calibration	1.0000multiplexer offset coefficient	1.0000multiplexer slope coefficient	1.0000fibre end	0.00T internal ref (°C)	34.37T ext. ref 1 (°C)	5.05T ext. ref 2 (°C)	29.96length (m)	temperature (°C)	Stokes	anti-Stokes-747.200	-200.000	-0.049	-0.238
-746.185	720.856	-0.124	0.336
-745.171	374.648	-0.173	0.359
-744.156	45.000	-0.045	-0.042
-743.142	10.244	-0.126	-0.098
-742.127	740.082	-0.135	0.370
-741.112	520.624	0.082	-0.195
-740.098	-200.000	0.038	0.328
-739.083	-131.979	-0.103	-0.014
-738.069	-17.790	-0.335	0.215
-737.054	-48.877	-0.102	-0.050
-736.039	171.751	-0.108	-0.158
-735.025	7.607	0.147	0.112
-734.010	800.000	-0.106	0.348
-732.996	-5.176	-0.214	-0.150
-731.981	362.651	0.050	0.102
-730.966	800.000	-0.015	0.064
-729.952	-200.000	0.061	-0.274
-728.937	-189.756	0.272	-0.003
-727.923	-126.666	-0.186	0.028
-726.908	-69.913	-0.183	0.071
-725.894	-136.802	-0.209	0.025
-724.879	29.343	0.020	0.017
-723.864	150.399	0.130	-0.180
-722.850	-200.000	-0.080	-0.408
-721.835	-200.000	-0.024	0.164
-720.821	116.151	0.130	0.163
-719.806	800.000	-0.066	-0.199
-718.791	-66.159	-0.486	0.198
-717.777	-94.565	0.265	-0.073
-716.762	-127.380	-0.063	0.009
-715.748	-77.105	-0.276	0.098
-714.733	-67.751	0.281	-0.112
-713.718	-93.990	0.081	0.023
-712.704	433.426	0.065	0.145
-711.689	-200.000	-0.159	0.000
-710.675	-27.827	0.164	-0.097
-709.660	31.914	0.260	-0.228
-708.645	-115.059	-0.029	0.006
-707.631	-28.997	-0.094	0.055
-706.616	-142.356	0.257	0.026
-705.602	-14.373	0.110	0.072
-704.587	-130.009	-0.212	0.030
-703.572	-200.000	0.006	-0.095
-702.558	-200.000	-0.011	-0.351
-701.543	-59.350	-0.122	0.054
-700.529	65.124	0.172	0.177
-699.514	-0.326	0.152	0.110
-698.499	423.891	-0.223	0.489
-697.485	-55.046	-0.205	0.094
-696.470	513.227	0.063	-0.150
-695.456	105.421	-0.150	-0.180
-694.441	800.000	0.017	-0.052
-693.426	-127.231	-0.211	0.031
-692.412	-61.211	0.149	-0.064
-691.397	-66.716	0.172	-0.069
-690.383	-200.000	-0.074	-0.426
-689.368	37.964	-0.178	0.161
-688.354	800.000	-0.016	-0.059
-687.339	-200.000	-0.052	0.282
-686.324	165.249	0.256	-0.369
-685.310	39.312	-0.163	-0.149
-684.295	-200.000	-0.032	-0.156
-683.281	28.675	0.373	-0.321
-682.266	-110.612	-0.055	0.012
-681.251	-16.137	-0.210	0.136
-680.237	-200.000	0.023	-0.243
-679.222	63.234	-0.329	-0.336
-678.208	-69.516	-0.140	0.055
-677.193	-54.824	-0.341	-0.157
-676.178	-71.691	-0.229	0.087
-675.164	60.011	-0.123	0.124
-674.149	800.000	0.023	-0.086
-673.135	5.847	-0.082	-0.062
-672.120	-118.782	0.204	-0.037
-671.105	117.127	-0.177	-0.221
-670.091	-4.237	-0.153	0.108
-669.076	-118.286	0.291	0.053
-668.062	208.510	0.174	-0.278
-667.047	-92.524	-0.237	-0.068
-666.032	476.698	0.036	-0.084
-665.018	-200.000	0.023	-0.268
-664.003	249.585	0.004	0.006
-662.989	11.748	0.202	-0.158
-661.974	-56.039	0.167	0.076
-660.959	84.785	0.293	0.327
-659.945	-69.765	0.378	-0.147
-658.930	-65.371	-0.330	-0.135
-657.916	-57.846	-0.217	-0.097
-656.901	540.289	-0.073	0.177
-655.886	800.000	0.051	-0.166
-654.872	-200.000	-0.018	-0.131
-653.857	-24.855	0.028	0.017
-652.843	608.309	0.079	-0.199
-651.828	246.868	-0.032	0.055
-650.814	7.056	-0.055	0.042
-649.799	24.595	-0.034	-0.028
-648.784	-104.879	-0.163	0.038
-647.770	-94.777	-0.020	0.006
-646.755	800.000	0.066	0.225
-645.741	-200.000	0.054	-0.245
-644.726	468.866	0.184	0.420
-643.711	538.610	0.132	0.318
-642.697	352.437	0.097	0.196
-641.682	70.719	0.180	-0.189
-640.668	-57.019	0.110	0.049
-639.653	-95.033	0.230	-0.063
-638.638	800.000	0.069	-0.277
-637.624	31.979	-0.154	0.135
-636.609	21.860	-0.058	0.048
-635.595	34.971	0.170	0.151
-634.580	318.274	0.035	0.067
-633.565	800.000	-0.115	-0.379
-632.551	146.864	-0.171	-0.234
-631.536	-200.000	-0.017	0.115
-630.522	-104.493	0.033	0.008
-629.507	-79.356	-0.229	-0.079
-628.492	321.133	0.161	0.312
-627.478	-200.000	0.053	-0.246
-626.463	-44.335	0.377	0.192
-625.449	-42.139	0.235	0.122
-624.434	-78.388	-0.213	0.074
-623.419	800.000	0.078	0.326
-622.405	-111.044	0.221	-0.046
-621.390	-112.517	0.196	-0.040
-620.376	663.271	-0.042	-0.111
-619.361	85.304	-0.090	-0.101
-618.346	164.965	-0.081	-0.116
-617.332	-50.031	0.122	0.059
-616.317	-77.174	-0.349	-0.123
-615.303	440.583	0.099	-0.221
-614.288	-116.065	-0.270	0.051
-613.273	-200.000	-0.055	-0.248
-612.259	-41.599	0.082	-0.043
-611.244	-172.563	0.141	-0.005
-610.230	251.308	0.056	0.097
-609.215	171.566	0.187	0.273
-608.201	-200.000	-0.059	0.434
-607.186	-27.643	0.151	-0.089
-606.171	-17.603	0.180	0.115
-605.157	328.404	0.068	0.132
-604.142	-41.330	-0.117	-0.061
-603.128	-76.376	0.218	0.078
-602.113	-34.810	-0.175	-0.097
-601.098	-89.099	0.104	0.031
-600.084	156.664	0.110	-0.154
-599.069	102.427	-0.244	-0.290
-598.055	800.000	-0.084	0.257
-597.040	-103.821	-0.117	0.028
-596.025	800.000	0.042	0.156
-595.011	-29.285	-0.316	0.184
-593.996	-82.289	-0.134	-0.044
-592.982	-71.131	0.259	-0.099
-591.967	-200.000	-0.030	0.184
-590.952	800.000	-0.104	0.383
-589.938	506.816	0.086	-0.203
-588.923	-200.000	0.037	-0.420
-587.909	51.959	-0.180	0.174
-586.894	-116.993	0.308	0.057
-585.879	-161.881	0.270	0.014
-584.865	39.018	-0.281	-0.254
-583.850	-27.217	-0.149	0.088
-582.836	42.120	0.083	-0.077
-581.821	-200.000	0.008	-0.123
-580.806	800.000	-0.057	0.163
-579.792	-200.000	-0.035	0.165
-578.777	-200.000	0.012	0.059
-577.763	-83.501	0.178	0.058
-576.748	-25.875	-0.281	-0.168
-575.733	-61.147	0.236	0.101
-574.719	-200.000	-0.118	-0.617
-573.704	-124.787	0.224	-0.035
-572.690	25.022	0.201	-0.169
-571.675	355.678	-0.045	-0.090
-570.661	120.554	0.034	0.042
-569.646	87.411	-0.128	-0.143
-568.631	-29.736	0.058	0.034
-567.617	-200.000	-0.025	0.113
-566.602	-106.279	-0.115	0.026
-565.588	-137.623	0.163	0.019
-564.573	772.166	-0.074	0.205
-563.558	-200.000	0.026	-0.312
-562.544	-157.736	0.269	0.016
-561.529	25.997	-0.164	-0.139
-560.515	328.902	0.194	-0.378
-559.500	1.484	0.087	0.063
-558.485	33.924	-0.375	-0.331
-557.471	201.350	-0.108	-0.169
-556.456	-200.000	0.017	-0.499
-555.442	39.993	-0.275	0.250
-554.427	-19.572	-0.296	-0.186
-553.412	-131.891	0.273	0.036
-552.398	-200.000	0.010	0.134
-551.383	16.988	0.126	-0.101
-550.369	94.612	-0.146	0.168
-549.354	800.000	-0.072	0.222
-548.339	800.000	0.033	-0.107
-547.325	-131.814	-0.204	0.027
-546.310	127.028	-0.144	-0.185
-545.296	-39.502	-0.112	-0.059
-544.281	-69.220	-0.211	0.082
-543.266	-89.221	-0.169	0.051
-542.252	800.000	0.094	0.314
-541.237	800.000	-0.078	0.290
-540.223	693.095	0.017	0.044
-539.208	-74.325	-0.088	-0.032
-538.193	-200.000	-0.422	-0.000
-537.179	231.068	-0.042	-0.069
-536.164	-50.946	0.275	0.131
-535.150	692.606	-0.106	-0.281
-534.135	-23.493	-0.274	-0.167
-533.121	-116.712	-0.530	-0.099
-532.106	-100.376	0.384	-0.096
-531.091	-128.350	-0.386	0.056
-530.077	-43.435	0.257	-0.131
-529.062	800.000	0.088	-0.273
-528.048	800.000	-0.060	-0.176
-527.033	-83.519	0.164	0.053
-526.018	800.000	-0.038	0.152
-525.004	-178.648	0.220	0.005
-523.989	237.423	0.182	-0.306
-522.975	524.431	-0.180	-0.430
-521.960	-38.824	-0.139	0.074
-520.945	-19.550	-0.158	0.099
-519.931	538.489	-0.101	0.242
-518.916	-97.243	-0.201	-0.053
-517.902	-83.202	-0.304	0.099
-516.887	-1.570	0.077	-0.055
-515.872	-53.760	-0.258	-0.119
-514.858	-152.829	-0.466	-0.033
-513.843	800.000	0.063	0.253
-512.829	-106.506	-0.226	0.051
-511.814	-72.886	0.235	0.087
-510.799	594.750	-0.048	-0.120
-509.785	-117.706	0.087	-0.016
-508.770	-93.650	-0.259	0.072
-507.756	3.967	-0.098	0.072
-506.741	-28.757	0.280	0.163
-505.726	-132.253	-0.136	-0.018
-504.712	-1.866	0.097	-0.069
-503.697	446.763	-0.172	0.383
-502.683	40.293	0.176	-0.160
-501.668	138.478	0.125	0.166
-500.653	-123.026	0.051	0.008
-499.639	41.869	-0.173	-0.159
-498.624	34.504	-0.271	0.240
-497.610	684.537	0.069	-0.182
-496.595	-142.980	-0.076	-0.007
-495.581	-200.000	-0.004	0.058
-494.566	-178.710	0.099	-0.002
-493.551	-95.714	0.022	-0.006
-492.537	-200.000	-0.084	-0.485
-491.522	36.826	0.202	0.181
-490.508	54.407	0.136	-0.132
-489.493	1.625	-0.084	-0.061
-488.478	50.149	-0.052	0.049
-487.464	30.303	-0.096	-0.083
-486.449	167.327	0.140	-0.201
-485.435	-27.589	0.224	0.132
-484.420	-98.910	-0.064	0.017
-483.405	6.645	-0.214	-0.161
-482.391	-36.770	-0.065	-0.035
-481.376	87.673	-0.234	-0.262
-480.362	-29.570	-0.256	0.148
-479.347	-58.940	-0.166	0.073
-478.332	38.123	0.201	0.181
-477.318	-127.468	-0.294	-0.043
-476.303	179.808	0.119	-0.177
-475.289	800.000	0.031	-0.124
-474.274	-200.000	0.037	-0.210
-473.259	-109.299	-0.323	-0.069
-472.245	-200.000	-0.055	-0.284
-471.230	-200.000	-0.022	0.172
-470.216	51.258	0.119	-0.114
-469.201	800.000	-0.102	0.285
-468.186	-117.893	0.177	0.032
-467.172	-4.749	0.139	-0.097
-466.157	119.155	0.129	-0.161
-465.143	539.003	0.009	-0.021
-464.128	130.077	0.199	0.257
-463.113	41.866	-0.293	0.269
-462.099	-97.615	0.138	0.036
-461.084	9.723	0.117	0.090
-460.070	-158.558	0.037	-0.002
-459.055	800.000	-0.070	-0.241
-458.040	-33.800	-0.128	-0.071
-457.026	-4.754	-0.268	0.187
-456.011	-200.000	-0.020	-0.120
-454.997	-166.521	-0.234	-0.010
-453.982	800.000	-0.005	-0.014
-452.968	533.480	-0.061	0.145
-451.953	715.623	0.116	-0.312
-450.938	253.249	0.145	0.250
-449.924	800.000	0.050	-0.174
-448.909	264.604	0.116	-0.204
-447.895	11.163	-0.062	0.048
-446.880	-1.973	-0.105	-0.074
-445.865	800.000	0.020	0.081
-444.851	-122.712	-0.363	-0.059
-443.836	-79.098	0.188	0.065
-442.822	47.481	0.176	-0.165
-441.807	638.786	-0.108	-0.277
-440.792	41.859	0.123	-0.112
-439.778	-64.678	0.326	0.134
-438.763	-11.822	-0.278	-0.184
-437.749	233.012	-0.034	0.056
-436.734	-87.248	0.126	-0.038
-435.719	270.442	-0.063	-0.111
-434.705	-50.438	-0.375	-0.179
-433.690	-200.000	0.011	0.358
-432.676	-26.888	0.218	-0.128
-431.661	-91.491	-0.266	0.076
-430.646	-39.164	-0.276	0.146
-429.632	-129.989	0.076	-0.010
-428.617	11.856	0.204	0.158
-427.603	56.028	-0.062	0.061
-426.588	203.374	-0.217	0.338
-425.573	78.759	-0.240	-0.258
-424.559	170.155	-0.182	-0.262
-423.544	-46.430	-0.250	-0.124
-422.530	104.249	-0.255	-0.302
-421.515	602.769	-0.113	-0.283
-420.500	-200.000	0.001	0.210
-419.486	-200.000	-0.025	-0.229
-418.471	-130.639	0.205	-0.028
-417.457	800.000	0.155	-0.510
-416.442	-36.906	0.212	-0.115
-415.428	-107.647	-0.111	0.025
-414.413	-126.998	0.376	-0.056
-413.398	16.422	-0.030	0.024
-412.384	-37.870	0.320	-0.172
-411.369	21.415	-0.116	-0.095
-410.355	-200.000	0.013	-0.088
-409.340	-200.000	0.030	-0.262
-408.325	800.000	0.095	0.316
-407.311	-200.000	0.086	-0.381
-406.296	639.709	-0.100	-0.257
-405.282	294.492	0.101	0.186
-404.267	235.098	0.151	-0.252
-403.252	-200.000	-0.035	0.155
-402.238	-64.607	0.249	-0.102
-401.223	578.926	-0.061	-0.150
-400.209	-38.816	0.243	-0.129
-399.194	110.817	0.237	-0.287
-398.179	-110.668	-0.104	-0.022
-397.165	-52.717	-0.207	-0.096
-396.150	-200.000	-0.014	-0.081
-395.136	-21.730	0.136	-0.084
-394.121	608.920	0.040	0.102
-393.106	283.863	-0.108	0.196
-392.092	-60.465	-0.191	-0.082
-391.077	-28.364	0.327	0.190
-390.063	-29.214	0.364	0.210
-389.048	-200.000	0.023	0.323
-388.033	-200.000	0.008	0.348
-387.019	-200.000	0.023	0.149
-386.004	-80.813	0.126	-0.042
-384.990	-97.324	-0.070	-0.018
-383.975	50.058	0.185	-0.176
-382.960	-200.000	-0.019	-0.355
-381.946	99.213	0.114	-0.133
-380.931	-200.000	-0.014	0.112
-379.917	800.000	-0.063	-0.227
-378.902	-14.847	-0.111	-0.071
-377.888	79.969	-0.020	-0.022
-376.873	381.347	0.149	0.307
-375.858	-141.585	-0.089	0.009
-374.844	710.340	-0.011	0.030
-373.829	24.158	0.167	0.139
-372.815	800.000	-0.014	0.045
-371.800	426.941	-0.126	0.274
-370.785	-200.000	0.018	-0.176
-369.771	114.572	0.096	0.117
-368.756	-102.039	-0.182	-0.044
-367.742	-16.839	-0.164	-0.104
-366.727	123.636	-0.139	-0.175
-365.712	-200.000	0.045	0.281
-364.698	-11.132	0.174	-0.116
-363.683	-200.000	0.004	0.087
-362.669	-113.855	0.087	0.017
-361.654	800.000	-0.062	0.189
-360.639	-156.881	0.213	0.013
-359.625	-200.000	0.015	0.249
-358.610	-33.187	-0.190	0.106
-357.596	-200.000	0.017	0.082
-356.581	-97.405	0.245	0.064
-355.566	373.951	0.070	-0.143
-354.552	116.311	0.197	-0.242
-353.537	360.519	0.080	0.160
-352.523	204.106	-0.087	-0.135
-351.508	53.041	0.068	-0.066
-350.493	-163.914	0.289	-0.014
-349.479	190.972	-0.047	-0.071
-348.464	65.891	0.168	0.172
-347.450	-72.850	-0.208	-0.077
-346.435	103.587	0.209	-0.247
-345.420	6.980	-0.203	-0.152
-344.406	152.207	-0.111	-0.152
-343.391	-112.081	-0.113	-0.023
-342.377	800.000	0.108	-0.367
-341.362	-167.676	0.192	0.008
-340.348	-104.042	0.382	-0.089
-339.333	39.777	0.135	-0.122
-338.318	-133.432	-0.207	-0.026
-337.304	-28.345	-0.291	0.169
-336.289	-150.902	-0.434	0.033
-335.275	165.275	-0.129	-0.184
-334.260	171.596	-0.203	-0.293
-333.245	-200.000	-0.026	0.236
-332.231	360.356	-0.021	-0.042
-331.216	-200.000	-0.024	-0.157
-330.202	-200.000	-0.039	0.433
-329.187	246.770	0.085	0.144
-328.172	800.000	0.072	0.237
-327.158	53.227	0.044	-0.043
-326.143	366.323	0.187	0.379
-325.129	21.733	-0.262	0.214
-324.114	13.780	0.153	0.119
-323.099	108.924	0.177	0.213
-322.085	-75.815	-0.136	0.048
-321.070	186.573	0.130	-0.194
-320.056	-2.315	-0.252	0.177
-319.041	-200.000	-0.004	0.478
-318.026	27.870	-0.166	0.140
-317.012	226.046	0.167	0.271
-315.997	-182.982	-0.343	-0.006
-314.983	120.441	-0.329	0.410
-313.968	172.730	-0.066	-0.095
-312.953	310.888	-0.014	-0.026
-311.939	-35.267	-0.185	0.101
-310.924	-100.878	0.269	-0.066
-309.910	336.823	-0.072	-0.141
-308.895	722.384	-0.112	-0.299
-307.880	404.357	-0.055	-0.117
-306.866	10.018	-0.151	0.115
-305.851	37.305	-0.296	0.263
-304.837	-67.101	0.331	-0.131
-303.822	20.811	0.158	-0.128
-302.807	-200.000	0.034	0.361
-301.793	242.835	0.157	0.264
-300.778	800.000	-0.073	0.238
-299.764	-200.000	-0.017	0.080
-298.749	-103.713	-0.357	0.084
-297.735	406.108	-0.054	-0.114
-296.720	255.468	0.241	0.414
-295.705	-200.000	-0.019	-0.328
-294.691	-109.292	0.201	0.043
-293.676	-115.620	0.201	0.038
-292.662	-85.893	-0.285	0.089
-291.647	-14.354	-0.102	-0.066
-290.632	34.613	-0.123	0.108
-289.618	-200.000	-0.033	0.146
-288.603	-39.029	-0.140	-0.074
-287.589	-200.000	0.009	-0.174
-286.574	-67.868	0.146	0.057
-285.559	131.575	0.126	-0.162
-284.545	-200.000	0.010	0.263
-283.530	-200.000	-0.013	0.231
-282.516	-200.000	0.014	-0.307
-281.501	-200.000	-0.037	-0.269
-280.486	123.038	-0.146	-0.183
-279.472	-89.492	-0.345	-0.102
-278.457	292.741	0.107	0.196
-277.443	284.056	0.137	0.246
-276.428	247.143	-0.014	0.024
-275.413	-161.792	0.112	0.006
-274.399	-200.000	-0.029	-0.232
-273.384	-32.236	-0.034	-0.019
-272.370	44.329	-0.053	0.049
-271.355	800.000	0.053	0.185
-270.340	26.627	0.114	-0.095
-269.326	305.154	0.149	0.277
-268.311	-200.000	-0.006	-0.127
-267.297	-13.805	-0.054	-0.035
-266.282	-200.000	-0.067	0.508
-265.267	279.335	0.007	-0.012
-264.253	-26.354	-0.255	-0.150
-263.238	-57.193	-0.241	0.106
-262.224	131.658	-0.153	-0.197
-261.209	-200.000	0.024	0.125
-260.195	324.894	0.222	-0.426
-259.180	765.881	-0.087	0.237
-258.165	-41.906	0.058	0.030
-257.151	434.637	0.066	-0.144
-256.136	-200.000	-0.012	-0.295
-255.122	-80.537	-0.215	0.072
-254.107	95.291	0.206	0.236
-253.092	142.383	0.089	-0.118
-252.078	57.893	0.053	0.052
-251.063	404.371	-0.043	0.090
-250.049	294.217	-0.241	0.440
-249.034	800.000	0.052	-0.210
-248.019	625.598	0.046	-0.117
-247.005	-147.306	0.191	0.016
-245.990	-112.240	0.313	-0.063
-244.976	-104.323	-0.249	0.058
-243.961	-11.447	0.039	-0.026
-242.946	-48.374	0.192	0.092
-241.932	-153.215	-0.371	-0.026
-240.917	-54.205	0.150	0.068
-239.903	-18.081	-0.274	-0.172
-238.888	-63.426	0.146	0.060
-237.873	-120.086	-0.357	-0.061
-236.859	-115.889	0.280	-0.052
-235.844	800.000	-0.071	0.310
-234.830	-188.549	0.161	-0.002
-233.815	-200.000	-0.003	0.203
-232.800	-200.000	-0.000	-0.362
-231.786	0.448	0.207	0.148
-230.771	-48.292	0.164	0.079
-229.757	-165.190	-0.076	0.003
-228.742	312.080	-0.073	0.138
-227.727	-8.752	0.071	0.048
-226.713	776.175	0.040	-0.109
-225.698	214.113	-0.147	-0.233
-224.684	800.000	-0.079	0.251
-223.669	1.253	0.187	0.134
-222.655	-142.732	0.570	-0.056
-221.640	-200.000	0.059	0.285
-220.625	800.000	0.069	0.194
-219.611	155.407	-0.242	-0.333
-218.596	7.009	0.208	0.155
-217.582	45.042	0.151	0.139
-216.567	-122.131	-0.132	-0.022
-215.552	-12.207	0.166	-0.108
-214.538	-137.028	0.457	-0.052
-213.523	-9.171	0.081	0.054
-212.509	-128.413	-0.237	-0.034
-211.494	-74.719	0.056	-0.020
-210.479	-140.949	0.311	-0.032
-209.465	616.173	-0.022	-0.054
-208.450	-34.300	-0.264	0.145
-207.436	800.000	0.042	-0.137
-206.421	-125.924	-0.220	0.033
-205.406	586.666	0.093	-0.229
-204.392	275.886	-0.097	0.172
-203.377	-104.363	0.210	-0.049
-202.363	408.874	0.232	0.491
-201.348	-130.437	-0.295	0.040
-200.333	6.229	0.111	-0.083
-199.319	-200.000	0.001	-0.381
-198.304	308.009	0.084	0.156
-197.290	241.471	0.246	-0.411
-196.275	169.834	-0.221	0.316
-195.260	-77.781	0.096	-0.033
-194.246	-200.000	0.019	0.105
-193.231	-200.000	0.026	0.182
-192.217	-200.000	0.007	0.144
-191.202	532.359	0.004	-0.009
-190.187	-200.000	-0.029	0.229
-189.173	-15.684	-0.190	0.121
-188.158	-66.025	-0.206	0.082
-187.144	22.611	0.251	-0.205
-186.129	0.797	-0.061	-0.044
-185.114	-86.548	-0.283	0.087
-184.100	-200.000	0.057	-0.262
-183.085	800.000	-0.058	0.244
-182.071	-7.095	0.307	0.208
-181.056	-74.262	0.275	0.099
-180.042	-200.000	-0.018	-0.291
-179.027	-127.964	0.233	0.033
-178.012	-35.678	0.196	-0.106
-176.998	-55.110	-0.097	0.044
-175.983	-137.671	-0.200	0.022
-174.969	-193.509	0.558	-0.005
-173.954	-82.959	0.136	-0.044
-172.939	-200.000	-0.047	0.231
-171.925	22.076	0.082	0.066
-170.910	-65.624	0.356	0.143
-169.896	-27.290	-0.242	-0.141
-168.881	78.149	-0.071	-0.075
-167.866	23.936	0.116	0.095
-166.852	-200.000	0.041	-0.279
-165.837	85.115	0.178	0.195
-164.823	402.310	-0.121	0.254
-163.808	34.833	0.126	0.110
-162.793	33.120	0.097	0.084
-161.779	800.000	-0.040	-0.167
-160.764	753.556	-0.058	0.156
-159.750	800.000	0.096	0.301
-158.735	64.201	0.166	0.166
-157.720	-71.160	-0.142	-0.053
-156.706	69.213	0.077	-0.080
-155.691	-200.000	0.006	-0.149
-154.677	800.000	0.039	-0.149
-153.662	24.881	-0.154	0.128
-152.647	95.633	-0.097	-0.110
-151.633	-200.000	-0.045	-0.320
-150.618	800.000	-0.074	0.277
-149.604	378.340	0.063	0.129
-148.589	-47.829	-0.293	-0.142
-147.574	-98.439	0.144	0.037
-146.560	-127.630	-0.251	-0.036
-145.545	325.456	0.096	-0.183
-144.531	-10.364	-0.115	-0.076
-143.516	-72.712	-0.441	-0.162
-142.502	271.238	0.164	0.288
-141.487	-200.000	0.037	-0.201
-140.472	-89.514	-0.235	0.069
-139.458	106.542	-0.174	-0.206
-138.443	-158.837	-0.540	-0.031
-137.429	-200.000	0.010	0.108
-136.414	-11.053	0.104	0.068
-135.399	19.262	-0.234	-0.187
-134.385	80.799	-0.134	-0.144
-133.370	68.445	-0.284	-0.291
-132.356	-31.802	0.078	-0.044
-131.341	-200.000	0.010	0.084
-130.326	389.587	0.064	0.132
-129.312	21.643	0.342	0.277
-128.297	-3.408	-0.344	-0.239
-127.283	-36.187	-0.255	0.137
-126.268	-200.000	-0.009	-0.071
-125.253	56.731	-0.080	-0.077
-124.239	-102.576	0.271	0.065
-123.224	-200.000	-0.060	-0.294
-122.210	-130.946	-0.258	0.034
-121.195	654.627	0.100	-0.255
