DTS Sentinel unit serial number:	SN413079Multiplexer serial number:	ORYXHardware model number:	OX4-SRSoftware version number:	ORYX F/W v4.00 Oryx Data Collector v3.7.2.0data status	okinstallation	princeton_trtdifferential loss correction	single-endedforward channel	channel 4reverse channel	N/Adate	2019/09/18time	01:21:34forward acquisition time	60.00reverse acquisition time	0.00gamma	496.2192k internal	0.2334k external	0.2334temperature offset calibration	0.9998default loss term (dB/km)	0.3790temperature slope calibration	1.0000multiplexer offset coefficient	1.0000multiplexer slope coefficient	1.0000fibre end	0.00T internal ref (°C)	23.12T ext. ref 1 (°C)	0.16T ext. ref 2 (°C)	16.86length (m)	temperature (°C)	Stokes	anti-Stokes-747.200	291.372	0.034	0.063
-746.185	329.609	-0.098	0.189
-745.171	800.000	-0.057	0.250
-744.156	-200.000	-0.023	0.334
-743.142	189.524	0.067	-0.100
-742.127	800.000	-0.078	0.278
-741.112	-200.000	0.059	0.499
-740.098	-89.045	0.010	0.003
-739.083	7.345	0.294	0.221
-738.069	-17.843	-0.349	0.220
-737.054	-94.758	-0.215	0.059
-736.039	154.943	-0.391	-0.540
-735.025	-153.663	0.317	0.022
-734.010	-40.405	-0.416	-0.217
-732.996	-167.598	-0.218	0.009
-731.981	-175.566	-0.279	0.008
-730.966	757.363	-0.035	-0.094
-729.952	93.828	0.266	0.303
-728.937	54.328	-0.331	-0.320
-727.923	-200.000	-0.012	-0.069
-726.908	3.480	-0.055	0.040
-725.894	-61.299	-0.090	0.038
-724.879	-65.967	-0.299	-0.120
-723.864	169.142	0.068	-0.097
-722.850	302.159	-0.251	-0.467
-721.835	519.689	-0.070	-0.165
-720.821	-31.796	0.055	-0.031
-719.806	-161.002	-0.150	0.008
-718.791	12.446	-0.388	-0.300
-717.777	113.709	-0.224	-0.273
-716.762	-200.000	0.072	0.323
-715.748	-83.956	0.035	0.011
-714.733	40.734	0.171	0.154
-713.718	-200.000	-0.002	0.116
-712.704	49.704	0.118	0.111
-711.689	-103.899	-0.084	-0.020
-710.675	-23.051	-0.185	-0.112
-709.660	-134.158	0.319	-0.040
-708.645	165.854	0.151	-0.215
-707.631	800.000	0.042	-0.157
-706.616	-200.000	-0.019	-0.234
-705.602	800.000	-0.025	-0.070
-704.587	244.646	-0.144	-0.243
-703.572	7.145	0.288	-0.216
-702.558	53.998	-0.059	-0.057
-701.543	-116.217	-0.288	0.054
-700.529	-63.169	-0.123	-0.051
-699.514	17.686	0.262	-0.209
-698.499	800.000	0.017	0.065
-697.485	60.097	0.158	-0.157
-696.470	-200.000	-0.001	-0.305
-695.456	-200.000	-0.027	0.148
-694.441	800.000	-0.051	-0.179
-693.426	-24.362	-0.101	-0.060
-692.412	61.117	0.149	0.148
-691.397	-81.865	0.152	-0.050
-690.383	800.000	-0.013	0.050
-689.368	-200.000	-0.006	-0.255
-688.354	160.569	0.154	0.216
-687.339	-18.703	-0.040	-0.025
-686.324	326.257	0.007	0.013
-685.310	800.000	-0.046	-0.175
-684.295	77.173	-0.223	-0.237
-683.281	529.679	0.097	0.230
-682.266	-200.000	0.024	-0.167
-681.251	144.423	-0.080	0.107
-680.237	-128.561	-0.067	0.009
-679.222	230.360	0.049	-0.080
-678.208	249.828	0.040	-0.069
-677.193	142.140	-0.192	-0.256
-676.178	256.578	0.177	-0.305
-675.164	-200.000	-0.016	0.242
-674.149	-74.776	0.101	0.036
-673.135	-2.172	-0.223	-0.157
-672.120	-81.757	-0.112	-0.037
-671.105	800.000	0.170	-0.543
-670.091	-19.132	-0.394	-0.245
-669.076	-74.189	0.148	0.054
-668.062	-200.000	0.012	-0.069
-667.047	-200.000	-0.359	0.002
-666.032	156.915	-0.147	-0.203
-665.018	-18.301	-0.154	0.097
-664.003	-136.545	0.190	-0.022
-662.989	-124.018	-0.143	-0.023
-661.974	-97.502	0.163	0.042
-660.959	-7.508	0.320	-0.217
-659.945	-200.000	-0.014	0.225
-658.930	228.897	-0.188	0.308
-657.916	-46.167	0.261	0.129
-656.901	59.378	-0.121	-0.120
-655.886	176.765	-0.223	0.325
-654.872	-42.397	-0.201	0.103
-653.857	549.743	0.028	0.067
-652.843	-200.000	-0.010	0.201
-651.828	-200.000	-0.032	-0.298
-650.814	-173.254	0.504	-0.015
-649.799	-200.000	-0.039	-0.231
-648.784	158.570	0.116	0.161
-647.770	87.038	0.261	-0.289
-646.755	-124.189	0.042	-0.007
-645.741	147.716	-0.163	0.220
-644.726	-139.067	0.342	0.037
-643.711	174.141	0.213	-0.307
-642.697	-200.000	-0.049	-0.316
-641.682	-200.000	0.020	0.251
-640.668	-145.463	0.112	0.010
-639.653	418.881	0.052	-0.112
-638.638	-124.796	-0.322	0.050
-637.624	188.813	-0.187	-0.280
-636.609	123.425	-0.230	-0.288
-635.595	143.190	0.141	0.188
-634.580	800.000	-0.027	0.079
-633.565	-200.000	0.001	-0.346
-632.551	-200.000	0.034	0.200
-631.536	280.572	0.166	-0.297
-630.522	-37.037	-0.242	0.130
-629.507	-28.227	-0.123	-0.071
-628.492	-200.000	0.010	-0.112
-627.478	277.584	0.112	-0.199
-626.463	-97.931	-0.227	0.059
-625.449	-66.975	0.187	0.074
-624.434	342.814	0.116	-0.228
-623.419	800.000	0.083	0.314
-622.405	-101.004	0.117	-0.029
-621.390	116.708	0.116	0.142
-620.376	21.770	-0.139	0.113
-619.361	33.655	-0.248	-0.216
-618.346	-88.942	-0.075	0.022
-617.332	-52.872	0.358	0.165
-616.317	-77.967	-0.125	-0.043
-615.303	33.744	-0.173	-0.151
-614.288	234.245	0.030	-0.050
-613.273	-49.211	0.077	0.037
-612.259	-200.000	-0.010	0.119
-611.244	150.635	-0.130	-0.176
-610.230	-37.403	-0.212	-0.113
-609.215	77.624	0.028	0.029
-608.201	47.374	-0.215	0.200
-607.186	800.000	-0.057	-0.244
-606.171	742.166	-0.113	-0.305
-605.157	-200.000	0.073	0.000
-604.142	-106.015	-0.433	0.097
-603.128	562.455	0.049	-0.120
-602.113	567.564	-0.082	-0.199
-601.098	46.495	0.193	-0.179
-600.084	-116.681	0.061	-0.011
-599.069	240.961	0.031	-0.052
-598.055	-84.692	-0.188	-0.059
-597.040	178.651	0.176	0.257
-596.025	-46.690	0.432	0.211
-595.011	18.612	-0.225	-0.180
-593.996	103.156	-0.107	-0.125
-592.982	-1.884	-0.160	-0.112
-591.967	-188.851	-0.283	0.003
-590.952	-118.462	0.253	-0.045
-589.938	-112.181	-0.294	0.059
-588.923	4.916	-0.143	-0.105
-587.909	800.000	0.057	0.177
-586.894	-137.009	-0.243	0.028
-585.879	397.998	-0.082	-0.172
-584.865	-200.000	-0.084	-0.389
-583.850	-71.091	-0.077	-0.029
-582.836	-80.841	0.416	-0.138
-581.821	43.908	-0.114	0.104
-580.806	-101.378	-0.237	-0.058
-579.792	-200.000	-0.004	0.082
-578.777	-117.854	0.048	-0.009
-577.763	293.659	0.090	-0.164
-576.748	-125.020	0.147	0.023
-575.733	65.836	-0.155	0.156
-574.719	97.570	-0.308	0.354
-573.704	-40.623	-0.109	-0.056
-572.690	120.022	-0.117	-0.145
-571.675	-85.961	0.177	0.055
-570.661	287.664	-0.033	0.060
-569.646	-110.857	-0.162	0.033
-568.631	-200.000	-0.067	0.372
-567.617	-96.895	0.210	-0.055
-566.602	-58.878	-0.164	0.071
-565.588	321.450	0.020	0.039
-564.573	-56.163	0.395	0.176
-563.558	99.321	0.030	-0.035
-562.544	-50.720	0.165	-0.078
-561.529	-93.712	0.113	0.031
-560.515	-200.000	-0.036	-0.338
-559.500	30.749	-0.104	-0.089
-558.485	-173.908	0.059	0.002
-557.471	519.872	-0.153	-0.357
-556.456	-89.755	-0.276	-0.081
-555.442	-44.033	-0.010	-0.005
-554.427	-113.995	-0.160	0.031
-553.412	-154.653	0.089	-0.006
-552.398	131.395	-0.059	-0.076
-551.383	-167.384	-0.367	0.015
-550.369	800.000	0.038	-0.158
-549.354	361.687	0.015	0.031
-548.339	18.278	-0.113	0.090
-547.325	-200.000	0.075	-0.407
-546.310	-200.000	-0.019	-0.086
-545.296	800.000	-0.033	-0.121
-544.281	-20.116	0.127	0.078
-543.266	-39.481	-0.243	-0.127
-542.252	81.980	-0.257	0.278
-541.237	66.167	0.140	0.141
-540.223	275.998	0.053	-0.094
-539.208	123.768	0.091	0.114
-538.193	-200.000	-0.226	0.001
-537.179	-93.189	-0.239	0.066
-536.164	-16.238	0.339	0.215
-535.150	30.744	0.075	-0.064
-534.135	107.958	0.095	0.113
-533.121	694.969	-0.035	-0.092
-532.106	-77.423	0.122	0.042
-531.091	-200.000	0.009	0.282
-530.077	308.637	-0.070	0.131
-529.062	-200.000	-0.021	-0.294
-528.048	-200.000	0.022	0.353
-527.033	85.118	-0.094	-0.103
-526.018	-200.000	0.017	0.152
-525.004	254.651	0.059	0.101
-523.989	50.421	-0.214	0.202
-522.975	-200.000	0.003	0.077
-521.960	50.681	-0.222	-0.210
-520.945	355.762	0.099	0.195
-519.931	-200.000	0.015	0.227
-518.916	-73.601	0.498	-0.181
-517.902	-200.000	-0.021	-0.152
-516.887	-200.000	-0.037	-0.217
-515.872	-10.671	0.301	-0.198
-514.858	-200.000	0.015	-0.092
-513.843	-36.360	-0.168	0.090
-512.829	-74.625	-0.252	-0.090
-511.814	800.000	-0.050	0.164
-510.799	151.469	0.108	0.146
-509.785	-105.040	-0.026	-0.006
-508.770	-164.437	0.133	-0.006
-507.756	28.354	-0.119	-0.100
-506.741	61.094	-0.246	-0.243
-505.726	75.546	0.211	-0.222
-504.712	-49.208	0.181	-0.086
-503.697	-76.296	-0.224	0.079
-502.683	800.000	0.095	-0.267
-501.668	-106.494	-0.447	-0.099
-500.653	-80.086	0.205	0.069
-499.639	248.206	-0.068	0.114
-498.624	-200.000	0.018	-0.108
-497.610	-56.839	0.198	0.087
-496.595	-200.000	0.008	-0.094
-495.581	-200.000	-0.011	0.124
-494.566	30.817	-0.370	-0.316
-493.551	-200.000	-0.084	-0.388
-492.537	122.240	-0.128	0.160
-491.522	14.663	-0.253	0.197
-490.508	-200.000	0.036	-0.263
-489.493	432.045	0.083	0.179
-488.478	782.099	0.086	0.234
-487.464	66.564	0.043	-0.044
-486.449	401.939	-0.138	0.288
-485.435	-200.000	-0.005	0.143
-484.420	108.617	0.240	-0.285
-483.405	-200.000	-0.039	-0.176
-482.391	-117.897	0.117	0.021
-481.376	800.000	-0.022	-0.064
-480.362	148.338	0.264	0.355
-479.347	57.027	-0.366	0.355
-478.332	-12.148	-0.093	0.061
-477.318	28.467	0.291	-0.244
-476.303	-180.424	-0.314	-0.006
-475.289	-151.824	0.208	-0.015
-474.274	-200.000	0.063	-0.374
-473.259	-26.636	0.227	-0.132
-472.245	50.884	0.169	-0.159
-471.230	-200.000	-0.061	0.368
-470.216	-130.696	-0.196	-0.026
-469.201	30.266	-0.145	-0.124
-468.186	-200.000	-0.092	-0.413
-467.172	194.875	-0.161	0.242
-466.157	-92.923	0.106	0.030
-465.143	38.108	0.139	0.123
-464.128	-87.526	0.254	0.077
-463.113	17.648	0.182	0.144
-462.099	800.000	-0.083	0.275
-461.084	-200.000	-0.016	-0.225
-460.070	-90.516	-0.161	-0.046
-459.055	-157.365	-0.473	-0.028
-458.040	-111.336	0.180	-0.036
-457.026	2.889	0.228	0.165
-456.011	-167.868	-0.166	-0.006
-454.997	-95.221	-0.150	0.040
-453.982	-17.660	-0.084	-0.052
-452.968	-200.000	-0.002	-0.108
-451.953	-200.000	-0.055	-0.401
-450.938	-18.680	0.333	0.206
-449.924	28.834	-0.179	0.151
-448.909	-91.692	-0.130	0.037
-447.895	258.213	-0.077	-0.132
-446.880	800.000	-0.086	0.297
-445.865	108.773	-0.031	0.037
-444.851	-86.435	0.159	0.048
-443.836	176.104	0.152	0.220
-442.822	71.472	-0.276	0.285
-441.807	800.000	0.073	-0.277
-440.792	-200.000	-0.041	-0.387
-439.778	233.473	0.051	-0.084
-438.763	800.000	0.033	-0.136
-437.749	34.272	-0.321	-0.278
-436.734	-137.101	-0.265	0.030
-435.719	14.420	-0.193	-0.150
-434.705	78.420	0.096	-0.102
-433.690	47.476	-0.101	-0.094
-432.676	-59.942	0.434	0.184
-431.661	-56.622	-0.263	-0.116
-430.646	-24.284	0.110	0.065
-429.632	-200.000	0.021	0.412
-428.617	-200.000	0.000	0.119
-427.603	-150.609	-0.273	-0.021
-426.588	-200.000	0.015	0.231
-425.573	-200.000	-0.024	0.260
-424.559	-43.212	0.190	-0.095
-423.544	-83.704	-0.177	-0.056
-422.530	-57.325	-0.325	-0.142
-421.515	52.499	-0.140	-0.133
-420.500	10.901	0.235	0.178
-419.486	262.254	0.058	0.101
-418.471	-200.000	-0.003	-0.074
-417.457	71.440	-0.126	0.130
-416.442	-129.832	0.147	0.020
-415.428	-200.000	0.018	-0.142
-414.413	-200.000	-0.008	-0.271
-413.398	286.943	0.062	-0.111
-412.384	-200.000	0.035	-0.290
-411.369	50.895	0.357	0.336
-410.355	-99.163	0.292	0.073
-409.340	-184.993	0.201	0.003
-408.325	800.000	0.065	-0.186
-407.311	47.817	-0.047	-0.044
-406.296	307.156	0.349	0.644
-405.282	626.463	0.115	-0.287
-404.267	-135.386	-0.385	-0.046
-403.252	517.983	-0.026	0.059
-402.238	-200.000	-0.027	-0.141
-401.223	-39.941	0.214	0.111
-400.209	-162.731	-0.043	-0.002
-399.194	800.000	-0.027	-0.090
-398.179	-67.757	0.260	-0.101
-397.165	-144.260	0.365	-0.034
-396.150	-31.515	0.187	-0.104
-395.136	193.254	-0.096	0.144
-394.121	-141.988	0.123	0.012
-393.106	395.296	0.138	0.285
-392.092	-88.541	-0.266	-0.079
-391.077	64.596	0.135	0.135
-390.063	111.902	-0.127	0.152
-389.048	-144.581	0.129	-0.012
-388.033	591.431	0.131	-0.321
-387.019	-200.000	0.003	-0.128
-386.004	800.000	0.068	0.227
-384.990	8.743	-0.103	0.077
-383.975	64.729	-0.106	-0.106
-382.960	-132.925	0.494	-0.062
-381.946	800.000	0.018	-0.054
-380.931	33.597	0.354	0.305
-379.917	-200.000	0.042	-0.244
-378.902	75.930	0.090	-0.095
-377.888	122.081	0.056	0.069
-376.873	-27.048	-0.235	0.136
-375.858	-8.587	-0.113	-0.075
-374.844	-96.952	0.260	0.067
-373.829	598.575	0.089	0.220
-372.815	-50.440	0.188	-0.088
-371.800	211.659	0.113	-0.177
-370.785	-94.493	-0.163	-0.044
-369.771	-200.000	0.003	0.312
-368.756	-66.548	-0.131	0.051
-367.742	-6.987	-0.402	-0.270
-366.727	395.154	0.128	-0.265
-365.712	-152.447	-0.301	-0.021
-364.698	-82.445	0.208	-0.067
-363.683	800.000	-0.075	-0.256
-362.669	161.249	0.303	0.420
-361.654	97.550	-0.119	-0.136
-360.639	-113.283	0.294	-0.057
-359.625	-200.000	0.000	-0.277
-358.610	6.527	-0.296	-0.218
-357.596	-189.979	0.416	-0.005
-356.581	-80.754	-0.274	-0.090
-355.566	-200.000	0.002	-0.012
-354.552	-66.561	0.189	-0.074
-353.537	38.705	0.142	0.126
-352.523	-27.864	-0.064	0.037
-351.508	502.789	-0.124	0.284
-350.493	800.000	0.015	0.046
-349.479	-200.000	-0.154	0.000
-348.464	396.135	0.063	0.130
-347.450	29.944	0.269	-0.227
-346.435	631.305	0.093	-0.234
-345.420	-101.592	-0.280	-0.067
-344.406	-200.000	-0.045	0.407
-343.391	-79.389	-0.140	-0.047
-342.377	-200.000	0.023	0.307
-341.362	-92.172	0.115	-0.032
-340.348	474.004	0.061	0.136
-339.333	40.139	0.227	-0.202
-338.318	165.470	-0.119	-0.166
-337.304	-200.000	-0.072	0.403
-336.289	-200.000	-0.007	-0.029
-335.275	163.965	0.029	0.041
-334.260	212.632	0.078	-0.122
-333.245	-79.925	-0.035	-0.012
-332.231	-106.028	0.218	-0.048
-331.216	-129.856	-0.372	-0.051
-330.202	-112.638	0.101	0.020
-329.187	800.000	0.063	-0.219
-328.172	123.572	-0.103	0.128
-327.158	-145.274	-0.353	0.032
-326.143	-200.000	0.013	0.257
-325.129	-200.000	-0.048	0.396
-324.114	-200.000	-0.009	0.108
-323.099	-38.831	0.115	0.060
-322.085	-180.462	-0.262	0.005
-321.070	20.729	-0.156	-0.125
-320.056	800.000	0.095	0.263
-319.041	92.994	0.248	0.277
-318.026	-121.383	-0.258	-0.043
-317.012	-28.503	-0.219	0.125
-315.997	-149.732	-0.101	-0.008
-314.983	304.448	0.091	0.167
-313.968	-200.000	-0.015	-0.224
-312.953	28.522	0.052	-0.043
-311.939	-164.211	0.081	-0.004
-310.924	-63.432	-0.434	0.177
-309.910	-200.000	0.013	-0.227
-308.895	-71.170	-0.179	0.067
-307.880	-196.322	-0.170	-0.001
-306.866	-78.960	0.264	0.089
-305.851	-117.022	0.091	0.016
-304.837	800.000	-0.021	0.068
-303.822	211.581	0.136	-0.212
-302.807	-16.181	-0.304	-0.191
-301.793	0.743	-0.220	-0.156
-300.778	-128.115	0.195	-0.028
-299.764	800.000	-0.070	-0.267
-298.749	-101.978	-0.129	-0.031
-297.735	85.122	-0.193	-0.209
-296.720	256.923	0.085	0.145
-295.705	-124.655	0.105	-0.016
-294.691	-77.909	-0.234	0.080
-293.676	271.598	0.154	0.268
-292.662	-200.000	-0.086	-0.421
-291.647	90.358	-0.052	0.057
-290.632	-88.680	0.296	-0.087
-289.618	17.939	0.235	0.185
-288.603	800.000	-0.005	0.016
-287.589	65.736	-0.242	0.242
-286.574	303.044	0.112	-0.204
-285.559	-185.561	0.111	0.002
-284.545	-35.244	-0.225	-0.121
-283.530	-91.766	-0.189	0.053
-282.516	-100.602	0.255	0.062
-281.501	-38.940	0.160	-0.083
-280.486	-200.000	-0.015	-0.231
-279.472	43.518	-0.060	-0.054
-278.457	-92.762	0.184	-0.051
-277.443	20.330	0.138	-0.110
-276.428	-154.552	0.099	-0.007
-275.413	296.889	-0.196	0.354
-274.399	-8.049	0.212	0.141
-273.384	15.528	-0.258	-0.200
-272.370	-200.000	0.006	0.116
-271.355	800.000	-0.039	0.155
-270.340	-118.039	0.199	-0.035
-269.326	433.689	-0.196	-0.421
-268.311	-44.486	0.165	-0.082
-267.297	9.935	0.022	-0.016
-266.282	-46.574	-0.177	-0.086
-265.267	168.736	-0.086	-0.121
-264.253	-94.983	0.166	-0.044
-263.238	-130.258	0.219	-0.029
-262.224	-27.883	0.094	-0.054
-261.209	-200.000	0.004	0.184
-260.195	359.252	0.091	-0.180
-259.180	275.367	0.108	0.189
-258.165	-71.971	0.324	0.119
-257.151	544.675	-0.172	0.406
-256.136	-200.000	0.036	0.347
-255.122	349.900	0.119	-0.232
-254.107	-193.644	0.120	0.001
-253.092	408.219	-0.072	0.149
-252.078	-176.270	-0.312	-0.008
-251.063	800.000	0.063	-0.202
-250.049	-87.703	0.007	-0.002
-249.034	-46.756	0.354	0.171
-248.019	-200.000	-0.031	-0.229
-247.005	593.381	0.121	-0.296
-245.990	-200.000	-0.101	0.000
-244.976	-20.080	-0.145	-0.088
-243.961	-156.141	-0.175	-0.011
-242.946	-115.613	-0.232	0.043
-241.932	-140.513	0.098	0.010
-240.917	-54.013	-0.361	0.162
-239.903	69.935	0.161	0.163
-238.888	-200.000	0.013	0.229
-237.873	346.072	-0.149	0.289
-236.859	541.606	0.047	-0.111
-235.844	275.481	0.067	-0.116
-234.830	13.031	-0.206	-0.157
-233.815	-200.000	0.042	-0.192
-232.800	-200.000	0.001	0.156
-231.786	-17.164	-0.196	0.122
-230.771	470.374	0.114	0.252
-229.757	-65.537	-0.116	-0.046
-228.742	-200.000	-0.011	-0.098
-227.727	-67.475	0.168	-0.065
-226.713	-126.710	-0.290	0.042
-225.698	-20.121	0.052	-0.032
-224.684	-81.561	-0.248	-0.080
-223.669	-11.313	0.099	0.064
-222.655	178.258	0.089	-0.128
-221.640	-200.000	0.025	0.258
-220.625	129.133	0.097	0.122
-219.611	243.156	0.106	-0.175
-218.596	10.829	0.086	0.064
-217.582	-5.605	0.110	0.074
-216.567	392.526	-0.133	0.272
-215.552	325.288	-0.106	0.199
-214.538	-200.000	0.034	-0.243
-213.523	-108.736	-0.189	-0.040
-212.509	165.477	0.125	0.174
-211.494	43.572	0.107	0.096
-210.479	-187.666	0.157	-0.002
-209.465	96.005	-0.058	0.065
-208.450	8.002	0.385	0.285
-207.436	310.455	0.063	-0.115
-206.421	-21.369	0.167	0.101
-205.406	-25.476	0.222	0.129
-204.392	-200.000	-0.058	-0.266
-203.377	-46.030	0.155	0.075
-202.363	-195.374	0.268	0.002
-201.348	-200.000	-0.036	-0.181
-200.333	-13.141	0.262	0.168
-199.319	215.092	0.099	0.154
-198.304	-92.798	-0.344	0.095
-197.290	-122.701	-0.333	0.053
-196.275	214.802	0.105	0.163
-195.260	-144.944	0.128	0.012
-194.246	403.799	0.061	0.125
-193.231	-36.930	0.274	-0.145
-192.217	321.896	-0.148	0.277
-191.202	37.442	-0.084	0.073
-190.187	-14.350	0.128	0.081
-189.173	-26.668	-0.240	0.138
-188.158	-152.172	-0.104	-0.007
-187.144	119.960	-0.177	-0.216
-186.129	-50.147	0.142	-0.066
-185.114	-127.776	0.178	0.025
-184.100	101.648	0.103	0.118
-183.085	800.000	-0.107	0.291
-182.071	-150.481	0.099	0.007
-181.056	-146.114	0.183	-0.016
-180.042	-21.744	0.200	-0.120
-179.027	-123.423	-0.396	0.062
-178.012	800.000	-0.033	-0.128
-176.998	-127.339	0.136	0.020
-175.983	-200.000	-0.025	-0.198
-174.969	-200.000	0.007	0.089
-173.954	-68.206	0.182	0.070
-172.939	-10.782	-0.114	-0.074
-171.925	-34.339	-0.129	-0.069
-170.910	-200.000	0.027	-0.136
-169.896	231.761	0.149	-0.240
-168.881	-142.144	0.184	-0.018
-167.866	-186.277	-0.137	0.002
-166.852	-141.329	-0.198	-0.020
-165.837	800.000	-0.063	0.255
-164.823	-150.472	-0.096	0.007
-163.808	-200.000	-0.006	0.190
-162.793	44.943	-0.234	-0.211
-161.779	800.000	0.077	0.228
-160.764	-21.545	-0.086	0.052
-159.750	-15.687	0.141	-0.088
-158.735	-200.000	0.008	0.206
-157.720	40.953	0.203	0.180
-156.706	800.000	-0.099	-0.291
-155.691	-177.571	-0.215	-0.005
-154.677	-200.000	0.043	0.436
-153.662	-98.651	0.507	0.127
-152.647	-140.873	0.198	0.020
-151.633	625.288	0.096	0.237
-150.618	224.412	0.124	-0.197
-149.604	-121.397	0.218	0.036
-148.589	-192.195	-0.035	-0.000
-147.574	800.000	-0.125	-0.456
-146.560	800.000	0.070	0.241
-145.545	-151.313	0.297	-0.022
-144.531	-82.437	-0.078	0.025
-143.516	-200.000	-0.005	0.153
-142.502	-25.532	-0.211	-0.122
-141.487	-9.369	0.133	-0.087
-140.472	251.196	0.079	0.132
-139.458	184.127	0.113	0.164
-138.443	-48.678	0.284	0.134
-137.429	-115.144	-0.139	-0.026
-136.414	-24.066	0.147	-0.086
-135.399	-71.154	-0.149	-0.055
-134.385	-67.520	0.294	-0.113
-133.370	32.137	0.117	-0.099
-132.356	800.000	0.060	0.251
-131.341	158.851	-0.057	0.078
-130.326	308.392	0.149	0.272
-129.312	-171.804	-0.068	-0.002
-128.297	-94.548	0.136	-0.036
-127.283	-80.961	0.211	0.069
-126.268	-42.694	0.121	-0.061
-125.253	602.713	-0.072	-0.175
-124.239	-126.962	0.253	0.036
-123.224	85.550	0.183	-0.198
-122.210	-118.480	0.066	0.012
