DTS Sentinel unit serial number:	SN413079Multiplexer serial number:	ORYXHardware model number:	OX4-SRSoftware version number:	ORYX F/W v4.00 Oryx Data Collector v3.7.2.0data status	okinstallation	princeton_trtdifferential loss correction	single-endedforward channel	channel 4reverse channel	N/Adate	2019/09/15time	13:05:35forward acquisition time	60.00reverse acquisition time	0.00gamma	496.2192k internal	0.2292k external	0.2292temperature offset calibration	1.0005default loss term (dB/km)	0.3790temperature slope calibration	1.0000multiplexer offset coefficient	1.0000multiplexer slope coefficient	1.0000fibre end	0.00T internal ref (°C)	36.69T ext. ref 1 (°C)	4.97T ext. ref 2 (°C)	35.02length (m)	temperature (°C)	Stokes	anti-Stokes-747.200	267.808	-0.036	-0.064
-746.185	-104.448	-0.258	-0.061
-745.171	800.000	0.080	-0.318
-744.156	800.000	0.012	-0.053
-743.142	800.000	-0.054	0.239
-742.127	-200.000	-0.024	0.112
-741.112	-152.408	0.255	-0.019
-740.098	-90.159	-0.181	0.054
-739.083	-83.661	-0.131	0.043
-738.069	683.333	0.097	0.259
-737.054	-127.750	0.196	0.029
-736.039	-83.692	-0.191	-0.063
-735.025	800.000	-0.015	0.047
-734.010	165.655	0.054	-0.079
-732.996	-200.000	-0.033	-0.247
-731.981	800.000	-0.044	-0.145
-730.966	-200.000	-0.025	-0.122
-729.952	800.000	0.026	-0.100
-728.937	235.905	-0.092	-0.155
-727.923	280.546	0.156	0.285
-726.908	-60.199	-0.248	-0.108
-725.894	230.578	-0.161	-0.270
-724.879	-162.099	-0.194	0.010
-723.864	-168.110	-0.363	0.014
-722.850	262.926	-0.172	-0.305
-721.835	41.186	-0.225	0.208
-720.821	-66.215	-0.205	-0.083
-719.806	38.062	-0.135	0.123
-718.791	800.000	-0.019	0.072
-717.777	-200.000	0.035	0.248
-716.762	800.000	0.134	0.488
-715.748	800.000	0.055	0.161
-714.733	-66.939	-0.433	0.175
-713.718	-185.102	0.217	0.003
-712.704	724.438	0.045	0.123
-711.689	-115.421	0.209	-0.040
-710.675	193.741	0.050	0.077
-709.660	19.637	-0.225	0.185
-708.645	539.832	0.061	-0.149
-707.631	-79.075	0.186	-0.064
-706.616	78.869	0.058	0.064
-705.602	-149.108	0.314	0.026
-704.587	-200.000	-0.030	-0.201
-703.572	800.000	-0.179	-0.522
-702.558	-200.000	0.045	0.208
-701.543	800.000	-0.043	0.176
-700.529	287.309	-0.107	0.198
-699.514	-70.622	-0.178	-0.069
-698.499	293.914	-0.147	-0.275
-697.485	164.130	0.060	0.087
-696.470	-57.037	-0.185	-0.083
-695.456	-88.478	-0.285	-0.087
-694.441	800.000	0.027	0.086
-693.426	193.438	-0.023	0.036
-692.412	39.585	-0.084	-0.077
-691.397	-97.605	-0.334	-0.088
-690.383	108.568	-0.107	-0.130
-689.368	-68.214	0.373	-0.148
-688.354	800.000	-0.011	0.039
-687.339	275.622	-0.151	-0.273
-686.324	707.101	0.018	0.049
-685.310	-47.298	0.174	0.086
-684.295	260.322	-0.183	-0.323
-683.281	90.129	-0.101	-0.115
-682.266	8.105	-0.071	-0.054
-681.251	-65.015	0.253	-0.104
-680.237	-93.690	-0.350	-0.099
-679.222	-191.794	-0.124	0.001
-678.208	800.000	-0.048	-0.200
-677.193	-200.000	0.010	0.099
-676.178	-49.824	-0.108	-0.052
-675.164	-200.000	-0.033	0.000
-674.149	392.984	0.058	-0.124
-673.135	-151.904	0.327	-0.024
-672.120	102.465	-0.081	-0.096
-671.105	-200.000	-0.024	0.316
-670.091	586.265	-0.112	-0.281
-669.076	402.423	0.162	-0.348
-668.062	300.817	-0.191	-0.360
-667.047	-92.558	0.144	0.041
-666.032	-116.841	-0.180	0.034
-665.018	111.989	-0.195	-0.240
-664.003	10.617	0.239	-0.186
-662.989	-200.000	-0.002	-0.052
-661.974	-108.378	-0.179	-0.039
-660.959	-1.074	-0.180	-0.130
-659.945	-4.523	-0.070	-0.049
-658.930	264.971	0.102	-0.181
-657.916	-63.666	0.056	0.023
-656.901	167.796	-0.141	0.204
-655.886	-200.000	-0.038	-0.442
-654.872	-113.971	0.060	0.012
-653.857	-6.530	-0.218	-0.151
-652.843	-114.487	-0.041	-0.008
-651.828	800.000	0.036	-0.111
-650.814	-200.000	-0.041	0.201
-649.799	-200.000	0.030	-0.338
-648.784	-115.261	-0.371	-0.072
-647.770	296.530	-0.066	0.124
-646.755	800.000	-0.036	0.151
-645.741	800.000	-0.065	-0.208
-644.726	14.223	-0.034	0.027
-643.711	-142.511	0.195	0.019
-642.697	-91.831	0.489	-0.141
-641.682	-176.500	0.223	-0.006
-640.668	-148.962	0.057	-0.005
-639.653	-98.739	0.273	-0.071
-638.638	56.085	-0.154	-0.152
-637.624	14.590	-0.284	0.226
-636.609	-200.000	-0.003	-0.117
-635.595	747.830	0.089	-0.245
-634.580	-102.465	-0.130	-0.032
-633.565	181.533	-0.089	-0.133
-632.551	-112.279	0.283	0.058
-631.536	-92.050	-0.197	0.057
-630.522	100.214	0.194	0.229
-629.507	105.560	0.066	-0.080
-628.492	800.000	-0.057	0.171
-627.478	-142.307	-0.201	0.020
-626.463	15.086	0.273	-0.218
-625.449	800.000	-0.029	0.100
-624.434	-200.000	-0.023	0.277
-623.419	40.025	-0.292	-0.267
-622.405	651.234	-0.059	-0.153
-621.390	-200.000	-0.033	-0.266
-620.376	-120.094	0.201	-0.035
-619.361	800.000	-0.118	-0.454
-618.346	225.415	0.283	0.466
-617.332	150.996	0.025	0.034
-616.317	-130.299	0.053	-0.007
-615.303	128.016	0.025	0.032
-614.288	-48.298	0.191	-0.094
-613.273	-149.991	-0.212	0.017
-612.259	-131.579	-0.477	0.064
-611.244	163.928	-0.111	0.159
-610.230	800.000	0.012	-0.038
-609.215	403.029	0.042	-0.091
-608.201	-76.858	-0.096	-0.034
-607.186	-80.378	-0.100	-0.034
-606.171	-200.000	-0.038	-0.260
-605.157	-96.644	0.232	0.062
-604.142	-200.000	0.025	-0.114
-603.128	326.622	-0.098	-0.191
-602.113	58.333	0.064	-0.064
-601.098	-200.000	-0.049	0.238
-600.084	409.876	-0.086	-0.185
-599.069	584.147	0.149	-0.372
-598.055	-67.847	0.370	-0.147
-597.040	67.023	-0.214	-0.222
-596.025	169.159	0.191	0.277
-595.011	343.103	-0.050	0.099
-593.996	31.578	0.263	0.230
-592.982	-60.497	0.124	-0.054
-591.967	418.118	0.023	0.049
-590.952	-54.581	0.175	-0.080
-589.938	800.000	0.032	0.143
-588.923	-50.418	-0.130	0.063
-587.909	800.000	0.066	-0.196
-586.894	405.787	0.200	0.430
-585.879	-83.761	-0.088	-0.029
-584.865	-130.625	0.122	-0.017
-583.850	-59.683	0.234	0.102
-582.836	-76.771	0.325	0.116
-581.821	-88.766	-0.239	-0.072
-580.806	-74.965	0.172	-0.063
-579.792	-127.312	0.127	-0.019
-578.777	-11.860	0.424	0.283
-577.763	52.239	0.111	-0.108
-576.748	-127.227	0.331	-0.049
-575.733	-94.847	-0.109	0.030
-574.719	-89.759	-0.085	0.025
-573.704	-151.020	-0.473	0.036
-572.690	208.195	0.156	-0.248
-571.675	-13.977	0.245	-0.161
-570.661	94.462	0.197	0.228
-569.646	104.930	0.182	0.218
-568.631	-91.820	-0.243	0.070
-567.617	-68.527	-0.100	0.039
-566.602	-29.247	0.242	-0.141
-565.588	-13.651	-0.096	0.063
-564.573	-149.328	-0.248	-0.020
-563.558	-79.146	-0.185	0.064
-562.544	63.775	-0.028	0.029
-561.529	-65.886	0.100	0.041
-560.515	558.923	0.124	-0.305
-559.500	39.215	-0.302	-0.275
-558.485	18.173	-0.152	0.123
-557.471	124.253	-0.172	-0.220
-556.456	-78.361	-0.234	0.082
-555.442	41.997	0.148	-0.136
-554.427	253.301	-0.143	0.247
-553.412	150.152	0.111	-0.153
-552.398	270.860	-0.023	0.042
-551.383	59.371	0.190	0.190
-550.369	800.000	0.010	0.041
-549.354	-142.791	0.261	0.026
-548.339	166.902	-0.051	0.073
-547.325	-200.000	-0.049	0.452
-546.310	283.746	0.146	0.267
-545.296	84.066	0.129	0.143
-544.281	-200.000	0.020	-0.361
-543.266	800.000	0.143	-0.526
-542.252	-71.950	-0.331	0.125
-541.237	275.949	-0.117	-0.212
-540.223	-113.765	-0.152	0.030
-539.208	-200.000	0.075	-0.366
-538.193	25.446	-0.214	-0.181
-537.179	-200.000	0.013	-0.312
-536.164	65.532	-0.199	-0.205
-535.150	95.841	-0.355	0.411
-534.135	-200.000	-0.003	0.129
-533.121	-27.024	-0.207	0.122
-532.106	500.312	0.011	0.027
-531.091	501.504	0.064	0.150
-530.077	31.118	-0.312	-0.272
-529.062	-64.096	-0.194	0.080
-528.048	141.590	0.108	-0.145
-527.033	15.630	-0.076	0.061
-526.018	153.223	0.078	-0.109
-525.004	-48.222	-0.356	0.174
-523.989	-151.180	-0.346	0.026
-522.975	587.640	0.007	0.018
-521.960	800.000	-0.044	0.175
-520.945	288.401	0.141	-0.260
-519.931	-105.222	-0.377	0.087
-518.916	-100.973	0.193	-0.048
-517.902	-132.979	-0.050	0.006
-516.887	-80.186	-0.240	0.081
-515.872	-200.000	0.368	0.001
-514.858	800.000	0.090	-0.369
-513.843	281.191	-0.118	-0.215
-512.829	-93.917	-0.350	-0.098
-511.814	34.335	-0.214	-0.189
-510.799	-104.718	-0.301	0.070
-509.785	-174.629	-0.327	-0.009
-508.770	61.921	0.101	-0.102
-507.756	-14.164	-0.160	-0.104
-506.741	285.059	-0.108	-0.198
-505.726	51.385	0.296	-0.285
-504.712	-127.359	-0.223	0.033
-503.697	38.762	-0.241	0.218
-502.683	-134.716	-0.304	0.037
-501.668	12.093	0.258	-0.201
-500.653	56.936	-0.281	-0.278
-499.639	-92.496	0.089	0.025
-498.624	-165.996	-0.177	-0.008
-497.610	-200.000	-0.010	-0.090
-496.595	-47.390	0.221	0.109
-495.581	-200.000	0.047	-0.254
-494.566	-200.000	0.001	0.022
-493.551	548.828	0.086	0.209
-492.537	-129.175	-0.325	-0.046
-491.522	90.146	0.305	0.346
-490.508	-200.000	0.043	0.248
-489.493	-33.836	0.315	-0.176
-488.478	-200.000	-0.087	0.427
-487.464	-140.137	-0.035	0.004
-486.449	-84.153	-0.062	-0.020
-485.435	800.000	0.035	-0.121
-484.420	91.771	0.151	0.172
-483.405	234.497	0.156	0.260
-482.391	265.826	-0.087	0.153
-481.376	53.498	0.172	-0.168
-480.362	-74.964	-0.034	0.013
-479.347	-200.000	0.045	0.262
-478.332	-143.367	-0.326	0.032
-477.318	772.291	-0.083	-0.229
-476.303	-26.962	0.072	0.042
-475.289	-46.790	0.190	-0.094
-474.274	-139.312	-0.356	-0.039
-473.259	-62.606	-0.193	0.081
-472.245	-18.559	0.178	-0.112
-471.230	623.060	-0.082	0.209
-470.216	800.000	0.046	-0.154
-469.201	-3.245	-0.393	0.278
-468.186	176.667	0.069	-0.102
-467.172	-7.664	-0.112	-0.077
-466.157	800.000	-0.028	-0.110
-465.143	-60.248	-0.090	0.039
-464.128	46.263	-0.144	0.135
-463.113	-200.000	0.052	-0.254
-462.099	-163.174	-0.264	-0.013
-461.084	-64.492	-0.169	0.070
-460.070	-119.763	0.123	0.021
-459.055	43.003	-0.173	-0.160
-458.040	709.906	0.179	0.479
-457.026	325.921	-0.118	0.229
-456.011	61.114	0.123	0.123
-454.997	-99.349	0.415	0.106
-453.982	-131.145	-0.192	-0.026
-452.968	157.752	-0.093	0.130
-451.953	98.268	-0.232	-0.270
-450.938	-200.000	0.062	-0.295
-449.924	72.588	0.123	0.130
-448.909	348.850	0.064	-0.127
-447.895	-200.000	-0.050	0.364
-446.880	1.178	0.141	0.102
-445.865	-139.253	-0.215	-0.023
-444.851	325.528	0.124	-0.241
-443.836	126.406	-0.137	-0.176
-442.822	-22.247	0.361	0.222
-441.807	-154.727	-0.337	-0.023
-440.792	420.333	-0.137	0.296
-439.778	800.000	0.084	0.265
-438.763	267.640	-0.143	-0.253
-437.749	161.871	-0.201	-0.285
-436.734	17.977	0.150	0.121
-435.719	-51.552	-0.233	0.110
-434.705	-144.014	-0.293	-0.028
-433.690	187.279	-0.122	0.184
-432.676	28.128	0.107	-0.091
-431.661	-101.164	-0.225	0.056
-430.646	800.000	0.044	0.130
-429.632	-83.375	0.203	-0.066
-428.617	-200.000	-0.014	0.067
-427.603	63.791	0.066	0.068
-426.588	224.357	-0.215	-0.352
-425.573	-68.214	0.039	0.015
-424.559	145.614	-0.196	-0.265
-423.544	577.862	-0.087	-0.214
-422.530	-44.271	0.097	-0.049
-421.515	-172.800	0.153	-0.005
-420.500	-96.521	-0.126	0.034
-419.486	-200.000	-0.039	-0.199
-418.471	-104.114	-0.047	-0.011
-417.457	-12.669	0.351	-0.231
-416.442	-130.732	0.299	-0.041
-415.428	-27.646	0.230	0.135
-414.413	-182.147	-0.325	-0.006
-413.398	-200.000	-0.000	0.216
-412.384	-124.726	0.090	0.014
-411.369	755.916	-0.018	-0.049
-410.355	-200.000	-0.000	-0.105
-409.340	365.795	0.077	0.157
-408.325	-98.081	0.162	0.042
-407.311	16.958	0.087	-0.069
-406.296	-87.837	-0.209	-0.064
-405.282	-64.374	-0.150	0.061
-404.267	-69.086	-0.217	0.084
-403.252	-49.785	-0.141	-0.068
-402.238	800.000	-0.043	0.186
-401.223	-76.997	-0.372	0.131
-400.209	-75.787	-0.179	0.064
-399.194	-200.000	-0.020	-0.111
-398.179	-46.594	0.228	-0.113
-397.165	765.197	0.098	0.269
-396.150	-15.076	0.123	-0.079
-395.136	73.130	0.169	0.178
-394.121	10.205	0.254	0.195
-393.106	-200.000	0.029	-0.153
-392.092	-145.810	0.154	0.014
-391.077	385.494	-0.168	0.350
-390.063	-105.094	-0.215	0.050
-389.048	-174.760	-0.106	0.003
-388.033	-56.988	0.127	0.057
-387.019	-78.631	-0.371	-0.128
-386.004	-70.780	-0.162	-0.062
-384.990	-102.998	0.065	0.016
-383.975	220.206	0.160	0.259
-382.960	196.562	0.077	-0.119
-381.946	-200.000	0.044	0.452
-380.931	605.161	0.081	-0.204
-379.917	-66.915	0.289	0.115
-378.902	-92.607	-0.215	-0.061
-377.888	800.000	-0.041	-0.169
-376.873	457.110	-0.152	0.341
-375.858	800.000	-0.074	-0.296
-374.844	119.172	0.204	0.255
-373.829	310.896	-0.215	0.406
-372.815	-200.000	-0.053	0.293
-371.800	-140.668	-0.187	0.019
-370.785	99.666	0.164	-0.191
-369.771	-46.015	-0.444	0.221
-368.756	-200.000	-0.041	0.247
-367.742	-200.000	0.051	-0.260
-366.727	-89.073	0.576	-0.172
-365.712	79.367	0.283	-0.306
-364.698	78.140	-0.103	-0.111
-363.683	800.000	0.107	0.409
-362.669	309.660	0.133	0.250
-361.654	-44.730	0.315	-0.158
-360.639	-200.000	0.000	-0.032
-359.625	-93.475	-0.180	0.050
-358.610	-93.776	0.165	-0.046
-357.596	-200.000	0.020	-0.139
-356.581	-200.000	-0.067	-0.392
-355.566	-141.108	0.349	-0.036
-354.552	800.000	-0.038	0.139
-353.537	140.255	0.199	0.265
-352.523	504.707	0.127	0.295
-351.508	82.799	-0.120	0.131
-350.493	329.245	0.108	-0.208
-349.479	173.522	-0.114	-0.166
-348.464	-131.683	0.152	0.020
-347.450	-110.052	-0.346	-0.073
-346.435	228.546	0.059	-0.097
-345.420	800.000	-0.056	-0.173
-344.406	415.056	-0.055	0.118
-343.391	-91.178	-0.409	0.118
-342.377	130.002	-0.220	0.283
-341.362	227.799	0.023	0.038
-340.348	154.696	0.098	0.136
-339.333	-193.214	-0.261	-0.002
-338.318	-113.960	0.289	0.057
-337.304	-82.149	-0.433	-0.142
-336.289	800.000	0.066	-0.254
-335.275	-200.000	-0.007	-0.289
-334.260	-78.008	0.255	0.089
-333.245	208.167	-0.138	0.217
-332.231	-133.171	-0.194	-0.025
-331.216	144.667	0.050	-0.068
-330.202	-103.754	-0.219	0.052
-329.187	562.840	0.020	-0.048
-328.172	800.000	-0.006	-0.022
-327.158	92.343	-0.218	-0.247
-326.143	-46.402	-0.173	0.085
-325.129	-125.339	0.294	0.045
-324.114	-200.000	0.279	-0.000
-323.099	18.930	-0.173	0.140
-322.085	-200.000	-0.003	-0.348
-321.070	-200.000	-0.025	0.120
-320.056	-200.000	-0.039	-0.381
-319.041	422.237	0.062	-0.134
-318.026	114.956	0.124	0.152
-317.012	-185.452	-0.199	-0.003
-315.997	-151.423	0.157	0.012
-314.983	-200.000	-0.050	0.241
-313.968	-200.000	0.072	-0.370
-312.953	-200.000	0.034	-0.315
-311.939	210.939	-0.207	-0.327
-310.924	800.000	-0.022	0.078
-309.910	-45.083	0.208	0.104
-308.895	6.343	0.040	-0.030
-307.880	342.503	-0.180	-0.355
-306.866	86.303	-0.097	-0.108
-305.851	-200.000	0.105	0.589
-304.837	800.000	0.049	0.161
-303.822	-59.161	0.204	-0.088
-302.807	-200.000	-0.046	0.226
-301.793	-125.890	0.202	0.031
-300.778	-200.000	0.021	0.233
-299.764	641.799	0.088	-0.226
-298.749	-35.965	-0.297	-0.161
-297.735	27.089	0.080	0.067
-296.720	-200.000	0.025	0.422
-295.705	-200.000	0.015	0.167
-294.691	-85.249	0.161	0.051
-293.676	-93.001	0.371	0.104
-292.662	-35.681	-0.070	-0.038
-291.647	317.755	0.051	0.097
-290.632	-200.000	0.035	-0.194
-289.618	-200.000	0.027	0.152
-288.603	176.716	-0.044	0.064
-287.589	-122.466	-0.475	0.078
-286.574	-200.000	0.006	0.103
-285.559	-173.638	-0.056	0.002
-284.545	454.519	0.196	0.436
-283.530	28.098	0.243	-0.206
-282.516	147.858	-0.121	-0.164
-281.501	800.000	-0.016	-0.057
-280.486	-200.000	0.005	0.190
-279.472	388.784	-0.120	-0.249
-278.457	474.388	0.122	0.277
-277.443	101.494	-0.065	0.076
-276.428	800.000	-0.069	-0.213
-275.413	-31.266	0.147	0.083
-274.399	-55.529	0.029	-0.013
-273.384	-70.065	0.253	-0.097
-272.370	-111.234	0.291	-0.060
-271.355	-147.157	-0.074	-0.006
-270.340	375.389	0.022	0.045
-269.326	40.261	0.174	0.157
-268.311	196.921	-0.070	-0.108
-267.297	109.142	-0.187	-0.225
-266.282	-83.504	0.137	-0.044
-265.267	-25.702	0.076	-0.045
-264.253	169.644	0.211	-0.302
-263.238	-200.000	0.005	-0.039
-262.224	-200.000	0.002	-0.113
-261.209	800.000	-0.078	0.235
-260.195	-78.345	-0.152	-0.052
-259.180	-178.544	0.156	0.004
-258.165	111.775	-0.145	-0.176
-257.151	-154.895	-0.234	0.015
-256.136	-200.000	0.058	-0.315
-255.122	-200.000	-0.018	-0.249
-254.107	-128.488	0.222	-0.032
-253.092	438.513	-0.083	0.181
-252.078	-200.000	0.027	-0.176
-251.063	440.803	0.102	0.224
-250.049	-54.138	-0.156	0.071
-249.034	-40.368	0.331	0.173
-248.019	-117.273	0.492	0.090
-247.005	-35.543	0.158	-0.086
-245.990	-29.318	0.058	-0.033
-244.976	152.902	-0.170	-0.233
-243.961	93.058	0.110	-0.125
-242.946	-48.912	0.135	0.065
-241.932	800.000	-0.080	0.294
-240.917	30.689	-0.135	-0.116
-239.903	255.078	-0.207	-0.355
-238.888	134.471	-0.061	-0.080
-237.873	309.703	0.057	0.108
-236.859	-200.000	-0.008	-0.112
-235.844	729.733	0.084	0.226
-234.830	-135.694	-0.231	-0.028
-233.815	-200.000	-0.021	0.152
-232.800	176.637	-0.062	0.091
-231.786	218.162	0.192	0.308
-230.771	44.831	-0.122	-0.112
-229.757	-200.000	-0.019	-0.327
-228.742	13.558	-0.034	0.026
-227.727	-124.341	-0.210	-0.033
-226.713	45.157	-0.220	-0.203
-225.698	-18.091	0.172	0.108
-224.684	67.927	-0.127	-0.130
-223.669	-146.922	0.188	0.016
-222.655	-151.595	0.101	-0.008
-221.640	-1.899	0.151	0.107
-220.625	408.647	-0.111	-0.236
-219.611	800.000	0.062	-0.236
-218.596	800.000	-0.050	0.169
-217.582	800.000	-0.057	0.188
-216.567	70.627	-0.183	-0.190
-215.552	504.884	0.145	0.337
-214.538	70.976	0.115	0.120
-213.523	-200.000	0.038	0.238
-212.509	399.797	0.089	-0.187
-211.494	39.020	-0.058	0.052
-210.479	-46.475	0.122	-0.060
-209.465	151.065	0.051	0.069
-208.450	-2.679	-0.021	-0.015
-207.436	34.107	-0.043	-0.038
-206.421	91.741	0.216	0.243
-205.406	-200.000	0.018	0.152
-204.392	377.283	0.093	-0.190
-203.377	800.000	-0.088	-0.314
-202.363	-133.288	0.300	-0.038
-201.348	122.156	0.169	0.212
-200.333	-144.452	0.068	-0.006
-199.319	90.898	0.037	0.042
-198.304	315.942	-0.166	0.315
-197.290	247.705	0.040	0.067
-196.275	77.163	0.129	-0.137
-195.260	800.000	0.037	0.141
-194.246	-108.143	-0.177	-0.038
-193.231	-39.826	0.061	0.032
-192.217	474.569	0.106	-0.239
-191.202	-200.000	0.018	0.100
-190.187	173.012	0.217	0.312
-189.173	-200.000	-0.017	0.153
-188.158	-31.166	0.352	0.199
-187.144	-100.651	-0.231	0.057
-186.129	151.568	-0.123	-0.168
-185.114	-73.433	-0.010	0.004
-184.100	-136.046	0.098	0.011
-183.085	39.218	0.290	0.259
-182.071	-26.054	0.238	-0.140
-181.056	-151.552	0.501	0.037
-180.042	100.014	-0.074	0.086
-179.027	6.788	0.211	-0.157
-178.012	-200.000	-0.017	-0.404
-176.998	208.047	-0.059	-0.093
-175.983	-77.565	0.202	-0.070
-174.969	800.000	0.026	0.102
-173.954	359.996	0.031	0.063
-172.939	-200.000	0.018	-0.340
-171.925	-35.539	-0.162	-0.088
-170.910	800.000	0.093	-0.290
-169.896	800.000	0.059	0.183
-168.881	-97.327	0.079	-0.021
-167.866	62.567	-0.108	-0.108
-166.852	-113.891	0.089	0.017
-165.837	-200.000	0.057	-0.448
-164.823	311.070	0.058	-0.108
-163.808	8.541	0.226	0.170
-162.793	799.929	0.094	0.259
-161.779	800.000	-0.121	0.377
-160.764	-71.256	-0.053	0.020
-159.750	-63.019	0.213	-0.088
-158.735	-4.802	-0.210	-0.145
-157.720	35.473	0.016	0.014
-156.706	175.578	-0.093	0.135
-155.691	382.430	-0.048	0.100
-154.677	-115.936	0.194	0.036
-153.662	345.713	-0.183	0.360
-152.647	-39.878	-0.379	0.198
-151.633	-12.905	-0.198	0.129
-150.618	193.260	-0.139	0.210
-149.604	58.796	-0.120	-0.118
-148.589	183.898	0.140	0.208
-147.574	-83.044	-0.221	0.071
-146.560	193.954	0.078	0.118
-145.545	-200.000	-0.024	0.295
-144.531	74.327	-0.194	0.204
-143.516	285.347	-0.093	0.168
-142.502	-116.714	0.283	-0.052
-141.487	-200.000	0.018	0.127
-140.472	-26.105	-0.214	-0.126
-139.458	61.575	0.135	0.134
-138.443	515.256	0.082	0.191
-137.429	287.109	-0.018	0.033
-136.414	-6.953	0.184	-0.125
-135.399	-15.573	0.106	-0.068
-134.385	-107.894	0.095	-0.021
-133.370	11.260	-0.098	-0.075
-132.356	23.951	0.149	0.122
-131.341	-163.073	0.343	-0.017
-130.326	221.643	0.120	0.192
-129.312	-66.647	-0.297	-0.118
-128.297	200.948	-0.070	-0.108
-127.283	-132.067	0.140	-0.018
-126.268	-200.000	-0.014	0.100
-125.253	800.000	-0.125	0.398
-124.239	800.000	-0.032	0.118
-123.224	800.000	0.054	-0.167
-122.210	47.948	0.387	0.361
