DTS Sentinel unit serial number:	SN413079Multiplexer serial number:	ORYXHardware model number:	OX4-SRSoftware version number:	ORYX F/W v4.00 Oryx Data Collector v3.7.2.0data status	okinstallation	princeton_trtdifferential loss correction	single-endedforward channel	channel 4reverse channel	N/Adate	2019/09/19time	11:49:34forward acquisition time	60.00reverse acquisition time	0.00gamma	496.2192k internal	0.2326k external	0.2326temperature offset calibration	1.0016default loss term (dB/km)	0.3790temperature slope calibration	1.0000multiplexer offset coefficient	1.0000multiplexer slope coefficient	1.0000fibre end	0.00T internal ref (°C)	25.80T ext. ref 1 (°C)	0.82T ext. ref 2 (°C)	21.67length (m)	temperature (°C)	Stokes	anti-Stokes-747.200	800.000	-0.101	0.323
-746.185	128.212	0.167	0.214
-745.171	66.880	-0.150	0.154
-744.156	-200.000	-0.010	0.155
-743.142	800.000	0.050	0.175
-742.127	77.001	-0.219	-0.235
-741.112	547.169	0.098	-0.236
-740.098	198.651	-0.107	0.165
-739.083	-200.000	-0.007	-0.132
-738.069	-112.362	0.245	0.049
-737.054	-158.816	0.121	-0.007
-736.039	-25.895	-0.070	-0.042
-735.025	-200.000	0.072	0.429
-734.010	-200.000	0.003	-0.023
-732.996	-200.000	-0.018	-0.255
-731.981	800.000	0.086	-0.320
-730.966	50.809	-0.048	0.046
-729.952	-90.946	0.361	0.105
-728.937	168.693	-0.230	0.330
-727.923	-41.281	0.394	-0.205
-726.908	356.946	-0.043	0.086
-725.894	-70.454	-0.193	0.074
-724.879	400.726	0.042	0.089
-723.864	-95.157	-0.323	0.088
-722.850	-200.000	-0.052	0.317
-721.835	123.239	0.073	-0.092
-720.821	-46.150	-0.320	0.159
-719.806	-149.679	-0.143	-0.011
-718.791	1.677	-0.318	0.231
-717.777	184.479	0.108	-0.162
-716.762	8.537	-0.186	-0.141
-715.748	-22.834	0.177	0.108
-714.733	41.789	0.271	0.247
-713.718	150.452	-0.123	-0.169
-712.704	-24.067	-0.099	-0.060
-711.689	-200.000	-0.055	-0.376
-710.675	288.432	-0.186	0.339
-709.660	32.065	-0.043	0.037
-708.645	86.829	-0.153	0.170
-707.631	-22.525	-0.269	0.164
-706.616	-200.000	-0.002	0.056
-705.602	206.442	0.086	-0.134
-704.587	800.000	0.069	0.224
-703.572	-61.494	0.259	0.109
-702.558	-200.000	0.024	0.194
-701.543	-107.799	0.258	0.057
-700.529	207.210	0.215	0.337
-699.514	11.889	-0.215	0.167
-698.499	544.347	0.054	0.129
-697.485	705.090	0.053	-0.141
-696.470	39.525	-0.273	0.246
-695.456	-146.292	0.446	0.039
-694.441	241.767	-0.262	-0.442
-693.426	283.870	0.186	-0.337
-692.412	221.149	0.051	0.083
-691.397	-118.971	-0.312	0.055
-690.383	84.633	-0.262	-0.289
-689.368	-39.637	-0.047	-0.025
-688.354	800.000	-0.023	-0.084
-687.339	-200.000	0.033	0.175
-686.324	498.570	-0.064	0.149
-685.310	38.492	0.237	0.213
-684.295	614.805	0.064	0.162
-683.281	-200.000	-0.032	0.292
-682.266	-98.973	0.133	-0.034
-681.251	435.416	0.061	0.134
-680.237	-3.529	0.251	0.176
-679.222	-200.000	-0.007	0.243
-678.208	43.550	-0.279	0.257
-677.193	-67.874	0.127	-0.050
-676.178	398.731	0.055	-0.115
-675.164	-122.857	0.058	-0.009
-674.149	431.116	0.100	-0.217
-673.135	-200.000	-0.013	-0.238
-672.120	3.375	0.048	-0.035
-671.105	-200.000	0.019	-0.107
-670.091	-165.062	0.132	-0.006
-669.076	800.000	-0.031	-0.102
-668.062	-48.092	-0.195	-0.095
-667.047	259.848	0.109	-0.189
-666.032	42.049	-0.195	0.178
-665.018	-10.199	-0.185	-0.123
-664.003	133.878	0.088	-0.114
-662.989	-65.268	0.183	-0.074
-661.974	145.235	0.085	0.115
-660.959	-72.040	-0.278	-0.104
-659.945	-134.361	0.126	0.016
-658.930	-117.700	-0.354	0.064
-657.916	-120.303	0.207	0.035
-656.901	507.335	-0.141	-0.328
-655.886	-158.691	-0.126	-0.007
-654.872	105.961	0.165	0.196
-653.857	494.369	-0.196	-0.452
-652.843	72.906	-0.117	-0.123
-651.828	217.732	0.106	0.169
-650.814	-200.000	-0.072	0.328
-649.799	-28.760	-0.220	0.127
-648.784	-71.811	-0.425	-0.159
-647.770	-148.118	-0.184	0.015
-646.755	-46.802	-0.249	-0.122
-645.741	-83.068	0.273	0.088
-644.726	-31.712	0.262	-0.148
-643.711	-163.677	-0.182	0.009
-642.697	2.874	0.122	-0.089
-641.682	-94.913	-0.475	0.129
-640.668	62.781	0.317	0.319
-639.653	-138.229	-0.305	-0.034
-638.638	-200.000	0.016	-0.111
-637.624	-200.000	-0.011	-0.140
-636.609	-53.908	-0.078	0.036
-635.595	800.000	0.097	-0.306
-634.580	800.000	-0.062	0.252
-633.565	-1.440	0.077	-0.054
-632.551	-6.812	-0.269	-0.183
-631.536	20.940	0.075	-0.061
-630.522	363.672	0.125	0.252
-629.507	-200.000	-0.008	-0.092
-628.492	-200.000	-0.051	0.359
-627.478	337.381	0.079	-0.155
-626.463	105.212	0.061	-0.072
-625.449	-200.000	-0.022	0.170
-624.434	421.301	0.057	0.122
-623.419	-145.416	0.352	-0.032
-622.405	-130.936	0.288	-0.039
-621.390	-200.000	0.003	-0.223
-620.376	336.974	-0.161	0.314
-619.361	800.000	-0.012	0.034
-618.346	58.620	0.242	0.238
-617.332	-200.000	0.033	0.220
-616.317	100.931	-0.329	-0.384
-615.303	-200.000	0.047	-0.290
-614.288	294.798	0.196	-0.359
-613.273	-67.852	0.170	0.067
-612.259	16.102	0.066	0.052
-611.244	454.403	0.148	-0.328
-610.230	-200.000	0.047	-0.222
-609.215	183.393	0.148	-0.219
-608.201	15.162	-0.165	-0.130
-607.186	-200.000	-0.029	0.181
-606.171	-173.117	-0.287	-0.009
-605.157	-200.000	0.015	-0.274
-604.142	495.442	0.036	-0.084
-603.128	-200.000	0.003	-0.128
-602.113	-16.776	0.145	0.092
-601.098	56.135	-0.117	0.114
-600.084	54.174	-0.385	-0.372
-599.069	347.299	-0.103	0.204
-598.055	-67.634	0.137	0.054
-597.040	48.452	0.243	-0.228
-596.025	93.460	0.096	0.109
-595.011	49.985	-0.190	-0.179
-593.996	392.766	-0.050	0.105
-592.982	-200.000	-0.043	-0.267
-591.967	-92.231	-0.201	0.057
-590.952	-200.000	-0.033	-0.156
-589.938	-200.000	0.031	-0.364
-588.923	155.494	-0.160	-0.221
-587.909	-115.564	-0.309	-0.058
-586.894	-58.036	-0.066	-0.029
-585.879	182.869	-0.176	-0.260
-584.865	-200.000	0.002	-0.161
-583.850	-132.304	-0.350	0.045
-582.836	-83.440	0.194	0.062
-581.821	36.463	-0.147	0.130
-580.806	800.000	0.068	-0.227
-579.792	473.503	-0.125	-0.283
-578.777	218.191	0.213	-0.342
-577.763	-125.974	-0.158	-0.024
-576.748	107.509	0.120	-0.143
-575.733	130.733	-0.223	-0.286
-574.719	-64.117	-0.085	0.035
-573.704	-200.000	0.031	0.360
-572.690	-200.000	-0.002	-0.166
-571.675	-131.542	-0.229	-0.030
-570.661	-200.000	-0.014	-0.095
-569.646	800.000	0.033	-0.129
-568.631	-13.341	-0.312	-0.203
-567.617	-23.898	-0.284	0.170
-566.602	-128.658	-0.173	0.024
-565.588	48.878	0.043	0.041
-564.573	137.606	-0.073	0.095
-563.558	158.907	-0.083	0.116
-562.544	-125.480	-0.254	0.039
-561.529	-28.113	-0.135	-0.078
-560.515	-200.000	-0.083	-0.395
-559.500	-175.882	0.225	-0.006
-558.485	-200.000	0.004	0.131
-557.471	113.263	0.094	-0.114
-556.456	11.887	-0.238	0.183
-555.442	14.012	0.019	0.015
-554.427	-30.833	-0.258	0.146
-553.412	-102.958	0.355	0.084
-552.398	153.828	0.179	-0.246
-551.383	326.971	-0.073	0.140
-550.369	-24.772	-0.178	0.106
-549.354	-93.241	0.259	0.072
-548.339	97.744	-0.064	0.074
-547.325	159.023	0.231	-0.321
-546.310	-6.061	-0.200	-0.137
-545.296	-87.051	-0.113	0.034
-544.281	23.667	0.119	0.098
-543.266	141.002	-0.230	-0.305
-542.252	169.230	-0.089	0.127
-541.237	223.420	-0.093	-0.149
-540.223	310.287	-0.104	0.195
-539.208	-200.000	0.083	0.458
-538.193	-185.695	0.107	-0.002
-537.179	-165.873	-0.333	0.014
-536.164	-104.291	-0.112	-0.026
-535.150	800.000	0.014	-0.042
-534.135	340.966	-0.097	0.191
-533.121	237.240	-0.046	-0.077
-532.106	800.000	0.026	0.098
-531.091	-20.032	0.467	0.289
-530.077	518.661	-0.138	-0.324
-529.062	-34.833	-0.287	0.157
-528.048	-43.389	0.191	-0.097
-527.033	-110.375	0.234	-0.049
-526.018	-200.000	-0.148	0.001
-525.004	-82.101	0.358	0.117
-523.989	-200.000	0.019	-0.191
-522.975	281.632	0.095	-0.171
-521.960	-125.241	-0.333	-0.051
-520.945	187.187	-0.077	-0.115
-519.931	82.327	0.197	0.214
-518.916	-157.053	-0.079	0.005
-517.902	-200.000	0.010	-0.173
-516.887	-30.541	0.211	-0.119
-515.872	-37.764	0.119	-0.063
-514.858	306.506	-0.064	0.119
-513.843	-68.499	0.263	-0.102
-512.829	333.116	0.070	-0.135
-511.814	7.153	-0.013	0.010
-510.799	-200.000	-0.005	0.118
-509.785	783.995	0.073	-0.201
-508.770	-146.852	0.080	0.007
-507.756	575.682	-0.021	-0.051
-506.741	8.124	0.135	-0.102
-505.726	-200.000	0.020	0.162
-504.712	-150.387	-0.153	-0.012
-503.697	-200.000	-0.009	-0.211
-502.683	800.000	0.043	-0.147
-501.668	-200.000	-0.063	0.314
-500.653	-124.225	-0.110	-0.017
-499.639	99.389	0.138	0.160
-498.624	-102.118	0.288	-0.069
-497.610	34.375	-0.208	-0.181
-496.595	-70.337	-0.342	0.130
-495.581	485.850	-0.080	0.183
-494.566	43.270	0.178	-0.162
-493.551	233.780	-0.100	-0.165
-492.537	800.000	-0.026	-0.103
-491.522	-66.028	-0.095	-0.038
-490.508	276.575	0.060	-0.106
-489.493	161.586	0.175	0.244
-488.478	413.947	0.182	0.387
-487.464	-169.135	-0.015	-0.001
-486.449	75.798	0.050	0.052
-485.435	123.399	-0.257	0.322
-484.420	-200.000	-0.013	0.250
-483.405	-40.450	-0.361	-0.187
-482.391	43.712	0.190	0.173
-481.376	157.775	-0.214	0.296
-480.362	-200.000	-0.004	-0.113
-479.347	800.000	0.020	-0.073
-478.332	-82.562	-0.282	0.091
-477.318	477.284	0.059	-0.134
-476.303	-118.225	-0.099	-0.018
-475.289	-154.246	0.048	-0.003
-474.274	799.519	-0.027	0.073
-473.259	189.792	0.087	-0.131
-472.245	-200.000	-0.007	0.053
-471.230	38.952	0.140	0.125
-470.216	11.446	0.063	-0.048
-469.201	-9.547	-0.089	0.059
-468.186	-54.141	-0.234	0.106
-467.172	446.094	0.206	-0.451
-466.157	800.000	-0.038	0.126
-465.143	-34.162	0.022	-0.012
-464.128	-200.000	-0.039	-0.201
-463.113	105.485	0.135	0.159
-462.099	800.000	-0.033	-0.132
-461.084	762.599	0.090	0.244
-460.070	-83.296	-0.209	-0.067
-459.055	-61.948	0.263	0.110
-458.040	94.162	0.148	0.167
-457.026	479.936	-0.114	-0.258
-456.011	-95.063	-0.073	0.020
-454.997	-200.000	0.015	0.306
-453.982	-200.000	-0.027	-0.117
-452.968	-3.618	0.364	0.252
-451.953	347.582	-0.029	0.057
-450.938	123.157	0.056	-0.069
-449.924	-50.570	-0.151	-0.071
-448.909	-173.761	0.161	0.005
-447.895	-99.739	-0.120	0.030
-446.880	440.274	0.105	0.228
-445.865	-99.654	0.132	-0.033
-444.851	-68.542	0.267	-0.103
-443.836	522.201	-0.073	0.171
-442.822	91.257	-0.197	-0.220
-441.807	-71.553	0.190	0.071
-440.792	-200.000	-0.021	0.097
-439.778	-53.286	0.172	-0.079
-438.763	32.958	-0.355	-0.306
-437.749	339.799	-0.162	-0.316
-436.734	-39.145	0.274	-0.144
-435.719	-200.000	0.045	0.256
-434.705	557.491	-0.041	-0.099
-433.690	393.859	-0.093	0.193
-432.676	800.000	0.029	0.113
-431.661	800.000	0.054	0.227
-430.646	800.000	0.082	-0.308
-429.632	-37.512	0.230	0.122
-428.617	40.823	-0.111	-0.100
-427.603	-200.000	-0.049	-0.373
-426.588	-97.744	0.080	-0.021
-425.573	-127.448	-0.128	-0.018
-424.559	145.935	0.123	0.164
-423.544	15.590	-0.281	-0.220
-422.530	760.197	0.089	-0.239
-421.515	-102.236	0.238	-0.057
-420.500	-200.000	0.036	0.195
-419.486	156.000	0.121	0.167
-418.471	666.611	0.043	0.111
-417.457	-38.453	-0.374	-0.197
-416.442	74.839	-0.261	0.274
-415.428	786.817	0.105	0.287
-414.413	-95.116	-0.198	0.053
-413.398	-200.000	-0.022	-0.140
-412.384	-147.733	-0.044	-0.004
-411.369	-62.213	-0.100	0.041
-410.355	-90.435	0.032	-0.009
-409.340	378.261	-0.167	-0.341
-408.325	392.504	0.106	-0.220
-407.311	131.825	-0.181	-0.232
-406.296	800.000	0.032	-0.093
-405.282	433.439	-0.043	0.094
-404.267	-122.650	-0.211	-0.034
-403.252	-17.015	0.145	-0.091
-402.238	317.704	-0.083	-0.157
-401.223	137.513	0.115	-0.150
-400.209	-200.000	-0.031	0.156
-399.194	-200.000	0.006	0.364
-398.179	-200.000	0.019	0.098
-397.165	705.234	-0.138	0.362
-396.150	-83.565	-0.237	-0.075
-395.136	-200.000	0.021	0.166
-394.121	-12.420	0.110	0.072
-393.106	-200.000	0.041	-0.244
-392.092	499.011	0.086	-0.197
-391.077	-9.369	-0.177	0.118
-390.063	76.296	0.146	0.154
-389.048	-131.934	0.209	0.027
-388.033	-83.657	-0.115	-0.036
-387.019	50.422	-0.101	-0.095
-386.004	48.339	0.110	0.102
-384.990	-29.179	0.140	0.080
-383.975	800.000	0.048	-0.156
-382.960	-9.085	0.256	-0.170
-381.946	800.000	-0.067	-0.268
-380.931	-79.888	-0.233	-0.078
-379.917	-23.609	0.069	0.041
-378.902	-82.236	0.183	-0.059
-377.888	-33.973	0.217	-0.119
-376.873	73.486	0.179	0.186
-375.858	-89.135	0.056	-0.016
-374.844	308.938	-0.040	0.075
-373.829	15.797	0.197	0.154
-372.815	4.346	-0.061	0.044
-371.800	-200.000	0.030	0.214
-370.785	55.131	-0.199	-0.191
-369.771	-200.000	-0.006	0.055
-368.756	-200.000	0.013	0.168
-367.742	-200.000	-0.025	0.299
-366.727	-82.999	-0.242	-0.077
-365.712	800.000	-0.039	-0.134
-364.698	800.000	-0.085	-0.237
-363.683	174.077	-0.109	0.157
-362.669	-112.604	0.100	-0.020
-361.654	23.230	0.300	-0.245
-360.639	-116.246	-0.134	-0.025
-359.625	800.000	0.003	0.010
-358.610	-200.000	0.028	-0.184
-357.596	-193.308	-0.173	0.002
-356.581	-95.704	-0.157	-0.042
-355.566	524.311	0.052	0.121
-354.552	-69.831	-0.196	-0.074
-353.537	-76.503	0.149	-0.052
-352.523	-107.670	0.442	0.096
-351.508	-58.473	0.278	0.120
-350.493	56.181	0.169	-0.163
-349.479	713.092	0.140	0.369
-348.464	26.549	0.124	-0.103
-347.450	-125.753	-0.126	0.019
-346.435	-49.140	0.410	-0.195
-345.420	271.789	0.103	0.180
-344.406	-105.503	0.335	-0.076
-343.391	-200.000	0.034	-0.174
-342.377	124.800	0.210	-0.263
-341.362	800.000	0.052	-0.193
-340.348	-57.414	-0.467	-0.203
-339.333	25.673	0.081	0.067
-338.318	-43.879	-0.154	-0.077
-337.304	371.607	0.201	-0.405
-336.289	-200.000	-0.027	0.185
-335.275	60.790	0.203	-0.199
-334.260	28.022	0.300	-0.251
-333.245	-164.145	-0.246	0.011
-332.231	197.116	0.151	-0.229
-331.216	-151.098	-0.082	0.006
-330.202	22.601	0.139	-0.113
-329.187	-14.075	0.203	0.130
-328.172	-41.611	0.335	-0.171
-327.158	315.108	0.138	-0.259
-326.143	49.966	0.333	0.312
-325.129	737.610	0.136	0.362
-324.114	-0.694	-0.099	0.070
-323.099	-159.308	-0.189	-0.011
-322.085	-5.896	0.413	-0.280
-321.070	800.000	-0.056	-0.166
-320.056	-142.004	-0.247	-0.024
-319.041	58.756	0.149	-0.146
-318.026	43.281	0.091	0.082
-317.012	-200.000	-0.025	0.165
-315.997	-3.312	0.161	0.112
-314.983	-200.000	-0.012	-0.203
-313.968	65.885	0.328	0.330
-312.953	433.541	-0.077	0.166
-311.939	-30.120	0.142	0.080
-310.924	297.596	0.121	-0.221
-309.910	800.000	-0.059	-0.225
-308.895	-19.959	-0.359	-0.220
-307.880	-43.902	-0.087	0.043
-306.866	293.950	0.212	0.383
-305.851	-110.389	-0.270	0.056
-304.837	404.035	-0.101	0.210
-303.822	77.881	0.179	-0.190
-302.807	79.877	-0.235	0.250
-301.793	396.335	0.126	0.261
-300.778	-200.000	-0.035	-0.375
-299.764	-26.388	0.177	-0.103
-298.749	73.030	0.188	-0.195
-297.735	29.189	-0.163	-0.137
-296.720	101.334	-0.034	0.039
-295.705	66.509	-0.279	-0.281
-294.691	298.475	0.203	0.370
-293.676	-85.068	0.079	0.025
-292.662	-5.791	-0.156	-0.106
-291.647	659.656	0.129	0.329
-290.632	473.433	-0.121	-0.271
-289.618	393.309	-0.070	-0.144
-288.603	409.065	0.125	0.262
-287.589	-139.507	-0.161	0.017
-286.574	141.334	0.161	-0.211
-285.559	-200.000	-0.004	0.308
-284.545	258.095	0.042	0.071
-283.530	68.849	0.210	0.214
-282.516	14.910	-0.061	-0.047
-281.501	6.982	-0.184	0.136
-280.486	-27.364	-0.218	0.126
-279.472	-42.790	0.126	0.064
-278.457	-141.360	-0.277	0.028
-277.443	800.000	-0.016	0.065
-276.428	-102.557	-0.196	-0.046
-275.413	-200.000	0.037	-0.226
-274.399	-150.508	0.293	0.022
-273.384	-200.000	0.003	0.027
-272.370	-4.554	0.111	0.076
-271.355	342.172	0.137	0.266
-270.340	-200.000	-0.018	0.235
-269.326	29.735	0.274	-0.231
-268.311	-200.000	0.058	-0.387
-267.297	-127.304	-0.201	-0.029
-266.282	-88.501	-0.233	0.069
-265.267	90.573	-0.277	0.307
-264.253	-30.766	0.179	0.100
-263.238	-109.767	0.019	-0.004
-262.224	441.107	0.084	-0.181
-261.209	-200.000	-0.016	0.081
-260.195	-45.869	-0.242	-0.118
-259.180	732.000	0.169	-0.447
-258.165	800.000	-0.050	-0.150
-257.151	16.687	0.227	0.177
-256.136	-58.290	0.153	-0.066
-255.122	-39.979	-0.137	-0.071
-254.107	-200.000	-0.012	0.205
-253.092	471.901	-0.091	0.202
-252.078	189.733	-0.060	0.089
-251.063	-123.148	-0.239	0.038
-250.049	-98.322	0.282	0.072
-249.034	61.370	-0.149	-0.147
-248.019	216.449	-0.137	-0.216
-247.005	-55.534	0.317	0.141
-245.990	-162.354	0.112	0.006
-244.976	-77.967	0.355	0.121
-243.961	207.673	0.053	-0.082
-242.946	390.357	0.169	0.346
-241.932	-200.000	0.006	-0.287
-240.917	800.000	0.043	-0.177
-239.903	-122.764	-0.222	0.035
-238.888	-200.000	-0.049	0.363
-237.873	-200.000	-0.060	0.676
-236.859	160.321	-0.072	0.099
-235.844	383.351	0.069	-0.141
-234.830	278.226	-0.119	0.210
-233.815	800.000	0.104	0.341
-232.800	89.015	-0.165	-0.182
-231.786	343.773	0.148	-0.287
-230.771	-200.000	-0.012	-0.073
-229.757	95.127	-0.163	0.184
-228.742	-200.000	-0.019	-0.100
-227.727	-10.058	-0.223	0.146
-226.713	800.000	0.067	0.234
-225.698	32.131	-0.186	0.159
-224.684	-119.756	-0.139	-0.024
-223.669	-200.000	0.031	0.224
-222.655	-46.014	-0.264	0.129
-221.640	-200.000	-0.012	0.227
-220.625	-23.570	-0.154	0.092
-219.611	-133.960	0.195	0.024
-218.596	691.757	-0.123	-0.317
-217.582	124.545	0.110	0.137
-216.567	-130.291	-0.286	0.038
-215.552	-142.550	-0.221	0.021
-214.538	554.239	-0.105	0.250
-213.523	-46.781	-0.117	-0.056
-212.509	60.426	-0.219	-0.215
-211.494	15.046	0.170	0.131
-210.479	478.886	-0.081	-0.182
-209.465	800.000	-0.097	0.308
-208.450	-52.044	0.364	0.167
-207.436	102.589	0.176	0.204
-206.421	113.525	0.135	0.162
-205.406	-119.966	0.334	0.057
-204.392	-200.000	0.031	0.241
-203.377	261.212	-0.132	0.225
-202.363	-78.978	-0.149	0.050
-201.348	-80.494	0.035	0.011
-200.333	-126.063	0.078	0.012
-199.319	44.227	0.115	0.105
-198.304	-81.909	0.178	-0.057
-197.290	-200.000	0.012	-0.123
-196.275	-176.287	-0.170	-0.004
-195.260	48.593	-0.142	0.131
-194.246	-151.160	0.273	-0.020
-193.231	-200.000	-0.031	0.288
-192.217	180.199	0.080	-0.115
-191.202	-27.635	-0.313	-0.179
-190.187	-154.684	0.394	0.026
-189.173	-120.139	0.457	-0.077
-188.158	408.491	-0.088	-0.183
-187.144	12.826	-0.214	0.163
-186.129	-51.137	0.122	-0.057
-185.114	328.019	-0.164	0.311
-184.100	36.280	0.088	0.077
-183.085	15.950	0.168	-0.130
-182.071	169.757	-0.202	0.285
-181.056	-100.398	0.181	0.044
-180.042	800.000	0.064	-0.272
-179.027	-200.000	0.021	0.461
-178.012	210.051	-0.114	0.177
-176.998	156.172	-0.042	0.058
-175.983	-200.000	0.005	0.135
-174.969	-42.865	0.203	0.102
-173.954	226.829	-0.036	0.058
-172.939	440.075	-0.064	-0.139
-171.925	-200.000	-0.066	0.328
-170.910	-142.334	-0.374	-0.036
-169.896	296.876	0.069	-0.125
-168.881	800.000	0.057	-0.198
-167.866	800.000	-0.106	0.291
-166.852	800.000	-0.059	-0.164
-165.837	64.649	-0.178	-0.177
-164.823	-90.827	0.226	0.064
-163.808	303.663	0.092	-0.168
-162.793	-42.176	-0.091	-0.046
-161.779	-47.773	-0.333	0.159
-160.764	111.916	-0.101	0.121
-159.750	-55.851	0.364	-0.160
-158.735	-56.261	-0.038	-0.017
-157.720	480.402	0.024	-0.053
-156.706	-40.000	-0.317	0.163
-155.691	-24.782	-0.074	0.043
-154.677	94.369	0.260	0.291
-153.662	124.193	-0.170	0.211
-152.647	-159.000	0.092	-0.005
-151.633	171.291	0.172	-0.243
-150.618	490.345	-0.057	-0.129
-149.604	90.662	0.022	0.025
-148.589	-200.000	-0.037	0.272
-147.574	-200.000	0.035	0.200
-146.560	-36.477	-0.232	0.123
-145.545	-161.166	-0.455	-0.023
-144.531	71.005	0.105	0.107
-143.516	-200.000	0.011	-0.158
-142.502	-72.275	0.204	0.075
-141.487	80.915	0.173	0.184
-140.472	30.734	-0.187	0.158
-139.458	162.799	-0.315	-0.435
-138.443	24.965	-0.179	0.147
-137.429	800.000	-0.087	-0.329
-136.414	140.939	-0.240	0.312
-135.399	-162.680	-0.250	-0.012
-134.385	800.000	0.072	0.197
-133.370	-87.579	-0.098	0.029
-132.356	-49.977	-0.070	-0.033
-131.341	-200.000	0.035	0.250
-130.326	-43.506	-0.160	-0.080
-129.312	55.181	0.337	0.321
-128.297	800.000	-0.128	0.500
-127.283	-175.123	0.246	0.007
-126.268	-200.000	-0.055	-0.256
-125.253	-200.000	0.045	0.355
-124.239	-200.000	0.017	0.562
-123.224	-90.706	0.323	0.092
-122.210	-200.000	-0.013	-0.131
-121.195	-200.000	0.010	0.151
