DTS Sentinel unit serial number:	SN413079Multiplexer serial number:	ORYXHardware model number:	OX4-SRSoftware version number:	ORYX F/W v4.00 Oryx Data Collector v3.7.2.0data status	okinstallation	princeton_trtdifferential loss correction	single-endedforward channel	channel 4reverse channel	N/Adate	2019/09/12time	16:55:11forward acquisition time	60.00reverse acquisition time	0.00gamma	496.2192k internal	0.2306k external	0.2306temperature offset calibration	1.0119default loss term (dB/km)	0.3790temperature slope calibration	1.0000multiplexer offset coefficient	1.0000multiplexer slope coefficient	1.0000fibre end	0.00T internal ref (°C)	36.00T ext. ref 1 (°C)	2.71T ext. ref 2 (°C)	29.32length (m)	temperature (°C)	Stokes	anti-Stokes-747.200	-124.193	-0.128	0.020
-746.185	-200.000	-0.090	0.430
-745.171	59.965	-0.106	0.107
-744.156	-200.000	-0.043	0.359
-743.142	71.583	-0.012	0.013
-742.127	-200.000	-0.006	0.232
-741.112	31.012	0.260	-0.226
-740.098	69.193	-0.023	0.024
-739.083	122.316	0.128	0.163
-738.069	-36.958	0.109	-0.059
-737.054	-169.071	0.155	0.006
-736.039	-40.697	-0.356	-0.188
-735.025	186.754	0.202	0.306
-734.010	-166.348	-0.386	0.017
-732.996	22.916	-0.353	-0.294
-731.981	17.894	-0.196	-0.159
-730.966	118.587	0.011	-0.014
-729.952	148.119	0.188	-0.257
-728.937	156.414	-0.204	-0.286
-727.923	-200.000	0.030	-0.485
-726.908	-34.983	0.086	0.048
-725.894	-135.208	0.086	-0.010
-724.879	-70.035	-0.235	0.091
-723.864	279.946	0.073	0.133
-722.850	-200.000	-0.036	-0.233
-721.835	-158.048	0.338	-0.020
-720.821	-11.010	-0.230	0.155
-719.806	-200.000	0.066	0.301
-718.791	297.086	0.070	-0.130
-717.777	-12.153	-0.053	0.035
-716.762	69.218	-0.208	-0.217
-715.748	-200.000	0.022	0.398
-714.733	-10.068	0.222	0.150
-713.718	-101.667	0.364	-0.090
-712.704	52.933	-0.130	-0.126
-711.689	-95.935	-0.197	0.053
-710.675	-200.000	0.042	0.188
-709.660	-127.032	-0.361	0.054
-708.645	-174.667	-0.270	0.008
-707.631	-153.992	0.220	-0.015
-706.616	-32.019	0.066	-0.037
-705.602	89.681	0.052	-0.059
-704.587	-200.000	-0.013	-0.200
-703.572	-189.766	0.416	-0.005
-702.558	-142.842	0.310	-0.031
-701.543	-128.047	-0.084	0.012
-700.529	-200.000	-0.042	0.224
-699.514	-200.000	0.002	-0.364
-698.499	117.797	0.313	-0.392
-697.485	-135.190	-0.304	0.037
-696.470	641.459	-0.086	-0.223
-695.456	-200.000	-0.025	-0.272
-694.441	-28.740	-0.202	-0.118
-693.426	206.400	0.089	-0.141
-692.412	74.058	0.217	0.231
-691.397	-22.124	0.416	-0.256
-690.383	-200.000	-0.009	-0.295
-689.368	-190.725	-0.089	-0.001
-688.354	-147.828	0.314	-0.027
-687.339	-200.000	0.007	-0.061
-686.324	751.372	-0.113	0.310
-685.310	-200.000	-0.038	-0.273
-684.295	397.980	-0.067	-0.143
-683.281	57.833	0.067	-0.066
-682.266	-140.882	-0.212	0.022
-681.251	269.978	0.098	-0.174
-680.237	-31.384	-0.120	-0.069
-679.222	241.106	0.087	0.147
-678.208	457.464	0.074	-0.168
-677.193	148.469	-0.098	-0.134
-676.178	-123.138	-0.311	0.051
-675.164	-148.628	0.085	-0.007
-674.149	15.664	-0.214	-0.171
-673.135	280.369	-0.064	-0.116
-672.120	118.021	-0.120	0.150
-671.105	-200.000	-0.002	0.152
-670.091	315.630	0.167	0.319
-669.076	-2.528	-0.208	-0.148
-668.062	-30.736	-0.187	0.107
-667.047	-158.557	-0.141	-0.008
-666.032	-38.335	-0.150	-0.081
-665.018	-137.143	0.097	0.011
-664.003	640.203	0.077	-0.199
-662.989	-200.000	0.026	0.304
-661.974	-103.792	-0.259	0.061
-660.959	-68.283	0.223	0.088
-659.945	800.000	0.006	-0.019
-658.930	-76.524	0.242	0.086
-657.916	-149.722	0.317	0.025
-656.901	239.262	0.118	0.199
-655.886	-200.000	-0.034	0.393
-654.872	29.897	-0.265	0.229
-653.857	800.000	0.054	0.193
-652.843	-200.000	-0.001	-0.148
-651.828	606.268	-0.086	0.218
-650.814	-90.935	-0.250	-0.073
-649.799	800.000	0.101	0.303
-648.784	749.678	-0.148	0.406
-647.770	800.000	0.048	-0.172
-646.755	5.358	-0.187	0.140
-645.741	-25.843	0.065	0.039
-644.726	131.516	-0.040	-0.052
-643.711	-81.942	-0.031	0.010
-642.697	97.488	-0.022	-0.025
-641.682	-119.095	0.410	-0.073
-640.668	111.669	0.138	-0.169
-639.653	-200.000	-0.276	-0.001
-638.638	-200.000	0.014	0.147
-637.624	-165.190	0.048	0.002
-636.609	-174.374	-0.099	-0.003
-635.595	-200.000	0.052	-0.287
-634.580	152.133	-0.102	0.140
-633.565	-200.000	-0.018	-0.249
-632.551	49.890	0.067	-0.064
-631.536	-91.811	-0.183	-0.053
-630.522	800.000	-0.038	-0.146
-629.507	426.038	-0.180	-0.393
-628.492	-200.000	0.004	-0.188
-627.478	800.000	-0.012	0.039
-626.463	10.504	0.253	0.195
-625.449	-68.458	-0.097	-0.038
-624.434	-169.286	0.069	-0.003
-623.419	-200.000	0.038	0.246
-622.405	1.266	-0.213	0.155
-621.390	369.471	-0.151	0.310
-620.376	-19.086	0.066	-0.041
-619.361	14.528	-0.080	0.063
-618.346	-39.303	-0.295	0.157
-617.332	-109.382	0.263	0.056
-616.317	-200.000	-0.023	0.117
-615.303	719.952	-0.114	-0.306
-614.288	800.000	0.057	0.234
-613.273	31.728	-0.161	0.141
-612.259	-76.227	-0.170	0.061
-611.244	-200.000	0.001	-0.093
-610.230	800.000	0.006	0.025
-609.215	132.960	-0.207	0.270
-608.201	-120.752	0.299	-0.051
-607.186	136.767	0.198	-0.262
-606.171	-116.108	-0.241	0.045
-605.157	-196.877	0.279	-0.002
-604.142	104.955	-0.181	-0.217
-603.128	-78.502	0.268	-0.093
-602.113	-200.000	0.020	-0.144
-601.098	71.195	0.124	0.130
-600.084	42.958	-0.274	0.252
-599.069	24.861	0.222	0.186
-598.055	-14.210	-0.311	-0.203
-597.040	122.771	0.168	0.213
-596.025	-134.807	-0.321	0.039
-595.011	-67.814	-0.111	0.044
-593.996	159.311	0.095	0.133
-592.982	38.503	0.072	0.065
-591.967	359.774	-0.129	-0.262
-590.952	-83.116	-0.097	-0.031
-589.938	8.713	-0.128	-0.097
-588.923	-144.985	0.197	-0.018
-587.909	173.924	-0.113	-0.165
-586.894	19.359	0.302	0.246
-585.879	-135.122	-0.192	0.023
-584.865	-12.990	0.263	0.173
-583.850	-181.982	0.073	0.001
-582.836	800.000	-0.075	-0.321
-581.821	-200.000	0.050	-0.426
-580.806	-186.740	0.225	0.003
-579.792	-134.032	0.386	-0.048
-578.777	-200.000	0.009	0.109
-577.763	41.539	0.098	-0.090
-576.748	213.946	0.065	-0.104
-575.733	141.943	-0.128	-0.171
-574.719	137.934	-0.083	-0.109
-573.704	415.457	0.092	-0.197
-572.690	475.874	0.094	-0.215
-571.675	569.005	0.046	0.113
-570.661	-121.024	0.221	0.037
-569.646	377.631	0.039	-0.081
-568.631	-103.628	0.067	0.016
-567.617	-106.644	0.108	0.024
-566.602	681.235	-0.091	-0.239
-565.588	206.211	-0.321	-0.504
-564.573	38.093	-0.181	0.163
-563.558	-32.775	-0.109	0.061
-562.544	-93.369	-0.134	-0.038
-561.529	-200.000	-0.086	-0.384
-560.515	-144.444	0.512	0.048
-559.500	30.422	-0.072	0.062
-558.485	-122.824	-0.080	0.013
-557.471	800.000	-0.093	0.335
-556.456	-74.958	-0.255	-0.092
-555.442	353.350	0.079	0.158
-554.427	-200.000	-0.035	-0.177
-553.412	-200.000	-0.059	-0.296
-552.398	-45.873	-0.251	-0.125
-551.383	331.579	-0.175	0.340
-550.369	-200.000	0.059	0.277
-549.354	273.734	0.045	0.080
-548.339	800.000	-0.117	0.368
-547.325	34.099	0.230	0.202
-546.310	488.993	0.155	0.357
-545.296	-34.480	0.197	0.109
-544.281	-33.861	0.194	-0.108
-543.266	-93.090	0.179	0.050
-542.252	-200.000	0.045	0.276
-541.237	-63.215	-0.119	-0.049
-540.223	78.119	0.083	-0.090
-539.208	-200.000	-0.000	0.032
-538.193	-166.822	-0.241	-0.010
-537.179	-59.611	-0.409	0.177
-536.164	-101.160	-0.192	0.047
-535.150	330.342	0.159	0.308
-534.135	-47.219	0.174	-0.086
-533.121	-47.103	0.314	-0.155
-532.106	571.482	-0.069	-0.170
-531.091	-22.239	-0.269	-0.165
-530.077	-200.000	-0.015	-0.168
-529.062	721.502	-0.030	0.081
-528.048	-115.793	0.185	-0.035
-527.033	800.000	-0.053	-0.147
-526.018	-140.628	0.103	-0.011
-525.004	-89.779	-0.482	0.142
-523.989	800.000	0.023	-0.084
-522.975	-200.000	-0.048	0.242
-521.960	-28.068	-0.245	0.143
-520.945	-200.000	-0.043	-0.238
-519.931	-85.533	-0.168	-0.053
-518.916	56.195	-0.145	-0.142
-517.902	800.000	-0.068	0.278
-516.887	-7.292	0.224	0.153
-515.872	91.295	-0.133	-0.151
-514.858	-176.536	0.442	0.011
-513.843	-40.391	-0.410	-0.215
-512.829	800.000	-0.021	0.073
-511.814	142.632	0.180	-0.242
-510.799	799.774	-0.096	-0.267
-509.785	-7.372	-0.259	0.177
-508.770	435.454	0.098	0.214
-507.756	-172.326	-0.108	0.003
-506.741	-200.000	0.019	0.098
-505.726	749.948	0.159	0.433
-504.712	-140.766	-0.061	-0.006
-503.697	-200.000	-0.022	0.102
-502.683	-69.908	0.155	-0.060
-501.668	-119.985	-0.207	-0.036
-500.653	376.348	-0.129	0.265
-499.639	-158.842	-0.117	-0.007
-498.624	-34.525	0.414	-0.229
-497.610	103.234	-0.117	-0.139
-496.595	-200.000	-0.054	-0.404
-495.581	-86.172	0.135	-0.042
-494.566	-129.963	-0.183	-0.025
-493.551	-108.796	-0.388	-0.084
-492.537	92.995	-0.177	-0.201
-491.522	-200.000	-0.023	-0.110
-490.508	-200.000	-0.009	-0.172
-489.493	179.725	0.118	-0.175
-488.478	81.780	-0.236	-0.257
-487.464	800.000	-0.072	-0.285
-486.449	-47.141	0.284	-0.139
-485.435	760.946	0.103	0.282
-484.420	175.511	-0.096	-0.140
-483.405	-32.866	-0.456	-0.255
-482.391	800.000	0.057	0.221
-481.376	-186.729	0.235	-0.003
-480.362	-135.845	0.184	-0.022
-479.347	800.000	0.060	0.174
-478.332	-48.274	-0.147	-0.072
-477.318	-200.000	-0.016	0.188
-476.303	75.362	-0.062	0.066
-475.289	233.427	-0.065	0.107
-474.274	25.377	-0.269	0.225
-473.259	-103.281	-0.219	-0.052
-472.245	800.000	-0.099	-0.277
-471.230	-200.000	0.034	-0.242
-470.216	183.883	-0.240	0.358
-469.201	204.870	-0.094	0.147
-468.186	-108.943	0.122	-0.026
-467.172	715.203	0.143	-0.381
-466.157	220.287	-0.168	-0.272
-465.143	617.815	0.123	-0.312
-464.128	16.068	0.264	-0.209
-463.113	396.338	-0.034	0.071
-462.099	-87.804	-0.386	-0.117
-461.084	482.509	-0.142	-0.324
-460.070	-19.194	-0.159	-0.099
-459.055	800.000	0.075	-0.251
-458.040	-73.137	0.235	0.087
-457.026	-59.902	-0.051	-0.022
-456.011	-102.224	-0.016	0.004
-454.997	-200.000	0.049	0.294
-453.982	800.000	0.023	0.080
-452.968	800.000	0.048	0.209
-451.953	82.744	0.170	0.186
-450.938	-200.000	-0.014	0.084
-449.924	800.000	-0.095	0.334
-448.909	497.757	0.083	0.193
-447.895	-135.695	-0.325	-0.039
-446.880	-16.906	-0.152	0.097
-445.865	105.802	0.141	0.167
-444.851	184.841	-0.096	-0.144
-443.836	-79.579	0.056	-0.019
-442.822	800.000	0.061	0.195
-441.807	800.000	0.040	-0.125
-440.792	357.128	0.117	-0.235
-439.778	136.804	-0.195	0.256
-438.763	-17.676	0.190	0.120
-437.749	-195.657	0.254	-0.002
-436.734	59.100	-0.087	-0.086
-435.719	-20.274	-0.198	-0.122
-434.705	800.000	-0.100	0.345
-433.690	-69.328	0.357	0.138
-432.676	-60.392	-0.207	-0.089
-431.661	-200.000	-0.010	0.203
-430.646	88.873	0.087	0.097
-429.632	-168.501	-0.060	0.002
-428.617	165.107	0.182	0.258
-427.603	228.592	-0.087	0.143
-426.588	-150.303	-0.259	0.020
-425.573	-150.739	0.210	-0.016
-424.559	-98.609	-0.292	-0.075
-423.544	-200.000	-0.035	-0.462
-422.530	800.000	-0.056	-0.242
-421.515	-136.576	0.368	0.043
-420.500	-200.000	0.024	-0.263
-419.486	-200.000	0.010	0.053
-418.471	59.770	-0.235	-0.233
-417.457	145.668	0.078	-0.105
-416.442	-110.626	-0.200	-0.042
-415.428	-169.956	-0.200	0.007
-414.413	75.780	0.092	-0.098
-413.398	-200.000	-0.003	0.058
-412.384	-200.000	0.015	-0.149
-411.369	713.178	0.060	0.161
-410.355	-171.770	-0.574	0.019
-409.340	293.960	0.134	-0.246
-408.325	181.727	0.087	0.129
-407.311	-30.085	0.106	-0.061
-406.296	-200.000	-0.046	0.258
-405.282	91.428	-0.109	0.123
-404.267	-117.768	0.243	0.044
-403.252	289.028	0.094	-0.172
-402.238	121.302	0.178	0.223
-401.223	48.594	0.126	0.118
-400.209	102.463	-0.136	-0.160
-399.194	15.533	0.131	0.103
-398.179	211.937	-0.066	0.105
-397.165	116.449	0.051	-0.063
-396.150	383.716	0.174	0.360
-395.136	124.825	-0.147	0.186
-394.121	399.310	0.188	0.395
-393.106	18.158	0.193	-0.155
-392.092	-68.604	-0.139	0.054
-391.077	-68.417	-0.254	0.099
-390.063	-137.313	-0.180	0.021
-389.048	-40.501	0.206	-0.107
-388.033	-116.010	0.292	0.055
-387.019	-98.710	0.127	-0.032
-386.004	-12.294	0.229	-0.150
-384.990	4.584	0.087	-0.064
-383.975	-200.000	0.023	0.151
-382.960	-27.470	-0.039	-0.023
-381.946	-78.847	0.088	0.030
-380.931	55.925	0.248	0.241
-379.917	800.000	-0.049	0.166
-378.902	235.521	-0.291	-0.481
-377.888	129.651	0.084	-0.107
-376.873	-51.462	-0.211	0.099
-375.858	158.584	0.200	0.279
-374.844	-58.757	-0.288	-0.125
-373.829	39.191	0.246	0.221
-372.815	-1.698	0.250	-0.176
-371.800	332.396	0.114	0.221
-370.785	-200.000	-0.023	0.383
-369.771	-200.000	-0.038	-0.169
-368.756	797.602	-0.053	-0.146
-367.742	-92.726	-0.167	0.047
-366.727	545.192	-0.062	0.149
-365.712	49.952	0.128	0.121
-364.698	747.494	-0.048	-0.130
-363.683	-200.000	-0.017	-0.328
-362.669	-119.723	0.359	-0.062
-361.654	530.361	0.042	0.099
-360.639	-200.000	0.012	-0.227
-359.625	9.685	0.095	-0.072
-358.610	-200.000	0.077	-0.376
-357.596	249.572	-0.319	-0.542
-356.581	1.598	-0.136	-0.098
-355.566	-200.000	-0.068	-0.335
-354.552	11.947	0.063	0.048
-353.537	-5.586	-0.108	-0.074
-352.523	0.315	0.162	0.116
-351.508	-90.050	0.261	-0.076
-350.493	421.445	-0.105	0.226
-349.479	800.000	-0.097	-0.330
-348.464	500.062	-0.074	-0.170
-347.450	-23.105	0.192	0.116
-346.435	195.210	-0.143	-0.217
-345.420	-200.000	0.064	0.295
-344.406	-0.877	-0.190	0.135
-343.391	392.347	-0.093	-0.195
-342.377	2.240	-0.031	-0.022
-341.362	800.000	0.026	-0.094
-340.348	-161.095	0.123	-0.006
-339.333	-108.530	0.472	-0.102
-338.318	-111.882	0.090	0.018
-337.304	-162.175	-0.220	0.011
-336.289	-200.000	0.026	-0.159
-335.275	226.668	-0.116	0.189
-334.260	-128.217	0.152	-0.022
-333.245	-79.116	0.098	0.033
-332.231	-94.571	0.147	0.040
-331.216	-113.057	0.141	-0.028
-330.202	-200.000	0.016	-0.149
-329.187	-200.000	-0.029	0.159
-328.172	-47.130	0.092	0.045
-327.158	-59.095	0.126	-0.055
-326.143	8.971	0.273	0.207
-325.129	44.436	-0.074	-0.068
-324.114	-200.000	0.002	0.023
-323.099	-200.000	0.033	0.150
-322.085	-109.564	-0.273	-0.058
-321.070	325.069	0.090	0.173
-320.056	227.586	-0.060	-0.097
-319.041	108.136	-0.219	-0.261
-318.026	-200.000	0.052	0.237
-317.012	182.485	-0.073	0.108
-315.997	-45.924	0.054	-0.027
-314.983	-200.000	0.008	-0.298
-313.968	-200.000	-0.044	-0.224
-312.953	-40.192	0.088	0.046
-311.939	33.276	-0.164	0.142
-310.924	-35.449	0.172	0.093
-309.910	-200.000	-0.022	0.162
-308.895	-95.658	-0.047	0.013
-307.880	350.369	0.110	-0.218
-306.866	81.152	-0.120	-0.129
-305.851	127.552	0.155	0.197
-304.837	-27.635	0.195	0.113
-303.822	-50.903	-0.179	-0.084
-302.807	800.000	0.063	-0.213
-301.793	139.569	0.214	0.282
-300.778	247.591	0.116	-0.196
-299.764	800.000	0.032	0.097
-298.749	-200.000	-0.008	0.578
-297.735	-9.117	-0.292	0.195
-296.720	-188.650	0.403	0.005
-295.705	-200.000	-0.016	0.424
-294.691	800.000	0.069	0.217
-293.676	26.473	0.125	-0.104
-292.662	-74.151	-0.091	-0.033
-291.647	-79.618	-0.126	0.043
-290.632	-200.000	0.019	0.166
-289.618	-200.000	0.010	0.093
-288.603	700.373	0.023	0.059
-287.589	-82.930	0.050	-0.016
-286.574	433.825	-0.045	0.098
-285.559	-168.913	0.180	0.007
-284.545	51.011	0.101	-0.096
-283.530	800.000	0.056	-0.193
-282.516	800.000	-0.067	0.293
-281.501	172.417	0.109	0.157
-280.486	-158.029	-0.243	0.014
-279.472	-200.000	0.020	0.244
-278.457	422.824	0.071	-0.152
-277.443	331.836	0.126	-0.244
-276.428	17.709	-0.265	0.210
-275.413	-15.910	-0.221	-0.141
-274.399	-200.000	0.025	0.306
-273.384	-40.094	-0.056	0.029
-272.370	800.000	-0.092	-0.393
-271.355	-186.347	0.170	0.002
-270.340	-120.422	0.030	0.005
-269.326	-200.000	-0.003	0.161
-268.311	-81.157	-0.110	0.036
-267.297	-124.116	0.145	-0.023
-266.282	488.869	-0.098	0.224
-265.267	35.925	0.144	0.127
-264.253	-37.117	0.102	0.055
-263.238	800.000	0.040	-0.150
-262.224	-200.000	0.084	-0.414
-261.209	-6.186	0.215	-0.147
-260.195	367.721	0.131	0.265
-259.180	-200.000	0.055	0.423
-258.165	-200.000	-0.013	0.177
-257.151	433.881	-0.017	0.037
-256.136	800.000	-0.102	0.337
-255.122	-103.506	0.496	0.116
-254.107	-37.113	-0.233	0.125
-253.092	-48.344	-0.061	0.029
-252.078	800.000	0.049	-0.175
-251.063	85.111	0.164	-0.180
-250.049	223.825	-0.035	-0.057
-249.034	-200.000	-0.026	0.317
-248.019	-52.267	0.218	0.101
-247.005	47.050	0.252	-0.234
-245.990	-163.609	-0.055	0.003
-244.976	15.036	0.172	0.135
-243.961	-200.000	-0.019	0.214
-242.946	13.544	-0.265	0.205
-241.932	-200.000	0.026	-0.255
-240.917	377.619	-0.176	-0.358
-239.903	-200.000	-0.009	-0.173
-238.888	16.013	-0.166	0.131
-237.873	-67.210	0.270	0.106
-236.859	-200.000	-0.022	0.175
-235.844	-200.000	-0.008	-0.160
-234.830	-12.663	-0.050	-0.033
-233.815	297.549	-0.166	-0.304
-232.800	-200.000	-0.010	0.048
-231.786	56.460	0.146	0.141
-230.771	59.004	-0.257	-0.252
-229.757	251.340	0.125	0.211
-228.742	-14.454	0.208	-0.133
-227.727	100.800	-0.207	-0.240
-226.713	-200.000	0.013	0.056
-225.698	-153.490	-0.218	-0.015
-224.684	-200.000	-0.017	-0.294
-223.669	800.000	0.101	-0.297
-222.655	231.343	0.241	0.394
-221.640	-92.731	-0.142	0.040
-220.625	72.072	-0.225	-0.233
-219.611	-200.000	-0.042	-0.309
-218.596	215.812	-0.113	-0.179
-217.582	138.596	-0.319	-0.417
-216.567	-104.678	0.123	-0.028
-215.552	3.232	0.127	0.092
-214.538	94.082	-0.039	-0.044
-213.523	-200.000	0.058	-0.382
-212.509	90.315	-0.221	0.246
-211.494	275.997	0.175	0.310
-210.479	-93.381	-0.198	-0.055
-209.465	50.048	0.124	-0.116
-208.450	3.380	-0.193	-0.140
-207.436	24.021	0.177	0.146
-206.421	-45.058	0.460	-0.228
-205.406	-26.829	-0.293	-0.171
-204.392	-42.780	-0.213	-0.108
-203.377	54.197	-0.116	0.111
-202.363	-200.000	0.001	0.199
-201.348	-33.780	0.238	-0.131
-200.333	366.381	-0.043	0.086
-199.319	-109.333	0.159	0.034
-198.304	183.227	0.056	-0.082
-197.290	-200.000	0.005	-0.139
-196.275	281.961	-0.093	0.165
-195.260	-200.000	-0.000	-0.153
-194.246	-66.888	-0.182	-0.072
-193.231	-146.834	-0.073	-0.006
-192.217	619.692	-0.095	-0.238
-191.202	800.000	-0.016	0.060
-190.187	19.969	-0.192	0.154
-189.173	-200.000	-0.026	0.185
-188.158	-73.565	-0.171	0.062
-187.144	-15.311	0.066	-0.042
-186.129	-58.635	0.256	-0.111
-185.114	141.519	0.191	0.252
-184.100	-15.637	0.157	-0.100
-183.085	-167.829	-0.414	0.016
-182.071	-56.105	-0.109	-0.048
-181.056	167.547	0.148	-0.209
-180.042	-132.378	0.153	0.020
-179.027	1.318	0.191	-0.137
-178.012	182.845	-0.231	-0.340
-176.998	-104.024	-0.344	0.080
-175.983	68.431	0.140	-0.143
-174.969	78.330	-0.049	-0.052
-173.954	-131.135	-0.469	-0.062
-172.939	433.624	-0.020	-0.044
-171.925	259.534	0.188	0.323
-170.910	159.165	0.220	0.305
-169.896	-200.000	0.010	0.188
-168.881	735.702	-0.122	0.326
-167.866	-87.756	0.259	0.078
-166.852	-138.755	-0.099	0.011
-165.837	-1.157	0.297	-0.209
-164.823	166.118	0.066	0.093
-163.808	731.701	0.153	0.407
-162.793	-200.000	0.037	0.279
-161.779	134.756	0.061	-0.078
-160.764	328.727	-0.033	-0.064
-159.750	678.597	-0.089	0.230
-158.735	-200.000	0.026	-0.395
-157.720	657.506	0.075	0.192
-156.706	-80.135	-0.112	-0.037
-155.691	501.903	0.094	0.216
-154.677	70.960	-0.171	-0.176
-153.662	75.093	0.155	-0.162
-152.647	-60.236	-0.085	-0.036
-151.633	11.217	0.237	0.181
-150.618	-134.580	0.106	0.013
-149.604	-111.264	0.298	-0.061
-148.589	-44.278	0.272	-0.135
-147.574	-153.556	-0.361	0.025
-146.560	219.246	0.095	0.151
-145.545	-137.296	0.091	0.010
-144.531	-49.323	0.091	-0.043
-143.516	-55.610	-0.327	0.145
-142.502	-200.000	0.038	0.422
-141.487	185.267	-0.088	0.129
-140.472	-65.013	-0.198	0.080
-139.458	-127.612	-0.236	0.034
-138.443	90.534	0.042	-0.047
-137.429	14.331	-0.084	-0.065
-136.414	-49.024	0.293	0.140
-135.399	-19.666	-0.226	0.139
-134.385	-7.184	0.021	0.014
-133.370	549.188	0.052	0.123
-132.356	800.000	0.081	0.295
-131.341	6.317	0.063	0.047
-130.326	-153.540	-0.055	-0.004
-129.312	155.546	-0.320	0.438
-128.297	-37.510	0.367	0.194
-127.283	-200.000	0.019	-0.262
-126.268	-200.000	0.046	-0.309
-125.253	7.176	0.099	0.073
-124.239	-6.672	-0.217	0.147
-123.224	-89.039	0.170	-0.050
-122.210	-77.194	0.068	-0.023
