DTS Sentinel unit serial number:	SN413079Multiplexer serial number:	ORYXHardware model number:	OX4-SRSoftware version number:	ORYX F/W v4.00 Oryx Data Collector v3.7.2.0data status	okinstallation	princeton_trtdifferential loss correction	single-endedforward channel	channel 4reverse channel	N/Adate	2019/09/19time	12:49:35forward acquisition time	60.00reverse acquisition time	0.00gamma	496.2192k internal	0.2317k external	0.2317temperature offset calibration	1.0020default loss term (dB/km)	0.3790temperature slope calibration	1.0000multiplexer offset coefficient	1.0000multiplexer slope coefficient	1.0000fibre end	0.00T internal ref (°C)	28.06T ext. ref 1 (°C)	0.90T ext. ref 2 (°C)	26.26length (m)	temperature (°C)	Stokes	anti-Stokes-747.200	-161.700	0.255	0.013
-746.185	-59.949	0.371	0.161
-745.171	-90.283	0.158	-0.046
-744.156	-200.000	0.007	0.247
-743.142	-9.887	0.091	-0.061
-742.127	514.178	-0.066	-0.157
-741.112	-200.000	-0.013	-0.124
-740.098	-200.000	0.032	0.186
-739.083	287.100	0.086	-0.157
-738.069	-22.730	0.121	0.074
-737.054	-43.416	0.385	0.197
-736.039	-130.499	-0.553	-0.076
-735.025	-157.123	-0.102	-0.006
-734.010	140.707	0.076	-0.101
-732.996	85.146	-0.201	-0.223
-731.981	568.672	-0.114	-0.279
-730.966	-200.000	0.003	0.020
-729.952	139.013	-0.132	0.176
-728.937	-11.287	-0.190	0.127
-727.923	-200.000	-0.027	-0.198
-726.908	-200.000	-0.016	-0.341
-725.894	310.917	-0.049	0.093
-724.879	228.032	0.031	-0.050
-723.864	100.899	0.042	0.049
-722.850	-79.388	-0.172	0.059
-721.835	606.321	-0.037	-0.094
-720.821	-89.809	-0.115	0.034
-719.806	-200.000	-0.068	-0.599
-718.791	152.341	-0.255	-0.351
-717.777	-26.977	-0.375	-0.221
-716.762	-16.584	-0.176	0.113
-715.748	-132.950	-0.196	-0.025
-714.733	-66.311	0.249	0.100
-713.718	-149.629	-0.335	-0.027
-712.704	-126.972	-0.378	-0.056
-711.689	445.169	-0.098	-0.218
-710.675	211.502	-0.138	-0.219
-709.660	-153.831	0.433	-0.030
-708.645	274.932	-0.074	0.133
-707.631	-200.000	-0.003	0.207
-706.616	800.000	-0.081	0.297
-705.602	-57.265	-0.249	-0.111
-704.587	-68.109	0.215	-0.085
-703.572	-90.988	-0.316	-0.092
-702.558	-102.656	0.176	-0.042
-701.543	-115.236	0.069	-0.013
-700.529	14.149	0.096	0.076
-699.514	87.160	-0.192	-0.214
-698.499	800.000	0.055	-0.229
-697.485	225.851	-0.174	-0.284
-696.470	-26.748	0.208	0.123
-695.456	-200.000	-0.029	-0.312
-694.441	800.000	0.074	-0.238
-693.426	-200.000	-0.009	-0.115
-692.412	-76.857	0.331	0.117
-691.397	18.073	-0.224	0.181
-690.383	51.368	-0.235	0.225
-689.368	-30.516	-0.264	-0.151
-688.354	800.000	-0.112	-0.331
-687.339	-82.828	0.055	-0.018
-686.324	-71.915	0.040	-0.015
-685.310	62.856	0.105	0.106
-684.295	800.000	0.085	0.256
-683.281	1.944	-0.337	0.245
-682.266	800.000	-0.075	0.232
-681.251	-200.000	-0.038	-0.208
-680.237	-200.000	0.023	0.160
-679.222	681.331	-0.077	0.202
-678.208	-200.000	0.005	0.186
-677.193	68.655	-0.014	-0.015
-676.178	-200.000	-0.001	0.352
-675.164	51.856	-0.038	0.036
-674.149	14.578	0.186	-0.146
-673.135	135.665	0.285	-0.375
-672.120	-88.781	0.437	0.131
-671.105	-16.177	-0.296	-0.190
-670.091	-200.000	-0.004	-0.031
-669.076	455.193	-0.077	-0.173
-668.062	-200.000	-0.022	0.204
-667.047	-17.192	-0.240	0.153
-666.032	-12.651	0.116	0.076
-665.018	-200.000	-0.016	0.325
-664.003	142.048	-0.089	0.119
-662.989	-200.000	-0.018	-0.081
-661.974	-151.407	0.063	0.005
-660.959	-108.011	-0.503	0.110
-659.945	800.000	-0.046	-0.136
-658.930	-194.020	-0.109	-0.001
-657.916	184.085	0.109	-0.162
-656.901	-166.556	-0.084	0.004
-655.886	480.309	0.100	0.229
-654.872	-200.000	-0.014	-0.147
-653.857	390.152	0.172	0.360
-652.843	800.000	-0.061	0.207
-651.828	800.000	-0.054	0.222
-650.814	-120.833	0.305	0.052
-649.799	77.204	-0.133	0.143
-648.784	524.487	-0.133	-0.315
-647.770	-200.000	-0.038	-0.320
-646.755	274.745	0.177	-0.317
-645.741	416.046	0.042	-0.089
-644.726	-143.210	-0.235	0.023
-643.711	-86.651	-0.294	-0.091
-642.697	149.025	0.125	0.170
-641.682	-65.981	0.128	0.051
-640.668	78.104	0.213	0.229
-639.653	249.280	-0.087	0.148
-638.638	-200.000	-0.054	0.277
-637.624	23.573	0.091	0.075
-636.609	800.000	0.077	0.338
-635.595	759.049	-0.082	0.224
-634.580	-200.000	0.016	0.314
-633.565	-200.000	-0.051	0.226
-632.551	-200.000	-0.008	-0.080
-631.536	-200.000	-0.058	0.259
-630.522	-66.492	-0.105	0.042
-629.507	208.988	-0.046	0.073
-628.492	16.555	0.261	-0.208
-627.478	-54.432	0.131	-0.060
-626.463	396.464	0.120	0.252
-625.449	-80.663	0.147	-0.049
-624.434	-200.000	0.011	0.468
-623.419	800.000	0.100	0.364
-622.405	23.814	-0.047	0.039
-621.390	-1.773	-0.079	0.056
-620.376	-200.000	-0.063	-0.449
-619.361	-154.591	-0.210	-0.014
-618.346	-99.925	-0.171	0.043
-617.332	4.345	-0.241	-0.178
-616.317	-6.206	-0.147	-0.101
-615.303	-54.364	-0.099	0.045
-614.288	162.444	-0.109	0.154
-613.273	190.732	0.158	-0.240
-612.259	-117.759	-0.417	0.075
-611.244	-34.257	0.187	0.103
-610.230	-54.863	0.134	0.061
-609.215	800.000	0.066	-0.222
-608.201	242.396	0.051	-0.086
-607.186	-176.659	0.462	-0.012
-606.171	158.048	-0.099	-0.138
-605.157	-167.141	-0.251	-0.010
-604.142	-30.441	0.264	0.151
-603.128	-200.000	-0.068	-0.490
-602.113	-129.478	-0.352	-0.049
-601.098	-200.000	0.011	-0.080
-600.084	-50.017	0.107	-0.051
-599.069	-133.752	-0.425	-0.053
-598.055	6.678	0.354	-0.265
-597.040	-10.031	-0.180	-0.120
-596.025	-32.918	0.207	0.116
-595.011	83.328	0.134	0.147
-593.996	-24.751	-0.254	0.152
-592.982	-51.242	0.123	0.058
-591.967	-63.828	0.204	-0.084
-590.952	-200.000	0.026	-0.174
-589.938	-47.633	-0.143	-0.070
-588.923	800.000	-0.082	-0.249
-587.909	-28.731	0.084	0.049
-586.894	-200.000	-0.088	0.592
-585.879	800.000	-0.065	-0.199
-584.865	81.123	0.165	-0.180
-583.850	67.976	0.101	-0.104
-582.836	313.795	0.136	0.257
-581.821	-92.575	0.314	0.089
-580.806	-90.245	-0.040	-0.012
-579.792	27.627	-0.217	-0.184
-578.777	17.756	-0.200	0.160
-577.763	-1.575	0.196	-0.139
-576.748	-29.512	0.110	0.063
-575.733	-44.742	-0.216	-0.108
-574.719	404.620	-0.036	0.076
-573.704	-109.641	-0.167	-0.035
-572.690	-117.858	-0.096	0.017
-571.675	38.323	0.223	0.199
-570.661	-94.869	-0.246	-0.067
-569.646	800.000	0.056	0.159
-568.631	-115.337	0.576	-0.109
-567.617	-52.172	-0.342	0.160
-566.602	-51.987	-0.189	-0.088
-565.588	-3.355	-0.221	-0.155
-564.573	-130.706	0.203	-0.027
-563.558	-74.005	-0.372	-0.135
-562.544	-75.484	-0.069	0.025
-561.529	-120.958	0.135	0.023
-560.515	234.052	-0.155	-0.257
-559.500	800.000	-0.033	0.114
-558.485	800.000	0.044	0.123
-557.471	153.595	-0.034	-0.046
-556.456	-200.000	-0.002	0.252
-555.442	152.035	0.165	0.226
-554.427	-200.000	-0.035	0.475
-553.412	222.426	-0.016	-0.027
-552.398	800.000	0.026	0.108
-551.383	-200.000	-0.012	-0.088
-550.369	58.312	0.148	-0.146
-549.354	212.690	-0.134	-0.212
-548.339	800.000	0.038	0.165
-547.325	177.682	-0.077	-0.112
-546.310	240.159	0.019	-0.031
-545.296	-68.806	0.064	-0.025
-544.281	-200.000	-0.045	0.303
-543.266	800.000	0.042	-0.153
-542.252	-200.000	-0.041	-0.591
-541.237	-3.677	0.090	0.063
-540.223	90.434	-0.130	0.146
-539.208	-66.803	0.207	-0.082
-538.193	-43.169	0.312	0.159
-537.179	-152.967	-0.222	0.016
-536.164	-147.663	0.350	-0.030
-535.150	-111.898	-0.101	0.020
-534.135	-200.000	0.032	-0.143
-533.121	-200.000	0.032	-0.224
-532.106	-93.788	-0.240	0.066
-531.091	-37.182	-0.555	0.298
-530.077	-112.018	-0.160	-0.032
-529.062	-51.591	0.054	-0.025
-528.048	283.342	-0.094	0.170
-527.033	-45.605	-0.222	-0.110
-526.018	560.816	0.123	-0.298
-525.004	-105.772	0.174	0.040
-523.989	651.650	-0.086	-0.222
-522.975	89.930	0.212	-0.237
-521.960	-200.000	0.090	-0.462
-520.945	-200.000	0.043	0.328
-519.931	746.502	-0.090	0.243
-518.916	-200.000	0.006	-0.106
-517.902	-200.000	-0.006	-0.111
-516.887	134.532	-0.134	-0.174
-515.872	-155.536	-0.064	0.004
-514.858	461.322	-0.058	-0.130
-513.843	431.093	0.068	-0.148
-512.829	115.373	-0.109	0.134
-511.814	-56.224	0.048	-0.021
-510.799	800.000	-0.055	0.182
-509.785	-118.893	0.220	0.039
-508.770	-96.455	-0.418	-0.111
-507.756	52.423	-0.138	-0.132
-506.741	-200.000	-0.063	-0.291
-505.726	245.513	-0.076	0.128
-504.712	-93.787	-0.198	0.055
-503.697	-156.218	-0.205	-0.013
-502.683	231.089	0.110	-0.181
-501.668	800.000	-0.084	-0.334
-500.653	-48.368	-0.139	-0.067
-499.639	-15.635	0.122	0.078
-498.624	87.120	-0.129	0.143
-497.610	80.908	-0.097	0.105
-496.595	800.000	-0.079	0.263
-495.581	-9.278	-0.092	0.062
-494.566	-161.741	-0.473	0.024
-493.551	393.297	-0.031	-0.065
-492.537	1.313	0.115	-0.083
-491.522	-48.986	-0.088	0.042
-490.508	12.783	0.051	0.039
-489.493	173.675	-0.111	-0.160
-488.478	-170.942	0.190	0.007
-487.464	248.269	-0.177	-0.300
-486.449	48.887	0.270	-0.254
-485.435	-200.000	-0.011	-0.056
-484.420	-200.000	-0.080	-0.438
-483.405	-129.912	-0.188	-0.026
-482.391	-200.000	0.006	-0.257
-481.376	-200.000	-0.045	-0.226
-480.362	-23.785	-0.127	0.076
-479.347	136.748	0.116	-0.151
-478.332	21.251	-0.111	0.090
-477.318	157.515	-0.120	-0.167
-476.303	-141.653	0.234	0.024
-475.289	129.053	0.197	-0.252
-474.274	698.525	0.107	0.282
-473.259	-200.000	-0.024	-0.269
-472.245	-69.176	-0.210	-0.081
-471.230	-200.000	0.035	-0.192
-470.216	24.400	-0.315	-0.261
-469.201	150.299	-0.131	-0.178
-468.186	-200.000	-0.018	-0.292
-467.172	800.000	0.046	-0.154
-466.157	328.936	0.173	0.332
-465.143	3.358	-0.045	-0.033
-464.128	800.000	-0.055	0.195
-463.113	-115.119	-0.185	-0.035
-462.099	-122.904	0.198	-0.032
-461.084	-117.662	-0.248	-0.045
-460.070	169.610	0.079	-0.113
-459.055	-62.334	-0.296	0.124
-458.040	19.858	-0.049	-0.039
-457.026	-200.000	0.013	0.152
-456.011	800.000	-0.037	0.136
-454.997	-96.585	0.303	0.080
-453.982	-200.000	0.008	-0.180
-452.968	-94.946	-0.103	-0.028
-451.953	48.437	-0.064	0.060
-450.938	-38.348	-0.324	0.171
-449.924	357.335	-0.090	-0.180
-448.909	62.236	0.421	-0.420
-447.895	-20.975	-0.179	0.110
-446.880	-25.909	0.194	0.114
-445.865	-87.491	0.145	0.044
-444.851	-115.440	-0.095	-0.018
-443.836	-200.000	0.078	-0.394
-442.822	66.526	-0.096	-0.098
-441.807	579.588	0.091	0.223
-440.792	329.026	-0.064	0.123
-439.778	-152.269	0.141	0.010
-438.763	190.157	0.206	0.310
-437.749	-12.955	-0.139	0.090
-436.734	83.659	-0.237	-0.258
-435.719	27.669	-0.218	-0.183
-434.705	378.684	0.198	0.405
-433.690	-90.945	-0.226	0.065
-432.676	800.000	-0.026	0.074
-431.661	-39.241	0.174	0.092
-430.646	217.383	-0.065	0.104
-429.632	-200.000	0.017	0.097
-428.617	-45.673	-0.297	0.147
-427.603	-146.574	0.207	-0.018
-426.588	-10.418	0.130	-0.086
-425.573	-99.714	0.203	-0.051
-424.559	-6.801	-0.213	0.145
-423.544	306.050	0.171	-0.318
-422.530	-38.988	0.309	0.163
-421.515	-78.613	-0.098	-0.034
-420.500	800.000	0.025	-0.071
-419.486	15.354	-0.241	-0.189
-418.471	782.383	-0.105	0.286
-417.457	-39.189	-0.102	-0.053
-416.442	-118.512	0.220	0.039
-415.428	72.072	0.322	0.335
-414.413	-200.000	-0.000	-0.267
-413.398	94.055	-0.123	0.140
-412.384	-200.000	-0.057	-0.305
-411.369	62.844	0.111	-0.111
-410.355	-200.000	-0.020	0.149
-409.340	671.528	0.071	-0.183
-408.325	-200.000	-0.001	-0.065
-407.311	800.000	-0.056	0.195
-406.296	-200.000	0.022	-0.351
-405.282	123.794	0.067	-0.084
-404.267	-51.970	0.057	-0.027
-403.252	363.932	0.056	0.113
-402.238	-162.671	-0.394	-0.019
-401.223	-107.971	-0.114	0.025
-400.209	-200.000	0.045	0.229
-399.194	-47.603	-0.310	0.150
-398.179	10.141	0.148	0.112
-397.165	174.958	0.208	0.300
-396.150	-200.000	0.003	0.154
-395.136	587.301	-0.062	0.153
-394.121	6.551	0.009	0.007
-393.106	800.000	-0.049	0.160
-392.092	800.000	-0.053	0.226
-391.077	42.582	0.106	-0.096
-390.063	325.739	0.179	0.343
-389.048	800.000	0.056	-0.186
-388.033	-169.212	0.099	0.004
-387.019	-66.748	-0.498	0.197
-386.004	-200.000	0.031	-0.149
-384.990	12.684	0.178	-0.137
-383.975	-147.015	0.143	0.012
-382.960	-115.341	0.313	-0.059
-381.946	-21.342	-0.153	-0.093
-380.931	387.511	-0.134	0.276
-379.917	-124.482	0.125	-0.019
-378.902	280.164	0.119	-0.212
-377.888	375.889	0.038	-0.078
-376.873	27.955	-0.201	-0.169
-375.858	269.382	0.097	-0.169
-374.844	-80.614	-0.100	-0.033
-373.829	-17.453	-0.344	-0.216
-372.815	-144.154	-0.130	0.012
-371.800	143.518	-0.096	0.128
-370.785	-200.000	-0.013	-0.110
-369.771	389.235	0.155	0.320
-368.756	702.693	0.026	0.067
-367.742	800.000	0.074	-0.309
-366.727	172.577	0.156	0.224
-365.712	103.579	0.160	0.188
-364.698	-200.000	0.033	-0.248
-363.683	135.545	-0.139	-0.180
-362.669	47.437	-0.231	-0.215
-361.654	57.819	-0.146	-0.142
-360.639	90.749	0.288	0.322
-359.625	34.607	0.051	0.044
-358.610	-164.754	-0.227	0.010
-357.596	-60.681	0.197	0.083
-356.581	72.337	0.296	-0.307
-355.566	606.412	-0.099	-0.246
-354.552	-77.551	0.238	-0.082
-353.537	99.972	-0.260	-0.300
-352.523	71.642	-0.138	-0.143
-351.508	-40.002	-0.198	-0.103
-350.493	-183.499	-0.317	0.005
-349.479	537.617	-0.042	-0.098
-348.464	8.216	0.063	-0.047
-347.450	44.156	-0.168	0.154
-346.435	-7.686	-0.113	0.076
-345.420	-117.958	-0.116	0.021
-344.406	-143.299	-0.109	-0.010
-343.391	-58.853	-0.057	-0.024
-342.377	50.275	0.224	0.211
-341.362	-200.000	-0.029	0.149
-340.348	327.168	-0.134	0.256
-339.333	-157.338	0.269	-0.016
-338.318	-139.689	-0.211	0.022
-337.304	263.273	-0.119	-0.205
-336.289	83.758	0.141	-0.154
-335.275	-51.583	0.136	0.063
-334.260	-200.000	0.005	-0.034
-333.245	317.463	0.119	-0.224
-332.231	444.644	0.104	-0.227
-331.216	3.173	0.143	0.103
-330.202	-191.352	0.144	0.001
-329.187	-1.450	-0.253	-0.178
-328.172	158.863	0.081	-0.112
-327.158	-144.662	-0.122	-0.011
-326.143	20.966	0.270	-0.218
-325.129	-90.657	-0.286	0.082
-324.114	-14.973	-0.344	0.220
-323.099	-128.994	0.265	0.037
-322.085	-200.000	-0.002	-0.132
-321.070	105.413	-0.093	-0.109
-320.056	312.575	0.053	0.100
-319.041	182.732	0.160	0.234
-318.026	-144.452	0.345	0.032
-317.012	557.877	0.114	-0.273
-315.997	-51.996	0.226	0.104
-314.983	800.000	-0.076	0.230
-313.968	-85.354	-0.226	0.070
-312.953	-87.098	-0.234	0.071
-311.939	251.128	0.131	-0.222
-310.924	-156.662	-0.197	0.012
-309.910	99.841	0.194	-0.223
-308.895	142.760	0.050	0.066
-307.880	-116.520	-0.060	0.011
-306.866	-153.278	0.176	-0.012
-305.851	-11.082	0.117	-0.077
-304.837	-197.356	0.255	0.002
-303.822	46.512	0.363	0.335
-302.807	-81.682	0.013	0.004
-301.793	-200.000	0.016	0.182
-300.778	527.556	0.048	0.113
-299.764	58.395	0.021	0.021
-298.749	800.000	0.108	0.340
-297.735	-127.388	0.190	-0.027
-296.720	800.000	0.041	0.127
-295.705	-90.447	-0.186	-0.054
-294.691	800.000	0.047	0.143
-293.676	51.202	-0.243	0.229
-292.662	504.619	0.117	0.271
-291.647	-200.000	-0.008	0.219
-290.632	228.518	0.069	-0.112
-289.618	61.127	0.265	-0.261
-288.603	219.011	0.170	-0.271
-287.589	152.446	-0.053	-0.072
-286.574	-200.000	-0.015	0.148
-285.559	-200.000	0.022	0.263
-284.545	-64.467	0.229	0.093
-283.530	800.000	-0.051	0.148
-282.516	-200.000	-0.000	0.105
-281.501	613.826	0.043	-0.108
-280.486	153.280	-0.091	0.124
-279.472	182.975	0.163	0.240
-278.457	108.862	0.202	0.240
-277.443	706.653	-0.081	0.213
-276.428	-91.809	0.133	0.038
-275.413	-77.209	-0.313	-0.108
-274.399	-188.514	0.153	0.002
-273.384	-162.786	-0.297	-0.014
-272.370	10.424	-0.248	0.188
-271.355	103.884	0.068	-0.079
-270.340	800.000	0.038	-0.166
-269.326	800.000	-0.085	0.267
-268.311	800.000	0.029	-0.105
-267.297	800.000	-0.057	-0.190
-266.282	-200.000	-0.032	0.262
-265.267	137.791	0.257	0.335
-264.253	241.415	0.080	-0.132
-263.238	800.000	-0.032	-0.109
-262.224	581.513	0.066	-0.162
-261.209	113.645	0.334	0.403
-260.195	-99.472	0.086	-0.021
-259.180	115.875	-0.052	-0.063
-258.165	-194.230	-0.399	0.003
-257.151	111.031	0.072	0.086
-256.136	-91.602	0.112	0.032
-255.122	-152.256	0.118	-0.008
-254.107	-200.000	-0.029	-0.208
-253.092	-40.586	0.166	-0.085
-252.078	-103.875	-0.070	0.016
-251.063	800.000	0.009	0.032
-250.049	161.061	-0.089	-0.123
-249.034	800.000	-0.070	0.244
-248.019	-200.000	-0.011	-0.202
-247.005	375.976	0.112	0.227
-245.990	-41.711	0.284	0.145
-244.976	-16.643	-0.144	0.091
-243.961	611.371	-0.099	-0.246
-242.946	1.396	-0.214	-0.153
-241.932	110.003	0.150	0.179
-240.917	800.000	0.113	-0.366
-239.903	-150.449	-0.297	0.023
-238.888	-79.553	-0.047	0.016
-237.873	-14.913	0.129	0.082
-236.859	-200.000	-0.043	-0.269
-235.844	-149.347	-0.169	0.013
-234.830	258.335	-0.112	0.191
-233.815	153.349	-0.140	0.190
-232.800	800.000	0.079	0.240
-231.786	242.901	-0.165	0.275
-230.771	-200.000	0.052	0.379
-229.757	-136.904	0.179	-0.020
-228.742	800.000	0.029	-0.116
-227.727	-114.815	-0.098	0.019
-226.713	363.502	-0.065	0.130
-225.698	-30.863	0.339	0.190
-224.684	-200.000	0.013	-0.141
-223.669	200.231	0.170	0.260
-222.655	-90.989	-0.244	-0.069
-221.640	26.176	0.143	0.118
-220.625	800.000	0.136	0.393
-219.611	-1.409	-0.085	0.060
-218.596	-200.000	0.019	-0.163
-217.582	1.124	-0.049	0.035
-216.567	800.000	0.081	-0.270
-215.552	10.065	-0.063	0.047
-214.538	60.537	-0.470	-0.461
-213.523	-200.000	0.021	-0.263
-212.509	800.000	0.094	-0.260
-211.494	-57.025	0.221	0.097
-210.479	-129.437	-0.175	0.024
-209.465	-77.115	0.142	0.049
-208.450	75.683	0.125	-0.131
-207.436	-61.745	-0.090	0.037
-206.421	60.961	0.110	-0.108
-205.406	12.726	-0.252	-0.193
-204.392	-168.631	0.107	-0.004
-203.377	-99.335	0.085	0.021
-202.363	346.152	-0.133	0.259
-201.348	65.480	0.246	-0.247
-200.333	40.614	0.149	0.133
-199.319	249.890	-0.092	-0.154
-198.304	18.078	0.261	-0.206
-197.290	306.133	0.090	-0.166
-196.275	-105.662	-0.190	0.043
-195.260	77.127	0.062	-0.066
-194.246	-200.000	-0.082	-0.474
-193.231	170.980	0.094	-0.133
-192.217	-36.051	0.239	-0.128
-191.202	-117.725	0.253	0.045
-190.187	-200.000	0.009	-0.199
-189.173	16.779	-0.363	-0.285
-188.158	38.605	-0.112	0.099
-187.144	51.195	0.220	0.207
-186.129	-200.000	0.040	0.235
-185.114	-21.904	0.044	-0.026
-184.100	-200.000	0.001	0.096
-183.085	800.000	0.027	-0.079
-182.071	142.380	0.145	0.190
-181.056	-93.631	0.229	0.063
-180.042	-200.000	0.021	0.163
-179.027	-152.373	-0.120	0.009
-178.012	-72.506	0.286	0.105
-176.998	80.783	0.059	0.063
-175.983	-27.499	-0.190	0.110
-174.969	-200.000	0.022	0.216
-173.954	556.102	0.064	-0.153
-172.939	87.437	0.045	0.049
-171.925	186.852	-0.046	0.068
-170.910	-20.986	0.190	0.115
-169.896	-181.495	0.209	-0.004
-168.881	-200.000	0.043	-0.189
-167.866	-200.000	-0.002	0.182
-166.852	-200.000	0.034	0.319
-165.837	762.770	-0.087	0.234
-164.823	-77.994	-0.132	-0.045
-163.808	-139.416	0.360	0.038
-162.793	78.599	0.232	0.246
-161.779	-200.000	-0.081	-0.352
-160.764	156.138	-0.196	-0.267
-159.750	-113.220	0.168	-0.033
-158.735	-28.471	-0.305	0.174
-157.720	-200.000	-0.001	-0.114
-156.706	58.876	0.129	-0.125
-155.691	800.000	0.049	0.144
-154.677	310.752	0.193	0.358
-153.662	800.000	0.076	0.233
-152.647	-94.960	-0.181	-0.048
-151.633	102.498	0.147	-0.170
-150.618	136.252	0.212	-0.273
-149.604	800.000	0.136	0.475
-148.589	10.273	-0.029	-0.022
-147.574	-92.615	-0.235	0.065
-146.560	-200.000	0.036	0.200
-145.545	-148.565	-0.427	-0.034
-144.531	203.836	-0.089	0.137
-143.516	417.315	-0.206	0.435
-142.502	-118.414	-0.409	-0.072
-141.487	-5.650	-0.115	-0.078
-140.472	8.966	0.087	0.065
-139.458	-73.462	0.322	0.116
-138.443	-200.000	-0.034	0.350
-137.429	-200.000	0.002	0.030
-136.414	-200.000	0.044	0.256
-135.399	58.282	0.282	0.273
-134.385	39.577	0.065	-0.057
-133.370	262.128	0.095	0.163
-132.356	14.598	-0.453	0.350
-131.341	59.533	-0.227	0.221
-130.326	-3.815	0.369	-0.254
-129.312	-71.580	0.234	-0.086
-128.297	-98.984	0.260	0.065
-127.283	10.790	0.138	-0.104
-126.268	-186.025	0.242	0.004
-125.253	-110.421	-0.143	-0.029
-124.239	490.683	-0.086	-0.194
-123.224	-135.719	0.251	0.029
-122.210	-159.083	0.254	0.014
-121.195	800.000	-0.067	0.200
