DTS Sentinel unit serial number:	SN413079Multiplexer serial number:	ORYXHardware model number:	OX4-SRSoftware version number:	ORYX F/W v4.00 Oryx Data Collector v3.7.2.0data status	okinstallation	princeton_trtdifferential loss correction	single-endedforward channel	channel 4reverse channel	N/Adate	2019/09/18time	09:05:35forward acquisition time	60.00reverse acquisition time	0.00gamma	496.2192k internal	0.2325k external	0.2325temperature offset calibration	0.9985default loss term (dB/km)	0.3790temperature slope calibration	1.0000multiplexer offset coefficient	1.0000multiplexer slope coefficient	1.0000fibre end	0.00T internal ref (°C)	25.31T ext. ref 1 (°C)	0.23T ext. ref 2 (°C)	22.43length (m)	temperature (°C)	Stokes	anti-Stokes-747.200	-200.000	-0.012	-0.352
-746.185	-200.000	0.036	-0.173
-745.171	140.815	0.156	-0.209
-744.156	-22.108	-0.217	-0.133
-743.142	-141.410	-0.183	0.019
-742.127	144.763	-0.259	0.349
-741.112	85.485	0.141	-0.156
-740.098	-94.331	-0.258	0.071
-739.083	89.910	-0.277	0.312
-738.069	215.195	0.097	0.155
-737.054	175.832	0.097	-0.142
-736.039	-144.158	-0.397	-0.037
-735.025	-200.000	0.091	-0.410
-734.010	-6.677	-0.038	-0.026
-732.996	-182.240	-0.055	0.001
-731.981	10.150	-0.151	0.116
-730.966	-99.373	0.085	0.022
-729.952	29.161	-0.509	-0.436
-728.937	-103.996	0.194	-0.046
-727.923	800.000	0.067	0.193
-726.908	-56.506	0.117	-0.052
-725.894	800.000	-0.034	-0.115
-724.879	-35.160	0.333	0.183
-723.864	-34.818	-0.181	-0.100
-722.850	-83.939	0.261	0.084
-721.835	201.132	0.210	-0.326
-720.821	-83.656	0.245	-0.079
-719.806	3.749	0.139	0.102
-718.791	-14.314	0.135	-0.088
-717.777	-125.506	-0.332	-0.051
-716.762	-15.200	-0.114	-0.073
-715.748	-34.959	-0.408	-0.225
-714.733	-200.000	0.011	-0.110
-713.718	449.635	0.140	0.311
-712.704	800.000	-0.098	0.386
-711.689	-200.000	0.027	0.197
-710.675	-40.240	0.009	-0.005
-709.660	-134.824	-0.257	-0.031
-708.645	-200.000	0.083	0.385
-707.631	800.000	0.055	0.170
-706.616	37.107	0.155	0.138
-705.602	-77.031	0.149	-0.052
-704.587	-200.000	-0.016	-0.256
-703.572	-83.188	-0.346	-0.112
-702.558	29.511	-0.247	-0.212
-701.543	111.279	-0.313	0.381
-700.529	800.000	-0.018	0.066
-699.514	106.016	-0.115	0.137
-698.499	214.979	0.035	0.055
-697.485	116.156	-0.299	0.369
-696.470	800.000	0.025	0.098
-695.456	-42.121	0.068	0.035
-694.441	7.426	0.200	-0.151
-693.426	-200.000	0.008	0.309
-692.412	-200.000	0.000	-0.194
-691.397	16.927	0.104	-0.083
-690.383	800.000	0.112	-0.357
-689.368	-101.266	-0.418	0.103
-688.354	49.619	-0.254	-0.241
-687.339	636.817	-0.110	-0.281
-686.324	-200.000	-0.004	0.357
-685.310	-200.000	-0.008	-0.137
-684.295	-21.631	-0.294	0.180
-683.281	800.000	-0.029	-0.115
-682.266	691.081	-0.065	0.170
-681.251	127.502	0.105	-0.134
-680.237	-52.028	0.238	0.111
-679.222	2.488	0.394	0.287
-678.208	3.408	-0.385	-0.283
-677.193	42.011	-0.222	-0.203
-676.178	12.773	0.183	0.142
-675.164	35.773	0.087	-0.077
-674.149	163.257	-0.175	-0.248
-673.135	538.729	0.104	-0.249
-672.120	-147.557	0.220	-0.019
-671.105	143.785	0.036	-0.049
-670.091	-53.277	0.306	0.141
-669.076	224.616	-0.066	-0.107
-668.062	206.651	0.151	-0.236
-667.047	234.780	0.067	-0.111
-666.032	139.156	-0.020	-0.026
-665.018	-71.004	0.157	-0.060
-664.003	800.000	0.081	-0.303
-662.989	413.816	-0.153	0.328
-661.974	33.516	0.071	0.062
-660.959	7.347	-0.237	-0.178
-659.945	800.000	0.127	0.433
-658.930	-200.000	-0.006	0.074
-657.916	-23.223	-0.195	0.118
-656.901	699.541	-0.028	-0.074
-655.886	-116.336	-0.147	0.027
-654.872	123.459	-0.094	-0.118
-653.857	-158.206	-0.071	0.004
-652.843	41.753	0.220	-0.200
-651.828	-166.278	0.248	0.011
-650.814	43.400	0.234	0.215
-649.799	176.165	-0.042	0.061
-648.784	40.650	-0.270	0.245
-647.770	-91.614	-0.211	-0.060
-646.755	-142.855	-0.151	-0.015
-645.741	-200.000	-0.076	-0.452
-644.726	-81.111	0.054	-0.018
-643.711	-200.000	-0.033	-0.150
-642.697	97.412	0.216	-0.249
-641.682	-123.711	-0.391	-0.062
-640.668	-97.536	-0.265	-0.069
-639.653	-200.000	0.003	0.230
-638.638	800.000	-0.043	0.152
-637.624	-186.602	-0.187	0.003
-636.609	-200.000	-0.024	-0.210
-635.595	5.029	-0.119	-0.088
-634.580	-94.834	-0.242	-0.066
-633.565	-200.000	-0.011	-0.058
-632.551	-3.702	0.133	-0.093
-631.536	-85.432	-0.262	-0.082
-630.522	-34.914	-0.149	-0.082
-629.507	-140.500	-0.043	0.004
-628.492	800.000	-0.043	-0.160
-627.478	241.808	0.239	0.401
-626.463	490.435	-0.032	0.074
-625.449	599.867	-0.092	-0.231
-624.434	73.436	-0.079	-0.083
-623.419	-90.148	0.091	0.027
-622.405	-0.781	-0.147	0.104
-621.390	-47.802	0.359	-0.175
-620.376	47.316	0.068	-0.064
-619.361	-58.080	0.068	0.030
-618.346	30.601	0.390	-0.335
-617.332	-192.026	0.107	-0.001
-616.317	32.260	0.182	-0.157
-615.303	-91.930	0.359	0.102
-614.288	-21.964	-0.166	0.101
-613.273	800.000	-0.050	0.173
-612.259	37.776	-0.156	0.140
-611.244	-200.000	0.049	0.338
-610.230	-200.000	-0.043	-0.304
-609.215	-37.074	-0.293	0.157
-608.201	411.063	0.103	-0.219
-607.186	800.000	-0.058	-0.217
-606.171	-200.000	-0.028	0.246
-605.157	72.877	-0.383	0.401
-604.142	386.913	-0.146	0.302
-603.128	127.228	-0.026	-0.033
-602.113	-87.346	0.383	-0.116
-601.098	51.270	-0.152	-0.145
-600.084	-200.000	-0.072	-0.412
-599.069	732.075	0.058	-0.155
-598.055	357.137	-0.025	0.050
-597.040	203.519	-0.067	0.105
-596.025	263.651	0.059	0.103
-595.011	-62.805	-0.165	-0.068
-593.996	190.424	-0.116	-0.175
-592.982	-49.019	-0.025	-0.012
-591.967	-100.335	-0.171	-0.043
-590.952	29.108	-0.166	-0.141
-589.938	188.464	-0.040	-0.060
-588.923	141.788	0.261	-0.347
-587.909	-200.000	0.001	0.031
-586.894	384.680	0.002	-0.003
-585.879	-137.544	-0.167	-0.019
-584.865	-87.158	0.173	0.053
-583.850	23.810	0.350	0.289
-582.836	-101.288	-0.294	0.072
-581.821	313.817	0.107	0.201
-580.806	-77.110	0.039	-0.014
-579.792	93.177	0.143	0.162
-578.777	-161.962	0.029	-0.001
-577.763	-200.000	0.043	-0.250
-576.748	79.139	0.194	-0.209
-575.733	-200.000	-0.039	0.358
-574.719	-25.782	-0.171	0.101
-573.704	800.000	-0.024	-0.074
-572.690	8.081	-0.174	0.131
-571.675	-200.000	-0.012	0.121
-570.661	512.087	0.033	0.077
-569.646	201.666	-0.124	0.191
-568.631	800.000	-0.045	-0.137
-567.617	800.000	-0.084	0.335
-566.602	428.474	0.157	-0.340
-565.588	-63.871	0.051	-0.021
-564.573	800.000	-0.077	0.301
-563.558	-200.000	-0.001	0.007
-562.544	87.031	-0.294	-0.326
-561.529	-45.026	-0.276	0.137
-560.515	-163.965	-0.168	0.008
-559.500	176.273	0.255	-0.372
-558.485	-118.351	-0.253	-0.045
-557.471	-127.138	0.253	0.037
-556.456	-116.487	0.578	-0.107
-555.442	386.407	-0.045	-0.093
-554.427	112.303	0.123	0.149
-553.412	-104.372	-0.112	-0.026
-552.398	-56.420	-0.139	-0.062
-551.383	110.055	0.125	-0.150
-550.369	-116.927	-0.459	0.084
-549.354	172.817	-0.139	0.200
-548.339	408.580	0.071	0.150
-547.325	-63.304	-0.077	-0.032
-546.310	-200.000	-0.018	-0.225
-545.296	-109.718	0.124	0.026
-544.281	609.804	-0.090	-0.225
-543.266	800.000	0.081	-0.229
-542.252	-147.115	0.085	-0.007
-541.237	-35.445	-0.299	0.162
-540.223	-125.992	0.058	-0.009
-539.208	-22.597	-0.137	-0.083
-538.193	-6.415	-0.222	0.152
-537.179	-200.000	0.002	0.011
-536.164	-200.000	0.041	-0.297
-535.150	-89.140	-0.291	0.086
-534.135	-115.404	0.205	-0.039
-533.121	155.982	0.121	-0.167
-532.106	-200.000	-0.004	-0.071
-531.091	278.367	-0.102	0.181
-530.077	-83.143	0.471	-0.152
-529.062	-200.000	-0.038	0.212
-528.048	178.508	-0.181	-0.264
-527.033	70.055	0.208	0.215
-526.018	-76.616	-0.177	-0.062
-525.004	-80.432	0.103	0.034
-523.989	-136.120	0.154	0.018
-522.975	-200.000	-0.053	-0.393
-521.960	800.000	-0.053	-0.148
-520.945	174.427	-0.129	0.186
-519.931	78.974	0.146	-0.157
-518.916	-155.188	-0.384	0.025
-517.902	115.512	0.057	0.069
-516.887	7.148	0.108	-0.080
-515.872	-116.681	-0.100	-0.018
-514.858	-200.000	-0.055	0.255
-513.843	800.000	-0.036	0.119
-512.829	-200.000	0.064	-0.282
-511.814	573.466	0.056	-0.137
-510.799	-78.498	-0.258	0.088
-509.785	121.374	0.071	-0.089
-508.770	-3.982	0.307	-0.213
-507.756	-14.835	-0.275	0.177
-506.741	-78.371	-0.145	-0.050
-505.726	-76.308	-0.056	-0.020
-504.712	800.000	-0.081	0.310
-503.697	483.502	-0.079	0.179
-502.683	-56.598	-0.225	0.099
-501.668	-200.000	-0.055	-0.405
-500.653	151.369	-0.231	-0.315
-499.639	16.919	0.054	-0.043
-498.624	-200.000	0.050	-0.262
-497.610	327.262	-0.082	-0.158
-496.595	156.367	0.151	-0.208
-495.581	78.155	-0.153	-0.163
-494.566	-123.661	-0.303	-0.048
-493.551	-71.110	-0.184	0.069
-492.537	-26.922	-0.177	0.103
-491.522	-200.000	0.042	0.262
-490.508	281.235	0.094	0.168
-489.493	275.057	-0.074	0.131
-488.478	-138.652	-0.202	-0.022
-487.464	-42.070	-0.213	0.109
-486.449	-168.265	0.203	-0.008
-485.435	-15.158	0.161	0.103
-484.420	-4.171	-0.068	-0.047
-483.405	800.000	0.038	-0.146
-482.391	-126.935	-0.145	-0.021
-481.376	426.573	0.106	0.228
-480.362	144.060	-0.108	-0.144
-479.347	4.801	-0.221	-0.162
-478.332	-8.000	-0.099	0.067
-477.318	800.000	0.061	-0.229
-476.303	421.525	-0.114	0.244
-475.289	-200.000	-0.003	-0.372
-474.274	115.965	0.174	-0.213
-473.259	800.000	0.037	-0.106
-472.245	249.222	-0.213	-0.360
-471.230	40.999	-0.131	0.118
-470.216	-200.000	-0.006	0.284
-469.201	-62.595	0.184	-0.076
-468.186	-79.161	0.307	-0.104
-467.172	-20.284	0.115	-0.071
-466.157	-200.000	-0.049	-0.261
-465.143	347.948	0.047	0.092
-464.128	70.699	0.200	-0.207
-463.113	127.466	0.080	-0.102
-462.099	-90.818	0.428	0.123
-461.084	-200.000	-0.008	0.071
-460.070	-20.515	-0.254	0.156
-459.055	-200.000	-0.053	0.243
-458.040	167.280	0.238	-0.338
-457.026	800.000	-0.013	-0.039
-456.011	-200.000	0.038	0.366
-454.997	-74.806	0.087	0.031
-453.982	-14.226	-0.178	0.114
-452.968	107.826	-0.045	-0.054
-451.953	37.192	0.093	0.082
-450.938	800.000	-0.058	-0.227
-449.924	89.512	0.263	-0.292
-448.909	-34.833	0.078	-0.042
-447.895	-119.369	-0.604	0.105
-446.880	181.351	-0.210	-0.308
-445.865	800.000	0.034	0.109
-444.851	-110.200	-0.078	0.016
-443.836	121.501	0.156	0.193
-442.822	-130.988	0.144	0.019
-441.807	-200.000	-0.010	-0.260
-440.792	800.000	-0.114	0.457
-439.778	69.053	0.130	0.133
-438.763	432.542	-0.124	-0.269
-437.749	-188.243	0.220	-0.003
-436.734	-118.677	0.463	0.081
-435.719	-62.285	0.251	0.104
-434.705	-43.905	-0.167	-0.084
-433.690	-13.524	-0.042	-0.027
-432.676	287.393	0.062	-0.113
-431.661	6.740	-0.105	-0.078
-430.646	800.000	-0.118	0.338
-429.632	-200.000	0.017	0.219
-428.617	-200.000	0.020	0.199
-427.603	-69.058	-0.087	0.033
-426.588	76.659	-0.112	-0.119
-425.573	-200.000	-0.036	-0.201
-424.559	-200.000	0.011	-0.097
-423.544	-200.000	0.128	0.639
-422.530	-163.956	0.265	0.012
-421.515	-82.852	-0.339	0.109
-420.500	-200.000	-0.043	-0.215
-419.486	800.000	0.056	-0.207
-418.471	-200.000	0.011	-0.299
-417.457	-70.816	-0.294	0.110
-416.442	-200.000	-0.037	0.334
-415.428	242.645	-0.207	0.345
-414.413	-200.000	-0.060	0.296
-413.398	-102.040	-0.411	-0.099
-412.384	-6.963	0.122	0.083
-411.369	79.996	-0.108	-0.115
-410.355	-167.149	-0.095	-0.004
-409.340	570.842	-0.030	-0.073
-408.325	-200.000	-0.027	-0.129
-407.311	455.945	-0.083	-0.184
-406.296	-200.000	-0.007	-0.200
-405.282	-52.344	0.135	-0.062
-404.267	-71.319	-0.162	-0.061
-403.252	-200.000	-0.023	-0.217
-402.238	30.817	-0.015	0.013
-401.223	-51.775	0.184	0.085
-400.209	176.697	-0.127	0.183
-399.194	177.015	0.021	-0.031
-398.179	-84.526	-0.219	0.069
-397.165	-200.000	-0.071	0.369
-396.150	-146.587	-0.250	-0.022
-395.136	-155.091	-0.197	-0.013
-394.121	-174.992	0.336	-0.009
-393.106	322.472	0.102	0.193
-392.092	-81.243	-0.203	-0.067
-391.077	800.000	0.032	0.097
-390.063	-79.730	0.330	0.111
-389.048	-94.112	0.160	0.044
-388.033	462.008	0.141	0.312
-387.019	713.222	0.043	-0.112
-386.004	206.216	0.169	0.261
-384.990	415.658	-0.014	0.029
-383.975	-80.699	0.181	-0.060
-382.960	21.147	0.214	0.173
-381.946	-73.074	0.217	-0.079
-380.931	-200.000	0.003	-0.176
-379.917	63.608	0.245	0.244
-378.902	-27.699	-0.337	0.194
-377.888	129.942	-0.010	-0.013
-376.873	-104.044	0.198	0.046
-375.858	-200.000	-0.021	0.110
-374.844	-162.899	0.080	0.004
-373.829	-152.126	-0.105	-0.008
-372.815	-49.979	-0.084	0.040
-371.800	800.000	0.139	-0.390
-370.785	-115.731	-0.360	-0.067
-369.771	355.738	-0.084	0.165
-368.756	-200.000	-0.075	-0.461
-367.742	214.751	-0.082	-0.129
-366.727	800.000	-0.068	-0.241
-365.712	-200.000	-0.021	-0.116
-364.698	-48.837	0.039	0.018
-363.683	800.000	-0.058	0.161
-362.669	7.164	-0.211	0.156
-361.654	-136.187	-0.357	-0.042
-360.639	-200.000	0.063	0.278
-359.625	-108.980	0.277	-0.059
-358.610	520.516	-0.097	-0.226
-357.596	-30.677	-0.195	0.110
-356.581	285.089	0.149	-0.267
-355.566	-200.000	-0.007	0.239
-354.552	-200.000	0.077	0.362
-353.537	-200.000	-0.002	0.203
-352.523	-89.965	-0.233	-0.068
-351.508	123.928	0.148	-0.184
-350.493	-200.000	0.071	-0.370
-349.479	800.000	-0.015	0.057
-348.464	-200.000	0.000	-0.210
-347.450	475.128	-0.105	-0.236
-346.435	-38.430	0.258	0.135
-345.420	388.578	0.159	0.328
-344.406	170.731	-0.126	0.179
-343.391	666.812	-0.127	0.325
-342.377	182.744	0.183	0.268
-341.362	-41.418	0.247	-0.126
-340.348	-40.485	0.179	0.092
-339.333	-200.000	-0.007	0.036
-338.318	143.088	0.105	0.139
-337.304	107.879	-0.237	-0.281
-336.289	105.519	-0.075	-0.088
-335.275	-96.188	-0.368	-0.097
-334.260	-92.324	0.101	-0.028
-333.245	50.051	-0.110	0.103
-332.231	-145.096	0.419	0.038
-331.216	557.761	-0.129	0.309
-330.202	-125.751	-0.186	0.028
-329.187	223.351	0.108	0.173
-328.172	-64.571	-0.138	0.056
-327.158	-200.000	0.013	-0.614
-326.143	-162.992	0.215	-0.010
-325.129	227.440	-0.024	0.038
-324.114	156.099	-0.020	-0.027
-323.099	627.070	0.039	-0.097
-322.085	123.319	-0.151	-0.188
-321.070	111.296	0.341	-0.407
-320.056	494.117	0.033	-0.074
-319.041	-200.000	0.021	-0.165
-318.026	132.398	0.062	-0.080
-317.012	-200.000	-0.019	0.312
-315.997	-200.000	-0.012	-0.080
-314.983	30.827	0.251	0.213
-313.968	-200.000	-0.005	-0.101
-312.953	691.053	-0.047	-0.123
-311.939	-21.509	0.150	-0.091
-310.924	-89.722	0.387	0.112
-309.910	-94.960	0.351	0.094
-308.895	21.710	0.224	-0.181
-307.880	50.865	0.102	-0.096
-306.866	29.343	0.301	-0.253
-305.851	-13.255	0.121	-0.078
-304.837	-12.124	-0.044	-0.029
-303.822	68.131	0.162	0.164
-302.807	-160.827	0.280	0.015
-301.793	-114.417	0.097	0.019
-300.778	-27.210	0.095	-0.055
-299.764	149.951	0.185	0.248
-298.749	-200.000	0.019	-0.122
-297.735	-200.000	-0.030	-0.169
-296.720	-162.015	-0.231	0.012
-295.705	169.056	-0.031	-0.044
-294.691	-184.726	-0.421	-0.007
-293.676	55.683	0.025	-0.024
-292.662	510.815	-0.057	-0.131
-291.647	32.413	0.192	0.164
-290.632	55.217	0.175	-0.168
-289.618	2.601	-0.200	-0.144
-288.603	800.000	-0.054	0.186
-287.589	448.340	0.139	0.304
-286.574	-118.573	0.147	-0.026
-285.559	-39.892	0.145	-0.075
-284.545	800.000	0.041	-0.115
-283.530	60.325	-0.112	-0.110
-282.516	-110.737	-0.139	-0.028
-281.501	78.598	-0.044	0.047
-280.486	-137.786	-0.072	0.008
-279.472	51.710	-0.150	0.142
-278.457	800.000	-0.100	0.314
-277.443	-102.886	0.134	0.032
-276.428	92.295	0.146	-0.163
-275.413	-110.927	0.257	-0.052
-274.399	800.000	0.047	0.130
-273.384	-35.710	-0.205	-0.110
-272.370	-20.203	-0.169	-0.103
-271.355	51.169	0.171	-0.161
-270.340	333.929	0.263	-0.505
-269.326	-24.968	0.107	-0.063
-268.311	108.241	0.166	0.197
-267.297	745.381	0.160	-0.425
-266.282	-107.642	0.216	0.047
-265.267	-176.558	0.121	-0.003
-264.253	68.160	0.073	-0.074
-263.238	-21.068	0.196	0.119
-262.224	104.100	-0.262	0.305
-261.209	408.440	0.036	0.076
-260.195	101.563	0.227	0.262
-259.180	-72.323	-0.080	-0.029
-258.165	800.000	0.149	0.415
-257.151	800.000	-0.075	-0.228
-256.136	800.000	-0.039	0.149
-255.122	-18.841	-0.180	0.111
-254.107	-200.000	0.080	0.394
-253.092	696.750	0.025	-0.066
-252.078	1.936	-0.110	-0.078
-251.063	-103.569	-0.026	-0.006
-250.049	-113.255	-0.145	0.028
-249.034	-3.242	-0.082	0.057
-248.019	-37.328	-0.256	-0.135
-247.005	-121.455	0.367	-0.060
-245.990	736.453	0.087	-0.231
-244.976	97.799	-0.153	-0.174
-243.961	437.702	0.074	0.160
-242.946	217.688	-0.082	-0.130
-241.932	-200.000	0.038	0.193
-240.917	-61.647	-0.416	0.173
-239.903	2.913	-0.154	0.111
-238.888	121.696	-0.113	0.139
-237.873	-77.330	0.346	-0.119
-236.859	-75.487	0.356	0.125
-235.844	-51.978	0.221	0.102
-234.830	678.548	0.068	0.175
-233.815	450.908	-0.229	0.500
-232.800	579.635	-0.120	0.290
-231.786	12.072	0.228	0.173
-230.771	-78.859	0.056	0.019
-229.757	-123.901	-0.203	-0.032
-228.742	81.119	0.071	-0.076
-227.727	728.441	0.030	-0.080
-226.713	-188.435	0.337	0.004
-225.698	13.819	-0.237	-0.182
-224.684	-92.200	0.351	0.098
-223.669	-41.162	-0.082	-0.042
-222.655	-23.612	-0.198	0.118
-221.640	-200.000	-0.020	0.220
-220.625	-62.056	0.088	-0.036
-219.611	20.322	0.100	0.080
-218.596	238.533	-0.162	0.267
-217.582	-200.000	-0.027	0.211
-216.567	-197.805	-0.169	-0.001
-215.552	-141.973	-0.023	0.002
-214.538	-56.439	-0.123	0.054
-213.523	-133.191	0.200	0.025
-212.509	800.000	0.062	-0.248
-211.494	19.316	-0.208	0.165
-210.479	-200.000	0.002	-0.177
-209.465	-103.273	-0.055	-0.013
-208.450	800.000	-0.029	-0.118
-207.436	-81.071	-0.030	0.010
-206.421	58.053	0.122	-0.118
-205.406	97.139	-0.233	0.265
-204.392	-200.000	0.006	-0.122
-203.377	45.399	-0.095	-0.087
-202.363	800.000	0.069	0.190
-201.348	199.594	-0.037	-0.056
-200.333	-200.000	-0.004	0.338
-199.319	93.099	-0.065	0.073
-198.304	-103.240	0.149	-0.035
-197.290	-200.000	0.004	0.090
-196.275	-200.000	-0.043	-0.224
-195.260	757.208	-0.054	0.144
-194.246	800.000	0.063	-0.221
-193.231	-77.333	0.164	-0.056
-192.217	-200.000	0.012	0.111
-191.202	-200.000	-0.003	0.199
-190.187	-68.349	-0.213	-0.082
-189.173	343.358	-0.148	-0.287
-188.158	-23.513	-0.266	0.158
-187.144	-82.429	0.252	0.081
-186.129	-40.637	0.198	0.102
-185.114	-85.884	0.238	-0.073
-184.100	-72.727	-0.132	0.048
-183.085	-32.894	-0.074	0.040
-182.071	45.731	-0.292	-0.267
-181.056	5.084	0.181	-0.132
-180.042	139.781	-0.078	-0.101
-179.027	-200.000	0.138	-0.000
-178.012	263.533	0.293	0.503
-176.998	-55.005	0.166	0.074
-175.983	-200.000	-0.047	0.207
-174.969	150.248	0.299	0.400
-173.954	74.962	0.292	0.304
-172.939	-113.873	0.087	-0.017
-171.925	-129.786	-0.112	-0.015
-170.910	-107.999	0.270	0.058
-169.896	395.838	0.113	-0.232
-168.881	496.313	0.070	-0.159
-167.866	-127.646	0.294	0.042
-166.852	-136.890	0.069	-0.008
-165.837	200.820	-0.056	-0.085
-164.823	76.594	0.112	-0.118
-163.808	-72.955	-0.268	-0.097
-162.793	134.556	-0.068	0.088
-161.779	800.000	-0.040	0.116
-160.764	75.837	-0.157	0.164
-159.750	56.735	0.133	-0.127
-158.735	-104.722	-0.082	0.019
-157.720	-144.375	0.270	0.025
-156.706	-111.859	-0.066	-0.013
-155.691	-146.983	-0.117	-0.010
-154.677	-68.129	-0.135	-0.052
-153.662	-132.481	0.223	-0.028
-152.647	800.000	0.094	-0.276
-151.633	-117.847	-0.122	0.022
-150.618	-30.279	0.304	0.170
-149.604	191.179	0.127	0.188
-148.589	-65.195	0.276	-0.110
-147.574	-104.993	0.088	-0.020
-146.560	800.000	0.058	0.225
-145.545	406.664	-0.148	0.307
-144.531	-189.044	-0.138	-0.002
-143.516	-71.843	-0.247	0.091
-142.502	-57.152	-0.167	-0.073
-141.487	-87.665	0.219	-0.065
-140.472	-200.000	0.009	-0.102
-139.458	203.385	0.202	0.308
-138.443	-151.824	0.166	0.012
-137.429	-41.144	0.269	-0.137
-136.414	247.633	0.146	0.243
-135.399	-116.853	-0.159	0.029
-134.385	76.493	0.163	0.170
-133.370	-14.605	0.152	0.096
-132.356	-200.000	0.021	0.166
-131.341	611.643	0.051	0.125
-130.326	-122.765	-0.225	-0.036
-129.312	24.096	-0.072	0.059
-128.297	-200.000	-0.057	0.329
-127.283	-133.171	-0.141	-0.018
-126.268	144.669	0.065	0.086
-125.253	-132.501	-0.183	-0.023
-124.239	-15.222	-0.180	0.113
-123.224	-92.839	-0.237	-0.065
-122.210	10.540	0.375	-0.282
