DTS Sentinel unit serial number:	SN413079Multiplexer serial number:	ORYXHardware model number:	OX4-SRSoftware version number:	ORYX F/W v4.00 Oryx Data Collector v3.7.2.0data status	okinstallation	princeton_trtdifferential loss correction	single-endedforward channel	channel 4reverse channel	N/Adate	2019/09/12time	21:37:35forward acquisition time	60.00reverse acquisition time	0.00gamma	496.2192k internal	0.2314k external	0.2314temperature offset calibration	1.0169default loss term (dB/km)	0.3790temperature slope calibration	1.0000multiplexer offset coefficient	1.0000multiplexer slope coefficient	1.0000fibre end	0.00T internal ref (°C)	30.36T ext. ref 1 (°C)	3.67T ext. ref 2 (°C)	24.96length (m)	temperature (°C)	Stokes	anti-Stokes-747.200	-200.000	-0.003	0.573
-746.185	-200.000	-0.045	0.208
-745.171	-72.931	-0.145	-0.054
-744.156	61.678	0.199	-0.201
-743.142	-52.361	0.197	-0.093
-742.127	-97.555	0.259	-0.068
-741.112	39.529	-0.149	0.135
-740.098	-148.493	0.109	0.009
-739.083	-107.150	-0.319	0.071
-738.069	104.544	-0.130	0.156
-737.054	-51.759	0.233	-0.110
-736.039	-200.000	0.071	-0.342
-735.025	6.587	-0.068	-0.051
-734.010	-75.746	-0.235	0.084
-732.996	-200.000	0.033	0.224
-731.981	800.000	0.067	0.210
-730.966	74.804	-0.167	0.178
-729.952	359.988	-0.197	-0.400
-728.937	289.698	0.074	0.137
-727.923	-12.433	0.114	0.075
-726.908	128.231	-0.341	-0.440
-725.894	800.000	-0.044	-0.149
-724.879	-109.663	-0.128	-0.027
-723.864	-101.705	-0.055	0.013
-722.850	800.000	-0.060	-0.249
-721.835	180.649	-0.032	-0.047
-720.821	-200.000	-0.011	-0.069
-719.806	-200.000	-0.002	0.117
-718.791	-38.831	-0.097	-0.052
-717.777	69.857	-0.118	-0.123
-716.762	641.777	0.017	-0.043
-715.748	483.582	-0.107	0.245
-714.733	-200.000	-0.033	0.189
-713.718	288.458	-0.095	-0.174
-712.704	-81.154	0.123	0.041
-711.689	-200.000	-0.018	-0.254
-710.675	41.620	0.072	0.066
-709.660	-63.350	-0.074	-0.031
-708.645	-200.000	0.018	0.090
-707.631	216.540	0.182	-0.292
-706.616	-83.560	-0.195	-0.063
-705.602	800.000	-0.036	-0.120
-704.587	-29.202	0.260	-0.151
-703.572	24.573	0.025	0.021
-702.558	-105.799	-0.349	0.080
-701.543	-157.247	-0.372	-0.023
-700.529	-200.000	0.004	-0.019
-699.514	-200.000	0.060	0.280
-698.499	98.295	-0.122	0.142
-697.485	484.708	-0.090	-0.208
-696.470	109.510	-0.162	-0.196
-695.456	800.000	0.031	0.097
-694.441	386.329	-0.114	-0.239
-693.426	19.533	-0.080	-0.065
-692.412	-83.275	0.180	0.058
-691.397	176.965	-0.201	-0.296
-690.383	327.038	-0.115	-0.224
-689.368	-200.000	0.020	-0.254
-688.354	-20.563	-0.193	-0.120
-687.339	85.936	0.164	-0.183
-686.324	58.763	0.061	0.061
-685.310	800.000	0.040	-0.126
-684.295	29.025	-0.220	0.189
-683.281	587.680	0.066	0.164
-682.266	358.732	-0.063	-0.128
-681.251	-54.462	-0.315	-0.145
-680.237	-127.148	0.113	-0.017
-679.222	-127.539	-0.123	0.018
-678.208	406.461	-0.056	-0.119
-677.193	-66.487	0.213	0.085
-676.178	800.000	0.109	-0.378
-675.164	-200.000	-0.005	-0.244
-674.149	572.436	0.196	-0.484
-673.135	-82.447	-0.285	-0.094
-672.120	166.751	-0.227	-0.326
-671.105	-200.000	-0.058	-0.496
-670.091	800.000	0.053	0.155
-669.076	-97.209	-0.097	0.026
-668.062	353.675	0.129	0.259
-667.047	-200.000	-0.028	-0.128
-666.032	-200.000	-0.044	0.229
-665.018	800.000	0.069	-0.217
-664.003	-6.906	-0.046	0.031
-662.989	-79.526	0.156	0.053
-661.974	-117.643	0.064	0.012
-660.959	-112.796	-0.075	-0.015
-659.945	93.226	0.137	0.157
-658.930	-135.082	0.155	0.019
-657.916	-67.235	-0.256	0.102
-656.901	34.170	-0.169	0.149
-655.886	-78.011	-0.319	-0.111
-654.872	84.568	0.225	-0.249
-653.857	455.885	-0.053	0.119
-652.843	-37.520	-0.123	0.066
-651.828	176.668	0.063	0.092
-650.814	115.617	0.069	-0.085
-649.799	-200.000	-0.032	-0.166
-648.784	-59.083	0.098	-0.043
-647.770	-159.024	-0.129	0.007
-646.755	257.101	-0.126	-0.219
-645.741	-85.337	0.302	-0.095
-644.726	-1.040	-0.179	-0.128
-643.711	279.055	0.017	0.031
-642.697	-9.488	-0.213	0.144
-641.682	-200.000	0.042	-0.242
-640.668	-86.865	0.209	-0.064
-639.653	800.000	-0.035	0.112
-638.638	-59.375	-0.076	-0.033
-637.624	122.738	-0.141	-0.178
-636.609	-74.524	-0.296	0.108
-635.595	300.661	-0.156	-0.291
-634.580	800.000	-0.120	-0.390
-633.565	270.017	-0.078	-0.139
-632.551	-89.753	-0.277	-0.082
-631.536	59.399	0.066	-0.066
-630.522	-200.000	0.079	-0.355
-629.507	-200.000	0.083	-0.411
-628.492	800.000	-0.015	0.062
-627.478	-70.816	0.167	-0.063
-626.463	-27.538	0.097	0.057
-625.449	-95.251	-0.135	0.037
-624.434	-87.151	-0.184	-0.056
-623.419	52.572	-0.104	-0.101
-622.405	-98.123	-0.172	0.045
-621.390	373.033	-0.121	-0.248
-620.376	492.387	-0.118	-0.273
-619.361	-173.068	0.176	0.005
-618.346	-78.468	-0.091	0.031
-617.332	192.905	-0.067	0.103
-616.317	-197.684	0.409	0.003
-615.303	-200.000	-0.017	0.103
-614.288	-146.831	-0.385	0.034
-613.273	-200.000	0.023	-0.175
-612.259	361.509	0.033	0.067
-611.244	-54.981	0.228	0.103
-610.230	-113.592	-0.284	-0.056
-609.215	258.840	-0.046	-0.080
-608.201	-26.778	-0.108	-0.064
-607.186	-124.580	-0.324	0.051
-606.171	800.000	0.077	-0.241
-605.157	18.096	-0.224	0.180
-604.142	-158.290	-0.290	0.017
-603.128	-118.205	-0.246	0.044
-602.113	432.903	0.060	-0.131
-601.098	-200.000	0.019	-0.179
-600.084	-200.000	-0.078	-0.402
-599.069	-31.288	-0.172	-0.098
-598.055	56.105	0.150	0.146
-597.040	641.772	0.087	0.223
-596.025	-200.000	-0.018	0.317
-595.011	-12.743	-0.124	0.081
-593.996	-67.057	-0.097	0.039
-592.982	-200.000	-0.052	-0.238
-591.967	-179.630	0.203	0.004
-590.952	-39.713	0.166	-0.088
-589.938	-200.000	-0.063	-0.338
-588.923	-33.877	-0.213	0.118
-587.909	-50.239	-0.094	0.045
-586.894	-41.374	-0.271	-0.141
-585.879	-119.151	0.104	0.018
-584.865	33.227	0.164	0.143
-583.850	-79.120	0.159	0.055
-582.836	762.566	0.023	0.063
-581.821	-59.226	0.185	-0.080
-580.806	26.329	-0.136	-0.115
-579.792	556.427	0.119	0.290
-578.777	-36.297	0.348	-0.189
-577.763	-200.000	-0.028	-0.324
-576.748	295.484	0.126	-0.233
-575.733	85.364	0.078	0.086
-574.719	440.321	0.173	-0.381
-573.704	408.997	-0.033	-0.069
-572.690	25.382	-0.154	-0.129
-571.675	180.169	-0.043	-0.064
-570.661	-200.000	-0.023	-0.479
-569.646	105.416	-0.025	0.030
-568.631	206.407	-0.028	0.043
-567.617	-12.357	0.070	-0.046
-566.602	800.000	0.147	-0.604
-565.588	201.709	-0.120	0.186
-564.573	456.249	-0.173	0.387
-563.558	508.139	-0.043	-0.100
-562.544	-17.541	-0.167	0.106
-561.529	6.406	0.131	-0.098
-560.515	22.628	0.080	0.066
-559.500	-0.898	0.215	0.154
-558.485	800.000	0.108	-0.367
-557.471	-200.000	0.048	-0.237
-556.456	546.978	0.110	-0.264
-555.442	-46.102	0.132	-0.065
-554.427	-57.205	-0.211	-0.094
-553.412	-16.094	-0.108	0.069
-552.398	-200.000	0.038	-0.236
-551.383	800.000	-0.027	-0.087
-550.369	800.000	-0.041	0.130
-549.354	-89.198	0.273	-0.081
-548.339	-139.351	-0.340	-0.037
-547.325	-200.000	-0.005	0.063
-546.310	-80.562	-0.194	0.065
-545.296	-2.456	-0.101	-0.071
-544.281	455.509	0.066	0.148
-543.266	79.694	0.304	0.329
-542.252	-135.666	0.241	0.029
-541.237	-200.000	-0.001	-0.110
-540.223	-200.000	-0.038	0.197
-539.208	-51.875	-0.205	-0.096
-538.193	-93.764	0.187	0.052
-537.179	18.767	-0.069	-0.055
-536.164	169.668	-0.077	-0.111
-535.150	-176.546	0.189	0.005
-534.135	-32.139	0.186	0.105
-533.121	548.251	-0.138	0.331
-532.106	183.731	0.030	-0.044
-531.091	-37.115	-0.080	0.043
-530.077	705.460	-0.087	-0.231
-529.062	251.071	0.123	0.209
-528.048	-48.840	0.177	0.085
-527.033	-53.819	0.031	-0.014
-526.018	160.545	0.211	0.296
-525.004	-200.000	0.012	0.234
-523.989	188.534	0.117	0.176
-522.975	-109.172	-0.310	0.066
-521.960	593.448	0.123	0.306
-520.945	-8.832	0.090	-0.060
-519.931	800.000	-0.046	-0.184
-518.916	800.000	0.076	-0.214
-517.902	12.478	-0.081	-0.063
-516.887	-16.664	-0.280	0.178
-515.872	50.552	-0.047	-0.044
-514.858	-200.000	0.013	0.295
-513.843	-200.000	0.008	0.329
-512.829	-69.088	0.070	-0.027
-511.814	800.000	0.051	-0.180
-510.799	-50.414	0.083	0.039
-509.785	-67.924	0.410	0.161
-508.770	513.229	-0.162	-0.379
-507.756	113.511	-0.222	-0.270
-506.741	-66.061	0.421	-0.169
-505.726	-99.177	-0.242	0.061
-504.712	-27.222	0.131	0.077
-503.697	-111.575	0.192	0.039
-502.683	-200.000	-0.019	0.382
-501.668	86.560	0.210	0.233
-500.653	-143.894	0.124	0.012
-499.639	-128.337	-0.273	-0.039
-498.624	-31.620	-0.088	-0.049
-497.610	344.516	0.019	0.038
-496.595	73.277	-0.172	-0.181
-495.581	-71.039	-0.054	0.020
-494.566	31.372	0.072	-0.062
-493.551	2.716	0.166	-0.121
-492.537	-200.000	0.003	0.015
-491.522	800.000	-0.034	0.145
-490.508	-16.282	-0.202	-0.129
-489.493	-74.311	-0.386	0.140
-488.478	-200.000	-0.041	-0.240
-487.464	103.606	-0.176	-0.207
-486.449	-27.522	0.307	0.179
-485.435	-200.000	-0.006	-0.091
-484.420	163.556	-0.254	-0.359
-483.405	690.702	-0.131	0.345
-482.391	4.859	0.340	0.251
-481.376	273.874	0.136	-0.242
-480.362	688.412	0.025	0.065
-479.347	-200.000	-0.048	0.253
-478.332	64.953	-0.162	0.164
-477.318	273.517	0.103	-0.183
-476.303	596.046	-0.164	0.409
-475.289	617.267	0.098	0.247
-474.274	213.759	0.100	-0.158
-473.259	756.374	-0.073	-0.197
-472.245	-200.000	-0.041	-0.637
-471.230	36.060	-0.180	-0.159
-470.216	-137.760	-0.145	-0.016
-469.201	342.593	0.165	0.324
-468.186	-78.186	-0.135	-0.047
-467.172	800.000	0.104	0.382
-466.157	-104.032	0.108	0.025
-465.143	19.872	-0.246	-0.199
-464.128	43.754	-0.198	0.182
-463.113	245.223	0.048	0.081
-462.099	217.598	-0.039	-0.062
-461.084	-109.087	-0.176	-0.038
-460.070	91.818	-0.190	0.215
-459.055	-177.648	-0.182	0.004
-458.040	283.092	-0.139	-0.250
-457.026	73.073	0.098	-0.103
-456.011	-200.000	-0.041	0.504
-454.997	152.084	-0.089	-0.122
-453.982	-200.000	0.014	0.089
-452.968	178.358	0.183	-0.268
-451.953	-157.494	0.340	-0.020
-450.938	90.255	-0.093	0.105
-449.924	-132.704	-0.177	-0.023
-448.909	-57.822	0.124	0.055
-447.895	-8.960	-0.269	0.181
-446.880	-82.375	0.264	-0.086
-445.865	37.610	0.250	-0.222
-444.851	-104.944	0.149	-0.034
-443.836	-200.000	0.049	0.241
-442.822	-12.335	-0.082	0.054
-441.807	125.461	-0.249	-0.315
-440.792	437.888	-0.075	0.164
-439.778	12.949	0.363	0.281
-438.763	-200.000	0.027	0.219
-437.749	-200.000	-0.022	0.170
-436.734	800.000	0.076	0.271
-435.719	-59.793	-0.110	0.047
-434.705	128.972	-0.147	-0.188
-433.690	-176.939	-0.088	-0.002
-432.676	32.589	-0.173	-0.150
-431.661	-200.000	0.043	-0.232
-430.646	16.000	-0.234	0.184
-429.632	-8.608	0.256	0.172
-428.617	-10.912	0.057	0.037
-427.603	-99.312	0.144	-0.036
-426.588	425.092	-0.175	0.377
-425.573	-70.925	0.064	0.024
-424.559	-165.047	0.466	0.021
-423.544	-200.000	0.016	0.235
-422.530	128.100	0.148	0.188
-421.515	71.652	0.201	-0.209
-420.500	6.780	-0.362	-0.270
-419.486	322.236	0.101	0.193
-418.471	11.978	0.368	-0.283
-417.457	800.000	0.100	-0.401
-416.442	16.933	-0.328	0.260
-415.428	-200.000	0.007	0.093
-414.413	-200.000	0.003	-0.504
-413.398	-133.576	0.084	-0.011
-412.384	800.000	-0.135	-0.396
-411.369	708.847	-0.136	0.360
-410.355	-200.000	0.038	-0.294
-409.340	-200.000	-0.033	-0.000
-408.325	179.597	0.076	0.111
-407.311	195.532	0.249	-0.379
-406.296	-200.000	0.034	0.154
-405.282	-200.000	-0.029	-0.217
-404.267	-200.000	-0.015	-0.070
-403.252	800.000	-0.064	-0.216
-402.238	504.084	-0.060	0.139
-401.223	184.885	-0.201	0.298
-400.209	-200.000	-0.019	0.162
-399.194	-200.000	0.041	0.304
-398.179	-111.398	0.214	0.044
-397.165	-109.873	0.394	0.083
-396.150	-135.219	-0.090	-0.011
-395.136	201.947	0.175	0.270
-394.121	63.553	-0.209	0.210
-393.106	-200.000	-0.007	-0.223
-392.092	-200.000	0.001	0.117
-391.077	-140.222	0.091	-0.009
-390.063	383.622	-0.038	-0.078
-389.048	-39.879	0.323	0.169
-388.033	-98.791	-0.235	0.060
-387.019	800.000	-0.061	0.235
-386.004	132.715	-0.136	0.176
-384.990	14.539	0.187	0.146
-383.975	427.798	0.199	0.429
-382.960	79.202	-0.197	-0.211
-381.946	800.000	-0.047	-0.135
-380.931	12.615	-0.251	-0.193
-379.917	85.604	0.174	-0.191
-378.902	136.152	-0.140	-0.182
-377.888	-200.000	-0.024	-0.235
-376.873	-40.749	0.236	0.122
-375.858	127.053	0.119	0.151
-374.844	-140.986	-0.198	0.020
-373.829	222.746	0.172	-0.277
-372.815	500.650	0.152	-0.351
-371.800	-24.972	-0.062	0.037
-370.785	118.513	0.030	-0.037
-369.771	246.326	-0.078	0.131
-368.756	12.111	-0.025	-0.019
-367.742	-200.000	-0.071	0.314
-366.727	-120.804	-0.301	0.051
-365.712	596.967	0.156	-0.386
-364.698	-69.100	0.135	-0.052
-363.683	155.444	-0.120	0.165
-362.669	204.087	-0.160	0.248
-361.654	167.514	0.179	0.254
-360.639	800.000	0.008	0.028
-359.625	108.368	-0.232	-0.277
-358.610	138.363	0.073	0.096
-357.596	-119.803	-0.067	-0.012
-356.581	-36.212	0.186	-0.100
-355.566	800.000	0.060	0.182
-354.552	-200.000	0.107	-0.588
-353.537	12.802	-0.107	-0.083
-352.523	-73.713	-0.334	-0.121
-351.508	-200.000	0.003	0.191
-350.493	241.639	-0.122	-0.204
-349.479	800.000	-0.042	-0.132
-348.464	-200.000	0.017	0.161
-347.450	-200.000	-0.023	-0.270
-346.435	-118.787	0.168	-0.030
-345.420	-200.000	0.096	-0.543
-344.406	-73.095	-0.087	-0.032
-343.391	424.197	0.183	0.393
-342.377	693.155	0.034	0.089
-341.362	48.327	0.163	0.153
-340.348	65.659	-0.347	0.350
-339.333	-173.955	0.131	-0.004
-338.318	-185.806	0.388	0.006
-337.304	-167.069	0.288	0.012
-336.289	598.493	0.202	0.499
-335.275	-97.859	0.317	-0.082
-334.260	-200.000	0.007	-0.067
-333.245	-200.000	-0.034	0.281
-332.231	-85.432	-0.303	0.094
-331.216	800.000	0.075	0.255
-330.202	800.000	0.097	0.287
-329.187	-39.887	-0.229	0.119
-328.172	-78.731	0.390	0.133
-327.158	652.579	-0.052	0.133
-326.143	-163.975	0.259	0.012
-325.129	-49.153	-0.237	0.113
-324.114	-200.000	-0.001	0.044
-323.099	129.569	0.194	0.247
-322.085	-52.407	0.286	-0.132
-321.070	67.680	-0.269	-0.275
-320.056	459.645	0.098	-0.218
-319.041	358.781	-0.061	-0.122
-318.026	-163.485	0.379	-0.018
-317.012	-88.735	0.141	0.042
-315.997	136.832	-0.011	0.014
-314.983	-75.230	-0.415	-0.148
-313.968	-77.957	0.220	-0.076
-312.953	-200.000	-0.006	-0.207
-311.939	700.186	0.165	-0.433
-310.924	-200.000	0.001	0.059
-309.910	-200.000	-0.023	-0.131
-308.895	482.000	0.049	-0.111
-307.880	-113.659	-0.171	-0.033
-306.866	-21.253	-0.189	0.115
-305.851	-126.202	0.253	-0.038
-304.837	305.113	0.155	-0.288
-303.822	71.051	-0.079	0.082
-302.807	-63.883	-0.193	-0.079
-301.793	45.045	-0.189	0.173
-300.778	-103.442	0.042	0.010
-299.764	-99.557	-0.139	0.035
-298.749	384.572	-0.094	0.193
-297.735	26.060	-0.109	-0.090
-296.720	-116.436	0.151	-0.028
-295.705	-200.000	0.013	-0.056
-294.691	-110.659	-0.155	0.032
-293.676	-200.000	0.000	-0.125
-292.662	-3.425	-0.177	0.123
-291.647	587.039	-0.097	-0.237
-290.632	-183.571	0.121	0.002
-289.618	-48.421	0.214	0.102
-288.603	332.385	-0.027	-0.052
-287.589	-200.000	0.022	0.128
-286.574	-177.156	-0.310	0.008
-285.559	298.262	0.183	-0.334
-284.545	-113.047	-0.196	0.039
-283.530	-200.000	-0.007	0.217
-282.516	118.638	-0.084	0.103
-281.501	-200.000	0.013	0.067
-280.486	-1.389	-0.063	0.044
-279.472	-200.000	-0.022	-0.184
-278.457	-36.936	0.257	0.137
-277.443	-41.642	-0.203	-0.104
-276.428	-200.000	0.006	-0.058
-275.413	-25.896	-0.053	-0.031
-274.399	-97.082	-0.205	-0.053
-273.384	372.097	-0.118	-0.238
-272.370	-120.442	0.233	-0.039
-271.355	-76.931	-0.327	0.114
-270.340	-133.386	0.171	-0.021
-269.326	119.200	0.113	-0.139
-268.311	347.831	0.141	0.276
-267.297	-100.306	-0.477	0.118
-266.282	-151.919	0.126	0.009
-265.267	-48.938	0.404	0.193
-264.253	15.319	-0.055	-0.043
-263.238	153.167	0.109	0.149
-262.224	150.267	-0.083	-0.112
-261.209	-12.573	-0.119	0.077
-260.195	-200.000	-0.098	0.434
-259.180	92.738	0.140	0.158
-258.165	-128.413	-0.304	0.043
-257.151	800.000	0.079	0.277
-256.136	-87.989	0.336	0.101
-255.122	-200.000	0.013	0.312
-254.107	-1.121	0.172	-0.121
-253.092	190.907	0.209	-0.313
-252.078	-80.735	0.298	0.098
-251.063	75.735	-0.153	0.161
-250.049	800.000	-0.053	-0.229
-249.034	102.875	0.117	0.136
-248.019	65.745	0.068	0.069
-247.005	-29.966	-0.086	0.048
-245.990	-200.000	0.018	-0.176
-244.976	382.466	-0.095	-0.193
-243.961	-200.000	-0.000	0.143
-242.946	-103.759	-0.158	-0.037
-241.932	274.562	-0.074	-0.131
-240.917	-122.427	-0.298	0.048
-239.903	-126.349	-0.055	0.008
-238.888	98.953	-0.152	0.174
-237.873	-58.576	-0.253	-0.109
-236.859	-77.805	-0.277	0.095
-235.844	-90.026	0.321	0.093
-234.830	-200.000	0.010	0.190
-233.815	-98.301	-0.274	-0.070
-232.800	351.228	-0.045	-0.088
-231.786	113.208	0.178	-0.215
-230.771	-129.553	0.202	0.028
-229.757	280.996	0.055	-0.098
-228.742	-143.087	-0.216	0.021
-227.727	192.210	0.025	0.037
-226.713	-169.480	-0.135	-0.005
-225.698	-77.079	0.074	-0.026
-224.684	-37.852	-0.171	-0.090
-223.669	407.041	0.041	0.085
-222.655	-109.353	0.539	0.113
-221.640	-200.000	-0.047	0.253
-220.625	-200.000	-0.001	0.157
-219.611	-200.000	0.024	0.108
-218.596	800.000	0.045	-0.133
-217.582	85.904	0.164	-0.179
-216.567	747.644	0.085	-0.228
-215.552	-200.000	0.001	-0.082
-214.538	51.430	0.145	0.137
-213.523	-200.000	-0.040	-0.252
-212.509	161.945	0.139	0.193
-211.494	-200.000	-0.016	0.105
-210.479	207.917	0.133	0.206
-209.465	167.697	0.109	0.154
-208.450	112.344	-0.300	-0.360
-207.436	800.000	0.031	-0.085
-206.421	-74.896	0.214	0.076
-205.406	58.495	0.181	0.177
-204.392	-200.000	-0.010	-0.362
-203.377	-200.000	0.041	0.247
-202.363	15.851	0.216	0.169
-201.348	622.529	0.123	0.308
-200.333	-14.572	-0.106	0.068
-199.319	138.440	0.169	-0.221
-198.304	-111.372	0.312	0.063
-197.290	-162.459	0.124	-0.006
-196.275	-64.967	-0.175	-0.070
-195.260	-74.572	-0.188	0.067
-194.246	32.149	-0.250	0.214
-193.231	-200.000	0.006	0.321
-192.217	-43.785	0.115	0.057
-191.202	-200.000	0.033	0.241
-190.187	-54.424	-0.237	-0.106
-189.173	-90.797	-0.232	0.066
-188.158	-87.518	-0.212	-0.064
-187.144	-107.698	0.279	0.060
-186.129	-57.760	-0.147	0.064
-185.114	-154.948	-0.141	0.009
-184.100	436.930	-0.023	-0.050
-183.085	757.597	0.056	0.151
-182.071	-106.831	-0.167	0.037
-181.056	-58.801	0.437	0.188
-180.042	-110.862	-0.283	-0.058
-179.027	229.436	-0.139	0.225
-178.012	-131.961	0.337	0.044
-176.998	-200.000	-0.020	-0.188
-175.983	295.490	0.119	-0.216
-174.969	-200.000	-0.024	-0.199
-173.954	-113.587	-0.280	-0.054
-172.939	-104.059	0.085	0.020
-171.925	-200.000	-0.041	0.203
-170.910	273.358	-0.064	0.112
-169.896	-16.800	-0.246	0.154
-168.881	39.968	-0.187	-0.167
-167.866	-200.000	-0.025	-0.373
-166.852	-90.802	-0.097	-0.028
-165.837	-200.000	-0.014	-0.228
-164.823	22.782	0.205	0.166
-163.808	-91.606	-0.112	-0.032
-162.793	262.777	-0.142	-0.244
-161.779	556.695	0.073	0.173
-160.764	51.404	0.105	0.099
-159.750	79.362	-0.075	0.079
-158.735	263.840	0.088	0.151
-157.720	800.000	0.159	0.453
-156.706	180.853	0.108	-0.158
-155.691	-57.173	0.246	-0.107
-154.677	-119.816	-0.315	0.054
-153.662	-145.919	-0.037	0.003
-152.647	-23.046	0.296	0.176
-151.633	800.000	0.027	0.113
-150.618	36.500	0.033	-0.029
-149.604	-102.513	-0.069	-0.016
-148.589	-200.000	0.026	0.129
-147.574	235.708	-0.155	-0.253
-146.560	27.329	-0.269	0.224
-145.545	27.911	0.239	0.200
-144.531	152.318	0.097	-0.131
-143.516	558.897	0.031	-0.074
-142.502	272.675	0.065	0.114
-141.487	0.929	0.227	0.161
-140.472	800.000	-0.119	0.435
-139.458	58.676	0.213	0.208
-138.443	-200.000	0.018	0.483
-137.429	8.910	0.129	-0.096
-136.414	8.109	-0.226	-0.168
-135.399	-91.234	0.029	0.008
-134.385	309.466	0.044	0.081
-133.370	11.003	0.223	0.168
-132.356	94.527	-0.182	-0.205
-131.341	-200.000	0.017	0.129
-130.326	-12.904	0.148	-0.095
-129.312	110.971	-0.103	-0.123
-128.297	-100.481	-0.268	-0.066
-127.283	-108.784	-0.219	0.046
-126.268	-145.911	0.414	-0.036
-125.253	-200.000	-0.054	0.255
-124.239	158.124	0.178	0.245
-123.224	-48.608	0.188	0.089
-122.210	134.236	-0.125	0.160
