DTS Sentinel unit serial number:	SN413079Multiplexer serial number:	ORYXHardware model number:	OX4-SRSoftware version number:	ORYX F/W v4.00 Oryx Data Collector v3.7.2.0data status	okinstallation	princeton_trtdifferential loss correction	single-endedforward channel	channel 4reverse channel	N/Adate	2019/09/18time	09:17:34forward acquisition time	60.00reverse acquisition time	0.00gamma	496.2192k internal	0.2324k external	0.2324temperature offset calibration	0.9981default loss term (dB/km)	0.3790temperature slope calibration	1.0000multiplexer offset coefficient	1.0000multiplexer slope coefficient	1.0000fibre end	0.00T internal ref (°C)	25.81T ext. ref 1 (°C)	0.25T ext. ref 2 (°C)	23.20length (m)	temperature (°C)	Stokes	anti-Stokes-747.200	434.998	-0.100	0.219
-746.185	441.403	-0.067	0.149
-745.171	49.302	0.059	0.056
-744.156	-92.485	-0.215	-0.061
-743.142	112.145	0.122	0.149
-742.127	197.471	0.143	0.220
-741.112	12.659	-0.222	0.173
-740.098	117.840	-0.105	0.130
-739.083	18.873	0.275	0.223
-738.069	-70.684	0.161	0.061
-737.054	88.474	-0.049	0.055
-736.039	-55.978	-0.103	-0.046
-735.025	114.683	0.088	0.109
-734.010	10.073	-0.316	-0.242
-732.996	800.000	0.043	-0.133
-731.981	-112.229	-0.122	-0.025
-730.966	800.000	-0.049	-0.151
-729.952	-126.397	0.544	0.082
-728.937	705.160	0.119	-0.318
-727.923	123.630	-0.008	-0.010
-726.908	3.520	-0.064	0.047
-725.894	30.341	-0.142	0.122
-724.879	157.457	0.092	0.129
-723.864	-118.263	0.406	-0.073
-722.850	-200.000	-0.000	0.304
-721.835	800.000	-0.020	0.074
-720.821	454.678	0.046	-0.103
-719.806	-80.299	0.306	-0.103
-718.791	-26.684	-0.107	0.063
-717.777	-59.584	0.553	0.239
-716.762	315.007	0.121	-0.229
-715.748	160.028	0.093	0.131
-714.733	-15.121	0.059	0.038
-713.718	-13.442	-0.129	-0.084
-712.704	60.237	0.108	0.108
-711.689	-4.966	0.184	0.128
-710.675	691.695	-0.068	0.179
-709.660	-164.044	0.287	0.013
-708.645	-169.497	0.174	0.006
-707.631	-59.132	0.062	0.027
-706.616	800.000	0.092	0.301
-705.602	-70.080	0.008	-0.003
-704.587	-200.000	0.061	-0.271
-703.572	-113.601	0.143	0.028
-702.558	274.338	-0.156	-0.278
-701.543	302.239	-0.087	-0.162
-700.529	209.412	0.200	0.317
-699.514	-200.000	0.007	-0.033
-698.499	105.934	0.187	-0.223
-697.485	800.000	-0.052	0.165
-696.470	-200.000	-0.015	-0.217
-695.456	139.710	-0.092	0.122
-694.441	800.000	-0.050	0.150
-693.426	116.381	0.026	-0.032
-692.412	800.000	0.087	-0.296
-691.397	217.207	0.081	0.129
-690.383	800.000	-0.009	0.033
-689.368	-200.000	0.039	-0.235
-688.354	-1.991	0.182	0.129
-687.339	2.843	0.035	0.025
-686.324	-76.887	0.378	0.133
-685.310	-200.000	-0.049	-0.262
-684.295	180.673	0.102	0.151
-683.281	-15.634	0.094	0.060
-682.266	-78.921	0.450	0.154
-681.251	39.845	0.089	-0.080
-680.237	800.000	-0.045	0.161
-679.222	-200.000	0.034	-0.257
-678.208	246.495	0.169	-0.287
-677.193	49.189	0.148	-0.140
-676.178	231.896	0.049	-0.080
-675.164	-200.000	-0.066	-0.317
-674.149	57.714	-0.084	-0.082
-673.135	-200.000	0.020	-0.207
-672.120	-38.978	0.074	-0.039
-671.105	800.000	-0.174	0.490
-670.091	0.160	-0.104	0.074
-669.076	-79.481	0.379	0.129
-668.062	-133.977	0.248	-0.031
-667.047	306.867	0.140	0.263
-666.032	-157.757	-0.377	0.023
-665.018	272.394	-0.205	-0.364
-664.003	-65.151	-0.085	-0.034
-662.989	66.848	0.136	0.139
-661.974	-33.485	0.111	-0.062
-660.959	-101.982	-0.241	0.059
-659.945	-171.281	-0.091	-0.003
-658.930	7.059	0.191	-0.143
-657.916	-124.541	-0.224	0.035
-656.901	800.000	0.038	-0.142
-655.886	-200.000	-0.020	0.153
-654.872	-173.451	0.090	0.003
-653.857	161.849	0.044	-0.061
-652.843	-200.000	-0.021	-0.194
-651.828	71.337	-0.167	-0.175
-650.814	489.264	0.082	-0.187
-649.799	117.045	-0.201	-0.248
-648.784	93.404	0.150	-0.170
-647.770	367.896	-0.087	-0.177
-646.755	-128.008	-0.435	0.063
-645.741	-96.473	0.336	-0.089
-644.726	-14.611	0.097	0.063
-643.711	-101.741	0.288	-0.070
-642.697	34.447	-0.111	0.097
-641.682	-129.199	-0.334	0.047
-640.668	5.166	0.204	0.151
-639.653	84.012	-0.291	-0.320
-638.638	-152.116	0.515	-0.038
-637.624	-200.000	-0.030	-0.186
-636.609	554.728	-0.139	-0.336
-635.595	-200.000	-0.017	0.092
-634.580	6.089	0.077	0.057
-633.565	509.190	-0.113	-0.263
-632.551	800.000	0.081	-0.250
-631.536	69.034	0.190	0.196
-630.522	95.628	-0.246	0.282
-629.507	-200.000	-0.005	-0.132
-628.492	472.384	-0.096	-0.217
-627.478	-200.000	-0.001	0.130
-626.463	64.854	-0.101	0.103
-625.449	445.357	0.025	-0.055
-624.434	-125.482	0.165	0.025
-623.419	65.547	-0.062	-0.063
-622.405	520.567	-0.107	-0.252
-621.390	-200.000	-0.003	0.141
-620.376	395.893	-0.061	0.129
-619.361	26.605	-0.048	0.040
-618.346	-65.324	0.244	-0.099
-617.332	800.000	0.018	-0.060
-616.317	-124.131	-0.081	0.013
-615.303	625.845	-0.041	-0.104
-614.288	11.179	-0.259	-0.199
-613.273	49.979	0.332	-0.314
-612.259	593.859	0.164	0.407
-611.244	800.000	0.047	-0.156
-610.230	-95.083	-0.262	0.071
-609.215	-200.000	-0.023	0.163
-608.201	-69.257	0.138	0.053
-607.186	-150.469	-0.041	0.003
-606.171	117.413	0.034	0.042
-605.157	-72.512	0.196	-0.073
-604.142	6.430	0.115	0.085
-603.128	-63.416	0.105	-0.044
-602.113	476.612	0.173	-0.393
-601.098	264.770	-0.035	0.061
-600.084	141.515	0.197	0.261
-599.069	-39.349	0.178	-0.094
-598.055	38.704	-0.214	0.191
-597.040	-157.026	0.239	-0.015
-596.025	43.768	0.089	0.082
-595.011	27.871	-0.125	-0.105
-593.996	-134.433	-0.162	-0.020
-592.982	-34.558	0.245	-0.134
-591.967	371.500	0.074	0.151
-590.952	-95.032	-0.369	-0.100
-589.938	197.286	0.073	0.111
-588.923	19.147	0.077	-0.062
-587.909	-104.390	-0.199	0.046
-586.894	-11.571	-0.272	0.179
-585.879	363.521	0.159	-0.321
-584.865	-115.099	0.177	0.034
-583.850	-200.000	-0.055	0.271
-582.836	-89.797	-0.242	-0.071
-581.821	-47.509	-0.133	-0.065
-580.806	-84.571	-0.257	-0.081
-579.792	-64.153	-0.396	-0.162
-578.777	626.947	-0.074	-0.187
-577.763	-200.000	0.003	0.049
-576.748	86.044	-0.148	0.164
-575.733	-57.034	-0.178	0.079
-574.719	174.160	-0.202	-0.292
-573.704	198.673	-0.061	0.093
-572.690	-200.000	0.043	0.223
-571.675	254.245	0.141	0.242
-570.661	800.000	0.066	0.195
-569.646	800.000	0.056	0.182
-568.631	-132.296	-0.228	-0.030
-567.617	-200.000	0.009	-0.108
-566.602	278.850	0.184	-0.328
-565.588	800.000	0.002	0.007
-564.573	-200.000	0.041	0.203
-563.558	800.000	0.070	-0.258
-562.544	800.000	0.029	-0.099
-561.529	145.430	-0.269	-0.361
-560.515	79.065	0.136	-0.146
-559.500	4.933	0.043	0.031
-558.485	-112.275	0.409	0.082
-557.471	-169.117	-0.058	-0.002
-556.456	38.873	-0.274	-0.245
-555.442	109.888	0.107	-0.129
-554.427	-200.000	0.034	0.233
-553.412	-63.076	-0.467	-0.193
-552.398	36.865	0.152	0.134
-551.383	-138.649	0.106	-0.012
-550.369	211.465	0.076	-0.119
-549.354	178.582	0.073	-0.107
-548.339	430.434	-0.061	-0.131
-547.325	-90.648	-0.174	-0.050
-546.310	-13.597	0.120	-0.078
-545.296	-200.000	0.027	0.326
-544.281	325.838	0.079	0.152
-543.266	-108.149	-0.195	-0.042
-542.252	115.197	0.239	-0.292
-541.237	-200.000	-0.028	-0.213
-540.223	424.119	-0.064	0.138
-539.208	97.119	-0.131	-0.151
-538.193	88.986	0.070	0.078
-537.179	129.097	-0.107	0.137
-536.164	-200.000	-0.035	-0.178
-535.150	-131.080	0.102	-0.014
-534.135	800.000	0.133	-0.396
-533.121	232.561	0.102	-0.167
-532.106	-84.075	-0.357	-0.113
-531.091	102.524	-0.108	0.127
-530.077	24.740	0.191	-0.159
-529.062	303.057	-0.068	-0.126
-528.048	41.685	0.230	-0.209
-527.033	-25.889	0.110	0.065
-526.018	229.661	-0.084	-0.137
-525.004	44.970	-0.174	0.161
-523.989	81.015	-0.181	0.196
-522.975	-200.000	-0.026	0.167
-521.960	-200.000	-0.016	-0.217
-520.945	-83.355	0.225	-0.072
-519.931	-90.905	0.209	0.060
-518.916	800.000	-0.054	0.180
-517.902	103.179	0.235	-0.276
-516.887	207.174	0.162	-0.253
-515.872	800.000	0.038	0.158
-514.858	800.000	0.063	0.228
-513.843	251.774	-0.033	-0.056
-512.829	151.879	0.143	0.195
-511.814	-47.405	-0.285	0.139
-510.799	-42.538	0.162	-0.082
-509.785	-20.614	0.219	-0.135
-508.770	-53.625	0.199	-0.091
-507.756	800.000	-0.063	0.183
-506.741	159.333	-0.155	-0.215
-505.726	95.675	0.029	0.033
-504.712	-42.061	-0.102	0.052
-503.697	234.739	-0.132	0.218
-502.683	800.000	0.038	0.160
-501.668	474.127	0.053	0.118
-500.653	-200.000	-0.024	-0.259
-499.639	-200.000	0.028	-0.146
-498.624	-36.546	0.180	0.097
-497.610	156.544	-0.080	0.110
-496.595	4.956	-0.105	-0.077
-495.581	-185.841	0.083	0.001
-494.566	-109.813	0.130	-0.027
-493.551	-115.612	-0.157	0.029
-492.537	-155.015	-0.231	0.015
-491.522	230.986	0.113	-0.185
-490.508	154.606	-0.089	-0.122
-489.493	453.514	0.106	0.234
-488.478	-191.744	-0.309	-0.003
-487.464	77.392	-0.030	0.032
-486.449	-200.000	0.022	0.263
-485.435	-77.289	0.281	-0.098
-484.420	-200.000	-0.005	-0.142
-483.405	-147.021	-0.442	0.038
-482.391	298.833	-0.082	0.150
-481.376	121.344	0.288	-0.358
-480.362	-200.000	0.008	-0.424
-479.347	307.990	-0.066	-0.122
-478.332	-72.875	-0.281	-0.103
-477.318	40.329	-0.074	-0.067
-476.303	148.686	-0.067	0.090
-475.289	374.811	0.140	-0.285
-474.274	-50.808	-0.531	0.249
-473.259	-140.619	-0.285	-0.029
-472.245	-118.330	0.134	0.024
-471.230	21.194	-0.344	-0.279
-470.216	-58.733	-0.194	-0.084
-469.201	-200.000	-0.011	0.210
-468.186	-200.000	0.006	0.234
-467.172	26.079	-0.184	0.153
-466.157	-83.403	0.118	0.038
-465.143	-200.000	-0.042	-0.250
-464.128	-200.000	0.051	-0.553
-463.113	-200.000	-0.001	-0.105
-462.099	-57.938	0.129	-0.056
-461.084	21.239	0.156	-0.126
-460.070	-47.612	-0.268	0.130
-459.055	65.185	-0.218	-0.220
-458.040	-58.159	0.264	-0.115
-457.026	697.649	0.083	0.219
-456.011	364.525	-0.015	0.031
-454.997	677.753	-0.050	0.129
-453.982	236.742	-0.112	0.185
-452.968	-20.901	0.148	0.090
-451.953	594.832	-0.152	-0.376
-450.938	-127.537	-0.191	-0.028
-449.924	-108.148	-0.130	0.028
-448.909	137.387	-0.112	0.146
-447.895	-52.570	-0.150	0.069
-446.880	-200.000	0.056	0.307
-445.865	-25.727	0.060	-0.036
-444.851	-160.191	-0.191	-0.010
-443.836	258.680	-0.243	-0.418
-442.822	224.682	-0.136	0.220
-441.807	-17.532	0.242	0.152
-440.792	90.275	0.041	0.046
-439.778	-33.457	-0.237	-0.131
-438.763	-131.893	0.053	0.007
-437.749	64.575	-0.045	0.045
-436.734	-42.913	-0.294	0.149
-435.719	-200.000	-0.004	-0.057
-434.705	561.595	-0.180	0.433
-433.690	226.195	0.061	0.098
-432.676	77.699	0.125	-0.133
-431.661	167.760	-0.146	-0.207
-430.646	126.462	-0.088	0.111
-429.632	-54.120	0.475	-0.215
-428.617	800.000	-0.087	0.315
-427.603	114.596	0.051	-0.062
-426.588	800.000	0.086	-0.345
-425.573	103.759	-0.054	0.064
-424.559	40.749	0.156	0.140
-423.544	-200.000	-0.002	0.428
-422.530	-3.630	0.344	0.238
-421.515	800.000	-0.082	0.308
-420.500	800.000	0.123	0.343
-419.486	212.746	0.189	-0.298
-418.471	30.413	0.184	0.157
-417.457	-152.243	-0.225	0.016
-416.442	414.508	-0.126	-0.268
-415.428	217.904	-0.094	-0.149
-414.413	-110.031	0.265	0.055
-413.398	-63.452	-0.013	-0.005
-412.384	55.606	-0.084	-0.081
-411.369	-145.730	0.304	0.027
-410.355	-89.329	-0.109	0.032
-409.340	-132.614	0.293	-0.037
-408.325	-50.770	0.239	0.112
-407.311	800.000	-0.079	0.263
-406.296	-200.000	-0.044	0.391
-405.282	-90.494	0.236	-0.068
-404.267	21.509	-0.134	0.108
-403.252	-125.153	-0.132	0.020
-402.238	13.365	0.163	-0.126
-401.223	137.580	0.172	0.224
-400.209	512.332	-0.091	-0.210
-399.194	-190.771	0.357	0.004
-398.179	-76.181	-0.178	-0.062
-397.165	234.921	0.129	-0.213
-396.150	159.403	0.190	0.264
-395.136	-200.000	0.020	-0.142
-394.121	-200.000	0.107	0.504
-393.106	-65.567	-0.206	0.082
-392.092	221.112	0.108	0.173
-391.077	-15.808	0.166	0.105
-390.063	-200.000	-0.000	-0.055
-389.048	-79.307	-0.276	0.093
-388.033	-23.881	-0.183	-0.109
-387.019	406.418	0.088	0.185
-386.004	-200.000	-0.002	0.027
-384.990	-105.335	-0.035	0.008
-383.975	-78.278	-0.285	0.097
-382.960	37.996	0.110	0.098
-381.946	-200.000	-0.002	-0.067
-380.931	261.157	0.024	-0.042
-379.917	-73.478	0.212	0.077
-378.902	-152.153	0.221	-0.016
-377.888	-13.132	-0.340	-0.220
-376.873	-93.578	0.027	-0.007
-375.858	-200.000	-0.021	-0.184
-374.844	514.159	-0.103	-0.240
-373.829	-200.000	-0.033	-0.288
-372.815	-162.924	0.081	0.004
-371.800	800.000	0.056	0.221
-370.785	143.575	0.141	-0.187
-369.771	238.614	-0.240	-0.396
-368.756	18.983	0.097	-0.077
-367.742	164.537	0.124	-0.174
-366.727	-200.000	0.024	0.322
-365.712	65.485	0.254	-0.256
-364.698	145.786	-0.065	-0.087
-363.683	67.931	-0.192	-0.195
-362.669	-183.070	-0.281	0.005
-361.654	800.000	-0.050	0.140
-360.639	-78.566	-0.152	-0.052
-359.625	50.468	0.064	-0.060
-358.610	-200.000	-0.018	-0.191
-357.596	-16.699	-0.053	-0.033
-356.581	-65.504	-0.496	-0.198
-355.566	125.475	-0.080	0.100
-354.552	-94.465	-0.128	-0.035
-353.537	65.121	-0.104	-0.104
-352.523	308.100	-0.054	-0.100
-351.508	-31.898	0.255	0.142
-350.493	800.000	-0.081	-0.317
-349.479	50.428	-0.104	0.097
-348.464	100.480	0.226	-0.261
-347.450	13.146	0.273	-0.210
-346.435	-200.000	0.002	-0.245
-345.420	-123.644	-0.126	-0.020
-344.406	800.000	0.025	0.072
-343.391	314.705	-0.091	0.171
-342.377	-200.000	-0.009	-0.048
-341.362	-90.378	0.281	0.081
-340.348	204.717	-0.116	0.179
-339.333	555.616	-0.048	0.115
-338.318	-117.083	-0.162	0.029
-337.304	90.604	0.109	0.121
-336.289	33.890	0.165	-0.143
-335.275	-66.480	-0.269	0.106
-334.260	-104.431	-0.441	0.101
-333.245	-15.021	0.137	-0.087
-332.231	-8.518	-0.060	0.040
-331.216	-94.772	0.189	-0.051
-330.202	-200.000	0.014	-0.073
-329.187	-26.100	0.270	-0.157
-328.172	-49.526	-0.239	0.113
-327.158	94.188	0.089	0.100
-326.143	65.981	-0.036	-0.037
-325.129	121.839	0.024	-0.030
-324.114	48.377	-0.091	-0.085
-323.099	-143.643	-0.108	-0.010
-322.085	-114.301	-0.117	-0.022
-321.070	32.628	-0.259	-0.223
-320.056	-200.000	-0.009	-0.149
-319.041	-66.696	-0.316	0.124
-318.026	239.562	0.087	-0.144
-317.012	-65.826	0.139	-0.055
-315.997	42.115	0.121	-0.109
-314.983	116.191	0.195	0.237
-313.968	-24.979	0.233	-0.137
-312.953	134.662	-0.021	0.027
-311.939	-65.255	-0.034	0.014
-310.924	-21.182	-0.078	0.048
-309.910	91.744	0.083	0.093
-308.895	-98.247	-0.052	0.013
-307.880	123.444	0.219	-0.272
-306.866	-47.775	0.255	0.123
-305.851	800.000	-0.049	-0.182
-304.837	800.000	0.044	0.168
-303.822	-22.781	-0.094	0.057
-302.807	-82.552	-0.173	0.056
-301.793	800.000	-0.051	0.152
-300.778	390.224	-0.115	0.236
-299.764	-33.802	0.163	0.089
-298.749	220.619	0.193	0.306
-297.735	-105.657	-0.058	-0.013
-296.720	358.953	-0.172	0.341
-295.705	-200.000	0.013	0.189
-294.691	316.423	-0.117	0.220
-293.676	94.039	0.171	0.193
-292.662	-200.000	0.133	-0.000
-291.647	-200.000	0.007	-0.193
-290.632	800.000	0.037	0.151
-289.618	-200.000	-0.015	0.418
-288.603	-145.900	-0.202	-0.018
-287.589	800.000	-0.031	0.103
-286.574	-26.244	-0.157	-0.091
-285.559	59.296	-0.084	0.082
-284.545	-23.702	0.071	-0.042
-283.530	283.417	-0.124	0.221
-282.516	-200.000	0.053	0.252
-281.501	-123.738	-0.124	-0.020
-280.486	-26.789	-0.241	-0.140
-279.472	-140.990	-0.212	0.022
-278.457	-136.761	-0.094	-0.011
-277.443	109.975	-0.093	-0.111
-276.428	228.993	0.121	-0.196
-275.413	-200.000	0.000	-0.239
-274.399	88.938	-0.063	0.070
-273.384	41.972	-0.244	-0.219
-272.370	-66.119	0.275	0.109
-271.355	-14.771	-0.160	-0.102
-270.340	24.199	0.314	0.257
-269.326	-109.002	-0.049	0.010
-268.311	-43.328	0.226	0.113
-267.297	-98.481	-0.191	-0.048
-266.282	87.891	0.148	-0.163
-265.267	-110.202	0.184	-0.038
-264.253	762.411	-0.125	-0.337
-263.238	798.118	-0.068	0.187
-262.224	21.078	0.205	0.164
-261.209	-26.492	0.132	0.077
-260.195	249.373	-0.139	0.233
-259.180	-24.058	0.366	-0.217
-258.165	59.695	0.115	-0.112
-257.151	-41.449	-0.292	0.149
-256.136	33.920	-0.021	0.018
-255.122	-19.382	0.220	0.135
-254.107	-200.000	-0.029	0.180
-253.092	387.177	0.180	0.368
-252.078	645.104	0.083	-0.209
-251.063	-105.747	0.108	0.024
-250.049	19.251	-0.282	-0.224
-249.034	119.174	0.087	-0.106
-248.019	171.262	-0.076	-0.108
-247.005	41.663	0.024	-0.021
-245.990	-53.851	0.100	0.045
-244.976	59.057	0.151	0.147
-243.961	-200.000	0.021	0.319
-242.946	-6.125	-0.011	-0.007
-241.932	-7.405	0.158	-0.106
-240.917	-160.741	0.134	-0.007
-239.903	86.940	-0.104	-0.113
-238.888	195.296	0.189	0.284
-237.873	-52.240	-0.113	-0.052
-236.859	-200.000	0.098	0.425
-235.844	-138.364	0.044	-0.005
-234.830	517.358	0.115	-0.267
-233.815	168.191	-0.349	0.492
-232.800	800.000	0.038	0.147
-231.786	-200.000	0.007	0.195
-230.771	-135.788	0.278	0.033
-229.757	103.576	0.233	0.270
-228.742	371.543	0.104	-0.208
-227.727	609.753	0.176	-0.435
-226.713	47.851	-0.204	-0.189
-225.698	187.371	-0.063	0.093
-224.684	123.226	0.123	-0.152
-223.669	-200.000	-0.017	-0.099
-222.655	39.396	-0.121	-0.107
-221.640	-150.422	0.079	-0.006
-220.625	486.371	0.068	0.152
-219.611	-76.219	-0.313	0.109
-218.596	198.185	0.185	-0.279
-217.582	87.403	-0.074	0.081
-216.567	-116.965	0.251	-0.045
-215.552	-125.891	-0.149	-0.022
-214.538	-200.000	0.002	-0.201
-213.523	-88.326	0.181	0.054
-212.509	0.743	-0.175	0.124
-211.494	-14.933	-0.100	-0.063
-210.479	-81.473	0.079	0.026
-209.465	-4.737	-0.013	-0.009
-208.450	-32.139	-0.116	0.064
-207.436	-52.887	0.185	0.084
-206.421	-80.728	0.266	0.087
-205.406	-194.667	0.280	-0.002
-204.392	299.153	0.130	0.237
-203.377	-200.000	-0.035	-0.354
-202.363	319.129	-0.026	0.049
-201.348	-200.000	0.019	-0.130
-200.333	-35.596	-0.233	-0.125
-199.319	-59.829	0.274	0.116
-198.304	45.516	0.234	0.214
-197.290	800.000	-0.093	-0.335
-196.275	-63.021	-0.200	0.082
-195.260	94.207	0.042	-0.047
-194.246	52.780	0.153	-0.145
-193.231	404.525	-0.205	0.427
-192.217	1.430	0.131	0.093
-191.202	-7.478	0.032	-0.021
-190.187	-200.000	-0.020	0.115
-189.173	-200.000	-0.046	-0.252
-188.158	-200.000	0.030	0.159
-187.144	222.884	-0.223	0.355
-186.129	-200.000	-0.009	-0.065
-185.114	-26.991	0.079	0.045
-184.100	-28.444	0.173	-0.098
-183.085	-200.000	-0.070	-0.311
-182.071	-8.539	0.102	0.068
-181.056	800.000	0.042	-0.136
-180.042	42.089	-0.095	-0.085
-179.027	800.000	0.014	0.058
-178.012	-51.966	0.170	0.078
-176.998	-98.282	0.098	0.025
-175.983	-114.206	-0.284	-0.054
-174.969	800.000	-0.051	0.157
-173.954	40.760	0.245	0.218
-172.939	-152.118	-0.177	-0.013
-171.925	-200.000	-0.063	0.467
-170.910	291.156	0.061	-0.109
-169.896	523.861	0.107	-0.249
-168.881	536.385	0.188	0.439
-167.866	800.000	0.086	0.295
-166.852	-90.956	-0.180	-0.051
-165.837	300.054	0.041	0.074
-164.823	-200.000	-0.041	0.293
-163.808	287.259	-0.109	0.194
-162.793	-135.874	0.088	0.010
-161.779	-200.000	0.048	0.250
-160.764	-169.877	-0.186	0.007
-159.750	253.587	0.271	0.456
-158.735	-200.000	-0.076	-0.420
-157.720	58.202	0.105	-0.102
-156.706	800.000	0.084	0.247
-155.691	-200.000	0.015	-0.159
-154.677	114.804	-0.168	-0.202
-153.662	-140.807	0.170	0.017
-152.647	-103.298	0.208	0.049
-151.633	306.197	-0.102	-0.188
-150.618	120.114	0.058	-0.071
-149.604	-200.000	0.004	0.187
-148.589	-56.347	0.300	-0.132
-147.574	-200.000	-0.022	0.139
-146.560	16.709	-0.424	0.330
-145.545	-66.782	0.256	0.100
-144.531	800.000	-0.050	-0.168
-143.516	-17.017	0.254	-0.158
-142.502	-66.663	0.362	-0.141
-141.487	-200.000	0.028	-0.215
-140.472	-0.849	-0.362	-0.253
-139.458	383.143	-0.170	0.345
-138.443	-27.792	0.223	-0.127
-137.429	-93.217	-0.206	0.056
-136.414	82.967	0.019	-0.020
-135.399	567.515	-0.094	-0.226
-134.385	-142.130	0.372	0.036
-133.370	174.598	0.089	0.127
-132.356	-8.539	0.061	-0.041
-131.341	599.888	-0.071	0.174
-130.326	661.995	0.057	0.144
-129.312	631.946	0.045	-0.112
-128.297	19.405	-0.135	0.107
-127.283	80.956	0.127	0.135
-126.268	-82.690	-0.255	-0.081
-125.253	800.000	-0.094	0.335
-124.239	-200.000	0.014	-0.406
-123.224	-80.035	0.102	0.034
-122.210	29.575	-0.140	0.117
-121.195	-67.605	0.292	-0.113
-120.180	-200.000	-0.021	0.100
