DTS Sentinel unit serial number:	SN413079Multiplexer serial number:	ORYXHardware model number:	OX4-SRSoftware version number:	ORYX F/W v4.00 Oryx Data Collector v3.7.2.0data status	okinstallation	princeton_trtdifferential loss correction	single-endedforward channel	channel 4reverse channel	N/Adate	2019/09/16time	05:45:34forward acquisition time	60.00reverse acquisition time	0.00gamma	496.2192k internal	0.2321k external	0.2321temperature offset calibration	0.9979default loss term (dB/km)	0.3790temperature slope calibration	1.0000multiplexer offset coefficient	1.0000multiplexer slope coefficient	1.0000fibre end	0.00T internal ref (°C)	27.37T ext. ref 1 (°C)	11.20T ext. ref 2 (°C)	22.23length (m)	temperature (°C)	Stokes	anti-Stokes-747.200	-200.000	-0.003	-0.069
-746.185	-200.000	-0.002	0.213
-745.171	-55.685	-0.349	0.158
-744.156	-200.000	0.008	-0.181
-743.142	-90.811	0.103	-0.030
-742.127	-200.000	-0.004	-0.051
-741.112	-200.000	-0.005	0.258
-740.098	800.000	0.060	0.170
-739.083	800.000	0.084	0.237
-738.069	-42.121	-0.410	0.212
-737.054	-200.000	-0.011	0.234
-736.039	-200.000	0.001	0.118
-735.025	-200.000	0.003	0.128
-734.010	388.344	-0.022	0.047
-732.996	-5.035	-0.074	0.051
-731.981	-200.000	-0.004	-0.242
-730.966	-98.326	0.042	0.011
-729.952	800.000	0.066	-0.272
-728.937	-195.918	-0.376	-0.003
-727.923	-200.000	0.061	0.270
-726.908	67.789	-0.345	-0.356
-725.894	-200.000	-0.022	0.230
-724.879	134.157	0.044	0.057
-723.864	262.959	0.150	-0.263
-722.850	-104.310	0.247	-0.058
-721.835	-24.806	0.196	0.117
-720.821	10.644	-0.216	0.167
-719.806	39.964	-0.101	-0.092
-718.791	544.671	-0.034	0.083
-717.777	-46.005	-0.144	0.071
-716.762	54.740	0.338	-0.329
-715.748	485.984	-0.035	0.081
-714.733	572.494	-0.049	-0.120
-713.718	94.207	0.218	0.250
-712.704	-175.345	-0.283	0.008
-711.689	-159.441	0.179	0.010
-710.675	81.318	0.276	-0.301
-709.660	-182.066	0.272	-0.005
-708.645	116.973	-0.128	0.159
-707.631	-170.830	-0.163	0.006
-706.616	9.515	-0.200	0.153
-705.602	142.300	-0.080	-0.107
-704.587	43.670	0.268	0.248
-703.572	-59.312	-0.233	0.101
-702.558	-200.000	-0.021	0.181
-701.543	7.846	0.158	-0.120
-700.529	-131.543	-0.203	0.027
-699.514	800.000	0.018	-0.058
-698.499	-200.000	0.054	0.329
-697.485	-86.356	-0.346	0.107
-696.470	245.472	-0.083	0.140
-695.456	800.000	-0.088	-0.272
-694.441	101.161	-0.122	-0.143
-693.426	-104.479	-0.135	0.031
-692.412	800.000	0.043	-0.137
-691.397	-200.000	-0.041	-0.208
-690.383	-16.998	-0.142	-0.091
-689.368	-64.040	-0.162	-0.067
-688.354	-44.367	0.362	-0.183
-687.339	-200.000	-0.012	0.185
-686.324	51.563	0.071	-0.068
-685.310	-200.000	0.030	-0.271
-684.295	-115.892	-0.158	0.030
-683.281	-156.791	0.100	-0.006
-682.266	589.702	-0.026	0.063
-681.251	-193.171	-0.167	0.001
-680.237	-102.189	-0.222	0.054
-679.222	-200.000	0.013	0.150
-678.208	-119.834	-0.288	-0.050
-677.193	-113.111	0.307	-0.061
-676.178	-42.477	0.124	-0.064
-675.164	800.000	0.075	0.247
-674.149	520.293	0.053	0.126
-673.135	626.298	0.074	-0.189
-672.120	-58.802	-0.273	-0.119
-671.105	-200.000	0.004	-0.232
-670.091	800.000	-0.079	0.227
-669.076	-73.243	0.268	0.099
-668.062	800.000	0.055	-0.164
-667.047	328.594	-0.207	-0.402
-666.032	51.933	-0.086	0.082
-665.018	-36.535	0.242	0.131
-664.003	-200.000	0.006	-0.234
-662.989	-6.506	-0.101	0.069
-661.974	76.114	-0.272	-0.290
-660.959	0.556	0.124	-0.089
-659.945	-200.000	-0.042	0.267
-658.930	-106.991	-0.362	-0.081
-657.916	182.343	0.077	-0.115
-656.901	2.454	-0.160	-0.116
-655.886	-95.270	-0.040	0.011
-654.872	34.008	0.069	-0.060
-653.857	-200.000	0.025	0.151
-652.843	24.277	0.253	0.211
-651.828	46.235	-0.064	-0.060
-650.814	161.778	0.235	0.331
-649.799	43.043	0.186	0.171
-648.784	232.896	0.125	-0.207
-647.770	-200.000	0.009	0.065
-646.755	232.702	0.064	-0.106
-645.741	-200.000	0.007	0.081
-644.726	32.120	-0.117	-0.102
-643.711	-168.643	-0.325	0.012
-642.697	481.438	-0.034	0.078
-641.682	-53.528	0.065	-0.030
-640.668	32.985	0.182	0.159
-639.653	-148.272	-0.284	0.024
-638.638	-104.936	-0.368	-0.085
-637.624	-103.474	0.261	0.062
-636.609	196.922	-0.035	-0.054
-635.595	402.258	0.195	-0.413
-634.580	411.550	-0.164	-0.351
-633.565	63.286	0.166	-0.168
-632.551	177.576	-0.134	0.197
-631.536	6.700	0.054	0.040
-630.522	-80.090	0.035	-0.012
-629.507	-106.924	0.278	0.062
-628.492	-57.239	-0.108	-0.048
-627.478	35.873	-0.064	-0.057
-626.463	73.099	-0.176	-0.186
-625.449	-200.000	-0.027	-0.270
-624.434	-69.398	0.256	0.099
-623.419	-45.131	-0.097	-0.049
-622.405	-124.583	-0.454	0.071
-621.390	-30.681	-0.185	-0.105
-620.376	-200.000	0.031	-0.183
-619.361	46.587	-0.216	0.201
-618.346	3.682	-0.104	-0.077
-617.332	800.000	0.102	-0.340
-616.317	85.747	0.035	0.039
-615.303	330.399	-0.147	0.284
-614.288	-69.475	0.140	0.054
-613.273	800.000	0.028	0.113
-612.259	-108.762	-0.162	0.035
-611.244	-61.901	0.235	0.099
-610.230	-99.589	0.262	0.066
-609.215	-21.230	0.099	0.061
-608.201	-86.406	0.096	-0.030
-607.186	-65.468	0.223	0.090
-606.171	-161.339	-0.287	-0.015
-605.157	-200.000	-0.032	-0.276
-604.142	-91.924	-0.379	0.108
-603.128	454.217	-0.076	-0.170
-602.113	-96.024	0.212	-0.057
-601.098	8.693	-0.176	0.133
-600.084	-83.975	-0.428	0.137
-599.069	-25.271	0.106	-0.063
-598.055	-50.794	0.259	-0.123
-597.040	222.536	-0.223	-0.362
-596.025	-100.468	-0.089	0.022
-595.011	180.947	-0.012	-0.018
-593.996	800.000	0.056	-0.183
-592.982	238.629	0.142	0.237
-591.967	-56.371	0.181	-0.081
-590.952	745.550	-0.034	0.093
-589.938	-33.702	-0.414	-0.230
-588.923	-13.908	-0.178	-0.116
-587.909	5.264	-0.284	-0.210
-586.894	-5.333	-0.143	0.099
-585.879	582.947	-0.034	0.083
-584.865	132.877	0.183	-0.238
-583.850	-200.000	0.017	0.207
-582.836	-200.000	-0.019	0.223
-581.821	18.128	0.237	0.190
-580.806	-104.803	-0.081	0.019
-579.792	-29.898	0.279	-0.159
-578.777	-200.000	0.180	-0.000
-577.763	121.324	0.153	0.192
-576.748	-86.422	0.319	-0.098
-575.733	-200.000	0.008	-0.355
-574.719	-200.000	-0.015	0.114
-573.704	-4.066	0.112	0.078
-572.690	-134.662	-0.159	-0.019
-571.675	50.540	0.133	-0.126
-570.661	380.063	-0.097	-0.199
-569.646	100.729	0.069	-0.081
-568.631	791.000	-0.032	0.089
-567.617	203.097	-0.353	-0.548
-566.602	480.792	0.147	0.335
-565.588	-146.852	0.086	0.007
-564.573	-80.009	-0.297	-0.100
-563.558	800.000	-0.049	0.203
-562.544	-200.000	0.011	-0.205
-561.529	-91.327	-0.110	-0.032
-560.515	-142.780	0.266	-0.026
-559.500	139.036	-0.074	-0.098
-558.485	58.082	0.147	-0.145
-557.471	387.520	-0.069	-0.142
-556.456	-200.000	-0.010	0.123
-555.442	-200.000	0.027	0.122
-554.427	-38.110	-0.202	-0.107
-553.412	87.738	-0.093	0.103
-552.398	-115.958	-0.302	-0.057
-551.383	-200.000	0.008	-0.164
-550.369	77.761	0.116	0.124
-549.354	-200.000	-0.004	0.059
-548.339	-12.937	0.303	-0.198
-547.325	-57.847	0.170	-0.075
-546.310	66.284	0.190	-0.194
-545.296	272.772	0.085	-0.151
-544.281	-76.376	-0.139	0.049
-543.266	-63.390	0.225	-0.093
-542.252	478.430	-0.067	0.151
-541.237	-74.806	0.261	0.094
-540.223	-92.387	-0.097	-0.027
-539.208	-22.842	-0.124	0.075
-538.193	239.169	0.088	0.147
-537.179	314.839	0.051	0.095
-536.164	-31.397	-0.142	-0.080
-535.150	294.801	0.118	0.216
-534.135	-200.000	-0.011	0.087
-533.121	-20.161	-0.235	-0.145
-532.106	-64.117	0.157	0.064
-531.091	-101.850	-0.032	-0.008
-530.077	-200.000	0.025	0.285
-529.062	800.000	-0.052	0.156
-528.048	164.150	0.171	-0.241
-527.033	-165.054	-0.090	-0.004
-526.018	-62.418	-0.124	0.052
-525.004	412.243	-0.057	-0.121
-523.989	498.674	0.089	-0.206
-522.975	-109.850	0.176	0.037
-521.960	-200.000	-0.030	0.285
-520.945	-6.100	-0.127	0.087
-519.931	800.000	-0.067	-0.207
-518.916	-38.217	0.152	-0.081
-517.902	-33.025	0.271	-0.150
-516.887	-83.067	0.397	0.128
-515.872	193.324	0.099	-0.150
-514.858	-200.000	-0.040	0.235
-513.843	-200.000	-0.019	-0.140
-512.829	-103.709	-0.162	0.038
-511.814	800.000	0.085	-0.236
-510.799	125.806	-0.246	0.312
-509.785	205.541	0.227	-0.353
-508.770	800.000	0.045	0.163
-507.756	800.000	-0.035	0.135
-506.741	30.290	0.055	0.047
-505.726	227.862	0.057	-0.093
-504.712	-16.029	-0.337	0.215
-503.697	593.545	-0.071	0.177
-502.683	1.154	0.089	-0.064
-501.668	-200.000	-0.030	-0.319
-500.653	77.194	-0.124	0.132
-499.639	255.460	0.119	0.203
-498.624	800.000	-0.214	-0.627
-497.610	-174.418	0.114	-0.003
-496.595	-52.063	-0.180	-0.084
-495.581	-153.135	-0.555	0.039
-494.566	34.940	-0.078	-0.068
-493.551	-200.000	-0.015	-0.118
-492.537	-82.753	0.295	-0.095
-491.522	108.431	-0.198	0.237
-490.508	-200.000	-0.029	0.471
-489.493	171.309	0.174	-0.251
-488.478	800.000	-0.019	-0.082
-487.464	51.705	-0.120	-0.114
-486.449	505.896	0.079	-0.183
-485.435	-76.700	-0.118	-0.041
-484.420	-74.552	-0.062	0.022
-483.405	-109.689	0.137	-0.029
-482.391	-133.743	-0.208	-0.026
-481.376	76.320	-0.055	-0.058
-480.362	60.930	-0.086	-0.085
-479.347	275.117	-0.166	0.294
-478.332	675.300	-0.077	-0.201
-477.318	121.798	0.052	-0.065
-476.303	36.311	0.132	-0.116
-475.289	296.179	0.105	-0.192
-474.274	7.330	-0.202	0.151
-473.259	-200.000	-0.040	0.214
-472.245	-69.676	0.126	0.048
-471.230	-200.000	-0.072	-0.450
-470.216	-81.352	-0.073	-0.024
-469.201	45.899	-0.274	0.254
-468.186	-80.711	0.374	-0.124
-467.172	-112.209	-0.196	0.039
-466.157	800.000	0.029	-0.111
-465.143	768.498	0.169	0.459
-464.128	-53.786	0.122	0.055
-463.113	-13.157	-0.375	0.244
-462.099	10.923	0.075	0.057
-461.084	-36.100	-0.150	-0.081
-460.070	-200.000	-0.015	-0.080
-459.055	-48.663	0.220	0.106
-458.040	222.275	0.085	0.136
-457.026	-36.006	0.380	-0.205
-456.011	-200.000	-0.044	0.316
-454.997	651.790	0.108	0.278
-453.982	-164.946	0.129	-0.006
-452.968	-92.030	0.212	-0.060
-451.953	800.000	0.114	-0.337
-450.938	800.000	-0.187	-0.543
-449.924	117.074	-0.050	-0.061
-448.909	73.855	0.145	0.152
-447.895	217.189	0.105	0.167
-446.880	535.651	0.032	-0.075
-445.865	479.232	-0.089	-0.200
-444.851	-200.000	0.012	-0.095
-443.836	-200.000	-0.056	0.275
-442.822	-26.508	0.236	-0.138
-441.807	-200.000	-0.016	-0.164
-440.792	-53.219	-0.296	-0.136
-439.778	-121.985	-0.297	0.049
-438.763	-35.445	0.254	-0.138
-437.749	40.701	0.328	0.295
-436.734	-168.411	0.196	0.008
-435.719	-68.048	0.118	-0.046
-434.705	800.000	0.039	0.150
-433.690	800.000	0.097	-0.328
-432.676	178.558	-0.093	-0.136
-431.661	39.616	-0.058	-0.052
-430.646	636.525	-0.137	0.346
-429.632	377.514	0.081	0.165
-428.617	-200.000	0.063	0.369
-427.603	800.000	0.009	-0.030
-426.588	-32.801	0.429	0.238
-425.573	118.582	0.062	0.076
-424.559	-200.000	0.001	0.265
-423.544	-200.000	0.012	0.275
-422.530	-24.208	0.234	-0.140
-421.515	-200.000	0.086	-0.385
-420.500	587.210	0.143	-0.353
-419.486	-23.708	-0.031	-0.018
-418.471	-74.303	0.285	-0.103
-417.457	-81.220	0.041	-0.013
-416.442	-119.258	0.143	-0.025
-415.428	-155.485	0.200	0.013
-414.413	26.284	-0.153	-0.128
-413.398	-200.000	0.041	0.374
-412.384	-92.969	-0.129	0.036
-411.369	52.258	-0.215	-0.205
-410.355	5.650	-0.068	0.050
-409.340	-98.857	0.217	0.055
-408.325	800.000	-0.022	0.076
-407.311	203.815	0.143	-0.221
-406.296	-75.475	-0.341	-0.121
-405.282	-37.503	-0.234	-0.125
-404.267	-8.894	0.231	0.155
-403.252	-200.000	0.009	-0.211
-402.238	272.072	-0.123	-0.216
-401.223	-71.462	-0.193	0.072
-400.209	-128.578	-0.200	0.028
-399.194	-144.680	-0.578	-0.053
-398.179	-200.000	0.056	0.316
-397.165	-114.413	0.107	0.020
-396.150	800.000	0.010	-0.035
-395.136	51.192	0.063	-0.060
-394.121	-200.000	0.071	0.419
-393.106	6.661	0.140	0.104
-392.092	-24.529	0.170	-0.101
-391.077	532.971	-0.082	0.193
-390.063	800.000	0.021	0.082
-389.048	-5.009	0.062	-0.043
-388.033	-21.303	-0.141	-0.086
-387.019	248.653	0.171	0.288
-386.004	622.818	0.140	0.351
-384.990	-153.779	-0.091	-0.006
-383.975	-200.000	-0.015	0.143
-382.960	672.438	-0.076	0.197
-381.946	104.431	-0.170	-0.200
-380.931	-26.773	-0.138	0.080
-379.917	-76.870	-0.268	-0.094
-378.902	-37.205	-0.325	0.173
-377.888	-167.624	0.311	-0.012
-376.873	91.216	0.131	0.147
-375.858	-200.000	-0.005	0.210
-374.844	152.734	-0.240	0.326
-373.829	139.569	-0.103	-0.135
-372.815	-28.130	0.198	0.114
-371.800	-132.567	-0.070	0.009
-370.785	-51.909	-0.190	0.088
-369.771	83.648	-0.101	-0.110
-368.756	91.326	-0.070	0.078
-367.742	-200.000	-0.010	0.405
-366.727	400.776	0.099	0.207
-365.712	-200.000	-0.010	-0.062
-364.698	-3.441	-0.234	0.162
-363.683	-4.404	-0.196	0.135
-362.669	-37.796	0.072	0.038
-361.654	-112.843	0.094	0.019
-360.639	800.000	-0.094	-0.297
-359.625	567.776	-0.037	0.090
-358.610	-27.144	0.105	-0.061
-357.596	800.000	0.012	0.034
-356.581	-1.741	0.118	0.083
-355.566	-13.940	-0.122	0.078
-354.552	-200.000	0.027	-0.375
-353.537	49.587	-0.131	0.123
-352.523	-154.312	0.195	0.013
-351.508	800.000	0.071	0.229
-350.493	-0.386	0.094	-0.066
-349.479	-200.000	-0.002	-0.069
-348.464	-33.791	-0.134	0.074
-347.450	46.422	-0.129	-0.119
-346.435	-39.306	0.430	0.225
-345.420	96.483	-0.148	-0.169
-344.406	241.874	-0.156	0.259
-343.391	237.707	0.261	0.431
-342.377	-200.000	-0.004	0.096
-341.362	13.305	-0.232	0.179
-340.348	158.629	0.294	0.406
-339.333	-20.086	-0.178	0.109
-338.318	106.805	0.079	-0.094
-337.304	-35.721	-0.061	-0.033
-336.289	183.446	0.152	0.223
-335.275	-150.063	0.237	0.018
-334.260	171.872	0.122	-0.174
-333.245	70.968	-0.110	0.113
-332.231	800.000	-0.050	-0.182
-331.216	-85.507	-0.247	-0.077
-330.202	800.000	-0.067	0.264
-329.187	429.992	0.072	-0.156
-328.172	420.577	0.060	-0.128
-327.158	-200.000	0.012	-0.117
-326.143	-68.008	0.170	0.066
-325.129	-50.539	0.166	0.078
-324.114	7.627	0.105	0.078
-323.099	-70.145	-0.351	-0.133
-322.085	100.031	-0.235	0.271
-321.070	-145.851	-0.232	-0.020
-320.056	800.000	0.108	0.402
-319.041	-200.000	0.035	0.174
-318.026	-77.801	0.344	-0.118
-317.012	-86.688	-0.221	0.067
-315.997	693.717	0.085	-0.222
-314.983	2.721	0.263	-0.189
-313.968	800.000	-0.086	-0.242
-312.953	-164.134	0.243	-0.011
-311.939	146.857	0.028	0.038
-310.924	471.361	0.034	0.076
-309.910	-19.084	-0.237	-0.146
-308.895	800.000	-0.055	0.183
-307.880	-93.257	-0.278	-0.077
-306.866	50.877	0.362	-0.341
-305.851	-129.073	0.308	-0.043
-304.837	800.000	0.046	-0.147
-303.822	131.780	0.138	-0.177
-302.807	-84.130	-0.226	-0.071
-301.793	374.669	-0.092	0.185
-300.778	-26.827	-0.277	-0.161
-299.764	75.337	-0.086	-0.090
-298.749	-75.982	-0.050	0.018
-297.735	95.304	0.155	0.176
-296.720	-40.746	0.028	-0.014
-295.705	130.375	-0.152	0.193
-294.691	344.354	-0.093	0.182
-293.676	185.854	-0.174	0.257
-292.662	800.000	0.025	-0.104
-291.647	366.204	0.073	0.146
-290.632	-163.064	-0.206	0.010
-289.618	481.933	0.113	-0.255
-288.603	578.981	-0.054	-0.132
-287.589	429.996	-0.051	0.109
-286.574	-3.476	-0.283	-0.196
-285.559	106.792	0.036	0.042
-284.545	-200.000	-0.031	-0.277
-283.530	-74.701	0.124	0.044
-282.516	800.000	-0.052	0.165
-281.501	-200.000	0.020	-0.119
-280.486	-43.313	-0.046	-0.023
-279.472	126.967	0.099	0.125
-278.457	280.295	-0.206	-0.366
-277.443	-200.000	-0.034	-0.367
-276.428	-200.000	0.021	-0.388
-275.413	-200.000	-0.026	0.176
-274.399	356.400	0.090	-0.177
-273.384	-78.773	-0.320	0.108
-272.370	800.000	0.054	0.198
-271.355	-200.000	-0.039	-0.217
-270.340	-200.000	0.032	0.245
-269.326	-200.000	-0.019	-0.100
-268.311	25.145	-0.081	-0.066
-267.297	-200.000	0.041	-0.356
-266.282	156.092	0.200	-0.274
-265.267	278.842	0.002	0.004
-264.253	212.850	-0.075	0.117
-263.238	-35.302	-0.584	0.315
-262.224	693.566	-0.056	0.145
-261.209	88.984	0.233	0.258
-260.195	-143.377	-0.162	0.015
-259.180	153.062	0.158	0.214
-258.165	-104.067	-0.173	0.040
-257.151	119.438	0.076	0.093
-256.136	-200.000	-0.000	0.123
-255.122	405.892	0.101	-0.212
-254.107	-200.000	-0.010	0.117
-253.092	-119.788	-0.355	-0.061
-252.078	262.154	-0.142	-0.244
-251.063	15.537	0.123	0.095
-250.049	-200.000	-0.014	0.333
-249.034	-62.525	0.167	-0.069
-248.019	188.657	0.083	-0.123
-247.005	519.254	-0.104	0.242
-245.990	310.263	0.091	-0.169
-244.976	-130.947	-0.258	0.034
-243.961	80.850	0.082	-0.087
-242.946	13.724	-0.205	-0.158
-241.932	-98.069	0.282	-0.072
-240.917	-119.838	-0.243	-0.041
-239.903	-7.419	0.138	0.092
-238.888	-200.000	0.004	0.165
-237.873	110.593	0.114	-0.136
-236.859	-92.122	0.129	-0.036
-235.844	-200.000	-0.059	0.287
-234.830	396.240	0.119	0.246
-233.815	800.000	0.081	0.239
-232.800	587.633	0.053	0.129
-231.786	-73.860	0.368	0.132
-230.771	-124.384	0.186	-0.029
-229.757	800.000	-0.064	0.221
-228.742	182.339	0.121	-0.177
-227.727	800.000	-0.053	0.226
-226.713	-200.000	0.015	-0.228
-225.698	-109.903	-0.111	-0.023
-224.684	234.564	0.033	-0.055
-223.669	-5.008	-0.222	0.151
-222.655	37.757	0.107	0.094
-221.640	800.000	0.143	-0.391
-220.625	-170.714	-0.086	-0.003
-219.611	-200.000	-0.032	-0.229
-218.596	-115.042	0.039	0.007
-217.582	49.728	-0.391	0.365
-216.567	-49.054	-0.282	0.134
-215.552	-200.000	-0.052	-0.410
-214.538	78.925	-0.222	-0.235
-213.523	589.275	0.017	-0.040
-212.509	445.562	-0.069	-0.150
-211.494	-143.585	0.206	-0.019
-210.479	-57.199	0.277	-0.121
-209.465	-200.000	0.030	0.144
-208.450	-200.000	0.011	0.139
-207.436	-1.631	0.052	0.036
-206.421	51.176	0.253	0.238
-205.406	9.687	0.323	0.242
-204.392	107.142	0.060	0.070
-203.377	65.370	-0.128	-0.128
-202.363	-22.248	0.224	-0.135
-201.348	800.000	-0.062	0.178
-200.333	-78.586	0.331	0.112
-199.319	81.052	0.235	-0.251
-198.304	-18.992	-0.190	0.117
-197.290	569.304	-0.047	-0.113
-196.275	-200.000	-0.000	0.230
-195.260	-118.307	0.114	0.020
-194.246	-115.841	-0.337	0.062
-193.231	-134.340	0.086	-0.010
-192.217	-179.248	-0.141	-0.003
-191.202	97.637	0.098	0.112
-190.187	800.000	0.029	-0.087
-189.173	-88.545	0.280	0.083
-188.158	-200.000	-0.007	-0.163
-187.144	49.542	-0.182	0.169
-186.129	87.827	0.231	-0.253
-185.114	-130.927	0.214	0.028
-184.100	-99.043	0.160	-0.040
-183.085	371.595	-0.105	-0.210
-182.071	97.323	0.257	-0.292
-181.056	-200.000	-0.009	0.451
-180.042	-200.000	0.011	0.248
-179.027	800.000	-0.074	-0.234
-178.012	-42.528	-0.327	0.165
-176.998	-200.000	-0.040	0.310
-175.983	117.904	0.101	-0.123
-174.969	-200.000	-0.003	-0.293
-173.954	-200.000	-0.005	-0.275
-172.939	650.740	-0.031	0.079
-171.925	781.476	0.177	0.478
-170.910	103.102	0.016	-0.019
-169.896	-200.000	0.006	-0.308
-168.881	-88.374	0.063	0.019
-167.866	800.000	0.060	-0.196
-166.852	-6.287	-0.089	0.060
-165.837	-39.414	-0.384	-0.199
-164.823	-22.324	0.075	-0.045
-163.808	312.295	-0.106	-0.196
-162.793	617.951	0.056	0.138
-161.779	622.215	-0.045	0.113
-160.764	67.575	0.101	-0.102
-159.750	-200.000	-0.051	-0.389
-158.735	-27.747	-0.225	-0.129
-157.720	250.840	0.093	0.157
-156.706	-31.584	0.103	0.057
-155.691	61.491	-0.155	-0.153
-154.677	-117.768	-0.049	0.009
-153.662	187.448	0.133	-0.196
-152.647	40.387	-0.151	0.135
-151.633	-104.004	0.445	-0.103
-150.618	-200.000	-0.010	0.132
-149.604	-200.000	-0.001	0.097
-148.589	-200.000	-0.031	-0.173
-147.574	120.388	0.214	0.262
-146.560	-176.106	0.135	0.004
-145.545	-97.009	-0.219	0.057
-144.531	553.812	0.123	0.292
-143.516	-200.000	-0.050	0.253
-142.502	800.000	-0.084	0.323
-141.487	-200.000	0.023	0.116
-140.472	-134.068	-0.320	-0.039
-139.458	-110.545	-0.193	-0.039
-138.443	-150.218	0.412	-0.031
-137.429	800.000	-0.099	0.298
-136.414	-200.000	-0.068	-0.315
-135.399	-200.000	0.013	0.227
-134.385	-167.734	-0.322	0.013
-133.370	-100.231	-0.035	-0.009
-132.356	506.330	0.093	-0.213
-131.341	-53.330	0.209	-0.095
-130.326	800.000	0.048	-0.133
-129.312	-200.000	-0.010	0.171
-128.297	-200.000	0.007	-0.133
-127.283	-87.065	0.258	0.078
-126.268	-60.198	-0.079	0.033
-125.253	-115.802	-0.140	-0.026
-124.239	-200.000	0.057	0.277
-123.224	387.775	-0.090	-0.184
-122.210	-200.000	-0.001	0.210
-121.195	18.023	-0.256	0.201
