DTS Sentinel unit serial number:	SN413079Multiplexer serial number:	ORYXHardware model number:	OX4-SRSoftware version number:	ORYX F/W v4.00 Oryx Data Collector v3.7.2.0data status	okinstallation	princeton_trtdifferential loss correction	single-endedforward channel	channel 4reverse channel	N/Adate	2019/09/12time	10:11:11forward acquisition time	60.00reverse acquisition time	0.00gamma	496.2192k internal	0.2296k external	0.2296temperature offset calibration	1.0071default loss term (dB/km)	0.3790temperature slope calibration	1.0000multiplexer offset coefficient	1.0000multiplexer slope coefficient	1.0000fibre end	0.00T internal ref (°C)	36.44T ext. ref 1 (°C)	1.87T ext. ref 2 (°C)	33.27length (m)	temperature (°C)	Stokes	anti-Stokes-747.200	38.892	0.216	-0.198
-746.185	17.221	-0.267	0.217
-745.171	-87.598	-0.112	0.035
-744.156	76.151	-0.296	0.320
-743.142	108.130	0.297	0.361
-742.127	-200.000	0.005	0.090
-741.112	54.547	-0.172	0.170
-740.098	-25.511	-0.215	-0.130
-739.083	-200.000	0.032	-0.337
-738.069	235.331	0.020	0.033
-737.054	-95.896	0.130	0.035
-736.039	35.993	-0.275	0.247
-735.025	-25.404	0.028	0.017
-734.010	-99.050	-0.323	0.083
-732.996	316.473	-0.018	-0.035
-731.981	-115.113	-0.289	-0.056
-730.966	116.511	0.231	0.290
-729.952	-49.035	-0.258	0.126
-728.937	-200.000	0.029	-0.148
-727.923	-5.994	0.091	-0.063
-726.908	-162.794	-0.175	0.009
-725.894	800.000	0.066	0.276
-724.879	27.506	-0.137	-0.118
-723.864	14.706	-0.075	-0.060
-722.850	-28.772	-0.140	0.082
-721.835	-61.668	0.130	-0.056
-720.821	78.844	0.176	-0.193
-719.806	-118.907	0.078	0.014
-718.791	-40.679	0.160	0.085
-717.777	-125.828	-0.215	0.033
-716.762	-192.124	-0.258	0.003
-715.748	-81.266	-0.217	-0.073
-714.733	459.103	0.053	0.120
-713.718	503.722	-0.143	-0.338
-712.704	-200.000	0.013	-0.110
-711.689	16.482	-0.280	0.226
-710.675	800.000	0.018	-0.075
-709.660	423.145	-0.082	-0.180
-708.645	-3.284	0.108	-0.077
-707.631	439.228	0.120	0.268
-706.616	42.554	-0.151	0.140
-705.602	781.904	0.081	0.226
-704.587	-30.375	0.112	0.065
-703.572	423.470	-0.108	-0.237
-702.558	-58.445	-0.510	-0.226
-701.543	663.290	0.077	0.202
-700.529	-57.460	0.121	0.054
-699.514	-173.908	-0.210	-0.006
-698.499	800.000	-0.072	0.205
-697.485	-17.236	-0.274	0.176
-696.470	-27.778	-0.259	-0.153
-695.456	800.000	-0.017	0.057
-694.441	-125.965	0.285	-0.044
-693.426	-143.312	0.222	0.022
-692.412	235.674	-0.145	-0.245
-691.397	32.254	0.033	0.029
-690.383	-200.000	0.008	-0.054
-689.368	800.000	-0.037	0.165
-688.354	800.000	-0.075	-0.279
-687.339	-200.000	0.003	-0.262
-686.324	800.000	-0.034	-0.113
-685.310	-82.526	-0.258	-0.085
-684.295	-112.199	0.077	0.016
-683.281	267.419	-0.070	0.124
-682.266	95.656	-0.215	-0.250
-681.251	128.204	-0.160	-0.208
-680.237	115.090	0.066	0.082
-679.222	-93.775	-0.151	0.042
-678.208	4.791	-0.208	0.156
-677.193	-200.000	0.023	0.279
-676.178	174.689	-0.053	0.079
-675.164	93.498	0.113	-0.131
-674.149	800.000	0.116	-0.349
-673.135	-148.517	0.114	0.010
-672.120	-15.959	0.187	0.121
-671.105	-200.000	0.045	-0.265
-670.091	-200.000	-0.017	0.212
-669.076	-141.352	-0.129	0.013
-668.062	7.665	0.255	-0.194
-667.047	310.658	0.058	-0.111
-666.032	-200.000	-0.000	-0.086
-665.018	-26.050	-0.386	-0.231
-664.003	105.515	-0.074	0.089
-662.989	-90.253	-0.109	0.032
-661.974	11.408	0.323	-0.252
-660.959	-200.000	0.000	0.195
-659.945	-47.884	0.163	-0.080
-658.930	525.641	0.125	-0.299
-657.916	-81.797	0.256	-0.086
-656.901	-11.794	0.038	0.025
-655.886	-48.452	0.131	-0.064
-654.872	-75.024	-0.189	-0.069
-653.857	205.533	0.069	-0.109
-652.843	-59.514	0.204	0.089
-651.828	-32.721	0.300	-0.170
-650.814	215.367	0.013	0.020
-649.799	160.799	-0.048	-0.068
-648.784	-186.459	0.400	0.006
-647.770	-200.000	-0.012	-0.118
-646.755	-93.568	-0.331	-0.093
-645.741	43.706	-0.103	0.096
-644.726	106.373	-0.164	0.198
-643.711	-57.035	0.275	0.124
-642.697	53.333	0.217	0.212
-641.682	93.835	-0.037	0.043
-640.668	211.087	-0.107	0.171
-639.653	398.819	0.076	-0.161
-638.638	-200.000	0.027	-0.245
-637.624	-114.026	0.529	-0.104
-636.609	-143.873	-0.144	0.014
-635.595	-35.161	0.342	0.190
-634.580	-61.033	0.196	-0.084
-633.565	-100.151	-0.444	-0.112
-632.551	76.542	0.157	0.169
-631.536	-153.312	-0.276	0.020
-630.522	-47.902	-0.354	-0.174
-629.507	342.539	0.134	-0.267
-628.492	-200.000	0.048	0.320
-627.478	-20.649	0.114	-0.071
-626.463	193.779	-0.005	0.008
-625.449	-200.000	0.071	0.420
-624.434	-200.000	0.014	-0.327
-623.419	-105.842	0.401	-0.092
-622.405	42.574	-0.195	-0.180
-621.390	-102.961	0.352	-0.085
-620.376	214.513	-0.021	-0.034
-619.361	521.020	-0.071	-0.168
-618.346	-70.503	-0.052	0.020
-617.332	-200.000	-0.044	-0.381
-616.317	223.265	-0.160	-0.262
-615.303	-200.000	0.010	-0.104
-614.288	800.000	-0.088	0.389
-613.273	-21.079	0.164	-0.102
-612.259	67.120	0.037	0.038
-611.244	-104.284	-0.041	0.010
-610.230	800.000	-0.015	0.049
-609.215	-74.470	-0.106	-0.039
-608.201	-91.120	0.218	0.064
-607.186	40.584	-0.232	-0.212
-606.171	-87.067	-0.379	0.117
-605.157	-51.788	-0.138	0.065
-604.142	-200.000	-0.036	-0.362
-603.128	-145.403	0.283	-0.026
-602.113	391.056	-0.082	-0.173
-601.098	449.852	-0.027	0.061
-600.084	94.514	0.093	0.107
-599.069	-69.493	0.316	-0.123
-598.055	-89.899	0.306	-0.091
-597.040	-200.000	0.071	0.352
-596.025	-200.000	0.015	0.069
-595.011	36.338	-0.248	0.222
-593.996	18.980	0.261	0.212
-592.982	-144.862	-0.291	-0.027
-591.967	786.530	-0.131	-0.364
-590.952	89.472	-0.143	-0.162
-589.938	-12.372	-0.388	-0.257
-588.923	-179.728	0.311	0.007
-587.909	-200.000	0.061	0.363
-586.894	-158.369	-0.048	0.003
-585.879	435.141	-0.093	-0.205
-584.865	-160.714	-0.113	-0.006
-583.850	-200.000	-0.018	0.120
-582.836	-176.641	-0.171	0.004
-581.821	-11.431	-0.351	0.235
-580.806	237.771	-0.162	0.273
-579.792	800.000	0.049	-0.164
-578.777	-145.280	-0.313	-0.029
-577.763	79.413	-0.118	0.129
-576.748	-47.910	0.139	-0.068
-575.733	157.773	0.053	0.074
-574.719	20.334	0.090	0.074
-573.704	-200.000	0.049	-0.267
-572.690	63.150	-0.169	0.171
-571.675	64.044	-0.114	-0.117
-570.661	-19.471	-0.224	0.141
-569.646	11.235	-0.193	0.150
-568.631	-48.711	0.293	0.143
-567.617	-200.000	-0.021	-0.323
-566.602	227.799	0.092	-0.152
-565.588	-200.000	0.046	-0.244
-564.573	-39.338	-0.117	0.062
-563.558	43.166	-0.044	-0.041
-562.544	-130.163	0.249	0.034
-561.529	-200.000	0.013	-0.155
-560.515	-200.000	-0.015	-0.101
-559.500	-64.335	0.049	-0.020
-558.485	785.078	0.046	-0.127
-557.471	-200.000	0.043	0.196
-556.456	-46.107	0.197	0.098
-555.442	64.544	-0.212	-0.217
-554.427	297.395	0.052	-0.097
-553.412	-200.000	0.009	-0.208
-552.398	-200.000	0.081	-0.482
-551.383	-82.092	-0.179	-0.059
-550.369	52.742	0.155	0.150
-549.354	86.281	0.101	0.113
-548.339	308.271	0.206	0.389
-547.325	47.338	-0.011	0.011
-546.310	-200.000	0.040	0.248
-545.296	29.911	0.266	-0.230
-544.281	-200.000	-0.016	0.122
-543.266	147.437	-0.201	0.275
-542.252	-108.838	0.111	0.024
-541.237	-200.000	-0.024	0.129
-540.223	800.000	-0.045	-0.137
-539.208	26.832	-0.137	-0.116
-538.193	800.000	-0.045	-0.186
-537.179	102.561	0.078	-0.092
-536.164	197.438	-0.127	-0.196
-535.150	-122.839	0.114	0.019
-534.135	-200.000	-0.021	-0.149
-533.121	800.000	0.030	-0.117
-532.106	-53.609	-0.290	-0.134
-531.091	73.362	0.263	0.279
-530.077	-37.243	-0.426	0.231
-529.062	-57.365	-0.231	0.103
-528.048	313.165	0.123	-0.234
-527.033	74.086	-0.070	-0.075
-526.018	-129.070	0.240	-0.034
-525.004	233.429	-0.135	0.225
-523.989	-190.562	0.272	0.003
-522.975	237.008	0.065	0.109
-521.960	-50.316	-0.327	-0.157
-520.945	109.247	-0.198	-0.240
-519.931	1.440	0.248	-0.181
-518.916	46.928	-0.112	-0.105
-517.902	-83.058	-0.184	0.060
-516.887	-106.526	-0.160	0.036
-515.872	800.000	0.057	-0.200
-514.858	-62.666	0.241	-0.101
-513.843	-53.271	-0.114	0.053
-512.829	800.000	-0.058	-0.174
-511.814	800.000	-0.056	0.175
-510.799	-24.780	0.180	-0.108
-509.785	-200.000	0.026	-0.176
-508.770	47.712	-0.148	-0.139
-507.756	65.120	-0.149	0.153
-506.741	-107.972	0.084	0.018
-505.726	708.742	0.073	-0.196
-504.712	-200.000	-0.027	0.174
-503.697	195.579	-0.160	0.246
-502.683	-88.075	0.172	0.052
-501.668	497.493	0.048	0.113
-500.653	-200.000	0.005	-0.095
-499.639	521.248	0.018	0.043
-498.624	106.288	-0.210	-0.252
-497.610	173.937	-0.076	-0.111
-496.595	-75.172	-0.111	0.040
-495.581	99.982	-0.301	0.353
-494.566	-2.458	-0.189	0.134
-493.551	458.290	0.107	0.241
-492.537	-14.168	0.240	0.157
-491.522	-200.000	-0.002	0.011
-490.508	82.078	-0.136	0.149
-489.493	-130.463	0.218	-0.030
-488.478	-82.115	0.096	-0.032
-487.464	-88.639	0.196	0.059
-486.449	-148.640	0.251	-0.021
-485.435	800.000	0.060	0.218
-484.420	-200.000	0.005	0.141
-483.405	-150.596	-0.268	-0.021
-482.391	-200.000	0.011	-0.229
-481.376	43.881	0.073	0.067
-480.362	-200.000	-0.006	-0.113
-479.347	302.317	-0.168	-0.315
-478.332	-0.183	0.109	0.078
-477.318	-100.451	0.363	-0.091
-476.303	-41.356	-0.319	-0.166
-475.289	473.163	-0.047	-0.107
-474.274	57.648	-0.272	0.268
-473.259	72.853	-0.213	-0.225
-472.245	-80.036	-0.164	0.056
-471.230	438.472	-0.090	0.199
-470.216	-16.483	-0.220	-0.141
-469.201	800.000	0.086	-0.256
-468.186	283.919	0.039	0.071
-467.172	-118.339	0.238	-0.043
-466.157	-123.352	0.136	-0.022
-465.143	-200.000	0.037	-0.563
-464.128	-127.651	-0.361	0.053
-463.113	171.595	-0.049	0.071
-462.099	29.203	0.144	-0.123
-461.084	17.396	-0.163	0.131
-460.070	8.650	-0.040	-0.030
-459.055	717.005	-0.049	0.131
-458.040	-35.013	0.120	0.066
-457.026	91.973	-0.090	0.102
-456.011	118.011	-0.039	-0.049
-454.997	-200.000	0.043	-0.198
-453.982	-172.615	-0.287	-0.009
-452.968	-25.416	0.242	-0.145
-451.953	-200.000	-0.059	0.337
-450.938	61.029	0.216	-0.217
-449.924	493.970	-0.073	-0.170
-448.909	800.000	-0.025	-0.101
-447.895	-72.682	0.087	0.032
-446.880	-77.899	0.055	0.019
-445.865	800.000	-0.031	-0.130
-444.851	-200.000	0.035	0.346
-443.836	164.069	0.124	0.176
-442.822	-112.483	0.201	0.041
-441.807	-84.259	0.067	0.022
-440.792	-73.509	-0.084	-0.031
-439.778	-35.514	0.072	-0.040
-438.763	66.879	-0.123	0.126
-437.749	9.139	-0.223	0.170
-436.734	-8.087	-0.164	0.112
-435.719	422.044	-0.112	-0.242
-434.705	-200.000	0.008	0.046
-433.690	-144.447	0.164	-0.015
-432.676	560.011	0.100	0.244
-431.661	-3.885	0.066	-0.046
-430.646	-169.097	-0.162	-0.006
-429.632	37.844	0.181	-0.162
-428.617	130.590	0.203	-0.263
-427.603	-150.524	0.273	-0.021
-426.588	-200.000	0.028	0.148
-425.573	800.000	-0.042	-0.168
-424.559	-46.354	-0.230	-0.114
-423.544	-200.000	0.034	-0.210
-422.530	-19.640	0.062	-0.039
-421.515	272.637	-0.194	0.346
-420.500	196.595	0.103	-0.158
-419.486	-109.893	0.196	0.041
-418.471	-200.000	-0.113	-0.576
-417.457	251.203	-0.081	-0.138
-416.442	800.000	0.045	0.127
-415.428	-121.473	-0.172	-0.029
-414.413	14.161	0.237	0.186
-413.398	-62.530	0.227	0.095
-412.384	800.000	-0.042	0.166
-411.369	-143.190	0.257	-0.025
-410.355	-52.926	0.091	0.042
-409.340	-200.000	0.006	-0.090
-408.325	-200.000	-0.064	-0.426
-407.311	134.783	0.220	0.287
-406.296	-127.456	0.177	0.026
-405.282	429.717	-0.157	0.343
-404.267	800.000	0.075	0.212
-403.252	127.583	0.137	-0.176
-402.238	127.492	-0.059	0.075
-401.223	394.150	0.038	0.079
-400.209	800.000	-0.090	0.289
-399.194	65.246	0.038	0.039
-398.179	-159.013	0.233	-0.013
-397.165	-31.767	0.039	0.022
-396.150	-134.201	-0.196	0.024
-395.136	-101.210	0.101	-0.025
-394.121	-63.182	-0.228	-0.095
-393.106	-104.074	0.074	-0.017
-392.092	-200.000	0.020	0.264
-391.077	85.638	-0.178	-0.197
-390.063	-59.410	-0.304	0.132
-389.048	5.116	0.041	-0.030
-388.033	-100.511	0.098	0.024
-387.019	-54.359	0.472	0.216
-386.004	-120.212	-0.065	0.011
-384.990	123.014	0.254	0.321
-383.975	-131.804	0.308	-0.041
-382.960	186.176	0.099	-0.148
-381.946	205.939	0.079	0.124
-380.931	-200.000	-0.048	-0.511
-379.917	-200.000	-0.021	0.138
-378.902	600.163	0.046	-0.116
-377.888	199.505	-0.110	-0.170
-376.873	-200.000	-0.042	0.257
-375.858	-120.168	-0.332	0.057
-374.844	-200.000	-0.012	0.199
-373.829	800.000	0.076	0.266
-372.815	-78.270	0.129	-0.045
-371.800	-200.000	-0.017	0.251
-370.785	-55.437	-0.207	-0.094
-369.771	-57.687	-0.196	0.086
-368.756	67.273	-0.141	0.145
-367.742	-200.000	0.056	-0.369
-366.727	800.000	0.035	0.144
-365.712	524.974	-0.101	-0.240
-364.698	-200.000	-0.019	-0.153
-363.683	412.886	-0.132	0.282
-362.669	-200.000	-0.043	-0.284
-361.654	220.557	0.040	-0.065
-360.639	-35.241	-0.183	0.100
-359.625	-200.000	-0.047	-0.353
-358.610	120.864	-0.214	-0.268
-357.596	90.973	0.125	0.142
-356.581	-116.251	-0.084	0.016
-355.566	-200.000	-0.059	-0.455
-354.552	0.190	0.132	0.095
-353.537	-53.360	0.218	0.100
-352.523	131.785	-0.174	0.225
-351.508	172.988	0.055	-0.080
-350.493	-200.000	0.015	-0.125
-349.479	-200.000	-0.022	-0.136
-348.464	-2.149	0.141	-0.099
-347.450	149.180	0.230	-0.313
-346.435	-26.267	0.017	0.010
-345.420	-90.677	0.347	0.101
-344.406	-126.185	-0.090	-0.014
-343.391	-20.470	0.083	0.051
-342.377	-200.000	0.044	-0.260
-341.362	-29.808	0.194	-0.111
-340.348	-122.537	0.352	-0.058
-339.333	52.054	-0.286	0.274
-338.318	-76.431	0.113	0.040
-337.304	800.000	-0.030	-0.094
-336.289	-14.925	0.370	-0.238
-335.275	136.788	0.039	-0.051
-334.260	-200.000	-0.049	0.229
-333.245	-93.268	-0.161	0.045
-332.231	-14.436	0.354	-0.229
-331.216	-147.490	0.190	0.016
-330.202	-71.079	0.121	0.046
-329.187	-55.934	-0.208	0.094
-328.172	-116.419	-0.170	0.032
-327.158	45.107	-0.078	-0.072
-326.143	-100.480	-0.030	-0.007
-325.129	53.685	-0.088	-0.085
-324.114	-104.747	0.182	0.042
-323.099	403.978	0.100	0.212
-322.085	-132.733	-0.194	0.025
-321.070	-43.573	0.404	-0.205
-320.056	-150.541	0.087	0.007
-319.041	51.878	0.134	0.128
-318.026	135.173	0.186	-0.243
-317.012	-77.247	-0.070	0.025
-315.997	-200.000	0.060	-0.405
-314.983	192.019	-0.235	0.356
-313.968	800.000	-0.047	0.179
-312.953	-105.379	-0.113	-0.026
-311.939	800.000	-0.072	-0.241
-310.924	-107.832	-0.251	-0.055
-309.910	800.000	-0.073	0.316
-308.895	-200.000	-0.040	-0.214
-307.880	194.329	0.059	-0.090
-306.866	-200.000	-0.014	-0.093
-305.851	-118.641	-0.126	-0.022
-304.837	-36.915	-0.050	0.027
-303.822	-200.000	-0.002	0.136
-302.807	-67.323	0.078	-0.031
-301.793	-147.835	-0.158	-0.013
-300.778	-200.000	-0.035	0.206
-299.764	-200.000	0.042	-0.287
-298.749	800.000	-0.019	0.066
-297.735	-68.778	-0.117	-0.045
-296.720	-200.000	-0.000	-0.110
-295.705	-57.148	-0.385	0.170
-294.691	-200.000	-0.016	-0.411
-293.676	-200.000	-0.000	0.310
-292.662	87.434	0.077	0.086
-291.647	-18.149	-0.155	0.097
-290.632	-200.000	-0.001	-0.086
-289.618	78.325	0.083	-0.089
-288.603	-111.039	0.156	-0.032
-287.589	45.771	0.023	0.021
-286.574	463.663	-0.121	0.270
-285.559	-200.000	0.035	-0.322
-284.545	3.718	-0.151	0.111
-283.530	-200.000	-0.020	0.296
-282.516	-31.546	0.218	-0.123
-281.501	-200.000	-0.029	0.523
-280.486	30.677	-0.330	0.283
-279.472	-28.443	0.412	0.238
-278.457	-37.335	-0.153	0.082
-277.443	-107.745	-0.333	0.073
-276.428	800.000	0.069	-0.261
-275.413	-200.000	0.020	-0.296
-274.399	800.000	0.037	0.140
-273.384	-188.547	-0.052	0.001
-272.370	592.204	-0.033	-0.083
-271.355	191.510	0.080	0.121
-270.340	-200.000	-0.021	0.129
-269.326	-137.143	-0.068	0.008
-268.311	118.992	0.343	0.425
-267.297	-200.000	-0.031	-0.342
-266.282	-200.000	-0.018	-0.334
-265.267	-2.347	0.285	0.200
-264.253	-16.910	-0.259	0.164
-263.238	-5.859	0.329	-0.226
-262.224	-72.799	-0.202	0.075
-261.209	-200.000	-0.021	0.202
-260.195	-200.000	0.062	0.344
-259.180	46.677	-0.073	-0.068
-258.165	-83.436	0.278	-0.089
-257.151	-108.865	-0.236	-0.051
-256.136	-48.777	0.259	0.124
-255.122	-152.778	-0.274	-0.020
-254.107	-200.000	-0.009	0.207
-253.092	120.344	0.203	-0.252
-252.078	351.148	-0.114	-0.227
-251.063	432.082	0.062	-0.136
-250.049	563.096	-0.038	-0.093
-249.034	99.688	-0.194	-0.225
-248.019	-8.304	-0.268	0.181
-247.005	-105.584	-0.049	0.011
-245.990	26.804	-0.437	-0.367
-244.976	-200.000	0.031	-0.245
-243.961	23.523	0.086	0.071
-242.946	-200.000	-0.042	0.513
-241.932	-168.826	-0.055	-0.002
-240.917	-178.016	-0.307	0.007
-239.903	-42.321	0.362	0.185
-238.888	-46.638	-0.010	-0.005
-237.873	-44.919	-0.073	-0.036
-236.859	-200.000	0.000	-0.101
-235.844	-184.006	0.415	0.007
-234.830	-96.869	0.477	-0.125
-233.815	-200.000	-0.006	0.197
-232.800	351.339	0.258	0.511
-231.786	-200.000	-0.036	-0.213
-230.771	95.214	0.094	0.107
-229.757	445.591	-0.040	0.089
-228.742	96.141	-0.103	0.118
-227.727	-200.000	-0.042	-0.314
-226.713	367.340	0.081	-0.163
-225.698	-102.845	0.109	0.026
-224.684	170.146	0.141	-0.202
-223.669	-30.498	0.181	-0.103
-222.655	583.910	0.090	0.221
-221.640	318.098	0.007	0.014
-220.625	-91.913	-0.130	0.037
-219.611	285.739	-0.042	-0.076
-218.596	-30.177	-0.217	0.124
-217.582	-200.000	-0.023	0.152
-216.567	-200.000	0.015	-0.089
-215.552	-77.708	0.069	0.024
-214.538	800.000	0.054	0.152
-213.523	15.370	0.079	0.062
-212.509	59.234	0.321	-0.317
-211.494	362.717	0.125	0.250
-210.479	-78.745	-0.342	0.117
-209.465	155.773	0.180	-0.248
-208.450	-69.636	0.010	-0.004
-207.436	-109.364	-0.215	0.046
-206.421	-84.637	0.059	-0.018
-205.406	96.763	0.067	-0.076
-204.392	800.000	0.136	0.399
-203.377	131.014	0.163	-0.210
-202.363	140.103	0.260	0.343
-201.348	800.000	0.063	-0.262
-200.333	-74.394	-0.129	0.047
-199.319	-200.000	0.010	-0.090
-198.304	-29.115	0.114	0.065
-197.290	31.706	-0.152	-0.131
-196.275	121.086	0.122	0.152
-195.260	-200.000	-0.038	0.353
-194.246	-122.839	-0.073	0.012
-193.231	80.075	-0.113	0.121
-192.217	-126.814	0.339	-0.050
-191.202	-85.423	-0.020	-0.006
-190.187	800.000	-0.108	0.409
-189.173	-18.958	0.185	0.115
-188.158	-200.000	-0.032	0.291
-187.144	183.914	-0.098	-0.146
-186.129	278.706	-0.088	-0.156
-185.114	67.042	0.182	-0.185
-184.100	-165.207	-0.317	0.014
-183.085	-63.432	-0.246	0.101
-182.071	-22.105	-0.090	-0.055
-181.056	-105.550	-0.043	-0.010
-180.042	-88.247	0.119	0.036
-179.027	16.354	-0.407	0.321
-178.012	-22.042	-0.038	0.023
-176.998	-97.315	-0.096	-0.025
-175.983	45.664	-0.093	-0.086
-174.969	-17.888	0.161	-0.101
-173.954	-56.794	-0.134	-0.059
-172.939	86.240	0.088	0.097
-171.925	74.919	0.117	-0.123
-170.910	67.537	-0.045	0.046
-169.896	-17.520	-0.312	-0.196
-168.881	40.554	0.236	0.212
-167.866	-37.558	0.105	0.056
-166.852	163.866	-0.057	-0.080
-165.837	124.798	-0.049	0.062
-164.823	96.657	-0.171	0.196
-163.808	-21.445	-0.081	0.050
-162.793	31.768	-0.337	-0.290
-161.779	-200.000	0.054	0.310
-160.764	387.192	0.099	0.204
-159.750	-76.816	-0.240	-0.084
-158.735	150.847	-0.054	-0.073
-157.720	256.609	0.171	0.294
-156.706	3.429	-0.233	0.169
-155.691	-156.629	0.307	0.019
-154.677	-200.000	-0.341	0.000
-153.662	-48.440	0.385	-0.185
-152.647	26.897	-0.192	0.160
-151.633	-1.056	0.074	-0.052
-150.618	-34.879	0.187	-0.102
-149.604	-47.812	0.320	0.155
-148.589	800.000	-0.041	0.147
-147.574	-80.323	-0.065	-0.022
-146.560	745.085	-0.122	-0.328
-145.545	-50.444	-0.101	-0.048
-144.531	-4.591	-0.071	-0.049
-143.516	800.000	-0.043	-0.131
-142.502	-4.590	0.101	0.069
-141.487	-42.584	0.308	0.157
-140.472	-200.000	-0.006	-0.242
-139.458	-43.422	-0.142	0.072
-138.443	76.821	0.250	-0.265
-137.429	382.468	-0.077	-0.158
-136.414	-19.635	0.267	-0.165
-135.399	-23.492	0.180	-0.108
-134.385	160.612	-0.096	-0.133
-133.370	-119.410	0.258	-0.045
-132.356	254.787	-0.084	-0.143
-131.341	-200.000	-0.019	0.117
-130.326	-200.000	0.035	0.237
-129.312	245.112	0.237	0.398
-128.297	-13.703	0.353	-0.228
-127.283	-200.000	-0.010	-0.065
-126.268	70.939	-0.068	0.070
-125.253	800.000	-0.044	-0.151
-124.239	-122.766	0.027	0.004
-123.224	-200.000	-0.026	-0.265
-122.210	-73.056	0.363	-0.133
