DTS Sentinel unit serial number:	SN413079Multiplexer serial number:	ORYXHardware model number:	OX4-SRSoftware version number:	ORYX F/W v4.00 Oryx Data Collector v3.7.2.0data status	okinstallation	princeton_trtdifferential loss correction	single-endedforward channel	channel 4reverse channel	N/Adate	2019/09/13time	14:01:35forward acquisition time	60.00reverse acquisition time	0.00gamma	496.2192k internal	0.2295k external	0.2295temperature offset calibration	1.0209default loss term (dB/km)	0.3790temperature slope calibration	1.0000multiplexer offset coefficient	1.0000multiplexer slope coefficient	1.0000fibre end	0.00T internal ref (°C)	35.25T ext. ref 1 (°C)	4.59T ext. ref 2 (°C)	31.95length (m)	temperature (°C)	Stokes	anti-Stokes-747.200	63.427	-0.237	-0.243
-746.185	-200.000	-0.006	0.168
-745.171	800.000	-0.051	0.169
-744.156	-123.756	-0.050	0.008
-743.142	789.555	-0.108	-0.304
-742.127	33.989	-0.147	0.131
-741.112	-200.000	0.031	-0.206
-740.098	34.147	-0.248	-0.221
-739.083	224.620	-0.077	0.128
-738.069	306.647	-0.074	0.140
-737.054	89.177	-0.174	0.198
-736.039	-55.853	-0.158	-0.072
-735.025	555.674	-0.047	-0.115
-734.010	208.886	0.300	-0.479
-732.996	-53.938	-0.328	-0.153
-731.981	436.386	0.097	0.217
-730.966	-124.509	-0.296	0.047
-729.952	489.557	-0.121	-0.282
-728.937	-23.263	-0.231	-0.142
-727.923	-200.000	-0.050	0.266
-726.908	-113.797	-0.445	-0.088
-725.894	486.999	0.104	0.241
-724.879	-200.000	-0.015	-0.073
-723.864	19.550	0.207	-0.170
-722.850	537.838	0.092	-0.224
-721.835	-200.000	0.008	-0.090
-720.821	-200.000	-0.006	0.083
-719.806	75.263	0.175	0.189
-718.791	-30.603	0.137	0.079
-717.777	-146.147	-0.017	0.002
-716.762	65.620	-0.134	-0.138
-715.748	45.474	-0.203	-0.191
-714.733	398.882	-0.113	-0.241
-713.718	32.288	-0.223	-0.197
-712.704	-90.448	0.239	-0.071
-711.689	715.762	0.125	-0.339
-710.675	37.510	0.146	-0.133
-709.660	-141.436	-0.138	0.014
-708.645	-20.761	0.295	-0.185
-707.631	-61.670	-0.246	0.105
-706.616	404.432	0.148	0.318
-705.602	-93.442	0.388	-0.110
-704.587	196.632	0.155	-0.241
-703.572	-126.973	0.218	-0.033
-702.558	-142.115	0.008	-0.001
-701.543	313.277	0.118	0.226
-700.529	800.000	-0.116	-0.351
-699.514	-146.887	0.077	0.007
-698.499	30.917	-0.434	-0.379
-697.485	262.998	0.178	0.316
-696.470	-200.000	-0.002	0.063
-695.456	800.000	-0.030	0.084
-694.441	241.642	-0.012	0.021
-693.426	477.437	-0.104	-0.241
-692.412	140.978	-0.058	0.078
-691.397	308.172	0.081	0.155
-690.383	-200.000	0.003	-0.211
-689.368	800.000	0.093	-0.270
-688.354	657.107	0.069	-0.181
-687.339	-129.575	0.297	-0.042
-686.324	594.979	-0.040	0.100
-685.310	8.956	-0.245	0.188
-684.295	-90.893	0.203	-0.059
-683.281	800.000	0.037	-0.138
-682.266	455.584	0.093	0.210
-681.251	-21.372	-0.195	0.122
-680.237	-200.000	-0.014	0.337
-679.222	-143.300	-0.169	-0.017
-678.208	79.086	-0.162	0.177
-677.193	6.041	0.195	-0.147
-676.178	108.369	-0.063	-0.076
-675.164	72.300	-0.149	0.158
-674.149	-161.116	-0.309	-0.016
-673.135	-136.245	0.224	-0.027
-672.120	94.884	-0.122	-0.142
-671.105	127.411	-0.167	0.216
-670.091	-92.744	-0.042	0.012
-669.076	-119.423	-0.209	-0.037
-668.062	-118.713	0.263	-0.047
-667.047	-106.728	-0.107	-0.024
-666.032	642.110	0.152	-0.394
-665.018	800.000	-0.052	-0.194
-664.003	-200.000	-0.029	-0.155
-662.989	-60.376	-0.230	0.100
-661.974	-200.000	-0.015	-0.070
-660.959	475.174	-0.136	-0.312
-659.945	411.746	-0.079	-0.171
-658.930	-18.887	-0.208	0.132
-657.916	180.367	-0.065	-0.097
-656.901	-39.895	-0.045	0.024
-655.886	134.233	0.044	0.058
-654.872	-82.064	0.274	0.091
-653.857	-200.000	0.008	-0.363
-652.843	3.278	-0.015	-0.011
-651.828	-85.475	0.312	-0.099
-650.814	-200.000	0.006	0.046
-649.799	-60.412	-0.282	0.122
-648.784	-56.367	0.523	-0.237
-647.770	26.739	0.201	-0.171
-646.755	-45.613	-0.094	-0.047
-645.741	3.451	-0.182	0.135
-644.726	156.652	-0.135	-0.190
-643.711	-85.509	-0.367	0.116
-642.697	13.871	0.091	-0.072
-641.682	-112.765	0.184	-0.037
-640.668	-200.000	-0.050	-0.230
-639.653	800.000	-0.126	-0.373
-638.638	-64.238	0.094	-0.039
-637.624	-200.000	0.022	0.244
-636.609	800.000	0.042	-0.131
-635.595	54.698	-0.159	0.157
-634.580	33.860	-0.105	-0.093
-633.565	-8.220	0.161	-0.110
-632.551	-200.000	0.005	0.088
-631.536	60.693	0.170	-0.172
-630.522	211.707	0.075	0.120
-629.507	10.414	0.107	0.083
-628.492	-75.732	-0.362	0.131
-627.478	146.238	-0.181	0.248
-626.463	-35.619	-0.130	-0.072
-625.449	800.000	-0.047	-0.135
-624.434	419.193	-0.056	0.122
-623.419	8.486	-0.172	-0.132
-622.405	-125.685	0.142	0.022
-621.390	-1.913	-0.162	0.116
-620.376	328.838	-0.014	0.027
-619.361	55.856	0.136	0.134
-618.346	-137.600	-0.166	0.019
-617.332	-200.000	-0.006	-0.246
-616.317	-200.000	-0.001	-0.063
-615.303	61.242	0.212	-0.214
-614.288	-200.000	-0.001	-0.013
-613.273	-147.645	0.296	-0.025
-612.259	104.295	0.237	-0.284
-611.244	-145.992	-0.106	0.010
-610.230	5.634	-0.070	0.052
-609.215	-161.759	0.185	-0.010
-608.201	507.099	-0.043	-0.101
-607.186	164.491	-0.206	-0.295
-606.171	329.930	0.122	0.239
-605.157	-67.809	-0.286	-0.114
-604.142	318.284	-0.041	-0.080
-603.128	265.119	-0.056	0.100
-602.113	177.396	-0.141	0.209
-601.098	85.333	0.130	0.145
-600.084	29.334	0.144	-0.124
-599.069	-38.573	0.075	-0.040
-598.055	-121.990	-0.374	-0.062
-597.040	488.092	0.103	0.239
-596.025	-33.792	-0.177	0.099
-595.011	-91.483	-0.171	0.050
-593.996	186.721	0.168	-0.254
-592.982	14.641	0.165	-0.131
-591.967	-47.153	0.176	0.087
-590.952	800.000	0.062	0.251
-589.938	-21.778	0.059	-0.036
-588.923	528.067	-0.074	-0.176
-587.909	-145.214	-0.283	0.026
-586.894	87.235	-0.373	0.419
-585.879	293.328	-0.093	-0.173
-584.865	52.605	0.172	0.167
-583.850	-48.383	-0.115	0.056
-582.836	-44.201	-0.421	0.215
-581.821	-108.168	0.313	0.069
-580.806	-66.537	-0.025	0.010
-579.792	-106.719	0.273	0.062
-578.777	138.271	0.135	0.180
-577.763	181.401	-0.189	-0.282
-576.748	-200.000	0.025	-0.572
-575.733	-124.182	-0.311	-0.050
-574.719	-200.000	-0.042	-0.262
-573.704	-77.122	0.591	-0.209
-572.690	-67.006	0.168	0.067
-571.675	6.158	-0.104	-0.078
-570.661	646.926	0.021	0.053
-569.646	-169.989	0.244	-0.009
-568.631	-28.233	0.221	0.130
-567.617	-200.000	0.051	0.250
-566.602	9.367	-0.114	0.088
-565.588	-156.261	0.234	0.015
-564.573	-5.732	0.088	-0.061
-563.558	196.849	-0.123	-0.191
-562.544	-200.000	-0.015	-0.464
-561.529	122.954	0.149	-0.190
-560.515	29.648	-0.231	0.200
-559.500	554.195	-0.137	-0.334
-558.485	-155.633	-0.181	0.012
-557.471	-200.000	0.033	-0.164
-556.456	800.000	-0.027	-0.086
-555.442	166.085	-0.030	-0.043
-554.427	8.766	-0.257	-0.197
-553.412	-49.895	-0.361	-0.174
-552.398	18.731	-0.046	0.037
-551.383	-88.024	-0.152	-0.046
-550.369	-200.000	-0.030	-0.179
-549.354	-131.107	0.142	0.019
-548.339	-114.958	-0.189	-0.036
-547.325	132.995	-0.154	-0.201
-546.310	800.000	-0.108	0.341
-545.296	-4.979	0.095	0.066
-544.281	-200.000	0.048	-0.358
-543.266	142.337	0.076	-0.102
-542.252	17.675	0.236	-0.190
-541.237	-58.187	0.141	0.062
-540.223	-200.000	0.022	-0.232
-539.208	-144.645	-0.093	-0.009
-538.193	-74.099	0.438	0.161
-537.179	-197.897	-0.180	0.001
-536.164	800.000	-0.036	-0.135
-535.150	-63.170	-0.122	-0.051
-534.135	-43.517	-0.363	0.186
-533.121	-200.000	-0.010	0.367
-532.106	-112.975	-0.159	0.032
-531.091	327.911	0.073	0.142
-530.077	-85.388	-0.206	-0.065
-529.062	-109.215	-0.262	0.056
-528.048	61.443	0.224	-0.226
-527.033	-200.000	-0.035	0.175
-526.018	-108.554	-0.376	0.082
-525.004	15.824	-0.061	0.048
-523.989	69.592	0.164	0.171
-522.975	44.824	-0.121	0.113
-521.960	-162.767	0.661	-0.033
-520.945	800.000	-0.041	-0.129
-519.931	800.000	0.124	0.365
-518.916	-141.397	0.102	-0.010
-517.902	246.345	-0.073	-0.125
-516.887	-31.675	0.128	0.073
-515.872	-154.409	-0.379	-0.026
-514.858	24.394	0.136	-0.114
-513.843	281.957	0.151	0.274
-512.829	-200.000	0.054	0.307
-511.814	800.000	-0.090	-0.286
-510.799	106.665	-0.078	-0.093
-509.785	317.023	-0.093	0.178
-508.770	-43.453	-0.128	-0.065
-507.756	-153.579	-0.485	-0.034
-506.741	155.564	-0.301	-0.420
-505.726	-60.766	0.429	-0.184
-504.712	-40.121	-0.094	-0.050
-503.697	-25.843	-0.212	-0.127
-502.683	-56.485	-0.293	0.131
-501.668	-200.000	0.004	-0.040
-500.653	31.342	-0.304	0.264
-499.639	-85.799	0.068	0.021
-498.624	2.004	0.145	-0.106
-497.610	-6.812	-0.043	-0.030
-496.595	800.000	0.046	0.198
-495.581	-98.983	0.388	-0.100
-494.566	-155.878	-0.156	-0.010
-493.551	26.256	0.199	-0.168
-492.537	57.353	-0.112	0.110
-491.522	11.930	-0.187	0.145
-490.508	-200.000	0.024	-0.335
-489.493	800.000	-0.014	-0.055
-488.478	800.000	0.108	-0.447
-487.464	-200.000	-0.036	-0.273
-486.449	447.695	0.112	-0.249
-485.435	-200.000	-0.025	0.128
-484.420	-183.128	0.136	0.002
-483.405	10.284	0.180	0.138
-482.391	-55.717	0.198	0.090
-481.376	416.759	0.112	-0.241
-480.362	261.117	-0.128	-0.223
-479.347	-200.000	-0.065	0.372
-478.332	194.371	0.034	-0.052
-477.318	800.000	0.030	-0.102
-476.303	31.838	-0.282	0.245
-475.289	-60.004	0.055	-0.024
-474.274	46.218	-0.115	0.108
-473.259	-38.953	0.124	-0.066
-472.245	-31.917	-0.351	0.199
-471.230	-33.721	0.427	0.238
-470.216	378.504	0.085	-0.175
-469.201	-72.527	-0.218	-0.081
-468.186	127.641	0.179	0.230
-467.172	-0.974	0.116	0.083
-466.157	800.000	-0.103	-0.307
-465.143	69.587	0.274	0.286
-464.128	-54.399	0.304	-0.139
-463.113	38.560	0.128	0.115
-462.099	298.859	0.053	-0.098
-461.084	800.000	-0.043	-0.159
-460.070	-84.872	0.348	0.110
-459.055	11.911	-0.152	-0.118
-458.040	800.000	-0.110	-0.354
-457.026	180.583	0.101	-0.149
-456.011	-26.511	-0.137	0.081
-454.997	800.000	0.045	-0.164
-453.982	-98.047	-0.249	0.065
-452.968	-200.000	0.022	-0.209
-451.953	-62.864	-0.174	-0.073
-450.938	-13.332	0.206	0.135
-449.924	-172.374	0.145	0.005
-448.909	60.295	-0.133	-0.133
-447.895	-200.000	0.030	-0.233
-446.880	1.427	-0.373	0.271
-445.865	-80.160	0.248	-0.084
-444.851	474.416	0.073	-0.167
-443.836	54.917	-0.190	-0.186
-442.822	-16.214	-0.160	-0.103
-441.807	232.399	0.188	0.311
-440.792	-200.000	-0.015	-0.162
-439.778	-143.617	-0.193	-0.019
-438.763	-113.407	-0.105	-0.021
-437.749	45.161	0.151	0.141
-436.734	495.253	-0.042	-0.097
-435.719	-43.126	-0.041	0.021
-434.705	-8.675	-0.148	0.100
-433.690	523.272	-0.076	-0.180
-432.676	-105.632	-0.298	-0.068
-431.661	76.845	-0.131	0.140
-430.646	-85.760	0.311	0.097
-429.632	800.000	-0.024	-0.092
-428.617	-200.000	-0.031	0.222
-427.603	535.648	-0.018	0.044
-426.588	-159.142	-0.160	0.009
-425.573	10.092	-0.290	-0.222
-424.559	456.317	-0.142	-0.318
-423.544	-58.250	-0.146	-0.064
-422.530	26.949	-0.254	-0.215
-421.515	460.728	-0.161	0.362
-420.500	-38.347	0.077	-0.041
-419.486	92.548	-0.220	0.250
-418.471	-83.494	-0.145	0.047
-417.457	49.148	-0.200	-0.190
-416.442	-111.295	0.187	-0.039
-415.428	39.100	-0.254	0.229
-414.413	-178.039	-0.064	0.002
-413.398	177.455	-0.210	-0.309
-412.384	-161.187	-0.163	-0.009
-411.369	582.125	-0.211	-0.522
-410.355	-176.040	0.237	-0.006
-409.340	-200.000	0.036	0.287
-408.325	-93.431	0.146	-0.041
-407.311	355.850	0.171	-0.344
-406.296	-54.611	0.128	-0.059
-405.282	-125.614	-0.327	-0.050
-404.267	402.194	-0.158	0.335
-403.252	800.000	0.072	0.232
-402.238	66.525	-0.336	0.344
-401.223	83.774	-0.107	0.117
-400.209	-200.000	-0.010	0.254
-399.194	-80.584	0.147	0.049
-398.179	63.936	0.318	0.323
-397.165	800.000	0.035	-0.108
-396.150	-43.674	-0.194	0.099
-395.136	800.000	0.052	0.166
-394.121	-200.000	0.016	-0.099
-393.106	800.000	0.009	0.028
-392.092	-12.814	-0.169	-0.111
-391.077	73.461	0.209	0.220
-390.063	288.330	0.057	0.105
-389.048	-99.378	0.283	-0.072
-388.033	800.000	0.013	-0.047
-387.019	37.430	0.326	0.291
-386.004	117.998	0.102	0.126
-384.990	-134.577	-0.086	0.011
-383.975	680.859	0.105	-0.274
-382.960	-143.099	-0.146	-0.014
-381.946	-12.610	-0.070	0.046
-380.931	-71.628	0.043	-0.016
-379.917	-85.153	0.093	-0.029
-378.902	-197.192	-0.223	-0.001
-377.888	-150.162	0.373	0.029
-376.873	-200.000	-0.022	-0.319
-375.858	379.461	-0.077	0.160
-374.844	120.553	-0.230	0.288
-373.829	800.000	-0.031	0.098
-372.815	-18.023	0.017	-0.011
-371.800	800.000	-0.022	0.066
-370.785	383.013	0.048	-0.100
-369.771	-86.575	-0.194	0.060
-368.756	-29.481	-0.019	-0.011
-367.742	-200.000	-0.008	-0.288
-366.727	-98.643	-0.087	-0.022
-365.712	-75.341	0.004	-0.001
-364.698	-149.935	0.269	-0.021
-363.683	-58.655	0.371	-0.162
-362.669	800.000	-0.041	-0.135
-361.654	36.757	0.119	0.106
-360.639	79.938	-0.204	0.221
-359.625	159.016	-0.098	-0.137
-358.610	-46.352	0.168	0.083
-357.596	-34.918	-0.134	-0.074
-356.581	-95.323	0.134	-0.036
-355.566	-122.051	0.341	-0.056
-354.552	-200.000	0.051	-0.254
-353.537	302.033	0.071	-0.132
-352.523	102.860	0.100	0.117
-351.508	608.388	-0.014	0.036
-350.493	38.289	-0.180	-0.161
-349.479	-69.267	0.044	-0.017
-348.464	104.733	-0.178	-0.211
-347.450	-59.325	0.209	-0.091
-346.435	-200.000	0.057	0.266
-345.420	-112.582	-0.345	-0.069
-344.406	206.051	0.267	0.418
-343.391	-113.697	-0.248	0.049
-342.377	-200.000	-0.036	0.248
-341.362	47.930	0.146	-0.138
-340.348	-76.598	0.234	-0.083
-339.333	48.908	0.153	0.145
-338.318	-162.402	0.201	-0.010
-337.304	369.437	-0.080	-0.163
-336.289	-200.000	-0.044	-0.348
-335.275	-139.045	-0.190	-0.021
-334.260	77.725	0.106	-0.114
-333.245	461.700	0.092	0.207
-332.231	115.450	0.115	0.141
-331.216	-200.000	-0.045	0.212
-330.202	800.000	0.042	0.132
-329.187	-5.713	0.202	-0.139
-328.172	-159.343	0.176	-0.010
-327.158	60.329	0.076	0.075
-326.143	-200.000	-0.006	-0.062
-325.129	-200.000	-0.034	-0.213
-324.114	-200.000	0.060	0.280
-323.099	-146.836	0.145	-0.013
-322.085	-200.000	0.016	0.102
-321.070	4.049	0.325	0.239
-320.056	326.761	-0.082	-0.159
-319.041	707.495	-0.029	0.078
-318.026	142.279	0.216	0.288
-317.012	48.725	0.016	-0.015
-315.997	229.424	0.052	-0.086
-314.983	-26.814	-0.103	0.061
-313.968	-200.000	0.012	0.133
-312.953	28.817	0.386	0.329
-311.939	65.657	0.025	-0.025
-310.924	-200.000	0.002	0.043
-309.910	19.445	0.123	-0.099
-308.895	-139.103	0.093	0.010
-307.880	800.000	0.018	0.053
-306.866	-110.828	-0.330	-0.068
-305.851	341.719	-0.130	0.255
-304.837	-80.417	0.346	-0.116
-303.822	-11.017	-0.240	-0.159
-302.807	-105.753	-0.070	-0.016
-301.793	-200.000	0.005	0.025
-300.778	-5.084	-0.060	0.041
-299.764	195.438	0.236	0.360
-298.749	27.716	-0.367	0.310
-297.735	253.757	-0.113	-0.195
-296.720	-11.489	0.088	0.058
-295.705	182.810	0.197	-0.292
-294.691	-200.000	-0.048	-0.298
-293.676	-130.438	0.216	-0.029
-292.662	-200.000	0.009	-0.200
-291.647	577.297	0.133	-0.327
-290.632	-200.000	0.010	0.161
-289.618	-76.779	-0.187	-0.066
-288.603	164.953	0.196	0.278
-287.589	-149.002	-0.190	-0.015
-286.574	7.594	-0.199	0.150
-285.559	-158.703	-0.244	-0.014
-284.545	800.000	-0.006	-0.018
-283.530	27.039	-0.287	-0.241
-282.516	-100.815	0.066	-0.016
-281.501	604.112	0.078	-0.195
-280.486	-200.000	-0.024	-0.141
-279.472	-200.000	0.004	0.349
-278.457	-56.161	0.096	0.043
-277.443	-175.190	0.142	-0.004
-276.428	-26.079	0.253	-0.149
-275.413	-149.579	0.492	-0.039
-274.399	2.609	0.130	-0.095
-273.384	-200.000	0.042	0.557
-272.370	82.379	-0.270	0.294
-271.355	-4.581	0.273	0.189
-270.340	-200.000	0.022	0.151
-269.326	550.258	0.023	0.056
-268.311	-169.859	0.266	-0.010
-267.297	-200.000	-0.331	-0.001
-266.282	750.949	-0.044	0.119
-265.267	-114.500	0.323	0.062
-264.253	-200.000	0.024	-0.199
-263.238	102.702	-0.150	0.177
-262.224	61.848	0.213	-0.213
-261.209	3.857	0.252	-0.185
-260.195	-27.512	-0.093	0.054
-259.180	-4.423	0.135	0.094
-258.165	81.161	0.068	-0.073
-257.151	93.286	0.186	-0.211
-256.136	707.352	0.059	-0.156
-255.122	91.834	-0.262	0.296
-254.107	60.167	0.096	0.095
-253.092	-8.624	-0.142	0.095
-252.078	800.000	0.048	0.179
-251.063	-56.922	0.198	0.088
-250.049	-6.492	0.012	0.009
-249.034	135.452	0.085	0.111
-248.019	223.330	-0.197	-0.319
-247.005	81.916	0.143	0.155
-245.990	-16.480	0.152	-0.096
-244.976	61.618	-0.172	0.171
-243.961	352.651	0.176	-0.350
-242.946	-132.349	0.023	-0.003
-241.932	-85.880	-0.013	0.004
-240.917	65.279	0.351	0.356
-239.903	55.283	0.083	-0.080
-238.888	800.000	0.016	0.047
-237.873	179.250	-0.143	0.210
-236.859	38.870	-0.103	-0.092
-235.844	8.076	0.114	-0.086
-234.830	800.000	-0.042	-0.155
-233.815	89.731	-0.112	-0.126
-232.800	779.593	0.054	0.148
-231.786	400.216	-0.166	-0.348
-230.771	-32.499	0.313	-0.175
-229.757	62.675	-0.025	0.025
-228.742	616.484	-0.045	-0.113
-227.727	-200.000	-0.014	-0.350
-226.713	-109.587	0.215	0.045
-225.698	-136.197	0.183	-0.021
-224.684	723.421	0.087	0.232
-223.669	633.315	-0.046	-0.118
-222.655	-69.758	-0.304	0.116
-221.640	25.279	0.065	-0.054
-220.625	42.908	-0.061	-0.055
-219.611	253.343	-0.173	0.295
-218.596	-124.190	-0.193	-0.030
-217.582	-139.302	-0.326	-0.035
-216.567	-117.355	0.440	0.080
-215.552	800.000	-0.019	0.076
-214.538	14.665	-0.178	-0.139
-213.523	-141.795	-0.319	0.032
-212.509	800.000	0.088	-0.381
-211.494	-84.970	0.110	-0.034
-210.479	86.917	-0.139	0.154
-209.465	800.000	-0.067	0.279
-208.450	7.993	0.025	0.018
-207.436	-200.000	-0.022	-0.319
-206.421	96.240	-0.097	0.111
-205.406	-200.000	-0.001	0.102
-204.392	-200.000	-0.026	-0.130
-203.377	-200.000	0.028	0.136
-202.363	800.000	0.087	0.290
-201.348	-120.949	0.235	-0.040
-200.333	-9.573	0.164	0.110
-199.319	-200.000	0.015	-0.207
-198.304	-200.000	0.015	0.146
-197.290	-134.318	-0.295	0.036
-196.275	-28.375	-0.120	-0.069
-195.260	-21.608	0.088	-0.054
-194.246	-120.184	0.308	0.053
-193.231	126.405	-0.156	0.198
-192.217	-200.000	-0.012	0.105
-191.202	205.623	0.030	0.046
-190.187	-107.893	0.135	0.029
-189.173	-28.782	0.287	0.165
-188.158	-200.000	-0.018	0.084
-187.144	-142.404	0.198	-0.020
-186.129	41.100	-0.123	0.111
-185.114	-200.000	0.023	0.414
-184.100	800.000	0.013	0.045
-183.085	633.178	-0.154	0.389
-182.071	-200.000	-0.020	0.147
-181.056	1.145	0.114	0.082
-180.042	298.818	-0.136	-0.251
-179.027	129.271	-0.222	0.283
-178.012	-108.566	-0.431	0.093
-176.998	-131.186	-0.199	0.026
-175.983	-52.141	0.308	0.143
-174.969	-37.601	0.198	-0.106
-173.954	-125.062	0.216	-0.033
-172.939	-47.495	-0.226	0.110
-171.925	-142.539	-0.172	0.017
-170.910	-49.224	-0.087	0.042
-169.896	95.330	0.124	0.141
-168.881	28.861	0.284	-0.241
-167.866	82.946	0.104	-0.113
-166.852	527.435	-0.032	-0.075
-165.837	289.339	0.064	0.116
-164.823	-89.952	0.165	0.048
-163.808	-138.459	0.101	-0.011
-162.793	325.978	0.212	-0.405
-161.779	572.026	-0.119	-0.289
-160.764	38.459	0.313	0.278
-159.750	-156.579	-0.138	-0.009
-158.735	278.354	-0.089	0.158
-157.720	-200.000	0.037	0.307
-156.706	-99.880	-0.316	0.079
-155.691	-200.000	-0.004	0.310
-154.677	-57.754	-0.244	0.106
-153.662	413.149	-0.139	-0.296
-152.647	-26.119	-0.231	0.135
-151.633	-45.991	-0.079	-0.039
-150.618	85.600	-0.132	-0.145
-149.604	174.730	0.162	0.234
-148.589	-111.605	-0.046	-0.009
-147.574	117.227	-0.039	-0.048
-146.560	800.000	-0.067	0.186
-145.545	800.000	-0.048	0.144
-144.531	85.146	-0.241	0.264
-143.516	-200.000	0.042	0.209
-142.502	-47.722	0.085	0.041
-141.487	-104.212	-0.155	0.036
-140.472	-43.474	0.354	0.178
-139.458	-36.115	-0.259	0.140
-138.443	273.180	0.133	-0.235
-137.429	-72.447	-0.165	0.061
-136.414	-126.486	-0.404	0.060
-135.399	18.132	0.133	0.106
-134.385	-115.428	-0.233	0.044
-133.370	-1.205	0.197	0.139
-132.356	-117.129	-0.267	0.049
-131.341	-73.783	-0.237	-0.086
-130.326	-112.144	-0.310	0.062
-129.312	800.000	0.050	0.154
-128.297	-92.709	-0.213	0.060
-127.283	169.598	-0.050	-0.072
-126.268	-83.692	-0.144	-0.046
-125.253	-200.000	0.026	-0.255
-124.239	800.000	0.064	-0.244
-123.224	-27.138	-0.068	0.039
-122.210	-200.000	-0.029	-0.365
-121.195	-119.362	0.379	-0.066
