DTS Sentinel unit serial number:	SN413079Multiplexer serial number:	ORYXHardware model number:	OX4-SRSoftware version number:	ORYX F/W v4.00 Oryx Data Collector v3.7.2.0data status	okinstallation	princeton_trtdifferential loss correction	single-endedforward channel	channel 4reverse channel	N/Adate	2019/09/14time	02:17:35forward acquisition time	60.00reverse acquisition time	0.00gamma	496.2192k internal	0.2323k external	0.2323temperature offset calibration	1.0132default loss term (dB/km)	0.3790temperature slope calibration	1.0000multiplexer offset coefficient	1.0000multiplexer slope coefficient	1.0000fibre end	0.00T internal ref (°C)	26.50T ext. ref 1 (°C)	3.22T ext. ref 2 (°C)	21.49length (m)	temperature (°C)	Stokes	anti-Stokes-747.200	-13.406	-0.035	-0.023
-746.185	106.846	0.214	0.256
-745.171	-13.887	0.110	-0.072
-744.156	-94.579	0.064	-0.018
-743.142	-20.905	0.138	-0.086
-742.127	800.000	-0.040	-0.123
-741.112	2.138	-0.163	-0.119
-740.098	-132.518	-0.269	-0.035
-739.083	800.000	0.016	-0.046
-738.069	-130.639	-0.289	0.039
-737.054	-200.000	-0.019	-0.167
-736.039	-200.000	0.020	0.163
-735.025	-72.566	0.088	-0.033
-734.010	154.847	-0.174	-0.242
-732.996	175.195	-0.091	-0.133
-731.981	319.119	0.055	0.106
-730.966	-125.679	-0.463	-0.071
-729.952	-200.000	0.127	0.614
-728.937	539.061	0.082	0.198
-727.923	-125.280	-0.061	0.009
-726.908	-64.761	-0.436	0.178
-725.894	415.158	0.174	-0.374
-724.879	272.765	0.074	0.131
-723.864	-6.072	0.114	0.079
-722.850	-116.999	-0.455	-0.084
-721.835	26.151	-0.290	0.244
-720.821	295.359	0.107	0.198
-719.806	8.842	0.204	-0.155
-718.791	-16.635	0.186	-0.119
-717.777	-93.126	0.038	0.011
-716.762	-200.000	0.008	0.319
-715.748	-103.692	0.197	-0.047
-714.733	800.000	0.094	-0.291
-713.718	551.097	-0.092	0.223
-712.704	-118.471	-0.119	-0.021
-711.689	510.225	-0.032	0.075
-710.675	-47.131	-0.228	0.112
-709.660	19.085	0.121	-0.098
-708.645	52.821	-0.145	0.139
-707.631	-200.000	0.031	0.163
-706.616	-65.339	-0.387	0.157
-705.602	41.412	-0.179	0.163
-704.587	-177.428	-0.138	-0.003
-703.572	-54.355	0.279	0.128
-702.558	-200.000	-0.036	0.455
-701.543	-35.660	-0.147	-0.080
-700.529	-200.000	-0.003	-0.262
-699.514	800.000	-0.028	0.103
-698.499	216.379	-0.085	0.136
-697.485	74.295	-0.009	0.009
-696.470	140.555	-0.073	0.097
-695.456	385.322	-0.070	-0.145
-694.441	-200.000	0.021	-0.355
-693.426	177.924	0.084	-0.123
-692.412	-200.000	-0.026	0.516
-691.397	800.000	-0.069	-0.238
-690.383	35.464	-0.233	0.206
-689.368	-91.785	-0.075	0.021
-688.354	-114.564	-0.172	0.033
-687.339	216.757	0.106	-0.170
-686.324	163.657	-0.286	0.405
-685.310	-64.485	-0.067	-0.028
-684.295	175.857	0.220	0.322
-683.281	-161.627	-0.088	-0.005
-682.266	-200.000	0.009	-0.111
-681.251	-77.088	0.275	-0.097
-680.237	-200.000	-0.009	-0.079
-679.222	295.280	0.115	0.212
-678.208	186.465	-0.303	0.454
-677.193	41.552	-0.449	0.409
-676.178	383.423	-0.103	0.213
-675.164	259.842	-0.114	-0.199
-674.149	-72.556	0.322	0.120
-673.135	3.061	-0.520	-0.381
-672.120	800.000	0.091	-0.286
-671.105	-58.512	0.185	0.081
-670.091	293.846	0.035	0.064
-669.076	11.365	0.084	0.065
-668.062	-88.956	-0.340	0.101
-667.047	546.814	-0.062	-0.150
-666.032	120.198	0.167	0.209
-665.018	-17.353	0.306	-0.194
-664.003	-200.000	-0.009	0.185
-662.989	3.278	-0.159	-0.117
-661.974	63.452	0.013	-0.013
-660.959	216.033	0.081	-0.130
-659.945	800.000	0.053	0.174
-658.930	-200.000	-0.017	-0.158
-657.916	94.395	-0.407	0.465
-656.901	-139.485	-0.181	-0.020
-655.886	37.231	0.144	0.128
-654.872	345.230	0.058	0.114
-653.857	441.949	-0.049	-0.109
-652.843	170.505	0.098	-0.141
-651.828	307.314	0.093	0.175
-650.814	82.529	0.120	-0.131
-649.799	81.995	0.147	0.161
-648.784	169.256	-0.007	-0.010
-647.770	-115.207	-0.309	0.059
-646.755	163.205	0.081	-0.114
-645.741	22.225	-0.318	0.261
-644.726	-62.096	-0.190	0.080
-643.711	800.000	-0.072	-0.218
-642.697	-17.205	0.157	-0.099
-641.682	-151.001	0.227	0.017
-640.668	-121.544	-0.148	-0.025
-639.653	371.925	-0.044	-0.090
-638.638	14.054	0.075	-0.059
-637.624	-49.921	0.257	-0.123
-636.609	-66.898	-0.315	-0.125
-635.595	69.767	-0.200	-0.207
-634.580	321.036	0.066	-0.127
-633.565	-72.529	0.085	0.032
-632.551	-58.704	-0.287	-0.125
-631.536	-200.000	-0.005	-0.039
-630.522	333.767	-0.044	0.086
-629.507	-184.719	-0.110	0.002
-628.492	67.436	-0.244	-0.250
-627.478	-72.970	-0.130	0.048
-626.463	50.308	0.124	0.118
-625.449	54.601	-0.162	-0.157
-624.434	-0.643	-0.040	-0.029
-623.419	302.070	0.077	-0.143
-622.405	52.720	-0.254	0.244
-621.390	55.957	0.014	0.013
-620.376	79.098	0.119	-0.128
-619.361	800.000	-0.061	-0.198
-618.346	58.418	0.189	0.186
-617.332	-112.608	0.046	0.009
-616.317	77.932	-0.262	-0.281
-615.303	11.812	0.102	0.079
-614.288	162.250	0.128	-0.180
-613.273	102.717	-0.036	-0.042
-612.259	-160.333	0.186	-0.010
-611.244	314.123	0.040	0.076
-610.230	-133.393	0.264	0.033
-609.215	-200.000	0.021	0.131
-608.201	439.961	-0.057	-0.126
-607.186	-141.278	-0.293	-0.030
-606.171	-97.148	0.201	-0.053
-605.157	-43.990	0.061	-0.031
-604.142	-136.549	-0.319	0.037
-603.128	-77.394	0.581	0.203
-602.113	-10.956	0.079	0.053
-601.098	-200.000	0.054	-0.317
-600.084	-60.245	0.086	-0.037
-599.069	36.915	0.054	-0.048
-598.055	-82.724	0.268	-0.087
-597.040	25.998	0.217	0.182
-596.025	-200.000	-0.045	0.298
-595.011	324.150	-0.036	-0.070
-593.996	-22.553	0.278	-0.169
-592.982	-200.000	-0.014	-0.157
-591.967	-200.000	0.020	0.194
-590.952	800.000	0.133	0.440
-589.938	116.251	0.068	0.084
-588.923	-200.000	0.032	-0.241
-587.909	-200.000	0.032	0.165
-586.894	293.879	-0.087	-0.160
-585.879	51.498	0.062	-0.059
-584.865	-200.000	-0.007	-0.084
-583.850	-200.000	0.007	0.100
-582.836	-200.000	-0.344	-0.001
-581.821	800.000	0.081	-0.250
-580.806	-28.249	0.161	0.093
-579.792	200.877	-0.237	-0.366
-578.777	-200.000	-0.013	0.232
-577.763	24.028	-0.128	0.106
-576.748	-44.111	-0.222	0.112
-575.733	-115.091	0.296	-0.056
-574.719	-72.714	-0.382	0.141
-573.704	-112.744	-0.244	0.049
-572.690	-14.364	-0.186	0.120
-571.675	-162.386	-0.420	0.021
-570.661	166.404	-0.196	0.279
-569.646	0.018	-0.190	-0.135
-568.631	-173.562	-0.157	0.005
-567.617	800.000	0.062	-0.183
-566.602	659.755	0.125	0.323
-565.588	250.309	0.065	-0.110
-564.573	118.689	-0.055	0.069
-563.558	80.362	-0.266	-0.288
-562.544	233.423	0.093	-0.153
-561.529	37.457	-0.251	0.223
-560.515	303.834	0.126	0.234
-559.500	-83.820	-0.273	0.087
-558.485	104.315	0.228	0.269
-557.471	48.597	-0.279	0.262
-556.456	25.077	0.154	-0.128
-555.442	28.748	0.046	-0.039
-554.427	42.599	0.163	0.149
-553.412	183.269	-0.116	0.172
-552.398	-56.851	-0.282	-0.125
-551.383	800.000	0.080	0.286
-550.369	76.308	-0.094	0.100
-549.354	800.000	-0.028	0.084
-548.339	800.000	0.050	-0.196
-547.325	-53.656	0.084	-0.038
-546.310	-200.000	0.032	-0.298
-545.296	-118.227	0.158	-0.028
-544.281	313.550	-0.012	-0.023
-543.266	49.599	-0.189	-0.179
-542.252	-159.740	-0.443	-0.024
-541.237	47.616	-0.149	0.139
-540.223	70.800	-0.088	0.091
-539.208	49.008	-0.213	-0.200
-538.193	-75.207	-0.191	-0.068
-537.179	-200.000	-0.048	-0.284
-536.164	-117.519	0.185	-0.034
-535.150	-102.483	-0.117	-0.028
-534.135	-31.852	0.286	-0.161
-533.121	-180.220	0.241	0.005
-532.106	-33.462	0.044	-0.024
-531.091	90.270	-0.266	0.298
-530.077	-122.514	0.031	0.005
-529.062	-54.161	0.102	-0.046
-528.048	67.115	0.184	0.188
-527.033	-105.122	0.223	-0.051
-526.018	381.411	-0.134	-0.276
-525.004	511.759	-0.088	-0.205
-523.989	339.661	0.067	0.130
-522.975	-15.741	0.326	0.208
-521.960	-82.714	-0.222	0.072
-520.945	-0.024	0.074	-0.052
-519.931	248.402	0.140	-0.237
-518.916	384.211	0.081	0.167
-517.902	-115.233	0.290	0.055
-516.887	-12.139	-0.229	0.150
-515.872	155.249	0.074	0.102
-514.858	-36.076	0.286	0.155
-513.843	-141.043	0.212	0.022
-512.829	-110.881	-0.021	0.004
-511.814	193.285	0.234	0.354
-510.799	246.865	0.195	0.330
-509.785	-200.000	0.000	0.201
-508.770	9.009	0.148	0.112
-507.756	-22.446	0.339	-0.205
-506.741	233.303	-0.042	-0.069
-505.726	42.593	0.070	-0.064
-504.712	-100.369	0.193	-0.048
-503.697	-104.971	-0.094	-0.022
-502.683	273.657	-0.044	-0.078
-501.668	-97.862	-0.162	0.042
-500.653	-152.008	0.233	-0.017
-499.639	41.654	-0.157	-0.143
-498.624	-73.834	-0.171	-0.062
-497.610	-93.845	0.110	0.030
-496.595	61.609	0.201	-0.200
-495.581	-159.624	-0.142	-0.008
-494.566	-179.725	0.088	-0.002
-493.551	-200.000	0.011	0.191
-492.537	68.331	0.112	-0.115
-491.522	491.315	0.081	-0.186
-490.508	499.689	0.099	-0.229
-489.493	-126.647	-0.205	-0.030
-488.478	8.648	0.321	0.241
-487.464	-200.000	-0.027	0.308
-486.449	-36.828	-0.285	-0.153
-485.435	-190.465	0.425	-0.005
-484.420	34.977	0.204	-0.178
-483.405	262.072	0.079	0.137
-482.391	-200.000	-0.049	-0.350
-481.376	348.595	-0.212	-0.417
-480.362	800.000	0.112	-0.336
-479.347	-65.736	-0.557	-0.223
-478.332	109.866	0.177	-0.212
-477.318	800.000	0.112	-0.356
-476.303	73.854	0.135	-0.141
-475.289	-121.924	0.220	0.036
-474.274	3.998	0.211	0.154
-473.259	-38.674	0.024	-0.013
-472.245	-88.344	0.270	0.081
-471.230	37.387	0.139	0.123
-470.216	352.739	-0.193	0.382
-469.201	41.987	-0.217	0.197
-468.186	-200.000	0.026	-0.150
-467.172	-118.218	0.126	-0.022
-466.157	363.880	0.032	0.063
-465.143	-200.000	0.032	-0.416
-464.128	-18.315	-0.110	0.069
-463.113	-200.000	0.006	-0.070
-462.099	-19.661	-0.196	0.121
-461.084	7.080	-0.164	0.122
-460.070	-53.292	-0.219	-0.100
-459.055	-114.676	-0.333	-0.064
-458.040	-134.553	0.045	0.006
-457.026	800.000	-0.052	-0.192
-456.011	-200.000	-0.055	0.242
-454.997	-200.000	-0.049	0.253
-453.982	9.533	-0.116	0.088
-452.968	-200.000	0.001	0.033
-451.953	-200.000	-0.201	0.000
-450.938	-9.851	0.269	-0.178
-449.924	33.257	-0.051	-0.044
-448.909	-173.770	-0.194	0.006
-447.895	37.142	-0.063	0.056
-446.880	-37.342	-0.137	-0.073
-445.865	-200.000	0.062	0.277
-444.851	-41.117	-0.291	0.150
-443.836	52.870	-0.158	0.151
-442.822	336.779	0.061	-0.118
-441.807	-130.524	-0.120	-0.016
-440.792	4.771	-0.158	-0.116
-439.778	-12.735	0.283	-0.184
-438.763	-156.027	0.045	-0.003
-437.749	-200.000	0.051	-0.226
-436.734	-192.962	0.196	0.002
-435.719	781.963	0.033	0.090
-434.705	-200.000	0.030	-0.302
-433.690	-42.076	-0.307	0.157
-432.676	779.264	-0.084	0.230
-431.661	134.254	-0.087	0.112
-430.646	-200.000	0.050	0.265
-429.632	-74.910	-0.182	-0.065
-428.617	-112.294	-0.084	0.017
-427.603	-46.310	0.412	-0.202
-426.588	-122.242	-0.188	-0.031
-425.573	-49.216	0.100	-0.048
-424.559	-200.000	-0.005	0.101
-423.544	293.563	-0.082	0.149
-422.530	-200.000	-0.010	0.156
-421.515	-137.466	0.489	-0.055
-420.500	-77.862	-0.088	-0.030
-419.486	-200.000	-0.013	0.350
-418.471	-96.336	-0.193	-0.051
-417.457	11.306	-0.129	-0.099
-416.442	233.139	0.140	0.230
-415.428	800.000	-0.031	0.124
-414.413	-101.386	0.216	0.052
-413.398	13.922	0.105	0.081
-412.384	-200.000	-0.026	0.141
-411.369	-118.312	0.134	0.024
-410.355	9.263	0.060	0.045
-409.340	-30.428	-0.305	-0.172
-408.325	-200.000	-0.057	-0.320
-407.311	-32.912	-0.310	0.171
-406.296	-200.000	0.087	0.380
-405.282	-188.528	-0.057	-0.001
-404.267	-200.000	0.000	-0.088
-403.252	-92.182	-0.220	0.062
-402.238	-151.382	-0.060	-0.004
-401.223	-56.066	0.205	0.091
-400.209	-140.632	0.136	0.014
-399.194	-81.351	0.147	0.048
-398.179	-90.436	-0.295	0.085
-397.165	-98.606	-0.132	-0.034
-396.150	-50.415	0.377	0.177
-395.136	800.000	-0.048	0.164
-394.121	-118.652	-0.096	0.017
-393.106	174.056	-0.050	-0.071
-392.092	-62.429	0.282	-0.117
-391.077	380.552	-0.088	0.181
-390.063	-129.104	0.058	0.008
-389.048	8.426	0.178	-0.133
-388.033	69.866	0.069	0.071
-387.019	-153.587	0.148	-0.010
-386.004	-5.515	-0.163	-0.111
-384.990	34.686	0.255	0.222
-383.975	800.000	-0.086	-0.272
-382.960	-145.261	-0.250	-0.022
-381.946	-62.883	-0.134	0.055
-380.931	138.479	-0.135	0.176
-379.917	-51.084	-0.252	-0.118
-378.902	181.253	-0.045	0.066
-377.888	-200.000	0.025	-0.128
-376.873	-90.658	0.081	0.023
-375.858	-52.324	-0.186	0.086
-374.844	-174.645	0.219	-0.006
-373.829	-174.555	-0.072	0.002
-372.815	44.220	0.317	-0.289
-371.800	-24.548	0.315	-0.186
-370.785	21.769	-0.116	-0.094
-369.771	-16.095	-0.090	0.057
-368.756	140.074	-0.126	0.165
-367.742	-200.000	-0.003	0.113
-366.727	-23.596	-0.237	0.141
-365.712	-200.000	-0.004	-0.162
-364.698	176.946	-0.110	-0.160
-363.683	106.936	0.202	-0.239
-362.669	-200.000	0.012	0.262
-361.654	-200.000	0.035	-0.238
-360.639	800.000	0.075	-0.233
-359.625	-58.971	0.159	0.068
-358.610	66.436	0.324	0.327
-357.596	-15.508	-0.264	-0.168
-356.581	373.584	-0.058	-0.117
-355.566	323.988	-0.116	-0.220
-354.552	83.684	0.343	0.372
-353.537	63.832	-0.180	-0.180
-352.523	-200.000	0.011	-0.328
-351.508	-101.317	-0.159	-0.039
-350.493	41.643	-0.108	0.098
-349.479	137.131	0.109	0.141
-348.464	-63.005	-0.029	0.012
-347.450	800.000	-0.075	0.244
-346.435	53.178	-0.107	0.102
-345.420	-136.940	-0.296	0.034
-344.406	-200.000	-0.008	-0.126
-343.391	-36.556	0.244	-0.131
-342.377	224.702	0.075	0.120
-341.362	-28.573	0.337	0.193
-340.348	-117.564	-0.471	-0.085
-339.333	-107.771	0.211	0.046
-338.318	266.537	-0.159	-0.276
-337.304	290.769	0.075	0.135
-336.289	-62.860	0.408	0.168
-335.275	800.000	-0.046	-0.126
-334.260	-68.980	-0.147	0.057
-333.245	800.000	0.025	-0.098
-332.231	-48.362	-0.131	-0.063
-331.216	800.000	0.039	0.113
-330.202	-57.204	-0.191	0.084
-329.187	-200.000	-0.010	-0.049
-328.172	-51.667	0.221	0.103
-327.158	187.724	0.079	0.118
-326.143	-52.116	0.110	-0.051
-325.129	-47.630	-0.173	-0.083
-324.114	-200.000	0.047	0.239
-323.099	-86.363	0.012	0.004
-322.085	-88.101	-0.321	0.096
-321.070	-63.042	0.136	-0.056
-320.056	-12.976	-0.155	-0.100
-319.041	388.297	0.093	-0.191
-318.026	587.560	-0.218	-0.533
-317.012	-200.000	-0.039	-0.198
-315.997	-45.959	-0.192	-0.094
-314.983	1.217	0.080	-0.057
-313.968	226.819	-0.113	0.182
-312.953	800.000	-0.064	0.238
-311.939	163.067	0.140	0.196
-310.924	233.911	-0.149	0.244
-309.910	41.278	-0.094	-0.085
-308.895	522.335	0.097	0.226
-307.880	-69.609	-0.132	0.050
-306.866	-200.000	0.017	0.116
-305.851	-67.537	0.201	0.078
-304.837	214.518	0.235	0.369
-303.822	800.000	-0.126	0.389
-302.807	800.000	0.036	0.131
-301.793	23.444	0.098	0.080
-300.778	70.872	0.387	-0.398
-299.764	12.491	-0.242	-0.185
-298.749	-200.000	0.006	-0.070
-297.735	-200.000	-0.049	-0.368
-296.720	-18.331	0.343	-0.213
-295.705	28.876	-0.251	0.211
-294.691	-35.280	-0.195	0.105
-293.676	-200.000	0.036	0.205
-292.662	1.168	0.176	0.125
-291.647	587.417	-0.037	-0.089
-290.632	-121.562	0.267	0.044
-289.618	-115.948	0.334	-0.062
-288.603	-200.000	0.035	-0.210
-287.589	-66.435	-0.210	0.083
-286.574	91.153	0.217	0.241
-285.559	-56.281	0.075	0.033
-284.545	-200.000	0.010	0.263
-283.530	-25.159	-0.171	0.100
-282.516	-16.191	-0.063	0.040
-281.501	237.876	0.067	0.110
-280.486	78.949	-0.072	0.077
-279.472	-25.112	0.183	-0.107
-278.457	-200.000	0.053	-0.242
-277.443	3.579	-0.104	-0.075
-276.428	110.098	-0.269	-0.320
-275.413	-200.000	-0.044	-0.252
-274.399	288.077	-0.099	0.178
-273.384	291.736	0.070	-0.127
-272.370	-162.750	-0.572	-0.028
-271.355	-24.717	0.055	-0.032
-270.340	24.261	0.190	0.156
-269.326	-200.000	-0.008	-0.449
-268.311	-136.753	-0.269	-0.031
-267.297	318.318	0.056	0.104
-266.282	-88.111	0.096	-0.028
-265.267	111.155	-0.148	-0.177
-264.253	488.490	-0.173	0.391
-263.238	-62.780	0.137	0.056
-262.224	800.000	-0.026	0.102
-261.209	800.000	-0.040	0.158
-260.195	800.000	0.127	0.499
-259.180	800.000	-0.041	-0.134
-258.165	-30.069	-0.327	-0.184
-257.151	800.000	0.035	0.141
-256.136	-59.509	-0.059	-0.025
-255.122	-51.769	-0.108	-0.050
-254.107	800.000	0.069	0.273
-253.092	-47.257	0.207	-0.100
-252.078	96.989	0.238	0.270
-251.063	-153.632	-0.375	-0.026
-250.049	-7.443	0.099	-0.066
-249.034	-33.109	0.413	0.227
-248.019	-171.485	-0.248	-0.008
-247.005	-200.000	-0.008	0.368
-245.990	-80.144	-0.112	-0.037
-244.976	-200.000	-0.012	0.210
-243.961	49.049	-0.144	0.134
-242.946	-200.000	-0.034	0.236
-241.932	402.823	-0.042	-0.088
-240.917	-99.407	-0.269	0.067
-239.903	-38.302	-0.212	0.111
-238.888	10.322	0.298	0.225
-237.873	-21.878	0.225	0.136
-236.859	192.004	-0.224	-0.335
-235.844	-22.224	-0.089	0.053
-234.830	-200.000	-0.020	-0.439
-233.815	84.445	0.205	0.222
-232.800	-132.702	0.164	-0.021
-231.786	-200.000	0.029	0.224
-230.771	2.520	-0.077	-0.056
-229.757	-97.962	0.269	0.069
-228.742	-2.526	0.142	-0.098
-227.727	-6.441	0.171	-0.115
-226.713	32.755	0.170	0.146
-225.698	-41.833	-0.260	-0.132
-224.684	-43.275	0.332	0.166
-223.669	-200.000	0.059	-0.387
-222.655	-143.952	-0.113	0.011
-221.640	-200.000	0.018	-0.284
-220.625	235.499	-0.065	-0.107
-219.611	800.000	-0.080	0.275
-218.596	-38.262	-0.207	-0.109
-217.582	800.000	-0.096	0.283
-216.567	586.953	0.125	-0.304
-215.552	800.000	-0.032	-0.089
-214.538	9.799	0.159	-0.119
-213.523	498.643	0.155	-0.352
-212.509	800.000	0.062	0.219
-211.494	800.000	-0.085	0.322
-210.479	-200.000	0.029	-0.194
-209.465	-125.913	-0.047	0.007
-208.450	91.251	0.093	0.103
-207.436	-153.347	0.019	0.001
-206.421	-65.034	-0.103	0.041
-205.406	-200.000	-0.010	0.129
-204.392	-101.056	-0.034	0.008
-203.377	190.204	0.176	-0.261
-202.363	66.484	0.207	0.208
-201.348	-200.000	0.069	-0.527
-200.333	-200.000	0.035	-0.388
-199.319	-83.230	0.424	0.135
-198.304	-100.752	0.213	-0.052
-197.290	-128.728	-0.094	-0.013
-196.275	197.818	0.108	0.164
-195.260	283.715	0.163	-0.289
-194.246	800.000	0.040	-0.160
-193.231	800.000	0.046	-0.160
-192.217	-49.948	-0.448	-0.210
-191.202	-122.668	-0.288	0.046
-190.187	-200.000	0.031	0.294
-189.173	800.000	0.118	-0.353
-188.158	-109.578	-0.173	-0.036
-187.144	-48.938	0.169	0.080
-186.129	34.147	0.238	0.205
-185.114	-96.729	0.139	-0.036
-184.100	-89.858	-0.183	-0.053
-183.085	60.182	0.195	0.190
-182.071	36.576	-0.159	0.139
-181.056	216.227	0.096	0.151
-180.042	38.707	0.067	-0.059
-179.027	121.233	0.066	0.081
-178.012	-104.154	0.203	0.047
-176.998	-200.000	-0.014	-0.208
-175.983	-45.781	0.240	0.117
-174.969	-154.838	-0.116	0.008
-173.954	-200.000	0.025	0.209
-172.939	21.397	0.215	-0.173
-171.925	51.255	0.158	0.148
-170.910	-46.071	0.162	0.079
-169.896	-8.047	0.195	-0.130
-168.881	-145.124	-0.190	0.017
-167.866	-33.638	-0.039	0.021
-166.852	-70.528	-0.163	-0.061
-165.837	287.581	0.126	0.225
-164.823	-64.007	-0.348	0.140
-163.808	-200.000	0.046	-0.406
-162.793	-200.000	-0.018	-0.212
-161.779	-132.329	-0.159	0.020
-160.764	3.620	-0.272	-0.196
-159.750	-45.078	-0.061	0.030
-158.735	294.701	0.045	-0.081
-157.720	-127.576	0.226	0.032
-156.706	18.751	-0.270	0.213
-155.691	202.264	-0.154	-0.234
-154.677	68.009	0.181	-0.182
-153.662	-200.000	0.051	-0.253
-152.647	-200.000	-0.008	-0.202
-151.633	-200.000	0.002	-0.077
-150.618	-4.815	0.244	0.166
-149.604	-153.542	0.110	-0.008
-148.589	-12.851	0.170	-0.109
-147.574	-163.366	-0.289	-0.014
-146.560	93.010	0.150	-0.167
-145.545	41.244	0.295	-0.263
-144.531	-148.160	-0.309	0.025
-143.516	37.200	0.259	0.226
-142.502	-200.000	0.012	0.167
-141.487	-65.295	-0.138	-0.055
-140.472	9.493	0.393	-0.294
-139.458	-46.302	0.131	0.064
-138.443	-105.421	-0.437	-0.098
-137.429	800.000	0.037	-0.149
-136.414	89.882	-0.098	0.108
-135.399	14.682	0.291	0.225
-134.385	-200.000	-0.007	0.235
-133.370	-75.815	-0.201	0.070
-132.356	542.244	-0.060	0.141
-131.341	-200.000	-0.019	-0.226
-130.326	-1.030	0.145	0.101
-129.312	36.175	0.077	-0.067
-128.297	800.000	0.113	-0.475
-127.283	309.826	0.066	-0.122
-126.268	-12.524	-0.297	-0.191
-125.253	-200.000	0.011	0.118
-124.239	-78.663	-0.268	-0.090
-123.224	305.142	0.128	0.235
-122.210	-58.887	0.386	0.164
-121.195	18.996	-0.105	0.083
-120.180	-105.622	-0.159	0.035
