DTS Sentinel unit serial number:	SN413079Multiplexer serial number:	ORYXHardware model number:	OX4-SRSoftware version number:	ORYX F/W v4.00 Oryx Data Collector v3.7.2.0data status	okinstallation	princeton_trtdifferential loss correction	single-endedforward channel	channel 4reverse channel	N/Adate	2019/09/14time	07:29:35forward acquisition time	60.00reverse acquisition time	0.00gamma	496.2192k internal	0.2323k external	0.2323temperature offset calibration	1.0138default loss term (dB/km)	0.3790temperature slope calibration	1.0000multiplexer offset coefficient	1.0000multiplexer slope coefficient	1.0000fibre end	0.00T internal ref (°C)	26.20T ext. ref 1 (°C)	3.49T ext. ref 2 (°C)	21.14length (m)	temperature (°C)	Stokes	anti-Stokes-747.200	-66.770	-0.027	-0.011
-746.185	-68.728	-0.328	0.128
-745.171	-200.000	-0.031	-0.229
-744.156	116.330	-0.173	0.214
-743.142	718.399	0.088	0.237
-742.127	226.528	-0.091	0.149
-741.112	-124.926	0.390	0.061
-740.098	339.724	-0.192	0.377
-739.083	184.255	-0.167	0.249
-738.069	-155.282	-0.223	0.015
-737.054	128.135	0.139	-0.178
-736.039	-200.000	-0.064	-0.379
-735.025	298.539	0.153	0.284
-734.010	-23.608	-0.252	-0.152
-732.996	-194.398	-0.445	-0.004
-731.981	-56.576	-0.332	0.148
-730.966	-55.656	0.166	0.075
-729.952	-91.814	-0.334	0.096
-728.937	-71.209	-0.167	-0.063
-727.923	739.086	0.019	-0.050
-726.908	53.906	0.028	0.027
-725.894	-16.066	-0.268	0.172
-724.879	71.718	0.037	0.039
-723.864	-147.500	-0.215	0.018
-722.850	142.847	-0.080	0.108
-721.835	157.057	0.113	-0.158
-720.821	800.000	0.054	-0.160
-719.806	800.000	-0.095	0.375
-718.791	-98.204	0.162	0.042
-717.777	221.940	-0.043	0.069
-716.762	-109.912	0.139	0.029
-715.748	800.000	-0.062	-0.225
-714.733	680.070	-0.059	-0.154
-713.718	-136.066	0.272	-0.032
-712.704	53.942	0.169	-0.164
-711.689	10.813	-0.219	0.169
-710.675	-84.896	-0.072	-0.023
-709.660	20.792	-0.164	0.134
-708.645	-115.489	-0.264	-0.050
-707.631	-33.997	-0.100	0.055
-706.616	800.000	0.060	-0.196
-705.602	-20.981	-0.180	0.111
-704.587	95.589	-0.357	-0.411
-703.572	-200.000	-0.059	0.408
-702.558	739.587	-0.111	0.299
-701.543	-158.666	0.095	-0.006
-700.529	-115.715	-0.047	-0.009
-699.514	190.422	0.154	0.234
-698.499	-11.916	-0.375	-0.248
-697.485	41.452	0.310	-0.283
-696.470	147.640	-0.071	0.097
-695.456	117.809	-0.077	-0.096
-694.441	800.000	-0.051	0.214
-693.426	-93.519	-0.221	0.061
-692.412	25.793	-0.321	-0.269
-691.397	-29.535	0.139	0.080
-690.383	800.000	-0.029	0.094
-689.368	800.000	-0.079	-0.272
-688.354	473.282	0.117	-0.267
-687.339	247.675	-0.071	0.121
-686.324	-200.000	0.007	0.048
-685.310	224.234	-0.088	0.143
-684.295	277.479	-0.084	-0.151
-683.281	136.062	-0.164	0.216
-682.266	-200.000	0.011	0.088
-681.251	-86.969	-0.344	0.106
-680.237	-24.117	-0.319	0.192
-679.222	323.758	-0.185	0.356
-678.208	-65.785	-0.216	0.087
-677.193	172.689	0.049	0.071
-676.178	31.575	-0.080	-0.069
-675.164	800.000	0.049	0.181
-674.149	-200.000	0.007	0.089
-673.135	494.252	-0.107	-0.248
-672.120	223.274	0.101	-0.164
-671.105	-97.619	-0.254	-0.066
-670.091	-61.653	0.086	-0.037
-669.076	-158.226	0.349	-0.020
-668.062	3.748	-0.220	-0.162
-667.047	-199.690	-0.180	-0.001
-666.032	-68.945	0.204	0.079
-665.018	26.394	-0.151	-0.127
-664.003	-200.000	0.031	-0.198
-662.989	800.000	0.092	-0.305
-661.974	-200.000	0.044	-0.306
-660.959	800.000	-0.033	0.108
-659.945	48.894	-0.116	-0.109
-658.930	-92.723	0.110	0.031
-657.916	-57.161	-0.188	-0.083
-656.901	-183.011	0.180	0.003
-655.886	-54.210	0.403	0.184
-654.872	51.546	-0.254	0.243
-653.857	118.915	-0.082	0.102
-652.843	800.000	0.007	-0.026
-651.828	-196.829	0.143	-0.001
-650.814	-167.569	-0.271	-0.011
-649.799	-39.364	0.185	-0.098
-648.784	-161.123	0.264	0.014
-647.770	-200.000	0.006	0.053
-646.755	-200.000	-0.022	-0.147
-645.741	2.698	0.275	-0.201
-644.726	-2.592	-0.107	0.075
-643.711	-56.069	-0.145	0.065
-642.697	-88.282	-0.124	0.037
-641.682	570.770	0.055	-0.136
-640.668	-67.266	-0.279	0.111
-639.653	-109.662	0.175	0.037
-638.638	800.000	0.011	0.038
-637.624	800.000	0.096	-0.277
-636.609	-10.177	0.064	-0.043
-635.595	-73.251	-0.133	-0.049
-634.580	247.269	0.060	0.102
-633.565	266.384	-0.125	-0.220
-632.551	-131.963	-0.278	0.036
-631.536	-66.891	-0.251	0.100
-630.522	-51.398	0.071	-0.033
-629.507	-30.364	-0.296	0.169
-628.492	133.858	0.089	0.116
-627.478	-62.747	0.461	0.192
-626.463	-200.000	-0.009	0.115
-625.449	693.907	-0.085	-0.225
-624.434	-200.000	-0.031	-0.401
-623.419	13.938	0.091	-0.071
-622.405	112.045	0.182	0.221
-621.390	-200.000	-0.032	-0.238
-620.376	110.725	0.119	0.144
-619.361	-30.412	0.122	-0.070
-618.346	-135.005	0.209	-0.025
-617.332	16.235	0.172	-0.136
-616.317	126.801	-0.096	0.122
-615.303	575.322	0.021	-0.051
-614.288	-154.774	-0.118	0.008
-613.273	-31.428	-0.288	0.163
-612.259	800.000	-0.092	-0.368
-611.244	-79.472	0.165	-0.056
-610.230	78.827	0.240	-0.258
-609.215	138.227	-0.167	-0.220
-608.201	-44.686	0.162	-0.081
-607.186	511.384	-0.141	-0.330
-606.171	131.123	-0.216	0.279
-605.157	-73.486	0.178	-0.065
-604.142	773.683	0.047	0.129
-603.128	-47.999	-0.040	-0.020
-602.113	-145.397	0.124	0.011
-601.098	-138.059	-0.378	0.042
-600.084	-89.562	0.138	-0.041
-599.069	-188.294	-0.191	-0.002
-598.055	-5.400	-0.135	-0.093
-597.040	-131.086	-0.009	-0.001
-596.025	800.000	0.064	-0.249
-595.011	-79.350	-0.327	0.111
-593.996	-98.394	0.082	-0.021
-592.982	800.000	-0.075	-0.292
-591.967	27.784	0.106	-0.089
-590.952	-7.928	-0.328	0.222
-589.938	-200.000	0.039	0.214
-588.923	50.493	0.273	0.259
-587.909	-8.791	-0.191	-0.129
-586.894	-67.295	-0.236	0.093
-585.879	393.213	0.019	0.039
-584.865	800.000	0.051	0.187
-583.850	-131.685	-0.328	-0.043
-582.836	-200.000	-0.094	0.445
-581.821	-108.883	0.087	-0.019
-580.806	-71.680	0.176	-0.066
-579.792	-98.461	0.176	0.045
-578.777	53.808	0.129	0.125
-577.763	-200.000	0.067	-0.311
-576.748	12.106	0.145	-0.112
-575.733	-110.079	-0.131	-0.027
-574.719	-200.000	-0.037	0.236
-573.704	-92.569	0.458	0.129
-572.690	428.710	-0.119	0.258
-571.675	800.000	-0.037	-0.145
-570.661	-17.723	-0.105	0.066
-569.646	306.029	-0.066	0.123
-568.631	-200.000	0.026	-0.131
-567.617	-200.000	0.008	-0.124
-566.602	-97.561	-0.460	-0.120
-565.588	104.756	0.145	0.171
-564.573	-99.035	0.225	-0.057
-563.558	-200.000	-0.010	-0.047
-562.544	-100.843	-0.034	0.008
-561.529	800.000	-0.049	-0.216
-560.515	36.936	-0.198	-0.175
-559.500	-90.695	0.158	0.046
-558.485	152.465	-0.068	0.092
-557.471	-196.942	-0.335	0.002
-556.456	54.882	-0.128	0.124
-555.442	262.071	-0.173	-0.300
-554.427	486.305	0.136	-0.311
-553.412	88.223	0.199	0.221
-552.398	-200.000	0.015	-0.080
-551.383	9.510	-0.268	0.203
-550.369	800.000	0.161	0.607
-549.354	151.754	-0.192	-0.263
-548.339	-124.735	-0.104	0.016
-547.325	-43.744	-0.416	-0.210
-546.310	-111.915	0.151	-0.031
-545.296	129.659	-0.171	0.218
-544.281	-72.682	0.273	-0.101
-543.266	210.182	-0.029	0.046
-542.252	7.229	0.163	0.122
-541.237	-200.000	-0.007	0.217
-540.223	-90.440	0.109	-0.032
-539.208	-119.410	-0.201	0.035
-538.193	-154.402	-0.195	-0.013
-537.179	-173.184	0.096	0.003
-536.164	60.668	0.311	0.309
-535.150	9.514	0.174	-0.132
-534.135	-91.553	-0.048	-0.014
-533.121	-101.479	0.244	-0.059
-532.106	-174.552	0.262	0.008
-531.091	75.129	0.064	-0.068
-530.077	65.167	-0.123	0.125
-529.062	-8.561	-0.333	-0.224
-528.048	-90.518	0.322	-0.093
-527.033	45.090	0.070	0.064
-526.018	-117.515	0.099	-0.018
-525.004	-200.000	0.002	-0.248
-523.989	-200.000	-0.031	-0.241
-522.975	652.795	-0.012	0.031
-521.960	46.816	-0.051	-0.048
-520.945	-1.512	-0.185	-0.130
-519.931	-8.205	-0.054	-0.036
-518.916	800.000	-0.071	-0.281
-517.902	63.649	0.278	0.280
-516.887	-111.928	0.188	0.038
-515.872	-200.000	0.049	-0.427
-514.858	-153.564	-0.286	-0.020
-513.843	-200.000	0.037	-0.253
-512.829	-110.908	0.245	0.050
-511.814	487.974	-0.047	0.107
-510.799	189.343	0.269	0.403
-509.785	222.703	-0.117	0.188
-508.770	8.653	-0.240	-0.181
-507.756	50.832	-0.062	0.059
-506.741	40.003	0.231	0.207
-505.726	389.476	-0.097	0.200
-504.712	-39.529	0.180	-0.094
-503.697	-35.262	0.412	-0.224
-502.683	547.996	-0.096	-0.230
-501.668	143.975	-0.059	0.079
-500.653	-51.560	-0.195	0.091
-499.639	-200.000	-0.016	-0.151
-498.624	562.682	-0.047	-0.113
-497.610	115.114	0.136	0.166
-496.595	267.505	-0.112	-0.196
-495.581	309.466	0.124	-0.232
-494.566	-74.146	-0.127	0.046
-493.551	70.475	0.172	0.178
-492.537	-48.779	-0.225	0.108
-491.522	-200.000	-0.011	0.187
-490.508	-6.192	-0.148	-0.101
-489.493	198.916	0.168	-0.258
-488.478	-117.451	0.275	0.050
-487.464	800.000	0.088	0.249
-486.449	503.210	-0.132	0.306
-485.435	2.418	0.299	0.217
-484.420	685.999	-0.169	0.441
-483.405	800.000	-0.149	0.455
-482.391	298.367	-0.232	0.426
-481.376	44.937	-0.197	-0.181
-480.362	800.000	-0.043	-0.149
-479.347	616.974	0.052	0.131
-478.332	413.612	-0.132	-0.280
-477.318	-200.000	-0.045	-0.206
-476.303	300.467	-0.048	-0.089
-475.289	800.000	-0.049	-0.191
-474.274	-148.850	0.281	-0.023
-473.259	263.779	0.144	-0.249
-472.245	295.927	-0.086	-0.157
-471.230	-200.000	0.002	-0.191
-470.216	-171.924	-0.332	0.011
-469.201	-63.698	0.260	0.106
-468.186	-14.945	-0.377	-0.242
-467.172	54.202	-0.096	-0.093
-466.157	-113.896	0.142	0.028
-465.143	-3.867	-0.196	0.136
-464.128	93.651	-0.144	-0.163
-463.113	640.095	-0.103	-0.262
-462.099	-200.000	0.023	0.187
-461.084	625.220	0.117	0.295
-460.070	-6.646	-0.140	-0.095
-459.055	145.658	0.092	-0.123
-458.040	-200.000	-0.046	-0.228
-457.026	-46.198	0.186	-0.091
-456.011	50.168	0.224	0.211
-454.997	-200.000	-0.026	-0.210
-453.982	396.186	0.032	0.067
-452.968	0.659	0.103	-0.074
-451.953	-200.000	-0.014	-0.159
-450.938	-111.080	-0.121	-0.025
-449.924	-170.288	0.195	-0.007
-448.909	-52.479	-0.148	-0.068
-447.895	173.126	0.120	-0.172
-446.880	94.099	0.180	-0.204
-445.865	-200.000	-0.004	0.085
-444.851	-187.459	-0.248	-0.003
-443.836	800.000	0.099	0.333
-442.822	-27.511	0.308	0.178
-441.807	-83.220	0.189	-0.061
-440.792	-109.300	0.186	-0.039
-439.778	46.961	-0.066	0.061
-438.763	-82.953	0.113	-0.036
-437.749	117.052	-0.080	-0.098
-436.734	-143.459	-0.175	-0.017
-435.719	166.324	0.246	0.347
-434.705	795.481	-0.029	0.079
-433.690	-200.000	0.017	-0.168
-432.676	800.000	-0.080	-0.282
-431.661	800.000	0.135	-0.391
-430.646	-200.000	-0.094	-0.414
-429.632	11.201	-0.186	-0.142
-428.617	-60.291	0.129	0.055
-427.603	-132.203	-0.071	0.009
-426.588	119.899	0.113	-0.140
-425.573	-99.277	-0.449	-0.113
-424.559	708.437	0.072	0.189
-423.544	251.230	-0.069	-0.118
-422.530	-200.000	0.003	-0.151
-421.515	-107.153	-0.140	-0.031
-420.500	-124.454	-0.227	0.035
-419.486	43.165	0.094	-0.085
-418.471	72.490	-0.251	-0.261
-417.457	-200.000	0.033	0.182
-416.442	214.637	-0.153	0.241
-415.428	19.322	0.034	0.027
-414.413	58.026	-0.279	0.273
-413.398	797.857	0.105	-0.288
-412.384	73.862	-0.181	0.189
-411.369	64.751	-0.241	0.242
-410.355	-92.893	-0.144	0.040
-409.340	229.730	-0.155	-0.252
-408.325	159.293	0.195	0.270
-407.311	153.695	-0.071	-0.097
-406.296	-63.561	0.094	-0.039
-405.282	43.998	0.064	0.059
-404.267	800.000	0.066	0.257
-403.252	-200.000	0.014	0.189
-402.238	800.000	-0.031	0.117
-401.223	149.951	0.150	-0.203
-400.209	-119.688	-0.282	-0.049
-399.194	169.414	-0.055	0.078
-398.179	-122.251	-0.427	0.070
-397.165	-90.425	0.498	0.144
-396.150	-82.872	-0.197	0.063
-395.136	-124.791	0.176	0.027
-394.121	-104.508	0.153	-0.035
-393.106	129.797	0.087	-0.111
-392.092	-27.502	-0.274	0.159
-391.077	47.011	-0.199	0.184
-390.063	221.589	0.070	0.112
-389.048	-92.418	0.087	-0.024
-388.033	-200.000	0.009	0.308
-387.019	-22.315	-0.135	0.082
-386.004	-30.138	0.069	0.039
-384.990	40.193	0.050	0.045
-383.975	-20.324	-0.257	-0.157
-382.960	85.912	0.235	-0.257
-381.946	-87.837	-0.238	-0.071
-380.931	-200.000	0.019	0.104
-379.917	69.510	-0.200	-0.205
-378.902	54.873	-0.045	0.044
-377.888	373.125	-0.101	-0.204
-376.873	800.000	0.041	-0.153
-375.858	402.402	-0.052	-0.108
-374.844	-123.041	0.021	0.003
-373.829	800.000	0.029	0.112
-372.815	-200.000	0.059	-0.259
-371.800	-42.649	0.438	-0.222
-370.785	-30.273	-0.216	0.122
-369.771	518.564	-0.109	0.253
-368.756	-138.132	-0.079	0.009
-367.742	-200.000	0.043	-0.234
-366.727	-152.007	0.301	-0.022
-365.712	68.479	0.274	-0.280
-364.698	3.416	0.171	-0.124
-363.683	91.969	-0.265	-0.296
-362.669	-77.564	0.268	0.092
-361.654	354.865	-0.137	0.272
-360.639	-97.900	-0.279	-0.072
-359.625	41.364	0.319	0.287
-358.610	427.521	0.090	0.194
-357.596	556.030	-0.078	-0.187
-356.581	800.000	-0.060	-0.199
-355.566	-85.548	-0.315	0.097
-354.552	-57.466	-0.149	0.065
-353.537	25.362	0.208	0.172
-352.523	-200.000	-0.012	0.057
-351.508	-71.418	-0.060	-0.022
-350.493	-110.223	-0.187	-0.039
-349.479	-89.288	-0.124	0.036
-348.464	194.165	0.031	0.047
-347.450	-28.145	-0.177	0.102
-346.435	-132.372	0.122	-0.016
-345.420	68.358	0.119	-0.121
-344.406	-200.000	-0.009	0.179
-343.391	138.903	-0.172	0.225
-342.377	94.214	0.160	0.181
-341.362	800.000	-0.072	0.305
-340.348	-94.189	-0.190	-0.052
-339.333	-159.432	-0.175	0.010
-338.318	56.935	-0.106	-0.102
-337.304	-4.673	-0.188	-0.129
-336.289	275.487	-0.119	-0.210
-335.275	237.776	-0.141	-0.233
-334.260	8.942	0.121	-0.091
-333.245	-147.296	0.170	0.014
-332.231	10.416	-0.123	0.093
-331.216	-200.000	0.045	0.238
-330.202	-139.678	0.265	0.028
-329.187	215.619	-0.060	-0.094
-328.172	800.000	-0.112	-0.314
-327.158	-174.347	-0.136	-0.004
-326.143	39.857	0.149	0.132
-325.129	-165.559	-0.101	-0.004
-324.114	-30.948	0.278	-0.156
-323.099	638.231	0.117	0.297
-322.085	-200.000	-0.028	0.160
-321.070	-196.818	0.377	0.002
-320.056	-200.000	-0.007	-0.368
-319.041	-65.676	0.070	0.028
-318.026	-200.000	0.031	-0.228
-317.012	61.554	0.058	0.058
-315.997	-18.424	0.210	0.130
-314.983	-4.186	0.124	-0.085
-313.968	-51.676	0.305	0.141
-312.953	22.608	-0.037	-0.030
-311.939	-85.899	-0.146	-0.045
-310.924	-29.283	-0.212	-0.121
-309.910	-48.435	-0.267	-0.128
-308.895	-12.104	-0.321	0.208
-307.880	800.000	0.030	-0.122
-306.866	69.616	0.283	-0.289
-305.851	-132.839	0.112	-0.014
-304.837	237.338	0.194	0.318
-303.822	-159.446	-0.198	0.011
-302.807	-200.000	-0.053	0.390
-301.793	367.114	-0.082	-0.165
-300.778	54.551	-0.212	-0.203
-299.764	-56.470	-0.457	0.201
-298.749	-73.913	-0.137	-0.049
-297.735	-148.695	0.200	0.016
-296.720	-200.000	0.026	0.175
-295.705	305.144	-0.188	0.346
-294.691	-37.271	0.255	-0.135
-293.676	800.000	0.059	0.177
-292.662	800.000	-0.131	0.367
-291.647	-200.000	-0.020	0.163
-290.632	-49.563	0.227	-0.107
-289.618	263.486	-0.071	0.123
-288.603	-200.000	-0.014	0.131
-287.589	-152.947	0.239	0.017
-286.574	-200.000	-0.009	0.229
-285.559	-99.759	-0.133	-0.033
-284.545	136.231	-0.148	0.191
-283.530	-200.000	0.015	-0.133
-282.516	145.931	-0.103	0.136
-281.501	597.301	-0.026	0.064
-280.486	310.481	0.138	0.255
-279.472	-200.000	-0.038	0.165
-278.457	800.000	-0.056	0.176
-277.443	-157.599	0.087	0.005
-276.428	-200.000	-0.017	0.318
-275.413	64.122	-0.057	0.057
-274.399	454.392	0.102	-0.223
-273.384	-42.734	0.183	0.092
-272.370	-51.505	0.175	-0.081
-271.355	41.088	-0.217	-0.195
-270.340	800.000	-0.046	-0.127
-269.326	-89.619	0.116	0.034
-268.311	-170.385	0.155	-0.005
-267.297	-126.712	0.219	-0.032
-266.282	3.479	0.113	0.082
-265.267	-7.444	0.061	-0.041
-264.253	-13.116	0.223	0.143
-263.238	-200.000	0.118	-0.597
-262.224	800.000	0.070	-0.280
-261.209	399.517	-0.035	-0.072
-260.195	41.580	0.278	-0.250
-259.180	247.086	-0.142	0.238
-258.165	89.677	-0.032	-0.035
-257.151	242.316	-0.059	-0.098
-256.136	-55.935	0.330	-0.146
-255.122	386.138	-0.114	0.232
-254.107	-134.566	0.088	0.011
-253.092	-200.000	0.015	0.160
-252.078	109.798	-0.103	-0.123
-251.063	132.833	0.051	-0.065
-250.049	-112.310	-0.027	0.005
-249.034	-200.000	-0.042	0.500
-248.019	800.000	-0.034	-0.114
-247.005	-200.000	-0.032	0.185
-245.990	63.113	-0.225	-0.223
-244.976	-83.624	-0.248	-0.079
-243.961	199.010	-0.144	0.218
-242.946	-51.163	-0.062	0.029
-241.932	261.926	-0.084	0.144
-240.917	800.000	-0.114	0.406
-239.903	175.044	-0.018	0.026
-238.888	82.212	0.230	-0.247
-237.873	800.000	0.057	0.172
-236.859	72.634	0.032	-0.033
-235.844	800.000	0.025	0.069
-234.830	82.895	-0.105	0.113
-233.815	-200.000	-0.033	-0.263
-232.800	800.000	-0.115	-0.327
-231.786	-200.000	-0.020	0.109
-230.771	137.808	0.242	-0.314
-229.757	-200.000	0.015	0.145
-228.742	159.566	0.087	0.119
-227.727	189.230	-0.165	-0.244
-226.713	95.234	0.238	0.268
-225.698	104.809	0.184	0.214
-224.684	-4.449	0.125	0.086
-223.669	-12.128	-0.190	-0.123
-222.655	531.923	-0.162	0.379
-221.640	227.645	0.163	0.262
-220.625	17.506	-0.090	0.071
-219.611	-200.000	-0.020	0.163
-218.596	295.740	0.081	-0.146
-217.582	800.000	-0.091	0.314
-216.567	206.386	-0.116	-0.179
-215.552	353.794	0.059	-0.116
-214.538	-189.641	0.179	0.002
-213.523	291.326	-0.138	-0.248
-212.509	85.485	-0.072	0.079
-211.494	-200.000	-0.052	-0.279
-210.479	-200.000	0.049	0.239
-209.465	-59.058	-0.417	0.178
-208.450	211.698	0.018	-0.028
-207.436	-200.000	0.053	-0.400
-206.421	254.943	0.211	0.358
-205.406	-200.000	0.001	-0.118
-204.392	458.523	-0.064	0.140
-203.377	-53.041	-0.080	0.037
-202.363	261.623	-0.128	0.219
-201.348	42.912	-0.101	-0.091
-200.333	-200.000	-0.008	0.220
-199.319	-135.603	0.089	0.010
-198.304	211.873	-0.079	-0.122
-197.290	-200.000	-0.007	-0.095
-196.275	152.217	0.104	0.140
-195.260	-87.991	0.261	-0.077
-194.246	89.271	0.180	-0.198
-193.231	8.971	0.233	-0.174
-192.217	-143.920	0.211	0.020
-191.202	-200.000	0.025	-0.151
-190.187	800.000	0.035	0.100
-189.173	-41.748	-0.189	-0.096
-188.158	23.958	0.237	-0.193
-187.144	-104.381	0.618	0.142
-186.129	-200.000	0.019	0.155
-185.114	9.138	0.157	-0.117
-184.100	43.367	0.236	0.213
-183.085	238.415	-0.106	-0.175
-182.071	800.000	0.026	0.103
-181.056	800.000	-0.013	-0.043
-180.042	-35.430	0.162	-0.087
-179.027	57.057	0.091	0.088
-178.012	122.395	-0.297	0.366
-176.998	119.019	-0.175	-0.214
-175.983	-200.000	0.011	-0.085
-174.969	27.723	0.031	0.026
-173.954	107.258	0.077	0.091
-172.939	53.182	0.120	-0.114
-171.925	58.771	-0.221	-0.214
-170.910	184.246	-0.048	0.070
-169.896	800.000	-0.037	0.157
-168.881	103.282	0.244	-0.283
-167.866	32.929	0.151	0.129
-166.852	305.844	0.100	-0.183
-165.837	800.000	-0.068	-0.268
-164.823	-200.000	0.061	0.275
-163.808	574.542	0.078	0.189
-162.793	-200.000	0.002	0.171
-161.779	-132.388	-0.145	0.018
-160.764	-44.614	0.222	-0.109
-159.750	800.000	-0.078	-0.217
-158.735	138.422	-0.093	0.121
-157.720	-37.718	-0.174	0.092
-156.706	-167.617	-0.070	0.003
-155.691	85.348	-0.201	-0.217
-154.677	101.848	0.111	-0.128
-153.662	-124.730	0.274	0.042
-152.647	-97.844	-0.447	0.114
-151.633	-63.741	0.437	-0.177
-150.618	-160.079	-0.151	0.008
-149.604	480.184	-0.044	-0.099
-148.589	-200.000	-0.029	-0.134
-147.574	46.874	0.074	0.068
-146.560	-25.771	-0.302	-0.176
-145.545	540.626	0.096	-0.224
-144.531	-200.000	-0.013	0.231
-143.516	-200.000	-0.032	0.276
-142.502	728.650	0.060	0.157
-141.487	-200.000	0.034	0.198
-140.472	-42.914	-0.290	0.145
-139.458	-88.703	0.025	0.007
-138.443	65.246	-0.259	-0.258
-137.429	-75.622	-0.267	-0.094
-136.414	-146.833	-0.332	-0.028
-135.399	703.454	0.091	0.236
-134.385	0.759	0.167	0.118
-133.370	-104.689	0.070	-0.016
-132.356	-66.673	-0.158	-0.062
-131.341	-200.000	-0.006	-0.385
-130.326	45.114	0.061	0.056
-129.312	-200.000	0.003	0.122
-128.297	-200.000	0.052	0.473
-127.283	-74.095	0.271	0.097
-126.268	53.557	-0.219	-0.207
-125.253	146.445	0.124	0.165
-124.239	113.716	0.038	0.045
-123.224	-99.331	0.293	-0.073
-122.210	-164.569	0.048	-0.002
-121.195	728.982	-0.056	-0.148
