DTS Sentinel unit serial number:	SN413079Multiplexer serial number:	ORYXHardware model number:	OX4-SRSoftware version number:	ORYX F/W v4.00 Oryx Data Collector v3.7.2.0data status	okinstallation	princeton_trtdifferential loss correction	single-endedforward channel	channel 4reverse channel	N/Adate	2019/09/12time	23:37:35forward acquisition time	60.00reverse acquisition time	0.00gamma	496.2192k internal	0.2316k external	0.2316temperature offset calibration	1.0180default loss term (dB/km)	0.3790temperature slope calibration	1.0000multiplexer offset coefficient	1.0000multiplexer slope coefficient	1.0000fibre end	0.00T internal ref (°C)	28.87T ext. ref 1 (°C)	3.77T ext. ref 2 (°C)	23.59length (m)	temperature (°C)	Stokes	anti-Stokes-747.200	-106.249	0.215	0.049
-746.185	-200.000	0.011	0.106
-745.171	765.878	-0.018	-0.050
-744.156	119.776	0.269	0.338
-743.142	-65.599	-0.244	0.099
-742.127	-8.631	0.244	0.166
-741.112	158.103	-0.110	0.154
-740.098	-200.000	0.069	0.465
-739.083	17.515	-0.223	0.180
-738.069	707.881	-0.122	0.328
-737.054	-200.000	0.034	0.218
-736.039	10.571	0.061	-0.047
-735.025	-60.630	-0.254	0.109
-734.010	-20.225	0.102	-0.064
-732.996	-25.135	-0.377	-0.226
-731.981	8.636	-0.206	-0.157
-730.966	-200.000	-0.062	-0.323
-729.952	-141.758	-0.125	-0.013
-728.937	167.299	0.116	-0.167
-727.923	-170.966	0.126	0.004
-726.908	-60.850	-0.068	-0.029
-725.894	-62.335	-0.213	0.090
-724.879	800.000	-0.058	-0.164
-723.864	358.193	0.200	-0.404
-722.850	540.959	-0.253	-0.609
-721.835	-40.127	-0.353	0.186
-720.821	52.879	-0.275	-0.266
-719.806	82.666	-0.038	0.041
-718.791	800.000	0.077	-0.258
-717.777	-25.762	0.126	0.075
-716.762	-45.654	0.337	-0.169
-715.748	-200.000	-0.017	-0.256
-714.733	222.084	0.194	-0.316
-713.718	-122.884	-0.286	0.047
-712.704	128.867	-0.118	-0.153
-711.689	-200.000	-0.014	0.075
-710.675	800.000	-0.036	-0.158
-709.660	755.652	-0.115	0.314
-708.645	17.412	0.329	0.264
-707.631	-117.839	-0.065	0.012
-706.616	-149.368	-0.028	-0.002
-705.602	-123.227	0.297	-0.048
-704.587	-200.000	-0.009	-0.083
-703.572	-71.348	0.264	-0.100
-702.558	-116.339	-0.448	0.084
-701.543	-115.138	0.018	0.003
-700.529	-48.591	0.094	-0.046
-699.514	-200.000	0.008	-0.239
-698.499	800.000	-0.028	0.093
-697.485	800.000	-0.027	0.116
-696.470	61.018	0.137	-0.138
-695.456	330.600	0.062	-0.121
-694.441	800.000	0.035	0.111
-693.426	-5.173	0.177	-0.123
-692.412	75.791	-0.159	-0.170
-691.397	-200.000	0.001	0.025
-690.383	29.513	0.056	-0.048
-689.368	-59.044	-0.133	0.058
-688.354	69.998	-0.197	0.205
-687.339	32.063	-0.079	0.069
-686.324	800.000	-0.090	-0.281
-685.310	298.540	0.029	0.053
-684.295	69.839	0.191	-0.199
-683.281	-200.000	0.001	-0.130
-682.266	343.623	-0.049	-0.097
-681.251	330.273	-0.156	-0.304
-680.237	-200.000	-0.011	-0.180
-679.222	171.382	-0.152	-0.221
-678.208	13.049	-0.088	-0.069
-677.193	-200.000	-0.019	0.107
-676.178	70.883	0.238	-0.249
-675.164	-154.079	-0.126	0.009
-674.149	800.000	0.101	-0.342
-673.135	800.000	-0.080	0.231
-672.120	55.191	-0.104	-0.102
-671.105	-87.227	0.149	0.046
-670.091	724.445	0.065	-0.174
-669.076	-97.423	-0.364	0.096
-668.062	800.000	0.065	-0.242
-667.047	800.000	0.165	-0.576
-666.032	-19.977	-0.184	0.115
-665.018	-83.227	-0.345	0.112
-664.003	-200.000	0.075	0.537
-662.989	-137.780	-0.257	-0.029
-661.974	33.517	-0.402	-0.353
-660.959	-200.000	-0.059	-0.386
-659.945	-24.801	-0.038	-0.023
-658.930	800.000	0.075	-0.322
-657.916	-200.000	-0.039	-0.220
-656.901	321.084	0.194	-0.372
-655.886	677.794	0.117	-0.306
-654.872	-103.984	0.282	-0.066
-653.857	333.609	0.136	-0.265
-652.843	-72.402	-0.229	-0.086
-651.828	549.698	-0.074	-0.180
-650.814	-106.705	0.399	0.089
-649.799	137.914	-0.122	0.162
-648.784	800.000	-0.121	-0.375
-647.770	-17.737	0.260	-0.165
-646.755	787.733	0.112	0.310
-645.741	24.224	0.174	-0.145
-644.726	-102.379	-0.353	0.085
-643.711	149.469	0.141	-0.193
-642.697	-200.000	-0.033	-0.181
-641.682	-200.000	-0.003	-0.087
-640.668	-6.658	0.265	-0.182
-639.653	46.516	-0.112	-0.105
-638.638	355.114	-0.104	-0.209
-637.624	-186.854	0.176	0.002
-636.609	-104.209	0.453	-0.106
-635.595	98.888	0.131	-0.152
-634.580	308.040	0.093	-0.175
-633.565	16.728	-0.334	-0.266
-632.551	-64.014	0.133	-0.055
-631.536	-103.137	-0.331	-0.079
-630.522	-200.000	0.037	-0.179
-629.507	-53.940	0.402	0.185
-628.492	145.681	0.032	0.044
-627.478	-181.673	-0.211	0.004
-626.463	-3.208	-0.187	0.131
-625.449	-67.713	-0.050	0.020
-624.434	249.626	0.092	-0.158
-623.419	-75.836	-0.571	-0.204
-622.405	-157.958	0.216	-0.013
-621.390	-54.760	-0.360	-0.164
-620.376	-50.700	-0.262	-0.124
-619.361	800.000	-0.051	0.216
-618.346	-40.099	-0.306	-0.161
-617.332	-58.043	-0.339	0.149
-616.317	-168.754	0.259	-0.010
-615.303	-185.482	-0.446	-0.007
-614.288	-200.000	-0.009	0.065
-613.273	800.000	-0.034	-0.129
-612.259	-115.798	0.663	-0.125
-611.244	6.309	-0.079	0.059
-610.230	-180.306	-0.221	0.005
-609.215	692.679	0.036	0.096
-608.201	-100.161	-0.133	-0.033
-607.186	-200.000	-0.020	-0.187
-606.171	-165.048	0.091	-0.004
-605.157	-88.250	-0.295	-0.089
-604.142	266.431	-0.103	-0.181
-603.128	-42.787	-0.152	-0.078
-602.113	607.870	0.100	0.252
-601.098	440.889	0.059	0.130
-600.084	153.290	-0.067	0.093
-599.069	-114.315	-0.301	0.058
-598.055	-27.236	0.070	-0.041
-597.040	-105.241	-0.188	-0.043
-596.025	11.760	-0.331	0.256
-595.011	387.383	-0.080	0.166
-593.996	-109.822	0.262	0.055
-592.982	-17.024	0.147	-0.094
-591.967	618.050	0.068	-0.173
-590.952	119.432	-0.198	0.247
-589.938	-200.000	-0.088	0.392
-588.923	-200.000	-0.052	-0.299
-587.909	17.766	0.348	0.279
-586.894	-68.579	-0.051	0.020
-585.879	-11.504	0.083	-0.055
-584.865	800.000	-0.091	0.267
-583.850	218.192	-0.051	-0.083
-582.836	-115.768	0.191	-0.036
-581.821	-200.000	-0.050	-0.433
-580.806	56.957	0.207	-0.203
-579.792	-27.023	-0.161	-0.094
-578.777	8.566	-0.356	-0.270
-577.763	-79.651	0.157	-0.053
-576.748	-200.000	-0.016	-0.135
-575.733	-100.495	0.195	0.049
-574.719	-0.463	-0.158	0.113
-573.704	282.790	0.181	0.327
-572.690	-48.278	0.324	-0.157
-571.675	-200.000	0.003	0.070
-570.661	-50.168	0.279	-0.133
-569.646	-131.778	0.027	0.004
-568.631	-200.000	-0.042	0.352
-567.617	-113.876	0.367	-0.072
-566.602	-175.906	0.239	-0.006
-565.588	461.988	0.063	-0.140
-564.573	-183.329	0.099	0.002
-563.558	-101.384	-0.320	0.078
-562.544	379.992	-0.117	-0.242
-561.529	800.000	0.096	0.297
-560.515	-41.707	0.151	0.078
-559.500	-200.000	-0.018	0.128
-558.485	-80.053	-0.292	0.098
-557.471	-162.369	-0.313	-0.016
-556.456	-131.551	-0.175	-0.023
-555.442	-101.033	0.230	0.057
-554.427	278.407	-0.149	0.268
-553.412	-133.703	-0.389	0.049
-552.398	77.420	-0.154	-0.165
-551.383	-15.938	0.202	-0.129
-550.369	59.361	0.144	0.143
-549.354	-119.353	-0.223	-0.039
-548.339	-117.476	0.377	0.068
-547.325	-10.055	-0.261	-0.174
-546.310	-108.931	0.392	0.084
-545.296	-141.227	0.289	-0.030
-544.281	800.000	0.020	-0.079
-543.266	216.417	-0.123	0.196
-542.252	800.000	0.057	0.185
-541.237	800.000	-0.046	-0.160
-540.223	69.120	-0.157	0.162
-539.208	207.093	-0.110	-0.172
-538.193	-200.000	-0.014	0.127
-537.179	-93.550	0.033	-0.009
-536.164	40.439	-0.115	0.104
-535.150	-129.712	0.260	0.036
-534.135	334.938	-0.152	0.296
-533.121	74.519	-0.180	0.190
-532.106	203.128	0.173	-0.269
-531.091	34.421	0.113	-0.099
-530.077	-85.845	0.043	-0.013
-529.062	-118.591	0.080	0.014
-528.048	782.251	0.158	-0.435
-527.033	800.000	-0.051	-0.174
-526.018	-200.000	0.027	0.158
-525.004	-153.079	0.060	0.004
-523.989	800.000	0.125	-0.365
-522.975	68.395	0.208	-0.214
-521.960	800.000	-0.068	-0.207
-520.945	-94.248	0.316	0.087
-519.931	441.122	0.046	-0.101
-518.916	17.918	-0.223	0.178
-517.902	466.197	-0.135	0.303
-516.887	800.000	0.016	-0.060
-515.872	15.322	-0.332	-0.262
-514.858	-1.440	-0.296	-0.210
-513.843	-105.037	0.283	-0.065
-512.829	-200.000	-0.042	0.209
-511.814	408.763	0.109	0.232
-510.799	-20.615	0.106	-0.065
-509.785	800.000	-0.061	-0.232
-508.770	-19.676	-0.106	0.066
-507.756	440.113	0.071	-0.157
-506.741	98.099	-0.061	-0.070
-505.726	556.409	-0.004	0.009
-504.712	800.000	-0.093	-0.287
-503.697	-156.544	-0.169	-0.011
-502.683	114.624	0.163	-0.199
-501.668	-126.481	0.163	-0.024
-500.653	-200.000	-0.031	0.200
-499.639	-200.000	0.026	-0.248
-498.624	-96.856	-0.253	-0.067
-497.610	-200.000	-0.008	-0.066
-496.595	800.000	-0.090	-0.274
-495.581	13.011	-0.250	0.194
-494.566	183.674	-0.113	0.168
-493.551	-71.762	0.350	0.131
-492.537	70.819	0.091	0.094
-491.522	98.565	-0.028	-0.032
-490.508	-38.691	-0.127	-0.067
-489.493	-133.538	0.248	-0.031
-488.478	80.798	-0.108	-0.117
-487.464	-200.000	0.042	-0.366
-486.449	124.954	0.143	-0.181
-485.435	-200.000	0.032	-0.177
-484.420	-84.055	-0.024	-0.008
-483.405	-109.125	-0.059	-0.013
-482.391	198.994	0.195	0.300
-481.376	337.022	-0.095	-0.185
-480.362	-149.318	0.365	-0.029
-479.347	-200.000	-0.020	0.384
-478.332	291.128	0.105	0.191
-477.318	-67.208	0.109	0.043
-476.303	186.086	-0.092	0.137
-475.289	76.930	0.040	-0.042
-474.274	100.028	0.127	-0.148
-473.259	129.805	-0.036	0.046
-472.245	-89.589	0.545	0.160
-471.230	91.422	0.043	0.049
-470.216	57.729	-0.196	-0.192
-469.201	-157.952	-0.139	-0.008
-468.186	-200.000	0.009	0.180
-467.172	-200.000	-0.003	0.024
-466.157	29.159	0.146	-0.124
-465.143	-200.000	-0.023	0.159
-464.128	-200.000	0.007	-0.241
-463.113	800.000	-0.073	-0.241
-462.099	-16.389	-0.348	0.221
-461.084	-73.601	-0.307	0.112
-460.070	-31.315	0.096	0.054
-459.055	-81.199	0.225	-0.074
-458.040	-114.897	-0.405	-0.077
-457.026	800.000	0.136	0.430
-456.011	-4.827	0.083	-0.058
-454.997	-200.000	-0.049	0.345
-453.982	800.000	-0.094	0.348
-452.968	-27.387	-0.145	-0.085
-451.953	-73.842	0.309	0.113
-450.938	511.240	-0.053	0.124
-449.924	-65.554	0.112	0.045
-448.909	-200.000	-0.044	0.282
-447.895	-140.457	0.114	0.012
-446.880	33.785	-0.117	0.102
-445.865	800.000	0.124	-0.369
-444.851	-136.629	-0.385	0.045
-443.836	-28.879	-0.211	0.122
-442.822	144.470	-0.049	-0.065
-441.807	-70.914	-0.211	-0.080
-440.792	800.000	-0.071	0.246
-439.778	-200.000	0.005	0.075
-438.763	82.956	-0.115	-0.125
-437.749	-20.871	-0.241	-0.148
-436.734	-200.000	-0.060	-0.317
-435.719	129.937	0.205	-0.262
-434.705	-43.006	0.150	-0.076
-433.690	93.934	0.132	-0.150
-432.676	-200.000	-0.037	0.378
-431.661	27.831	0.042	-0.035
-430.646	-0.813	0.041	0.029
-429.632	-81.845	0.258	-0.085
-428.617	800.000	0.028	-0.087
-427.603	800.000	0.132	0.368
-426.588	-200.000	-0.031	-0.334
-425.573	-200.000	-0.007	-0.055
-424.559	-200.000	0.071	0.344
-423.544	800.000	-0.047	0.187
-422.530	-149.887	-0.311	-0.024
-421.515	169.135	-0.254	0.362
-420.500	-22.580	-0.387	0.234
-419.486	-200.000	0.070	0.000
-418.471	-46.590	-0.133	0.065
-417.457	-200.000	-0.005	0.025
-416.442	-61.390	0.253	-0.106
-415.428	-200.000	-0.068	0.377
-414.413	-200.000	0.051	-0.288
-413.398	51.423	-0.035	0.033
-412.384	-5.730	0.102	0.070
-411.369	800.000	-0.117	-0.337
-410.355	-13.516	-0.207	-0.134
-409.340	39.493	0.244	-0.218
-408.325	-95.732	-0.108	-0.029
-407.311	-34.009	-0.112	0.062
-406.296	-45.427	0.143	-0.071
-405.282	-200.000	-0.061	-0.544
-404.267	800.000	-0.062	0.204
-403.252	232.929	-0.078	-0.128
-402.238	68.460	-0.063	-0.064
-401.223	-163.569	-0.032	0.002
-400.209	-90.850	0.026	-0.008
-399.194	17.879	-0.124	-0.099
-398.179	36.360	0.247	-0.217
-397.165	50.566	-0.272	-0.257
-396.150	268.922	-0.213	0.374
-395.136	139.243	-0.084	0.110
-394.121	709.449	0.071	0.189
-393.106	-4.614	-0.399	-0.275
-392.092	22.512	-0.052	-0.042
-391.077	800.000	-0.035	-0.130
-390.063	-63.466	0.471	0.194
-389.048	263.869	-0.079	-0.138
-388.033	21.123	0.103	-0.084
-387.019	79.549	-0.185	-0.198
-386.004	-28.362	-0.279	0.161
-384.990	-73.734	-0.274	-0.100
-383.975	-130.103	0.058	0.008
-382.960	800.000	0.030	0.094
-381.946	-159.579	0.213	0.012
-380.931	-200.000	0.017	0.134
-379.917	15.414	-0.268	-0.210
-378.902	-72.722	0.467	-0.172
-377.888	178.087	-0.111	-0.162
-376.873	-101.721	0.262	0.063
-375.858	-199.647	-0.472	-0.002
-374.844	-165.077	-0.116	-0.005
-373.829	242.949	0.132	-0.221
-372.815	409.297	-0.063	0.132
-371.800	-20.228	0.082	0.051
-370.785	260.569	-0.039	-0.068
-369.771	141.942	-0.188	0.249
-368.756	-200.000	-0.040	-0.178
-367.742	-200.000	-0.117	0.512
-366.727	-200.000	0.016	-0.314
-365.712	-200.000	0.008	-0.180
-364.698	61.814	-0.142	0.141
-363.683	-200.000	-0.055	0.249
-362.669	-200.000	-0.018	-0.137
-361.654	23.760	-0.110	-0.091
-360.639	421.357	0.155	0.333
-359.625	-168.774	0.143	-0.005
-358.610	-200.000	-0.009	0.172
-357.596	-2.285	0.008	-0.006
-356.581	-99.814	0.241	-0.060
-355.566	649.459	-0.016	-0.040
-354.552	-14.349	-0.201	0.129
-353.537	-55.656	0.256	-0.114
-352.523	12.411	0.131	0.101
-351.508	254.575	0.202	-0.344
-350.493	349.079	0.180	-0.354
-349.479	339.738	-0.067	0.131
-348.464	800.000	-0.099	0.345
-347.450	800.000	0.092	0.323
-346.435	486.387	0.056	-0.128
-345.420	17.002	0.093	-0.074
-344.406	151.315	-0.092	0.125
-343.391	800.000	0.067	0.233
-342.377	199.351	0.132	-0.201
-341.362	-33.375	-0.179	0.099
-340.348	-95.819	-0.245	-0.065
-339.333	800.000	-0.025	-0.098
-338.318	33.377	0.103	-0.089
-337.304	202.368	0.197	-0.303
-336.289	-166.127	-0.464	0.020
-335.275	651.816	-0.069	-0.175
-334.260	471.622	-0.079	-0.178
-333.245	-200.000	0.019	0.114
-332.231	415.326	0.138	0.293
-331.216	-5.526	-0.174	0.119
-330.202	413.348	-0.142	-0.301
-329.187	-200.000	0.020	0.156
-328.172	-154.996	0.130	0.009
-327.158	587.311	-0.072	0.177
-326.143	50.434	-0.184	0.173
-325.129	293.872	0.234	0.426
-324.114	-200.000	-0.029	0.316
-323.099	-104.417	-0.129	-0.030
-322.085	-61.143	-0.051	0.021
-321.070	-124.995	-0.294	0.045
-320.056	505.549	0.090	-0.208
-319.041	-39.142	0.089	0.047
-318.026	-22.602	-0.354	0.213
-317.012	-146.743	0.099	-0.008
-315.997	-110.866	0.252	-0.052
-314.983	-200.000	-0.027	-0.253
-313.968	-184.806	-0.352	-0.006
-312.953	800.000	0.079	0.265
-311.939	-198.783	0.278	0.002
-310.924	-63.392	0.200	-0.082
-309.910	-77.108	0.090	-0.031
-308.895	-200.000	0.009	-0.177
-307.880	-10.070	0.193	0.127
-306.866	-70.760	0.566	0.213
-305.851	19.546	-0.099	0.079
-304.837	-100.258	-0.096	0.024
-303.822	-114.881	0.192	-0.036
-302.807	212.316	0.296	-0.465
-301.793	22.210	0.068	-0.056
-300.778	-200.000	0.031	-0.223
-299.764	-200.000	-0.019	-0.286
-298.749	258.410	0.115	-0.198
-297.735	24.421	0.178	-0.146
-296.720	-41.339	0.176	0.090
-295.705	5.895	0.192	0.142
-294.691	800.000	0.089	-0.266
-293.676	800.000	0.096	0.353
-292.662	-115.551	-0.260	0.049
-291.647	-123.298	-0.103	0.016
-290.632	172.151	0.265	-0.379
-289.618	70.384	-0.242	0.248
-288.603	381.863	0.019	0.038
-287.589	-69.443	0.146	0.056
-286.574	317.105	0.057	-0.107
-285.559	84.099	0.265	0.289
-284.545	433.507	0.165	-0.357
-283.530	255.370	0.139	-0.237
-282.516	163.286	0.149	0.209
-281.501	119.432	0.113	0.139
-280.486	211.903	-0.104	-0.163
-279.472	-136.580	-0.102	0.012
-278.457	-26.227	0.059	0.035
-277.443	324.792	-0.071	-0.135
-276.428	133.458	0.080	0.102
-275.413	-200.000	0.018	-0.190
-274.399	-157.698	-0.313	-0.019
-273.384	156.742	-0.106	0.146
-272.370	48.244	-0.063	-0.059
-271.355	800.000	-0.044	0.173
-270.340	-200.000	-0.000	-0.194
-269.326	132.949	-0.130	0.167
-268.311	-200.000	0.032	0.165
-267.297	800.000	-0.052	0.220
-266.282	446.155	0.034	-0.074
-265.267	300.894	-0.175	0.321
-264.253	-93.859	0.270	0.074
-263.238	511.538	-0.044	-0.101
-262.224	-200.000	-0.022	-0.097
-261.209	-41.387	0.532	0.272
-260.195	-135.008	0.219	-0.026
-259.180	-63.031	-0.349	0.143
-258.165	142.018	-0.094	-0.124
-257.151	-70.184	0.183	-0.069
-256.136	-142.167	-0.300	0.030
-255.122	-200.000	0.025	0.434
-254.107	34.720	0.171	0.148
-253.092	-120.223	-0.131	0.022
-252.078	800.000	0.061	0.176
-251.063	107.037	-0.133	0.157
-250.049	-47.681	-0.149	0.072
-249.034	264.225	-0.050	-0.086
-248.019	168.822	-0.055	-0.078
-247.005	6.459	-0.147	0.108
-245.990	26.862	0.100	0.084
-244.976	69.432	0.269	-0.275
-243.961	-200.000	0.009	-0.324
-242.946	186.611	0.103	-0.152
-241.932	-63.640	0.157	0.064
-240.917	144.979	0.089	0.118
-239.903	800.000	0.067	-0.251
-238.888	-200.000	-0.077	-0.376
-237.873	346.889	-0.094	0.185
-236.859	-25.310	0.268	0.158
-235.844	-81.845	-0.046	0.015
-234.830	-139.502	-0.387	0.041
-233.815	-27.086	0.349	-0.202
-232.800	-118.260	0.159	0.028
-231.786	-27.373	0.210	0.122
-230.771	625.064	0.030	0.074
-229.757	184.717	-0.107	-0.157
-228.742	-200.000	0.003	0.114
-227.727	-121.413	0.206	0.034
-226.713	-200.000	0.032	-0.194
-225.698	-129.611	0.478	0.065
-224.684	-116.614	0.292	-0.053
-223.669	-17.212	0.105	-0.066
-222.655	-175.277	0.562	-0.015
-221.640	223.978	0.169	-0.270
-220.625	-144.449	-0.207	-0.019
-219.611	13.918	0.099	0.076
-218.596	159.715	0.032	-0.044
-217.582	-51.365	-0.174	0.081
-216.567	-8.795	-0.329	0.219
-215.552	-1.964	-0.158	0.110
-214.538	366.176	-0.043	0.087
-213.523	70.647	-0.235	0.241
-212.509	181.472	-0.161	0.235
-211.494	137.659	-0.058	-0.076
-210.479	221.047	0.145	0.230
-209.465	-143.106	-0.340	0.033
-208.450	104.375	-0.161	0.188
-207.436	21.777	-0.064	0.052
-206.421	-142.699	0.087	-0.008
-205.406	-200.000	0.049	0.418
-204.392	-4.022	-0.330	0.227
-203.377	83.365	-0.183	0.197
-202.363	220.700	-0.068	0.108
-201.348	-200.000	0.010	0.185
-200.333	-200.000	-0.009	0.346
-199.319	670.672	0.075	0.193
-198.304	-200.000	0.022	-0.122
-197.290	-158.423	0.287	-0.016
-196.275	-118.111	-0.186	-0.033
-195.260	-200.000	0.000	-0.198
-194.246	-200.000	0.092	0.407
-193.231	611.841	-0.085	0.212
-192.217	-56.394	-0.167	-0.073
-191.202	-93.901	0.136	-0.037
-190.187	800.000	0.028	-0.113
-189.173	-101.660	0.211	0.051
-188.158	382.736	-0.084	-0.171
-187.144	-200.000	0.051	-0.234
-186.129	800.000	-0.121	-0.331
-185.114	-200.000	0.004	-0.040
-184.100	47.514	-0.126	-0.116
-183.085	-95.579	-0.213	0.057
-182.071	-146.722	0.158	0.014
-181.056	16.645	-0.072	-0.056
-180.042	-0.149	-0.076	0.053
-179.027	-135.798	0.322	0.038
-178.012	-112.803	0.258	-0.051
-176.998	402.289	0.185	0.386
-175.983	59.409	0.244	-0.238
-174.969	-133.652	-0.162	-0.020
-173.954	117.721	0.192	-0.235
-172.939	800.000	-0.078	-0.253
-171.925	83.108	-0.359	-0.387
-170.910	-200.000	0.024	0.140
-169.896	-200.000	0.051	0.348
-168.881	-86.986	0.123	-0.037
-167.866	208.649	-0.133	0.206
-166.852	-200.000	0.010	-0.127
-165.837	-40.392	-0.170	0.088
-164.823	-96.080	0.132	-0.035
-163.808	277.759	-0.211	-0.373
-162.793	-200.000	0.007	0.261
-161.779	-67.763	-0.227	0.088
-160.764	-200.000	0.039	-0.172
-159.750	-64.291	0.071	-0.029
-158.735	-110.497	-0.269	0.055
-157.720	-115.505	0.121	0.023
-156.706	-200.000	-0.010	0.321
-155.691	-160.996	0.372	0.019
-154.677	-9.378	0.193	-0.128
-153.662	-200.000	-0.038	0.164
-152.647	-153.846	0.158	-0.011
-151.633	-144.636	-0.355	0.032
-150.618	277.467	-0.143	0.252
-149.604	40.148	0.102	-0.091
-148.589	-200.000	-0.058	-0.380
-147.574	800.000	-0.173	-0.593
-146.560	323.252	0.122	-0.229
-145.545	-4.434	-0.239	-0.163
-144.531	800.000	-0.063	-0.187
-143.516	-21.684	0.206	-0.124
-142.502	143.567	-0.143	0.189
-141.487	-94.312	0.207	0.056
-140.472	785.508	-0.077	0.208
-139.458	-200.000	-0.034	-0.198
-138.443	-6.624	-0.272	0.183
-137.429	-45.530	0.107	-0.052
-136.414	168.773	0.095	0.133
-135.399	622.944	-0.089	0.220
-134.385	67.420	0.129	-0.130
-133.370	-38.685	-0.019	0.010
-132.356	-113.625	-0.174	0.034
-131.341	-162.306	0.234	-0.012
-130.326	-30.664	-0.145	0.081
-129.312	800.000	0.061	-0.203
-128.297	108.280	-0.056	-0.067
-127.283	-200.000	0.074	0.381
-126.268	602.272	-0.001	-0.004
-125.253	294.820	0.128	-0.232
-124.239	691.440	0.046	-0.120
-123.224	-200.000	0.023	-0.339
