DTS Sentinel unit serial number:	SN413079Multiplexer serial number:	ORYXHardware model number:	OX4-SRSoftware version number:	ORYX F/W v4.00 Oryx Data Collector v3.7.2.0data status	okinstallation	princeton_trtdifferential loss correction	single-endedforward channel	channel 4reverse channel	N/Adate	2019/09/12time	18:54:19forward acquisition time	15.00reverse acquisition time	0.00gamma	496.2192k internal	0.2308k external	0.2308temperature offset calibration	1.0140default loss term (dB/km)	0.3790temperature slope calibration	1.0000multiplexer offset coefficient	1.0000multiplexer slope coefficient	1.0000fibre end	0.00T internal ref (°C)	32.87T ext. ref 1 (°C)	3.05T ext. ref 2 (°C)	27.40length (m)	temperature (°C)	Stokes	anti-Stokes-747.200	-86.234	0.700	-0.219
-746.185	138.412	0.275	0.368
-745.171	-112.103	0.822	-0.168
-744.156	-104.385	0.593	0.140
-743.142	-42.093	-0.156	0.081
-742.127	800.000	0.236	-0.738
-741.112	-31.929	0.398	0.227
-740.098	189.227	-0.179	-0.273
-739.083	800.000	0.151	0.513
-738.069	382.158	0.342	-0.714
-737.054	-55.779	0.261	0.118
-736.039	800.000	0.067	0.283
-735.025	-74.703	-0.698	0.255
-734.010	-200.000	-0.106	-0.904
-732.996	21.252	-0.736	-0.607
-731.981	-108.231	0.637	0.140
-730.966	-200.000	-0.060	0.360
-729.952	-183.800	-0.214	-0.004
-728.937	145.928	0.373	-0.508
-727.923	89.160	-0.659	0.746
-726.908	-128.420	0.347	0.050
-725.894	-63.535	0.585	-0.244
-724.879	137.668	0.381	-0.507
-723.864	-11.877	-0.208	-0.138
-722.850	74.992	-0.355	-0.380
-721.835	57.007	0.448	0.444
-720.821	22.750	0.222	0.185
-719.806	-109.765	-0.988	-0.211
-718.791	-200.000	0.053	0.993
-717.777	-14.935	-0.603	0.393
-716.762	-6.141	-0.201	0.139
-715.748	191.093	-0.416	-0.636
-714.733	-143.114	-0.526	0.052
-713.718	220.071	-0.298	0.485
-712.704	22.445	0.503	-0.418
-711.689	111.404	0.588	-0.720
-710.675	800.000	0.075	-0.240
-709.660	-4.362	-0.161	0.113
-708.645	4.753	-0.428	-0.320
-707.631	800.000	0.106	0.304
-706.616	2.795	0.336	0.247
-705.602	95.902	-0.234	0.271
-704.587	-44.817	-0.126	-0.064
-703.572	148.370	-0.157	-0.216
-702.558	-37.671	-0.336	0.182
-701.543	-7.419	-0.864	0.594
-700.529	-200.000	-0.239	1.154
-699.514	-114.944	-0.816	0.158
-698.499	800.000	-0.273	-0.891
-697.485	-69.043	-0.877	0.343
-696.470	-86.254	0.219	-0.069
-695.456	-108.193	-0.530	0.116
-694.441	-106.759	0.181	-0.041
-693.426	81.037	-0.220	-0.241
-692.412	65.471	0.288	0.295
-691.397	-47.205	0.287	-0.142
-690.383	106.631	-0.533	0.642
-689.368	16.099	-0.549	-0.439
-688.354	76.770	-0.658	-0.708
-687.339	175.245	-0.081	0.119
-686.324	5.133	-0.666	-0.497
-685.310	-136.535	-0.458	0.054
-684.295	-120.577	-0.540	0.093
-683.281	124.753	-0.118	-0.151
-682.266	-91.142	-0.510	-0.148
-681.251	458.391	0.352	-0.794
-680.237	-145.492	-0.737	-0.067
-679.222	354.628	0.379	-0.765
-678.208	-200.000	-0.034	0.417
-677.193	-41.375	0.148	0.077
-676.178	-93.069	-0.772	-0.218
-675.164	29.174	-0.749	-0.645
-674.149	85.781	0.053	-0.059
-673.135	-27.597	0.479	-0.282
-672.120	201.671	0.113	-0.176
-671.105	-33.566	1.346	-0.753
-670.091	335.770	0.186	0.366
-669.076	-200.000	-0.058	0.277
-668.062	195.056	-0.138	-0.212
-667.047	686.191	-0.370	-0.980
-666.032	-54.847	-0.064	0.029
-665.018	-12.429	-0.651	0.431
-664.003	800.000	0.223	0.947
-662.989	-200.000	0.016	-0.155
-661.974	2.672	0.419	-0.308
-660.959	206.063	0.626	-0.987
-659.945	608.581	0.236	0.598
-658.930	-107.977	-0.792	-0.174
-657.916	-62.122	-0.477	0.202
-656.901	192.759	-0.163	0.249
-655.886	-116.724	-0.378	-0.070
-654.872	208.675	-0.157	-0.249
-653.857	13.403	-0.318	-0.250
-652.843	-200.000	-0.016	0.579
-651.828	-200.000	-0.183	-0.999
-650.814	121.223	0.346	-0.436
-649.799	800.000	-0.128	-0.543
-648.784	-121.436	-0.400	0.067
-647.770	-71.923	-0.208	0.078
-646.755	-47.103	-0.527	-0.260
-645.741	180.387	0.111	-0.165
-644.726	-192.611	0.838	0.008
-643.711	-80.393	-0.909	-0.307
-642.697	-200.000	0.011	-0.100
-641.682	31.535	-0.308	0.268
-640.668	-8.832	-0.770	0.523
-639.653	-49.413	0.707	0.341
-638.638	-78.696	0.297	-0.103
-637.624	-137.970	0.577	0.065
-636.609	800.000	0.114	0.324
-635.595	47.193	0.745	-0.702
-634.580	-200.000	0.011	-0.314
-633.565	-114.597	0.368	0.071
-632.551	-10.933	-0.522	-0.349
-631.536	-72.282	0.171	0.064
-630.522	497.797	0.007	-0.017
-629.507	84.041	0.547	-0.605
-628.492	649.966	-0.229	0.593
-627.478	-173.166	0.463	-0.014
-626.463	800.000	0.129	0.478
-625.449	17.168	0.138	-0.111
-624.434	-200.000	0.161	-1.046
-623.419	-200.000	0.000	-0.293
-622.405	-200.000	0.106	-0.689
-621.390	-118.998	-0.723	-0.128
-620.376	247.518	-0.497	-0.849
-619.361	800.000	0.120	0.463
-618.346	45.520	-0.801	-0.748
-617.332	-143.486	-0.780	-0.075
-616.317	-117.791	0.666	-0.121
-615.303	-107.220	0.293	-0.065
-614.288	-164.033	-0.578	0.027
-613.273	-65.144	0.262	0.107
-612.259	-36.625	-0.481	-0.262
-611.244	-37.481	-0.469	0.253
-610.230	-37.862	-0.487	-0.262
-609.215	800.000	-0.138	-0.587
-608.201	-108.665	0.628	-0.136
-607.186	-155.128	-0.261	-0.017
-606.171	800.000	-0.129	0.543
-605.157	-75.983	-0.243	0.087
-604.142	150.717	-0.134	-0.185
-603.128	800.000	0.248	-0.781
-602.113	-200.000	0.039	-0.528
-601.098	1.434	-0.426	0.310
-600.084	-4.647	0.417	-0.291
-599.069	-137.205	0.613	-0.071
-598.055	274.605	0.058	-0.104
-597.040	-40.925	-0.490	0.256
-596.025	613.013	-0.213	-0.539
-595.011	43.028	-0.552	0.509
-593.996	-37.418	-0.332	0.179
-592.982	-2.913	-0.431	0.304
-591.967	-200.000	0.045	0.535
-590.952	-16.362	-0.262	-0.168
-589.938	461.410	-0.208	-0.468
-588.923	136.727	-0.611	0.807
-587.909	800.000	0.077	0.295
-586.894	157.795	0.352	0.493
-585.879	-28.474	0.620	0.361
-584.865	-18.540	0.178	0.112
-583.850	-162.965	-0.949	-0.047
-582.836	-200.000	0.044	-0.434
-581.821	-78.081	0.372	0.129
-580.806	-112.827	-0.717	0.144
-579.792	62.690	0.633	-0.639
-578.777	137.706	-0.434	-0.575
-577.763	-132.398	0.426	0.055
-576.748	21.720	-0.415	-0.341
-575.733	220.871	0.226	-0.367
-574.719	800.000	0.180	-0.718
-573.704	-200.000	-0.002	-0.024
-572.690	78.332	-0.539	-0.581
-571.675	-64.494	-0.849	-0.348
-570.661	2.918	-0.324	-0.238
-569.646	-200.000	-0.030	0.192
-568.631	274.514	-0.580	-1.037
-567.617	-31.237	0.366	0.208
-566.602	-29.736	-0.343	-0.198
-565.588	-43.699	0.137	0.070
-564.573	-200.000	0.024	0.117
-563.558	312.566	0.186	-0.353
-562.544	-117.412	1.347	-0.246
-561.529	-77.783	-0.167	0.058
-560.515	313.154	0.199	-0.377
-559.500	8.649	-0.245	0.186
-558.485	-115.496	-0.228	-0.043
-557.471	163.920	0.279	0.396
-556.456	-200.000	0.054	0.838
-555.442	-200.000	-0.112	0.655
-554.427	-123.627	1.299	0.208
-553.412	-200.000	0.070	-0.626
-552.398	-117.748	-0.320	-0.058
-551.383	-162.320	-0.997	-0.050
-550.369	236.891	-0.254	0.425
-549.354	-200.000	-0.008	0.208
-548.339	-183.585	-0.568	0.010
-547.325	800.000	0.056	0.235
-546.310	13.448	0.078	0.061
-545.296	800.000	-0.070	-0.304
-544.281	-142.184	0.646	-0.065
-543.266	800.000	0.123	0.358
-542.252	6.308	0.745	0.557
-541.237	-85.360	0.484	0.152
-540.223	186.365	0.644	-0.967
-539.208	-66.910	0.380	-0.152
-538.193	78.348	0.380	0.409
-537.179	74.559	-0.532	-0.564
-536.164	260.759	0.221	-0.385
-535.150	-97.208	-0.588	0.155
-534.135	-68.689	-0.164	0.064
-533.121	-68.829	0.492	-0.192
-532.106	-114.721	0.435	-0.084
-531.091	198.569	0.441	-0.680
-530.077	800.000	0.140	0.590
-529.062	-58.023	0.292	-0.129
-528.048	-155.119	0.360	0.024
-527.033	-154.019	0.136	-0.009
-526.018	-200.000	0.110	0.893
-525.004	-34.036	0.226	0.125
-523.989	-132.623	0.062	0.008
-522.975	-102.076	-0.731	-0.178
-521.960	382.563	-0.698	-1.445
-520.945	-6.407	-0.216	0.148
-519.931	-114.078	0.845	-0.165
-518.916	-127.067	0.710	0.105
-517.902	13.861	-0.081	-0.063
-516.887	800.000	0.298	0.836
-515.872	611.308	-0.366	0.922
-514.858	2.591	0.882	-0.644
-513.843	-200.000	0.127	-0.781
-512.829	-75.286	0.155	0.056
-511.814	66.986	-0.830	0.852
-510.799	27.173	0.683	-0.577
-509.785	456.577	-0.132	-0.295
-508.770	263.293	-0.520	0.910
-507.756	-46.572	-0.721	-0.356
-506.741	51.194	-0.151	-0.144
-505.726	-106.626	-0.416	-0.093
-504.712	800.000	-0.143	-0.474
-503.697	-200.000	-0.026	0.945
-502.683	-30.012	-0.801	-0.459
-501.668	597.859	0.235	0.587
-500.653	-173.063	0.152	0.005
-499.639	109.778	-0.516	0.623
-498.624	176.272	0.457	-0.669
-497.610	-54.184	-0.276	0.126
-496.595	104.811	-0.365	-0.434
-495.581	-200.000	0.021	-0.447
-494.566	-46.291	0.567	-0.280
-493.551	482.304	-0.092	0.211
-492.537	-117.957	-0.783	0.141
-491.522	-39.752	-0.293	0.154
-490.508	-53.790	-0.686	-0.315
-489.493	-150.806	0.933	0.071
-488.478	27.288	0.507	0.429
-487.464	194.574	-0.334	0.510
-486.449	-7.803	-0.607	0.413
-485.435	-200.000	-0.028	0.255
-484.420	-80.288	0.313	-0.105
-483.405	17.045	0.671	-0.535
-482.391	-200.000	-0.048	1.070
-481.376	10.880	0.307	-0.236
-480.362	225.712	0.415	-0.676
-479.347	295.969	-0.154	0.284
-478.332	-200.000	0.088	0.529
-477.318	-31.849	-0.467	-0.263
-476.303	-200.000	0.048	-0.824
-475.289	-105.692	0.474	0.108
-474.274	-200.000	-0.089	-0.785
-473.259	-127.322	0.642	-0.094
-472.245	51.977	0.366	0.351
-471.230	-200.000	-0.003	0.186
-470.216	-200.000	0.041	0.184
-469.201	-56.054	0.199	0.089
-468.186	94.170	-0.293	0.334
-467.172	377.307	0.292	-0.599
-466.157	-200.000	0.148	-0.813
-465.143	800.000	0.177	-0.503
-464.128	-40.359	-0.535	-0.280
-463.113	31.654	-0.188	-0.162
-462.099	-132.124	-0.069	-0.009
-461.084	-200.000	0.065	1.019
-460.070	-5.168	-0.417	0.289
-459.055	-200.000	0.070	0.642
-458.040	-200.000	0.025	0.194
-457.026	-111.231	-0.694	0.143
-456.011	-65.514	-0.469	0.189
-454.997	-172.421	-0.400	-0.013
-453.982	800.000	-0.188	-0.807
-452.968	-164.853	1.099	-0.050
-451.953	-111.979	0.141	-0.029
-450.938	56.771	0.247	-0.242
-449.924	-51.582	0.962	0.451
-448.909	72.915	0.295	-0.310
-447.895	-200.000	0.056	0.272
-446.880	347.286	-0.138	0.273
-445.865	787.629	-0.345	0.951
-444.851	312.494	-0.157	-0.295
-443.836	-200.000	-0.027	-0.505
-442.822	-14.860	-0.730	-0.471
-441.807	-128.156	0.268	-0.038
-440.792	-200.000	0.041	-0.448
-439.778	-31.397	0.339	-0.192
-438.763	-1.815	-0.811	-0.574
-437.749	-107.519	-0.571	-0.126
-436.734	114.714	-0.629	-0.771
-435.719	459.643	0.256	0.573
-434.705	-132.252	0.880	0.114
-433.690	345.705	-0.455	-0.898
-432.676	800.000	-0.145	0.423
-431.661	-92.104	-0.374	0.106
-430.646	242.073	-0.179	-0.300
-429.632	10.992	0.297	-0.228
-428.617	-137.722	0.415	0.047
-427.603	-22.911	-1.115	0.675
-426.588	-139.538	-0.276	0.030
-425.573	4.166	1.153	-0.848
-424.559	-200.000	-0.067	-0.409
-423.544	595.176	-0.362	-0.898
-422.530	102.797	0.284	0.334
-421.515	800.000	-0.054	-0.182
-420.500	-200.000	0.038	-0.186
-419.486	219.152	0.238	-0.382
-418.471	-70.628	0.382	-0.145
-417.457	-52.110	0.372	0.173
-416.442	-154.328	0.616	0.042
-415.428	-9.903	0.260	0.173
-414.413	63.277	0.312	0.314
-413.398	-44.098	-0.811	0.409
-412.384	800.000	-0.174	-0.711
-411.369	-45.160	0.762	-0.380
-410.355	-68.532	-0.765	-0.298
-409.340	-107.278	0.176	0.039
-408.325	31.593	0.235	0.203
-407.311	800.000	0.050	0.185
-406.296	-101.095	-0.477	-0.117
-405.282	182.757	-0.236	0.350
-404.267	-200.000	-0.006	0.696
-403.252	-111.909	-0.385	-0.078
-402.238	137.136	-0.338	-0.443
-401.223	800.000	0.005	-0.019
-400.209	-200.000	-0.024	0.564
-399.194	-123.540	0.752	-0.120
-398.179	495.060	0.030	-0.070
-397.165	-200.000	0.104	0.701
-396.150	303.415	0.384	0.713
-395.136	-97.879	0.114	0.029
-394.121	64.839	-0.304	-0.307
-393.106	-111.494	0.562	0.115
-392.092	800.000	-0.160	0.652
-391.077	-149.971	-0.136	-0.011
-390.063	-12.322	0.368	0.241
-389.048	-56.160	0.595	0.266
-388.033	299.345	0.215	0.397
-387.019	-51.803	0.659	-0.308
-386.004	90.474	-0.149	0.168
-384.990	15.366	-0.370	0.291
-383.975	391.034	-0.430	-0.895
-382.960	-161.542	-0.616	0.032
-381.946	-30.789	-0.595	-0.337
-380.931	228.133	0.113	0.185
-379.917	-40.592	-0.663	0.345
-378.902	-148.267	0.510	0.042
-377.888	-64.740	-0.454	-0.184
-376.873	-200.000	-0.089	0.614
-375.858	166.660	0.334	0.474
-374.844	278.906	-0.425	-0.759
-373.829	-131.845	0.797	-0.104
-372.815	-83.357	0.333	0.107
-371.800	-178.709	-0.449	0.010
-370.785	-61.666	0.214	-0.090
-369.771	-65.471	-0.653	-0.263
-368.756	370.956	-0.303	-0.616
-367.742	1.202	0.762	0.548
-366.727	373.528	0.479	-0.975
-365.712	-200.000	0.031	-0.406
-364.698	478.618	0.236	0.536
-363.683	-37.466	0.526	0.281
-362.669	445.606	-0.175	0.386
-361.654	-93.626	-0.484	0.134
-360.639	800.000	-0.129	0.535
-359.625	-47.489	0.540	0.263
-358.610	-200.000	0.072	-0.351
-357.596	-53.833	0.326	-0.149
-356.581	-158.400	-0.390	0.023
-355.566	365.223	0.088	0.176
-354.552	627.834	0.283	0.715
-353.537	136.629	-0.196	-0.256
-352.523	98.508	0.224	0.259
-351.508	-110.629	0.969	-0.201
-350.493	800.000	-0.272	-0.876
-349.479	135.271	-0.705	0.917
-348.464	7.928	-0.662	-0.497
-347.450	-200.000	-0.138	-0.761
-346.435	205.153	-0.140	-0.217
-345.420	-65.208	-0.128	-0.051
-344.406	-85.625	-0.753	0.234
-343.391	41.014	-0.601	0.543
-342.377	305.199	0.467	0.868
-341.362	20.550	0.191	-0.155
-340.348	-74.000	0.254	0.092
-339.333	-35.234	-0.245	0.133
-338.318	-200.000	-0.092	0.604
-337.304	-200.000	0.017	-0.088
-336.289	-40.756	-0.758	0.393
-335.275	-200.000	0.040	1.207
-334.260	57.088	0.185	-0.181
-333.245	800.000	-0.160	-0.450
-332.231	-200.000	0.121	0.550
-331.216	-33.606	0.413	0.228
-330.202	147.234	0.200	0.269
-329.187	1.750	-0.513	0.369
-328.172	-90.660	0.451	0.130
-327.158	321.074	-0.068	0.130
-326.143	261.811	0.571	-0.989
-325.129	-64.239	0.290	-0.118
-324.114	12.866	-0.522	0.403
-323.099	-163.051	-0.269	0.013
-322.085	226.554	0.283	0.459
-321.070	-76.086	0.426	0.151
-320.056	-50.994	-0.283	-0.133
-319.041	-103.696	1.108	-0.260
-318.026	-134.059	0.699	-0.086
-317.012	-146.179	0.315	-0.028
-315.997	-39.977	0.750	0.391
-314.983	29.759	0.488	0.416
-313.968	-33.918	0.205	0.113
-312.953	151.850	0.116	0.157
-311.939	-65.870	0.604	0.242
-310.924	765.535	-0.170	0.462
-309.910	758.339	-0.181	-0.490
-308.895	-48.396	-0.469	-0.226
-307.880	713.667	-0.294	0.778
-306.866	-35.098	0.149	-0.081
-305.851	374.559	0.169	-0.343
-304.837	71.079	-0.359	0.372
-303.822	22.021	-0.290	-0.236
-302.807	800.000	-0.289	-0.893
-301.793	-200.000	0.014	-0.165
-300.778	-11.579	0.211	-0.139
-299.764	523.381	0.138	0.324
-298.749	-27.447	-0.516	0.300
-297.735	51.793	0.439	0.417
-296.720	-15.644	0.614	0.391
-295.705	-56.479	0.907	-0.402
-294.691	-78.042	0.703	-0.242
-293.676	-115.625	-0.970	0.182
-292.662	-122.528	0.331	0.054
-291.647	149.221	-0.330	0.445
-290.632	57.448	-0.302	-0.295
-289.618	172.497	-0.141	-0.202
-288.603	-139.285	-0.952	0.102
-287.589	-200.000	0.041	1.014
-286.574	800.000	0.102	0.368
-285.559	-200.000	0.046	0.835
-284.545	36.081	0.348	-0.306
-283.530	-69.118	-0.431	0.166
-282.516	96.408	0.074	0.084
-281.501	28.684	0.451	-0.381
-280.486	107.277	0.328	0.389
-279.472	-63.377	0.775	0.318
-278.457	-57.061	-0.487	0.214
-277.443	-200.000	-0.051	-0.454
-276.428	-82.887	-0.256	-0.083
-275.413	275.211	-0.117	-0.208
-274.399	-75.156	0.148	0.053
-273.384	-182.345	-1.029	-0.019
-272.370	43.639	0.178	0.162
-271.355	-29.342	-0.696	0.398
-270.340	800.000	0.095	0.270
-269.326	72.543	-0.400	0.416
-268.311	-200.000	0.001	-0.322
-267.297	363.085	0.259	0.518
-266.282	507.571	0.211	0.488
-265.267	76.010	0.209	-0.221
-264.253	108.827	0.205	-0.244
-263.238	356.370	0.276	-0.549
-262.224	-200.000	-0.001	-0.508
-261.209	179.833	0.240	-0.351
-260.195	-164.005	0.295	0.014
-259.180	-200.000	-0.065	-0.810
-258.165	-112.433	-0.392	-0.078
-257.151	98.236	-0.320	0.368
-256.136	425.469	0.371	-0.796
-255.122	-112.250	-0.187	0.037
-254.107	-66.281	0.574	-0.228
-253.092	115.587	0.295	-0.360
-252.078	-200.000	-0.054	-0.646
-251.063	-110.790	-0.737	0.151
-250.049	-200.000	0.035	0.294
-249.034	273.037	-0.375	0.661
-248.019	-61.307	-0.369	-0.155
-247.005	42.432	0.425	0.385
-245.990	-170.983	0.627	-0.021
-244.976	194.877	-0.487	-0.737
-243.961	-200.000	0.014	-0.361
-242.946	411.712	-0.351	0.742
-241.932	122.511	0.562	0.700
-240.917	-200.000	0.102	0.697
-239.903	54.891	-0.416	0.400
-238.888	447.467	-0.361	-0.792
-237.873	1.265	0.431	-0.309
-236.859	180.544	0.166	0.243
-235.844	-200.000	-0.064	0.702
-234.830	-55.708	0.209	0.093
-233.815	160.404	0.361	0.502
-232.800	128.671	0.076	0.096
-231.786	-200.000	0.184	-0.915
-230.771	657.869	0.118	0.302
-229.757	-184.569	-0.661	-0.011
-228.742	-107.294	0.261	0.057
-227.727	-148.554	0.795	-0.065
-226.713	29.576	0.550	0.466
-225.698	-84.207	-0.854	0.270
-224.684	94.709	-0.423	0.479
-223.669	-200.000	-0.079	0.590
-222.655	-112.611	-0.432	-0.086
-221.640	235.453	-0.358	0.589
-220.625	800.000	-0.109	0.450
-219.611	573.239	0.089	0.216
-218.596	-71.664	-0.502	0.187
-217.582	658.624	-0.374	-0.958
-216.567	-57.881	0.315	-0.137
-215.552	-17.171	-0.301	0.189
-214.538	-200.000	-0.009	0.407
-213.523	-76.622	0.091	0.032
-212.509	-52.417	0.112	0.052
-211.494	5.043	0.222	0.163
-210.479	-200.000	0.043	0.726
-209.465	-200.000	0.078	0.351
-208.450	511.886	0.135	0.312
-207.436	35.647	-0.070	-0.061
-206.421	19.060	0.154	0.123
-205.406	117.631	0.349	0.428
-204.392	-117.476	-0.921	0.166
-203.377	141.324	0.205	-0.270
-202.363	-173.883	-1.021	-0.030
-201.348	655.497	-0.462	-1.181
-200.333	-113.389	0.391	0.076
-199.319	-73.135	0.142	-0.052
-198.304	-171.110	-0.406	0.014
-197.290	88.515	-0.278	0.307
-196.275	-158.190	-0.890	0.052
-195.260	-50.472	-0.703	0.330
-194.246	-144.769	0.841	-0.077
-193.231	-51.569	-0.473	0.220
-192.217	191.382	0.428	0.641
-191.202	472.195	0.206	-0.461
-190.187	57.338	-0.762	-0.740
-189.173	93.501	-0.653	-0.735
-188.158	-109.364	-0.232	-0.049
-187.144	-73.218	0.680	0.248
-186.129	-43.525	0.776	-0.390
-185.114	-200.000	0.003	-0.180
-184.100	87.854	0.294	-0.324
-183.085	40.059	0.304	0.272
-182.071	307.380	0.228	0.423
-181.056	29.486	0.346	-0.293
-180.042	335.272	-0.118	0.228
-179.027	-2.530	-0.363	0.253
-178.012	193.355	0.309	-0.465
-176.998	699.627	-0.032	0.085
-175.983	-200.000	-0.005	0.057
-174.969	-130.961	-0.805	0.107
-173.954	-82.859	0.157	0.050
-172.939	-200.000	0.088	-0.655
-171.925	-49.765	1.050	-0.496
-170.910	1.016	0.443	-0.316
-169.896	-35.699	-0.615	-0.331
-168.881	-113.282	-0.959	0.187
-167.866	-200.000	0.075	-0.383
-166.852	-7.120	-0.067	-0.045
-165.837	-73.421	-0.426	0.155
-164.823	696.927	0.405	1.058
-163.808	-200.000	0.042	0.634
-162.793	71.222	-0.277	0.286
-161.779	-200.000	0.093	-0.687
-160.764	378.370	-0.027	-0.055
-159.750	-131.487	-0.370	-0.049
-158.735	380.879	-0.095	-0.195
-157.720	221.157	-0.362	0.577
-156.706	426.948	0.156	-0.334
-155.691	-58.377	0.735	0.318
-154.677	6.674	0.515	-0.381
-153.662	38.639	0.683	-0.606
-152.647	-200.000	0.006	0.105
-151.633	145.470	0.424	-0.564
-150.618	52.568	-0.421	-0.399
-149.604	-14.794	-0.278	-0.177
-148.589	65.320	0.317	0.319
-147.574	7.579	-0.756	0.562
-146.560	441.967	-0.228	-0.495
-145.545	350.572	-0.094	0.185
-144.531	-122.309	-1.126	0.183
-143.516	-200.000	0.015	0.705
-142.502	115.424	0.070	-0.085
-141.487	-36.506	0.383	-0.205
-140.472	-126.434	-0.430	-0.064
-139.458	-200.000	-0.110	1.043
-138.443	13.492	-0.856	-0.659
-137.429	-83.123	0.583	0.186
-136.414	-200.000	0.147	0.658
-135.399	-168.581	0.596	-0.023
-134.385	-200.000	-0.067	0.548
-133.370	-127.096	-0.501	-0.073
-132.356	-200.000	0.182	-1.058
-131.341	-74.290	-0.424	0.152
-130.326	-103.939	-0.663	0.154
-129.312	62.936	-0.609	-0.605
-128.297	-104.471	-0.835	0.192
-127.283	424.506	0.097	-0.208
-126.268	-200.000	0.020	0.367
-125.253	-8.914	0.343	0.228
-124.239	459.890	-0.213	0.470
-123.224	-13.124	-0.160	0.103
-122.210	-157.766	0.553	0.033
-121.195	169.197	-0.669	0.947
-120.180	-200.000	0.035	-0.179
