DTS Sentinel unit serial number:	SN413079Multiplexer serial number:	ORYXHardware model number:	OX4-SRSoftware version number:	ORYX F/W v4.00 Oryx Data Collector v3.7.2.0data status	okinstallation	princeton_trtdifferential loss correction	single-endedforward channel	channel 4reverse channel	N/Adate	2019/09/15time	14:17:35forward acquisition time	60.00reverse acquisition time	0.00gamma	496.2192k internal	0.2288k external	0.2288temperature offset calibration	0.9989default loss term (dB/km)	0.3790temperature slope calibration	1.0000multiplexer offset coefficient	1.0000multiplexer slope coefficient	1.0000fibre end	0.00T internal ref (°C)	38.98T ext. ref 1 (°C)	4.95T ext. ref 2 (°C)	35.99length (m)	temperature (°C)	Stokes	anti-Stokes-747.200	-8.359	-0.022	-0.015
-746.185	324.093	-0.343	0.671
-745.171	-169.715	-0.172	-0.006
-744.156	14.661	-0.149	-0.119
-743.142	239.659	0.088	-0.151
-742.127	-106.011	-0.177	0.041
-741.112	89.203	-0.105	0.120
-740.098	86.874	0.180	0.204
-739.083	-38.950	0.102	0.055
-738.069	-67.966	0.263	-0.105
-737.054	249.539	-0.067	-0.116
-736.039	-110.158	-0.376	-0.080
-735.025	-73.974	0.228	0.085
-734.010	-66.421	-0.264	0.108
-732.996	306.583	-0.069	0.131
-731.981	-46.927	-0.560	0.280
-730.966	-48.816	-0.441	0.217
-729.952	-200.000	0.003	-0.128
-728.937	-200.000	-0.042	-0.268
-727.923	800.000	0.080	-0.350
-726.908	-200.000	-0.007	0.151
-725.894	800.000	0.087	0.315
-724.879	-31.219	-0.055	-0.032
-723.864	-112.573	-0.450	0.092
-722.850	2.069	-0.096	0.071
-721.835	-200.000	0.024	-0.121
-720.821	-9.365	-0.357	0.244
-719.806	-200.000	0.052	-0.246
-718.791	11.073	-0.119	0.093
-717.777	-139.081	0.032	0.004
-716.762	-81.084	-0.207	0.070
-715.748	-75.016	-0.161	0.059
-714.733	-82.433	0.201	-0.067
-713.718	800.000	0.073	-0.252
-712.704	291.119	-0.090	0.167
-711.689	800.000	-0.076	0.242
-710.675	25.880	-0.189	-0.161
-709.660	193.457	-0.036	-0.056
-708.645	-200.000	0.166	0.000
-707.631	-200.000	0.047	-0.277
-706.616	800.000	0.080	-0.246
-705.602	-200.000	-0.002	-0.192
-704.587	-200.000	-0.041	-0.304
-703.572	-92.138	0.035	-0.010
-702.558	-50.700	-0.132	0.064
-701.543	-67.891	-0.229	-0.092
-700.529	-4.337	0.157	0.111
-699.514	800.000	-0.085	-0.306
-698.499	-200.000	0.029	0.483
-697.485	-99.024	-0.368	0.096
-696.470	-35.798	0.069	0.038
-695.456	-157.262	-0.275	0.017
-694.441	-200.000	0.016	0.072
-693.426	-103.308	-0.049	0.012
-692.412	-53.855	0.145	0.068
-691.397	526.234	0.055	-0.132
-690.383	800.000	0.021	0.086
-689.368	122.150	-0.086	-0.110
-688.354	-139.888	-0.330	0.036
-687.339	365.045	-0.058	0.119
-686.324	-174.875	-0.299	-0.009
-685.310	800.000	0.016	-0.071
-684.295	-200.000	0.013	0.256
-683.281	-200.000	-0.041	0.187
-682.266	-49.175	0.045	-0.022
-681.251	96.946	0.043	-0.050
-680.237	800.000	0.045	0.182
-679.222	386.962	-0.058	0.123
-678.208	800.000	0.105	0.437
-677.193	32.955	-0.125	-0.111
-676.178	800.000	0.111	-0.326
-675.164	91.955	0.189	-0.218
-674.149	-5.893	-0.098	-0.068
-673.135	-91.124	0.234	-0.069
-672.120	-121.252	-0.337	-0.058
-671.105	127.387	-0.180	-0.233
-670.091	-6.927	-0.065	0.045
-669.076	483.090	-0.025	-0.059
-668.062	199.532	0.097	-0.151
-667.047	-163.703	0.318	0.015
-666.032	-200.000	0.018	0.168
-665.018	132.234	0.129	-0.170
-664.003	-164.267	-0.240	0.011
-662.989	-134.867	-0.248	-0.031
-661.974	-111.969	0.220	-0.045
-660.959	-42.566	-0.255	0.133
-659.945	-138.659	-0.158	-0.018
-658.930	150.355	0.197	-0.273
-657.916	-167.922	-0.367	0.015
-656.901	456.439	0.058	0.132
-655.886	75.282	0.158	0.170
-654.872	-126.822	0.198	0.030
-653.857	112.845	-0.047	0.058
-652.843	162.687	0.085	-0.121
-651.828	-98.167	0.140	0.037
-650.814	800.000	0.022	-0.091
-649.799	382.343	0.170	-0.356
-648.784	120.302	0.164	0.207
-647.770	736.973	-0.054	-0.148
-646.755	38.596	-0.114	-0.104
-645.741	278.484	-0.100	0.183
-644.726	55.080	-0.138	-0.137
-643.711	-47.478	0.214	0.106
-642.697	208.205	0.115	-0.183
-641.682	183.732	-0.139	0.211
-640.668	429.835	0.053	-0.117
-639.653	800.000	0.011	-0.043
-638.638	35.940	-0.199	-0.179
-637.624	-200.000	0.036	-0.260
-636.609	141.844	0.169	-0.229
-635.595	120.456	0.183	-0.233
-634.580	153.719	-0.043	-0.061
-633.565	245.119	-0.082	0.141
-632.551	8.961	-0.250	0.193
-631.536	313.439	0.146	0.279
-630.522	168.502	-0.158	0.230
-629.507	-39.678	0.230	-0.123
-628.492	-89.300	0.077	0.023
-627.478	-127.191	0.098	0.015
-626.463	-200.000	-0.007	-0.128
-625.449	-131.151	0.272	-0.037
-624.434	800.000	0.111	-0.318
-623.419	28.405	-0.308	-0.266
-622.405	70.087	0.071	0.075
-621.390	-200.000	0.009	-0.182
-620.376	70.539	-0.168	-0.178
-619.361	71.251	-0.172	-0.182
-618.346	-200.000	0.002	0.047
-617.332	105.403	0.115	0.138
-616.317	-200.000	0.029	-0.408
-615.303	-11.893	-0.142	0.095
-614.288	800.000	0.094	0.375
-613.273	-167.770	0.302	-0.012
-612.259	130.073	-0.090	0.117
-611.244	90.925	-0.141	-0.161
-610.230	-115.776	-0.246	-0.047
-609.215	29.859	-0.171	0.149
-608.201	-131.732	-0.152	0.020
-607.186	800.000	0.026	0.106
-606.171	-110.429	-0.369	0.078
-605.157	800.000	-0.026	-0.075
-604.142	45.710	0.156	0.147
-603.128	21.516	0.133	0.110
-602.113	-75.409	-0.295	-0.107
-601.098	-200.000	0.036	-0.189
-600.084	-200.000	-0.002	-0.027
-599.069	206.616	-0.220	0.349
-598.055	48.864	-0.118	-0.112
-597.040	-146.450	0.197	0.018
-596.025	-10.406	0.208	-0.141
-595.011	764.874	-0.167	-0.462
-593.996	380.867	0.208	0.435
-592.982	-88.335	-0.392	-0.120
-591.967	-141.791	-0.128	-0.013
-590.952	109.872	-0.191	-0.233
-589.938	-200.000	-0.007	0.157
-588.923	-200.000	0.182	0.000
-587.909	-4.296	-0.250	0.176
-586.894	-122.976	0.349	0.057
-585.879	115.365	0.168	-0.209
-584.865	-31.257	0.379	0.217
-583.850	-159.802	0.352	0.020
-582.836	-88.054	-0.049	-0.015
-581.821	-151.471	0.153	-0.012
-580.806	-42.451	-0.158	-0.082
-579.792	235.857	-0.142	-0.239
-578.777	41.852	0.114	-0.105
-577.763	1.768	0.062	-0.046
-576.748	518.412	0.087	0.208
-575.733	800.000	-0.050	-0.207
-574.719	658.638	0.036	-0.095
-573.704	800.000	0.053	0.198
-572.690	418.139	-0.046	0.101
-571.675	800.000	-0.055	0.204
-570.661	-200.000	-0.074	-0.395
-569.646	-200.000	-0.053	0.243
-568.631	800.000	0.018	-0.078
-567.617	115.639	-0.205	-0.255
-566.602	-0.858	0.154	-0.111
-565.588	800.000	-0.105	0.335
-564.573	-126.251	0.250	0.038
-563.558	40.678	-0.069	0.063
-562.544	-2.756	0.167	-0.119
-561.529	-200.000	0.004	-0.118
-560.515	144.780	-0.017	-0.023
-559.500	126.649	-0.205	-0.264
-558.485	6.492	-0.085	0.064
-557.471	-66.534	-0.131	-0.053
-556.456	159.896	0.184	-0.261
-555.442	145.206	0.043	-0.058
-554.427	-88.911	-0.244	-0.074
-553.412	-128.802	-0.172	0.025
-552.398	-89.920	-0.205	-0.061
-551.383	-126.692	-0.194	-0.029
-550.369	278.442	-0.224	0.407
-549.354	-200.000	0.015	0.140
-548.339	-200.000	0.050	-0.388
-547.325	-37.110	-0.267	0.145
-546.310	-130.896	-0.177	-0.024
-545.296	-134.325	0.188	-0.023
-544.281	800.000	0.076	-0.282
-543.266	112.380	0.136	0.167
-542.252	101.313	-0.226	-0.267
-541.237	110.250	0.083	-0.102
-540.223	122.971	-0.278	-0.354
-539.208	-200.000	-0.004	0.051
-538.193	-132.468	-0.094	0.012
-537.179	-104.437	0.178	-0.042
-536.164	800.000	-0.118	-0.387
-535.150	25.487	0.078	0.066
-534.135	-126.688	0.130	0.020
-533.121	83.346	-0.193	0.213
-532.106	259.015	-0.150	0.263
-531.091	110.305	-0.165	-0.202
-530.077	31.284	-0.118	0.103
-529.062	-96.023	0.082	-0.022
-528.048	-19.204	-0.312	-0.197
-527.033	741.788	-0.080	-0.218
-526.018	-200.000	-0.007	0.044
-525.004	-82.777	-0.141	-0.046
-523.989	-133.235	-0.089	-0.011
-522.975	-200.000	0.053	-0.236
-521.960	-50.048	-0.127	-0.061
-520.945	-15.955	-0.074	-0.048
-519.931	251.834	-0.134	-0.231
-518.916	173.112	0.037	0.054
-517.902	-63.671	0.174	0.073
-516.887	14.683	0.102	-0.081
-515.872	-200.000	0.003	-0.025
-514.858	800.000	0.087	0.330
-513.843	17.507	-0.132	0.107
-512.829	-58.605	0.096	-0.042
-511.814	328.570	-0.103	0.200
-510.799	25.193	-0.034	-0.028
-509.785	800.000	-0.055	-0.229
-508.770	-200.000	0.013	0.197
-507.756	-84.000	-0.148	0.048
-506.741	-132.743	0.195	0.025
-505.726	262.631	-0.147	-0.260
-504.712	243.035	-0.062	-0.106
-503.697	-64.159	0.136	0.056
-502.683	301.868	-0.060	0.113
-501.668	-193.586	-0.018	0.000
-500.653	319.447	0.169	0.325
-499.639	346.924	0.150	-0.300
-498.624	646.232	0.115	-0.299
-497.610	54.693	-0.053	-0.052
-496.595	-40.147	0.145	-0.077
-495.581	-161.056	-0.223	-0.012
-494.566	-43.469	-0.085	0.043
-493.551	-35.949	-0.202	0.111
-492.537	-55.861	0.193	0.088
-491.522	800.000	0.075	0.270
-490.508	79.304	-0.117	-0.127
-489.493	310.428	-0.166	0.316
-488.478	269.416	0.073	0.130
-487.464	192.474	0.049	0.075
-486.449	593.104	-0.076	-0.191
-485.435	-13.368	0.066	0.044
-484.420	29.706	0.134	0.115
-483.405	162.241	0.038	0.054
-482.391	800.000	0.028	0.093
-481.376	-146.735	0.100	-0.009
-480.362	353.471	0.083	0.168
-479.347	-99.548	-0.273	0.070
-478.332	-200.000	-0.046	0.426
-477.318	12.476	0.158	-0.124
-476.303	-200.000	0.034	-0.207
-475.289	7.084	-0.032	-0.024
-474.274	80.862	0.122	-0.133
-473.259	800.000	0.034	0.123
-472.245	-83.877	-0.174	0.056
-471.230	192.709	-0.125	-0.192
-470.216	800.000	-0.013	0.047
-469.201	244.328	-0.167	-0.284
-468.186	52.047	0.156	0.151
-467.172	-120.812	0.253	0.043
-466.157	-200.000	0.009	0.146
-465.143	139.933	-0.163	0.218
-464.128	151.483	0.048	-0.067
-463.113	-84.602	-0.237	-0.076
-462.099	399.862	0.093	-0.198
-461.084	800.000	0.028	-0.091
-460.070	-129.322	-0.246	0.035
-459.055	106.878	-0.188	-0.227
-458.040	-130.298	-0.303	-0.042
-457.026	-200.000	0.012	-0.112
-456.011	25.002	0.216	0.182
-454.997	683.707	-0.013	0.033
-453.982	715.076	0.061	0.163
-452.968	800.000	0.039	-0.123
-451.953	3.077	0.145	0.107
-450.938	-44.342	0.169	0.086
-449.924	-14.181	0.076	0.050
-448.909	-89.800	0.189	0.056
-447.895	-200.000	0.014	0.271
-446.880	-25.117	0.079	0.047
-445.865	-147.513	0.432	0.037
-444.851	-127.206	0.103	0.015
-443.836	75.354	-0.285	-0.305
-442.822	-72.530	-0.227	0.085
-441.807	136.371	-0.061	-0.081
-440.792	109.653	0.140	0.170
-439.778	-45.010	0.251	0.127
-438.763	-58.695	-0.190	-0.083
-437.749	92.871	0.195	-0.223
-436.734	-200.000	0.014	-0.354
-435.719	-185.105	-0.197	-0.003
-434.705	-179.712	-0.156	0.003
-433.690	-45.893	-0.281	0.141
-432.676	83.347	-0.114	-0.126
-431.661	-53.343	-0.080	0.037
-430.646	-112.996	0.416	-0.083
-429.632	240.673	0.044	0.074
-428.617	-94.460	0.083	0.023
-427.603	-108.529	-0.213	-0.046
-426.588	800.000	0.186	-0.576
-425.573	84.321	-0.159	-0.176
-424.559	-200.000	0.025	-0.137
-423.544	800.000	-0.070	0.248
-422.530	-141.849	-0.158	-0.016
-421.515	-105.154	0.223	-0.052
-420.500	-200.000	-0.048	-0.268
-419.486	25.569	-0.077	0.065
-418.471	-87.251	0.186	-0.057
-417.457	451.732	0.128	0.287
-416.442	211.686	0.022	0.036
-415.428	-129.193	0.187	-0.026
-414.413	-200.000	-0.022	0.139
-413.398	-1.371	0.088	-0.063
-412.384	-200.000	0.045	0.268
-411.369	800.000	-0.023	0.075
-410.355	451.299	-0.107	0.239
-409.340	228.895	0.080	-0.132
-408.325	-200.000	0.020	-0.097
-407.311	169.310	-0.148	-0.214
-406.296	71.628	0.187	0.197
-405.282	26.583	-0.084	-0.071
-404.267	-136.822	-0.135	0.016
-403.252	-5.454	0.075	-0.052
-402.238	-200.000	0.017	0.079
-401.223	-96.048	0.108	0.029
-400.209	-24.261	0.264	-0.159
-399.194	20.763	0.351	-0.288
-398.179	-84.035	0.200	0.064
-397.165	800.000	-0.024	0.072
-396.150	-125.381	-0.413	-0.064
-395.136	-45.650	-0.143	-0.072
-394.121	-173.354	-0.194	0.006
-393.106	-2.856	-0.122	0.086
-392.092	-162.523	0.158	0.008
-391.077	-200.000	0.006	0.109
-390.063	116.630	0.326	0.404
-389.048	-36.931	-0.309	-0.168
-388.033	-116.317	0.448	0.084
-387.019	50.155	-0.197	-0.188
-386.004	64.747	0.263	-0.268
-384.990	-62.900	-0.306	-0.128
-383.975	100.808	0.131	-0.154
-382.960	-75.258	0.242	-0.087
-381.946	50.301	-0.318	-0.304
-380.931	45.205	0.304	0.283
-379.917	-150.876	0.240	-0.018
-378.902	-48.600	0.171	-0.083
-377.888	-97.729	0.395	-0.103
-376.873	-45.453	-0.132	0.066
-375.858	-34.671	-0.486	0.269
-374.844	-193.509	-0.187	0.002
-373.829	-129.753	0.360	-0.050
-372.815	421.328	-0.122	0.264
-371.800	-49.069	-0.253	0.122
-370.785	-200.000	-0.017	-0.093
-369.771	365.776	-0.088	0.179
-368.756	-112.835	-0.215	-0.043
-367.742	288.722	0.115	0.211
-366.727	-156.654	-0.391	-0.024
-365.712	-20.356	0.326	-0.203
-364.698	336.298	-0.090	0.176
-363.683	-99.452	-0.169	-0.043
-362.669	44.034	0.091	-0.084
-361.654	-31.482	0.170	-0.096
-360.639	-132.500	-0.220	-0.029
-359.625	-152.626	0.214	0.015
-358.610	-89.906	0.276	-0.081
-357.596	800.000	0.052	0.168
-356.581	-200.000	-0.028	0.125
-355.566	-26.825	-0.221	-0.130
-354.552	21.800	-0.170	-0.140
-353.537	-200.000	0.008	-0.094
-352.523	-40.777	-0.268	0.140
-351.508	267.280	-0.080	0.142
-350.493	187.948	0.283	0.427
-349.479	-200.000	0.040	0.323
-348.464	150.063	-0.038	-0.051
-347.450	800.000	-0.082	0.236
-346.435	-103.405	0.377	0.090
-345.420	115.384	-0.074	0.091
-344.406	38.322	-0.261	-0.234
-343.391	-3.622	-0.144	0.101
-342.377	-64.632	0.243	-0.100
-341.362	74.682	0.188	0.200
-340.348	-200.000	0.079	0.353
-339.333	92.810	-0.212	0.242
-338.318	-200.000	0.003	-0.104
-337.304	159.127	0.275	0.385
-336.289	67.766	-0.088	-0.091
-335.275	208.731	-0.164	-0.259
-334.260	19.409	0.290	0.235
-333.245	-52.246	-0.212	-0.099
-332.231	8.026	0.246	-0.186
-331.216	-200.000	0.010	0.218
-330.202	628.653	-0.108	-0.275
-329.187	221.737	0.234	0.380
-328.172	-55.755	-0.137	0.062
-327.158	483.434	0.065	0.149
-326.143	-121.062	0.407	0.069
-325.129	17.633	-0.250	-0.200
-324.114	0.966	-0.437	0.316
-323.099	800.000	-0.023	0.069
-322.085	323.821	-0.166	-0.320
-321.070	-158.114	0.095	0.006
-320.056	-73.802	0.308	0.113
-319.041	123.770	0.151	0.190
-318.026	-96.820	0.206	0.054
-317.012	-200.000	-0.045	0.305
-315.997	-158.885	0.041	-0.002
-314.983	-200.000	0.034	0.413
-313.968	406.067	-0.070	0.149
-312.953	82.800	-0.151	0.166
-311.939	5.783	-0.203	0.151
-310.924	60.883	0.454	0.454
-309.910	75.342	0.022	-0.023
-308.895	-26.052	0.291	0.172
-307.880	-164.203	0.166	-0.008
-306.866	478.917	-0.160	0.364
-305.851	-200.000	-0.024	0.158
-304.837	630.687	-0.035	0.088
-303.822	700.600	0.152	0.403
-302.807	-114.627	-0.422	0.081
-301.793	-9.182	0.291	-0.196
-300.778	-32.714	-0.330	-0.185
-299.764	213.940	0.105	0.168
-298.749	-85.972	-0.311	0.097
-297.735	-132.063	-0.137	0.018
-296.720	-200.000	-0.016	-0.094
-295.705	208.961	-0.040	-0.063
-294.691	-48.407	-0.086	0.042
-293.676	-200.000	-0.020	0.185
-292.662	40.829	0.178	0.162
-291.647	146.812	-0.128	-0.173
-290.632	-200.000	-0.019	0.135
-289.618	38.099	0.084	-0.075
-288.603	699.271	0.050	0.133
-287.589	-200.000	-0.029	-0.154
-286.574	147.582	-0.133	0.181
-285.559	-133.665	0.057	-0.007
-284.545	-200.000	-0.044	-0.566
-283.530	223.208	-0.088	-0.143
-282.516	-113.418	-0.158	-0.031
-281.501	800.000	0.005	0.013
-280.486	-42.522	-0.084	0.043
-279.472	-123.678	0.278	-0.044
-278.457	131.496	-0.120	-0.156
-277.443	537.106	0.090	-0.216
-276.428	532.772	-0.101	-0.241
-275.413	75.409	0.089	0.095
-274.399	800.000	0.213	0.619
-273.384	-200.000	-0.016	-0.154
-272.370	-44.992	0.370	-0.186
-271.355	-81.741	0.217	0.071
-270.340	17.406	-0.165	0.132
-269.326	-200.000	0.009	-0.052
-268.311	22.365	0.142	0.117
-267.297	-148.026	-0.195	-0.016
-266.282	-200.000	-0.090	0.398
-265.267	-133.022	0.211	0.027
-264.253	646.304	0.093	0.240
-263.238	81.211	0.209	0.228
-262.224	609.998	0.061	0.154
-261.209	-54.083	-0.277	0.127
-260.195	252.983	0.098	0.169
-259.180	-108.692	0.177	0.038
-258.165	-200.000	-0.010	0.100
-257.151	64.362	0.084	0.085
-256.136	-200.000	0.041	-0.227
-255.122	-2.577	0.190	0.134
-254.107	-200.000	0.057	-0.261
-253.092	-108.860	0.302	-0.065
-252.078	-38.374	0.184	-0.098
-251.063	-26.803	0.195	0.114
-250.049	-200.000	0.042	-0.282
-249.034	136.929	-0.312	-0.410
-248.019	-147.089	0.247	0.021
-247.005	-117.391	-0.467	0.085
-245.990	-174.792	-0.262	0.007
-244.976	-104.106	0.242	0.057
-243.961	800.000	-0.081	-0.247
-242.946	29.524	-0.147	-0.125
-241.932	800.000	-0.078	-0.316
-240.917	91.280	0.184	-0.208
-239.903	-200.000	-0.003	-0.064
-238.888	40.355	0.248	-0.224
-237.873	-108.300	-0.307	-0.067
-236.859	-112.597	0.050	-0.010
-235.844	-198.014	-0.250	0.001
-234.830	800.000	0.103	-0.322
-233.815	-200.000	0.005	-0.077
-232.800	800.000	-0.093	-0.279
-231.786	342.446	0.014	0.028
-230.771	800.000	0.114	-0.354
-229.757	-200.000	-0.018	0.220
-228.742	-200.000	0.121	0.000
-227.727	-200.000	-0.017	-0.107
-226.713	-23.286	-0.155	-0.094
-225.698	-68.409	0.080	0.031
-224.684	-85.343	0.091	0.028
-223.669	-72.710	-0.107	-0.039
-222.655	-104.687	-0.347	-0.080
-221.640	15.146	0.238	0.187
-220.625	-187.381	0.187	0.003
-219.611	63.203	0.283	0.285
-218.596	-152.020	0.105	-0.008
-217.582	-41.454	-0.153	0.079
-216.567	-103.621	-0.130	-0.031
-215.552	650.962	0.083	0.215
-214.538	800.000	-0.073	-0.244
-213.523	-157.906	0.450	-0.027
-212.509	-5.156	-0.192	-0.133
-211.494	41.500	0.300	0.273
-210.479	-181.470	0.280	-0.005
-209.465	-111.648	-0.088	0.018
-208.450	53.913	-0.107	0.103
-207.436	8.924	-0.169	-0.128
-206.421	-56.138	-0.254	-0.113
-205.406	9.480	-0.055	-0.042
-204.392	-200.000	-0.013	0.218
-203.377	402.160	-0.030	-0.064
-202.363	-53.098	-0.085	-0.039
-201.348	-135.372	0.107	-0.013
-200.333	243.354	0.212	0.357
-199.319	-200.000	-0.015	-0.164
-198.304	-200.000	0.007	-0.104
-197.290	-200.000	-0.006	0.071
-196.275	33.538	-0.253	-0.220
-195.260	68.663	-0.088	-0.091
-194.246	800.000	0.139	0.388
-193.231	-26.305	0.019	-0.011
-192.217	51.551	0.031	0.029
-191.202	-141.441	0.337	0.034
-190.187	-169.344	-0.330	-0.012
-189.173	-200.000	-0.021	0.161
-188.158	233.147	-0.187	-0.308
-187.144	-42.421	0.257	-0.131
-186.129	800.000	-0.101	-0.424
-185.114	-200.000	-0.158	-0.000
-184.100	63.255	0.401	-0.403
-183.085	-46.962	-0.313	-0.153
-182.071	-98.702	-0.157	0.040
-181.056	-27.311	-0.259	-0.151
-180.042	-21.490	0.125	0.077
-179.027	-200.000	-0.017	0.097
-178.012	-200.000	0.018	0.253
-176.998	-4.243	-0.150	-0.104
-175.983	206.827	-0.130	-0.204
-174.969	-200.000	0.011	-0.188
-173.954	10.581	-0.232	0.177
-172.939	54.641	0.283	0.274
-171.925	-169.106	0.147	0.005
-170.910	-63.275	0.230	0.095
-169.896	-200.000	-0.015	0.251
-168.881	0.868	0.162	-0.116
-167.866	800.000	-0.077	0.319
-166.852	34.333	-0.225	-0.197
-165.837	-200.000	0.042	0.307
-164.823	440.071	0.054	-0.119
-163.808	47.747	-0.228	0.214
-162.793	31.778	0.045	0.039
-161.779	-169.506	-0.089	-0.003
-160.764	421.431	-0.068	0.146
-159.750	36.043	-0.073	0.065
-158.735	-72.123	-0.306	0.114
-157.720	-168.221	0.184	-0.007
-156.706	210.042	-0.056	0.088
-155.691	-44.652	0.079	-0.040
-154.677	91.956	0.272	-0.307
-153.662	44.831	0.077	-0.071
-152.647	259.390	-0.062	-0.108
-151.633	-73.301	0.184	-0.067
-150.618	-85.801	-0.054	0.017
-149.604	-86.933	0.261	-0.080
-148.589	264.478	-0.161	0.280
-147.574	-42.694	0.213	-0.109
-146.560	-5.633	-0.051	0.035
-145.545	-102.214	0.190	0.046
-144.531	-200.000	-0.019	0.311
-143.516	-83.497	-0.257	-0.082
-142.502	94.852	0.138	0.157
-141.487	-197.968	0.025	-0.000
-140.472	-200.000	0.016	-0.216
-139.458	-200.000	-0.032	-0.246
-138.443	-200.000	0.040	-0.196
-137.429	-200.000	-0.010	-0.102
-136.414	244.124	0.113	0.189
-135.399	-68.287	0.313	-0.122
-134.385	33.983	0.173	-0.151
-133.370	-167.778	0.158	0.006
-132.356	687.755	0.056	0.148
-131.341	10.247	0.330	0.252
-130.326	164.029	0.259	0.365
-129.312	3.662	0.142	-0.104
-128.297	-200.000	0.017	0.153
-127.283	-200.000	0.056	0.303
-126.268	211.655	-0.117	0.184
-125.253	144.531	0.088	0.118
-124.239	-200.000	-0.008	0.166
-123.224	-123.318	0.279	0.045
-122.210	55.342	-0.196	-0.190
-121.195	422.168	-0.134	0.288
