DTS Sentinel unit serial number:	SN413079Multiplexer serial number:	ORYXHardware model number:	OX4-SRSoftware version number:	ORYX F/W v4.00 Oryx Data Collector v3.7.2.0data status	okinstallation	princeton_trtdifferential loss correction	single-endedforward channel	channel 4reverse channel	N/Adate	2019/09/13time	19:17:35forward acquisition time	60.00reverse acquisition time	0.00gamma	496.2192k internal	0.2313k external	0.2313temperature offset calibration	1.0167default loss term (dB/km)	0.3790temperature slope calibration	1.0000multiplexer offset coefficient	1.0000multiplexer slope coefficient	1.0000fibre end	0.00T internal ref (°C)	31.23T ext. ref 1 (°C)	3.81T ext. ref 2 (°C)	24.63length (m)	temperature (°C)	Stokes	anti-Stokes-747.200	800.000	0.077	-0.270
-746.185	800.000	-0.048	0.163
-745.171	-200.000	-0.027	0.278
-744.156	294.698	-0.102	0.189
-743.142	800.000	-0.032	0.121
-742.127	10.345	0.162	0.125
-741.112	-71.538	-0.222	-0.084
-740.098	39.896	0.231	0.210
-739.083	313.477	-0.118	0.225
-738.069	-0.003	-0.196	0.141
-737.054	723.736	0.079	0.213
-736.039	-97.454	0.154	0.041
-735.025	-75.728	0.299	-0.108
-734.010	344.464	-0.204	-0.407
-732.996	28.330	-0.277	-0.237
-731.981	-124.080	0.189	0.030
-730.966	-200.000	-0.007	-0.131
-729.952	43.181	0.221	0.205
-728.937	800.000	0.057	-0.243
-727.923	274.245	-0.125	-0.223
-726.908	-200.000	-0.058	0.381
-725.894	230.392	-0.090	-0.149
-724.879	-26.724	-0.208	-0.123
-723.864	800.000	0.058	-0.202
-722.850	-141.197	-0.110	0.011
-721.835	221.152	-0.256	-0.417
-720.821	563.860	-0.034	-0.084
-719.806	201.213	-0.115	0.179
-718.791	-5.057	-0.358	0.250
-717.777	800.000	0.106	-0.448
-716.762	-200.000	0.019	-0.476
-715.748	-33.920	-0.147	-0.082
-714.733	116.901	-0.174	0.216
-713.718	-88.368	0.148	0.045
-712.704	-200.000	-0.058	-0.267
-711.689	99.180	0.173	0.203
-710.675	144.441	-0.068	0.091
-709.660	-98.167	-0.155	-0.040
-708.645	800.000	0.030	0.115
-707.631	-200.000	-0.002	0.237
-706.616	116.776	-0.191	-0.238
-705.602	185.151	-0.125	-0.188
-704.587	-104.062	-0.234	0.055
-703.572	-111.681	-0.385	-0.079
-702.558	369.713	0.144	0.296
-701.543	75.510	-0.230	0.245
-700.529	181.551	-0.070	-0.104
-699.514	284.499	-0.062	0.113
-698.499	-200.000	-0.054	0.327
-697.485	68.466	-0.211	0.218
-696.470	-87.741	-0.010	-0.003
-695.456	74.663	0.207	-0.220
-694.441	-65.138	-0.446	0.182
-693.426	-200.000	0.055	0.248
-692.412	-51.834	-0.270	-0.127
-691.397	431.942	0.257	-0.563
-690.383	-16.108	-0.212	-0.137
-689.368	109.884	-0.168	-0.203
-688.354	213.465	0.057	0.092
-687.339	70.031	-0.196	0.205
-686.324	43.544	0.134	-0.124
-685.310	-93.913	0.152	0.042
-684.295	212.563	-0.158	-0.253
-683.281	7.875	-0.082	0.062
-682.266	-53.961	-0.084	-0.039
-681.251	-200.000	-0.006	-0.051
-680.237	414.920	-0.046	0.099
-679.222	-200.000	0.010	-0.287
-678.208	-200.000	-0.049	-0.225
-677.193	307.532	0.076	0.144
-676.178	-113.170	-0.015	-0.003
-675.164	-72.257	-0.176	0.066
-674.149	-108.432	-0.302	0.066
-673.135	260.219	0.260	-0.455
-672.120	-200.000	0.047	-0.381
-671.105	-12.701	-0.115	-0.076
-670.091	-146.250	-0.467	-0.041
-669.076	-10.829	-0.118	0.079
-668.062	117.815	0.107	0.133
-667.047	-149.186	0.261	0.021
-666.032	429.936	0.103	-0.225
-665.018	-6.176	0.056	0.039
-664.003	55.719	-0.200	0.196
-662.989	92.220	0.085	-0.096
-661.974	800.000	0.038	-0.154
-660.959	-89.098	0.171	0.051
-659.945	761.361	0.053	-0.145
-658.930	9.698	-0.124	0.095
-657.916	-127.124	-0.149	0.022
-656.901	294.819	-0.122	-0.225
-655.886	800.000	0.047	-0.146
-654.872	-78.699	-0.217	0.075
-653.857	301.340	-0.253	-0.473
-652.843	102.844	0.053	-0.063
-651.828	-32.071	-0.169	-0.095
-650.814	-51.270	-0.129	-0.061
-649.799	800.000	-0.026	-0.102
-648.784	-200.000	-0.081	-0.420
-647.770	175.782	0.281	0.413
-646.755	-200.000	-0.019	0.150
-645.741	101.596	0.034	0.040
-644.726	60.543	0.113	-0.113
-643.711	61.887	-0.067	-0.068
-642.697	185.333	0.073	0.109
-641.682	-200.000	-0.422	0.000
-640.668	67.897	0.096	0.099
-639.653	-44.235	-0.286	0.145
-638.638	800.000	-0.050	0.196
-637.624	800.000	-0.086	0.256
-636.609	-45.018	-0.144	0.072
-635.595	34.796	-0.174	-0.154
-634.580	724.395	-0.080	-0.215
-633.565	800.000	-0.064	-0.243
-632.551	-66.793	0.097	-0.039
-631.536	689.431	-0.072	0.190
-630.522	-108.194	-0.306	-0.067
-629.507	-35.014	0.060	-0.033
-628.492	-149.658	0.098	-0.008
-627.478	-109.909	0.069	-0.015
-626.463	82.058	-0.151	0.165
-625.449	-200.000	-0.063	-0.383
-624.434	-71.558	-0.392	-0.148
-623.419	800.000	-0.092	0.306
-622.405	447.762	0.050	-0.112
-621.390	-154.418	-0.518	0.035
-620.376	64.942	0.034	0.034
-619.361	181.803	0.085	-0.126
-618.346	-200.000	-0.013	-0.073
-617.332	-200.000	0.001	0.165
-616.317	239.307	-0.142	0.238
-615.303	-163.091	-0.194	-0.009
-614.288	-14.675	0.166	-0.108
-613.273	-200.000	-0.019	0.109
-612.259	-103.885	0.039	0.009
-611.244	326.056	-0.039	0.076
-610.230	-23.642	0.204	-0.123
-609.215	-200.000	-0.019	-0.349
-608.201	-91.865	0.050	0.014
-607.186	-2.486	-0.148	0.104
-606.171	95.561	0.184	-0.211
-605.157	-106.038	0.261	-0.059
-604.142	-106.932	-0.471	-0.105
-603.128	20.970	-0.226	-0.185
-602.113	-178.949	-0.146	0.003
-601.098	-3.270	0.098	-0.069
-600.084	120.040	-0.074	0.092
-599.069	-182.455	-0.285	-0.005
-598.055	-113.998	-0.386	0.075
-597.040	-44.904	-0.368	0.185
-596.025	13.283	-0.211	-0.165
-595.011	-200.000	-0.030	0.325
-593.996	-44.624	-0.123	0.062
-592.982	122.335	-0.015	-0.019
-591.967	236.669	0.108	-0.180
-590.952	-200.000	-0.022	-0.152
-589.938	-99.733	-0.130	0.033
-588.923	78.272	-0.071	0.077
-587.909	593.601	0.108	-0.270
-586.894	-200.000	0.009	-0.470
-585.879	-200.000	-0.044	-0.193
-584.865	-29.646	0.207	0.119
-583.850	22.981	0.089	-0.074
-582.836	-15.246	-0.281	0.181
-581.821	266.795	-0.039	0.068
-580.806	-200.000	0.003	0.271
-579.792	555.725	0.079	-0.192
-578.777	200.265	0.035	-0.054
-577.763	15.241	-0.127	-0.101
-576.748	122.918	0.021	-0.027
-575.733	122.766	-0.331	-0.417
-574.719	429.324	-0.155	0.337
-573.704	402.895	0.127	0.268
-572.690	-57.799	0.100	-0.044
-571.675	91.844	0.028	0.032
-570.661	316.424	-0.049	0.093
-569.646	-200.000	0.006	0.072
-568.631	-0.223	-0.112	-0.080
-567.617	39.284	-0.132	-0.119
-566.602	238.612	0.093	-0.156
-565.588	117.829	-0.077	-0.095
-564.573	309.268	-0.056	0.105
-563.558	-124.450	0.154	0.024
-562.544	-82.252	0.166	-0.054
-561.529	-57.395	-0.181	-0.080
-560.515	24.943	0.056	0.046
-559.500	161.895	-0.096	-0.135
-558.485	-200.000	-0.034	0.174
-557.471	-128.277	0.283	0.041
-556.456	-51.244	0.080	-0.038
-555.442	-27.240	-0.109	0.064
-554.427	-200.000	-0.042	0.227
-553.412	697.928	-0.103	-0.273
-552.398	39.982	-0.268	-0.242
-551.383	-132.074	-0.167	0.022
-550.369	-135.945	0.162	0.019
-549.354	229.777	0.016	0.026
-548.339	51.179	0.125	0.119
-547.325	-140.492	0.148	0.015
-546.310	-53.845	-0.183	-0.084
-545.296	-30.294	0.168	-0.096
-544.281	-92.694	-0.519	0.146
-543.266	272.420	0.172	-0.306
-542.252	-55.652	-0.083	-0.037
-541.237	-194.759	-0.463	-0.004
-540.223	368.003	-0.046	-0.093
-539.208	-125.992	0.290	0.044
-538.193	-135.943	-0.397	0.047
-537.179	-18.615	-0.160	-0.100
-536.164	260.564	0.085	-0.147
-535.150	256.501	0.060	0.103
-534.135	-149.544	-0.169	-0.013
-533.121	536.293	0.035	0.084
-532.106	800.000	0.062	0.243
-531.091	-105.554	0.217	-0.050
-530.077	-178.019	-0.126	0.003
-529.062	-175.001	-0.172	0.005
-528.048	321.355	0.071	0.136
-527.033	-107.958	0.390	0.085
-526.018	33.441	0.105	0.092
-525.004	17.161	-0.195	0.155
-523.989	-21.107	0.161	0.099
-522.975	-200.000	-0.008	0.288
-521.960	48.023	-0.166	0.156
-520.945	138.908	0.137	-0.181
-519.931	800.000	-0.094	0.269
-518.916	157.311	0.114	0.159
-517.902	428.177	0.084	-0.181
-516.887	-95.511	0.232	0.063
-515.872	-152.726	0.182	-0.013
-514.858	120.847	0.154	-0.192
-513.843	155.760	0.053	0.073
-512.829	800.000	0.113	0.440
-511.814	-112.527	0.263	0.053
-510.799	-38.184	-0.325	0.173
-509.785	86.084	0.295	-0.326
-508.770	800.000	-0.043	-0.180
-507.756	-56.608	-0.093	0.042
-506.741	800.000	0.052	0.178
-505.726	156.011	0.195	0.270
-504.712	800.000	-0.081	-0.230
-503.697	119.293	0.107	0.134
-502.683	-52.727	-0.320	-0.148
-501.668	-25.601	0.212	0.126
-500.653	97.578	-0.143	-0.165
-499.639	-200.000	0.003	-0.299
-498.624	-126.062	0.169	0.025
-497.610	-200.000	-0.014	-0.163
-496.595	183.157	0.233	-0.346
-495.581	800.000	-0.050	-0.215
-494.566	131.316	0.208	-0.268
-493.551	-30.525	0.031	-0.018
-492.537	-108.318	-0.077	0.017
-491.522	-48.875	-0.301	-0.145
-490.508	800.000	-0.038	-0.111
-489.493	44.265	0.096	0.089
-488.478	622.174	-0.085	0.216
-487.464	-200.000	0.002	-0.048
-486.449	179.915	0.163	-0.240
-485.435	-132.803	-0.291	0.037
-484.420	-45.455	-0.058	0.029
-483.405	-72.442	0.355	-0.132
-482.391	-200.000	-0.043	0.198
-481.376	-160.886	-0.136	-0.007
-480.362	-150.111	-0.309	0.024
-479.347	-133.095	0.110	-0.014
-478.332	-200.000	0.002	0.366
-477.318	-104.438	0.229	0.053
-476.303	800.000	-0.067	-0.188
-475.289	800.000	-0.123	0.378
-474.274	379.576	0.200	0.411
-473.259	9.771	-0.057	0.044
-472.245	-200.000	0.015	-0.128
-471.230	-68.463	-0.127	0.049
-470.216	-200.000	-0.003	-0.071
-469.201	-200.000	-0.042	0.191
-468.186	-128.960	-0.598	0.084
-467.172	465.968	0.075	-0.168
-466.157	-3.851	0.055	0.039
-465.143	286.534	-0.021	0.039
-464.128	-52.287	-0.147	-0.068
-463.113	328.960	0.043	-0.082
-462.099	800.000	-0.061	0.227
-461.084	-155.569	-0.183	-0.012
-460.070	-136.575	0.191	0.022
-459.055	-77.277	0.146	0.051
-458.040	-161.355	0.181	0.009
-457.026	-200.000	-0.114	-0.522
-456.011	531.797	0.075	-0.178
-454.997	-200.000	0.050	-0.359
-453.982	-188.169	0.214	0.003
-452.968	-200.000	-0.011	0.196
-451.953	-200.000	0.023	0.139
-450.938	457.979	-0.073	0.162
-449.924	-145.413	-0.242	-0.022
-448.909	-17.518	0.233	-0.147
-447.895	15.888	0.390	0.308
-446.880	-200.000	0.030	-0.165
-445.865	-132.840	-0.382	0.049
-444.851	178.180	-0.110	0.162
-443.836	133.306	-0.125	0.162
-442.822	281.894	-0.146	0.263
-441.807	64.720	0.328	-0.332
-440.792	68.700	-0.177	-0.182
-439.778	-144.570	0.174	-0.016
-438.763	-151.478	-0.274	0.020
-437.749	28.215	-0.203	-0.171
-436.734	-109.544	-0.124	0.026
-435.719	-200.000	-0.010	-0.227
-434.705	324.100	-0.106	0.202
-433.690	-200.000	-0.013	0.142
-432.676	280.346	0.055	0.098
-431.661	259.575	0.131	-0.226
-430.646	-35.281	0.288	-0.157
-429.632	-48.117	-0.036	0.018
-428.617	-30.826	0.265	-0.150
-427.603	-187.778	0.277	-0.004
-426.588	311.969	-0.140	-0.263
-425.573	13.012	0.120	-0.093
-424.559	38.041	0.164	-0.146
-423.544	49.272	-0.110	-0.104
-422.530	-59.207	0.102	-0.044
-421.515	-197.655	-0.012	0.000
-420.500	175.542	0.110	-0.160
-419.486	800.000	0.092	-0.322
-418.471	87.168	-0.196	-0.216
-417.457	158.500	0.021	-0.029
-416.442	-104.662	-0.131	-0.030
-415.428	-200.000	0.042	-0.304
-414.413	322.109	0.200	-0.381
-413.398	446.519	0.100	0.219
-412.384	-189.161	-0.328	0.004
-411.369	-0.930	-0.082	0.058
-410.355	-0.548	-0.281	0.199
-409.340	800.000	0.065	0.240
-408.325	-157.245	-0.139	-0.008
-407.311	206.333	0.199	-0.310
-406.296	-200.000	0.039	0.199
-405.282	-47.817	-0.322	-0.156
-404.267	-144.823	0.198	0.018
-403.252	459.169	-0.082	-0.183
-402.238	-144.298	0.330	-0.031
-401.223	-200.000	-0.038	0.205
-400.209	-9.982	-0.088	0.059
-399.194	-200.000	0.039	0.479
-398.179	160.077	0.205	0.285
-397.165	332.776	0.008	0.016
-396.150	562.981	-0.077	-0.186
-395.136	-173.193	-0.298	0.009
-394.121	-79.181	-0.473	-0.160
-393.106	800.000	-0.123	-0.355
-392.092	487.671	0.140	-0.320
-391.077	533.840	0.164	0.389
-390.063	141.173	0.149	-0.197
-389.048	-189.799	0.228	-0.003
-388.033	-112.531	0.053	-0.011
-387.019	24.688	-0.087	0.072
-386.004	74.444	0.206	0.217
-384.990	-200.000	0.002	0.249
-383.975	800.000	0.070	-0.206
-382.960	760.666	0.025	-0.068
-381.946	-136.261	0.332	-0.039
-380.931	327.727	-0.111	-0.213
-379.917	493.855	0.091	0.209
-378.902	-98.475	0.102	0.026
-377.888	-131.272	0.198	0.026
-376.873	41.013	-0.045	0.040
-375.858	-103.184	0.312	0.074
-374.844	469.115	-0.067	0.149
-373.829	-200.000	0.009	-0.129
-372.815	800.000	0.000	0.001
-371.800	14.282	0.271	0.211
-370.785	104.818	-0.114	-0.134
-369.771	-86.973	-0.203	0.062
-368.756	46.969	-0.240	-0.223
-367.742	-200.000	0.009	0.239
-366.727	136.721	0.100	0.131
-365.712	410.868	0.033	0.070
-364.698	-160.621	0.113	-0.006
-363.683	800.000	0.086	-0.323
-362.669	0.922	0.108	-0.078
-361.654	755.597	-0.036	-0.098
-360.639	-7.077	-0.172	0.117
-359.625	-68.430	0.061	-0.024
-358.610	230.084	0.037	-0.060
-357.596	-200.000	-0.031	-0.225
-356.581	-162.625	0.177	-0.009
-355.566	116.658	-0.196	0.241
-354.552	87.780	0.249	0.276
-353.537	-200.000	0.058	0.288
-352.523	195.328	-0.152	-0.231
-351.508	800.000	-0.007	-0.027
-350.493	-127.993	-0.194	0.028
-349.479	11.928	0.280	-0.215
-348.464	143.290	-0.146	-0.194
-347.450	800.000	0.143	-0.416
-346.435	77.753	-0.088	-0.093
-345.420	-200.000	0.007	-0.050
-344.406	75.858	-0.290	-0.306
-343.391	-85.401	0.106	-0.033
-342.377	800.000	0.127	0.383
-341.362	800.000	-0.078	-0.214
-340.348	-124.428	0.400	0.062
-339.333	-131.592	-0.419	0.055
-338.318	-200.000	0.011	0.213
-337.304	800.000	0.037	0.142
-336.289	-101.210	0.242	-0.059
-335.275	37.262	0.042	-0.037
-334.260	-112.716	0.193	-0.038
-333.245	20.734	-0.168	0.136
-332.231	80.060	0.135	0.145
-331.216	184.467	-0.150	-0.222
-330.202	-200.000	-0.039	0.422
-329.187	800.000	-0.075	-0.207
-328.172	334.190	0.023	-0.045
-327.158	800.000	-0.038	0.144
-326.143	-83.495	-0.193	0.062
-325.129	269.523	-0.145	0.255
-324.114	-167.178	0.299	0.012
-323.099	-46.407	-0.143	-0.070
-322.085	800.000	-0.095	-0.364
-321.070	-200.000	-0.006	0.165
-320.056	-53.921	-0.120	-0.055
-319.041	-46.691	0.236	0.115
-318.026	-113.286	0.367	-0.072
-317.012	-104.410	0.288	-0.066
-315.997	164.397	0.085	0.119
-314.983	-98.983	0.237	0.060
-313.968	189.523	-0.246	0.367
-312.953	34.213	0.196	-0.170
-311.939	64.351	0.187	-0.188
-310.924	-84.126	0.106	0.034
-309.910	-92.289	0.404	0.114
-308.895	197.426	0.026	-0.039
-307.880	75.398	0.155	0.163
-306.866	5.694	-0.122	0.090
-305.851	146.662	-0.185	-0.248
-304.837	58.664	0.188	-0.184
-303.822	-200.000	0.058	0.274
-302.807	38.098	0.048	-0.043
-301.793	800.000	-0.074	-0.260
-300.778	800.000	0.103	-0.297
-299.764	-181.535	0.248	0.005
-298.749	40.185	-0.211	-0.189
-297.735	-80.418	0.185	-0.062
-296.720	-96.166	-0.088	0.023
-295.705	192.077	-0.309	0.464
-294.691	-200.000	0.008	0.209
-293.676	-32.658	-0.268	-0.149
-292.662	248.260	0.104	0.175
-291.647	-99.831	-0.188	-0.047
-290.632	-200.000	-0.006	-0.217
-289.618	-200.000	-0.012	-0.177
-288.603	-52.221	0.153	0.071
-287.589	109.822	0.196	-0.234
-286.574	-135.859	-0.198	-0.023
-285.559	52.488	0.343	0.326
-284.545	169.227	-0.221	0.314
-283.530	-200.000	0.031	0.237
-282.516	506.641	0.128	0.296
-281.501	717.232	-0.086	0.228
-280.486	800.000	-0.093	0.279
-279.472	72.085	-0.124	0.129
-278.457	568.313	0.079	0.191
-277.443	800.000	-0.104	-0.368
-276.428	-200.000	-0.012	0.144
-275.413	-200.000	0.006	0.326
-274.399	-200.000	0.088	0.533
-273.384	-76.375	0.308	0.108
-272.370	120.221	0.159	0.197
-271.355	54.500	-0.078	-0.075
-270.340	62.916	-0.098	0.098
-269.326	-13.685	-0.129	-0.083
-268.311	15.446	-0.066	0.052
-267.297	-156.475	-0.071	-0.004
-266.282	31.024	0.040	0.034
-265.267	-200.000	0.006	0.074
-264.253	198.524	-0.123	-0.188
-263.238	-63.166	0.313	-0.128
-262.224	800.000	-0.056	-0.234
-261.209	-118.936	0.242	-0.042
-260.195	-200.000	-0.025	-0.170
-259.180	800.000	0.087	0.280
-258.165	-98.320	-0.122	-0.031
-257.151	-102.931	-0.083	-0.020
-256.136	-200.000	-0.035	0.388
-255.122	800.000	0.046	-0.202
-254.107	-181.859	-0.528	-0.010
-253.092	6.556	0.251	-0.185
-252.078	-103.952	0.261	0.061
-251.063	-88.124	0.117	0.035
-250.049	-200.000	0.023	0.189
-249.034	-26.749	0.198	0.115
-248.019	800.000	-0.095	-0.303
-247.005	-188.147	-0.193	-0.002
-245.990	66.888	-0.065	0.066
-244.976	800.000	-0.113	0.441
-243.961	13.969	-0.156	0.120
-242.946	-200.000	-0.006	-0.093
-241.932	-29.359	-0.154	0.088
-240.917	64.202	0.247	-0.248
-239.903	197.455	0.137	0.207
-238.888	-59.229	0.223	0.096
-237.873	-200.000	-0.052	-0.226
-236.859	134.935	-0.087	-0.112
-235.844	71.159	0.353	-0.364
-234.830	-86.054	0.205	0.063
-233.815	60.926	0.236	0.233
-232.800	-156.805	0.127	-0.008
-231.786	-30.548	0.446	0.251
-230.771	-108.824	-0.331	0.070
-229.757	-123.629	0.310	-0.049
-228.742	-200.000	-0.005	-0.179
-227.727	-149.688	0.117	-0.009
-226.713	-30.586	-0.115	0.065
-225.698	-64.709	-0.121	0.049
-224.684	-200.000	-0.040	-0.204
-223.669	-43.287	0.192	-0.096
-222.655	-124.767	0.085	-0.013
-221.640	546.239	0.166	0.394
-220.625	-200.000	-0.022	0.129
-219.611	11.948	-0.112	-0.086
-218.596	-5.432	-0.311	-0.212
-217.582	-200.000	-0.011	0.188
-216.567	800.000	0.105	0.338
-215.552	288.625	0.098	-0.177
-214.538	800.000	0.082	0.231
-213.523	566.062	-0.052	-0.125
-212.509	-200.000	-0.005	-0.063
-211.494	150.248	-0.064	-0.087
-210.479	78.479	0.069	-0.073
-209.465	800.000	0.094	-0.286
-208.450	-200.000	0.020	0.171
-207.436	1.070	0.242	-0.172
-206.421	134.746	-0.119	0.154
-205.406	226.643	-0.023	-0.037
-204.392	-200.000	-0.004	0.252
-203.377	69.855	-0.041	0.042
-202.363	-200.000	0.013	-0.088
-201.348	407.648	-0.125	-0.262
-200.333	-15.464	-0.143	0.091
-199.319	-55.083	0.074	-0.033
-198.304	-130.259	0.195	-0.026
-197.290	-200.000	-0.005	0.321
-196.275	-54.223	-0.231	0.104
-195.260	327.877	0.118	-0.225
-194.246	-85.022	-0.072	-0.022
-193.231	-200.000	0.003	-0.343
-192.217	-18.197	-0.242	0.150
-191.202	-200.000	-0.064	0.372
-190.187	-106.700	0.037	-0.008
-189.173	-200.000	-0.048	-0.230
-188.158	-117.433	0.071	-0.013
-187.144	-60.300	0.133	0.056
-186.129	-161.650	-0.136	0.007
-185.114	13.578	0.177	0.136
-184.100	-200.000	-0.011	0.160
-183.085	-4.618	-0.153	0.105
-182.071	776.489	-0.069	0.187
-181.056	-76.899	0.157	0.054
-180.042	70.006	0.090	0.092
-179.027	-100.666	-0.092	-0.022
-178.012	-200.000	0.014	0.122
-176.998	-54.775	-0.142	-0.063
-175.983	52.813	-0.044	-0.042
-174.969	-130.461	0.245	0.033
-173.954	-37.165	-0.225	0.119
-172.939	262.755	-0.193	-0.332
-171.925	-199.525	0.620	0.003
-170.910	-79.533	0.211	-0.071
-169.896	-102.368	0.330	-0.078
-168.881	-200.000	0.009	0.106
-167.866	-19.560	-0.185	0.114
-166.852	493.263	0.027	-0.062
-165.837	-32.365	-0.152	-0.084
-164.823	-200.000	0.029	-0.357
-163.808	-133.129	-0.147	-0.018
-162.793	135.571	-0.197	0.254
-161.779	432.685	-0.123	-0.265
-160.764	111.445	0.089	-0.107
-159.750	-200.000	0.066	0.335
-158.735	-200.000	-0.003	0.182
-157.720	-200.000	-0.004	-0.045
-156.706	-89.294	0.154	0.045
-155.691	-81.160	-0.326	-0.107
-154.677	-200.000	-0.034	-0.221
-153.662	-200.000	-0.064	-0.292
-152.647	-200.000	0.050	-0.308
-151.633	16.207	0.061	0.048
-150.618	286.066	0.090	0.161
-149.604	-174.843	-0.136	-0.004
-148.589	-161.106	0.130	0.007
-147.574	77.600	-0.386	0.407
-146.560	-109.813	0.476	0.099
-145.545	-159.388	-0.237	-0.013
-144.531	-67.871	0.162	0.063
-143.516	-200.000	-0.052	-0.262
-142.502	6.484	-0.232	0.170
-141.487	-34.556	-0.258	0.140
-140.472	-200.000	-0.012	0.110
-139.458	-119.445	0.125	0.022
-138.443	535.759	0.076	-0.178
-137.429	-82.016	-0.108	0.035
-136.414	-20.510	0.036	-0.022
-135.399	800.000	-0.069	0.285
-134.385	-137.676	-0.388	0.043
-133.370	384.915	-0.079	-0.160
-132.356	800.000	-0.027	-0.109
-131.341	68.344	-0.140	-0.142
-130.326	-200.000	-0.019	-0.174
-129.312	-48.187	-0.144	0.069
-128.297	-18.946	0.073	0.045
-127.283	130.459	-0.307	0.390
-126.268	57.227	-0.093	0.090
-125.253	-200.000	-0.071	0.347
-124.239	166.221	-0.055	0.077
-123.224	-109.286	-0.286	-0.060
-122.210	-200.000	0.012	0.216
