DTS Sentinel unit serial number:	SN413079Multiplexer serial number:	ORYXHardware model number:	OX4-SRSoftware version number:	ORYX F/W v4.00 Oryx Data Collector v3.7.2.0data status	okinstallation	princeton_trtdifferential loss correction	single-endedforward channel	channel 4reverse channel	N/Adate	2019/09/12time	20:03:19forward acquisition time	15.00reverse acquisition time	0.00gamma	496.2192k internal	0.2310k external	0.2310temperature offset calibration	1.0162default loss term (dB/km)	0.3790temperature slope calibration	1.0000multiplexer offset coefficient	1.0000multiplexer slope coefficient	1.0000fibre end	0.00T internal ref (°C)	31.69T ext. ref 1 (°C)	3.50T ext. ref 2 (°C)	26.24length (m)	temperature (°C)	Stokes	anti-Stokes-747.200	-24.741	0.443	0.268
-746.185	-30.319	-0.542	0.313
-745.171	-200.000	-0.023	0.498
-744.156	-41.400	-0.661	0.346
-743.142	-169.937	-0.076	-0.003
-742.127	-17.531	-0.528	-0.337
-741.112	467.130	0.136	0.309
-740.098	-94.881	-0.585	-0.161
-739.083	-200.000	0.033	0.773
-738.069	223.864	-0.284	0.466
-737.054	-200.000	-0.034	-0.406
-736.039	6.793	0.406	0.307
-735.025	800.000	-0.200	-0.687
-734.010	-153.576	-1.067	0.075
-732.996	-76.103	1.165	0.418
-731.981	-100.867	-0.918	-0.229
-730.966	800.000	0.129	-0.365
-729.952	36.726	-0.509	0.456
-728.937	89.048	-0.458	-0.517
-727.923	-200.000	0.030	-0.383
-726.908	800.000	-0.317	-1.046
-725.894	800.000	0.211	-0.637
-724.879	-78.749	-0.506	0.175
-723.864	-166.058	-0.849	-0.037
-722.850	567.405	0.133	0.328
-721.835	170.611	-0.234	0.340
-720.821	-200.000	0.126	-0.743
-719.806	-78.198	-0.242	-0.084
-718.791	-20.902	-0.445	-0.277
-717.777	-0.635	-0.299	-0.215
-716.762	179.191	0.406	-0.602
-715.748	-100.132	-0.873	-0.220
-714.733	-200.000	0.074	-0.670
-713.718	439.833	-0.321	0.712
-712.704	-4.399	-0.293	-0.205
-711.689	-200.000	0.001	0.009
-710.675	33.861	0.286	-0.252
-709.660	47.410	0.854	-0.807
-708.645	40.359	0.591	0.539
-707.631	306.605	0.146	-0.275
-706.616	151.950	-0.344	0.476
-705.602	55.057	0.487	0.477
-704.587	-74.095	-0.625	-0.230
-703.572	-41.054	-0.568	-0.297
-702.558	-200.000	0.065	0.384
-701.543	-141.882	-0.509	-0.052
-700.529	-200.000	-0.056	-0.485
-699.514	262.696	-0.665	1.170
-698.499	26.386	-0.039	0.033
-697.485	800.000	0.095	-0.334
-696.470	109.409	0.547	-0.664
-695.456	-16.242	-0.458	-0.295
-694.441	-200.000	0.050	-0.455
-693.426	-167.164	0.527	-0.022
-692.412	196.239	-0.339	-0.523
-691.397	203.842	0.084	-0.131
-690.383	-6.978	-0.632	0.435
-689.368	-24.065	-0.208	-0.126
-688.354	187.600	0.222	0.336
-687.339	-68.562	0.348	-0.137
-686.324	-200.000	0.021	0.425
-685.310	90.000	0.173	0.196
-684.295	51.174	-0.515	-0.495
-683.281	232.604	0.295	-0.491
-682.266	-19.824	0.487	-0.305
-681.251	-193.426	0.543	-0.005
-680.237	800.000	0.190	0.770
-679.222	-200.000	-0.056	1.001
-678.208	-102.396	-0.744	-0.181
-677.193	196.686	-0.314	-0.485
-676.178	-42.337	0.172	-0.089
-675.164	-110.993	-0.395	-0.082
-674.149	-26.876	-0.344	-0.204
-673.135	-200.000	-0.016	0.228
-672.120	466.962	0.387	0.879
-671.105	-200.000	-0.020	0.425
-670.091	-200.000	0.009	-0.080
-669.076	379.499	0.388	0.805
-668.062	-200.000	0.012	0.532
-667.047	520.467	-0.243	-0.577
-666.032	793.648	0.114	-0.317
-665.018	160.016	-0.130	-0.184
-664.003	-200.000	-0.163	0.941
-662.989	2.278	1.188	0.870
-661.974	-200.000	0.091	0.903
-660.959	73.808	0.356	-0.378
-659.945	-187.868	0.558	0.007
-658.930	128.282	-0.454	-0.585
-657.916	-27.086	-0.608	-0.359
-656.901	-121.363	-0.872	-0.147
-655.886	800.000	0.249	0.754
-654.872	16.664	-0.488	0.391
-653.857	132.777	0.121	0.158
-652.843	65.039	-0.584	0.597
-651.828	-200.000	0.186	-0.844
-650.814	27.899	0.391	-0.333
-649.799	32.895	0.547	-0.480
-648.784	-200.000	-0.003	0.107
-647.770	124.498	-0.198	-0.252
-646.755	-165.742	-0.323	0.014
-645.741	-111.850	-1.064	-0.218
-644.726	55.722	0.343	0.337
-643.711	800.000	0.193	0.678
-642.697	77.942	-0.473	0.511
-641.682	308.022	-0.256	-0.482
-640.668	373.412	-0.245	-0.504
-639.653	-200.000	0.028	-0.252
-638.638	-48.866	0.528	0.256
-637.624	-77.247	-0.518	0.182
-636.609	800.000	0.105	0.392
-635.595	-35.920	-0.418	-0.229
-634.580	764.943	0.079	-0.218
-633.565	800.000	-0.185	0.547
-632.551	-32.460	-0.125	0.070
-631.536	-53.328	0.636	0.295
-630.522	-0.393	0.745	0.535
-629.507	342.674	0.291	-0.576
-628.492	45.905	0.157	0.147
-627.478	-118.391	0.574	0.103
-626.463	349.832	0.244	0.487
-625.449	290.235	0.181	-0.332
-624.434	78.344	-0.572	0.618
-623.419	-129.019	0.195	-0.028
-622.405	190.147	0.395	-0.600
-621.390	-0.169	-0.554	-0.399
-620.376	285.015	-0.213	0.387
-619.361	-26.607	0.637	-0.377
-618.346	323.677	0.422	-0.813
-617.332	149.272	0.198	-0.270
-616.317	2.161	0.403	-0.294
-615.303	80.359	-0.257	-0.280
-614.288	-92.030	-0.711	0.203
-613.273	-197.892	0.608	0.004
-612.259	800.000	-0.288	0.910
-611.244	-6.915	0.525	0.360
-610.230	24.514	0.823	-0.688
-609.215	145.305	-0.426	0.576
-608.201	-124.812	0.423	0.066
-607.186	17.805	-0.289	-0.232
-606.171	724.401	0.257	-0.691
-605.157	431.526	0.113	0.248
-604.142	-200.000	0.025	0.709
-603.128	-125.110	0.314	-0.049
-602.113	-95.476	-0.272	0.074
-601.098	-177.741	-0.534	0.013
-600.084	-32.439	-0.994	0.560
-599.069	-200.000	0.005	0.042
-598.055	-20.007	0.893	0.557
-597.040	-56.272	-0.829	0.372
-596.025	33.718	-0.851	-0.748
-595.011	-3.932	1.106	0.775
-593.996	800.000	0.173	0.693
-592.982	-200.000	0.004	-0.238
-591.967	-64.678	0.555	0.227
-590.952	-152.125	-0.183	-0.013
-589.938	-55.807	-0.176	-0.079
-588.923	-70.709	0.457	-0.174
-587.909	24.090	-0.417	0.347
-586.894	-75.099	-0.417	0.150
-585.879	-200.000	0.086	-0.550
-584.865	-57.417	0.078	-0.034
-583.850	-90.161	-0.422	0.124
-582.836	-126.366	0.978	0.147
-581.821	317.601	0.320	-0.612
-580.806	-71.102	-0.502	-0.191
-579.792	-200.000	-0.053	-0.559
-578.777	12.406	0.386	0.300
-577.763	160.977	0.390	0.549
-576.748	-139.285	-0.437	-0.047
-575.733	515.417	0.365	0.859
-574.719	-200.000	-0.103	0.809
-573.704	217.734	0.317	-0.510
-572.690	-81.079	-0.548	-0.183
-571.675	-10.703	0.398	-0.265
-570.661	-200.000	0.055	0.349
-569.646	-99.601	-0.215	-0.054
-568.631	-131.210	-0.527	-0.071
-567.617	-200.000	0.030	0.888
-566.602	-118.221	-0.067	-0.012
-565.588	-200.000	0.047	-0.770
-564.573	-129.569	0.210	-0.029
-563.558	160.623	0.357	-0.502
-562.544	-154.612	0.895	0.060
-561.529	-170.623	-0.487	-0.017
-560.515	321.241	0.220	0.423
-559.500	126.709	0.298	0.381
-558.485	212.951	0.349	-0.556
-557.471	-200.000	-0.049	0.303
-556.456	-189.975	-0.374	0.004
-555.442	129.143	-0.083	0.107
-554.427	184.730	-0.351	0.525
-553.412	-54.375	0.570	-0.260
-552.398	385.132	0.188	-0.391
-551.383	-200.000	0.051	0.406
-550.369	-22.452	-0.695	-0.424
-549.354	48.894	-0.252	-0.238
-548.339	-3.063	-0.411	-0.289
-547.325	-200.000	-0.104	0.489
-546.310	-49.300	0.703	0.339
-545.296	-143.138	-0.761	0.074
-544.281	-144.641	-0.237	-0.022
-543.266	800.000	-0.050	-0.212
-542.252	-70.650	-0.853	-0.325
-541.237	6.572	0.505	-0.379
-540.223	-117.606	-1.130	-0.205
-539.208	800.000	-0.093	-0.383
-538.193	206.073	-0.233	-0.366
-537.179	-110.637	-1.425	-0.297
-536.164	250.773	0.131	-0.225
-535.150	286.609	0.060	0.110
-534.135	-115.467	0.301	0.057
-533.121	8.248	0.455	-0.345
-532.106	-75.623	-0.739	0.265
-531.091	800.000	0.251	-0.728
-530.077	-200.000	-0.091	-0.787
-529.062	-52.199	-0.386	-0.180
-528.048	-177.251	-0.369	-0.009
-527.033	-200.000	-0.003	-0.833
-526.018	30.905	-0.374	0.323
-525.004	-125.328	-0.343	-0.053
-523.989	711.737	-0.025	-0.066
-522.975	142.708	0.445	-0.596
-521.960	-81.516	-0.170	0.056
-520.945	88.581	-0.227	-0.254
-519.931	-200.000	0.061	-0.409
-518.916	152.110	0.125	0.172
-517.902	-65.828	-0.123	-0.050
-516.887	-79.319	0.279	-0.095
-515.872	-9.862	0.888	0.595
-514.858	-59.132	0.624	-0.271
-513.843	134.155	0.658	0.858
-512.829	164.154	-0.524	-0.743
-511.814	65.048	-0.405	-0.412
-510.799	44.291	-0.314	0.290
-509.785	-200.000	0.034	0.189
-508.770	-113.868	0.879	-0.172
-507.756	-150.113	0.087	0.007
-506.741	182.846	0.540	0.803
-505.726	134.448	0.548	0.716
-504.712	-91.892	-0.584	-0.167
-503.697	523.104	-0.086	0.203
-502.683	-117.087	0.379	0.070
-501.668	534.474	0.195	0.464
-500.653	378.052	-0.251	-0.516
-499.639	-200.000	0.048	-0.279
-498.624	-98.580	1.617	0.416
-497.610	114.410	0.201	-0.246
-496.595	-62.233	-0.768	0.322
-495.581	357.372	-0.184	0.370
-494.566	-85.075	-0.326	-0.103
-493.551	-103.862	0.199	0.047
-492.537	102.014	0.617	0.725
-491.522	-51.141	-0.424	-0.200
-490.508	-32.438	-0.200	0.112
-489.493	402.512	0.308	-0.651
-488.478	-76.010	-0.570	0.203
-487.464	-66.604	1.066	0.425
-486.449	104.283	0.526	-0.623
-485.435	-123.853	-1.091	0.173
-484.420	7.783	0.422	0.318
-483.405	-21.354	1.068	0.656
-482.391	800.000	-0.100	-0.300
-481.376	-95.288	-0.654	-0.177
-480.362	92.568	-0.118	-0.134
-479.347	150.718	-0.222	0.303
-478.332	-95.176	0.474	0.129
-477.318	-200.000	-0.080	-0.988
-476.303	-200.000	-0.050	0.310
-475.289	623.010	-0.182	-0.461
-474.274	575.537	-0.204	0.500
-473.259	-84.974	-0.617	-0.195
-472.245	800.000	-0.233	0.676
-471.230	90.806	-0.134	0.151
-470.216	-118.774	1.183	-0.209
-469.201	-113.383	-0.492	-0.097
-468.186	70.161	0.298	0.310
-467.172	2.201	-0.499	0.363
-466.157	800.000	-0.108	0.329
-465.143	697.991	-0.096	-0.254
-464.128	460.328	0.120	0.269
-463.113	-200.000	0.035	-0.243
-462.099	800.000	-0.292	0.830
-461.084	13.800	-0.321	0.250
-460.070	-165.368	1.132	-0.050
-459.055	-11.709	-0.711	-0.469
-458.040	-171.852	-0.508	-0.017
-457.026	800.000	0.242	0.992
-456.011	560.740	-0.214	0.520
-454.997	-200.000	-0.004	0.284
-453.982	800.000	-0.127	-0.415
-452.968	428.832	-0.231	0.501
-451.953	63.654	-0.346	-0.349
-450.938	-81.076	0.523	0.174
-449.924	553.007	-0.180	0.433
-448.909	800.000	0.177	-0.523
-447.895	52.093	-0.344	-0.330
-446.880	800.000	0.083	-0.362
-445.865	404.255	-0.204	-0.431
-444.851	-3.871	0.236	0.164
-443.836	428.337	0.154	0.335
-442.822	-162.045	-0.127	-0.006
-441.807	22.440	-0.550	0.452
-440.792	380.115	-0.355	-0.730
-439.778	-68.899	0.536	-0.208
-438.763	350.709	-0.251	0.498
-437.749	-200.000	-0.081	0.625
-436.734	-140.755	-0.519	0.054
-435.719	116.338	0.477	-0.587
-434.705	-25.628	-0.272	-0.161
-433.690	45.840	0.283	-0.263
-432.676	800.000	0.133	-0.511
-431.661	-131.654	0.699	-0.092
-430.646	321.693	0.348	-0.665
-429.632	-103.864	-0.113	-0.026
-428.617	800.000	-0.046	0.193
-427.603	84.827	0.345	-0.379
-426.588	-200.000	0.162	-0.834
-425.573	-38.464	-0.320	0.170
-424.559	95.599	0.612	-0.700
-423.544	-22.344	-0.203	-0.123
-422.530	-200.000	-0.245	1.182
-421.515	-200.000	-0.122	0.938
-420.500	-117.007	-0.687	0.126
-419.486	-108.002	-0.867	-0.189
-418.471	-1.232	0.083	-0.059
-417.457	-200.000	0.081	-0.540
-416.442	-29.642	-0.423	-0.242
-415.428	-58.928	0.761	-0.330
-414.413	255.613	-0.641	-1.102
-413.398	56.196	0.247	-0.240
-412.384	-5.893	0.659	-0.452
-411.369	-17.294	-0.780	-0.493
-410.355	11.586	-0.268	0.206
-409.340	-135.039	0.714	-0.086
-408.325	-135.981	0.242	-0.029
-407.311	-200.000	-0.041	-0.413
-406.296	24.037	0.296	0.245
-405.282	7.541	0.236	0.177
-404.267	-46.064	0.279	0.138
-403.252	-90.814	-0.232	0.067
-402.238	55.353	-0.161	0.156
-401.223	-129.316	-0.278	-0.039
-400.209	458.306	-0.057	0.127
-399.194	71.245	-0.203	0.211
-398.179	-75.392	0.261	0.093
-397.165	-200.000	-0.033	-0.795
-396.150	-127.433	-0.668	-0.097
-395.136	4.153	0.795	-0.583
-394.121	-7.631	-0.338	-0.229
-393.106	-83.175	-0.049	0.016
-392.092	-200.000	0.149	1.110
-391.077	-79.511	-0.694	0.235
-390.063	-48.465	0.699	-0.337
-389.048	-21.085	-0.682	0.418
-388.033	17.203	-0.395	0.314
-387.019	645.198	-0.170	-0.433
-386.004	94.280	0.085	-0.097
-384.990	567.716	-0.171	0.415
-383.975	179.194	0.976	-1.430
-382.960	610.826	-0.158	-0.397
-381.946	-80.981	0.174	0.058
-380.931	800.000	0.063	0.185
-379.917	800.000	0.270	0.784
-378.902	138.002	-0.278	-0.365
-377.888	167.448	0.415	0.590
-376.873	-200.000	0.095	-0.502
-375.858	44.894	-0.216	-0.199
-374.844	42.005	-0.771	0.700
-373.829	-200.000	-0.036	0.701
-372.815	333.477	0.136	0.262
-371.800	64.237	-0.551	-0.556
-370.785	2.094	-1.082	0.782
-369.771	-200.000	0.062	0.684
-368.756	-56.013	-0.307	0.137
-367.742	-137.863	0.703	-0.079
-366.727	-132.674	-0.445	-0.057
-365.712	-21.328	0.591	0.361
-364.698	-57.378	-0.437	-0.192
-363.683	-169.746	0.237	0.009
-362.669	800.000	0.132	-0.374
-361.654	-170.810	-0.773	-0.027
-360.639	47.621	0.251	-0.234
-359.625	-49.053	-0.563	-0.269
-358.610	-73.470	0.208	-0.076
-357.596	800.000	0.047	-0.157
-356.581	800.000	-0.145	-0.595
-355.566	800.000	0.108	0.331
-354.552	-200.000	-0.022	0.138
-353.537	145.669	-0.441	-0.591
-352.523	91.891	-0.554	-0.624
-351.508	800.000	0.044	0.156
-350.493	-23.321	-0.641	0.385
-349.479	-200.000	0.203	0.981
-348.464	-92.384	-0.126	-0.035
-347.450	800.000	0.142	0.455
-346.435	8.179	-0.525	0.394
-345.420	177.481	0.276	-0.402
-344.406	-24.758	0.146	0.087
-343.391	-160.932	-0.511	-0.027
-342.377	98.077	-0.091	0.105
-341.362	171.976	0.168	-0.242
-340.348	-200.000	0.012	-0.058
-339.333	-21.228	-0.816	-0.498
-338.318	800.000	-0.171	0.725
-337.304	101.477	0.374	0.436
-336.289	-200.000	-0.061	-0.560
-335.275	-86.960	0.457	-0.139
-334.260	45.082	0.832	-0.767
-333.245	-112.758	0.561	0.111
-332.231	26.666	-0.399	0.334
-331.216	-103.721	-0.830	-0.194
-330.202	-7.775	-0.249	0.168
-329.187	-144.723	-0.916	0.084
-328.172	-95.238	-0.794	0.214
-327.158	622.339	0.354	0.890
-326.143	113.340	-0.462	-0.560
-325.129	-95.806	0.747	0.199
-324.114	535.651	-0.294	0.698
-323.099	-106.676	0.859	0.191
-322.085	-71.802	0.509	0.190
-321.070	399.985	-0.120	-0.252
-320.056	370.958	0.136	0.275
-319.041	317.423	-0.128	0.242
-318.026	596.175	0.141	0.349
-317.012	-75.357	0.116	0.041
-315.997	203.128	-0.160	0.248
-314.983	-126.454	0.679	0.101
-313.968	-56.075	0.270	-0.120
-312.953	-172.520	0.250	0.008
-311.939	-172.731	-1.237	-0.039
-310.924	-61.131	0.895	-0.377
-309.910	800.000	0.128	0.399
-308.895	-200.000	0.046	-0.494
-307.880	101.219	-0.509	-0.592
-306.866	180.824	0.113	0.166
-305.851	-4.363	0.396	0.274
-304.837	-200.000	0.012	0.506
-303.822	-117.436	0.207	-0.037
-302.807	-200.000	-0.045	0.656
-301.793	246.355	-0.352	0.593
-300.778	-66.852	0.304	-0.120
-299.764	-200.000	0.059	0.560
-298.749	-112.591	-0.695	-0.138
-297.735	-77.783	-0.370	0.128
-296.720	-36.009	0.628	0.339
-295.705	30.181	-0.308	-0.262
-294.691	201.225	-0.188	-0.288
-293.676	1.837	-0.561	0.404
-292.662	-174.731	0.060	0.002
-291.647	-102.600	0.572	-0.136
-290.632	-173.745	1.440	-0.043
-289.618	800.000	0.240	-0.702
-288.603	293.579	0.427	-0.777
-287.589	427.274	0.348	0.748
-286.574	-139.590	-1.058	0.113
-285.559	-200.000	0.119	0.711
-284.545	-106.023	0.280	0.063
-283.530	145.709	-0.126	-0.169
-282.516	-160.887	-0.332	0.017
-281.501	79.250	0.512	-0.548
-280.486	95.980	0.398	-0.454
-279.472	-101.063	0.359	-0.088
-278.457	-73.325	-0.571	0.208
-277.443	800.000	0.180	-0.549
-276.428	6.860	0.443	-0.329
-275.413	54.776	-0.103	0.099
-274.399	108.895	0.033	-0.039
-273.384	-1.778	0.493	0.346
-272.370	800.000	-0.009	0.036
-271.355	51.179	0.306	-0.289
-270.340	800.000	0.107	-0.361
-269.326	-13.134	0.500	-0.324
-268.311	196.069	0.132	0.200
-267.297	-103.800	-0.734	-0.171
-266.282	27.191	0.495	-0.415
-265.267	-166.446	0.895	0.037
-264.253	-127.166	-0.448	0.065
-263.238	800.000	-0.108	-0.422
-262.224	-200.000	0.190	1.152
-261.209	186.357	-0.437	-0.648
-260.195	384.694	-0.246	0.505
-259.180	-68.660	0.191	-0.074
-258.165	24.342	-0.374	0.308
-257.151	-65.157	-0.545	-0.219
-256.136	765.196	-0.117	-0.317
-255.122	-122.229	0.186	0.030
-254.107	-128.906	0.237	-0.033
-253.092	715.460	-0.228	-0.603
-252.078	431.870	-0.258	-0.557
-251.063	-61.426	-0.578	-0.242
-250.049	357.947	-0.062	0.123
-249.034	-200.000	-0.080	-0.587
-248.019	800.000	-0.198	-0.796
-247.005	-16.398	-0.451	0.285
-245.990	-200.000	-0.044	0.446
-244.976	-32.098	-0.232	-0.129
-243.961	91.211	-0.273	-0.305
-242.946	-200.000	-0.001	-0.311
-241.932	-25.830	-0.443	0.260
-240.917	-45.419	0.243	0.120
-239.903	-123.892	-0.486	0.076
-238.888	-100.226	-0.696	-0.172
-237.873	166.098	-0.464	-0.655
-236.859	627.913	-0.176	0.443
-235.844	-15.839	0.587	0.372
-234.830	51.234	-0.198	-0.187
-233.815	181.200	0.116	0.170
-232.800	-200.000	-0.198	1.151
-231.786	-200.000	-0.092	-0.828
-230.771	340.221	-0.294	-0.571
-229.757	-200.000	0.082	-1.290
-228.742	-44.118	0.645	0.322
-227.727	90.329	0.109	-0.121
-226.713	-200.000	0.021	-0.317
-225.698	140.088	-0.320	0.421
-224.684	714.998	0.053	-0.140
-223.669	31.368	0.622	-0.532
-222.655	-11.972	0.305	-0.199
-221.640	-79.475	-0.973	0.327
-220.625	-72.522	-0.584	0.215
-219.611	-11.331	-0.682	-0.447
-218.596	-9.809	0.532	-0.352
-217.582	-140.680	0.419	-0.043
-216.567	272.495	0.132	0.232
-215.552	-200.000	0.034	0.818
-214.538	306.512	-0.148	-0.274
-213.523	800.000	0.089	-0.269
-212.509	-90.399	-0.574	0.166
-211.494	-200.000	-0.023	-0.275
-210.479	96.057	-0.373	0.424
-209.465	800.000	0.051	0.159
-208.450	-108.074	0.934	-0.202
-207.436	800.000	-0.212	0.657
-206.421	-200.000	-0.010	0.184
-205.406	-63.679	-0.292	-0.119
-204.392	600.418	0.053	0.132
-203.377	99.867	0.397	-0.457
-202.363	128.141	0.287	-0.363
-201.348	-200.000	-0.058	-0.372
-200.333	800.000	-0.141	-0.537
-199.319	112.480	0.114	-0.138
-198.304	-13.909	-0.719	0.462
-197.290	184.393	0.598	-0.881
-196.275	800.000	0.104	0.325
-195.260	280.004	-0.077	0.137
-194.246	416.119	0.093	-0.197
-193.231	800.000	-0.302	1.066
-192.217	-34.769	0.578	-0.314
-191.202	30.765	-0.241	-0.205
-190.187	142.047	0.572	-0.754
-189.173	-56.113	0.177	0.078
-188.158	104.477	-0.985	1.153
-187.144	122.082	-0.429	0.532
-186.129	-15.749	0.569	0.361
-185.114	-100.382	0.062	0.015
-184.100	-32.663	0.312	-0.172
-183.085	-14.928	-0.364	0.232
-182.071	-138.350	-0.151	-0.017
-181.056	98.087	-0.516	-0.590
-180.042	800.000	0.142	-0.458
-179.027	1.707	0.249	0.178
-178.012	-4.279	-0.293	0.202
-176.998	-200.000	0.065	-0.487
-175.983	-154.221	0.378	-0.025
-174.969	-93.827	1.296	0.354
-173.954	658.283	-0.087	0.221
-172.939	-200.000	-0.029	0.685
-171.925	800.000	-0.178	0.532
-170.910	50.403	-0.501	0.470
-169.896	-85.435	0.148	-0.046
-168.881	6.334	-0.242	-0.178
-167.866	800.000	-0.162	0.558
-166.852	-26.913	0.322	0.187
-165.837	-200.000	0.027	0.509
-164.823	-170.782	0.732	-0.025
-163.808	-52.932	0.838	-0.383
-162.793	-122.903	0.125	0.020
-161.779	-88.288	1.729	-0.513
-160.764	-107.703	-0.704	0.153
-159.750	-200.000	0.048	-0.590
-158.735	213.751	0.233	-0.366
-157.720	-108.579	-0.337	0.072
-156.706	-155.563	0.242	0.015
-155.691	-11.471	0.204	-0.133
-154.677	-127.674	0.975	0.140
-153.662	122.561	0.497	0.617
-152.647	800.000	0.123	0.391
-151.633	210.543	0.084	-0.132
-150.618	461.654	-0.042	-0.094
-149.604	-115.040	0.103	-0.019
-148.589	-200.000	0.075	-0.551
-147.574	800.000	-0.199	-0.562
-146.560	-200.000	0.603	0.003
-145.545	800.000	-0.129	0.368
-144.531	800.000	-0.106	-0.426
-143.516	487.122	-0.212	-0.480
-142.502	636.101	0.418	-1.053
-141.487	-139.350	-0.716	-0.076
-140.472	800.000	0.206	0.740
-139.458	-188.578	0.741	-0.009
-138.443	-113.713	0.199	0.038
-137.429	-200.000	0.031	0.487
-136.414	-200.000	-0.196	0.926
-135.399	-90.876	-0.178	-0.051
-134.385	-200.000	-0.005	0.312
-133.370	-5.319	0.754	-0.514
-132.356	-135.378	0.647	0.077
-131.341	264.625	-0.095	-0.164
-130.326	-200.000	0.094	-0.413
-129.312	-169.421	0.532	0.019
-128.297	-166.692	-1.009	-0.041
-127.283	10.950	0.184	0.139
-126.268	-200.000	-0.028	0.266
-125.253	46.637	-0.507	-0.467
-124.239	4.937	0.438	-0.319
-123.224	415.461	0.316	0.668
-122.210	639.209	-0.262	-0.661
