DTS Sentinel unit serial number:	SN413079Multiplexer serial number:	ORYXHardware model number:	OX4-SRSoftware version number:	ORYX F/W v4.00 Oryx Data Collector v3.7.2.0data status	okinstallation	princeton_trtdifferential loss correction	single-endedforward channel	channel 4reverse channel	N/Adate	2019/09/19time	09:41:35forward acquisition time	60.00reverse acquisition time	0.00gamma	496.2192k internal	0.2333k external	0.2333temperature offset calibration	1.0019default loss term (dB/km)	0.3790temperature slope calibration	1.0000multiplexer offset coefficient	1.0000multiplexer slope coefficient	1.0000fibre end	0.00T internal ref (°C)	23.17T ext. ref 1 (°C)	0.64T ext. ref 2 (°C)	19.47length (m)	temperature (°C)	Stokes	anti-Stokes-747.200	-165.217	0.237	-0.011
-746.185	-104.740	0.246	0.057
-745.171	723.149	0.172	-0.460
-744.156	180.929	0.181	0.268
-743.142	37.108	-0.126	0.113
-742.127	-5.679	-0.121	-0.084
-741.112	183.272	0.109	-0.161
-740.098	97.812	0.037	0.043
-739.083	-25.253	-0.219	0.131
-738.069	712.214	0.056	-0.150
-737.054	-200.000	0.010	0.172
-736.039	-67.589	-0.334	0.131
-735.025	-163.264	-0.151	0.007
-734.010	64.333	0.148	0.150
-732.996	-96.318	-0.104	-0.028
-731.981	223.350	-0.119	-0.193
-730.966	81.958	-0.115	-0.125
-729.952	-27.986	-0.040	-0.023
-728.937	82.726	-0.375	-0.410
-727.923	-81.381	0.170	-0.056
-726.908	249.366	0.099	-0.168
-725.894	-6.920	-0.169	-0.116
-724.879	9.345	0.185	-0.141
-723.864	-200.000	-0.010	0.137
-722.850	-57.483	-0.159	-0.070
-721.835	-200.000	-0.001	-0.208
-720.821	26.278	-0.055	0.046
-719.806	90.904	0.192	0.216
-718.791	320.964	-0.227	-0.434
-717.777	-113.864	0.223	-0.044
-716.762	-8.180	-0.104	0.070
-715.748	-119.957	0.307	0.053
-714.733	800.000	-0.065	-0.233
-713.718	-94.864	-0.491	0.134
-712.704	728.989	-0.064	-0.173
-711.689	14.943	0.296	-0.232
-710.675	501.606	0.093	0.216
-709.660	368.569	0.170	0.345
-708.645	364.975	0.012	-0.024
-707.631	62.222	0.179	-0.180
-706.616	800.000	-0.087	0.258
-705.602	-9.053	0.175	0.118
-704.587	-169.663	0.301	-0.011
-703.572	481.511	0.141	0.321
-702.558	-200.000	-0.015	-0.465
-701.543	-137.408	0.153	0.017
-700.529	778.601	-0.044	-0.121
-699.514	586.027	0.045	-0.111
-698.499	-200.000	-0.024	-0.154
-697.485	800.000	-0.058	-0.249
-696.470	-43.345	-0.135	-0.069
-695.456	-200.000	0.030	-0.413
-694.441	800.000	0.060	-0.175
-693.426	353.096	0.163	0.324
-692.412	81.616	-0.284	-0.308
-691.397	-144.367	0.211	0.020
-690.383	40.145	0.097	-0.088
-689.368	-91.360	-0.361	-0.103
-688.354	207.727	-0.085	-0.132
-687.339	519.891	0.038	-0.090
-686.324	-31.794	-0.157	-0.089
-685.310	30.415	-0.175	-0.150
-684.295	15.230	0.192	-0.151
-683.281	49.249	0.197	-0.186
-682.266	58.659	-0.277	0.273
-681.251	800.000	0.065	0.275
-680.237	800.000	0.100	0.325
-679.222	49.009	-0.348	-0.327
-678.208	-123.551	-0.115	0.018
-677.193	382.628	-0.129	-0.267
-676.178	76.680	-0.146	-0.156
-675.164	-200.000	0.029	0.145
-674.149	800.000	0.082	-0.237
-673.135	-151.547	-0.267	-0.020
-672.120	19.403	-0.262	-0.211
-671.105	800.000	-0.056	-0.168
-670.091	800.000	0.030	-0.090
-669.076	19.647	0.173	0.140
-668.062	800.000	0.011	-0.039
-667.047	800.000	-0.114	-0.329
-666.032	-125.274	-0.265	-0.041
-665.018	-64.933	-0.118	0.048
-664.003	-200.000	-0.041	-0.316
-662.989	-47.836	-0.167	-0.081
-661.974	-1.937	0.123	0.086
-660.959	-95.427	0.447	-0.120
-659.945	-181.996	0.428	-0.008
-658.930	103.749	0.241	-0.284
-657.916	-4.564	0.199	-0.137
-656.901	800.000	0.078	-0.312
-655.886	-34.471	-0.079	0.043
-654.872	305.810	0.066	0.123
-653.857	-200.000	0.049	0.421
-652.843	800.000	-0.072	-0.236
-651.828	-114.566	-0.198	-0.038
-650.814	99.826	0.126	-0.146
-649.799	-124.133	0.213	0.033
-648.784	800.000	0.089	-0.261
-647.770	-200.000	-0.009	-0.340
-646.755	182.696	0.116	0.172
-645.741	3.283	0.093	0.068
-644.726	486.609	-0.132	-0.302
-643.711	104.926	-0.047	-0.055
-642.697	-70.605	0.147	-0.056
-641.682	-13.097	0.157	0.102
-640.668	-149.803	0.139	-0.011
-639.653	-147.655	-0.275	-0.023
-638.638	99.871	-0.198	-0.230
-637.624	6.612	0.122	-0.091
-636.609	-77.114	0.104	0.036
-635.595	-200.000	-0.023	0.172
-634.580	536.683	0.123	0.292
-633.565	143.882	0.186	0.248
-632.551	800.000	-0.072	0.219
-631.536	-81.005	0.237	-0.079
-630.522	590.210	-0.097	-0.240
-629.507	-200.000	0.046	0.371
-628.492	-48.785	0.148	-0.071
-627.478	-31.850	-0.394	-0.221
-626.463	-54.784	0.439	0.198
-625.449	584.598	0.179	0.441
-624.434	-200.000	-0.046	-0.329
-623.419	800.000	0.129	-0.374
-622.405	-143.283	0.188	-0.018
-621.390	-200.000	-0.052	0.270
-620.376	-66.560	-0.327	0.130
-619.361	-45.591	-0.036	-0.018
-618.346	800.000	0.037	0.133
-617.332	565.225	0.038	-0.091
-616.317	-101.718	-0.044	0.011
-615.303	-62.740	0.103	0.043
-614.288	132.490	0.231	-0.298
-613.273	-200.000	-0.024	0.163
-612.259	248.090	0.042	0.071
-611.244	275.637	0.159	0.282
-610.230	3.543	-0.260	0.190
-609.215	-200.000	0.015	0.078
-608.201	445.603	-0.058	0.127
-607.186	391.538	0.060	0.124
-606.171	-95.192	-0.088	-0.024
-605.157	-200.000	0.016	0.199
-604.142	-200.000	-0.032	0.278
-603.128	-45.444	-0.442	0.219
-602.113	-39.906	0.366	0.191
-601.098	57.693	-0.261	-0.255
-600.084	800.000	-0.086	-0.282
-599.069	0.914	-0.283	-0.203
-598.055	-200.000	-0.006	-0.373
-597.040	-36.765	0.087	0.047
-596.025	6.750	-0.199	-0.148
-595.011	218.818	0.056	0.089
-593.996	-160.791	-0.041	-0.002
-592.982	800.000	0.023	0.091
-591.967	800.000	-0.077	0.327
-590.952	675.274	-0.040	-0.103
-589.938	155.438	0.242	-0.333
-588.923	-145.031	-0.106	-0.010
-587.909	-60.920	0.364	0.154
-586.894	800.000	0.064	0.217
-585.879	15.248	-0.076	0.059
-584.865	652.223	-0.096	-0.245
-583.850	-54.226	-0.234	0.106
-582.836	47.255	0.179	0.166
-581.821	178.322	0.098	0.143
-580.806	-111.761	-0.159	-0.032
-579.792	-64.330	-0.352	-0.143
-578.777	12.773	0.220	0.170
-577.763	-200.000	-0.109	0.552
-576.748	-200.000	0.012	-0.142
-575.733	184.831	0.133	-0.196
-574.719	800.000	-0.124	-0.349
-573.704	-19.247	0.167	0.104
-572.690	-200.000	0.012	-0.112
-571.675	800.000	0.096	0.295
-570.661	-97.850	-0.209	-0.054
-569.646	-200.000	0.024	-0.269
-568.631	348.240	-0.206	-0.405
-567.617	6.181	0.213	-0.158
-566.602	-200.000	-0.008	-0.227
-565.588	48.526	-0.456	-0.427
-564.573	79.106	0.091	-0.098
-563.558	800.000	0.039	0.153
-562.544	152.063	-0.053	-0.072
-561.529	-1.487	-0.230	-0.162
-560.515	313.100	-0.157	-0.295
-559.500	348.392	0.047	-0.092
-558.485	163.214	0.049	-0.069
-557.471	-77.792	-0.089	-0.031
-556.456	270.800	-0.114	0.200
-555.442	427.069	0.034	-0.073
-554.427	-123.078	0.120	0.019
-553.412	-38.754	-0.140	0.074
-552.398	-186.650	0.107	0.002
-551.383	-57.454	0.250	-0.109
-550.369	-16.344	-0.265	-0.168
-549.354	207.853	-0.057	-0.088
-548.339	-103.742	-0.171	0.040
-547.325	-200.000	0.012	-0.189
-546.310	800.000	-0.021	-0.089
-545.296	800.000	0.027	-0.087
-544.281	216.280	0.090	-0.143
-543.266	63.293	0.190	0.190
-542.252	-64.013	0.236	0.096
-541.237	229.421	-0.046	0.075
-540.223	280.184	0.025	-0.044
-539.208	800.000	-0.105	-0.386
-538.193	-130.566	-0.396	-0.053
-537.179	-156.910	0.193	-0.012
-536.164	-200.000	-0.019	0.194
-535.150	56.656	0.145	0.141
-534.135	-85.399	0.103	0.032
-533.121	-74.611	-0.261	-0.094
-532.106	103.714	-0.136	-0.159
-531.091	385.711	0.067	-0.139
-530.077	161.699	0.086	-0.120
-529.062	92.800	-0.156	-0.176
-528.048	205.885	0.064	-0.099
-527.033	-16.052	0.144	-0.091
-526.018	286.912	-0.151	-0.273
-525.004	66.560	0.089	0.090
-523.989	-11.353	0.084	0.055
-522.975	-14.114	-0.084	0.054
-521.960	800.000	0.031	0.090
-520.945	102.429	0.088	0.103
-519.931	130.928	0.276	0.353
-518.916	-2.885	-0.226	0.158
-517.902	212.256	0.144	-0.227
-516.887	27.744	-0.102	0.085
-515.872	-136.147	-0.028	0.003
-514.858	-200.000	-0.006	0.270
-513.843	-10.433	-0.162	-0.107
-512.829	-200.000	-0.052	0.317
-511.814	-200.000	-0.007	0.126
-510.799	-200.000	0.004	0.057
-509.785	800.000	0.056	0.215
-508.770	33.959	-0.085	-0.074
-507.756	217.458	-0.126	-0.200
-506.741	-200.000	0.054	-0.427
-505.726	-50.209	0.341	0.161
-504.712	72.967	0.089	-0.092
-503.697	-108.389	0.227	0.049
-502.683	56.365	-0.057	-0.055
-501.668	-200.000	-0.014	0.065
-500.653	288.846	-0.146	-0.263
-499.639	-70.853	-0.137	0.051
-498.624	-200.000	-0.041	0.295
-497.610	207.980	-0.034	0.053
-496.595	800.000	0.031	-0.089
-495.581	-114.361	0.007	-0.001
-494.566	713.053	-0.046	0.122
-493.551	84.508	0.133	0.145
-492.537	-200.000	0.015	-0.173
-491.522	-79.045	0.169	0.057
-490.508	449.248	-0.145	0.319
-489.493	72.664	0.018	-0.019
-488.478	268.702	-0.109	0.189
-487.464	-200.000	-0.068	0.000
-486.449	108.410	0.202	0.240
-485.435	800.000	0.023	0.087
-484.420	-200.000	-0.024	-0.336
-483.405	800.000	0.073	0.278
-482.391	-200.000	0.000	-0.236
-481.376	-64.359	0.220	0.089
-480.362	-109.015	-0.146	0.031
-479.347	170.678	-0.081	-0.115
-478.332	18.837	0.065	0.052
-477.318	238.708	-0.081	0.134
-476.303	187.223	-0.144	0.213
-475.289	-200.000	0.018	0.160
-474.274	144.567	0.118	-0.157
-473.259	-190.859	-0.238	-0.002
-472.245	-14.441	-0.246	0.158
-471.230	153.423	0.083	-0.113
-470.216	443.810	0.060	-0.130
-469.201	-200.000	-0.040	0.224
-468.186	-105.108	0.040	0.009
-467.172	396.084	-0.079	-0.165
-466.157	-127.791	-0.139	-0.020
-465.143	643.629	-0.028	0.070
-464.128	-94.360	-0.277	0.075
-463.113	-33.500	-0.163	-0.089
-462.099	-115.985	0.192	-0.036
-461.084	-143.122	0.151	-0.015
-460.070	99.397	0.163	-0.188
-459.055	266.750	0.049	-0.086
-458.040	-145.163	-0.053	0.005
-457.026	-11.546	0.128	0.084
-456.011	-200.000	-0.016	-0.280
-454.997	414.840	-0.073	-0.155
-453.982	28.762	0.294	0.247
-452.968	30.270	0.229	-0.194
-451.953	-200.000	0.000	0.014
-450.938	-136.985	-0.147	0.017
-449.924	-158.912	-0.227	-0.013
-448.909	-102.184	-0.270	-0.064
-447.895	103.143	-0.172	-0.201
-446.880	71.357	-0.091	0.094
-445.865	-89.631	-0.225	0.066
-444.851	-200.000	0.022	-0.122
-443.836	-155.557	0.094	-0.006
-442.822	-59.726	0.180	0.077
-441.807	39.917	-0.157	0.141
-440.792	-178.830	-0.191	0.004
-439.778	-112.104	0.180	0.036
-438.763	-200.000	-0.021	-0.138
-437.749	-95.522	0.209	0.056
-436.734	-200.000	-0.030	0.194
-435.719	-42.816	-0.249	-0.126
-434.705	-200.000	-0.005	-0.149
-433.690	-118.919	0.194	0.034
-432.676	-124.664	-0.350	0.054
-431.661	-14.063	-0.191	-0.123
-430.646	-99.508	0.277	0.069
-429.632	109.548	0.124	-0.148
-428.617	6.995	0.359	-0.266
-427.603	-21.787	-0.077	-0.046
-426.588	64.763	0.056	-0.056
-425.573	762.951	-0.047	-0.127
-424.559	-13.179	-0.214	0.138
-423.544	166.869	0.038	-0.053
-422.530	19.211	0.131	0.105
-421.515	649.713	-0.065	0.165
-420.500	86.520	-0.231	-0.253
-419.486	-195.763	0.053	-0.000
-418.471	-82.943	-0.202	0.065
-417.457	-200.000	-0.028	-0.216
-416.442	-48.140	-0.071	0.034
-415.428	10.780	0.207	-0.157
-414.413	-200.000	0.073	0.401
-413.398	-19.007	0.156	0.096
-412.384	149.339	-0.003	-0.005
-411.369	800.000	-0.109	0.304
-410.355	-106.113	-0.446	-0.099
-409.340	-200.000	-0.014	-0.214
-408.325	214.971	-0.159	-0.249
-407.311	-200.000	0.002	0.172
-406.296	800.000	-0.054	0.185
-405.282	35.809	0.175	0.153
-404.267	-200.000	0.037	-0.201
-403.252	-34.482	0.098	-0.053
-402.238	-84.823	-0.150	0.047
-401.223	-7.031	-0.263	0.177
-400.209	310.372	0.087	0.162
-399.194	-92.239	-0.488	-0.137
-398.179	-40.591	-0.460	-0.237
-397.165	-200.000	-0.015	0.275
-396.150	-74.891	-0.153	0.055
-395.136	82.792	-0.218	0.235
-394.121	-200.000	-0.047	0.372
-393.106	-95.487	0.301	-0.080
-392.092	148.930	-0.087	-0.117
-391.077	176.871	-0.102	-0.148
-390.063	82.735	0.065	-0.070
-389.048	800.000	0.156	-0.513
-388.033	-95.211	-0.193	0.052
-387.019	-47.072	0.245	0.119
-386.004	119.357	-0.097	0.120
-384.990	800.000	0.055	-0.236
-383.975	-200.000	0.023	-0.336
-382.960	-109.589	0.015	-0.003
-381.946	145.953	-0.169	0.225
-380.931	74.766	0.185	0.193
-379.917	-200.000	-0.028	0.122
-378.902	-126.906	-0.082	-0.012
-377.888	-129.486	0.499	-0.068
-376.873	-79.675	0.133	0.044
-375.858	-37.084	0.228	0.121
-374.844	800.000	-0.084	0.280
-373.829	20.055	0.063	0.051
-372.815	427.290	-0.111	0.238
-371.800	81.024	-0.128	0.137
-370.785	1.642	0.220	-0.157
-369.771	1.791	0.262	-0.187
-368.756	-200.000	0.066	-0.582
-367.742	-200.000	0.024	0.154
-366.727	-23.978	0.396	0.235
-365.712	-136.144	-0.272	-0.032
-364.698	-33.296	-0.134	-0.073
-363.683	800.000	0.032	0.089
-362.669	-170.421	0.156	0.005
-361.654	473.191	0.068	-0.152
-360.639	-149.967	-0.201	-0.016
-359.625	-200.000	0.011	0.156
-358.610	800.000	-0.048	0.178
-357.596	-51.066	0.148	0.069
-356.581	-125.032	-0.363	0.055
-355.566	295.677	0.133	-0.242
-354.552	263.391	0.079	0.135
-353.537	800.000	0.057	-0.162
-352.523	-200.000	-0.016	0.073
-351.508	-93.483	0.215	0.059
-350.493	800.000	0.059	0.196
-349.479	-200.000	-0.011	-0.152
-348.464	57.513	0.199	0.192
-347.450	-200.000	0.027	0.202
-346.435	-200.000	-0.003	0.225
-345.420	126.910	0.070	-0.087
-344.406	-200.000	0.013	0.387
-343.391	3.770	-0.175	-0.126
-342.377	-68.232	-0.252	-0.097
-341.362	412.886	0.055	-0.116
-340.348	34.509	-0.350	0.303
-339.333	108.838	0.149	0.177
-338.318	29.596	0.176	0.148
-337.304	-94.736	0.051	0.014
-336.289	-200.000	0.023	-0.205
-335.275	-143.216	0.180	-0.017
-334.260	58.122	-0.181	0.176
-333.245	693.734	0.048	0.125
-332.231	-71.384	0.241	0.089
-331.216	275.630	0.086	-0.150
-330.202	121.553	0.075	-0.092
-329.187	-172.863	0.054	0.002
-328.172	-200.000	0.033	-0.285
-327.158	152.645	0.186	-0.251
-326.143	-200.000	-0.029	0.302
-325.129	757.139	0.172	-0.461
-324.114	-116.149	-0.044	-0.008
-323.099	-200.000	0.045	0.309
-322.085	-31.516	-0.304	0.169
-321.070	-50.101	0.144	-0.068
-320.056	516.924	0.154	0.356
-319.041	68.958	-0.179	0.182
-318.026	800.000	0.059	0.231
-317.012	-200.000	0.021	-0.169
-315.997	191.943	0.206	0.307
-314.983	-61.551	-0.203	0.084
-313.968	21.216	-0.300	-0.240
-312.953	184.308	-0.172	-0.253
-311.939	-148.654	0.012	-0.001
-310.924	199.343	0.134	0.204
-309.910	-195.477	0.152	0.001
-308.895	-200.000	0.050	0.248
-307.880	-113.634	-0.222	-0.043
-306.866	-200.000	0.013	-0.224
-305.851	-200.000	-0.025	0.156
-304.837	140.468	-0.066	0.086
-303.822	-200.000	0.004	0.248
-302.807	-200.000	-0.037	0.489
-301.793	171.422	-0.222	0.315
-300.778	-155.385	-0.172	0.011
-299.764	-200.000	-0.014	-0.170
-298.749	-200.000	0.010	-0.147
-297.735	257.237	-0.248	-0.421
-296.720	337.354	0.106	0.204
-295.705	800.000	0.038	-0.124
-294.691	127.465	0.183	-0.229
-293.676	-200.000	0.005	-0.191
-292.662	-200.000	-0.012	-0.060
-291.647	-156.511	0.216	0.013
-290.632	-84.790	0.106	0.033
-289.618	411.623	0.144	0.301
-288.603	178.262	0.160	0.231
-287.589	-144.516	0.184	-0.017
-286.574	-42.898	0.077	-0.039
-285.559	102.900	-0.048	0.056
-284.545	-113.925	-0.262	-0.050
-283.530	-102.783	-0.091	-0.021
-282.516	83.346	-0.118	0.127
-281.501	-200.000	-0.011	-0.199
-280.486	-200.000	0.056	0.466
-279.472	-53.079	0.337	-0.153
-278.457	800.000	0.088	-0.252
-277.443	129.790	-0.121	-0.153
-276.428	-137.819	-0.105	0.012
-275.413	-82.465	0.297	0.095
-274.399	-62.486	-0.191	0.078
-273.384	-124.050	0.086	-0.013
-272.370	800.000	-0.039	0.109
-271.355	181.032	-0.226	-0.328
-270.340	-200.000	0.035	-0.222
-269.326	316.413	-0.054	0.100
-268.311	190.880	-0.106	0.158
-267.297	-53.652	0.266	-0.120
-266.282	95.672	0.160	-0.180
-265.267	-103.519	0.115	-0.027
-264.253	800.000	-0.038	0.109
-263.238	-200.000	-0.021	-0.280
-262.224	23.171	-0.147	-0.119
-261.209	76.596	-0.211	-0.220
-260.195	394.835	-0.141	-0.290
-259.180	800.000	0.010	0.030
-258.165	-200.000	-0.041	-0.188
-257.151	-30.283	-0.272	0.152
-256.136	-200.000	0.003	-0.134
-255.122	-26.764	-0.049	-0.029
-254.107	-200.000	-0.001	-0.017
-253.092	-200.000	0.297	0.000
-252.078	293.191	0.154	0.277
-251.063	-94.306	-0.215	-0.058
-250.049	-200.000	-0.011	-0.051
-249.034	123.992	-0.111	-0.138
-248.019	-200.000	-0.004	0.141
-247.005	800.000	0.015	-0.046
-245.990	264.724	-0.036	-0.061
-244.976	-200.000	0.002	0.127
-243.961	-200.000	-0.008	-0.255
-242.946	800.000	-0.043	0.150
-241.932	-94.053	-0.122	0.033
-240.917	800.000	0.119	-0.466
-239.903	77.205	-0.163	-0.171
-238.888	53.399	-0.025	0.024
-237.873	-122.771	-0.064	-0.010
-236.859	28.638	0.069	0.057
-235.844	134.565	0.307	0.393
-234.830	53.534	0.236	-0.223
-233.815	9.672	-0.206	0.154
-232.800	431.332	-0.054	0.115
-231.786	96.335	0.110	-0.124
-230.771	182.145	-0.061	0.088
-229.757	236.773	-0.121	-0.197
-228.742	-42.117	-0.097	-0.049
-227.727	52.471	0.232	0.218
-226.713	255.269	-0.049	0.084
-225.698	-172.976	0.307	0.009
-224.684	-32.017	0.360	-0.199
-223.669	28.581	-0.028	0.024
-222.655	-15.560	-0.189	-0.119
-221.640	-51.307	0.079	-0.036
-220.625	26.164	0.275	0.226
-219.611	33.322	-0.143	-0.122
-218.596	-4.934	-0.248	-0.169
-217.582	-53.525	-0.262	-0.118
-216.567	-9.385	-0.183	0.120
-215.552	346.354	-0.175	-0.339
-214.538	-126.810	-0.213	-0.031
-213.523	-4.907	0.238	0.161
-212.509	-157.862	-0.235	0.014
-211.494	4.102	-0.078	-0.056
-210.479	6.733	0.154	-0.113
-209.465	-100.629	0.325	0.079
-208.450	-152.549	0.218	-0.015
-207.436	800.000	-0.089	0.322
-206.421	-47.068	-0.075	-0.036
-205.406	-200.000	-0.025	-0.186
-204.392	-60.807	-0.182	-0.076
-203.377	-94.437	0.312	0.084
-202.363	148.757	-0.152	-0.202
-201.348	-116.257	0.061	-0.011
-200.333	-200.000	-0.000	-0.309
-199.319	-200.000	-0.014	-0.105
-198.304	-200.000	-0.016	0.124
-197.290	154.918	-0.140	0.189
-196.275	-200.000	-0.009	-0.133
-195.260	-200.000	0.034	-0.351
-194.246	-200.000	-0.025	0.171
-193.231	-47.579	0.072	-0.034
-192.217	800.000	-0.030	-0.116
-191.202	-97.499	0.199	0.051
-190.187	359.657	0.140	0.275
-189.173	151.447	0.093	-0.125
-188.158	800.000	0.075	0.220
-187.144	13.721	0.180	-0.138
-186.129	-87.228	-0.494	0.147
-185.114	800.000	-0.058	0.191
-184.100	212.908	0.107	-0.166
-183.085	-129.927	-0.391	-0.053
-182.071	-200.000	0.050	-0.312
-181.056	-102.844	0.116	0.027
-180.042	-200.000	0.007	0.207
-179.027	800.000	-0.065	-0.232
-178.012	-14.999	0.272	-0.172
-176.998	-104.360	-0.096	0.022
-175.983	-144.129	0.057	0.005
-174.969	-79.216	-0.146	0.049
-173.954	-86.564	0.189	-0.057
-172.939	-147.246	-0.455	-0.038
-171.925	-162.183	0.125	0.006
-170.910	-73.326	-0.233	-0.084
-169.896	-200.000	-0.010	0.249
-168.881	-149.105	0.200	0.016
-167.866	762.114	0.046	0.122
-166.852	-175.573	0.394	-0.011
-165.837	-200.000	0.032	-0.211
-164.823	-48.629	0.139	0.066
-163.808	14.975	0.363	0.280
-162.793	44.420	0.039	0.036
-161.779	190.599	-0.226	0.333
-160.764	141.882	-0.157	0.205
-159.750	-166.706	0.250	-0.010
-158.735	100.506	0.200	0.228
-157.720	800.000	-0.082	-0.264
-156.706	187.023	0.211	-0.309
-155.691	165.343	-0.101	0.141
-154.677	272.952	0.088	0.153
-153.662	666.579	-0.086	0.217
-152.647	621.986	-0.037	0.091
-151.633	-142.388	0.152	-0.015
-150.618	-159.036	-0.271	-0.015
-149.604	-200.000	-0.013	0.141
-148.589	635.929	-0.040	0.100
-147.574	-112.745	-0.184	-0.036
-146.560	-169.217	0.171	-0.006
-145.545	-52.816	-0.136	-0.061
-144.531	110.031	0.269	-0.317
-143.516	-200.000	0.018	-0.103
-142.502	-100.697	-0.253	0.061
-141.487	-119.236	-0.340	0.058
-140.472	368.961	-0.064	0.128
-139.458	-46.253	0.127	-0.061
-138.443	-117.905	-0.175	0.031
-137.429	-179.016	-0.044	-0.001
-136.414	-76.470	0.023	0.008
-135.399	7.485	-0.409	-0.300
-134.385	683.393	-0.040	-0.103
-133.370	-28.901	-0.121	0.068
-132.356	536.277	-0.080	0.187
-131.341	657.257	0.069	-0.175
-130.326	-150.649	-0.161	0.012
-129.312	-149.195	0.333	0.026
-128.297	13.751	-0.158	-0.120
-127.283	-200.000	0.077	-0.331
-126.268	44.707	0.159	-0.143
-125.253	-22.117	-0.060	-0.036
-124.239	-43.885	0.159	-0.079
-123.224	-21.598	-0.245	-0.147
-122.210	32.581	-0.061	0.052
