DTS Sentinel unit serial number:	SN413079Multiplexer serial number:	ORYXHardware model number:	OX4-SRSoftware version number:	ORYX F/W v4.00 Oryx Data Collector v3.7.2.0data status	okinstallation	princeton_trtdifferential loss correction	single-endedforward channel	channel 4reverse channel	N/Adate	2019/09/12time	19:15:19forward acquisition time	15.00reverse acquisition time	0.00gamma	496.2192k internal	0.2308k external	0.2308temperature offset calibration	1.0142default loss term (dB/km)	0.3790temperature slope calibration	1.0000multiplexer offset coefficient	1.0000multiplexer slope coefficient	1.0000fibre end	0.00T internal ref (°C)	32.50T ext. ref 1 (°C)	3.20T ext. ref 2 (°C)	27.04length (m)	temperature (°C)	Stokes	anti-Stokes-747.200	800.000	-0.154	-0.649
-746.185	-200.000	0.024	-0.309
-745.171	382.454	-0.213	0.444
-744.156	202.902	-0.343	-0.538
-743.142	-200.000	-0.097	0.993
-742.127	223.384	-0.319	0.523
-741.112	-200.000	0.087	-0.425
-740.098	-200.000	-0.017	-0.731
-739.083	800.000	0.119	-0.451
-738.069	-67.104	0.263	0.105
-737.054	800.000	-0.144	0.517
-736.039	-92.921	-0.778	0.221
-735.025	-200.000	0.002	0.092
-734.010	-128.386	-0.629	-0.091
-732.996	19.347	-0.412	0.336
-731.981	-79.108	0.650	0.224
-730.966	58.293	0.524	0.522
-729.952	-76.610	-0.333	0.119
-728.937	207.717	-0.386	-0.611
-727.923	389.368	0.256	-0.539
-726.908	222.162	0.364	0.594
-725.894	82.979	0.067	0.074
-724.879	134.657	-0.422	-0.556
-723.864	-54.565	0.405	-0.186
-722.850	23.790	-0.332	-0.278
-721.835	800.000	0.127	0.401
-720.821	44.352	0.090	-0.084
-719.806	180.973	-0.332	-0.495
-718.791	-0.514	0.301	-0.217
-717.777	-200.000	0.091	-0.496
-716.762	49.649	-0.754	-0.721
-715.748	-71.568	-0.448	-0.170
-714.733	800.000	-0.145	0.549
-713.718	-88.275	0.322	0.098
-712.704	-133.204	-0.233	-0.030
-711.689	-79.239	-1.302	0.448
-710.675	-68.739	-0.150	-0.059
-709.660	-83.776	-0.203	0.066
-708.645	432.399	-0.064	-0.140
-707.631	-200.000	-0.007	-0.557
-706.616	-106.707	0.675	0.152
-705.602	39.835	0.724	0.659
-704.587	36.990	0.473	-0.425
-703.572	-200.000	-0.163	-1.051
-702.558	351.812	0.094	-0.190
-701.543	-42.841	0.679	-0.350
-700.529	527.951	-0.158	0.378
-699.514	-120.129	-0.595	0.103
-698.499	-150.785	0.865	-0.067
-697.485	-82.172	0.287	-0.095
-696.470	223.439	-0.349	0.571
-695.456	-121.067	-0.461	-0.078
-694.441	113.712	-0.608	0.749
-693.426	-61.968	0.269	0.114
-692.412	-168.151	-0.335	-0.013
-691.397	-42.867	-0.390	0.201
-690.383	233.334	0.530	-0.884
-689.368	38.162	0.084	-0.076
-688.354	214.786	0.227	-0.365
-687.339	-99.045	0.060	-0.015
-686.324	-11.825	0.699	-0.465
-685.310	75.605	-0.263	0.282
-684.295	800.000	-0.178	-0.692
-683.281	103.446	-0.325	0.386
-682.266	-39.122	-0.542	0.289
-681.251	283.285	0.197	-0.358
-680.237	-161.652	-0.091	0.005
-679.222	-13.273	-0.856	0.564
-678.208	271.398	0.091	-0.163
-677.193	-36.063	-0.953	0.522
-676.178	-70.595	0.245	-0.094
-675.164	-200.000	0.044	0.273
-674.149	800.000	0.180	0.668
-673.135	191.388	0.443	0.676
-672.120	-200.000	-0.009	0.593
-671.105	0.129	0.458	0.331
-670.091	157.205	-0.052	-0.072
-669.076	599.254	0.087	-0.219
-668.062	54.762	0.760	0.743
-667.047	800.000	0.145	-0.567
-666.032	-200.000	-0.061	0.482
-665.018	-200.000	-0.066	-0.870
-664.003	221.109	0.165	-0.269
-662.989	-200.000	-0.069	-0.333
-661.974	-200.000	0.005	-0.256
-660.959	-145.797	-1.087	-0.098
-659.945	-90.174	-0.568	0.167
-658.930	15.734	-0.184	-0.147
-657.916	-71.310	0.697	-0.265
-656.901	662.534	-0.142	0.371
-655.886	-200.000	0.014	-0.086
-654.872	-50.259	-0.276	0.132
-653.857	42.893	0.274	0.253
-652.843	-11.167	-0.227	-0.152
-651.828	26.640	0.583	-0.495
-650.814	-200.000	0.023	-0.309
-649.799	17.125	0.437	0.351
-648.784	120.134	-0.362	0.454
-647.770	-145.657	-0.511	-0.046
-646.755	742.852	-0.204	0.556
-645.741	-148.924	-1.202	-0.098
-644.726	60.346	-0.060	-0.060
-643.711	79.031	0.440	0.477
-642.697	474.140	0.189	0.431
-641.682	800.000	-0.206	0.736
-640.668	-200.000	-0.021	-0.457
-639.653	-121.683	0.510	0.085
-638.638	-72.490	0.481	-0.180
-637.624	-70.147	0.577	0.222
-636.609	-12.076	0.316	0.209
-635.595	-115.235	-0.493	-0.094
-634.580	92.405	0.403	0.460
-633.565	-70.949	0.205	-0.078
-632.551	105.755	0.491	0.588
-631.536	-94.113	-0.715	-0.198
-630.522	-70.380	-0.651	0.250
-629.507	800.000	-0.308	-0.910
-628.492	-84.723	0.661	-0.210
-627.478	478.779	-0.234	-0.536
-626.463	680.265	-0.060	-0.157
-625.449	-144.493	0.278	-0.026
-624.434	800.000	-0.159	-0.545
-623.419	-48.413	-0.930	0.453
-622.405	-5.607	0.670	0.465
-621.390	-75.529	-0.699	-0.251
-620.376	-3.957	-0.799	0.561
-619.361	10.495	-0.385	0.297
-618.346	464.992	0.538	-1.218
-617.332	-116.629	0.501	-0.093
-616.317	-200.000	0.121	0.956
-615.303	149.378	0.285	-0.390
-614.288	-127.465	0.105	0.015
-613.273	-109.655	0.693	-0.148
-612.259	95.308	-0.151	-0.174
-611.244	22.581	-0.126	-0.104
-610.230	276.858	0.363	-0.652
-609.215	322.699	-0.204	-0.392
-608.201	-200.000	-0.417	0.002
-607.186	149.746	0.205	0.281
-606.171	-39.883	0.355	0.188
-605.157	-0.384	0.102	-0.073
-604.142	524.612	0.079	0.188
-603.128	24.543	0.782	-0.654
-602.113	-28.312	0.500	-0.292
-601.098	800.000	0.301	-1.119
-600.084	-200.000	-0.043	-0.277
-599.069	-200.000	0.008	0.487
-598.055	-66.554	0.904	-0.363
-597.040	-93.649	0.441	-0.123
-596.025	-174.142	0.452	-0.013
-595.011	800.000	-0.196	-0.794
-593.996	427.205	0.156	0.341
-592.982	50.990	0.451	0.432
-591.967	-30.894	-0.679	0.387
-590.952	-78.019	0.070	0.024
-589.938	-146.012	0.443	-0.040
-588.923	54.869	0.315	0.307
-587.909	534.826	-0.426	1.020
-586.894	-139.854	-0.367	-0.039
-585.879	800.000	0.310	1.307
-584.865	9.932	-0.503	-0.386
-583.850	-79.670	0.269	0.092
-582.836	-109.970	-0.368	-0.078
-581.821	-130.061	0.266	0.037
-580.806	-77.034	0.532	0.187
-579.792	800.000	0.075	-0.244
-578.777	-200.000	-0.008	-0.116
-577.763	-58.973	-0.819	-0.357
-576.748	-25.844	0.988	0.588
-575.733	115.558	-0.268	0.331
-574.719	-51.990	0.259	0.122
-573.704	119.647	0.600	0.751
-572.690	75.703	0.025	-0.026
-571.675	-11.202	0.481	0.320
-570.661	-92.414	0.247	0.070
-569.646	-200.000	-0.055	-0.384
-568.631	-169.231	-0.639	-0.024
-567.617	149.404	0.463	-0.632
-566.602	800.000	-0.318	-1.402
-565.588	-200.000	-0.024	-0.205
-564.573	-197.798	0.686	0.004
-563.558	-114.420	-0.187	-0.036
-562.544	-119.449	-1.086	-0.190
-561.529	-82.458	0.257	-0.084
-560.515	-52.528	-0.481	-0.224
-559.500	-200.000	-0.125	-0.663
-558.485	45.489	0.281	-0.261
-557.471	151.947	0.333	0.458
-556.456	-20.037	0.247	0.154
-555.442	-9.301	0.343	-0.231
-554.427	258.149	-0.316	-0.550
-553.412	19.324	0.369	0.299
-552.398	-179.368	0.412	0.009
-551.383	111.686	-0.162	0.197
-550.369	64.704	0.249	0.253
-549.354	-200.000	0.114	0.529
-548.339	160.474	-0.098	0.138
-547.325	-113.385	-0.623	0.123
-546.310	-200.000	0.016	-0.602
-545.296	-110.822	0.478	-0.099
-544.281	-49.142	0.097	-0.047
-543.266	108.108	0.391	0.471
-542.252	43.743	0.601	0.555
-541.237	30.445	-0.325	-0.280
-540.223	277.473	0.215	-0.386
-539.208	137.475	-0.388	-0.512
-538.193	-200.000	0.021	-0.433
-537.179	800.000	0.102	0.391
-536.164	-200.000	0.032	-0.203
-535.150	-131.856	-0.496	0.065
-534.135	-200.000	0.009	-0.064
-533.121	-150.132	0.775	0.061
-532.106	-117.304	-0.545	-0.100
-531.091	-200.000	0.098	0.503
-530.077	-173.738	-0.527	0.016
-529.062	520.304	-0.075	-0.177
-528.048	113.215	-0.568	0.694
-527.033	-200.000	0.085	0.418
-526.018	315.328	-0.453	0.860
-525.004	-114.247	-0.941	-0.183
-523.989	-5.544	-0.498	0.344
-522.975	98.543	0.144	0.167
-521.960	800.000	-0.100	0.301
-520.945	648.179	0.013	0.033
-519.931	-200.000	-0.011	-0.120
-518.916	-200.000	-0.257	-1.143
-517.902	-2.716	0.023	0.016
-516.887	-71.461	-0.222	0.084
-515.872	18.439	-0.494	0.398
-514.858	-90.059	0.436	0.128
-513.843	265.065	-0.240	0.421
-512.829	-135.598	0.681	-0.081
-511.814	800.000	-0.336	1.048
-510.799	232.030	-0.527	0.871
-509.785	-57.003	0.755	-0.335
-508.770	-200.000	0.136	-0.681
-507.756	22.696	-0.373	-0.307
-506.741	59.990	0.198	0.197
-505.726	-200.000	0.126	-0.573
-504.712	-28.424	0.395	-0.229
-503.697	59.938	-0.317	-0.315
-502.683	350.060	0.195	0.387
-501.668	33.695	0.360	-0.315
-500.653	152.452	-0.757	-1.040
-499.639	260.419	-0.405	-0.705
-498.624	-12.935	-0.424	-0.278
-497.610	707.546	-0.121	-0.321
-496.595	-6.476	-0.639	-0.438
-495.581	-15.077	0.621	-0.400
-494.566	-142.157	-0.542	-0.054
-493.551	105.354	0.207	0.247
-492.537	-89.953	0.194	-0.057
-491.522	-86.897	0.661	0.203
-490.508	526.204	0.343	0.813
-489.493	-200.000	0.014	-0.384
-488.478	-200.000	0.034	-0.465
-487.464	-200.000	-0.091	1.084
-486.449	81.618	-0.354	0.386
-485.435	48.878	-0.338	0.319
-484.420	-39.167	-0.349	-0.185
-483.405	97.649	0.412	0.477
-482.391	-200.000	0.057	0.981
-481.376	800.000	-0.102	0.301
-480.362	-77.238	-0.444	0.156
-479.347	-200.000	-0.014	-0.327
-478.332	-45.244	0.449	0.224
-477.318	-200.000	0.085	0.818
-476.303	-187.457	-0.887	0.012
-475.289	800.000	-0.129	-0.536
-474.274	-48.859	-0.622	-0.300
-473.259	-79.725	0.627	0.213
-472.245	8.012	-0.721	0.544
-471.230	571.731	0.152	0.371
-470.216	243.109	0.339	0.571
-469.201	-127.762	-0.748	-0.109
-468.186	59.861	0.451	0.448
-467.172	53.377	-0.573	0.553
-466.157	0.038	0.369	-0.264
-465.143	-113.907	-0.422	-0.082
-464.128	43.836	-0.532	0.489
-463.113	41.842	0.284	0.259
-462.099	800.000	0.224	-0.808
-461.084	152.683	0.180	-0.248
-460.070	146.089	0.460	0.620
-459.055	-55.890	0.739	-0.331
-458.040	-124.451	0.718	-0.112
-457.026	-67.314	-0.711	-0.281
-456.011	-200.000	-0.021	-0.613
-454.997	33.925	0.429	-0.376
-453.982	100.796	0.252	-0.294
-452.968	-25.027	-0.408	0.243
-451.953	-200.000	0.024	-0.672
-450.938	-49.794	-0.194	0.093
-449.924	-169.594	-0.823	-0.030
-448.909	135.296	0.236	0.308
-447.895	-69.001	0.508	0.197
-446.880	-99.141	-1.083	0.275
-445.865	-200.000	-0.032	-0.415
-444.851	-10.862	-0.262	-0.174
-443.836	800.000	-0.166	-0.600
-442.822	73.276	-0.212	0.223
-441.807	-63.014	0.576	-0.239
-440.792	-104.784	-0.184	0.043
-439.778	-110.503	0.924	-0.192
-438.763	13.858	0.407	-0.318
-437.749	-200.000	-0.082	-0.472
-436.734	464.492	-0.240	0.539
-435.719	-43.461	0.661	0.336
-434.705	83.517	0.349	-0.382
-433.690	800.000	0.286	-1.050
-432.676	-92.670	-0.236	-0.067
-431.661	299.862	-0.133	0.245
-430.646	482.457	-0.192	-0.438
-429.632	-200.000	-0.008	0.873
-428.617	800.000	-0.332	0.925
-427.603	55.034	-0.462	-0.448
-426.588	179.133	0.150	-0.221
-425.573	800.000	-0.067	-0.189
-424.559	-200.000	-0.099	-0.511
-423.544	-79.649	-0.665	0.225
-422.530	-200.000	-0.010	-0.870
-421.515	-68.460	0.630	-0.245
-420.500	-18.596	-0.391	0.245
-419.486	25.211	0.379	0.316
-418.471	-80.062	0.354	0.119
-417.457	90.454	0.453	-0.508
-416.442	209.365	0.180	-0.284
-415.428	-34.941	0.651	-0.356
-414.413	-6.969	-0.241	-0.164
-413.398	800.000	-0.076	-0.263
-412.384	800.000	-0.101	-0.308
-411.369	-29.198	-0.369	0.212
-410.355	-200.000	-0.055	-0.312
-409.340	-92.624	-0.366	-0.103
-408.325	-52.405	0.982	0.456
-407.311	-165.756	-0.234	-0.010
-406.296	-49.398	-0.242	0.116
-405.282	800.000	-0.146	-0.432
-404.267	63.239	0.218	0.219
-403.252	-200.000	-0.018	-0.364
-402.238	-48.611	-0.246	-0.118
-401.223	109.051	0.256	-0.307
-400.209	-145.989	-0.692	0.061
-399.194	214.349	0.289	-0.459
-398.179	800.000	0.205	-0.807
-397.165	-200.000	0.081	-0.516
-396.150	-23.849	-0.143	-0.086
-395.136	-10.147	-0.539	-0.359
-394.121	-69.507	0.847	-0.325
-393.106	726.905	-0.242	-0.646
-392.092	-200.000	0.129	1.093
-391.077	181.785	-0.256	0.378
-390.063	-95.895	0.368	0.098
-389.048	-42.214	-0.367	0.188
-388.033	-102.852	1.163	0.277
-387.019	-86.433	-0.082	-0.025
-386.004	-128.783	-0.668	-0.094
-384.990	11.970	0.954	-0.735
-383.975	-200.000	-0.080	-0.455
-382.960	-16.315	0.706	-0.449
-381.946	-82.208	-0.783	-0.256
-380.931	-200.000	0.013	0.453
-379.917	-122.497	-0.440	-0.072
-378.902	-18.241	0.761	-0.477
-377.888	73.479	0.331	0.347
-376.873	106.419	-0.628	0.746
-375.858	177.054	0.173	-0.252
-374.844	-200.000	0.050	0.583
-373.829	-200.000	0.050	0.624
-372.815	101.054	0.204	-0.238
-371.800	-4.675	0.042	-0.029
-370.785	-90.864	-0.895	-0.258
-369.771	71.078	-0.177	0.184
-368.756	184.887	-0.532	0.790
-367.742	357.258	-0.439	-0.877
-366.727	28.293	-0.218	0.185
-365.712	-79.081	0.543	0.185
-364.698	-25.960	-0.812	-0.479
-363.683	1.628	-0.973	-0.701
-362.669	8.759	0.467	-0.352
-361.654	-12.176	-0.530	0.347
-360.639	-84.876	-0.790	-0.248
-359.625	42.802	0.720	-0.657
-358.610	8.008	-0.269	-0.202
-357.596	-105.361	-0.297	0.068
-356.581	-77.882	0.045	-0.016
-355.566	82.900	0.450	-0.490
-354.552	19.691	-0.914	-0.737
-353.537	61.026	-0.394	0.391
-352.523	40.520	-0.244	-0.220
-351.508	800.000	0.187	0.659
-350.493	-36.256	-0.938	0.506
-349.479	639.526	0.375	0.956
-348.464	141.620	0.330	0.438
-347.450	-79.442	-0.689	0.233
-346.435	60.422	0.651	0.645
-345.420	217.522	0.262	-0.417
-344.406	19.754	-0.540	0.435
-343.391	800.000	0.089	0.330
-342.377	-200.000	-0.041	-0.405
-341.362	-94.115	-0.328	-0.090
-340.348	-35.110	-0.280	0.153
-339.333	-4.037	0.282	-0.196
-338.318	485.934	0.168	0.384
-337.304	119.139	0.361	-0.446
-336.289	-161.462	1.021	0.053
-335.275	-103.628	1.163	0.273
-334.260	114.511	0.136	-0.165
-333.245	-62.803	-0.752	0.311
-332.231	-59.458	0.672	0.289
-331.216	-153.101	0.743	0.052
-330.202	19.969	-0.976	-0.787
-329.187	800.000	0.094	0.303
-328.172	-65.094	-0.413	0.167
-327.158	455.116	0.168	0.373
-326.143	201.309	-0.185	0.284
-325.129	76.286	-0.307	-0.325
-324.114	424.273	0.298	-0.642
-323.099	49.897	0.088	0.083
-322.085	20.748	0.097	-0.078
-321.070	234.726	0.486	-0.801
-320.056	-168.095	0.435	0.017
-319.041	1.586	-0.465	-0.335
-318.026	325.688	0.317	-0.607
-317.012	-200.000	-0.033	0.823
-315.997	800.000	0.105	0.432
-314.983	28.970	-0.165	-0.139
-313.968	139.764	-0.200	-0.264
-312.953	274.804	0.221	0.392
-311.939	-56.122	-0.614	-0.273
-310.924	99.246	0.345	-0.399
-309.910	182.024	-0.148	0.218
-308.895	-200.000	0.000	-0.199
-307.880	-117.786	1.256	0.225
-306.866	-65.244	-0.392	0.158
-305.851	-81.829	0.331	0.108
-304.837	-200.000	0.055	0.339
-303.822	-71.424	-0.317	0.118
-302.807	-200.000	-0.260	-1.149
-301.793	-11.681	-0.416	-0.273
-300.778	232.461	0.185	0.303
-299.764	800.000	0.245	0.693
-298.749	52.956	-0.207	0.198
-297.735	-200.000	-0.093	-0.436
-296.720	800.000	0.249	0.725
-295.705	133.846	0.470	0.607
-294.691	-200.000	-0.003	0.840
-293.676	-50.280	0.532	0.251
-292.662	-200.000	0.091	0.468
-291.647	562.644	-0.173	-0.418
-290.632	-63.840	-0.725	0.296
-289.618	209.771	-0.068	0.107
-288.603	-161.693	-1.170	-0.060
-287.589	490.063	0.190	-0.434
-286.574	-200.000	-0.048	-0.280
-285.559	-200.000	-0.040	0.384
-284.545	308.759	0.202	0.377
-283.530	-200.000	0.036	0.273
-282.516	-200.000	-0.061	0.566
-281.501	-200.000	0.013	-0.652
-280.486	-66.457	0.261	0.103
-279.472	134.218	0.198	-0.256
-278.457	-200.000	0.008	-0.428
-277.443	800.000	0.072	0.280
-276.428	-22.491	-0.122	-0.074
-275.413	250.463	0.461	0.782
-274.399	-160.984	0.930	0.049
-273.384	800.000	0.135	-0.573
-272.370	800.000	-0.409	-1.146
-271.355	-51.298	-1.008	-0.471
-270.340	800.000	-0.109	-0.311
-269.326	-5.601	-0.529	0.362
-268.311	39.018	-0.415	-0.370
-267.297	9.573	0.206	0.156
-266.282	800.000	0.121	-0.409
-265.267	-200.000	-0.033	-0.795
-264.253	41.698	0.761	-0.688
-263.238	-65.990	0.643	0.256
-262.224	210.931	0.343	0.537
-261.209	-161.395	-0.700	0.036
-260.195	455.047	0.137	-0.304
-259.180	-137.762	-0.502	-0.056
-258.165	88.776	0.556	-0.617
-257.151	77.105	-0.505	-0.536
-256.136	47.198	-0.272	0.252
-255.122	284.334	0.372	0.668
-254.107	349.219	-0.220	0.432
-253.092	-50.131	-0.306	-0.144
-252.078	48.707	0.548	0.512
-251.063	-73.914	-1.019	0.369
-250.049	-200.000	0.030	0.270
-249.034	113.271	-0.050	0.060
-248.019	-200.000	0.033	0.466
-247.005	81.085	-0.225	0.242
-245.990	35.803	-0.230	-0.202
-244.976	-116.311	0.487	0.090
-243.961	-83.330	-0.443	-0.142
-242.946	427.319	0.294	0.632
-241.932	-161.642	0.930	-0.047
-240.917	-114.153	-0.445	0.086
-239.903	-155.670	1.106	-0.071
-238.888	213.782	-0.418	0.659
-237.873	-35.892	0.672	0.362
-236.859	-200.000	0.064	-0.330
-235.844	73.822	-0.206	0.216
-234.830	28.430	-1.115	-0.939
-233.815	181.763	-0.223	0.327
-232.800	-142.584	-0.277	0.027
-231.786	-200.000	0.406	-0.002
-230.771	23.996	0.366	0.301
-229.757	72.841	0.620	-0.645
-228.742	-69.386	-0.771	0.295
-227.727	346.987	-0.479	0.940
-226.713	-97.740	0.008	-0.002
-225.698	35.399	-0.102	-0.089
-224.684	262.185	0.282	-0.487
-223.669	-6.561	0.528	-0.358
-222.655	-53.793	-0.468	0.213
-221.640	408.210	-0.243	-0.513
-220.625	-200.000	0.176	-0.879
-219.611	115.578	0.549	0.668
-218.596	-200.000	0.068	-0.462
-217.582	29.295	-0.432	-0.365
-216.567	169.503	-0.196	0.278
-215.552	-65.800	0.288	-0.115
-214.538	448.300	0.262	-0.574
-213.523	-140.801	0.786	-0.081
-212.509	-73.061	0.540	-0.197
-211.494	5.486	-0.436	-0.320
-210.479	122.421	0.399	0.496
-209.465	241.351	0.477	0.793
-208.450	441.032	0.276	-0.602
-207.436	179.657	-0.273	-0.398
-206.421	31.836	-0.211	0.181
-205.406	-44.619	-0.347	-0.172
-204.392	-200.000	0.005	-0.347
-203.377	-148.775	0.037	0.003
-202.363	-200.000	-0.834	0.002
-201.348	426.392	-0.439	0.942
-200.333	124.678	0.056	0.070
-199.319	646.070	-0.289	-0.734
-198.304	-200.000	-0.016	0.944
-197.290	236.153	-0.325	-0.536
-196.275	800.000	0.196	0.815
-195.260	233.040	-0.340	-0.556
-194.246	-22.368	0.587	0.354
-193.231	-138.538	0.851	-0.093
-192.217	-6.217	0.155	0.105
-191.202	-200.000	0.066	0.411
-190.187	327.164	0.191	0.365
-189.173	-200.000	-0.005	-0.311
-188.158	-52.376	-0.365	0.168
-187.144	-136.414	0.157	0.018
-186.129	-200.000	0.047	0.245
-185.114	629.120	-0.132	0.331
-184.100	-200.000	0.076	1.034
-183.085	15.334	-0.420	0.327
-182.071	-63.135	0.683	0.280
-181.056	800.000	0.113	-0.448
-180.042	540.714	0.436	-1.031
-179.027	155.503	-0.355	-0.486
-178.012	-106.987	-0.588	0.129
-176.998	-200.000	-0.016	0.592
-175.983	-8.166	-0.675	0.452
-174.969	-130.192	0.608	-0.082
-173.954	-200.000	0.081	-0.778
-172.939	309.474	-0.292	0.543
-171.925	-37.508	0.342	-0.182
-170.910	-87.774	-1.074	-0.322
-169.896	86.557	0.310	0.340
-168.881	-92.267	-0.417	-0.117
-167.866	64.515	0.168	-0.168
-166.852	-104.714	-0.687	0.157
-165.837	800.000	0.154	-0.469
-164.823	549.336	0.292	0.695
-163.808	-79.614	-0.955	0.320
-162.793	-102.311	0.862	-0.206
-161.779	800.000	0.288	0.801
-160.764	140.278	0.211	-0.277
-159.750	36.523	-0.352	-0.308
-158.735	111.147	-0.298	-0.356
-157.720	800.000	0.218	-0.815
-156.706	800.000	0.404	1.396
-155.691	-139.639	-0.545	-0.058
-154.677	800.000	0.132	0.368
-153.662	28.429	0.648	0.544
-152.647	-200.000	-0.058	0.397
-151.633	69.022	-0.496	-0.506
-150.618	-131.895	-0.255	0.033
-149.604	-37.643	0.291	0.154
-148.589	711.970	0.043	0.113
-147.574	211.653	0.241	-0.377
-146.560	37.840	0.383	-0.338
-145.545	-146.642	0.722	-0.062
-144.531	800.000	-0.090	0.336
-143.516	-79.895	-1.254	0.418
-142.502	52.864	0.703	0.667
-141.487	-113.654	-1.029	0.199
-140.472	-64.795	0.442	0.178
-139.458	-167.968	0.135	-0.005
-138.443	392.242	0.313	-0.645
-137.429	-200.000	0.017	-0.242
-136.414	-11.137	0.255	-0.167
-135.399	-16.187	-0.820	-0.517
-134.385	-54.110	0.397	-0.179
-133.370	268.002	-0.279	0.485
-132.356	379.513	-0.305	-0.621
-131.341	9.453	0.134	-0.101
-130.326	-152.060	-0.926	-0.067
-129.312	-24.173	0.278	0.165
-128.297	-200.000	0.103	1.007
-127.283	-125.645	-0.470	-0.071
-126.268	-113.307	-0.661	-0.129
-125.253	565.793	0.157	-0.379
-124.239	-184.720	0.692	-0.011
-123.224	-132.474	-0.570	-0.073
-122.210	800.000	0.165	-0.490
-121.195	55.989	-0.131	0.126
-120.180	-200.000	-0.002	0.193
