DTS Sentinel unit serial number:	SN413079Multiplexer serial number:	ORYXHardware model number:	OX4-SRSoftware version number:	ORYX F/W v4.00 Oryx Data Collector v3.7.2.0data status	okinstallation	princeton_trtdifferential loss correction	single-endedforward channel	channel 4reverse channel	N/Adate	2019/09/14time	08:37:35forward acquisition time	60.00reverse acquisition time	0.00gamma	496.2192k internal	0.2314k external	0.2314temperature offset calibration	1.0135default loss term (dB/km)	0.3790temperature slope calibration	1.0000multiplexer offset coefficient	1.0000multiplexer slope coefficient	1.0000fibre end	0.00T internal ref (°C)	28.78T ext. ref 1 (°C)	3.66T ext. ref 2 (°C)	26.24length (m)	temperature (°C)	Stokes	anti-Stokes-747.200	-106.345	-0.181	0.041
-746.185	305.168	-0.191	0.360
-745.171	-157.814	0.169	-0.010
-744.156	146.631	0.021	0.028
-743.142	-200.000	-0.044	0.224
-742.127	346.166	0.137	0.273
-741.112	74.779	-0.141	-0.150
-740.098	306.813	-0.228	0.431
-739.083	159.074	0.073	-0.103
-738.069	-200.000	-0.048	0.434
-737.054	329.799	0.023	0.044
-736.039	241.973	-0.191	-0.323
-735.025	-107.683	-0.252	0.056
-734.010	800.000	0.084	-0.270
-732.996	-127.284	-0.289	0.043
-731.981	237.670	0.210	-0.353
-730.966	-173.440	0.158	-0.005
-729.952	-31.189	-0.156	0.089
-728.937	-79.219	-0.244	-0.084
-727.923	800.000	-0.051	0.172
-726.908	36.525	-0.205	-0.183
-725.894	789.014	-0.095	-0.263
-724.879	-200.000	0.016	-0.073
-723.864	-113.735	-0.393	-0.078
-722.850	-124.701	-0.240	0.038
-721.835	57.823	0.126	0.125
-720.821	-15.991	-0.217	0.140
-719.806	-200.000	-0.259	0.001
-718.791	-128.983	-0.059	-0.008
-717.777	-135.133	0.134	0.016
-716.762	-123.069	-0.105	-0.017
-715.748	144.777	0.110	-0.149
-714.733	742.313	0.109	0.296
-713.718	-200.000	0.040	-0.260
-712.704	113.848	0.121	-0.149
-711.689	-200.000	-0.020	0.089
-710.675	-85.921	0.141	0.044
-709.660	-11.732	0.190	-0.126
-708.645	287.475	-0.154	-0.281
-707.631	-122.539	-0.214	0.035
-706.616	-38.015	0.196	-0.105
-705.602	800.000	-0.029	-0.118
-704.587	209.856	-0.200	-0.318
-703.572	-37.699	0.074	0.040
-702.558	58.319	0.215	0.213
-701.543	240.929	-0.216	-0.365
-700.529	-45.569	-0.084	-0.042
-699.514	177.347	0.116	0.170
-698.499	-74.916	-0.135	0.049
-697.485	-182.921	-0.211	0.004
-696.470	-104.016	-0.230	0.054
-695.456	-154.193	0.247	0.017
-694.441	145.569	0.122	-0.166
-693.426	50.401	0.079	-0.076
-692.412	800.000	0.071	-0.249
-691.397	-123.107	-0.022	0.004
-690.383	-200.000	-0.012	-0.385
-689.368	62.665	-0.225	-0.227
-688.354	-1.502	0.186	-0.133
-687.339	-6.016	0.096	-0.067
-686.324	-76.873	-0.215	-0.076
-685.310	-78.830	-0.313	-0.108
-684.295	-200.000	0.011	-0.136
-683.281	33.390	-0.189	-0.166
-682.266	14.689	0.104	0.082
-681.251	150.660	-0.053	-0.073
-680.237	-200.000	0.014	0.109
-679.222	29.912	0.059	-0.051
-678.208	-119.289	-0.484	0.085
-677.193	592.456	-0.100	-0.250
-676.178	56.446	-0.277	-0.273
-675.164	-37.860	0.409	-0.220
-674.149	-152.418	-0.498	0.036
-673.135	-200.000	-0.016	-0.429
-672.120	83.124	-0.123	-0.136
-671.105	800.000	0.054	-0.155
-670.091	22.582	0.168	-0.139
-669.076	-200.000	0.036	-0.250
-668.062	336.277	-0.037	-0.072
-667.047	48.563	-0.409	-0.387
-666.032	121.069	-0.173	0.217
-665.018	110.704	-0.061	-0.075
-664.003	61.387	-0.252	0.253
-662.989	-20.803	-0.129	0.080
-661.974	383.872	-0.093	-0.193
-660.959	-200.000	0.034	-0.285
-659.945	-200.000	-0.078	-0.418
-658.930	-158.685	-0.490	0.028
-657.916	-200.000	-0.007	-0.142
-656.901	412.956	0.085	-0.182
-655.886	140.289	-0.115	0.154
-654.872	-57.130	-0.182	-0.081
-653.857	-16.816	-0.320	0.204
-652.843	-112.690	-0.515	-0.103
-651.828	800.000	0.036	-0.147
-650.814	-52.819	0.322	0.150
-649.799	67.377	0.155	0.160
-648.784	-200.000	-0.005	-0.044
-647.770	228.076	-0.099	0.163
-646.755	-200.000	0.004	-0.042
-645.741	-50.500	-0.169	-0.081
-644.726	-119.104	0.449	0.079
-643.711	0.003	-0.115	0.083
-642.697	306.661	0.046	-0.087
-641.682	501.431	-0.074	-0.174
-640.668	112.885	-0.251	-0.307
-639.653	478.968	0.055	-0.125
-638.638	24.317	0.138	0.115
-637.624	60.161	0.116	-0.116
-636.609	-129.468	0.194	0.027
-635.595	-42.422	0.280	0.144
-634.580	675.098	-0.049	0.128
-633.565	-13.223	0.215	-0.141
-632.551	166.727	0.085	0.122
-631.536	-180.842	-0.157	-0.003
-630.522	55.609	-0.130	-0.127
-629.507	119.602	-0.067	-0.084
-628.492	-128.298	-0.204	-0.029
-627.478	523.643	-0.078	-0.185
-626.463	14.369	0.211	-0.166
-625.449	-200.000	-0.055	0.243
-624.434	-200.000	0.050	-0.325
-623.419	-200.000	0.041	-0.186
-622.405	-17.444	-0.253	0.161
-621.390	-112.483	-0.111	0.022
-620.376	274.318	-0.115	0.206
-619.361	40.877	-0.155	0.141
-618.346	-77.687	-0.106	0.037
-617.332	243.674	-0.080	0.135
-616.317	167.114	-0.086	-0.123
-615.303	-152.297	-0.041	0.003
-614.288	-50.806	-0.113	0.054
-613.273	800.000	-0.095	-0.416
-612.259	-102.990	-0.098	0.024
-611.244	73.168	0.056	-0.059
-610.230	-200.000	0.008	-0.332
-609.215	171.602	-0.188	0.272
-608.201	-200.000	-0.341	0.001
-607.186	-127.297	-0.309	-0.045
-606.171	-46.811	-0.272	-0.134
-605.157	49.048	-0.162	0.153
-604.142	800.000	-0.038	0.125
-603.128	-52.421	0.103	0.048
-602.113	-9.743	0.120	-0.080
-601.098	87.158	-0.240	-0.268
-600.084	121.451	0.137	-0.172
-599.069	188.834	-0.126	0.191
-598.055	-200.000	-0.029	0.233
-597.040	0.751	0.424	0.306
-596.025	91.081	0.168	0.190
-595.011	55.042	-0.115	-0.112
-593.996	-67.559	-0.253	-0.100
-592.982	-87.968	-0.180	-0.055
-591.967	-129.741	0.037	-0.005
-590.952	-33.224	-0.170	-0.095
-589.938	425.323	0.095	0.206
-588.923	571.822	-0.125	-0.308
-587.909	-108.840	-0.206	0.044
-586.894	-200.000	0.052	0.465
-585.879	-126.103	0.369	0.056
-584.865	-17.195	0.335	-0.213
-583.850	-200.000	-0.020	0.296
-582.836	67.245	-0.082	0.084
-581.821	-71.746	-0.187	-0.070
-580.806	449.565	-0.138	0.306
-579.792	-155.987	-0.234	0.015
-578.777	268.971	0.206	0.364
-577.763	-200.000	-0.007	0.331
-576.748	-127.723	0.193	0.028
-575.733	-96.129	-0.192	-0.051
-574.719	277.357	0.088	-0.159
-573.704	87.927	-0.070	0.078
-572.690	-82.723	0.092	-0.030
-571.675	-85.031	-0.154	0.049
-570.661	82.876	-0.152	-0.167
-569.646	-83.560	0.197	-0.063
-568.631	510.560	-0.068	0.158
-567.617	114.859	-0.157	-0.193
-566.602	-200.000	-0.001	-0.299
-565.588	-161.642	-0.127	-0.007
-564.573	571.606	0.082	0.201
-563.558	-73.004	0.264	0.098
-562.544	-161.924	-0.248	0.013
-561.529	800.000	-0.119	0.403
-560.515	-200.000	-0.027	0.223
-559.500	-200.000	0.016	-0.238
-558.485	-200.000	0.018	-0.109
-557.471	-70.127	0.385	-0.147
-556.456	2.373	-0.109	0.079
-555.442	-100.299	0.019	0.005
-554.427	800.000	-0.080	0.232
-553.412	-50.696	-0.151	-0.072
-552.398	59.326	-0.109	-0.108
-551.383	800.000	-0.071	0.265
-550.369	-7.358	-0.109	-0.074
-549.354	-93.465	-0.486	-0.135
-548.339	-3.409	0.323	0.226
-547.325	43.300	-0.149	-0.137
-546.310	28.386	-0.139	-0.118
-545.296	-200.000	0.017	-0.198
-544.281	67.023	-0.098	-0.101
-543.266	137.604	0.362	-0.477
-542.252	90.702	-0.047	0.053
-541.237	-11.969	0.041	-0.027
-540.223	268.431	0.044	0.078
-539.208	115.712	0.137	0.169
-538.193	508.896	0.243	0.568
-537.179	110.128	0.275	0.332
-536.164	559.119	0.126	-0.307
-535.150	-157.399	-0.080	0.005
-534.135	-65.202	-0.115	0.047
-533.121	-109.984	-0.415	-0.087
-532.106	6.557	0.119	-0.089
-531.091	-9.615	0.161	-0.108
-530.077	-1.447	-0.128	0.091
-529.062	702.806	-0.101	-0.268
-528.048	-66.589	-0.105	0.042
-527.033	-74.169	-0.205	0.075
-526.018	154.418	0.043	0.060
-525.004	-84.948	0.366	-0.115
-523.989	3.839	-0.126	-0.093
-522.975	-127.832	0.308	-0.045
-521.960	384.850	-0.166	-0.344
-520.945	-39.479	0.058	-0.031
-519.931	30.424	-0.291	-0.250
-518.916	11.986	-0.354	0.274
-517.902	101.414	-0.168	-0.197
-516.887	164.045	-0.101	0.143
-515.872	800.000	0.027	-0.077
-514.858	800.000	-0.028	0.102
-513.843	-200.000	0.016	-0.152
-512.829	-63.735	0.452	-0.186
-511.814	-200.000	-0.063	0.295
-510.799	-108.748	-0.053	-0.011
-509.785	64.396	0.249	0.252
-508.770	-61.355	0.280	0.118
-507.756	-126.000	-0.152	-0.023
-506.741	-161.569	-0.160	0.008
-505.726	800.000	0.068	-0.204
-504.712	-104.902	-0.202	0.047
-503.697	-200.000	0.018	0.294
-502.683	-52.191	0.150	-0.070
-501.668	346.883	-0.067	-0.132
-500.653	-166.335	-0.154	0.006
-499.639	186.403	-0.105	0.157
-498.624	-200.000	-0.028	0.387
-497.610	543.349	-0.086	0.206
-496.595	306.997	0.120	0.225
-495.581	222.096	0.036	0.059
-494.566	48.442	0.359	0.338
-493.551	-200.000	0.015	0.102
-492.537	-20.414	0.103	-0.063
-491.522	-200.000	0.035	-0.187
-490.508	277.222	0.058	-0.103
-489.493	-30.085	0.103	0.059
-488.478	-39.111	0.190	0.100
-487.464	-81.650	0.314	-0.103
-486.449	-86.409	0.175	0.054
-485.435	-200.000	0.018	-0.174
-484.420	-153.543	-0.354	0.025
-483.405	0.859	-0.179	0.129
-482.391	-5.353	-0.163	-0.113
-481.376	800.000	0.060	0.169
-480.362	145.502	0.075	-0.101
-479.347	-24.790	0.098	0.058
-478.332	-5.065	-0.025	-0.017
-477.318	307.367	0.015	-0.028
-476.303	-1.438	0.156	0.110
-475.289	186.172	-0.251	0.375
-474.274	6.560	-0.301	-0.225
-473.259	-50.626	0.180	0.085
-472.245	800.000	0.059	-0.211
-471.230	-200.000	0.080	-0.401
-470.216	-200.000	-0.011	0.261
-469.201	800.000	-0.045	0.124
-468.186	-79.793	0.245	-0.083
-467.172	664.953	-0.063	-0.163
-466.157	571.047	0.042	-0.103
-465.143	800.000	-0.029	0.097
-464.128	-133.860	0.100	0.012
-463.113	61.881	0.114	0.114
-462.099	-200.000	-0.001	-0.354
-461.084	40.998	0.180	0.163
-460.070	87.917	0.071	-0.079
-459.055	13.709	-0.195	-0.152
-458.040	-139.049	-0.510	0.055
-457.026	449.578	-0.078	-0.172
-456.011	800.000	-0.082	-0.306
-454.997	325.844	-0.052	0.100
-453.982	-48.124	0.088	0.043
-452.968	358.797	-0.011	0.023
-451.953	4.877	0.261	-0.192
-450.938	-86.832	-0.333	-0.102
-449.924	38.838	-0.056	-0.050
-448.909	304.063	-0.098	0.181
-447.895	4.929	0.187	-0.138
-446.880	-200.000	-0.018	-0.156
-445.865	-200.000	0.007	-0.311
-444.851	262.403	0.130	0.226
-443.836	800.000	0.091	-0.335
-442.822	-45.188	0.094	-0.047
-441.807	-4.454	0.337	-0.233
-440.792	800.000	-0.105	-0.367
-439.778	800.000	0.117	-0.341
-438.763	-67.204	0.143	-0.056
-437.749	800.000	-0.028	0.082
-436.734	-24.560	0.215	0.128
-435.719	6.670	0.148	-0.110
-434.705	-111.012	0.091	-0.019
-433.690	-86.422	0.240	0.074
-432.676	800.000	-0.124	-0.393
-431.661	-1.899	-0.290	0.205
-430.646	-113.139	0.241	-0.048
-429.632	17.032	-0.060	-0.048
-428.617	-132.361	0.541	0.070
-427.603	12.420	0.112	0.086
-426.588	346.253	0.074	-0.145
-425.573	-23.997	-0.277	-0.166
-424.559	17.402	0.208	0.166
-423.544	-54.598	0.115	0.052
-422.530	800.000	0.060	-0.170
-421.515	-5.180	0.207	-0.143
-420.500	762.854	0.102	-0.277
-419.486	-106.857	0.238	0.053
-418.471	-148.882	-0.244	0.020
-417.457	413.883	0.063	-0.135
-416.442	45.380	0.069	0.064
-415.428	228.099	0.082	-0.133
-414.413	-200.000	-0.017	0.303
-413.398	-36.155	-0.181	-0.098
-412.384	-163.401	0.241	-0.012
-411.369	146.580	-0.202	0.272
-410.355	173.472	-0.056	0.081
-409.340	-158.357	-0.059	-0.003
-408.325	211.313	-0.062	0.098
-407.311	800.000	-0.074	0.226
-406.296	-30.958	0.045	0.026
-405.282	75.720	0.142	-0.150
-404.267	416.934	0.115	-0.246
-403.252	-31.083	-0.194	-0.110
-402.238	800.000	-0.064	-0.259
-401.223	36.609	-0.111	-0.098
-400.209	-200.000	-0.003	-0.055
-399.194	-84.048	0.149	-0.047
-398.179	-125.116	-0.086	0.013
-397.165	113.014	0.229	-0.278
-396.150	318.490	0.072	0.137
-395.136	5.201	-0.249	0.183
-394.121	-100.121	0.122	-0.030
-393.106	-117.338	0.174	0.032
-392.092	800.000	0.034	0.145
-391.077	-130.851	-0.262	-0.035
-390.063	28.410	0.114	-0.097
-389.048	55.151	0.301	-0.291
-388.033	24.894	-0.211	0.175
-387.019	4.236	0.181	0.133
-386.004	176.165	-0.047	0.068
-384.990	800.000	0.074	0.274
-383.975	-86.426	-0.157	0.048
-382.960	262.207	-0.101	0.175
-381.946	166.459	-0.110	-0.156
-380.931	-64.904	-0.166	0.067
-379.917	164.198	0.052	-0.073
-378.902	331.882	0.045	0.088
-377.888	-148.314	-0.306	-0.025
-376.873	800.000	-0.100	-0.319
-375.858	-31.354	0.276	-0.155
-374.844	-200.000	0.013	0.225
-373.829	187.582	-0.050	-0.075
-372.815	800.000	0.053	-0.192
-371.800	-110.349	0.127	-0.026
-370.785	218.997	0.101	-0.161
-369.771	131.200	-0.080	0.103
-368.756	479.707	-0.161	0.364
-367.742	-110.259	0.105	0.022
-366.727	-74.534	0.393	-0.141
-365.712	-101.630	0.192	0.047
-364.698	-36.027	0.310	0.167
-363.683	353.634	-0.104	0.206
-362.669	-84.970	-0.284	-0.089
-361.654	1.734	-0.196	-0.141
-360.639	-200.000	0.009	-0.152
-359.625	-200.000	-0.027	-0.126
-358.610	-113.850	-0.286	-0.055
-357.596	-49.198	-0.237	-0.113
-356.581	-26.332	0.072	-0.042
-355.566	-81.279	-0.169	0.056
-354.552	-54.987	0.492	0.221
-353.537	96.397	-0.246	0.281
-352.523	200.433	-0.102	-0.156
-351.508	800.000	0.031	-0.136
-350.493	-132.364	-0.066	-0.008
-349.479	-100.355	0.330	-0.082
-348.464	-148.193	0.230	-0.019
-347.450	127.793	0.227	0.288
-346.435	-5.416	-0.137	0.094
-345.420	-200.000	0.423	0.001
-344.406	488.630	0.056	0.127
-343.391	232.378	-0.095	0.155
-342.377	-200.000	0.005	-0.279
-341.362	33.701	0.163	0.142
-340.348	92.055	-0.278	0.312
-339.333	-56.757	-0.419	0.185
-338.318	-47.603	0.429	0.208
-337.304	549.506	-0.098	-0.235
-336.289	134.507	0.161	-0.208
-335.275	-200.000	0.028	-0.255
-334.260	-47.836	0.129	-0.062
-333.245	-88.286	-0.322	0.096
-332.231	338.757	-0.027	0.053
-331.216	800.000	-0.090	-0.354
-330.202	-148.813	-0.309	-0.025
-329.187	83.521	-0.162	0.176
-328.172	800.000	0.105	0.351
-327.158	-200.000	0.092	0.446
-326.143	-43.341	-0.217	0.110
-325.129	800.000	0.032	0.102
-324.114	395.680	-0.120	0.249
-323.099	-83.404	-0.127	-0.041
-322.085	167.244	-0.121	-0.171
-321.070	-200.000	-0.024	-0.227
-320.056	800.000	-0.079	-0.256
-319.041	-200.000	0.012	-0.136
-318.026	-60.370	-0.309	0.131
-317.012	9.196	0.216	-0.162
-315.997	-185.158	0.208	0.003
-314.983	625.593	-0.104	0.262
-313.968	-41.457	0.132	0.068
-312.953	257.920	0.122	-0.210
-311.939	-200.000	0.000	-0.365
-310.924	85.705	0.098	0.107
-309.910	-200.000	0.038	0.317
-308.895	771.817	-0.049	0.133
-307.880	-45.852	0.236	-0.116
-306.866	-200.000	-0.001	0.155
-305.851	778.147	-0.042	-0.115
-304.837	-200.000	-0.040	0.501
-303.822	-200.000	0.029	-0.264
-302.807	-88.276	-0.299	0.089
-301.793	-200.000	-0.047	-0.212
-300.778	-200.000	0.020	-0.100
-299.764	611.076	-0.130	0.324
-298.749	-158.888	0.276	-0.016
-297.735	-31.448	0.099	0.055
-296.720	491.944	-0.072	0.164
-295.705	-152.147	0.214	-0.015
-294.691	252.060	0.148	-0.252
-293.676	-98.537	0.105	0.027
-292.662	68.900	0.188	0.192
-291.647	-110.726	-0.264	0.054
-290.632	29.498	-0.139	-0.118
-289.618	800.000	0.047	0.182
-288.603	-200.000	0.075	-0.515
-287.589	119.629	-0.056	-0.069
-286.574	61.082	0.193	0.191
-285.559	-93.030	-0.177	-0.049
-284.545	54.425	0.148	0.142
-283.530	67.681	-0.094	0.096
-282.516	-82.709	0.303	0.098
-281.501	-34.362	-0.098	0.053
-280.486	-200.000	-0.026	-0.362
-279.472	-134.817	-0.145	0.017
-278.457	56.341	-0.099	0.096
-277.443	-37.617	-0.254	-0.135
-276.428	230.558	0.112	-0.182
-275.413	102.970	0.017	0.020
-274.399	-200.000	-0.057	0.338
-273.384	474.037	-0.115	-0.259
-272.370	-67.839	0.063	0.025
-271.355	-174.309	-0.341	-0.010
-270.340	-200.000	0.055	-0.266
-269.326	205.561	0.037	-0.057
-268.311	86.439	-0.154	-0.168
-267.297	139.570	0.174	-0.228
-266.282	-200.000	-0.048	0.221
-265.267	632.126	0.058	0.147
-264.253	-200.000	-0.007	-0.394
-263.238	800.000	-0.084	0.314
-262.224	45.999	0.072	-0.066
-261.209	800.000	-0.063	-0.248
-260.195	29.738	0.162	-0.137
-259.180	481.607	0.093	0.211
-258.165	-18.350	0.246	0.153
-257.151	168.928	-0.146	0.207
-256.136	89.464	0.013	-0.015
-255.122	91.479	-0.095	-0.106
-254.107	-200.000	-0.017	-0.122
-253.092	85.876	-0.084	0.092
-252.078	800.000	-0.067	-0.290
-251.063	114.521	-0.035	-0.043
-250.049	81.409	-0.199	-0.214
-249.034	-51.493	-0.270	-0.125
-248.019	-109.478	-0.127	0.027
-247.005	-200.000	0.038	-0.181
-245.990	-200.000	0.002	0.149
-244.976	-108.542	-0.328	0.070
-243.961	-118.348	-0.082	0.014
-242.946	-20.463	-0.222	0.136
-241.932	-155.819	-0.361	-0.023
-240.917	-0.534	0.162	0.114
-239.903	402.917	-0.123	0.257
-238.888	19.055	-0.143	0.114
-237.873	312.904	-0.206	0.385
-236.859	-160.536	0.033	0.002
-235.844	-100.767	0.170	0.042
-234.830	28.817	-0.030	0.025
-233.815	11.491	0.397	-0.302
-232.800	-46.818	0.197	0.096
-231.786	-54.588	-0.125	-0.056
-230.771	-8.550	0.101	0.067
-229.757	20.468	0.229	-0.184
-228.742	-106.669	-0.146	-0.032
-227.727	-108.173	-0.270	0.058
-226.713	-153.670	-0.268	0.018
-225.698	67.103	-0.054	-0.055
-224.684	-46.241	0.158	-0.077
-223.669	67.913	0.126	-0.128
-222.655	2.239	0.242	-0.173
-221.640	-6.458	-0.103	0.070
-220.625	30.734	0.248	-0.211
-219.611	175.644	-0.106	-0.152
-218.596	15.514	0.108	-0.084
-217.582	800.000	-0.070	-0.191
-216.567	448.198	0.087	-0.189
-215.552	237.839	0.060	-0.099
-214.538	-92.956	0.180	0.050
-213.523	-25.503	-0.338	0.198
-212.509	51.904	-0.133	0.126
-211.494	-45.295	0.150	0.074
-210.479	80.160	0.091	-0.097
-209.465	-200.000	0.059	0.370
-208.450	-200.000	0.029	0.178
-207.436	-200.000	-0.055	-0.378
-206.421	87.281	0.215	-0.236
-205.406	637.669	0.074	0.187
-204.392	800.000	-0.048	-0.156
-203.377	2.481	0.380	-0.273
-202.363	-33.917	-0.183	0.100
-201.348	76.572	0.252	0.266
-200.333	195.962	-0.209	0.315
-199.319	-94.094	-0.255	0.069
-198.304	-200.000	-0.009	-0.074
-197.290	421.785	-0.151	-0.321
-196.275	76.944	0.223	-0.235
-195.260	-150.614	0.132	-0.010
-194.246	-103.196	0.104	0.024
-193.231	617.437	0.167	0.417
-192.217	-34.429	0.061	0.033
-191.202	-131.354	-0.206	0.027
-190.187	800.000	0.012	-0.050
-189.173	-93.079	0.551	0.152
-188.158	-200.000	-0.036	0.312
-187.144	133.385	-0.242	-0.310
-186.129	-98.623	-0.254	0.064
-185.114	-48.460	-0.045	-0.022
-184.100	301.600	0.176	0.322
-183.085	-118.100	0.287	-0.051
-182.071	92.427	-0.027	-0.030
-181.056	-6.878	0.047	0.031
-180.042	-101.969	-0.047	0.011
-179.027	-97.214	-0.134	0.035
-178.012	-200.000	-0.019	0.092
-176.998	69.318	0.071	-0.072
-175.983	393.516	0.051	0.106
-174.969	29.574	-0.140	0.118
-173.954	141.124	0.146	-0.192
-172.939	-34.264	0.210	-0.114
-171.925	190.964	0.020	0.030
-170.910	-200.000	0.018	0.278
-169.896	800.000	0.057	0.165
-168.881	800.000	0.063	-0.225
-167.866	184.233	-0.190	0.279
-166.852	-200.000	-0.017	-0.371
-165.837	684.623	0.037	0.097
-164.823	250.095	0.016	-0.028
-163.808	8.465	0.066	0.049
-162.793	-200.000	-0.032	0.290
-161.779	123.548	0.217	0.270
-160.764	170.893	-0.211	0.300
-159.750	-200.000	-0.008	0.051
-158.735	100.906	0.222	-0.255
-157.720	634.372	0.067	0.169
-156.706	-46.287	0.246	0.120
-155.691	800.000	-0.026	0.108
-154.677	800.000	0.055	-0.167
-153.662	-53.266	-0.415	0.189
-152.647	-157.014	-0.222	-0.013
-151.633	-75.662	0.086	-0.030
-150.618	-115.805	0.379	-0.070
-149.604	800.000	0.074	0.212
-148.589	-148.363	-0.128	0.010
-147.574	-15.885	0.067	-0.043
-146.560	-200.000	-0.052	-0.281
-145.545	112.249	-0.172	0.206
-144.531	-200.000	-0.019	0.157
-143.516	-105.916	-0.005	-0.001
-142.502	127.626	-0.042	0.052
-141.487	-200.000	0.051	0.371
-140.472	317.529	0.113	0.211
-139.458	-200.000	-0.009	-0.117
-138.443	-110.276	0.113	-0.023
-137.429	135.175	0.131	0.169
-136.414	-121.282	-0.057	0.009
-135.399	707.721	0.035	-0.092
-134.385	52.051	0.257	0.243
-133.370	-68.683	-0.095	0.036
-132.356	-162.184	-0.318	0.016
-131.341	800.000	-0.085	-0.307
-130.326	800.000	0.076	-0.247
-129.312	5.871	0.151	-0.111
-128.297	-9.255	-0.164	-0.109
-127.283	-105.584	-0.179	0.040
-126.268	-126.501	0.111	0.016
-125.253	194.095	-0.167	0.250
-124.239	-77.242	-0.223	-0.077
-123.224	15.858	0.368	0.287
-122.210	279.877	-0.094	0.167
-121.195	598.824	0.096	0.235
