DTS Sentinel unit serial number:	SN413079Multiplexer serial number:	ORYXHardware model number:	OX4-SRSoftware version number:	ORYX F/W v4.00 Oryx Data Collector v3.7.2.0data status	okinstallation	princeton_trtdifferential loss correction	single-endedforward channel	channel 4reverse channel	N/Adate	2019/09/17time	14:45:35forward acquisition time	60.00reverse acquisition time	0.00gamma	496.2192k internal	0.2294k external	0.2294temperature offset calibration	0.9983default loss term (dB/km)	0.3790temperature slope calibration	1.0000multiplexer offset coefficient	1.0000multiplexer slope coefficient	1.0000fibre end	0.00T internal ref (°C)	36.94T ext. ref 1 (°C)	0.39T ext. ref 2 (°C)	33.94length (m)	temperature (°C)	Stokes	anti-Stokes-747.200	360.012	0.142	-0.290
-746.185	-200.000	0.003	-0.205
-745.171	-127.342	-0.099	0.015
-744.156	-200.000	0.051	0.589
-743.142	33.691	-0.265	-0.236
-742.127	-57.001	-0.224	0.101
-741.112	-29.182	-0.214	-0.126
-740.098	-200.000	-0.073	0.483
-739.083	-200.000	-0.058	0.328
-738.069	60.698	0.294	0.298
-737.054	-200.000	0.041	0.322
-736.039	125.112	-0.233	0.300
-735.025	-15.122	0.129	0.085
-734.010	0.431	-0.097	0.071
-732.996	-200.000	-0.032	-0.270
-731.981	206.209	-0.064	-0.102
-730.966	-25.388	-0.202	0.122
-729.952	-200.000	-0.002	-0.058
-728.937	328.636	0.133	0.261
-727.923	-58.954	-0.324	0.143
-726.908	-200.000	-0.044	-0.336
-725.894	800.000	-0.077	-0.275
-724.879	-77.022	-0.516	0.184
-723.864	-139.490	0.109	-0.012
-722.850	-115.440	0.307	-0.059
-721.835	800.000	-0.080	-0.350
-720.821	625.165	0.107	-0.277
-719.806	12.604	0.178	-0.140
-718.791	-200.000	-0.007	0.177
-717.777	233.162	-0.138	0.232
-716.762	96.210	0.089	0.104
-715.748	-200.000	0.003	-0.167
-714.733	-80.999	0.091	-0.031
-713.718	-20.130	0.088	-0.056
-712.704	96.092	-0.070	0.082
-711.689	60.523	0.171	0.173
-710.675	-61.528	0.272	-0.117
-709.660	15.514	-0.379	0.304
-708.645	356.193	0.020	-0.040
-707.631	-40.369	0.304	0.161
-706.616	-146.201	0.257	-0.023
-705.602	17.670	-0.045	-0.037
-704.587	-137.920	-0.465	0.053
-703.572	-49.597	0.082	-0.040
-702.558	-200.000	0.034	0.315
-701.543	800.000	0.120	0.380
-700.529	-44.513	0.143	0.073
-699.514	195.582	0.143	-0.223
-698.499	-91.210	0.383	-0.112
-697.485	44.162	-0.352	0.329
-696.470	372.702	-0.101	0.210
-695.456	-71.631	0.109	0.041
-694.441	-140.935	-0.355	-0.037
-693.426	103.855	0.282	-0.338
-692.412	-50.870	-0.136	0.065
-691.397	-122.109	0.137	-0.023
-690.383	-200.000	-0.008	-0.183
-689.368	-54.658	-0.380	-0.175
-688.354	800.000	0.095	0.292
-687.339	800.000	0.082	-0.359
-686.324	-75.771	-0.172	-0.062
-685.310	40.780	-0.240	0.221
-684.295	263.655	0.112	-0.198
-683.281	-9.393	-0.240	0.164
-682.266	83.559	-0.394	-0.439
-681.251	-5.852	0.232	0.162
-680.237	98.776	0.117	0.138
-679.222	567.391	0.018	-0.044
-678.208	-16.992	0.019	0.012
-677.193	-200.000	-0.010	0.490
-676.178	3.393	-0.390	0.290
-675.164	42.688	-0.137	-0.128
-674.149	484.306	-0.150	0.347
-673.135	-35.639	0.136	0.075
-672.120	60.833	-0.270	0.273
-671.105	-200.000	-0.054	-0.356
-670.091	-32.642	-0.149	-0.085
-669.076	-200.000	-0.024	-0.366
-668.062	24.526	-0.069	0.058
-667.047	55.227	-0.084	-0.083
-666.032	-200.000	0.026	-0.273
-665.018	-200.000	0.009	0.116
-664.003	98.681	0.212	-0.249
-662.989	164.739	0.120	-0.173
-661.974	-140.492	-0.253	-0.027
-660.959	22.851	0.108	0.090
-659.945	-37.099	-0.163	0.089
-658.930	-123.792	-0.153	-0.025
-657.916	761.448	0.048	-0.133
-656.901	-10.256	0.133	-0.090
-655.886	-1.884	0.269	-0.193
-654.872	800.000	-0.126	-0.414
-653.857	-59.588	-0.218	-0.095
-652.843	20.368	-0.184	0.152
-651.828	-47.072	-0.194	0.096
-650.814	36.533	0.229	0.206
-649.799	71.611	0.348	0.369
-648.784	-115.210	-0.086	-0.017
-647.770	320.127	-0.096	-0.186
-646.755	-30.063	0.154	0.089
-645.741	85.709	-0.133	0.149
-644.726	800.000	-0.067	0.247
-643.711	77.662	0.227	-0.246
-642.697	197.531	0.149	-0.232
-641.682	-110.669	0.055	-0.012
-640.668	377.238	0.052	0.109
-639.653	-155.615	-0.185	-0.012
-638.638	433.090	-0.089	-0.196
-637.624	800.000	-0.091	0.310
-636.609	595.140	0.124	-0.312
-635.595	107.049	-0.087	0.105
-634.580	47.876	-0.058	0.056
-633.565	-22.788	-0.399	0.245
-632.551	-156.632	-0.421	0.027
-631.536	139.168	0.122	-0.163
-630.522	380.279	-0.066	-0.137
-629.507	71.626	-0.221	-0.234
-628.492	186.471	0.068	-0.103
-627.478	36.512	-0.137	-0.123
-626.463	-24.122	0.034	-0.021
-625.449	665.691	0.116	0.304
-624.434	-121.807	-0.190	-0.032
-623.419	-12.165	0.219	0.146
-622.405	275.028	0.064	-0.116
-621.390	-131.253	0.216	0.029
-620.376	-200.000	0.123	-0.600
-619.361	19.038	0.095	-0.078
-618.346	678.252	-0.021	-0.056
-617.332	-111.930	-0.128	-0.026
-616.317	-134.068	-0.478	-0.060
-615.303	65.788	-0.300	-0.309
-614.288	13.616	0.132	-0.104
-613.273	29.900	-0.064	0.056
-612.259	368.320	-0.127	0.261
-611.244	302.077	-0.252	-0.474
-610.230	-141.491	0.324	0.033
-609.215	-162.980	0.225	-0.011
-608.201	-200.000	0.008	0.288
-607.186	-92.070	0.255	0.073
-606.171	215.616	0.066	-0.107
-605.157	-200.000	-0.022	-0.174
-604.142	120.929	-0.201	-0.254
-603.128	-12.302	-0.291	-0.193
-602.113	-200.000	0.063	0.468
-601.098	-114.013	0.515	-0.101
-600.084	270.703	-0.061	-0.110
-599.069	-161.158	0.222	0.012
-598.055	-200.000	-0.060	0.287
-597.040	800.000	-0.042	-0.126
-596.025	-200.000	0.013	-0.237
-595.011	800.000	0.047	0.166
-593.996	-200.000	-0.054	-0.243
-592.982	800.000	0.031	-0.111
-591.967	116.042	0.159	-0.198
-590.952	800.000	-0.012	-0.044
-589.938	-200.000	0.041	0.583
-588.923	-91.213	-0.231	-0.067
-587.909	58.924	0.141	-0.141
-586.894	-91.878	-0.464	0.134
-585.879	-81.192	0.198	-0.067
-584.865	-174.430	0.166	-0.005
-583.850	239.304	0.076	0.129
-582.836	-97.765	0.266	0.070
-581.821	800.000	0.132	0.380
-580.806	-99.516	0.080	0.020
-579.792	-6.327	-0.128	-0.089
-578.777	-29.698	0.332	-0.192
-577.763	178.181	-0.051	0.075
-576.748	-126.850	0.084	0.013
-575.733	25.454	-0.037	-0.032
-574.719	-38.349	0.056	-0.030
-573.704	360.848	0.091	0.186
-572.690	-6.947	-0.231	0.159
-571.675	-70.901	-0.257	0.098
-570.661	-162.095	-0.246	-0.013
-569.646	79.695	0.246	0.269
-568.631	-94.368	0.157	0.044
-567.617	31.218	0.099	-0.086
-566.602	-200.000	0.036	0.300
-565.588	-200.000	-0.086	-0.496
-564.573	-96.916	0.159	-0.042
-563.558	-54.598	-0.041	0.019
-562.544	131.628	-0.127	-0.166
-561.529	-159.379	0.123	-0.007
-560.515	165.173	-0.093	-0.134
-559.500	-33.839	-0.244	-0.136
-558.485	-200.000	-0.001	0.030
-557.471	-162.766	-0.233	-0.012
-556.456	59.306	-0.067	-0.067
-555.442	30.431	-0.093	-0.081
-554.427	-122.228	-0.089	-0.015
-553.412	32.649	0.058	-0.051
-552.398	-100.102	-0.270	0.068
-551.383	-23.623	0.291	0.177
-550.369	499.846	-0.039	-0.091
-549.354	-84.579	0.414	-0.132
-548.339	14.063	-0.154	-0.122
-547.325	22.978	-0.058	-0.049
-546.310	-100.628	-0.525	0.132
-545.296	800.000	0.127	-0.371
-544.281	-58.211	-0.193	0.085
-543.266	800.000	0.029	-0.109
-542.252	-50.887	-0.218	-0.104
-541.237	65.812	-0.366	0.376
-540.223	65.334	0.200	0.205
-539.208	-200.000	-0.066	-0.514
-538.193	-32.308	-0.456	-0.258
-537.179	-41.001	-0.241	0.126
-536.164	17.037	0.153	0.123
-535.150	-81.944	0.043	-0.014
-534.135	64.675	-0.307	0.314
-533.121	-200.000	0.018	-0.096
-532.106	295.584	-0.136	0.253
-531.091	-118.056	-0.123	0.022
-530.077	-125.949	0.137	-0.021
-529.062	-106.962	0.059	0.013
-528.048	219.698	-0.106	0.173
-527.033	800.000	-0.056	0.199
-526.018	42.109	0.062	-0.057
-525.004	-16.326	-0.284	0.183
-523.989	235.127	0.089	0.148
-522.975	5.604	-0.182	0.136
-521.960	800.000	-0.021	0.070
-520.945	-148.839	-0.331	-0.027
-519.931	-88.485	0.102	-0.031
-518.916	-45.865	0.194	0.097
-517.902	179.991	0.103	-0.152
-516.887	800.000	0.058	-0.248
-515.872	-27.553	-0.181	0.107
-514.858	-91.509	0.366	0.106
-513.843	-13.449	0.113	-0.074
-512.829	-162.915	0.148	-0.007
-511.814	-75.896	0.055	0.020
-510.799	71.684	-0.164	0.173
-509.785	103.556	0.055	-0.066
-508.770	62.531	-0.260	0.264
-507.756	-114.025	0.035	-0.007
-506.741	-91.221	-0.564	0.164
-505.726	-1.426	-0.108	0.077
-504.712	-200.000	0.021	0.398
-503.697	-98.406	0.406	0.105
-502.683	-200.000	0.015	0.084
-501.668	-200.000	-0.015	0.333
-500.653	-126.034	0.243	0.037
-499.639	742.078	0.075	-0.204
-498.624	214.789	-0.110	0.176
-497.610	43.268	0.283	-0.262
-496.595	-12.391	-0.147	0.097
-495.581	4.710	0.373	-0.277
-494.566	621.765	0.045	-0.115
-493.551	100.800	0.049	-0.058
-492.537	-200.000	-0.030	0.213
-491.522	-70.061	0.135	-0.052
-490.508	800.000	-0.017	0.063
-489.493	91.240	0.149	0.169
-488.478	-128.771	-0.216	0.031
-487.464	56.551	0.256	-0.253
-486.449	89.174	-0.239	-0.270
-485.435	750.421	0.009	-0.025
-484.420	-103.765	-0.099	-0.023
-483.405	-200.000	0.007	-0.364
-482.391	315.811	-0.063	0.121
-481.376	-13.144	-0.137	0.090
-480.362	-200.000	0.010	0.156
-479.347	-120.256	-0.257	-0.044
-478.332	-200.000	0.011	-0.201
-477.318	65.148	0.027	0.027
-476.303	-145.101	0.276	-0.025
-475.289	-65.884	-0.230	0.093
-474.274	800.000	0.058	0.162
-473.259	-82.027	-0.131	-0.043
-472.245	10.501	0.154	0.119
-471.230	800.000	-0.019	-0.054
-470.216	-200.000	0.017	-0.228
-469.201	-107.086	0.330	0.074
-468.186	800.000	-0.124	-0.371
-467.172	52.472	-0.100	-0.096
-466.157	487.558	0.037	0.085
-465.143	-110.293	-0.093	-0.020
-464.128	267.219	-0.151	0.268
-463.113	-32.383	-0.368	0.208
-462.099	32.889	0.146	-0.128
-461.084	-110.219	-0.060	-0.013
-460.070	-108.649	0.090	-0.020
-459.055	-29.023	-0.143	0.083
-458.040	-26.288	-0.292	0.173
-457.026	-91.861	0.236	-0.068
-456.011	-200.000	0.023	0.190
-454.997	-111.344	0.043	0.009
-453.982	-12.724	-0.162	-0.107
-452.968	128.940	-0.136	0.175
-451.953	327.862	-0.115	-0.222
-450.938	16.950	-0.101	-0.081
-449.924	-6.166	0.136	0.094
-448.909	-76.850	0.308	-0.109
-447.895	621.197	-0.098	0.249
-446.880	0.632	-0.145	0.105
-445.865	115.589	0.158	-0.196
-444.851	-116.474	0.137	-0.026
-443.836	-47.015	-0.129	0.064
-442.822	-200.000	0.016	0.094
-441.807	3.361	-0.197	0.145
-440.792	-1.414	-0.258	0.184
-439.778	-77.650	-0.134	0.047
-438.763	-108.664	0.082	0.018
-437.749	246.245	-0.019	-0.033
-436.734	218.405	-0.055	0.089
-435.719	87.769	-0.366	0.410
-434.705	-24.093	-0.046	0.028
-433.690	-200.000	-0.033	0.270
-432.676	87.205	0.137	0.153
-431.661	-71.929	-0.216	-0.081
-430.646	67.615	-0.102	-0.106
-429.632	-200.000	-0.027	0.274
-428.617	145.887	0.303	-0.410
-427.603	-103.700	-0.041	0.010
-426.588	-164.072	-0.094	-0.004
-425.573	-28.747	0.314	0.183
-424.559	-42.352	-0.167	-0.086
-423.544	456.086	-0.045	0.101
-422.530	96.575	0.211	-0.244
-421.515	-122.066	-0.368	-0.061
-420.500	34.256	0.096	-0.085
-419.486	800.000	-0.055	0.225
-418.471	383.415	0.085	-0.177
-417.457	372.948	0.121	-0.248
-416.442	160.827	-0.111	-0.157
-415.428	42.186	0.044	-0.040
-414.413	66.894	0.163	-0.167
-413.398	308.517	0.042	-0.078
-412.384	-121.769	-0.163	0.027
-411.369	-200.000	0.193	-0.001
-410.355	307.682	-0.033	-0.061
-409.340	696.010	0.158	-0.418
-408.325	-200.000	0.061	-0.359
-407.311	-91.899	0.324	0.093
-406.296	-3.249	0.115	0.081
-405.282	37.810	-0.109	0.098
-404.267	-200.000	-0.020	-0.090
-403.252	-91.113	0.291	-0.084
-402.238	-90.438	0.306	-0.089
-401.223	230.323	-0.147	-0.243
-400.209	254.906	-0.170	-0.293
-399.194	117.031	-0.023	-0.029
-398.179	800.000	-0.073	0.243
-397.165	160.369	0.135	0.190
-396.150	-186.459	-0.198	0.003
-395.136	-141.402	0.345	0.035
-394.121	7.296	-0.337	-0.254
-393.106	376.482	-0.112	-0.232
-392.092	-46.849	-0.146	0.072
-391.077	-200.000	0.072	-0.366
-390.063	-43.092	0.095	0.049
-389.048	-89.302	0.162	0.048
-388.033	54.507	-0.237	-0.230
-387.019	78.423	0.212	0.228
-386.004	-129.814	-0.167	-0.023
-384.990	122.907	-0.096	-0.121
-383.975	800.000	0.015	0.052
-382.960	110.157	-0.130	-0.158
-381.946	175.661	0.225	0.329
-380.931	41.732	-0.212	0.193
-379.917	106.139	0.160	-0.191
-378.902	-113.793	0.231	-0.045
-377.888	-153.793	0.273	0.019
-376.873	800.000	-0.137	-0.435
-375.858	12.357	0.124	-0.097
-374.844	800.000	0.109	-0.320
-373.829	-165.085	0.158	-0.007
-372.815	553.339	0.030	0.072
-371.800	-200.000	-0.033	0.211
-370.785	-200.000	-0.003	0.241
-369.771	-200.000	0.016	0.230
-368.756	-72.143	0.080	-0.030
-367.742	-200.000	0.084	-0.388
-366.727	800.000	-0.076	-0.234
-365.712	-75.523	0.119	0.043
-364.698	-21.291	-0.224	0.138
-363.683	15.666	-0.298	0.236
-362.669	-28.075	-0.191	0.112
-361.654	-33.732	0.238	0.132
-360.639	21.204	0.114	0.093
-359.625	-200.000	0.012	-0.119
-358.610	4.949	-0.083	0.062
-357.596	800.000	-0.100	0.315
-356.581	-161.892	0.279	0.014
-355.566	-136.787	-0.197	-0.023
-354.552	60.680	-0.087	-0.087
-353.537	-188.870	-0.094	-0.001
-352.523	-135.752	0.314	0.037
-351.508	-8.412	-0.093	-0.063
-350.493	-55.498	-0.223	0.101
-349.479	-200.000	0.031	0.297
-348.464	84.373	-0.292	0.321
-347.450	648.028	0.075	-0.192
-346.435	-54.776	0.129	0.059
-345.420	-119.105	0.167	-0.029
-344.406	-166.230	-0.157	0.007
-343.391	-168.940	-0.086	-0.003
-342.377	-108.732	0.331	-0.071
-341.362	90.984	0.113	0.127
-340.348	-200.000	-0.007	-0.167
-339.333	-60.376	-0.268	-0.115
-338.318	-96.034	-0.260	0.070
-337.304	800.000	0.060	-0.261
-336.289	-83.825	-0.116	0.037
-335.275	-124.334	-0.387	-0.061
-334.260	-59.369	-0.115	-0.050
-333.245	-76.251	0.100	-0.035
-332.231	-200.000	-0.019	-0.285
-331.216	5.346	-0.092	-0.068
-330.202	133.078	-0.065	0.084
-329.187	256.847	-0.041	0.071
-328.172	274.595	-0.095	-0.169
-327.158	307.881	-0.108	-0.203
-326.143	-42.745	0.067	-0.034
-325.129	-181.293	-0.267	-0.005
-324.114	-200.000	0.024	-0.153
-323.099	-161.660	-0.073	0.004
-322.085	136.233	-0.080	-0.105
-321.070	-15.420	0.232	0.149
-320.056	162.709	-0.100	-0.141
-319.041	-200.000	0.019	0.187
-318.026	-200.000	-0.005	0.194
-317.012	-200.000	-0.008	-0.086
-315.997	-94.726	-0.275	-0.075
-314.983	-196.507	-0.136	0.001
-313.968	164.851	0.164	-0.233
-312.953	280.613	-0.199	0.359
-311.939	-200.000	-0.033	-0.173
-310.924	647.440	0.039	-0.101
-309.910	14.893	0.128	-0.100
-308.895	10.251	0.221	0.169
-307.880	-152.725	-0.315	0.023
-306.866	-71.584	-0.196	0.074
-305.851	-161.888	-0.087	0.004
-304.837	800.000	-0.074	0.228
-303.822	-200.000	-0.040	0.321
-302.807	-200.000	-0.043	0.330
-301.793	553.295	-0.065	0.158
-300.778	-44.284	0.088	-0.044
-299.764	298.187	-0.043	0.080
-298.749	351.825	0.162	-0.322
-297.735	233.666	-0.058	-0.096
-296.720	754.071	-0.066	-0.178
-295.705	-51.216	0.121	0.057
-294.691	800.000	-0.043	-0.149
-293.676	800.000	0.152	0.429
-292.662	9.268	0.099	-0.075
-291.647	289.860	-0.042	0.077
-290.632	123.120	0.279	0.351
-289.618	-31.784	0.101	0.057
-288.603	800.000	-0.070	0.299
-287.589	-200.000	-0.039	0.260
-286.574	-200.000	-0.015	-0.190
-285.559	202.094	0.004	-0.007
-284.545	-102.824	0.198	-0.047
-283.530	318.996	-0.065	0.125
-282.516	404.697	0.062	-0.131
-281.501	-129.586	-0.154	-0.021
-280.486	-5.636	-0.199	-0.137
-279.472	-127.777	0.248	0.036
-278.457	11.536	0.313	-0.241
-277.443	302.244	-0.115	0.213
-276.428	-72.870	-0.125	0.046
-275.413	-18.622	0.065	-0.041
-274.399	32.335	-0.202	-0.175
-273.384	202.368	0.139	0.216
-272.370	800.000	-0.034	-0.121
-271.355	-200.000	-0.062	-0.524
-270.340	-200.000	0.007	-0.111
-269.326	-152.050	0.201	0.015
-268.311	800.000	-0.108	-0.309
-267.297	-200.000	0.017	0.093
-266.282	-39.138	0.143	0.076
-265.267	-13.339	-0.118	0.077
-264.253	-36.977	0.132	0.071
-263.238	5.618	-0.175	-0.130
-262.224	24.653	0.301	0.250
-261.209	-32.726	-0.226	-0.126
-260.195	88.959	0.068	-0.076
-259.180	800.000	-0.019	0.058
-258.165	294.634	0.042	-0.077
-257.151	494.824	0.070	-0.162
-256.136	-51.003	0.142	0.067
-255.122	43.086	0.135	0.123
-254.107	-200.000	0.026	0.301
-253.092	-114.853	0.380	-0.073
-252.078	-131.180	0.228	0.030
-251.063	-129.413	-0.293	-0.041
-250.049	-127.278	0.395	-0.058
-249.034	-148.849	-0.248	0.020
-248.019	189.129	-0.103	-0.155
-247.005	800.000	-0.004	-0.013
-245.990	62.343	0.078	-0.078
-244.976	-200.000	-0.004	-0.083
-243.961	126.299	-0.038	-0.048
-242.946	386.522	0.096	-0.198
-241.932	535.208	0.175	0.416
-240.917	-200.000	-0.037	-0.264
-239.903	-200.000	0.015	0.116
-238.888	111.106	-0.288	-0.348
-237.873	-140.934	-0.192	0.020
-236.859	-200.000	-0.011	-0.115
-235.844	800.000	-0.052	-0.168
-234.830	26.674	0.179	-0.150
-233.815	39.336	-0.099	0.089
-232.800	335.615	0.138	-0.268
-231.786	-19.749	0.239	0.148
-230.771	19.786	0.257	0.208
-229.757	-200.000	-0.023	0.108
-228.742	800.000	0.090	0.327
-227.727	-200.000	-0.017	0.213
-226.713	219.562	0.066	-0.107
-225.698	417.920	-0.098	-0.209
-224.684	285.506	0.116	0.209
-223.669	800.000	-0.138	0.414
-222.655	-82.365	-0.176	-0.057
-221.640	-200.000	0.001	0.263
-220.625	48.987	0.200	0.188
-219.611	800.000	-0.100	0.287
-218.596	800.000	-0.020	-0.083
-217.582	-139.845	0.105	0.011
-216.567	-200.000	-0.002	-0.113
-215.552	-200.000	0.092	-0.000
-214.538	-44.138	0.278	0.140
-213.523	-122.467	-0.029	0.005
-212.509	-109.102	-0.281	0.060
-211.494	-200.000	0.001	0.017
-210.479	-9.298	-0.148	0.099
-209.465	-55.802	0.142	0.064
-208.450	-131.195	0.080	-0.011
-207.436	17.979	0.297	-0.237
-206.421	217.978	0.039	0.062
-205.406	24.322	0.146	-0.121
-204.392	-14.577	0.296	-0.190
-203.377	-116.539	0.111	0.021
-202.363	262.506	-0.137	0.238
-201.348	570.886	-0.067	0.164
-200.333	-101.666	0.293	-0.071
-199.319	295.595	-0.173	-0.317
-198.304	621.698	0.029	-0.073
-197.290	-37.252	0.079	0.042
-196.275	-200.000	-0.041	-0.328
-195.260	28.083	-0.123	0.104
-194.246	-11.783	0.207	-0.136
-193.231	262.853	0.106	-0.184
-192.217	800.000	-0.069	-0.276
-191.202	-200.000	-0.031	0.270
-190.187	-87.256	0.139	0.042
-189.173	36.271	-0.286	0.252
-188.158	-102.366	0.206	0.049
-187.144	296.229	0.141	-0.258
-186.129	-108.549	0.208	0.045
-185.114	744.060	-0.121	-0.327
-184.100	-170.077	0.180	-0.006
-183.085	89.338	-0.295	-0.329
-182.071	-58.029	0.164	-0.072
-181.056	800.000	-0.054	0.162
-180.042	10.499	0.219	-0.167
-179.027	-56.326	-0.161	0.071
-178.012	-185.986	-0.111	-0.002
-176.998	-200.000	0.031	0.195
-175.983	-148.680	0.270	-0.022
-174.969	95.004	-0.106	-0.121
-173.954	318.255	0.045	0.086
-172.939	267.550	-0.115	-0.201
-171.925	-53.860	0.274	0.125
-170.910	205.826	-0.072	0.112
-169.896	-200.000	-0.007	0.260
-168.881	-200.000	0.004	0.262
-167.866	151.674	0.070	0.095
-166.852	-179.831	0.229	0.005
-165.837	521.111	0.042	-0.098
-164.823	29.533	0.279	0.237
-163.808	800.000	-0.021	-0.079
-162.793	119.930	-0.119	0.148
-161.779	-200.000	-0.003	-0.236
-160.764	213.448	-0.191	-0.302
-159.750	-122.337	0.306	-0.050
-158.735	208.604	0.040	-0.062
-157.720	394.670	0.122	0.255
-156.706	-200.000	0.014	0.241
-155.691	800.000	0.021	0.082
-154.677	-86.122	0.290	0.089
-153.662	249.035	-0.151	0.255
-152.647	532.656	0.089	0.209
-151.633	113.014	-0.110	-0.133
-150.618	-128.625	0.344	0.049
-149.604	-38.980	-0.212	-0.111
-148.589	-87.041	0.275	-0.084
-147.574	-154.879	-0.185	-0.012
-146.560	-24.411	-0.113	-0.067
-145.545	-23.880	0.288	-0.172
-144.531	160.417	-0.278	0.387
-143.516	-200.000	0.025	-0.154
-142.502	-60.258	0.156	-0.066
-141.487	105.932	0.308	0.364
-140.472	-44.979	0.044	-0.022
-139.458	640.990	-0.068	-0.172
-138.443	-159.247	-0.295	-0.017
-137.429	-165.624	-0.280	0.012
-136.414	-200.000	0.030	-0.135
-135.399	401.350	0.085	0.179
-134.385	-130.687	-0.242	0.033
-133.370	453.345	0.147	0.324
-132.356	-200.000	-0.006	0.184
-131.341	800.000	0.091	0.338
-130.326	-200.000	0.030	-0.199
-129.312	254.068	0.144	0.245
-128.297	139.350	-0.090	-0.118
-127.283	-150.935	-0.289	-0.022
-126.268	-15.677	-0.275	-0.175
-125.253	214.221	-0.092	0.145
-124.239	199.258	-0.092	-0.141
-123.224	-89.964	0.144	0.042
-122.210	276.383	0.130	-0.231
