DTS Sentinel unit serial number:	SN413079Multiplexer serial number:	ORYXHardware model number:	OX4-SRSoftware version number:	ORYX F/W v4.00 Oryx Data Collector v3.7.2.0data status	okinstallation	princeton_trtdifferential loss correction	single-endedforward channel	channel 4reverse channel	N/Adate	2019/09/14time	00:57:34forward acquisition time	60.00reverse acquisition time	0.00gamma	496.2192k internal	0.2324k external	0.2324temperature offset calibration	1.0127default loss term (dB/km)	0.3790temperature slope calibration	1.0000multiplexer offset coefficient	1.0000multiplexer slope coefficient	1.0000fibre end	0.00T internal ref (°C)	26.37T ext. ref 1 (°C)	3.18T ext. ref 2 (°C)	21.31length (m)	temperature (°C)	Stokes	anti-Stokes-747.200	20.476	-0.238	-0.194
-746.185	131.324	-0.135	-0.175
-745.171	-64.240	0.120	0.050
-744.156	90.114	0.202	0.228
-743.142	-4.088	0.248	0.174
-742.127	76.360	0.245	0.263
-741.112	-200.000	0.008	0.136
-740.098	-93.071	0.253	-0.071
-739.083	-63.745	-0.324	-0.134
-738.069	-99.191	0.175	-0.045
-737.054	-162.376	-0.383	-0.019
-736.039	-86.858	-0.396	0.122
-735.025	138.564	0.109	0.144
-734.010	67.363	0.205	-0.212
-732.996	-200.000	-0.031	-0.146
-731.981	331.730	-0.099	0.192
-730.966	-20.603	0.303	0.188
-729.952	-22.717	-0.239	-0.146
-728.937	800.000	-0.060	0.177
-727.923	-200.000	0.024	0.169
-726.908	56.878	-0.100	-0.098
-725.894	56.767	-0.101	-0.099
-724.879	309.869	-0.114	-0.215
-723.864	800.000	-0.054	-0.197
-722.850	34.650	-0.038	0.034
-721.835	-200.000	-0.009	0.068
-720.821	-0.495	-0.109	-0.078
-719.806	189.297	-0.145	0.220
-718.791	800.000	-0.058	-0.188
-717.777	-78.366	-0.130	-0.045
-716.762	349.129	-0.090	-0.178
-715.748	371.889	-0.106	-0.216
-714.733	505.372	-0.084	0.197
-713.718	-200.000	-0.004	-0.294
-712.704	-82.485	0.388	-0.127
-711.689	732.504	0.057	-0.154
-710.675	61.141	-0.170	-0.170
-709.660	224.960	0.207	-0.338
-708.645	800.000	0.070	-0.241
-707.631	-161.613	0.459	0.024
-706.616	-17.785	0.203	-0.128
-705.602	-52.222	0.158	-0.074
-704.587	51.342	0.129	-0.124
-703.572	-200.000	-0.069	-0.313
-702.558	-60.856	-0.117	-0.050
-701.543	-57.957	-0.126	0.055
-700.529	76.904	0.052	-0.056
-699.514	-74.559	0.246	-0.089
-698.499	-80.434	-0.374	-0.126
-697.485	170.368	0.175	0.252
-696.470	-141.124	-0.075	0.008
-695.456	-17.342	-0.146	-0.093
-694.441	55.378	0.168	-0.163
-693.426	198.841	0.126	0.195
-692.412	-41.811	-0.044	-0.023
-691.397	150.275	0.055	0.076
-690.383	43.804	0.221	0.204
-689.368	-200.000	0.032	-0.162
-688.354	800.000	0.076	-0.248
-687.339	-200.000	-0.025	0.229
-686.324	-68.910	0.320	0.125
-685.310	-133.783	-0.111	-0.014
-684.295	-67.667	0.068	0.027
-683.281	249.567	0.092	-0.157
-682.266	-94.528	0.312	0.086
-681.251	-200.000	0.050	-0.304
-680.237	729.618	-0.065	-0.175
-679.222	3.139	0.180	-0.132
-678.208	-66.784	-0.160	-0.064
-677.193	166.725	0.222	-0.317
-676.178	471.328	-0.080	-0.181
-675.164	-73.691	-0.085	-0.031
-674.149	-147.389	-0.124	-0.011
-673.135	325.904	0.071	0.136
-672.120	-98.705	-0.244	-0.063
-671.105	-121.603	0.238	0.040
-670.091	106.568	-0.086	0.102
-669.076	75.641	0.176	-0.187
-668.062	-200.000	-0.012	-0.368
-667.047	23.021	0.013	0.011
-666.032	2.155	-0.143	-0.104
-665.018	-69.436	0.068	-0.026
-664.003	-200.000	0.033	0.163
-662.989	-99.151	-0.035	0.009
-661.974	-4.738	0.279	0.193
-660.959	579.037	0.071	-0.174
-659.945	-200.000	0.008	-0.217
-658.930	6.488	-0.202	0.151
-657.916	-116.415	0.042	0.008
-656.901	-113.780	-0.412	0.081
-655.886	-200.000	0.008	-0.225
-654.872	264.379	0.099	-0.174
-653.857	91.104	-0.116	-0.131
-652.843	-200.000	0.039	0.444
-651.828	-200.000	-0.022	-0.251
-650.814	-200.000	-0.000	-0.195
-649.799	736.034	0.079	0.212
-648.784	212.568	-0.193	-0.306
-647.770	157.241	0.012	-0.017
-646.755	-200.000	0.024	0.164
-645.741	-176.648	0.204	0.005
-644.726	-66.298	-0.037	-0.015
-643.711	-200.000	-0.007	-0.090
-642.697	-87.782	-0.155	-0.047
-641.682	-200.000	-0.044	-0.254
-640.668	-200.000	0.007	-0.292
-639.653	202.974	0.010	0.015
-638.638	-99.700	0.440	0.111
-637.624	42.754	-0.184	0.169
-636.609	-200.000	0.031	-0.208
-635.595	800.000	0.075	-0.230
-634.580	199.495	-0.138	-0.213
-633.565	-50.002	0.276	0.132
-632.551	-129.920	-0.466	0.064
-631.536	111.260	0.150	0.182
-630.522	-50.744	-0.123	-0.058
-629.507	295.364	-0.055	0.102
-628.492	800.000	-0.036	-0.137
-627.478	800.000	0.059	-0.189
-626.463	25.942	0.034	-0.028
-625.449	-200.000	-0.036	0.243
-624.434	33.361	-0.105	-0.091
-623.419	800.000	-0.141	-0.558
-622.405	582.293	0.044	-0.110
-621.390	86.986	0.172	-0.191
-620.376	160.219	-0.080	-0.112
-619.361	-169.092	-0.137	-0.005
-618.346	-200.000	0.078	0.356
-617.332	-154.810	-0.039	0.003
-616.317	14.263	-0.303	-0.238
-615.303	152.316	0.075	-0.102
-614.288	343.122	-0.087	-0.172
-613.273	-123.703	-0.119	0.019
-612.259	-200.000	-0.030	-0.154
-611.244	800.000	0.100	-0.280
-610.230	-124.504	0.249	-0.039
-609.215	123.218	0.218	0.274
-608.201	800.000	-0.082	-0.246
-607.186	800.000	0.068	-0.193
-606.171	-200.000	-0.031	-0.332
-605.157	128.392	-0.074	-0.094
-604.142	-200.000	0.021	0.178
-603.128	-128.370	-0.160	-0.023
-602.113	-123.054	-0.206	0.033
-601.098	-35.017	0.230	-0.126
-600.084	-6.356	0.187	-0.128
-599.069	-0.683	-0.082	-0.058
-598.055	205.306	0.205	-0.320
-597.040	-88.799	-0.245	0.073
-596.025	-3.520	-0.213	-0.149
-595.011	242.590	0.066	-0.110
-593.996	-170.772	-0.167	0.006
-592.982	137.197	0.154	0.202
-591.967	-21.460	-0.289	-0.177
-590.952	-39.580	0.336	-0.176
-589.938	208.282	0.087	0.136
-588.923	205.686	-0.049	-0.077
-587.909	72.499	-0.227	-0.238
-586.894	278.601	-0.141	-0.253
-585.879	32.438	0.074	-0.064
-584.865	160.780	-0.127	0.178
-583.850	6.829	0.264	0.197
-582.836	-40.160	0.136	-0.071
-581.821	576.927	-0.069	-0.169
-580.806	-107.180	-0.318	-0.070
-579.792	164.998	-0.103	-0.146
-578.777	201.230	0.158	0.244
-577.763	255.362	0.103	-0.176
-576.748	-97.710	0.075	0.019
-575.733	98.187	-0.090	-0.104
-574.719	-99.992	-0.245	0.061
-573.704	551.549	-0.061	0.147
-572.690	-84.496	0.227	0.072
-571.675	-200.000	-0.027	0.234
-570.661	-101.466	-0.072	0.018
-569.646	800.000	0.040	0.148
-568.631	56.887	-0.011	0.010
-567.617	210.323	0.104	-0.163
-566.602	563.015	0.056	-0.136
-565.588	800.000	-0.066	0.287
-564.573	-60.123	0.205	-0.088
-563.558	-122.846	-0.316	-0.051
-562.544	-200.000	-0.022	-0.316
-561.529	222.012	-0.056	0.090
-560.515	74.207	0.053	-0.055
-559.500	-81.559	0.298	0.098
-558.485	204.597	-0.166	-0.258
-557.471	800.000	0.048	0.175
-556.456	536.241	-0.084	-0.200
-555.442	-75.599	-0.093	-0.033
-554.427	-24.475	-0.151	-0.090
-553.412	-200.000	0.004	-0.088
-552.398	-200.000	0.017	-0.193
-551.383	-200.000	-0.027	-0.532
-550.369	362.043	-0.050	-0.100
-549.354	379.031	0.082	-0.168
-548.339	-59.249	-0.144	-0.062
-547.325	-91.230	0.052	-0.015
-546.310	-40.209	0.106	0.056
-545.296	-55.009	-0.116	-0.052
-544.281	-183.175	-0.264	0.005
-543.266	243.592	-0.079	-0.133
-542.252	32.432	0.258	-0.223
-541.237	-0.116	-0.071	0.051
-540.223	-200.000	0.062	0.363
-539.208	-200.000	-0.054	-0.310
-538.193	-200.000	0.039	-0.301
-537.179	-200.000	0.002	0.028
-536.164	101.429	-0.064	0.075
-535.150	-200.000	-0.027	0.246
-534.135	28.407	-0.195	0.165
-533.121	-66.136	-0.140	-0.056
-532.106	-22.538	-0.128	-0.077
-531.091	-179.212	-0.140	-0.003
-530.077	-200.000	0.022	0.190
-529.062	-200.000	0.009	0.100
-528.048	-15.942	-0.265	0.169
-527.033	-95.449	-0.293	-0.079
-526.018	68.024	-0.174	-0.178
-525.004	-200.000	0.005	-0.228
-523.989	-30.812	-0.380	-0.215
-522.975	-33.180	-0.100	0.055
-521.960	-200.000	0.032	-0.278
-520.945	-49.626	-0.119	-0.056
-519.931	281.242	-0.089	-0.159
-518.916	44.381	0.128	0.118
-517.902	-120.361	-0.387	0.066
-516.887	-200.000	0.006	0.111
-515.872	-200.000	0.048	0.217
-514.858	244.994	-0.077	0.130
-513.843	535.812	-0.075	-0.179
-512.829	-200.000	0.060	0.275
-511.814	-200.000	-0.006	0.217
-510.799	-200.000	0.054	0.321
-509.785	-85.080	0.387	-0.121
-508.770	282.596	-0.153	-0.275
-507.756	99.454	-0.328	0.380
-506.741	-41.386	-0.199	0.103
-505.726	129.127	0.102	0.130
-504.712	-25.005	-0.093	0.055
-503.697	-74.787	-0.172	-0.062
-502.683	-62.686	-0.202	0.084
-501.668	-52.185	-0.300	0.139
-500.653	-72.703	-0.290	-0.107
-499.639	110.260	0.184	0.221
-498.624	179.781	0.138	-0.202
-497.610	-200.000	-0.024	-0.151
-496.595	-200.000	0.049	-0.269
-495.581	-88.733	-0.164	-0.049
-494.566	585.215	0.098	-0.240
-493.551	63.796	0.022	-0.022
-492.537	-32.166	0.172	-0.096
-491.522	27.672	0.041	-0.035
-490.508	-200.000	0.046	-0.272
-489.493	145.820	0.064	0.086
-488.478	274.558	0.055	-0.097
-487.464	235.852	-0.106	0.175
-486.449	800.000	-0.080	-0.225
-485.435	-200.000	-0.023	0.315
-484.420	-200.000	0.059	0.591
-483.405	262.046	-0.088	-0.152
-482.391	-200.000	-0.079	-0.488
-481.376	139.104	-0.146	0.191
-480.362	-52.247	0.176	-0.082
-479.347	144.259	-0.230	0.307
-478.332	20.940	-0.233	0.189
-477.318	240.384	0.153	-0.254
-476.303	-113.168	-0.110	-0.022
-475.289	-104.487	-0.145	0.033
-474.274	358.233	-0.231	-0.461
-473.259	-112.439	-0.164	0.033
-472.245	10.277	-0.241	0.183
-471.230	486.426	0.066	0.149
-470.216	-191.722	-0.062	-0.001
-469.201	369.519	-0.102	0.207
-468.186	-200.000	0.021	-0.166
-467.172	-70.248	0.064	-0.024
-466.157	-149.097	0.311	0.025
-465.143	-51.803	-0.102	0.047
-464.128	245.792	0.159	0.267
-463.113	-84.623	-0.288	-0.091
-462.099	126.897	0.271	0.343
-461.084	-200.000	0.052	0.234
-460.070	94.440	-0.166	-0.188
-459.055	109.376	0.297	0.356
-458.040	800.000	0.052	0.154
-457.026	98.638	0.085	0.097
-456.011	-16.991	0.172	0.108
-454.997	800.000	0.052	0.182
-453.982	-138.206	-0.074	-0.008
-452.968	-73.122	0.194	0.071
-451.953	-58.726	0.146	0.063
-450.938	252.694	-0.019	0.033
-449.924	-59.682	-0.173	0.074
-448.909	-200.000	0.056	0.344
-447.895	25.517	-0.187	0.155
-446.880	163.238	-0.171	0.240
-445.865	-32.164	-0.180	-0.100
-444.851	51.277	-0.465	-0.440
-443.836	33.810	0.017	-0.014
-442.822	-115.631	0.163	-0.031
-441.807	-18.550	-0.369	0.229
-440.792	-200.000	0.025	0.129
-439.778	67.003	-0.386	0.392
-438.763	-200.000	-0.044	-0.451
-437.749	-6.279	0.143	0.097
-436.734	252.705	-0.217	-0.368
-435.719	800.000	0.076	-0.260
-434.705	30.912	0.342	-0.292
-433.690	-58.658	0.253	0.109
-432.676	88.436	0.100	0.110
-431.661	530.042	0.097	-0.228
-430.646	-41.575	-0.074	0.038
-429.632	-83.556	0.012	-0.004
-428.617	-126.723	0.175	-0.026
-427.603	-141.471	0.256	-0.026
-426.588	-132.675	0.200	0.026
-425.573	103.655	-0.290	-0.339
-424.559	301.255	-0.113	-0.208
-423.544	-200.000	-0.019	-0.255
-422.530	-97.129	-0.109	-0.028
-421.515	58.376	0.207	0.203
-420.500	-200.000	0.029	0.363
-419.486	33.454	-0.094	0.082
-418.471	-200.000	0.024	0.148
-417.457	262.126	-0.085	0.147
-416.442	316.082	-0.043	0.082
-415.428	486.948	-0.082	-0.187
-414.413	-47.878	0.199	-0.096
-413.398	800.000	0.104	0.354
-412.384	-36.121	-0.248	0.133
-411.369	-166.388	0.340	0.014
-410.355	-82.036	0.330	0.108
-409.340	371.760	0.029	-0.058
-408.325	800.000	0.053	0.223
-407.311	-200.000	-0.016	0.085
-406.296	800.000	-0.078	-0.259
-405.282	347.411	0.113	0.222
-404.267	-3.699	-0.031	0.022
-403.252	-22.850	-0.248	0.149
-402.238	205.716	0.020	-0.032
-401.223	-63.851	0.096	0.039
-400.209	196.320	-0.070	-0.107
-399.194	-131.586	-0.030	-0.004
-398.179	301.657	-0.082	0.150
-397.165	-86.623	0.303	-0.092
-396.150	708.769	-0.119	-0.314
-395.136	501.013	0.079	0.182
-394.121	-23.991	0.144	0.086
-393.106	-57.854	-0.308	0.134
-392.092	-168.149	0.270	0.010
-391.077	-75.754	0.267	-0.094
-390.063	201.970	0.101	0.155
-389.048	507.112	0.144	-0.332
-388.033	401.388	0.052	0.108
-387.019	28.674	-0.157	-0.132
-386.004	253.737	-0.114	-0.194
-384.990	-200.000	0.002	0.159
-383.975	172.454	0.049	0.070
-382.960	-58.244	0.280	0.122
-381.946	-172.085	0.140	0.005
-380.931	-200.000	-0.010	-0.275
-379.917	48.080	-0.065	-0.061
-378.902	-200.000	-0.064	-0.459
-377.888	-200.000	-0.004	-0.453
-376.873	168.934	-0.225	0.319
-375.858	-200.000	0.011	0.299
-374.844	800.000	0.039	0.135
-373.829	-21.958	-0.029	-0.018
-372.815	97.124	0.108	-0.123
-371.800	-200.000	0.052	0.253
-370.785	240.987	0.030	0.049
-369.771	-200.000	0.036	-0.211
-368.756	-70.572	0.198	0.075
-367.742	-80.299	0.216	-0.072
-366.727	-104.173	0.253	0.059
-365.712	52.622	0.093	-0.089
-364.698	-156.120	0.284	-0.018
-363.683	-66.746	0.147	-0.058
-362.669	-53.037	-0.265	0.121
-361.654	277.662	-0.071	-0.125
-360.639	-20.682	0.393	-0.240
-359.625	-200.000	0.019	-0.155
-358.610	-102.713	-0.216	-0.051
-357.596	-13.607	0.169	0.109
-356.581	71.612	-0.232	0.240
-355.566	-99.189	-0.253	0.064
-354.552	-24.036	0.191	0.114
-353.537	-200.000	0.012	-0.118
-352.523	426.051	-0.030	-0.064
-351.508	113.543	-0.039	0.047
-350.493	-200.000	0.071	-0.311
-349.479	-143.630	0.104	-0.010
-348.464	800.000	0.090	0.290
-347.450	-162.382	0.160	0.008
-346.435	-200.000	-0.025	-0.266
-345.420	148.320	0.215	-0.289
-344.406	800.000	0.054	-0.162
-343.391	192.046	-0.143	0.214
-342.377	-200.000	0.055	0.313
-341.362	61.514	0.227	0.224
-340.348	95.065	0.228	-0.258
-339.333	715.166	-0.079	-0.209
-338.318	122.799	-0.086	-0.107
-337.304	-151.173	0.588	-0.044
-336.289	800.000	-0.059	0.210
-335.275	-159.557	0.305	0.017
-334.260	22.519	-0.048	0.039
-333.245	-131.849	-0.371	-0.048
-332.231	654.190	0.079	0.202
-331.216	-102.565	0.244	0.058
-330.202	-83.264	-0.288	0.092
-329.187	-120.189	-0.123	-0.021
-328.172	-61.115	-0.103	-0.043
-327.158	-144.352	-0.190	0.018
-326.143	81.108	0.287	0.307
-325.129	-2.356	-0.108	0.075
-324.114	800.000	0.035	0.148
-323.099	-200.000	0.011	-0.090
-322.085	41.208	-0.268	0.241
-321.070	-200.000	0.011	0.101
-320.056	-141.983	0.409	-0.040
-319.041	800.000	-0.097	0.291
-318.026	-60.310	0.124	0.052
-317.012	42.893	-0.193	-0.174
-315.997	-92.203	0.350	0.098
-314.983	800.000	0.052	-0.187
-313.968	137.091	-0.109	0.142
-312.953	-80.251	-0.174	-0.058
-311.939	800.000	0.096	-0.291
-310.924	-165.367	-0.295	-0.013
-309.910	-63.072	0.169	0.069
-308.895	202.850	-0.046	0.070
-307.880	406.862	0.068	-0.143
-306.866	22.586	-0.142	-0.116
-305.851	152.923	0.170	0.231
-304.837	-35.244	0.111	-0.060
-303.822	72.062	0.154	0.159
-302.807	-121.600	0.156	0.026
-301.793	-109.776	-0.206	-0.043
-300.778	69.878	0.125	-0.128
-299.764	-200.000	0.015	-0.084
-298.749	216.829	-0.091	0.144
-297.735	399.368	-0.143	0.296
-296.720	-135.179	0.300	-0.036
-295.705	-12.261	0.037	-0.024
-294.691	-149.210	0.098	-0.008
-293.676	-82.103	-0.105	0.034
-292.662	800.000	-0.052	-0.158
-291.647	-106.856	-0.121	-0.027
-290.632	53.840	-0.266	0.254
-289.618	702.082	0.036	-0.094
-288.603	154.819	0.176	0.240
-287.589	-128.716	0.139	-0.019
-286.574	-117.509	0.344	0.062
-285.559	102.398	0.104	-0.120
-284.545	182.929	0.140	-0.205
-283.530	-60.380	-0.195	0.082
-282.516	-28.237	-0.102	-0.058
-281.501	800.000	-0.107	0.339
-280.486	-200.000	-0.003	-0.023
-279.472	-200.000	0.059	-0.329
-278.457	12.054	-0.193	0.147
-277.443	93.409	-0.140	-0.157
-276.428	148.576	0.246	-0.329
-275.413	-200.000	0.007	0.172
-274.399	-109.787	-0.240	0.050
-273.384	293.610	0.156	-0.282
-272.370	177.731	-0.162	0.234
-271.355	1.324	0.051	0.036
-270.340	-105.371	-0.337	0.076
-269.326	-200.000	-0.023	-0.112
-268.311	19.522	-0.135	-0.108
-267.297	-70.353	-0.101	0.038
-266.282	15.167	-0.198	0.154
-265.267	152.836	-0.119	-0.161
-264.253	-65.751	0.080	0.032
-263.238	800.000	0.064	0.184
-262.224	422.103	-0.030	-0.063
-261.209	-100.170	-0.102	-0.025
-260.195	65.097	-0.072	-0.072
-259.180	46.857	-0.101	0.093
-258.165	6.660	0.166	0.122
-257.151	-124.675	0.165	-0.025
-256.136	-200.000	0.030	-0.204
-255.122	-200.000	0.007	0.230
-254.107	-129.988	-0.122	-0.017
-253.092	800.000	-0.113	-0.451
-252.078	249.040	0.032	-0.053
-251.063	800.000	-0.019	-0.060
-250.049	248.289	0.143	-0.240
-249.034	522.618	-0.133	0.310
-248.019	-53.690	0.194	0.088
-247.005	-200.000	0.016	0.145
-245.990	-64.839	-0.260	0.104
-244.976	5.950	0.175	0.129
-243.961	69.852	-0.322	-0.329
-242.946	-48.291	0.259	0.124
-241.932	-169.341	-0.145	-0.005
-240.917	-65.935	0.256	-0.101
-239.903	37.936	0.220	-0.194
-238.888	-89.100	0.095	-0.028
-237.873	605.761	0.092	-0.228
-236.859	-46.790	-0.210	0.102
-235.844	-34.216	0.034	0.018
-234.830	-181.706	0.203	-0.004
-233.815	-159.074	-0.086	-0.005
-232.800	111.213	-0.029	0.035
-231.786	800.000	-0.028	-0.085
-230.771	-161.084	-0.424	-0.022
-229.757	-200.000	0.003	0.068
-228.742	-112.449	0.289	0.057
-227.727	-200.000	-0.051	0.296
-226.713	-71.574	0.284	-0.105
-225.698	-200.000	0.022	0.332
-224.684	208.204	0.174	0.269
-223.669	28.562	0.145	0.121
-222.655	-158.225	-0.144	-0.008
-221.640	720.367	0.065	-0.170
-220.625	178.896	0.096	0.138
-219.611	-83.623	0.247	-0.078
-218.596	140.955	0.071	-0.093
-217.582	800.000	-0.171	0.614
-216.567	134.515	0.203	-0.260
-215.552	800.000	-0.042	0.147
-214.538	-200.000	0.015	0.165
-213.523	800.000	0.018	0.055
-212.509	154.819	0.200	-0.272
-211.494	622.626	0.063	0.158
-210.479	269.688	0.057	-0.099
-209.465	-113.082	0.177	-0.035
-208.450	39.352	-0.211	-0.186
-207.436	-58.951	-0.094	0.040
-206.421	800.000	0.047	0.136
-205.406	116.147	-0.221	-0.268
-204.392	-200.000	0.010	0.114
-203.377	-49.081	0.400	0.189
-202.363	-54.787	-0.289	0.129
-201.348	-53.696	0.155	-0.070
-200.333	207.964	-0.024	0.037
-199.319	-95.761	0.244	-0.064
-198.304	-9.484	-0.209	0.138
-197.290	-42.586	0.088	0.045
-196.275	-41.507	-0.178	-0.091
-195.260	-102.847	0.329	0.077
-194.246	483.255	-0.100	-0.224
-193.231	-17.469	0.263	0.164
-192.217	-40.906	-0.281	-0.144
-191.202	-49.847	0.124	-0.058
-190.187	340.557	-0.161	0.310
-189.173	800.000	0.054	0.183
-188.158	-156.500	0.205	-0.013
-187.144	-73.110	0.284	0.103
-186.129	-200.000	0.029	0.190
-185.114	418.950	-0.081	-0.170
-184.100	-56.443	0.074	-0.032
-183.085	185.176	0.106	0.155
-182.071	-175.764	0.184	0.005
-181.056	-200.000	0.063	0.377
-180.042	-200.000	0.029	-0.175
-179.027	-57.592	0.132	0.057
-178.012	800.000	-0.053	0.199
-176.998	44.809	0.190	-0.173
-175.983	-200.000	0.331	0.001
-174.969	-172.947	-0.294	-0.009
-173.954	-200.000	-0.015	0.208
-172.939	48.176	-0.381	0.352
-171.925	240.334	0.136	0.224
-170.910	375.671	0.163	0.328
-169.896	528.693	0.030	0.069
-168.881	-12.246	-0.120	0.077
-167.866	70.838	-0.192	0.197
-166.852	517.056	-0.176	-0.407
-165.837	-124.229	0.234	0.036
-164.823	124.119	-0.199	0.247
-163.808	0.620	0.148	-0.105
-162.793	800.000	0.047	-0.143
-161.779	78.647	0.083	0.088
-160.764	800.000	-0.044	0.157
-159.750	-91.131	0.084	0.024
-158.735	800.000	0.157	-0.441
-157.720	-64.084	-0.142	0.057
-156.706	-16.535	0.077	0.048
-155.691	-200.000	0.024	0.224
-154.677	-65.744	-0.457	-0.181
-153.662	-200.000	-0.075	0.391
-152.647	129.767	-0.084	-0.105
-151.633	123.974	0.127	0.157
-150.618	-179.380	-0.188	-0.004
-149.604	-200.000	0.304	-0.000
-148.589	3.523	0.087	-0.062
-147.574	-19.631	-0.143	-0.087
-146.560	106.206	-0.194	-0.227
-145.545	113.053	-0.317	-0.379
-144.531	-200.000	-0.021	0.138
-143.516	-135.644	-0.277	0.032
-142.502	176.034	-0.102	-0.146
-141.487	-26.133	0.153	0.088
-140.472	-41.690	0.232	0.117
-139.458	140.034	0.095	-0.123
-138.443	449.517	0.068	-0.148
-137.429	800.000	0.036	0.103
-136.414	-107.416	0.212	-0.046
-135.399	-156.773	0.410	0.025
-134.385	171.326	-0.019	-0.027
-133.370	101.577	0.083	-0.095
-132.356	339.088	-0.193	-0.371
-131.341	5.899	-0.147	0.107
-130.326	235.922	0.077	0.126
-129.312	569.754	0.118	0.282
-128.297	100.774	-0.170	0.195
-127.283	-200.000	-0.019	-0.192
-126.268	-90.278	-0.384	-0.110
-125.253	222.997	0.112	0.178
-124.239	4.749	-0.140	-0.101
-123.224	-200.000	0.025	-0.139
-122.210	-200.000	-0.004	-0.067
-121.195	581.029	0.175	0.422
