DTS Sentinel unit serial number:	SN413079Multiplexer serial number:	ORYXHardware model number:	OX4-SRSoftware version number:	ORYX F/W v4.00 Oryx Data Collector v3.7.2.0data status	okinstallation	princeton_trtdifferential loss correction	single-endedforward channel	channel 4reverse channel	N/Adate	2019/09/14time	15:25:35forward acquisition time	60.00reverse acquisition time	0.00gamma	496.2192k internal	0.2291k external	0.2291temperature offset calibration	1.0141default loss term (dB/km)	0.3790temperature slope calibration	1.0000multiplexer offset coefficient	1.0000multiplexer slope coefficient	1.0000fibre end	0.00T internal ref (°C)	39.02T ext. ref 1 (°C)	5.12T ext. ref 2 (°C)	33.49length (m)	temperature (°C)	Stokes	anti-Stokes-747.200	80.631	-0.168	-0.186
-746.185	-157.429	-0.193	-0.012
-745.171	271.315	-0.091	-0.164
-744.156	-38.817	0.137	0.074
-743.142	-200.000	-0.032	-0.150
-742.127	230.800	-0.122	0.205
-741.112	-96.929	-0.294	-0.079
-740.098	-103.439	-0.113	0.027
-739.083	-44.160	0.176	-0.090
-738.069	-22.191	0.111	-0.069
-737.054	36.548	-0.374	-0.338
-736.039	205.305	-0.101	-0.161
-735.025	-135.911	-0.248	0.030
-734.010	107.910	-0.203	-0.248
-732.996	-200.000	0.025	0.227
-731.981	742.415	0.017	-0.047
-730.966	147.349	0.107	0.147
-729.952	-200.000	-0.033	-0.509
-728.937	-103.362	-0.206	0.050
-727.923	39.355	-0.110	-0.101
-726.908	-46.118	-0.160	0.081
-725.894	-25.855	-0.093	0.056
-724.879	64.519	-0.064	-0.066
-723.864	-200.000	0.001	0.111
-722.850	-200.000	-0.027	-0.134
-721.835	63.919	0.128	-0.132
-720.821	-200.000	-0.086	-0.426
-719.806	-150.354	0.289	0.023
-718.791	-80.178	-0.220	0.075
-717.777	-20.782	-0.259	-0.162
-716.762	-54.556	-0.256	-0.119
-715.748	-36.536	0.142	0.078
-714.733	-167.837	-0.311	0.013
-713.718	349.828	-0.059	0.119
-712.704	551.616	-0.093	0.228
-711.689	-135.679	0.309	-0.037
-710.675	-56.172	-0.246	-0.112
-709.660	-130.946	0.137	0.019
-708.645	-85.138	0.161	0.052
-707.631	-200.000	0.017	0.231
-706.616	-200.000	-0.001	-0.071
-705.602	-49.167	0.436	-0.213
-704.587	279.237	0.022	-0.040
-703.572	-39.680	0.076	0.041
-702.558	-200.000	-0.007	-0.289
-701.543	318.088	-0.199	-0.385
-700.529	-200.000	-0.009	-0.109
-699.514	-200.000	0.007	0.063
-698.499	-200.000	-0.024	0.178
-697.485	-164.570	-0.154	-0.007
-696.470	29.449	0.245	-0.213
-695.456	-107.948	-0.435	-0.097
-694.441	-92.040	0.338	-0.098
-693.426	-200.000	0.020	-0.326
-692.412	800.000	0.099	-0.316
-691.397	147.476	0.094	-0.129
-690.383	142.359	0.164	-0.222
-689.368	-200.000	0.014	-0.121
-688.354	-78.352	0.292	0.102
-687.339	95.297	-0.089	0.103
-686.324	-134.512	-0.345	0.043
-685.310	125.711	0.328	0.423
-684.295	-107.562	0.201	0.045
-683.281	434.691	-0.129	-0.287
-682.266	800.000	-0.133	-0.406
-681.251	-200.000	-0.022	0.106
-680.237	-200.000	-0.343	0.000
-679.222	720.351	-0.083	-0.226
-678.208	787.345	-0.024	0.068
-677.193	800.000	-0.065	-0.211
-676.178	-71.179	-0.104	-0.040
-675.164	-35.027	-0.252	-0.140
-674.149	-200.000	0.044	-0.382
-673.135	-200.000	0.045	-0.293
-672.120	433.538	0.047	-0.103
-671.105	-200.000	0.031	0.298
-670.091	23.125	-0.069	0.058
-669.076	88.953	-0.212	-0.241
-668.062	-200.000	0.007	0.069
-667.047	173.933	-0.064	-0.095
-666.032	120.040	-0.095	0.121
-665.018	333.393	-0.215	-0.424
-664.003	-50.384	0.172	-0.083
-662.989	-113.013	-0.159	0.032
-661.974	-111.312	0.233	0.049
-660.959	-92.525	-0.189	-0.054
-659.945	20.686	0.305	0.252
-658.930	-200.000	0.018	0.142
-657.916	-200.000	0.043	-0.225
-656.901	800.000	0.030	0.116
-655.886	31.716	-0.095	0.083
-654.872	-200.000	-0.019	-0.376
-653.857	401.771	-0.051	-0.109
-652.843	800.000	-0.045	0.193
-651.828	-200.000	0.008	0.218
-650.814	-104.157	0.214	0.051
-649.799	-200.000	0.004	-0.042
-648.784	149.994	-0.077	-0.106
-647.770	-200.000	0.000	-0.044
-646.755	-200.000	-0.033	0.209
-645.741	-140.405	0.305	-0.032
-644.726	28.047	-0.164	-0.141
-643.711	-55.416	-0.267	-0.122
-642.697	-200.000	0.007	-0.282
-641.682	800.000	-0.009	0.036
-640.668	-200.000	0.011	-0.186
-639.653	17.081	-0.153	0.124
-638.638	-95.403	-0.340	0.093
-637.624	-182.691	0.173	-0.003
-636.609	-200.000	0.005	0.043
-635.595	22.652	-0.356	-0.297
-634.580	-42.695	0.269	0.139
-633.565	800.000	0.040	-0.121
-632.551	113.316	0.135	-0.167
-631.536	269.516	-0.104	0.186
-630.522	-105.913	-0.208	0.048
-629.507	57.381	-0.111	-0.111
-628.492	-28.778	0.401	0.235
-627.478	595.133	0.133	-0.336
-626.463	-200.000	0.015	-0.311
-625.449	49.095	-0.131	-0.125
-624.434	-47.633	-0.147	-0.073
-623.419	-113.266	-0.385	0.077
-622.405	-90.443	-0.133	-0.039
-621.390	6.276	-0.084	0.064
-620.376	-96.782	-0.230	0.061
-619.361	87.767	-0.085	0.096
-618.346	-107.749	-0.055	-0.012
-617.332	98.355	-0.134	-0.158
-616.317	5.984	-0.117	-0.088
-615.303	218.654	-0.119	-0.193
-614.288	-52.268	-0.044	-0.021
-613.273	-46.386	0.162	0.081
-612.259	323.317	0.163	-0.316
-611.244	199.539	-0.029	0.045
-610.230	409.897	0.086	0.185
-609.215	-8.776	0.028	-0.019
-608.201	-121.223	-0.337	0.057
-607.186	82.452	0.306	-0.339
-606.171	-108.637	-0.349	0.076
-605.157	-134.731	-0.166	-0.021
-604.142	-15.887	0.088	-0.057
-603.128	118.388	-0.092	-0.116
-602.113	747.899	0.141	0.386
-601.098	-120.200	-0.271	0.047
-600.084	-19.953	0.205	-0.129
-599.069	139.809	0.010	-0.014
-598.055	-54.984	0.071	0.032
-597.040	-59.092	0.066	0.029
-596.025	202.950	-0.062	0.098
-595.011	-134.241	-0.286	0.036
-593.996	-100.235	0.152	0.039
-592.982	-69.137	0.190	0.074
-591.967	96.481	0.168	-0.195
-590.952	-162.396	0.287	-0.014
-589.938	800.000	-0.076	-0.309
-588.923	-74.809	-0.361	0.132
-587.909	332.691	-0.084	-0.164
-586.894	-186.953	0.070	-0.001
-585.879	42.861	0.254	-0.236
-584.865	373.391	0.085	-0.177
-583.850	-200.000	-0.020	-0.265
-582.836	103.456	0.170	-0.203
-581.821	81.201	0.051	0.056
-580.806	-91.758	0.018	0.005
-579.792	-200.000	0.013	0.130
-578.777	121.281	-0.145	-0.183
-577.763	-60.749	-0.150	0.065
-576.748	-172.339	-0.094	-0.003
-575.733	-29.226	0.253	-0.148
-574.719	800.000	-0.009	0.029
-573.704	800.000	-0.050	-0.174
-572.690	-39.085	-0.147	-0.079
-571.675	-70.143	0.123	0.047
-570.661	-200.000	0.001	0.104
-569.646	-200.000	0.002	0.487
-568.631	223.788	-0.074	0.122
-567.617	-115.836	0.315	-0.060
-566.602	67.835	-0.054	-0.056
-565.588	-200.000	0.003	-0.130
-564.573	-107.895	0.204	-0.045
-563.558	-71.794	0.177	0.067
-562.544	111.375	0.146	0.178
-561.529	249.830	-0.232	0.400
-560.515	-200.000	-0.003	0.140
-559.500	-200.000	-0.032	0.359
-558.485	-200.000	0.055	-0.254
-557.471	-200.000	-0.042	0.315
-556.456	294.178	0.129	-0.239
-555.442	-200.000	-0.028	-0.169
-554.427	-200.000	0.057	-0.257
-553.412	-30.396	-0.232	-0.134
-552.398	-170.774	0.427	-0.015
-551.383	-92.757	0.236	-0.067
-550.369	72.298	-0.187	0.198
-549.354	-113.033	0.306	-0.061
-548.339	134.899	-0.074	0.098
-547.325	193.393	-0.196	0.302
-546.310	-200.000	0.008	-0.113
-545.296	15.962	-0.214	-0.171
-544.281	177.875	-0.137	-0.203
-543.266	75.211	-0.169	-0.181
-542.252	-187.648	-0.170	0.002
-541.237	-200.000	-0.013	0.082
-540.223	104.356	-0.062	0.074
-539.208	-113.077	-0.366	-0.073
-538.193	-163.195	-0.199	-0.010
-537.179	251.072	-0.124	0.215
-536.164	189.619	0.097	-0.147
-535.150	499.060	0.092	-0.216
-534.135	-104.590	-0.286	0.067
-533.121	103.087	-0.160	0.190
-532.106	105.665	-0.205	-0.246
-531.091	15.926	-0.139	-0.111
-530.077	-117.476	0.191	-0.035
-529.062	14.700	-0.187	-0.148
-528.048	-145.878	-0.284	-0.026
-527.033	-200.000	-0.037	-0.264
-526.018	504.062	-0.118	-0.277
-525.004	800.000	0.064	-0.183
-523.989	212.508	-0.089	0.142
-522.975	117.409	-0.153	0.191
-521.960	-130.383	0.146	-0.020
-520.945	-200.000	0.033	-0.224
-519.931	-200.000	-0.003	-0.118
-518.916	-68.465	0.175	0.069
-517.902	-67.654	0.058	0.023
-516.887	-22.070	-0.109	0.067
-515.872	-55.457	0.365	0.166
-514.858	127.648	-0.198	0.255
-513.843	-79.152	-0.182	0.063
-512.829	-127.165	-0.074	0.011
-511.814	800.000	0.033	0.099
-510.799	-99.251	0.457	0.117
-509.785	2.909	0.153	0.113
-508.770	470.428	-0.045	-0.103
-507.756	-200.000	0.013	-0.065
-506.741	-200.000	0.035	-0.201
-505.726	311.323	-0.072	0.138
-504.712	104.579	-0.144	0.172
-503.697	-200.000	0.037	0.197
-502.683	-22.626	-0.105	-0.064
-501.668	-200.000	-0.042	0.303
-500.653	-91.587	-0.107	0.031
-499.639	-29.755	0.141	-0.082
-498.624	-200.000	-0.002	0.114
-497.610	800.000	-0.031	-0.090
-496.595	103.559	-0.076	-0.091
-495.581	-95.553	0.446	-0.121
-494.566	115.468	-0.098	0.121
-493.551	-200.000	-0.024	-0.156
-492.537	82.471	-0.225	0.247
-491.522	800.000	-0.128	0.417
-490.508	-89.337	0.166	0.050
-489.493	-59.496	0.111	0.049
-488.478	68.531	-0.319	-0.332
-487.464	524.638	-0.048	-0.114
-486.449	306.244	-0.085	-0.160
-485.435	-166.224	0.039	0.002
-484.420	-108.040	0.165	0.036
-483.405	-200.000	0.013	0.099
-482.391	-25.676	0.220	-0.132
-481.376	-99.970	-0.081	-0.020
-480.362	-92.366	-0.196	-0.056
-479.347	-121.386	0.200	0.034
-478.332	800.000	-0.039	0.133
-477.318	335.651	-0.054	-0.106
-476.303	-100.838	-0.279	0.070
-475.289	800.000	0.030	0.100
-474.274	87.142	0.140	0.157
-473.259	800.000	0.056	-0.204
-472.245	-82.267	0.096	-0.032
-471.230	-200.000	-0.023	0.193
-470.216	-200.000	0.024	0.126
-469.201	284.295	-0.122	-0.222
-468.186	-140.069	0.086	0.009
-467.172	352.225	-0.109	-0.219
-466.157	466.163	0.136	0.308
-465.143	-169.614	0.360	0.013
-464.128	70.847	-0.193	0.202
-463.113	-75.764	-0.460	0.165
-462.099	800.000	0.076	0.257
-461.084	496.422	-0.133	-0.309
-460.070	-200.000	-0.003	-0.063
-459.055	1.795	0.190	0.138
-458.040	236.841	-0.082	0.137
-457.026	800.000	0.008	-0.033
-456.011	-200.000	-0.050	-0.329
-454.997	-200.000	0.000	0.261
-453.982	207.739	0.081	0.128
-452.968	-118.442	-0.089	0.016
-451.953	-200.000	0.006	0.199
-450.938	135.643	-0.298	-0.393
-449.924	342.291	-0.025	-0.049
-448.909	158.047	-0.085	-0.119
-447.895	800.000	-0.055	-0.157
-446.880	800.000	-0.077	-0.251
-445.865	53.625	-0.139	-0.135
-444.851	-200.000	0.004	-0.187
-443.836	-82.806	0.344	-0.113
-442.822	-103.744	-0.059	0.014
-441.807	-23.314	-0.186	-0.113
-440.792	-200.000	0.038	-0.212
-439.778	208.079	-0.257	-0.407
-438.763	5.609	0.221	-0.165
-437.749	800.000	-0.082	0.294
-436.734	-9.808	0.119	0.080
-435.719	-104.777	0.155	-0.036
-434.705	-200.000	0.037	0.256
-433.690	-21.065	0.147	-0.091
-432.676	-200.000	0.012	-0.272
-431.661	191.265	0.091	-0.138
-430.646	-4.583	-0.094	-0.066
-429.632	14.819	0.090	0.071
-428.617	504.370	-0.051	0.120
-427.603	187.662	-0.167	0.252
-426.588	-200.000	-0.033	-0.207
-425.573	-200.000	0.032	0.292
-424.559	90.335	-0.106	0.120
-423.544	-39.447	-0.225	0.119
-422.530	-78.518	-0.050	0.017
-421.515	-33.011	-0.076	-0.042
-420.500	-200.000	0.089	0.414
-419.486	-117.899	-0.031	-0.006
-418.471	800.000	0.044	0.130
-417.457	-91.552	-0.065	-0.019
-416.442	-24.019	-0.188	-0.114
-415.428	55.938	0.373	0.366
-414.413	384.940	0.122	0.254
-413.398	-148.239	0.256	0.021
-412.384	338.619	0.028	-0.054
-411.369	176.499	-0.134	-0.197
-410.355	-93.472	-0.139	-0.039
-409.340	-200.000	-0.040	0.190
-408.325	800.000	0.069	0.210
-407.311	-71.611	0.200	0.075
-406.296	-200.000	0.011	0.130
-405.282	-58.292	0.091	0.040
-404.267	156.722	-0.066	0.092
-403.252	44.319	-0.120	0.111
-402.238	-25.104	0.090	0.054
-401.223	-200.000	0.019	-0.178
-400.209	-200.000	0.011	0.184
-399.194	-200.000	-0.015	-0.099
-398.179	331.891	-0.084	-0.163
-397.165	35.774	0.203	0.180
-396.150	31.762	0.200	0.174
-395.136	-200.000	-0.007	-0.084
-394.121	800.000	-0.124	-0.362
-393.106	237.229	-0.074	0.125
-392.092	213.629	0.024	0.038
-391.077	365.894	0.037	-0.076
-390.063	800.000	-0.008	-0.032
-389.048	-5.941	-0.128	-0.088
-388.033	684.691	-0.018	-0.048
-387.019	419.630	-0.098	0.213
-386.004	-93.698	0.196	0.054
-384.990	800.000	0.018	0.071
-383.975	-138.242	0.224	-0.025
-382.960	-41.412	-0.256	0.133
-381.946	18.412	0.071	0.057
-380.931	561.291	-0.147	0.358
-379.917	15.370	0.118	0.093
-378.902	-103.982	0.123	-0.029
-377.888	23.844	0.220	-0.183
-376.873	-194.951	0.166	0.001
-375.858	-200.000	-0.025	0.241
-374.844	-116.466	0.126	-0.023
-373.829	55.864	0.084	-0.082
-372.815	-158.251	0.200	-0.012
-371.800	-62.215	-0.352	-0.148
-370.785	-27.829	-0.301	0.176
-369.771	-200.000	-0.013	-0.079
-368.756	55.010	-0.120	0.117
-367.742	-45.760	0.241	-0.120
-366.727	378.698	-0.077	-0.159
-365.712	-96.382	-0.365	-0.098
-364.698	-88.506	0.071	0.021
-363.683	-200.000	0.028	0.252
-362.669	-114.534	0.510	-0.099
-361.654	800.000	0.009	-0.031
-360.639	-13.863	0.119	-0.078
-359.625	-105.099	-0.118	-0.027
-358.610	-107.154	-0.080	0.018
-357.596	-200.000	-0.038	0.222
-356.581	-31.344	0.067	0.038
-355.566	-92.833	-0.117	-0.033
-354.552	-200.000	0.001	-0.037
-353.537	585.492	0.079	0.196
-352.523	135.529	0.118	-0.154
-351.508	123.961	-0.253	0.321
-350.493	-72.427	-0.004	-0.002
-349.479	126.891	-0.119	0.152
-348.464	-104.246	-0.276	-0.065
-347.450	-200.000	0.031	0.267
-346.435	-68.435	0.121	-0.047
-345.420	-110.408	-0.124	-0.026
-344.406	-200.000	-0.017	0.098
-343.391	-18.915	0.176	-0.111
-342.377	102.746	-0.063	0.074
-341.362	-200.000	0.019	0.195
-340.348	107.553	0.180	-0.216
-339.333	51.556	0.104	0.099
-338.318	125.955	0.102	-0.130
-337.304	-19.494	0.100	-0.062
-336.289	-200.000	-0.007	0.042
-335.275	24.050	-0.300	-0.249
-334.260	-94.590	0.469	-0.128
-333.245	-200.000	-0.041	0.662
-332.231	-34.926	0.206	0.113
-331.216	421.385	-0.134	-0.290
-330.202	800.000	-0.053	-0.206
-329.187	-75.395	0.264	-0.095
-328.172	12.204	0.090	-0.070
-327.158	-0.827	0.107	-0.076
-326.143	-75.845	0.189	-0.068
-325.129	-168.879	-0.003	0.000
-324.114	-82.811	0.136	0.044
-323.099	-200.000	0.021	0.253
-322.085	-111.141	0.248	-0.051
-321.070	505.971	0.026	0.061
-320.056	639.115	0.053	-0.137
-319.041	-159.295	-0.306	0.017
-318.026	800.000	0.110	-0.345
-317.012	203.784	0.203	-0.316
-315.997	530.439	-0.157	0.374
-314.983	-52.107	0.115	-0.054
-313.968	-200.000	-0.024	0.246
-312.953	-112.406	-0.080	0.016
-311.939	162.600	-0.226	-0.320
-310.924	800.000	-0.068	-0.220
-309.910	-200.000	-0.033	-0.353
-308.895	800.000	-0.053	0.175
-307.880	-109.775	-0.355	0.075
-306.866	-47.757	0.313	0.153
-305.851	467.841	0.139	-0.315
-304.837	800.000	0.085	0.259
-303.822	-67.875	-0.430	-0.169
-302.807	-106.241	-0.138	0.031
-301.793	72.819	-0.029	-0.031
-300.778	156.610	0.124	-0.173
-299.764	73.100	0.033	-0.035
-298.749	-200.000	-0.018	0.213
-297.735	555.291	0.058	0.141
-296.720	-48.409	-0.154	-0.074
-295.705	28.552	0.109	-0.093
-294.691	138.201	0.051	-0.067
-293.676	-125.723	-0.241	0.037
-292.662	659.780	-0.078	0.203
-291.647	131.443	0.073	-0.095
-290.632	-37.945	0.394	-0.211
-289.618	-200.000	-0.002	0.171
-288.603	-200.000	-0.012	0.065
-287.589	800.000	0.057	-0.224
-286.574	40.481	-0.090	-0.082
-285.559	-10.348	-0.303	0.202
-284.545	-154.538	-0.070	-0.005
-283.530	-76.044	-0.178	-0.063
-282.516	-34.496	0.524	-0.289
-281.501	14.999	-0.058	0.045
-280.486	-18.117	-0.124	-0.078
-279.472	203.340	-0.097	-0.150
-278.457	-200.000	0.002	-0.310
-277.443	-90.344	0.224	0.066
-276.428	119.590	-0.081	0.100
-275.413	-200.000	0.002	0.071
-274.399	-200.000	0.024	0.378
-273.384	-77.680	0.131	0.045
-272.370	102.934	0.033	-0.039
-271.355	-131.774	0.382	-0.050
-270.340	800.000	-0.091	-0.378
-269.326	92.457	0.107	0.121
-268.311	-180.451	0.104	-0.002
-267.297	22.919	-0.102	-0.084
-266.282	81.789	-0.093	0.101
-265.267	732.359	-0.046	0.123
-264.253	-82.006	0.265	-0.087
-263.238	-200.000	-0.004	-0.337
-262.224	51.616	0.276	-0.263
-261.209	-72.212	-0.222	0.083
-260.195	563.755	-0.053	-0.129
-259.180	-200.000	-0.082	0.402
-258.165	381.335	0.024	-0.049
-257.151	-23.856	0.094	0.057
-256.136	-7.660	0.138	0.094
-255.122	266.930	-0.079	-0.139
-254.107	200.083	0.069	0.106
-253.092	-200.000	-0.018	-0.134
-252.078	-58.230	-0.147	0.064
-251.063	286.418	-0.096	0.174
-250.049	-81.809	0.237	0.078
-249.034	800.000	0.056	0.167
-248.019	-168.697	0.162	-0.006
-247.005	-50.312	0.042	0.020
-245.990	-95.245	-0.211	0.057
-244.976	53.431	0.157	-0.151
-243.961	-127.726	0.386	-0.056
-242.946	-111.177	0.208	-0.043
-241.932	-133.442	-0.230	-0.029
-240.917	-150.609	-0.199	0.015
-239.903	118.315	-0.323	-0.400
-238.888	-105.656	-0.120	-0.027
-237.873	-49.109	0.129	-0.062
-236.859	-82.972	-0.512	0.166
-235.844	-93.411	-0.131	-0.036
-234.830	-200.000	0.040	-0.329
-233.815	-78.662	-0.248	0.085
-232.800	-80.720	-0.284	0.095
-231.786	92.396	-0.026	0.030
-230.771	-26.989	-0.094	0.055
-229.757	-49.996	0.155	-0.074
-228.742	-92.260	-0.292	-0.083
-227.727	-50.763	-0.070	0.033
-226.713	-20.631	-0.280	-0.173
-225.698	319.728	-0.169	0.322
-224.684	-97.121	-0.038	0.010
-223.669	527.381	0.054	0.127
-222.655	303.516	0.091	0.170
-221.640	-200.000	-0.005	-0.152
-220.625	-57.568	-0.107	-0.047
-219.611	291.407	-0.062	-0.114
-218.596	-88.534	0.103	0.031
-217.582	-200.000	-0.008	-0.079
-216.567	-30.364	-0.117	-0.067
-215.552	-140.783	-0.065	-0.007
-214.538	-143.332	-0.192	0.018
-213.523	-22.228	0.419	0.255
-212.509	800.000	0.073	-0.245
-211.494	-57.712	0.065	0.028
-210.479	800.000	0.063	0.227
-209.465	-190.298	-0.220	0.002
-208.450	-88.477	-0.366	-0.109
-207.436	284.263	-0.045	-0.081
-206.421	100.719	0.168	-0.195
-205.406	-136.067	0.194	-0.023
-204.392	190.182	0.061	0.092
-203.377	-200.000	-0.065	0.302
-202.363	372.655	0.142	0.288
-201.348	-200.000	-0.007	-0.080
-200.333	-178.881	0.383	0.009
-199.319	-200.000	0.022	0.183
-198.304	-121.891	0.301	0.050
-197.290	-110.745	-0.093	0.019
-196.275	-200.000	-0.002	-0.143
-195.260	-53.033	0.254	0.117
-194.246	467.666	-0.145	0.325
-193.231	-10.124	0.163	0.108
-192.217	-200.000	-0.010	0.111
-191.202	17.525	-0.162	0.129
-190.187	708.990	-0.131	0.347
-189.173	800.000	0.149	0.450
-188.158	-75.723	0.448	-0.159
-187.144	-34.398	0.289	0.159
-186.129	1.226	0.321	-0.231
-185.114	-103.310	-0.094	0.022
-184.100	229.994	0.203	0.332
-183.085	311.647	0.059	0.111
-182.071	273.426	-0.082	-0.146
-181.056	-99.287	0.179	0.045
-180.042	-120.444	-0.183	-0.031
-179.027	-200.000	0.022	-0.149
-178.012	-62.612	0.232	-0.096
-176.998	224.724	-0.197	0.319
-175.983	-200.000	0.011	-0.196
-174.969	145.856	-0.061	-0.082
-173.954	157.945	0.028	0.038
-172.939	-200.000	0.001	-0.137
-171.925	-200.000	-0.005	-0.027
-170.910	56.050	0.252	-0.245
-169.896	-14.805	0.235	-0.151
-168.881	118.005	-0.128	0.158
-167.866	-146.067	0.090	0.008
-166.852	-22.110	-0.178	-0.108
-165.837	156.622	0.261	0.361
-164.823	154.980	-0.141	-0.194
-163.808	-200.000	-0.000	-0.010
-162.793	107.852	0.066	0.079
-161.779	800.000	0.034	-0.100
-160.764	-8.281	-0.128	0.086
-159.750	-200.000	0.012	0.099
-158.735	-200.000	0.014	0.118
-157.720	-10.182	0.227	-0.151
-156.706	134.104	0.054	-0.070
-155.691	38.243	0.281	-0.250
-154.677	-49.820	0.243	0.115
-153.662	800.000	-0.037	0.134
-152.647	-200.000	-0.017	0.277
-151.633	114.188	-0.110	0.134
-150.618	-186.252	0.293	-0.004
-149.604	-95.701	0.495	-0.132
-148.589	-60.186	-0.227	-0.097
-147.574	-66.751	-0.344	0.136
-146.560	200.490	0.137	-0.211
-145.545	428.644	-0.104	-0.224
-144.531	-13.376	-0.244	0.159
-143.516	15.506	0.021	-0.017
-142.502	74.099	0.264	0.277
-141.487	-162.233	-0.090	-0.004
-140.472	371.784	0.048	0.098
-139.458	629.324	-0.105	0.265
-138.443	-200.000	-0.074	0.327
-137.429	-200.000	-0.037	0.410
-136.414	-72.124	-0.098	-0.036
-135.399	-127.310	0.380	-0.055
-134.385	-146.050	-0.166	-0.015
-133.370	35.948	-0.101	-0.089
-132.356	-159.963	0.379	-0.021
-131.341	22.183	0.031	0.025
-130.326	-89.969	0.397	-0.116
-129.312	747.570	-0.095	0.257
-128.297	299.837	-0.051	0.093
-127.283	-130.923	0.261	0.035
-126.268	-84.763	0.091	-0.029
-125.253	624.617	-0.030	0.076
-124.239	-59.748	0.329	0.141
