DTS Sentinel unit serial number:	SN413079Multiplexer serial number:	ORYXHardware model number:	OX4-SRSoftware version number:	ORYX F/W v4.00 Oryx Data Collector v3.7.2.0data status	okinstallation	princeton_trtdifferential loss correction	single-endedforward channel	channel 4reverse channel	N/Adate	2019/09/11time	20:51:10forward acquisition time	60.00reverse acquisition time	0.00gamma	496.2192k internal	0.2304k external	0.2304temperature offset calibration	1.0062default loss term (dB/km)	0.3790temperature slope calibration	1.0000multiplexer offset coefficient	1.0000multiplexer slope coefficient	1.0000fibre end	0.00T internal ref (°C)	36.94T ext. ref 1 (°C)	1.58T ext. ref 2 (°C)	30.83length (m)	temperature (°C)	Stokes	anti-Stokes-747.200	-19.090	-0.166	0.105
-746.185	109.159	0.123	0.150
-745.171	-119.218	0.230	0.041
-744.156	269.759	-0.128	0.229
-743.142	-50.258	-0.141	0.068
-742.127	138.410	-0.061	0.082
-741.112	708.664	0.071	-0.190
-740.098	91.316	0.002	0.002
-739.083	64.893	0.175	0.180
-738.069	562.495	-0.169	0.417
-737.054	156.649	-0.087	-0.122
-736.039	316.432	-0.071	-0.136
-735.025	174.055	-0.088	0.130
-734.010	-200.000	0.011	-0.208
-732.996	108.649	0.057	-0.070
-731.981	-200.000	0.008	-0.056
-730.966	-200.000	0.013	0.224
-729.952	-200.000	-0.027	-0.207
-728.937	-29.646	-0.360	0.209
-727.923	-179.342	0.150	-0.003
-726.908	55.964	0.019	-0.019
-725.894	-200.000	-0.004	-0.299
-724.879	800.000	0.077	-0.325
-723.864	471.620	-0.053	0.121
-722.850	-144.411	-0.215	-0.020
-721.835	-200.000	0.054	-0.260
-720.821	800.000	-0.144	0.599
-719.806	536.381	0.157	0.378
-718.791	-200.000	-0.045	-0.340
-717.777	56.504	0.265	0.263
-716.762	-86.457	-0.288	-0.090
-715.748	-57.933	-0.187	0.083
-714.733	51.704	0.121	-0.117
-713.718	-141.940	-0.338	0.034
-712.704	-200.000	0.009	-0.107
-711.689	800.000	0.030	0.100
-710.675	-107.704	-0.227	0.050
-709.660	-41.995	-0.341	0.177
-708.645	-166.346	0.278	0.012
-707.631	-75.295	-0.228	-0.083
-706.616	228.936	0.074	-0.122
-705.602	-72.818	-0.356	0.133
-704.587	-45.048	0.141	-0.072
-703.572	526.075	0.058	-0.140
-702.558	176.704	-0.092	0.136
-701.543	800.000	-0.039	0.157
-700.529	569.490	-0.061	0.151
-699.514	573.242	0.086	-0.213
-698.499	32.358	-0.155	0.136
-697.485	-138.711	0.081	-0.009
-696.470	-200.000	0.019	0.090
-695.456	-200.000	-0.007	-0.180
-694.441	629.159	0.085	-0.219
-693.426	-200.000	-0.011	-0.166
-692.412	172.495	-0.273	-0.399
-691.397	-0.765	-0.135	-0.097
-690.383	-200.000	0.031	-0.404
-689.368	548.183	0.103	-0.249
-688.354	310.958	-0.114	0.216
-687.339	249.015	-0.225	-0.387
-686.324	16.091	-0.240	0.192
-685.310	55.515	-0.194	-0.191
-684.295	-154.117	-0.259	0.018
-683.281	800.000	-0.078	0.243
-682.266	-164.878	0.162	-0.007
-681.251	243.602	0.182	-0.311
-680.237	48.283	-0.221	-0.210
-679.222	-99.502	0.037	0.010
-678.208	-151.981	-0.330	0.024
-677.193	474.402	0.134	0.307
-676.178	9.364	-0.072	-0.055
-675.164	-173.894	-0.431	0.013
-674.149	126.807	-0.193	0.249
-673.135	135.002	0.136	-0.179
-672.120	187.730	-0.107	0.161
-671.105	-200.000	-0.048	0.253
-670.091	-38.260	-0.203	0.109
-669.076	-147.131	0.156	0.014
-668.062	153.240	0.071	-0.099
-667.047	-109.384	-0.187	0.040
-666.032	-174.761	-0.392	-0.011
-665.018	-64.985	0.237	-0.097
-664.003	210.091	-0.202	0.322
-662.989	247.577	0.057	0.098
-661.974	118.156	0.140	0.175
-660.959	800.000	-0.115	-0.383
-659.945	-162.430	-0.180	0.009
-658.930	-53.619	-0.170	-0.079
-657.916	-200.000	0.002	-0.012
-656.901	14.833	-0.113	-0.089
-655.886	800.000	0.106	-0.318
-654.872	-140.548	0.173	-0.018
-653.857	98.996	0.173	-0.203
-652.843	-27.101	0.121	-0.072
-651.828	-94.280	-0.213	0.059
-650.814	63.443	0.026	-0.026
-649.799	698.137	0.048	0.127
-648.784	32.398	-0.106	-0.093
-647.770	-200.000	0.011	-0.371
-646.755	414.067	-0.045	0.098
-645.741	106.350	-0.297	-0.356
-644.726	340.249	0.148	0.293
-643.711	-106.563	0.131	0.030
-642.697	-200.000	-0.032	-0.251
-641.682	408.456	-0.123	0.264
-640.668	-192.970	0.183	0.002
-639.653	-200.000	0.033	0.266
-638.638	-11.436	-0.401	0.268
-637.624	-200.000	-0.011	0.187
-636.609	117.796	0.175	0.218
-635.595	348.671	-0.143	0.287
-634.580	74.490	-0.205	0.218
-633.565	57.895	0.088	-0.088
-632.551	-200.000	-0.017	0.127
-631.536	-200.000	0.026	-0.328
-630.522	-46.615	-0.184	0.091
-629.507	352.359	-0.060	-0.121
-628.492	-68.100	-0.271	0.107
-627.478	-110.715	0.241	0.050
-626.463	153.054	0.148	0.205
-625.449	-65.519	0.202	0.082
-624.434	-9.579	-0.143	-0.097
-623.419	-146.377	-0.131	0.012
-622.405	-152.531	0.294	-0.021
-621.390	-89.552	-0.285	0.085
-620.376	56.935	-0.095	0.094
-619.361	-69.903	0.150	0.058
-618.346	-91.378	-0.353	0.102
-617.332	-163.164	-0.174	0.008
-616.317	-200.000	0.021	-0.110
-615.303	-65.347	0.086	-0.035
-614.288	22.954	0.155	0.129
-613.273	800.000	-0.050	-0.215
-612.259	-85.887	-0.252	0.079
-611.244	15.233	0.156	0.124
-610.230	-101.519	0.241	-0.059
-609.215	800.000	0.070	0.204
-608.201	-13.515	-0.267	0.176
-607.186	169.825	-0.129	0.187
-606.171	78.677	0.122	-0.132
-605.157	-200.000	0.017	0.181
-604.142	-200.000	0.043	0.404
-603.128	155.672	-0.205	0.286
-602.113	-155.568	0.205	0.013
-601.098	102.055	-0.040	0.048
-600.084	56.806	-0.240	-0.237
-599.069	-70.721	-0.188	0.072
-598.055	800.000	-0.027	0.097
-597.040	-200.000	0.009	0.051
-596.025	800.000	0.020	-0.072
-595.011	-27.021	0.036	0.021
-593.996	74.238	0.185	0.197
-592.982	-105.132	0.164	0.038
-591.967	-103.171	-0.050	0.012
-590.952	123.649	0.039	-0.050
-589.938	-200.000	0.063	-0.387
-588.923	-200.000	-0.021	-0.331
-587.909	313.223	0.143	-0.273
-586.894	-200.000	0.035	-0.212
-585.879	-4.927	0.047	-0.033
-584.865	20.389	0.314	-0.256
-583.850	-63.286	0.046	0.019
-582.836	800.000	-0.032	-0.097
-581.821	-115.440	-0.266	-0.051
-580.806	-200.000	-0.022	0.508
-579.792	-200.000	-0.014	0.061
-578.777	683.025	-0.021	-0.055
-577.763	-11.310	-0.165	-0.110
-576.748	230.862	0.053	0.088
-575.733	-200.000	0.023	-0.186
-574.719	800.000	0.078	-0.331
-573.704	41.194	-0.135	0.123
-572.690	-200.000	-0.049	-0.359
-571.675	-161.771	0.114	-0.006
-570.661	-131.198	0.293	0.039
-569.646	78.528	0.030	-0.032
-568.631	82.314	-0.126	-0.138
-567.617	800.000	-0.070	-0.197
-566.602	146.230	-0.136	0.185
-565.588	164.350	-0.183	0.260
-564.573	57.362	0.077	-0.076
-563.558	-200.000	0.059	-0.390
-562.544	-61.181	-0.242	0.103
-561.529	-87.381	0.025	0.008
-560.515	122.176	-0.072	0.090
-559.500	800.000	0.031	0.105
-558.485	-200.000	0.012	-0.140
-557.471	-200.000	-0.017	0.154
-556.456	126.011	-0.082	0.105
-555.442	332.426	-0.095	-0.186
-554.427	5.653	0.242	-0.181
-553.412	264.163	0.099	0.175
-552.398	800.000	-0.092	-0.278
-551.383	800.000	0.099	-0.373
-550.369	-113.393	-0.230	0.046
-549.354	212.584	0.233	-0.372
-548.339	-119.079	-0.170	0.030
-547.325	800.000	0.084	0.238
-546.310	-126.912	0.108	-0.016
-545.296	800.000	0.093	-0.300
-544.281	530.128	-0.064	0.152
-543.266	-116.272	-0.185	0.035
-542.252	-200.000	0.013	0.191
-541.237	0.170	0.167	0.120
-540.223	-127.488	-0.393	0.058
-539.208	-200.000	-0.029	-0.225
-538.193	-127.003	-0.310	0.046
-537.179	693.822	-0.110	0.291
-536.164	800.000	0.068	0.286
-535.150	-12.614	-0.255	-0.168
-534.135	22.092	0.135	-0.111
-533.121	164.072	-0.205	0.291
-532.106	-140.801	-0.321	-0.033
-531.091	18.639	-0.256	-0.207
-530.077	599.848	0.042	-0.106
-529.062	-194.061	0.102	-0.001
-528.048	5.088	0.159	-0.118
-527.033	38.834	-0.007	-0.006
-526.018	-101.332	-0.188	0.046
-525.004	-153.096	0.580	0.041
-523.989	-43.603	-0.297	0.151
-522.975	-200.000	-0.050	0.227
-521.960	140.341	0.079	0.106
-520.945	-35.746	-0.378	0.207
-519.931	-82.388	-0.093	0.031
-518.916	15.946	0.250	-0.198
-517.902	-63.038	-0.285	0.119
-516.887	-102.662	-0.046	-0.011
-515.872	-131.320	0.002	-0.000
-514.858	22.782	0.192	-0.159
-513.843	-141.078	-0.163	0.017
-512.829	-60.535	-0.274	-0.117
-511.814	207.607	0.029	-0.046
-510.799	800.000	-0.071	0.259
-509.785	-99.099	-0.065	-0.017
-508.770	-124.777	-0.554	-0.086
-507.756	5.340	-0.134	-0.100
-506.741	34.821	0.321	-0.284
-505.726	-39.123	-0.210	0.111
-504.712	800.000	-0.057	0.202
-503.697	157.373	0.175	-0.245
-502.683	-91.153	-0.369	-0.107
-501.668	-200.000	-0.022	-0.175
-500.653	-200.000	-0.029	-0.249
-499.639	89.228	0.110	0.124
-498.624	-172.262	0.107	0.003
-497.610	-36.584	-0.042	-0.023
-496.595	-171.245	-0.259	0.009
-495.581	-141.902	0.109	-0.011
-494.566	-200.000	0.071	0.362
-493.551	-185.669	0.057	-0.001
-492.537	-1.178	0.242	-0.173
-491.522	-57.918	0.330	0.145
-490.508	800.000	-0.050	0.202
-489.493	-200.000	0.023	-0.127
-488.478	-111.738	0.412	-0.084
-487.464	-42.353	0.139	-0.072
-486.449	-60.704	0.031	0.013
-485.435	89.804	0.153	-0.172
-484.420	133.023	0.063	0.082
-483.405	302.599	0.083	0.155
-482.391	-200.000	0.009	-0.182
-481.376	-110.408	0.196	-0.041
-480.362	-137.456	-0.248	-0.028
-479.347	-40.791	0.126	-0.066
-478.332	62.413	-0.196	-0.198
-477.318	-95.057	0.506	-0.138
-476.303	73.880	-0.170	0.180
-475.289	336.788	-0.084	-0.164
-474.274	-200.000	0.019	0.215
-473.259	-200.000	0.010	-0.157
-472.245	476.164	0.099	0.226
-471.230	-200.000	-0.037	-0.179
-470.216	33.603	-0.283	-0.248
-469.201	601.135	0.080	0.199
-468.186	-139.036	0.265	0.029
-467.172	-28.045	0.151	-0.088
-466.157	18.497	0.101	-0.081
-465.143	19.186	0.350	-0.283
-464.128	511.217	-0.044	-0.103
-463.113	516.903	-0.069	0.162
-462.099	22.969	-0.213	-0.176
-461.084	330.814	0.084	-0.164
-460.070	-123.798	-0.196	-0.031
-459.055	-11.406	0.288	-0.191
-458.040	-24.068	-0.162	-0.097
-457.026	-121.657	-0.215	0.036
-456.011	712.119	0.108	-0.289
-454.997	-200.000	0.047	0.335
-453.982	125.633	-0.168	0.214
-452.968	69.007	-0.080	0.083
-451.953	279.908	0.261	-0.470
-450.938	11.699	0.176	-0.136
-449.924	-15.721	-0.219	-0.140
-448.909	-62.442	0.302	-0.126
-447.895	800.000	0.029	0.113
-446.880	58.800	0.278	-0.275
-445.865	-120.313	0.269	0.046
-444.851	800.000	-0.098	-0.306
-443.836	411.221	-0.131	-0.281
-442.822	10.505	-0.297	-0.228
-441.807	-26.048	0.124	-0.073
-440.792	-200.000	-0.083	0.395
-439.778	-38.280	0.157	-0.084
-438.763	51.463	0.224	-0.214
-437.749	-57.576	0.209	0.092
-436.734	31.201	-0.062	0.054
-435.719	800.000	-0.007	0.024
-434.705	800.000	-0.048	-0.160
-433.690	625.280	-0.055	0.140
-432.676	261.105	0.110	-0.192
-431.661	-200.000	-0.028	0.293
-430.646	-200.000	0.004	-0.170
-429.632	800.000	-0.026	0.087
-428.617	121.557	-0.182	0.228
-427.603	3.487	0.269	-0.197
-426.588	-200.000	0.086	-0.397
-425.573	-133.480	-0.129	-0.016
-424.559	163.678	-0.139	0.196
-423.544	-174.482	-0.194	-0.006
-422.530	251.848	-0.068	0.117
-421.515	-86.762	-0.052	-0.016
-420.500	295.439	0.151	-0.277
-419.486	800.000	0.086	0.283
-418.471	420.809	-0.081	0.174
-417.457	-200.000	0.024	0.246
-416.442	-200.000	-0.006	-0.123
-415.428	-139.316	0.189	-0.020
-414.413	38.143	0.099	-0.089
-413.398	-152.933	-0.399	0.028
-412.384	104.435	-0.098	-0.116
-411.369	-82.339	0.394	-0.129
-410.355	-200.000	0.052	-0.255
-409.340	185.272	0.243	0.362
-408.325	-63.199	0.112	-0.047
-407.311	0.692	-0.058	0.041
-406.296	-52.409	0.241	0.112
-405.282	7.457	-0.131	0.098
-404.267	800.000	-0.032	-0.114
-403.252	108.711	0.137	0.164
-402.238	-102.258	0.101	0.024
-401.223	492.543	-0.033	-0.076
-400.209	443.479	-0.084	-0.185
-399.194	-57.729	0.088	-0.038
-398.179	44.343	-0.241	0.222
-397.165	-95.862	-0.160	-0.043
-396.150	267.892	-0.051	-0.090
-395.136	148.540	-0.128	0.173
-394.121	-103.755	-0.149	0.035
-393.106	80.404	-0.078	0.085
-392.092	358.863	0.051	0.102
-391.077	23.332	-0.090	-0.075
-390.063	59.268	-0.125	0.124
-389.048	-124.183	0.343	0.054
-388.033	71.776	0.155	0.162
-387.019	-105.747	-0.178	0.040
-386.004	11.924	0.222	-0.172
-384.990	-200.000	0.002	-0.288
-383.975	800.000	-0.031	-0.118
-382.960	324.165	0.104	-0.199
-381.946	-35.225	0.049	0.027
-380.931	-74.231	0.094	0.034
-379.917	800.000	0.062	0.185
-378.902	-111.950	-0.350	-0.071
-377.888	-146.765	-0.154	-0.013
-376.873	-139.314	-0.127	-0.014
-375.858	-157.244	-0.154	0.009
-374.844	-89.931	-0.185	0.054
-373.829	143.240	-0.080	0.107
-372.815	-98.250	0.343	0.088
-371.800	-73.346	0.299	0.110
-370.785	-83.117	0.296	-0.096
-369.771	-21.689	-0.156	-0.095
-368.756	800.000	-0.100	-0.324
-367.742	-182.070	-0.323	0.006
-366.727	-47.713	0.319	0.155
-365.712	800.000	0.018	-0.051
-364.698	73.937	-0.202	-0.213
-363.683	-118.308	0.128	-0.023
-362.669	89.041	0.102	0.114
-361.654	-200.000	0.006	0.152
-360.639	800.000	-0.069	-0.220
-359.625	-130.767	0.319	-0.043
-358.610	17.482	0.085	-0.067
-357.596	-85.931	0.150	-0.047
-356.581	63.446	0.394	-0.396
-355.566	157.804	0.089	-0.123
-354.552	-40.496	-0.190	-0.099
-353.537	-155.804	0.312	-0.020
-352.523	-200.000	0.008	-0.086
-351.508	46.782	-0.283	-0.264
-350.493	-200.000	0.033	0.348
-349.479	-200.000	-0.020	0.143
-348.464	-112.800	0.371	-0.074
-347.450	224.514	-0.136	-0.220
-346.435	-97.232	-0.260	-0.068
-345.420	111.793	-0.159	0.193
-344.406	-19.330	-0.307	0.191
-343.391	-44.213	0.031	-0.016
-342.377	-200.000	-0.033	0.371
-341.362	-200.000	0.024	0.604
-340.348	-200.000	0.034	-0.202
-339.333	-113.353	0.105	0.021
-338.318	800.000	-0.045	0.159
-337.304	-1.772	-0.129	-0.091
-336.289	628.961	0.073	0.185
-335.275	800.000	0.059	-0.206
-334.260	-57.502	0.135	0.059
-333.245	253.207	0.092	-0.158
-332.231	-95.053	-0.281	-0.076
-331.216	-65.525	0.240	0.096
-330.202	24.970	0.176	0.147
-329.187	121.659	0.089	0.111
-328.172	380.681	-0.078	-0.161
-327.158	-9.959	0.209	0.139
-326.143	-81.752	0.245	-0.080
-325.129	800.000	0.062	0.197
-324.114	42.394	0.170	0.155
-323.099	800.000	0.065	-0.250
-322.085	800.000	0.118	-0.347
-321.070	-123.685	-0.137	0.022
-320.056	-9.405	0.170	0.113
-319.041	485.442	0.109	0.249
-318.026	97.819	0.100	-0.115
-317.012	-21.378	-0.342	0.209
-315.997	224.920	-0.100	-0.162
-314.983	-72.061	0.077	0.029
-313.968	18.080	0.194	0.154
-312.953	800.000	0.137	0.463
-311.939	81.143	0.058	0.063
-310.924	177.471	-0.168	0.245
-309.910	44.914	0.294	0.271
-308.895	70.330	0.211	0.218
-307.880	-62.695	-0.331	0.137
-306.866	398.179	-0.091	0.191
-305.851	800.000	0.103	0.351
-304.837	289.158	-0.121	-0.219
-303.822	-64.410	0.231	-0.094
-302.807	154.639	-0.099	-0.137
-301.793	135.022	0.051	-0.066
-300.778	235.572	-0.027	-0.045
-299.764	-102.278	-0.215	-0.052
-298.749	74.612	0.199	-0.209
-297.735	52.312	-0.169	0.162
-296.720	-200.000	0.015	0.158
-295.705	52.582	-0.096	-0.091
-294.691	-200.000	-0.021	-0.169
-293.676	-116.377	0.435	-0.080
-292.662	395.116	0.157	0.329
-291.647	-162.270	-0.152	0.008
-290.632	27.606	-0.310	0.261
-289.618	-200.000	-0.002	0.283
-288.603	-50.637	0.391	0.184
-287.589	-200.000	-0.001	-0.182
-286.574	0.613	0.171	0.123
-285.559	186.518	0.075	0.111
-284.545	-17.710	-0.066	0.041
-283.530	-102.641	-0.311	0.074
-282.516	-48.670	0.178	0.085
-281.501	-55.273	-0.483	-0.217
-280.486	-154.735	0.100	-0.007
-279.472	131.642	-0.090	0.116
-278.457	-36.087	0.078	-0.042
-277.443	-200.000	-0.006	0.197
-276.428	-120.427	0.258	0.044
-275.413	-200.000	-0.023	-0.323
-274.399	85.605	-0.125	-0.138
-273.384	173.815	0.120	0.174
-272.370	-121.166	0.091	-0.015
-271.355	73.307	0.283	-0.296
-270.340	241.002	0.099	-0.166
-269.326	-83.744	-0.401	0.128
-268.311	800.000	-0.075	0.222
-267.297	800.000	0.072	-0.212
-266.282	800.000	0.056	-0.166
-265.267	20.751	0.075	-0.060
-264.253	-55.517	-0.250	-0.112
-263.238	39.281	0.242	0.216
-262.224	-83.295	-0.437	-0.140
-261.209	-40.051	-0.149	-0.078
-260.195	-200.000	-0.057	-0.000
-259.180	-138.350	-0.197	-0.022
-258.165	-175.321	-0.107	-0.003
-257.151	399.929	-0.096	-0.201
-256.136	553.627	0.031	-0.073
-255.122	800.000	0.050	-0.183
-254.107	-111.596	0.297	-0.060
-253.092	39.060	-0.153	-0.137
-252.078	-200.000	-0.049	-0.362
-251.063	723.908	0.053	-0.141
-250.049	-151.384	-0.151	-0.011
-249.034	-54.875	0.135	-0.061
-248.019	68.221	-0.213	0.218
-247.005	121.754	-0.039	0.048
-245.990	-58.437	-0.253	0.110
-244.976	800.000	-0.028	-0.094
-243.961	-189.962	0.385	0.004
-242.946	612.238	0.049	0.123
-241.932	800.000	-0.013	0.041
-240.917	76.338	0.107	0.114
-239.903	-87.436	0.106	0.032
-238.888	800.000	0.012	0.045
-237.873	-200.000	-0.013	0.309
-236.859	-135.803	-0.068	-0.008
-235.844	58.175	0.096	0.094
-234.830	422.457	-0.140	0.299
-233.815	-21.484	-0.274	-0.167
-232.800	-54.742	0.673	-0.304
-231.786	72.144	0.151	0.157
-230.771	-0.707	-0.165	-0.117
-229.757	49.795	0.115	0.109
-228.742	52.297	0.101	-0.096
-227.727	-156.409	-0.097	-0.006
-226.713	-40.299	-0.094	-0.049
-225.698	-18.568	0.183	0.114
-224.684	80.128	0.156	-0.168
-223.669	635.337	0.069	-0.174
-222.655	-162.175	0.248	-0.012
-221.640	-200.000	0.007	-0.134
-220.625	-54.336	0.239	-0.108
-219.611	-148.953	-0.394	-0.032
-218.596	800.000	0.065	0.259
-217.582	83.934	-0.133	0.145
-216.567	-200.000	0.014	0.136
-215.552	46.700	-0.087	0.081
-214.538	-107.019	0.483	0.106
-213.523	-200.000	-0.019	0.164
-212.509	-137.656	0.199	0.022
-211.494	-200.000	0.006	-0.100
-210.479	-90.062	-0.204	-0.059
-209.465	27.412	-0.242	-0.203
-208.450	17.709	-0.031	-0.024
-207.436	-200.000	-0.014	-0.138
-206.421	-200.000	0.061	0.343
-205.406	-63.142	0.116	-0.048
-204.392	-115.022	-0.435	0.082
-203.377	277.807	-0.036	-0.065
-202.363	250.210	0.094	0.159
-201.348	406.087	0.081	-0.171
-200.333	67.942	-0.116	-0.119
-199.319	491.960	-0.045	-0.102
-198.304	-82.835	-0.089	0.029
-197.290	17.352	0.179	-0.142
-196.275	207.549	0.099	-0.153
-195.260	-200.000	-0.010	0.129
-194.246	24.471	0.441	0.364
-193.231	70.033	-0.171	0.176
-192.217	666.041	-0.040	0.102
-191.202	-153.510	-0.364	0.025
-190.187	-200.000	0.024	-0.208
-189.173	721.743	-0.072	0.192
-188.158	156.118	-0.137	-0.188
-187.144	144.048	-0.168	0.224
-186.129	-149.295	0.223	0.018
-185.114	-200.000	0.021	0.183
-184.100	-200.000	-0.044	0.223
-183.085	800.000	-0.027	-0.108
-182.071	258.838	0.064	-0.109
-181.056	-130.481	-0.361	0.049
-180.042	49.157	-0.232	0.217
-179.027	37.767	-0.138	-0.122
-178.012	-182.010	-0.155	-0.003
-176.998	14.087	0.134	-0.104
-175.983	135.584	-0.162	0.210
-174.969	605.203	-0.064	-0.158
-173.954	121.455	-0.122	0.151
-172.939	-12.751	-0.126	0.082
-171.925	327.645	0.103	-0.197
-170.910	55.758	-0.251	0.242
-169.896	-200.000	-0.045	0.235
-168.881	-200.000	0.042	0.247
-167.866	372.958	-0.125	-0.254
-166.852	-111.473	0.276	-0.056
-165.837	-27.671	0.253	-0.146
-164.823	-174.956	-0.092	0.003
-163.808	-200.000	-0.006	0.223
-162.793	-162.479	0.287	0.014
-161.779	-124.145	-0.065	-0.010
-160.764	364.483	-0.159	-0.319
-159.750	-119.211	0.148	-0.026
-158.735	800.000	0.039	0.158
-157.720	-36.208	-0.305	-0.164
-156.706	150.766	0.160	-0.216
-155.691	162.850	0.097	0.135
-154.677	6.025	0.059	0.043
-153.662	-200.000	0.078	-0.378
-152.647	-48.351	-0.062	0.030
-151.633	-101.982	-0.319	0.077
-150.618	190.896	0.301	-0.451
-149.604	800.000	0.073	-0.219
-148.589	-200.000	0.016	0.234
-147.574	-32.354	0.501	0.278
-146.560	-129.548	0.149	0.020
-145.545	444.324	-0.018	-0.039
-144.531	800.000	0.074	-0.234
-143.516	387.076	0.035	0.072
-142.502	-200.000	0.065	0.381
-141.487	293.113	-0.129	-0.234
-140.472	-69.300	-0.183	-0.070
-139.458	-200.000	-0.035	-0.172
-138.443	70.807	-0.142	-0.146
-137.429	-115.380	-0.134	0.025
-136.414	-103.735	0.400	-0.093
-135.399	-72.904	-0.110	-0.040
-134.385	273.872	0.056	0.098
-133.370	-3.144	-0.148	0.103
-132.356	55.357	-0.332	-0.319
-131.341	57.386	-0.051	0.050
-130.326	725.805	0.154	0.408
-129.312	-200.000	-0.043	0.236
-128.297	-72.348	0.052	0.019
-127.283	-200.000	0.011	-0.154
-126.268	-175.579	0.205	0.006
-125.253	247.627	-0.113	0.190
-124.239	-131.203	0.298	0.039
-123.224	-129.813	0.357	-0.049
-122.210	-24.478	-0.226	0.134
-121.195	20.027	-0.333	0.267
