DTS Sentinel unit serial number:	SN413079Multiplexer serial number:	ORYXHardware model number:	OX4-SRSoftware version number:	ORYX F/W v4.00 Oryx Data Collector v3.7.2.0data status	okinstallation	princeton_trtdifferential loss correction	single-endedforward channel	channel 4reverse channel	N/Adate	2019/09/19time	12:29:35forward acquisition time	60.00reverse acquisition time	0.00gamma	496.2192k internal	0.2320k external	0.2320temperature offset calibration	1.0020default loss term (dB/km)	0.3790temperature slope calibration	1.0000multiplexer offset coefficient	1.0000multiplexer slope coefficient	1.0000fibre end	0.00T internal ref (°C)	27.03T ext. ref 1 (°C)	0.87T ext. ref 2 (°C)	24.50length (m)	temperature (°C)	Stokes	anti-Stokes-747.200	-200.000	0.090	0.458
-746.185	-5.894	-0.254	0.176
-745.171	115.680	0.076	0.095
-744.156	-177.750	0.398	-0.010
-743.142	-81.555	0.205	-0.068
-742.127	316.881	-0.126	0.241
-741.112	66.412	-0.353	-0.363
-740.098	120.328	0.161	0.202
-739.083	-200.000	-0.047	0.265
-738.069	520.291	-0.157	0.373
-737.054	188.015	-0.302	0.455
-736.039	-200.000	-0.009	-0.203
-735.025	-48.125	0.328	0.160
-734.010	-200.000	-0.056	-0.250
-732.996	-145.706	0.168	-0.015
-731.981	-159.929	-0.189	0.010
-730.966	800.000	-0.080	-0.320
-729.952	129.614	-0.113	-0.146
-728.937	-36.967	-0.267	0.145
-727.923	-147.544	-0.264	0.023
-726.908	-200.000	-0.037	-0.200
-725.894	66.045	-0.142	-0.145
-724.879	-82.891	-0.109	-0.035
-723.864	451.701	-0.143	-0.320
-722.850	-16.001	0.192	-0.124
-721.835	800.000	-0.070	-0.207
-720.821	192.952	0.137	-0.209
-719.806	-200.000	-0.046	-0.238
-718.791	800.000	-0.018	-0.071
-717.777	-52.643	-0.267	0.124
-716.762	49.829	-0.040	0.038
-715.748	33.593	-0.275	-0.241
-714.733	-128.750	-0.338	0.048
-713.718	14.984	-0.294	0.233
-712.704	-156.607	-0.178	0.011
-711.689	195.594	-0.075	-0.116
-710.675	61.109	0.104	0.104
-709.660	18.165	0.125	-0.101
-708.645	251.464	-0.091	-0.156
-707.631	800.000	-0.043	-0.176
-706.616	-200.000	0.007	-0.316
-705.602	490.734	0.068	0.157
-704.587	-200.000	-0.000	0.189
-703.572	-122.057	-0.128	0.021
-702.558	-113.490	0.318	-0.063
-701.543	264.875	-0.150	0.264
-700.529	294.615	-0.166	-0.307
-699.514	-200.000	0.017	0.105
-698.499	-137.531	-0.343	-0.039
-697.485	16.442	0.136	-0.109
-696.470	6.736	-0.196	-0.147
-695.456	-131.739	0.062	-0.008
-694.441	-158.261	0.048	0.003
-693.426	599.158	-0.109	-0.272
-692.412	-50.282	0.156	-0.074
-691.397	-59.646	-0.557	0.241
-690.383	274.891	0.106	-0.189
-689.368	-129.737	-0.228	0.032
-688.354	-69.827	0.257	-0.099
-687.339	-12.708	0.135	0.089
-686.324	70.624	-0.089	-0.093
-685.310	-200.000	0.008	0.204
-684.295	800.000	-0.149	-0.442
-683.281	-40.139	0.118	0.062
-682.266	13.097	-0.259	-0.202
-681.251	-119.020	0.272	0.048
-680.237	-44.342	0.111	0.056
-679.222	-110.774	0.393	0.082
-678.208	64.179	-0.130	-0.132
-677.193	104.549	-0.085	-0.101
-676.178	-159.230	0.225	0.013
-675.164	-80.925	0.309	0.103
-674.149	498.835	-0.129	-0.299
-673.135	-187.868	0.063	0.001
-672.120	-88.167	0.099	0.030
-671.105	-11.989	-0.213	-0.141
-670.091	218.425	-0.141	-0.228
-669.076	183.423	0.023	-0.034
-668.062	119.281	-0.038	0.047
-667.047	167.893	0.182	-0.261
-666.032	800.000	-0.079	0.229
-665.018	329.762	-0.160	-0.310
-664.003	800.000	0.179	-0.567
-662.989	-113.681	0.306	-0.060
-661.974	148.721	-0.116	0.158
-660.959	-130.872	-0.191	-0.026
-659.945	800.000	-0.101	0.310
-658.930	81.191	0.117	-0.127
-657.916	-11.119	-0.092	0.061
-656.901	170.483	0.065	-0.094
-655.886	36.805	0.284	0.253
-654.872	-200.000	-0.052	0.295
-653.857	-177.926	0.105	0.003
-652.843	371.540	0.107	-0.218
-651.828	333.858	0.062	-0.120
-650.814	107.892	0.116	0.139
-649.799	726.866	0.091	-0.245
-648.784	-152.524	0.145	-0.010
-647.770	88.883	-0.225	0.252
-646.755	-200.000	-0.026	-0.144
-645.741	176.798	0.026	-0.038
-644.726	397.655	0.035	-0.074
-643.711	62.107	0.195	0.196
-642.697	800.000	0.009	-0.028
-641.682	-96.338	0.154	0.041
-640.668	800.000	0.029	0.091
-639.653	-135.402	-0.178	0.021
-638.638	-74.523	-0.046	0.017
-637.624	-200.000	0.016	-0.268
-636.609	129.957	-0.187	-0.241
-635.595	-200.000	0.037	-0.188
-634.580	-24.291	-0.276	-0.166
-633.565	-127.123	0.172	0.025
-632.551	-122.690	-0.338	0.055
-631.536	-169.672	0.378	0.014
-630.522	-200.000	-0.035	0.242
-629.507	-133.399	0.235	-0.030
-628.492	526.867	0.066	-0.157
-627.478	-92.154	0.038	0.011
-626.463	-29.473	-0.056	0.032
-625.449	800.000	-0.018	-0.060
-624.434	243.241	0.100	-0.169
-623.419	3.029	0.292	0.214
-622.405	336.769	0.077	0.151
-621.390	145.481	0.033	0.044
-620.376	257.143	0.175	0.303
-619.361	-86.508	-0.236	-0.073
-618.346	-101.857	-0.228	0.055
-617.332	-200.000	-0.001	-0.039
-616.317	375.381	-0.087	0.178
-615.303	-200.000	0.022	-0.178
-614.288	59.202	-0.154	-0.153
-613.273	65.857	-0.068	0.069
-612.259	-124.428	-0.259	-0.041
-611.244	201.533	-0.098	0.152
-610.230	-142.246	-0.195	-0.019
-609.215	-187.139	-0.205	0.003
-608.201	340.696	-0.128	-0.251
-607.186	-19.313	-0.134	0.084
-606.171	-9.151	-0.252	-0.170
-605.157	-117.748	0.262	-0.047
-604.142	-200.000	-0.057	-0.456
-603.128	800.000	-0.082	0.318
-602.113	306.332	0.052	-0.097
-601.098	338.390	0.104	-0.204
-600.084	-200.000	0.019	-0.167
-599.069	148.150	-0.113	0.154
-598.055	-20.877	0.130	-0.080
-597.040	11.239	0.095	-0.073
-596.025	-86.692	-0.208	0.064
-595.011	-68.444	0.205	0.080
-593.996	-200.000	0.017	-0.099
-592.982	-6.827	0.183	-0.125
-591.967	-56.233	-0.102	-0.045
-590.952	230.656	-0.091	-0.150
-589.938	200.047	-0.184	-0.283
-588.923	-10.582	0.386	0.257
-587.909	42.781	-0.210	0.193
-586.894	-62.892	-0.067	-0.028
-585.879	135.366	0.116	-0.152
-584.865	-200.000	0.023	0.209
-583.850	-54.405	-0.267	0.122
-582.836	-200.000	-0.019	-0.102
-581.821	800.000	0.008	0.032
-580.806	-200.000	-0.008	-0.481
-579.792	-164.874	0.477	0.021
-578.777	250.820	0.224	0.382
-577.763	-29.848	-0.317	0.181
-576.748	800.000	-0.034	0.130
-575.733	141.718	0.067	-0.089
-574.719	800.000	0.031	-0.128
-573.704	513.425	0.094	0.221
-572.690	5.369	0.354	0.262
-571.675	-4.794	-0.210	0.146
-570.661	-34.155	0.242	-0.134
-569.646	-122.664	-0.205	0.033
-568.631	-117.844	-0.250	-0.045
-567.617	-200.000	-0.034	-0.336
-566.602	-23.608	-0.104	0.062
-565.588	-200.000	-0.002	-0.041
-564.573	-175.677	-0.154	-0.004
-563.558	-5.892	0.223	-0.153
-562.544	639.668	-0.106	0.270
-561.529	-200.000	-0.019	-0.473
-560.515	95.588	-0.181	-0.207
-559.500	-172.541	0.532	0.017
-558.485	800.000	-0.025	0.104
-557.471	234.114	-0.249	-0.411
-556.456	-200.000	0.031	0.368
-555.442	-200.000	0.031	0.145
-554.427	-64.725	0.120	-0.049
-553.412	10.556	0.290	0.222
-552.398	800.000	-0.039	-0.136
-551.383	271.485	0.042	-0.073
-550.369	-102.376	-0.272	0.065
-549.354	-200.000	-0.002	-0.023
-548.339	137.162	0.185	-0.243
-547.325	252.980	-0.147	0.252
-546.310	-56.465	0.278	0.124
-545.296	13.810	-0.152	-0.118
-544.281	-108.514	-0.125	-0.027
-543.266	53.429	0.199	0.191
-542.252	-200.000	0.018	-0.138
-541.237	-179.424	-0.152	0.003
-540.223	-173.446	0.324	-0.010
-539.208	-200.000	-0.027	-0.159
-538.193	-99.683	-0.095	0.024
-537.179	754.172	0.020	0.053
-536.164	-92.007	-0.339	-0.096
-535.150	55.518	-0.066	-0.064
-534.135	800.000	-0.055	-0.208
-533.121	671.768	-0.101	-0.261
-532.106	28.656	-0.160	-0.136
-531.091	-54.310	0.303	0.138
-530.077	-134.139	-0.240	0.030
-529.062	-57.723	0.286	-0.125
-528.048	-71.618	-0.302	-0.113
-527.033	74.910	-0.120	0.127
-526.018	609.138	0.034	0.086
-525.004	800.000	0.019	0.073
-523.989	-200.000	-0.016	-0.150
-522.975	36.272	-0.158	0.139
-521.960	177.022	-0.125	-0.182
-520.945	-58.976	0.336	0.145
-519.931	-21.972	0.284	0.173
-518.916	12.371	-0.392	-0.303
-517.902	336.826	0.056	-0.109
-516.887	578.788	-0.044	-0.108
-515.872	800.000	-0.045	-0.177
-514.858	-76.140	-0.441	-0.156
-513.843	800.000	-0.024	0.079
-512.829	160.115	0.159	-0.222
-511.814	63.797	0.173	0.175
-510.799	-200.000	-0.043	0.430
-509.785	107.769	-0.136	-0.162
-508.770	800.000	0.086	-0.284
-507.756	-61.242	0.224	-0.095
-506.741	5.071	-0.025	-0.019
-505.726	-72.770	0.280	-0.103
-504.712	-90.014	0.176	-0.051
-503.697	488.816	0.144	0.330
-502.683	-52.848	-0.334	-0.154
-501.668	800.000	-0.053	0.186
-500.653	203.216	0.212	0.328
-499.639	800.000	-0.065	-0.239
-498.624	230.031	0.098	-0.160
-497.610	200.584	0.267	0.411
-496.595	-96.845	-0.055	0.014
-495.581	200.284	-0.235	0.362
-494.566	284.106	0.185	0.332
-493.551	800.000	0.038	-0.106
-492.537	-105.556	-0.456	-0.104
-491.522	553.468	-0.080	-0.193
-490.508	800.000	0.096	0.277
-489.493	79.781	-0.203	0.219
-488.478	211.629	-0.187	0.294
-487.464	-72.997	0.181	-0.066
-486.449	-200.000	0.052	-0.297
-485.435	800.000	0.018	0.068
-484.420	-127.210	0.235	0.034
-483.405	148.202	0.068	-0.091
-482.391	800.000	0.062	-0.198
-481.376	42.027	-0.372	0.338
-480.362	-200.000	0.048	0.308
-479.347	-55.962	0.294	0.131
-478.332	267.572	-0.192	-0.337
-477.318	328.256	-0.043	-0.082
-476.303	144.779	0.164	0.219
-475.289	-17.773	-0.205	-0.129
-474.274	424.992	-0.017	0.037
-473.259	800.000	0.033	0.126
-472.245	-200.000	0.034	0.177
-471.230	-25.039	-0.300	-0.178
-470.216	-200.000	0.031	-0.382
-469.201	93.712	-0.188	-0.213
-468.186	-107.877	-0.120	-0.026
-467.172	-200.000	0.037	0.175
-466.157	188.752	0.072	-0.108
-465.143	-132.608	-0.345	0.044
-464.128	-200.000	-0.002	0.185
-463.113	-200.000	-0.011	0.122
-462.099	800.000	0.021	-0.072
-461.084	34.223	0.229	0.199
-460.070	103.728	0.229	0.269
-459.055	89.249	-0.155	-0.173
-458.040	-200.000	0.072	0.423
-457.026	-200.000	0.018	-0.228
-456.011	-162.201	0.420	-0.021
-454.997	87.217	0.076	0.084
-453.982	-80.201	0.058	-0.019
-452.968	-22.885	0.344	-0.208
-451.953	28.463	0.174	0.147
-450.938	-73.286	0.045	0.017
-449.924	-72.292	-0.161	-0.059
-448.909	135.677	-0.167	0.217
-447.895	333.795	0.210	-0.405
-446.880	109.028	-0.091	-0.109
-445.865	-200.000	0.048	-0.229
-444.851	41.010	0.367	-0.331
-443.836	101.663	-0.047	0.055
-442.822	229.082	-0.089	-0.144
-441.807	11.264	0.181	-0.139
-440.792	-94.234	0.250	0.068
-439.778	-125.671	-0.114	0.017
-438.763	-52.736	-0.267	0.123
-437.749	389.283	-0.168	-0.347
-436.734	80.770	-0.069	-0.075
-435.719	-170.576	-0.075	0.003
-434.705	-98.413	0.366	-0.094
-433.690	-45.974	-0.254	0.125
-432.676	-200.000	0.001	-0.257
-431.661	-166.977	0.132	-0.005
-430.646	-142.464	0.103	0.010
-429.632	-41.535	-0.179	0.092
-428.617	-90.078	-0.232	0.067
-427.603	-97.963	0.127	-0.033
-426.588	-75.629	0.214	0.076
-425.573	-200.000	-0.011	0.127
-424.559	-97.032	-0.108	-0.028
-423.544	-19.594	0.133	0.082
-422.530	-95.167	-0.222	-0.060
-421.515	246.842	0.065	0.109
-420.500	-73.065	-0.099	-0.036
-419.486	99.652	0.240	-0.277
-418.471	-87.985	-0.404	-0.121
-417.457	22.728	0.116	0.095
-416.442	282.883	-0.043	-0.078
-415.428	39.367	0.140	0.125
-414.413	90.753	-0.238	0.266
-413.398	-10.909	0.120	-0.079
-412.384	-116.893	-0.075	-0.014
-411.369	185.253	0.260	-0.385
-410.355	-24.266	-0.320	-0.191
-409.340	20.998	0.209	-0.169
-408.325	-157.774	0.243	-0.014
-407.311	41.490	0.149	0.134
-406.296	260.767	-0.136	0.235
-405.282	800.000	0.080	0.243
-404.267	21.679	0.169	-0.137
-403.252	-200.000	-0.006	-0.028
-402.238	384.757	-0.053	-0.110
-401.223	-76.640	-0.358	-0.125
-400.209	20.445	-0.256	-0.207
-399.194	-93.885	-0.418	0.115
-398.179	551.457	-0.069	-0.164
-397.165	-200.000	0.009	-0.058
-396.150	-146.482	0.077	-0.007
-395.136	-123.050	-0.112	-0.018
-394.121	-103.539	0.124	0.029
-393.106	51.799	-0.160	-0.152
-392.092	800.000	-0.028	-0.087
-391.077	170.317	0.065	0.093
-390.063	-5.326	0.093	0.064
-389.048	-30.531	0.322	0.182
-388.033	34.913	0.071	0.062
-387.019	-18.601	0.110	-0.068
-386.004	352.518	-0.100	0.199
-384.990	502.413	-0.037	0.084
-383.975	-200.000	0.031	-0.291
-382.960	264.926	-0.086	0.149
-381.946	-99.044	-0.383	-0.097
-380.931	-38.869	0.238	-0.125
-379.917	-97.848	-0.109	-0.028
-378.902	-157.057	-0.399	-0.024
-377.888	-44.777	0.059	0.029
-376.873	-113.063	-0.152	-0.030
-375.858	-30.450	-0.056	-0.032
-374.844	-65.722	-0.492	0.197
-373.829	-108.490	0.182	0.039
-372.815	-126.013	0.172	-0.026
-371.800	189.944	-0.123	-0.184
-370.785	-200.000	-0.003	-0.143
-369.771	150.403	-0.090	-0.121
-368.756	-64.625	-0.285	0.115
-367.742	190.496	-0.092	-0.137
-366.727	667.730	-0.072	-0.186
-365.712	-104.637	0.094	0.022
-364.698	-85.058	-0.224	-0.070
-363.683	207.812	0.061	0.095
-362.669	-123.293	0.112	0.018
-361.654	-106.906	0.131	-0.029
-360.639	800.000	0.073	-0.248
-359.625	-109.254	-0.222	0.047
-358.610	87.565	0.160	-0.177
-357.596	-200.000	-0.042	0.231
-356.581	-86.678	-0.260	0.079
-355.566	-200.000	0.006	0.289
-354.552	217.911	-0.095	-0.150
-353.537	110.970	-0.110	-0.132
-352.523	800.000	0.041	0.152
-351.508	-25.729	0.145	0.085
-350.493	-200.000	-0.031	0.251
-349.479	317.348	0.065	-0.122
-348.464	-200.000	0.017	0.256
-347.450	131.022	0.128	0.164
-346.435	3.720	0.080	-0.058
-345.420	-71.057	0.146	-0.055
-344.406	-46.898	0.148	-0.072
-343.391	45.322	0.298	-0.273
-342.377	-200.000	-0.033	-0.232
-341.362	-115.609	0.096	0.018
-340.348	124.206	-0.111	-0.139
-339.333	317.601	-0.090	-0.169
-338.318	-0.413	-0.249	-0.176
-337.304	-200.000	0.027	0.197
-336.289	15.537	0.226	0.176
-335.275	800.000	0.068	0.249
-334.260	-200.000	0.024	-0.113
-333.245	-71.882	0.141	0.052
-332.231	85.482	0.130	0.142
-331.216	230.150	-0.204	0.332
-330.202	-200.000	0.014	-0.188
-329.187	359.634	-0.130	0.258
-328.172	-75.433	0.081	-0.029
-327.158	387.046	0.184	-0.378
-326.143	52.440	0.162	-0.154
-325.129	-200.000	0.024	0.336
-324.114	149.623	0.056	0.076
-323.099	413.677	-0.076	0.160
-322.085	-81.008	-0.189	-0.062
-321.070	-200.000	0.009	-0.299
-320.056	800.000	0.090	0.312
-319.041	-107.073	-0.326	0.072
-318.026	201.253	0.155	0.237
-317.012	-97.263	-0.175	-0.045
-315.997	-200.000	0.022	0.107
-314.983	338.062	-0.054	0.105
-313.968	-68.794	-0.075	-0.029
-312.953	16.928	0.185	0.146
-311.939	-200.000	-0.008	-0.043
-310.924	120.106	0.326	-0.402
-309.910	-128.545	-0.270	-0.038
-308.895	-86.464	0.107	-0.033
-307.880	-200.000	-0.053	0.271
-306.866	-45.007	-0.113	0.056
-305.851	-200.000	-0.026	0.201
-304.837	-68.610	-0.076	-0.029
-303.822	-200.000	0.006	0.298
-302.807	122.759	-0.099	0.124
-301.793	-139.783	-0.247	-0.026
-300.778	800.000	-0.068	0.199
-299.764	142.620	-0.175	-0.231
-298.749	-5.158	-0.075	-0.051
-297.735	-87.727	0.211	0.063
-296.720	-115.462	0.279	-0.052
-295.705	-166.870	0.263	-0.011
-294.691	331.129	0.163	0.312
-293.676	-18.895	0.034	0.021
-292.662	-130.600	-0.120	0.016
-291.647	133.321	-0.038	0.048
-290.632	-24.568	-0.150	0.088
-289.618	751.819	-0.046	-0.124
-288.603	-200.000	0.033	-0.355
-287.589	-74.143	0.312	-0.112
-286.574	800.000	-0.068	0.219
-285.559	-200.000	-0.016	-0.356
-284.545	-72.209	0.137	-0.051
-283.530	305.030	-0.083	0.153
-282.516	403.567	-0.147	0.307
-281.501	-83.939	0.281	0.089
-280.486	-38.335	-0.133	-0.070
-279.472	-178.353	-0.547	-0.013
-278.457	214.976	-0.101	0.160
-277.443	266.120	0.191	-0.332
-276.428	-123.506	-0.154	-0.024
-275.413	800.000	-0.065	0.217
-274.399	266.905	0.097	0.168
-273.384	26.033	0.129	-0.107
-272.370	-45.098	0.165	-0.081
-271.355	-200.000	0.002	0.187
-270.340	-84.339	0.196	0.061
-269.326	-9.048	-0.159	-0.106
-268.311	-86.813	0.051	0.016
-267.297	14.145	-0.256	0.198
-266.282	800.000	0.136	-0.516
-265.267	546.896	0.173	-0.411
-264.253	800.000	-0.046	0.139
-263.238	-200.000	0.081	0.456
-262.224	800.000	-0.065	-0.201
-261.209	306.749	-0.051	-0.094
-260.195	3.955	-0.052	0.038
-259.180	100.683	-0.053	-0.062
-258.165	-14.955	0.107	0.068
-257.151	-102.596	-0.176	0.042
-256.136	-107.176	0.220	-0.048
-255.122	452.095	0.151	-0.331
-254.107	4.408	0.155	-0.113
-253.092	-200.000	-0.044	-0.321
-252.078	-200.000	-0.005	-0.038
-251.063	695.988	-0.057	-0.148
-250.049	-187.140	0.415	0.006
-249.034	-200.000	-0.010	-0.240
-248.019	-40.508	0.144	0.074
-247.005	-44.120	-0.187	-0.093
-245.990	-200.000	0.000	-0.038
-244.976	800.000	0.057	0.191
-243.961	106.785	0.128	-0.150
-242.946	-200.000	0.027	0.207
-241.932	-5.544	0.014	0.009
-240.917	-200.000	0.116	0.000
-239.903	-59.695	0.063	-0.027
-238.888	172.616	0.301	0.430
-237.873	-198.386	0.079	-0.000
-236.859	162.804	0.159	0.222
-235.844	443.743	-0.028	0.062
-234.830	-200.000	-0.062	-0.406
-233.815	-161.308	-0.234	-0.012
-232.800	107.935	0.258	0.304
-231.786	-200.000	-0.012	0.176
-230.771	292.005	-0.227	0.410
-229.757	-97.042	0.268	-0.070
-228.742	-143.978	0.123	-0.011
-227.727	-15.987	0.282	-0.178
-226.713	98.048	-0.028	-0.031
-225.698	800.000	-0.030	-0.113
-224.684	-6.995	0.148	0.100
-223.669	-91.854	0.060	-0.017
-222.655	-90.467	-0.310	-0.089
-221.640	35.329	-0.076	-0.066
-220.625	186.754	0.036	0.052
-219.611	-200.000	0.029	0.156
-218.596	-116.142	0.329	0.061
-217.582	396.127	0.024	-0.049
-216.567	-73.248	-0.182	-0.066
-215.552	-42.396	-0.255	-0.129
-214.538	-200.000	0.029	0.128
-213.523	3.193	0.250	0.180
-212.509	463.228	-0.128	-0.283
-211.494	630.292	0.020	0.051
-210.479	-125.295	0.275	0.042
-209.465	352.669	0.069	-0.136
-208.450	-60.008	0.439	-0.186
-207.436	157.409	-0.063	0.087
-206.421	42.208	-0.124	-0.111
-205.406	677.888	-0.080	0.206
-204.392	168.500	-0.177	0.250
-203.377	-95.038	0.110	-0.030
-202.363	-111.798	0.372	-0.074
-201.348	244.520	0.102	-0.170
-200.333	7.464	0.298	-0.220
-199.319	-87.253	-0.106	0.032
-198.304	760.690	0.063	0.170
-197.290	338.805	-0.085	-0.165
-196.275	-165.199	-0.198	-0.009
-195.260	-186.653	0.255	-0.004
-194.246	39.364	-0.275	0.244
-193.231	207.796	0.127	0.197
-192.217	281.301	0.194	0.343
-191.202	-116.384	-0.340	0.062
-190.187	-200.000	0.003	-0.237
-189.173	-200.000	0.026	0.145
-188.158	22.596	-0.355	0.287
-187.144	50.900	-0.121	-0.113
-186.129	-200.000	-0.015	0.183
-185.114	770.977	0.053	-0.143
-184.100	12.892	0.172	0.132
-183.085	-36.893	-0.182	0.097
-182.071	-78.728	0.393	0.133
-181.056	79.522	-0.209	-0.222
-180.042	586.678	0.074	-0.180
-179.027	-54.280	0.201	-0.090
-178.012	166.171	-0.211	0.296
-176.998	-200.000	0.032	-0.268
-175.983	800.000	0.092	0.346
-174.969	-105.760	-0.438	-0.098
-173.954	356.947	-0.135	0.266
-172.939	115.612	-0.314	0.380
-171.925	-17.669	0.271	0.168
-170.910	-133.130	-0.353	0.044
-169.896	52.423	0.208	0.196
-168.881	-133.643	-0.137	-0.017
-167.866	800.000	-0.136	0.451
-166.852	138.010	0.091	0.118
-165.837	800.000	0.092	0.284
-164.823	345.351	-0.147	0.286
-163.808	-149.052	-0.407	0.032
-162.793	102.706	0.210	-0.243
-161.779	-200.000	-0.029	-0.280
-160.764	-82.047	-0.023	0.008
-159.750	97.612	-0.205	-0.232
-158.735	-177.635	-0.099	0.002
-157.720	-200.000	0.030	-0.195
-156.706	-17.526	-0.187	0.116
-155.691	-1.922	0.200	-0.139
-154.677	100.419	0.083	0.095
-153.662	184.755	0.085	-0.124
-152.647	-75.989	-0.096	-0.034
-151.633	40.613	0.215	0.192
-150.618	-200.000	0.036	0.294
-149.604	-131.408	-0.227	0.030
-148.589	-24.906	0.313	-0.183
-147.574	-101.814	-0.153	0.036
-146.560	759.217	0.043	-0.114
-145.545	571.203	-0.108	-0.260
-144.531	580.772	-0.071	0.173
-143.516	12.314	0.207	0.157
-142.502	26.271	0.296	-0.244
-141.487	-88.754	0.388	0.114
-140.472	-103.876	-0.245	0.056
-139.458	-20.523	-0.271	-0.165
-138.443	58.167	0.042	0.041
-137.429	67.007	-0.056	0.056
-136.414	-94.742	0.496	-0.133
-135.399	35.627	-0.020	-0.017
-134.385	-87.057	-0.159	-0.048
-133.370	-200.000	0.016	-0.128
-132.356	16.162	0.060	0.046
-131.341	-117.828	0.226	-0.040
-130.326	-84.723	0.077	0.024
-129.312	-20.500	-0.219	-0.133
-128.297	-28.786	0.082	0.047
-127.283	-200.000	-0.006	0.267
-126.268	600.758	-0.030	0.073
-125.253	-135.780	0.070	-0.008
-124.239	-89.932	-0.350	0.101
-123.224	-22.866	0.039	0.023
-122.210	-86.846	0.078	0.023
