DTS Sentinel unit serial number:	SN413079Multiplexer serial number:	ORYXHardware model number:	OX4-SRSoftware version number:	ORYX F/W v4.00 Oryx Data Collector v3.7.2.0data status	okinstallation	princeton_trtdifferential loss correction	single-endedforward channel	channel 4reverse channel	N/Adate	2019/09/13time	20:33:35forward acquisition time	60.00reverse acquisition time	0.00gamma	496.2192k internal	0.2318k external	0.2318temperature offset calibration	1.0131default loss term (dB/km)	0.3790temperature slope calibration	1.0000multiplexer offset coefficient	1.0000multiplexer slope coefficient	1.0000fibre end	0.00T internal ref (°C)	29.05T ext. ref 1 (°C)	3.15T ext. ref 2 (°C)	23.61length (m)	temperature (°C)	Stokes	anti-Stokes-747.200	800.000	-0.048	0.197
-746.185	-77.665	-0.195	-0.068
-745.171	167.033	-0.177	-0.255
-744.156	-200.000	-0.067	0.340
-743.142	-200.000	0.033	-0.686
-742.127	-200.000	-0.009	0.244
-741.112	-64.280	0.238	0.098
-740.098	302.296	-0.074	-0.138
-739.083	-69.010	0.245	-0.095
-738.069	-108.794	-0.127	-0.028
-737.054	36.407	0.311	0.278
-736.039	-162.979	-0.161	-0.008
-735.025	-200.000	-0.013	0.080
-734.010	-142.478	-0.058	0.006
-732.996	-200.000	-0.006	0.069
-731.981	-85.001	-0.220	-0.070
-730.966	-137.547	-0.246	0.028
-729.952	217.346	0.063	-0.101
-728.937	-101.643	0.261	-0.064
-727.923	-180.022	-0.303	0.007
-726.908	-61.973	-0.051	0.021
-725.894	124.745	0.179	-0.228
-724.879	438.691	-0.159	0.350
-723.864	-200.000	-0.066	-0.527
-722.850	382.041	-0.028	-0.057
-721.835	111.585	-0.292	-0.356
-720.821	-200.000	0.057	-0.263
-719.806	0.915	-0.141	0.102
-718.791	39.122	0.315	-0.285
-717.777	356.898	0.098	-0.198
-716.762	6.086	0.161	0.120
-715.748	-66.148	-0.258	-0.104
-714.733	-200.000	0.014	-0.138
-713.718	282.853	-0.136	-0.247
-712.704	615.672	-0.044	-0.112
-711.689	107.522	-0.222	-0.267
-710.675	468.378	0.029	-0.065
-709.660	425.701	-0.124	-0.270
-708.645	800.000	-0.053	-0.172
-707.631	356.843	-0.033	-0.066
-706.616	-112.238	0.202	0.041
-705.602	-98.923	-0.152	-0.039
-704.587	800.000	0.047	0.161
-703.572	-200.000	-0.011	-0.121
-702.558	142.926	-0.203	-0.272
-701.543	-200.000	0.011	-0.351
-700.529	-200.000	0.007	-0.071
-699.514	-135.004	-0.181	0.022
-698.499	-156.636	-0.186	0.012
-697.485	-84.435	-0.186	-0.059
-696.470	36.068	-0.225	0.200
-695.456	53.004	-0.042	0.041
-694.441	-77.367	-0.100	0.035
-693.426	-200.000	0.053	-0.254
-692.412	-98.982	0.144	-0.037
-691.397	116.994	0.180	0.223
-690.383	259.063	-0.185	0.322
-689.368	254.734	-0.184	0.318
-688.354	-53.634	-0.312	-0.144
-687.339	-50.098	0.301	-0.144
-686.324	-200.000	0.004	0.150
-685.310	203.023	0.280	-0.436
-684.295	154.998	0.170	-0.236
-683.281	-31.418	-0.319	0.181
-682.266	110.805	0.239	0.290
-681.251	-40.798	0.182	-0.095
-680.237	198.399	0.149	-0.231
-679.222	-200.000	0.017	-0.409
-678.208	-78.230	-0.177	-0.061
-677.193	-36.573	-0.461	-0.250
-676.178	384.658	0.113	-0.235
-675.164	79.340	-0.260	-0.281
-674.149	68.030	-0.058	0.060
-673.135	351.621	0.085	-0.170
-672.120	73.704	0.126	0.134
-671.105	-200.000	-0.013	-0.458
-670.091	-115.943	0.160	-0.030
-669.076	13.466	-0.114	-0.089
-668.062	470.010	0.126	0.285
-667.047	-23.867	-0.205	0.124
-666.032	800.000	-0.062	0.223
-665.018	-54.466	-0.275	-0.126
-664.003	-20.452	-0.052	-0.032
-662.989	-200.000	0.098	0.000
-661.974	615.072	0.093	-0.236
-660.959	-39.819	-0.288	-0.152
-659.945	-200.000	-0.026	-0.203
-658.930	80.849	-0.024	0.027
-657.916	82.338	0.052	-0.057
-656.901	114.582	0.297	-0.365
-655.886	-82.122	-0.235	-0.077
-654.872	-200.000	-0.039	-0.604
-653.857	-44.090	-0.213	0.108
-652.843	-200.000	0.011	0.086
-651.828	63.116	-0.247	0.250
-650.814	643.064	-0.040	0.102
-649.799	134.827	0.108	-0.141
-648.784	39.177	0.163	0.147
-647.770	-88.962	-0.179	-0.053
-646.755	-93.459	0.347	0.097
-645.741	71.873	-0.217	0.228
-644.726	-144.800	0.637	-0.059
-643.711	-43.918	-0.130	0.066
-642.697	-200.000	0.080	-0.684
-641.682	-149.922	0.417	0.033
-640.668	-200.000	-0.024	-0.174
-639.653	422.357	0.064	0.138
-638.638	10.903	0.233	-0.179
-637.624	800.000	0.146	-0.416
-636.609	-200.000	-0.010	-0.197
-635.595	-200.000	0.004	0.173
-634.580	-48.423	-0.248	-0.120
-633.565	800.000	-0.037	-0.156
-632.551	524.951	-0.097	0.230
-631.536	800.000	0.006	0.023
-630.522	-200.000	-0.007	0.242
-629.507	-200.000	-0.005	0.099
-628.492	-146.991	0.158	-0.014
-627.478	713.916	0.013	0.036
-626.463	-118.675	-0.177	0.031
-625.449	800.000	-0.029	-0.104
-624.434	24.360	-0.086	-0.072
-623.419	71.264	-0.165	0.172
-622.405	416.182	-0.107	-0.230
-621.390	800.000	-0.102	-0.337
-620.376	-3.374	-0.164	-0.115
-619.361	-155.170	0.251	0.017
-618.346	-84.774	-0.111	-0.035
-617.332	-111.973	-0.259	-0.053
-616.317	8.843	-0.287	-0.218
-615.303	-200.000	-0.023	-0.235
-614.288	200.824	0.074	-0.115
-613.273	-200.000	-0.001	0.072
-612.259	-52.726	-0.194	-0.090
-611.244	260.720	0.083	-0.144
-610.230	-200.000	0.020	0.126
-609.215	-154.635	-0.194	-0.013
-608.201	-82.084	0.183	0.060
-607.186	51.387	0.087	-0.083
-606.171	131.861	-0.087	0.113
-605.157	-115.559	-0.235	0.045
-604.142	-27.249	-0.212	0.124
-603.128	5.348	-0.267	0.198
-602.113	178.432	0.093	-0.137
-601.098	800.000	0.055	-0.229
-600.084	440.936	-0.058	-0.127
-599.069	-200.000	-0.017	0.146
-598.055	-94.613	-0.247	-0.068
-597.040	-138.569	-0.327	-0.036
-596.025	-200.000	-0.012	0.169
-595.011	-27.350	-0.226	-0.132
-593.996	-21.927	0.185	0.113
-592.982	177.829	-0.226	0.331
-591.967	-109.938	-0.273	0.058
-590.952	247.467	0.119	0.201
-589.938	42.602	0.138	-0.126
-588.923	-200.000	0.038	-0.539
-587.909	108.826	0.127	-0.153
-586.894	81.671	0.168	-0.183
-585.879	-200.000	0.032	0.151
-584.865	-84.943	0.251	0.079
-583.850	-200.000	-0.009	0.255
-582.836	-154.473	0.345	-0.023
-581.821	-175.136	-0.457	0.013
-580.806	-34.086	-0.027	0.015
-579.792	105.853	0.036	-0.043
-578.777	107.571	0.204	0.245
-577.763	11.475	0.210	-0.162
-576.748	-124.044	0.163	0.026
-575.733	-123.506	0.419	-0.067
-574.719	-100.474	-0.096	0.024
-573.704	24.694	-0.161	0.134
-572.690	-160.417	-0.348	-0.019
-571.675	800.000	-0.068	0.225
-570.661	64.978	0.120	-0.122
-569.646	25.166	0.251	0.209
-568.631	-51.837	0.231	-0.108
-567.617	-200.000	0.015	0.175
-566.602	-194.817	-0.221	-0.002
-565.588	-179.710	-0.164	-0.004
-564.573	-50.365	-0.195	-0.092
-563.558	-61.476	-0.129	0.054
-562.544	800.000	-0.088	0.287
-561.529	-86.151	-0.129	-0.040
-560.515	33.759	0.233	-0.203
-559.500	-163.000	-0.317	0.015
-558.485	-24.335	0.248	0.149
-557.471	-73.832	-0.352	0.129
-556.456	-200.000	-0.015	-0.121
-555.442	204.856	-0.137	0.214
-554.427	204.835	-0.146	0.227
-553.412	-43.882	0.106	-0.054
-552.398	-137.377	0.267	-0.030
-551.383	-144.309	-0.189	-0.018
-550.369	-105.731	-0.209	-0.048
-549.354	369.775	-0.053	0.107
-548.339	-200.000	0.013	0.245
-547.325	-16.070	-0.174	0.111
-546.310	-200.000	-0.002	-0.279
-545.296	-119.400	-0.272	0.047
-544.281	-138.733	-0.335	-0.037
-543.266	-35.375	0.221	0.120
-542.252	-23.504	-0.447	0.269
-541.237	54.160	0.111	-0.107
-540.223	89.971	0.098	-0.110
-539.208	-160.044	-0.076	-0.004
-538.193	-34.583	-0.086	0.047
-537.179	-72.236	0.242	-0.090
-536.164	-47.921	-0.093	0.045
-535.150	56.196	-0.220	-0.214
-534.135	793.296	-0.061	-0.169
-533.121	-107.983	-0.116	0.025
-532.106	75.724	0.378	0.401
-531.091	-80.774	0.201	0.067
-530.077	196.125	-0.270	-0.412
-529.062	-200.000	-0.040	-0.244
-528.048	-48.896	0.075	-0.036
-527.033	-110.074	0.308	-0.065
-526.018	-200.000	-0.025	0.271
-525.004	123.148	0.049	0.061
-523.989	800.000	-0.046	-0.177
-522.975	171.790	0.112	0.161
-521.960	-133.988	0.321	0.040
-520.945	326.434	0.200	-0.383
-519.931	-125.624	-0.107	-0.016
-518.916	-70.469	-0.061	-0.023
-517.902	-200.000	-0.012	-0.183
-516.887	800.000	-0.033	0.109
-515.872	-80.208	0.057	0.019
-514.858	-55.283	0.255	-0.115
-513.843	-151.212	0.269	0.020
-512.829	20.116	0.150	-0.122
-511.814	-200.000	-0.011	0.160
-510.799	455.747	0.084	-0.187
-509.785	224.159	-0.089	-0.144
-508.770	-200.000	0.004	0.041
-507.756	50.144	0.153	0.145
-506.741	-6.181	0.237	0.162
-505.726	-200.000	-0.007	0.116
-504.712	-44.061	0.055	-0.028
-503.697	624.936	-0.038	-0.096
-502.683	28.490	0.141	-0.119
-501.668	800.000	0.097	0.297
-500.653	394.298	0.022	0.045
-499.639	282.183	0.089	-0.159
-498.624	-118.565	0.218	0.039
-497.610	585.529	-0.137	-0.338
-496.595	26.236	-0.080	-0.067
-495.581	-200.000	-0.014	-0.300
-494.566	-200.000	0.047	-0.259
-493.551	-117.978	0.406	-0.073
-492.537	-163.859	-0.066	0.003
-491.522	540.333	-0.058	0.138
-490.508	-87.847	0.176	0.053
-489.493	-85.727	-0.116	0.036
-488.478	209.451	-0.127	-0.199
-487.464	-58.006	-0.418	0.183
-486.449	642.277	-0.037	0.095
-485.435	-99.330	0.153	0.039
-484.420	-104.270	-0.092	0.021
-483.405	38.245	-0.065	0.058
-482.391	-39.013	-0.206	0.109
-481.376	673.514	-0.030	0.078
-480.362	-200.000	-0.015	-0.237
-479.347	209.774	0.279	0.438
-478.332	-200.000	-0.082	0.367
-477.318	-200.000	-0.048	-0.214
-476.303	800.000	-0.041	-0.124
-475.289	-200.000	0.032	-0.150
-474.274	-200.000	0.035	-0.227
-473.259	-105.145	-0.144	-0.033
-472.245	292.363	0.236	0.431
-471.230	-198.513	0.277	-0.002
-470.216	-171.929	0.041	0.001
-469.201	-133.113	0.423	0.054
-468.186	-13.650	-0.112	0.073
-467.172	60.574	0.102	-0.101
-466.157	-200.000	-0.013	-0.138
-465.143	-123.381	0.116	0.019
-464.128	-54.726	-0.209	0.095
-463.113	60.939	0.192	0.191
-462.099	-200.000	-0.035	-0.384
-461.084	-36.005	0.212	0.115
-460.070	613.955	0.037	0.092
-459.055	-151.754	-0.098	0.007
-458.040	-200.000	-0.036	0.178
-457.026	-200.000	-0.021	-0.315
-456.011	2.034	-0.382	0.276
-454.997	333.822	-0.094	-0.181
-453.982	-200.000	0.021	-0.121
-452.968	-183.072	0.162	0.003
-451.953	44.758	0.098	0.090
-450.938	193.586	-0.126	-0.190
-449.924	127.747	0.254	0.323
-448.909	76.439	0.143	0.152
-447.895	-200.000	-0.047	0.491
-446.880	-104.547	-0.177	0.041
-445.865	-200.000	-0.056	-0.265
-444.851	-200.000	-0.005	-0.239
-443.836	141.554	-0.140	0.185
-442.822	-200.000	0.054	0.316
-441.807	138.982	0.114	0.150
-440.792	-54.152	0.148	0.067
-439.778	184.175	-0.127	0.188
-438.763	-100.470	0.118	-0.029
-437.749	-128.164	0.230	-0.033
-436.734	-91.518	-0.360	0.103
-435.719	51.364	-0.139	0.132
-434.705	-162.969	-0.182	-0.009
-433.690	-200.000	0.032	-0.195
-432.676	-134.788	-0.205	0.025
-431.661	534.887	-0.105	-0.248
-430.646	533.544	-0.008	-0.020
-429.632	800.000	-0.040	-0.129
-428.617	-93.052	0.089	0.025
-427.603	-200.000	-0.001	-0.282
-426.588	78.499	-0.093	0.100
-425.573	-37.926	-0.006	-0.003
-424.559	2.554	0.185	-0.134
-423.544	-78.031	0.420	-0.145
-422.530	800.000	-0.050	-0.146
-421.515	573.445	0.111	-0.272
-420.500	-46.994	0.010	0.005
-419.486	45.380	0.191	0.176
-418.471	800.000	0.013	0.053
-417.457	-29.808	-0.091	0.052
-416.442	-2.248	0.296	0.207
-415.428	153.973	-0.092	0.126
-414.413	-67.461	-0.330	-0.129
-413.398	-42.905	-0.501	-0.254
-412.384	-170.276	-0.281	-0.010
-411.369	-75.233	0.134	0.048
-410.355	-99.189	0.323	-0.082
-409.340	-200.000	0.009	-0.141
-408.325	208.396	0.104	-0.162
-407.311	48.626	-0.187	-0.175
-406.296	-108.758	-0.210	0.045
-405.282	-200.000	0.017	-0.207
-404.267	-104.140	-0.213	-0.049
-403.252	-143.711	0.229	-0.022
-402.238	8.592	-0.142	0.107
-401.223	163.130	0.123	0.173
-400.209	-154.031	0.189	0.013
-399.194	-86.006	-0.215	0.066
-398.179	-110.424	-0.373	-0.077
-397.165	-95.975	0.303	0.081
-396.150	311.187	0.089	0.167
-395.136	38.595	0.214	-0.191
-394.121	29.347	0.075	-0.064
-393.106	-142.677	-0.331	0.032
-392.092	-200.000	-0.001	0.011
-391.077	-200.000	0.016	-0.080
-390.063	61.451	0.020	0.020
-389.048	665.251	-0.131	-0.337
-388.033	152.672	0.127	-0.173
-387.019	98.107	-0.163	-0.187
-386.004	63.377	0.041	-0.041
-384.990	-76.211	0.140	-0.049
-383.975	-199.085	0.203	0.001
-382.960	-200.000	0.011	-0.156
-381.946	138.761	-0.036	-0.047
-380.931	-200.000	0.003	0.227
-379.917	11.350	-0.068	-0.052
-378.902	270.666	-0.066	-0.116
-377.888	154.459	0.063	0.087
-376.873	-139.681	-0.138	-0.015
-375.858	-200.000	-0.002	-0.069
-374.844	-200.000	0.010	0.088
-373.829	-200.000	-0.065	-0.381
-372.815	-196.447	-0.217	0.001
-371.800	697.798	-0.052	-0.137
-370.785	48.888	-0.052	-0.049
-369.771	-172.825	-0.256	-0.008
-368.756	-42.901	-0.144	0.073
-367.742	5.609	-0.037	-0.027
-366.727	543.923	0.092	0.218
-365.712	109.800	0.127	0.152
-364.698	292.700	-0.141	0.256
-363.683	12.871	-0.254	-0.196
-362.669	-119.557	-0.202	0.035
-361.654	800.000	-0.038	-0.109
-360.639	122.067	0.164	-0.204
-359.625	-119.660	-0.300	-0.052
-358.610	-48.474	0.017	0.008
-357.596	800.000	-0.045	0.183
-356.581	14.059	0.466	-0.361
-355.566	6.242	-0.189	0.140
-354.552	-70.880	-0.130	-0.049
-353.537	800.000	-0.038	-0.119
-352.523	-60.230	0.151	0.064
-351.508	-126.966	0.115	-0.017
-350.493	-47.253	-0.276	-0.134
-349.479	-82.772	0.144	-0.047
-348.464	180.879	0.087	0.128
-347.450	-200.000	0.003	-0.104
-346.435	-200.000	0.028	0.222
-345.420	402.634	0.187	0.392
-344.406	-200.000	0.049	0.249
-343.391	485.240	0.086	0.195
-342.377	-7.887	0.037	-0.025
-341.362	429.092	-0.072	0.155
-340.348	436.224	-0.078	0.170
-339.333	35.572	0.237	0.207
-338.318	-200.000	0.021	0.199
-337.304	571.001	-0.027	0.065
-336.289	143.328	0.108	-0.143
-335.275	281.884	-0.047	0.085
-334.260	571.024	-0.101	0.245
-333.245	168.299	0.138	-0.196
-332.231	800.000	0.029	-0.096
-331.216	57.095	0.133	0.129
-330.202	800.000	0.045	-0.131
-329.187	-8.461	-0.344	-0.230
-328.172	547.242	0.037	0.089
-327.158	16.110	0.049	-0.039
-326.143	308.302	0.061	-0.113
-325.129	-200.000	-0.062	-0.397
-324.114	-122.096	0.184	-0.030
-323.099	108.587	-0.099	-0.118
-322.085	68.531	0.239	0.244
-321.070	638.259	-0.114	-0.288
-320.056	800.000	0.066	-0.191
-319.041	294.426	0.155	-0.282
-318.026	800.000	-0.060	-0.173
-317.012	-38.663	-0.078	-0.041
-315.997	-200.000	-0.043	-0.253
-314.983	-63.885	0.088	0.036
-313.968	423.933	0.160	0.343
-312.953	-200.000	-0.034	0.170
-311.939	-126.566	0.168	-0.025
-310.924	-200.000	0.027	0.133
-309.910	-16.019	0.202	0.128
-308.895	800.000	0.116	0.395
-307.880	800.000	0.150	-0.470
-306.866	-104.822	-0.099	-0.023
-305.851	138.960	0.254	-0.332
-304.837	-47.294	0.100	-0.049
-303.822	-200.000	0.009	0.052
-302.807	800.000	0.066	-0.188
-301.793	-116.841	-0.035	-0.006
-300.778	-72.396	-0.194	0.071
-299.764	-32.393	0.203	0.113
-298.749	-117.239	0.093	0.017
-297.735	-200.000	0.017	-0.129
-296.720	22.911	0.030	0.024
-295.705	-89.014	-0.363	0.107
-294.691	800.000	0.079	0.272
-293.676	135.772	-0.044	0.056
-292.662	-87.536	-0.314	0.094
-291.647	-200.000	-0.013	-0.484
-290.632	-200.000	-0.003	-0.151
-289.618	104.070	-0.058	0.068
-288.603	410.221	0.022	-0.046
-287.589	92.097	0.146	0.163
-286.574	-155.614	-0.148	-0.009
-285.559	44.930	0.249	0.228
-284.545	-77.361	-0.380	0.131
-283.530	-200.000	-0.092	0.579
-282.516	194.874	-0.062	0.094
-281.501	13.508	-0.121	-0.093
-280.486	-103.941	-0.234	-0.054
-279.472	184.656	0.054	0.080
-278.457	8.535	0.082	0.061
-277.443	173.446	-0.241	-0.346
-276.428	800.000	0.112	-0.351
-275.413	-62.580	0.429	0.177
-274.399	200.032	-0.069	-0.105
-273.384	-4.464	-0.240	0.165
-272.370	800.000	-0.062	-0.180
-271.355	70.923	0.232	0.239
-270.340	-160.669	0.363	0.019
-269.326	452.867	0.048	0.105
-268.311	800.000	-0.068	-0.209
-267.297	800.000	0.065	-0.217
-266.282	39.329	0.063	-0.056
-265.267	-75.345	0.125	-0.044
-264.253	-152.318	0.063	-0.005
-263.238	-200.000	0.056	-0.352
-262.224	-200.000	-0.010	0.141
-261.209	800.000	0.073	0.275
-260.195	800.000	-0.064	0.236
-259.180	146.397	0.140	0.187
-258.165	-15.698	0.172	0.109
-257.151	398.693	0.091	-0.189
-256.136	-178.141	0.432	0.010
-255.122	-6.142	-0.083	-0.056
-254.107	-200.000	-0.057	0.256
-253.092	-178.192	-0.076	0.002
-252.078	-200.000	-0.023	0.181
-251.063	-154.290	0.100	0.007
-250.049	-96.206	-0.348	-0.092
-249.034	-117.578	-0.439	-0.079
-248.019	168.191	0.295	0.417
-247.005	-6.279	-0.115	0.078
-245.990	28.361	0.141	0.118
-244.976	141.949	-0.143	0.188
-243.961	-51.110	0.123	0.057
-242.946	188.085	0.032	-0.047
-241.932	800.000	0.084	-0.232
-240.917	128.524	-0.216	-0.272
-239.903	-6.450	0.184	-0.124
-238.888	-117.391	-0.407	0.073
-237.873	-83.383	-0.219	0.070
-236.859	800.000	-0.041	-0.141
-235.844	56.758	0.118	0.114
-234.830	-200.000	0.008	0.187
-233.815	-200.000	0.018	0.235
-232.800	472.449	0.037	0.083
-231.786	167.585	-0.233	-0.328
-230.771	-107.374	-0.268	0.058
-229.757	-79.299	-0.301	-0.101
-228.742	-96.968	0.253	-0.066
-227.727	102.829	-0.091	0.106
-226.713	241.336	-0.233	-0.386
-225.698	61.165	-0.071	0.069
-224.684	-200.000	0.050	-0.379
-223.669	800.000	-0.041	-0.158
-222.655	119.664	0.087	0.107
-221.640	-118.111	-0.151	-0.027
-220.625	-200.000	0.044	-0.243
-219.611	649.717	0.203	-0.516
-218.596	-7.013	0.302	0.204
-217.582	-142.953	-0.150	0.014
-216.567	-175.527	0.418	0.011
-215.552	183.660	-0.122	-0.179
-214.538	81.830	0.207	0.222
-213.523	-12.778	-0.235	0.151
-212.509	208.080	-0.048	0.074
-211.494	-188.041	0.205	-0.003
-210.479	-94.111	0.162	-0.044
-209.465	48.140	-0.158	0.147
-208.450	-200.000	0.014	0.111
-207.436	2.193	-0.192	0.137
-206.421	-200.000	-0.034	0.171
-205.406	374.019	-0.037	0.075
-204.392	-57.179	-0.266	0.116
-203.377	435.231	-0.062	-0.133
-202.363	-31.655	0.083	-0.046
-201.348	3.992	0.071	0.051
-200.333	-177.976	0.201	-0.005
-199.319	96.792	0.138	-0.156
-198.304	-3.753	0.370	-0.254
-197.290	23.840	-0.045	0.036
-196.275	108.164	-0.174	-0.206
-195.260	-144.659	-0.086	-0.008
-194.246	115.685	-0.057	-0.069
-193.231	658.073	0.063	0.160
-192.217	-143.807	0.087	-0.008
-191.202	-113.346	0.077	-0.015
-190.187	-200.000	0.006	-0.121
-189.173	219.387	0.065	0.103
-188.158	800.000	-0.003	-0.009
-187.144	-75.346	0.314	-0.111
-186.129	137.426	-0.189	0.245
-185.114	7.903	0.231	0.172
-184.100	800.000	0.087	0.315
-183.085	-17.852	0.108	0.067
-182.071	-101.251	-0.310	-0.075
-181.056	-24.961	0.158	0.093
-180.042	37.438	-0.220	0.193
-179.027	-13.874	-0.164	0.105
-178.012	-13.972	0.271	0.173
-176.998	-200.000	-0.005	-0.465
-175.983	-42.400	-0.248	0.125
-174.969	-132.613	-0.211	-0.027
-173.954	800.000	0.064	0.202
-172.939	115.555	0.093	0.113
-171.925	42.289	-0.236	0.213
-170.910	-200.000	-0.007	0.226
-169.896	21.414	-0.225	0.181
-168.881	-52.829	0.189	0.086
-167.866	-78.344	0.188	0.064
-166.852	-21.345	0.269	0.163
-165.837	-64.900	-0.235	-0.094
-164.823	-134.840	0.394	0.047
-163.808	-3.638	0.060	-0.041
-162.793	-200.000	-0.012	0.096
-161.779	-200.000	-0.046	-0.376
-160.764	593.685	-0.147	0.360
-159.750	-71.575	-0.190	0.070
-158.735	-200.000	-0.008	0.034
-157.720	625.017	0.023	0.057
-156.706	-66.750	0.176	-0.069
-155.691	79.245	-0.194	0.206
-154.677	-135.025	0.277	0.033
-153.662	129.062	-0.150	0.189
-152.647	-178.830	-0.346	0.008
-151.633	65.730	-0.118	0.118
-150.618	-200.000	0.008	0.241
-149.604	-115.854	0.119	0.022
-148.589	-120.938	-0.277	0.046
-147.574	-118.013	0.397	-0.070
-146.560	-63.435	0.093	-0.038
-145.545	-200.000	-0.022	0.184
-144.531	-30.697	0.130	-0.072
-143.516	800.000	0.029	-0.092
-142.502	14.124	-0.325	-0.250
-141.487	-31.057	-0.116	0.065
-140.472	-200.000	-0.061	0.301
-139.458	-4.509	0.280	0.191
-138.443	58.712	0.217	-0.211
-137.429	-200.000	0.054	-0.298
-136.414	-51.343	0.345	0.159
-135.399	-42.785	-0.346	-0.174
-134.385	98.682	-0.057	0.065
-133.370	5.488	-0.132	-0.096
-132.356	-36.579	0.306	-0.163
-131.341	-3.805	0.126	-0.087
-130.326	-70.935	-0.266	-0.099
-129.312	333.301	-0.081	0.154
-128.297	173.272	0.071	0.101
-127.283	-128.175	0.244	0.034
-126.268	-96.056	0.273	-0.072
-125.253	-200.000	0.012	-0.201
-124.239	-200.000	0.026	0.147
-123.224	800.000	0.037	0.147
-122.210	224.929	0.091	0.145
