DTS Sentinel unit serial number:	SN413079Multiplexer serial number:	ORYXHardware model number:	OX4-SRSoftware version number:	ORYX F/W v4.00 Oryx Data Collector v3.7.2.0data status	okinstallation	princeton_trtdifferential loss correction	single-endedforward channel	channel 4reverse channel	N/Adate	2019/09/18time	19:17:35forward acquisition time	60.00reverse acquisition time	0.00gamma	496.2192k internal	0.2309k external	0.2309temperature offset calibration	1.0038default loss term (dB/km)	0.3790temperature slope calibration	1.0000multiplexer offset coefficient	1.0000multiplexer slope coefficient	1.0000fibre end	0.00T internal ref (°C)	34.19T ext. ref 1 (°C)	1.15T ext. ref 2 (°C)	23.45length (m)	temperature (°C)	Stokes	anti-Stokes-747.200	-64.293	-0.389	0.161
-746.185	800.000	0.141	0.505
-745.171	-118.249	0.452	-0.082
-744.156	-152.253	-0.312	0.023
-743.142	117.486	0.152	0.190
-742.127	50.645	-0.171	-0.165
-741.112	426.030	0.081	-0.178
-740.098	800.000	0.151	0.479
-739.083	-26.048	-0.053	0.031
-738.069	-33.755	-0.313	0.175
-737.054	84.090	-0.293	0.325
-736.039	-61.895	-0.202	0.086
-735.025	173.710	0.086	0.127
-734.010	-161.869	-0.295	-0.015
-732.996	-130.739	-0.270	-0.037
-731.981	800.000	-0.121	0.465
-730.966	702.314	-0.024	0.065
-729.952	581.770	0.058	0.145
-728.937	467.927	0.103	-0.235
-727.923	-49.125	-0.062	0.030
-726.908	232.785	-0.152	-0.253
-725.894	657.657	0.069	0.181
-724.879	800.000	-0.072	-0.206
-723.864	-200.000	0.009	0.272
-722.850	50.713	-0.326	0.314
-721.835	25.131	-0.128	0.108
-720.821	-11.573	-0.142	-0.095
-719.806	-86.430	-0.149	-0.046
-718.791	-22.624	-0.207	0.127
-717.777	29.434	-0.281	-0.242
-716.762	20.032	-0.064	-0.052
-715.748	50.347	0.125	0.120
-714.733	96.345	0.163	0.189
-713.718	-18.926	0.116	-0.073
-712.704	800.000	0.069	0.230
-711.689	452.317	-0.141	0.315
-710.675	-17.917	0.606	-0.386
-709.660	-105.323	-0.100	-0.023
-708.645	-110.468	0.049	-0.010
-707.631	-88.333	0.175	-0.053
-706.616	-200.000	-0.013	0.081
-705.602	-200.000	0.072	0.322
-704.587	-200.000	-0.036	-0.186
-703.572	-149.581	0.523	-0.042
-702.558	-33.418	0.212	-0.119
-701.543	-146.119	0.159	-0.014
-700.529	76.558	0.119	0.128
-699.514	165.953	-0.219	0.315
-698.499	111.057	0.334	-0.409
-697.485	-18.308	0.219	-0.139
-696.470	-200.000	0.009	0.259
-695.456	-39.404	0.271	0.144
-694.441	255.886	0.081	0.142
-693.426	142.725	-0.147	-0.198
-692.412	261.286	-0.098	0.173
-691.397	59.984	-0.131	-0.131
-690.383	456.195	0.053	-0.119
-689.368	-63.674	-0.349	0.145
-688.354	-200.000	0.010	0.105
-687.339	-14.799	0.194	-0.126
-686.324	-200.000	-0.016	0.214
-685.310	-106.656	0.100	0.022
-684.295	38.136	-0.069	-0.062
-683.281	-40.572	-0.109	0.057
-682.266	-200.000	-0.029	-0.260
-681.251	-131.816	-0.241	0.032
-680.237	-200.000	0.021	-0.516
-679.222	444.303	-0.129	-0.287
-678.208	-70.799	0.166	-0.063
-677.193	-164.365	0.325	0.015
-676.178	-200.000	-0.048	-0.436
-675.164	-157.624	-0.293	-0.018
-674.149	-78.099	-0.392	0.137
-673.135	278.013	0.193	0.348
-672.120	-81.100	-0.279	0.094
-671.105	-155.410	0.073	-0.005
-670.091	107.299	-0.183	-0.221
-669.076	264.981	0.335	-0.591
-668.062	-110.127	-0.376	0.080
-667.047	-85.736	0.154	0.048
-666.032	7.878	-0.082	-0.062
-665.018	-200.000	-0.007	0.079
-664.003	10.275	-0.353	-0.272
-662.989	800.000	0.027	0.100
-661.974	18.693	-0.065	-0.053
-660.959	471.832	-0.150	0.342
-659.945	-45.845	-0.279	0.140
-658.930	-50.272	0.245	-0.117
-657.916	205.511	-0.109	0.172
-656.901	-200.000	-0.007	-0.030
-655.886	-59.890	-0.181	-0.078
-654.872	-92.866	0.175	0.050
-653.857	800.000	0.079	-0.257
-652.843	228.366	0.142	-0.235
-651.828	-200.000	0.068	-0.487
-650.814	-80.341	-0.166	-0.056
-649.799	-134.165	0.109	0.014
-648.784	-109.458	-0.057	0.012
-647.770	-122.665	-0.209	0.034
-646.755	620.662	0.084	0.213
-645.741	-122.933	-0.131	-0.021
-644.726	-44.429	0.080	0.041
-643.711	76.728	-0.250	0.269
-642.697	-42.946	-0.321	-0.165
-641.682	-200.000	-0.001	0.087
-640.668	800.000	0.088	0.307
-639.653	60.862	-0.138	0.138
-638.638	-119.467	0.145	0.025
-637.624	113.475	-0.304	-0.373
-636.609	454.531	-0.023	-0.052
-635.595	-6.567	-0.054	0.037
-634.580	13.498	-0.242	-0.190
-633.565	98.445	0.146	-0.171
-632.551	-178.094	0.207	-0.005
-631.536	-28.097	0.387	-0.227
-630.522	20.483	0.204	-0.167
-629.507	68.397	0.083	0.086
-628.492	-126.251	-0.240	-0.036
-627.478	-136.479	-0.364	-0.043
-626.463	48.450	0.119	-0.113
-625.449	553.968	0.053	-0.130
-624.434	-77.860	0.171	-0.060
-623.419	-22.056	0.179	0.110
-622.405	-53.019	0.362	0.169
-621.390	800.000	-0.005	0.019
-620.376	78.000	-0.159	0.171
-619.361	-65.704	0.159	0.064
-618.346	-200.000	0.016	-0.139
-617.332	-111.988	-0.216	0.044
-616.317	80.763	-0.146	-0.159
-615.303	647.470	0.106	-0.273
-614.288	237.906	-0.076	-0.127
-613.273	346.707	0.104	-0.206
-612.259	98.531	-0.157	-0.182
-611.244	104.353	0.317	0.378
-610.230	800.000	0.105	0.431
-609.215	147.043	-0.077	0.104
-608.201	-45.394	-0.247	-0.124
-607.186	-136.784	0.138	0.016
-606.171	-200.000	-0.020	0.221
-605.157	-200.000	-0.011	-0.201
-604.142	145.648	0.035	0.048
-603.128	171.049	-0.086	-0.124
-602.113	-84.896	-0.314	0.100
-601.098	197.578	-0.150	0.231
-600.084	274.836	0.126	-0.226
-599.069	708.287	0.158	0.421
-598.055	99.292	-0.082	0.096
-597.040	-52.999	-0.256	0.119
-596.025	-110.559	0.264	0.055
-595.011	392.154	-0.095	0.200
-593.996	-200.000	0.039	0.278
-592.982	-200.000	-0.030	0.246
-591.967	-200.000	0.002	0.104
-590.952	16.874	-0.146	-0.117
-589.938	-95.283	-0.058	-0.016
-588.923	289.040	-0.050	0.092
-587.909	-76.240	0.248	-0.088
-586.894	79.556	-0.022	-0.024
-585.879	-77.498	0.312	-0.109
-584.865	102.936	-0.173	-0.205
-583.850	18.205	0.135	-0.109
-582.836	-8.962	0.155	-0.105
-581.821	-38.898	-0.100	-0.053
-580.806	-171.406	-0.190	-0.006
-579.792	279.360	-0.147	-0.265
-578.777	148.924	-0.239	-0.326
-577.763	-4.077	0.142	-0.100
-576.748	9.008	0.245	-0.186
-575.733	406.278	-0.036	-0.076
-574.719	47.210	-0.245	0.230
-573.704	800.000	0.005	-0.016
-572.690	-54.890	-0.106	0.048
-571.675	-145.191	-0.142	-0.013
-570.661	-126.292	-0.086	-0.013
-569.646	800.000	-0.005	-0.019
-568.631	-200.000	-0.277	-0.001
-567.617	633.498	-0.125	-0.320
-566.602	-33.154	-0.200	0.112
-565.588	-200.000	-0.018	-0.368
-564.573	-103.571	0.228	0.054
-563.558	184.972	-0.183	0.274
-562.544	164.019	-0.100	0.142
-561.529	-200.000	-0.001	0.231
-560.515	550.982	0.105	0.255
-559.500	-64.852	0.145	0.059
-558.485	-52.115	-0.317	-0.148
-557.471	150.484	-0.213	-0.291
-556.456	310.369	-0.032	0.061
-555.442	-200.000	0.047	-0.229
-554.427	-200.000	0.003	0.461
-553.412	-200.000	-0.006	-0.248
-552.398	96.102	-0.334	-0.384
-551.383	-200.000	0.011	0.069
-550.369	-90.484	-0.162	-0.047
-549.354	28.292	0.065	-0.055
-548.339	-15.386	-0.330	0.212
-547.325	-7.325	0.203	-0.139
-546.310	-200.000	0.000	0.202
-545.296	215.194	0.014	-0.022
-544.281	-93.939	-0.234	0.065
-543.266	-81.512	-0.179	0.059
-542.252	563.648	0.101	0.247
-541.237	-36.181	0.010	0.006
-540.223	-176.342	0.222	-0.006
-539.208	303.827	-0.068	-0.128
-538.193	800.000	-0.056	-0.232
-537.179	-104.652	-0.119	0.028
-536.164	317.924	0.067	-0.127
-535.150	-200.000	-0.058	0.344
-534.135	16.886	-0.152	0.121
-533.121	495.093	-0.100	0.231
-532.106	47.965	-0.177	0.166
-531.091	-50.251	-0.177	-0.084
-530.077	-85.918	-0.232	-0.072
-529.062	50.806	0.089	0.085
-528.048	-50.707	0.338	-0.160
-527.033	503.193	0.065	0.152
-526.018	4.013	-0.168	0.124
-525.004	-14.751	-0.118	0.077
-523.989	621.162	0.131	-0.333
-522.975	-108.937	-0.051	0.011
-521.960	63.804	0.190	0.193
-520.945	-200.000	0.015	0.298
-519.931	-150.341	-0.383	-0.030
-518.916	-58.228	0.229	-0.101
-517.902	-21.518	0.250	0.153
-516.887	-119.736	0.041	-0.007
-515.872	24.700	-0.197	0.164
-514.858	-15.247	0.190	-0.123
-513.843	107.552	0.210	-0.252
-512.829	501.224	-0.068	0.159
-511.814	353.404	0.057	-0.115
-510.799	17.250	0.240	-0.192
-509.785	-43.507	0.037	0.019
-508.770	69.422	0.150	-0.155
-507.756	-16.488	-0.366	-0.233
-506.741	194.913	-0.050	-0.077
-505.726	-160.239	0.257	-0.014
-504.712	-106.442	-0.095	0.021
-503.697	-200.000	-0.044	-0.292
-502.683	-200.000	-0.038	-0.423
-501.668	8.100	-0.271	-0.205
-500.653	426.061	-0.093	0.201
-499.639	544.087	-0.043	-0.103
-498.624	-85.428	0.162	-0.051
-497.610	-128.464	0.191	-0.027
-496.595	33.568	-0.312	0.273
-495.581	131.281	0.204	-0.263
-494.566	800.000	0.020	-0.073
-493.551	-121.244	0.214	0.036
-492.537	146.632	0.118	-0.159
-491.522	-133.827	0.131	0.016
-490.508	238.335	-0.246	0.411
-489.493	-131.940	0.051	0.007
-488.478	-0.502	-0.296	-0.211
-487.464	111.944	0.120	-0.146
-486.449	24.337	-0.225	-0.187
-485.435	-9.961	0.108	-0.072
-484.420	-87.182	0.073	-0.022
-483.405	800.000	-0.022	0.072
-482.391	423.011	-0.158	0.341
-481.376	800.000	0.013	0.039
-480.362	110.206	-0.042	0.051
-479.347	16.806	-0.140	0.111
-478.332	259.217	0.110	-0.192
-477.318	-80.675	0.182	-0.061
-476.303	-46.809	-0.136	0.067
-475.289	-200.000	-0.081	0.411
-474.274	33.883	0.168	0.147
-473.259	108.649	0.164	0.197
-472.245	800.000	0.092	0.331
-471.230	800.000	-0.031	-0.098
-470.216	-143.437	0.263	-0.025
-469.201	-200.000	-0.006	-0.618
-468.186	-200.000	0.036	-0.187
-467.172	-89.724	0.244	0.072
-466.157	-190.082	0.112	-0.001
-465.143	81.634	-0.079	-0.086
-464.128	-200.000	0.015	0.430
-463.113	-0.069	-0.324	-0.232
-462.099	-200.000	-0.042	0.211
-461.084	800.000	-0.078	-0.290
-460.070	-200.000	-0.066	0.353
-459.055	42.710	0.237	0.217
-458.040	-108.105	0.081	0.018
-457.026	-99.475	0.070	-0.018
-456.011	53.814	0.070	-0.067
-454.997	-114.904	-0.142	0.027
-453.982	-104.827	0.213	0.049
-452.968	800.000	0.030	-0.104
-451.953	-15.434	-0.227	0.146
-450.938	-169.440	0.009	-0.000
-449.924	800.000	-0.167	0.472
-448.909	181.782	-0.124	-0.184
-447.895	-200.000	0.022	-0.120
-446.880	53.897	0.082	-0.079
-445.865	-200.000	-0.006	0.169
-444.851	77.512	-0.057	0.061
-443.836	-38.585	0.290	0.154
-442.822	87.213	0.248	-0.275
-441.807	-33.619	-0.274	0.152
-440.792	-200.000	-0.003	-0.094
-439.778	-200.000	0.027	-0.416
-438.763	-124.480	0.299	-0.047
-437.749	-193.194	-0.192	-0.002
-436.734	800.000	-0.136	-0.379
-435.719	-200.000	0.099	-0.438
-434.705	250.726	-0.113	-0.193
-433.690	26.287	0.151	-0.127
-432.676	536.017	0.082	0.195
-431.661	69.336	-0.197	-0.204
-430.646	-112.014	0.548	-0.111
-429.632	-60.610	-0.279	0.119
-428.617	-119.055	-0.166	0.029
-427.603	43.971	-0.165	0.152
-426.588	-142.936	-0.409	0.040
-425.573	-72.556	-0.311	0.115
-424.559	154.854	0.090	-0.124
-423.544	63.504	-0.076	-0.076
-422.530	800.000	-0.080	-0.274
-421.515	216.833	-0.166	-0.265
-420.500	-27.299	-0.325	-0.190
-419.486	-200.000	0.021	-0.105
-418.471	-105.309	-0.238	0.054
-417.457	254.530	-0.152	0.262
-416.442	-200.000	-0.012	0.250
-415.428	-200.000	-0.006	0.140
-414.413	-89.061	-0.074	-0.022
-413.398	-106.528	0.045	0.010
-412.384	-2.327	0.193	-0.136
-411.369	-200.000	0.079	-0.351
-410.355	800.000	-0.021	0.083
-409.340	-117.067	-0.197	-0.036
-408.325	-177.565	0.141	-0.003
-407.311	-200.000	0.007	-0.074
-406.296	-89.865	0.260	-0.076
-405.282	800.000	0.031	0.121
-404.267	77.386	-0.182	-0.194
-403.252	-99.496	-0.036	0.009
-402.238	800.000	0.016	-0.071
-401.223	90.082	-0.065	0.073
-400.209	-20.082	0.246	-0.152
-399.194	169.449	-0.104	0.149
-398.179	131.341	0.042	-0.054
-397.165	-59.448	0.253	-0.109
-396.150	-63.025	-0.131	-0.054
-395.136	-200.000	0.010	-0.156
-394.121	-96.259	0.105	-0.028
-393.106	-10.472	-0.175	-0.116
-392.092	800.000	-0.067	0.211
-391.077	289.183	-0.056	-0.101
-390.063	90.419	-0.129	0.144
-389.048	-98.057	-0.259	0.067
-388.033	367.650	-0.130	0.263
-387.019	13.908	-0.256	0.199
-386.004	46.389	0.306	0.285
-384.990	-11.275	-0.114	-0.075
-383.975	170.780	-0.085	-0.122
-382.960	-77.271	-0.096	-0.033
-381.946	143.048	0.056	-0.074
-380.931	-40.166	-0.247	-0.129
-379.917	-200.000	-0.011	0.348
-378.902	-200.000	0.006	-0.256
-377.888	-81.909	-0.166	0.054
-376.873	127.188	0.116	-0.147
-375.858	-129.222	-0.283	-0.040
-374.844	-188.820	0.079	-0.001
-373.829	78.014	0.196	-0.209
-372.815	150.240	0.159	-0.217
-371.800	-105.202	0.186	-0.043
-370.785	-4.305	-0.124	0.086
-369.771	48.503	0.233	-0.218
-368.756	-65.474	0.376	0.151
-367.742	-37.649	0.181	0.096
-366.727	58.966	0.148	0.146
-365.712	189.857	0.078	-0.118
-364.698	-139.575	0.234	-0.025
-363.683	219.304	-0.099	0.159
-362.669	-0.108	0.198	0.141
-361.654	800.000	-0.096	0.419
-360.639	-134.586	-0.331	0.040
-359.625	131.620	0.094	0.121
-358.610	65.394	0.292	0.295
-357.596	52.373	0.247	-0.236
-356.581	-140.837	0.211	-0.022
-355.566	-74.173	0.088	0.032
-354.552	338.355	0.134	0.261
-353.537	800.000	-0.128	-0.429
-352.523	-47.082	-0.226	0.110
-351.508	-157.691	0.159	0.009
-350.493	97.067	-0.105	0.121
-349.479	-10.018	-0.222	0.148
-348.464	-141.693	-0.140	0.014
-347.450	-129.963	-0.283	-0.039
-346.435	-61.072	-0.120	-0.051
-345.420	-200.000	-0.060	0.334
-344.406	-200.000	0.036	-0.246
-343.391	800.000	-0.038	0.127
-342.377	2.982	-0.052	-0.038
-341.362	-162.396	0.295	0.015
-340.348	-82.292	0.210	0.068
-339.333	-86.863	0.113	0.035
-338.318	-99.168	0.091	0.023
-337.304	-200.000	0.004	0.096
-336.289	-200.000	-0.016	-0.162
-335.275	-200.000	-0.011	0.326
-334.260	-23.620	-0.121	0.072
-333.245	777.110	0.127	0.348
-332.231	-66.778	-0.313	0.124
-331.216	70.360	0.096	0.099
-330.202	2.348	0.199	-0.144
-329.187	60.418	-0.081	0.080
-328.172	800.000	0.062	-0.248
-327.158	-47.024	0.161	-0.079
-326.143	-200.000	0.036	0.257
-325.129	-40.317	-0.213	-0.111
-324.114	800.000	-0.053	-0.222
-323.099	-131.302	-0.293	0.039
-322.085	526.772	-0.052	-0.122
-321.070	800.000	-0.051	-0.173
-320.056	93.855	0.115	0.130
-319.041	-78.235	0.229	0.078
-318.026	-53.888	-0.261	0.119
-317.012	70.643	0.037	0.038
-315.997	-61.746	0.213	-0.089
-314.983	223.128	0.130	0.210
-313.968	-200.000	0.003	-0.035
-312.953	198.717	0.166	0.253
-311.939	800.000	-0.021	0.089
-310.924	-155.900	0.198	0.013
-309.910	784.425	-0.081	0.221
-308.895	-19.748	0.089	0.055
-307.880	800.000	-0.022	0.070
-306.866	-200.000	-0.031	0.237
-305.851	-88.917	0.051	0.015
-304.837	57.665	-0.266	-0.259
-303.822	-30.719	-0.124	0.070
-302.807	169.679	0.228	-0.325
-301.793	88.709	-0.122	-0.135
-300.778	114.239	-0.038	-0.047
-299.764	194.549	0.152	-0.230
-298.749	32.919	-0.108	-0.093
-297.735	54.314	-0.101	0.097
-296.720	-96.031	-0.220	-0.058
-295.705	75.000	0.105	-0.110
-294.691	-200.000	-0.029	0.143
-293.676	184.316	-0.048	0.071
-292.662	-200.000	-0.019	0.231
-291.647	133.676	-0.266	0.343
-290.632	-71.122	0.033	-0.012
-289.618	-64.013	0.489	0.199
-288.603	-200.000	0.040	-0.293
-287.589	-200.000	0.017	-0.462
-286.574	-97.444	-0.380	0.099
-285.559	-200.000	0.019	-0.091
-284.545	352.069	-0.208	0.412
-283.530	-160.058	0.274	-0.015
-282.516	-32.551	-0.167	-0.093
-281.501	22.417	-0.103	-0.084
-280.486	-114.052	-0.015	0.003
-279.472	231.983	-0.064	-0.105
-278.457	-147.375	0.184	0.016
-277.443	-200.000	0.030	0.233
-276.428	-200.000	-0.040	-0.240
-275.413	800.000	-0.078	0.329
-274.399	-130.673	0.278	0.037
-273.384	800.000	0.042	0.168
-272.370	-200.000	-0.003	0.094
-271.355	800.000	-0.028	-0.101
-270.340	206.147	0.145	0.225
-269.326	206.718	0.111	0.172
-268.311	550.609	-0.113	-0.271
-267.297	800.000	-0.062	0.223
-266.282	-68.373	0.109	0.042
-265.267	27.358	-0.105	-0.088
-264.253	800.000	0.037	0.162
-263.238	800.000	0.030	-0.088
-262.224	0.720	-0.233	0.166
-261.209	-10.707	0.188	-0.124
-260.195	800.000	-0.020	0.057
-259.180	389.764	-0.288	-0.595
-258.165	-65.241	0.158	0.064
-257.151	40.986	0.112	0.101
-256.136	-200.000	-0.019	-0.255
-255.122	-110.432	-0.063	0.013
-254.107	-9.263	-0.126	-0.084
-253.092	800.000	0.086	-0.259
-252.078	45.952	0.100	-0.092
-251.063	717.658	0.105	0.277
-250.049	-69.929	0.152	0.058
-249.034	427.100	-0.173	0.372
-248.019	-29.337	0.293	0.167
-247.005	104.117	-0.184	-0.215
-245.990	-79.654	0.115	-0.038
-244.976	-132.594	-0.098	0.013
-243.961	24.140	0.176	0.145
-242.946	112.844	0.079	-0.096
-241.932	15.362	-0.198	0.154
-240.917	-200.000	0.001	0.096
-239.903	54.703	0.211	0.202
-238.888	-130.535	-0.397	-0.053
-237.873	-99.475	0.248	-0.062
-236.859	-92.119	-0.172	0.048
-235.844	178.690	-0.071	0.104
-234.830	-34.763	0.176	0.096
-233.815	87.147	0.037	0.041
-232.800	-120.641	0.107	0.018
-231.786	43.794	0.136	0.124
-230.771	-86.693	0.396	-0.121
-229.757	-150.695	0.137	-0.010
-228.742	-70.367	-0.206	-0.078
-227.727	-200.000	-0.023	-0.445
-226.713	680.126	0.057	0.147
-225.698	25.889	-0.173	0.143
-224.684	29.614	0.125	-0.106
-223.669	-63.680	-0.272	-0.111
-222.655	-97.132	-0.109	-0.028
-221.640	-200.000	-0.014	-0.098
-220.625	-200.000	-0.004	-0.049
-219.611	116.890	0.035	-0.043
-218.596	159.892	-0.035	-0.048
-217.582	-103.157	0.096	-0.023
-216.567	-103.305	0.285	0.067
-215.552	-200.000	0.019	0.126
-214.538	-200.000	0.442	-0.002
-213.523	-13.573	-0.275	0.177
-212.509	314.609	-0.036	-0.068
-211.494	21.165	-0.197	0.159
-210.479	-20.675	-0.156	0.095
-209.465	-22.298	-0.280	0.169
-208.450	-160.834	0.213	0.011
-207.436	-200.000	0.002	-0.125
-206.421	47.467	0.291	0.270
-205.406	144.175	0.134	0.178
-204.392	155.044	0.064	0.088
-203.377	-166.634	0.263	-0.011
-202.363	-12.669	0.196	-0.127
-201.348	-100.799	0.207	-0.051
-200.333	-131.968	-0.237	-0.031
-199.319	124.388	-0.032	0.039
-198.304	-121.876	-0.161	0.026
-197.290	-200.000	-0.011	0.123
-196.275	136.959	-0.164	-0.213
-195.260	-200.000	0.073	-0.393
-194.246	-200.000	0.021	-0.241
-193.231	-58.186	0.190	-0.082
-192.217	-135.663	0.060	0.007
-191.202	131.173	-0.005	0.006
-190.187	635.627	0.084	0.211
-189.173	-148.710	-0.427	-0.034
-188.158	-164.690	-0.170	0.008
-187.144	-200.000	0.006	-0.077
-186.129	800.000	0.092	-0.389
-185.114	-96.379	0.147	-0.039
-184.100	800.000	-0.087	0.251
-183.085	149.239	0.166	-0.224
-182.071	71.294	0.064	-0.066
-181.056	800.000	-0.055	0.220
-180.042	-159.122	-0.218	0.012
-179.027	101.452	-0.168	-0.195
-178.012	62.378	0.219	-0.217
-176.998	-30.696	0.440	0.248
-175.983	-41.018	0.288	0.148
-174.969	-200.000	0.012	-0.103
-173.954	-82.774	0.125	-0.040
-172.939	381.126	-0.088	-0.179
-171.925	-200.000	0.014	-0.182
-170.910	-88.864	0.197	-0.058
-169.896	373.844	0.038	-0.077
-168.881	328.431	-0.087	0.166
-167.866	-90.521	0.480	-0.138
-166.852	115.910	0.242	-0.294
-165.837	-173.573	-0.226	-0.007
-164.823	-71.094	-0.090	-0.034
-163.808	-10.104	0.174	0.115
-162.793	319.161	-0.107	0.201
-161.779	-200.000	0.020	0.288
-160.764	121.470	0.224	-0.278
-159.750	-200.000	-0.059	-0.317
-158.735	-200.000	-0.005	-0.416
-157.720	-82.267	0.257	0.083
-156.706	-200.000	-0.035	0.478
-155.691	153.796	-0.155	-0.210
-154.677	-34.993	0.136	0.074
-153.662	-130.608	0.231	0.031
-152.647	614.900	0.046	0.115
-151.633	548.516	-0.081	0.192
-150.618	-200.000	0.048	-0.312
-149.604	360.501	0.148	-0.294
-148.589	21.666	-0.051	-0.041
-147.574	76.806	0.241	0.254
-146.560	73.272	0.122	0.127
-145.545	-22.576	0.223	-0.134
-144.531	-200.000	-0.046	-0.319
-143.516	-43.533	0.079	-0.039
-142.502	196.258	0.062	-0.094
-141.487	-50.534	0.185	-0.087
-140.472	420.510	-0.097	0.207
-139.458	-200.000	0.081	0.000
-138.443	-200.000	0.000	0.214
-137.429	800.000	-0.066	0.253
-136.414	-24.302	-0.114	0.068
-135.399	-58.013	0.240	0.104
-134.385	-40.092	0.140	-0.072
-133.370	115.896	0.063	-0.076
-132.356	78.711	0.148	-0.157
-131.341	316.006	-0.180	0.338
-130.326	-43.366	0.201	-0.101
-129.312	-4.001	0.042	0.029
-128.297	-200.000	0.004	-0.195
-127.283	-200.000	-0.013	0.060
-126.268	-131.373	0.176	0.023
-125.253	103.986	0.146	-0.170
-124.239	170.051	0.122	0.173
-123.224	52.772	0.266	-0.252
-122.210	-107.314	0.227	-0.049
-121.195	-153.362	0.330	0.023
