DTS Sentinel unit serial number:	SN413079Multiplexer serial number:	ORYXHardware model number:	OX4-SRSoftware version number:	ORYX F/W v4.00 Oryx Data Collector v3.7.2.0data status	okinstallation	princeton_trtdifferential loss correction	single-endedforward channel	channel 4reverse channel	N/Adate	2019/09/12time	18:52:19forward acquisition time	15.00reverse acquisition time	0.00gamma	496.2192k internal	0.2307k external	0.2307temperature offset calibration	1.0137default loss term (dB/km)	0.3790temperature slope calibration	1.0000multiplexer offset coefficient	1.0000multiplexer slope coefficient	1.0000fibre end	0.00T internal ref (°C)	32.87T ext. ref 1 (°C)	2.98T ext. ref 2 (°C)	27.39length (m)	temperature (°C)	Stokes	anti-Stokes-747.200	36.076	0.095	-0.085
-746.185	412.002	0.334	-0.722
-745.171	-108.550	0.246	0.054
-744.156	-200.000	-0.190	0.890
-743.142	23.890	-0.153	-0.129
-742.127	-43.999	0.235	-0.120
-741.112	-32.068	0.594	0.338
-740.098	206.324	0.388	-0.614
-739.083	-200.000	-0.030	-0.603
-738.069	247.401	0.146	-0.251
-737.054	-63.649	0.996	0.416
-736.039	-99.533	-0.424	0.108
-735.025	167.041	-0.211	0.304
-734.010	-39.852	1.130	-0.600
-732.996	-15.697	0.747	-0.484
-731.981	800.000	0.102	-0.329
-730.966	-136.954	0.462	0.054
-729.952	-50.997	-1.121	-0.535
-728.937	-9.053	0.181	0.123
-727.923	-58.130	0.361	-0.160
-726.908	-168.895	-0.603	0.023
-725.894	-200.000	-0.192	-0.906
-724.879	137.769	0.320	-0.426
-723.864	-72.325	-0.883	-0.332
-722.850	187.728	-0.111	-0.168
-721.835	23.652	-0.838	-0.701
-720.821	383.857	0.087	-0.182
-719.806	430.196	-0.220	0.484
-718.791	283.226	0.174	-0.317
-717.777	538.049	0.145	-0.351
-716.762	800.000	0.170	0.684
-715.748	800.000	0.158	0.590
-714.733	150.602	-0.351	0.484
-713.718	-200.000	0.138	0.726
-712.704	200.467	0.361	-0.563
-711.689	1.612	0.603	-0.441
-710.675	800.000	0.081	-0.317
-709.660	32.770	-0.173	-0.152
-708.645	101.496	0.398	-0.471
-707.631	800.000	0.196	-0.656
-706.616	743.426	-0.241	0.659
-705.602	-129.961	0.988	-0.137
-704.587	32.065	0.436	-0.382
-703.572	-55.681	-0.584	-0.265
-702.558	-119.272	-0.609	-0.108
-701.543	-126.019	-0.726	-0.111
-700.529	-158.058	-1.080	-0.064
-699.514	311.838	0.281	0.535
-698.499	23.218	-0.427	-0.356
-697.485	61.634	-0.200	-0.202
-696.470	-28.487	-0.394	-0.231
-695.456	-200.000	-0.025	-0.600
-694.441	7.455	-0.308	-0.233
-693.426	231.345	-0.148	0.247
-692.412	367.963	0.081	-0.165
-691.397	800.000	-0.142	-0.518
-690.383	758.184	0.217	0.595
-689.368	113.805	-0.020	0.024
-688.354	-26.809	-0.419	-0.248
-687.339	-85.525	-0.238	-0.075
-686.324	23.200	0.274	-0.228
-685.310	800.000	-0.190	0.837
-684.295	-87.312	0.761	-0.234
-683.281	-61.872	-0.282	-0.120
-682.266	800.000	-0.222	-0.649
-681.251	-10.881	0.201	0.135
-680.237	-135.535	-0.732	0.088
-679.222	-200.000	-0.180	0.864
-678.208	-32.298	-0.335	-0.190
-677.193	135.516	-0.122	0.161
-676.178	-127.475	-0.976	-0.144
-675.164	-165.173	0.523	-0.023
-674.149	18.328	0.569	-0.461
-673.135	-168.768	-0.236	0.009
-672.120	728.749	-0.144	-0.389
-671.105	105.948	0.338	-0.406
-670.091	-24.293	-0.589	-0.356
-669.076	-91.365	0.847	0.246
-668.062	29.544	-0.187	-0.162
-667.047	359.044	0.060	-0.122
-666.032	-200.000	-0.012	-0.191
-665.018	188.272	-0.112	-0.170
-664.003	-75.288	0.154	-0.056
-662.989	-200.000	0.002	-0.683
-661.974	-74.675	-0.289	-0.105
-660.959	-4.093	-0.466	0.327
-659.945	-8.149	0.164	-0.112
-658.930	-41.070	-0.789	0.413
-657.916	800.000	-0.200	0.578
-656.901	-121.220	-0.975	-0.165
-655.886	800.000	-0.215	0.632
-654.872	-200.000	0.071	0.336
-653.857	800.000	-0.243	0.880
-652.843	-1.731	0.605	-0.432
-651.828	800.000	0.218	-0.732
-650.814	-47.408	-0.652	0.321
-649.799	-18.440	0.437	0.277
-648.784	21.822	-0.882	0.728
-647.770	434.353	0.211	-0.465
-646.755	-95.491	-0.256	0.070
-645.741	-153.331	0.400	0.028
-644.726	-60.022	0.471	0.204
-643.711	800.000	-0.151	-0.567
-642.697	-66.764	-0.520	0.209
-641.682	236.045	-0.320	-0.536
-640.668	-52.585	0.143	-0.067
-639.653	173.268	-0.119	0.173
-638.638	35.931	-0.534	-0.476
-637.624	-109.943	-0.576	-0.122
-636.609	-48.855	0.241	-0.117
-635.595	61.273	0.371	-0.374
-634.580	-105.461	0.556	-0.128
-633.565	-100.393	-0.631	-0.158
-632.551	-200.000	0.052	-0.567
-631.536	-121.949	-0.082	-0.014
-630.522	369.316	-0.179	0.367
-629.507	16.642	0.937	0.750
-628.492	-99.512	0.877	-0.223
-627.478	-200.000	0.017	-0.139
-626.463	-200.000	0.017	-0.158
-625.449	-15.420	0.340	-0.220
-624.434	51.633	-0.490	-0.471
-623.419	-113.461	-0.406	0.081
-622.405	800.000	-0.097	0.277
-621.390	341.549	0.052	-0.103
-620.376	-13.758	-0.257	-0.168
-619.361	-42.690	0.340	-0.175
-618.346	-200.000	0.008	0.389
-617.332	-200.000	0.013	-0.149
-616.317	456.390	0.192	-0.432
-615.303	-102.353	0.541	0.131
-614.288	-85.197	-0.884	-0.280
-613.273	-200.000	0.024	-0.177
-612.259	-200.000	0.012	0.514
-611.244	-200.000	0.048	-0.362
-610.230	-97.628	0.899	0.236
-609.215	-86.108	0.025	-0.008
-608.201	707.912	0.343	0.918
-607.186	-23.184	0.257	0.156
-606.171	140.106	0.344	0.458
-605.157	5.092	0.307	0.229
-604.142	-200.000	-0.084	-0.804
-603.128	55.860	-0.226	0.222
-602.113	800.000	0.053	-0.164
-601.098	-52.311	0.308	0.144
-600.084	-104.628	0.368	-0.086
-599.069	334.194	0.110	-0.215
-598.055	59.466	0.592	0.590
-597.040	-31.880	-0.536	-0.304
-596.025	-200.000	-0.002	-0.228
-595.011	-185.059	-0.472	-0.007
-593.996	-200.000	0.043	-0.818
-592.982	-100.025	-0.420	-0.106
-591.967	-200.000	0.081	0.646
-590.952	-200.000	0.039	0.709
-589.938	249.864	-0.515	-0.883
-588.923	-74.200	-0.982	0.359
-587.909	-200.000	0.013	-0.133
-586.894	-101.774	0.426	0.104
-585.879	116.556	-0.360	0.446
-584.865	58.093	-0.667	0.660
-583.850	-200.000	-0.091	0.535
-582.836	-90.827	0.488	-0.142
-581.821	79.482	-0.655	0.710
-580.806	-121.124	-0.362	0.061
-579.792	350.243	0.187	-0.373
-578.777	119.040	-0.236	-0.295
-577.763	-13.000	-0.069	-0.045
-576.748	-55.997	-0.825	0.371
-575.733	17.348	0.670	-0.537
-574.719	-153.543	-0.314	-0.022
-573.704	-200.000	0.057	0.307
-572.690	99.441	-0.110	-0.128
-571.675	-200.000	0.044	-0.377
-570.661	-0.280	-0.616	0.442
-569.646	800.000	0.055	-0.196
-568.631	122.624	-0.510	-0.644
-567.617	103.087	-0.522	0.617
-566.602	29.622	-0.386	-0.331
-565.588	-6.343	0.606	-0.417
-564.573	-200.000	0.034	0.559
-563.558	-200.000	0.065	0.619
-562.544	774.696	0.035	-0.095
-561.529	-70.045	0.224	0.086
-560.515	60.324	-0.462	0.462
-559.500	-163.729	-0.112	-0.005
-558.485	-61.321	0.416	0.177
-557.471	-200.000	-0.111	-1.220
-556.456	-128.633	0.671	-0.096
-555.442	800.000	-0.279	-1.215
-554.427	-200.000	-0.174	-1.238
-553.412	-192.816	0.290	-0.003
-552.398	-125.930	0.890	-0.135
-551.383	568.274	-0.372	-0.912
-550.369	-200.000	-0.064	-0.475
-549.354	-147.136	-0.691	-0.060
-548.339	800.000	-0.265	1.009
-547.325	12.745	0.476	-0.371
-546.310	-12.260	-0.408	-0.269
-545.296	82.737	-0.787	-0.863
-544.281	55.628	0.542	-0.530
-543.266	-2.719	-0.526	0.371
-542.252	568.105	0.161	-0.394
-541.237	-69.180	0.187	-0.072
-540.223	144.811	0.594	-0.801
-539.208	68.076	-0.152	0.157
-538.193	5.612	-0.130	-0.097
-537.179	24.724	-0.685	0.572
-536.164	127.552	0.478	0.612
-535.150	5.265	-0.553	-0.411
-534.135	-38.958	-0.434	0.231
-533.121	-30.857	0.575	0.328
-532.106	-19.436	-0.712	-0.445
-531.091	754.803	-0.236	0.644
-530.077	186.326	-0.498	-0.747
-529.062	-106.529	-0.523	0.118
-528.048	615.575	0.291	-0.737
-527.033	-200.000	-0.077	-0.537
-526.018	-200.000	0.163	0.729
-525.004	99.760	0.673	0.786
-523.989	-111.646	0.397	-0.081
-522.975	-43.226	0.796	0.406
-521.960	-130.249	0.596	-0.082
-520.945	-108.411	0.800	-0.174
-519.931	-135.990	0.184	-0.022
-518.916	222.187	-0.422	-0.685
-517.902	-81.386	-0.290	0.096
-516.887	-88.727	-0.360	-0.108
-515.872	189.689	0.239	0.362
-514.858	-15.650	0.900	0.578
-513.843	219.578	-0.301	0.486
-512.829	301.459	0.359	0.668
-511.814	-33.070	-0.161	0.090
-510.799	800.000	0.175	-0.502
-509.785	-97.271	0.353	0.093
-508.770	-111.453	-0.541	-0.111
-507.756	-200.000	0.021	0.145
-506.741	613.041	0.217	0.547
-505.726	-95.898	-0.586	0.157
-504.712	67.761	0.336	-0.346
-503.697	7.800	-0.256	-0.193
-502.683	110.689	-0.186	-0.225
-501.668	-53.459	0.765	0.353
-500.653	-55.712	-0.711	-0.320
-499.639	-200.000	0.113	0.505
-498.624	-116.965	0.365	0.067
-497.610	-126.922	-0.555	0.082
-496.595	-19.197	0.230	0.144
-495.581	36.634	-0.382	-0.339
-494.566	615.796	-0.075	-0.190
-493.551	-200.000	0.061	0.384
-492.537	-115.834	0.420	0.079
-491.522	-53.256	0.389	0.180
-490.508	33.940	-0.512	-0.449
-489.493	-200.000	-0.059	-0.481
-488.478	800.000	-0.038	0.143
-487.464	120.810	0.153	0.191
-486.449	537.974	0.181	0.432
-485.435	237.969	-0.097	0.162
-484.420	489.921	-0.197	-0.454
-483.405	-77.682	0.150	-0.052
-482.391	800.000	-0.165	-0.665
-481.376	120.879	0.726	-0.909
-480.362	-4.644	-0.360	0.250
-479.347	-12.088	-0.112	0.074
-478.332	-171.216	0.567	-0.019
-477.318	28.539	0.486	-0.413
-476.303	800.000	-0.076	0.231
-475.289	-50.613	-0.667	0.316
-474.274	-111.037	0.526	0.109
-473.259	156.611	-0.172	0.239
-472.245	1.683	-0.337	-0.244
-471.230	90.224	0.244	0.274
-470.216	228.140	-0.729	-1.195
-469.201	-200.000	0.012	0.256
-468.186	-11.698	0.833	-0.550
-467.172	-200.000	0.090	-1.018
-466.157	2.625	0.536	0.391
-465.143	168.309	-0.520	-0.745
-464.128	800.000	0.144	-0.628
-463.113	361.333	-0.324	0.653
-462.099	-104.429	0.299	-0.070
-461.084	-200.000	0.031	0.317
-460.070	26.330	0.573	-0.482
-459.055	-26.942	-0.448	0.263
-458.040	800.000	-0.242	0.946
-457.026	-16.649	0.240	0.153
-456.011	746.344	0.327	0.885
-454.997	113.971	0.244	-0.298
-453.982	310.377	0.247	-0.465
-452.968	-94.248	-0.664	-0.183
-451.953	25.592	0.243	0.203
-450.938	-200.000	0.027	-0.581
-449.924	154.428	0.144	0.198
-448.909	434.780	-0.053	0.116
-447.895	-200.000	0.015	-0.769
-446.880	561.499	0.109	-0.264
-445.865	219.075	0.235	-0.377
-444.851	-200.000	-0.058	0.491
-443.836	32.918	0.357	0.311
-442.822	800.000	0.042	-0.135
-441.807	-74.371	0.963	0.349
-440.792	-69.031	-0.430	-0.166
-439.778	-111.587	-0.671	0.137
-438.763	-32.562	-0.726	0.406
-437.749	-111.499	-0.105	-0.021
-436.734	800.000	0.196	0.788
-435.719	-78.129	0.212	-0.073
-434.705	-43.297	-0.685	0.348
-433.690	-64.225	-0.593	0.243
-432.676	-200.000	-0.064	-0.313
-431.661	-14.213	0.310	0.201
-430.646	-18.553	0.194	0.122
-429.632	728.666	0.396	1.062
-428.617	-146.275	0.718	0.063
-427.603	800.000	-0.029	-0.093
-426.588	-34.095	0.841	0.464
-425.573	104.747	0.475	0.562
-424.559	-200.000	-0.082	0.416
-423.544	97.046	-0.120	-0.138
-422.530	4.607	0.144	-0.106
-421.515	-150.786	-0.146	0.011
-420.500	-88.015	-0.805	-0.243
-419.486	49.985	-0.314	-0.297
-418.471	-162.940	-0.471	-0.023
-417.457	418.806	-0.144	0.309
-416.442	389.167	0.179	-0.372
-415.428	-81.142	-0.522	-0.173
-414.413	800.000	-0.171	-0.627
-413.398	-158.699	0.380	-0.022
-412.384	418.201	0.180	-0.386
-411.369	-38.636	-0.197	-0.104
-410.355	51.198	0.135	0.129
-409.340	-67.580	1.090	-0.429
-408.325	60.383	-0.414	-0.411
-407.311	-200.000	-0.097	0.710
-406.296	-45.109	0.484	-0.242
-405.282	-200.000	0.032	-0.685
-404.267	-200.000	0.063	-0.608
-403.252	-65.916	0.229	0.092
-402.238	-83.142	-0.396	0.128
-401.223	13.803	-0.324	-0.253
-400.209	-127.644	0.299	0.043
-399.194	-38.482	0.305	-0.162
-398.179	8.824	0.902	-0.682
-397.165	-140.933	0.705	0.073
-396.150	-138.035	0.636	0.071
-395.136	176.261	0.074	-0.108
-394.121	-20.580	1.245	0.767
-393.106	-200.000	-0.028	0.537
-392.092	-129.467	-0.678	-0.094
-391.077	-81.970	-0.877	-0.288
-390.063	-200.000	0.028	0.428
-389.048	92.995	0.220	0.249
-388.033	245.376	0.139	-0.234
-387.019	616.709	0.128	-0.323
-386.004	-6.129	0.324	0.222
-384.990	-200.000	0.014	0.591
-383.975	195.763	0.244	0.372
-382.960	13.080	-0.278	-0.216
-381.946	-51.254	-0.753	-0.353
-380.931	800.000	-0.103	-0.348
-379.917	37.939	-0.272	0.243
-378.902	-49.027	-0.168	-0.081
-377.888	-181.467	-0.124	0.002
-376.873	337.829	-0.137	0.268
-375.858	-200.000	-0.120	-0.653
-374.844	800.000	-0.100	-0.427
-373.829	-145.367	-0.241	-0.022
-372.815	-200.000	0.097	-0.568
-371.800	-200.000	0.017	-0.337
-370.785	18.338	0.533	0.427
-369.771	-12.093	0.655	0.430
-368.756	772.907	0.099	0.270
-367.742	-63.139	-0.677	0.280
-366.727	57.610	-0.257	-0.252
-365.712	-197.648	-1.048	0.006
-364.698	800.000	-0.109	0.466
-363.683	-119.159	-0.803	-0.141
-362.669	-139.716	-0.504	0.054
-361.654	-191.938	0.181	0.002
-360.639	470.566	-0.267	0.601
-359.625	277.297	0.076	-0.135
-358.610	-200.000	0.013	-0.639
-357.596	237.241	-0.242	0.401
-356.581	-200.000	-0.112	-0.498
-355.566	253.884	-0.485	-0.830
-354.552	105.797	0.408	-0.483
-353.537	356.935	-0.193	-0.385
-352.523	-38.376	-0.519	-0.275
-351.508	-87.301	1.006	0.306
-350.493	79.626	-0.255	-0.274
-349.479	800.000	0.204	0.797
-348.464	-181.679	-0.421	0.008
-347.450	37.824	-0.087	0.077
-346.435	-5.452	-0.429	0.295
-345.420	-200.000	0.016	0.322
-344.406	109.534	-0.313	-0.375
-343.391	92.234	0.194	0.219
-342.377	135.603	0.245	-0.320
-341.362	-0.318	0.711	0.506
-340.348	177.318	-0.141	0.206
-339.333	161.124	-0.229	0.320
-338.318	15.561	0.286	0.225
-337.304	-1.739	0.665	-0.469
-336.289	108.762	0.571	-0.682
-335.275	-200.000	-0.155	0.998
-334.260	-107.741	0.998	0.218
-333.245	497.572	-0.082	0.190
-332.231	-13.213	0.122	0.080
-331.216	154.464	-0.653	0.897
-330.202	-99.345	0.520	-0.131
-329.187	-146.020	1.264	0.112
-328.172	-170.847	-0.444	-0.015
-327.158	-51.093	-0.640	-0.300
-326.143	84.589	-0.485	-0.532
-325.129	-108.448	0.864	-0.186
-324.114	-112.918	-0.703	0.139
-323.099	87.758	-0.432	-0.478
-322.085	41.455	-0.272	0.246
-321.070	-145.881	0.479	-0.043
-320.056	176.395	0.673	0.978
-319.041	367.795	0.394	0.796
-318.026	93.386	0.608	-0.688
-317.012	-85.505	-0.651	0.203
-315.997	-4.834	0.503	0.346
-314.983	-21.026	0.294	-0.180
-313.968	593.771	0.239	0.591
-312.953	31.899	0.290	0.250
-311.939	162.213	-0.452	0.633
-310.924	-200.000	-0.071	-0.585
-309.910	87.333	-0.274	-0.302
-308.895	-158.417	-0.210	-0.012
-307.880	-142.604	-0.832	0.081
-306.866	139.292	-0.306	-0.403
-305.851	-200.000	-0.029	-0.992
-304.837	-200.000	-0.050	-0.245
-303.822	-200.000	-0.158	-1.022
-302.807	345.166	0.325	0.637
-301.793	-90.608	0.483	0.140
-300.778	131.805	-0.311	-0.400
-299.764	800.000	-0.216	-0.667
-298.749	201.409	0.156	-0.240
-297.735	-200.000	0.130	-0.878
-296.720	-111.480	0.115	0.023
-295.705	324.360	-0.364	0.694
-294.691	386.637	0.396	0.817
-293.676	-114.483	-0.447	0.086
-292.662	-152.400	0.583	0.042
-291.647	351.695	-0.506	1.001
-290.632	-200.000	0.163	0.714
-289.618	405.042	-0.278	-0.586
-288.603	19.467	-0.667	0.536
-287.589	-97.926	0.973	-0.251
-286.574	-2.193	0.668	-0.468
-285.559	74.953	0.402	0.422
-284.545	-25.051	-0.478	0.283
-283.530	-24.312	-0.577	0.344
-282.516	-200.000	0.027	-0.353
-281.501	143.058	-0.434	0.576
-280.486	392.777	-0.203	0.422
-279.472	37.232	0.206	-0.182
-278.457	-105.919	0.577	0.130
-277.443	264.575	-0.276	0.480
-276.428	-148.398	0.456	-0.037
-275.413	-200.000	0.055	0.444
-274.399	-91.613	-0.526	-0.150
-273.384	158.738	0.062	-0.086
-272.370	-56.878	0.656	-0.290
-271.355	55.592	-0.183	0.177
-270.340	110.317	-0.380	0.455
-269.326	-70.146	0.786	-0.298
-268.311	23.571	-0.112	0.092
-267.297	-200.000	-0.081	0.380
-266.282	-188.350	-0.866	0.011
-265.267	-54.517	-0.561	0.253
-264.253	-70.469	-0.582	0.220
-263.238	310.265	-0.285	-0.532
-262.224	35.233	-0.764	-0.668
-261.209	800.000	-0.105	-0.322
-260.195	-180.446	-1.049	-0.022
-259.180	-49.101	0.250	0.119
-258.165	-107.040	-0.960	-0.212
-257.151	-109.602	0.329	-0.069
-256.136	-152.188	1.103	0.080
-255.122	-173.197	-0.842	0.026
-254.107	-95.641	0.338	-0.090
-253.092	-142.313	-0.376	0.037
-252.078	-200.000	0.023	-0.278
-251.063	45.604	-0.355	0.327
-250.049	-88.323	0.310	0.092
-249.034	379.011	-0.132	0.270
-248.019	-200.000	-0.041	0.507
-247.005	-102.072	-0.450	-0.108
-245.990	323.532	0.453	-0.862
-244.976	-178.550	-0.376	-0.009
-243.961	-88.638	0.745	0.221
-242.946	283.851	0.218	-0.390
-241.932	-200.000	0.069	0.376
-240.917	20.479	0.297	0.240
-239.903	800.000	-0.108	-0.302
-238.888	104.259	0.284	0.333
-237.873	-72.218	-0.606	0.224
-236.859	183.882	0.321	-0.474
-235.844	-200.000	-0.144	-0.677
-234.830	-54.170	-0.246	-0.111
-233.815	-29.179	0.171	-0.098
-232.800	13.632	-0.231	-0.179
-231.786	77.159	0.065	-0.068
-230.771	-169.575	-0.236	-0.009
-229.757	-64.052	-0.775	-0.315
-228.742	-38.398	-0.693	-0.365
-227.727	182.502	-0.309	-0.454
-226.713	-81.820	-0.369	-0.120
-225.698	-200.000	0.001	-1.338
-224.684	475.052	0.358	-0.805
-223.669	-105.523	0.185	0.042
-222.655	-9.271	0.567	-0.377
-221.640	370.810	-0.168	0.340
-220.625	-200.000	-0.107	0.718
-219.611	-200.000	0.050	0.708
-218.596	45.926	0.299	0.275
-217.582	525.313	0.200	-0.469
-216.567	-79.126	-0.375	0.127
-215.552	-200.000	0.018	0.100
-214.538	-167.322	0.410	-0.016
-213.523	348.879	-0.177	-0.349
-212.509	-200.000	-0.156	0.977
-211.494	277.711	0.062	-0.110
-210.479	-60.035	-0.272	0.116
-209.465	-107.849	0.858	0.186
-208.450	11.062	0.568	0.433
-207.436	-200.000	-0.068	1.102
-206.421	3.808	-0.030	0.022
-205.406	800.000	0.124	-0.478
-204.392	800.000	-0.218	0.710
-203.377	585.095	-0.312	-0.763
-202.363	-200.000	0.013	0.764
-201.348	287.110	0.378	0.680
-200.333	-35.448	0.313	0.169
-199.319	-200.000	-0.076	0.652
-198.304	-6.191	-0.153	0.104
-197.290	-152.396	0.674	0.048
-196.275	15.695	0.593	0.464
-195.260	-129.006	-1.239	0.173
-194.246	103.219	-0.396	0.462
-193.231	-70.480	-0.590	0.222
-192.217	149.440	0.399	-0.538
-191.202	-91.228	-0.437	0.124
-190.187	45.433	0.294	-0.270
-189.173	-6.293	0.710	-0.482
-188.158	-126.851	0.370	0.054
-187.144	-131.554	0.378	-0.050
-186.129	-200.000	-0.062	-0.699
-185.114	412.581	0.112	0.238
-184.100	-138.425	0.990	0.108
-183.085	122.874	0.491	-0.611
-182.071	102.661	-0.605	0.704
-181.056	28.836	0.835	0.704
-180.042	-122.648	0.255	-0.041
-179.027	192.584	0.381	0.572
-178.012	97.639	-0.493	0.563
-176.998	15.025	-0.570	-0.444
-175.983	146.242	-0.390	0.521
-174.969	42.607	0.058	-0.053
-173.954	-12.152	-0.352	-0.229
-172.939	-200.000	-0.065	-0.900
-171.925	-114.460	-0.649	-0.124
-170.910	30.956	0.153	-0.131
-169.896	-72.128	-1.070	0.395
-168.881	800.000	0.511	1.607
-167.866	193.244	0.234	-0.352
-166.852	369.286	0.329	-0.663
-165.837	-122.644	0.888	0.143
-164.823	-64.468	-0.311	0.126
-163.808	-200.000	0.083	0.667
-162.793	-132.357	-0.192	-0.025
-161.779	119.859	0.450	-0.554
-160.764	-156.383	-0.680	0.042
-159.750	800.000	-0.101	-0.376
-158.735	-200.000	0.035	-0.199
-157.720	-11.223	-0.441	0.289
-156.706	-96.309	0.518	0.136
-155.691	-160.072	0.807	0.044
-154.677	-39.294	0.597	0.311
-153.662	-114.624	-0.528	0.100
-152.647	-200.000	0.051	-0.306
-151.633	-200.000	0.028	0.129
-150.618	-200.000	0.186	1.074
-149.604	-154.511	-0.516	-0.034
-148.589	16.366	-0.150	0.118
-147.574	116.963	-0.256	-0.312
-146.560	-128.463	-0.341	0.048
-145.545	-122.911	-0.908	0.145
-144.531	-63.145	-0.448	-0.184
-143.516	101.124	-0.221	0.255
-142.502	-200.000	0.081	0.392
-141.487	43.846	1.047	0.952
-140.472	-200.000	-0.103	0.597
-139.458	-97.492	-0.529	-0.137
-138.443	101.856	0.495	-0.573
-137.429	-200.000	-0.050	0.470
-136.414	-200.000	-0.943	0.002
-135.399	-164.690	1.124	0.050
-134.385	800.000	0.254	-0.885
-133.370	-4.576	0.812	-0.557
-132.356	47.115	0.584	-0.539
-131.341	132.038	0.263	0.337
-130.326	800.000	-0.104	0.308
-129.312	240.350	0.153	0.253
-128.297	126.742	-0.595	-0.748
-127.283	-120.101	1.174	0.199
-126.268	-200.000	-0.291	-1.569
-125.253	564.757	-0.481	-1.158
-124.239	-196.922	-0.581	0.004
-123.224	-200.000	-0.076	0.363
-122.210	-111.592	-0.526	0.106
