DTS Sentinel unit serial number:	SN413079Multiplexer serial number:	ORYXHardware model number:	OX4-SRSoftware version number:	ORYX F/W v4.00 Oryx Data Collector v3.7.2.0data status	okinstallation	princeton_trtdifferential loss correction	single-endedforward channel	channel 4reverse channel	N/Adate	2019/09/16time	06:57:35forward acquisition time	60.00reverse acquisition time	0.00gamma	496.2192k internal	0.2320k external	0.2320temperature offset calibration	0.9982default loss term (dB/km)	0.3790temperature slope calibration	1.0000multiplexer offset coefficient	1.0000multiplexer slope coefficient	1.0000fibre end	0.00T internal ref (°C)	27.37T ext. ref 1 (°C)	11.48T ext. ref 2 (°C)	21.79length (m)	temperature (°C)	Stokes	anti-Stokes-747.200	800.000	0.068	-0.290
-746.185	-200.000	-0.025	-0.191
-745.171	-55.751	-0.165	0.075
-744.156	-148.949	0.032	-0.003
-743.142	-25.742	-0.071	-0.043
-742.127	-151.817	-0.193	-0.014
-741.112	13.049	0.073	0.057
-740.098	-5.157	0.203	-0.141
-739.083	116.029	0.154	-0.190
-738.069	-68.694	0.190	0.074
-737.054	49.288	-0.311	-0.295
-736.039	800.000	-0.128	0.453
-735.025	-96.657	0.179	0.048
-734.010	-97.832	0.237	0.062
-732.996	-46.830	-0.172	0.085
-731.981	92.235	0.044	-0.051
-730.966	5.166	-0.138	0.103
-729.952	-130.165	0.273	-0.038
-728.937	-34.463	-0.420	-0.233
-727.923	-200.000	-0.033	-0.262
-726.908	-168.778	-0.181	-0.007
-725.894	-97.131	-0.134	-0.035
-724.879	-43.585	-0.295	-0.150
-723.864	263.336	-0.104	-0.182
-722.850	-41.459	0.134	-0.070
-721.835	-43.277	-0.250	-0.128
-720.821	-69.906	-0.076	-0.029
-719.806	-200.000	-0.003	0.027
-718.791	-124.860	0.087	-0.014
-717.777	-57.228	-0.365	-0.162
-716.762	-200.000	-0.006	0.164
-715.748	800.000	0.055	0.241
-714.733	-86.401	-0.144	0.045
-713.718	35.379	-0.106	0.094
-712.704	-119.153	0.188	-0.033
-711.689	179.737	-0.078	0.115
-710.675	-200.000	-0.009	-0.130
-709.660	-143.814	-0.184	0.018
-708.645	141.308	-0.046	-0.061
-707.631	488.215	-0.045	-0.104
-706.616	-200.000	0.022	0.156
-705.602	-166.617	-0.211	-0.009
-704.587	-183.307	-0.231	0.004
-703.572	61.465	0.268	0.269
-702.558	153.495	0.182	-0.251
-701.543	-66.638	0.374	-0.150
-700.529	221.559	-0.070	0.114
-699.514	-39.141	0.226	0.120
-698.499	800.000	0.068	0.199
-697.485	-116.290	-0.176	-0.033
-696.470	800.000	0.055	0.216
-695.456	-200.000	0.002	0.191
-694.441	346.126	0.058	-0.115
-693.426	800.000	0.042	-0.137
-692.412	124.726	0.153	0.195
-691.397	765.753	-0.071	-0.195
-690.383	800.000	0.026	-0.101
-689.368	-50.052	-0.289	-0.138
-688.354	-177.096	-0.343	-0.009
-687.339	565.534	0.071	-0.174
-686.324	181.810	0.062	0.092
-685.310	-108.580	0.218	0.047
-684.295	-89.578	-0.419	-0.124
-683.281	192.227	0.109	0.167
-682.266	-200.000	0.021	0.124
-681.251	-57.516	0.140	0.062
-680.237	800.000	-0.072	0.226
-679.222	42.817	-0.086	-0.079
-678.208	800.000	-0.052	-0.209
-677.193	-135.243	-0.152	-0.018
-676.178	-119.678	0.198	0.034
-675.164	-23.660	0.051	0.031
-674.149	764.632	-0.071	-0.195
-673.135	314.964	0.221	-0.419
-672.120	-105.886	0.161	-0.037
-671.105	191.152	0.025	-0.038
-670.091	139.562	-0.126	0.167
-669.076	-99.534	-0.252	0.064
-668.062	-185.462	0.168	-0.003
-667.047	-127.158	0.260	-0.038
-666.032	-56.956	-0.210	0.093
-665.018	39.912	-0.077	0.070
-664.003	-43.696	0.122	-0.062
-662.989	687.432	-0.091	-0.240
-661.974	98.819	-0.022	0.026
-660.959	366.647	0.117	-0.239
-659.945	-112.621	0.252	0.051
-658.930	-86.034	-0.193	-0.060
-657.916	-200.000	0.039	0.210
-656.901	-89.224	-0.203	0.060
-655.886	79.439	-0.148	0.159
-654.872	-162.644	0.337	-0.017
-653.857	70.979	-0.031	-0.033
-652.843	41.030	0.260	-0.237
-651.828	-118.577	0.111	0.020
-650.814	42.715	0.167	0.153
-649.799	13.651	-0.109	0.086
-648.784	112.944	-0.048	0.059
-647.770	25.472	0.076	-0.064
-646.755	800.000	0.025	-0.101
-645.741	-127.864	-0.284	-0.041
-644.726	-200.000	-0.016	-0.158
-643.711	-192.277	0.381	0.004
-642.697	210.975	0.094	-0.149
-641.682	-47.692	-0.182	-0.089
-640.668	-99.727	0.325	-0.082
-639.653	-131.559	0.300	0.040
-638.638	433.277	0.041	0.089
-637.624	561.038	-0.151	-0.368
-636.609	-2.462	0.146	-0.103
-635.595	69.012	-0.156	0.161
-634.580	-200.000	0.018	0.092
-633.565	-55.381	-0.171	-0.077
-632.551	-108.656	-0.402	-0.087
-631.536	466.896	0.126	0.283
-630.522	205.143	0.105	-0.164
-629.507	-76.142	-0.410	-0.146
-628.492	286.075	-0.131	0.237
-627.478	339.998	-0.149	-0.292
-626.463	-2.341	0.151	0.107
-625.449	-200.000	0.032	0.269
-624.434	-200.000	-0.011	0.273
-623.419	-2.153	-0.344	-0.243
-622.405	113.130	0.262	-0.320
-621.390	143.150	-0.135	-0.181
-620.376	-108.300	0.114	-0.025
-619.361	-78.392	-0.341	-0.117
-618.346	800.000	-0.013	0.042
-617.332	-117.118	-0.255	-0.047
-616.317	800.000	0.042	0.156
-615.303	77.755	-0.273	-0.293
-614.288	-130.332	0.262	-0.036
-613.273	-73.102	-0.092	0.034
-612.259	332.787	-0.086	-0.167
-611.244	154.982	0.066	0.091
-610.230	109.957	-0.178	-0.214
-609.215	-11.993	-0.215	-0.142
-608.201	800.000	-0.051	-0.220
-607.186	-69.247	-0.048	0.018
-606.171	-107.932	-0.194	-0.042
-605.157	-62.364	0.200	-0.084
-604.142	-200.000	-0.084	-0.582
-603.128	24.924	-0.192	0.160
-602.113	-37.502	0.147	0.079
-601.098	18.629	-0.364	-0.293
-600.084	61.311	0.164	0.164
-599.069	109.791	0.195	0.235
-598.055	-200.000	-0.004	0.205
-597.040	-28.408	0.088	0.051
-596.025	11.343	-0.244	-0.187
-595.011	-178.454	0.238	-0.006
-593.996	-44.976	-0.117	0.059
-592.982	-112.728	-0.351	-0.070
-591.967	-200.000	0.065	-0.366
-590.952	174.116	-0.232	-0.336
-589.938	101.759	-0.180	0.211
-588.923	107.925	-0.064	0.077
-587.909	-200.000	-0.050	-0.282
-586.894	-200.000	0.005	-0.058
-585.879	27.690	-0.322	0.272
-584.865	-200.000	0.069	-0.427
-583.850	460.165	-0.040	0.089
-582.836	-58.720	0.308	0.134
-581.821	-79.234	0.058	0.020
-580.806	800.000	-0.031	-0.111
-579.792	342.587	-0.102	0.201
-578.777	361.437	0.085	0.171
-577.763	-200.000	-0.027	-0.196
-576.748	-200.000	-0.012	0.324
-575.733	61.087	-0.381	-0.380
-574.719	800.000	-0.029	-0.102
-573.704	-188.458	0.044	-0.001
-572.690	63.615	0.208	-0.210
-571.675	-93.058	0.360	-0.101
-570.661	15.815	0.078	-0.062
-569.646	800.000	0.045	-0.162
-568.631	-46.190	0.086	0.043
-567.617	-51.988	-0.241	-0.112
-566.602	-200.000	-0.004	0.409
-565.588	-146.445	0.220	0.019
-564.573	-68.113	-0.377	0.147
-563.558	153.837	-0.060	0.082
-562.544	-200.000	0.004	-0.043
-561.529	-30.078	-0.230	-0.131
-560.515	-85.392	0.081	-0.025
-559.500	-79.094	0.251	-0.085
-558.485	67.945	-0.212	-0.218
-557.471	-177.067	0.120	0.003
-556.456	800.000	-0.040	-0.124
-555.442	53.223	-0.139	-0.133
-554.427	800.000	0.048	-0.158
-553.412	199.798	0.065	0.100
-552.398	140.383	0.183	-0.242
-551.383	-200.000	0.009	-0.118
-550.369	21.972	-0.270	-0.221
-549.354	12.213	-0.149	-0.115
-548.339	-133.428	0.385	-0.049
-547.325	-40.627	0.296	-0.154
-546.310	230.523	-0.083	-0.136
-545.296	140.862	-0.254	-0.337
-544.281	29.053	0.260	-0.221
-543.266	-200.000	-0.001	-0.053
-542.252	336.620	-0.045	0.088
-541.237	218.452	-0.100	0.160
-540.223	800.000	0.044	0.147
-539.208	-63.332	-0.382	-0.158
-538.193	-131.320	-0.358	0.048
-537.179	119.082	-0.140	-0.174
-536.164	-56.999	0.417	-0.185
-535.150	-81.680	0.168	0.055
-534.135	11.435	0.058	0.044
-533.121	35.254	-0.115	0.101
-532.106	338.667	-0.115	0.224
-531.091	239.587	-0.100	-0.167
-530.077	63.674	0.059	0.059
-529.062	-119.736	-0.144	0.025
-528.048	-97.170	-0.145	-0.038
-527.033	-159.038	0.205	-0.012
-526.018	273.833	0.116	-0.205
-525.004	45.409	-0.214	-0.198
-523.989	800.000	0.076	-0.268
-522.975	276.605	-0.085	0.152
-521.960	-145.416	0.331	0.030
-520.945	-110.635	0.201	-0.042
-519.931	325.700	-0.165	-0.317
-518.916	62.761	-0.153	0.153
-517.902	22.878	-0.169	-0.139
-516.887	405.188	0.071	-0.151
-515.872	143.924	0.149	0.199
-514.858	34.789	-0.103	0.090
-513.843	187.742	-0.213	0.318
-512.829	800.000	-0.091	0.257
-511.814	800.000	0.082	0.326
-510.799	-200.000	0.022	0.157
-509.785	-21.325	0.093	0.057
-508.770	121.931	-0.045	0.057
-507.756	-98.977	-0.086	-0.022
-506.741	74.025	-0.127	-0.134
-505.726	6.954	0.264	0.197
-504.712	54.416	0.116	-0.112
-503.697	86.373	-0.075	-0.082
-502.683	190.600	-0.128	0.193
-501.668	25.410	-0.185	0.154
-500.653	-143.103	-0.300	0.029
-499.639	432.310	-0.200	-0.433
-498.624	175.868	0.090	-0.131
-497.610	615.472	0.094	0.235
-496.595	190.849	-0.179	-0.269
-495.581	203.557	0.099	0.153
-494.566	-200.000	0.003	-0.358
-493.551	-200.000	-0.001	0.207
-492.537	-57.774	0.389	0.170
-491.522	-200.000	0.063	-0.319
-490.508	-117.599	-0.217	-0.039
-489.493	590.866	0.055	-0.135
-488.478	293.956	0.110	-0.202
-487.464	37.752	-0.088	-0.078
-486.449	-200.000	0.021	-0.197
-485.435	42.348	0.106	-0.096
-484.420	-172.464	-0.099	0.003
-483.405	-24.229	0.159	-0.095
-482.391	35.367	-0.089	-0.078
-481.376	800.000	-0.051	-0.151
-480.362	766.263	0.082	0.224
-479.347	183.885	0.093	-0.138
-478.332	-200.000	0.076	-0.511
-477.318	94.534	-0.032	0.036
-476.303	-116.673	-0.148	-0.027
-475.289	800.000	-0.073	0.310
-474.274	179.669	0.201	0.294
-473.259	800.000	-0.085	0.254
-472.245	-106.061	0.286	-0.064
-471.230	21.543	-0.293	0.238
-470.216	800.000	0.089	0.315
-469.201	90.757	-0.171	-0.191
-468.186	8.732	0.251	-0.189
-467.172	164.042	-0.179	-0.252
-466.157	-56.911	-0.336	0.148
-465.143	-92.367	-0.347	0.098
-464.128	-53.261	0.066	-0.030
-463.113	-56.239	-0.121	-0.054
-462.099	-160.144	0.267	-0.014
-461.084	130.255	0.140	-0.180
-460.070	-200.000	0.006	-0.231
-459.055	-200.000	-0.022	0.156
-458.040	-200.000	0.004	-0.052
-457.026	157.617	0.148	0.205
-456.011	800.000	0.055	0.234
-454.997	37.984	0.218	-0.194
-453.982	245.979	-0.079	0.133
-452.968	151.219	0.162	0.220
-451.953	444.466	-0.052	-0.114
-450.938	800.000	-0.069	-0.241
-449.924	-74.629	-0.110	-0.039
-448.909	-200.000	-0.018	-0.160
-447.895	81.593	-0.160	0.173
-446.880	106.144	-0.012	-0.015
-445.865	50.615	-0.224	-0.212
-444.851	-21.432	-0.239	0.146
-443.836	14.727	0.128	-0.100
-442.822	800.000	-0.069	0.248
-441.807	71.136	-0.196	0.203
-440.792	-2.384	0.065	-0.046
-439.778	800.000	-0.072	0.269
-438.763	339.136	0.086	0.168
-437.749	800.000	0.047	0.172
-436.734	123.221	0.081	-0.101
-435.719	349.227	0.048	0.095
-434.705	-196.794	0.100	-0.001
-433.690	25.097	-0.085	-0.071
-432.676	-76.563	-0.439	-0.154
-431.661	239.853	0.112	0.187
-430.646	440.250	-0.127	0.276
-429.632	-200.000	-0.004	0.121
-428.617	165.433	0.056	0.080
-427.603	261.811	0.068	-0.118
-426.588	-87.558	0.158	-0.048
-425.573	-125.670	0.397	0.060
-424.559	-95.660	-0.121	0.032
-423.544	-70.179	-0.219	-0.083
-422.530	115.888	-0.086	-0.105
-421.515	-200.000	-0.028	0.270
-420.500	-74.115	0.183	0.066
-419.486	-146.698	-0.330	0.029
-418.471	-45.792	-0.188	-0.093
-417.457	-105.855	-0.220	-0.050
-416.442	-94.730	0.186	0.050
-415.428	-200.000	-0.003	-0.521
-414.413	96.057	-0.133	-0.152
-413.398	-57.523	-0.188	0.082
-412.384	22.110	0.067	-0.055
-411.369	-200.000	-0.008	-0.124
-410.355	30.216	-0.070	0.059
-409.340	-200.000	-0.012	0.165
-408.325	-71.271	0.083	0.031
-407.311	-92.326	-0.150	0.042
-406.296	-200.000	0.044	0.273
-405.282	-34.940	-0.188	0.102
-404.267	-131.143	-0.252	-0.033
-403.252	-101.753	0.331	0.080
-402.238	222.373	0.031	0.050
-401.223	-200.000	0.025	-0.159
-400.209	-134.719	0.115	-0.014
-399.194	-127.775	0.369	-0.053
-398.179	477.861	-0.093	0.211
-397.165	-53.365	-0.223	0.102
-396.150	-114.829	0.183	0.035
-395.136	-58.492	-0.130	-0.056
-394.121	169.237	-0.349	-0.497
-393.106	800.000	0.061	0.193
-392.092	800.000	0.033	0.117
-391.077	10.683	0.093	0.071
-390.063	19.462	0.136	-0.109
-389.048	-130.161	-0.234	-0.032
-388.033	-111.305	-0.075	-0.015
-387.019	800.000	-0.052	-0.165
-386.004	-5.024	-0.306	0.210
-384.990	-200.000	0.020	0.162
-383.975	159.564	0.020	-0.028
-382.960	1.034	0.118	-0.085
-381.946	-158.052	-0.275	0.016
-380.931	290.609	0.086	0.155
-379.917	162.652	-0.071	-0.099
-378.902	678.991	-0.049	-0.128
-377.888	-200.000	-0.028	-0.211
-376.873	-76.672	-0.210	-0.073
-375.858	-168.709	0.226	0.009
-374.844	-200.000	0.004	0.297
-373.829	-88.364	0.159	-0.047
-372.815	10.531	0.169	0.128
-371.800	800.000	0.092	0.309
-370.785	-73.150	0.080	0.029
-369.771	164.460	-0.214	0.300
-368.756	111.025	-0.041	0.049
-367.742	-200.000	-0.017	-0.092
-366.727	642.917	0.113	0.288
-365.712	-15.288	-0.278	-0.177
-364.698	74.614	-0.218	0.229
-363.683	792.884	0.064	0.177
-362.669	-141.648	-0.183	-0.018
-361.654	322.770	0.095	-0.180
-360.639	-200.000	-0.017	0.214
-359.625	-162.220	-0.216	-0.011
-358.610	188.642	0.157	0.234
-357.596	800.000	0.052	-0.145
-356.581	-200.000	-0.043	0.208
-355.566	-13.113	0.214	-0.139
-354.552	800.000	-0.045	-0.179
-353.537	-200.000	-0.053	0.306
-352.523	143.166	0.091	0.121
-351.508	-95.092	-0.126	0.034
-350.493	43.171	-0.176	-0.160
-349.479	84.108	-0.185	0.201
-348.464	800.000	-0.051	0.189
-347.450	-24.153	0.093	-0.056
-346.435	499.187	0.089	-0.204
-345.420	-200.000	-0.119	0.001
-344.406	-52.028	-0.207	0.096
-343.391	-4.952	0.175	0.120
-342.377	-5.234	0.291	0.199
-341.362	-120.246	0.256	0.044
-340.348	-136.242	0.390	-0.045
-339.333	-73.769	-0.201	0.073
-338.318	-200.000	-0.028	-0.198
-337.304	-200.000	0.025	-0.175
-336.289	-81.367	-0.281	-0.092
-335.275	-83.423	0.497	-0.158
-334.260	-154.826	-0.441	-0.029
-333.245	7.090	0.076	0.056
-332.231	800.000	0.032	0.096
-331.216	508.998	0.032	-0.075
-330.202	-200.000	0.013	0.059
-329.187	140.710	-0.063	-0.083
-328.172	-19.776	-0.211	0.130
-327.158	-97.460	0.184	-0.048
-326.143	-115.973	0.358	-0.066
-325.129	-200.000	-0.093	0.428
-324.114	-65.262	0.062	-0.025
-323.099	-162.834	0.191	-0.009
-322.085	97.327	-0.101	-0.116
-321.070	-101.808	0.114	0.028
-320.056	189.127	-0.112	0.166
-319.041	-89.749	0.134	-0.039
-318.026	-115.065	-0.233	0.044
-317.012	6.775	-0.100	-0.074
-315.997	800.000	0.084	-0.338
-314.983	353.610	-0.022	-0.044
-313.968	127.613	0.255	-0.321
-312.953	681.679	0.031	0.081
-311.939	-200.000	-0.002	0.291
-310.924	6.515	0.261	0.192
-309.910	-11.741	-0.266	0.174
-308.895	-59.235	0.212	-0.091
-307.880	162.899	0.233	-0.325
-306.866	800.000	0.061	-0.214
-305.851	66.470	-0.302	-0.305
-304.837	-119.955	0.092	-0.016
-303.822	800.000	0.026	0.100
-302.807	3.257	-0.124	-0.090
-301.793	800.000	0.126	-0.450
-300.778	13.979	-0.104	0.081
-299.764	-74.369	0.175	-0.063
-298.749	210.813	-0.094	-0.147
-297.735	-111.656	0.369	-0.074
-296.720	-149.811	-0.056	0.004
-295.705	104.546	-0.026	-0.030
-294.691	1.888	-0.050	-0.035
-293.676	-113.868	-0.212	0.041
-292.662	800.000	0.064	0.186
-291.647	-143.651	0.178	0.017
-290.632	431.202	0.074	0.160
-289.618	-162.810	0.261	0.013
-288.603	-82.364	-0.278	0.090
-287.589	72.391	0.298	-0.308
-286.574	-200.000	0.032	0.155
-285.559	614.210	-0.039	-0.098
-284.545	-96.458	0.497	0.131
-283.530	67.788	-0.123	0.125
-282.516	-8.810	0.276	0.183
-281.501	216.176	0.144	0.227
-280.486	-200.000	-0.021	0.275
-279.472	800.000	0.123	0.379
-278.457	150.383	-0.381	0.513
-277.443	-200.000	0.018	0.224
-276.428	253.128	-0.223	0.378
-275.413	-200.000	-0.027	-0.138
-274.399	-94.437	0.249	0.067
-273.384	79.034	0.026	0.028
-272.370	-12.901	0.161	0.104
-271.355	148.466	0.139	0.187
-270.340	79.833	-0.155	0.166
-269.326	-46.804	-0.130	0.063
-268.311	584.189	-0.056	-0.136
-267.297	121.247	0.220	0.271
-266.282	-121.757	-0.133	-0.022
-265.267	41.618	0.163	-0.147
-264.253	31.913	-0.216	0.185
-263.238	-200.000	0.007	-0.147
-262.224	-28.598	0.305	-0.174
-261.209	-4.874	-0.074	-0.050
-260.195	800.000	-0.145	-0.403
-259.180	-97.902	0.175	0.045
-258.165	379.474	-0.023	-0.048
-257.151	-200.000	-0.009	-0.135
-256.136	67.863	0.111	0.113
-255.122	800.000	0.026	0.092
-254.107	116.963	-0.040	-0.048
-253.092	-200.000	-0.024	0.391
-252.078	43.909	0.082	-0.074
-251.063	-77.272	0.066	0.023
-250.049	-47.551	-0.264	0.127
-249.034	-174.806	0.653	0.018
-248.019	20.767	0.238	-0.191
-247.005	281.341	0.144	-0.256
-245.990	-89.067	0.194	0.057
-244.976	28.845	-0.147	-0.123
-243.961	674.012	0.161	0.414
-242.946	49.113	-0.085	0.080
-241.932	142.180	-0.216	0.285
-240.917	-182.915	-0.064	-0.001
-239.903	-200.000	0.079	0.444
-238.888	-147.632	0.219	0.018
-237.873	20.754	0.384	0.308
-236.859	800.000	0.035	-0.153
-235.844	800.000	-0.053	-0.169
-234.830	-175.627	0.187	-0.005
-233.815	-110.054	-0.171	0.035
-232.800	-26.005	0.228	-0.133
-231.786	-164.744	-0.433	-0.019
-230.771	98.265	0.244	-0.278
-229.757	728.598	0.102	-0.270
-228.742	-200.000	-0.025	0.204
-227.727	-81.811	0.352	0.114
-226.713	-200.000	-0.054	0.271
-225.698	-39.061	0.385	-0.201
-224.684	138.206	-0.198	-0.257
-223.669	-146.024	0.104	-0.009
-222.655	195.229	0.063	0.094
-221.640	-47.859	-0.099	0.048
-220.625	-200.000	-0.009	-0.142
-219.611	402.947	0.078	0.163
-218.596	152.150	-0.199	-0.270
-217.582	13.005	0.131	-0.100
-216.567	-200.000	-0.011	0.070
-215.552	-200.000	0.017	-0.228
-214.538	115.938	-0.299	0.363
-213.523	-60.499	0.075	0.031
-212.509	800.000	-0.107	0.331
-211.494	-200.000	-0.027	-0.119
-210.479	50.240	-0.220	-0.206
-209.465	-9.830	-0.136	-0.090
-208.450	119.883	-0.102	-0.126
-207.436	-92.689	0.503	-0.140
-206.421	24.685	-0.148	0.122
-205.406	-200.000	0.016	0.267
-204.392	157.708	0.165	-0.226
-203.377	-97.500	0.207	0.053
-202.363	61.638	-0.125	0.123
-201.348	-200.000	0.018	-0.107
-200.333	43.018	0.076	0.069
-199.319	132.172	0.128	-0.163
-198.304	-196.867	-0.121	0.001
-197.290	-126.648	0.155	-0.023
-196.275	800.000	-0.059	0.211
-195.260	-35.867	-0.293	0.157
-194.246	-200.000	-0.032	0.211
-193.231	671.683	0.137	0.352
-192.217	-100.460	0.180	-0.044
-191.202	-87.098	0.149	-0.045
-190.187	77.165	-0.194	0.204
-189.173	-11.068	-0.438	0.286
-188.158	61.421	-0.159	0.156
-187.144	58.849	0.023	0.022
-186.129	32.941	0.080	-0.069
-185.114	-104.466	-0.110	-0.025
-184.100	-39.866	0.154	0.079
-183.085	-189.086	-0.231	-0.003
-182.071	-48.970	0.239	0.113
-181.056	-200.000	-0.003	0.025
-180.042	62.755	-0.199	0.197
-179.027	-35.183	0.212	0.114
-178.012	-200.000	-0.007	0.034
-176.998	82.638	-0.169	0.181
-175.983	34.360	0.076	-0.066
-174.969	727.020	-0.076	-0.201
-173.954	-178.533	0.251	-0.006
-172.939	800.000	0.037	0.103
-171.925	112.233	-0.182	0.217
-170.910	754.513	-0.063	-0.167
-169.896	369.421	-0.013	-0.026
-168.881	398.358	-0.032	-0.067
-167.866	800.000	0.072	0.291
-166.852	39.248	0.185	0.164
-165.837	-96.158	0.038	-0.010
-164.823	197.791	-0.166	-0.250
-163.808	-200.000	-0.036	-0.157
-162.793	-200.000	-0.061	-0.267
-161.779	-99.056	-0.301	0.075
-160.764	147.826	0.228	-0.303
-159.750	-71.881	0.202	0.074
-158.735	52.797	0.347	-0.328
-157.720	455.277	0.135	0.296
-156.706	-79.669	0.285	0.095
-155.691	-200.000	-0.004	-0.020
-154.677	-160.377	0.456	-0.024
-153.662	-9.800	0.347	0.228
-152.647	435.941	-0.092	-0.198
-151.633	59.719	0.138	-0.135
-150.618	265.336	-0.068	-0.117
-149.604	-60.464	-0.088	0.037
-148.589	-49.978	-0.353	-0.165
-147.574	-200.000	0.082	-0.397
-146.560	-22.872	0.356	0.212
-145.545	800.000	-0.047	-0.201
-144.531	-61.483	0.104	-0.043
-143.516	26.352	0.140	-0.115
-142.502	-115.030	0.303	-0.057
-141.487	130.564	0.148	0.187
-140.472	110.372	0.109	-0.129
-139.458	-151.067	0.095	-0.007
-138.443	-200.000	0.012	-0.074
-137.429	300.716	0.052	0.094
-136.414	54.635	0.332	-0.316
-135.399	226.197	-0.065	-0.104
-134.385	800.000	0.025	0.104
-133.370	800.000	0.112	-0.373
-132.356	-87.775	0.059	-0.017
-131.341	-119.061	0.304	-0.053
-130.326	800.000	-0.048	0.134
-129.312	462.766	0.093	-0.204
-128.297	114.022	0.156	-0.187
-127.283	-200.000	0.035	0.172
-126.268	-187.238	-0.260	0.003
-125.253	123.641	-0.145	-0.179
-124.239	87.331	0.181	-0.197
-123.224	-200.000	0.007	0.122
-122.210	800.000	0.081	0.268
-121.195	800.000	0.035	-0.143
