DTS Sentinel unit serial number:	SN413079Multiplexer serial number:	ORYXHardware model number:	OX4-SRSoftware version number:	ORYX F/W v4.00 Oryx Data Collector v3.7.2.0data status	okinstallation	princeton_trtdifferential loss correction	single-endedforward channel	channel 4reverse channel	N/Adate	2019/09/13time	10:49:35forward acquisition time	60.00reverse acquisition time	0.00gamma	496.2192k internal	0.2305k external	0.2305temperature offset calibration	1.0192default loss term (dB/km)	0.3790temperature slope calibration	1.0000multiplexer offset coefficient	1.0000multiplexer slope coefficient	1.0000fibre end	0.00T internal ref (°C)	31.66T ext. ref 1 (°C)	4.60T ext. ref 2 (°C)	28.32length (m)	temperature (°C)	Stokes	anti-Stokes-747.200	-88.517	-0.139	-0.042
-746.185	-67.390	-0.306	0.122
-745.171	21.985	0.175	-0.145
-744.156	-200.000	-0.011	-0.140
-743.142	32.404	-0.253	-0.223
-742.127	43.861	-0.139	0.129
-741.112	-200.000	0.334	0.001
-740.098	-70.726	-0.231	0.089
-739.083	421.864	0.035	-0.077
-738.069	-80.711	-0.258	-0.087
-737.054	551.709	-0.039	-0.096
-736.039	-117.246	-0.252	-0.047
-735.025	-38.176	0.373	-0.201
-734.010	-200.000	0.015	-0.197
-732.996	800.000	-0.036	-0.110
-731.981	-109.915	0.179	-0.038
-730.966	-59.196	-0.133	-0.058
-729.952	-169.264	0.119	-0.004
-728.937	-200.000	0.005	-0.060
-727.923	-36.350	-0.120	0.066
-726.908	245.236	-0.051	0.087
-725.894	-200.000	-0.044	-0.395
-724.879	-110.071	-0.199	-0.042
-723.864	-54.427	0.219	-0.101
-722.850	15.846	-0.364	-0.292
-721.835	-109.820	-0.395	-0.084
-720.821	56.081	-0.090	-0.088
-719.806	-86.317	-0.266	0.083
-718.791	-139.664	0.311	-0.034
-717.777	-102.613	-0.290	-0.070
-716.762	-200.000	-0.053	-0.315
-715.748	-100.689	0.227	0.057
-714.733	-200.000	-0.038	-0.207
-713.718	151.428	0.158	-0.219
-712.704	159.005	-0.361	-0.510
-711.689	-51.711	-0.110	-0.052
-710.675	-92.733	-0.348	0.099
-709.660	152.059	-0.232	-0.321
-708.645	190.987	0.098	0.150
-707.631	-102.025	-0.319	0.078
-706.616	-141.541	-0.316	0.032
-705.602	267.108	-0.246	0.438
-704.587	-91.269	-0.313	0.091
-703.572	150.439	-0.076	-0.105
-702.558	56.213	0.206	-0.204
-701.543	-0.257	0.286	-0.206
-700.529	174.453	-0.141	-0.208
-699.514	800.000	-0.069	-0.229
-698.499	-200.000	-0.001	0.216
-697.485	-200.000	-0.004	0.047
-696.470	221.691	0.075	0.122
-695.456	77.376	-0.330	-0.357
-694.441	800.000	-0.058	-0.162
-693.426	-21.847	-0.139	-0.086
-692.412	301.882	-0.077	0.145
-691.397	233.072	0.153	-0.256
-690.383	800.000	-0.093	0.295
-689.368	-200.000	-0.038	-0.181
-688.354	800.000	0.047	-0.169
-687.339	-109.911	0.141	-0.030
-686.324	57.340	0.141	-0.139
-685.310	-91.961	-0.429	0.123
-684.295	22.506	0.282	0.234
-683.281	-59.577	0.235	0.103
-682.266	64.701	-0.142	-0.145
-681.251	-49.311	-0.086	0.042
-680.237	-61.465	0.144	-0.061
-679.222	800.000	0.016	0.061
-678.208	245.015	0.201	-0.343
-677.193	285.151	0.090	0.164
-676.178	-200.000	-0.017	-0.208
-675.164	-14.937	-0.085	-0.056
-674.149	-148.924	-0.143	-0.012
-673.135	283.354	0.050	0.091
-672.120	-61.108	-0.146	0.062
-671.105	219.831	0.124	-0.201
-670.091	-200.000	-0.011	-0.317
-669.076	800.000	-0.062	0.192
-668.062	-122.015	0.157	0.026
-667.047	145.073	0.076	0.103
-666.032	36.371	-0.172	0.154
-665.018	-76.889	0.300	-0.106
-664.003	-57.021	0.064	0.029
-662.989	-38.963	-0.290	-0.155
-661.974	-9.972	0.284	-0.192
-660.959	-157.227	-0.106	-0.007
-659.945	124.156	-0.022	-0.028
-658.930	318.717	-0.135	0.259
-657.916	-200.000	0.027	0.288
-656.901	312.273	-0.012	0.023
-655.886	-200.000	0.024	-0.121
-654.872	800.000	-0.133	-0.377
-653.857	143.368	0.098	-0.133
-652.843	343.870	0.053	-0.105
-651.828	800.000	-0.024	0.091
-650.814	-118.486	0.100	0.018
-649.799	-5.768	-0.158	-0.110
-648.784	-92.979	0.231	-0.065
-647.770	-96.915	0.292	-0.078
-646.755	-51.221	-0.434	-0.206
-645.741	-72.415	0.150	0.056
-644.726	-200.000	-0.022	0.149
-643.711	58.282	0.153	0.152
-642.697	49.245	-0.121	-0.115
-641.682	800.000	-0.061	0.178
-640.668	-185.114	0.251	0.004
-639.653	-50.992	-0.331	-0.158
-638.638	-144.961	-0.161	0.015
-637.624	-26.521	-0.099	-0.059
-636.609	-0.269	0.201	-0.145
-635.595	800.000	-0.050	0.162
-634.580	-200.000	0.012	-0.070
-633.565	-32.110	0.306	0.174
-632.551	800.000	0.022	-0.070
-631.536	-72.785	0.120	-0.045
-630.522	-165.432	-0.141	-0.006
-629.507	-113.217	-0.228	0.046
-628.492	800.000	0.081	-0.238
-627.478	-1.944	-0.285	0.203
-626.463	22.660	-0.159	0.132
-625.449	-0.957	0.091	0.065
-624.434	-57.064	-0.150	-0.067
-623.419	-126.749	0.054	0.008
-622.405	24.692	0.048	0.040
-621.390	-70.221	0.200	-0.077
-620.376	800.000	-0.089	-0.281
-619.361	-115.434	-0.287	0.055
-618.346	405.447	-0.184	-0.392
-617.332	-200.000	0.005	-0.237
-616.317	79.750	-0.108	-0.117
-615.303	-175.226	0.096	-0.003
-614.288	150.414	0.117	0.161
-613.273	-100.086	0.098	-0.025
-612.259	-55.725	0.118	-0.054
-611.244	-30.716	-0.066	-0.038
-610.230	-154.498	0.112	-0.008
-609.215	267.357	-0.011	-0.019
-608.201	-171.971	0.112	0.004
-607.186	-53.359	-0.185	0.086
-606.171	214.276	0.065	0.105
-605.157	111.991	-0.166	0.203
-604.142	614.041	0.168	-0.426
-603.128	176.510	-0.140	0.206
-602.113	192.285	-0.130	0.198
-601.098	175.253	0.127	0.187
-600.084	-164.905	-0.052	0.002
-599.069	92.693	0.141	0.162
-598.055	-61.195	0.391	0.167
-597.040	-127.358	-0.320	-0.047
-596.025	-200.000	-0.026	0.129
-595.011	-67.799	0.207	-0.082
-593.996	55.841	-0.177	0.174
-592.982	-200.000	-0.004	0.096
-591.967	-42.105	-0.341	-0.177
-590.952	149.074	0.273	-0.374
-589.938	-42.329	-0.159	0.082
-588.923	-163.862	-0.141	0.007
-587.909	-81.630	0.273	-0.091
-586.894	-87.250	-0.289	-0.089
-585.879	-14.319	-0.432	-0.282
-584.865	47.286	0.218	-0.205
-583.850	-29.619	0.023	-0.013
-582.836	21.346	-0.328	-0.269
-581.821	-117.728	-0.214	0.039
-580.806	-111.090	0.478	-0.099
-579.792	-200.000	-0.031	-0.360
-578.777	354.615	-0.049	-0.099
-577.763	21.275	-0.113	-0.093
-576.748	337.830	-0.137	-0.269
-575.733	800.000	-0.048	-0.137
-574.719	-83.378	0.083	0.027
-573.704	344.855	-0.103	-0.204
-572.690	-37.310	0.244	-0.132
-571.675	-200.000	-0.013	0.156
-570.661	30.914	-0.291	0.252
-569.646	-200.000	0.111	0.501
-568.631	800.000	-0.014	0.044
-567.617	160.876	-0.037	0.052
-566.602	-116.881	0.244	-0.045
-565.588	172.577	0.040	0.058
-564.573	128.788	-0.124	-0.160
-563.558	-146.935	0.205	-0.018
-562.544	-92.791	-0.205	0.058
-561.529	237.752	0.027	-0.045
-560.515	-87.132	-0.177	0.054
-559.500	35.906	0.099	-0.088
-558.485	800.000	0.078	0.333
-557.471	39.253	-0.298	-0.269
-556.456	800.000	-0.094	0.395
-555.442	444.401	-0.040	-0.089
-554.427	-82.610	0.052	0.017
-553.412	-148.879	0.188	0.015
-552.398	-149.084	0.230	0.019
-551.383	800.000	-0.110	0.368
-550.369	-164.320	-0.150	0.007
-549.354	-103.135	-0.193	0.046
-548.339	-200.000	-0.142	-0.000
-547.325	74.963	0.273	-0.290
-546.310	-39.247	0.209	0.111
-545.296	800.000	-0.040	0.123
-544.281	-55.665	-0.369	-0.167
-543.266	530.133	0.062	-0.148
-542.252	800.000	0.084	0.277
-541.237	800.000	0.042	-0.168
-540.223	-200.000	0.002	-0.041
-539.208	30.318	0.076	0.066
-538.193	-97.780	-0.153	-0.040
-537.179	-96.206	0.380	-0.102
-536.164	31.332	-0.110	-0.095
-535.150	800.000	-0.035	-0.103
-534.135	-108.027	0.372	0.082
-533.121	150.209	-0.104	-0.143
-532.106	-47.191	-0.434	-0.214
-531.091	181.263	-0.231	-0.343
-530.077	32.844	0.327	0.285
-529.062	-102.617	0.065	-0.016
-528.048	208.804	-0.147	0.232
-527.033	-153.752	-0.188	0.013
-526.018	-183.488	0.136	-0.002
-525.004	-48.547	0.352	-0.171
-523.989	800.000	-0.076	0.219
-522.975	800.000	-0.038	-0.162
-521.960	-200.000	0.025	-0.150
-520.945	6.254	0.263	-0.197
-519.931	39.661	-0.171	0.155
-518.916	800.000	-0.047	-0.206
-517.902	363.837	-0.101	-0.205
-516.887	9.816	-0.085	0.065
-515.872	-200.000	-0.029	-0.216
-514.858	-94.552	0.147	-0.040
-513.843	-22.287	-0.333	0.203
-512.829	-178.939	0.116	0.003
-511.814	-19.362	0.094	-0.059
-510.799	-11.770	-0.279	0.185
-509.785	800.000	-0.042	0.179
-508.770	-23.712	-0.220	0.133
-507.756	177.068	0.134	0.197
-506.741	800.000	0.109	0.439
-505.726	800.000	-0.063	0.249
-504.712	-200.000	0.067	-0.405
-503.697	185.625	0.092	0.137
-502.683	186.971	-0.073	0.109
-501.668	-22.483	0.312	0.190
-500.653	170.024	-0.150	-0.216
-499.639	-106.511	-0.106	0.024
-498.624	-12.689	0.120	0.079
-497.610	288.068	-0.162	-0.295
-496.595	-110.553	-0.275	-0.057
-495.581	-22.207	0.296	-0.181
-494.566	-16.069	-0.064	0.041
-493.551	800.000	0.066	0.211
-492.537	-66.327	0.122	0.049
-491.522	188.260	-0.143	-0.215
-490.508	-78.250	0.184	0.064
-489.493	-67.107	-0.355	0.141
-488.478	5.615	0.114	0.085
-487.464	290.281	-0.054	-0.098
-486.449	90.063	0.167	0.188
-485.435	-200.000	-0.321	-0.001
-484.420	800.000	0.003	0.012
-483.405	656.042	0.092	0.238
-482.391	-200.000	-0.034	0.211
-481.376	679.162	0.076	-0.199
-480.362	800.000	-0.062	0.199
-479.347	-70.507	0.058	-0.022
-478.332	-186.182	-0.049	0.001
-477.318	306.387	0.128	-0.240
-476.303	80.822	0.236	-0.257
-475.289	15.906	-0.367	-0.291
-474.274	-125.047	-0.096	-0.015
-473.259	213.451	-0.131	0.208
-472.245	800.000	0.036	0.112
-471.230	114.161	0.045	-0.055
-470.216	76.943	-0.074	0.079
-469.201	491.617	0.123	-0.283
-468.186	-30.603	-0.128	0.073
-467.172	-200.000	0.019	0.204
-466.157	100.703	-0.285	0.333
-465.143	477.108	0.119	0.271
-464.128	269.595	-0.102	0.181
-463.113	-121.372	0.296	-0.050
-462.099	800.000	0.026	-0.107
-461.084	-40.417	0.031	0.016
-460.070	-200.000	0.038	-0.186
-459.055	-158.751	0.203	0.012
-458.040	77.800	-0.180	-0.193
-457.026	800.000	-0.022	-0.067
-456.011	173.538	0.109	0.158
-454.997	-200.000	-0.026	0.228
-453.982	128.882	-0.252	-0.323
-452.968	-68.449	-0.232	-0.091
-451.953	120.762	0.089	-0.112
-450.938	-40.706	0.193	0.100
-449.924	47.115	-0.253	0.237
-448.909	-27.406	0.118	0.069
-447.895	-2.050	0.087	0.062
-446.880	53.317	-0.128	0.123
-445.865	-71.077	-0.333	0.126
-444.851	-200.000	0.016	-0.099
-443.836	12.051	0.241	0.186
-442.822	-124.831	0.282	0.044
-441.807	-159.706	0.129	-0.007
-440.792	641.377	-0.077	0.196
-439.778	-114.930	-0.224	-0.043
-438.763	-198.940	-0.324	-0.002
-437.749	47.552	0.064	0.060
-436.734	420.178	-0.118	-0.253
-435.719	341.568	0.080	0.157
-434.705	-43.062	0.165	-0.084
-433.690	130.737	0.108	0.139
-432.676	-78.311	0.116	0.040
-431.661	743.426	0.144	0.390
-430.646	-4.167	0.156	-0.109
-429.632	-27.925	0.462	-0.269
-428.617	800.000	-0.084	-0.257
-427.603	-55.887	0.190	-0.085
-426.588	-47.604	0.206	0.100
-425.573	270.234	-0.170	-0.300
-424.559	-128.178	0.121	0.017
-423.544	181.483	0.147	0.217
-422.530	-200.000	-0.029	0.186
-421.515	-200.000	-0.083	0.398
-420.500	-71.325	-0.019	-0.007
-419.486	-7.094	0.168	0.114
-418.471	-100.094	0.197	0.049
-417.457	800.000	-0.011	0.041
-416.442	-100.437	0.142	0.035
-415.428	-9.231	-0.145	-0.098
-414.413	83.436	-0.164	-0.180
-413.398	-101.694	-0.214	-0.052
-412.384	-104.046	0.203	0.047
-411.369	31.720	0.204	-0.176
-410.355	137.876	0.210	0.277
-409.340	-200.000	0.040	0.348
-408.325	8.608	-0.089	0.067
-407.311	637.347	0.098	-0.251
-406.296	-43.693	-0.167	0.084
-405.282	212.987	-0.035	0.056
-404.267	-200.000	-0.032	-0.227
-403.252	-20.125	-0.478	0.296
-402.238	800.000	0.036	0.138
-401.223	138.702	-0.134	-0.176
-400.209	148.601	-0.175	-0.237
-399.194	800.000	-0.013	0.058
-398.179	39.605	0.310	0.279
-397.165	-28.982	-0.166	-0.095
-396.150	-200.000	-0.027	0.157
-395.136	800.000	0.171	0.500
-394.121	-76.119	0.205	-0.073
-393.106	-44.803	-0.133	0.067
-392.092	800.000	-0.044	-0.183
-391.077	10.590	0.233	-0.178
-390.063	-200.000	0.031	-0.328
-389.048	-28.650	0.198	-0.114
-388.033	197.538	-0.165	-0.253
-387.019	76.749	0.275	-0.293
-386.004	800.000	-0.014	0.051
-384.990	54.784	0.238	0.231
-383.975	26.728	0.175	0.147
-382.960	-129.449	0.097	0.013
-381.946	-200.000	0.022	-0.099
-380.931	-95.449	-0.191	0.051
-379.917	-191.674	-0.224	-0.002
-378.902	-65.557	0.094	-0.038
-377.888	76.504	-0.222	-0.236
-376.873	-200.000	-0.022	-0.115
-375.858	-114.610	0.049	-0.009
-374.844	-109.102	-0.153	0.033
-373.829	-39.575	-0.314	-0.165
-372.815	253.878	-0.128	0.220
-371.800	-37.491	0.107	-0.057
-370.785	-115.864	0.374	-0.070
-369.771	-200.000	-0.008	-0.320
-368.756	7.024	0.143	0.107
-367.742	-200.000	-0.042	0.389
-366.727	-36.470	-0.062	0.033
-365.712	76.106	0.128	-0.136
-364.698	785.863	-0.052	0.144
-363.683	348.150	0.085	-0.169
-362.669	208.729	-0.045	0.070
-361.654	-38.085	0.198	0.105
-360.639	47.871	-0.181	0.169
-359.625	4.546	-0.269	-0.198
-358.610	0.086	0.106	0.076
-357.596	-11.067	0.068	-0.045
-356.581	86.753	-0.065	0.072
-355.566	397.995	0.117	-0.246
-354.552	-77.943	-0.244	0.084
-353.537	94.063	-0.083	-0.095
-352.523	237.177	-0.169	-0.280
-351.508	316.235	0.188	-0.355
-350.493	371.244	-0.029	-0.059
-349.479	405.708	-0.064	-0.135
-348.464	-95.426	0.344	0.092
-347.450	-191.595	0.281	0.003
-346.435	-65.996	0.140	0.056
-345.420	303.063	0.054	0.100
-344.406	-115.955	0.214	-0.040
-343.391	-69.020	-0.244	0.094
-342.377	-28.174	0.209	0.121
-341.362	206.544	0.131	-0.204
-340.348	151.646	-0.170	-0.232
-339.333	-35.489	-0.360	-0.196
-338.318	-200.000	-0.010	-0.099
-337.304	-79.833	0.185	0.062
-336.289	115.470	-0.071	0.087
-335.275	61.213	-0.176	0.175
-334.260	-132.166	-0.172	-0.022
-333.245	-53.236	0.197	0.090
-332.231	351.332	-0.118	0.234
-331.216	82.742	-0.114	-0.125
-330.202	800.000	-0.095	0.291
-329.187	-22.877	-0.291	0.176
-328.172	44.301	0.108	0.099
-327.158	-151.783	-0.163	0.012
-326.143	-200.000	0.061	-0.314
-325.129	58.070	-0.107	0.105
-324.114	27.113	0.083	0.070
-323.099	-94.266	-0.273	-0.075
-322.085	57.535	0.146	-0.143
-321.070	73.100	-0.176	0.184
-320.056	-32.468	0.136	0.076
-319.041	272.104	0.100	0.177
-318.026	-200.000	-0.134	0.000
-317.012	-200.000	-0.016	0.197
-315.997	800.000	-0.021	-0.061
-314.983	800.000	0.048	-0.207
-313.968	-105.397	-0.276	0.063
-312.953	800.000	0.081	-0.244
-311.939	53.973	0.088	-0.084
-310.924	143.102	0.194	-0.259
-309.910	125.880	-0.039	-0.049
-308.895	172.748	-0.097	0.140
-307.880	-21.469	0.188	0.115
-306.866	-100.300	0.183	-0.046
-305.851	276.328	0.097	0.173
-304.837	44.537	0.153	-0.141
-303.822	800.000	-0.069	0.269
-302.807	-134.676	-0.247	0.030
-301.793	-76.759	0.200	0.070
-300.778	655.482	-0.149	-0.382
-299.764	-122.816	0.263	0.043
-298.749	51.224	-0.105	0.099
-297.735	-18.078	0.163	0.102
-296.720	-79.114	0.241	-0.082
-295.705	-163.443	0.199	0.009
-294.691	-200.000	-0.020	0.173
-293.676	-136.464	-0.295	-0.034
-292.662	5.788	0.091	-0.067
-291.647	57.698	-0.197	0.193
-290.632	86.042	0.140	0.154
-289.618	-53.094	-0.461	-0.212
-288.603	97.154	0.059	-0.068
-287.589	71.641	-0.166	0.173
-286.574	103.076	-0.048	-0.056
-285.559	250.713	0.048	0.082
-284.545	-9.271	-0.154	-0.103
-283.530	-67.608	0.131	-0.051
-282.516	-200.000	0.051	0.429
-281.501	-188.198	-0.266	0.003
-280.486	262.890	0.166	0.288
-279.472	684.831	-0.097	-0.253
-278.457	-51.412	0.206	-0.096
-277.443	-4.157	0.165	-0.114
-276.428	-53.636	-0.244	-0.112
-275.413	107.706	-0.209	-0.249
-274.399	-200.000	-0.018	0.100
-273.384	223.962	-0.064	0.103
-272.370	247.818	0.266	-0.449
-271.355	174.832	-0.019	-0.027
-270.340	800.000	-0.087	0.279
-269.326	-24.661	-0.167	-0.099
-268.311	-135.618	-0.215	-0.026
-267.297	-200.000	-0.010	-0.096
-266.282	800.000	0.081	-0.300
-265.267	703.323	-0.023	-0.059
-264.253	138.764	0.184	0.241
-263.238	-62.614	0.169	0.070
-262.224	-33.015	-0.332	0.184
-261.209	81.768	-0.261	-0.282
-260.195	-117.824	-0.088	-0.016
-259.180	554.007	-0.059	-0.142
-258.165	51.211	-0.181	0.171
-257.151	-28.719	0.203	-0.117
-256.136	-73.472	-0.136	0.050
-255.122	-161.112	0.105	0.005
-254.107	-72.595	-0.225	0.083
-253.092	-157.302	0.315	-0.019
-252.078	42.680	0.059	0.054
-251.063	-200.000	0.011	-0.088
-250.049	-40.495	0.294	0.152
-249.034	-91.993	-0.276	-0.078
-248.019	-89.778	0.218	0.064
-247.005	361.412	-0.156	0.312
-245.990	68.447	-0.154	0.157
-244.976	-8.067	-0.242	-0.162
-243.961	56.068	0.024	-0.024
-242.946	-5.510	0.221	0.151
-241.932	-200.000	-0.052	-0.266
-240.917	121.153	-0.019	-0.024
-239.903	158.288	0.019	-0.026
-238.888	-107.653	-0.071	-0.016
-237.873	259.550	0.069	0.119
-236.859	43.917	0.089	0.082
-235.844	-67.607	-0.317	0.124
-234.830	238.711	-0.107	0.178
-233.815	41.494	0.016	0.014
-232.800	-200.000	0.002	0.021
-231.786	51.182	-0.133	-0.126
-230.771	800.000	-0.069	0.214
-229.757	398.111	0.074	-0.155
-228.742	-57.401	0.069	-0.030
-227.727	191.669	-0.089	0.134
-226.713	-152.727	-0.440	0.031
-225.698	-164.023	0.240	-0.011
-224.684	67.580	0.195	-0.199
-223.669	-134.450	-0.154	0.019
-222.655	-3.818	-0.086	-0.060
-221.640	800.000	-0.080	-0.232
-220.625	-200.000	0.010	0.106
-219.611	-66.964	0.247	-0.097
-218.596	-83.068	-0.246	-0.079
-217.582	-56.479	0.280	0.124
-216.567	-131.510	-0.037	-0.005
-215.552	-139.941	-0.211	0.022
-214.538	2.297	0.366	-0.264
-213.523	222.312	-0.095	-0.152
-212.509	-40.871	-0.295	-0.152
-211.494	800.000	0.035	0.133
-210.479	58.811	0.173	0.170
-209.465	-176.392	-0.252	0.007
-208.450	800.000	0.138	0.382
-207.436	-200.000	-0.000	0.026
-206.421	195.826	-0.001	-0.002
-205.406	800.000	-0.087	-0.273
-204.392	67.539	-0.096	0.098
-203.377	-103.497	-0.044	-0.010
-202.363	739.440	0.105	0.282
-201.348	-20.943	0.236	-0.144
-200.333	-133.785	0.188	-0.023
-199.319	-125.820	0.090	-0.013
-198.304	436.042	0.022	-0.047
-197.290	298.597	0.209	0.382
-196.275	-26.413	-0.023	-0.013
-195.260	11.478	-0.233	0.178
-194.246	-200.000	-0.033	0.155
-193.231	90.360	0.266	0.297
-192.217	48.424	-0.211	0.197
-191.202	-70.550	0.188	0.071
-190.187	-86.262	0.519	0.159
-189.173	-95.516	0.064	0.017
-188.158	800.000	0.029	-0.127
-187.144	436.083	-0.093	0.202
-186.129	800.000	0.067	-0.243
-185.114	-200.000	0.006	0.058
-184.100	-200.000	0.019	-0.112
-183.085	-61.679	0.050	-0.021
-182.071	137.861	-0.120	-0.156
-181.056	-81.497	0.345	0.113
-180.042	144.989	0.111	0.148
-179.027	-200.000	0.020	0.339
-178.012	58.784	0.051	-0.050
-176.998	107.136	0.063	0.075
-175.983	-44.061	0.022	0.011
-174.969	-115.822	0.103	-0.019
-173.954	121.182	0.067	-0.083
-172.939	457.390	-0.141	-0.311
-171.925	300.321	0.114	-0.209
-170.910	49.435	0.180	-0.169
-169.896	-74.156	-0.109	0.039
-168.881	235.863	-0.114	-0.188
-167.866	-81.391	0.282	0.092
-166.852	376.415	-0.073	-0.148
-165.837	800.000	-0.199	0.550
-164.823	656.413	0.138	-0.353
-163.808	800.000	0.113	-0.331
-162.793	168.097	-0.078	0.111
-161.779	-7.268	-0.178	0.120
-160.764	-200.000	-0.012	-0.205
-159.750	-200.000	0.044	-0.332
-158.735	24.522	0.061	-0.050
-157.720	-100.638	0.033	-0.008
-156.706	-200.000	-0.004	-0.075
-155.691	52.945	0.155	-0.147
-154.677	-67.433	0.263	0.103
-153.662	-200.000	-0.018	0.091
-152.647	161.901	-0.028	-0.039
-151.633	-69.903	0.233	0.088
-150.618	-97.005	0.237	-0.062
-149.604	-8.975	0.264	-0.176
-148.589	29.724	-0.032	-0.027
-147.574	-73.070	-0.041	0.015
-146.560	-200.000	-0.009	0.126
-145.545	74.691	-0.287	0.301
-144.531	59.235	0.093	-0.091
-143.516	-93.677	-0.302	-0.083
-142.502	-78.411	-0.167	0.057
-141.487	410.945	0.096	0.202
-140.472	-117.870	0.278	-0.050
-139.458	198.222	-0.139	0.211
-138.443	59.840	0.216	-0.212
-137.429	375.857	-0.019	-0.038
-136.414	800.000	-0.064	-0.233
-135.399	-147.169	0.495	-0.042
-134.385	800.000	0.064	0.277
-133.370	800.000	-0.137	0.385
-132.356	317.245	-0.074	-0.139
-131.341	800.000	0.040	0.113
-130.326	-42.961	-0.090	-0.046
-129.312	-17.288	0.238	0.149
-128.297	143.265	0.110	-0.145
-127.283	64.703	0.078	0.078
-126.268	800.000	-0.055	0.210
-125.253	-178.980	0.206	-0.005
-124.239	10.987	-0.244	0.185
-123.224	-100.279	-0.124	0.031
-122.210	188.695	0.079	0.118
-121.195	-104.260	-0.445	0.103
