DTS Sentinel unit serial number:	SN413079Multiplexer serial number:	ORYXHardware model number:	OX4-SRSoftware version number:	ORYX F/W v4.00 Oryx Data Collector v3.7.2.0data status	okinstallation	princeton_trtdifferential loss correction	single-endedforward channel	channel 4reverse channel	N/Adate	2019/09/18time	03:25:35forward acquisition time	60.00reverse acquisition time	0.00gamma	496.2192k internal	0.2334k external	0.2334temperature offset calibration	0.9994default loss term (dB/km)	0.3790temperature slope calibration	1.0000multiplexer offset coefficient	1.0000multiplexer slope coefficient	1.0000fibre end	0.00T internal ref (°C)	22.77T ext. ref 1 (°C)	0.17T ext. ref 2 (°C)	17.25length (m)	temperature (°C)	Stokes	anti-Stokes-747.200	-167.222	0.097	-0.004
-746.185	268.924	0.042	-0.075
-745.171	-132.604	-0.071	-0.009
-744.156	-96.899	-0.325	0.086
-743.142	-30.789	0.532	0.303
-742.127	620.000	0.126	0.319
-741.112	-101.600	0.415	0.101
-740.098	-106.517	-0.406	-0.091
-739.083	42.958	0.143	0.131
-738.069	-74.472	-0.192	0.070
-737.054	-65.857	0.353	-0.142
-736.039	-50.253	-0.628	0.298
-735.025	270.430	0.072	-0.127
-734.010	-28.147	-0.240	0.140
-732.996	-123.420	-0.136	-0.022
-731.981	21.470	0.126	-0.103
-730.966	3.349	-0.150	0.110
-729.952	-103.623	-0.216	-0.051
-728.937	28.023	0.236	-0.200
-727.923	-200.000	-0.025	0.347
-726.908	-180.528	0.126	-0.003
-725.894	-200.000	-0.068	-0.312
-724.879	4.039	0.150	0.110
-723.864	-100.633	-0.166	-0.041
-722.850	-200.000	-0.014	-0.296
-721.835	-200.000	0.010	0.079
-720.821	800.000	-0.084	-0.273
-719.806	-146.802	-0.244	-0.021
-718.791	-16.958	-0.058	0.037
-717.777	-180.710	-0.297	0.006
-716.762	-200.000	-0.010	-0.290
-715.748	565.088	-0.055	-0.133
-714.733	-67.841	-0.393	-0.154
-713.718	-200.000	0.002	-0.501
-712.704	722.430	0.082	-0.219
-711.689	-138.078	-0.069	-0.008
-710.675	550.105	-0.173	-0.418
-709.660	103.444	0.106	0.125
-708.645	7.431	-0.219	-0.164
-707.631	-126.626	-0.375	-0.056
-706.616	-64.224	0.287	0.117
-705.602	-6.976	-0.516	-0.352
-704.587	29.304	0.054	-0.046
-703.572	-34.626	0.218	0.120
-702.558	147.885	-0.120	-0.162
-701.543	800.000	-0.071	-0.256
-700.529	-27.193	0.179	-0.104
-699.514	30.067	-0.051	-0.044
-698.499	29.967	0.057	-0.049
-697.485	-143.049	0.419	-0.041
-696.470	619.276	-0.031	0.078
-695.456	-151.003	-0.117	-0.009
-694.441	-10.601	0.138	-0.092
-693.426	-61.360	0.224	-0.095
-692.412	-104.041	-0.395	0.092
-691.397	252.591	0.059	0.100
-690.383	-20.364	0.274	0.169
-689.368	800.000	-0.012	-0.043
-688.354	800.000	0.010	-0.033
-687.339	-144.963	0.294	-0.027
-686.324	-200.000	0.020	0.093
-685.310	-106.368	-0.182	0.041
-684.295	192.949	0.234	0.354
-683.281	800.000	-0.103	-0.359
-682.266	-200.000	-0.043	-0.191
-681.251	-47.087	-0.358	-0.175
-680.237	-10.177	-0.217	-0.145
-679.222	-72.091	0.244	0.091
-678.208	-108.419	0.088	0.019
-677.193	-94.567	0.177	0.048
-676.178	232.089	-0.133	0.218
-675.164	800.000	-0.115	-0.505
-674.149	81.027	0.062	0.067
-673.135	-200.000	-0.022	-0.107
-672.120	666.819	0.033	-0.085
-671.105	-200.000	-0.009	0.232
-670.091	800.000	-0.060	0.228
-669.076	-81.772	0.150	-0.049
-668.062	-136.515	0.211	-0.025
-667.047	-66.110	0.288	-0.115
-666.032	-200.000	0.041	-0.278
-665.018	-120.296	0.090	0.015
-664.003	243.255	-0.050	-0.084
-662.989	31.022	-0.153	-0.132
-661.974	-52.539	0.209	0.097
-660.959	122.323	0.160	-0.200
-659.945	-200.000	-0.015	-0.073
-658.930	-169.874	0.042	0.001
-657.916	225.937	-0.144	-0.234
-656.901	69.429	0.004	0.004
-655.886	278.839	0.131	-0.235
-654.872	399.689	0.032	-0.067
-653.857	-103.229	0.437	-0.103
-652.843	284.604	0.131	-0.236
-651.828	35.123	-0.169	0.148
-650.814	-200.000	0.042	0.323
-649.799	-47.909	-0.142	0.069
-648.784	-200.000	-0.045	0.255
-647.770	690.817	-0.100	-0.263
-646.755	-125.044	-0.379	0.058
-645.741	3.964	0.084	-0.061
-644.726	226.277	-0.114	0.185
-643.711	81.762	-0.211	0.229
-642.697	-134.284	0.227	-0.028
-641.682	-100.786	0.295	0.073
-640.668	319.415	0.110	0.210
-639.653	243.067	0.246	0.412
-638.638	-151.737	0.121	0.009
-637.624	183.846	-0.140	0.208
-636.609	28.288	0.192	0.162
-635.595	150.119	0.152	0.206
-634.580	543.964	0.104	0.249
-633.565	380.793	0.067	0.138
-632.551	-68.828	-0.137	0.053
-631.536	-34.558	0.107	-0.059
-630.522	198.700	-0.200	0.306
-629.507	-126.703	0.137	-0.020
-628.492	-200.000	-0.025	0.347
-627.478	-62.630	-0.391	-0.162
-626.463	-48.347	0.305	0.147
-625.449	-5.047	0.161	0.111
-624.434	-200.000	0.040	-0.208
-623.419	-200.000	0.027	0.202
-622.405	800.000	0.141	-0.550
-621.390	0.407	-0.474	-0.339
-620.376	-200.000	0.034	0.247
-619.361	-43.803	-0.055	0.028
-618.346	-111.625	-0.282	0.057
-617.332	38.016	0.018	0.016
-616.317	-84.326	-0.228	0.072
-615.303	-200.000	-0.083	0.555
-614.288	732.756	0.059	0.159
-613.273	-115.907	-0.238	-0.044
-612.259	-200.000	0.056	0.325
-611.244	84.952	-0.262	-0.287
-610.230	-129.597	-0.214	-0.030
-609.215	312.471	0.080	-0.151
-608.201	22.141	0.171	0.140
-607.186	-200.000	0.057	-0.552
-606.171	-170.665	-0.111	-0.004
-605.157	-200.000	-0.015	-0.132
-604.142	458.459	-0.164	0.364
-603.128	-108.609	-0.274	0.059
-602.113	67.398	-0.135	0.138
-601.098	320.976	0.197	0.374
-600.084	160.153	-0.106	0.148
-599.069	-9.300	0.207	-0.138
-598.055	-95.790	-0.357	-0.095
-597.040	800.000	0.091	0.307
-596.025	685.853	-0.196	-0.511
-595.011	-200.000	-0.047	-0.232
-593.996	-58.383	0.244	-0.106
-592.982	-116.304	-0.120	0.022
-591.967	800.000	0.052	-0.174
-590.952	-200.000	0.010	0.149
-589.938	307.389	0.196	-0.364
-588.923	-126.014	-0.135	-0.020
-587.909	242.803	-0.218	-0.365
-586.894	-190.043	0.164	0.002
-585.879	-200.000	0.023	0.261
-584.865	-200.000	-0.027	0.145
-583.850	156.470	0.129	-0.178
-582.836	-4.515	0.242	-0.167
-581.821	379.387	0.063	0.129
-580.806	-146.090	-0.163	-0.014
-579.792	97.214	-0.046	0.053
-578.777	452.278	-0.037	0.082
-577.763	800.000	0.175	-0.736
-576.748	-200.000	-0.008	0.084
-575.733	800.000	-0.142	0.439
-574.719	800.000	-0.049	0.143
-573.704	-1.162	0.236	0.166
-572.690	-200.000	0.075	0.000
-571.675	228.423	-0.138	-0.225
-570.661	359.205	0.090	-0.180
-569.646	284.739	0.129	-0.232
-568.631	-200.000	-0.043	-0.202
-567.617	124.063	0.230	0.289
-566.602	800.000	0.164	-0.514
-565.588	-200.000	0.037	-0.361
-564.573	16.626	0.147	-0.116
-563.558	800.000	-0.061	-0.175
-562.544	-52.738	0.160	0.073
-561.529	-80.766	0.170	0.056
-560.515	-200.000	0.004	0.068
-559.500	-200.000	0.029	0.302
-558.485	384.890	0.094	0.194
-557.471	139.148	-0.053	0.069
-556.456	-169.991	-0.234	0.008
-555.442	-51.645	-0.216	-0.100
-554.427	800.000	-0.010	0.037
-553.412	-200.000	0.009	-0.150
-552.398	410.058	0.097	-0.204
-551.383	800.000	-0.104	-0.443
-550.369	-58.767	0.264	-0.114
-549.354	99.727	0.192	0.222
-548.339	-117.257	-0.180	0.033
-547.325	14.195	-0.256	0.199
-546.310	112.448	-0.316	0.381
-545.296	406.573	0.071	0.149
-544.281	505.929	-0.036	-0.082
-543.266	-20.814	0.299	-0.183
-542.252	-39.280	0.074	0.039
-541.237	-31.892	0.288	-0.161
-540.223	-200.000	0.001	0.330
-539.208	259.063	-0.112	-0.193
-538.193	-50.044	-0.176	0.083
-537.179	-20.308	0.250	0.153
-536.164	-102.798	-0.139	0.033
-535.150	-0.962	-0.105	0.074
-534.135	111.315	-0.009	-0.011
-533.121	364.726	0.007	-0.013
-532.106	176.821	-0.257	0.372
-531.091	-197.082	-0.187	0.001
-530.077	-101.228	-0.305	-0.074
-529.062	42.314	0.247	-0.223
-528.048	-52.481	-0.360	-0.166
-527.033	157.765	-0.270	0.372
-526.018	91.994	-0.099	0.111
-525.004	588.369	-0.138	-0.338
-523.989	800.000	-0.042	0.123
-522.975	316.098	0.023	-0.044
-521.960	-200.000	0.013	-0.418
-520.945	-29.601	0.193	0.110
-519.931	71.287	-0.322	0.333
-518.916	-200.000	-0.003	-0.014
-517.902	522.853	0.113	-0.265
-516.887	85.546	-0.114	0.124
-515.872	141.799	0.137	-0.181
-514.858	-74.010	-0.128	0.046
-513.843	800.000	-0.036	0.107
-512.829	-46.176	0.250	-0.122
-511.814	800.000	0.077	0.231
-510.799	337.915	-0.155	0.301
-509.785	800.000	0.054	-0.217
-508.770	-200.000	-0.016	0.113
-507.756	-90.314	-0.271	-0.078
-506.741	-128.121	0.401	-0.057
-505.726	-146.143	0.170	0.015
-504.712	546.070	0.111	-0.265
-503.697	-115.121	-0.403	-0.076
-502.683	-142.325	0.203	-0.020
-501.668	-71.976	0.218	0.081
-500.653	-24.204	-0.041	-0.024
-499.639	-20.883	0.138	0.084
-498.624	694.832	-0.089	-0.232
-497.610	255.574	0.115	-0.196
-496.595	-111.199	-0.159	0.032
-495.581	-200.000	0.033	-0.171
-494.566	18.417	-0.110	-0.087
-493.551	-200.000	-0.011	0.280
-492.537	383.763	0.028	-0.057
-491.522	-53.700	-0.046	0.021
-490.508	20.685	-0.311	0.251
-489.493	-200.000	-0.201	0.001
-488.478	284.883	0.061	-0.110
-487.464	-2.803	0.262	-0.182
-486.449	422.959	-0.022	-0.047
-485.435	40.157	-0.090	0.080
-484.420	-200.000	0.006	-0.131
-483.405	19.916	0.141	-0.113
-482.391	-80.557	-0.226	0.075
-481.376	-9.552	0.320	0.212
-480.362	-165.503	0.071	-0.003
-479.347	-114.405	-0.263	-0.050
-478.332	-200.000	0.023	0.109
-477.318	199.001	-0.064	-0.097
-476.303	800.000	0.013	0.036
-475.289	-200.000	0.000	0.051
-474.274	800.000	0.081	-0.244
-473.259	-65.185	-0.045	-0.018
-472.245	-124.854	-0.314	-0.048
-471.230	-146.266	-0.340	0.030
-470.216	800.000	0.113	0.378
-469.201	-200.000	-0.024	-0.118
-468.186	-200.000	0.011	-0.110
-467.172	722.704	-0.053	-0.139
-466.157	-105.880	-0.292	0.065
-465.143	149.071	-0.127	-0.170
-464.128	168.846	0.055	0.077
-463.113	-135.997	0.071	-0.008
-462.099	665.917	0.010	0.024
-461.084	-3.435	0.195	-0.135
-460.070	20.119	0.200	-0.160
-459.055	-59.599	-0.228	0.097
-458.040	54.817	0.175	0.168
-457.026	-127.400	-0.413	-0.060
-456.011	246.040	0.057	-0.095
-454.997	28.418	-0.235	-0.197
-453.982	44.468	-0.163	0.149
-452.968	-46.433	-0.356	-0.174
-451.953	800.000	0.094	-0.356
-450.938	800.000	0.055	-0.183
-449.924	-70.529	0.204	-0.077
-448.909	284.356	0.063	0.112
-447.895	-19.468	-0.108	-0.067
-446.880	662.605	-0.134	0.344
-445.865	-200.000	-0.022	-0.133
-444.851	43.644	-0.256	-0.233
-443.836	33.781	0.139	0.120
-442.822	-200.000	0.029	-0.187
-441.807	11.801	-0.133	0.101
-440.792	-121.786	0.312	0.051
-439.778	-200.000	0.029	0.187
-438.763	-170.347	0.252	0.009
-437.749	-161.171	-0.152	0.008
-436.734	182.908	-0.197	0.288
-435.719	-1.049	0.193	-0.136
-434.705	187.425	0.181	-0.268
-433.690	800.000	0.066	-0.199
-432.676	-69.390	-0.135	0.051
-431.661	-200.000	0.023	0.223
-430.646	-200.000	0.011	-0.056
-429.632	141.042	-0.144	-0.189
-428.617	-144.311	-0.368	0.034
-427.603	-104.924	-0.124	0.028
-426.588	-43.044	-0.308	-0.155
-425.573	470.738	0.093	-0.208
-424.559	-94.212	0.132	-0.036
-423.544	-188.848	0.232	-0.003
-422.530	-0.728	0.163	-0.115
-421.515	141.342	0.168	0.221
-420.500	-55.294	-0.085	0.038
-419.486	-200.000	-0.004	0.290
-418.471	-200.000	-0.011	0.205
-417.457	92.900	-0.128	-0.143
-416.442	199.836	-0.093	0.141
-415.428	-200.000	-0.011	0.070
-414.413	124.836	-0.151	-0.188
-413.398	800.000	-0.024	0.081
-412.384	-23.545	0.279	0.166
-411.369	74.688	-0.159	-0.166
-410.355	-200.000	0.031	-0.258
-409.340	-34.515	-0.169	-0.092
-408.325	495.823	0.083	-0.189
-407.311	-94.279	-0.113	-0.031
-406.296	-123.921	0.043	-0.007
-405.282	114.816	0.100	-0.121
-404.267	-195.911	-0.203	-0.001
-403.252	4.000	0.215	0.156
-402.238	-25.519	-0.171	0.100
-401.223	-178.841	0.223	-0.005
-400.209	214.999	0.160	0.252
-399.194	30.532	-0.207	0.176
-398.179	-46.479	0.220	0.107
-397.165	-200.000	-0.021	-0.242
-396.150	337.041	-0.150	-0.289
-395.136	-200.000	0.044	0.210
-394.121	-78.752	0.255	-0.086
-393.106	-116.329	-0.379	-0.070
-392.092	-63.975	-0.085	0.034
-391.077	306.565	-0.061	-0.113
-390.063	89.462	0.134	0.148
-389.048	652.600	0.095	-0.242
-388.033	-141.723	0.294	0.029
-387.019	-200.000	0.011	-0.075
-386.004	800.000	-0.066	-0.242
-384.990	18.469	-0.288	0.228
-383.975	-32.525	0.143	-0.079
-382.960	437.727	0.086	-0.186
-381.946	-78.922	-0.108	-0.037
-380.931	-118.196	0.078	0.014
-379.917	-49.569	-0.412	0.194
-378.902	800.000	-0.044	-0.175
-377.888	70.914	0.086	0.088
-376.873	332.971	0.085	-0.162
-375.858	800.000	-0.089	0.315
-374.844	54.296	0.145	0.138
-373.829	57.122	-0.089	-0.086
-372.815	50.445	-0.095	0.089
-371.800	66.991	0.026	-0.026
-370.785	791.360	-0.085	-0.232
-369.771	-155.110	0.077	-0.005
-368.756	-116.018	0.021	-0.004
-367.742	-167.557	0.186	-0.007
-366.727	-200.000	0.002	-0.057
-365.712	-78.436	0.048	-0.016
-364.698	181.418	-0.066	-0.096
-363.683	93.682	0.094	0.105
-362.669	37.563	-0.061	-0.053
-361.654	-200.000	0.004	0.040
-360.639	346.658	0.096	0.188
-359.625	-200.000	0.010	-0.083
-358.610	-108.148	-0.248	-0.053
-357.596	114.120	0.092	0.111
-356.581	-200.000	0.004	0.165
-355.566	78.149	0.101	-0.107
-354.552	18.323	-0.242	0.191
-353.537	-66.257	0.067	0.027
-352.523	116.447	0.227	0.276
-351.508	800.000	0.076	-0.232
-350.493	-200.000	-0.051	0.233
-349.479	-182.960	0.181	-0.003
-348.464	236.192	0.092	0.151
-347.450	-43.202	0.106	0.053
-346.435	296.773	-0.111	-0.201
-345.420	48.931	0.391	-0.364
-344.406	406.443	-0.134	0.280
-343.391	800.000	0.072	0.207
-342.377	-200.000	-0.029	-0.238
-341.362	646.370	0.140	-0.355
-340.348	-162.396	0.265	-0.013
-339.333	748.876	-0.058	0.154
-338.318	-21.216	-0.120	-0.072
-337.304	535.010	0.026	-0.061
-336.289	-170.791	-0.349	0.012
-335.275	-100.526	0.081	0.020
-334.260	350.286	0.075	0.146
-333.245	280.699	-0.047	0.084
-332.231	334.472	0.019	-0.036
-331.216	117.720	0.231	-0.282
-330.202	-100.266	-0.301	0.074
-329.187	-97.163	0.315	0.081
-328.172	-200.000	-0.024	-0.149
-327.158	187.990	0.132	0.196
-326.143	395.018	0.116	-0.238
-325.129	146.818	-0.147	-0.195
-324.114	-126.150	-0.080	0.012
-323.099	422.000	0.131	-0.277
-322.085	3.647	-0.255	0.184
-321.070	-15.902	-0.174	0.109
-320.056	68.458	0.291	-0.295
-319.041	94.713	0.239	-0.269
-318.026	95.162	0.209	-0.235
-317.012	44.013	-0.263	0.238
-315.997	53.688	-0.310	0.294
-314.983	-200.000	0.009	0.052
-313.968	106.720	0.176	0.206
-312.953	20.023	-0.097	-0.077
-311.939	-109.939	0.026	-0.005
-310.924	-141.890	0.265	0.026
-309.910	-110.410	-0.241	-0.049
-308.895	-148.457	0.284	0.023
-307.880	-43.386	0.231	-0.115
-306.866	-200.000	0.005	0.090
-305.851	800.000	0.044	0.136
-304.837	800.000	-0.016	-0.059
-303.822	800.000	0.061	-0.211
-302.807	-200.000	0.064	-0.322
-301.793	114.879	0.092	-0.111
-300.778	-200.000	0.029	0.185
-299.764	800.000	-0.022	0.090
-298.749	-145.005	-0.180	0.016
-297.735	-42.565	0.268	-0.135
-296.720	181.745	0.158	0.230
-295.705	-105.046	0.184	0.042
-294.691	-200.000	-0.045	0.262
-293.676	112.027	-0.052	0.062
-292.662	56.518	0.129	-0.124
-291.647	800.000	0.051	-0.153
-290.632	13.993	0.256	0.197
-289.618	436.651	-0.093	0.200
-288.603	555.807	0.022	-0.052
-287.589	466.892	0.082	-0.181
-286.574	302.393	-0.081	0.148
-285.559	-150.852	-0.093	-0.007
-284.545	800.000	-0.010	-0.044
-283.530	-30.271	-0.204	-0.114
-282.516	-5.192	0.008	-0.005
-281.501	370.498	-0.079	-0.158
-280.486	-7.742	0.220	0.147
-279.472	800.000	0.055	0.232
-278.457	-56.973	-0.387	-0.169
-277.443	-159.141	0.303	-0.017
-276.428	-41.796	-0.067	0.034
-275.413	57.709	-0.126	0.121
-274.399	110.608	0.199	-0.236
-273.384	67.875	-0.181	-0.182
-272.370	800.000	0.106	-0.330
-271.355	69.141	-0.177	0.180
-270.340	-92.531	-0.221	-0.061
-269.326	-90.030	0.360	0.103
-268.311	-200.000	0.012	-0.116
-267.297	237.752	0.033	0.054
-266.282	800.000	0.032	0.112
-265.267	800.000	0.087	0.333
-264.253	546.508	-0.140	-0.331
-263.238	-200.000	-0.001	0.043
-262.224	-200.000	0.002	0.040
-261.209	-21.436	-0.130	0.078
-260.195	-62.419	0.144	0.059
-259.180	800.000	0.115	0.363
-258.165	-200.000	-0.005	0.122
-257.151	100.778	-0.249	-0.286
-256.136	54.000	0.219	0.208
-255.122	49.762	-0.178	-0.166
-254.107	-143.408	-0.309	0.029
-253.092	-108.126	0.181	0.039
-252.078	-80.832	0.189	0.062
-251.063	120.748	0.128	-0.157
-250.049	383.353	-0.090	0.182
-249.034	-200.000	0.007	0.051
-248.019	800.000	-0.018	-0.054
-247.005	64.601	0.307	-0.306
-245.990	173.676	-0.099	0.141
-244.976	169.137	0.061	0.086
-243.961	516.613	-0.037	-0.085
-242.946	34.010	0.266	0.229
-241.932	-53.462	-0.187	0.085
-240.917	354.572	-0.077	0.151
-239.903	-36.826	0.030	0.016
-238.888	-31.078	0.328	-0.182
-237.873	164.244	-0.147	-0.205
-236.859	-200.000	0.024	-0.486
-235.844	-144.587	0.453	0.041
-234.830	800.000	-0.047	-0.143
-233.815	-136.298	0.274	-0.032
-232.800	-194.848	-0.095	-0.001
-231.786	-83.226	-0.065	-0.021
-230.771	59.377	-0.090	-0.088
-229.757	121.481	-0.068	-0.084
-228.742	-98.717	-0.175	0.044
-227.727	-24.995	0.304	0.178
-226.713	180.676	-0.089	-0.128
-225.698	-108.040	-0.167	-0.036
-224.684	-200.000	-0.009	-0.193
-223.669	-177.516	-0.256	-0.006
-222.655	-141.002	0.370	-0.037
-221.640	-128.191	-0.085	0.012
-220.625	41.332	0.114	-0.102
-219.611	-122.625	-0.471	0.075
-218.596	-22.622	-0.291	-0.173
-217.582	-200.000	0.029	0.367
-216.567	138.062	-0.226	0.292
-215.552	-160.074	0.671	-0.036
-214.538	-131.168	-0.172	0.023
-213.523	-98.813	-0.133	-0.033
-212.509	-200.000	0.004	0.077
-211.494	498.159	-0.115	0.261
-210.479	359.104	0.140	0.276
-209.465	-151.644	-0.220	-0.016
-208.450	-84.233	0.297	-0.093
-207.436	17.743	-0.043	0.034
-206.421	2.196	0.045	-0.032
-205.406	-142.653	-0.329	0.032
-204.392	24.749	-0.269	-0.219
-203.377	-50.341	0.336	0.156
-202.363	-146.394	0.333	0.029
-201.348	280.578	-0.141	0.248
-200.333	341.792	-0.058	-0.111
-199.319	35.378	0.101	-0.087
-198.304	-93.595	-0.120	-0.033
-197.290	1.774	0.106	-0.075
-196.275	84.476	-0.128	-0.138
-195.260	-131.758	0.377	-0.049
-194.246	53.798	0.063	-0.060
-193.231	36.900	-0.204	0.177
-192.217	66.032	-0.367	-0.367
-191.202	-36.551	-0.130	-0.069
-190.187	103.743	-0.282	-0.325
-189.173	-157.794	0.123	0.007
-188.158	-58.225	0.134	-0.057
-187.144	-15.895	-0.144	-0.090
-186.129	-200.000	-0.022	-0.451
-185.114	184.613	-0.056	0.082
-184.100	-70.524	0.247	-0.092
-183.085	155.625	0.262	-0.354
-182.071	41.869	-0.094	0.084
-181.056	-106.471	0.138	0.030
-180.042	121.518	0.098	0.120
-179.027	-38.189	0.390	-0.203
-178.012	-200.000	0.006	0.427
-176.998	22.135	-0.213	0.171
-175.983	-34.812	0.338	0.181
-174.969	306.716	-0.076	-0.140
-173.954	-49.992	0.282	0.132
-172.939	-71.632	-0.184	-0.068
-171.925	26.285	0.073	0.060
-170.910	10.297	0.139	0.104
-169.896	-88.123	0.221	0.065
-168.881	15.302	0.148	-0.114
-167.866	182.307	-0.317	0.459
-166.852	800.000	-0.065	0.247
-165.837	187.193	-0.256	0.375
-164.823	-68.435	0.252	0.096
-163.808	-71.633	-0.127	0.047
-162.793	252.688	0.021	0.035
-161.779	-200.000	0.007	-0.065
-160.764	-200.000	-0.045	-0.211
-159.750	-101.048	0.242	-0.058
-158.735	52.917	0.299	-0.281
-157.720	-200.000	0.011	0.062
-156.706	-24.964	-0.245	0.143
-155.691	16.216	-0.129	0.100
-154.677	528.324	-0.086	0.199
-153.662	800.000	0.049	0.176
-152.647	800.000	0.051	0.202
-151.633	-200.000	-0.010	0.172
-150.618	800.000	0.064	-0.216
-149.604	-50.387	-0.115	-0.053
-148.589	41.946	0.181	-0.162
-147.574	36.618	-0.176	0.152
-146.560	0.088	0.430	0.301
-145.545	-109.755	-0.271	0.056
-144.531	79.155	0.187	-0.197
-143.516	-200.000	0.041	0.390
-142.502	183.993	0.211	-0.306
-141.487	-200.000	-0.014	-0.119
-140.472	800.000	0.090	0.278
-139.458	-126.844	0.295	0.043
-138.443	-102.959	0.498	-0.116
-137.429	103.973	-0.186	-0.215
-136.414	-200.000	0.052	0.240
-135.399	193.595	-0.073	-0.108
-134.385	-144.746	0.024	0.002
-133.370	43.974	0.121	-0.109
-132.356	109.717	0.245	0.289
-131.341	-83.871	0.563	0.176
-130.326	41.019	-0.312	0.276
-129.312	237.322	-0.068	-0.110
-128.297	241.436	0.244	0.399
-127.283	-96.054	0.160	-0.042
-126.268	102.402	0.250	0.287
-125.253	-2.401	0.190	-0.131
-124.239	102.431	0.245	-0.281
-123.224	-62.039	-0.131	0.054
-122.210	-122.179	-0.456	-0.073
-121.195	154.794	0.048	-0.065
