DTS Sentinel unit serial number:	SN413079Multiplexer serial number:	ORYXHardware model number:	OX4-SRSoftware version number:	ORYX F/W v4.00 Oryx Data Collector v3.7.2.0data status	okinstallation	princeton_trtdifferential loss correction	single-endedforward channel	channel 4reverse channel	N/Adate	2019/09/18time	18:01:34forward acquisition time	60.00reverse acquisition time	0.00gamma	496.2192k internal	0.2292k external	0.2292temperature offset calibration	1.0018default loss term (dB/km)	0.3790temperature slope calibration	1.0000multiplexer offset coefficient	1.0000multiplexer slope coefficient	1.0000fibre end	0.00T internal ref (°C)	39.58T ext. ref 1 (°C)	0.92T ext. ref 2 (°C)	31.35length (m)	temperature (°C)	Stokes	anti-Stokes-747.200	-103.816	0.242	-0.058
-746.185	800.000	0.073	0.209
-745.171	800.000	0.060	-0.211
-744.156	-200.000	0.001	-0.249
-743.142	34.604	0.157	-0.140
-742.127	233.423	0.178	0.300
-741.112	800.000	-0.026	0.077
-740.098	223.092	-0.168	0.276
-739.083	270.371	0.055	0.098
-738.069	800.000	-0.041	-0.176
-737.054	-7.051	-0.160	-0.111
-736.039	59.915	-0.211	-0.214
-735.025	-200.000	-0.036	0.346
-734.010	-200.000	-0.005	-0.118
-732.996	285.220	-0.118	-0.218
-731.981	800.000	0.072	-0.213
-730.966	-200.000	0.003	0.211
-729.952	15.448	0.378	0.303
-728.937	-199.250	-0.315	-0.002
-727.923	-116.444	-0.170	0.032
-726.908	138.901	-0.130	0.175
-725.894	16.863	-0.267	-0.216
-724.879	-173.835	-0.120	-0.004
-723.864	-117.718	0.183	0.034
-722.850	-48.035	0.098	-0.048
-721.835	351.038	-0.017	-0.035
-720.821	800.000	-0.048	0.137
-719.806	-86.647	-0.067	-0.021
-718.791	800.000	0.082	0.295
-717.777	136.917	0.209	0.279
-716.762	-100.709	0.083	-0.021
-715.748	800.000	0.008	0.029
-714.733	200.874	0.046	-0.073
-713.718	-200.000	-0.050	-0.335
-712.704	-89.977	-0.436	0.130
-711.689	800.000	0.058	-0.215
-710.675	89.740	0.217	-0.247
-709.660	191.108	0.111	0.171
-708.645	-200.000	0.029	0.190
-707.631	586.184	-0.139	-0.350
-706.616	-110.684	-0.499	-0.105
-705.602	243.295	0.131	-0.225
-704.587	-200.000	0.018	-0.193
-703.572	800.000	0.068	-0.285
-702.558	454.768	-0.115	-0.260
-701.543	-200.000	-0.011	-0.118
-700.529	800.000	0.020	-0.058
-699.514	-132.250	0.334	-0.044
-698.499	800.000	0.129	-0.375
-697.485	65.680	-0.072	0.075
-696.470	-135.403	0.193	-0.024
-695.456	97.121	-0.134	0.157
-694.441	213.747	-0.048	0.077
-693.426	2.608	-0.186	-0.138
-692.412	800.000	-0.075	-0.242
-691.397	800.000	-0.087	0.253
-690.383	-87.291	-0.040	-0.012
-689.368	129.551	0.199	-0.260
-688.354	3.663	0.186	-0.138
-687.339	-39.742	-0.289	0.154
-686.324	23.613	-0.197	-0.165
-685.310	619.681	-0.115	0.294
-684.295	-23.862	0.124	-0.076
-683.281	800.000	-0.104	-0.372
-682.266	-200.000	0.029	0.186
-681.251	-200.000	-0.021	0.102
-680.237	43.082	-0.052	0.048
-679.222	-164.247	0.202	0.009
-678.208	-26.176	0.307	0.184
-677.193	671.607	-0.132	0.350
-676.178	499.140	-0.071	-0.167
-675.164	-44.618	-0.118	-0.060
-674.149	117.287	-0.107	-0.134
-673.135	-4.978	-0.091	0.064
-672.120	-58.066	0.060	0.027
-671.105	194.593	-0.156	-0.242
-670.091	43.046	0.086	0.080
-669.076	-173.404	0.067	-0.002
-668.062	280.146	-0.072	-0.130
-667.047	247.294	-0.182	0.314
-666.032	272.809	-0.198	-0.357
-665.018	-72.290	-0.253	0.096
-664.003	-200.000	0.021	0.352
-662.989	-18.959	-0.222	0.141
-661.974	64.676	-0.201	0.207
-660.959	175.731	-0.085	0.126
-659.945	-200.000	-0.029	-0.210
-658.930	22.906	0.134	-0.112
-657.916	-62.365	0.292	-0.124
-656.901	800.000	-0.078	0.263
-655.886	42.348	-0.042	-0.039
-654.872	470.387	0.082	0.189
-653.857	36.774	-0.213	0.192
-652.843	800.000	-0.009	-0.032
-651.828	64.330	-0.204	0.210
-650.814	-126.991	-0.147	-0.022
-649.799	30.807	0.137	-0.119
-648.784	146.909	-0.190	-0.260
-647.770	-3.651	0.042	-0.030
-646.755	-127.373	-0.183	-0.027
-645.741	-117.411	-0.064	0.012
-644.726	-31.583	0.147	-0.084
-643.711	800.000	0.034	0.134
-642.697	249.568	0.200	0.345
-641.682	13.461	-0.170	0.134
-640.668	-64.498	0.028	-0.011
-639.653	800.000	-0.077	0.318
-638.638	-200.000	0.007	-0.115
-637.624	366.942	0.102	0.211
-636.609	-30.913	-0.316	0.182
-635.595	336.413	-0.104	0.206
-634.580	-62.787	-0.202	0.085
-633.565	-90.701	0.355	0.104
-632.551	-70.923	-0.143	0.055
-631.536	43.306	0.242	0.225
-630.522	-53.439	0.190	-0.089
-629.507	109.870	-0.233	-0.284
-628.492	-80.142	0.194	0.066
-627.478	294.367	-0.109	0.203
-626.463	722.654	0.091	-0.247
-625.449	-200.000	0.015	-0.198
-624.434	243.158	-0.073	-0.124
-623.419	-7.668	0.255	-0.176
-622.405	-125.543	-0.335	-0.052
-621.390	539.092	0.221	0.536
-620.376	631.823	0.070	0.181
-619.361	17.433	-0.117	-0.095
-618.346	84.383	0.144	0.160
-617.332	-107.607	-0.184	-0.041
-616.317	-66.711	-0.200	0.081
-615.303	-177.310	-0.185	0.005
-614.288	-200.000	-0.068	0.327
-613.273	472.933	-0.163	-0.375
-612.259	-200.000	0.003	-0.108
-611.244	-58.108	0.014	0.006
-610.230	-90.334	0.162	-0.048
-609.215	-200.000	-0.003	0.133
-608.201	69.915	0.149	0.156
-607.186	-29.181	0.119	-0.069
-606.171	-200.000	-0.000	-0.235
-605.157	-146.306	-0.310	0.028
-604.142	185.378	0.037	0.055
-603.128	75.585	-0.131	-0.141
-602.113	573.831	-0.036	-0.090
-601.098	800.000	0.038	-0.112
-600.084	8.033	-0.323	-0.247
-599.069	-200.000	0.004	0.098
-598.055	109.131	-0.021	0.026
-597.040	5.917	-0.196	-0.148
-596.025	197.963	-0.379	-0.589
-595.011	800.000	-0.103	-0.393
-593.996	9.993	0.218	-0.168
-592.982	-24.129	-0.268	-0.163
-591.967	-4.266	-0.057	0.040
-590.952	-77.537	-0.281	0.099
-589.938	-34.458	-0.150	-0.083
-588.923	556.764	-0.129	0.316
-587.909	291.225	-0.040	0.074
-586.894	-19.841	-0.118	-0.074
-585.879	34.257	-0.201	0.178
-584.865	-200.000	-0.007	-0.158
-583.850	794.367	0.099	0.276
-582.836	-137.305	0.145	-0.017
-581.821	-109.500	0.163	0.035
-580.806	-132.425	-0.236	0.031
-579.792	-45.823	0.243	0.122
-578.777	-64.197	0.123	0.051
-577.763	71.911	0.240	-0.254
-576.748	-6.048	0.268	-0.186
-575.733	230.321	-0.042	0.070
-574.719	8.976	-0.088	-0.068
-573.704	-129.613	0.088	-0.012
-572.690	-200.000	0.036	-0.190
-571.675	-94.218	-0.413	-0.115
-570.661	-200.000	-0.072	-0.423
-569.646	-200.000	0.012	-0.158
-568.631	-51.352	-0.001	-0.000
-567.617	11.760	0.049	-0.038
-566.602	-200.000	-0.036	-0.237
-565.588	45.540	-0.104	0.097
-564.573	620.150	-0.110	-0.281
-563.558	-82.866	-0.345	-0.113
-562.544	37.736	0.193	-0.174
-561.529	800.000	-0.058	-0.217
-560.515	800.000	0.041	-0.150
-559.500	-133.193	0.203	-0.026
-558.485	800.000	0.054	0.203
-557.471	-112.476	0.251	0.051
-556.456	143.165	0.173	0.234
-555.442	-47.919	0.248	-0.122
-554.427	-46.727	0.323	-0.160
-553.412	20.170	-0.151	0.124
-552.398	61.627	0.258	0.260
-551.383	-200.000	-0.082	0.493
-550.369	344.337	-0.161	0.321
-549.354	-123.113	-0.248	-0.040
-548.339	93.682	0.162	-0.186
-547.325	-200.000	-0.026	-0.283
-546.310	800.000	-0.039	-0.140
-545.296	-13.656	0.163	0.107
-544.281	800.000	-0.023	0.077
-543.266	-6.843	-0.171	0.118
-542.252	167.914	-0.061	-0.088
-541.237	-108.832	-0.187	0.041
-540.223	274.036	-0.106	-0.191
-539.208	97.281	-0.073	-0.085
-538.193	-164.429	-0.315	0.015
-537.179	-79.099	-0.077	0.027
-536.164	-95.383	0.195	0.053
-535.150	44.229	-0.057	-0.053
-534.135	-119.416	-0.198	0.035
-533.121	139.111	0.186	0.249
-532.106	220.950	-0.018	0.029
-531.091	-26.220	-0.096	-0.057
-530.077	55.859	0.206	0.203
-529.062	201.407	0.269	-0.420
-528.048	-200.000	0.001	-0.196
-527.033	800.000	0.115	0.363
-526.018	-200.000	0.078	0.360
-525.004	-17.070	-0.132	-0.085
-523.989	-165.404	0.265	0.012
-522.975	800.000	0.040	0.165
-521.960	-105.374	0.275	0.064
-520.945	-200.000	-0.007	-0.161
-519.931	4.038	0.091	-0.067
-518.916	-120.998	-0.273	0.046
-517.902	-200.000	-0.008	0.138
-516.887	-200.000	-0.009	0.245
-515.872	-200.000	0.018	0.503
-514.858	113.274	0.139	0.171
-513.843	-120.819	0.063	0.011
-512.829	-200.000	-0.001	-0.054
-511.814	-67.104	-0.125	-0.050
-510.799	25.554	0.217	0.183
-509.785	291.896	-0.157	-0.291
-508.770	276.173	0.119	0.215
-507.756	42.236	-0.154	0.142
-506.741	176.003	-0.132	0.194
-505.726	46.844	-0.130	-0.123
-504.712	-111.252	-0.168	0.035
-503.697	-191.099	-0.319	-0.003
-502.683	-173.846	0.257	-0.008
-501.668	60.804	-0.146	0.147
-500.653	-200.000	0.002	0.194
-499.639	27.544	0.168	-0.144
-498.624	-49.490	0.096	-0.046
-497.610	152.840	0.152	-0.211
-496.595	402.047	0.183	-0.391
-495.581	37.410	0.041	-0.037
-494.566	-163.907	-0.069	0.003
-493.551	800.000	-0.053	-0.184
-492.537	800.000	-0.022	-0.065
-491.522	-120.110	-0.190	0.033
-490.508	333.990	0.040	0.079
-489.493	63.437	-0.074	-0.075
-488.478	-114.748	0.335	0.065
-487.464	800.000	-0.097	-0.310
-486.449	586.091	0.099	0.248
-485.435	-129.874	0.343	-0.048
-484.420	-200.000	-0.062	0.299
-483.405	-36.917	-0.279	-0.152
-482.391	-23.168	-0.094	0.057
-481.376	-200.000	-0.019	-0.387
-480.362	-128.963	0.280	-0.040
-479.347	-28.443	-0.221	-0.129
-478.332	-200.000	-0.043	0.263
-477.318	-87.928	-0.142	-0.043
-476.303	-75.101	0.572	-0.207
-475.289	101.178	-0.149	0.175
-474.274	2.722	-0.165	-0.121
-473.259	379.705	-0.146	-0.304
-472.245	392.938	-0.139	0.293
-471.230	590.470	0.094	0.234
-470.216	-2.706	0.171	0.121
-469.201	-200.000	0.011	0.210
-468.186	-200.000	0.005	0.115
-467.172	-135.115	-0.338	-0.041
-466.157	800.000	-0.040	-0.130
-465.143	-200.000	0.005	-0.280
-464.128	353.643	0.067	0.135
-463.113	-146.901	-0.083	0.007
-462.099	-105.941	0.387	-0.088
-461.084	-114.109	0.229	0.045
-460.070	-200.000	0.021	0.212
-459.055	-90.268	-0.219	-0.064
-458.040	324.786	0.194	-0.375
-457.026	-200.000	0.037	0.293
-456.011	10.285	0.286	0.220
-454.997	-200.000	0.032	-0.234
-453.982	126.663	0.076	-0.097
-452.968	68.684	0.073	0.076
-451.953	-70.539	0.111	-0.042
-450.938	56.340	-0.105	0.103
-449.924	-22.555	0.156	0.095
-448.909	111.848	0.043	0.053
-447.895	581.845	-0.088	-0.217
-446.880	800.000	0.127	0.357
-445.865	-148.512	0.165	-0.014
-444.851	-200.000	-0.004	-0.323
-443.836	119.964	-0.170	-0.213
-442.822	-200.000	-0.001	0.261
-441.807	26.236	-0.047	0.040
-440.792	-82.501	-0.183	0.060
-439.778	800.000	0.031	0.127
-438.763	-43.957	-0.455	0.231
-437.749	-109.574	-0.334	-0.071
-436.734	25.470	-0.145	0.122
-435.719	72.204	-0.073	0.076
-434.705	109.606	-0.168	0.204
-433.690	211.626	0.116	0.185
-432.676	-68.716	0.144	-0.056
-431.661	37.568	-0.087	-0.078
-430.646	49.230	0.177	0.168
-429.632	-76.411	-0.102	0.036
-428.617	-109.018	-0.196	0.042
-427.603	-4.018	-0.154	0.108
-426.588	-200.000	0.008	0.331
-425.573	10.263	0.333	0.256
-424.559	-17.958	0.097	0.061
-423.544	-119.499	-0.258	-0.045
-422.530	-69.858	0.176	-0.068
-421.515	800.000	0.049	0.208
-420.500	-113.170	0.180	0.036
-419.486	800.000	-0.071	-0.257
-418.471	800.000	0.089	-0.264
-417.457	17.571	0.127	0.102
-416.442	-160.085	-0.396	-0.022
-415.428	800.000	-0.022	0.077
-414.413	636.888	0.130	-0.334
-413.398	-200.000	0.011	-0.280
-412.384	137.035	0.113	-0.149
-411.369	800.000	0.048	0.208
-410.355	401.838	-0.083	-0.175
-409.340	-32.434	-0.250	0.141
-408.325	-138.608	-0.180	-0.020
-407.311	8.333	-0.168	-0.127
-406.296	-40.818	0.196	0.102
-405.282	430.402	-0.121	0.265
-404.267	-178.247	0.172	-0.004
-403.252	48.261	0.048	-0.046
-402.238	196.697	0.084	-0.130
-401.223	59.044	-0.047	0.046
-400.209	-85.304	-0.194	0.061
-399.194	-16.796	0.137	-0.087
-398.179	54.265	-0.121	0.117
-397.165	-14.085	0.191	0.124
-396.150	-183.906	0.344	0.006
-395.136	26.759	-0.165	-0.140
-394.121	-2.233	-0.279	-0.197
-393.106	-200.000	0.048	-0.237
-392.092	17.592	0.138	0.110
-391.077	-82.173	-0.069	0.023
-390.063	150.264	0.189	0.259
-389.048	116.136	-0.085	-0.105
-388.033	230.344	-0.135	0.224
-387.019	-200.000	-0.001	0.092
-386.004	461.210	0.102	0.229
-384.990	800.000	-0.061	0.203
-383.975	265.854	0.134	0.237
-382.960	-93.499	0.008	0.002
-381.946	114.110	-0.224	0.275
-380.931	82.618	0.050	-0.054
-379.917	-200.000	0.052	0.337
-378.902	-112.250	0.139	-0.028
-377.888	94.621	-0.099	0.114
-376.873	-200.000	-0.023	0.158
-375.858	-200.000	0.035	-0.276
-374.844	-29.813	0.388	0.223
-373.829	-200.000	0.017	-0.347
-372.815	-98.747	-0.009	-0.002
-371.800	800.000	-0.073	0.213
-370.785	761.644	0.081	0.222
-369.771	531.577	-0.104	0.248
-368.756	-7.984	0.207	-0.141
-367.742	800.000	0.065	-0.285
-366.727	-200.000	-0.029	0.136
-365.712	150.795	-0.225	-0.308
-364.698	-66.239	-0.177	0.071
-363.683	-43.831	0.084	-0.043
-362.669	-200.000	0.002	-0.083
-361.654	800.000	0.033	0.144
-360.639	-171.547	0.049	-0.002
-359.625	-200.000	-0.027	0.401
-358.610	800.000	-0.088	0.294
-357.596	27.375	0.288	-0.244
-356.581	-200.000	-0.001	0.079
-355.566	-200.000	0.031	0.253
-354.552	800.000	0.083	-0.286
-353.537	309.151	0.199	-0.375
-352.523	-11.726	-0.041	0.027
-351.508	-114.888	-0.241	0.046
-350.493	156.304	0.185	-0.257
-349.479	36.673	0.239	-0.212
-348.464	-13.776	-0.326	-0.212
-347.450	138.807	-0.078	0.103
-346.435	10.165	-0.300	0.230
-345.420	-62.864	0.388	-0.162
-344.406	26.879	-0.178	-0.150
-343.391	181.338	-0.248	-0.367
-342.377	800.000	0.023	-0.088
-341.362	-126.359	-0.206	-0.031
-340.348	-52.955	-0.281	0.130
-339.333	381.922	0.103	-0.214
-338.318	-200.000	0.004	-0.101
-337.304	800.000	0.056	0.187
-336.289	-0.182	-0.150	-0.108
-335.275	-37.835	0.256	0.137
-334.260	456.000	-0.021	0.048
-333.245	388.191	-0.166	0.346
-332.231	-98.333	-0.071	-0.018
-331.216	-72.260	0.196	-0.073
-330.202	12.257	-0.052	-0.040
-329.187	57.998	-0.324	-0.320
-328.172	19.760	-0.053	-0.043
-327.158	-200.000	0.130	0.649
-326.143	141.832	-0.173	-0.230
-325.129	-16.315	0.176	-0.112
-324.114	800.000	0.065	-0.204
-323.099	28.598	0.102	-0.087
-322.085	-13.533	-0.221	-0.144
-321.070	78.544	0.225	0.242
-320.056	-19.067	0.250	0.156
-319.041	423.503	0.047	0.101
-318.026	-67.670	0.073	0.029
-317.012	800.000	0.082	-0.256
-315.997	593.094	-0.126	-0.314
-314.983	17.103	-0.254	-0.202
-313.968	-200.000	-0.017	-0.207
-312.953	800.000	0.037	-0.121
-311.939	-7.801	-0.234	-0.159
-310.924	-107.643	0.257	-0.056
-309.910	-14.804	0.288	0.186
-308.895	800.000	0.038	-0.155
-307.880	-165.725	-0.109	0.005
-306.866	-9.567	0.189	0.127
-305.851	-59.578	-0.084	-0.036
-304.837	-131.356	0.493	-0.066
-303.822	-66.038	0.062	-0.025
-302.807	146.743	0.080	-0.109
-301.793	238.288	0.066	0.111
-300.778	-31.313	-0.105	-0.059
-299.764	-14.972	0.060	0.039
-298.749	-137.134	0.188	-0.022
-297.735	800.000	0.074	-0.266
-296.720	188.387	-0.243	0.365
-295.705	800.000	-0.049	-0.156
-294.691	228.605	0.048	0.078
-293.676	276.828	0.152	0.271
-292.662	113.780	0.144	0.176
-291.647	-58.313	-0.185	0.081
-290.632	-82.382	0.328	0.107
-289.618	132.670	0.180	-0.233
-288.603	197.344	-0.149	0.229
-287.589	115.940	0.156	-0.192
-286.574	471.304	-0.149	0.337
-285.559	-200.000	-0.025	0.432
-284.545	81.045	-0.208	0.226
-283.530	60.471	-0.094	0.094
-282.516	-200.000	0.001	-0.101
-281.501	165.627	0.242	0.344
-280.486	83.701	0.211	0.231
-279.472	-65.228	0.098	-0.040
-278.457	-200.000	0.062	0.339
-277.443	116.620	0.145	0.179
-276.428	-111.756	-0.391	-0.080
-275.413	-99.844	-0.190	-0.048
-274.399	97.451	0.097	-0.112
-273.384	27.728	-0.312	-0.264
-272.370	63.252	-0.343	-0.345
-271.355	-95.917	0.186	-0.050
-270.340	-12.812	-0.077	-0.050
-269.326	-102.328	-0.232	-0.056
-268.311	-200.000	0.057	-0.282
-267.297	600.947	-0.052	-0.131
-266.282	506.250	0.090	0.208
-265.267	322.832	0.020	0.039
-264.253	5.280	-0.048	0.036
-263.238	400.170	0.211	0.444
-262.224	-165.857	-0.098	0.004
-261.209	126.456	0.198	-0.252
-260.195	-74.357	-0.107	0.039
-259.180	-157.527	0.037	0.002
-258.165	57.593	-0.190	0.187
-257.151	800.000	-0.027	0.082
-256.136	-94.603	-0.491	0.134
-255.122	109.329	0.029	0.035
-254.107	-64.761	0.376	0.153
-253.092	-200.000	-0.036	0.382
-252.078	-152.360	-0.313	0.023
-251.063	86.862	0.048	-0.053
-250.049	-51.305	0.281	-0.132
-249.034	179.829	-0.089	0.131
-248.019	-79.187	-0.407	-0.138
-247.005	-54.532	-0.225	-0.102
-245.990	12.752	-0.127	-0.098
-244.976	34.724	0.071	0.062
-243.961	40.615	0.208	0.188
-242.946	273.026	-0.181	-0.322
-241.932	199.446	0.200	-0.308
-240.917	800.000	-0.062	-0.239
-239.903	-200.000	0.017	0.090
-238.888	117.760	0.021	-0.027
-237.873	-52.363	0.258	0.120
-236.859	-132.597	-0.356	0.046
-235.844	161.161	0.070	-0.099
-234.830	291.682	0.132	-0.241
-233.815	155.114	0.113	0.156
-232.800	-88.360	0.297	-0.089
-231.786	-125.729	0.196	-0.030
-230.771	800.000	-0.053	0.169
-229.757	210.505	0.140	0.220
-228.742	88.754	0.333	0.372
-227.727	11.468	-0.293	-0.225
-226.713	-200.000	0.030	-0.164
-225.698	-200.000	0.086	0.589
-224.684	-121.908	-0.362	0.060
-223.669	-185.706	-0.300	0.005
-222.655	-149.924	-0.133	0.010
-221.640	-57.247	0.205	0.091
-220.625	138.355	-0.078	0.103
-219.611	800.000	-0.148	-0.557
-218.596	-48.976	0.250	0.120
-217.582	129.698	0.144	-0.185
-216.567	-139.396	0.301	0.032
-215.552	28.564	-0.254	0.215
-214.538	800.000	-0.065	-0.220
-213.523	-105.624	0.393	-0.089
-212.509	-124.969	-0.301	0.046
-211.494	-86.799	-0.151	-0.046
-210.479	38.474	-0.206	0.184
-209.465	-66.447	0.070	-0.028
-208.450	67.317	0.121	0.123
-207.436	149.917	-0.247	-0.335
-206.421	-141.033	0.137	0.014
-205.406	-15.711	-0.045	0.029
-204.392	-77.722	0.352	-0.122
-203.377	2.378	0.053	0.039
-202.363	-99.664	-0.492	-0.124
-201.348	-200.000	0.015	0.297
-200.333	-67.342	0.307	-0.121
-199.319	28.141	0.051	-0.043
-198.304	66.948	0.074	-0.075
-197.290	-158.007	0.313	-0.018
-196.275	-200.000	-0.004	-0.159
-195.260	363.943	0.192	0.386
-194.246	-27.982	0.059	-0.034
-193.231	105.665	-0.122	0.144
-192.217	-113.623	-0.229	0.045
-191.202	800.000	-0.025	0.087
-190.187	225.894	0.052	-0.084
-189.173	-33.210	0.239	-0.133
-188.158	-54.920	-0.302	-0.136
-187.144	188.423	0.186	-0.278
-186.129	-200.000	-0.021	0.201
-185.114	800.000	0.068	-0.198
-184.100	-200.000	-0.013	-0.448
-183.085	253.122	-0.038	0.065
-182.071	-84.281	0.226	0.072
-181.056	-4.756	-0.022	0.015
-180.042	-1.149	0.122	-0.086
-179.027	-200.000	-0.002	-0.149
-178.012	27.624	0.283	-0.239
-176.998	-79.545	-0.099	-0.033
-175.983	-76.369	0.253	-0.089
-174.969	800.000	-0.077	0.256
-173.954	290.853	-0.012	-0.021
-172.939	-200.000	0.102	0.000
-171.925	-200.000	-0.064	-0.282
-170.910	800.000	0.050	-0.154
-169.896	24.563	-0.276	0.229
-168.881	800.000	-0.063	-0.178
-167.866	-24.688	-0.126	0.075
-166.852	42.835	-0.090	-0.082
-165.837	-36.085	-0.229	-0.124
-164.823	265.195	0.052	0.091
-163.808	99.208	-0.069	-0.080
-162.793	321.212	-0.117	-0.222
-161.779	-200.000	0.009	0.114
-160.764	-200.000	-0.009	-0.142
-159.750	22.542	0.082	-0.067
-158.735	8.963	0.209	0.158
-157.720	-50.353	0.065	-0.031
-156.706	-7.365	0.158	-0.107
-155.691	184.315	0.065	-0.097
-154.677	-200.000	0.028	-0.146
-153.662	-88.467	0.090	-0.027
-152.647	-200.000	-0.046	-0.331
-151.633	-33.210	-0.033	0.018
-150.618	800.000	-0.096	0.395
-149.604	-128.158	-0.112	-0.016
-148.589	116.272	-0.094	0.115
-147.574	-64.083	0.269	-0.110
-146.560	721.379	0.166	0.442
-145.545	115.497	-0.178	-0.218
-144.531	-92.068	0.337	-0.095
-143.516	24.935	0.048	-0.039
-142.502	4.804	-0.149	0.109
-141.487	-107.273	-0.234	0.051
-140.472	352.853	0.115	0.228
-139.458	-122.321	-0.105	0.017
-138.443	288.531	0.233	-0.422
-137.429	-200.000	-0.017	-0.177
-136.414	800.000	-0.067	0.282
-135.399	220.249	-0.223	-0.357
-134.385	-71.907	-0.141	0.052
-133.370	-50.266	0.385	0.182
-132.356	80.275	0.154	-0.165
-131.341	-100.657	-0.293	-0.072
-130.326	481.884	0.076	-0.172
-129.312	-155.961	-0.213	-0.013
-128.297	-200.000	-0.014	-0.116
-127.283	2.263	-0.309	0.223
-126.268	800.000	-0.078	-0.317
-125.253	115.104	-0.120	-0.147
-124.239	-94.711	0.241	0.065
-123.224	-140.064	0.137	0.014
-122.210	-138.770	0.176	-0.019
-121.195	-200.000	0.015	0.258
-120.180	9.698	-0.037	-0.028
