DTS Sentinel unit serial number:	SN413079Multiplexer serial number:	ORYXHardware model number:	OX4-SRSoftware version number:	ORYX F/W v4.00 Oryx Data Collector v3.7.2.0data status	okinstallation	princeton_trtdifferential loss correction	single-endedforward channel	channel 4reverse channel	N/Adate	2019/09/16time	15:29:34forward acquisition time	60.00reverse acquisition time	0.00gamma	496.2192k internal	0.2288k external	0.2288temperature offset calibration	0.9936default loss term (dB/km)	0.3790temperature slope calibration	1.0000multiplexer offset coefficient	1.0000multiplexer slope coefficient	1.0000fibre end	0.00T internal ref (°C)	41.12T ext. ref 1 (°C)	14.67T ext. ref 2 (°C)	37.24length (m)	temperature (°C)	Stokes	anti-Stokes-747.200	-168.425	-0.346	-0.014
-746.185	300.582	0.093	0.176
-745.171	-153.763	0.158	0.011
-744.156	102.068	-0.083	-0.100
-743.142	800.000	0.031	-0.092
-742.127	-80.641	-0.182	-0.062
-741.112	15.153	-0.122	0.098
-740.098	-200.000	0.059	0.311
-739.083	-54.703	-0.253	0.117
-738.069	24.953	-0.341	0.290
-737.054	7.177	-0.159	-0.121
-736.039	-82.631	0.047	0.016
-735.025	-32.656	0.205	-0.117
-734.010	-50.081	-0.317	-0.154
-732.996	183.905	-0.071	-0.108
-731.981	-95.843	-0.305	0.083
-730.966	-29.048	-0.385	0.226
-729.952	113.897	-0.182	-0.227
-728.937	-200.000	-0.046	-0.368
-727.923	568.517	-0.149	-0.372
-726.908	267.571	-0.209	0.375
-725.894	-113.798	-0.151	-0.030
-724.879	-102.949	-0.147	0.036
-723.864	18.608	-0.067	0.055
-722.850	-44.270	-0.282	0.145
-721.835	-90.929	0.030	-0.009
-720.821	800.000	-0.064	-0.244
-719.806	-200.000	0.000	0.245
-718.791	-54.269	0.261	0.122
-717.777	-131.096	0.489	-0.067
-716.762	75.096	-0.183	-0.197
-715.748	348.099	0.236	-0.476
-714.733	-200.000	0.012	-0.378
-713.718	-71.201	0.214	0.082
-712.704	800.000	-0.080	0.239
-711.689	800.000	-0.116	0.334
-710.675	-117.588	-0.046	0.008
-709.660	-79.579	-0.211	0.073
-708.645	65.599	-0.109	-0.113
-707.631	36.995	0.074	-0.067
-706.616	-159.319	-0.326	0.019
-705.602	-123.512	-0.226	-0.037
-704.587	-198.742	-0.151	-0.001
-703.572	13.297	0.132	-0.105
-702.558	94.852	0.310	-0.361
-701.543	-32.799	0.322	0.183
-700.529	-68.237	-0.154	-0.061
-699.514	46.151	0.094	-0.089
-698.499	-200.000	-0.005	0.117
-697.485	138.439	0.172	-0.231
-696.470	-200.000	-0.049	0.259
-695.456	-200.000	-0.007	0.042
-694.441	61.080	0.279	-0.284
-693.426	-138.904	-0.231	0.026
-692.412	-75.955	-0.436	-0.158
-691.397	-95.311	-0.117	-0.032
-690.383	-200.000	-0.047	0.345
-689.368	-54.234	-0.089	-0.041
-688.354	-200.000	-0.049	0.251
-687.339	-129.979	0.201	0.028
-686.324	538.926	0.105	0.257
-685.310	335.741	-0.102	0.202
-684.295	75.769	-0.052	0.056
-683.281	-133.443	-0.268	-0.034
-682.266	131.833	0.185	-0.243
-681.251	-200.000	-0.041	-0.188
-680.237	-155.082	0.181	-0.012
-679.222	19.268	-0.162	-0.133
-678.208	30.172	-0.270	-0.236
-677.193	-127.941	0.130	0.019
-676.178	-200.000	-0.017	-0.230
-675.164	800.000	0.050	0.186
-674.149	-167.660	0.315	0.013
-673.135	21.406	-0.156	0.130
-672.120	-32.117	0.092	0.052
-671.105	-84.786	-0.092	-0.029
-670.091	-22.341	-0.063	-0.039
-669.076	96.866	0.192	-0.224
-668.062	434.948	-0.085	-0.189
-667.047	800.000	0.073	-0.280
-666.032	345.642	-0.077	-0.155
-665.018	-48.509	-0.355	0.174
-664.003	-33.962	0.167	0.094
-662.989	164.923	0.133	0.192
-661.974	-122.708	-0.212	0.035
-660.959	-110.161	-0.091	0.019
-659.945	566.783	-0.035	-0.088
-658.930	-106.714	-0.170	0.039
-657.916	-89.330	0.262	0.079
-656.901	-43.905	0.225	-0.116
-655.886	800.000	0.044	-0.172
-654.872	91.592	0.110	-0.126
-653.857	-67.850	-0.312	0.125
-652.843	-36.797	0.434	0.238
-651.828	257.650	-0.160	-0.281
-650.814	-40.132	0.189	0.101
-649.799	-94.506	0.339	0.094
-648.784	-136.003	-0.467	0.056
-647.770	-126.030	-0.123	-0.019
-646.755	-200.000	-0.023	0.166
-645.741	47.463	0.247	-0.235
-644.726	147.419	-0.091	-0.125
-643.711	459.951	-0.081	0.184
-642.697	-200.000	-0.027	0.166
-641.682	-200.000	-0.020	0.102
-640.668	6.997	-0.286	0.217
-639.653	545.881	0.114	0.278
-638.638	264.089	0.089	-0.157
-637.624	-200.000	-0.075	0.373
-636.609	-80.451	-0.055	-0.019
-635.595	800.000	0.079	-0.244
-634.580	116.390	0.068	-0.085
-633.565	145.279	0.240	0.328
-632.551	800.000	-0.051	-0.212
-631.536	366.728	-0.020	0.041
-630.522	556.097	0.109	-0.267
-629.507	-98.989	-0.081	-0.021
-628.492	800.000	-0.036	-0.143
-627.478	-51.181	-0.065	0.031
-626.463	800.000	-0.063	0.186
-625.449	142.499	0.156	0.212
-624.434	343.847	0.074	0.149
-623.419	186.317	0.064	0.097
-622.405	442.721	-0.035	0.078
-621.390	279.684	0.067	0.123
-620.376	-26.411	-0.055	-0.033
-619.361	-200.000	0.002	-0.305
-618.346	228.688	0.091	0.151
-617.332	800.000	0.102	0.345
-616.317	711.870	0.051	-0.138
-615.303	756.469	-0.079	0.218
-614.288	16.873	-0.075	-0.060
-613.273	202.717	-0.120	-0.189
-612.259	-78.427	-0.146	-0.051
-611.244	268.369	-0.157	0.281
-610.230	-94.971	-0.429	0.118
-609.215	601.775	-0.059	-0.149
-608.201	132.507	-0.226	0.298
-607.186	26.070	-0.167	0.142
-606.171	-4.569	0.127	0.090
-605.157	-5.368	-0.028	-0.020
-604.142	118.520	-0.120	-0.151
-603.128	800.000	-0.019	0.082
-602.113	-62.862	-0.157	0.066
-601.098	-49.506	0.242	0.117
-600.084	50.908	0.106	0.102
-599.069	166.610	-0.063	0.091
-598.055	-200.000	-0.006	0.166
-597.040	233.388	0.061	-0.103
-596.025	735.875	0.088	-0.240
-595.011	-35.662	0.394	-0.218
-593.996	183.569	0.108	0.163
-592.982	-200.000	-0.003	-0.021
-591.967	708.561	0.094	-0.254
-590.952	-200.000	0.013	0.186
-589.938	70.228	-0.199	0.209
-588.923	78.834	0.068	-0.074
-587.909	-70.083	0.202	0.078
-586.894	-191.847	-0.160	-0.002
-585.879	41.181	0.135	-0.124
-584.865	-200.000	-0.056	-0.273
-583.850	173.239	0.109	-0.160
-582.836	248.413	-0.075	-0.129
-581.821	76.701	-0.159	-0.172
-580.806	-114.144	-0.075	0.015
-579.792	-110.320	-0.291	0.062
-578.777	-200.000	0.026	0.221
-577.763	280.055	0.156	0.285
-576.748	116.487	0.156	0.195
-575.733	-89.896	0.346	-0.103
-574.719	-35.506	-0.117	0.065
-573.704	-46.931	0.211	-0.105
-572.690	118.706	-0.329	-0.413
-571.675	-200.000	0.034	-0.178
-570.661	187.639	0.084	0.128
-569.646	-114.064	0.174	0.034
-568.631	-24.056	-0.218	-0.133
-567.617	195.074	-0.082	0.127
-566.602	-34.797	-0.214	-0.119
-565.588	-200.000	-0.017	-0.198
-564.573	97.942	0.069	-0.080
-563.558	-5.296	-0.145	0.102
-562.544	60.160	-0.102	0.102
-561.529	-100.172	0.149	0.038
-560.515	605.459	-0.094	-0.238
-559.500	-96.476	0.199	-0.054
-558.485	-113.256	-0.272	0.054
-557.471	-19.391	0.223	-0.141
-556.456	144.779	0.021	-0.029
-555.442	-200.000	-0.026	0.124
-554.427	627.305	0.100	0.257
-553.412	-38.667	-0.263	-0.141
-552.398	-139.402	-0.062	-0.007
-551.383	800.000	0.026	-0.112
-550.369	85.584	0.017	0.019
-549.354	-79.334	0.185	-0.064
-548.339	-130.885	-0.093	-0.013
-547.325	-35.296	-0.208	0.115
-546.310	74.459	0.116	-0.124
-545.296	-42.627	0.105	0.054
-544.281	-200.000	-0.067	-0.396
-543.266	-21.005	-0.185	0.115
-542.252	39.190	-0.133	0.121
-541.237	-16.549	0.258	-0.166
-540.223	19.883	-0.162	-0.133
-539.208	-159.444	-0.257	-0.015
-538.193	208.509	0.259	0.412
-537.179	-200.000	-0.030	-0.151
-536.164	-100.080	-0.202	-0.051
-535.150	-112.036	0.543	0.111
-534.135	-200.000	-0.017	0.127
-533.121	130.349	-0.152	0.198
-532.106	800.000	-0.104	0.301
-531.091	-58.966	0.111	-0.049
-530.077	47.548	-0.151	-0.143
-529.062	800.000	-0.070	-0.214
-528.048	97.415	0.111	-0.129
-527.033	-50.303	0.159	0.077
-526.018	-119.439	-0.332	0.059
-525.004	245.337	-0.107	0.183
-523.989	115.690	0.045	-0.056
-522.975	49.671	-0.081	-0.077
-521.960	42.694	-0.253	-0.234
-520.945	-200.000	-0.019	-0.239
-519.931	-200.000	0.062	-0.492
-518.916	92.611	-0.163	-0.187
-517.902	163.217	0.151	0.216
-516.887	104.945	0.164	-0.197
-515.872	-200.000	-0.028	-0.126
-514.858	800.000	-0.018	-0.072
-513.843	705.828	0.079	0.212
-512.829	581.820	-0.053	-0.132
-511.814	206.461	0.069	0.110
-510.799	-200.000	0.032	0.178
-509.785	18.057	0.267	-0.217
-508.770	-64.063	0.236	0.098
-507.756	-49.646	0.174	-0.084
-506.741	41.126	0.166	0.153
-505.726	-0.615	0.323	-0.233
-504.712	645.686	-0.123	-0.320
-503.697	800.000	0.057	0.170
-502.683	-80.213	-0.072	0.025
-501.668	-65.834	-0.037	0.015
-500.653	-200.000	-0.034	0.163
-499.639	32.910	-0.142	-0.125
-498.624	282.924	-0.084	0.154
-497.610	211.330	-0.022	0.035
-496.595	-200.000	0.046	0.504
-495.581	-25.567	-0.237	0.142
-494.566	-110.897	-0.159	-0.033
-493.551	193.816	-0.081	-0.124
-492.537	78.470	-0.186	0.202
-491.522	335.754	0.151	-0.297
-490.508	58.401	-0.148	-0.147
-489.493	-200.000	0.008	0.118
-488.478	383.553	0.151	0.316
-487.464	-56.296	-0.388	0.175
-486.449	-153.060	-0.449	0.032
-485.435	-23.421	0.165	-0.100
-484.420	17.865	-0.353	0.285
-483.405	800.000	0.146	-0.426
-482.391	-94.773	-0.043	-0.012
-481.376	63.732	-0.073	0.075
-480.362	-124.221	0.314	-0.050
-479.347	-123.730	-0.152	0.024
-478.332	-123.650	0.492	-0.079
-477.318	793.652	-0.024	0.067
-476.303	20.786	-0.216	-0.177
-475.289	290.310	0.098	0.180
-474.274	-90.261	-0.270	0.080
-473.259	1.805	0.286	0.210
-472.245	362.504	0.051	0.103
-471.230	80.704	0.151	-0.165
-470.216	-200.000	0.027	0.283
-469.201	-149.795	0.521	-0.041
-468.186	-30.420	0.417	0.240
-467.172	-200.000	-0.026	0.124
-466.157	-200.000	-0.048	0.345
-465.143	-200.000	0.058	-0.288
-464.128	224.080	0.090	-0.147
-463.113	800.000	0.056	-0.176
-462.099	-89.430	-0.200	-0.060
-461.084	53.602	-0.281	-0.274
-460.070	-200.000	-0.018	0.146
-459.055	-20.757	-0.092	0.057
-458.040	-100.001	-0.189	0.048
-457.026	-130.827	0.246	0.034
-456.011	-90.779	0.263	-0.077
-454.997	59.896	-0.070	0.071
-453.982	147.312	0.107	0.146
-452.968	171.444	-0.194	0.282
-451.953	-200.000	0.011	0.279
-450.938	-7.207	-0.283	-0.195
-449.924	331.132	0.043	0.085
-448.909	-200.000	0.040	-0.273
-447.895	-14.198	0.131	0.086
-446.880	800.000	-0.129	0.409
-445.865	171.938	0.191	-0.279
-444.851	-143.715	-0.385	-0.037
-443.836	200.834	0.235	-0.367
-442.822	800.000	0.093	-0.338
-441.807	-52.724	0.238	-0.111
-440.792	-18.318	0.278	-0.176
-439.778	-59.758	-0.044	-0.019
-438.763	-138.733	0.063	0.007
-437.749	23.168	-0.161	0.134
-436.734	-82.871	-0.232	0.076
-435.719	-200.000	-0.037	-0.225
-434.705	38.259	-0.220	0.199
-433.690	-200.000	0.032	-0.229
-432.676	-99.885	-0.065	-0.016
-431.661	-200.000	-0.068	-0.342
-430.646	-81.796	-0.111	-0.037
-429.632	800.000	0.025	0.106
-428.617	315.972	0.155	0.297
-427.603	800.000	0.035	0.108
-426.588	12.111	-0.175	-0.136
-425.573	-36.639	0.109	0.059
-424.559	203.368	0.114	0.179
-423.544	-142.245	-0.237	-0.024
-422.530	-102.860	-0.378	-0.091
-421.515	800.000	0.040	0.135
-420.500	-200.000	-0.036	-0.167
-419.486	-200.000	0.014	-0.303
-418.471	-200.000	-0.070	-0.414
-417.457	-128.089	0.172	-0.025
-416.442	61.996	0.151	-0.152
-415.428	-77.026	0.208	-0.074
-414.413	-152.607	0.330	0.024
-413.398	-80.543	-0.059	0.020
-412.384	-83.030	0.219	0.071
-411.369	-36.543	-0.172	0.093
-410.355	-3.642	0.169	0.119
-409.340	187.338	0.126	0.190
-408.325	-200.000	-0.022	0.167
-407.311	-41.689	-0.095	0.049
-406.296	11.293	0.176	-0.136
-405.282	63.262	0.103	0.104
-404.267	451.478	-0.029	0.065
-403.252	-107.826	0.146	0.032
-402.238	-200.000	-0.032	-0.363
-401.223	116.872	0.221	0.275
-400.209	800.000	0.056	-0.174
-399.194	800.000	0.077	0.247
-398.179	68.639	0.069	0.072
-397.165	-69.643	-0.204	-0.079
-396.150	-27.324	-0.156	0.092
-395.136	124.230	0.124	-0.158
-394.121	-181.151	-0.156	0.003
-393.106	37.306	-0.416	-0.373
-392.092	-200.000	-0.038	0.194
-391.077	-25.876	-0.075	-0.045
-390.063	-200.000	-0.018	0.376
-389.048	78.595	-0.109	0.118
-388.033	-200.000	-0.038	-0.315
-387.019	-61.855	0.144	-0.061
-386.004	-74.594	-0.353	0.128
-384.990	-180.214	-0.387	-0.008
-383.975	-13.322	0.054	-0.036
-382.960	-122.207	0.203	0.034
-381.946	-72.983	-0.300	0.111
-380.931	-8.198	0.380	-0.259
-379.917	-68.889	-0.204	-0.080
-378.902	-15.310	0.070	0.045
-377.888	-90.001	-0.173	0.051
-376.873	-150.642	-0.103	-0.008
-375.858	-53.089	0.254	-0.118
-374.844	800.000	0.035	0.155
-373.829	86.896	0.321	0.358
-372.815	-108.792	-0.259	-0.056
-371.800	800.000	-0.026	0.082
-370.785	800.000	-0.113	0.341
-369.771	800.000	0.062	-0.241
-368.756	87.706	0.329	-0.368
-367.742	-70.059	-0.363	-0.140
-366.727	13.053	0.292	-0.228
-365.712	-200.000	-0.006	-0.123
-364.698	4.125	-0.210	0.155
-363.683	-195.423	0.083	0.001
-362.669	132.179	-0.092	-0.120
-361.654	389.600	0.065	0.137
-360.639	45.114	0.045	-0.042
-359.625	-6.872	0.131	0.090
-358.610	-124.938	-0.165	-0.026
-357.596	-41.686	-0.363	0.188
-356.581	166.115	-0.224	0.320
-355.566	-10.299	0.143	0.096
-354.552	-68.558	-0.015	-0.006
-353.537	220.187	0.065	0.105
-352.523	-97.465	0.047	-0.012
-351.508	173.261	0.156	0.227
-350.493	207.933	0.079	0.125
-349.479	132.526	-0.041	0.053
-348.464	209.365	0.160	-0.253
-347.450	-200.000	-0.008	0.319
-346.435	-21.209	0.111	-0.069
-345.420	-200.000	-0.100	0.555
-344.406	703.956	-0.104	-0.277
-343.391	162.397	0.100	0.142
-342.377	196.106	0.144	0.221
-341.362	29.790	-0.050	0.043
-340.348	800.000	0.064	-0.223
-339.333	-200.000	-0.021	-0.135
-338.318	-109.553	-0.391	0.083
-337.304	-200.000	-0.023	-0.138
-336.289	-120.479	-0.218	0.037
-335.275	73.492	0.109	0.115
-334.260	269.401	-0.045	-0.080
-333.245	800.000	0.157	0.618
-332.231	-118.308	-0.152	0.027
-331.216	-50.374	0.244	-0.116
-330.202	-126.440	-0.244	0.037
-329.187	-35.388	-0.266	0.146
-328.172	-56.899	-0.127	-0.057
-327.158	800.000	-0.098	-0.303
-326.143	-44.334	0.421	-0.213
-325.129	73.572	-0.192	-0.203
-324.114	-200.000	0.011	-0.235
-323.099	-179.693	0.121	-0.003
-322.085	-81.862	0.329	-0.109
-321.070	-200.000	0.015	-0.285
-320.056	165.540	0.078	-0.112
-319.041	83.167	0.053	0.058
-318.026	93.677	0.252	-0.288
-317.012	800.000	0.138	0.499
-315.997	-46.767	0.133	0.066
-314.983	800.000	-0.034	-0.125
-313.968	365.771	-0.126	0.256
-312.953	-200.000	-0.001	-0.387
-311.939	-200.000	-0.027	-0.203
-310.924	334.163	0.174	-0.340
-309.910	-10.113	-0.188	-0.126
-308.895	93.050	-0.098	-0.112
-307.880	2.184	-0.036	0.026
-306.866	132.861	0.247	-0.321
-305.851	13.982	0.383	0.300
-304.837	-165.553	0.226	-0.010
-303.822	-20.467	-0.100	0.062
-302.807	104.978	-0.273	-0.325
-301.793	800.000	0.042	0.152
-300.778	113.247	-0.189	-0.231
-299.764	193.899	0.191	0.292
-298.749	56.931	0.224	0.220
-297.735	-200.000	0.005	0.257
-296.720	800.000	-0.171	-0.662
-295.705	-200.000	0.031	0.341
-294.691	-200.000	0.005	-0.281
-293.676	-53.621	0.093	-0.043
-292.662	-122.036	0.131	0.022
-291.647	-175.784	0.091	-0.002
-290.632	-93.091	0.207	0.058
-289.618	47.789	-0.135	0.127
-288.603	-102.763	-0.258	-0.062
-287.589	-85.639	0.266	-0.083
-286.574	-16.245	-0.251	0.161
-285.559	-149.900	-0.144	0.011
-284.545	-200.000	-0.081	0.404
-283.530	159.014	-0.168	-0.236
-282.516	-200.000	-0.005	-0.063
-281.501	-120.017	0.236	0.041
-280.486	-84.013	-0.227	0.073
-279.472	-120.446	-0.307	-0.053
-278.457	-56.760	0.216	-0.096
-277.443	-91.479	-0.220	0.063
-276.428	773.672	0.050	0.138
-275.413	800.000	-0.053	0.227
-274.399	297.145	0.123	-0.227
-273.384	-65.670	-0.241	-0.097
-272.370	-200.000	-0.020	-0.134
-271.355	800.000	-0.060	-0.224
-270.340	-76.782	-0.181	-0.064
-269.326	310.120	-0.202	-0.381
-268.311	130.691	0.309	0.398
-267.297	800.000	-0.006	0.026
-266.282	253.166	0.137	0.236
-265.267	-38.440	-0.257	-0.137
-264.253	-32.432	0.219	0.123
-263.238	-156.980	-0.271	-0.017
-262.224	-120.923	0.091	0.015
-261.209	233.252	-0.144	-0.238
-260.195	-200.000	0.037	-0.229
-259.180	-99.835	0.375	0.094
-258.165	44.263	0.256	-0.237
-257.151	-200.000	0.353	0.000
-256.136	-99.658	0.037	0.009
-255.122	-116.053	0.250	-0.047
-254.107	410.330	0.063	0.134
-253.092	-64.429	-0.172	0.070
-252.078	77.730	-0.173	0.186
-251.063	267.256	-0.242	-0.426
-250.049	18.491	0.234	-0.188
-249.034	402.842	0.065	0.137
-248.019	-64.497	0.169	-0.069
-247.005	-142.249	-0.260	-0.026
-245.990	251.203	-0.073	-0.125
-244.976	-200.000	-0.001	0.051
-243.961	-5.295	-0.197	-0.136
-242.946	-200.000	-0.039	-0.179
-241.932	11.669	-0.186	-0.144
-240.917	292.165	0.088	-0.162
-239.903	177.816	0.135	0.198
-238.888	-125.702	0.570	0.087
-237.873	-20.691	-0.176	0.108
-236.859	11.250	-0.045	-0.035
-235.844	-200.000	0.024	0.286
-234.830	-83.233	0.061	-0.020
-233.815	323.212	-0.070	-0.134
-232.800	373.043	-0.077	-0.156
-231.786	-97.827	0.278	-0.072
-230.771	-200.000	-0.004	0.316
-229.757	115.709	-0.282	0.346
-228.742	680.523	0.133	0.348
-227.727	800.000	0.033	-0.093
-226.713	10.628	0.050	-0.038
-225.698	187.156	0.080	0.119
-224.684	-200.000	0.009	0.202
-223.669	-164.346	-0.257	-0.012
-222.655	-79.196	0.238	-0.081
-221.640	213.316	-0.039	-0.062
-220.625	-200.000	-0.001	0.180
-219.611	-117.313	0.381	0.069
-218.596	-57.487	0.056	0.025
-217.582	408.134	0.063	-0.134
-216.567	-72.471	-0.331	-0.123
-215.552	-58.351	0.383	-0.167
-214.538	187.675	-0.218	0.327
-213.523	99.052	-0.085	-0.099
-212.509	-50.840	0.193	-0.091
-211.494	-31.586	-0.139	-0.078
-210.479	-200.000	-0.000	0.132
-209.465	-200.000	0.013	0.098
-208.450	351.225	-0.091	0.181
-207.436	-200.000	0.022	-0.101
-206.421	-157.549	-0.321	0.019
-205.406	-149.457	-0.051	0.004
-204.392	88.644	0.054	-0.060
-203.377	-54.455	0.169	0.077
-202.363	587.469	0.135	-0.335
-201.348	800.000	0.073	-0.228
-200.333	53.559	0.068	-0.065
-199.319	-126.118	0.108	-0.016
-198.304	49.476	-0.172	0.162
-197.290	-83.209	0.185	-0.060
-196.275	-148.692	0.197	-0.016
-195.260	-182.742	0.165	0.003
-194.246	-60.112	0.190	-0.081
-193.231	-200.000	-0.003	0.149
-192.217	-2.966	-0.253	-0.177
-191.202	-200.000	0.004	-0.026
-190.187	14.954	0.098	-0.077
-189.173	-109.737	0.128	-0.027
-188.158	-95.360	-0.186	0.050
-187.144	-107.299	0.154	-0.034
-186.129	0.976	-0.089	0.064
-185.114	244.638	0.047	0.079
-184.100	-141.344	0.145	-0.015
-183.085	-200.000	-0.007	-0.196
-182.071	800.000	-0.045	0.173
-181.056	168.621	-0.251	0.359
-180.042	-32.901	0.246	-0.137
-179.027	-200.000	-0.003	-0.042
-178.012	-21.542	-0.172	-0.105
-176.998	-97.000	0.255	-0.067
-175.983	-200.000	-0.029	0.146
-174.969	20.678	-0.290	-0.236
-173.954	-157.489	0.248	-0.015
-172.939	-6.339	0.112	0.077
-171.925	-72.354	-0.069	0.026
-170.910	-77.585	-0.164	-0.057
-169.896	-102.103	0.205	-0.050
-168.881	188.331	-0.097	0.145
-167.866	246.504	-0.151	0.256
-166.852	136.609	0.059	-0.077
-165.837	800.000	-0.021	-0.082
-164.823	-71.307	-0.275	0.103
-163.808	800.000	0.016	-0.061
-162.793	85.513	-0.291	0.321
-161.779	-200.000	-0.013	0.195
-160.764	115.783	-0.161	-0.198
-159.750	108.060	-0.070	0.083
-158.735	800.000	0.097	0.310
-157.720	-63.670	0.097	-0.040
-156.706	-6.031	-0.076	0.052
-155.691	-76.617	-0.152	-0.053
-154.677	-6.571	0.155	0.106
-153.662	94.330	-0.125	-0.142
-152.647	157.149	-0.131	-0.182
-151.633	-200.000	0.051	-0.281
-150.618	643.888	0.092	0.236
-149.604	278.238	-0.077	-0.137
-148.589	10.293	0.143	0.109
-147.574	-63.982	0.170	-0.070
-146.560	-200.000	-0.032	-0.316
-145.545	-58.381	0.244	0.106
-144.531	165.881	-0.185	-0.262
-143.516	-56.177	-0.364	0.162
-142.502	800.000	-0.076	0.263
-141.487	667.232	0.059	0.154
-140.472	-57.325	-0.273	-0.120
-139.458	208.301	0.116	0.181
-138.443	-105.099	-0.336	-0.077
-137.429	-8.471	-0.141	0.095
-136.414	63.118	-0.011	-0.011
-135.399	800.000	-0.138	-0.404
-134.385	310.809	0.075	-0.141
-133.370	1.508	0.570	0.410
-132.356	800.000	0.018	-0.054
-131.341	72.913	0.172	-0.180
-130.326	18.776	-0.247	0.198
-129.312	-108.035	-0.442	-0.096
-128.297	0.917	0.258	0.185
-127.283	17.471	0.025	-0.020
-126.268	510.705	0.040	-0.093
-125.253	-72.394	-0.211	0.078
-124.239	800.000	0.095	-0.372
-123.224	-102.874	0.448	-0.106
-122.210	-72.360	0.190	-0.071
