DTS Sentinel unit serial number:	SN413079Multiplexer serial number:	ORYXHardware model number:	OX4-SRSoftware version number:	ORYX F/W v4.00 Oryx Data Collector v3.7.2.0data status	okinstallation	princeton_trtdifferential loss correction	single-endedforward channel	channel 4reverse channel	N/Adate	2019/09/13time	08:57:34forward acquisition time	60.00reverse acquisition time	0.00gamma	496.2192k internal	0.2314k external	0.2314temperature offset calibration	1.0194default loss term (dB/km)	0.3790temperature slope calibration	1.0000multiplexer offset coefficient	1.0000multiplexer slope coefficient	1.0000fibre end	0.00T internal ref (°C)	28.31T ext. ref 1 (°C)	4.34T ext. ref 2 (°C)	25.44length (m)	temperature (°C)	Stokes	anti-Stokes-747.200	800.000	-0.066	0.282
-746.185	-200.000	0.019	0.242
-745.171	-131.391	-0.257	-0.034
-744.156	-200.000	0.029	-0.298
-743.142	-200.000	-0.014	-0.104
-742.127	621.825	-0.038	0.098
-741.112	-115.610	-0.324	-0.062
-740.098	369.357	-0.195	0.400
-739.083	-58.243	-0.167	-0.074
-738.069	79.769	-0.364	0.396
-737.054	-200.000	-0.003	-0.278
-736.039	-136.678	-0.323	-0.038
-735.025	-200.000	0.000	0.041
-734.010	-200.000	0.034	-0.228
-732.996	-147.565	0.111	0.009
-731.981	-84.006	0.374	0.120
-730.966	-200.000	-0.023	0.156
-729.952	-200.000	-0.011	-0.151
-728.937	378.819	-0.096	-0.198
-727.923	-37.443	-0.317	0.171
-726.908	28.802	-0.113	0.097
-725.894	141.774	0.147	-0.197
-724.879	352.576	-0.099	-0.200
-723.864	-55.796	0.161	-0.073
-722.850	-84.105	0.231	0.074
-721.835	-14.983	-0.171	-0.111
-720.821	-200.000	-0.032	-0.332
-719.806	-34.685	-0.093	0.052
-718.791	35.700	0.156	0.139
-717.777	350.253	-0.043	0.087
-716.762	-71.957	-0.185	0.070
-715.748	11.678	0.215	0.167
-714.733	645.251	0.099	-0.257
-713.718	48.395	-0.099	0.094
-712.704	183.850	0.084	0.126
-711.689	645.865	0.078	-0.202
-710.675	244.418	0.138	-0.234
-709.660	-36.088	-0.141	-0.077
-708.645	89.413	0.061	-0.069
-707.631	-58.120	-0.104	0.046
-706.616	-0.551	0.248	-0.178
-705.602	-200.000	0.001	-0.228
-704.587	23.857	0.157	-0.131
-703.572	140.075	-0.193	-0.258
-702.558	54.916	-0.154	0.150
-701.543	-62.606	-0.192	-0.081
-700.529	800.000	0.013	0.056
-699.514	-143.244	0.205	0.020
-698.499	-200.000	0.026	0.601
-697.485	102.176	0.060	0.071
-696.470	177.202	-0.056	0.083
-695.456	-200.000	0.051	-0.622
-694.441	-200.000	0.012	-0.193
-693.426	-58.017	0.334	-0.148
-692.412	36.592	-0.174	0.156
-691.397	609.572	-0.058	-0.146
-690.383	-200.000	0.017	-0.371
-689.368	119.240	-0.169	-0.212
-688.354	82.230	-0.264	-0.289
-687.339	-36.120	-0.258	-0.141
-686.324	92.631	0.196	-0.224
-685.310	-14.739	0.384	-0.250
-684.295	27.536	-0.216	-0.184
-683.281	-160.726	-0.259	0.014
-682.266	267.932	-0.127	0.224
-681.251	-200.000	0.070	-0.464
-680.237	771.148	0.113	-0.310
-679.222	-83.931	0.078	0.025
-678.208	-14.374	-0.240	0.156
-677.193	-60.589	0.077	0.033
-676.178	-48.308	-0.188	0.091
-675.164	-200.000	-0.027	0.231
-674.149	42.684	-0.130	0.120
-673.135	800.000	0.055	0.190
-672.120	282.609	-0.109	-0.198
-671.105	4.773	0.144	-0.107
-670.091	195.868	-0.080	0.123
-669.076	8.541	-0.102	-0.077
-668.062	259.545	-0.104	-0.182
-667.047	348.831	-0.235	0.469
-666.032	38.840	0.195	-0.176
-665.018	247.016	0.220	-0.375
-664.003	23.248	0.216	0.179
-662.989	87.880	-0.149	-0.167
-661.974	92.673	-0.251	-0.286
-660.959	-62.249	-0.419	0.176
-659.945	-173.333	0.188	0.006
-658.930	-117.895	0.441	-0.080
-657.916	-200.000	0.016	-0.317
-656.901	-200.000	0.028	0.179
-655.886	560.473	-0.053	0.128
-654.872	-139.781	0.323	0.035
-653.857	-2.523	-0.052	-0.036
-652.843	800.000	0.036	0.102
-651.828	13.811	-0.123	0.096
-650.814	762.012	0.090	0.246
-649.799	249.172	-0.024	-0.042
-648.784	-32.362	-0.359	0.202
-647.770	-52.554	0.118	-0.055
-646.755	-72.412	0.133	-0.050
-645.741	-64.523	0.295	0.121
-644.726	776.812	0.060	0.164
-643.711	-174.482	-0.210	0.006
-642.697	348.628	-0.097	0.194
-641.682	189.744	-0.097	-0.146
-640.668	-141.934	0.523	-0.053
-639.653	-200.000	0.013	-0.315
-638.638	241.843	-0.083	0.140
-637.624	-81.805	0.170	-0.056
-636.609	-200.000	0.045	0.221
-635.595	37.355	0.225	-0.201
-634.580	28.335	0.167	0.142
-633.565	-36.349	-0.039	0.021
-632.551	-13.614	-0.054	-0.035
-631.536	-6.792	0.477	-0.328
-630.522	18.775	0.228	-0.185
-629.507	-55.451	-0.151	-0.068
-628.492	-36.865	0.059	-0.032
-627.478	1.150	-0.097	0.070
-626.463	46.750	-0.235	-0.220
-625.449	-158.203	0.201	-0.012
-624.434	78.507	0.182	-0.196
-623.419	-200.000	-0.004	-0.111
-622.405	-4.265	-0.059	0.041
-621.390	220.942	-0.224	0.363
-620.376	82.651	0.095	0.104
-619.361	14.017	-0.134	-0.105
-618.346	478.805	-0.135	0.308
-617.332	-68.605	0.453	-0.177
-616.317	-88.032	-0.231	-0.070
-615.303	-200.000	-0.040	0.193
-614.288	-69.334	-0.057	0.022
-613.273	-200.000	-0.017	-0.101
-612.259	142.931	-0.110	-0.147
-611.244	-76.719	-0.186	-0.066
-610.230	50.793	-0.287	-0.274
-609.215	-51.521	0.198	-0.093
-608.201	-66.022	0.116	0.047
-607.186	-46.399	-0.228	-0.113
-606.171	-86.236	0.042	0.013
-605.157	-132.347	-0.233	-0.030
-604.142	-128.101	0.395	-0.057
-603.128	23.538	-0.180	-0.149
-602.113	42.755	0.193	0.177
-601.098	271.297	0.095	-0.169
-600.084	391.700	-0.140	0.293
-599.069	-200.000	-0.002	-0.159
-598.055	31.444	0.107	0.093
-597.040	800.000	0.059	0.195
-596.025	800.000	-0.107	-0.384
-595.011	50.658	-0.246	-0.235
-593.996	68.926	-0.060	0.062
-592.982	800.000	-0.075	-0.221
-591.967	800.000	-0.162	0.499
-590.952	-200.000	0.004	0.232
-589.938	-137.386	-0.311	0.036
-588.923	-200.000	-0.027	0.217
-587.909	458.067	-0.037	-0.082
-586.894	-200.000	-0.004	0.101
-585.879	-179.933	-0.198	0.004
-584.865	47.352	-0.168	0.158
-583.850	130.605	-0.171	0.221
-582.836	35.093	0.213	0.188
-581.821	47.283	0.036	-0.034
-580.806	800.000	0.044	0.130
-579.792	350.815	0.154	0.306
-578.777	-157.219	-0.291	-0.018
-577.763	-149.411	0.277	0.022
-576.748	-77.477	-0.207	-0.072
-575.733	85.665	-0.055	-0.061
-574.719	8.969	-0.246	-0.187
-573.704	-23.768	-0.089	-0.054
-572.690	800.000	-0.133	0.485
-571.675	-110.154	0.241	0.051
-570.661	-54.150	-0.311	0.142
-569.646	172.879	0.025	0.036
-568.631	169.822	0.042	-0.060
-567.617	349.502	0.055	-0.109
-566.602	683.589	-0.042	0.110
-565.588	-188.088	0.072	-0.001
-564.573	526.245	0.035	-0.084
-563.558	-135.417	-0.300	-0.036
-562.544	-200.000	-0.006	0.239
-561.529	-200.000	0.024	-0.181
-560.515	65.223	0.084	-0.085
-559.500	31.030	-0.275	0.238
-558.485	-25.279	-0.236	-0.141
-557.471	-117.115	-0.221	0.040
-556.456	-61.816	0.138	-0.058
-555.442	-200.000	0.043	-0.357
-554.427	-184.234	0.187	0.003
-553.412	56.409	0.382	0.374
-552.398	110.976	0.121	0.146
-551.383	460.604	0.046	0.103
-550.369	-94.853	-0.217	-0.059
-549.354	374.006	0.064	-0.132
-548.339	112.548	-0.201	0.244
-547.325	800.000	-0.029	-0.095
-546.310	58.969	0.208	0.206
-545.296	-112.788	-0.182	-0.036
-544.281	-140.863	0.110	-0.011
-543.266	15.086	0.266	-0.209
-542.252	151.572	0.075	-0.103
-541.237	97.183	-0.112	0.129
-540.223	126.719	0.098	0.125
-539.208	-200.000	0.077	-0.399
-538.193	160.528	0.110	0.154
-537.179	-94.501	-0.244	-0.067
-536.164	800.000	0.078	0.306
-535.150	-64.413	-0.054	-0.022
-534.135	-104.114	-0.091	-0.021
-533.121	-200.000	0.015	0.075
-532.106	-110.685	0.039	-0.008
-531.091	8.019	0.232	0.175
-530.077	800.000	0.044	0.150
-529.062	-51.581	0.086	-0.040
-528.048	800.000	0.020	0.068
-527.033	-17.530	0.214	-0.135
-526.018	41.473	-0.365	0.332
-525.004	-124.765	0.199	-0.031
-523.989	-200.000	0.002	0.342
-522.975	8.160	0.188	-0.142
-521.960	-12.856	0.238	-0.156
-520.945	-19.729	0.169	0.105
-519.931	-19.468	-0.171	0.107
-518.916	-178.315	-0.200	0.005
-517.902	477.064	0.096	0.219
-516.887	-200.000	0.066	0.489
-515.872	-200.000	0.021	-0.110
-514.858	-17.647	-0.181	0.114
-513.843	-6.257	-0.074	-0.051
-512.829	-99.927	-0.313	-0.078
-511.814	25.471	-0.187	0.156
-510.799	-97.235	0.176	0.046
-509.785	160.732	0.128	-0.179
-508.770	-182.591	-0.143	0.003
-507.756	414.549	0.131	-0.281
-506.741	-142.001	0.165	0.017
-505.726	648.168	0.084	0.216
-504.712	-200.000	0.022	-0.143
-503.697	800.000	0.030	0.130
-502.683	-200.000	-0.043	-0.227
-501.668	137.853	-0.271	0.356
-500.653	204.244	-0.127	-0.198
-499.639	-117.102	0.036	-0.007
-498.624	-110.249	0.017	-0.003
-497.610	363.290	0.093	-0.187
-496.595	107.460	-0.135	0.161
-495.581	-101.165	0.101	-0.025
-494.566	588.502	0.064	0.157
-493.551	-75.199	0.123	-0.044
-492.537	-67.396	0.320	-0.126
-491.522	-76.268	-0.260	0.092
-490.508	-23.625	0.098	-0.059
-489.493	-200.000	-0.007	0.172
-488.478	-90.102	-0.054	0.016
-487.464	249.746	0.043	0.073
-486.449	-110.406	-0.359	-0.075
-485.435	91.043	0.154	0.174
-484.420	27.058	-0.080	-0.067
-483.405	-17.963	-0.224	-0.141
-482.391	-20.157	0.183	-0.113
-481.376	139.059	-0.046	0.061
-480.362	-200.000	0.007	-0.137
-479.347	-106.136	-0.310	0.070
-478.332	-106.767	-0.170	0.038
-477.318	-95.771	0.442	-0.118
-476.303	-70.322	0.017	-0.007
-475.289	-76.040	-0.187	0.066
-474.274	-80.901	0.105	-0.035
-473.259	-200.000	-0.023	-0.174
-472.245	-157.739	-0.131	0.008
-471.230	46.392	-0.162	-0.151
-470.216	-200.000	0.034	0.160
-469.201	-200.000	0.019	0.158
-468.186	-114.236	-0.522	-0.101
-467.172	-200.000	0.005	-0.054
-466.157	-13.028	0.284	0.185
-465.143	-21.997	-0.355	0.216
-464.128	33.626	-0.269	0.234
-463.113	-116.498	0.070	0.013
-462.099	-200.000	0.012	0.190
-461.084	-150.725	0.101	0.008
-460.070	19.473	0.215	-0.173
-459.055	52.942	0.178	0.170
-458.040	111.361	-0.131	0.158
-457.026	409.425	-0.063	-0.134
-456.011	285.950	-0.203	0.368
-454.997	47.473	0.064	0.059
-453.982	125.261	0.118	0.149
-452.968	129.190	-0.059	-0.075
-451.953	-57.522	-0.340	-0.150
-450.938	50.332	0.104	-0.098
-449.924	-164.532	0.087	0.004
-448.909	182.356	-0.117	-0.173
-447.895	54.633	0.215	-0.207
-446.880	-159.421	-0.111	-0.006
-445.865	-66.104	-0.321	0.128
-444.851	56.970	-0.056	0.054
-443.836	-120.758	-0.261	-0.044
-442.822	-200.000	0.009	0.350
-441.807	-12.420	-0.435	0.285
-440.792	-135.541	-0.346	0.041
-439.778	464.628	0.072	0.162
-438.763	-200.000	-0.011	0.260
-437.749	-71.879	0.183	-0.068
-436.734	-200.000	-0.020	-0.145
-435.719	384.278	0.122	0.253
-434.705	-117.275	0.086	0.016
-433.690	-86.237	0.172	-0.053
-432.676	8.880	-0.111	-0.084
-431.661	197.893	0.176	0.269
-430.646	800.000	0.076	0.261
-429.632	22.198	-0.172	-0.141
-428.617	-71.239	-0.214	-0.080
-427.603	-173.244	0.071	0.002
-426.588	62.831	-0.114	-0.114
-425.573	762.569	-0.074	0.202
-424.559	769.001	0.064	0.175
-423.544	-156.650	0.143	0.009
-422.530	-187.196	-0.240	-0.003
-421.515	-86.247	0.206	-0.064
-420.500	-78.011	-0.262	0.090
-419.486	-122.909	-0.222	0.036
-418.471	-90.691	0.028	0.008
-417.457	-90.596	0.395	0.114
-416.442	-21.936	-0.152	0.092
-415.428	143.247	0.098	0.130
-414.413	-155.787	0.248	0.016
-413.398	-48.928	0.162	-0.078
-412.384	-156.543	0.076	-0.005
-411.369	-200.000	0.015	0.073
-410.355	55.586	0.044	-0.042
-409.340	-200.000	0.010	-0.186
-408.325	-60.531	-0.291	-0.123
-407.311	22.736	0.195	0.160
-406.296	-90.653	-0.136	0.039
-405.282	-200.000	0.026	0.391
-404.267	-200.000	-0.044	-0.372
-403.252	193.822	-0.092	-0.139
-402.238	505.099	-0.094	-0.219
-401.223	7.529	-0.433	-0.324
-400.209	-24.618	0.152	-0.090
-399.194	800.000	-0.035	0.113
-398.179	800.000	0.185	0.565
-397.165	-200.000	0.032	-0.210
-396.150	207.595	0.047	-0.073
-395.136	250.054	-0.172	-0.292
-394.121	-200.000	-0.305	0.000
-393.106	-99.894	-0.209	0.052
-392.092	-34.570	-0.336	-0.184
-391.077	-128.947	-0.237	0.033
-390.063	-2.187	0.063	0.044
-389.048	-33.266	-0.364	0.202
-388.033	-4.264	-0.065	0.045
-387.019	168.092	0.152	0.216
-386.004	-28.754	-0.033	0.019
-384.990	-45.368	-0.071	-0.035
-383.975	-200.000	-0.019	0.179
-382.960	-27.853	-0.053	-0.031
-381.946	94.196	0.059	-0.067
-380.931	379.097	-0.133	0.273
-379.917	21.588	-0.093	-0.075
-378.902	-122.344	-0.074	-0.012
-377.888	51.024	0.040	0.038
-376.873	-11.988	-0.134	0.087
-375.858	-200.000	-0.032	-0.197
-374.844	-91.814	0.090	-0.026
-373.829	-150.361	0.233	0.018
-372.815	37.470	0.267	0.237
-371.800	-145.647	0.458	-0.041
-370.785	75.585	-0.080	-0.085
-369.771	-160.367	-0.497	-0.027
-368.756	-200.000	0.052	-0.353
-367.742	456.376	0.207	0.459
-366.727	295.311	0.160	0.292
-365.712	-42.023	0.170	-0.087
-364.698	-75.963	-0.145	0.051
-363.683	88.907	-0.148	0.165
-362.669	-33.187	0.227	-0.126
-361.654	-73.711	-0.061	-0.022
-360.639	33.441	0.120	0.104
-359.625	-200.000	0.032	0.158
-358.610	-200.000	0.025	0.219
-357.596	800.000	-0.013	0.048
-356.581	-119.762	0.134	0.023
-355.566	467.744	-0.172	0.385
-354.552	-53.471	-0.167	-0.076
-353.537	267.656	-0.097	0.169
-352.523	-126.195	-0.424	0.063
-351.508	-42.859	0.241	-0.122
-350.493	331.911	-0.158	-0.305
-349.479	6.499	-0.288	-0.214
-348.464	-17.494	-0.227	0.142
-347.450	800.000	-0.075	0.286
-346.435	-200.000	0.001	0.015
-345.420	-164.699	0.148	0.007
-344.406	332.114	-0.121	0.234
-343.391	800.000	-0.093	0.277
-342.377	-141.821	-0.165	-0.016
-341.362	220.907	-0.267	-0.427
-340.348	800.000	-0.011	0.034
-339.333	-194.291	-0.109	0.001
-338.318	577.275	0.056	-0.137
-337.304	-140.936	0.188	0.019
-336.289	605.720	-0.123	-0.307
-335.275	-200.000	-0.027	0.142
-334.260	-135.640	0.328	0.039
-333.245	-200.000	0.006	0.322
-332.231	-37.245	-0.249	0.133
-331.216	-72.944	0.070	0.025
-330.202	-200.000	0.008	-0.292
-329.187	106.462	0.141	-0.167
-328.172	-68.052	0.217	0.084
-327.158	-118.838	0.168	-0.030
-326.143	109.482	-0.044	0.053
-325.129	57.028	-0.052	0.051
-324.114	-97.916	0.165	-0.042
-323.099	-124.285	0.354	-0.055
-322.085	-118.624	0.297	-0.052
-321.070	800.000	0.114	-0.333
-320.056	17.927	-0.163	0.130
-319.041	-200.000	-0.034	-0.159
-318.026	184.531	-0.328	-0.484
-317.012	-12.183	0.236	0.154
-315.997	-200.000	0.017	0.222
-314.983	800.000	-0.015	0.049
-313.968	800.000	0.046	-0.184
-312.953	205.461	0.094	-0.146
-311.939	254.900	-0.107	0.183
-310.924	-126.021	0.055	-0.008
-309.910	-200.000	0.038	-0.236
-308.895	-25.549	0.149	0.088
-307.880	13.513	-0.379	0.293
-306.866	-200.000	0.006	0.080
-305.851	128.507	-0.129	0.164
-304.837	158.895	-0.171	-0.237
-303.822	340.156	-0.099	0.192
-302.807	184.769	0.108	-0.160
-301.793	-12.824	-0.073	0.047
-300.778	-61.657	0.259	-0.108
-299.764	-5.156	0.296	-0.203
-298.749	0.367	-0.076	-0.054
-297.735	-200.000	0.050	-0.297
-296.720	-200.000	-0.029	0.216
-295.705	-93.877	-0.285	-0.078
-294.691	-131.031	0.403	0.054
-293.676	-120.134	0.664	-0.113
-292.662	187.203	0.057	-0.084
-291.647	44.759	-0.221	-0.203
-290.632	13.759	0.051	-0.039
-289.618	-156.307	-0.252	-0.016
-288.603	800.000	0.076	-0.297
-287.589	13.999	0.105	0.081
-286.574	-153.366	-0.229	0.016
-285.559	46.960	-0.080	0.074
-284.545	800.000	-0.060	0.254
-283.530	-200.000	0.048	0.386
-282.516	-200.000	0.015	-0.204
-281.501	68.346	0.267	-0.272
-280.486	463.834	0.065	-0.143
-279.472	15.810	0.123	0.096
-278.457	456.799	-0.093	0.205
-277.443	-200.000	0.079	-0.385
-276.428	49.336	0.225	-0.211
-275.413	-134.706	-0.107	0.013
-274.399	-49.799	-0.147	0.069
-273.384	28.046	0.248	-0.209
-272.370	-21.482	0.192	0.116
-271.355	2.098	-0.106	-0.076
-270.340	11.823	0.126	-0.097
-269.326	800.000	-0.018	0.050
-268.311	800.000	-0.127	0.403
-267.297	-34.506	-0.026	0.014
-266.282	15.574	0.251	0.196
-265.267	-51.751	0.123	-0.057
-264.253	63.714	0.038	0.038
-263.238	-200.000	-0.004	0.169
-262.224	-200.000	-0.067	-0.322
-261.209	373.921	0.113	-0.230
-260.195	-58.315	0.248	0.107
-259.180	50.975	0.106	-0.100
-258.165	219.716	0.121	0.192
-257.151	25.996	-0.149	0.123
-256.136	674.234	0.087	0.225
-255.122	-200.000	0.013	0.182
-254.107	-62.067	-0.337	-0.140
-253.092	-200.000	0.017	-0.121
-252.078	-147.253	0.081	-0.007
-251.063	-200.000	0.029	-0.184
-250.049	-200.000	-0.039	-0.209
-249.034	129.981	0.172	-0.218
-248.019	253.294	0.196	-0.333
-247.005	-200.000	-0.052	0.337
-245.990	-200.000	-0.012	0.206
-244.976	-93.378	0.102	0.028
-243.961	441.651	-0.149	0.324
-242.946	-87.277	0.260	-0.078
-241.932	-100.989	0.158	-0.039
-240.917	-68.163	-0.265	0.103
-239.903	-101.306	-0.255	0.062
-238.888	-200.000	0.059	0.451
-237.873	444.970	-0.026	-0.056
-236.859	-200.000	-0.055	-0.257
-235.844	-64.116	0.111	0.045
-234.830	-122.238	-0.206	-0.034
-233.815	2.681	0.027	0.020
-232.800	-200.000	-0.022	-0.249
-231.786	-200.000	-0.002	0.112
-230.771	293.272	0.145	-0.263
-229.757	-200.000	-0.021	-0.215
-228.742	-200.000	0.001	-0.221
-227.727	-200.000	-0.002	0.085
-226.713	274.635	0.237	-0.416
-225.698	-30.933	-0.224	-0.126
-224.684	335.042	0.084	-0.161
-223.669	800.000	0.033	0.105
-222.655	280.210	0.147	0.261
-221.640	73.494	0.238	-0.247
-220.625	251.582	0.076	-0.128
-219.611	-74.975	0.148	-0.052
-218.596	-70.095	0.239	-0.090
-217.582	800.000	-0.112	-0.325
-216.567	181.313	-0.188	0.274
-215.552	-75.365	0.213	-0.075
-214.538	-88.901	0.003	-0.001
-213.523	-68.239	-0.368	-0.142
-212.509	-200.000	0.042	0.219
-211.494	800.000	-0.137	-0.385
-210.479	-56.663	0.133	-0.059
-209.465	-28.761	0.232	0.132
-208.450	800.000	0.076	-0.229
-207.436	-200.000	0.051	-0.494
-206.421	-83.421	-0.222	-0.071
-205.406	434.813	-0.126	0.273
-204.392	31.694	-0.096	-0.082
-203.377	-200.000	0.040	-0.282
-202.363	31.861	0.283	-0.242
-201.348	73.598	-0.140	-0.146
-200.333	-91.894	0.332	0.093
-199.319	-27.345	0.193	0.111
-198.304	-200.000	-0.010	-0.226
-197.290	-136.791	0.092	0.011
-196.275	800.000	-0.065	0.232
-195.260	2.501	0.212	-0.152
-194.246	-80.025	-0.189	-0.063
-193.231	-200.000	-0.007	-0.046
-192.217	-68.066	0.218	-0.084
-191.202	-24.216	0.195	0.115
-190.187	-200.000	-0.001	0.075
-189.173	-96.697	0.156	0.041
-188.158	48.082	0.120	0.111
-187.144	94.289	-0.314	-0.354
-186.129	-116.089	0.130	-0.024
-185.114	144.233	0.024	0.032
-184.100	-137.321	0.181	0.020
-183.085	-81.699	0.515	0.167
-182.071	-200.000	-0.045	-0.245
-181.056	1.800	0.301	-0.215
-180.042	179.506	-0.096	0.139
-179.027	800.000	0.020	-0.068
-178.012	36.538	0.038	0.033
-176.998	-6.031	-0.330	0.224
-175.983	-195.787	-0.140	0.001
-174.969	800.000	0.113	-0.469
-173.954	-47.339	-0.258	-0.124
-172.939	-48.489	0.069	0.033
-171.925	140.799	0.081	-0.106
-170.910	57.691	0.164	-0.159
-169.896	800.000	0.012	-0.034
-168.881	-200.000	-0.005	-0.229
-167.866	800.000	-0.055	0.201
-166.852	-122.330	0.148	0.024
-165.837	-1.761	-0.255	-0.178
-164.823	-54.533	-0.284	0.127
-163.808	39.687	-0.151	-0.134
-162.793	-200.000	-0.021	-0.248
-161.779	-77.963	0.339	0.116
-160.764	-200.000	0.008	-0.286
-159.750	642.221	-0.093	-0.234
-158.735	-44.534	-0.094	0.047
-157.720	-91.169	0.295	0.084
-156.706	204.305	0.085	0.130
-155.691	800.000	-0.035	0.102
-154.677	-200.000	-0.029	0.000
-153.662	133.807	0.108	-0.138
-152.647	-88.428	-0.295	-0.087
-151.633	57.195	0.202	-0.195
-150.618	-53.905	0.232	-0.105
-149.604	800.000	0.026	0.106
-148.589	252.206	-0.051	-0.085
-147.574	-186.780	-0.104	0.001
-146.560	-134.898	-0.192	-0.023
-145.545	49.626	-0.260	-0.243
-144.531	55.116	0.131	-0.125
-143.516	-26.005	0.344	-0.200
-142.502	800.000	0.146	0.452
-141.487	800.000	0.049	0.193
-140.472	-96.963	-0.031	0.008
-139.458	-200.000	0.154	0.000
-138.443	51.644	0.212	-0.200
-137.429	-3.543	0.064	-0.044
-136.414	593.809	-0.181	-0.444
-135.399	800.000	-0.138	-0.411
-134.385	800.000	0.117	-0.393
-133.370	752.399	0.038	-0.102
-132.356	49.840	0.292	-0.273
-131.341	-10.438	0.159	-0.104
-130.326	-71.365	-0.213	0.079
-129.312	47.524	0.210	0.194
-128.297	-129.028	0.201	0.028
-127.283	171.417	0.154	-0.219
-126.268	-93.805	0.196	-0.053
-125.253	-33.699	-0.272	0.148
-124.239	-62.525	-0.175	-0.072
-123.224	203.411	-0.141	0.216
-122.210	-200.000	0.017	0.241
-121.195	204.921	0.220	0.338
-120.180	-200.000	0.046	0.329
