DTS Sentinel unit serial number:	SN413079Multiplexer serial number:	ORYXHardware model number:	OX4-SRSoftware version number:	ORYX F/W v4.00 Oryx Data Collector v3.7.2.0data status	okinstallation	princeton_trtdifferential loss correction	single-endedforward channel	channel 4reverse channel	N/Adate	2019/09/14time	05:25:35forward acquisition time	60.00reverse acquisition time	0.00gamma	496.2192k internal	0.2320k external	0.2320temperature offset calibration	1.0134default loss term (dB/km)	0.3790temperature slope calibration	1.0000multiplexer offset coefficient	1.0000multiplexer slope coefficient	1.0000fibre end	0.00T internal ref (°C)	26.94T ext. ref 1 (°C)	3.39T ext. ref 2 (°C)	21.92length (m)	temperature (°C)	Stokes	anti-Stokes-747.200	800.000	0.088	0.358
-746.185	95.505	-0.037	-0.042
-745.171	-194.381	-0.305	-0.002
-744.156	85.964	0.147	-0.163
-743.142	-98.625	0.051	0.013
-742.127	-147.778	-0.162	-0.014
-741.112	800.000	-0.067	0.200
-740.098	-200.000	0.001	-0.026
-739.083	-200.000	0.044	0.198
-738.069	44.043	-0.283	0.263
-737.054	-99.169	0.132	0.034
-736.039	170.828	-0.164	-0.237
-735.025	71.612	-0.234	-0.245
-734.010	-109.186	-0.190	0.041
-732.996	21.875	-0.321	-0.265
-731.981	800.000	0.098	0.287
-730.966	69.323	-0.150	0.156
-729.952	-111.418	-0.306	-0.063
-728.937	126.843	0.076	-0.098
-727.923	-43.522	0.242	-0.123
-726.908	-21.226	-0.145	-0.089
-725.894	20.617	-0.103	0.085
-724.879	623.479	-0.063	-0.160
-723.864	-200.000	-0.011	0.048
-722.850	150.762	0.130	0.179
-721.835	-61.059	-0.262	-0.112
-720.821	169.062	-0.104	-0.150
-719.806	746.580	-0.129	-0.350
-718.791	-54.096	-0.215	-0.099
-717.777	335.751	-0.137	-0.269
-716.762	-96.450	-0.483	-0.129
-715.748	18.051	0.328	-0.264
-714.733	-200.000	0.009	-0.100
-713.718	-105.305	-0.233	0.054
-712.704	-131.220	-0.577	0.077
-711.689	-57.619	-0.098	-0.043
-710.675	800.000	0.159	-0.504
-709.660	-70.695	-0.137	-0.052
-708.645	-45.151	-0.137	-0.069
-707.631	52.999	0.095	-0.092
-706.616	97.690	-0.230	0.267
-705.602	71.511	0.228	0.239
-704.587	413.288	-0.037	0.079
-703.572	-200.000	-0.068	-0.325
-702.558	-44.953	-0.477	-0.240
-701.543	-200.000	-0.038	-0.200
-700.529	-100.046	-0.091	-0.023
-699.514	-113.480	0.466	-0.092
-698.499	-200.000	-0.005	-0.126
-697.485	583.884	-0.055	0.135
-696.470	23.035	-0.355	0.294
-695.456	331.994	0.090	-0.175
-694.441	69.134	-0.255	0.264
-693.426	-51.477	-0.123	-0.058
-692.412	-46.239	-0.235	-0.116
-691.397	800.000	0.053	0.173
-690.383	-59.285	-0.349	-0.152
-689.368	-200.000	0.021	-0.239
-688.354	155.570	0.089	-0.124
-687.339	-96.827	0.249	0.066
-686.324	-87.030	-0.215	0.066
-685.310	-200.000	0.044	-0.335
-684.295	-71.165	-0.202	-0.077
-683.281	149.741	0.066	-0.090
-682.266	345.400	0.069	0.137
-681.251	64.069	-0.079	-0.080
-680.237	-62.431	-0.369	0.155
-679.222	-200.000	0.023	-0.132
-678.208	-133.846	-0.184	-0.023
-677.193	-55.221	-0.260	0.118
-676.178	-115.169	-0.317	0.061
-675.164	-50.651	-0.082	-0.039
-674.149	-36.450	0.173	0.094
-673.135	-24.692	-0.374	-0.224
-672.120	156.004	0.096	-0.134
-671.105	40.917	0.143	0.130
-670.091	-128.111	0.395	-0.057
-669.076	-200.000	0.077	0.478
-668.062	-200.000	-0.025	-0.196
-667.047	-13.674	-0.279	0.182
-666.032	68.054	-0.039	0.040
-665.018	-186.002	-0.244	0.004
-664.003	154.790	0.232	-0.322
-662.989	-138.162	-0.282	0.031
-661.974	-96.301	0.066	0.018
-660.959	26.409	0.156	-0.131
-659.945	800.000	-0.022	-0.094
-658.930	-53.025	-0.003	-0.002
-657.916	-49.955	0.089	0.043
-656.901	662.542	0.142	-0.368
-655.886	657.830	-0.063	0.164
-654.872	-168.474	-0.117	0.005
-653.857	-200.000	-0.035	0.158
-652.843	176.984	0.069	0.101
-651.828	-200.000	-0.036	0.392
-650.814	205.162	-0.172	0.269
-649.799	-144.624	-0.363	0.034
-648.784	-17.370	-0.110	-0.069
-647.770	327.475	-0.079	-0.152
-646.755	198.299	-0.073	0.112
-645.741	-200.000	-0.010	-0.146
-644.726	143.893	0.273	-0.367
-643.711	-113.262	-0.290	0.057
-642.697	-26.159	0.299	-0.177
-641.682	158.242	-0.188	0.262
-640.668	259.794	0.036	0.063
-639.653	755.573	0.125	-0.341
-638.638	32.538	0.106	-0.092
-637.624	-200.000	0.019	-0.093
-636.609	-145.872	-0.485	0.043
-635.595	112.547	-0.122	0.149
-634.580	-128.228	0.360	-0.052
-633.565	341.926	-0.181	-0.356
-632.551	785.697	0.126	-0.347
-631.536	-45.768	-0.158	0.079
-630.522	-200.000	0.002	-0.028
-629.507	34.931	0.040	-0.035
-628.492	-200.000	0.016	0.091
-627.478	94.574	0.213	-0.244
-626.463	87.533	0.042	-0.047
-625.449	119.020	0.196	0.244
-624.434	-101.684	0.303	0.074
-623.419	-173.532	-0.060	0.002
-622.405	-103.019	0.105	0.025
-621.390	76.019	0.179	-0.190
-620.376	13.892	-0.252	-0.198
-619.361	-200.000	-0.056	0.361
-618.346	-200.000	-0.016	0.253
-617.332	-32.275	0.081	-0.045
-616.317	-112.840	-0.295	-0.059
-615.303	-83.217	0.163	0.053
-614.288	-47.049	-0.162	-0.079
-613.273	627.568	0.178	-0.453
-612.259	-65.908	-0.161	-0.065
-611.244	800.000	0.021	0.081
-610.230	355.508	-0.098	0.196
-609.215	-95.802	0.172	-0.046
-608.201	-200.000	-0.009	-0.063
-607.186	-119.265	-0.111	0.019
-606.171	-93.583	-0.116	-0.032
-605.157	-88.296	-0.142	-0.043
-604.142	-200.000	-0.038	0.184
-603.128	-200.000	0.375	0.000
-602.113	-200.000	-0.048	0.248
-601.098	146.078	0.063	0.086
-600.084	137.235	0.033	-0.043
-599.069	419.964	-0.148	-0.319
-598.055	501.721	0.072	-0.168
-597.040	15.883	0.173	-0.137
-596.025	-38.878	-0.291	-0.154
-595.011	-125.895	-0.313	0.047
-593.996	79.045	-0.230	0.248
-592.982	-156.007	-0.094	0.006
-591.967	-60.033	0.149	-0.064
-590.952	40.992	0.213	-0.194
-589.938	-36.286	-0.372	-0.201
-588.923	138.052	0.160	-0.210
-587.909	28.936	-0.359	-0.306
-586.894	-104.038	-0.361	-0.085
-585.879	-36.338	-0.269	0.146
-584.865	800.000	0.053	-0.202
-583.850	-51.392	-0.210	-0.099
-582.836	-114.363	-0.105	-0.020
-581.821	-17.760	-0.103	0.065
-580.806	-93.700	0.399	0.110
-579.792	-200.000	0.020	-0.273
-578.777	-84.363	0.340	0.108
-577.763	-61.798	0.165	0.069
-576.748	13.193	-0.155	-0.121
-575.733	304.213	0.106	0.198
-574.719	800.000	-0.125	-0.373
-573.704	329.965	-0.106	0.205
-572.690	79.778	0.024	-0.026
-571.675	-139.171	0.025	0.003
-570.661	228.882	0.089	0.145
-569.646	268.632	0.171	0.301
-568.631	-134.909	-0.126	0.015
-567.617	-105.702	-0.170	-0.039
-566.602	-176.426	0.238	-0.006
-565.588	-78.020	-0.211	0.073
-564.573	-50.781	0.175	-0.083
-563.558	38.382	0.182	0.163
-562.544	800.000	0.085	-0.301
-561.529	800.000	-0.061	-0.245
-560.515	15.704	-0.184	0.145
-559.500	-25.625	0.182	0.108
-558.485	-200.000	0.011	0.287
-557.471	-200.000	0.000	0.175
-556.456	98.697	-0.108	0.125
-555.442	-64.516	-0.092	0.038
-554.427	-159.529	-0.062	0.003
-553.412	49.017	-0.225	-0.212
-552.398	-200.000	0.012	-0.204
-551.383	-35.100	0.055	0.030
-550.369	800.000	0.139	-0.574
-549.354	74.021	-0.173	-0.183
-548.339	-63.980	0.152	0.062
-547.325	228.126	-0.068	-0.110
-546.310	-81.708	0.178	0.059
-545.296	800.000	0.047	0.190
-544.281	-97.758	-0.208	-0.054
-543.266	31.135	-0.083	-0.072
-542.252	254.257	-0.230	-0.395
-541.237	54.108	-0.119	0.115
-540.223	800.000	-0.031	0.108
-539.208	381.411	-0.040	-0.083
-538.193	-6.965	-0.197	-0.134
-537.179	-200.000	0.083	-0.377
-536.164	-107.218	-0.186	-0.041
-535.150	-125.491	0.284	0.043
-534.135	-69.848	-0.399	-0.153
-533.121	196.888	-0.110	0.168
-532.106	-11.364	0.114	0.075
-531.091	169.790	-0.154	0.221
-530.077	-66.128	-0.453	0.181
-529.062	-99.181	-0.159	0.040
-528.048	492.309	0.168	-0.386
-527.033	-96.512	-0.201	-0.053
-526.018	-113.419	0.080	-0.016
-525.004	-200.000	-0.040	-0.248
-523.989	-193.571	0.082	-0.001
-522.975	82.258	0.176	0.191
-521.960	-141.754	0.240	-0.024
-520.945	39.956	-0.125	-0.113
-519.931	110.629	0.223	0.269
-518.916	800.000	-0.084	0.288
-517.902	27.345	-0.119	0.100
-516.887	-115.388	0.354	0.067
-515.872	101.528	-0.167	-0.195
-514.858	-147.322	-0.621	0.053
-513.843	-158.946	-0.365	0.021
-512.829	-200.000	0.022	-0.148
-511.814	-167.737	0.332	-0.013
-510.799	-88.866	-0.110	-0.033
-509.785	-200.000	0.009	-0.209
-508.770	-145.411	0.104	0.009
-507.756	-168.116	-0.265	-0.010
-506.741	96.623	-0.178	0.204
-505.726	-57.265	0.347	-0.153
-504.712	78.281	0.182	-0.195
-503.697	425.710	0.044	0.096
-502.683	100.408	0.251	0.292
-501.668	-200.000	-0.003	-0.199
-500.653	800.000	0.025	0.106
-499.639	-58.598	-0.126	-0.055
-498.624	296.428	0.172	-0.315
-497.610	-200.000	0.002	-0.146
-496.595	-85.119	-0.592	-0.186
-495.581	1.750	0.166	0.120
-494.566	-13.134	0.302	-0.197
-493.551	-111.050	0.238	-0.049
-492.537	29.570	0.227	0.193
-491.522	-200.000	-0.010	-0.190
-490.508	110.648	-0.107	-0.129
-489.493	196.122	0.162	0.247
-488.478	-125.993	0.173	-0.026
-487.464	1.722	-0.213	-0.154
-486.449	-84.458	0.244	0.077
-485.435	800.000	-0.087	0.243
-484.420	-184.460	0.195	0.003
-483.405	-16.395	0.145	-0.092
-482.391	23.794	0.230	-0.190
-481.376	-200.000	-0.012	0.057
-480.362	57.215	0.123	-0.120
-479.347	-200.000	0.016	0.071
-478.332	493.745	-0.030	0.069
-477.318	-56.338	-0.451	0.200
-476.303	-119.599	0.311	0.054
-475.289	-200.000	-0.043	0.201
-474.274	498.531	0.017	-0.039
-473.259	209.403	-0.053	-0.083
-472.245	313.352	-0.063	-0.119
-471.230	-200.000	-0.035	-0.350
-470.216	-60.425	-0.203	-0.086
-469.201	42.078	0.275	0.250
-468.186	-46.262	-0.208	-0.102
-467.172	74.741	-0.087	-0.091
-466.157	25.735	0.226	-0.188
-465.143	-160.269	-0.282	-0.015
-464.128	-191.857	-0.158	0.002
-463.113	-103.422	0.074	0.017
-462.099	-5.120	0.098	-0.067
-461.084	592.368	0.084	-0.207
-460.070	-44.625	-0.133	0.067
-459.055	-188.742	0.209	0.003
-458.040	81.774	-0.140	-0.152
-457.026	55.508	0.114	0.110
-456.011	130.313	-0.174	-0.223
-454.997	-200.000	-0.001	0.196
-453.982	-200.000	-0.003	-0.028
-452.968	396.048	0.124	0.258
-451.953	-155.609	0.433	-0.028
-450.938	415.322	-0.021	-0.045
-449.924	-76.933	0.141	-0.049
-448.909	-145.111	-0.027	0.002
-447.895	-133.606	-0.374	-0.047
-446.880	107.607	0.172	0.204
-445.865	-157.290	0.114	-0.007
-444.851	800.000	0.082	0.227
-443.836	-200.000	0.005	0.047
-442.822	-143.911	0.320	0.030
-441.807	-200.000	-0.045	-0.282
-440.792	-200.000	0.031	0.627
-439.778	-89.732	-0.257	0.075
-438.763	800.000	0.110	0.363
-437.749	19.200	0.313	-0.251
-436.734	455.888	-0.210	-0.465
-435.719	69.689	0.152	0.157
-434.705	76.972	0.147	0.156
-433.690	-110.663	-0.220	-0.045
-432.676	137.834	-0.205	0.268
-431.661	-180.497	0.333	0.007
-430.646	99.784	0.182	0.210
-429.632	-55.349	0.170	0.076
-428.617	-107.574	-0.296	-0.065
-427.603	-87.736	0.196	0.059
-426.588	800.000	-0.043	-0.144
-425.573	-11.052	0.194	-0.128
-424.559	117.975	-0.073	-0.090
-423.544	-112.857	0.480	-0.095
-422.530	262.939	-0.070	0.121
-421.515	-14.226	-0.225	-0.145
-420.500	-152.602	-0.062	-0.004
-419.486	-149.160	0.426	-0.034
-418.471	37.884	-0.282	-0.250
-417.457	-200.000	-0.022	-0.310
-416.442	800.000	0.027	0.089
-415.428	62.416	-0.154	0.153
-414.413	-148.846	-0.123	0.010
-413.398	84.267	0.236	0.258
-412.384	1.762	0.188	0.135
-411.369	-51.677	-0.301	0.140
-410.355	66.148	-0.192	-0.194
-409.340	-78.972	0.139	-0.047
-408.325	-47.990	0.109	0.052
-407.311	6.983	0.144	-0.107
-406.296	-200.000	-0.007	-0.062
-405.282	-49.695	-0.179	-0.085
-404.267	800.000	0.009	-0.027
-403.252	-41.299	-0.064	-0.033
-402.238	-73.135	-0.264	0.096
-401.223	-3.840	-0.129	-0.089
-400.209	-170.972	-0.195	-0.007
-399.194	-187.785	0.052	-0.001
-398.179	-200.000	-0.032	0.149
-397.165	-165.132	0.253	-0.011
-396.150	-200.000	-0.027	0.264
-395.136	-108.978	0.070	0.015
-394.121	-99.817	-0.086	-0.021
-393.106	800.000	-0.063	0.237
-392.092	-132.448	-0.075	0.010
-391.077	-91.616	0.190	-0.054
-390.063	272.834	0.090	0.159
-389.048	107.899	0.061	-0.072
-388.033	233.004	-0.046	-0.076
-387.019	-27.034	0.230	-0.134
-386.004	-200.000	0.042	-0.227
-384.990	-9.472	-0.113	0.075
-383.975	326.741	-0.178	0.339
-382.960	-51.702	0.300	0.140
-381.946	466.217	-0.091	0.203
-380.931	-12.215	0.225	0.147
-379.917	-142.471	-0.200	0.020
-378.902	800.000	-0.110	0.316
-377.888	-57.968	0.359	-0.156
-376.873	133.214	-0.146	0.188
-375.858	35.685	-0.217	0.190
-374.844	-200.000	-0.005	0.378
-373.829	-136.689	0.156	0.018
-372.815	-123.287	-0.185	-0.029
-371.800	-182.356	0.114	0.002
-370.785	-200.000	-0.226	0.000
-369.771	-200.000	-0.001	0.123
-368.756	-92.743	-0.413	0.115
-367.742	54.246	-0.315	-0.302
-366.727	287.547	0.128	-0.230
-365.712	-151.416	0.071	0.005
-364.698	-200.000	-0.035	-0.298
-363.683	385.289	0.113	0.232
-362.669	122.948	0.085	-0.107
-361.654	118.760	0.302	-0.371
-360.639	-200.000	-0.007	-0.266
-359.625	-200.000	0.035	-0.198
-358.610	69.403	0.203	0.208
-357.596	-65.527	-0.468	0.187
-356.581	-46.763	-0.116	-0.056
-355.566	144.980	0.114	-0.152
-354.552	78.986	-0.248	0.265
-353.537	42.700	0.023	0.021
-352.523	-129.891	0.269	-0.037
-351.508	-158.763	0.206	0.012
-350.493	-200.000	0.029	-0.300
-349.479	-7.569	-0.237	-0.160
-348.464	178.817	-0.051	-0.075
-347.450	56.036	-0.200	0.193
-346.435	125.320	-0.097	-0.121
-345.420	-200.000	-0.010	-0.080
-344.406	-200.000	0.057	-0.290
-343.391	-200.000	-0.034	0.405
-342.377	55.447	0.270	0.260
-341.362	-200.000	-0.015	0.195
-340.348	406.842	-0.170	0.357
-339.333	342.501	0.049	-0.095
-338.318	-8.391	-0.114	0.077
-337.304	-83.277	0.130	0.041
-336.289	-200.000	0.410	-0.000
-335.275	78.119	-0.144	-0.153
-334.260	-121.537	-0.143	-0.024
-333.245	129.175	-0.154	0.196
-332.231	-102.696	-0.058	0.014
-331.216	-196.403	-0.137	0.001
-330.202	412.533	-0.104	0.220
-329.187	383.050	-0.095	-0.195
-328.172	713.823	0.121	-0.318
-327.158	800.000	-0.089	0.257
-326.143	-186.548	0.267	0.004
-325.129	365.362	0.054	0.109
-324.114	101.470	-0.326	0.377
-323.099	161.544	-0.058	0.081
-322.085	-155.369	0.107	0.007
-321.070	46.990	0.224	0.207
-320.056	-44.244	0.060	-0.030
-319.041	56.082	-0.118	0.114
-318.026	-73.127	0.234	0.085
-317.012	800.000	-0.090	-0.363
-315.997	800.000	0.099	0.285
-314.983	-200.000	-0.002	0.069
-313.968	-8.189	0.177	-0.119
-312.953	222.149	-0.133	-0.213
-311.939	443.258	0.150	0.327
-310.924	-110.999	-0.040	-0.008
-309.910	203.298	-0.165	-0.254
-308.895	70.373	-0.067	0.069
-307.880	52.784	-0.150	0.142
-306.866	32.241	0.176	-0.151
-305.851	-53.506	-0.234	0.107
-304.837	-193.076	0.146	-0.001
-303.822	34.730	0.079	0.069
-302.807	92.646	-0.098	0.110
-301.793	132.768	0.125	-0.160
-300.778	31.712	0.149	-0.127
-299.764	96.554	-0.150	0.170
-298.749	-101.943	0.328	-0.079
-297.735	366.709	0.067	-0.135
-296.720	115.623	-0.246	0.299
-295.705	31.465	0.163	0.139
-294.691	47.733	0.212	-0.197
-293.676	-142.994	-0.534	0.051
-292.662	-92.582	0.118	-0.033
-291.647	16.724	-0.157	-0.123
-290.632	-200.000	0.067	-0.307
-289.618	-200.000	-0.010	-0.074
-288.603	246.019	0.046	-0.078
-287.589	-172.304	0.329	0.010
-286.574	-100.910	0.105	0.026
-285.559	-94.823	0.103	0.028
-284.545	258.420	-0.121	0.207
-283.530	-23.726	0.171	0.102
-282.516	617.461	0.062	-0.155
-281.501	-25.065	-0.081	0.048
-280.486	264.478	0.054	-0.093
-279.472	-200.000	-0.013	0.065
-278.457	-59.404	-0.198	0.085
-277.443	60.830	-0.242	0.238
-276.428	-200.000	-0.039	0.335
-275.413	800.000	0.068	-0.198
-274.399	800.000	-0.086	-0.273
-273.384	-127.150	-0.104	-0.015
-272.370	-107.315	-0.441	-0.096
-271.355	-30.803	-0.073	-0.041
-270.340	800.000	0.107	0.295
-269.326	-200.000	0.023	0.179
-268.311	-87.447	-0.489	-0.147
-267.297	239.442	0.114	0.188
-266.282	-76.525	0.301	0.105
-265.267	-200.000	-0.008	-0.152
-264.253	463.744	-0.064	0.143
-263.238	-32.739	0.077	-0.042
-262.224	-200.000	0.027	-0.177
-261.209	-40.281	0.133	-0.068
-260.195	-54.971	0.302	0.135
-259.180	6.754	0.108	0.079
-258.165	800.000	0.061	-0.256
-257.151	480.613	-0.051	-0.115
-256.136	-116.536	0.408	-0.075
-255.122	272.251	-0.070	0.122
-254.107	-135.521	-0.089	-0.010
-253.092	86.341	0.162	-0.177
-252.078	-128.127	-0.019	-0.003
-251.063	2.281	-0.238	-0.171
-250.049	-66.808	0.183	0.072
-249.034	212.467	-0.140	-0.219
-248.019	-76.904	0.297	0.103
-247.005	133.436	-0.163	0.209
-245.990	47.391	0.185	0.171
-244.976	2.125	-0.142	-0.101
-243.961	800.000	0.097	-0.280
-242.946	-150.612	0.361	-0.027
-241.932	-133.654	-0.394	0.049
-240.917	37.629	0.356	-0.313
-239.903	124.620	-0.090	0.112
-238.888	92.765	-0.161	0.181
-237.873	-16.700	0.244	0.153
-236.859	-200.000	-0.028	0.137
-235.844	-180.939	-0.384	-0.008
-234.830	24.156	0.294	0.241
-233.815	800.000	-0.012	-0.034
-232.800	-106.646	-0.100	0.022
-231.786	340.569	0.188	-0.364
-230.771	212.384	-0.135	-0.211
-229.757	-122.567	0.477	-0.077
-228.742	-200.000	-0.029	0.214
-227.727	-125.456	0.392	0.059
-226.713	621.218	-0.039	0.098
-225.698	800.000	0.135	0.510
-224.684	104.746	0.248	-0.289
-223.669	-200.000	-0.008	-0.206
-222.655	416.651	-0.112	-0.236
-221.640	-200.000	0.001	0.029
-220.625	177.947	0.131	0.189
-219.611	-200.000	-0.001	0.093
-218.596	1.761	-0.084	-0.060
-217.582	88.482	0.271	0.298
-216.567	257.656	0.169	0.288
-215.552	130.696	0.206	0.262
-214.538	14.068	0.122	0.094
-213.523	-200.000	-0.049	0.215
-212.509	268.020	0.097	0.168
-211.494	22.368	0.206	-0.167
-210.479	-200.000	-0.004	0.147
-209.465	-4.804	-0.078	-0.053
-208.450	172.939	0.132	0.188
-207.436	-200.000	0.056	-0.413
-206.421	63.180	-0.117	0.116
-205.406	-121.212	-0.165	-0.027
-204.392	-144.578	0.330	-0.030
-203.377	-197.388	-0.257	-0.002
-202.363	800.000	0.041	0.112
-201.348	-38.742	-0.115	0.060
-200.333	-16.148	0.202	-0.127
-199.319	-200.000	-0.066	-0.318
-198.304	-200.000	0.017	0.241
-197.290	-101.150	-0.233	0.056
-196.275	401.803	0.058	0.121
-195.260	800.000	-0.043	0.135
-194.246	-174.837	0.146	0.004
-193.231	-112.615	-0.240	0.047
-192.217	108.075	0.134	0.158
-191.202	143.759	0.023	-0.030
-190.187	-156.342	-0.329	0.020
-189.173	800.000	0.175	0.699
-188.158	800.000	-0.038	0.138
-187.144	-61.276	0.100	0.042
-186.129	420.485	-0.046	-0.097
-185.114	242.227	0.227	0.375
-184.100	-200.000	0.039	0.233
-183.085	-117.161	-0.234	0.042
-182.071	-125.230	-0.231	0.035
-181.056	-200.000	-0.025	-0.244
-180.042	-200.000	0.032	-0.324
-179.027	10.196	-0.329	-0.247
-178.012	82.311	-0.146	0.157
-176.998	-128.209	0.171	0.024
-175.983	-22.595	-0.349	-0.209
-174.969	800.000	-0.047	-0.146
-173.954	-128.573	-0.296	-0.041
-172.939	-200.000	-0.006	0.146
-171.925	47.501	-0.101	-0.093
-170.910	-122.921	-0.152	0.024
-169.896	-96.338	-0.201	-0.053
-168.881	-200.000	-0.046	0.428
-167.866	-97.944	0.507	-0.129
-166.852	-200.000	-0.023	0.165
-165.837	-94.993	-0.366	-0.098
-164.823	255.098	-0.063	-0.106
-163.808	-174.342	-0.081	-0.002
-162.793	-138.044	0.205	0.023
-161.779	800.000	0.076	0.269
-160.764	-131.838	0.170	0.022
-159.750	-139.950	-0.444	0.046
-158.735	-200.000	-0.026	-0.127
-157.720	800.000	-0.030	0.104
-156.706	800.000	0.110	-0.386
-155.691	175.633	0.116	-0.166
-154.677	-200.000	0.012	0.121
-153.662	-82.437	0.330	0.106
-152.647	-71.955	0.190	-0.070
-151.633	4.741	-0.328	-0.238
-150.618	800.000	0.021	-0.077
-149.604	-72.527	0.353	0.129
-148.589	-200.000	-0.028	0.296
-147.574	50.034	-0.090	-0.084
-146.560	102.276	0.189	0.218
-145.545	800.000	0.099	0.281
-144.531	800.000	-0.043	-0.185
-143.516	-84.148	0.229	0.072
-142.502	-200.000	-0.012	0.182
-141.487	800.000	-0.050	0.143
-140.472	135.223	-0.139	-0.178
-139.458	-4.876	-0.239	0.162
-138.443	30.939	0.138	0.117
-137.429	-23.086	0.117	-0.070
-136.414	43.703	0.048	-0.043
-135.399	-30.859	-0.144	-0.080
-134.385	55.112	0.262	-0.250
-133.370	-147.683	-0.112	-0.009
-132.356	-200.000	-0.072	-0.389
-131.341	800.000	-0.039	0.163
-130.326	-51.983	-0.026	-0.012
-129.312	-187.318	-0.106	-0.001
-128.297	258.785	-0.089	-0.151
-127.283	39.235	-0.061	-0.054
-126.268	-200.000	-0.019	-0.204
-125.253	-200.000	-0.031	-0.298
-124.239	800.000	-0.111	0.312
-123.224	29.771	0.126	0.106
