DTS Sentinel unit serial number:	SN413079Multiplexer serial number:	ORYXHardware model number:	OX4-SRSoftware version number:	ORYX F/W v4.00 Oryx Data Collector v3.7.2.0data status	okinstallation	princeton_trtdifferential loss correction	single-endedforward channel	channel 4reverse channel	N/Adate	2019/09/13time	02:01:35forward acquisition time	60.00reverse acquisition time	0.00gamma	496.2192k internal	0.2319k external	0.2319temperature offset calibration	1.0181default loss term (dB/km)	0.3790temperature slope calibration	1.0000multiplexer offset coefficient	1.0000multiplexer slope coefficient	1.0000fibre end	0.00T internal ref (°C)	27.61T ext. ref 1 (°C)	3.86T ext. ref 2 (°C)	22.23length (m)	temperature (°C)	Stokes	anti-Stokes-747.200	-200.000	0.031	0.173
-746.185	-174.705	-0.253	-0.007
-745.171	-86.057	-0.165	0.052
-744.156	214.489	-0.250	0.400
-743.142	-87.445	0.594	0.182
-742.127	-52.740	0.160	-0.075
-741.112	-82.817	-0.119	-0.039
-740.098	800.000	-0.080	0.268
-739.083	800.000	-0.039	-0.131
-738.069	-100.649	-0.274	-0.068
-737.054	-50.068	-0.208	0.100
-736.039	209.488	-0.042	-0.066
-735.025	-123.927	0.046	0.007
-734.010	-153.170	-0.303	-0.021
-732.996	-45.508	0.325	0.163
-731.981	-200.000	-0.011	-0.281
-730.966	-61.461	-0.209	-0.089
-729.952	-14.049	-0.232	0.152
-728.937	-159.123	0.323	-0.018
-727.923	365.993	-0.100	0.204
-726.908	800.000	0.023	-0.095
-725.894	8.566	-0.083	-0.063
-724.879	-200.000	0.043	-0.367
-723.864	-200.000	0.022	-0.202
-722.850	36.758	-0.165	-0.147
-721.835	-161.278	-0.251	-0.013
-720.821	-105.706	0.046	0.010
-719.806	-90.912	0.298	0.087
-718.791	72.485	-0.074	-0.078
-717.777	-31.298	0.292	-0.166
-716.762	551.244	0.079	-0.191
-715.748	235.484	-0.066	-0.110
-714.733	-160.771	-0.275	-0.015
-713.718	-145.982	0.139	0.012
-712.704	-5.493	0.102	0.071
-711.689	-111.123	0.132	-0.027
-710.675	-200.000	-0.037	-0.246
-709.660	-95.489	-0.304	0.082
-708.645	-200.000	0.004	0.159
-707.631	800.000	0.095	0.318
-706.616	800.000	0.042	-0.119
-705.602	86.462	-0.081	-0.090
-704.587	-200.000	0.033	-0.165
-703.572	209.883	0.086	-0.137
-702.558	-78.319	-0.165	-0.057
-701.543	-200.000	0.029	0.475
-700.529	800.000	-0.057	-0.191
-699.514	800.000	0.039	-0.149
-698.499	150.015	-0.140	-0.192
-697.485	453.576	0.133	0.298
-696.470	800.000	-0.150	0.465
-695.456	-32.495	-0.376	-0.212
-694.441	220.486	0.074	-0.119
-693.426	302.857	0.082	-0.154
-692.412	-18.241	-0.275	-0.173
-691.397	85.238	-0.084	0.094
-690.383	151.875	-0.256	-0.352
-689.368	80.700	-0.089	-0.097
-688.354	249.731	0.098	0.167
-687.339	-70.021	-0.282	0.109
-686.324	107.755	0.178	-0.214
-685.310	-149.168	-0.374	0.030
-684.295	132.516	0.058	-0.075
-683.281	-200.000	-0.038	-0.218
-682.266	-60.445	0.281	-0.121
-681.251	-46.321	0.340	-0.169
-680.237	-200.000	-0.022	0.197
-679.222	510.614	-0.078	0.184
-678.208	-41.175	-0.526	-0.274
-677.193	-136.452	0.238	-0.028
-676.178	-200.000	0.164	0.000
-675.164	-200.000	-0.001	0.302
-674.149	182.483	-0.160	0.238
-673.135	-114.530	0.159	-0.031
-672.120	-160.334	0.196	0.011
-671.105	-121.094	-0.304	-0.051
-670.091	-54.520	0.250	0.114
-669.076	-38.297	0.158	0.084
-668.062	800.000	-0.016	0.064
-667.047	800.000	-0.026	0.088
-666.032	800.000	0.046	-0.147
-665.018	-133.636	-0.138	0.017
-664.003	-75.453	0.191	0.069
-662.989	203.421	0.168	0.262
-661.974	22.600	0.151	0.124
-660.959	800.000	-0.063	-0.243
-659.945	-88.956	-0.050	0.015
-658.930	103.579	0.100	0.118
-657.916	30.117	0.113	-0.097
-656.901	-139.323	-0.322	0.035
-655.886	-156.882	0.242	-0.015
-654.872	145.991	-0.065	0.087
-653.857	254.077	-0.246	-0.424
-652.843	800.000	0.038	0.159
-651.828	-24.478	0.363	-0.218
-650.814	-7.122	-0.248	-0.170
-649.799	90.483	0.197	-0.222
-648.784	214.248	-0.267	-0.426
-647.770	-200.000	0.001	-0.292
-646.755	-45.574	0.294	-0.147
-645.741	-91.490	-0.170	0.049
-644.726	-76.859	-0.229	0.081
-643.711	-10.549	0.374	-0.249
-642.697	-53.579	0.357	0.164
-641.682	-88.783	-0.046	0.014
-640.668	-89.008	-0.134	-0.040
-639.653	-104.149	-0.208	-0.049
-638.638	-111.234	-0.414	0.085
-637.624	-136.985	-0.209	0.024
-636.609	-169.237	-0.231	-0.009
-635.595	-5.576	-0.119	0.082
-634.580	-200.000	-0.007	-0.081
-633.565	-200.000	-0.009	0.137
-632.551	133.154	-0.152	-0.198
-631.536	245.856	-0.064	-0.109
-630.522	-76.535	0.034	0.012
-629.507	800.000	0.036	-0.101
-628.492	-200.000	0.070	0.436
-627.478	141.867	-0.058	-0.077
-626.463	171.593	-0.161	-0.233
-625.449	173.121	-0.199	0.288
-624.434	-117.932	-0.041	-0.007
-623.419	-115.753	0.085	-0.016
-622.405	-13.594	0.126	0.082
-621.390	-14.014	-0.201	0.131
-620.376	-80.466	-0.311	0.105
-619.361	-5.079	0.250	0.173
-618.346	-123.978	-0.288	0.046
-617.332	26.654	-0.071	0.060
-616.317	-9.855	0.106	0.071
-615.303	-101.556	-0.308	-0.075
-614.288	283.995	-0.011	0.020
-613.273	-28.049	-0.150	-0.088
-612.259	800.000	-0.059	-0.215
-611.244	93.968	0.040	0.046
-610.230	-200.000	-0.046	-0.233
-609.215	-200.000	0.003	0.040
-608.201	-200.000	-0.015	0.114
-607.186	-60.537	0.344	0.147
-606.171	-200.000	0.045	-0.358
-605.157	-116.989	0.185	0.034
-604.142	5.647	0.365	0.271
-603.128	138.395	0.113	0.149
-602.113	383.405	0.082	0.169
-601.098	-57.780	0.165	-0.073
-600.084	-152.187	0.136	-0.010
-599.069	800.000	0.088	0.288
-598.055	-200.000	-0.017	0.352
-597.040	-89.665	-0.115	-0.034
-596.025	110.214	0.003	0.004
-595.011	44.262	-0.196	-0.181
-593.996	159.880	0.165	-0.231
-592.982	-126.584	-0.218	-0.032
-591.967	-200.000	0.064	-0.296
-590.952	204.130	-0.032	-0.049
-589.938	5.097	0.211	0.156
-588.923	170.531	0.204	-0.293
-587.909	-200.000	0.035	-0.200
-586.894	234.097	-0.261	-0.432
-585.879	-200.000	-0.012	-0.053
-584.865	-200.000	-0.024	0.286
-583.850	29.254	0.143	0.122
-582.836	387.970	0.063	-0.131
-581.821	-39.407	-0.223	0.117
-580.806	63.764	0.128	-0.130
-579.792	109.970	-0.195	0.235
-578.777	-161.848	-0.151	0.008
-577.763	800.000	-0.039	0.143
-576.748	-113.891	0.110	0.021
-575.733	-71.005	0.009	-0.004
-574.719	346.863	-0.111	0.219
-573.704	129.159	-0.034	0.043
-572.690	-51.911	0.559	-0.261
-571.675	-114.124	0.129	-0.025
-570.661	800.000	-0.015	0.050
-569.646	-163.502	0.006	-0.000
-568.631	-200.000	0.004	-0.126
-567.617	58.820	-0.113	0.111
-566.602	-200.000	0.012	-0.236
-565.588	338.406	0.075	-0.146
-564.573	-200.000	-0.008	0.086
-563.558	-200.000	-0.041	-0.298
-562.544	88.933	-0.193	0.216
-561.529	568.250	0.091	0.223
-560.515	-112.802	-0.314	-0.063
-559.500	561.083	-0.062	-0.151
-558.485	-146.284	0.027	0.002
-557.471	-70.130	-0.234	-0.089
-556.456	146.740	-0.032	0.043
-555.442	25.942	0.101	-0.085
-554.427	-59.105	-0.282	0.122
-553.412	-50.015	0.097	-0.046
-552.398	-105.137	0.328	-0.075
-551.383	120.375	-0.134	0.167
-550.369	-200.000	-0.013	0.087
-549.354	420.017	0.102	0.220
-548.339	-200.000	0.045	0.203
-547.325	248.100	-0.083	-0.141
-546.310	82.803	0.126	-0.138
-545.296	-94.801	-0.212	-0.058
-544.281	9.105	-0.187	0.141
-543.266	49.745	-0.073	-0.069
-542.252	-135.922	0.138	-0.016
-541.237	-200.000	-0.041	0.365
-540.223	-97.968	0.092	-0.024
-539.208	-62.970	0.287	0.119
-538.193	470.309	-0.064	-0.144
-537.179	379.873	-0.086	0.176
-536.164	-200.000	0.053	0.234
-535.150	-200.000	-0.001	0.008
-534.135	82.777	-0.051	-0.055
-533.121	191.696	-0.100	-0.151
-532.106	-121.352	0.316	-0.053
-531.091	-200.000	-0.003	-0.237
-530.077	286.292	-0.120	0.217
-529.062	47.995	0.006	-0.005
-528.048	236.092	-0.232	-0.386
-527.033	103.950	0.095	-0.112
-526.018	1.816	-0.120	0.087
-525.004	800.000	-0.061	-0.186
-523.989	-97.650	0.140	0.036
-522.975	13.485	-0.325	0.253
-521.960	-200.000	-0.041	-0.282
-520.945	221.247	0.178	0.287
-519.931	172.737	-0.061	-0.088
-518.916	756.139	0.090	-0.243
-517.902	-0.890	-0.251	0.178
-516.887	-197.194	0.091	-0.001
-515.872	231.729	0.079	0.130
-514.858	260.721	0.047	-0.081
-513.843	43.295	-0.141	0.129
-512.829	-159.697	-0.257	-0.014
-511.814	-144.146	0.150	-0.014
-510.799	214.523	0.203	0.322
-509.785	151.900	0.072	-0.099
-508.770	194.942	-0.273	-0.415
-507.756	96.205	0.050	-0.058
-506.741	-123.847	-0.490	0.078
-505.726	800.000	-0.016	-0.055
-504.712	-92.750	0.501	-0.141
-503.697	167.104	0.151	0.214
-502.683	-200.000	0.004	0.027
-501.668	7.184	-0.214	-0.160
-500.653	45.775	-0.269	0.249
-499.639	254.789	-0.069	-0.118
-498.624	-55.492	-0.182	-0.082
-497.610	-200.000	-0.015	-0.168
-496.595	77.975	-0.279	0.298
-495.581	-46.839	0.202	-0.099
-494.566	243.838	-0.103	0.173
-493.551	87.790	-0.123	-0.136
-492.537	-200.000	0.072	-0.327
-491.522	-145.009	0.443	0.040
-490.508	6.696	0.162	0.121
-489.493	178.634	-0.117	0.171
-488.478	-55.800	-0.135	0.060
-487.464	-146.873	0.253	-0.022
-486.449	-51.750	0.162	0.075
-485.435	800.000	-0.083	0.325
-484.420	-169.339	-0.080	-0.003
-483.405	-126.029	-0.466	-0.070
-482.391	303.595	0.099	0.184
-481.376	-200.000	-0.051	0.327
-480.362	-118.769	-0.405	0.071
-479.347	-200.000	0.018	0.104
-478.332	-200.000	-0.010	-0.322
-477.318	51.417	0.276	-0.263
-476.303	43.831	-0.099	0.091
-475.289	-15.733	-0.017	-0.011
-474.274	-185.001	0.366	-0.006
-473.259	78.288	-0.289	0.309
-472.245	-200.000	0.033	-0.220
-471.230	138.447	0.165	-0.216
-470.216	51.754	-0.098	0.093
-469.201	23.332	0.464	0.382
-468.186	-108.106	0.087	-0.019
-467.172	-62.003	-0.172	0.072
-466.157	-200.000	-0.042	-0.237
-465.143	184.759	0.107	-0.158
-464.128	305.563	0.073	-0.135
-463.113	-97.246	0.431	0.113
-462.099	744.603	0.072	-0.193
-461.084	800.000	-0.083	-0.300
-460.070	527.424	0.062	0.147
-459.055	-30.827	0.183	0.104
-458.040	563.933	0.083	-0.201
-457.026	33.285	-0.019	-0.017
-456.011	30.262	0.153	0.131
-454.997	13.973	0.074	-0.058
-453.982	-134.382	0.282	0.035
-452.968	-200.000	0.004	0.460
-451.953	-200.000	0.037	-0.250
-450.938	20.082	-0.223	0.180
-449.924	-200.000	0.007	0.030
-448.909	11.529	0.173	-0.132
-447.895	-200.000	-0.006	0.511
-446.880	800.000	0.020	-0.061
-445.865	-138.301	-0.083	0.009
-444.851	-71.282	-0.036	0.013
-443.836	800.000	0.094	-0.261
-442.822	800.000	0.059	-0.185
-441.807	37.009	-0.200	0.177
-440.792	-42.993	0.308	-0.156
-439.778	-158.564	0.028	0.002
-438.763	343.662	0.057	0.111
-437.749	-200.000	0.043	-0.249
-436.734	-200.000	-0.035	0.177
-435.719	-56.518	-0.113	-0.050
-434.705	78.990	0.166	-0.178
-433.690	29.153	0.256	0.217
-432.676	234.451	-0.246	-0.406
-431.661	-200.000	-0.007	-0.193
-430.646	294.352	0.011	-0.021
-429.632	91.325	0.189	0.212
-428.617	-82.518	0.304	0.098
-427.603	-92.447	-0.289	0.081
-426.588	313.861	-0.026	-0.049
-425.573	-200.000	-0.005	0.104
-424.559	-17.377	-0.183	-0.115
-423.544	-67.993	0.170	0.066
-422.530	31.836	0.239	0.206
-421.515	-75.941	0.113	0.040
-420.500	349.020	-0.084	-0.166
-419.486	-48.740	0.174	0.083
-418.471	466.509	0.114	-0.255
-417.457	-200.000	0.028	-0.177
-416.442	-70.862	0.401	0.151
-415.428	800.000	-0.045	-0.152
-414.413	36.620	-0.182	-0.160
-413.398	81.639	-0.216	0.234
-412.384	151.892	-0.172	-0.235
-411.369	800.000	-0.058	-0.160
-410.355	267.135	-0.213	0.372
-409.340	-68.135	0.302	-0.118
-408.325	4.427	0.354	-0.259
-407.311	-14.121	0.221	0.142
-406.296	-8.617	-0.112	-0.075
-405.282	684.003	-0.067	-0.174
-404.267	141.028	0.130	-0.172
-403.252	613.955	0.026	0.064
-402.238	709.821	0.056	0.148
-401.223	-66.306	0.155	0.062
-400.209	800.000	0.056	0.172
-399.194	-51.426	0.024	0.011
-398.179	-200.000	0.059	0.395
-397.165	-200.000	0.049	-0.267
-396.150	-200.000	0.037	0.175
-395.136	581.709	0.098	-0.240
-394.121	-93.275	-0.119	0.033
-393.106	-200.000	-0.051	0.289
-392.092	-200.000	0.019	-0.092
-391.077	-162.129	0.257	-0.013
-390.063	800.000	0.068	0.239
-389.048	135.756	-0.202	0.262
-388.033	-200.000	-0.243	-0.000
-387.019	-85.302	-0.163	0.051
-386.004	-140.186	-0.175	0.018
-384.990	-200.000	-0.018	-0.176
-383.975	389.617	-0.032	-0.067
-382.960	-113.952	-0.014	-0.003
-381.946	38.483	0.353	0.313
-380.931	-200.000	0.005	-0.150
-379.917	-69.782	0.353	0.135
-378.902	140.290	0.069	0.091
-377.888	90.317	-0.198	0.221
-376.873	-147.137	0.223	-0.019
-375.858	65.607	-0.238	0.241
-374.844	-50.101	0.215	-0.101
-373.829	-71.234	-0.193	0.072
-372.815	-200.000	0.006	0.263
-371.800	343.028	-0.172	-0.335
-370.785	-138.737	-0.532	0.058
-369.771	100.774	0.083	0.096
-368.756	-200.000	-0.041	0.186
-367.742	313.081	0.117	0.218
-366.727	800.000	0.083	-0.278
-365.712	-91.517	-0.192	-0.055
-364.698	150.630	0.122	0.165
-363.683	800.000	-0.040	-0.130
-362.669	13.617	-0.340	-0.263
-361.654	800.000	-0.111	0.466
-360.639	276.211	-0.081	0.143
-359.625	21.530	0.318	-0.258
-358.610	800.000	-0.030	-0.108
-357.596	66.051	-0.022	0.022
-356.581	-200.000	-0.009	-0.170
-355.566	-12.359	0.118	0.077
-354.552	-10.314	0.217	-0.143
-353.537	800.000	-0.037	0.104
-352.523	-200.000	0.029	-0.171
-351.508	-200.000	0.010	0.065
-350.493	-152.783	0.180	0.013
-349.479	92.551	0.162	0.182
-348.464	54.171	0.132	0.127
-347.450	9.184	0.091	-0.068
-346.435	-200.000	-0.050	0.344
-345.420	-47.740	-0.153	0.074
-344.406	-200.000	0.051	-0.248
-343.391	-200.000	0.003	-0.020
-342.377	-200.000	0.055	-0.292
-341.362	38.181	-0.103	-0.091
-340.348	219.334	0.159	0.254
-339.333	-48.315	0.230	0.110
-338.318	800.000	-0.039	-0.114
-337.304	-67.243	-0.310	-0.122
-336.289	-200.000	0.023	0.241
-335.275	-36.097	0.071	0.038
-334.260	173.670	-0.026	-0.038
-333.245	-8.683	-0.075	0.050
-332.231	800.000	0.052	0.186
-331.216	-200.000	-0.011	0.290
-330.202	-166.131	0.070	0.003
-329.187	348.535	-0.155	0.304
-328.172	-200.000	-0.004	0.081
-327.158	-181.943	-0.244	-0.005
-326.143	329.645	0.127	-0.244
-325.129	275.992	-0.134	0.236
-324.114	796.901	0.105	0.288
-323.099	-37.584	0.252	-0.134
-322.085	174.606	-0.097	-0.139
-321.070	-200.000	0.011	0.182
-320.056	800.000	-0.038	0.108
-319.041	8.357	-0.302	-0.226
-318.026	-78.650	0.049	-0.017
-317.012	97.000	-0.078	0.088
-315.997	92.447	-0.098	-0.110
-314.983	115.565	0.257	-0.312
-313.968	88.821	-0.121	-0.134
-312.953	800.000	0.030	-0.106
-311.939	-36.224	0.224	-0.120
-310.924	-181.777	-0.304	-0.006
-309.910	180.447	-0.246	-0.359
-308.895	-200.000	0.005	-0.247
-307.880	11.373	-0.246	-0.187
-306.866	-49.206	-0.283	0.134
-305.851	-200.000	0.028	-0.301
-304.837	-68.935	0.272	-0.104
-303.822	61.789	-0.088	-0.087
-302.807	129.553	0.034	-0.043
-301.793	104.713	-0.092	0.108
-300.778	-22.575	0.063	-0.038
-299.764	166.110	0.114	-0.160
-298.749	-200.000	0.103	-0.536
-297.735	-46.582	-0.093	-0.045
-296.720	800.000	0.074	-0.257
-295.705	-200.000	0.001	0.029
-294.691	-71.686	-0.309	0.115
-293.676	-200.000	0.038	-0.312
-292.662	764.447	-0.046	0.125
-291.647	719.540	0.023	0.061
-290.632	-139.644	-0.175	0.019
-289.618	-124.919	-0.292	-0.045
-288.603	-43.221	0.233	-0.117
-287.589	-113.407	-0.211	0.041
-286.574	800.000	-0.038	-0.107
-285.559	-200.000	-0.045	-0.320
-284.545	167.568	0.135	-0.191
-283.530	53.617	-0.094	0.090
-282.516	299.043	-0.126	0.230
-281.501	152.097	0.067	-0.091
-280.486	48.494	-0.056	-0.052
-279.472	-114.354	0.098	0.019
-278.457	-200.000	-0.031	0.222
-277.443	-65.450	0.199	-0.080
-276.428	187.425	-0.046	-0.068
-275.413	-124.237	-0.215	-0.033
-274.399	-72.754	-0.156	-0.057
-273.384	-8.104	-0.402	-0.269
-272.370	800.000	0.064	-0.194
-271.355	-100.459	0.272	-0.067
-270.340	2.056	0.312	-0.224
-269.326	-115.990	0.127	0.023
-268.311	-200.000	0.011	0.210
-267.297	231.696	0.097	0.158
-266.282	-191.004	0.203	-0.002
-265.267	-25.195	0.193	0.113
-264.253	-101.012	0.600	-0.146
-263.238	43.765	0.133	0.121
-262.224	-106.941	-0.189	-0.042
-261.209	800.000	0.045	0.150
-260.195	38.623	0.137	0.121
-259.180	-200.000	0.019	0.209
-258.165	632.051	0.009	-0.022
-257.151	-200.000	-0.006	0.083
-256.136	-200.000	0.020	0.193
-255.122	366.775	-0.227	0.455
-254.107	-120.734	0.211	-0.035
-253.092	241.287	0.166	0.275
-252.078	-63.252	-0.364	-0.149
-251.063	20.450	-0.093	-0.075
-250.049	-176.529	-0.277	0.007
-249.034	-49.197	-0.292	-0.139
-248.019	-200.000	0.006	-0.259
-247.005	-7.736	-0.108	0.072
-245.990	177.486	-0.030	-0.044
-244.976	29.230	0.209	0.176
-243.961	378.621	-0.142	-0.289
-242.946	261.654	0.171	0.294
-241.932	357.357	-0.073	0.144
-240.917	-84.061	-0.196	0.062
-239.903	113.399	0.145	-0.175
-238.888	327.279	-0.053	0.101
-237.873	24.500	-0.086	-0.070
-236.859	-164.155	0.518	-0.024
-235.844	-200.000	0.062	-0.304
-234.830	226.990	-0.088	0.142
-233.815	-73.327	0.296	-0.107
-232.800	-59.123	-0.188	-0.080
-231.786	-200.000	0.031	0.522
-230.771	-88.920	-0.231	-0.068
-229.757	84.478	0.068	0.074
-228.742	14.370	0.151	-0.117
-227.727	-32.127	-0.174	-0.096
-226.713	114.257	0.163	-0.197
-225.698	-200.000	-0.011	0.326
-224.684	-90.818	0.352	0.101
-223.669	-200.000	0.092	0.000
-222.655	-200.000	0.085	-0.414
-221.640	-200.000	-0.034	-0.296
-220.625	335.944	-0.133	-0.256
-219.611	354.040	-0.053	-0.104
-218.596	800.000	-0.021	0.070
-217.582	45.509	0.297	-0.272
-216.567	189.256	-0.015	0.022
-215.552	3.314	0.152	-0.110
-214.538	118.864	0.096	0.118
-213.523	-64.558	-0.166	-0.067
-212.509	391.476	0.014	-0.029
-211.494	800.000	-0.044	-0.120
-210.479	-118.371	-0.303	-0.053
-209.465	53.731	0.136	0.130
-208.450	1.478	0.020	0.014
-207.436	-151.376	-0.293	0.022
-206.421	528.519	-0.048	-0.111
-205.406	-200.000	0.042	0.221
-204.392	-18.046	-0.105	0.065
-203.377	-200.000	-0.015	-0.084
-202.363	-200.000	0.040	-0.398
-201.348	-91.127	-0.022	0.006
-200.333	8.852	-0.124	0.093
-199.319	-200.000	-0.039	0.313
-198.304	-135.006	0.313	-0.037
-197.290	26.631	-0.251	0.208
-196.275	75.833	-0.112	-0.117
-195.260	800.000	-0.005	-0.017
-194.246	-200.000	-0.044	0.250
-193.231	317.976	0.162	-0.304
-192.217	6.806	-0.118	-0.087
-191.202	-200.000	0.027	0.256
-190.187	27.222	0.105	0.087
-189.173	105.877	-0.145	-0.170
-188.158	-32.716	0.453	-0.250
-187.144	-27.128	-0.359	0.207
-186.129	294.226	-0.059	-0.107
-185.114	-25.370	0.149	0.087
-184.100	124.410	0.073	-0.090
-183.085	-200.000	-0.011	-0.108
-182.071	-136.931	0.330	-0.037
-181.056	-31.084	-0.379	0.211
-180.042	-200.000	-0.001	-0.189
-179.027	11.003	0.063	-0.048
-178.012	69.147	0.101	-0.102
-176.998	54.923	-0.177	0.169
-175.983	-131.227	-0.253	0.033
-174.969	-200.000	0.029	-0.287
-173.954	-200.000	0.018	0.083
-172.939	632.949	0.041	-0.102
-171.925	-82.207	-0.183	-0.059
-170.910	-200.000	-0.007	0.263
-169.896	800.000	0.114	0.492
-168.881	-69.806	0.264	-0.100
-167.866	194.144	0.076	0.114
-166.852	207.084	-0.058	-0.089
-165.837	-38.691	-0.214	0.112
-164.823	361.670	-0.089	-0.177
-163.808	30.872	0.119	0.101
-162.793	800.000	-0.023	0.072
-161.779	-24.223	-0.202	0.119
-160.764	105.657	-0.165	0.193
-159.750	379.035	0.059	0.119
-158.735	7.809	0.067	0.050
-157.720	800.000	0.074	0.259
-156.706	-130.741	0.082	0.011
-155.691	-200.000	0.068	0.415
-154.677	-131.757	-0.274	0.036
-153.662	-142.355	-0.259	0.025
-152.647	800.000	0.018	-0.069
-151.633	-200.000	0.060	0.329
-150.618	-105.525	-0.290	-0.065
-149.604	-49.282	0.193	0.091
-148.589	-200.000	0.080	0.352
-147.574	-35.366	0.204	-0.110
-146.560	83.532	-0.104	-0.112
-145.545	-200.000	0.002	-0.258
-144.531	-143.169	-0.095	0.009
-143.516	-4.406	0.268	-0.183
-142.502	179.267	-0.220	-0.318
-141.487	-110.746	0.216	-0.044
-140.472	-200.000	-0.000	0.168
-139.458	-200.000	0.017	-0.092
-138.443	82.942	0.060	0.064
-137.429	800.000	0.046	0.146
-136.414	-55.135	0.443	0.197
-135.399	161.411	-0.185	-0.256
-134.385	-72.740	0.315	0.115
-133.370	454.302	-0.053	0.115
-132.356	-200.000	0.031	0.154
-131.341	462.600	-0.056	-0.124
-130.326	-125.093	0.044	0.007
-129.312	499.847	0.112	-0.254
-128.297	-76.743	-0.052	0.018
-127.283	-19.414	-0.131	-0.080
-126.268	128.558	-0.167	-0.210
-125.253	67.518	-0.189	0.191
-124.239	-80.915	0.242	0.079
-123.224	303.171	-0.135	-0.248
-122.210	-60.966	-0.336	0.140
