DTS Sentinel unit serial number:	SN413079Multiplexer serial number:	ORYXHardware model number:	OX4-SRSoftware version number:	ORYX F/W v4.00 Oryx Data Collector v3.7.2.0data status	okinstallation	princeton_trtdifferential loss correction	single-endedforward channel	channel 4reverse channel	N/Adate	2019/09/15time	14:49:35forward acquisition time	60.00reverse acquisition time	0.00gamma	496.2192k internal	0.2289k external	0.2289temperature offset calibration	0.9972default loss term (dB/km)	0.3790temperature slope calibration	1.0000multiplexer offset coefficient	1.0000multiplexer slope coefficient	1.0000fibre end	0.00T internal ref (°C)	39.87T ext. ref 1 (°C)	4.84T ext. ref 2 (°C)	36.65length (m)	temperature (°C)	Stokes	anti-Stokes-747.200	100.517	0.080	0.095
-746.185	-187.507	0.215	-0.003
-745.171	202.879	-0.163	0.258
-744.156	96.722	-0.200	0.234
-743.142	800.000	0.052	0.171
-742.127	-200.000	-0.047	0.212
-741.112	43.772	-0.442	0.415
-740.098	-200.000	0.039	0.177
-739.083	-81.377	0.282	-0.095
-738.069	159.824	0.107	0.152
-737.054	203.726	0.144	0.228
-736.039	-200.000	0.025	0.206
-735.025	-200.000	-0.016	0.301
-734.010	38.412	-0.375	-0.343
-732.996	-200.000	-0.020	0.277
-731.981	-128.944	-0.053	-0.008
-730.966	-140.520	-0.205	0.022
-729.952	-25.368	-0.217	0.132
-728.937	158.135	0.040	0.057
-727.923	-134.250	0.099	-0.012
-726.908	187.369	-0.266	-0.407
-725.894	-3.617	-0.257	0.183
-724.879	800.000	0.089	0.264
-723.864	-12.646	0.293	0.196
-722.850	-144.691	-0.241	0.023
-721.835	-104.841	0.406	-0.095
-720.821	-113.748	0.052	0.010
-719.806	20.866	0.045	0.037
-718.791	800.000	-0.039	-0.127
-717.777	244.337	0.086	0.148
-716.762	-42.192	-0.156	0.082
-715.748	-60.714	-0.151	0.066
-714.733	-96.823	-0.155	0.042
-713.718	-32.857	0.331	-0.188
-712.704	-24.170	-0.404	-0.247
-711.689	169.887	0.066	0.097
-710.675	-60.411	-0.287	0.125
-709.660	115.634	-0.210	-0.263
-708.645	-11.155	0.086	0.058
-707.631	-9.374	-0.286	-0.196
-706.616	-160.127	0.297	0.017
-705.602	-180.564	-0.252	-0.005
-704.587	-116.109	-0.106	0.020
-703.572	-200.000	0.016	-0.151
-702.558	51.458	0.094	0.091
-701.543	105.528	0.033	-0.040
-700.529	27.355	-0.288	-0.248
-699.514	-59.636	0.134	0.059
-698.499	-163.077	-0.209	0.010
-697.485	39.864	0.159	0.146
-696.470	278.169	0.031	-0.056
-695.456	-78.896	-0.197	-0.069
-694.441	-105.148	-0.056	-0.013
-693.426	-28.479	-0.192	0.113
-692.412	369.323	0.079	-0.164
-691.397	-200.000	-0.023	-0.155
-690.383	26.312	-0.119	-0.101
-689.368	-114.100	-0.241	0.048
-688.354	150.175	-0.126	-0.175
-687.339	91.817	-0.086	-0.099
-686.324	41.210	0.269	-0.249
-685.310	18.093	-0.097	-0.079
-684.295	-134.626	-0.116	-0.014
-683.281	-200.000	-0.026	-0.242
-682.266	-200.000	-0.009	-0.048
-681.251	621.041	0.037	-0.095
-680.237	-156.591	-0.459	0.029
-679.222	23.493	-0.157	-0.132
-678.208	-200.000	0.008	0.062
-677.193	-200.000	0.019	0.205
-676.178	-200.000	0.024	-0.431
-675.164	404.115	0.099	-0.214
-674.149	-58.227	0.267	0.119
-673.135	124.012	-0.091	0.117
-672.120	-200.000	0.008	0.118
-671.105	0.615	-0.095	0.069
-670.091	374.760	0.151	-0.315
-669.076	-7.821	0.176	-0.121
-668.062	42.827	0.117	-0.109
-667.047	228.265	0.069	-0.115
-666.032	139.299	-0.073	-0.098
-665.018	300.982	-0.067	0.126
-664.003	11.924	0.145	-0.114
-662.989	-79.065	-0.059	0.020
-661.974	-127.720	0.327	0.048
-660.959	-56.315	-0.270	0.123
-659.945	-155.515	-0.235	0.015
-658.930	289.340	0.117	-0.217
-657.916	-22.534	-0.233	0.144
-656.901	-42.568	0.142	-0.074
-655.886	-12.012	0.029	-0.019
-654.872	21.603	-0.075	0.062
-653.857	-55.275	-0.135	-0.062
-652.843	-11.073	0.191	0.129
-651.828	209.029	-0.240	0.384
-650.814	-89.254	-0.192	-0.058
-649.799	135.283	-0.153	-0.204
-648.784	15.248	-0.201	0.161
-647.770	57.027	-0.078	0.077
-646.755	9.133	-0.194	0.150
-645.741	-31.804	0.258	0.148
-644.726	-81.308	0.155	-0.052
-643.711	16.021	-0.237	-0.191
-642.697	-14.134	0.171	-0.112
-641.682	-200.000	-0.022	-0.239
-640.668	-40.526	0.159	-0.084
-639.653	43.086	-0.102	0.095
-638.638	687.519	-0.074	0.197
-637.624	296.831	0.022	-0.041
-636.609	-103.418	-0.166	0.040
-635.595	-94.696	0.170	-0.047
-634.580	112.395	-0.074	-0.091
-633.565	-200.000	-0.027	-0.134
-632.551	6.526	-0.126	0.095
-631.536	51.348	-0.055	0.053
-630.522	800.000	0.062	-0.268
-629.507	-144.626	0.092	0.009
-628.492	-200.000	0.003	0.050
-627.478	-97.221	0.177	0.047
-626.463	-26.104	0.276	-0.165
-625.449	93.531	-0.228	-0.263
-624.434	-94.241	0.268	0.075
-623.419	-73.866	0.216	0.080
-622.405	39.465	-0.095	-0.087
-621.390	800.000	0.097	0.331
-620.376	-9.116	0.120	0.082
-619.361	-200.000	0.055	-0.491
-618.346	10.008	-0.097	0.075
-617.332	-200.000	-0.007	0.137
-616.317	-200.000	-0.039	0.236
-615.303	8.703	-0.236	0.181
-614.288	-200.000	0.040	0.218
-613.273	550.902	0.179	-0.439
-612.259	-86.662	0.211	0.066
-611.244	-73.061	-0.168	0.063
-610.230	-36.081	-0.370	0.204
-609.215	-109.244	-0.140	0.030
-608.201	-51.293	-0.126	0.060
-607.186	-140.513	-0.240	-0.025
-606.171	-57.801	-0.094	-0.042
-605.157	800.000	0.040	0.121
-604.142	-163.792	-0.316	-0.015
-603.128	800.000	0.132	-0.404
-602.113	-40.793	0.090	0.047
-601.098	-200.000	0.021	0.309
-600.084	-116.018	0.192	0.036
-599.069	-200.000	0.042	-0.230
-598.055	800.000	0.075	-0.320
-597.040	800.000	0.048	-0.137
-596.025	800.000	0.043	0.120
-595.011	297.393	-0.143	0.267
-593.996	81.694	-0.084	0.092
-592.982	-40.113	-0.366	0.194
-591.967	151.114	0.056	0.077
-590.952	-115.881	0.242	-0.046
-589.938	-93.362	-0.276	-0.078
-588.923	634.800	0.111	-0.286
-587.909	-26.069	0.159	0.095
-586.894	-174.372	-0.417	-0.012
-585.879	165.106	0.068	0.099
-584.865	800.000	0.077	0.270
-583.850	162.936	0.246	0.352
-582.836	-178.396	-0.229	-0.005
-581.821	3.898	0.224	-0.167
-580.806	61.619	-0.018	-0.019
-579.792	-102.096	0.623	-0.153
-578.777	102.329	0.282	0.336
-577.763	800.000	-0.045	0.197
-576.748	7.733	0.289	-0.220
-575.733	57.137	-0.021	0.021
-574.719	50.208	0.226	0.217
-573.704	800.000	-0.105	-0.322
-572.690	9.084	-0.085	0.065
-571.675	-122.729	-0.225	0.037
-570.661	-18.388	-0.074	-0.047
-569.646	-0.731	0.157	0.113
-568.631	-29.701	-0.140	-0.081
-567.617	-78.257	-0.323	-0.113
-566.602	113.380	-0.130	0.160
-565.588	131.292	-0.083	0.108
-564.573	-200.000	0.024	0.322
-563.558	114.651	0.316	0.392
-562.544	25.395	0.333	0.282
-561.529	-200.000	-0.011	0.137
-560.515	-43.750	-0.279	-0.143
-559.500	800.000	0.099	-0.330
-558.485	49.149	-0.150	0.144
-557.471	-53.434	-0.060	-0.028
-556.456	25.214	-0.103	0.087
-555.442	280.804	0.123	-0.225
-554.427	273.271	-0.076	-0.136
-553.412	50.991	0.119	0.114
-552.398	387.556	0.126	0.264
-551.383	-73.524	0.145	0.054
-550.369	-106.466	0.242	-0.055
-549.354	800.000	-0.051	-0.162
-548.339	-200.000	-0.003	-0.113
-547.325	133.798	-0.072	-0.094
-546.310	-90.533	0.326	-0.096
-545.296	87.866	0.015	0.016
-544.281	104.517	0.045	-0.054
-543.266	53.037	-0.216	0.210
-542.252	-200.000	0.005	-0.164
-541.237	-200.000	-0.040	-0.353
-540.223	173.057	0.226	0.331
-539.208	-200.000	0.034	-0.188
-538.193	-66.209	0.303	-0.123
-537.179	-0.827	0.198	-0.142
-536.164	-200.000	-0.005	0.070
-535.150	-200.000	-0.032	0.216
-534.135	77.412	0.121	0.131
-533.121	42.978	0.356	0.330
-532.106	-26.722	-0.089	0.053
-531.091	46.611	0.185	0.175
-530.077	-200.000	-0.017	-0.131
-529.062	327.275	0.137	0.266
-528.048	-8.627	0.062	-0.042
-527.033	-200.000	-0.006	0.229
-526.018	71.343	0.247	-0.260
-525.004	-20.887	-0.111	-0.069
-523.989	-162.007	-0.086	-0.004
-522.975	32.511	0.284	-0.250
-521.960	-200.000	-0.006	0.073
-520.945	165.930	-0.114	0.163
-519.931	-61.020	0.336	-0.144
-518.916	-200.000	-0.056	-0.269
-517.902	184.773	-0.101	0.152
-516.887	-200.000	0.044	0.275
-515.872	324.741	0.082	-0.159
-514.858	47.927	-0.204	-0.194
-513.843	-200.000	-0.008	0.080
-512.829	-52.192	0.229	0.108
-511.814	-83.929	0.333	-0.108
-510.799	-91.893	-0.159	-0.046
-509.785	267.464	0.074	0.132
-508.770	44.133	0.180	0.168
-507.756	-200.000	0.042	0.375
-506.741	800.000	0.073	-0.207
-505.726	-200.000	-0.011	0.117
-504.712	724.665	0.121	0.329
-503.697	713.820	0.140	-0.376
-502.683	-55.612	-0.246	0.112
-501.668	-41.784	-0.078	0.041
-500.653	355.228	-0.160	0.322
-499.639	-149.844	0.171	0.014
-498.624	707.718	-0.085	0.228
-497.610	-121.747	0.117	-0.020
-496.595	-200.000	-0.024	0.247
-495.581	337.094	-0.134	-0.264
-494.566	-200.000	-0.008	-0.121
-493.551	-88.740	-0.298	-0.090
-492.537	-120.046	-0.334	-0.058
-491.522	129.227	0.139	-0.180
-490.508	-69.358	-0.253	-0.098
-489.493	-42.849	0.283	-0.146
-488.478	-35.486	-0.102	-0.056
-487.464	5.490	-0.253	-0.190
-486.449	85.347	-0.251	-0.280
-485.435	35.524	-0.071	-0.063
-484.420	352.975	-0.058	0.116
-483.405	-200.000	0.043	-0.193
-482.391	800.000	-0.048	-0.171
-481.376	11.699	-0.194	-0.151
-480.362	-166.069	0.385	0.017
-479.347	800.000	-0.032	-0.098
-478.332	-113.135	-0.306	0.061
-477.318	241.403	-0.092	-0.156
-476.303	532.030	-0.123	-0.294
-475.289	-200.000	0.030	-0.204
-474.274	524.382	0.100	0.238
-473.259	-72.443	-0.350	0.131
-472.245	800.000	-0.088	0.282
-471.230	-60.307	-0.058	0.025
-470.216	61.088	-0.057	-0.058
-469.201	-200.000	-0.036	0.395
-468.186	313.585	0.129	-0.245
-467.172	-165.645	0.437	0.019
-466.157	337.579	-0.019	-0.037
-465.143	33.553	-0.337	-0.296
-464.128	-99.840	0.262	0.066
-463.113	-200.000	-0.041	-0.203
-462.099	75.559	-0.049	0.052
-461.084	-152.939	0.080	0.006
-460.070	470.811	-0.066	0.150
-459.055	-47.727	0.399	0.196
-458.040	-12.183	-0.200	-0.133
-457.026	-152.616	0.183	0.013
-456.011	-42.045	0.237	0.123
-454.997	-20.726	0.207	0.129
-453.982	-120.769	0.276	-0.047
-452.968	-200.000	0.028	-0.324
-451.953	54.190	-0.115	-0.112
-450.938	47.563	-0.058	0.055
-449.924	27.367	0.259	0.221
-448.909	31.804	-0.259	0.226
-447.895	105.394	-0.134	0.161
-446.880	-111.446	0.154	-0.032
-445.865	701.093	0.019	-0.049
-444.851	-46.607	-0.192	0.095
-443.836	104.174	-0.173	-0.206
-442.822	800.000	0.106	0.385
-441.807	-200.000	-0.021	-0.219
-440.792	-34.514	-0.381	-0.211
-439.778	-116.664	0.135	0.025
-438.763	-95.181	-0.253	-0.069
-437.749	105.917	-0.060	-0.071
-436.734	14.533	0.171	0.135
-435.719	260.127	0.119	-0.208
-434.705	-90.080	0.250	0.074
-433.690	-171.846	-0.358	-0.012
-432.676	800.000	0.029	-0.096
-431.661	-9.122	-0.196	-0.132
-430.646	-65.552	-0.488	-0.198
-429.632	-200.000	0.044	-0.551
-428.617	-200.000	-0.005	-0.188
-427.603	-42.595	-0.333	-0.172
-426.588	193.442	-0.144	-0.220
-425.573	-168.909	-0.290	0.011
-424.559	129.235	0.197	0.254
-423.544	-27.127	0.153	0.090
-422.530	105.545	-0.087	-0.105
-421.515	-66.608	0.175	-0.070
-420.500	-134.323	0.332	0.041
-419.486	505.714	0.078	-0.183
-418.471	-65.738	0.313	-0.127
-417.457	1.216	-0.123	0.089
-416.442	-200.000	0.028	-0.215
-415.428	-200.000	-0.005	-0.046
-414.413	800.000	-0.016	-0.055
-413.398	800.000	0.085	-0.267
-412.384	-60.062	-0.164	-0.071
-411.369	790.678	-0.075	-0.208
-410.355	-200.000	-0.020	0.174
-409.340	81.927	0.091	0.099
-408.325	-0.528	-0.096	0.069
-407.311	234.727	-0.139	-0.232
-406.296	-28.413	0.237	-0.138
-405.282	149.939	-0.281	-0.385
-404.267	-21.751	-0.168	-0.103
-403.252	800.000	-0.046	-0.202
-402.238	-200.000	-0.011	0.067
-401.223	106.022	-0.213	0.255
-400.209	-200.000	0.067	-0.368
-399.194	264.209	-0.057	-0.101
-398.179	230.438	0.065	-0.107
-397.165	-95.403	0.269	0.073
-396.150	-200.000	0.015	0.246
-395.136	116.776	-0.088	-0.109
-394.121	93.075	-0.188	-0.215
-393.106	-75.375	-0.354	-0.128
-392.092	-97.160	0.116	-0.031
-391.077	800.000	-0.121	-0.362
-390.063	-13.884	-0.329	0.215
-389.048	800.000	-0.086	0.380
-388.033	-140.773	-0.406	-0.042
-387.019	-61.243	0.223	-0.095
-386.004	625.937	-0.045	0.115
-384.990	-50.724	0.098	-0.047
-383.975	-200.000	0.014	0.129
-382.960	19.278	-0.050	-0.040
-381.946	683.616	0.022	0.057
-380.931	800.000	-0.084	-0.246
-379.917	-59.991	-0.405	-0.175
-378.902	458.792	-0.025	-0.056
-377.888	800.000	0.024	-0.104
-376.873	-37.907	-0.209	-0.112
-375.858	29.276	0.226	-0.194
-374.844	-28.287	-0.110	-0.064
-373.829	-28.363	0.044	0.025
-372.815	96.344	0.073	0.084
-371.800	110.652	-0.131	0.159
-370.785	401.138	0.140	0.298
-369.771	-91.294	-0.066	0.019
-368.756	-10.983	-0.223	-0.149
-367.742	-200.000	-0.097	0.000
-366.727	181.417	0.155	0.230
-365.712	4.166	0.011	-0.008
-364.698	-149.488	-0.137	-0.011
-363.683	-76.784	-0.181	-0.064
-362.669	-200.000	0.015	-0.278
-361.654	-200.000	0.007	0.219
-360.639	-101.838	-0.078	-0.019
-359.625	-200.000	-0.048	0.268
-358.610	-111.942	0.244	-0.050
-357.596	-23.791	0.221	-0.134
-356.581	583.285	0.042	0.104
-355.566	13.121	-0.166	-0.130
-354.552	800.000	-0.015	-0.057
-353.537	-19.478	0.221	-0.138
-352.523	136.305	0.010	0.013
-351.508	-13.236	-0.588	0.385
-350.493	-200.000	0.056	-0.276
-349.479	800.000	0.036	-0.150
-348.464	-200.000	0.015	0.185
-347.450	126.352	-0.022	-0.028
-346.435	120.718	0.183	0.229
-345.420	183.929	-0.207	0.309
-344.406	283.420	0.087	0.158
-343.391	305.053	0.020	-0.037
-342.377	29.709	0.278	-0.239
-341.362	-200.000	0.001	-0.198
-340.348	7.491	-0.254	0.191
-339.333	-200.000	0.028	0.169
-338.318	-200.000	-0.001	0.191
-337.304	57.448	-0.095	0.093
-336.289	-59.830	0.077	-0.033
-335.275	301.285	0.066	0.122
-334.260	19.234	0.229	0.185
-333.245	251.891	0.026	-0.044
-332.231	-200.000	-0.056	0.362
-331.216	-65.513	-0.111	0.045
-330.202	800.000	-0.035	0.144
-329.187	800.000	-0.066	-0.196
-328.172	357.062	-0.206	-0.414
-327.158	31.223	0.242	-0.209
-326.143	126.095	-0.070	0.089
-325.129	111.654	-0.093	0.113
-324.114	-23.443	-0.298	-0.180
-323.099	-200.000	0.020	0.116
-322.085	208.319	-0.062	0.098
-321.070	-104.130	-0.243	-0.057
-320.056	123.020	0.287	0.362
-319.041	101.988	-0.266	-0.313
-318.026	-12.264	-0.118	0.077
-317.012	800.000	0.025	-0.102
-315.997	-200.000	-0.021	-0.176
-314.983	-122.463	0.320	0.052
-313.968	-49.253	0.188	0.091
-312.953	-99.865	0.070	0.018
-311.939	800.000	-0.030	0.093
-310.924	-50.876	-0.238	-0.113
-309.910	-200.000	0.032	-0.281
-308.895	448.999	-0.092	-0.204
-307.880	-109.288	-0.197	0.042
-306.866	675.485	0.085	-0.221
-305.851	-192.494	0.272	0.003
-304.837	-98.606	-0.192	0.049
-303.822	654.266	0.051	0.132
-302.807	201.372	0.094	-0.146
-301.793	351.938	0.106	0.212
-300.778	61.934	0.053	0.053
-299.764	-115.455	0.531	0.101
-298.749	-200.000	0.028	0.132
-297.735	-75.373	0.191	0.068
-296.720	-8.235	0.220	0.149
-295.705	-200.000	-0.002	-0.201
-294.691	133.646	-0.151	-0.196
-293.676	-77.399	-0.154	-0.054
-292.662	-123.299	-0.267	-0.043
-291.647	-200.000	0.032	-0.142
-290.632	19.804	-0.153	-0.124
-289.618	52.583	0.195	0.188
-288.603	800.000	0.077	0.270
-287.589	247.028	0.172	-0.293
-286.574	16.469	0.315	0.251
-285.559	-72.141	0.491	0.184
-284.545	-140.373	0.362	-0.038
-283.530	-110.773	0.409	-0.085
-282.516	-148.555	-0.337	-0.028
-281.501	38.695	-0.146	0.131
-280.486	125.261	-0.257	0.326
-279.472	-48.757	-0.064	-0.031
-278.457	315.903	0.113	0.214
-277.443	153.768	0.139	0.192
-276.428	290.480	-0.067	0.122
-275.413	-26.735	-0.252	0.149
-274.399	7.185	0.081	-0.061
-273.384	-18.072	0.218	-0.137
-272.370	155.839	0.109	0.151
-271.355	-139.118	-0.223	-0.024
-270.340	571.929	0.061	0.149
-269.326	-200.000	-0.009	0.160
-268.311	-88.286	-0.223	-0.067
-267.297	4.552	0.182	-0.135
-266.282	79.892	0.113	0.122
-265.267	-66.210	-0.344	-0.138
-264.253	-38.888	0.376	0.199
-263.238	20.974	0.237	-0.193
-262.224	-62.544	0.234	-0.098
-261.209	-166.340	0.215	0.009
-260.195	299.497	0.068	0.126
-259.180	-200.000	-0.045	0.281
-258.165	-200.000	0.033	0.192
-257.151	-200.000	-0.009	0.451
-256.136	289.077	-0.088	0.161
-255.122	-65.024	0.175	0.071
-254.107	-12.359	0.168	-0.110
-253.092	-200.000	-0.045	-0.199
-252.078	-200.000	-0.038	-0.261
-251.063	-92.858	0.142	-0.040
-250.049	800.000	0.037	0.144
-249.034	-200.000	0.025	-0.139
-248.019	-22.360	-0.243	-0.148
-247.005	140.818	-0.139	-0.185
-245.990	166.272	-0.137	0.195
-244.976	-144.899	0.139	0.013
-243.961	181.532	-0.227	0.336
-242.946	775.512	-0.046	-0.125
-241.932	8.400	0.042	0.032
-240.917	-28.595	0.136	-0.079
-239.903	249.239	0.159	-0.270
-238.888	-41.673	-0.080	-0.041
-237.873	-200.000	0.045	0.267
-236.859	-150.557	-0.221	-0.017
-235.844	554.507	-0.165	0.399
-234.830	525.769	0.048	0.114
-233.815	-99.298	0.138	-0.035
-232.800	-105.125	-0.104	-0.024
-231.786	-103.918	0.154	0.036
-230.771	-59.583	-0.224	-0.097
-229.757	-69.333	0.336	-0.130
-228.742	-36.817	0.168	0.091
-227.727	550.517	-0.035	-0.085
-226.713	58.643	0.280	-0.276
-225.698	800.000	-0.040	-0.123
-224.684	800.000	-0.101	-0.333
-223.669	109.821	-0.155	-0.187
-222.655	-51.504	0.089	0.042
-221.640	-200.000	0.035	0.268
-220.625	276.824	-0.035	0.062
-219.611	-59.395	0.350	0.151
-218.596	133.848	-0.105	0.136
-217.582	-200.000	-0.028	-0.153
-216.567	800.000	-0.014	-0.060
-215.552	-200.000	0.001	-0.150
-214.538	-92.407	-0.293	0.083
-213.523	-34.134	-0.312	0.172
-212.509	-91.351	-0.453	0.130
-211.494	59.625	-0.200	0.198
-210.479	78.126	0.197	-0.211
-209.465	-200.000	0.003	0.077
-208.450	-119.058	0.275	-0.048
-207.436	-200.000	0.216	-0.001
-206.421	28.623	-0.273	0.231
-205.406	-46.029	-0.190	-0.094
-204.392	-200.000	0.015	0.339
-203.377	-69.803	0.167	-0.064
-202.363	800.000	-0.039	-0.141
-201.348	-200.000	-0.053	0.263
-200.333	-4.913	-0.127	-0.087
-199.319	-87.966	0.377	-0.114
-198.304	614.221	0.044	0.109
-197.290	-2.558	-0.075	0.053
-196.275	401.558	-0.156	-0.329
-195.260	-47.014	-0.085	-0.042
-194.246	-90.795	0.098	0.028
-193.231	-200.000	0.020	0.286
-192.217	12.945	-0.179	-0.139
-191.202	-100.318	0.095	-0.024
-190.187	418.289	-0.128	0.274
-189.173	-67.545	0.179	-0.070
-188.158	-100.970	0.144	0.035
-187.144	-156.680	-0.400	0.025
-186.129	152.942	-0.110	0.151
-185.114	407.091	-0.071	0.150
-184.100	549.582	0.237	-0.569
-183.085	-109.404	0.105	0.022
-182.071	342.593	-0.128	-0.252
-181.056	800.000	-0.076	-0.254
-180.042	394.057	0.059	-0.124
-179.027	-91.638	0.315	0.090
-178.012	478.256	0.058	0.131
-176.998	-76.033	0.140	-0.050
-175.983	15.863	-0.183	0.144
-174.969	-61.049	0.093	-0.039
-173.954	-112.919	0.204	0.041
-172.939	104.838	0.104	-0.123
-171.925	219.772	-0.079	0.127
-170.910	-200.000	0.001	0.261
-169.896	-143.947	-0.099	0.009
-168.881	-14.440	0.175	0.113
-167.866	-200.000	0.008	-0.093
-166.852	-172.761	0.050	-0.002
-165.837	-118.404	-0.040	0.007
-164.823	-51.837	-0.231	-0.108
-163.808	41.191	-0.079	-0.072
-162.793	-99.759	-0.117	0.029
-161.779	60.865	-0.092	0.092
-160.764	-200.000	0.047	-0.289
-159.750	62.659	0.151	0.151
-158.735	57.254	0.096	0.094
-157.720	185.561	-0.110	0.164
-156.706	156.371	-0.071	-0.098
-155.691	-162.294	0.051	0.003
-154.677	158.918	-0.107	-0.149
-153.662	39.859	-0.176	0.158
-152.647	-99.363	-0.330	0.083
-151.633	-12.954	-0.095	0.062
-150.618	498.805	-0.049	0.112
-149.604	800.000	-0.027	-0.102
-148.589	-184.573	0.179	-0.003
-147.574	-200.000	-0.027	0.241
-146.560	-200.000	-0.040	-0.235
-145.545	-2.797	0.207	0.145
-144.531	-79.114	-0.338	0.115
-143.516	9.828	-0.196	0.149
-142.502	-97.851	0.312	0.081
-141.487	2.073	0.106	0.076
-140.472	-6.403	-0.137	-0.093
-139.458	-88.927	0.190	0.056
-138.443	-48.857	0.182	0.087
-137.429	-10.568	-0.254	0.168
-136.414	34.528	-0.056	-0.049
-135.399	139.982	0.107	0.141
-134.385	57.167	0.035	0.034
-133.370	-66.937	0.097	-0.038
-132.356	143.429	0.092	0.122
-131.341	75.820	0.077	-0.082
-130.326	-179.300	0.170	0.004
-129.312	88.873	-0.095	-0.106
-128.297	-58.766	0.232	-0.100
-127.283	-91.054	-0.428	-0.123
-126.268	-82.794	-0.216	0.070
-125.253	800.000	0.143	0.399
-124.239	-200.000	-0.082	0.408
-123.224	117.185	-0.050	0.062
-122.210	800.000	-0.046	0.159
-121.195	-113.721	0.087	0.017
-120.180	-18.803	-0.227	-0.141
