DTS Sentinel unit serial number:	SN413079Multiplexer serial number:	ORYXHardware model number:	OX4-SRSoftware version number:	ORYX F/W v4.00 Oryx Data Collector v3.7.2.0data status	okinstallation	princeton_trtdifferential loss correction	single-endedforward channel	channel 4reverse channel	N/Adate	2019/09/16time	18:01:35forward acquisition time	60.00reverse acquisition time	0.00gamma	496.2192k internal	0.2299k external	0.2299temperature offset calibration	0.9948default loss term (dB/km)	0.3790temperature slope calibration	1.0000multiplexer offset coefficient	1.0000multiplexer slope coefficient	1.0000fibre end	0.00T internal ref (°C)	37.58T ext. ref 1 (°C)	15.66T ext. ref 2 (°C)	31.32length (m)	temperature (°C)	Stokes	anti-Stokes-747.200	-200.000	0.047	-0.307
-746.185	148.989	-0.064	0.089
-745.171	722.437	-0.107	-0.291
-744.156	800.000	0.078	-0.248
-743.142	-131.714	0.157	0.021
-742.127	-70.442	-0.468	0.181
-741.112	-153.252	-0.207	-0.015
-740.098	-200.000	0.073	0.334
-739.083	683.779	-0.050	-0.133
-738.069	800.000	0.116	0.333
-737.054	-138.515	-0.134	-0.015
-736.039	800.000	0.111	-0.343
-735.025	735.146	0.058	0.158
-734.010	-99.245	-0.499	0.129
-732.996	67.608	0.134	-0.139
-731.981	-32.366	-0.319	0.182
-730.966	-25.293	0.257	0.155
-729.952	72.463	-0.184	-0.195
-728.937	-146.902	-0.156	0.014
-727.923	513.845	0.089	0.212
-726.908	97.672	0.224	-0.262
-725.894	403.402	-0.139	0.298
-724.879	16.098	-0.303	-0.243
-723.864	366.097	-0.187	0.385
-722.850	274.086	-0.074	0.133
-721.835	-44.770	-0.071	-0.036
-720.821	-141.752	0.277	-0.028
-719.806	517.550	0.021	-0.050
-718.791	-189.179	0.032	0.000
-717.777	28.967	0.294	-0.254
-716.762	-200.000	0.017	-0.280
-715.748	139.816	0.201	-0.270
-714.733	-196.649	-0.314	-0.002
-713.718	-200.000	-0.002	0.008
-712.704	32.742	-0.131	-0.115
-711.689	-104.724	-0.263	-0.062
-710.675	-200.000	0.000	0.023
-709.660	-141.868	0.120	-0.012
-708.645	-48.715	-0.283	-0.139
-707.631	790.603	0.112	-0.315
-706.616	480.552	-0.146	-0.337
-705.602	-89.865	-0.253	-0.075
-704.587	101.278	0.099	-0.118
-703.572	302.893	0.242	-0.457
-702.558	70.052	0.215	-0.226
-701.543	-47.480	0.051	0.025
-700.529	-200.000	0.014	-0.126
-699.514	204.647	0.197	-0.311
-698.499	-4.551	0.130	-0.091
-697.485	-34.230	0.202	-0.113
-696.470	-90.198	-0.192	-0.057
-695.456	-200.000	-0.027	0.393
-694.441	323.395	-0.183	0.356
-693.426	-98.524	0.146	-0.038
-692.412	-200.000	-0.018	-0.261
-691.397	-139.180	-0.253	-0.028
-690.383	213.515	0.056	-0.090
-689.368	-124.565	-0.219	-0.035
-688.354	-200.000	0.008	0.096
-687.339	629.703	-0.055	-0.142
-686.324	27.434	-0.272	-0.233
-685.310	-38.172	0.115	0.062
-684.295	-98.206	-0.174	-0.045
-683.281	-200.000	-0.008	-0.211
-682.266	128.954	0.110	0.143
-681.251	177.445	-0.106	-0.157
-680.237	11.184	-0.092	-0.072
-679.222	217.971	0.126	-0.204
-678.208	-200.000	-0.027	0.390
-677.193	224.874	0.029	0.048
-676.178	3.104	0.285	-0.211
-675.164	-88.297	0.315	0.096
-674.149	-122.222	0.285	0.048
-673.135	-116.762	-0.286	-0.053
-672.120	-40.071	0.135	0.072
-671.105	210.296	0.064	0.102
-670.091	-40.084	-0.092	0.049
-669.076	-131.218	0.262	0.035
-668.062	-117.792	-0.377	0.069
-667.047	-139.767	0.102	0.011
-666.032	384.542	-0.058	-0.121
-665.018	747.211	0.135	-0.369
-664.003	-124.634	-0.049	0.008
-662.989	-200.000	-0.002	0.160
-661.974	-92.847	0.122	0.035
-660.959	-200.000	-0.007	0.071
-659.945	181.550	-0.114	-0.170
-658.930	379.123	0.110	-0.230
-657.916	800.000	-0.085	-0.374
-656.901	103.691	-0.048	0.057
-655.886	-149.136	0.385	-0.031
-654.872	47.738	-0.120	0.114
-653.857	-116.710	0.084	-0.016
-652.843	27.943	0.304	-0.261
-651.828	132.369	0.266	0.348
-650.814	125.715	-0.162	0.208
-649.799	-41.747	-0.188	-0.098
-648.784	800.000	-0.102	0.303
-647.770	-200.000	0.002	0.119
-646.755	-62.330	0.286	-0.121
-645.741	-25.060	-0.128	-0.077
-644.726	245.103	0.162	0.277
-643.711	-200.000	0.005	-0.034
-642.697	21.269	-0.082	-0.068
-641.682	96.418	0.093	-0.109
-640.668	75.574	0.091	-0.098
-639.653	800.000	0.131	-0.467
-638.638	-51.981	-0.160	-0.076
-637.624	800.000	-0.049	0.185
-636.609	206.831	-0.277	-0.439
-635.595	-187.286	-0.144	-0.002
-634.580	-200.000	-0.018	0.186
-633.565	123.264	0.068	-0.086
-632.551	-193.186	0.096	-0.001
-631.536	-39.904	-0.068	0.036
-630.522	-175.430	-0.193	0.005
-629.507	155.762	0.029	-0.040
-628.492	-200.000	0.029	-0.137
-627.478	27.584	0.340	0.291
-626.463	-59.004	0.392	0.172
-625.449	249.274	-0.218	-0.375
-624.434	-23.265	-0.194	0.119
-623.419	-167.511	0.247	0.010
-622.405	36.637	-0.272	0.244
-621.390	39.838	0.218	-0.199
-620.376	800.000	-0.079	0.225
-619.361	420.867	-0.043	0.093
-618.346	-51.348	0.390	0.185
-617.332	800.000	0.056	0.201
-616.317	62.561	0.022	-0.022
-615.303	-200.000	-0.032	0.375
-614.288	-200.000	-0.011	0.099
-613.273	403.307	0.108	0.231
-612.259	78.636	0.150	-0.162
-611.244	800.000	0.071	-0.214
-610.230	-104.099	0.138	0.032
-609.215	-54.393	-0.093	-0.043
-608.201	357.445	0.105	-0.212
-607.186	-200.000	0.000	-0.015
-606.171	800.000	0.095	0.388
-605.157	-200.000	-0.039	0.184
-604.142	82.302	-0.052	-0.057
-603.128	16.074	-0.170	0.136
-602.113	-200.000	0.076	-0.439
-601.098	421.658	-0.101	-0.220
-600.084	110.347	-0.018	0.022
-599.069	-98.444	0.064	0.017
-598.055	-83.957	-0.388	0.125
-597.040	-200.000	0.052	-0.269
-596.025	-200.000	0.014	-0.414
-595.011	116.227	-0.192	-0.238
-593.996	-29.114	0.255	0.148
-592.982	-189.924	-0.228	0.003
-591.967	380.811	0.019	-0.040
-590.952	-107.411	-0.269	0.060
-589.938	2.261	0.039	0.028
-588.923	212.351	-0.051	-0.082
-587.909	-200.000	-0.011	-0.259
-586.894	-119.855	-0.203	-0.035
-585.879	145.416	-0.070	0.096
-584.865	-106.054	0.252	0.057
-583.850	-200.000	-0.006	-0.187
-582.836	-152.661	0.278	0.020
-581.821	-98.959	0.321	-0.083
-580.806	328.516	0.084	-0.164
-579.792	800.000	-0.040	-0.116
-578.777	136.312	-0.062	0.082
-577.763	-48.807	0.251	-0.122
-576.748	-35.418	-0.044	-0.024
-575.733	199.375	-0.092	-0.144
-574.719	140.615	-0.154	0.206
-573.704	425.726	0.104	-0.227
-572.690	-31.275	0.169	0.096
-571.675	231.606	-0.093	-0.155
-570.661	-123.342	-0.425	0.069
-569.646	-11.255	0.054	0.036
-568.631	98.504	-0.108	0.126
-567.617	-131.930	-0.140	0.019
-566.602	-200.000	0.057	0.443
-565.588	51.030	-0.354	-0.340
-564.573	116.702	-0.205	-0.254
-563.558	-200.000	0.040	0.201
-562.544	-134.002	0.247	-0.031
-561.529	490.234	0.120	0.278
-560.515	-200.000	0.017	0.291
-559.500	-42.607	0.251	0.129
-558.485	-200.000	0.002	0.121
-557.471	-200.000	0.007	0.196
-556.456	-69.616	-0.184	-0.072
-555.442	54.031	-0.229	0.223
-554.427	-135.822	0.119	-0.014
-553.412	-23.793	-0.110	0.067
-552.398	77.074	-0.053	0.057
-551.383	-53.383	-0.140	-0.065
-550.369	149.355	-0.187	0.256
-549.354	9.695	-0.105	-0.081
-548.339	-89.914	0.251	-0.074
-547.325	16.435	-0.245	0.196
-546.310	551.150	0.070	-0.171
-545.296	-61.922	0.306	0.130
-544.281	-137.493	-0.151	-0.017
-543.266	248.394	0.100	0.171
-542.252	800.000	0.041	0.154
-541.237	800.000	-0.068	-0.193
-540.223	76.910	0.059	0.064
-539.208	86.560	-0.064	-0.072
-538.193	-200.000	0.048	-0.281
-537.179	-17.898	0.042	0.026
-536.164	-136.718	0.139	0.016
-535.150	36.646	0.283	-0.253
-534.135	17.233	-0.072	0.058
-533.121	-125.084	-0.077	0.012
-532.106	168.396	-0.127	-0.183
-531.091	311.879	0.138	0.262
-530.077	185.611	0.164	0.246
-529.062	-200.000	0.010	-0.052
-528.048	800.000	-0.091	0.314
-527.033	741.439	-0.035	-0.095
-526.018	357.057	-0.108	-0.217
-525.004	-149.573	0.170	-0.014
-523.989	-130.366	0.114	0.016
-522.975	8.615	-0.102	0.078
-521.960	-155.643	-0.218	-0.014
-520.945	597.497	-0.053	-0.133
-519.931	-73.273	-0.129	0.048
-518.916	178.616	-0.118	-0.174
-517.902	-47.971	0.473	0.232
-516.887	-200.000	-0.008	0.276
-515.872	800.000	-0.038	0.134
-514.858	-110.458	-0.240	-0.050
-513.843	-20.724	0.068	0.042
-512.829	17.188	-0.088	0.070
-511.814	-90.384	-0.143	0.042
-510.799	8.857	0.022	-0.017
-509.785	-200.000	0.020	0.183
-508.770	-103.278	0.098	0.023
-507.756	-171.749	0.360	0.012
-506.741	800.000	-0.106	-0.404
-505.726	-90.769	-0.104	-0.030
-504.712	-37.351	-0.437	-0.236
-503.697	-185.491	0.275	0.004
-502.683	48.555	-0.211	0.200
-501.668	-137.428	0.503	-0.058
-500.653	181.340	-0.015	0.022
-499.639	-200.000	0.107	0.498
-498.624	-28.740	-0.150	-0.087
-497.610	-200.000	0.018	0.099
-496.595	19.023	-0.195	-0.158
-495.581	-200.000	0.001	0.076
-494.566	51.021	0.179	0.171
-493.551	-200.000	-0.009	-0.265
-492.537	251.199	-0.052	-0.090
-491.522	60.081	0.140	-0.140
-490.508	197.578	0.062	-0.095
-489.493	800.000	-0.018	-0.057
-488.478	-200.000	0.017	0.232
-487.464	-19.102	0.108	-0.068
-486.449	800.000	0.062	-0.273
-485.435	485.778	-0.105	0.243
-484.420	-168.509	0.316	0.012
-483.405	39.351	-0.242	-0.219
-482.391	800.000	-0.033	-0.109
-481.376	171.880	0.147	-0.214
-480.362	800.000	0.016	-0.045
-479.347	-36.436	-0.284	-0.155
-478.332	800.000	-0.073	0.255
-477.318	-200.000	-0.018	-0.274
-476.303	205.529	-0.107	-0.167
-475.289	359.526	-0.050	-0.101
-474.274	-69.970	0.207	0.080
-473.259	657.488	-0.101	0.263
-472.245	-40.316	0.401	-0.211
-471.230	166.495	0.139	-0.198
-470.216	-77.071	-0.108	-0.038
-469.201	-141.406	0.079	0.008
-468.186	-101.375	-0.170	0.042
-467.172	21.646	0.122	-0.101
-466.157	80.348	0.129	-0.140
-465.143	-106.660	0.200	0.045
-464.128	150.344	0.063	0.086
-463.113	800.000	-0.116	0.346
-462.099	-200.000	-0.021	-0.351
-461.084	800.000	-0.048	-0.179
-460.070	-151.357	-0.239	0.018
-459.055	-165.310	-0.096	0.004
-458.040	567.036	0.110	-0.269
-457.026	800.000	-0.054	0.170
-456.011	-126.402	-0.238	0.036
-454.997	800.000	-0.105	-0.372
-453.982	664.581	-0.092	-0.240
-452.968	-92.111	0.296	-0.084
-451.953	-98.678	-0.315	0.081
-450.938	-57.793	-0.218	-0.096
-449.924	800.000	-0.063	-0.271
-448.909	-145.005	0.151	0.014
-447.895	-200.000	-0.041	-0.273
-446.880	70.141	0.186	0.194
-445.865	-25.290	-0.259	-0.154
-444.851	-56.033	0.210	-0.094
-443.836	-60.391	-0.248	-0.106
-442.822	60.479	-0.084	0.084
-441.807	800.000	-0.033	0.132
-440.792	107.950	-0.044	-0.053
-439.778	-200.000	-0.021	-0.330
-438.763	-200.000	-0.005	0.202
-437.749	275.782	0.028	0.049
-436.734	-77.198	0.206	0.072
-435.719	-67.403	-0.090	0.036
-434.705	-13.350	0.320	-0.210
-433.690	-15.052	-0.187	-0.121
-432.676	281.448	0.014	0.026
-431.661	-55.213	-0.177	-0.080
-430.646	7.791	0.213	0.161
-429.632	-86.318	-0.303	-0.094
-428.617	-148.737	0.093	0.008
-427.603	800.000	0.067	0.228
-426.588	-116.695	0.121	0.022
-425.573	461.214	0.062	0.139
-424.559	800.000	0.091	-0.313
-423.544	3.102	0.110	-0.081
-422.530	2.352	0.112	0.082
-421.515	-52.763	-0.326	-0.152
-420.500	387.811	0.120	-0.251
-419.486	326.842	-0.091	0.176
-418.471	-120.547	-0.177	0.030
-417.457	215.770	-0.077	0.124
-416.442	800.000	-0.066	0.255
-415.428	196.062	0.023	0.036
-414.413	49.358	0.119	-0.113
-413.398	48.052	-0.021	0.020
-412.384	530.134	-0.090	0.215
-411.369	-150.851	0.029	0.002
-410.355	444.309	-0.123	-0.271
-409.340	-96.420	0.238	-0.063
-408.325	-200.000	0.013	0.387
-407.311	104.919	0.227	0.270
-406.296	327.140	0.072	-0.140
-405.282	40.387	-0.246	0.223
-404.267	800.000	0.195	-0.641
-403.252	-164.245	-0.310	-0.014
-402.238	-200.000	-0.027	0.221
-401.223	-161.412	-0.089	0.005
-400.209	-200.000	-0.028	-0.304
-399.194	-87.782	-0.282	0.086
-398.179	16.408	-0.120	0.095
-397.165	-76.227	0.283	0.100
-396.150	-61.766	-0.255	-0.108
-395.136	323.358	-0.064	-0.124
-394.121	219.861	-0.066	-0.106
-393.106	-110.142	0.138	0.029
-392.092	277.292	-0.123	0.219
-391.077	42.824	0.139	-0.128
-390.063	-200.000	0.004	-0.229
-389.048	-200.000	0.019	0.302
-388.033	524.675	-0.085	-0.200
-387.019	-63.921	-0.112	-0.046
-386.004	-100.373	-0.219	0.055
-384.990	-89.475	0.165	0.049
-383.975	-22.378	-0.103	-0.062
-382.960	-123.748	-0.146	-0.023
-381.946	112.894	-0.026	-0.031
-380.931	174.215	0.052	-0.076
-379.917	-200.000	0.005	0.216
-378.902	50.270	0.160	0.152
-377.888	-108.879	0.155	-0.033
-376.873	-88.482	0.088	-0.026
-375.858	2.487	-0.349	-0.254
-374.844	-170.178	0.217	0.008
-373.829	131.314	-0.079	-0.102
-372.815	800.000	-0.027	-0.091
-371.800	199.115	-0.288	0.443
-370.785	-121.510	0.317	-0.053
-369.771	23.519	0.076	0.063
-368.756	-30.995	0.038	-0.022
-367.742	-33.568	-0.175	-0.097
-366.727	-134.133	0.209	-0.026
-365.712	-32.876	0.138	-0.077
-364.698	-87.859	-0.164	-0.050
-363.683	-200.000	-0.008	0.092
-362.669	-200.000	0.001	0.120
-361.654	63.582	-0.214	0.216
-360.639	-200.000	-0.017	0.124
-359.625	-99.056	0.140	0.036
-358.610	56.137	-0.151	-0.148
-357.596	-10.104	-0.155	-0.104
-356.581	1.336	-0.247	-0.179
-355.566	52.293	0.133	-0.128
-354.552	-85.247	0.156	0.049
-353.537	-145.396	-0.378	0.034
-352.523	800.000	-0.034	0.139
-351.508	-124.187	-0.094	-0.015
-350.493	-51.621	-0.208	-0.098
-349.479	27.687	0.045	-0.038
-348.464	92.687	0.133	0.151
-347.450	-47.742	0.131	-0.064
-346.435	-44.534	-0.154	0.078
-345.420	721.909	0.114	0.304
-344.406	12.560	0.063	0.049
-343.391	-200.000	-0.043	-0.209
-342.377	-163.151	0.171	-0.008
-341.362	139.087	0.247	0.326
-340.348	-19.899	-0.233	0.144
-339.333	-91.287	-0.162	0.047
-338.318	-79.153	0.499	0.170
-337.304	-200.000	-0.216	0.001
-336.289	800.000	-0.024	0.098
-335.275	-71.702	-0.096	0.036
-334.260	125.650	0.116	0.148
-333.245	-200.000	0.021	-0.375
-332.231	-50.272	-0.129	-0.061
-331.216	50.146	0.160	0.152
-330.202	585.867	-0.083	0.204
-329.187	-200.000	0.005	0.188
-328.172	-200.000	-0.007	0.496
-327.158	-200.000	-0.029	-0.239
-326.143	-93.758	-0.209	0.058
-325.129	800.000	0.073	-0.215
-324.114	-41.404	-0.206	0.107
-323.099	-200.000	-0.045	0.244
-322.085	-78.274	0.204	0.070
-321.070	-200.000	0.041	-0.183
-320.056	210.293	0.104	0.164
-319.041	-200.000	-0.027	-0.175
-318.026	53.154	-0.187	0.180
-317.012	-200.000	0.042	-0.305
-315.997	-22.937	0.136	0.083
-314.983	-200.000	0.002	0.096
-313.968	586.748	0.078	-0.192
-312.953	173.730	-0.257	0.372
-311.939	562.083	-0.098	0.238
-310.924	-111.204	0.109	0.022
-309.910	-40.290	-0.166	0.086
-308.895	-47.016	0.320	-0.157
-307.880	242.638	0.127	-0.213
-306.866	-122.800	0.333	-0.054
-305.851	-122.568	0.180	0.029
-304.837	-200.000	0.002	0.284
-303.822	-165.764	0.133	-0.006
-302.807	800.000	-0.092	0.292
-301.793	56.353	0.369	-0.360
-300.778	800.000	0.022	-0.094
-299.764	-170.785	0.160	0.006
-298.749	-200.000	-0.001	-0.160
-297.735	-100.804	0.310	-0.076
-296.720	393.496	0.223	0.466
-295.705	-72.723	-0.144	0.053
-294.691	18.582	-0.054	-0.043
-293.676	18.775	-0.340	0.273
-292.662	69.219	-0.301	0.310
-291.647	-200.000	0.067	-0.300
-290.632	-115.279	-0.029	0.006
-289.618	-51.200	0.096	0.045
-288.603	-28.649	0.317	0.183
-287.589	-200.000	0.000	-0.138
-286.574	63.793	-0.166	-0.168
-285.559	800.000	-0.058	0.214
-284.545	-48.674	-0.528	-0.254
-283.530	83.645	-0.062	0.068
-282.516	800.000	-0.022	-0.075
-281.501	-200.000	0.032	-0.173
-280.486	-200.000	-0.017	-0.212
-279.472	-121.145	0.139	-0.023
-278.457	-200.000	0.015	-0.098
-277.443	-69.334	0.332	-0.128
-276.428	-26.350	0.124	0.073
-275.413	54.819	0.038	0.037
-274.399	207.956	0.182	-0.285
-273.384	-200.000	-0.027	0.128
-272.370	-10.381	0.040	-0.027
-271.355	192.862	-0.249	0.377
-270.340	-200.000	0.005	0.096
-269.326	-51.433	-0.363	0.170
-268.311	92.075	0.067	-0.076
-267.297	800.000	0.091	0.369
-266.282	308.118	0.090	-0.169
-265.267	-12.399	-0.009	-0.006
-264.253	160.993	0.091	-0.127
-263.238	-29.206	-0.438	0.251
-262.224	189.828	-0.217	0.326
-261.209	39.826	-0.250	-0.225
-260.195	-60.879	-0.092	-0.039
-259.180	-105.526	0.121	-0.028
-258.165	-105.920	-0.103	-0.023
-257.151	130.191	0.252	0.323
-256.136	-200.000	-0.013	0.326
-255.122	228.245	0.157	0.256
-254.107	580.090	-0.087	-0.214
-253.092	110.017	0.085	0.102
-252.078	-98.823	-0.178	-0.045
-251.063	119.107	0.192	-0.238
-250.049	728.817	0.115	-0.308
-249.034	-139.399	0.093	0.010
-248.019	82.794	0.229	-0.249
-247.005	18.076	0.230	-0.183
-245.990	278.493	0.130	0.232
-244.976	-200.000	-0.024	-0.135
-243.961	-31.703	0.128	-0.072
-242.946	-200.000	0.016	-0.204
-241.932	-79.317	0.155	-0.053
-240.917	166.501	-0.149	0.212
-239.903	25.660	-0.120	0.100
-238.888	101.005	-0.203	-0.236
-237.873	190.692	0.194	0.292
-236.859	-121.214	0.096	-0.016
-235.844	132.451	-0.097	-0.125
-234.830	-200.000	-0.030	0.226
-233.815	-134.939	-0.012	0.001
-232.800	-84.892	0.154	-0.048
-231.786	-191.210	0.139	0.001
-230.771	-150.670	0.097	-0.007
-229.757	607.975	-0.035	-0.087
-228.742	-200.000	-0.019	-0.195
-227.727	-73.881	-0.281	-0.102
-226.713	-22.824	0.215	-0.130
-225.698	259.722	-0.099	-0.171
-224.684	10.942	-0.347	-0.265
-223.669	254.973	0.014	-0.025
-222.655	153.648	-0.022	-0.030
-221.640	253.914	-0.041	0.070
-220.625	171.885	-0.044	-0.063
-219.611	31.517	0.266	-0.229
-218.596	-140.381	0.383	-0.040
-217.582	-200.000	-0.005	0.082
-216.567	-108.896	0.073	-0.016
-215.552	800.000	-0.031	-0.124
-214.538	-57.239	0.155	-0.068
-213.523	-109.853	0.427	0.089
-212.509	-91.742	0.276	0.078
-211.494	-182.156	-0.248	-0.005
-210.479	-101.556	0.100	0.024
-209.465	221.756	-0.039	-0.063
-208.450	-17.336	-0.211	-0.133
-207.436	-200.000	0.009	-0.211
-206.421	-143.585	0.232	-0.022
-205.406	-2.040	-0.214	-0.150
-204.392	107.071	-0.187	0.222
-203.377	138.707	-0.134	-0.176
-202.363	-116.451	-0.276	-0.051
-201.348	163.574	0.144	0.203
-200.333	-20.023	0.171	-0.105
-199.319	36.875	-0.159	-0.140
-198.304	-26.237	0.207	0.121
-197.290	800.000	0.048	0.144
-196.275	259.716	0.189	-0.326
-195.260	46.951	0.275	0.255
-194.246	-200.000	-0.019	0.309
-193.231	-46.621	-0.287	-0.140
-192.217	-59.747	-0.165	-0.071
-191.202	-118.409	0.245	0.043
-190.187	335.851	0.073	0.142
-189.173	115.272	0.069	0.084
-188.158	-117.664	0.300	-0.054
-187.144	487.629	-0.096	0.219
-186.129	-90.223	-0.140	0.041
-185.114	-164.994	0.315	0.014
-184.100	-200.000	-0.004	0.179
-183.085	-127.314	-0.276	0.040
-182.071	-60.058	0.279	0.119
-181.056	-65.797	0.273	0.109
-180.042	-41.247	-0.226	0.117
-179.027	118.837	-0.268	0.330
-178.012	-41.444	-0.228	-0.117
-176.998	-146.959	-0.347	0.030
-175.983	-78.486	-0.147	-0.050
-174.969	800.000	0.090	-0.262
-173.954	-200.000	-0.020	-0.086
-172.939	65.981	-0.112	0.113
-171.925	374.414	-0.196	0.399
-170.910	146.426	-0.207	-0.277
-169.896	-160.471	0.271	-0.015
-168.881	-116.008	0.130	-0.024
-167.866	-4.654	0.270	0.186
-166.852	256.799	-0.199	0.340
-165.837	-187.356	0.053	-0.001
-164.823	-200.000	-0.046	0.434
-163.808	-200.000	0.024	-0.160
-162.793	172.320	0.139	0.200
-161.779	744.287	0.021	-0.057
-160.764	68.959	-0.204	-0.209
-159.750	800.000	0.149	-0.535
-158.735	651.409	0.054	0.138
-157.720	35.380	0.174	0.152
-156.706	-131.528	-0.120	-0.016
-155.691	-119.941	-0.475	-0.081
-154.677	-200.000	-0.072	-0.367
-153.662	-130.603	-0.129	0.017
-152.647	-17.385	0.225	0.142
-151.633	371.867	-0.062	-0.125
-150.618	146.382	-0.079	-0.106
-149.604	-63.785	0.245	-0.100
-148.589	96.880	-0.127	0.145
-147.574	273.191	0.095	0.167
-146.560	-44.448	-0.238	-0.119
-145.545	-200.000	0.019	0.166
-144.531	-200.000	0.155	0.000
-143.516	-120.092	0.241	0.041
-142.502	-17.868	0.144	0.090
-141.487	-139.214	-0.148	0.016
-140.472	-131.931	0.103	0.013
-139.458	-75.825	0.363	-0.128
-138.443	200.217	-0.072	0.111
-137.429	78.840	0.141	-0.151
-136.414	320.824	-0.261	0.494
-135.399	24.508	-0.422	0.348
-134.385	-39.978	-0.239	0.124
-133.370	800.000	0.083	-0.277
-132.356	146.081	0.081	0.109
-131.341	489.902	0.102	-0.231
-130.326	-155.449	0.298	0.019
-129.312	214.828	-0.211	-0.333
-128.297	-83.753	0.059	-0.019
-127.283	47.070	0.220	0.204
-126.268	-147.904	-0.176	0.015
-125.253	-200.000	-0.012	0.140
-124.239	454.635	0.048	-0.106
-123.224	105.651	0.094	0.111
-122.210	428.896	0.038	0.083
