DTS Sentinel unit serial number:	SN413079Multiplexer serial number:	ORYXHardware model number:	OX4-SRSoftware version number:	ORYX F/W v4.00 Oryx Data Collector v3.7.2.0data status	okinstallation	princeton_trtdifferential loss correction	single-endedforward channel	channel 4reverse channel	N/Adate	2019/09/18time	15:33:34forward acquisition time	60.00reverse acquisition time	0.00gamma	496.2192k internal	0.2296k external	0.2296temperature offset calibration	1.0009default loss term (dB/km)	0.3790temperature slope calibration	1.0000multiplexer offset coefficient	1.0000multiplexer slope coefficient	1.0000fibre end	0.00T internal ref (°C)	36.31T ext. ref 1 (°C)	0.77T ext. ref 2 (°C)	31.89length (m)	temperature (°C)	Stokes	anti-Stokes-747.200	-123.253	-0.322	-0.053
-746.185	-134.209	-0.147	0.018
-745.171	-188.767	0.103	0.001
-744.156	141.523	-0.073	0.099
-743.142	-200.000	-0.033	0.194
-742.127	-40.910	-0.261	0.138
-741.112	16.693	0.201	-0.162
-740.098	-200.000	-0.036	0.237
-739.083	-122.517	0.224	-0.037
-738.069	-31.219	0.258	0.149
-737.054	-48.556	0.224	0.110
-736.039	-200.000	-0.063	-0.340
-735.025	623.962	-0.155	0.399
-734.010	-102.003	-0.358	0.088
-732.996	-30.462	-0.181	0.105
-731.981	69.251	0.131	0.137
-730.966	-63.382	0.030	-0.013
-729.952	-0.561	-0.156	-0.113
-728.937	78.599	-0.341	-0.372
-727.923	281.228	0.134	-0.245
-726.908	26.460	0.237	-0.202
-725.894	-80.292	-0.041	-0.014
-724.879	684.315	-0.131	-0.350
-723.864	-15.518	0.092	-0.060
-722.850	-200.000	0.018	0.252
-721.835	5.257	-0.092	0.069
-720.821	45.152	-0.114	0.107
-719.806	591.926	0.090	0.228
-718.791	568.657	-0.034	0.084
-717.777	-37.806	0.328	-0.178
-716.762	132.114	0.078	-0.103
-715.748	109.888	0.019	0.024
-714.733	-53.145	-0.059	0.028
-713.718	-113.545	-0.175	-0.035
-712.704	-181.618	-0.335	0.007
-711.689	-37.790	0.332	-0.180
-710.675	176.208	-0.135	-0.200
-709.660	800.000	0.050	0.191
-708.645	30.356	0.161	0.140
-707.631	40.682	0.182	-0.167
-706.616	157.469	-0.183	0.259
-705.602	46.257	0.194	0.184
-704.587	-7.733	-0.348	-0.240
-703.572	188.033	0.117	0.178
-702.558	-135.870	-0.083	0.010
-701.543	44.720	0.095	0.089
-700.529	68.531	0.194	0.203
-699.514	-152.995	-0.273	0.020
-698.499	613.559	-0.125	0.319
-697.485	800.000	-0.170	-0.539
-696.470	-104.249	0.252	-0.060
-695.456	97.435	-0.349	0.409
-694.441	-78.827	-0.221	-0.077
-693.426	15.982	0.245	0.197
-692.412	-200.000	0.015	0.148
-691.397	198.566	0.061	-0.096
-690.383	-200.000	-0.000	0.116
-689.368	422.132	0.106	0.232
-688.354	-96.495	-0.308	0.083
-687.339	269.728	0.112	0.201
-686.324	49.085	-0.257	0.246
-685.310	800.000	-0.028	-0.105
-684.295	68.218	-0.234	-0.244
-683.281	2.888	-0.280	0.207
-682.266	184.334	-0.164	-0.247
-681.251	-200.000	0.027	-0.272
-680.237	-29.542	-0.169	0.099
-679.222	523.753	0.144	-0.346
-678.208	91.239	-0.103	-0.118
-677.193	203.559	0.159	0.251
-676.178	211.411	-0.089	0.143
-675.164	0.823	-0.135	0.099
-674.149	149.233	-0.085	-0.117
-673.135	106.346	-0.116	-0.140
-672.120	193.939	-0.042	0.066
-671.105	-139.015	-0.487	-0.054
-670.091	-84.524	0.120	-0.039
-669.076	186.927	0.114	0.174
-668.062	-179.598	-0.305	0.007
-667.047	241.634	0.097	0.166
-666.032	410.967	0.041	0.088
-665.018	-67.500	0.067	0.027
-664.003	-144.289	0.390	-0.037
-662.989	434.782	0.078	0.172
-661.974	198.625	-0.050	-0.079
-660.959	-80.009	-0.531	-0.181
-659.945	-200.000	0.029	-0.261
-658.930	-100.930	0.297	-0.074
-657.916	-81.547	0.252	-0.084
-656.901	-45.538	0.120	0.060
-655.886	800.000	-0.027	-0.108
-654.872	92.682	0.164	-0.188
-653.857	800.000	0.088	0.312
-652.843	-84.713	0.247	-0.079
-651.828	-70.565	-0.205	-0.079
-650.814	-144.058	0.329	-0.031
-649.799	624.447	0.031	-0.081
-648.784	748.468	-0.030	-0.083
-647.770	-200.000	-0.058	0.346
-646.755	131.641	-0.213	-0.278
-645.741	262.193	0.110	-0.194
-644.726	204.504	-0.153	-0.241
-643.711	242.071	0.221	0.377
-642.697	-89.980	-0.183	-0.054
-641.682	307.831	-0.080	-0.152
-640.668	-193.694	0.557	0.005
-639.653	233.132	-0.037	0.061
-638.638	-200.000	0.009	-0.291
-637.624	168.433	0.093	-0.134
-636.609	-200.000	0.299	0.001
-635.595	42.932	0.144	-0.134
-634.580	55.228	0.249	-0.245
-633.565	-133.112	0.076	-0.010
-632.551	-83.426	0.433	-0.141
-631.536	253.637	0.076	0.132
-630.522	-9.447	0.070	-0.048
-629.507	-136.929	0.190	0.022
-628.492	-200.000	0.011	0.205
-627.478	-118.683	-0.201	0.036
-626.463	23.395	0.217	-0.181
-625.449	800.000	0.015	0.062
-624.434	54.499	-0.313	-0.306
-623.419	13.042	0.118	-0.093
-622.405	-66.660	-0.311	0.125
-621.390	24.247	0.280	-0.235
-620.376	-49.251	-0.062	0.030
-619.361	415.000	0.137	-0.296
-618.346	-200.000	0.072	-0.363
-617.332	278.269	-0.144	-0.261
-616.317	-200.000	0.010	0.199
-615.303	-90.165	0.233	0.069
-614.288	-74.957	-0.550	0.200
-613.273	-138.512	-0.294	0.033
-612.259	-200.000	0.060	0.416
-611.244	289.268	0.108	0.198
-610.230	140.967	0.035	-0.047
-609.215	25.618	-0.166	0.141
-608.201	800.000	0.067	-0.294
-607.186	379.882	0.185	-0.385
-606.171	-105.595	-0.311	-0.072
-605.157	-124.577	-0.162	0.026
-604.142	-200.000	-0.012	0.346
-603.128	-80.451	0.316	-0.107
-602.113	-200.000	0.006	0.045
-601.098	-96.980	-0.240	-0.064
-600.084	-52.694	0.328	0.154
-599.069	58.247	0.181	0.180
-598.055	-104.096	0.306	-0.072
-597.040	-200.000	0.013	-0.417
-596.025	258.358	-0.166	-0.291
-595.011	-200.000	-0.001	0.238
-593.996	-75.708	-0.350	0.126
-592.982	296.554	-0.167	0.311
-591.967	-87.457	-0.096	-0.030
-590.952	44.750	0.075	-0.070
-589.938	-200.000	0.067	0.356
-588.923	-4.983	-0.142	-0.099
-587.909	107.353	0.125	-0.151
-586.894	668.888	0.078	0.204
-585.879	-145.642	0.448	-0.041
-584.865	-162.795	-0.253	0.013
-583.850	142.747	-0.144	-0.194
-582.836	-200.000	0.015	0.394
-581.821	-181.037	0.419	0.009
-580.806	-26.665	-0.121	-0.072
-579.792	-76.698	-0.048	-0.017
-578.777	-200.000	-0.016	0.248
-577.763	-200.000	-0.024	0.168
-576.748	-122.064	0.391	0.065
-575.733	-1.771	-0.275	-0.196
-574.719	235.714	-0.198	-0.331
-573.704	-60.768	0.429	-0.185
-572.690	-200.000	-0.017	0.155
-571.675	470.499	0.024	-0.055
-570.661	-200.000	0.054	-0.270
-569.646	4.653	-0.067	0.050
-568.631	800.000	0.053	-0.222
-567.617	-59.072	-0.062	-0.027
-566.602	-148.342	-0.282	-0.023
-565.588	-76.666	0.149	-0.053
-564.573	-164.745	0.268	0.012
-563.558	800.000	-0.024	0.099
-562.544	-154.962	-0.435	0.029
-561.529	-91.783	-0.335	0.097
-560.515	588.462	0.333	-0.832
-559.500	-145.822	-0.022	-0.002
-558.485	-45.260	-0.272	-0.137
-557.471	800.000	0.044	-0.173
-556.456	-79.820	-0.011	-0.004
-555.442	603.443	-0.121	0.306
-554.427	164.094	-0.228	0.326
-553.412	-200.000	0.016	0.278
-552.398	134.994	0.141	-0.186
-551.383	800.000	-0.078	-0.277
-550.369	-200.000	-0.122	0.000
-549.354	-200.000	0.018	-0.183
-548.339	-190.302	-0.342	0.004
-547.325	85.620	-0.128	0.143
-546.310	-200.000	0.027	0.171
-545.296	-19.077	0.187	-0.118
-544.281	-81.090	0.304	-0.102
-543.266	722.664	0.094	0.255
-542.252	-200.000	0.050	0.319
-541.237	-98.972	-0.207	0.053
-540.223	-200.000	-0.029	0.171
-539.208	-32.808	0.377	0.212
-538.193	-200.000	-0.037	-0.220
-537.179	800.000	-0.096	0.309
-536.164	-94.410	-0.237	0.066
-535.150	48.306	-0.156	-0.148
-534.135	-36.527	0.141	-0.077
-533.121	800.000	0.049	0.216
-532.106	-200.000	-0.001	-0.007
-531.091	325.842	0.033	0.064
-530.077	-86.867	0.238	-0.074
-529.062	800.000	0.039	0.167
-528.048	-200.000	-0.003	0.079
-527.033	800.000	0.067	-0.242
-526.018	-200.000	-0.158	-0.001
-525.004	102.533	-0.110	-0.130
-523.989	-36.409	-0.208	0.114
-522.975	-90.028	-0.335	0.099
-521.960	-200.000	0.016	0.262
-520.945	555.987	-0.080	0.195
-519.931	83.450	0.093	0.103
-518.916	65.292	-0.286	-0.293
-517.902	336.831	-0.082	-0.161
-516.887	69.361	0.114	0.119
-515.872	-135.722	-0.287	-0.034
-514.858	-46.245	0.082	0.041
-513.843	174.906	0.235	-0.344
-512.829	715.336	0.045	-0.120
-511.814	-13.605	0.231	0.152
-510.799	800.000	0.009	0.039
-509.785	125.845	-0.118	-0.151
-508.770	115.828	-0.268	0.332
-507.756	-16.645	0.162	0.104
-506.741	-36.867	0.184	-0.100
-505.726	-200.000	-0.033	-0.347
-504.712	800.000	-0.021	0.073
-503.697	-151.181	0.119	0.009
-502.683	-196.924	-0.145	0.001
-501.668	800.000	0.097	-0.364
-500.653	184.339	-0.042	-0.064
-499.639	29.865	-0.088	-0.076
-498.624	-200.000	-0.032	0.169
-497.610	183.695	0.261	0.391
-496.595	79.636	0.145	0.158
-495.581	-200.000	-0.015	0.080
-494.566	444.516	0.109	0.241
-493.551	-96.810	-0.432	0.115
-492.537	-160.433	-0.193	-0.010
-491.522	211.679	0.146	0.233
-490.508	800.000	-0.044	0.146
-489.493	-87.756	-0.183	0.056
-488.478	-148.350	0.276	0.023
-487.464	189.068	0.047	-0.072
-486.449	338.098	-0.024	-0.048
-485.435	20.219	0.145	-0.118
-484.420	-72.110	-0.372	-0.140
-483.405	-36.205	0.190	-0.103
-482.391	-122.708	-0.139	-0.023
-481.376	20.188	0.176	0.144
-480.362	-63.999	0.125	0.052
-479.347	-200.000	-0.026	0.190
-478.332	5.104	-0.066	-0.049
-477.318	-42.287	-0.218	0.113
-476.303	-200.000	-0.007	0.077
-475.289	800.000	0.125	0.551
-474.274	231.977	0.194	0.323
-473.259	371.636	-0.129	-0.264
-472.245	-65.639	0.136	-0.055
-471.230	-93.169	0.126	-0.035
-470.216	57.957	-0.049	0.048
-469.201	163.793	0.144	-0.205
-468.186	134.748	-0.134	-0.176
-467.172	800.000	-0.036	0.134
-466.157	121.722	-0.131	0.166
-465.143	311.873	0.149	0.283
-464.128	228.280	0.079	0.129
-463.113	155.054	0.325	0.452
-462.099	542.729	0.051	0.124
-461.084	-112.015	0.083	-0.017
-460.070	156.354	-0.171	-0.238
-459.055	-50.190	0.204	-0.097
-458.040	62.545	0.116	-0.117
-457.026	5.481	-0.277	-0.207
-456.011	-135.998	0.220	-0.026
-454.997	-144.072	-0.035	0.003
-453.982	-80.783	-0.214	0.072
-452.968	800.000	-0.056	-0.237
-451.953	191.102	0.093	0.141
-450.938	-200.000	0.006	-0.051
-449.924	203.922	-0.160	0.251
-448.909	117.546	-0.195	-0.242
-447.895	183.810	-0.068	-0.102
-446.880	3.456	0.133	-0.098
-445.865	109.625	-0.183	-0.222
-444.851	-200.000	-0.003	0.305
-443.836	-56.892	-0.103	0.046
-442.822	300.907	0.113	0.211
-441.807	112.837	0.234	0.286
-440.792	785.442	0.043	-0.119
-439.778	-200.000	0.001	-0.153
-438.763	132.878	0.041	-0.053
-437.749	255.839	-0.086	0.148
-436.734	-200.000	0.057	0.327
-435.719	-108.429	0.284	0.062
-434.705	-27.429	0.167	0.098
-433.690	-18.830	0.116	-0.073
-432.676	-135.508	-0.410	0.049
-431.661	46.538	-0.136	-0.128
-430.646	444.413	-0.097	0.215
-429.632	800.000	0.076	-0.237
-428.617	122.479	-0.017	-0.021
-427.603	35.701	0.261	-0.232
-426.588	126.553	0.277	-0.353
-425.573	202.667	0.063	0.099
-424.559	-5.696	-0.297	-0.205
-423.544	425.800	0.007	-0.016
-422.530	64.515	0.146	-0.149
-421.515	800.000	-0.029	-0.102
-420.500	-200.000	0.011	0.258
-419.486	-200.000	-0.004	0.165
-418.471	547.704	0.037	0.089
-417.457	-134.141	0.067	-0.008
-416.442	101.021	0.099	0.116
-415.428	19.692	-0.148	0.120
-414.413	39.280	-0.147	0.133
-413.398	63.808	-0.040	0.040
-412.384	17.628	-0.123	0.099
-411.369	136.859	-0.059	0.078
-410.355	324.792	0.187	-0.360
-409.340	279.836	0.148	0.267
-408.325	800.000	0.018	0.058
-407.311	127.781	0.240	-0.308
-406.296	525.500	0.090	0.213
-405.282	800.000	-0.139	-0.392
-404.267	-8.423	-0.091	0.062
-403.252	-47.380	-0.225	0.111
-402.238	-137.944	-0.430	-0.048
-401.223	708.303	-0.110	0.292
-400.209	-200.000	0.054	-0.395
-399.194	116.869	-0.140	-0.174
-398.179	-4.045	0.222	0.155
-397.165	-20.439	-0.344	0.213
-396.150	-166.673	-0.134	0.006
-395.136	-92.929	-0.238	-0.067
-394.121	-30.784	0.246	0.140
-393.106	800.000	-0.056	-0.247
-392.092	-110.663	0.240	-0.050
-391.077	-106.094	-0.088	0.020
-390.063	574.111	-0.043	-0.107
-389.048	-200.000	-0.005	-0.105
-388.033	-95.344	0.132	-0.036
-387.019	-168.823	0.205	-0.008
-386.004	-0.921	-0.117	-0.084
-384.990	-177.955	0.299	-0.007
-383.975	515.568	-0.056	0.133
-382.960	209.764	-0.020	-0.031
-381.946	350.263	-0.070	-0.139
-380.931	-200.000	0.021	0.204
-379.917	-200.000	0.013	-0.119
-378.902	-18.038	0.232	0.146
-377.888	2.061	-0.077	-0.056
-376.873	29.151	-0.146	-0.125
-375.858	-200.000	0.016	-0.247
-374.844	800.000	-0.074	0.217
-373.829	-200.000	-0.008	0.194
-372.815	716.599	-0.037	-0.099
-371.800	-91.045	-0.383	0.111
-370.785	-154.518	-0.175	0.012
-369.771	-102.760	0.156	0.037
-368.756	249.936	-0.122	-0.209
-367.742	-16.447	-0.235	-0.150
-366.727	-3.892	-0.085	0.059
-365.712	-121.143	0.211	0.036
-364.698	-36.872	-0.152	0.082
-363.683	-200.000	-0.012	0.273
-362.669	63.661	-0.106	-0.107
-361.654	-29.608	0.156	-0.090
-360.639	89.680	0.038	-0.042
-359.625	-200.000	0.001	0.046
-358.610	-200.000	0.000	-0.109
-357.596	-200.000	0.028	0.165
-356.581	-111.813	0.424	0.086
-355.566	-135.328	-0.124	-0.015
-354.552	800.000	-0.048	-0.136
-353.537	800.000	-0.116	-0.360
-352.523	-141.252	-0.085	0.009
-351.508	14.678	-0.180	0.142
-350.493	-200.000	-0.035	0.158
-349.479	5.714	0.087	0.065
-348.464	-76.566	-0.423	-0.149
-347.450	120.299	-0.164	0.204
-346.435	55.180	-0.217	-0.211
-345.420	-118.592	-0.338	-0.060
-344.406	-200.000	-0.044	0.245
-343.391	60.293	-0.146	-0.146
-342.377	103.126	-0.164	0.193
-341.362	-142.450	-0.243	-0.024
-340.348	-44.897	-0.204	0.102
-339.333	-100.042	-0.128	0.032
-338.318	230.730	-0.132	0.218
-337.304	-14.703	0.154	0.099
-336.289	143.057	-0.323	-0.433
-335.275	-200.000	-0.023	-0.371
-334.260	47.110	-0.220	0.206
-333.245	-200.000	0.035	0.203
-332.231	-200.000	-0.120	0.637
-331.216	-200.000	-0.013	0.174
-330.202	250.419	-0.080	0.137
-329.187	10.614	0.055	0.042
-328.172	-98.793	0.185	0.047
-327.158	324.444	-0.054	-0.103
-326.143	-200.000	0.014	-0.239
-325.129	32.908	0.098	-0.085
-324.114	89.820	-0.049	0.055
-323.099	-2.221	-0.211	0.149
-322.085	-200.000	0.028	0.264
-321.070	800.000	-0.019	-0.065
-320.056	237.080	-0.133	-0.222
-319.041	80.162	0.073	0.079
-318.026	72.853	-0.080	0.084
-317.012	-21.476	0.206	-0.126
-315.997	19.661	-0.072	0.059
-314.983	105.923	-0.090	-0.107
-313.968	-4.512	0.192	-0.133
-312.953	23.260	-0.144	0.119
-311.939	347.363	-0.070	-0.139
-310.924	-79.529	0.110	-0.037
-309.910	-143.462	-0.193	0.018
-308.895	-200.000	0.007	0.052
-307.880	267.851	-0.152	0.267
-306.866	88.160	0.166	0.185
-305.851	42.885	-0.022	0.020
-304.837	-24.751	0.044	-0.026
-303.822	800.000	-0.052	0.173
-302.807	-2.907	-0.255	0.179
-301.793	-158.356	-0.263	-0.015
-300.778	-107.961	-0.259	-0.056
-299.764	84.199	0.171	0.188
-298.749	85.114	0.040	-0.045
-297.735	-185.349	0.350	0.005
-296.720	14.327	0.125	-0.098
-295.705	451.023	-0.122	0.271
-294.691	526.595	-0.142	0.337
-293.676	-43.874	0.232	0.117
-292.662	-49.399	-0.262	0.125
-291.647	-124.441	0.067	-0.010
-290.632	-200.000	0.041	-0.377
-289.618	54.127	-0.032	-0.031
-288.603	-2.719	0.085	-0.060
-287.589	-200.000	-0.030	-0.137
-286.574	-162.940	0.245	-0.012
-285.559	-15.857	0.119	-0.076
-284.545	-141.175	-0.270	0.028
-283.530	-50.670	0.054	0.026
-282.516	-200.000	0.039	0.258
-281.501	-107.757	-0.245	0.054
-280.486	800.000	0.044	0.159
-279.472	-200.000	-0.002	0.042
-278.457	43.466	0.206	-0.189
-277.443	721.832	0.051	-0.136
-276.428	327.414	-0.082	-0.158
-275.413	-51.399	-0.277	-0.130
-274.399	-93.169	-0.394	-0.110
-273.384	-42.116	0.432	-0.222
-272.370	800.000	0.065	0.269
-271.355	-88.244	0.177	0.053
-270.340	800.000	0.050	0.189
-269.326	800.000	0.075	0.271
-268.311	-32.429	0.269	0.150
-267.297	-12.855	0.075	0.049
-266.282	800.000	0.095	0.305
-265.267	-92.592	-0.331	-0.093
-264.253	365.068	-0.046	-0.092
-263.238	61.341	0.026	0.026
-262.224	0.852	-0.017	-0.012
-261.209	-38.202	-0.226	-0.120
-260.195	-28.645	-0.175	0.101
-259.180	449.529	0.159	-0.353
-258.165	372.593	0.105	0.215
-257.151	300.850	0.076	0.141
-256.136	62.090	0.140	-0.139
-255.122	-116.834	-0.445	0.082
-254.107	105.160	0.144	-0.170
-253.092	-116.397	-0.180	-0.033
-252.078	179.039	-0.102	0.150
-251.063	-31.320	0.269	0.152
-250.049	-200.000	-0.027	-0.320
-249.034	98.061	-0.125	-0.145
-248.019	246.255	0.134	-0.226
-247.005	-21.519	0.152	-0.093
-245.990	-115.612	-0.378	0.071
-244.976	768.092	0.049	0.134
-243.961	22.777	-0.063	0.052
-242.946	147.963	-0.070	-0.094
-241.932	62.338	-0.124	-0.124
-240.917	471.414	0.133	-0.299
-239.903	-200.000	0.090	-0.642
-238.888	112.148	0.181	-0.219
-237.873	-200.000	-0.011	0.067
-236.859	228.794	-0.060	0.099
-235.844	-98.434	-0.170	-0.044
-234.830	73.845	-0.117	-0.123
-233.815	-31.334	0.089	0.050
-232.800	-154.663	0.273	0.018
-231.786	-55.448	-0.419	0.188
-230.771	28.525	0.214	-0.181
-229.757	-200.000	0.009	-0.203
-228.742	-200.000	0.047	-0.290
-227.727	405.524	0.082	-0.173
-226.713	54.650	-0.152	0.147
-225.698	-200.000	0.013	-0.061
-224.684	173.160	0.166	0.239
-223.669	12.685	0.212	0.164
-222.655	132.404	0.142	-0.184
-221.640	-149.246	0.108	-0.009
-220.625	800.000	-0.124	0.454
-219.611	-200.000	-0.101	0.569
-218.596	-83.341	0.055	0.018
-217.582	-66.695	0.234	0.093
-216.567	-78.147	0.170	0.058
-215.552	-200.000	-0.068	-0.458
-214.538	800.000	-0.099	-0.323
-213.523	-108.923	0.114	0.024
-212.509	-146.789	0.161	0.014
-211.494	-21.585	-0.131	0.080
-210.479	-200.000	0.017	-0.103
-209.465	640.192	0.139	0.353
-208.450	-6.482	0.017	0.012
-207.436	64.016	-0.107	0.107
-206.421	-112.260	-0.267	0.053
-205.406	-109.496	0.170	-0.036
-204.392	230.689	0.123	0.202
-203.377	-176.316	0.178	-0.005
-202.363	-28.697	0.444	-0.256
-201.348	331.465	-0.094	-0.181
-200.333	-72.218	0.215	0.080
-199.319	-81.224	0.140	0.046
-198.304	-200.000	-0.003	-0.303
-197.290	-61.898	-0.088	-0.037
-196.275	502.919	0.138	-0.318
-195.260	-200.000	-0.003	0.191
-194.246	-200.000	-0.017	-0.129
-193.231	-26.849	0.209	-0.122
-192.217	800.000	0.056	-0.199
-191.202	800.000	-0.057	-0.180
-190.187	41.079	0.171	0.154
-189.173	-0.618	-0.195	-0.138
-188.158	65.869	-0.051	-0.051
-187.144	24.880	-0.224	0.186
-186.129	219.824	0.072	0.115
-185.114	-84.435	0.257	-0.081
-184.100	-47.337	0.176	0.086
-183.085	-54.490	-0.103	0.047
-182.071	4.541	0.257	0.189
-181.056	-125.972	0.166	0.025
-180.042	375.246	-0.107	-0.218
-179.027	-100.063	0.131	-0.033
-178.012	-158.612	-0.179	0.010
-176.998	-200.000	0.026	-0.142
-175.983	235.518	-0.049	0.082
-174.969	800.000	-0.036	-0.147
-173.954	91.461	0.165	0.185
-172.939	147.206	0.142	0.190
-171.925	-200.000	0.075	-0.393
-170.910	-200.000	0.009	-0.133
-169.896	22.262	-0.207	0.169
-168.881	-189.066	0.041	-0.000
-167.866	-85.179	0.275	0.086
-166.852	6.624	0.187	0.139
-165.837	-109.297	0.560	0.119
-164.823	309.699	-0.097	-0.181
-163.808	138.212	0.140	0.184
-162.793	-111.527	0.323	0.066
-161.779	-94.224	-0.050	-0.014
-160.764	-200.000	0.001	0.044
-159.750	-200.000	-0.066	-0.399
-158.735	34.047	0.043	0.038
-157.720	229.505	-0.172	-0.281
-156.706	-138.208	-0.468	-0.052
-155.691	-200.000	0.007	0.050
-154.677	108.186	-0.131	0.156
-153.662	-77.924	0.087	-0.030
-152.647	-200.000	0.074	-0.393
-151.633	-47.773	0.165	-0.080
-150.618	-200.000	-0.001	0.092
-149.604	-82.759	0.130	0.042
-148.589	83.258	-0.027	-0.030
-147.574	-84.517	0.158	0.050
-146.560	-200.000	-0.052	-0.270
-145.545	66.645	-0.035	-0.036
-144.531	-101.607	-0.168	0.041
-143.516	-200.000	-0.011	-0.135
-142.502	43.913	-0.117	-0.107
-141.487	281.028	-0.103	-0.185
-140.472	126.223	-0.228	-0.288
-139.458	-76.620	-0.407	-0.143
-138.443	-130.335	0.183	0.025
-137.429	172.179	0.195	-0.280
-136.414	-176.187	-0.223	-0.006
-135.399	54.978	-0.071	0.068
-134.385	73.252	0.210	-0.220
-133.370	-40.685	0.208	0.108
-132.356	-57.294	0.379	-0.166
-131.341	91.053	0.150	0.168
-130.326	-63.488	-0.280	-0.115
-129.312	20.630	-0.142	-0.114
-128.297	-25.248	-0.327	0.193
-127.283	-38.404	0.187	0.099
-126.268	-58.299	0.252	0.109
-125.253	-71.050	-0.158	-0.059
-124.239	326.789	-0.053	-0.102
-123.224	-200.000	0.018	-0.374
-122.210	-200.000	0.012	-0.238
-121.195	800.000	0.085	-0.353
-120.180	327.093	-0.038	0.073
