DTS Sentinel unit serial number:	SN413079Multiplexer serial number:	ORYXHardware model number:	OX4-SRSoftware version number:	ORYX F/W v4.00 Oryx Data Collector v3.7.2.0data status	okinstallation	princeton_trtdifferential loss correction	single-endedforward channel	channel 4reverse channel	N/Adate	2019/09/15time	23:09:35forward acquisition time	60.00reverse acquisition time	0.00gamma	496.2192k internal	0.2321k external	0.2321temperature offset calibration	0.9957default loss term (dB/km)	0.3790temperature slope calibration	1.0000multiplexer offset coefficient	1.0000multiplexer slope coefficient	1.0000fibre end	0.00T internal ref (°C)	28.44T ext. ref 1 (°C)	9.03T ext. ref 2 (°C)	22.20length (m)	temperature (°C)	Stokes	anti-Stokes-747.200	-98.802	0.133	0.034
-746.185	83.815	0.099	-0.109
-745.171	800.000	-0.038	-0.114
-744.156	220.559	0.126	0.204
-743.142	-45.298	0.138	0.069
-742.127	22.086	0.157	0.129
-741.112	298.437	0.119	0.222
-740.098	-135.227	-0.162	0.020
-739.083	142.288	0.266	-0.357
-738.069	19.612	0.013	0.010
-737.054	25.436	0.090	-0.076
-736.039	402.178	-0.074	0.158
-735.025	-71.713	0.268	0.101
-734.010	-24.139	-0.202	-0.122
-732.996	-34.934	0.251	-0.138
-731.981	-51.451	0.339	-0.160
-730.966	-46.583	-0.313	0.155
-729.952	-150.826	-0.175	0.013
-728.937	341.696	-0.074	0.147
-727.923	238.103	-0.140	0.234
-726.908	222.801	-0.241	-0.391
-725.894	84.193	-0.079	0.087
-724.879	-200.000	0.009	0.095
-723.864	454.483	0.060	0.133
-722.850	-200.000	-0.017	-0.175
-721.835	-200.000	0.012	-0.291
-720.821	9.490	-0.293	-0.224
-719.806	126.984	0.130	-0.166
-718.791	35.251	0.091	0.080
-717.777	40.577	-0.133	-0.121
-716.762	-112.545	0.353	0.071
-715.748	-44.802	0.033	0.017
-714.733	-126.120	-0.480	-0.073
-713.718	-132.757	-0.352	-0.045
-712.704	36.968	-0.249	-0.223
-711.689	59.759	-0.235	0.234
-710.675	-75.529	-0.149	-0.053
-709.660	61.050	0.210	-0.210
-708.645	-200.000	-0.018	0.096
-707.631	-200.000	-0.026	-0.167
-706.616	72.487	-0.096	0.101
-705.602	388.502	0.104	-0.217
-704.587	473.142	0.085	-0.194
-703.572	9.218	-0.091	-0.070
-702.558	800.000	0.061	-0.187
-701.543	32.354	-0.212	-0.185
-700.529	-200.000	0.029	0.198
-699.514	354.623	-0.100	0.200
-698.499	800.000	0.038	-0.165
-697.485	-42.916	0.129	-0.066
-696.470	69.096	0.067	0.070
-695.456	332.397	-0.055	0.107
-694.441	-59.365	0.198	0.086
-693.426	-107.529	0.138	0.030
-692.412	800.000	-0.092	-0.310
-691.397	-140.843	-0.323	-0.034
-690.383	599.091	0.059	-0.148
-689.368	112.780	0.247	0.302
-688.354	-124.719	-0.208	-0.032
-687.339	-200.000	-0.012	-0.105
-686.324	88.910	-0.084	0.094
-685.310	364.103	-0.120	0.243
-684.295	-62.000	-0.085	-0.036
-683.281	-200.000	0.019	-0.166
-682.266	-6.274	-0.243	-0.167
-681.251	17.067	0.349	0.279
-680.237	102.355	0.066	0.078
-679.222	-23.258	0.226	0.137
-678.208	-67.172	-0.296	-0.117
-677.193	-139.177	-0.175	-0.019
-676.178	-200.000	0.084	0.408
-675.164	-65.517	0.303	0.123
-674.149	800.000	-0.047	0.135
-673.135	-21.012	-0.389	0.240
-672.120	27.689	-0.111	-0.094
-671.105	-27.403	0.255	-0.149
-670.091	-167.108	0.020	-0.001
-669.076	-67.828	-0.263	-0.103
-668.062	50.214	-0.099	0.094
-667.047	9.958	0.024	-0.018
-666.032	-122.826	-0.265	-0.043
-665.018	305.521	-0.059	0.110
-664.003	-200.000	0.007	0.042
-662.989	800.000	0.109	-0.356
-661.974	402.587	0.046	-0.097
-660.959	1.543	-0.284	-0.206
-659.945	-30.003	-0.158	-0.091
-658.930	-200.000	0.002	-0.019
-657.916	800.000	-0.107	-0.335
-656.901	-200.000	-0.015	-0.288
-655.886	-133.841	-0.237	0.030
-654.872	-168.765	-0.342	0.013
-653.857	-200.000	0.026	0.114
-652.843	205.760	-0.081	0.127
-651.828	715.163	0.045	0.121
-650.814	15.850	-0.284	0.225
-649.799	66.699	-0.121	-0.124
-648.784	228.197	0.041	0.067
-647.770	-102.699	0.078	-0.019
-646.755	-183.806	0.073	-0.001
-645.741	363.494	0.161	-0.326
-644.726	-81.312	-0.299	0.099
-643.711	17.301	-0.140	0.112
-642.697	-33.313	-0.102	0.057
-641.682	342.070	0.175	-0.344
-640.668	-200.000	-0.008	-0.334
-639.653	-56.823	-0.124	-0.055
-638.638	201.200	-0.073	-0.113
-637.624	-126.645	-0.214	-0.032
-636.609	31.102	0.216	0.186
-635.595	-200.000	-0.020	-0.116
-634.580	529.387	0.252	0.598
-633.565	-52.885	-0.117	0.054
-632.551	143.009	-0.166	-0.222
-631.536	-154.440	-0.342	-0.023
-630.522	-56.429	-0.344	-0.154
-629.507	-113.553	-0.127	0.025
-628.492	800.000	-0.125	-0.448
-627.478	-200.000	0.006	-0.412
-626.463	51.081	-0.133	-0.127
-625.449	-159.072	0.067	-0.004
-624.434	-47.318	-0.183	0.090
-623.419	-127.409	0.119	-0.017
-622.405	-200.000	-0.036	-0.242
-621.390	263.881	0.081	-0.141
-620.376	-72.763	0.317	-0.117
-619.361	118.404	0.153	-0.190
-618.346	136.949	0.117	-0.153
-617.332	-200.000	0.034	-0.212
-616.317	-86.996	-0.205	-0.063
-615.303	99.313	-0.199	0.232
-614.288	159.443	-0.075	-0.106
-613.273	-93.879	0.252	-0.070
-612.259	61.286	0.227	-0.227
-611.244	-0.090	0.274	0.196
-610.230	-200.000	-0.023	-0.134
-609.215	487.672	0.033	-0.076
-608.201	24.705	-0.269	-0.224
-607.186	800.000	0.118	-0.431
-606.171	-138.594	-0.154	0.017
-605.157	77.024	-0.142	0.152
-604.142	13.825	0.232	0.182
-603.128	77.798	0.181	0.194
-602.113	-63.394	0.358	-0.148
-601.098	-178.604	-0.222	-0.005
-600.084	-142.861	0.241	0.024
-599.069	-200.000	-0.434	-0.001
-598.055	-183.522	-0.038	-0.001
-597.040	16.568	-0.189	-0.150
-596.025	-44.844	0.191	0.095
-595.011	576.609	-0.068	0.167
-593.996	247.360	-0.153	-0.260
-592.982	118.708	-0.073	-0.091
-591.967	800.000	-0.048	-0.137
-590.952	-84.446	-0.039	-0.012
-589.938	144.556	0.160	-0.214
-588.923	445.306	0.149	-0.329
-587.909	-126.909	0.353	-0.052
-586.894	50.176	0.234	0.222
-585.879	233.862	0.034	-0.057
-584.865	225.450	0.120	-0.196
-583.850	14.063	-0.102	0.080
-582.836	-200.000	0.033	0.396
-581.821	-66.253	0.303	0.121
-580.806	-94.059	-0.118	0.032
-579.792	-42.823	0.138	-0.071
-578.777	-90.430	0.297	0.086
-577.763	800.000	0.166	-0.486
-576.748	-50.852	0.260	0.123
-575.733	-3.812	-0.045	-0.031
-574.719	271.497	-0.092	-0.163
-573.704	-200.000	0.010	0.072
-572.690	-107.218	-0.383	0.085
-571.675	-85.185	0.158	0.049
-570.661	218.854	0.094	-0.150
-569.646	-125.478	-0.295	-0.045
-568.631	-200.000	0.002	0.044
-567.617	-16.503	-0.270	-0.172
-566.602	-0.704	-0.378	-0.269
-565.588	-200.000	-0.064	-0.364
-564.573	800.000	0.089	0.358
-563.558	-200.000	-0.068	-0.354
-562.544	-148.274	0.099	0.008
-561.529	-17.690	0.181	-0.114
-560.515	55.825	-0.246	-0.239
-559.500	299.714	0.155	-0.287
-558.485	561.106	-0.026	0.062
-557.471	-200.000	0.101	0.000
-556.456	-115.215	-0.235	0.045
-555.442	800.000	-0.075	0.210
-554.427	-82.448	0.083	-0.027
-553.412	9.663	0.273	0.208
-552.398	-200.000	-0.068	0.473
-551.383	285.472	-0.147	-0.266
-550.369	260.646	-0.277	0.481
-549.354	392.900	-0.089	0.185
-548.339	-93.097	-0.256	0.071
-547.325	-200.000	-0.006	-0.029
-546.310	-122.212	0.052	0.009
-545.296	-80.636	-0.250	0.084
-544.281	-61.865	-0.221	0.093
-543.266	-77.511	-0.469	0.163
-542.252	308.211	0.165	0.308
-541.237	-24.559	-0.158	0.094
-540.223	440.928	0.033	0.073
-539.208	-141.624	0.231	-0.023
-538.193	-200.000	-0.054	-0.343
-537.179	27.026	-0.088	0.074
-536.164	84.569	0.089	-0.097
-535.150	-200.000	0.013	0.450
-534.135	233.675	-0.091	0.149
-533.121	-88.741	0.408	-0.122
-532.106	800.000	-0.009	0.031
-531.091	-4.671	0.089	-0.061
-530.077	96.431	-0.216	0.248
-529.062	-164.227	-0.075	-0.003
-528.048	143.826	-0.152	-0.202
-527.033	800.000	0.034	0.115
-526.018	-200.000	0.025	0.186
-525.004	571.579	0.021	-0.052
-523.989	85.679	0.119	-0.131
-522.975	-42.255	-0.165	-0.084
-521.960	481.438	-0.117	0.267
-520.945	-50.696	0.193	0.091
-519.931	-68.364	0.055	0.022
-518.916	69.347	0.307	0.316
-517.902	110.681	-0.133	-0.160
-516.887	-123.038	0.410	0.066
-515.872	-200.000	-0.074	-0.351
-514.858	12.129	-0.278	0.214
-513.843	-26.998	0.172	-0.101
-512.829	-2.703	-0.052	-0.036
-511.814	-96.714	0.117	0.031
-510.799	-5.414	-0.298	0.205
-509.785	118.897	0.248	0.307
-508.770	168.730	0.083	-0.118
-507.756	-147.144	0.403	0.034
-506.741	93.085	-0.163	0.185
-505.726	77.549	0.369	0.393
-504.712	-165.734	-0.331	0.014
-503.697	157.171	-0.229	-0.318
-502.683	-200.000	-0.028	0.245
-501.668	-73.244	0.157	-0.058
-500.653	-52.609	0.094	-0.044
-499.639	41.886	0.182	0.166
-498.624	-21.441	0.036	-0.022
-497.610	-150.963	0.408	-0.031
-496.595	268.466	-0.070	-0.123
-495.581	-106.279	-0.086	0.019
-494.566	34.859	0.164	0.143
-493.551	98.487	-0.229	-0.264
-492.537	-39.572	0.142	-0.075
-491.522	800.000	-0.109	-0.373
-490.508	106.920	0.137	-0.163
-489.493	312.287	0.132	0.247
-488.478	93.694	0.138	0.156
-487.464	-200.000	0.013	0.190
-486.449	800.000	0.041	0.144
-485.435	-78.512	0.099	-0.034
-484.420	-27.035	0.135	0.079
-483.405	-200.000	0.037	-0.370
-482.391	-143.884	0.075	-0.007
-481.376	188.557	0.153	-0.229
-480.362	-200.000	0.025	-0.247
-479.347	-138.802	-0.515	-0.056
-478.332	-118.957	-0.198	0.035
-477.318	101.933	-0.175	0.204
-476.303	-58.200	-0.280	0.122
-475.289	33.780	0.213	0.185
-474.274	-124.924	-0.260	0.040
-473.259	241.566	-0.243	0.406
-472.245	-200.000	0.008	-0.225
-471.230	256.087	-0.112	-0.193
-470.216	-200.000	0.051	0.246
-469.201	-200.000	0.007	0.185
-468.186	800.000	-0.069	-0.223
-467.172	238.912	0.054	-0.089
-466.157	-103.584	-0.061	0.014
-465.143	101.627	-0.026	0.030
-464.128	-109.149	-0.389	-0.083
-463.113	372.601	0.164	-0.333
-462.099	88.199	0.115	0.128
-461.084	725.830	-0.103	0.274
-460.070	-139.178	0.263	-0.028
-459.055	-200.000	-0.063	0.350
-458.040	-151.262	-0.263	-0.020
-457.026	15.396	-0.165	-0.129
-456.011	-200.000	-0.041	0.354
-454.997	800.000	0.050	-0.157
-453.982	235.595	-0.045	0.075
-452.968	800.000	0.050	-0.151
-451.953	-89.972	-0.162	0.047
-450.938	-200.000	0.003	-0.242
-449.924	-86.514	0.310	-0.095
-448.909	-67.400	0.370	0.145
-447.895	40.260	-0.101	-0.091
-446.880	-40.078	-0.096	-0.050
-445.865	62.451	-0.069	-0.069
-444.851	-14.161	-0.223	0.144
-443.836	-103.839	0.106	-0.025
-442.822	800.000	-0.026	0.102
-441.807	-42.691	0.123	0.062
-440.792	370.024	-0.030	-0.060
-439.778	3.930	-0.245	0.179
-438.763	-1.078	0.243	-0.172
-437.749	-148.607	0.198	-0.016
-436.734	800.000	-0.104	0.428
-435.719	-200.000	0.035	-0.276
-434.705	18.878	0.203	0.163
-433.690	321.346	-0.083	0.157
-432.676	800.000	0.076	-0.321
-431.661	87.372	0.232	-0.257
-430.646	508.108	-0.102	-0.235
-429.632	73.449	0.122	0.127
-428.617	-115.957	0.148	0.027
-427.603	800.000	0.062	0.237
-426.588	-200.000	-0.034	0.259
-425.573	-82.010	0.184	0.060
-424.559	468.025	0.076	0.171
-423.544	392.341	0.080	-0.165
-422.530	-194.985	0.129	-0.001
-421.515	94.612	-0.082	0.093
-420.500	491.651	-0.065	-0.148
-419.486	-179.975	0.123	0.003
-418.471	125.843	0.213	0.269
-417.457	-83.770	0.141	0.045
-416.442	31.634	-0.101	-0.087
-415.428	-59.702	0.199	-0.085
-414.413	-62.176	-0.282	-0.117
-413.398	-94.722	0.070	0.019
-412.384	-200.000	-0.048	-0.340
-411.369	68.251	-0.171	0.175
-410.355	23.783	0.152	-0.125
-409.340	-81.817	0.097	0.032
-408.325	94.472	-0.114	0.130
-407.311	134.247	-0.112	-0.145
-406.296	98.261	0.333	0.383
-405.282	800.000	-0.068	0.195
-404.267	-200.000	-0.034	-0.204
-403.252	60.481	0.119	0.118
-402.238	109.939	0.361	-0.432
-401.223	228.016	-0.198	-0.321
-400.209	385.962	-0.119	-0.245
-399.194	130.437	0.075	0.096
-398.179	77.403	-0.347	-0.368
-397.165	621.364	-0.085	0.213
-396.150	-67.875	0.154	0.060
-395.136	-200.000	-0.055	-0.321
-394.121	76.030	-0.114	-0.120
-393.106	35.939	-0.303	0.266
-392.092	-45.744	-0.192	0.095
-391.077	-52.559	-0.172	0.079
-390.063	41.055	0.266	-0.240
-389.048	800.000	0.069	-0.267
-388.033	-200.000	-0.016	0.111
-387.019	-54.828	0.365	0.164
-386.004	800.000	0.036	-0.105
-384.990	-69.279	0.206	0.079
-383.975	317.200	0.063	-0.119
-382.960	-9.824	0.321	0.213
-381.946	393.423	-0.183	0.380
-380.931	-200.000	0.092	0.406
-379.917	-88.617	0.320	-0.095
-378.902	-82.214	-0.112	0.036
-377.888	-128.656	0.145	-0.020
-376.873	568.736	0.062	0.150
-375.858	-90.368	-0.092	0.027
-374.844	-200.000	0.064	0.450
-373.829	257.370	-0.057	0.098
-372.815	-89.480	-0.152	-0.044
-371.800	516.331	0.044	-0.103
-370.785	-200.000	-0.009	-0.183
-369.771	-29.222	0.143	0.081
-368.756	17.065	0.240	-0.190
-367.742	228.267	0.182	-0.295
-366.727	88.870	0.070	0.078
-365.712	283.804	0.072	-0.128
-364.698	49.271	-0.177	0.165
-363.683	177.615	0.237	0.344
-362.669	39.970	0.319	0.285
-361.654	371.683	0.157	0.317
-360.639	-200.000	0.053	0.473
-359.625	35.638	-0.313	0.273
-358.610	55.578	-0.021	-0.020
-357.596	86.710	-0.206	0.226
-356.581	-68.935	0.155	0.060
-355.566	-122.384	-0.081	0.013
-354.552	-80.819	-0.370	-0.122
-353.537	-68.105	0.419	-0.162
-352.523	125.217	-0.076	0.095
-351.508	-53.795	0.082	0.037
-350.493	303.931	-0.150	0.277
-349.479	-19.431	-0.103	-0.064
-348.464	430.472	-0.132	-0.285
-347.450	525.502	0.045	0.105
-346.435	-200.000	0.002	0.134
-345.420	-89.888	0.182	0.053
-344.406	-12.946	-0.305	0.198
-343.391	-200.000	-0.042	0.285
-342.377	800.000	0.029	0.101
-341.362	-200.000	0.036	-0.354
-340.348	-147.115	-0.392	-0.033
-339.333	-200.000	-0.057	-0.275
-338.318	3.466	0.072	0.052
-337.304	145.956	0.207	0.276
-336.289	800.000	0.050	-0.216
-335.275	146.124	0.192	-0.257
-334.260	-86.564	-0.235	0.072
-333.245	-200.000	0.029	-0.256
-332.231	-30.258	0.291	-0.165
-331.216	101.309	0.207	0.240
-330.202	800.000	0.063	-0.196
-329.187	332.728	0.110	0.212
-328.172	-73.211	-0.045	-0.016
-327.158	241.987	0.035	-0.058
-326.143	-35.437	-0.182	0.098
-325.129	167.486	-0.038	0.054
-324.114	39.916	0.191	-0.171
-323.099	-200.000	0.044	0.245
-322.085	72.647	-0.231	-0.239
-321.070	-109.642	-0.233	0.049
-320.056	-121.368	0.077	0.013
-319.041	27.198	-0.084	0.071
-318.026	61.804	-0.146	0.145
-317.012	304.519	-0.119	-0.219
-315.997	263.929	-0.067	-0.116
-314.983	-67.703	0.342	-0.133
-313.968	344.393	0.082	0.159
-312.953	-28.934	-0.126	-0.072
-311.939	-5.557	0.046	-0.032
-310.924	-84.464	0.187	0.059
-309.910	-110.275	0.256	-0.053
-308.895	-59.292	-0.154	-0.066
-307.880	800.000	0.019	-0.052
-306.866	12.308	0.084	-0.064
-305.851	157.999	0.007	-0.009
-304.837	298.013	-0.143	0.261
-303.822	-126.995	-0.268	-0.039
-302.807	-182.026	0.113	0.002
-301.793	-151.019	-0.249	-0.019
-300.778	-168.641	0.093	-0.004
-299.764	-200.000	0.027	-0.390
-298.749	-120.575	-0.252	-0.042
-297.735	-28.825	0.067	0.039
-296.720	95.909	-0.175	0.199
-295.705	-127.772	-0.255	-0.037
-294.691	-105.443	0.225	0.051
-293.676	-159.043	0.120	-0.007
-292.662	748.764	0.031	-0.082
-291.647	-200.000	-0.005	-0.301
-290.632	333.867	-0.084	0.161
-289.618	242.579	-0.222	-0.369
-288.603	280.577	0.159	-0.282
-287.589	-200.000	0.001	0.125
-286.574	219.939	-0.128	0.203
-285.559	-134.931	0.356	-0.043
-284.545	-200.000	-0.020	-0.104
-283.530	276.690	-0.100	-0.176
-282.516	-48.129	-0.176	0.084
-281.501	-48.327	-0.170	0.081
-280.486	800.000	-0.112	-0.419
-279.472	76.533	0.051	0.054
-278.457	-120.565	-0.221	-0.037
-277.443	-105.991	-0.108	-0.024
-276.428	-84.404	0.274	-0.086
-275.413	107.798	-0.099	-0.118
-274.399	-200.000	0.039	0.244
-273.384	-123.750	0.227	-0.036
-272.370	-84.006	0.200	0.063
-271.355	-117.951	0.323	-0.057
-270.340	-200.000	-0.004	-0.047
-269.326	34.564	-0.200	-0.174
-268.311	-39.207	-0.160	-0.083
-267.297	-200.000	-0.008	0.188
-266.282	-200.000	0.060	-0.269
-265.267	158.914	0.136	-0.187
-264.253	60.862	-0.277	0.272
-263.238	-66.982	-0.249	-0.098
-262.224	-128.585	0.259	0.036
-261.209	-60.328	0.293	0.124
-260.195	171.455	-0.151	0.215
-259.180	-36.076	0.115	0.062
-258.165	17.188	0.417	-0.328
-257.151	489.240	0.039	-0.089
-256.136	-101.162	0.202	-0.049
-255.122	216.576	0.034	-0.053
-254.107	10.725	0.108	0.082
-253.092	-26.352	-0.233	0.136
-252.078	-142.722	0.461	-0.045
-251.063	289.247	-0.137	-0.246
-250.049	-33.203	-0.290	0.159
-249.034	4.416	0.145	-0.105
-248.019	130.846	0.078	0.099
-247.005	222.494	-0.122	0.195
-245.990	-7.932	-0.284	-0.190
-244.976	-200.000	0.028	-0.243
-243.961	-200.000	0.028	-0.302
-242.946	-85.797	0.370	-0.114
-241.932	-200.000	0.004	0.249
-240.917	-200.000	0.002	0.013
-239.903	800.000	-0.029	-0.094
-238.888	582.652	0.036	0.086
-237.873	-3.442	-0.299	0.206
-236.859	659.432	-0.149	0.381
-235.844	-133.391	-0.135	0.017
-234.830	-156.271	-0.242	-0.015
-233.815	-152.567	-0.177	0.013
-232.800	-179.251	-0.213	0.005
-231.786	678.137	-0.024	-0.062
-230.771	-43.316	-0.098	-0.049
-229.757	464.716	-0.077	0.171
-228.742	408.048	-0.048	-0.100
-227.727	800.000	0.012	0.045
-226.713	-200.000	-0.013	-0.246
-225.698	-124.489	-0.290	0.045
-224.684	-98.090	0.354	-0.090
-223.669	-71.059	-0.271	-0.101
-222.655	-22.793	0.281	0.168
-221.640	-3.640	-0.176	0.121
-220.625	224.733	-0.126	0.201
-219.611	-60.796	-0.107	0.045
-218.596	-88.159	-0.125	0.037
-217.582	800.000	-0.021	0.067
-216.567	6.025	0.158	0.116
-215.552	-48.094	0.277	0.132
-214.538	800.000	-0.047	-0.187
-213.523	-55.248	-0.171	-0.076
-212.509	-34.090	-0.110	0.060
-211.494	-200.000	0.044	-0.221
-210.479	5.787	-0.283	0.207
-209.465	-81.924	-0.225	-0.073
-208.450	189.006	-0.114	-0.168
-207.436	329.598	0.146	0.278
-206.421	-106.668	0.062	0.014
-205.406	10.323	-0.245	0.184
-204.392	-18.014	0.089	-0.055
-203.377	-145.755	-0.391	0.034
-202.363	-200.000	0.003	0.213
-201.348	-104.946	0.325	0.074
-200.333	-33.932	-0.275	0.150
-199.319	203.439	0.190	0.291
-198.304	-158.449	0.250	-0.014
-197.290	163.361	-0.248	-0.345
-196.275	-21.120	0.241	-0.146
-195.260	50.695	0.330	0.309
-194.246	44.248	0.076	0.069
-193.231	-200.000	-0.060	0.495
-192.217	51.326	0.102	0.096
-191.202	-135.131	-0.217	0.026
-190.187	-42.387	-0.092	0.046
-189.173	-200.000	-0.008	-0.111
-188.158	-7.576	-0.208	-0.139
-187.144	-122.866	-0.137	-0.022
-186.129	28.386	-0.104	-0.087
-185.114	-110.130	-0.273	0.056
-184.100	-120.306	0.128	-0.022
-183.085	-66.931	0.082	-0.032
-182.071	-136.148	-0.231	0.027
-181.056	-200.000	0.024	-0.220
-180.042	-159.061	-0.150	0.008
-179.027	-5.761	-0.155	0.105
-178.012	-85.842	0.144	0.044
-176.998	-76.904	-0.217	0.075
-175.983	-154.002	0.362	-0.024
-174.969	-91.676	0.572	-0.161
-173.954	-126.677	0.253	-0.037
-172.939	169.019	0.184	-0.259
-171.925	-89.210	-0.160	0.047
-170.910	-82.862	-0.114	-0.036
-169.896	116.735	-0.133	0.162
-168.881	-111.908	-0.287	0.057
-167.866	-99.506	0.306	-0.076
-166.852	-157.331	0.140	0.008
-165.837	-36.059	-0.279	0.149
-164.823	66.948	-0.119	-0.120
-163.808	32.080	0.225	-0.191
-162.793	-200.000	-0.003	0.140
-161.779	204.710	0.147	0.225
-160.764	-16.332	0.118	-0.074
-159.750	484.487	-0.061	0.138
-158.735	215.836	-0.042	-0.066
-157.720	-51.410	-0.193	0.089
-156.706	-56.602	0.103	-0.045
-155.691	800.000	0.060	0.226
-154.677	6.253	0.211	-0.155
-153.662	-78.156	-0.151	0.051
-152.647	-36.445	0.112	0.060
-151.633	-140.944	-0.233	0.024
-150.618	-27.347	-0.293	0.168
-149.604	82.533	0.156	-0.167
-148.589	284.626	0.189	-0.336
-147.574	-200.000	0.019	-0.177
-146.560	-200.000	0.014	-0.150
-145.545	-140.950	-0.201	-0.020
-144.531	-119.161	0.269	0.046
-143.516	-200.000	0.010	0.198
-142.502	-22.811	-0.056	0.033
-141.487	-200.000	-0.069	0.338
-140.472	398.282	-0.205	-0.423
-139.458	-200.000	-0.069	-0.409
-138.443	-21.263	-0.129	-0.078
-137.429	323.609	-0.080	0.151
-136.414	-116.088	0.053	-0.010
-135.399	-20.280	-0.041	0.025
-134.385	800.000	0.144	-0.403
-133.370	-84.967	0.142	-0.044
-132.356	69.834	0.378	0.385
-131.341	191.410	0.124	0.184
-130.326	-9.658	0.060	0.039
-129.312	800.000	0.108	0.306
-128.297	-200.000	0.060	0.401
-127.283	242.222	-0.192	0.317
-126.268	-200.000	0.027	-0.327
-125.253	156.365	-0.196	-0.266
-124.239	-200.000	-0.054	-0.381
-123.224	3.963	0.083	-0.060
-122.210	490.396	0.027	-0.061
-121.195	430.130	0.102	0.218
