DTS Sentinel unit serial number:	SN413079Multiplexer serial number:	ORYXHardware model number:	OX4-SRSoftware version number:	ORYX F/W v4.00 Oryx Data Collector v3.7.2.0data status	okinstallation	princeton_trtdifferential loss correction	single-endedforward channel	channel 4reverse channel	N/Adate	2019/09/15time	12:05:35forward acquisition time	60.00reverse acquisition time	0.00gamma	496.2192k internal	0.2297k external	0.2297temperature offset calibration	1.0013default loss term (dB/km)	0.3790temperature slope calibration	1.0000multiplexer offset coefficient	1.0000multiplexer slope coefficient	1.0000fibre end	0.00T internal ref (°C)	34.48T ext. ref 1 (°C)	5.03T ext. ref 2 (°C)	30.70length (m)	temperature (°C)	Stokes	anti-Stokes-747.200	-14.401	-0.171	0.113
-746.185	-200.000	0.056	0.268
-745.171	-73.250	-0.070	0.026
-744.156	44.563	0.194	0.183
-743.142	-19.883	-0.235	0.148
-742.127	143.816	-0.051	-0.069
-741.112	-33.546	0.132	0.075
-740.098	226.940	-0.085	0.141
-739.083	70.126	0.239	0.252
-738.069	-25.202	-0.093	0.056
-737.054	-200.000	-0.004	0.300
-736.039	29.360	-0.018	0.015
-735.025	-9.845	0.241	0.164
-734.010	705.547	-0.082	-0.220
-732.996	-66.248	-0.278	-0.113
-731.981	-116.321	-0.170	-0.032
-730.966	-7.219	0.096	0.067
-729.952	171.802	-0.197	0.289
-728.937	-30.100	0.066	-0.038
-727.923	0.725	0.286	0.209
-726.908	623.834	-0.083	-0.214
-725.894	-56.259	-0.313	-0.142
-724.879	142.344	0.058	-0.079
-723.864	-108.088	-0.093	0.021
-722.850	138.739	-0.146	-0.196
-721.835	131.922	0.227	-0.298
-720.821	-51.274	-0.398	0.190
-719.806	-200.000	-0.030	0.271
-718.791	800.000	-0.091	-0.324
-717.777	-60.377	-0.327	0.142
-716.762	-200.000	0.003	0.103
-715.748	-19.964	-0.334	-0.210
-714.733	800.000	-0.014	-0.048
-713.718	662.206	-0.082	0.215
-712.704	90.452	0.089	-0.102
-711.689	39.240	-0.216	0.197
-710.675	-137.268	-0.188	-0.022
-709.660	-178.564	0.199	-0.005
-708.645	373.211	-0.179	-0.371
-707.631	-200.000	-0.017	-0.084
-706.616	-200.000	0.018	0.244
-705.602	7.440	0.229	0.175
-704.587	-200.000	0.054	0.286
-703.572	-200.000	-0.056	-0.253
-702.558	314.934	0.031	0.060
-701.543	-39.289	0.175	-0.094
-700.529	-88.914	-0.361	-0.109
-699.514	207.059	-0.139	0.221
-698.499	-81.797	-0.190	0.064
-697.485	-169.611	0.375	-0.014
-696.470	128.495	-0.200	-0.260
-695.456	-160.480	0.279	-0.015
-694.441	-200.000	-0.017	0.183
-693.426	-163.234	-0.043	0.002
-692.412	-97.723	0.390	0.103
-691.397	333.159	0.188	-0.370
-690.383	356.027	0.097	-0.197
-689.368	-112.459	-0.124	-0.025
-688.354	-186.552	-0.137	-0.002
-687.339	15.174	0.210	-0.168
-686.324	-200.000	0.026	-0.145
-685.310	-200.000	0.012	0.081
-684.295	735.566	0.038	0.104
-683.281	-95.657	0.232	-0.063
-682.266	-200.000	0.277	0.000
-681.251	800.000	0.088	-0.325
-680.237	-13.044	-0.046	-0.031
-679.222	-17.903	-0.305	-0.195
-678.208	414.775	-0.138	-0.300
-677.193	-90.731	-0.100	0.029
-676.178	800.000	0.048	0.202
-675.164	715.381	-0.084	-0.227
-674.149	-40.464	-0.127	-0.067
-673.135	-48.509	0.160	-0.079
-672.120	-69.251	-0.212	0.083
-671.105	-200.000	-0.038	-0.191
-670.091	-6.119	0.166	-0.116
-669.076	346.359	0.009	-0.019
-668.062	205.511	-0.179	-0.283
-667.047	-77.074	0.324	-0.115
-666.032	-49.754	0.179	0.087
-665.018	-97.512	-0.388	-0.103
-664.003	-30.858	0.185	0.106
-662.989	-125.712	0.326	-0.050
-661.974	19.908	-0.004	0.004
-660.959	236.611	0.083	0.141
-659.945	7.346	-0.157	0.119
-658.930	-200.000	0.004	-0.146
-657.916	-9.641	0.158	0.107
-656.901	536.598	0.075	0.180
-655.886	4.973	-0.094	0.070
-654.872	10.355	0.142	0.110
-653.857	-114.263	-0.104	0.020
-652.843	-166.085	0.266	-0.012
-651.828	353.192	0.151	0.305
-650.814	318.336	-0.079	-0.152
-649.799	-200.000	0.000	-0.138
-648.784	-49.195	0.071	0.034
-647.770	186.472	-0.044	-0.067
-646.755	-78.830	-0.247	-0.086
-645.741	-107.400	0.213	0.048
-644.726	201.510	0.119	0.186
-643.711	17.048	0.146	0.117
-642.697	-82.370	0.090	0.030
-641.682	126.705	-0.178	-0.229
-640.668	518.973	-0.055	-0.132
-639.653	-125.826	-0.158	-0.024
-638.638	206.744	-0.142	-0.225
-637.624	-200.000	0.320	0.000
-636.609	-115.314	0.126	-0.024
-635.595	-115.251	0.315	-0.061
-634.580	-59.783	-0.365	-0.159
-633.565	-96.550	-0.282	0.076
-632.551	83.989	-0.204	0.227
-631.536	-200.000	-0.006	-0.075
-630.522	-71.721	-0.213	0.081
-629.507	223.728	-0.128	-0.210
-628.492	353.101	-0.079	-0.159
-627.478	800.000	-0.031	0.130
-626.463	-139.813	0.296	0.032
-625.449	707.665	0.070	-0.187
-624.434	40.612	0.045	0.041
-623.419	387.536	-0.178	0.375
-622.405	104.314	-0.154	-0.185
-621.390	800.000	0.129	-0.371
-620.376	-75.051	0.317	0.115
-619.361	-200.000	0.039	0.277
-618.346	800.000	0.049	0.157
-617.332	141.346	0.202	-0.272
-616.317	-200.000	-0.017	-0.278
-615.303	-87.811	0.209	0.064
-614.288	800.000	-0.053	0.175
-613.273	85.462	0.119	-0.133
-612.259	-200.000	-0.031	-0.354
-611.244	-37.725	-0.126	-0.068
-610.230	-5.977	-0.109	-0.076
-609.215	-41.817	0.122	-0.063
-608.201	354.505	-0.022	0.044
-607.186	-200.000	0.005	-0.128
-606.171	148.573	0.140	-0.193
-605.157	158.608	0.154	0.218
-604.142	398.699	0.049	0.104
-603.128	-16.457	0.059	-0.038
-602.113	-153.990	-0.117	-0.008
-601.098	-136.150	-0.257	-0.031
-600.084	-123.676	0.132	0.021
-599.069	-146.480	0.197	-0.017
-598.055	394.502	-0.028	-0.060
-597.040	-52.041	0.058	-0.027
-596.025	-22.149	-0.239	-0.147
-595.011	-150.269	-0.173	-0.014
-593.996	-200.000	-0.048	0.285
-592.982	-129.278	-0.048	-0.007
-591.967	-56.045	-0.047	-0.021
-590.952	-115.548	0.131	-0.025
-589.938	-53.774	-0.219	0.102
-588.923	-200.000	-0.265	0.000
-587.909	-20.490	-0.161	-0.100
-586.894	-200.000	0.019	0.131
-585.879	-200.000	0.023	0.216
-584.865	-200.000	-0.025	0.223
-583.850	444.244	-0.034	0.075
-582.836	-146.466	0.290	-0.026
-581.821	50.676	-0.211	0.203
-580.806	315.365	-0.099	0.189
-579.792	-113.075	0.173	0.035
-578.777	-200.000	-0.016	-0.128
-577.763	88.281	-0.177	-0.200
-576.748	800.000	0.029	0.100
-575.733	30.054	-0.113	-0.098
-574.719	189.053	-0.020	0.030
-573.704	-200.000	-0.050	-0.503
-572.690	93.974	-0.174	0.200
-571.675	481.711	-0.100	-0.230
-570.661	-200.000	0.021	-0.234
-569.646	-200.000	-0.051	-0.243
-568.631	-80.783	-0.289	-0.097
-567.617	-200.000	-0.008	0.082
-566.602	-200.000	0.034	0.185
-565.588	-200.000	-0.057	0.419
-564.573	-65.326	-0.120	-0.049
-563.558	-83.396	0.420	-0.137
-562.544	79.522	0.038	-0.041
-561.529	275.287	-0.105	-0.188
-560.515	103.742	-0.287	0.342
-559.500	379.850	-0.087	0.181
-558.485	-3.707	0.298	-0.210
-557.471	-76.137	-0.154	0.055
-556.456	15.846	-0.324	-0.258
-555.442	-82.618	0.366	0.120
-554.427	61.407	0.322	-0.325
-553.412	40.777	-0.026	0.024
-552.398	800.000	0.050	-0.172
-551.383	707.715	0.005	0.013
-550.369	257.267	0.080	0.139
-549.354	-166.515	-0.292	0.012
-548.339	-200.000	0.018	0.216
-547.325	6.346	0.193	-0.146
-546.310	-104.109	-0.203	-0.048
-545.296	-200.000	0.025	0.377
-544.281	-17.166	0.403	0.258
-543.266	-12.980	0.245	-0.162
-542.252	126.986	-0.193	0.249
-541.237	149.032	-0.138	0.189
-540.223	-49.748	0.136	0.066
-539.208	-200.000	-0.027	-0.236
-538.193	-3.588	0.363	-0.256
-537.179	-179.141	-0.369	0.008
-536.164	-6.236	0.289	-0.200
-535.150	-32.568	0.409	0.231
-534.135	-135.642	-0.163	-0.020
-533.121	280.250	-0.223	-0.404
-532.106	-200.000	0.034	0.467
-531.091	110.071	0.079	0.097
-530.077	267.080	0.034	-0.060
-529.062	-79.116	-0.231	0.080
-528.048	-13.307	0.324	0.213
-527.033	345.139	-0.069	0.137
-526.018	4.844	-0.222	-0.165
-525.004	-200.000	0.003	-0.142
-523.989	186.348	0.099	0.149
-522.975	-42.638	0.326	0.168
-521.960	144.037	-0.141	0.190
-520.945	-6.650	0.060	-0.041
-519.931	3.838	-0.276	-0.204
-518.916	-131.101	0.106	-0.014
-517.902	221.940	-0.076	-0.123
-516.887	-148.662	-0.122	-0.010
-515.872	-92.550	0.205	-0.058
-514.858	6.733	-0.326	-0.246
-513.843	232.273	-0.136	-0.226
-512.829	-102.626	-0.198	0.048
-511.814	216.738	-0.045	0.073
-510.799	224.956	-0.041	0.068
-509.785	24.832	0.102	-0.085
-508.770	-82.602	0.312	0.102
-507.756	322.838	-0.088	0.170
-506.741	-79.476	-0.152	-0.052
-505.726	85.249	0.243	0.269
-504.712	36.178	-0.195	-0.174
-503.697	291.037	0.100	-0.185
-502.683	248.659	0.037	0.063
-501.668	-200.000	-0.015	-0.255
-500.653	-200.000	0.006	-0.129
-499.639	-200.000	0.011	0.104
-498.624	118.956	-0.094	0.117
-497.610	-25.355	-0.357	0.213
-496.595	-90.729	0.198	0.058
-495.581	4.983	-0.331	-0.247
-494.566	27.716	0.082	0.070
-493.551	-37.733	0.040	-0.022
-492.537	-200.000	-0.006	-0.221
-491.522	-147.586	-0.118	0.010
-490.508	-200.000	0.003	-0.038
-489.493	27.041	0.036	0.030
-488.478	110.589	-0.067	0.082
-487.464	-9.756	-0.140	-0.094
-486.449	-94.221	-0.250	0.069
-485.435	-59.211	-0.257	-0.112
-484.420	-25.421	0.129	-0.077
-483.405	-2.666	-0.239	0.169
-482.391	800.000	-0.075	0.315
-481.376	248.224	0.079	0.136
-480.362	120.225	0.160	-0.201
-479.347	700.540	0.124	-0.330
-478.332	26.813	-0.253	0.214
-477.318	43.645	-0.135	0.125
-476.303	-179.111	0.461	0.010
-475.289	155.389	-0.144	0.201
-474.274	800.000	0.046	0.190
-473.259	107.624	-0.189	0.227
-472.245	133.996	0.265	0.346
-471.230	179.923	0.048	-0.070
-470.216	-56.401	-0.352	0.158
-469.201	-32.461	0.201	0.113
-468.186	119.415	-0.242	0.303
-467.172	-14.367	-0.102	0.067
-466.157	27.872	0.339	-0.288
-465.143	-27.491	-0.230	0.135
-464.128	800.000	0.081	0.236
-463.113	309.508	-0.131	0.248
-462.099	-200.000	0.025	0.126
-461.084	-200.000	0.023	-0.197
-460.070	-15.410	-0.064	-0.041
-459.055	-200.000	0.049	0.304
-458.040	67.603	-0.049	-0.050
-457.026	218.212	0.232	0.375
-456.011	-111.750	-0.417	0.085
-454.997	-177.451	-0.285	0.007
-453.982	-45.111	0.189	-0.095
-452.968	94.558	-0.103	0.118
-451.953	74.697	-0.072	-0.077
-450.938	-21.988	-0.382	0.234
-449.924	135.186	-0.109	-0.143
-448.909	-200.000	-0.063	-0.297
-447.895	-114.763	0.079	0.015
-446.880	-124.860	0.106	-0.017
-445.865	-3.750	-0.137	-0.096
-444.851	-53.019	0.231	-0.107
-443.836	29.870	0.247	-0.212
-442.822	-70.785	-0.271	-0.103
-441.807	-194.098	0.190	-0.002
-440.792	-87.229	-0.063	-0.019
-439.778	57.243	-0.097	0.096
-438.763	-200.000	0.029	-0.349
-437.749	71.457	-0.168	0.176
-436.734	106.914	0.052	0.062
-435.719	381.340	-0.064	-0.133
-434.705	-98.820	0.342	-0.088
-433.690	331.053	-0.038	0.074
-432.676	387.798	0.048	-0.101
-431.661	-80.342	0.198	-0.067
-430.646	-98.969	0.169	0.043
-429.632	-87.399	-0.118	0.036
-428.617	134.073	0.093	-0.122
-427.603	-58.491	0.334	0.146
-426.588	-200.000	0.017	0.261
-425.573	-61.180	-0.126	-0.054
-424.559	-5.225	-0.057	0.039
-423.544	263.310	0.164	0.288
-422.530	-75.798	-0.110	0.039
-421.515	117.927	-0.212	0.264
-420.500	88.814	0.036	0.040
-419.486	238.348	-0.333	0.558
-418.471	-134.740	-0.008	0.001
-417.457	-23.741	0.300	-0.182
-416.442	21.127	-0.245	-0.201
-415.428	-153.171	-0.114	0.008
-414.413	-200.000	0.013	0.085
-413.398	-124.025	-0.046	-0.007
-412.384	41.652	-0.326	-0.298
-411.369	87.533	-0.131	-0.146
-410.355	-118.488	-0.182	0.033
-409.340	556.021	-0.100	-0.242
-408.325	-16.781	0.111	0.071
-407.311	-200.000	0.018	0.140
-406.296	698.294	-0.030	0.080
-405.282	800.000	-0.050	-0.210
-404.267	728.345	-0.045	0.120
-403.252	222.748	0.137	0.223
-402.238	459.615	-0.111	-0.249
-401.223	800.000	-0.034	0.133
-400.209	361.713	0.111	0.224
-399.194	-134.240	0.155	0.019
-398.179	-90.013	0.185	-0.054
-397.165	117.092	0.105	-0.130
-396.150	-112.412	-0.306	0.062
-395.136	37.516	-0.284	-0.254
-394.121	34.120	0.290	-0.255
-393.106	149.993	-0.090	-0.122
-392.092	297.806	0.109	0.201
-391.077	-200.000	0.030	0.224
-390.063	-181.589	0.376	0.007
-389.048	-112.251	0.271	-0.055
-388.033	-200.000	0.066	-0.357
-387.019	-141.047	0.268	0.028
-386.004	-135.298	-0.356	0.043
-384.990	800.000	0.092	-0.257
-383.975	-200.000	-0.039	0.301
-382.960	221.125	0.024	-0.038
-381.946	-118.012	-0.102	-0.018
-380.931	77.802	0.069	-0.074
-379.917	45.864	0.117	0.109
-378.902	125.571	-0.142	-0.180
-377.888	-200.000	-0.002	0.119
-376.873	800.000	-0.047	-0.145
-375.858	-88.885	0.142	0.042
-374.844	-129.958	-0.025	0.003
-373.829	800.000	-0.043	0.137
-372.815	-200.000	-0.011	0.091
-371.800	157.647	-0.123	0.171
-370.785	-54.010	0.281	-0.129
-369.771	378.348	-0.119	-0.244
-368.756	255.049	-0.123	-0.212
-367.742	-200.000	-0.021	-0.377
-366.727	-200.000	0.015	-0.271
-365.712	-164.573	-0.173	-0.008
-364.698	-200.000	-0.069	-0.357
-363.683	91.803	-0.160	0.181
-362.669	-11.551	0.091	0.060
-361.654	-116.170	-0.172	-0.032
-360.639	-139.652	-0.218	-0.023
-359.625	136.117	-0.184	-0.242
-358.610	-151.922	0.255	0.019
-357.596	-90.324	0.178	-0.052
-356.581	-22.461	-0.310	0.189
-355.566	800.000	0.095	-0.277
-354.552	278.714	0.022	0.040
-353.537	-57.396	0.088	0.039
-352.523	104.908	-0.261	0.310
-351.508	13.839	-0.140	0.110
-350.493	131.228	0.151	0.195
-349.479	800.000	-0.115	0.407
-348.464	36.094	0.184	-0.163
-347.450	-200.000	-0.017	0.131
-346.435	-200.000	-0.180	-0.000
-345.420	-107.261	-0.081	-0.018
-344.406	-58.299	0.187	0.082
-343.391	100.703	0.244	0.285
-342.377	-93.879	0.056	-0.015
-341.362	11.980	0.064	-0.049
-340.348	-118.659	0.423	0.075
-339.333	-160.945	-0.240	0.013
-338.318	-18.605	-0.044	-0.028
-337.304	5.449	0.127	-0.094
-336.289	-200.000	0.014	0.204
-335.275	-0.318	-0.129	0.092
-334.260	-140.816	-0.141	-0.015
-333.245	-29.686	0.267	-0.153
-332.231	623.447	-0.047	0.119
-331.216	14.766	0.079	0.062
-330.202	33.627	0.165	0.144
-329.187	70.927	-0.114	0.119
-328.172	-50.008	-0.097	-0.046
-327.158	-157.917	0.263	-0.016
-326.143	-56.279	0.269	-0.120
-325.129	86.368	0.089	0.099
-324.114	-200.000	-0.018	0.144
-323.099	-13.197	-0.233	0.152
-322.085	96.602	-0.089	-0.103
-321.070	266.535	-0.060	0.106
-320.056	44.401	0.234	0.216
-319.041	-25.898	0.310	-0.183
-318.026	-146.211	-0.226	-0.020
-317.012	-200.000	-0.004	0.097
-315.997	800.000	-0.010	0.035
-314.983	33.778	-0.214	0.187
-313.968	148.215	-0.051	0.070
-312.953	-200.000	0.028	0.289
-311.939	224.601	0.134	0.218
-310.924	800.000	0.036	0.145
-309.910	800.000	0.033	0.097
-308.895	-9.072	-0.230	0.155
-307.880	-69.060	0.198	-0.077
-306.866	-42.073	0.297	0.152
-305.851	8.169	0.136	-0.103
-304.837	-145.993	-0.219	-0.019
-303.822	87.230	-0.092	-0.102
-302.807	-200.000	-0.015	-0.232
-301.793	1.761	-0.234	0.169
-300.778	-177.149	-0.205	0.005
-299.764	3.670	-0.180	-0.132
-298.749	-200.000	-0.046	-0.273
-297.735	277.497	0.135	0.241
-296.720	36.609	-0.070	-0.062
-295.705	434.617	0.211	-0.460
-294.691	-4.089	0.191	-0.133
-293.676	-12.091	-0.185	0.121
-292.662	-151.134	-0.093	-0.007
-291.647	202.623	0.050	-0.077
-290.632	-44.610	-0.175	0.088
-289.618	266.049	-0.064	-0.113
-288.603	-76.934	0.120	0.042
-287.589	-200.000	-0.006	0.027
-286.574	800.000	-0.040	0.132
-285.559	384.415	-0.046	0.095
-284.545	76.148	-0.085	0.091
-283.530	800.000	0.064	0.199
-282.516	-131.243	0.259	0.034
-281.501	-73.545	0.051	-0.018
-280.486	-97.700	-0.232	-0.060
-279.472	-200.000	-0.040	-0.190
-278.457	-95.375	0.446	0.120
-277.443	-200.000	-0.011	-0.325
-276.428	143.768	-0.182	0.243
-275.413	293.013	0.162	-0.296
-274.399	645.479	-0.147	0.376
-273.384	78.409	-0.140	0.150
-272.370	-50.728	0.294	-0.139
-271.355	797.632	-0.096	0.266
-270.340	-67.700	-0.351	0.138
-269.326	75.779	0.089	-0.095
-268.311	257.077	0.134	-0.231
-267.297	252.896	-0.146	0.250
-266.282	11.558	0.161	-0.124
-265.267	344.099	0.174	0.343
-264.253	-115.813	0.073	0.014
-263.238	-75.227	0.151	-0.054
-262.224	-121.691	0.335	-0.055
-261.209	-140.502	0.241	0.025
-260.195	-133.007	-0.072	0.009
-259.180	79.699	-0.096	0.103
-258.165	103.692	0.069	-0.081
-257.151	800.000	-0.066	0.258
-256.136	-180.944	0.076	-0.002
-255.122	149.262	0.116	-0.158
-254.107	17.920	0.282	-0.225
-253.092	181.933	0.229	-0.339
-252.078	800.000	-0.062	0.213
-251.063	-119.151	0.084	-0.015
-250.049	-17.339	0.358	-0.226
-249.034	-15.423	0.239	-0.153
-248.019	-104.023	-0.337	0.079
-247.005	197.728	-0.101	0.154
-245.990	32.780	-0.152	-0.132
-244.976	800.000	0.064	-0.218
-243.961	-200.000	-0.007	0.184
-242.946	-102.678	0.093	-0.022
-241.932	119.225	0.153	-0.189
-240.917	-165.233	-0.479	-0.021
-239.903	-75.329	0.340	0.121
-238.888	-142.591	0.241	-0.024
-237.873	800.000	0.106	-0.335
-236.859	-200.000	0.036	-0.157
-235.844	387.564	0.041	-0.085
-234.830	-113.224	-0.162	-0.032
-233.815	800.000	0.037	0.121
-232.800	-109.545	-0.064	0.014
-231.786	-22.232	-0.197	0.119
-230.771	105.341	0.273	-0.323
-229.757	-200.000	-0.040	-0.184
-228.742	-20.800	-0.178	-0.109
-227.727	0.711	-0.094	0.068
-226.713	-200.000	0.035	-0.197
-225.698	-95.453	0.170	-0.046
-224.684	36.650	0.274	0.242
-223.669	-131.668	-0.049	-0.006
-222.655	-79.692	0.090	-0.030
-221.640	143.893	0.052	0.070
-220.625	267.589	0.186	0.325
-219.611	103.735	0.092	0.108
-218.596	-7.845	0.289	0.195
-217.582	15.794	-0.304	0.239
-216.567	20.284	-0.446	-0.360
-215.552	-200.000	0.031	0.136
-214.538	800.000	-0.047	0.136
-213.523	-200.000	0.012	-0.182
-212.509	718.240	0.124	-0.330
-211.494	-13.684	0.123	-0.080
-210.479	800.000	-0.089	-0.371
-209.465	-135.759	-0.092	0.011
-208.450	-0.782	-0.263	-0.187
-207.436	-110.701	-0.216	-0.045
-206.421	367.539	0.225	-0.454
-205.406	-122.835	-0.197	-0.032
-204.392	50.583	-0.198	0.187
-203.377	-143.751	0.298	-0.028
-202.363	7.602	-0.175	0.131
-201.348	513.773	0.074	-0.172
-200.333	70.857	0.329	0.340
-199.319	142.273	0.135	-0.180
-198.304	-58.605	-0.243	0.105
-197.290	253.943	-0.086	-0.147
-196.275	-154.346	-0.190	0.013
-195.260	234.037	0.222	-0.365
-194.246	129.941	-0.250	-0.320
-193.231	-24.603	-0.356	0.212
-192.217	-93.968	-0.074	-0.020
-191.202	-60.404	-0.111	-0.047
-190.187	-200.000	-0.039	0.287
-189.173	-117.859	0.310	0.056
-188.158	609.003	-0.106	-0.265
-187.144	-0.170	0.298	-0.212
-186.129	-200.000	-0.039	-0.320
-185.114	-200.000	0.019	-0.192
-184.100	-30.272	-0.218	0.124
-183.085	112.159	0.080	0.097
-182.071	27.099	0.182	0.153
-181.056	-200.000	-0.006	-0.192
-180.042	800.000	-0.092	0.303
-179.027	3.653	0.040	0.029
-178.012	-97.219	-0.032	-0.008
-176.998	800.000	0.030	-0.093
-175.983	-200.000	0.103	0.487
-174.969	95.703	0.323	0.368
-173.954	-200.000	0.046	-0.209
-172.939	-16.166	-0.069	-0.044
-171.925	-200.000	-0.050	-0.233
-170.910	800.000	-0.023	0.093
-169.896	-103.357	0.400	0.094
-168.881	10.957	-0.084	-0.064
-167.866	496.205	0.166	0.381
-166.852	191.973	0.091	-0.137
-165.837	53.142	0.240	-0.230
-164.823	21.213	-0.315	-0.255
-163.808	800.000	-0.058	-0.166
-162.793	-186.177	-0.208	-0.003
-161.779	-97.052	0.241	0.063
-160.764	-11.177	0.276	-0.182
-159.750	758.125	-0.135	0.366
-158.735	-65.009	-0.130	-0.052
-157.720	476.847	-0.053	0.120
-156.706	100.798	0.280	-0.325
-155.691	202.706	0.104	-0.160
-154.677	-81.534	-0.165	0.054
-153.662	-200.000	0.024	0.143
-152.647	800.000	-0.056	0.175
-151.633	-142.139	0.098	0.010
-150.618	800.000	0.113	-0.364
-149.604	-83.227	0.299	0.096
-148.589	-95.901	0.423	0.112
-147.574	5.830	0.072	0.053
-146.560	-200.000	-0.057	-0.308
-145.545	74.310	-0.056	0.058
-144.531	176.948	0.183	0.266
-143.516	-147.580	0.221	0.019
-142.502	-200.000	-0.001	-0.113
-141.487	-175.443	-0.205	-0.006
-140.472	-128.037	0.184	-0.026
-139.458	217.706	-0.154	-0.246
-138.443	-151.127	0.264	-0.020
-137.429	79.882	0.177	0.190
-136.414	-200.000	-0.033	-0.233
-135.399	-40.634	0.181	0.094
-134.385	-121.256	0.110	0.018
-133.370	-200.000	0.010	0.122
-132.356	324.122	0.173	0.330
-131.341	-200.000	0.034	0.275
-130.326	344.033	0.072	-0.140
-129.312	468.726	0.034	-0.077
-128.297	-167.272	0.300	-0.012
-127.283	-178.144	-0.117	-0.003
-126.268	-200.000	0.017	0.154
-125.253	-142.457	-0.299	-0.029
-124.239	-103.664	0.122	0.029
-123.224	471.533	0.062	0.139
-122.210	14.097	0.104	0.080
-121.195	-49.122	0.336	-0.160
