DTS Sentinel unit serial number:	SN413079Multiplexer serial number:	ORYXHardware model number:	OX4-SRSoftware version number:	ORYX F/W v4.00 Oryx Data Collector v3.7.2.0data status	okinstallation	princeton_trtdifferential loss correction	single-endedforward channel	channel 4reverse channel	N/Adate	2019/09/15time	10:57:34forward acquisition time	60.00reverse acquisition time	0.00gamma	496.2192k internal	0.2298k external	0.2298temperature offset calibration	1.0019default loss term (dB/km)	0.3790temperature slope calibration	1.0000multiplexer offset coefficient	1.0000multiplexer slope coefficient	1.0000fibre end	0.00T internal ref (°C)	34.25T ext. ref 1 (°C)	5.04T ext. ref 2 (°C)	29.84length (m)	temperature (°C)	Stokes	anti-Stokes-747.200	176.872	-0.070	-0.104
-746.185	-107.221	0.103	-0.023
-745.171	-13.130	0.201	-0.133
-744.156	-200.000	-0.050	0.300
-743.142	-68.203	0.221	0.088
-742.127	-86.088	0.203	0.064
-741.112	278.471	0.251	0.456
-740.098	800.000	0.038	0.162
-739.083	-50.748	0.246	0.118
-738.069	-92.527	0.137	-0.039
-737.054	-7.913	-0.382	-0.263
-736.039	-103.237	-0.257	-0.062
-735.025	-200.000	0.005	0.463
-734.010	-117.722	-0.208	-0.038
-732.996	-92.174	-0.175	-0.051
-731.981	-151.946	-0.086	-0.006
-730.966	-36.161	0.174	-0.096
-729.952	31.323	-0.323	-0.283
-728.937	-123.966	-0.373	-0.060
-727.923	-200.000	0.038	0.338
-726.908	-130.123	0.212	-0.029
-725.894	-5.097	-0.304	-0.213
-724.879	134.533	0.032	-0.043
-723.864	-131.857	-0.388	0.052
-722.850	-200.000	0.031	-0.468
-721.835	-128.234	-0.232	0.034
-720.821	-174.150	-0.314	-0.009
-719.806	406.620	-0.125	0.268
-718.791	245.820	-0.105	-0.181
-717.777	-75.192	-0.167	-0.061
-716.762	-200.000	0.076	-0.344
-715.748	-2.027	0.239	-0.171
-714.733	-133.386	-0.290	-0.037
-713.718	800.000	-0.055	-0.217
-712.704	800.000	0.025	-0.079
-711.689	-200.000	-0.040	0.208
-710.675	-38.055	-0.095	0.051
-709.660	136.456	-0.156	-0.207
-708.645	-200.000	0.002	0.016
-707.631	800.000	0.046	-0.189
-706.616	800.000	-0.048	-0.153
-705.602	98.150	-0.174	-0.204
-704.587	416.985	0.045	-0.099
-703.572	-200.000	0.006	0.043
-702.558	-200.000	0.053	-0.299
-701.543	-144.940	0.239	-0.022
-700.529	-200.000	-0.005	0.043
-699.514	-18.621	-0.286	0.182
-698.499	-127.314	0.158	0.023
-697.485	-100.393	0.295	0.075
-696.470	38.106	0.321	0.291
-695.456	-28.854	-0.251	0.147
-694.441	50.793	0.103	0.100
-693.426	-56.844	-0.218	0.098
-692.412	800.000	0.043	0.123
-691.397	88.365	-0.013	0.015
-690.383	-189.595	0.190	0.002
-689.368	-59.453	-0.136	0.060
-688.354	87.529	-0.215	-0.242
-687.339	800.000	0.030	0.100
-686.324	219.713	0.118	-0.192
-685.310	800.000	0.029	0.117
-684.295	232.671	0.136	0.227
-683.281	-200.000	-0.011	0.190
-682.266	-167.957	-0.308	-0.012
-681.251	-21.102	0.211	-0.131
-680.237	-87.160	-0.284	-0.088
-679.222	8.907	-0.180	-0.139
-678.208	16.159	0.227	-0.182
-677.193	-200.000	-0.021	0.139
-676.178	399.835	-0.143	-0.305
-675.164	35.058	-0.252	0.225
-674.149	455.611	0.099	-0.224
-673.135	800.000	0.110	0.446
-672.120	-76.625	-0.118	0.042
-671.105	204.675	0.150	0.237
-670.091	-55.780	-0.082	0.038
-669.076	800.000	0.042	-0.161
-668.062	-180.254	-0.250	-0.005
-667.047	-61.708	0.252	-0.107
-666.032	165.031	0.016	-0.024
-665.018	25.722	0.072	-0.061
-664.003	257.665	-0.070	-0.123
-662.989	-200.000	-0.035	-0.346
-661.974	-81.264	-0.353	-0.119
-660.959	91.165	-0.101	0.115
-659.945	-200.000	-0.008	-0.083
-658.930	-200.000	0.003	0.281
-657.916	-181.654	-0.075	-0.001
-656.901	39.611	-0.121	0.110
-655.886	69.330	-0.021	0.022
-654.872	-14.545	0.096	0.063
-653.857	-29.250	0.298	-0.174
-652.843	-78.833	0.443	-0.154
-651.828	-200.000	0.058	-0.347
-650.814	-200.000	-0.027	-0.130
-649.799	-134.142	-0.306	-0.038
-648.784	14.090	-0.141	-0.111
-647.770	-200.000	-0.013	-0.142
-646.755	-57.091	0.178	-0.080
-645.741	-143.096	-0.372	0.036
-644.726	347.423	-0.107	0.214
-643.711	664.976	-0.068	0.180
-642.697	-76.832	-0.322	-0.115
-641.682	707.764	0.052	0.139
-640.668	266.403	-0.091	0.161
-639.653	-99.957	0.271	0.069
-638.638	67.348	0.198	-0.206
-637.624	-64.090	-0.165	0.068
-636.609	-123.043	0.411	-0.067
-635.595	800.000	0.063	0.201
-634.580	800.000	0.016	-0.068
-633.565	-120.687	0.332	0.057
-632.551	-103.983	-0.097	-0.023
-631.536	-146.852	-0.039	0.003
-630.522	-200.000	0.013	0.526
-629.507	539.459	0.062	0.150
-628.492	-200.000	-0.036	-0.205
-627.478	29.909	0.101	0.088
-626.463	32.219	-0.116	-0.102
-625.449	-183.368	-0.143	0.003
-624.434	-5.281	0.182	-0.127
-623.419	242.370	-0.129	-0.219
-622.405	-48.430	-0.194	-0.095
-621.390	-46.048	0.060	0.030
-620.376	175.979	0.080	0.118
-619.361	140.046	-0.254	-0.340
-618.346	118.037	0.071	0.089
-617.332	-200.000	0.012	0.123
-616.317	251.568	-0.116	-0.200
-615.303	-53.558	0.123	-0.057
-614.288	800.000	0.034	-0.115
-613.273	-200.000	-0.039	0.243
-612.259	607.669	0.130	-0.330
-611.244	-149.519	-0.199	0.016
-610.230	210.408	-0.073	0.117
-609.215	47.676	-0.049	-0.047
-608.201	-2.308	-0.328	-0.233
-607.186	170.831	-0.059	-0.087
-606.171	104.763	0.080	-0.095
-605.157	156.425	-0.173	-0.243
-604.142	168.772	-0.117	0.170
-603.128	129.317	0.097	-0.125
-602.113	-200.000	0.087	-0.405
-601.098	73.024	0.143	-0.151
-600.084	-37.496	0.163	0.088
-599.069	86.511	0.142	-0.159
-598.055	-114.525	-0.288	0.056
-597.040	-53.736	0.425	0.197
-596.025	-157.988	-0.210	0.013
-595.011	220.402	-0.065	-0.105
-593.996	-145.433	0.474	-0.043
-592.982	-169.360	-0.243	0.009
-591.967	-79.682	0.364	-0.124
-590.952	771.166	0.128	-0.353
-589.938	252.669	-0.010	-0.017
-588.923	-134.126	-0.383	-0.048
-587.909	69.524	-0.386	0.403
-586.894	-103.300	-0.260	-0.062
-585.879	-200.000	0.019	-0.096
-584.865	800.000	-0.126	0.389
-583.850	102.079	-0.153	0.181
-582.836	-176.544	-0.205	0.005
-581.821	-200.000	0.098	-0.531
-580.806	76.206	-0.297	-0.319
-579.792	264.689	0.062	-0.110
-578.777	-30.505	0.111	-0.064
-577.763	146.939	-0.093	-0.127
-576.748	17.749	-0.149	-0.121
-575.733	-19.631	-0.305	-0.191
-574.719	-122.669	0.209	0.034
-573.704	-200.000	-0.058	-0.271
-572.690	-81.882	0.157	-0.052
-571.675	-200.000	0.059	-0.311
-570.661	-8.290	0.072	-0.049
-569.646	-68.095	0.121	-0.048
-568.631	-173.480	-0.325	0.010
-567.617	5.828	-0.192	0.144
-566.602	145.203	0.067	-0.091
-565.588	-200.000	0.004	0.289
-564.573	-155.852	-0.289	0.019
-563.558	76.307	0.065	0.070
-562.544	-114.277	-0.231	-0.045
-561.529	-5.366	-0.313	0.218
-560.515	-37.157	0.044	-0.024
-559.500	113.314	-0.128	-0.157
-558.485	-50.745	0.150	-0.071
-557.471	-173.784	0.390	-0.012
-556.456	-62.975	-0.116	0.049
-555.442	-105.031	-0.148	-0.034
-554.427	-200.000	0.025	-0.305
-553.412	5.255	-0.235	0.175
-552.398	800.000	-0.054	0.155
-551.383	246.241	0.082	-0.141
-550.369	800.000	0.127	0.361
-549.354	61.306	-0.164	0.165
-548.339	339.281	-0.084	-0.166
-547.325	272.038	0.108	0.193
-546.310	-15.192	0.199	0.129
-545.296	-27.684	-0.119	0.070
-544.281	800.000	0.061	0.197
-543.266	55.346	-0.237	-0.232
-542.252	-54.325	-0.328	-0.151
-541.237	-200.000	-0.112	-0.621
-540.223	-157.064	0.243	0.015
-539.208	-200.000	-0.004	0.031
-538.193	800.000	0.015	-0.068
-537.179	-52.472	-0.086	0.040
-536.164	-148.339	0.123	0.010
-535.150	-34.204	-0.265	0.147
-534.135	-7.700	0.291	-0.199
-533.121	-63.506	0.076	0.031
-532.106	128.482	-0.113	-0.146
-531.091	-200.000	0.027	0.256
-530.077	-115.111	0.368	0.071
-529.062	116.988	-0.327	0.407
-528.048	800.000	-0.085	0.258
-527.033	800.000	0.104	-0.437
-526.018	-62.377	-0.177	-0.075
-525.004	-200.000	-0.042	0.190
-523.989	-100.188	-0.365	-0.092
-522.975	-118.632	-0.313	-0.056
-521.960	800.000	0.116	-0.401
-520.945	0.381	0.290	-0.210
-519.931	64.452	-0.256	0.261
-518.916	-168.176	0.136	0.005
-517.902	155.274	-0.091	0.127
-516.887	601.419	0.027	-0.068
-515.872	-104.624	0.124	-0.029
-514.858	-124.719	0.152	0.024
-513.843	-99.479	0.054	0.014
-512.829	237.248	-0.085	-0.142
-511.814	-30.556	0.251	-0.144
-510.799	-101.210	0.122	0.030
-509.785	-95.913	0.166	0.045
-508.770	-33.745	0.162	0.091
-507.756	-200.000	-0.002	-0.393
-506.741	272.943	0.037	0.067
-505.726	-152.886	-0.046	0.003
-504.712	62.373	-0.098	0.099
-503.697	631.398	0.087	-0.221
-502.683	-188.429	0.095	-0.001
-501.668	205.973	-0.204	-0.321
-500.653	311.486	0.024	0.046
-499.639	85.971	-0.093	-0.103
-498.624	-19.810	-0.191	0.120
-497.610	7.599	-0.076	0.058
-496.595	-200.000	0.024	0.223
-495.581	-102.733	-0.255	0.062
-494.566	177.390	-0.085	0.125
-493.551	381.583	-0.044	0.091
-492.537	-46.834	0.376	0.186
-491.522	105.412	-0.121	0.145
-490.508	-53.106	-0.066	0.031
-489.493	-75.309	0.185	0.067
-488.478	723.750	-0.104	0.279
-487.464	-92.848	-0.248	0.070
-486.449	-89.758	0.222	-0.066
-485.435	95.166	0.284	-0.327
-484.420	-135.714	-0.481	-0.058
-483.405	-126.663	0.087	0.013
-482.391	-13.210	0.154	-0.101
-481.376	63.421	0.105	0.106
-480.362	-78.049	-0.316	0.110
-479.347	-45.300	-0.297	0.149
-478.332	-200.000	-0.089	0.403
-477.318	174.747	0.170	0.248
-476.303	483.752	-0.061	-0.141
-475.289	-67.876	-0.164	-0.065
-474.274	-200.000	0.004	-0.278
-473.259	-103.599	0.340	0.080
-472.245	210.033	-0.046	0.072
-471.230	800.000	-0.017	-0.059
-470.216	167.933	0.017	-0.024
-469.201	45.549	0.192	0.179
-468.186	-131.490	-0.238	0.032
-467.172	277.634	0.063	0.113
-466.157	166.925	0.060	-0.085
-465.143	-91.824	0.145	0.042
-464.128	-153.684	0.440	-0.031
-463.113	53.973	-0.247	0.240
-462.099	41.796	0.259	0.237
-461.084	-200.000	-0.026	-0.319
-460.070	-64.524	0.199	-0.081
-459.055	293.523	-0.064	-0.118
-458.040	92.516	0.099	0.113
-457.026	-152.820	0.095	0.007
-456.011	170.004	-0.054	-0.078
-454.997	-200.000	-0.005	-0.136
-453.982	-131.679	0.287	0.038
-452.968	13.681	-0.261	-0.205
-451.953	-126.157	0.185	0.028
-450.938	160.662	-0.132	-0.185
-449.924	-73.204	-0.163	-0.060
-448.909	800.000	0.035	0.147
-447.895	-164.879	-0.207	-0.009
-446.880	-200.000	-0.030	-0.320
-445.865	-90.984	-0.187	0.054
-444.851	3.013	0.054	0.039
-443.836	394.526	-0.164	0.344
-442.822	762.451	0.202	0.554
-441.807	-200.000	-0.037	-0.351
-440.792	-200.000	0.010	-0.093
-439.778	-106.444	0.006	-0.001
-438.763	-200.000	-0.010	-0.205
-437.749	-200.000	0.002	0.073
-436.734	-50.035	-0.041	0.020
-435.719	-46.149	-0.314	0.156
-434.705	15.501	0.216	-0.171
-433.690	-200.000	0.008	0.096
-432.676	-73.981	0.332	-0.122
-431.661	52.724	-0.174	0.167
-430.646	90.048	-0.124	0.139
-429.632	353.472	0.127	0.255
-428.617	-111.412	-0.278	-0.057
-427.603	257.255	-0.210	0.364
-426.588	87.945	-0.119	-0.133
-425.573	-100.647	-0.125	-0.031
-424.559	-158.683	0.087	0.005
-423.544	169.333	0.039	-0.056
-422.530	-200.000	-0.001	-0.149
-421.515	94.295	-0.070	0.080
-420.500	800.000	-0.092	0.325
-419.486	-200.000	-0.011	-0.142
-418.471	-200.000	-0.002	-0.199
-417.457	-200.000	-0.003	-0.199
-416.442	44.808	-0.229	0.212
-415.428	1.184	0.206	0.149
-414.413	-200.000	0.010	-0.088
-413.398	-139.285	-0.198	0.021
-412.384	-50.921	0.368	0.174
-411.369	109.957	0.204	0.247
-410.355	177.876	-0.085	-0.124
-409.340	124.126	-0.252	-0.319
-408.325	244.891	0.215	-0.365
-407.311	-35.092	-0.012	-0.006
-406.296	99.667	0.091	0.107
-405.282	800.000	-0.144	-0.446
-404.267	688.272	-0.090	0.238
-403.252	179.698	0.114	-0.168
-402.238	-35.052	0.255	0.140
-401.223	800.000	-0.052	0.153
-400.209	800.000	0.070	-0.305
-399.194	-175.429	0.319	-0.009
-398.179	224.110	-0.114	0.186
-397.165	800.000	0.103	0.324
-396.150	-90.958	-0.261	0.076
-395.136	-200.000	0.019	-0.132
-394.121	-52.440	0.255	-0.119
-393.106	-30.375	-0.080	-0.046
-392.092	800.000	0.049	-0.175
-391.077	-34.921	0.416	0.228
-390.063	-126.340	-0.046	0.007
-389.048	-200.000	-0.004	0.144
-388.033	-108.159	0.183	0.040
-387.019	66.685	0.249	0.255
-386.004	800.000	-0.030	0.110
-384.990	37.868	0.046	0.041
-383.975	58.551	-0.116	-0.114
-382.960	800.000	-0.075	0.269
-381.946	113.092	0.164	-0.201
-380.931	349.728	0.180	-0.358
-379.917	-38.930	0.164	0.087
-378.902	-34.579	-0.148	-0.082
-377.888	355.450	-0.158	-0.316
-376.873	-200.000	-0.024	-0.290
-375.858	-200.000	0.025	0.118
-374.844	-200.000	-0.030	0.194
-373.829	155.217	-0.123	0.171
-372.815	-200.000	-0.013	0.113
-371.800	800.000	-0.156	0.456
-370.785	-148.928	-0.081	-0.007
-369.771	42.162	-0.081	-0.074
-368.756	416.508	0.113	-0.242
-367.742	-112.632	-0.229	0.046
-366.727	-165.274	0.087	-0.004
-365.712	103.322	0.330	-0.389
-364.698	-200.000	0.020	0.154
-363.683	29.791	0.098	0.084
-362.669	-73.018	0.151	0.056
-361.654	-193.549	0.290	-0.003
-360.639	-71.160	0.116	0.044
-359.625	-200.000	-0.042	-0.238
-358.610	42.703	0.064	-0.058
-357.596	363.658	-0.122	-0.246
-356.581	27.969	-0.183	-0.156
-355.566	-2.853	-0.047	0.033
-354.552	-200.000	0.007	-0.205
-353.537	10.104	-0.117	0.089
-352.523	-94.157	0.202	0.056
-351.508	-144.074	-0.093	-0.009
-350.493	-108.729	0.208	0.045
-349.479	-146.432	0.277	-0.024
-348.464	-92.172	-0.159	-0.045
-347.450	-50.934	-0.345	0.163
-346.435	-51.074	0.327	-0.154
-345.420	99.825	0.084	0.097
-344.406	327.360	-0.071	-0.137
-343.391	47.169	0.343	-0.321
-342.377	421.804	-0.073	-0.158
-341.362	-49.436	-0.256	-0.123
-340.348	241.529	-0.205	-0.345
-339.333	-161.295	0.282	0.015
-338.318	-24.972	0.247	-0.147
-337.304	-116.490	-0.181	-0.034
-336.289	-106.942	-0.297	-0.066
-335.275	63.767	-0.173	0.175
-334.260	-200.000	-0.072	-0.387
-333.245	-108.375	0.392	0.085
-332.231	-200.000	0.000	-0.448
-331.216	241.949	0.069	-0.116
-330.202	17.234	0.133	-0.106
-329.187	424.919	-0.085	0.183
-328.172	94.211	0.080	0.091
-327.158	-200.000	-0.057	-0.323
-326.143	-162.620	-0.096	0.005
-325.129	-146.709	0.444	0.039
-324.114	43.872	0.202	0.186
-323.099	-18.256	-0.403	-0.253
-322.085	-200.000	0.403	0.002
-321.070	-126.669	-0.407	0.060
-320.056	756.965	-0.063	-0.170
-319.041	36.781	0.143	0.126
-318.026	-167.011	0.073	-0.003
-317.012	13.093	0.157	0.122
-315.997	-78.069	0.384	0.133
-314.983	344.770	0.105	0.207
-313.968	-200.000	-0.045	0.206
-312.953	800.000	-0.038	-0.118
-311.939	-53.781	0.052	-0.024
-310.924	766.929	-0.044	-0.121
-309.910	4.247	-0.101	-0.075
-308.895	-134.469	0.144	-0.018
-307.880	-25.411	0.241	0.143
-306.866	-110.788	0.012	0.002
-305.851	-65.208	0.052	0.021
-304.837	-100.280	-0.284	-0.071
-303.822	739.351	0.098	0.264
-302.807	-77.270	0.301	0.105
-301.793	-93.765	-0.017	-0.005
-300.778	-53.787	0.288	0.132
-299.764	109.250	-0.054	0.065
-298.749	-200.000	0.112	0.514
-297.735	77.607	-0.195	-0.209
-296.720	-65.211	-0.068	0.028
-295.705	156.283	-0.059	-0.082
-294.691	232.337	0.101	-0.167
-293.676	160.421	-0.133	0.187
-292.662	107.330	-0.113	-0.135
-291.647	136.944	-0.079	-0.103
-290.632	-119.372	0.090	-0.016
-289.618	-118.150	0.098	-0.018
-288.603	450.609	-0.120	-0.265
-287.589	-200.000	0.030	-0.242
-286.574	463.467	0.162	-0.362
-285.559	-67.498	-0.348	-0.137
-284.545	-5.969	0.215	0.148
-283.530	50.746	0.059	-0.056
-282.516	-132.946	-0.177	0.023
-281.501	-70.046	0.181	-0.069
-280.486	-200.000	0.026	-0.212
-279.472	214.952	-0.099	-0.157
-278.457	253.515	-0.026	0.044
-277.443	153.937	0.179	0.246
-276.428	-181.143	0.231	0.005
-275.413	-111.444	0.094	-0.019
-274.399	-200.000	-0.009	0.088
-273.384	-39.584	-0.201	-0.105
-272.370	182.962	0.170	0.252
-271.355	108.444	-0.231	0.276
-270.340	-200.000	0.105	0.469
-269.326	136.983	0.117	0.153
-268.311	-200.000	-0.005	-0.283
-267.297	-200.000	0.111	0.557
-266.282	-28.383	0.026	-0.015
-265.267	-65.007	-0.170	0.069
-264.253	-143.455	0.124	-0.012
-263.238	382.731	-0.069	0.142
-262.224	-135.218	0.217	0.026
-261.209	-35.823	0.386	0.209
-260.195	-200.000	-0.049	0.261
-259.180	45.573	-0.202	-0.187
-258.165	59.906	-0.099	0.098
-257.151	81.415	0.107	-0.116
-256.136	459.400	0.079	0.176
-255.122	-109.720	-0.117	-0.025
-254.107	-40.508	0.132	-0.068
-253.092	187.013	-0.168	-0.251
-252.078	-2.170	-0.168	-0.118
-251.063	-45.786	0.281	-0.139
-250.049	-66.547	0.188	-0.075
-249.034	-68.259	0.240	0.094
-248.019	177.848	-0.111	-0.162
-247.005	162.787	0.098	0.138
-245.990	-74.555	-0.374	0.135
-244.976	-39.822	-0.170	-0.089
-243.961	-200.000	-0.025	-0.204
-242.946	-116.871	0.210	-0.039
-241.932	-80.093	-0.199	0.067
-240.917	476.917	-0.068	0.154
-239.903	-79.521	-0.057	-0.019
-238.888	583.009	-0.111	0.273
-237.873	210.623	0.026	-0.040
-236.859	-200.000	0.006	0.141
-235.844	-200.000	-0.012	0.233
-234.830	800.000	-0.033	0.133
-233.815	-175.527	-0.365	-0.010
-232.800	99.491	-0.160	0.186
-231.786	-200.000	-0.024	0.196
-230.771	-200.000	0.011	0.063
-229.757	800.000	0.028	-0.085
-228.742	-53.100	0.092	-0.042
-227.727	800.000	-0.093	0.272
-226.713	-200.000	0.046	-0.258
-225.698	54.179	0.061	0.059
-224.684	800.000	-0.028	0.113
-223.669	-47.022	-0.046	0.022
-222.655	-200.000	0.033	0.201
-221.640	-67.019	0.066	0.026
-220.625	-108.067	0.271	0.059
-219.611	-32.971	0.158	-0.088
-218.596	-112.391	0.315	-0.063
-217.582	150.804	-0.160	-0.217
-216.567	-70.286	-0.238	-0.090
-215.552	81.987	0.184	0.200
-214.538	446.198	-0.092	0.202
-213.523	-200.000	-0.003	0.102
-212.509	33.489	-0.214	-0.186
-211.494	-139.989	-0.081	-0.009
-210.479	162.301	-0.226	0.317
-209.465	-200.000	-0.063	0.361
-208.450	-152.393	-0.325	0.023
-207.436	-98.463	0.140	0.036
-206.421	-20.296	-0.342	-0.211
-205.406	-158.550	-0.175	0.010
-204.392	-41.999	0.119	-0.061
-203.377	-200.000	-0.020	0.220
-202.363	124.032	0.128	0.161
-201.348	91.391	0.050	-0.056
-200.333	-66.757	-0.070	0.028
-199.319	425.542	0.040	0.086
-198.304	367.925	-0.062	0.124
-197.290	-40.535	-0.174	-0.090
-196.275	69.100	0.255	0.262
-195.260	311.425	0.189	0.355
-194.246	392.852	0.218	-0.452
-193.231	800.000	-0.019	0.084
-192.217	-7.307	-0.119	0.081
-191.202	-55.555	-0.302	0.135
-190.187	-200.000	-0.012	-0.110
-189.173	-130.421	-0.480	0.065
-188.158	-34.090	0.348	0.191
-187.144	-200.000	0.028	-0.126
-186.129	13.479	-0.164	-0.127
-185.114	-82.056	0.139	0.045
-184.100	52.386	0.259	0.247
-183.085	-200.000	0.005	0.363
-182.071	-71.872	0.130	-0.048
-181.056	800.000	0.063	0.221
-180.042	-200.000	0.022	-0.167
-179.027	-41.854	-0.096	-0.049
-178.012	105.789	0.261	0.308
-176.998	28.427	-0.051	-0.043
-175.983	502.254	-0.025	-0.057
-174.969	-70.563	0.221	-0.083
-173.954	-73.153	-0.455	0.166
-172.939	312.377	0.165	0.309
-171.925	-200.000	0.013	-0.089
-170.910	-47.503	0.279	0.135
-169.896	78.293	-0.231	0.247
-168.881	-20.040	-0.302	0.186
-167.866	-200.000	-0.041	-0.192
-166.852	40.829	-0.078	0.070
-165.837	-85.603	0.049	0.015
-164.823	200.696	0.085	0.130
-163.808	-200.000	0.022	0.143
-162.793	-15.171	0.220	-0.140
-161.779	-40.232	0.172	-0.089
-160.764	-77.015	0.173	-0.060
-159.750	-200.000	0.073	-0.424
-158.735	-123.267	0.225	0.036
-157.720	-148.450	0.055	-0.004
-156.706	-28.095	0.346	-0.200
-155.691	342.726	-0.144	0.282
-154.677	257.089	-0.189	-0.324
-153.662	-200.000	0.007	-0.234
-152.647	37.831	-0.146	-0.130
-151.633	-200.000	0.001	-0.218
-150.618	-200.000	-0.004	-0.226
-149.604	-200.000	-0.138	0.001
-148.589	-108.123	-0.326	-0.070
-147.574	-52.051	-0.096	0.044
-146.560	-200.000	-0.033	0.247
-145.545	106.331	-0.070	0.083
-144.531	-200.000	-0.032	-0.141
-143.516	270.546	0.063	0.111
-142.502	-22.806	0.104	0.063
-141.487	800.000	-0.046	0.153
-140.472	431.397	-0.100	-0.217
-139.458	-109.616	0.170	0.036
-138.443	-52.651	-0.289	0.133
-137.429	800.000	0.054	0.199
-136.414	-7.114	-0.069	0.047
-135.399	9.094	0.219	0.165
-134.385	45.602	0.270	-0.249
-133.370	-54.518	-0.118	-0.053
-132.356	-19.802	-0.117	-0.072
-131.341	-200.000	0.007	0.382
-130.326	49.442	-0.365	0.342
-129.312	800.000	-0.113	0.340
-128.297	-89.795	-0.231	0.067
-127.283	61.426	0.343	0.340
-126.268	-200.000	0.072	0.343
-125.253	46.340	-0.197	0.182
-124.239	-137.108	-0.547	0.062
-123.224	-83.373	-0.221	-0.071
-122.210	-128.039	0.288	0.041
