DTS Sentinel unit serial number:	SN413079Multiplexer serial number:	ORYXHardware model number:	OX4-SRSoftware version number:	ORYX F/W v4.00 Oryx Data Collector v3.7.2.0data status	okinstallation	princeton_trtdifferential loss correction	single-endedforward channel	channel 4reverse channel	N/Adate	2019/09/12time	19:12:19forward acquisition time	15.00reverse acquisition time	0.00gamma	496.2192k internal	0.2307k external	0.2307temperature offset calibration	1.0150default loss term (dB/km)	0.3790temperature slope calibration	1.0000multiplexer offset coefficient	1.0000multiplexer slope coefficient	1.0000fibre end	0.00T internal ref (°C)	32.56T ext. ref 1 (°C)	3.27T ext. ref 2 (°C)	27.18length (m)	temperature (°C)	Stokes	anti-Stokes-747.200	800.000	0.188	-0.656
-746.185	-135.544	0.854	0.103
-745.171	-117.451	0.170	0.031
-744.156	-85.310	-0.603	-0.191
-743.142	775.561	0.131	-0.364
-742.127	82.981	0.238	0.263
-741.112	800.000	0.211	0.682
-740.098	10.814	0.874	0.678
-739.083	-100.602	0.597	-0.150
-738.069	-84.075	-0.257	0.083
-737.054	800.000	0.054	-0.168
-736.039	-4.094	-0.347	-0.245
-735.025	800.000	-0.241	0.805
-734.010	144.736	0.639	-0.868
-732.996	-118.941	-0.675	-0.120
-731.981	-120.712	-0.704	-0.121
-730.966	-42.347	0.515	-0.267
-729.952	266.062	0.279	-0.495
-728.937	15.315	-0.857	-0.683
-727.923	800.000	0.149	-0.543
-726.908	147.688	0.487	-0.666
-725.894	-6.031	-0.256	0.178
-724.879	-145.534	-0.859	-0.078
-723.864	-137.903	-0.692	-0.079
-722.850	-200.000	0.017	0.549
-721.835	203.137	0.127	0.199
-720.821	291.973	0.248	-0.459
-719.806	-142.318	-0.571	-0.057
-718.791	-59.222	-0.389	0.170
-717.777	297.206	0.080	0.149
-716.762	177.162	-0.440	-0.651
-715.748	90.695	-0.322	-0.366
-714.733	-102.246	0.925	-0.226
-713.718	73.163	0.273	0.290
-712.704	-57.979	-0.309	-0.137
-711.689	114.922	0.079	-0.097
-710.675	-78.781	0.369	-0.128
-709.660	-90.554	0.162	-0.048
-708.645	-33.006	0.250	-0.141
-707.631	87.423	-0.250	-0.281
-706.616	46.492	-0.667	-0.628
-705.602	-132.356	-0.275	-0.036
-704.587	-200.000	-0.058	-0.280
-703.572	800.000	0.240	-0.877
-702.558	-74.732	0.991	0.361
-701.543	-126.389	0.850	-0.129
-700.529	-200.000	-0.113	-0.726
-699.514	29.050	0.515	-0.444
-698.499	38.070	0.704	-0.636
-697.485	5.004	-0.335	0.250
-696.470	-125.756	-0.735	-0.113
-695.456	73.806	0.389	0.414
-694.441	-77.063	0.768	-0.272
-693.426	-18.975	-0.028	0.018
-692.412	-6.868	0.851	0.587
-691.397	-107.042	-0.305	-0.068
-690.383	271.880	-0.288	0.515
-689.368	10.026	-0.270	0.208
-688.354	675.790	-0.323	-0.852
-687.339	800.000	-0.168	0.570
-686.324	-96.621	1.126	0.301
-685.310	240.129	0.374	-0.632
-684.295	800.000	-0.241	-0.844
-683.281	-28.353	0.757	0.443
-682.266	-52.889	0.283	0.132
-681.251	-1.317	0.162	-0.116
-680.237	360.382	0.307	-0.624
-679.222	-46.888	0.958	-0.475
-678.208	46.832	-0.642	0.605
-677.193	708.297	-0.185	-0.496
-676.178	281.549	0.211	0.383
-675.164	-74.424	0.959	0.351
-674.149	-21.541	-0.537	-0.332
-673.135	800.000	0.261	-0.792
-672.120	155.539	-0.737	-1.029
-671.105	-198.093	-0.253	-0.002
-670.091	-126.299	0.948	-0.144
-669.076	99.014	-0.213	-0.249
-668.062	703.174	0.107	-0.287
-667.047	-61.952	-0.715	-0.303
-666.032	-149.613	0.831	-0.066
-665.018	103.502	-0.561	-0.667
-664.003	-67.978	0.346	0.137
-662.989	-1.714	-0.421	0.300
-661.974	-126.965	-0.740	-0.110
-660.959	24.807	-0.235	0.198
-659.945	-1.962	-0.192	0.137
-658.930	-75.786	0.755	-0.271
-657.916	-101.329	-0.561	-0.139
-656.901	-89.583	0.486	0.145
-655.886	-200.000	0.015	0.175
-654.872	-18.333	-0.243	-0.154
-653.857	29.703	-0.647	0.558
-652.843	-136.718	0.353	-0.041
-651.828	-161.804	0.254	-0.013
-650.814	800.000	0.270	1.034
-649.799	-200.000	0.108	0.522
-648.784	300.832	-0.345	0.645
-647.770	-200.000	-0.004	-0.613
-646.755	800.000	0.107	-0.429
-645.741	-65.616	-1.009	0.410
-644.726	459.255	0.197	0.444
-643.711	-108.387	-0.885	-0.193
-642.697	-95.062	-0.212	0.058
-641.682	800.000	0.107	-0.378
-640.668	133.494	0.685	-0.897
-639.653	64.190	0.396	0.404
-638.638	800.000	-0.086	0.294
-637.624	800.000	-0.155	-0.445
-636.609	800.000	-0.303	1.035
-635.595	736.408	-0.570	-1.547
-634.580	93.968	0.516	-0.592
-633.565	-42.160	0.615	0.318
-632.551	-107.709	-0.264	0.058
-631.536	-200.000	0.181	0.858
-630.522	-200.000	-0.023	-0.116
-629.507	301.883	0.457	-0.855
-628.492	22.260	-0.164	-0.136
-627.478	340.007	-0.567	1.119
-626.463	-152.446	-0.627	-0.046
-625.449	83.309	0.499	-0.550
-624.434	257.622	-0.277	-0.482
-623.419	379.214	-0.086	-0.178
-622.405	-19.964	0.177	0.110
-621.390	-103.424	0.423	0.101
-620.376	-41.353	-0.646	0.337
-619.361	-167.900	0.116	0.005
-618.346	800.000	0.188	0.619
-617.332	-177.166	0.262	0.007
-616.317	-11.806	-0.548	-0.364
-615.303	-51.426	-0.578	0.273
-614.288	326.206	-0.153	-0.296
-613.273	-177.139	-0.161	-0.004
-612.259	-127.284	-1.474	-0.218
-611.244	293.845	0.232	0.429
-610.230	-5.616	-0.544	-0.377
-609.215	-32.575	-0.227	0.128
-608.201	260.030	0.015	-0.027
-607.186	266.520	0.189	0.334
-606.171	-200.000	0.031	1.235
-605.157	99.996	-1.073	-1.258
-604.142	-78.618	-0.316	0.109
-603.128	800.000	-0.117	0.390
-602.113	-1.647	-0.218	-0.155
-601.098	-30.726	-0.336	-0.192
-600.084	27.495	0.726	-0.618
-599.069	646.245	0.102	-0.263
-598.055	-25.462	-0.537	-0.321
-597.040	372.675	-0.204	0.420
-596.025	-200.000	-0.094	-0.918
-595.011	595.718	0.286	-0.714
-593.996	335.014	0.057	0.112
-592.982	800.000	-0.088	-0.371
-591.967	-17.768	-0.217	-0.138
-590.952	-200.000	-0.290	0.000
-589.938	-200.000	0.044	-0.253
-588.923	800.000	-0.104	-0.298
-587.909	37.329	0.169	0.151
-586.894	180.458	-0.177	0.262
-585.879	102.621	-0.354	0.419
-584.865	3.586	-0.314	-0.232
-583.850	-200.000	0.008	-0.597
-582.836	4.973	-0.624	0.464
-581.821	800.000	0.151	0.449
-580.806	-28.105	-0.958	-0.560
-579.792	219.647	-0.270	-0.436
-578.777	-44.688	1.170	-0.590
-577.763	6.426	-0.384	0.288
-576.748	-25.694	0.739	0.441
-575.733	-7.952	0.244	0.166
-574.719	17.722	-0.502	0.403
-573.704	104.660	0.221	-0.263
-572.690	-200.000	0.018	-0.174
-571.675	47.789	0.834	-0.786
-570.661	-78.515	-0.539	0.186
-569.646	-200.000	0.061	0.285
-568.631	800.000	-0.207	0.711
-567.617	-69.612	0.525	-0.203
-566.602	175.723	-0.278	0.407
-565.588	60.168	-0.835	-0.833
-564.573	-200.000	0.025	0.793
-563.558	800.000	0.049	0.197
-562.544	-64.191	0.501	-0.206
-561.529	-45.857	-0.177	-0.088
-560.515	-106.863	-0.537	0.120
-559.500	231.969	0.024	0.040
-558.485	-15.377	-0.303	-0.196
-557.471	675.413	-0.201	0.527
-556.456	71.644	-0.511	0.536
-555.442	731.563	-0.027	0.072
-554.427	278.701	0.257	0.463
-553.412	-118.225	-0.340	0.061
-552.398	2.522	-0.067	-0.049
-551.383	-12.971	-0.566	0.372
-550.369	-144.027	-0.587	-0.056
-549.354	20.872	0.042	-0.035
-548.339	-34.223	-0.596	0.330
-547.325	-141.004	0.259	-0.027
-546.310	-36.367	0.829	-0.451
-545.296	42.831	-0.924	-0.850
-544.281	-200.000	-0.095	-0.965
-543.266	307.121	-0.179	-0.336
-542.252	800.000	-0.066	0.224
-541.237	-41.467	0.312	0.162
-540.223	66.789	-0.595	0.611
-539.208	-22.955	-0.541	0.329
-538.193	-200.000	0.041	-0.226
-537.179	-29.981	0.928	0.533
-536.164	-48.985	0.404	0.195
-535.150	434.157	0.368	0.807
-534.135	-51.421	-0.802	0.378
-533.121	-142.868	1.192	0.117
-532.106	800.000	0.147	-0.606
-531.091	519.498	-0.037	0.088
-530.077	-156.773	1.138	-0.071
-529.062	-200.000	0.022	-0.203
-528.048	-94.368	-0.496	0.137
-527.033	-200.000	-0.018	0.588
-526.018	-200.000	-0.109	0.761
-525.004	-85.078	-0.278	-0.088
-523.989	800.000	-0.074	-0.299
-522.975	-65.738	-0.556	0.224
-521.960	28.340	0.216	0.184
-520.945	256.318	-0.363	-0.628
-519.931	-200.000	0.132	-0.730
-518.916	-200.000	-0.047	-0.411
-517.902	800.000	-0.057	-0.211
-516.887	-200.000	0.157	0.700
-515.872	-160.906	-0.158	-0.008
-514.858	-200.000	-0.029	-0.249
-513.843	-101.684	-0.464	-0.113
-512.829	56.040	-0.575	-0.562
-511.814	126.670	0.507	-0.647
-510.799	7.328	0.481	0.362
-509.785	-200.000	-0.019	0.292
-508.770	-66.804	-0.702	0.280
-507.756	433.135	0.167	-0.366
-506.741	-185.082	0.638	0.010
-505.726	-200.000	0.149	-0.776
-504.712	-138.507	-0.671	0.074
-503.697	15.996	-0.127	0.101
-502.683	-80.818	0.800	-0.268
-501.668	-64.536	0.244	-0.100
-500.653	82.024	0.522	0.570
-499.639	-200.000	0.129	0.574
-498.624	178.691	0.373	0.549
-497.610	-103.172	-0.490	0.117
-496.595	-156.861	-0.458	-0.028
-495.581	27.679	-0.597	-0.506
-494.566	57.318	-0.224	-0.220
-493.551	-117.424	1.031	-0.188
-492.537	-61.192	-0.187	-0.079
-491.522	1.485	-0.761	0.551
-490.508	25.599	0.376	0.315
-489.493	-200.000	-0.045	-0.721
-488.478	221.844	0.266	0.431
-487.464	-57.887	-0.253	-0.111
-486.449	14.562	0.800	-0.629
-485.435	14.607	-0.252	0.198
-484.420	18.575	0.187	-0.150
-483.405	-15.795	-0.857	-0.549
-482.391	45.344	0.822	0.763
-481.376	181.958	0.160	0.237
-480.362	-55.216	0.501	-0.227
-479.347	-200.000	-0.152	-0.696
-478.332	800.000	0.117	-0.489
-477.318	-200.000	0.020	0.425
-476.303	-6.241	0.260	0.178
-475.289	-200.000	-0.120	0.558
-474.274	259.764	-0.398	-0.691
-473.259	41.645	0.407	-0.371
-472.245	-200.000	-0.047	-0.809
-471.230	437.858	0.299	0.656
-470.216	-131.398	0.482	-0.064
-469.201	36.970	0.461	0.410
-468.186	751.288	-0.128	-0.348
-467.172	-200.000	0.004	-0.360
-466.157	44.202	0.147	0.136
-465.143	-200.000	-0.000	0.076
-464.128	-200.000	0.038	0.487
-463.113	-200.000	0.074	-0.456
-462.099	-200.000	-0.079	0.401
-461.084	317.457	-0.106	0.201
-460.070	-59.076	-0.279	-0.121
-459.055	49.401	0.290	-0.274
-458.040	-200.000	0.000	0.288
-457.026	20.394	-0.311	0.253
-456.011	-91.078	0.832	0.240
-454.997	-200.000	-0.006	-0.600
-453.982	248.036	-0.385	0.655
-452.968	800.000	0.091	0.303
-451.953	-121.973	0.702	-0.116
-450.938	346.831	0.223	-0.442
-449.924	637.608	0.541	-1.383
-448.909	800.000	-0.080	0.328
-447.895	72.459	0.577	-0.605
-446.880	38.500	0.277	-0.248
-445.865	800.000	0.106	0.447
-444.851	-200.000	0.020	-0.294
-443.836	116.595	0.239	0.294
-442.822	101.874	0.412	0.484
-441.807	-10.816	0.451	0.299
-440.792	40.743	-0.085	0.077
-439.778	99.496	-0.357	-0.415
-438.763	-97.585	0.543	-0.142
-437.749	467.449	-0.184	0.414
-436.734	340.968	0.205	-0.401
-435.719	12.520	0.480	0.372
-434.705	174.494	-0.540	0.785
-433.690	-119.773	-0.729	0.126
-432.676	361.490	-0.088	0.177
-431.661	623.786	0.173	-0.438
-430.646	800.000	0.150	-0.624
-429.632	170.459	-0.125	-0.179
-428.617	264.212	0.232	-0.406
-427.603	-66.573	-0.219	-0.087
-426.588	800.000	-0.116	-0.460
-425.573	131.111	0.145	-0.186
-424.559	-59.087	-0.167	0.072
-423.544	800.000	-0.172	-0.707
-422.530	310.025	0.278	-0.522
-421.515	-139.164	0.437	-0.047
-420.500	111.890	0.638	0.773
-419.486	800.000	0.085	0.291
-418.471	222.691	-0.373	0.603
-417.457	129.079	-0.153	-0.197
-416.442	-163.956	0.456	-0.021
-415.428	69.291	-0.438	-0.452
-414.413	-200.000	0.041	-0.448
-413.398	-200.000	0.113	-0.831
-412.384	42.040	0.468	-0.426
-411.369	-109.212	0.393	-0.084
-410.355	-130.673	0.299	0.040
-409.340	-131.301	-0.887	0.118
-408.325	700.532	0.208	-0.550
-407.311	-177.377	-0.466	0.012
-406.296	-70.660	0.351	-0.133
-405.282	43.496	-0.587	-0.539
-404.267	309.271	0.225	-0.421
-403.252	-35.651	0.739	0.402
-402.238	93.661	-0.090	0.103
-401.223	-118.759	-0.551	0.097
-400.209	-153.204	-0.807	0.057
-399.194	613.281	0.153	0.384
-398.179	-68.380	0.471	0.183
-397.165	-200.000	-0.055	-0.439
-396.150	-115.301	-0.920	0.174
-395.136	108.097	-0.354	-0.424
-394.121	-109.413	-0.462	0.098
-393.106	800.000	0.190	0.556
-392.092	800.000	-0.087	0.368
-391.077	-20.639	0.724	0.446
-390.063	-200.000	0.133	1.069
-389.048	102.340	-0.506	0.593
-388.033	800.000	-0.350	1.060
-387.019	80.260	-0.427	0.461
-386.004	48.330	0.458	-0.430
-384.990	45.086	0.328	0.303
-383.975	69.929	-0.445	0.460
-382.960	150.264	0.327	0.445
-381.946	83.435	0.516	0.564
-380.931	-21.602	0.489	-0.299
-379.917	-39.101	0.542	-0.286
-378.902	498.169	-0.110	0.253
-377.888	-200.000	0.013	0.158
-376.873	9.091	0.324	-0.245
-375.858	445.820	0.083	0.182
-374.844	-87.530	-0.437	-0.132
-373.829	-12.149	-1.053	0.691
-372.815	-36.602	-0.387	0.209
-371.800	-80.033	0.228	-0.077
-370.785	336.782	-0.425	-0.827
-369.771	207.869	-0.369	-0.577
-368.756	-200.000	0.133	-0.838
-367.742	-5.895	-0.573	-0.393
-366.727	-200.000	-0.014	0.592
-365.712	-92.565	0.323	-0.091
-364.698	305.392	-0.055	0.103
-363.683	358.825	0.084	-0.168
-362.669	-85.069	-0.140	0.044
-361.654	800.000	-0.135	-0.440
-360.639	119.493	-0.447	0.554
-359.625	-61.645	0.339	-0.142
-358.610	38.002	-0.471	-0.419
-357.596	26.941	0.473	-0.397
-356.581	-54.931	-0.102	-0.046
-355.566	-200.000	-0.059	0.517
-354.552	-34.908	0.794	0.434
-353.537	574.923	-0.101	-0.247
-352.523	-130.672	-0.524	-0.071
-351.508	-134.933	-0.432	0.052
-350.493	393.782	0.077	0.161
-349.479	-63.629	-0.516	-0.212
-348.464	-117.453	0.724	0.131
-347.450	-186.205	0.316	0.005
-346.435	52.880	0.171	0.164
-345.420	22.831	0.296	-0.243
-344.406	-0.661	0.879	0.624
-343.391	102.208	0.375	0.438
-342.377	-107.181	-0.413	-0.091
-341.362	-200.000	0.023	0.515
-340.348	-173.128	0.419	-0.013
-339.333	150.735	0.391	-0.532
-338.318	-135.466	-0.081	0.010
-337.304	-200.000	0.088	0.414
-336.289	456.632	0.222	-0.492
-335.275	456.642	0.177	-0.392
-334.260	177.241	-0.292	0.425
-333.245	-39.538	-0.470	-0.246
-332.231	24.704	0.422	-0.350
-331.216	-90.788	0.547	0.158
-330.202	238.918	0.513	0.853
-329.187	-200.000	0.028	0.131
-328.172	-200.000	0.129	0.765
-327.158	334.729	-0.182	0.353
-326.143	-86.962	-0.668	-0.204
-325.129	55.815	0.611	-0.593
-324.114	184.168	0.821	-1.215
-323.099	-34.089	0.588	0.323
-322.085	589.130	-0.121	-0.297
-321.070	-64.461	1.049	0.426
-320.056	313.800	-0.296	-0.557
-319.041	48.201	-0.249	0.233
-318.026	-200.000	-0.104	-0.614
-317.012	-33.820	-0.800	-0.441
-315.997	-32.277	0.198	0.111
-314.983	326.329	-0.346	-0.663
-313.968	800.000	0.209	-0.613
-312.953	-1.975	0.992	0.697
-311.939	209.533	-0.431	0.676
-310.924	45.982	0.298	-0.276
-309.910	-117.732	-0.410	0.074
-308.895	134.515	-0.158	-0.205
-307.880	-120.293	-0.286	0.049
-306.866	41.119	-0.396	-0.358
-305.851	-200.000	0.033	0.258
-304.837	-67.538	0.348	-0.136
-303.822	-33.651	-0.343	-0.189
-302.807	551.649	-0.360	-0.865
-301.793	-200.000	0.111	-0.823
-300.778	-80.950	-0.853	0.283
-299.764	-179.495	-1.263	0.028
-298.749	147.145	0.678	0.911
-297.735	1.343	-0.198	0.142
-296.720	-200.000	0.003	0.203
-295.705	41.536	0.589	0.533
-294.691	-4.198	0.180	0.125
-293.676	155.487	0.179	0.246
-292.662	800.000	-0.219	0.772
-291.647	490.273	-0.255	0.583
-290.632	729.058	0.158	0.422
-289.618	-200.000	0.165	0.766
-288.603	-8.918	-0.752	-0.503
-287.589	-200.000	-0.036	0.453
-286.574	143.853	0.485	0.645
-285.559	75.087	-0.071	-0.075
-284.545	32.605	0.559	0.482
-283.530	67.898	-0.484	-0.494
-282.516	-200.000	-0.085	0.622
-281.501	-171.444	0.760	0.025
-280.486	54.246	-0.446	0.429
-279.472	-9.749	0.387	-0.257
-278.457	-57.962	-0.447	0.195
-277.443	267.562	-0.313	-0.547
-276.428	126.234	0.142	0.179
-275.413	88.696	0.316	-0.351
-274.399	153.515	0.244	-0.334
-273.384	-200.000	-0.058	-0.272
-272.370	-200.000	-0.020	-0.146
-271.355	-123.124	0.706	0.113
-270.340	-114.915	0.848	-0.161
-269.326	439.935	0.109	-0.238
-268.311	-38.846	0.575	0.302
-267.297	-76.462	-0.412	0.144
-266.282	-200.000	-0.052	-0.689
-265.267	-200.000	-0.020	-0.355
-264.253	155.025	0.123	0.169
-263.238	-134.891	0.704	-0.085
-262.224	-73.797	0.461	-0.167
-261.209	800.000	0.098	0.317
-260.195	800.000	-0.235	-0.935
-259.180	-74.960	0.792	0.283
-258.165	-84.041	0.328	0.104
-257.151	225.947	0.388	0.628
-256.136	-200.000	0.096	-0.567
-255.122	800.000	0.049	-0.190
-254.107	-200.000	0.039	0.706
-253.092	408.958	-0.156	-0.330
-252.078	-200.000	-0.019	0.156
-251.063	800.000	-0.279	-0.782
-250.049	-39.241	-0.795	-0.416
-249.034	800.000	-0.033	-0.132
-248.019	800.000	0.252	1.086
-247.005	-34.153	0.707	0.388
-245.990	-200.000	0.025	-0.302
-244.976	-57.213	0.227	0.100
-243.961	772.507	0.058	-0.158
-242.946	-46.173	-0.524	-0.257
-241.932	-200.000	-0.123	-0.741
-240.917	156.282	-0.490	0.673
-239.903	706.547	-0.171	-0.449
-238.888	267.874	-0.122	0.213
-237.873	-200.000	-0.121	-0.756
-236.859	-200.000	0.016	0.603
-235.844	570.411	-0.037	0.091
-234.830	-72.144	0.860	-0.318
-233.815	800.000	-0.062	0.206
-232.800	-5.319	-0.200	-0.137
-231.786	-200.000	0.037	0.188
-230.771	800.000	-0.149	0.424
-229.757	-134.105	-0.469	0.058
-228.742	419.548	0.266	0.567
-227.727	-46.224	-0.643	0.315
-226.713	486.733	-0.481	1.092
-225.698	328.117	0.121	-0.231
-224.684	-16.596	-0.462	-0.292
-223.669	-66.361	0.389	0.154
-222.655	-80.108	0.351	0.117
-221.640	319.332	-0.224	-0.422
-220.625	800.000	-0.053	-0.177
-219.611	149.903	-0.238	0.322
-218.596	-81.117	0.085	-0.028
-217.582	-200.000	0.011	0.246
-216.567	-14.299	0.230	-0.148
-215.552	367.624	0.556	1.118
-214.538	-175.525	-0.174	0.005
-213.523	-66.575	0.581	-0.229
-212.509	243.538	0.381	-0.636
-211.494	-200.000	0.007	-0.737
-210.479	800.000	-0.191	0.672
-209.465	-19.299	0.707	-0.437
-208.450	19.250	0.541	-0.433
-207.436	-66.002	-0.504	-0.200
-206.421	21.884	-0.507	0.412
-205.406	-66.023	-0.316	-0.126
-204.392	-42.204	-0.437	-0.222
-203.377	-166.335	0.139	0.006
-202.363	800.000	0.261	-0.908
-201.348	800.000	0.157	0.435
-200.333	-45.290	0.971	-0.480
-199.319	87.296	-0.395	0.434
-198.304	-200.000	0.016	-0.256
-197.290	263.212	0.409	0.707
-196.275	432.380	0.152	0.327
-195.260	-26.556	-0.296	0.172
-194.246	800.000	-0.119	-0.444
-193.231	316.957	0.389	-0.732
-192.217	252.848	0.345	0.585
-191.202	-173.694	-0.436	0.013
-190.187	-200.000	0.035	-0.610
-189.173	800.000	-0.072	-0.221
-188.158	-117.531	-0.796	-0.143
-187.144	-102.017	1.077	-0.259
-186.129	232.739	-0.225	-0.367
-185.114	184.493	0.413	-0.609
-184.100	-200.000	-0.165	-0.748
-183.085	119.336	0.239	-0.294
-182.071	19.239	-0.911	0.728
-181.056	-70.583	-0.395	0.149
-180.042	231.303	0.239	0.389
-179.027	7.362	-0.187	-0.139
-178.012	800.000	-0.117	0.415
-176.998	60.256	0.114	0.112
-175.983	-200.000	0.005	-0.616
-174.969	-197.868	0.569	-0.003
-173.954	149.839	-0.519	0.699
-172.939	158.583	0.365	-0.504
-171.925	-80.382	0.415	0.138
-170.910	800.000	0.184	0.651
-169.896	114.483	-0.565	0.685
-168.881	331.021	0.051	-0.098
-167.866	550.963	-0.208	0.497
-166.852	605.927	-0.220	-0.546
-165.837	641.316	-0.176	-0.446
-164.823	-200.000	0.015	0.736
-163.808	-48.732	0.409	-0.195
-162.793	-106.466	-0.571	0.127
-161.779	79.235	0.351	0.374
-160.764	-92.549	-0.745	0.208
-159.750	-200.000	0.185	0.807
-158.735	285.470	0.366	0.656
-157.720	-8.996	-0.369	0.245
-156.706	-21.422	0.255	0.155
-155.691	800.000	0.264	-0.750
-154.677	-200.000	-0.019	-0.339
-153.662	-13.619	0.348	-0.224
-152.647	800.000	-0.199	0.633
-151.633	-108.440	-0.814	0.174
-150.618	412.304	0.118	0.249
-149.604	-200.000	0.178	0.919
-148.589	-140.556	0.095	0.010
-147.574	749.796	-0.537	-1.438
-146.560	149.553	-0.852	-1.147
-145.545	-64.115	0.531	0.215
-144.531	471.473	0.195	-0.435
-143.516	67.656	-0.131	0.133
-142.502	-200.000	-0.089	0.921
-141.487	-33.735	0.044	0.024
-140.472	92.138	-0.582	-0.651
-139.458	142.814	0.377	0.497
-138.443	-57.139	0.567	-0.248
-137.429	800.000	0.394	-1.317
-136.414	-200.000	0.044	0.340
-135.399	800.000	-0.124	0.372
-134.385	800.000	0.044	0.134
-133.370	-20.735	0.360	-0.219
-132.356	-29.172	0.615	0.350
-131.341	-78.890	-0.354	-0.120
-130.326	355.880	-0.173	-0.341
-129.312	-130.223	0.421	-0.057
-128.297	-9.671	-0.242	0.160
-127.283	-80.734	-0.828	0.273
-126.268	15.871	-0.593	-0.463
-125.253	-119.691	0.269	-0.046
-124.239	289.989	-0.343	0.617
-123.224	-62.783	0.194	-0.080
-122.210	25.738	-0.143	0.118
-121.195	-4.001	0.223	-0.153
-120.180	-45.967	0.243	0.119
