DTS Sentinel unit serial number:	SN413079Multiplexer serial number:	ORYXHardware model number:	OX4-SRSoftware version number:	ORYX F/W v4.00 Oryx Data Collector v3.7.2.0data status	okinstallation	princeton_trtdifferential loss correction	single-endedforward channel	channel 4reverse channel	N/Adate	2019/09/13time	00:01:35forward acquisition time	60.00reverse acquisition time	0.00gamma	496.2192k internal	0.2316k external	0.2316temperature offset calibration	1.0174default loss term (dB/km)	0.3790temperature slope calibration	1.0000multiplexer offset coefficient	1.0000multiplexer slope coefficient	1.0000fibre end	0.00T internal ref (°C)	28.64T ext. ref 1 (°C)	3.78T ext. ref 2 (°C)	23.38length (m)	temperature (°C)	Stokes	anti-Stokes-747.200	800.000	0.067	-0.289
-746.185	-82.793	-0.376	0.123
-745.171	258.337	-0.179	0.312
-744.156	-200.000	0.012	0.362
-743.142	189.073	-0.153	0.233
-742.127	150.727	-0.126	0.174
-741.112	-133.420	-0.107	-0.014
-740.098	-30.659	0.099	0.057
-739.083	-173.962	0.218	-0.006
-738.069	-101.121	-0.136	-0.034
-737.054	-53.069	-0.180	0.084
-736.039	57.872	0.219	-0.217
-735.025	-11.477	-0.066	0.044
-734.010	411.249	-0.065	-0.140
-732.996	-200.000	-0.056	-0.252
-731.981	-69.182	0.146	-0.057
-730.966	0.607	-0.151	0.109
-729.952	-200.000	-0.003	-0.093
-728.937	32.611	0.191	0.167
-727.923	-61.583	-0.015	-0.006
-726.908	-106.858	0.147	-0.033
-725.894	-200.000	0.004	-0.241
-724.879	177.547	-0.123	-0.181
-723.864	-200.000	0.233	-0.001
-722.850	-157.740	-0.093	-0.006
-721.835	-116.369	-0.229	-0.043
-720.821	-65.031	0.047	-0.019
-719.806	-109.662	-0.276	-0.059
-718.791	744.567	0.031	-0.083
-717.777	-200.000	0.030	-0.223
-716.762	-6.974	0.263	0.181
-715.748	-20.409	-0.069	0.043
-714.733	-79.084	0.089	-0.031
-713.718	-98.512	0.050	-0.013
-712.704	-169.369	0.416	0.015
-711.689	-70.580	-0.146	0.056
-710.675	325.530	0.095	-0.183
-709.660	299.122	0.235	-0.437
-708.645	-12.994	-0.153	0.100
-707.631	-36.825	-0.365	-0.198
-706.616	-149.941	0.234	-0.019
-705.602	183.087	-0.060	-0.089
-704.587	-76.142	-0.354	-0.126
-703.572	-47.010	-0.233	0.115
-702.558	575.212	0.090	0.222
-701.543	614.183	0.148	-0.375
-700.529	86.259	0.192	-0.213
-699.514	-46.179	0.240	0.119
-698.499	-146.940	0.299	0.026
-697.485	239.055	0.175	-0.294
-696.470	491.622	-0.141	0.326
-695.456	800.000	-0.066	0.270
-694.441	800.000	0.032	0.101
-693.426	62.368	-0.102	-0.102
-692.412	75.227	-0.153	0.163
-691.397	182.583	0.120	-0.179
-690.383	-52.898	0.332	-0.154
-689.368	-132.574	-0.333	-0.043
-688.354	-122.023	-0.243	0.040
-687.339	800.000	0.126	-0.446
-686.324	-200.000	-0.002	-0.080
-685.310	12.209	0.120	0.094
-684.295	800.000	0.110	-0.324
-683.281	-200.000	0.080	-0.386
-682.266	-200.000	-0.038	-0.191
-681.251	-200.000	0.014	0.102
-680.237	800.000	0.088	0.268
-679.222	-74.853	-0.210	-0.076
-678.208	-200.000	-0.007	-0.040
-677.193	-200.000	0.019	0.273
-676.178	215.541	-0.178	0.286
-675.164	84.348	0.083	-0.092
-674.149	-165.549	0.144	-0.006
-673.135	-200.000	-0.024	-0.149
-672.120	-133.373	-0.196	0.025
-671.105	-200.000	0.086	-0.398
-670.091	-125.201	-0.192	-0.030
-669.076	-143.221	0.248	0.024
-668.062	-107.167	0.220	-0.049
-667.047	144.709	0.264	-0.356
-666.032	653.063	0.099	-0.256
-665.018	95.063	0.113	-0.130
-664.003	-93.745	-0.344	-0.096
-662.989	185.160	-0.074	0.111
-661.974	-41.794	0.095	-0.049
-660.959	585.704	-0.066	0.164
-659.945	-200.000	0.003	0.207
-658.930	-9.294	0.217	-0.146
-657.916	188.606	0.187	0.282
-656.901	-22.211	-0.162	-0.099
-655.886	99.669	-0.069	-0.081
-654.872	-122.917	-0.274	-0.045
-653.857	367.550	-0.086	-0.176
-652.843	22.223	-0.076	0.063
-651.828	-200.000	0.075	-0.426
-650.814	800.000	-0.060	-0.200
-649.799	-28.162	-0.234	0.137
-648.784	-141.030	-0.244	-0.025
-647.770	149.900	0.159	-0.217
-646.755	561.949	-0.119	0.291
-645.741	-101.467	0.316	-0.078
-644.726	177.163	0.180	-0.264
-643.711	218.020	0.119	0.192
-642.697	237.662	-0.173	0.289
-641.682	420.543	-0.078	0.168
-640.668	-0.309	0.060	0.043
-639.653	800.000	0.128	-0.528
-638.638	268.888	0.133	0.236
-637.624	419.074	-0.068	0.147
-636.609	-73.999	0.236	0.086
-635.595	147.271	-0.097	0.132
-634.580	237.414	-0.228	-0.380
-633.565	112.686	0.260	-0.318
-632.551	-70.656	0.244	-0.093
-631.536	386.259	0.076	0.158
-630.522	119.919	-0.091	0.114
-629.507	-87.031	-0.371	-0.114
-628.492	-89.186	0.192	-0.057
-627.478	156.940	-0.045	-0.062
-626.463	800.000	-0.115	0.448
-625.449	305.929	0.087	0.163
-624.434	536.057	0.071	-0.169
-623.419	137.821	0.009	0.012
-622.405	-162.772	-0.300	0.015
-621.390	80.718	-0.166	0.180
-620.376	248.780	0.094	0.161
-619.361	800.000	0.060	-0.200
-618.346	94.626	0.137	-0.157
-617.332	-75.295	-0.136	0.049
-616.317	8.976	0.122	-0.093
-615.303	800.000	0.055	0.204
-614.288	423.420	0.069	-0.150
-613.273	800.000	-0.049	-0.152
-612.259	-73.469	0.100	0.037
-611.244	631.215	-0.053	-0.136
-610.230	-100.377	-0.238	0.059
-609.215	-187.432	-0.173	-0.002
-608.201	-200.000	-0.021	-0.159
-607.186	470.587	-0.090	0.204
-606.171	266.675	-0.166	0.292
-605.157	-152.297	0.231	0.017
-604.142	-126.604	0.171	0.026
-603.128	-84.812	-0.173	0.055
-602.113	-137.773	0.278	0.031
-601.098	-91.617	-0.249	0.071
-600.084	72.997	0.106	-0.112
-599.069	-101.817	-0.038	0.009
-598.055	800.000	-0.024	-0.105
-597.040	800.000	0.044	0.181
-596.025	-200.000	-0.037	0.327
-595.011	587.238	-0.142	-0.352
-593.996	-128.265	0.326	0.047
-592.982	-200.000	0.022	-0.102
-591.967	342.704	0.179	0.352
-590.952	800.000	0.045	0.133
-589.938	-52.562	-0.192	-0.089
-588.923	399.511	-0.067	0.142
-587.909	-63.505	-0.071	-0.030
-586.894	560.392	-0.091	-0.221
-585.879	120.360	0.024	0.030
-584.865	689.440	-0.115	-0.303
-583.850	-86.286	0.061	0.019
-582.836	-200.000	0.005	0.043
-581.821	10.438	-0.098	0.075
-580.806	-114.429	0.189	-0.037
-579.792	-50.193	0.077	0.037
-578.777	800.000	0.037	-0.110
-577.763	31.146	0.185	0.159
-576.748	-20.901	0.066	-0.041
-575.733	201.301	-0.076	0.117
-574.719	742.607	0.088	-0.238
-573.704	247.667	0.074	-0.127
-572.690	-176.382	-0.455	0.012
-571.675	327.346	-0.108	-0.208
-570.661	-114.217	-0.222	0.043
-569.646	-14.524	-0.121	0.078
-568.631	-200.000	0.021	0.102
-567.617	-80.339	0.200	-0.067
-566.602	165.831	-0.021	0.029
-565.588	-200.000	-0.006	-0.122
-564.573	372.152	-0.062	0.126
-563.558	3.891	0.104	-0.076
-562.544	199.557	0.223	-0.344
-561.529	-123.895	0.343	-0.054
-560.515	516.306	0.106	0.249
-559.500	800.000	0.037	0.131
-558.485	-81.318	0.202	0.067
-557.471	-200.000	0.010	0.057
-556.456	800.000	-0.121	-0.339
-555.442	0.776	-0.327	0.236
-554.427	27.412	0.160	0.136
-553.412	800.000	0.012	-0.049
-552.398	-58.925	0.226	-0.098
-551.383	156.410	-0.169	0.234
-550.369	-200.000	-0.055	-0.259
-549.354	34.800	-0.072	0.063
-548.339	259.109	-0.053	-0.092
-547.325	-200.000	-0.016	-0.190
-546.310	-121.745	-0.108	-0.018
-545.296	-18.014	-0.131	0.083
-544.281	-94.156	0.311	0.086
-543.266	-107.913	-0.059	0.013
-542.252	-51.976	-0.089	-0.042
-541.237	-103.317	0.401	0.095
-540.223	416.254	0.036	-0.076
-539.208	-68.989	-0.144	-0.056
-538.193	441.226	-0.054	0.118
-537.179	-200.000	-0.007	0.202
-536.164	-147.727	0.155	-0.013
-535.150	-127.256	-0.167	0.025
-534.135	800.000	-0.109	0.433
-533.121	49.136	0.164	0.155
-532.106	23.827	0.037	0.031
-531.091	111.686	0.189	-0.229
-530.077	779.830	-0.057	-0.158
-529.062	-139.707	-0.198	-0.021
-528.048	-200.000	-0.008	0.059
-527.033	-105.909	0.321	-0.073
-526.018	-200.000	0.002	0.353
-525.004	-200.000	-0.003	0.104
-523.989	-56.448	-0.032	-0.014
-522.975	439.171	-0.100	-0.219
-521.960	-21.062	0.348	-0.214
-520.945	800.000	-0.042	-0.121
-519.931	36.397	0.152	0.135
-518.916	800.000	0.080	0.266
-517.902	-200.000	0.025	-0.155
-516.887	296.834	0.127	0.233
-515.872	-5.077	-0.444	-0.307
-514.858	-200.000	0.050	-0.278
-513.843	306.827	-0.111	-0.207
-512.829	455.907	0.057	0.126
-511.814	126.469	0.092	-0.117
-510.799	112.869	0.083	0.101
-509.785	-45.932	0.142	0.070
-508.770	19.497	-0.165	-0.133
-507.756	285.383	-0.193	-0.349
-506.741	99.649	0.051	-0.059
-505.726	47.293	-0.034	0.032
-504.712	35.225	0.179	0.157
-503.697	-200.000	0.033	-0.158
-502.683	-123.772	0.085	-0.014
-501.668	-81.938	0.012	-0.004
-500.653	-149.345	-0.385	0.031
-499.639	-111.738	0.170	0.035
-498.624	-39.352	-0.154	-0.081
-497.610	184.490	-0.088	0.130
-496.595	22.644	0.115	0.094
-495.581	-200.000	0.032	-0.165
-494.566	-200.000	-0.035	-0.267
-493.551	-115.208	-0.103	-0.020
-492.537	324.799	-0.256	0.490
-491.522	-151.542	-0.195	-0.014
-490.508	-160.130	0.138	0.008
-489.493	6.346	-0.256	0.190
-488.478	-200.000	0.013	-0.114
-487.464	71.810	0.103	0.107
-486.449	154.276	-0.141	0.195
-485.435	-45.393	-0.344	0.171
-484.420	-200.000	0.010	-0.129
-483.405	-107.066	0.042	-0.009
-482.391	-101.904	-0.399	0.097
-481.376	110.900	-0.119	0.144
-480.362	3.617	-0.424	-0.310
-479.347	194.887	-0.124	0.189
-478.332	-95.254	0.210	0.057
-477.318	-148.856	0.192	0.016
-476.303	68.898	0.108	-0.111
-475.289	-200.000	0.060	0.284
-474.274	262.462	-0.055	0.095
-473.259	74.196	0.194	0.204
-472.245	24.553	-0.284	-0.236
-471.230	48.235	0.317	0.297
-470.216	-200.000	-0.042	-0.240
-469.201	800.000	-0.163	-0.488
-468.186	-200.000	0.022	-0.377
-467.172	-34.928	-0.292	0.160
-466.157	-82.256	-0.125	-0.041
-465.143	-20.292	-0.216	-0.133
-464.128	-12.484	0.117	-0.077
-463.113	-90.480	0.076	0.022
-462.099	800.000	-0.120	0.356
-461.084	-34.849	-0.158	-0.087
-460.070	550.670	0.108	-0.259
-459.055	95.954	0.016	-0.018
-458.040	-162.350	-0.314	0.016
-457.026	-200.000	-0.049	0.384
-456.011	755.703	-0.025	0.068
-454.997	-177.643	0.276	0.007
-453.982	800.000	0.073	-0.301
-452.968	-9.269	0.241	0.161
-451.953	-200.000	0.034	-0.196
-450.938	53.710	0.065	-0.062
-449.924	800.000	-0.036	-0.143
-448.909	800.000	-0.025	0.074
-447.895	-200.000	0.018	0.166
-446.880	-200.000	-0.025	-0.270
-445.865	17.937	-0.202	0.161
-444.851	369.013	-0.116	0.234
-443.836	11.780	0.214	-0.165
-442.822	-200.000	0.011	0.160
-441.807	-200.000	0.144	-0.001
-440.792	-49.772	0.240	-0.114
-439.778	-4.034	-0.023	0.016
-438.763	96.470	0.153	0.175
-437.749	170.649	-0.147	0.210
-436.734	-175.125	-0.412	0.011
-435.719	126.346	0.029	-0.037
-434.705	132.326	0.220	0.284
-433.690	273.490	0.085	0.151
-432.676	-200.000	0.083	-0.495
-431.661	186.549	0.072	-0.107
-430.646	300.944	0.079	0.145
-429.632	40.792	-0.309	-0.279
-428.617	-24.666	-0.259	-0.154
-427.603	218.549	-0.121	-0.194
-426.588	-96.135	0.162	-0.043
-425.573	-200.000	0.002	-0.027
-424.559	5.469	-0.173	-0.128
-423.544	429.915	0.042	-0.091
-422.530	-167.971	0.133	0.005
-421.515	800.000	-0.058	-0.191
-420.500	-15.895	0.112	-0.071
-419.486	-184.875	0.099	0.002
-418.471	-50.041	0.035	0.017
-417.457	-33.409	-0.190	-0.105
-416.442	59.422	0.029	-0.029
-415.428	294.620	0.012	0.022
-414.413	686.896	0.041	-0.108
-413.398	94.204	0.096	0.109
-412.384	7.739	-0.085	0.064
-411.369	53.536	-0.270	-0.259
-410.355	62.039	-0.241	-0.240
-409.340	12.011	0.095	-0.073
-408.325	-52.663	-0.189	-0.087
-407.311	-34.684	-0.088	0.048
-406.296	-154.359	-0.164	0.011
-405.282	800.000	-0.082	0.345
-404.267	800.000	-0.044	0.152
-403.252	720.353	0.109	0.290
-402.238	-200.000	0.031	0.150
-401.223	-4.046	-0.070	0.049
-400.209	-70.939	0.551	-0.208
-399.194	5.428	-0.102	-0.075
-398.179	42.250	-0.122	0.111
-397.165	-26.606	-0.186	-0.109
-396.150	800.000	0.043	0.125
-395.136	48.417	-0.181	-0.169
-394.121	800.000	0.045	0.141
-393.106	-123.674	0.106	0.017
-392.092	39.494	-0.132	0.118
-391.077	276.594	-0.183	-0.324
-390.063	-200.000	-0.053	0.254
-389.048	108.178	-0.034	0.040
-388.033	800.000	0.084	-0.254
-387.019	187.487	0.152	-0.226
-386.004	228.048	-0.086	0.139
-384.990	181.302	-0.131	0.192
-383.975	-12.506	-0.077	0.050
-382.960	-200.000	0.000	-0.145
-381.946	-200.000	-0.022	0.158
-380.931	400.095	-0.056	-0.117
-379.917	33.253	-0.283	-0.245
-378.902	-182.196	0.233	-0.004
-377.888	-7.646	0.264	-0.178
-376.873	-200.000	-0.061	-0.323
-375.858	379.961	-0.191	-0.390
-374.844	-99.181	0.115	-0.029
-373.829	-157.491	0.240	-0.014
-372.815	119.017	-0.041	0.050
-371.800	800.000	0.135	0.433
-370.785	800.000	-0.068	-0.207
-369.771	-32.763	0.337	-0.187
-368.756	-109.141	0.025	0.005
-367.742	-142.126	0.106	-0.010
-366.727	137.175	-0.037	0.048
-365.712	76.548	-0.289	0.306
-364.698	327.004	0.190	0.364
-363.683	-91.647	0.197	-0.056
-362.669	-138.700	-0.067	0.007
-361.654	-87.121	0.176	-0.053
-360.639	-200.000	0.014	0.434
-359.625	-55.084	-0.110	-0.049
-358.610	-38.435	-0.325	-0.171
-357.596	-200.000	-0.006	0.164
-356.581	-200.000	-0.032	-0.363
-355.566	44.149	0.118	-0.108
-354.552	-45.357	-0.227	0.112
-353.537	23.087	-0.219	0.179
-352.523	55.512	-0.257	-0.248
-351.508	-200.000	0.015	0.147
-350.493	35.325	-0.399	0.349
-349.479	-71.217	0.099	-0.037
-348.464	44.417	0.265	-0.243
-347.450	92.675	-0.181	-0.204
-346.435	-131.295	0.132	0.017
-345.420	573.289	-0.033	0.081
-344.406	-106.174	0.376	-0.084
-343.391	24.239	0.084	0.070
-342.377	-200.000	0.041	-0.275
-341.362	-171.449	-0.108	0.004
-340.348	-45.360	0.058	-0.029
-339.333	-77.652	0.121	0.042
-338.318	-200.000	-0.008	-0.085
-337.304	-200.000	0.030	-0.328
-336.289	-75.496	-0.256	0.091
-335.275	699.410	0.142	0.371
-334.260	-17.649	-0.152	0.095
-333.245	-200.000	0.352	-0.000
-332.231	351.907	0.093	0.184
-331.216	177.184	-0.178	-0.258
-330.202	9.764	0.113	-0.086
-329.187	31.038	-0.215	0.184
-328.172	-57.460	-0.232	0.101
-327.158	-38.906	0.173	-0.091
-326.143	145.461	-0.094	0.126
-325.129	-59.496	-0.275	0.118
-324.114	800.000	0.035	-0.130
-323.099	-55.866	0.196	-0.087
-322.085	800.000	-0.036	0.122
-321.070	800.000	-0.035	-0.110
-320.056	54.125	0.210	0.202
-319.041	108.515	-0.215	0.255
-318.026	800.000	-0.103	-0.309
-317.012	-38.609	-0.333	0.175
-315.997	-200.000	-0.010	0.094
-314.983	153.473	0.351	0.479
-313.968	282.697	0.147	0.263
-312.953	9.424	-0.223	0.168
-311.939	-140.754	-0.223	0.023
-310.924	-200.000	-0.000	-0.189
-309.910	96.110	0.150	-0.170
-308.895	-132.461	0.148	0.019
-307.880	4.444	0.191	0.139
-306.866	31.660	0.081	-0.070
-305.851	-63.910	-0.345	0.140
-304.837	100.288	-0.146	0.169
-303.822	163.823	0.142	0.199
-302.807	-200.000	-0.396	0.001
-301.793	-200.000	-0.051	-0.604
-300.778	-132.584	-0.361	-0.046
-299.764	800.000	-0.019	-0.071
-298.749	-4.397	0.175	0.120
-297.735	-94.327	-0.219	-0.059
-296.720	-137.048	0.378	-0.043
-295.705	-15.793	-0.055	0.035
-294.691	800.000	0.081	0.242
-293.676	-200.000	0.092	0.000
-292.662	-145.457	-0.307	0.027
-291.647	-200.000	0.035	-0.249
-290.632	800.000	-0.027	0.092
-289.618	-200.000	0.021	0.138
-288.603	454.024	0.159	0.350
-287.589	118.125	0.265	0.325
-286.574	800.000	-0.092	-0.345
-285.559	198.851	-0.118	0.180
-284.545	800.000	-0.032	-0.119
-283.530	137.203	0.025	0.033
-282.516	-46.277	0.363	0.178
-281.501	59.183	-0.005	-0.005
-280.486	29.866	0.138	-0.117
-279.472	-84.756	0.287	-0.090
-278.457	-61.105	-0.123	0.051
-277.443	26.164	-0.132	0.110
-276.428	14.309	-0.152	0.118
-275.413	88.579	0.173	0.191
-274.399	-137.501	0.089	-0.010
-273.384	-122.562	0.062	0.010
-272.370	-153.349	-0.037	0.003
-271.355	215.052	0.130	0.205
-270.340	-200.000	-0.043	-0.315
-269.326	-200.000	-0.010	-0.051
-268.311	-62.320	0.151	-0.062
-267.297	-200.000	-0.062	0.296
-266.282	-27.683	0.138	0.079
-265.267	56.656	0.174	0.168
-264.253	-181.493	0.213	-0.004
-263.238	-124.551	-0.109	-0.017
-262.224	-101.392	-0.499	0.121
-261.209	342.389	-0.143	0.278
-260.195	-84.672	-0.318	-0.099
-259.180	242.703	-0.170	0.282
-258.165	617.457	-0.197	-0.493
-257.151	678.353	0.070	-0.181
-256.136	-97.537	0.258	0.067
-255.122	36.633	0.183	-0.161
-254.107	48.369	-0.142	0.132
-253.092	-82.643	-0.180	-0.058
-252.078	368.965	-0.094	-0.189
-251.063	114.797	0.109	0.131
-250.049	176.918	-0.196	-0.284
-249.034	-35.661	0.251	-0.135
-248.019	800.000	0.036	0.141
-247.005	57.908	-0.126	-0.123
-245.990	269.331	0.139	0.242
-244.976	55.513	0.044	0.042
-243.961	405.332	0.054	-0.113
-242.946	150.479	-0.144	-0.195
-241.932	14.924	-0.144	0.112
-240.917	800.000	0.095	-0.317
-239.903	273.315	0.110	-0.194
-238.888	-200.000	-0.020	0.365
-237.873	-120.693	-0.119	0.020
-236.859	32.184	-0.059	-0.050
-235.844	-200.000	0.001	-0.182
-234.830	-112.996	-0.154	-0.030
-233.815	-55.694	-0.277	0.123
-232.800	27.907	0.285	0.238
-231.786	474.885	-0.147	0.330
-230.771	-131.125	-0.153	0.020
-229.757	-200.000	-0.020	0.212
-228.742	314.758	-0.091	-0.170
-227.727	-180.439	-0.229	-0.005
-226.713	9.202	0.367	0.276
-225.698	800.000	0.093	0.320
-224.684	-66.141	-0.313	-0.124
-223.669	244.570	0.053	-0.088
-222.655	800.000	0.102	0.280
-221.640	481.302	0.084	0.190
-220.625	-92.062	0.048	0.013
-219.611	800.000	0.047	-0.135
-218.596	-75.722	0.100	0.035
-217.582	148.392	0.045	0.060
-216.567	-88.366	-0.198	0.059
-215.552	109.715	0.197	-0.235
-214.538	-146.562	-0.442	-0.038
-213.523	-62.259	0.274	-0.113
-212.509	673.803	0.143	0.367
-211.494	66.054	0.164	-0.165
-210.479	-195.747	0.381	-0.003
-209.465	-23.582	0.252	-0.150
-208.450	413.949	0.056	-0.117
-207.436	-0.321	0.214	-0.151
-206.421	-111.384	-0.050	-0.010
-205.406	-200.000	0.002	-0.147
-204.392	83.644	-0.221	-0.239
-203.377	-192.318	0.319	0.003
-202.363	120.085	0.208	0.256
-201.348	-28.783	-0.169	0.096
-200.333	-52.071	0.109	-0.050
-199.319	-51.515	0.121	0.056
-198.304	-200.000	-0.000	0.218
-197.290	-166.060	0.189	-0.008
-196.275	800.000	0.021	-0.059
-195.260	-54.905	-0.140	-0.062
-194.246	142.575	-0.118	-0.155
-193.231	509.060	0.077	0.178
-192.217	-34.785	-0.098	0.053
-191.202	-200.000	-0.012	0.057
-190.187	-200.000	0.005	-0.047
-189.173	-140.450	-0.304	-0.031
-188.158	39.722	0.321	0.285
-187.144	-200.000	0.019	-0.119
-186.129	-153.472	-0.163	0.011
-185.114	-9.386	-0.060	-0.040
-184.100	800.000	-0.075	-0.295
-183.085	-126.480	-0.101	-0.015
-182.071	42.454	-0.097	0.087
-181.056	-133.369	0.255	-0.032
-180.042	800.000	-0.053	0.218
-179.027	-200.000	0.032	0.386
-178.012	-112.075	0.416	-0.083
-176.998	800.000	-0.136	-0.375
-175.983	-71.065	0.131	-0.049
-174.969	800.000	0.010	0.038
-173.954	274.818	0.168	-0.294
-172.939	800.000	-0.085	-0.354
-171.925	287.936	0.070	-0.125
-170.910	-123.964	-0.233	-0.036
-169.896	-124.436	0.348	-0.054
-168.881	800.000	-0.088	-0.248
-167.866	39.327	0.148	-0.132
-166.852	507.926	-0.104	-0.239
-165.837	530.494	-0.037	-0.086
-164.823	22.544	0.110	0.089
-163.808	-162.035	0.228	0.011
-162.793	-195.344	0.177	-0.001
-161.779	-200.000	0.005	-0.164
-160.764	-50.166	0.201	0.094
-159.750	85.610	-0.083	-0.091
-158.735	736.036	0.018	0.049
-157.720	286.928	0.227	-0.406
-156.706	67.909	0.163	0.165
-155.691	222.102	-0.021	-0.034
-154.677	-200.000	0.020	-0.179
-153.662	-22.763	-0.286	0.171
-152.647	-68.481	0.326	0.125
-151.633	-187.840	0.237	0.003
-150.618	800.000	-0.075	-0.295
-149.604	-17.535	0.087	-0.054
-148.589	187.038	0.279	0.411
-147.574	-106.609	0.300	0.066
-146.560	-200.000	-0.010	0.202
-145.545	-110.927	0.271	-0.055
-144.531	106.720	-0.109	-0.128
-143.516	7.107	-0.219	-0.162
-142.502	-109.884	0.331	-0.069
-141.487	800.000	0.101	0.306
-140.472	-4.353	-0.011	-0.008
-139.458	461.631	0.120	0.265
-138.443	557.704	-0.036	0.086
-137.429	-200.000	0.001	-0.127
-136.414	29.403	-0.105	-0.089
-135.399	-18.193	0.131	-0.081
-134.385	-28.688	-0.200	-0.114
-133.370	41.298	0.130	-0.116
-132.356	-6.529	-0.253	0.171
-131.341	-171.787	0.514	-0.017
-130.326	-70.967	0.219	-0.082
-129.312	107.494	-0.142	-0.167
-128.297	697.100	0.115	-0.298
-127.283	163.240	-0.070	0.098
-126.268	349.150	-0.065	0.127
-125.253	63.925	0.079	0.078
-124.239	245.084	-0.081	0.135
-123.224	136.880	0.206	-0.266
-122.210	-126.062	-0.216	-0.032
-121.195	-67.421	0.200	0.078
