DTS Sentinel unit serial number:	SN413079Multiplexer serial number:	ORYXHardware model number:	OX4-SRSoftware version number:	ORYX F/W v4.00 Oryx Data Collector v3.7.2.0data status	okinstallation	princeton_trtdifferential loss correction	single-endedforward channel	channel 4reverse channel	N/Adate	2019/09/15time	21:09:35forward acquisition time	60.00reverse acquisition time	0.00gamma	496.2192k internal	0.2318k external	0.2318temperature offset calibration	0.9933default loss term (dB/km)	0.3790temperature slope calibration	1.0000multiplexer offset coefficient	1.0000multiplexer slope coefficient	1.0000fibre end	0.00T internal ref (°C)	31.44T ext. ref 1 (°C)	8.12T ext. ref 2 (°C)	24.31length (m)	temperature (°C)	Stokes	anti-Stokes-747.200	800.000	0.157	0.560
-746.185	-200.000	0.007	0.343
-745.171	673.430	-0.127	0.334
-744.156	-120.461	-0.177	0.031
-743.142	646.106	0.087	0.225
-742.127	-73.356	-0.148	0.055
-741.112	-72.087	0.102	0.038
-740.098	-83.602	-0.379	-0.123
-739.083	800.000	0.059	0.203
-738.069	204.851	-0.169	0.266
-737.054	-200.000	0.080	0.507
-736.039	-200.000	-0.053	0.414
-735.025	-81.485	0.434	-0.145
-734.010	-13.652	0.289	-0.189
-732.996	223.103	-0.099	-0.162
-731.981	-59.491	0.199	-0.087
-730.966	52.983	-0.060	0.058
-729.952	-105.692	-0.528	-0.121
-728.937	21.188	0.095	0.078
-727.923	262.287	-0.068	-0.119
-726.908	-200.000	-0.054	-0.444
-725.894	-137.528	0.023	0.003
-724.879	-9.079	-0.106	0.072
-723.864	93.031	-0.251	0.287
-722.850	-10.510	0.106	0.071
-721.835	-93.628	-0.236	-0.066
-720.821	-119.818	-0.090	0.016
-719.806	39.581	-0.074	-0.067
-718.791	178.570	0.074	-0.109
-717.777	211.038	-0.074	0.117
-716.762	800.000	-0.066	-0.202
-715.748	-23.174	-0.243	-0.148
-714.733	-88.417	0.150	0.045
-713.718	-200.000	-0.032	0.199
-712.704	800.000	0.047	0.183
-711.689	-200.000	0.031	-0.317
-710.675	800.000	0.055	0.216
-709.660	580.800	-0.070	-0.174
-708.645	-69.648	0.369	-0.143
-707.631	-200.000	-0.042	0.236
-706.616	718.102	0.020	-0.053
-705.602	-0.119	-0.251	-0.181
-704.587	-80.229	0.238	0.081
-703.572	72.154	-0.114	0.120
-702.558	27.806	0.131	-0.111
-701.543	96.928	0.199	-0.231
-700.529	-200.000	-0.008	-0.275
-699.514	-200.000	0.018	-0.113
-698.499	472.513	0.098	0.223
-697.485	3.189	0.153	0.113
-696.470	-200.000	-0.018	-0.235
-695.456	-68.366	0.045	-0.018
-694.441	-111.660	0.315	-0.065
-693.426	-47.902	-0.171	-0.084
-692.412	135.051	-0.145	0.190
-691.397	201.892	0.178	-0.278
-690.383	-38.874	-0.173	-0.092
-689.368	-200.000	0.016	-0.098
-688.354	-86.531	-0.123	-0.038
-687.339	-26.861	0.241	0.142
-686.324	-132.403	-0.365	-0.047
-685.310	150.374	-0.087	-0.119
-684.295	370.952	0.106	-0.218
-683.281	-93.914	-0.204	0.057
-682.266	-20.705	-0.146	-0.091
-681.251	-96.386	0.242	-0.065
-680.237	363.629	0.168	-0.340
-679.222	-200.000	0.049	-0.303
-678.208	800.000	0.056	-0.235
-677.193	-153.231	0.031	0.002
-676.178	-25.260	-0.285	0.171
-675.164	165.366	0.107	-0.153
-674.149	-200.000	0.029	0.134
-673.135	-194.340	0.330	-0.003
-672.120	-200.000	-0.010	0.061
-671.105	-86.863	-0.388	-0.119
-670.091	23.483	-0.198	0.164
-669.076	800.000	0.080	-0.279
-668.062	-130.676	-0.178	-0.024
-667.047	-132.991	-0.163	-0.021
-666.032	-64.695	-0.165	0.067
-665.018	5.359	-0.263	0.195
-664.003	-197.334	-0.358	-0.002
-662.989	-128.241	-0.169	0.024
-661.974	-200.000	-0.065	-0.346
-660.959	-200.000	0.015	-0.228
-659.945	-110.079	-0.220	-0.046
-658.930	800.000	0.070	0.240
-657.916	-38.337	-0.271	0.145
-656.901	216.611	0.096	0.154
-655.886	-13.293	-0.461	-0.302
-654.872	212.494	0.171	0.272
-653.857	93.036	-0.126	-0.144
-652.843	593.194	-0.073	-0.182
-651.828	-165.302	-0.493	0.022
-650.814	20.918	0.063	-0.051
-649.799	-108.868	-0.293	-0.063
-648.784	117.342	0.154	0.191
-647.770	61.115	-0.131	0.131
-646.755	-200.000	0.001	-0.011
-645.741	141.053	0.152	-0.202
-644.726	-83.129	-0.279	0.090
-643.711	800.000	0.074	-0.250
-642.697	800.000	0.158	0.498
-641.682	226.902	0.048	0.079
-640.668	70.536	-0.179	-0.186
-639.653	-73.750	0.191	0.070
-638.638	-100.676	0.267	-0.066
-637.624	-200.000	-0.003	0.099
-636.609	-155.718	-0.058	-0.004
-635.595	530.059	-0.105	-0.250
-634.580	-200.000	-0.033	-0.173
-633.565	115.985	-0.151	-0.186
-632.551	-105.313	0.203	-0.047
-631.536	-79.195	-0.223	-0.076
-630.522	665.760	0.106	0.277
-629.507	-84.084	-0.217	0.069
-628.492	365.424	-0.185	0.376
-627.478	669.681	-0.058	-0.150
-626.463	260.835	-0.260	0.452
-625.449	800.000	0.063	-0.233
-624.434	54.336	0.061	0.060
-623.419	43.742	-0.339	0.312
-622.405	-128.423	0.262	0.037
-621.390	-96.161	0.121	-0.032
-620.376	-200.000	-0.040	-0.411
-619.361	800.000	-0.052	0.172
-618.346	531.199	-0.037	0.088
-617.332	-200.000	-0.049	-0.274
-616.317	-85.996	-0.093	0.029
-615.303	-200.000	-0.015	-0.195
-614.288	135.599	0.103	-0.135
-613.273	800.000	0.022	-0.074
-612.259	-25.860	-0.192	0.114
-611.244	306.474	0.116	0.217
-610.230	800.000	0.124	0.362
-609.215	7.751	-0.080	-0.061
-608.201	800.000	0.022	-0.086
-607.186	-108.101	-0.247	0.054
-606.171	-200.000	0.025	-0.131
-605.157	-200.000	0.053	0.281
-604.142	-200.000	0.013	0.256
-603.128	800.000	-0.104	0.349
-602.113	-200.000	-0.290	0.001
-601.098	544.940	0.196	-0.472
-600.084	-128.594	0.159	-0.023
-599.069	-32.512	0.387	-0.217
-598.055	-105.329	0.317	-0.073
-597.040	41.689	-0.138	0.126
-596.025	800.000	-0.059	-0.231
-595.011	113.350	-0.161	0.197
-593.996	800.000	-0.050	0.144
-592.982	-67.223	0.258	0.102
-591.967	-21.777	0.313	0.192
-590.952	-200.000	-0.010	-0.336
-589.938	122.609	0.179	-0.225
-588.923	-200.000	-0.037	-0.200
-587.909	118.054	0.133	-0.165
-586.894	-37.260	0.147	0.079
-585.879	-102.802	-0.176	0.042
-584.865	-170.542	-0.367	0.013
-583.850	91.750	0.031	0.035
-582.836	-81.546	-0.347	0.115
-581.821	800.000	-0.062	0.269
-580.806	98.278	0.234	0.271
-579.792	-200.000	0.011	0.197
-578.777	-6.115	-0.174	-0.119
-577.763	670.955	-0.110	-0.286
-576.748	-200.000	-0.003	0.299
-575.733	-114.617	-0.369	-0.071
-574.719	-200.000	0.025	0.278
-573.704	-200.000	-0.039	-0.216
-572.690	-200.000	-0.092	0.415
-571.675	-49.228	-0.374	0.180
-570.661	-112.810	-0.302	0.060
-569.646	189.028	0.050	-0.075
-568.631	-28.751	0.048	0.028
-567.617	-119.800	-0.253	-0.044
-566.602	346.056	0.077	0.152
-565.588	15.080	0.122	0.096
-564.573	-200.000	-0.029	-0.239
-563.558	-165.204	0.171	-0.008
-562.544	-15.996	-0.294	0.188
-561.529	430.055	0.051	0.112
-560.515	-17.376	0.207	-0.131
-559.500	-55.321	-0.153	-0.069
-558.485	79.485	0.028	-0.030
-557.471	-145.618	-0.160	0.014
-556.456	94.729	-0.067	-0.077
-555.442	-179.170	-0.032	0.001
-554.427	-200.000	0.044	0.310
-553.412	48.347	-0.158	-0.149
-552.398	-200.000	-0.009	-0.258
-551.383	-22.453	-0.054	0.033
-550.369	-1.331	0.042	-0.030
-549.354	678.132	0.097	-0.253
-548.339	124.768	-0.169	0.213
-547.325	125.786	0.305	0.387
-546.310	46.730	-0.221	0.206
-545.296	-38.383	0.137	0.073
-544.281	72.160	0.026	0.028
-543.266	-200.000	0.074	0.488
-542.252	216.144	-0.200	0.319
-541.237	456.172	0.049	0.109
-540.223	800.000	0.106	0.435
-539.208	-61.404	-0.179	0.075
-538.193	-152.483	0.172	0.012
-537.179	267.486	0.052	0.091
-536.164	727.389	0.013	-0.034
-535.150	-80.230	-0.146	0.049
-534.135	198.563	-0.036	0.056
-533.121	19.244	0.145	-0.117
-532.106	92.237	0.156	-0.176
-531.091	-21.666	-0.114	0.069
-530.077	305.987	-0.074	-0.139
-529.062	47.623	-0.198	0.185
-528.048	-109.325	0.170	0.036
-527.033	-200.000	-0.005	0.090
-526.018	-157.050	-0.089	0.005
-525.004	-122.529	0.229	0.037
-523.989	-171.872	-0.137	-0.004
-522.975	-68.168	0.049	0.019
-521.960	24.986	-0.207	-0.172
-520.945	-6.802	0.167	0.114
-519.931	-58.480	-0.343	-0.150
-518.916	-63.377	0.334	-0.138
-517.902	800.000	0.089	0.292
-516.887	800.000	-0.040	0.136
-515.872	-142.661	-0.314	0.031
-514.858	497.425	0.028	0.065
-513.843	74.410	-0.041	-0.043
-512.829	-135.234	-0.296	-0.036
-511.814	19.761	0.350	0.282
-510.799	-200.000	0.014	-0.097
-509.785	41.079	0.107	-0.097
-508.770	136.011	-0.284	0.371
-507.756	409.285	0.149	0.317
-506.741	-200.000	0.020	0.094
-505.726	86.187	0.044	0.049
-504.712	-200.000	0.002	-0.275
-503.697	-200.000	0.032	-0.171
-502.683	-31.650	-0.254	0.143
-501.668	395.654	-0.099	-0.207
-500.653	196.476	-0.126	-0.192
-499.639	-165.235	-0.320	-0.014
-498.624	-200.000	0.004	0.063
-497.610	34.709	-0.297	0.261
-496.595	-67.243	0.334	-0.132
-495.581	71.523	0.174	0.181
-494.566	661.859	0.016	-0.042
-493.551	12.065	-0.067	-0.051
-492.537	65.761	0.044	0.044
-491.522	180.497	0.237	0.348
-490.508	28.257	0.141	-0.119
-489.493	585.616	-0.156	-0.384
-488.478	-200.000	-0.025	0.130
-487.464	-74.152	-0.093	-0.034
-486.449	99.624	0.130	-0.150
-485.435	-138.978	-0.039	0.004
-484.420	-132.104	-0.135	0.018
-483.405	502.425	-0.155	0.360
-482.391	-108.724	0.107	0.023
-481.376	-51.126	-0.155	0.073
-480.362	239.702	-0.057	0.095
-479.347	-15.406	-0.395	-0.253
-478.332	-89.373	0.253	0.075
-477.318	-200.000	0.005	0.029
-476.303	-200.000	0.039	0.342
-475.289	-112.332	-0.371	-0.074
-474.274	449.285	-0.060	-0.132
-473.259	141.720	-0.194	0.258
-472.245	536.188	-0.028	0.068
-471.230	-13.277	-0.078	0.051
-470.216	-200.000	0.023	-0.413
-469.201	31.371	0.276	-0.237
-468.186	-133.309	-0.084	-0.011
-467.172	565.652	0.095	0.231
-466.157	-200.000	0.017	-0.412
-465.143	64.066	-0.189	0.191
-464.128	-143.522	0.310	0.030
-463.113	-200.000	-0.024	-0.141
-462.099	-80.207	-0.076	0.026
-461.084	-200.000	-0.006	-0.217
-460.070	143.863	0.027	-0.035
-459.055	-66.008	0.106	-0.042
-458.040	-200.000	-0.006	0.136
-457.026	252.619	-0.082	0.140
-456.011	-6.673	-0.163	0.111
-454.997	353.010	-0.074	0.148
-453.982	-50.513	0.111	-0.052
-452.968	-200.000	0.041	-0.189
-451.953	-200.000	0.019	0.114
-450.938	-200.000	0.005	-0.022
-449.924	-105.879	0.123	-0.028
-448.909	23.802	0.048	-0.040
-447.895	-101.753	-0.147	-0.036
-446.880	-78.686	0.262	0.090
-445.865	-200.000	-0.052	-0.254
-444.851	334.383	-0.107	-0.208
-443.836	-200.000	0.044	-0.261
-442.822	210.325	0.069	-0.108
-441.807	-172.306	0.171	0.005
-440.792	-119.220	-0.138	-0.024
-439.778	-200.000	-0.030	-0.327
-438.763	-91.899	-0.228	-0.065
-437.749	19.394	-0.162	-0.130
-436.734	-48.246	-0.149	0.072
-435.719	-70.549	0.182	-0.069
-434.705	-200.000	0.012	-0.180
-433.690	34.276	0.196	-0.171
-432.676	-113.682	0.234	-0.046
-431.661	-91.417	-0.080	-0.023
-430.646	-200.000	0.038	0.171
-429.632	-147.447	-0.112	-0.010
-428.617	-8.200	0.204	-0.137
-427.603	319.547	0.032	0.061
-426.588	-14.380	0.106	0.068
-425.573	-24.438	-0.241	0.143
-424.559	-106.434	-0.175	-0.039
-423.544	587.303	0.080	-0.197
-422.530	15.590	-0.149	-0.117
-421.515	159.611	-0.068	-0.094
-420.500	30.280	0.180	0.154
-419.486	-138.524	0.173	0.019
-418.471	54.654	0.229	-0.221
-417.457	800.000	0.122	-0.354
-416.442	257.573	-0.158	-0.272
-415.428	698.457	-0.055	-0.144
-414.413	408.893	0.123	-0.260
-413.398	-200.000	-0.057	0.254
-412.384	-200.000	0.000	0.051
-411.369	-57.734	-0.253	-0.110
-410.355	-200.000	0.000	0.111
-409.340	66.895	0.170	-0.173
-408.325	-59.012	0.153	-0.066
-407.311	-136.890	-0.085	-0.010
-406.296	-46.908	-0.446	-0.218
-405.282	9.769	-0.235	0.178
-404.267	-110.055	0.024	-0.005
-403.252	69.481	-0.230	0.237
-402.238	596.638	-0.143	-0.353
-401.223	224.985	-0.031	-0.050
-400.209	140.386	0.136	-0.179
-399.194	227.586	-0.048	-0.078
-398.179	166.681	-0.070	0.099
-397.165	49.875	-0.235	-0.221
-396.150	273.524	-0.149	0.263
-395.136	-164.512	0.138	-0.006
-394.121	28.109	-0.090	-0.076
-393.106	-32.621	-0.184	-0.102
-392.092	-200.000	-0.002	0.176
-391.077	123.289	-0.090	-0.113
-390.063	-12.695	0.103	0.067
-389.048	800.000	-0.081	-0.282
-388.033	696.866	-0.035	-0.091
-387.019	-200.000	0.020	0.144
-386.004	-200.000	0.055	-0.316
-384.990	-117.946	-0.209	0.037
-383.975	-128.671	0.363	-0.051
-382.960	667.776	0.019	-0.048
-381.946	800.000	0.043	0.183
-380.931	-200.000	0.061	0.445
-379.917	-200.000	0.079	-0.439
-378.902	-130.072	0.220	-0.030
-377.888	-200.000	0.028	-0.159
-376.873	-122.516	0.432	-0.070
-375.858	161.256	0.259	0.361
-374.844	93.773	0.195	0.220
-373.829	474.007	-0.054	0.122
-372.815	-138.078	0.169	0.019
-371.800	-200.000	0.002	-0.078
-370.785	-51.831	0.068	-0.032
-369.771	-45.759	-0.356	-0.176
-368.756	145.667	0.150	0.200
-367.742	-200.000	0.150	0.662
-366.727	19.454	-0.073	0.059
-365.712	16.885	0.123	0.097
-364.698	-103.455	-0.115	0.027
-363.683	800.000	-0.052	0.197
-362.669	-199.611	-0.294	-0.002
-361.654	-54.413	0.169	0.076
-360.639	82.557	0.066	-0.072
-359.625	308.661	0.282	-0.525
-358.610	36.328	-0.185	0.163
-357.596	800.000	-0.037	-0.139
-356.581	800.000	0.085	0.270
-355.566	-200.000	0.036	0.184
-354.552	-58.375	-0.359	-0.156
-353.537	-52.200	-0.235	-0.109
-352.523	464.292	0.089	-0.198
-351.508	265.600	0.039	0.067
-350.493	148.409	0.191	0.258
-349.479	-200.000	-0.018	0.160
-348.464	217.959	0.043	0.068
-347.450	9.713	-0.211	-0.159
-346.435	-97.802	-0.124	-0.032
-345.420	800.000	-0.081	-0.247
-344.406	-200.000	-0.001	0.050
-343.391	-4.972	0.144	-0.099
-342.377	99.650	0.229	0.265
-341.362	-66.078	-0.270	0.107
-340.348	17.206	-0.124	-0.098
-339.333	-200.000	0.002	-0.089
-338.318	-200.000	-0.021	-0.494
-337.304	-200.000	-0.033	-0.185
-336.289	-124.717	0.139	0.021
-335.275	27.203	0.233	-0.195
-334.260	800.000	-0.062	0.201
-333.245	83.355	0.189	0.205
-332.231	-200.000	-0.027	-0.311
-331.216	-26.497	-0.130	-0.076
-330.202	171.840	0.170	-0.243
-329.187	-85.921	-0.101	-0.031
-328.172	800.000	-0.074	0.221
-327.158	-200.000	-0.001	0.150
-326.143	-176.174	-0.265	0.007
-325.129	50.113	0.259	0.243
-324.114	7.689	-0.211	0.157
-323.099	-53.438	0.072	-0.033
-322.085	-200.000	-0.016	-0.125
-321.070	-200.000	0.011	-0.164
-320.056	476.548	0.073	-0.165
-319.041	-200.000	-0.029	-0.235
-318.026	-200.000	-0.107	-0.658
-317.012	800.000	0.021	0.084
-315.997	-97.200	0.125	-0.032
-314.983	-68.283	-0.202	0.078
-313.968	171.354	-0.235	-0.336
-312.953	19.321	0.237	-0.190
-311.939	-54.165	-0.168	0.076
-310.924	178.967	0.127	-0.184
-309.910	-200.000	-0.018	-0.110
-308.895	-31.503	0.266	0.149
-307.880	16.371	0.083	0.065
-306.866	244.977	0.110	0.184
-305.851	-110.251	0.284	-0.059
-304.837	683.324	-0.152	-0.395
-303.822	-88.331	0.250	0.074
-302.807	-81.068	0.246	0.081
-301.793	362.984	-0.108	-0.217
-300.778	353.891	-0.065	-0.128
-299.764	-200.000	0.002	-0.124
-298.749	354.259	0.066	-0.131
-297.735	120.567	0.057	0.070
-296.720	117.214	0.223	0.273
-295.705	158.236	-0.098	-0.135
-294.691	800.000	-0.026	-0.084
-293.676	278.686	-0.098	0.173
-292.662	182.557	0.129	0.190
-291.647	289.629	-0.118	-0.214
-290.632	-13.598	-0.131	0.084
-289.618	-200.000	-0.031	0.237
-288.603	119.296	0.066	0.081
-287.589	154.946	0.108	-0.148
-286.574	164.721	0.113	-0.159
-285.559	435.535	-0.065	-0.141
-284.545	51.872	-0.293	-0.278
-283.530	-200.000	-0.037	0.183
-282.516	-64.083	-0.127	-0.052
-281.501	516.933	-0.147	-0.341
-280.486	-111.457	-0.403	0.082
-279.472	-18.814	-0.218	-0.135
-278.457	-9.920	-0.144	0.095
-277.443	-35.043	0.239	-0.130
-276.428	800.000	0.045	0.128
-275.413	-170.374	0.429	0.015
-274.399	156.579	0.176	0.242
-273.384	-72.468	-0.209	0.077
-272.370	375.514	0.059	-0.119
-271.355	-107.090	-0.263	0.058
-270.340	-97.199	0.408	0.106
-269.326	359.234	0.220	-0.438
-268.311	800.000	-0.054	0.173
-267.297	14.685	0.169	0.131
-266.282	-185.556	-0.279	-0.004
-265.267	145.823	-0.198	0.264
-264.253	-200.000	-0.054	-0.276
-263.238	266.068	-0.005	0.008
-262.224	444.460	0.069	0.150
-261.209	-84.993	-0.330	-0.103
-260.195	-200.000	0.056	-0.350
-259.180	298.321	-0.106	0.194
-258.165	658.404	0.033	-0.084
-257.151	-30.137	-0.221	-0.125
-256.136	-200.000	0.060	-0.366
-255.122	67.279	-0.162	0.164
-254.107	108.405	0.164	-0.194
-253.092	65.160	0.067	0.067
-252.078	238.422	-0.214	0.354
-251.063	55.502	0.275	-0.264
-250.049	-200.000	0.003	0.157
-249.034	800.000	0.062	-0.239
-248.019	762.722	0.033	-0.088
-247.005	-155.973	0.171	0.011
-245.990	208.080	-0.058	-0.090
-244.976	-36.068	-0.110	0.059
-243.961	-200.000	0.046	-0.365
-242.946	49.619	-0.052	0.049
-241.932	5.097	-0.089	0.065
-240.917	43.319	0.180	0.163
-239.903	-81.533	0.336	0.110
-238.888	-101.236	0.173	0.042
-237.873	23.228	-0.080	-0.065
-236.859	-200.000	-0.046	-0.225
-235.844	50.033	0.170	-0.160
-234.830	292.978	0.158	0.285
-233.815	-200.000	-0.018	-0.498
-232.800	-200.000	0.042	-0.384
-231.786	154.875	0.158	-0.216
-230.771	743.844	0.097	0.258
-229.757	800.000	-0.043	-0.122
-228.742	-38.064	-0.170	0.090
-227.727	-146.489	0.309	-0.027
-226.713	113.214	-0.190	0.229
-225.698	469.254	0.054	-0.121
-224.684	-12.302	0.296	0.192
-223.669	800.000	-0.056	-0.218
-222.655	-49.590	-0.121	-0.057
-221.640	-103.793	0.445	0.103
-220.625	138.839	0.064	-0.083
-219.611	58.756	-0.161	0.157
-218.596	70.092	-0.260	-0.266
-217.582	-200.000	0.027	-0.283
-216.567	-200.000	0.083	-0.496
-215.552	-134.563	0.240	0.029
-214.538	54.299	0.174	0.166
-213.523	51.571	-0.078	-0.073
-212.509	128.576	-0.138	0.174
-211.494	-200.000	-0.014	-0.194
-210.479	-4.674	-0.116	0.079
-209.465	190.377	0.102	0.152
-208.450	54.950	0.212	0.203
-207.436	763.803	0.074	0.200
-206.421	205.948	0.105	0.162
-205.406	19.080	0.131	0.104
-204.392	93.421	-0.156	-0.176
-203.377	-68.124	0.163	0.063
-202.363	210.164	-0.145	-0.225
-201.348	168.860	0.158	0.223
-200.333	-31.085	0.069	-0.039
-199.319	-92.638	0.302	0.084
-198.304	-73.452	0.148	-0.054
-197.290	-110.769	0.346	-0.071
-196.275	-200.000	-0.005	0.078
-195.260	-149.479	0.284	0.022
-194.246	-197.668	0.192	0.001
-193.231	241.666	-0.060	0.100
-192.217	274.913	-0.189	-0.331
-191.202	54.174	0.132	0.126
-190.187	357.024	0.051	0.100
-189.173	255.787	-0.068	-0.115
-188.158	800.000	0.064	-0.202
-187.144	-138.582	-0.091	0.010
-186.129	67.879	-0.094	0.095
-185.114	-200.000	-0.012	0.068
-184.100	800.000	0.103	0.403
-183.085	-126.179	0.114	0.017
-182.071	-200.000	0.069	0.324
-181.056	-200.000	0.013	0.084
-180.042	-103.394	-0.311	0.072
-179.027	83.646	-0.100	-0.108
-178.012	127.110	0.047	0.059
-176.998	800.000	0.103	0.294
-175.983	2.722	0.204	-0.147
-174.969	-118.380	0.168	-0.030
-173.954	-118.738	-0.112	-0.020
-172.939	-137.362	0.240	0.027
-171.925	-27.370	-0.136	0.078
-170.910	-154.425	-0.229	0.015
-169.896	9.519	0.092	0.069
-168.881	180.193	-0.159	0.230
-167.866	221.032	0.141	-0.224
-166.852	157.925	0.107	-0.146
-165.837	-200.000	0.064	0.312
-164.823	-161.901	0.102	-0.005
-163.808	-200.000	0.004	0.409
-162.793	800.000	0.077	0.307
-161.779	-200.000	-0.022	-0.306
-160.764	-39.184	-0.232	-0.121
-159.750	444.830	0.082	0.179
-158.735	418.960	-0.022	0.048
-157.720	170.234	0.201	0.284
-156.706	-200.000	-0.013	0.283
-155.691	800.000	-0.073	0.230
-154.677	329.726	-0.175	0.332
-153.662	-67.079	0.344	-0.134
-152.647	114.852	-0.186	0.225
-151.633	342.184	-0.173	-0.335
-150.618	101.047	0.145	-0.166
-149.604	-17.884	0.345	0.214
-148.589	800.000	0.019	-0.066
-147.574	137.685	0.047	-0.061
-146.560	-200.000	-0.064	0.364
-145.545	578.748	0.177	0.428
-144.531	-200.000	0.015	0.243
-143.516	-155.752	-0.321	-0.020
-142.502	94.674	0.161	0.182
-141.487	-35.092	-0.100	-0.054
-140.472	-19.869	-0.356	0.217
-139.458	800.000	-0.057	-0.164
-138.443	62.295	0.132	0.130
-137.429	69.348	0.239	0.243
-136.414	-134.798	-0.023	0.003
-135.399	-200.000	-0.011	-0.055
-134.385	357.538	-0.049	0.097
-133.370	-196.309	-0.062	0.000
-132.356	62.752	0.066	-0.065
-131.341	219.906	-0.059	-0.094
-130.326	-99.591	0.228	-0.057
-129.312	119.451	-0.224	0.275
-128.297	-117.939	0.207	0.037
-127.283	-95.891	-0.203	0.053
-126.268	484.466	-0.094	0.213
-125.253	-200.000	0.008	-0.107
-124.239	-57.323	0.343	-0.149
-123.224	6.674	0.051	-0.038
-122.210	800.000	-0.053	-0.214
-121.195	-200.000	0.020	-0.145
