DTS Sentinel unit serial number:	SN413079Multiplexer serial number:	ORYXHardware model number:	OX4-SRSoftware version number:	ORYX F/W v4.00 Oryx Data Collector v3.7.2.0data status	okinstallation	princeton_trtdifferential loss correction	single-endedforward channel	channel 4reverse channel	N/Adate	2019/09/18time	06:05:35forward acquisition time	60.00reverse acquisition time	0.00gamma	496.2192k internal	0.2333k external	0.2333temperature offset calibration	1.0000default loss term (dB/km)	0.3790temperature slope calibration	1.0000multiplexer offset coefficient	1.0000multiplexer slope coefficient	1.0000fibre end	0.00T internal ref (°C)	23.19T ext. ref 1 (°C)	0.19T ext. ref 2 (°C)	17.63length (m)	temperature (°C)	Stokes	anti-Stokes-747.200	0.668	0.056	-0.040
-746.185	800.000	-0.127	0.366
-745.171	-189.483	-0.185	-0.002
-744.156	720.641	0.010	-0.026
-743.142	800.000	0.088	0.327
-742.127	-200.000	0.007	0.090
-741.112	349.957	0.088	-0.175
-740.098	-49.752	-0.231	0.110
-739.083	64.627	0.085	-0.086
-738.069	-200.000	-0.019	0.232
-737.054	-18.100	-0.263	0.165
-736.039	-40.071	-0.368	0.193
-735.025	-68.472	0.114	0.044
-734.010	-200.000	0.002	0.030
-732.996	800.000	0.042	-0.140
-731.981	-200.000	-0.009	-0.079
-730.966	-18.758	0.258	0.161
-729.952	-53.727	-0.493	-0.226
-728.937	-200.000	-0.030	0.179
-727.923	75.673	-0.058	0.062
-726.908	185.518	-0.030	-0.045
-725.894	-94.658	-0.193	0.053
-724.879	113.650	-0.069	-0.085
-723.864	-98.517	-0.237	-0.061
-722.850	-115.773	-0.191	-0.036
-721.835	220.067	0.144	-0.231
-720.821	38.959	0.284	0.255
-719.806	92.469	-0.097	-0.110
-718.791	800.000	0.035	-0.149
-717.777	-161.613	-0.110	0.006
-716.762	-200.000	-0.086	-0.401
-715.748	-200.000	0.063	0.340
-714.733	-140.841	0.361	-0.037
-713.718	-18.089	-0.235	-0.148
-712.704	-200.000	0.056	0.288
-711.689	-200.000	-0.014	0.238
-710.675	74.012	0.105	-0.110
-709.660	-122.184	-0.294	0.048
-708.645	-37.738	-0.293	-0.157
-707.631	282.454	-0.035	0.064
-706.616	67.984	0.053	0.054
-705.602	-200.000	0.016	-0.173
-704.587	800.000	-0.042	0.185
-703.572	-200.000	-0.073	0.407
-702.558	-200.000	-0.032	-0.145
-701.543	-141.091	0.182	-0.019
-700.529	293.895	0.102	-0.188
-699.514	-84.368	-0.182	-0.058
-698.499	-113.426	-0.267	-0.052
-697.485	120.032	-0.165	0.206
-696.470	230.355	0.076	-0.125
-695.456	365.748	0.125	-0.252
-694.441	-200.000	-0.032	-0.504
-693.426	-150.017	-0.420	0.033
-692.412	413.550	0.088	-0.188
-691.397	-76.616	0.217	-0.076
-690.383	324.918	-0.151	0.290
-689.368	800.000	-0.109	-0.326
-688.354	195.800	-0.126	0.192
-687.339	-200.000	-0.006	0.348
-686.324	-6.950	-0.079	-0.054
-685.310	-76.229	-0.256	-0.091
-684.295	800.000	0.082	-0.316
-683.281	137.237	-0.010	-0.013
-682.266	-80.917	-0.041	-0.014
-681.251	-200.000	0.016	-0.288
-680.237	157.752	0.192	0.267
-679.222	-109.686	-0.268	-0.057
-678.208	-114.625	-0.310	-0.060
-677.193	-200.000	0.025	0.151
-676.178	-55.685	-0.249	-0.112
-675.164	800.000	0.039	0.156
-674.149	-200.000	-0.135	-0.001
-673.135	97.023	-0.217	-0.249
-672.120	120.114	0.284	-0.354
-671.105	-154.899	0.420	-0.028
-670.091	351.959	-0.094	0.186
-669.076	576.095	-0.132	0.323
-668.062	490.128	0.067	0.154
-667.047	-200.000	-0.029	0.179
-666.032	-200.000	0.016	-0.148
-665.018	-85.979	0.477	-0.148
-664.003	-45.775	-0.409	-0.203
-662.989	123.983	0.172	0.217
-661.974	-22.556	-0.083	-0.050
-660.959	317.749	-0.146	-0.277
-659.945	536.986	0.047	-0.111
-658.930	201.874	-0.126	-0.194
-657.916	149.487	-0.029	-0.040
-656.901	800.000	-0.108	-0.330
-655.886	-67.184	0.256	-0.101
-654.872	-59.983	-0.099	-0.042
-653.857	-57.298	-0.193	-0.085
-652.843	531.251	0.089	0.211
-651.828	19.785	-0.221	-0.179
-650.814	-0.301	-0.541	-0.386
-649.799	209.733	0.196	-0.308
-648.784	20.634	-0.241	0.195
-647.770	-200.000	-0.051	-0.412
-646.755	-110.550	-0.247	-0.051
-645.741	-35.599	-0.185	-0.101
-644.726	-80.394	-0.103	0.035
-643.711	-112.203	0.330	-0.066
-642.697	212.210	-0.049	-0.077
-641.682	175.380	-0.190	-0.275
-640.668	7.841	0.083	0.063
-639.653	-1.504	0.269	0.190
-638.638	52.330	-0.206	0.197
-637.624	760.872	0.026	0.072
-636.609	491.367	-0.165	-0.379
-635.595	-154.517	0.325	0.022
-634.580	503.858	0.131	-0.303
-633.565	-8.324	0.356	0.240
-632.551	-101.939	-0.250	-0.061
-631.536	-200.000	-0.030	-0.444
-630.522	-2.406	0.095	0.067
-629.507	53.374	-0.307	0.294
-628.492	800.000	0.063	0.218
-627.478	-200.000	0.038	-0.222
-626.463	753.193	0.130	-0.351
-625.449	-200.000	-0.023	-0.234
-624.434	-87.165	0.278	-0.084
-623.419	38.976	-0.150	-0.135
-622.405	-46.363	-0.196	0.097
-621.390	-182.340	-0.171	0.003
-620.376	265.268	-0.061	-0.107
-619.361	-17.312	0.104	-0.066
-618.346	800.000	0.101	-0.282
-617.332	15.273	0.119	0.093
-616.317	800.000	0.030	0.126
-615.303	-2.457	0.334	0.234
-614.288	-200.000	-0.045	-0.207
-613.273	-93.243	-0.153	-0.042
-612.259	800.000	0.119	0.340
-611.244	-22.855	0.299	0.181
-610.230	305.373	0.067	0.125
-609.215	800.000	-0.049	-0.167
-608.201	-140.146	0.404	0.042
-607.186	183.601	0.119	-0.176
-606.171	41.981	-0.188	0.170
-605.157	-71.532	0.265	-0.099
-604.142	-200.000	-0.002	-0.025
-603.128	-200.000	-0.023	-0.104
-602.113	-143.692	0.074	0.007
-601.098	-111.757	0.207	-0.042
-600.084	-110.393	0.130	0.027
-599.069	800.000	0.063	-0.242
-598.055	211.935	-0.162	-0.255
-597.040	-90.821	0.163	-0.047
-596.025	-59.755	0.174	0.075
-595.011	-185.551	0.182	-0.003
-593.996	-200.000	-0.016	0.126
-592.982	-98.880	0.135	-0.034
-591.967	-49.322	-0.049	-0.023
-590.952	-87.432	-0.281	-0.085
-589.938	-61.383	-0.020	-0.009
-588.923	268.260	0.093	0.162
-587.909	-97.663	-0.192	-0.050
-586.894	-30.386	-0.016	-0.009
-585.879	-44.987	0.045	-0.022
-584.865	69.470	0.020	-0.021
-583.850	-141.225	0.142	0.014
-582.836	6.853	-0.304	-0.226
-581.821	800.000	-0.056	-0.230
-580.806	-53.425	0.260	-0.119
-579.792	-200.000	-0.021	-0.374
-578.777	-82.708	-0.137	-0.044
-577.763	-77.038	-0.437	0.152
-576.748	-67.001	-0.178	-0.070
-575.733	96.808	0.241	-0.276
-574.719	800.000	-0.074	-0.277
-573.704	-200.000	-0.031	-0.385
-572.690	800.000	0.052	0.190
-571.675	-200.000	0.039	0.300
-570.661	-72.093	0.326	0.121
-569.646	800.000	0.093	-0.394
-568.631	76.512	-0.147	-0.156
-567.617	-143.003	-0.109	-0.011
-566.602	-200.000	0.069	-0.326
-565.588	-39.408	0.315	0.165
-564.573	425.869	-0.043	0.092
-563.558	-86.540	-0.007	-0.002
-562.544	800.000	-0.026	0.095
-561.529	199.257	0.095	-0.145
-560.515	0.539	-0.161	0.115
-559.500	220.732	0.048	0.076
-558.485	-93.020	0.256	-0.071
-557.471	800.000	-0.017	-0.061
-556.456	1.463	0.137	0.098
-555.442	-18.060	-0.317	-0.198
-554.427	-200.000	0.042	0.361
-553.412	-200.000	-0.060	0.335
-552.398	-96.338	0.213	0.056
-551.383	-200.000	-0.008	-0.066
-550.369	-200.000	-0.041	0.222
-549.354	331.903	-0.101	0.195
-548.339	3.464	-0.150	-0.109
-547.325	292.433	0.092	-0.168
-546.310	49.028	-0.121	0.113
-545.296	-135.258	0.321	0.038
-544.281	-118.589	-0.244	0.043
-543.266	19.622	-0.153	-0.123
-542.252	530.619	-0.072	0.171
-541.237	-200.000	-0.027	-0.423
-540.223	-200.000	0.021	-0.182
-539.208	-160.204	-0.178	-0.010
-538.193	67.760	0.188	-0.192
-537.179	0.889	0.116	0.083
-536.164	-126.741	-0.175	-0.026
-535.150	-50.758	0.134	0.063
-534.135	-66.551	0.143	0.057
-533.121	-200.000	0.022	0.102
-532.106	-74.017	-0.329	-0.119
-531.091	-61.335	0.422	-0.177
-530.077	91.235	-0.071	0.079
-529.062	41.258	0.271	-0.244
-528.048	-106.692	0.289	-0.064
-527.033	-200.000	-0.021	-0.149
-526.018	522.322	-0.043	-0.100
-525.004	-120.151	-0.297	0.051
-523.989	-110.793	-0.252	0.052
-522.975	-200.000	-0.020	0.268
-521.960	-176.821	-0.184	0.005
-520.945	-146.335	-0.100	0.009
-519.931	335.298	0.205	0.395
-518.916	-200.000	0.012	0.087
-517.902	-47.640	-0.117	0.057
-516.887	-65.331	-0.057	-0.023
-515.872	126.804	-0.211	-0.267
-514.858	800.000	0.087	-0.377
-513.843	-69.306	0.251	0.096
-512.829	800.000	0.091	0.290
-511.814	149.226	0.160	-0.216
-510.799	-173.771	-0.221	0.007
-509.785	108.112	0.078	0.093
-508.770	-85.084	-0.199	0.062
-507.756	-21.128	-0.226	0.138
-506.741	800.000	-0.036	-0.121
-505.726	99.949	0.178	0.206
-504.712	68.500	-0.043	-0.043
-503.697	-200.000	0.018	-0.168
-502.683	124.656	-0.056	-0.071
-501.668	18.896	-0.434	-0.346
-500.653	-105.882	0.171	-0.038
-499.639	-132.026	-0.386	0.050
-498.624	-67.672	0.393	0.153
-497.610	619.501	-0.094	-0.235
-496.595	-200.000	0.007	-0.050
-495.581	-21.174	0.440	-0.268
-494.566	56.058	0.269	-0.260
-493.551	543.714	0.062	-0.146
-492.537	32.363	-0.031	0.027
-491.522	-200.000	0.060	-0.317
-490.508	-58.101	-0.309	-0.134
-489.493	-77.382	0.195	0.067
-488.478	-96.831	-0.336	0.088
-487.464	163.827	0.092	-0.129
-486.449	560.944	-0.032	-0.076
-485.435	-171.131	0.187	0.006
-484.420	-128.727	0.245	0.034
-483.405	-84.988	-0.172	-0.054
-482.391	3.878	-0.250	-0.182
-481.376	-144.072	-0.425	0.040
-480.362	-200.000	-0.003	0.044
-479.347	-32.619	0.205	-0.114
-478.332	128.806	0.144	0.183
-477.318	5.341	-0.086	-0.063
-476.303	-200.000	-0.024	-0.219
-475.289	-154.882	0.024	-0.002
-474.274	-22.753	0.245	0.147
-473.259	-200.000	-0.001	0.367
-472.245	168.643	-0.046	0.066
-471.230	486.967	0.088	0.200
-470.216	-40.843	-0.302	-0.156
-469.201	-200.000	-0.024	0.215
-468.186	47.654	-0.248	-0.230
-467.172	0.277	-0.132	-0.094
-466.157	194.490	0.029	0.043
-465.143	64.397	-0.015	-0.015
-464.128	800.000	0.042	-0.181
-463.113	-106.790	-0.277	0.061
-462.099	431.526	0.105	-0.227
-461.084	31.579	0.097	-0.083
-460.070	-200.000	-0.013	0.232
-459.055	-101.445	-0.180	0.044
-458.040	800.000	0.112	0.359
-457.026	-97.301	0.100	0.026
-456.011	-174.258	0.267	-0.008
-454.997	-121.857	-0.453	0.074
-453.982	197.975	-0.066	-0.101
-452.968	-184.495	0.197	0.003
-451.953	-200.000	0.055	0.286
-450.938	-122.898	-0.306	0.049
-449.924	148.557	0.213	0.286
-448.909	-200.000	-0.013	-0.295
-447.895	129.546	0.118	0.150
-446.880	-160.861	0.092	-0.005
-445.865	-116.809	-0.249	-0.045
-444.851	-200.000	-0.002	-0.173
-443.836	55.620	-0.154	0.149
-442.822	800.000	-0.040	0.117
-441.807	15.191	-0.216	0.168
-440.792	-129.291	-0.264	-0.036
-439.778	-200.000	-0.001	0.068
-438.763	355.637	-0.089	-0.175
-437.749	-200.000	0.049	-0.293
-436.734	-200.000	0.040	-0.303
-435.719	800.000	0.100	-0.294
-434.705	-139.195	0.315	0.034
-433.690	-24.307	-0.071	-0.042
-432.676	52.290	-0.091	0.086
-431.661	95.465	0.249	0.282
-430.646	-149.063	-0.302	-0.024
-429.632	154.857	-0.124	0.169
-428.617	451.643	0.023	0.050
-427.603	-139.832	0.158	-0.017
-426.588	258.025	-0.048	-0.082
-425.573	-132.860	0.433	0.055
-424.559	-12.756	-0.050	0.032
-423.544	-68.542	0.401	-0.154
-422.530	744.187	-0.093	0.248
-421.515	-115.125	0.071	0.013
-420.500	-170.753	-0.167	0.006
-419.486	-88.493	0.162	-0.048
-418.471	332.979	0.153	-0.294
-417.457	-71.336	-0.215	-0.080
-416.442	-55.150	0.402	0.180
-415.428	-200.000	-0.043	0.421
-414.413	-163.172	0.226	-0.011
-413.398	159.331	-0.081	0.112
-412.384	292.297	0.087	-0.157
-411.369	32.521	0.467	0.401
-410.355	35.434	-0.158	0.138
-409.340	-34.313	-0.079	0.043
-408.325	-27.917	0.369	-0.212
-407.311	-43.141	-0.242	0.122
-406.296	61.388	-0.112	0.111
-405.282	67.549	-0.145	-0.147
-404.267	360.822	0.060	0.120
-403.252	-86.017	-0.571	-0.175
-402.238	-105.327	0.169	-0.038
-401.223	260.107	-0.150	-0.257
-400.209	313.991	-0.073	0.137
-399.194	120.006	-0.375	0.461
-398.179	61.812	-0.149	-0.148
-397.165	171.447	0.128	0.182
-396.150	-133.629	0.250	-0.031
-395.136	-108.875	0.092	-0.020
-394.121	512.379	0.034	0.078
-393.106	-200.000	-0.026	-0.151
-392.092	-200.000	0.019	-0.241
-391.077	-200.000	0.048	-0.321
-390.063	-160.082	-0.309	0.017
-389.048	490.257	0.057	0.128
-388.033	-200.000	-0.044	0.276
-387.019	470.530	0.135	-0.300
-386.004	9.149	-0.195	0.146
-384.990	194.957	0.086	0.130
-383.975	264.516	-0.056	-0.097
-382.960	21.844	0.273	-0.221
-381.946	-102.886	0.073	-0.017
-380.931	-42.336	-0.523	0.265
-379.917	-129.679	0.288	-0.039
-378.902	-45.546	0.067	0.033
-377.888	-145.455	-0.434	-0.039
-376.873	-63.553	0.092	-0.038
-375.858	129.005	0.044	-0.055
-374.844	20.813	0.101	-0.081
-373.829	-136.197	-0.109	0.013
-372.815	-200.000	0.001	0.145
-371.800	243.881	0.090	0.150
-370.785	-143.806	-0.314	-0.029
-369.771	-200.000	-0.017	0.302
-368.756	-73.092	0.258	-0.094
-367.742	128.161	0.065	0.082
-366.727	-200.000	0.002	0.110
-365.712	379.480	0.179	0.363
-364.698	-200.000	-0.011	0.141
-363.683	127.345	-0.147	-0.185
-362.669	-200.000	-0.012	0.060
-361.654	262.435	-0.030	-0.052
-360.639	-200.000	0.036	-0.208
-359.625	-52.327	-0.219	0.101
-358.610	48.902	0.214	0.199
-357.596	-77.046	-0.074	-0.026
-356.581	-124.479	-0.193	0.030
-355.566	-200.000	-0.013	0.151
-354.552	-200.000	0.014	-0.251
-353.537	-162.959	-0.125	0.006
-352.523	46.542	0.239	0.220
-351.508	181.975	0.111	-0.161
-350.493	800.000	-0.130	0.505
-349.479	-88.631	0.151	0.044
-348.464	-159.325	-0.147	0.008
-347.450	-170.310	0.189	0.007
-346.435	-200.000	-0.022	0.165
-345.420	524.448	-0.144	0.335
-344.406	208.890	0.199	0.308
-343.391	-104.410	-0.210	-0.048
-342.377	-125.078	0.304	-0.046
-341.362	-84.173	-0.082	0.026
-340.348	-200.000	-0.029	0.285
-339.333	138.527	0.217	0.282
-338.318	-125.321	0.228	-0.034
-337.304	120.584	0.349	0.429
-336.289	-70.387	-0.218	0.082
-335.275	107.724	0.098	-0.116
-334.260	277.442	0.210	0.369
-333.245	-163.791	0.113	0.005
-332.231	-106.737	0.236	0.052
-331.216	96.782	-0.316	-0.359
-330.202	272.912	0.136	0.238
-329.187	13.436	-0.184	-0.142
-328.172	628.995	-0.063	-0.159
-327.158	-200.000	-0.009	-0.354
-326.143	-200.000	0.013	0.290
-325.129	519.760	-0.120	0.277
-324.114	259.427	0.208	0.356
-323.099	326.079	-0.192	0.364
-322.085	65.354	-0.069	0.069
-321.070	800.000	0.119	0.333
-320.056	-200.000	0.043	-0.295
-319.041	21.139	0.183	0.147
-318.026	-5.372	-0.326	0.222
-317.012	-136.664	0.229	-0.026
-315.997	-40.586	-0.176	-0.090
-314.983	-14.278	-0.202	0.129
-313.968	-200.000	-0.001	-0.244
-312.953	-105.725	-0.302	-0.067
-311.939	-200.000	0.005	0.340
-310.924	-200.000	-0.007	0.119
-309.910	-200.000	-0.015	-0.157
-308.895	-19.343	-0.179	-0.110
-307.880	65.841	-0.206	-0.206
-306.866	48.574	-0.232	-0.215
-305.851	532.924	-0.025	-0.059
-304.837	800.000	0.158	-0.530
-303.822	-60.169	0.208	0.088
-302.807	-61.102	-0.040	0.017
-301.793	-71.090	-0.222	0.082
-300.778	-117.225	0.195	0.035
-299.764	118.266	0.234	0.285
-298.749	-103.826	0.138	0.032
-297.735	8.515	-0.247	-0.184
-296.720	52.560	0.124	-0.117
-295.705	-200.000	0.014	0.231
-294.691	800.000	0.092	0.371
-293.676	-70.132	0.221	0.083
-292.662	800.000	0.027	-0.099
-291.647	166.438	-0.066	-0.093
-290.632	682.151	-0.089	0.230
-289.618	12.627	-0.186	0.141
-288.603	10.000	0.055	-0.042
-287.589	-26.896	0.031	-0.018
-286.574	-65.895	0.285	0.112
-285.559	117.377	-0.014	0.017
-284.545	-200.000	0.046	-0.293
-283.530	31.989	-0.107	0.091
-282.516	-200.000	-0.003	0.074
-281.501	-11.050	-0.174	-0.114
-280.486	52.788	0.208	0.197
-279.472	-178.624	-0.210	0.005
-278.457	800.000	-0.055	0.177
-277.443	98.161	0.066	0.075
-276.428	-10.095	-0.350	-0.230
-275.413	542.416	0.031	0.072
-274.399	8.319	-0.402	-0.299
-273.384	-38.731	0.179	-0.093
-272.370	-59.916	0.159	0.067
-271.355	-55.850	-0.179	0.079
-270.340	-200.000	-0.037	0.210
-269.326	358.263	-0.029	-0.056
-268.311	-111.675	0.048	0.010
-267.297	34.989	0.053	-0.046
-266.282	-160.050	-0.562	-0.030
-265.267	159.371	-0.046	0.064
-264.253	140.243	0.074	0.096
-263.238	9.433	0.064	-0.048
-262.224	800.000	-0.040	0.161
-261.209	-101.890	-0.152	-0.036
-260.195	117.391	-0.090	0.110
-259.180	91.464	0.150	0.166
-258.165	-200.000	-0.016	-0.167
-257.151	-96.042	0.400	-0.105
-256.136	-149.968	0.304	0.023
-255.122	-200.000	0.037	-0.389
-254.107	126.373	0.093	-0.116
-253.092	-52.360	0.086	0.039
-252.078	57.806	-0.097	-0.094
-251.063	-18.557	-0.069	-0.043
-250.049	3.354	-0.056	0.040
-249.034	-200.000	-0.022	0.098
-248.019	120.986	0.239	0.293
-247.005	-73.572	0.374	0.135
-245.990	43.161	-0.138	0.125
-244.976	800.000	-0.111	-0.417
-243.961	56.152	-0.042	0.040
-242.946	-63.072	0.148	0.060
-241.932	-200.000	-0.011	0.085
-240.917	800.000	-0.067	0.230
-239.903	312.206	-0.117	-0.216
-238.888	-171.264	-0.466	-0.015
-237.873	40.919	0.150	-0.133
-236.859	769.311	0.088	0.237
-235.844	800.000	0.080	-0.279
-234.830	60.964	-0.170	-0.166
-233.815	228.768	-0.138	-0.221
-232.800	-200.000	-0.006	0.346
-231.786	685.601	0.139	0.357
-230.771	-74.003	0.348	0.124
-229.757	306.655	-0.105	-0.192
-228.742	-200.000	-0.017	-0.277
-227.727	47.378	0.215	-0.197
-226.713	800.000	0.030	-0.119
-225.698	636.899	0.092	-0.230
-224.684	-200.000	-0.000	0.177
-223.669	266.288	-0.049	-0.084
-222.655	233.643	-0.116	0.188
-221.640	-47.333	0.368	0.176
-220.625	271.305	-0.101	-0.175
-219.611	88.522	-0.259	-0.283
-218.596	-200.000	-0.008	-0.344
-217.582	68.365	-0.123	0.124
-216.567	159.066	0.060	-0.082
-215.552	449.175	-0.111	-0.240
-214.538	62.762	0.196	-0.193
-213.523	-200.000	-0.042	0.259
-212.509	30.282	0.114	-0.096
-211.494	505.860	-0.151	0.345
-210.479	-1.711	0.090	-0.063
-209.465	800.000	0.019	0.080
-208.450	-75.253	0.275	-0.097
-207.436	176.821	0.104	-0.149
-206.421	117.238	-0.153	-0.185
-205.406	-72.937	0.158	0.057
-204.392	-135.059	-0.253	0.030
-203.377	329.884	0.031	-0.058
-202.363	-15.374	-0.118	-0.074
-201.348	99.669	-0.193	-0.220
-200.333	99.444	0.183	-0.209
-199.319	39.048	0.176	-0.155
-198.304	46.123	0.022	-0.020
-197.290	43.450	-0.142	0.128
-196.275	164.705	0.071	0.098
-195.260	48.691	0.264	-0.244
-194.246	162.998	-0.178	-0.246
-193.231	-200.000	0.025	0.368
-192.217	-50.771	-0.167	-0.077
-191.202	-200.000	-0.099	0.549
-190.187	800.000	0.043	0.186
-189.173	-200.000	0.010	0.164
-188.158	132.869	0.307	-0.390
-187.144	-90.790	-0.483	0.137
-186.129	-101.667	0.163	-0.039
-185.114	-74.118	0.233	-0.083
-184.100	146.380	-0.096	0.127
-183.085	-200.000	-0.011	0.241
-182.071	800.000	0.097	0.405
-181.056	333.912	0.155	-0.295
-180.042	112.874	-0.130	0.155
-179.027	52.127	-0.283	0.265
-178.012	-67.767	-0.520	0.200
-176.998	-200.000	0.061	0.372
-175.983	-137.058	0.161	-0.018
-174.969	429.081	-0.077	0.164
-173.954	-2.921	-0.300	-0.206
-172.939	297.857	0.182	0.328
-171.925	800.000	-0.167	0.585
-170.910	-123.450	0.094	0.015
-169.896	92.200	-0.245	-0.272
-168.881	-97.088	0.220	-0.057
-167.866	-200.000	-0.023	-0.478
-166.852	-34.103	0.314	-0.170
-165.837	-100.660	-0.196	-0.048
-164.823	-48.823	-0.358	0.169
-163.808	300.792	-0.087	0.158
-162.793	337.995	0.149	0.286
-161.779	-171.752	0.363	-0.012
-160.764	334.157	0.085	-0.161
-159.750	360.851	0.080	-0.158
-158.735	-6.875	0.133	0.089
-157.720	290.959	0.039	0.070
-156.706	-60.486	-0.312	-0.130
-155.691	388.877	-0.082	-0.167
-154.677	105.289	-0.174	-0.202
-153.662	459.028	-0.005	-0.011
-152.647	345.011	0.061	0.117
-151.633	-15.661	-0.268	-0.168
-150.618	800.000	0.091	-0.377
-149.604	467.898	-0.112	0.248
-148.589	-68.676	0.199	0.076
-147.574	38.924	-0.144	0.127
-146.560	114.150	-0.372	-0.445
-145.545	-25.988	-0.125	0.072
-144.531	-153.811	0.343	-0.023
-143.516	125.924	-0.225	-0.279
-142.502	45.890	-0.380	-0.346
-141.487	-200.000	-0.036	0.359
-140.472	-70.727	0.266	-0.099
-139.458	-25.056	0.289	-0.168
-138.443	-200.000	-0.029	0.230
-137.429	-200.000	-0.000	0.254
-136.414	-87.312	-0.081	-0.024
-135.399	162.959	0.212	0.293
-134.385	-144.745	-0.136	-0.012
-133.370	-167.533	0.314	-0.012
-132.356	-95.761	0.189	0.050
-131.341	133.506	-0.294	-0.374
-130.326	-122.011	0.173	-0.028
-129.312	-68.819	-0.092	0.035
-128.297	225.286	-0.121	0.193
-127.283	-200.000	0.019	-0.204
-126.268	91.538	0.135	-0.149
-125.253	-72.257	-0.363	0.132
-124.239	260.169	-0.195	0.331
-123.224	-77.140	0.130	0.044
-122.210	-200.000	-0.012	-0.285
