DTS Sentinel unit serial number:	SN413079Multiplexer serial number:	ORYXHardware model number:	OX4-SRSoftware version number:	ORYX F/W v4.00 Oryx Data Collector v3.7.2.0data status	okinstallation	princeton_trtdifferential loss correction	single-endedforward channel	channel 4reverse channel	N/Adate	2019/09/16time	21:09:35forward acquisition time	60.00reverse acquisition time	0.00gamma	496.2192k internal	0.2312k external	0.2312temperature offset calibration	0.9966default loss term (dB/km)	0.3790temperature slope calibration	1.0000multiplexer offset coefficient	1.0000multiplexer slope coefficient	1.0000fibre end	0.00T internal ref (°C)	31.81T ext. ref 1 (°C)	0.05T ext. ref 2 (°C)	25.45length (m)	temperature (°C)	Stokes	anti-Stokes-747.200	195.057	-0.240	0.370
-746.185	-66.382	-0.392	0.158
-745.171	-96.298	-0.171	-0.046
-744.156	-38.332	0.076	0.041
-743.142	-200.000	0.044	0.228
-742.127	-82.700	-0.394	-0.129
-741.112	-200.000	-0.023	-0.107
-740.098	-200.000	0.024	-0.328
-739.083	-200.000	0.001	0.011
-738.069	14.771	-0.322	-0.255
-737.054	-200.000	-0.001	-0.170
-736.039	-200.000	-0.006	-0.028
-735.025	-100.613	0.412	0.103
-734.010	114.303	0.030	-0.038
-732.996	-104.209	-0.099	-0.023
-731.981	553.525	-0.143	-0.349
-730.966	-63.316	-0.148	0.062
-729.952	46.684	-0.227	0.214
-728.937	-134.009	-0.375	0.047
-727.923	-200.000	0.002	-0.043
-726.908	-48.296	0.269	0.131
-725.894	-200.000	0.022	-0.206
-724.879	-200.000	-0.058	0.272
-723.864	-200.000	-0.050	0.486
-722.850	-200.000	-0.064	0.407
-721.835	-82.675	0.161	0.053
-720.821	800.000	-0.054	0.189
-719.806	46.427	-0.176	-0.165
-718.791	224.413	-0.075	0.123
-717.777	150.059	0.178	-0.245
-716.762	13.745	0.166	-0.131
-715.748	-200.000	0.018	0.184
-714.733	34.811	-0.037	-0.033
-713.718	-101.391	-0.046	-0.011
-712.704	-200.000	-0.011	-0.104
-711.689	690.521	-0.161	-0.427
-710.675	-29.409	-0.034	0.020
-709.660	-200.000	-0.041	-0.254
-708.645	-115.716	-0.350	-0.066
-707.631	-200.000	0.299	-0.001
-706.616	621.984	0.042	0.108
-705.602	-129.400	0.178	-0.025
-704.587	800.000	-0.112	0.471
-703.572	515.691	-0.119	0.283
-702.558	-179.729	0.293	-0.006
-701.543	-75.304	0.091	-0.033
-700.529	-82.664	0.166	-0.054
-699.514	-41.410	-0.059	0.031
-698.499	-85.605	0.243	-0.077
-697.485	412.225	-0.049	-0.104
-696.470	8.523	0.064	-0.049
-695.456	686.897	0.107	-0.284
-694.441	138.756	0.107	-0.143
-693.426	-200.000	0.022	0.147
-692.412	-50.285	-0.209	0.100
-691.397	395.448	0.089	0.188
-690.383	176.335	0.016	-0.023
-689.368	-94.667	0.185	0.051
-688.354	-20.851	0.240	-0.149
-687.339	-173.825	-0.216	-0.006
-686.324	-168.399	0.125	0.005
-685.310	800.000	0.026	0.101
-684.295	153.904	-0.117	0.163
-683.281	629.107	-0.074	-0.188
-682.266	-108.813	0.087	-0.019
-681.251	-121.765	0.035	-0.006
-680.237	-200.000	0.025	-0.124
-679.222	-200.000	0.026	-0.303
-678.208	-126.134	-0.160	0.024
-677.193	-97.160	0.104	0.028
-676.178	-24.532	-0.080	-0.048
-675.164	38.301	-0.309	-0.279
-674.149	156.174	0.108	0.151
-673.135	-31.784	-0.181	-0.103
-672.120	800.000	-0.019	0.065
-671.105	-15.263	-0.260	-0.168
-670.091	320.632	0.065	-0.124
-669.076	109.701	0.112	0.136
-668.062	-106.426	-0.161	0.036
-667.047	-143.431	0.220	-0.021
-666.032	-74.497	0.237	0.086
-665.018	-66.277	0.030	-0.012
-664.003	549.976	-0.116	-0.282
-662.989	-50.162	0.192	0.092
-661.974	404.018	-0.038	0.080
-660.959	-200.000	0.003	-0.493
-659.945	-200.000	0.008	-0.078
-658.930	496.201	0.054	-0.126
-657.916	800.000	0.012	-0.050
-656.901	48.389	0.231	-0.219
-655.886	-200.000	0.087	-0.430
-654.872	-19.855	-0.260	0.163
-653.857	71.308	0.084	-0.088
-652.843	346.542	-0.175	0.348
-651.828	-200.000	0.000	0.156
-650.814	-164.785	-0.113	-0.005
-649.799	-25.602	-0.134	0.080
-648.784	-41.308	-0.197	-0.103
-647.770	261.478	-0.171	0.300
-646.755	800.000	0.083	-0.256
-645.741	-162.457	0.213	0.011
-644.726	122.675	0.255	-0.323
-643.711	-95.399	-0.058	0.016
-642.697	-200.000	-0.007	0.261
-641.682	800.000	0.094	0.314
-640.668	-75.075	-0.234	-0.084
-639.653	125.009	-0.203	-0.258
-638.638	-164.618	-0.307	-0.014
-637.624	-95.417	-0.027	-0.007
-636.609	-91.972	0.130	0.037
-635.595	356.620	0.144	-0.290
-634.580	26.496	-0.207	-0.175
-633.565	-73.070	-0.311	0.115
-632.551	65.346	-0.231	-0.236
-631.536	80.159	-0.152	-0.165
-630.522	-148.121	0.246	-0.021
-629.507	-40.537	0.122	0.064
-628.492	-93.775	-0.179	0.050
-627.478	79.763	0.062	-0.068
-626.463	-200.000	-0.059	0.318
-625.449	-130.848	0.117	0.016
-624.434	-200.000	0.012	-0.137
-623.419	-59.913	0.091	-0.039
-622.405	-200.000	-0.020	-0.219
-621.390	-163.126	-0.363	-0.018
-620.376	168.286	-0.077	0.111
-619.361	-106.299	0.201	-0.045
-618.346	98.632	-0.225	-0.262
-617.332	-200.000	-0.035	-0.414
-616.317	121.405	0.207	-0.260
-615.303	-200.000	0.025	0.298
-614.288	-190.231	-0.563	0.006
-613.273	-200.000	-0.013	0.071
-612.259	59.206	-0.103	0.102
-611.244	-200.000	-0.028	-0.150
-610.230	65.622	-0.234	-0.239
-609.215	-14.827	0.080	-0.052
-608.201	231.732	-0.105	-0.174
-607.186	-200.000	-0.024	-0.150
-606.171	101.234	-0.221	0.260
-605.157	-97.679	-0.173	0.045
-604.142	-137.506	-0.143	-0.016
-603.128	-67.878	-0.231	0.091
-602.113	-39.845	0.457	-0.241
-601.098	-4.801	-0.231	-0.160
-600.084	-200.000	0.061	-0.304
-599.069	334.760	-0.039	0.077
-598.055	169.047	0.184	0.265
-597.040	702.164	-0.099	-0.263
-596.025	-165.659	0.165	-0.007
-595.011	151.094	0.102	-0.140
-593.996	-116.505	-0.215	-0.040
-592.982	480.749	-0.111	-0.253
-591.967	536.620	0.114	-0.273
-590.952	-72.637	0.270	-0.100
-589.938	-144.151	0.279	-0.026
-588.923	230.462	-0.077	-0.128
-587.909	704.986	0.100	0.265
-586.894	-79.765	-0.086	0.029
-585.879	-200.000	-0.032	-0.275
-584.865	-101.957	0.179	-0.044
-583.850	-60.127	-0.276	0.119
-582.836	-35.227	0.328	0.180
-581.821	-200.000	0.001	-0.142
-580.806	87.620	0.090	-0.100
-579.792	-200.000	-0.039	-0.295
-578.777	-83.747	-0.060	0.019
-577.763	800.000	0.099	0.319
-576.748	24.256	0.148	-0.124
-575.733	-149.497	-0.121	0.010
-574.719	-134.313	-0.330	-0.041
-573.704	141.704	-0.048	-0.064
-572.690	670.709	-0.030	-0.078
-571.675	-200.000	0.008	-0.074
-570.661	-62.208	0.103	-0.043
-569.646	439.385	0.090	0.197
-568.631	-57.047	0.159	0.071
-567.617	-200.000	-0.023	-0.176
-566.602	78.430	-0.235	0.253
-565.588	18.695	0.274	-0.221
-564.573	-86.793	0.390	-0.120
-563.558	-55.953	0.261	0.117
-562.544	94.572	-0.178	0.204
-561.529	-200.000	0.006	0.292
-560.515	-136.999	0.407	-0.047
-559.500	-200.000	0.030	-0.263
-558.485	171.017	-0.226	0.326
-557.471	-101.892	0.373	-0.091
-556.456	-53.497	0.236	0.109
-555.442	-44.552	0.187	-0.094
-554.427	294.995	-0.079	-0.145
-553.412	561.433	-0.064	-0.157
-552.398	-57.511	-0.235	0.104
-551.383	-133.108	0.330	-0.042
-550.369	113.091	-0.191	-0.233
-549.354	481.855	-0.064	-0.147
-548.339	-8.627	0.146	-0.098
-547.325	40.093	-0.025	-0.022
-546.310	800.000	-0.042	0.125
-545.296	-200.000	-0.007	-0.140
-544.281	127.275	-0.205	0.262
-543.266	3.127	-0.135	0.099
-542.252	-43.987	0.419	0.212
-541.237	-147.773	0.265	-0.022
-540.223	115.000	0.116	-0.143
-539.208	-167.420	-0.177	0.007
-538.193	308.055	-0.060	0.112
-537.179	203.581	-0.173	0.269
-536.164	-55.008	-0.382	0.173
-535.150	-200.000	-0.015	0.197
-534.135	71.756	0.070	-0.073
-533.121	-200.000	-0.002	0.011
-532.106	-145.958	0.116	0.010
-531.091	-200.000	-0.007	-0.282
-530.077	-64.329	0.200	0.082
-529.062	-46.425	-0.064	-0.032
-528.048	383.336	-0.027	0.056
-527.033	-100.436	-0.215	-0.054
-526.018	-40.279	-0.377	0.197
-525.004	663.085	0.126	0.326
-523.989	151.619	-0.141	-0.193
-522.975	-200.000	-0.027	0.150
-521.960	-200.000	0.006	0.145
-520.945	-165.908	-0.288	-0.012
-519.931	452.172	0.087	0.194
-518.916	413.454	-0.164	0.351
-517.902	-65.651	0.198	0.080
-516.887	-107.878	0.184	-0.040
-515.872	-0.163	-0.421	0.301
-514.858	800.000	0.009	0.032
-513.843	800.000	0.047	-0.171
-512.829	108.724	0.155	-0.187
-511.814	800.000	0.104	-0.400
-510.799	800.000	0.059	-0.187
-509.785	-16.617	-0.093	0.059
-508.770	556.588	-0.077	0.186
-507.756	800.000	0.065	0.220
-506.741	-100.849	0.141	0.035
-505.726	660.403	-0.109	-0.282
-504.712	378.823	-0.063	-0.130
-503.697	-114.306	0.216	0.042
-502.683	42.029	0.120	0.110
-501.668	-200.000	-0.001	-0.029
-500.653	-99.890	-0.226	-0.057
-499.639	41.888	-0.108	-0.098
-498.624	800.000	0.076	-0.257
-497.610	-57.875	-0.378	0.166
-496.595	-65.957	-0.231	-0.093
-495.581	178.432	0.237	0.347
-494.566	12.946	0.218	-0.169
-493.551	-41.139	-0.295	-0.153
-492.537	327.636	0.088	-0.170
-491.522	-63.275	0.202	0.084
-490.508	-43.601	0.347	-0.176
-489.493	204.160	0.053	-0.083
-488.478	-181.068	0.293	-0.006
-487.464	-111.161	0.268	-0.055
-486.449	-70.903	-0.373	-0.141
-485.435	-66.116	0.506	0.203
-484.420	105.323	-0.135	-0.160
-483.405	380.645	-0.089	-0.184
-482.391	378.618	0.149	-0.307
-481.376	436.202	-0.093	0.203
-480.362	-83.421	-0.118	-0.038
-479.347	147.368	0.114	-0.155
-478.332	-200.000	-0.002	0.044
-477.318	238.784	0.058	-0.096
-476.303	122.177	0.060	-0.076
-475.289	-117.912	-0.266	0.048
-474.274	-200.000	-0.043	0.276
-473.259	-54.645	-0.261	-0.119
-472.245	-124.945	-0.098	0.015
-471.230	-182.098	-0.053	0.001
-470.216	-71.605	-0.079	-0.030
-469.201	-66.598	0.098	0.039
-468.186	-85.283	-0.076	0.024
-467.172	129.109	-0.239	0.306
-466.157	47.470	-0.072	0.067
-465.143	-38.523	-0.279	0.148
-464.128	47.174	-0.157	-0.147
-463.113	526.091	0.062	-0.146
-462.099	-92.048	0.453	-0.129
-461.084	-112.516	-0.444	-0.089
-460.070	361.614	-0.118	-0.238
-459.055	-98.757	0.131	-0.033
-458.040	-89.721	0.248	-0.073
-457.026	181.383	0.037	0.055
-456.011	129.699	0.172	0.221
-454.997	-116.265	0.083	-0.015
-453.982	800.000	0.075	-0.260
-452.968	174.653	-0.305	-0.442
-451.953	-35.249	-0.045	-0.025
-450.938	-200.000	-0.035	0.321
-449.924	800.000	0.078	-0.232
-448.909	795.874	0.105	-0.289
-447.895	-161.771	0.184	0.009
-446.880	-56.182	0.134	0.060
-445.865	-35.026	-0.074	0.041
-444.851	-24.474	0.248	-0.148
-443.836	-64.797	0.061	0.025
-442.822	46.621	-0.227	0.211
-441.807	-200.000	0.039	0.196
-440.792	-105.770	0.096	0.022
-439.778	-200.000	0.030	-0.205
-438.763	-57.677	0.061	0.027
-437.749	304.727	0.108	0.201
-436.734	-200.000	-0.002	0.244
-435.719	-103.670	0.064	-0.015
-434.705	206.208	-0.014	0.022
-433.690	-200.000	-0.007	-0.181
-432.676	181.084	-0.113	-0.166
-431.661	-87.294	-0.089	0.027
-430.646	-165.210	-0.302	-0.013
-429.632	-170.525	-0.241	-0.008
-428.617	-7.316	0.288	-0.196
-427.603	-92.490	0.235	0.066
-426.588	-43.165	0.038	-0.019
-425.573	-9.412	-0.225	0.150
-424.559	-200.000	-0.022	0.151
-423.544	135.441	0.238	0.311
-422.530	289.170	-0.097	-0.176
-421.515	515.064	-0.176	-0.413
-420.500	-109.799	-0.210	0.044
-419.486	68.967	-0.062	-0.063
-418.471	-170.785	0.380	-0.013
-417.457	-97.045	0.407	-0.107
-416.442	-49.114	0.171	-0.082
-415.428	242.691	-0.173	-0.291
-414.413	26.684	-0.043	0.036
-413.398	-173.933	-0.209	-0.006
-412.384	-97.366	0.706	0.184
-411.369	404.548	0.066	-0.138
-410.355	-72.523	0.216	-0.080
-409.340	3.113	-0.117	-0.085
-408.325	800.000	-0.074	0.260
-407.311	-158.424	-0.084	-0.005
-406.296	-200.000	-0.010	0.134
-405.282	-200.000	0.000	-0.107
-404.267	502.382	-0.036	-0.084
-403.252	-28.170	-0.020	0.011
-402.238	430.768	0.065	-0.140
-401.223	55.808	0.072	0.069
-400.209	-200.000	-0.051	0.254
-399.194	-118.886	-0.165	0.029
-398.179	-55.490	-0.176	0.079
-397.165	-21.829	-0.139	-0.084
-396.150	72.536	-0.205	-0.214
-395.136	-111.790	0.165	-0.033
-394.121	78.405	0.286	0.305
-393.106	800.000	-0.080	0.303
-392.092	92.593	-0.093	0.105
-391.077	800.000	-0.043	-0.180
-390.063	598.785	-0.135	0.334
-389.048	-76.516	0.487	0.171
-388.033	233.090	-0.086	-0.142
-387.019	-110.135	0.050	0.010
-386.004	-200.000	-0.002	0.402
-384.990	-200.000	-0.002	-0.009
-383.975	-20.270	-0.100	0.062
-382.960	-120.297	0.222	0.038
-381.946	99.820	0.323	0.375
-380.931	75.384	0.074	0.078
-379.917	-60.515	-0.289	0.123
-378.902	172.726	-0.057	-0.083
-377.888	13.352	-0.020	-0.015
-376.873	-72.072	0.204	0.076
-375.858	-16.800	-0.232	0.147
-374.844	-200.000	-0.005	0.301
-373.829	-110.734	0.166	0.034
-372.815	299.437	0.119	-0.220
-371.800	56.464	-0.065	-0.064
-370.785	0.680	0.163	0.116
-369.771	143.407	0.062	-0.083
-368.756	119.603	0.149	0.185
-367.742	193.716	-0.056	0.085
-366.727	242.387	0.142	-0.238
-365.712	9.800	0.098	0.074
-364.698	79.723	-0.105	-0.113
-363.683	709.748	0.048	-0.126
-362.669	32.379	0.049	0.042
-361.654	63.554	-0.215	-0.216
-360.639	-152.002	0.121	0.009
-359.625	-58.709	-0.327	-0.142
-358.610	88.923	0.228	0.254
-357.596	-113.473	0.333	-0.065
-356.581	800.000	-0.032	0.110
-355.566	62.016	0.013	-0.013
-354.552	599.335	0.036	-0.089
-353.537	70.292	-0.221	0.228
-352.523	-121.519	-0.213	0.035
-351.508	83.308	0.231	-0.252
-350.493	88.885	-0.049	-0.055
-349.479	288.477	-0.057	-0.104
-348.464	203.510	0.178	0.276
-347.450	222.602	0.145	-0.233
-346.435	-200.000	-0.042	-0.000
-345.420	779.304	-0.012	-0.032
-344.406	-26.925	-0.172	0.100
-343.391	72.918	0.329	0.343
-342.377	-84.862	0.075	0.023
-341.362	69.634	-0.277	0.285
-340.348	107.784	0.123	0.147
-339.333	800.000	0.197	0.638
-338.318	156.861	-0.100	-0.138
-337.304	-200.000	0.025	-0.129
-336.289	23.352	-0.100	0.082
-335.275	491.522	-0.031	0.072
-334.260	-75.956	0.289	-0.102
-333.245	131.427	-0.067	0.086
-332.231	800.000	-0.069	0.272
-331.216	-200.000	0.004	-0.027
-330.202	-174.083	0.136	-0.004
-329.187	-52.610	-0.009	-0.004
-328.172	91.081	-0.201	0.225
-327.158	175.772	0.058	0.083
-326.143	-200.000	0.009	0.437
-325.129	94.210	0.240	-0.272
-324.114	364.445	0.112	0.225
-323.099	65.155	-0.182	-0.183
-322.085	-44.993	-0.285	0.142
-321.070	800.000	-0.029	0.114
-320.056	-17.699	0.115	-0.072
-319.041	148.712	0.174	0.234
-318.026	172.534	-0.200	-0.287
-317.012	-93.767	0.106	-0.029
-315.997	-86.043	0.127	-0.039
-314.983	52.851	0.069	-0.066
-313.968	46.078	-0.156	0.144
-312.953	-89.431	-0.293	-0.086
-311.939	-192.999	0.211	-0.002
-310.924	-178.008	0.333	-0.008
-309.910	-60.123	-0.061	0.026
-308.895	-200.000	0.030	0.375
-307.880	-59.633	-0.382	0.163
-306.866	-200.000	-0.033	-0.157
-305.851	272.037	0.048	-0.085
-304.837	367.876	-0.067	0.135
-303.822	66.274	0.124	0.125
-302.807	-112.355	0.109	-0.022
-301.793	197.784	0.183	-0.278
-300.778	-129.510	-0.114	-0.016
-299.764	-200.000	0.028	-0.341
-298.749	-42.107	0.271	0.138
-297.735	800.000	-0.121	0.362
-296.720	177.891	-0.174	-0.253
-295.705	110.900	-0.093	-0.112
-294.691	-200.000	0.039	-0.217
-293.676	-200.000	-0.029	-0.245
-292.662	474.761	0.093	-0.210
-291.647	121.340	0.183	0.228
-290.632	151.351	0.103	-0.140
-289.618	-200.000	-0.012	0.383
-288.603	-98.397	0.192	-0.049
-287.589	491.646	0.198	0.453
-286.574	-93.907	-0.247	0.068
-285.559	-200.000	-0.016	-0.140
-284.545	-57.389	-0.123	0.054
-283.530	-200.000	0.081	0.421
-282.516	-200.000	-0.012	0.061
-281.501	346.718	0.039	-0.076
-280.486	21.288	0.234	0.189
-279.472	-136.917	-0.225	0.026
-278.457	2.845	0.080	0.058
-277.443	-116.787	-0.089	0.016
-276.428	-3.011	0.090	-0.063
-275.413	131.057	-0.150	0.192
-274.399	-53.165	0.094	0.043
-273.384	145.838	0.138	0.184
-272.370	-58.212	-0.155	-0.067
-271.355	187.830	0.154	-0.229
-270.340	-77.705	0.394	0.136
-269.326	-200.000	-0.007	-0.197
-268.311	-86.546	0.209	-0.064
-267.297	42.074	-0.142	-0.128
-266.282	135.241	-0.101	-0.131
-265.267	-101.232	0.114	0.028
-264.253	-200.000	0.073	-0.482
-263.238	205.714	-0.179	0.277
-262.224	-200.000	0.054	-0.240
-261.209	114.872	-0.243	-0.295
-260.195	21.048	-0.259	0.209
-259.180	800.000	-0.093	-0.278
-258.165	-59.421	0.106	-0.045
-257.151	-200.000	0.021	-0.136
-256.136	-5.593	-0.098	-0.067
-255.122	-71.791	0.099	0.037
-254.107	31.466	0.046	-0.040
-253.092	-200.000	-0.085	0.435
-252.078	421.101	-0.081	-0.173
-251.063	-176.037	0.173	-0.005
-250.049	245.336	-0.132	-0.222
-249.034	292.049	-0.009	-0.016
-248.019	542.000	0.083	-0.198
-247.005	14.547	-0.054	-0.042
-245.990	-171.006	0.235	0.008
-244.976	-30.702	0.146	0.082
-243.961	-71.215	-0.189	-0.070
-242.946	-78.999	0.468	0.159
-241.932	-160.601	0.188	-0.010
-240.917	-86.323	0.119	0.037
-239.903	327.432	0.099	0.189
-238.888	-76.909	0.135	0.047
-237.873	-200.000	0.023	-0.325
-236.859	-200.000	-0.011	0.049
-235.844	-136.919	0.194	-0.022
-234.830	-122.917	-0.213	-0.034
-233.815	182.557	-0.049	-0.072
-232.800	443.995	0.100	0.218
-231.786	-200.000	0.057	-0.595
-230.771	310.780	-0.117	-0.218
-229.757	-200.000	-0.004	0.052
-228.742	226.346	0.161	0.260
-227.727	800.000	-0.135	0.495
-226.713	-68.518	0.062	-0.024
-225.698	-14.231	-0.188	0.120
-224.684	27.177	-0.218	0.182
-223.669	-200.000	-0.030	0.202
-222.655	263.254	-0.037	0.064
-221.640	130.642	-0.046	-0.059
-220.625	-138.711	-0.391	0.042
-219.611	296.639	-0.069	-0.126
-218.596	800.000	-0.066	-0.196
-217.582	126.430	0.124	-0.157
-216.567	125.319	-0.025	0.031
-215.552	-200.000	-0.002	0.022
-214.538	-67.422	-0.171	0.067
-213.523	-165.059	0.164	0.007
-212.509	-134.077	-0.355	0.044
-211.494	15.345	-0.399	0.311
-210.479	-94.657	-0.179	-0.048
-209.465	-19.523	-0.335	0.206
-208.450	-200.000	-0.005	-0.366
-207.436	-200.000	-0.000	0.134
-206.421	54.475	-0.046	0.044
-205.406	-200.000	0.056	-0.274
-204.392	-64.349	0.053	-0.021
-203.377	7.277	-0.282	0.209
-202.363	70.405	-0.153	0.158
-201.348	-200.000	-0.018	0.130
-200.333	174.756	0.093	0.134
-199.319	-200.000	0.044	-0.338
-198.304	-75.955	0.062	-0.022
-197.290	-200.000	0.028	-0.468
-196.275	-119.139	0.453	-0.079
-195.260	-200.000	-0.022	-0.209
-194.246	-139.219	0.235	-0.025
-193.231	-67.247	0.048	-0.019
-192.217	-154.778	-0.329	-0.022
-191.202	800.000	0.116	0.322
-190.187	340.360	-0.032	-0.062
-189.173	-200.000	0.001	-0.074
-188.158	800.000	-0.154	0.462
-187.144	751.446	0.104	0.278
-186.129	776.245	-0.112	-0.305
-185.114	-200.000	0.007	0.166
-184.100	315.917	-0.225	0.421
-183.085	-200.000	-0.005	0.076
-182.071	-52.145	0.267	0.123
-181.056	-200.000	0.006	0.227
-180.042	58.381	0.072	-0.070
-179.027	-47.943	-0.146	-0.070
-178.012	-116.386	0.113	0.021
-176.998	-136.204	-0.121	0.014
-175.983	-35.143	-0.289	0.156
-174.969	-200.000	-0.052	-0.256
-173.954	-180.074	-0.171	0.004
-172.939	167.613	-0.085	0.120
-171.925	-92.047	0.264	0.074
-170.910	-200.000	0.030	0.203
-169.896	376.221	-0.064	-0.130
-168.881	137.912	0.253	-0.329
-167.866	80.827	0.191	-0.205
-166.852	58.003	-0.009	0.008
-165.837	293.695	-0.115	0.209
-164.823	24.162	-0.175	-0.144
-163.808	-142.075	-0.363	0.036
-162.793	184.696	0.260	-0.383
-161.779	-54.267	0.294	0.132
-160.764	400.204	0.176	0.366
-159.750	-118.673	-0.190	-0.033
-158.735	-110.425	-0.200	-0.041
-157.720	222.853	-0.286	0.458
-156.706	526.229	-0.122	-0.285
-155.691	104.582	0.306	-0.357
-154.677	318.986	0.128	-0.240
-153.662	-14.834	-0.204	0.130
-152.647	104.865	-0.098	-0.115
-151.633	417.026	-0.118	0.251
-150.618	460.178	0.184	0.407
-149.604	-120.807	0.191	0.032
-148.589	-200.000	-0.009	0.152
-147.574	-200.000	0.009	0.178
-146.560	-140.558	0.513	0.053
-145.545	-200.000	0.016	0.118
-144.531	213.276	-0.188	0.295
-143.516	-5.072	0.242	0.165
-142.502	800.000	0.036	0.106
-141.487	-39.144	0.315	-0.164
-140.472	-48.142	0.166	-0.080
-139.458	-69.801	-0.280	-0.106
-138.443	-53.709	0.195	0.088
-137.429	-54.390	0.151	-0.068
-136.414	561.957	-0.143	0.343
-135.399	-200.000	-0.035	-0.447
-134.385	800.000	-0.160	-0.462
-133.370	800.000	-0.043	0.173
-132.356	285.240	-0.128	-0.229
-131.341	82.277	0.148	-0.159
-130.326	800.000	0.077	0.244
-129.312	-67.798	-0.088	0.034
-128.297	16.989	-0.095	-0.074
-127.283	79.826	0.105	-0.111
-126.268	-200.000	-0.005	0.088
-125.253	380.209	-0.076	-0.154
-124.239	-63.067	-0.138	-0.056
-123.224	-200.000	-0.003	-0.142
