DTS Sentinel unit serial number:	SN413079Multiplexer serial number:	ORYXHardware model number:	OX4-SRSoftware version number:	ORYX F/W v4.00 Oryx Data Collector v3.7.2.0data status	okinstallation	princeton_trtdifferential loss correction	single-endedforward channel	channel 4reverse channel	N/Adate	2019/09/16time	03:25:35forward acquisition time	60.00reverse acquisition time	0.00gamma	496.2192k internal	0.2320k external	0.2320temperature offset calibration	0.9974default loss term (dB/km)	0.3790temperature slope calibration	1.0000multiplexer offset coefficient	1.0000multiplexer slope coefficient	1.0000fibre end	0.00T internal ref (°C)	27.69T ext. ref 1 (°C)	10.54T ext. ref 2 (°C)	21.83length (m)	temperature (°C)	Stokes	anti-Stokes-747.200	381.908	-0.077	-0.161
-746.185	-22.204	-0.041	-0.025
-745.171	800.000	-0.010	0.039
-744.156	-12.345	0.130	-0.086
-743.142	39.488	0.246	-0.223
-742.127	413.443	0.059	0.128
-741.112	256.600	0.166	0.288
-740.098	-165.469	-0.370	0.016
-739.083	173.279	-0.178	-0.260
-738.069	363.235	-0.136	-0.276
-737.054	133.504	0.217	0.284
-736.039	26.738	-0.208	-0.176
-735.025	-98.602	0.106	-0.027
-734.010	559.817	-0.137	-0.335
-732.996	-59.921	0.118	-0.051
-731.981	358.738	0.018	0.036
-730.966	261.094	-0.055	0.097
-729.952	800.000	0.011	0.035
-728.937	-50.851	-0.310	-0.147
-727.923	-11.423	-0.217	0.144
-726.908	30.217	0.239	0.207
-725.894	-83.570	-0.108	0.035
-724.879	62.273	0.164	-0.165
-723.864	-167.767	0.209	0.008
-722.850	-24.318	-0.155	-0.093
-721.835	-35.907	-0.178	-0.097
-720.821	800.000	-0.023	-0.089
-719.806	105.584	0.243	-0.290
-718.791	-6.643	0.047	0.032
-717.777	124.279	-0.138	-0.175
-716.762	183.821	-0.174	0.260
-715.748	213.043	0.105	0.167
-714.733	-200.000	-0.008	-0.185
-713.718	92.365	-0.255	-0.290
-712.704	-4.145	-0.130	-0.091
-711.689	-114.139	-0.318	0.062
-710.675	-83.844	0.210	0.068
-709.660	36.561	0.317	-0.283
-708.645	-94.842	0.297	-0.081
-707.631	-59.611	0.124	-0.054
-706.616	16.564	-0.171	-0.137
-705.602	31.340	-0.021	0.018
-704.587	800.000	0.086	0.324
-703.572	753.652	0.116	0.315
-702.558	-153.664	-0.228	-0.016
-701.543	781.392	0.090	0.249
-700.529	-200.000	0.062	0.432
-699.514	491.604	0.128	-0.296
-698.499	-1.234	0.120	-0.086
-697.485	134.056	0.150	-0.196
-696.470	-65.212	-0.111	-0.045
-695.456	-183.384	0.200	-0.004
-694.441	183.925	0.129	0.193
-693.426	-148.413	-0.193	-0.016
-692.412	411.462	-0.051	0.110
-691.397	-200.000	0.001	0.254
-690.383	-81.573	0.392	0.130
-689.368	36.844	0.103	0.092
-688.354	-89.825	-0.124	0.037
-687.339	282.422	0.035	0.063
-686.324	-124.578	-0.473	-0.074
-685.310	-78.802	0.157	-0.054
-684.295	-121.396	-0.301	0.051
-683.281	357.841	0.206	-0.415
-682.266	-40.297	-0.195	-0.102
-681.251	796.583	-0.131	-0.363
-680.237	-130.800	0.171	-0.023
-679.222	137.961	0.113	0.149
-678.208	463.952	-0.090	0.203
-677.193	204.958	-0.121	0.189
-676.178	-54.114	0.195	0.090
-675.164	111.437	0.251	-0.305
-674.149	-44.361	-0.160	-0.081
-673.135	800.000	0.042	-0.172
-672.120	-172.175	0.152	-0.005
-671.105	-1.830	-0.144	0.102
-670.091	195.515	0.079	0.120
-669.076	317.933	-0.158	0.302
-668.062	27.372	0.200	0.170
-667.047	63.467	-0.247	0.250
-666.032	-200.000	-0.009	0.073
-665.018	-192.760	-0.326	0.003
-664.003	-56.664	-0.045	0.020
-662.989	-110.355	0.144	0.030
-661.974	-26.110	0.141	-0.084
-660.959	-64.613	0.174	-0.071
-659.945	-52.236	-0.169	0.079
-658.930	800.000	0.032	-0.131
-657.916	-142.185	0.267	-0.027
-656.901	600.958	-0.101	-0.253
-655.886	-60.582	0.217	0.093
-654.872	-97.831	-0.247	-0.064
-653.857	-19.150	0.233	-0.146
-652.843	101.639	-0.079	-0.093
-651.828	-30.589	-0.082	0.047
-650.814	-104.635	-0.311	-0.072
-649.799	139.856	-0.095	0.126
-648.784	60.237	0.114	0.114
-647.770	-132.570	-0.098	0.013
-646.755	534.741	-0.107	-0.255
-645.741	800.000	0.041	-0.117
-644.726	-200.000	-0.005	-0.175
-643.711	-61.855	0.157	-0.066
-642.697	-12.243	-0.452	0.298
-641.682	-114.609	-0.157	0.030
-640.668	-200.000	0.009	0.172
-639.653	792.129	-0.035	-0.096
-638.638	-68.821	0.316	-0.123
-637.624	-30.105	0.219	-0.126
-636.609	-26.914	-0.332	-0.195
-635.595	800.000	-0.131	-0.422
-634.580	249.734	0.122	-0.208
-633.565	800.000	-0.023	0.083
-632.551	-112.184	-0.424	-0.086
-631.536	-69.287	-0.459	0.178
-630.522	33.997	0.233	-0.204
-629.507	-55.049	0.158	-0.072
-628.492	194.247	0.183	0.280
-627.478	-93.884	-0.003	-0.001
-626.463	800.000	-0.026	0.085
-625.449	-82.288	-0.197	-0.065
-624.434	-200.000	-0.004	-0.202
-623.419	201.727	-0.099	-0.154
-622.405	-68.657	0.095	-0.037
-621.390	156.955	-0.202	-0.281
-620.376	-3.316	0.197	0.138
-619.361	-200.000	-0.089	0.652
-618.346	-97.324	-0.176	0.046
-617.332	-46.554	0.233	-0.115
-616.317	45.202	0.044	0.041
-615.303	-151.641	-0.109	0.008
-614.288	32.457	-0.369	0.321
-613.273	-38.666	0.143	0.076
-612.259	-45.365	-0.365	0.182
-611.244	104.927	0.055	0.065
-610.230	-200.000	-0.027	0.325
-609.215	237.999	-0.102	-0.170
-608.201	800.000	0.126	0.352
-607.186	800.000	0.084	0.237
-606.171	-150.552	-0.388	0.030
-605.157	-200.000	0.016	-0.198
-604.142	800.000	0.053	-0.220
-603.128	18.811	-0.214	-0.172
-602.113	-184.752	0.371	0.006
-601.098	184.725	-0.050	0.075
-600.084	55.775	-0.242	-0.236
-599.069	-200.000	0.014	-0.094
-598.055	108.929	0.297	-0.357
-597.040	-200.000	-0.030	-0.231
-596.025	800.000	0.023	-0.072
-595.011	-52.644	0.159	0.074
-593.996	-200.000	0.024	0.345
-592.982	-124.107	0.049	-0.008
-591.967	-42.272	0.355	0.183
-590.952	-112.588	0.415	0.083
-589.938	139.076	-0.085	0.113
-588.923	163.151	0.077	0.109
-587.909	-38.687	0.412	0.218
-586.894	474.613	0.107	0.243
-585.879	-34.257	-0.193	-0.106
-584.865	-171.197	0.393	0.013
-583.850	-67.403	-0.202	-0.080
-582.836	-200.000	0.044	-0.209
-581.821	-146.506	0.134	0.012
-580.806	77.876	-0.222	0.238
-579.792	72.670	-0.123	0.129
-578.777	-138.997	0.270	-0.029
-577.763	-14.094	-0.272	-0.176
-576.748	0.248	0.160	0.114
-575.733	-65.674	0.228	-0.092
-574.719	29.872	0.150	0.128
-573.704	800.000	-0.081	-0.226
-572.690	146.528	-0.026	0.035
-571.675	35.449	0.063	0.056
-570.661	800.000	-0.077	0.264
-569.646	62.694	0.128	-0.129
-568.631	83.375	-0.119	0.130
-567.617	-66.242	-0.205	0.082
-566.602	-163.821	-0.274	0.013
-565.588	15.615	-0.243	-0.192
-564.573	84.889	-0.158	-0.174
-563.558	16.738	0.166	-0.132
-562.544	-153.644	-0.222	0.015
-561.529	148.880	0.031	-0.042
-560.515	-102.039	-0.368	-0.089
-559.500	19.654	-0.290	-0.234
-558.485	800.000	0.060	0.201
-557.471	3.388	0.024	-0.017
-556.456	61.206	-0.025	0.025
-555.442	-39.644	-0.294	-0.155
-554.427	643.757	-0.082	-0.211
-553.412	215.624	0.222	0.354
-552.398	99.261	-0.090	0.105
-551.383	400.781	-0.097	-0.205
-550.369	800.000	0.064	-0.254
-549.354	-84.497	-0.213	0.068
-548.339	-110.725	0.182	-0.038
-547.325	454.392	-0.022	0.049
-546.310	18.046	-0.147	0.118
-545.296	191.881	-0.180	0.272
-544.281	88.663	-0.128	-0.143
-543.266	-2.177	0.183	0.129
-542.252	-200.000	0.001	0.250
-541.237	-26.441	-0.137	-0.081
-540.223	528.804	-0.054	-0.128
-539.208	108.610	-0.240	-0.287
-538.193	800.000	-0.094	-0.284
-537.179	106.305	0.085	-0.101
-536.164	-49.690	-0.325	0.155
-535.150	169.505	0.096	-0.138
-534.135	-115.760	0.276	0.052
-533.121	800.000	-0.068	0.206
-532.106	800.000	0.100	-0.370
-531.091	-18.107	0.204	0.128
-530.077	562.240	0.087	0.211
-529.062	-176.115	0.333	0.009
-528.048	264.253	0.223	-0.389
-527.033	137.917	-0.204	0.268
-526.018	-136.918	-0.163	0.019
-525.004	453.772	-0.232	-0.514
-523.989	113.077	-0.194	0.236
-522.975	-200.000	0.017	0.264
-521.960	-200.000	-0.010	-0.283
-520.945	-80.981	0.370	0.123
-519.931	215.741	-0.092	0.146
-518.916	-200.000	-0.064	-0.378
-517.902	-123.715	0.318	-0.050
-516.887	7.052	-0.141	0.105
-515.872	767.823	-0.018	-0.050
-514.858	800.000	0.091	-0.319
-513.843	-75.976	-0.101	-0.036
-512.829	800.000	-0.035	0.103
-511.814	-65.236	0.380	-0.154
-510.799	168.540	-0.274	0.392
-509.785	-200.000	0.014	-0.090
-508.770	-77.134	-0.206	-0.072
-507.756	-101.391	0.264	-0.064
-506.741	74.193	-0.053	-0.056
-505.726	503.894	-0.070	-0.162
-504.712	73.859	0.294	0.309
-503.697	-10.320	0.224	-0.149
-502.683	800.000	0.035	0.103
-501.668	30.369	-0.379	0.324
-500.653	-71.777	0.155	-0.058
-499.639	-200.000	-0.046	-0.318
-498.624	187.220	0.075	-0.112
-497.610	-27.619	-0.128	0.075
-496.595	-15.461	-0.246	-0.157
-495.581	12.380	0.140	-0.108
-494.566	40.740	-0.232	0.209
-493.551	-200.000	-0.002	-0.009
-492.537	-200.000	0.012	-0.349
-491.522	-200.000	-0.048	-0.262
-490.508	-137.199	-0.285	0.033
-489.493	-97.162	0.297	-0.078
-488.478	384.470	0.008	0.016
-487.464	-92.573	-0.220	0.062
-486.449	297.380	0.223	-0.410
-485.435	800.000	-0.048	-0.141
-484.420	-69.240	0.173	0.066
-483.405	-38.959	0.106	-0.056
-482.391	237.933	0.134	0.223
-481.376	-200.000	-0.029	0.271
-480.362	-115.314	-0.173	0.033
-479.347	-6.192	-0.255	-0.174
-478.332	28.600	-0.169	0.143
-477.318	-19.701	0.068	-0.042
-476.303	-200.000	0.047	-0.294
-475.289	-50.287	-0.068	0.032
-474.274	-31.450	-0.202	-0.114
-473.259	210.654	-0.064	-0.101
-472.245	-136.821	0.072	-0.008
-471.230	-160.895	-0.258	0.014
-470.216	305.185	-0.086	-0.161
-469.201	-200.000	0.036	-0.187
-468.186	-200.000	-0.001	0.167
-467.172	316.247	0.042	-0.079
-466.157	32.999	-0.117	-0.101
-465.143	-108.054	-0.089	0.019
-464.128	-200.000	-0.065	0.313
-463.113	181.031	0.080	-0.118
-462.099	283.222	0.099	0.179
-461.084	-52.777	0.116	0.054
-460.070	800.000	0.040	0.114
-459.055	-78.943	0.264	0.090
-458.040	65.564	-0.079	-0.080
-457.026	20.426	-0.136	0.110
-456.011	-170.232	-0.312	0.011
-454.997	36.456	-0.352	0.310
-453.982	117.781	-0.272	-0.335
-452.968	-138.158	0.529	-0.059
-451.953	208.644	-0.078	0.122
-450.938	-122.567	0.152	-0.025
-449.924	-54.609	-0.220	0.099
-448.909	800.000	-0.090	0.322
-447.895	-124.881	-0.410	0.063
-446.880	20.668	0.092	0.075
-445.865	800.000	-0.044	0.180
-444.851	-116.607	-0.127	-0.023
-443.836	-16.124	-0.164	-0.104
-442.822	-200.000	-0.007	0.122
-441.807	-144.427	-0.112	0.010
-440.792	-22.020	0.374	-0.227
-439.778	352.886	-0.085	-0.169
-438.763	-82.257	0.424	-0.138
-437.749	-119.777	0.264	0.045
-436.734	-200.000	-0.035	-0.179
-435.719	120.726	-0.085	-0.105
-434.705	-112.929	-0.247	-0.049
-433.690	-84.029	-0.319	0.101
-432.676	56.569	0.200	0.194
-431.661	800.000	-0.044	0.175
-430.646	238.471	-0.137	-0.227
-429.632	265.354	-0.134	0.234
-428.617	800.000	-0.077	0.314
-427.603	-142.932	-0.303	0.029
-426.588	800.000	-0.145	0.412
-425.573	330.947	0.108	0.207
-424.559	-113.869	-0.325	-0.063
-423.544	171.561	0.185	-0.265
-422.530	184.745	0.124	-0.184
-421.515	-151.241	0.185	0.014
-420.500	292.789	0.132	0.240
-419.486	-99.608	-0.263	0.066
-418.471	-63.520	-0.115	-0.047
-417.457	-153.185	0.223	0.016
-416.442	-200.000	-0.109	0.544
-415.428	608.618	0.077	-0.193
-414.413	-109.897	0.230	0.048
-413.398	-52.263	-0.251	0.116
-412.384	-200.000	-0.013	-0.080
-411.369	-137.379	0.346	-0.039
-410.355	-111.636	-0.296	-0.060
-409.340	361.734	-0.151	-0.303
-408.325	-200.000	-0.048	0.433
-407.311	-200.000	-0.014	-0.147
-406.296	107.949	0.167	-0.199
-405.282	404.260	-0.088	-0.185
-404.267	373.819	0.050	0.102
-403.252	-71.048	-0.129	0.049
-402.238	-85.947	0.429	-0.133
-401.223	-103.075	0.199	-0.047
-400.209	408.118	-0.084	0.177
-399.194	420.465	0.082	-0.174
-398.179	-167.685	-0.214	-0.008
-397.165	0.987	0.043	-0.031
-396.150	-97.450	-0.298	0.077
-395.136	7.116	-0.077	-0.057
-394.121	135.861	-0.240	-0.311
-393.106	85.344	0.153	0.168
-392.092	-20.871	-0.152	0.093
-391.077	800.000	-0.088	0.346
-390.063	-200.000	0.029	0.315
-389.048	-157.289	0.164	-0.010
-388.033	276.720	-0.145	-0.258
-387.019	15.116	0.228	0.178
-386.004	800.000	0.052	0.165
-384.990	-15.465	-0.142	0.090
-383.975	-67.306	-0.372	0.146
-382.960	-71.225	0.204	0.076
-381.946	-51.853	-0.073	0.034
-380.931	-66.832	0.282	-0.111
-379.917	-2.011	-0.349	-0.244
-378.902	362.429	0.116	-0.232
-377.888	232.736	-0.065	-0.107
-376.873	30.753	-0.035	-0.030
-375.858	-200.000	-0.022	0.191
-374.844	446.512	-0.006	0.014
-373.829	-73.408	-0.149	0.054
-372.815	800.000	0.105	-0.289
-371.800	-88.966	-0.076	0.023
-370.785	40.684	-0.078	0.070
-369.771	-200.000	0.003	0.154
-368.756	-200.000	0.067	-0.296
-367.742	13.816	-0.309	-0.239
-366.727	160.027	-0.052	0.072
-365.712	475.834	-0.152	0.342
-364.698	-200.000	-0.002	0.009
-363.683	-200.000	-0.000	-0.405
-362.669	-123.603	0.125	0.020
-361.654	800.000	-0.101	0.336
-360.639	-122.943	0.409	0.066
-359.625	800.000	0.035	-0.103
-358.610	-151.281	-0.160	0.012
-357.596	-200.000	0.040	-0.370
-356.581	-123.629	0.130	-0.021
-355.566	108.959	0.090	-0.108
-354.552	396.702	-0.115	0.238
-353.537	-181.541	0.060	0.001
-352.523	-40.131	-0.143	-0.074
-351.508	-200.000	0.000	-0.078
-350.493	-33.887	0.394	-0.216
-349.479	-66.247	-0.080	0.032
-348.464	-22.103	0.157	-0.095
-347.450	800.000	-0.013	-0.045
-346.435	-200.000	0.017	0.132
-345.420	800.000	-0.053	-0.198
-344.406	86.166	-0.078	-0.085
-343.391	712.799	-0.154	0.405
-342.377	285.333	-0.116	0.209
-341.362	126.613	0.198	0.250
-340.348	51.061	-0.134	0.127
-339.333	-85.251	-0.209	-0.065
-338.318	-138.494	0.212	0.023
-337.304	-92.956	0.077	-0.022
-336.289	-98.827	-0.309	0.078
-335.275	-200.000	-0.027	0.175
-334.260	-32.993	0.304	-0.168
-333.245	-122.694	-0.153	-0.025
-332.231	-77.618	-0.315	-0.109
-331.216	-57.123	-0.076	-0.033
-330.202	-167.784	0.059	-0.002
-329.187	-3.029	0.121	-0.084
-328.172	333.390	0.075	0.145
-327.158	557.235	-0.117	-0.280
-326.143	-200.000	-0.016	0.296
-325.129	237.481	0.210	-0.347
-324.114	-72.982	0.245	-0.090
-323.099	-200.000	0.012	0.245
-322.085	-200.000	0.001	0.010
-321.070	-63.417	-0.198	0.081
-320.056	210.960	0.087	0.136
-319.041	182.736	0.035	0.052
-318.026	-79.365	0.311	0.105
-317.012	89.329	-0.159	0.177
-315.997	-7.590	0.159	0.107
-314.983	588.452	-0.159	0.389
-313.968	-62.520	-0.259	0.107
-312.953	127.041	-0.081	0.102
-311.939	19.483	0.197	-0.157
-310.924	-50.255	0.207	-0.098
-309.910	0.626	-0.069	0.049
-308.895	800.000	-0.068	-0.255
-307.880	-187.153	-0.200	0.003
-306.866	-69.030	-0.294	-0.113
-305.851	-200.000	0.055	-0.393
-304.837	251.228	-0.031	-0.052
-303.822	-200.000	-0.003	-0.018
-302.807	-85.369	0.263	-0.082
-301.793	-34.633	-0.342	0.186
-300.778	104.084	0.329	0.384
-299.764	477.354	0.116	-0.262
-298.749	10.775	0.275	-0.208
-297.735	-152.551	0.032	0.002
-296.720	800.000	0.047	0.146
-295.705	-161.667	0.325	0.016
-294.691	-200.000	0.022	-0.117
-293.676	166.951	0.086	-0.121
-292.662	-200.000	0.038	-0.434
-291.647	7.837	0.122	-0.091
-290.632	-200.000	-0.009	0.091
-289.618	-59.150	-0.246	-0.105
-288.603	135.565	0.188	-0.243
-287.589	-200.000	0.001	0.228
-286.574	-200.000	0.026	-0.122
-285.559	-18.363	0.271	0.168
-284.545	-48.588	-0.086	-0.041
-283.530	-121.828	0.166	-0.027
-282.516	-200.000	0.009	0.238
-281.501	-57.848	0.154	-0.067
-280.486	-200.000	-0.030	-0.133
-279.472	369.451	0.106	0.213
-278.457	-39.416	-0.240	-0.125
-277.443	63.690	-0.146	0.146
-276.428	-200.000	-0.004	0.265
-275.413	-163.467	0.255	0.012
-274.399	-106.539	-0.265	0.059
-273.384	440.226	-0.184	0.400
-272.370	-200.000	0.002	-0.124
-271.355	-200.000	0.002	0.301
-270.340	-70.862	0.371	-0.139
-269.326	-34.498	0.277	-0.150
-268.311	-38.702	0.298	0.156
-267.297	90.985	-0.190	0.212
-266.282	-200.000	0.018	0.173
-265.267	-200.000	-0.003	0.037
-264.253	-200.000	0.031	0.221
-263.238	-200.000	-0.016	-0.146
-262.224	-12.157	0.141	0.092
-261.209	-33.015	0.377	0.208
-260.195	65.157	0.074	-0.074
-259.180	800.000	0.096	-0.303
-258.165	-153.153	0.108	0.008
-257.151	-200.000	0.017	0.134
-256.136	-35.483	-0.153	-0.082
-255.122	-200.000	0.005	-0.087
-254.107	200.526	0.201	-0.306
-253.092	-148.225	0.147	0.012
-252.078	675.867	-0.099	-0.256
-251.063	-72.975	0.307	-0.112
-250.049	-55.943	-0.248	0.110
-249.034	-103.136	-0.238	-0.056
-248.019	33.007	-0.042	-0.036
-247.005	22.591	0.080	-0.065
-245.990	-82.985	0.295	0.094
-244.976	92.689	-0.137	0.153
-243.961	-145.222	0.095	0.009
-242.946	33.269	0.288	-0.248
-241.932	800.000	-0.053	-0.184
-240.917	295.796	-0.125	-0.226
-239.903	64.473	0.159	0.159
-238.888	-101.283	0.408	0.099
-237.873	-44.967	-0.137	0.068
-236.859	-200.000	-0.030	0.317
-235.844	-126.238	0.539	0.080
-234.830	-108.790	0.245	-0.052
-233.815	-200.000	-0.029	-0.162
-232.800	231.680	-0.260	-0.423
-231.786	-100.246	0.233	0.057
-230.771	389.667	0.045	0.092
-229.757	-42.650	-0.172	0.087
-228.742	-149.660	0.430	-0.034
-227.727	251.014	-0.078	-0.132
-226.713	284.078	-0.140	0.250
-225.698	-24.479	0.147	-0.087
-224.684	154.861	0.149	-0.202
-223.669	-200.000	0.032	0.250
-222.655	-3.498	-0.417	0.288
-221.640	202.726	-0.092	0.141
-220.625	-200.000	0.048	0.000
-219.611	-200.000	0.039	-0.377
-218.596	-128.995	0.096	-0.013
-217.582	6.267	0.105	-0.077
-216.567	737.880	0.133	0.353
-215.552	59.481	0.106	0.104
-214.538	264.580	-0.040	0.069
-213.523	-77.282	0.264	-0.091
-212.509	50.338	-0.224	0.210
-211.494	593.597	-0.077	-0.189
-210.479	11.397	0.263	-0.200
-209.465	759.730	0.094	-0.252
-208.450	33.195	-0.132	0.113
-207.436	-41.580	-0.287	-0.146
-206.421	-38.241	-0.282	-0.148
-205.406	-200.000	-0.020	0.243
-204.392	379.422	-0.075	0.152
-203.377	741.314	-0.089	0.237
-202.363	-200.000	0.005	0.119
-201.348	482.399	-0.196	0.440
-200.333	800.000	-0.062	0.260
-199.319	-117.674	0.204	0.036
-198.304	-200.000	0.057	0.306
-197.290	5.178	0.405	0.296
-196.275	-78.363	0.215	0.073
-195.260	364.243	0.076	0.151
-194.246	-6.442	-0.172	-0.116
-193.231	-146.985	-0.059	0.005
-192.217	-115.208	-0.095	0.018
-191.202	39.177	0.141	0.125
-190.187	-69.437	-0.190	0.072
-189.173	-200.000	-0.015	-0.133
-188.158	-38.440	0.264	-0.138
-187.144	278.370	0.058	-0.103
-186.129	-200.000	-0.010	0.050
-185.114	-200.000	-0.032	0.192
-184.100	800.000	-0.085	-0.312
-183.085	-54.513	-0.158	-0.071
-182.071	-112.618	0.185	0.036
-181.056	353.910	-0.033	0.064
-180.042	-179.289	-0.221	-0.005
-179.027	-94.701	0.268	-0.072
-178.012	1.735	-0.216	-0.154
-176.998	474.698	0.064	0.143
-175.983	-60.212	0.168	-0.071
-174.969	267.027	0.061	-0.106
-173.954	93.751	-0.108	-0.121
-172.939	-22.246	0.102	-0.061
-171.925	-200.000	0.024	-0.172
-170.910	91.218	0.334	0.371
-169.896	-10.336	0.173	0.113
-168.881	153.276	0.163	0.221
-167.866	16.782	0.060	0.047
-166.852	-5.851	-0.180	0.122
-165.837	800.000	0.147	-0.454
-164.823	92.338	0.078	-0.087
-163.808	-42.980	-0.257	0.129
-162.793	346.623	0.143	-0.279
-161.779	-86.415	0.314	0.096
-160.764	-114.717	-0.344	0.065
-159.750	-6.723	0.069	-0.046
-158.735	800.000	-0.024	0.093
-157.720	123.712	-0.104	-0.129
-156.706	-128.624	0.253	0.035
-155.691	800.000	-0.038	-0.143
-154.677	43.683	-0.045	-0.041
-153.662	-3.879	0.148	-0.102
-152.647	244.560	-0.242	-0.401
-151.633	606.018	-0.170	-0.418
-150.618	-10.478	0.135	0.088
-149.604	-200.000	0.013	-0.113
-148.589	-32.796	0.272	0.150
-147.574	-200.000	0.010	-0.149
-146.560	279.169	0.048	0.084
-145.545	-200.000	0.027	0.252
-144.531	-83.952	0.076	-0.024
-143.516	27.039	-0.095	-0.079
-142.502	42.072	0.125	0.112
-141.487	-83.113	0.246	-0.078
-140.472	48.066	-0.275	-0.254
-139.458	-90.767	0.122	0.035
-138.443	-83.653	-0.138	-0.043
-137.429	315.337	-0.131	-0.245
-136.414	-200.000	-0.026	-0.273
-135.399	94.566	-0.074	0.083
-134.385	800.000	-0.070	0.215
-133.370	568.742	0.020	-0.047
-132.356	193.639	-0.111	-0.166
-131.341	16.056	0.195	0.152
-130.326	84.024	-0.117	0.126
-129.312	-112.286	0.189	0.037
-128.297	-105.186	0.468	0.106
-127.283	129.871	0.018	0.023
-126.268	-200.000	0.033	-0.172
-125.253	-200.000	-0.050	0.338
-124.239	590.984	0.059	-0.143
-123.224	-64.259	-0.121	0.049
-122.210	-149.294	0.455	0.036
-121.195	168.396	-0.140	-0.197
