DTS Sentinel unit serial number:	SN413079Multiplexer serial number:	ORYXHardware model number:	OX4-SRSoftware version number:	ORYX F/W v4.00 Oryx Data Collector v3.7.2.0data status	okinstallation	princeton_trtdifferential loss correction	single-endedforward channel	channel 4reverse channel	N/Adate	2019/09/15time	05:29:34forward acquisition time	60.00reverse acquisition time	0.00gamma	496.2192k internal	0.2311k external	0.2311temperature offset calibration	1.0035default loss term (dB/km)	0.3790temperature slope calibration	1.0000multiplexer offset coefficient	1.0000multiplexer slope coefficient	1.0000fibre end	0.00T internal ref (°C)	30.56T ext. ref 1 (°C)	4.77T ext. ref 2 (°C)	25.71length (m)	temperature (°C)	Stokes	anti-Stokes-747.200	123.838	0.196	0.249
-746.185	45.020	0.155	0.145
-745.171	800.000	-0.079	0.276
-744.156	-169.388	-0.137	0.005
-743.142	-15.976	0.145	0.094
-742.127	86.716	-0.041	0.046
-741.112	-200.000	0.004	-0.161
-740.098	457.697	-0.080	0.180
-739.083	-200.000	0.032	-0.336
-738.069	710.430	-0.116	0.310
-737.054	2.889	-0.224	-0.165
-736.039	-99.854	-0.434	0.110
-735.025	-200.000	-0.034	0.162
-734.010	44.979	-0.173	-0.162
-732.996	-152.680	-0.215	-0.016
-731.981	-163.942	-0.090	-0.004
-730.966	500.686	-0.093	-0.219
-729.952	-101.563	0.191	-0.047
-728.937	69.735	0.199	0.208
-727.923	-200.000	0.029	-0.296
-726.908	-200.000	-0.022	0.163
-725.894	468.017	-0.173	-0.394
-724.879	-83.361	0.244	-0.079
-723.864	800.000	-0.084	-0.278
-722.850	509.494	-0.153	-0.361
-721.835	281.707	-0.113	-0.205
-720.821	476.706	-0.165	-0.378
-719.806	-200.000	-0.040	-0.332
-718.791	-38.224	-0.330	-0.177
-717.777	442.969	-0.062	0.137
-716.762	514.131	-0.012	0.027
-715.748	-131.615	-0.305	0.041
-714.733	241.912	-0.079	-0.134
-713.718	800.000	-0.035	-0.104
-712.704	-95.035	-0.051	-0.014
-711.689	-200.000	0.015	-0.066
-710.675	149.069	0.317	-0.435
-709.660	-121.248	-0.246	0.042
-708.645	-200.000	0.037	0.251
-707.631	576.327	-0.110	-0.272
-706.616	-200.000	-0.013	0.077
-705.602	-146.160	0.074	0.007
-704.587	572.575	-0.062	-0.152
-703.572	-200.000	0.004	-0.280
-702.558	-109.905	-0.307	-0.065
-701.543	132.419	0.161	-0.210
-700.529	346.195	0.056	-0.111
-699.514	386.569	-0.192	0.402
-698.499	-140.637	0.099	-0.010
-697.485	-200.000	0.006	-0.168
-696.470	12.536	0.230	0.180
-695.456	88.670	-0.116	-0.130
-694.441	55.397	0.431	-0.423
-693.426	800.000	0.099	-0.321
-692.412	-143.393	0.333	-0.032
-691.397	-0.331	0.136	-0.098
-690.383	-94.172	0.510	0.142
-689.368	-200.000	0.013	0.511
-688.354	800.000	-0.050	0.178
-687.339	-200.000	0.059	-0.342
-686.324	-72.063	0.421	-0.158
-685.310	-82.965	-0.162	-0.053
-684.295	-178.538	0.157	-0.004
-683.281	-160.651	-0.249	-0.013
-682.266	70.715	-0.066	-0.069
-681.251	-5.014	0.197	0.137
-680.237	-85.680	-0.322	-0.101
-679.222	631.604	-0.068	0.176
-678.208	-200.000	-0.007	0.321
-677.193	149.523	0.067	-0.092
-676.178	800.000	-0.020	-0.081
-675.164	-37.345	-0.342	0.185
-674.149	-38.361	-0.260	-0.139
-673.135	800.000	-0.059	0.226
-672.120	-200.000	0.004	-0.244
-671.105	-200.000	-0.004	0.367
-670.091	116.477	0.153	-0.190
-669.076	800.000	-0.101	-0.302
-668.062	300.156	-0.239	-0.447
-667.047	-26.358	-0.091	0.054
-666.032	-150.482	-0.409	0.032
-665.018	116.734	-0.139	-0.172
-664.003	-200.000	-0.000	-0.023
-662.989	-200.000	0.001	-0.038
-661.974	189.275	-0.277	-0.420
-660.959	43.023	-0.236	0.218
-659.945	-139.550	-0.218	-0.024
-658.930	-82.484	-0.141	0.046
-657.916	-200.000	0.065	-0.310
-656.901	-200.000	0.071	-0.321
-655.886	-154.827	0.023	0.002
-654.872	-95.171	-0.409	0.112
-653.857	-200.000	-0.048	-0.239
-652.843	-101.424	0.184	0.045
-651.828	-37.558	-0.040	-0.022
-650.814	88.603	0.147	-0.166
-649.799	-82.289	-0.559	0.184
-648.784	-66.970	-0.366	0.146
-647.770	-60.167	0.106	0.046
-646.755	65.390	-0.132	-0.135
-645.741	347.489	-0.089	-0.177
-644.726	-200.000	0.002	0.033
-643.711	-8.593	0.093	0.063
-642.697	-200.000	-0.008	0.124
-641.682	-117.117	-0.220	-0.041
-640.668	800.000	0.065	0.196
-639.653	-125.530	-0.108	0.017
-638.638	55.027	0.182	0.178
-637.624	223.132	-0.208	-0.339
-636.609	-69.927	-0.169	0.065
-635.595	-27.233	0.030	-0.018
-634.580	-29.652	0.090	-0.052
-633.565	-196.345	-0.017	-0.000
-632.551	-86.109	0.283	-0.088
-631.536	-200.000	0.006	0.140
-630.522	800.000	0.095	-0.403
-629.507	264.756	-0.113	0.200
-628.492	6.357	0.330	-0.247
-627.478	144.300	0.017	-0.024
-626.463	-142.544	0.312	0.031
-625.449	338.280	0.085	0.168
-624.434	-5.804	0.191	0.132
-623.419	156.117	-0.101	-0.141
-622.405	89.198	0.048	-0.054
-621.390	46.043	0.124	-0.116
-620.376	-167.441	0.283	0.011
-619.361	-76.178	0.265	0.094
-618.346	-26.322	0.104	-0.062
-617.332	-67.859	-0.105	-0.041
-616.317	102.894	-0.175	0.207
-615.303	424.927	-0.043	-0.093
-614.288	-96.141	-0.395	0.106
-613.273	-66.377	-0.102	-0.041
-612.259	-113.871	0.115	0.023
-611.244	-142.421	-0.206	0.020
-610.230	-93.340	0.273	0.077
-609.215	663.422	-0.014	0.037
-608.201	155.088	0.184	-0.255
-607.186	-65.489	0.294	-0.119
-606.171	-41.321	-0.264	-0.137
-605.157	17.164	-0.180	-0.144
-604.142	-18.740	-0.137	-0.086
-603.128	55.450	0.120	0.117
-602.113	103.786	-0.147	0.174
-601.098	-200.000	0.036	-0.401
-600.084	800.000	-0.084	-0.255
-599.069	317.909	0.106	0.203
-598.055	-106.787	-0.118	-0.026
-597.040	120.833	0.104	-0.131
-596.025	29.416	-0.141	0.121
-595.011	-61.899	-0.141	0.059
-593.996	-27.027	-0.230	0.135
-592.982	-88.201	0.128	-0.039
-591.967	294.441	-0.071	-0.131
-590.952	-94.795	0.180	0.049
-589.938	240.342	0.034	0.057
-588.923	-200.000	-0.020	-0.153
-587.909	800.000	-0.088	-0.288
-586.894	242.117	-0.153	0.259
-585.879	745.597	-0.116	0.316
-584.865	800.000	0.084	0.246
-583.850	296.576	0.105	0.194
-582.836	800.000	0.023	-0.083
-581.821	50.090	-0.268	-0.255
-580.806	-71.345	0.245	-0.093
-579.792	-44.037	-0.070	-0.035
-578.777	44.805	0.101	-0.094
-577.763	-60.929	0.331	0.141
-576.748	-124.157	0.104	-0.016
-575.733	-200.000	-0.032	0.287
-574.719	-61.091	-0.323	0.137
-573.704	-147.373	-0.139	0.012
-572.690	447.824	-0.138	-0.307
-571.675	-200.000	-0.015	0.153
-570.661	800.000	0.057	-0.246
-569.646	537.699	-0.042	-0.101
-568.631	445.001	-0.120	-0.266
-567.617	-5.975	-0.184	0.127
-566.602	-166.228	-0.116	0.005
-565.588	213.869	-0.068	-0.108
-564.573	25.019	0.116	-0.097
-563.558	154.210	-0.132	-0.183
-562.544	331.610	-0.228	-0.444
-561.529	104.008	-0.227	-0.269
-560.515	309.295	-0.147	0.278
-559.500	-200.000	0.014	-0.221
-558.485	12.592	-0.075	0.058
-557.471	317.574	-0.167	-0.318
-556.456	-4.083	-0.343	-0.239
-555.442	371.023	0.083	-0.169
-554.427	19.399	0.053	0.043
-553.412	800.000	0.072	-0.212
-552.398	479.156	-0.075	0.171
-551.383	-200.000	-0.002	0.091
-550.369	-61.748	-0.164	-0.069
-549.354	-52.709	0.161	0.075
-548.339	-178.695	0.290	0.007
-547.325	122.796	-0.160	0.202
-546.310	-114.546	-0.321	-0.062
-545.296	-83.270	0.222	-0.072
-544.281	800.000	0.063	-0.221
-543.266	800.000	0.045	-0.166
-542.252	-132.563	0.129	-0.017
-541.237	-76.183	-0.220	0.078
-540.223	269.440	-0.053	-0.094
-539.208	131.145	0.104	-0.134
-538.193	167.846	0.134	0.192
-537.179	-96.165	0.076	0.020
-536.164	84.105	0.122	-0.134
-535.150	128.005	-0.125	0.161
-534.135	-200.000	0.038	0.193
-533.121	-45.926	-0.098	0.049
-532.106	800.000	-0.106	-0.431
-531.091	161.497	0.133	0.188
-530.077	-55.480	0.287	0.129
-529.062	-200.000	-0.031	0.208
-528.048	-44.046	-0.302	0.153
-527.033	-84.262	0.318	-0.101
-526.018	-163.999	-0.303	-0.014
-525.004	800.000	0.128	0.474
-523.989	72.807	0.092	0.097
-522.975	-49.605	0.161	0.077
-521.960	-16.958	0.145	-0.092
-520.945	-49.189	0.229	-0.110
-519.931	-40.022	0.287	-0.150
-518.916	-128.501	-0.069	-0.010
-517.902	368.023	-0.127	0.258
-516.887	55.996	0.084	-0.082
-515.872	186.931	-0.154	-0.231
-514.858	-31.948	-0.030	-0.017
-513.843	56.040	-0.053	-0.052
-512.829	-151.259	-0.168	0.013
-511.814	-56.690	0.080	-0.036
-510.799	800.000	0.161	-0.514
-509.785	-68.983	0.138	0.053
-508.770	-52.749	-0.029	0.014
-507.756	-76.862	-0.214	-0.075
-506.741	-28.251	0.036	-0.021
-505.726	77.023	0.210	-0.225
-504.712	-172.681	0.049	0.002
-503.697	-118.070	0.306	-0.055
-502.683	-168.502	-0.029	-0.001
-501.668	800.000	-0.067	0.227
-500.653	-63.410	-0.188	-0.078
-499.639	-200.000	-0.080	0.418
-498.624	-9.420	-0.164	0.110
-497.610	152.424	0.117	-0.161
-496.595	-46.849	0.191	0.094
-495.581	-22.223	-0.168	0.103
-494.566	-95.167	-0.282	0.076
-493.551	13.961	0.122	0.095
-492.537	800.000	-0.087	-0.348
-491.522	-12.698	-0.149	-0.098
-490.508	-65.669	0.444	0.179
-489.493	-200.000	0.057	-0.351
-488.478	-93.939	0.261	0.072
-487.464	-133.467	-0.381	0.048
-486.449	156.786	-0.252	-0.351
-485.435	-200.000	-0.018	-0.084
-484.420	564.330	-0.228	-0.554
-483.405	351.786	-0.128	0.255
-482.391	-200.000	0.181	0.000
-481.376	-11.402	-0.101	0.067
-480.362	-200.000	-0.030	-0.184
-479.347	67.135	0.411	-0.420
-478.332	156.140	0.104	-0.145
-477.318	-192.344	-0.238	0.002
-476.303	254.393	-0.088	-0.151
-475.289	-49.877	0.315	0.150
-474.274	125.815	-0.166	0.210
-473.259	-161.144	-0.159	0.008
-472.245	4.461	-0.302	0.223
-471.230	-47.401	-0.070	0.034
-470.216	102.525	0.129	-0.151
-469.201	23.961	0.068	-0.056
-468.186	47.092	-0.352	0.329
-467.172	-50.104	0.342	0.163
-466.157	296.114	-0.069	-0.127
-465.143	74.187	0.162	0.171
-464.128	361.973	0.036	-0.073
-463.113	166.312	0.155	0.220
-462.099	-88.871	-0.083	0.025
-461.084	-100.225	-0.258	-0.064
-460.070	800.000	0.016	-0.048
-459.055	540.761	0.048	0.114
-458.040	-200.000	0.049	0.244
-457.026	17.040	0.092	0.074
-456.011	800.000	0.079	-0.311
-454.997	286.853	0.097	-0.177
-453.982	745.386	0.079	-0.213
-452.968	89.660	0.084	-0.094
-451.953	412.174	0.106	0.226
-450.938	-40.013	-0.029	-0.015
-449.924	667.879	-0.037	-0.096
-448.909	-179.319	-0.295	0.007
-447.895	-200.000	0.021	0.126
-446.880	593.146	0.040	-0.099
-445.865	-136.516	-0.419	0.049
-444.851	800.000	-0.084	-0.324
-443.836	-17.444	0.115	-0.073
-442.822	-200.000	-0.007	0.391
-441.807	341.797	0.258	0.506
-440.792	-200.000	0.111	0.000
-439.778	-200.000	-0.062	-0.288
-438.763	47.324	-0.132	-0.124
-437.749	411.966	0.067	-0.142
-436.734	-115.354	-0.259	0.049
-435.719	-11.578	0.095	-0.063
-434.705	26.546	0.207	-0.174
-433.690	800.000	-0.065	-0.211
-432.676	-42.750	0.289	-0.147
-431.661	-36.651	0.350	0.189
-430.646	37.649	-0.163	-0.145
-429.632	138.832	0.070	-0.092
-428.617	11.522	0.061	0.047
-427.603	-91.652	0.245	0.070
-426.588	-80.006	-0.129	0.043
-425.573	-200.000	-0.018	-0.358
-424.559	-200.000	0.031	-0.393
-423.544	-180.682	-0.156	-0.003
-422.530	-64.458	-0.070	0.028
-421.515	383.196	-0.106	0.218
-420.500	10.716	0.281	0.215
-419.486	800.000	-0.013	0.043
-418.471	-200.000	-0.000	0.126
-417.457	-14.166	0.306	0.197
-416.442	-200.000	0.001	0.117
-415.428	66.254	0.196	-0.200
-414.413	24.317	0.222	0.184
-413.398	361.349	-0.076	0.152
-412.384	306.614	0.040	0.075
-411.369	-121.305	-0.087	-0.014
-410.355	157.213	0.144	0.200
-409.340	-200.000	0.049	0.229
-408.325	214.591	-0.098	0.156
-407.311	-146.368	0.095	0.008
-406.296	543.361	-0.049	0.117
-405.282	800.000	-0.146	-0.404
-404.267	-156.366	0.360	0.023
-403.252	50.370	-0.126	-0.120
-402.238	-99.289	-0.112	0.028
-401.223	152.834	0.123	-0.169
-400.209	800.000	-0.031	0.124
-399.194	-200.000	0.005	-0.297
-398.179	-100.859	-0.075	0.018
-397.165	800.000	-0.012	0.040
-396.150	800.000	0.056	0.203
-395.136	112.774	-0.217	0.264
-394.121	-200.000	-0.036	-0.253
-393.106	271.016	0.101	0.178
-392.092	-99.999	-0.469	0.117
-391.077	19.870	-0.110	0.089
-390.063	800.000	-0.055	-0.210
-389.048	11.149	0.108	0.083
-388.033	24.677	-0.221	-0.183
-387.019	215.351	0.088	-0.140
-386.004	-45.377	0.132	-0.066
-384.990	354.630	-0.153	0.304
-383.975	-60.431	-0.080	-0.034
-382.960	-38.103	0.286	-0.152
-381.946	34.263	0.285	-0.249
-380.931	-200.000	0.032	-0.193
-379.917	202.315	-0.094	0.146
-378.902	-90.816	0.088	-0.025
-377.888	703.991	-0.085	0.224
-376.873	4.576	0.186	-0.136
-375.858	215.143	0.169	0.268
-374.844	478.382	0.138	0.313
-373.829	31.487	0.084	-0.072
-372.815	373.906	-0.118	-0.240
-371.800	-87.375	0.252	-0.076
-370.785	-83.696	0.334	-0.107
-369.771	2.630	-0.159	-0.115
-368.756	-112.976	-0.656	0.130
-367.742	129.000	-0.087	0.111
-366.727	-120.653	-0.125	0.021
-365.712	26.647	0.317	-0.266
-364.698	627.748	0.106	-0.267
-363.683	-200.000	0.029	-0.186
-362.669	252.568	-0.084	-0.143
-361.654	-197.974	0.503	0.003
-360.639	84.792	-0.138	-0.151
-359.625	13.804	-0.179	-0.139
-358.610	-71.364	0.195	0.073
-357.596	394.108	-0.191	0.397
-356.581	-200.000	0.026	0.161
-355.566	711.332	-0.029	-0.078
-354.552	-93.182	0.187	0.052
-353.537	292.302	0.162	-0.295
-352.523	-200.000	-0.014	-0.300
-351.508	800.000	0.061	-0.210
-350.493	-36.742	-0.112	0.060
-349.479	-200.000	0.029	0.256
-348.464	70.420	-0.127	0.131
-347.450	-200.000	-0.009	0.046
-346.435	-154.473	0.221	-0.015
-345.420	-128.047	-0.155	-0.022
-344.406	800.000	-0.014	-0.051
-343.391	-200.000	0.018	0.089
-342.377	-147.741	0.186	0.016
-341.362	800.000	-0.105	0.420
-340.348	59.980	-0.146	0.144
-339.333	-95.384	-0.114	-0.031
-338.318	-13.153	0.100	0.065
-337.304	1.677	-0.122	0.088
-336.289	-200.000	-0.084	0.561
-335.275	-10.499	-0.091	0.060
-334.260	-200.000	-0.044	0.348
-333.245	100.605	0.173	0.201
-332.231	800.000	-0.059	-0.167
-331.216	800.000	-0.044	-0.176
-330.202	30.592	-0.194	0.166
-329.187	-144.414	0.156	-0.014
-328.172	-125.141	-0.199	0.030
-327.158	-98.690	0.197	-0.050
-326.143	655.410	-0.121	0.309
-325.129	-15.817	0.151	-0.096
-324.114	238.618	0.084	0.139
-323.099	136.701	0.241	-0.314
-322.085	748.290	-0.072	-0.193
-321.070	20.446	-0.102	-0.082
-320.056	-39.021	-0.336	-0.176
-319.041	-1.937	0.217	0.152
-318.026	44.622	-0.190	-0.174
-317.012	-103.852	0.204	-0.048
-315.997	103.894	0.219	0.257
-314.983	-176.972	-0.066	0.002
-313.968	-103.699	0.220	-0.052
-312.953	142.933	-0.028	0.037
-311.939	3.531	0.103	0.075
-310.924	228.353	-0.132	0.215
-309.910	-124.797	-0.135	-0.021
-308.895	13.644	-0.285	-0.221
-307.880	-200.000	0.140	0.000
-306.866	115.050	-0.270	-0.328
-305.851	-48.504	-0.072	0.035
-304.837	-187.270	0.134	0.002
-303.822	107.895	0.028	0.034
-302.807	800.000	0.117	0.341
-301.793	-67.167	-0.267	-0.105
-300.778	-70.825	-0.358	0.135
-299.764	-64.701	-0.456	-0.184
-298.749	3.421	-0.078	-0.057
-297.735	-84.499	0.342	-0.108
-296.720	-200.000	0.087	0.393
-295.705	-114.133	-0.406	0.078
-294.691	-42.091	0.370	0.189
-293.676	158.467	0.120	-0.166
-292.662	-200.000	-0.053	-0.303
-291.647	285.000	0.118	-0.213
-290.632	-40.864	-0.176	-0.091
-289.618	-200.000	0.011	0.103
-288.603	800.000	0.089	-0.249
-287.589	218.022	0.069	0.109
-286.574	93.068	0.167	-0.188
-285.559	-200.000	-0.014	0.105
-284.545	147.397	-0.097	-0.130
-283.530	800.000	0.027	0.075
-282.516	-57.073	0.147	0.065
-281.501	75.665	-0.172	-0.181
-280.486	-88.772	0.124	-0.037
-279.472	44.575	0.188	-0.173
-278.457	-38.209	-0.081	0.043
-277.443	-45.567	-0.279	0.137
-276.428	-144.031	-0.388	0.036
-275.413	481.680	0.075	0.170
-274.399	-96.315	0.179	-0.047
-273.384	-134.390	-0.012	-0.001
-272.370	-58.785	-0.239	0.103
-271.355	301.392	0.119	0.219
-270.340	291.190	0.113	-0.204
-269.326	-100.583	-0.279	0.069
-268.311	447.974	0.167	-0.366
-267.297	-60.043	-0.360	-0.153
-266.282	59.961	0.094	-0.092
-265.267	49.545	-0.190	-0.178
-264.253	-200.000	0.014	0.252
-263.238	181.137	-0.065	0.095
-262.224	195.339	-0.058	0.087
-261.209	334.797	0.054	-0.104
-260.195	59.245	-0.109	0.107
-259.180	800.000	0.034	0.117
-258.165	784.900	0.013	-0.035
-257.151	-67.873	-0.199	0.078
-256.136	220.956	0.039	-0.063
-255.122	-11.143	-0.257	-0.169
-254.107	677.142	0.064	-0.166
-253.092	-42.730	0.349	0.177
-252.078	-1.233	0.168	0.118
-251.063	711.914	0.006	-0.016
-250.049	796.677	-0.014	0.038
-249.034	250.695	0.171	-0.289
-248.019	223.373	0.051	-0.081
-247.005	-33.573	-0.393	-0.216
-245.990	378.145	0.064	0.131
-244.976	185.086	-0.049	0.072
-243.961	-6.509	0.299	-0.203
-242.946	-200.000	-0.081	-0.414
-241.932	37.889	-0.163	0.145
-240.917	110.787	0.085	0.102
-239.903	189.884	-0.359	0.536
-238.888	184.794	-0.074	0.109
-237.873	800.000	-0.080	0.324
-236.859	800.000	-0.070	0.242
-235.844	800.000	-0.121	-0.338
-234.830	-200.000	0.055	-0.353
-233.815	8.425	0.223	0.167
-232.800	-135.735	-0.057	0.007
-231.786	171.543	-0.081	-0.116
-230.771	-200.000	0.038	0.173
-229.757	4.413	-0.278	-0.203
-228.742	-200.000	-0.053	0.252
-227.727	800.000	-0.113	0.366
-226.713	296.290	0.150	0.274
-225.698	-134.700	0.242	0.029
-224.684	-189.061	-0.182	-0.002
-223.669	-107.305	-0.324	0.071
-222.655	800.000	-0.116	0.364
-221.640	-151.645	-0.079	0.006
-220.625	-200.000	-0.045	-0.321
-219.611	-154.542	0.264	0.018
-218.596	800.000	0.170	0.534
-217.582	800.000	0.038	0.156
-216.567	-200.000	-0.033	0.335
-215.552	-34.667	-0.135	-0.074
-214.538	-6.633	0.171	-0.116
-213.523	-4.362	-0.100	-0.069
-212.509	-171.088	-0.076	0.003
-211.494	-200.000	0.024	0.212
-210.479	-43.342	0.113	-0.057
-209.465	156.730	0.140	0.193
-208.450	-143.235	0.075	-0.007
-207.436	206.300	-0.062	-0.096
-206.421	-200.000	-0.000	-0.324
-205.406	-132.716	-0.147	0.019
-204.392	499.574	0.088	0.202
-203.377	66.876	-0.146	0.148
-202.363	111.332	0.317	0.380
-201.348	-29.098	0.116	0.066
-200.333	236.307	-0.151	-0.248
-199.319	-86.836	0.339	-0.103
-198.304	168.433	0.150	0.213
-197.290	-63.048	-0.418	0.172
-196.275	142.943	-0.007	-0.010
-195.260	-28.739	0.153	0.087
-194.246	-54.721	0.210	0.094
-193.231	337.076	0.106	-0.205
-192.217	-33.604	-0.006	0.003
-191.202	800.000	-0.048	-0.164
-190.187	-90.625	-0.337	-0.097
-189.173	6.784	-0.136	-0.101
-188.158	-92.172	-0.132	-0.037
-187.144	-8.611	0.039	0.026
-186.129	-135.189	0.374	-0.045
-185.114	46.822	-0.218	-0.202
-184.100	-200.000	-0.029	0.227
-183.085	106.356	-0.100	0.118
-182.071	-185.385	0.266	0.004
-181.056	210.122	0.040	-0.062
-180.042	-131.795	0.037	-0.005
-179.027	-200.000	-0.001	-0.074
-178.012	800.000	0.060	-0.223
-176.998	306.672	0.194	0.359
-175.983	19.591	-0.180	0.144
-174.969	-106.938	-0.105	0.023
-173.954	242.856	-0.088	-0.146
-172.939	-108.066	-0.240	0.052
-171.925	-152.431	-0.109	0.008
-170.910	-40.326	0.333	-0.172
-169.896	-22.065	0.248	-0.149
-168.881	428.589	-0.056	-0.119
-167.866	-123.070	0.190	0.030
-166.852	-200.000	0.013	0.350
-165.837	29.236	0.197	0.166
-164.823	528.840	0.147	0.345
-163.808	182.772	-0.051	-0.075
-162.793	800.000	0.028	-0.114
-161.779	-99.939	0.265	0.066
-160.764	-78.337	-0.028	-0.010
-159.750	-117.569	0.225	0.040
-158.735	654.207	0.032	0.081
-157.720	271.564	-0.086	0.151
-156.706	-72.605	0.155	0.057
-155.691	800.000	0.088	0.274
-154.677	-137.153	0.125	0.014
-153.662	-14.121	-0.150	-0.096
-152.647	62.658	0.152	0.151
-151.633	-111.455	0.389	-0.079
-150.618	-200.000	-0.042	0.265
-149.604	-119.361	0.292	0.050
-148.589	-62.457	0.225	-0.093
-147.574	135.518	-0.181	0.234
-146.560	-111.817	-0.190	-0.038
-145.545	-41.264	0.227	0.116
-144.531	-62.631	-0.244	-0.100
-143.516	-186.905	-0.158	-0.002
-142.502	-167.808	-0.321	-0.013
-141.487	56.915	0.181	-0.175
-140.472	-200.000	0.022	0.214
-139.458	21.255	0.128	0.103
-138.443	-200.000	-0.036	0.172
-137.429	514.566	0.077	-0.178
-136.414	2.051	0.253	0.181
-135.399	422.994	-0.123	0.262
-134.385	800.000	-0.120	0.343
-133.370	-26.542	-0.167	-0.097
-132.356	-160.702	0.188	-0.010
-131.341	800.000	0.141	-0.386
-130.326	54.136	-0.240	-0.229
-129.312	-90.166	-0.169	0.049
-128.297	800.000	0.043	-0.163
-127.283	144.615	0.122	-0.162
-126.268	-2.713	0.300	-0.208
-125.253	-200.000	0.020	-0.348
-124.239	-200.000	-0.029	0.195
-123.224	-200.000	0.001	0.384
-122.210	170.346	-0.154	0.219
-121.195	-148.754	0.291	-0.023
