DTS Sentinel unit serial number:	SN413079Multiplexer serial number:	ORYXHardware model number:	OX4-SRSoftware version number:	ORYX F/W v4.00 Oryx Data Collector v3.7.2.0data status	okinstallation	princeton_trtdifferential loss correction	single-endedforward channel	channel 4reverse channel	N/Adate	2019/09/14time	00:37:35forward acquisition time	60.00reverse acquisition time	0.00gamma	496.2192k internal	0.2323k external	0.2323temperature offset calibration	1.0132default loss term (dB/km)	0.3790temperature slope calibration	1.0000multiplexer offset coefficient	1.0000multiplexer slope coefficient	1.0000fibre end	0.00T internal ref (°C)	26.44T ext. ref 1 (°C)	3.17T ext. ref 2 (°C)	21.08length (m)	temperature (°C)	Stokes	anti-Stokes-747.200	78.739	0.085	0.092
-746.185	102.168	0.199	0.235
-745.171	-80.840	0.115	0.038
-744.156	-152.794	-0.233	-0.017
-743.142	-200.000	0.007	-0.112
-742.127	138.074	-0.057	-0.075
-741.112	46.281	0.141	-0.132
-740.098	-106.319	-0.250	-0.056
-739.083	185.685	-0.119	-0.178
-738.069	-76.513	0.148	0.052
-737.054	60.727	-0.276	0.277
-736.039	800.000	-0.088	0.342
-735.025	92.276	0.192	-0.218
-734.010	800.000	0.054	0.155
-732.996	800.000	0.031	-0.131
-731.981	346.901	-0.059	-0.118
-730.966	75.636	-0.209	-0.223
-729.952	652.754	0.098	-0.254
-728.937	16.812	-0.250	-0.199
-727.923	74.029	-0.136	0.144
-726.908	543.476	-0.111	-0.268
-725.894	-180.676	-0.212	-0.004
-724.879	800.000	-0.092	-0.277
-723.864	-102.936	-0.224	-0.054
-722.850	296.703	-0.056	-0.103
-721.835	-10.817	-0.068	0.045
-720.821	-34.818	0.084	-0.046
-719.806	115.189	-0.232	0.286
-718.791	-200.000	-0.023	0.109
-717.777	284.745	0.105	0.191
-716.762	54.079	-0.050	-0.048
-715.748	90.760	0.134	0.152
-714.733	-43.521	0.277	0.141
-713.718	102.797	-0.316	0.373
-712.704	-73.667	-0.037	0.014
-711.689	800.000	-0.056	0.159
-710.675	-200.000	0.015	0.116
-709.660	-70.484	-0.060	-0.023
-708.645	-200.000	-0.041	-0.323
-707.631	303.865	-0.054	-0.101
-706.616	-200.000	0.061	-0.361
-705.602	794.633	0.125	-0.346
-704.587	26.875	-0.029	-0.024
-703.572	82.912	0.099	-0.108
-702.558	-140.097	0.239	-0.025
-701.543	62.992	0.210	-0.212
-700.529	800.000	-0.048	-0.148
-699.514	56.189	0.274	0.268
-698.499	103.791	-0.069	0.082
-697.485	800.000	-0.095	0.316
-696.470	78.678	-0.048	-0.051
-695.456	-200.000	-0.012	0.094
-694.441	-139.684	0.232	-0.025
-693.426	-200.000	-0.054	0.357
-692.412	9.913	0.056	-0.043
-691.397	-200.000	0.002	-0.135
-690.383	15.926	0.171	0.135
-689.368	800.000	0.030	-0.111
-688.354	60.492	0.131	-0.131
-687.339	539.995	0.100	0.240
-686.324	79.984	0.177	-0.192
-685.310	-200.000	-0.034	0.173
-684.295	186.694	0.028	0.042
-683.281	538.727	0.075	0.179
-682.266	314.879	-0.081	0.154
-681.251	800.000	0.091	-0.288
-680.237	19.534	0.232	-0.188
-679.222	800.000	0.051	-0.184
-678.208	-58.115	-0.284	-0.125
-677.193	800.000	0.084	0.290
-676.178	15.614	-0.032	-0.025
-675.164	375.441	0.169	-0.348
-674.149	-42.524	0.350	-0.179
-673.135	344.690	-0.108	-0.214
-672.120	-200.000	0.029	-0.157
-671.105	-132.766	-0.200	0.026
-670.091	346.799	0.144	-0.285
-669.076	33.274	0.103	0.090
-668.062	-200.000	-0.050	0.290
-667.047	800.000	0.130	-0.490
-666.032	-5.639	-0.165	0.114
-665.018	77.492	-0.187	-0.201
-664.003	-181.319	0.134	-0.003
-662.989	-95.849	-0.102	-0.027
-661.974	-200.000	0.004	-0.257
-660.959	-102.207	-0.129	0.031
-659.945	-108.035	-0.233	0.051
-658.930	-63.741	0.324	-0.134
-657.916	366.632	-0.104	0.211
-656.901	-200.000	-0.029	-0.209
-655.886	674.275	0.105	0.273
-654.872	-162.797	0.183	-0.009
-653.857	504.899	0.075	-0.175
-652.843	432.601	0.054	-0.118
-651.828	-25.961	-0.112	0.066
-650.814	33.973	-0.171	-0.150
-649.799	-200.000	-0.013	-0.358
-648.784	-200.000	0.020	0.225
-647.770	128.100	0.052	-0.066
-646.755	479.093	-0.073	-0.167
-645.741	-56.186	-0.023	-0.010
-644.726	43.687	-0.179	0.165
-643.711	-157.509	-0.322	-0.019
-642.697	-32.248	-0.279	-0.157
-641.682	88.858	-0.046	0.052
-640.668	-42.900	-0.332	-0.170
-639.653	-200.000	-0.010	0.052
-638.638	526.226	-0.016	0.038
-637.624	102.225	0.020	0.023
-636.609	-80.528	-0.238	0.080
-635.595	-35.394	-0.182	0.099
-634.580	-50.045	-0.122	0.058
-633.565	26.187	-0.332	-0.278
-632.551	14.864	0.206	0.162
-631.536	247.744	0.069	0.117
-630.522	278.695	-0.113	0.203
-629.507	97.916	-0.170	-0.196
-628.492	800.000	-0.091	0.256
-627.478	116.028	0.193	-0.238
-626.463	-200.000	0.245	-0.001
-625.449	-36.816	-0.117	0.063
-624.434	-200.000	0.042	-0.207
-623.419	492.163	0.158	0.365
-622.405	21.327	0.135	0.110
-621.390	356.039	0.138	-0.276
-620.376	-200.000	-0.030	-0.422
-619.361	-55.980	-0.182	-0.081
-618.346	-134.933	-0.235	-0.029
-617.332	-59.467	0.297	0.128
-616.317	-157.758	0.373	0.022
-615.303	800.000	-0.024	-0.102
-614.288	-92.220	-0.112	-0.032
-613.273	800.000	0.064	0.177
-612.259	-70.921	-0.111	-0.042
-611.244	-21.439	-0.256	-0.157
-610.230	-25.617	-0.127	0.075
-609.215	-160.161	0.074	0.004
-608.201	-180.054	0.456	-0.010
-607.186	-200.000	-0.006	0.165
-606.171	-22.584	-0.334	-0.203
-605.157	-174.481	0.061	-0.002
-604.142	23.268	-0.179	-0.148
-603.128	-139.483	-0.127	0.014
-602.113	-119.799	-0.155	0.027
-601.098	800.000	0.032	0.119
-600.084	-66.957	-0.330	0.131
-599.069	-63.898	-0.179	0.074
-598.055	-200.000	0.015	0.167
-597.040	-200.000	-0.023	0.117
-596.025	196.932	0.064	0.097
-595.011	63.285	-0.022	-0.022
-593.996	512.800	-0.134	-0.313
-592.982	-112.427	0.213	-0.043
-591.967	-103.980	0.261	-0.061
-590.952	-200.000	0.048	0.240
-589.938	155.560	-0.069	0.095
-588.923	476.190	0.136	0.308
-587.909	413.340	-0.072	0.154
-586.894	-200.000	-0.052	-0.473
-585.879	800.000	0.084	-0.336
-584.865	-200.000	0.079	0.397
-583.850	-200.000	-0.004	0.033
-582.836	8.013	-0.143	0.107
-581.821	-200.000	-0.077	-0.368
-580.806	-48.388	-0.125	-0.060
-579.792	-32.809	0.265	0.148
-578.777	726.119	0.081	0.217
-577.763	183.272	-0.028	0.041
-576.748	0.131	0.081	-0.058
-575.733	-200.000	0.046	0.234
-574.719	800.000	-0.021	-0.061
-573.704	-82.559	-0.259	0.084
-572.690	165.497	0.240	-0.340
-571.675	-15.392	0.060	-0.038
-570.661	69.505	-0.046	0.047
-569.646	289.248	-0.099	-0.180
-568.631	-27.287	0.264	0.154
-567.617	387.097	-0.167	-0.347
-566.602	-123.704	0.349	-0.055
-565.588	-14.144	-0.251	0.162
-564.573	32.887	0.335	0.291
-563.558	423.741	0.070	0.151
-562.544	47.399	0.352	-0.329
-561.529	-7.427	0.249	-0.169
-560.515	800.000	-0.076	-0.252
-559.500	189.112	0.093	-0.140
-558.485	94.152	0.046	-0.053
-557.471	113.905	0.054	-0.066
-556.456	-60.994	0.170	-0.072
-555.442	-157.492	-0.287	0.017
-554.427	126.711	-0.090	0.114
-553.412	373.509	0.059	0.121
-552.398	-20.667	-0.203	0.125
-551.383	115.110	0.184	0.225
-550.369	33.343	0.056	-0.049
-549.354	-29.849	-0.369	0.211
-548.339	86.558	-0.143	0.158
-547.325	800.000	0.074	0.208
-546.310	-76.530	0.079	-0.028
-545.296	-200.000	0.047	-0.262
-544.281	800.000	-0.044	-0.173
-543.266	103.255	0.182	-0.214
-542.252	800.000	0.099	-0.351
-541.237	800.000	-0.147	-0.414
-540.223	168.532	0.110	-0.157
-539.208	-102.650	0.340	-0.081
-538.193	35.578	-0.227	-0.199
-537.179	410.216	0.191	0.405
-536.164	800.000	0.086	-0.256
-535.150	-156.846	-0.261	0.016
-534.135	348.606	0.067	-0.132
-533.121	-110.157	-0.124	0.026
-532.106	201.027	-0.045	-0.070
-531.091	-1.815	-0.027	-0.019
-530.077	-200.000	-0.009	-0.108
-529.062	64.857	0.169	-0.171
-528.048	-200.000	0.051	0.341
-527.033	800.000	0.091	0.252
-526.018	-179.034	-0.144	-0.003
-525.004	-116.482	-0.089	0.016
-523.989	-200.000	-0.030	-0.248
-522.975	800.000	0.054	0.223
-521.960	122.412	-0.090	0.112
-520.945	22.018	-0.171	-0.140
-519.931	-200.000	0.019	0.101
-518.916	-9.678	0.183	-0.122
-517.902	-16.261	-0.224	0.143
-516.887	-95.829	-0.147	-0.039
-515.872	89.018	0.067	-0.075
-514.858	800.000	0.043	0.161
-513.843	-200.000	0.003	0.026
-512.829	-38.641	-0.152	0.080
-511.814	-52.569	-0.265	0.122
-510.799	-110.073	0.102	0.021
-509.785	32.248	-0.036	-0.031
-508.770	120.510	0.323	0.401
-507.756	-23.962	-0.214	0.128
-506.741	-200.000	-0.018	0.132
-505.726	724.342	-0.143	-0.380
-504.712	714.941	-0.070	0.186
-503.697	521.535	-0.040	0.094
-502.683	99.573	-0.225	-0.260
-501.668	302.811	0.110	-0.204
-500.653	-35.599	0.366	0.198
-499.639	800.000	-0.015	-0.041
-498.624	800.000	0.063	-0.246
-497.610	-136.049	0.295	-0.035
-496.595	800.000	-0.042	0.170
-495.581	-63.554	0.153	-0.063
-494.566	-200.000	0.014	0.266
-493.551	-200.000	-0.014	-0.244
-492.537	-38.290	-0.116	0.061
-491.522	-28.687	0.261	0.150
-490.508	-200.000	0.042	-0.348
-489.493	800.000	-0.049	-0.215
-488.478	-200.000	0.014	-0.117
-487.464	-200.000	0.031	-0.226
-486.449	-127.486	-0.173	0.025
-485.435	237.308	-0.103	0.171
-484.420	-97.984	0.308	-0.079
-483.405	-132.289	0.154	-0.020
-482.391	-200.000	-0.033	-0.231
-481.376	-55.287	-0.473	-0.213
-480.362	113.072	0.210	-0.254
-479.347	-93.136	0.115	0.032
-478.332	8.407	0.026	-0.019
-477.318	590.251	-0.027	0.065
-476.303	-155.892	-0.249	-0.016
-475.289	469.650	-0.042	-0.095
-474.274	89.950	-0.121	0.135
-473.259	304.904	0.078	0.144
-472.245	800.000	-0.026	0.092
-471.230	370.209	0.228	0.461
-470.216	-200.000	-0.000	0.134
-469.201	-36.834	-0.152	0.082
-468.186	5.449	0.223	0.165
-467.172	-5.632	-0.280	-0.192
-466.157	800.000	0.048	0.151
-465.143	5.346	0.177	0.131
-464.128	-200.000	0.018	-0.217
-463.113	-200.000	0.060	-0.331
-462.099	96.273	0.198	-0.227
-461.084	-117.548	0.359	-0.065
-460.070	-200.000	-0.004	-0.164
-459.055	87.414	0.054	0.059
-458.040	-200.000	0.012	0.324
-457.026	-45.909	-0.141	0.069
-456.011	37.182	0.146	0.129
-454.997	103.788	0.169	-0.198
-453.982	55.513	-0.287	-0.278
-452.968	-200.000	0.041	0.291
-451.953	-200.000	0.012	-0.258
-450.938	794.000	0.026	0.071
-449.924	800.000	0.072	0.262
-448.909	307.148	-0.079	-0.147
-447.895	-8.006	0.064	0.043
-446.880	-84.240	-0.170	0.054
-445.865	-138.964	-0.131	0.014
-444.851	-200.000	0.017	0.142
-443.836	-52.855	-0.224	0.103
-442.822	800.000	0.028	0.114
-441.807	13.692	-0.165	0.128
-440.792	430.271	-0.095	0.205
-439.778	-200.000	0.015	0.079
-438.763	323.367	-0.172	-0.328
-437.749	36.711	0.201	0.177
-436.734	372.992	0.068	-0.138
-435.719	554.953	-0.106	-0.254
-434.705	52.397	-0.247	-0.235
-433.690	-83.040	-0.234	-0.075
-432.676	201.445	0.202	-0.310
-431.661	-63.981	-0.277	0.113
-430.646	14.755	0.267	0.208
-429.632	7.455	0.175	0.130
-428.617	10.097	0.124	-0.094
-427.603	-65.463	0.213	0.085
-426.588	-200.000	0.008	0.378
-425.573	-21.501	-0.266	-0.162
-424.559	336.661	0.175	-0.339
-423.544	-181.083	-0.241	0.005
-422.530	-107.046	-0.200	-0.044
-421.515	-30.003	0.407	-0.231
-420.500	88.089	0.126	-0.139
-419.486	-118.932	0.287	-0.050
-418.471	-3.188	-0.075	0.052
-417.457	-45.377	0.117	0.058
-416.442	-98.845	-0.068	0.017
-415.428	-57.222	0.377	-0.165
-414.413	19.944	-0.238	-0.192
-413.398	-4.719	-0.326	-0.225
-412.384	-125.640	0.315	-0.048
-411.369	481.344	0.076	0.172
-410.355	-106.595	0.352	-0.078
-409.340	-200.000	-0.006	-0.137
-408.325	443.143	0.122	0.267
-407.311	248.284	-0.253	-0.427
-406.296	-55.464	0.296	-0.132
-405.282	93.076	0.162	0.182
-404.267	250.082	-0.206	0.349
-403.252	-200.000	0.011	-0.075
-402.238	-200.000	0.023	-0.239
-401.223	-73.180	0.231	-0.084
-400.209	430.986	-0.062	-0.134
-399.194	-82.191	0.118	-0.038
-398.179	800.000	0.062	-0.177
-397.165	-200.000	-0.027	0.132
-396.150	8.545	0.094	0.070
-395.136	800.000	0.024	-0.092
-394.121	-0.378	-0.248	-0.175
-393.106	800.000	-0.147	-0.531
-392.092	-200.000	-0.014	-0.346
-391.077	750.612	0.074	-0.199
-390.063	-83.229	0.217	0.070
-389.048	-200.000	0.003	0.323
-388.033	-108.567	0.175	0.037
-387.019	-11.948	0.180	0.117
-386.004	800.000	-0.099	-0.343
-384.990	19.063	-0.173	0.138
-383.975	134.846	0.215	0.278
-382.960	-200.000	-0.046	0.380
-381.946	178.637	0.031	0.045
-380.931	629.822	0.060	0.152
-379.917	254.325	0.113	-0.192
-378.902	-200.000	-0.006	-0.293
-377.888	12.857	-0.129	0.099
-376.873	-147.085	0.095	-0.008
-375.858	-200.000	0.032	0.208
-374.844	188.263	0.182	-0.270
-373.829	-23.952	-0.097	-0.058
-372.815	-115.882	0.326	0.061
-371.800	-142.077	-0.108	-0.011
-370.785	146.275	-0.175	0.234
-369.771	92.337	0.200	-0.224
-368.756	104.527	-0.285	-0.334
-367.742	94.709	-0.255	-0.288
-366.727	800.000	0.083	-0.347
-365.712	38.858	0.153	-0.136
-364.698	576.519	0.062	0.150
-363.683	-200.000	0.032	0.185
-362.669	-147.503	-0.225	-0.019
-361.654	800.000	-0.052	0.203
-360.639	-116.120	0.227	-0.042
-359.625	-83.714	-0.312	-0.099
-358.610	-200.000	0.017	-0.555
-357.596	-200.000	-0.002	-0.069
-356.581	-128.607	-0.248	-0.035
-355.566	-122.604	0.030	0.005
-354.552	154.600	0.043	0.059
-353.537	800.000	-0.068	0.253
-352.523	-111.939	-0.168	-0.034
-351.508	-19.961	0.246	0.151
-350.493	-129.610	0.298	0.041
-349.479	-200.000	0.011	-0.383
-348.464	-20.930	-0.096	-0.059
-347.450	800.000	-0.095	0.280
-346.435	32.221	0.238	0.204
-345.420	579.399	0.050	-0.121
-344.406	270.247	0.077	-0.135
-343.391	44.985	-0.347	0.318
-342.377	9.780	0.105	0.080
-341.362	-200.000	0.007	0.142
-340.348	-200.000	0.006	-0.202
-339.333	-193.128	0.018	0.000
-338.318	-111.788	-0.255	0.051
-337.304	-200.000	-0.001	-0.021
-336.289	-200.000	-0.108	-0.519
-335.275	46.138	-0.258	0.238
-334.260	272.860	0.219	0.384
-333.245	-29.578	-0.171	-0.097
-332.231	-85.915	0.175	-0.054
-331.216	702.257	0.047	-0.122
-330.202	75.432	0.132	-0.138
-329.187	354.091	-0.083	0.164
-328.172	-130.203	-0.306	0.041
-327.158	-142.821	-0.173	0.017
-326.143	157.031	-0.042	-0.057
-325.129	-200.000	-0.012	-0.348
-324.114	-200.000	0.032	-0.198
-323.099	28.576	0.394	0.331
-322.085	76.777	-0.170	0.179
-321.070	-102.631	-0.024	-0.006
-320.056	800.000	-0.110	-0.319
-319.041	-68.433	-0.350	0.135
-318.026	-200.000	-0.054	0.389
-317.012	-173.329	-0.192	0.006
-315.997	-148.902	0.208	-0.017
-314.983	140.701	0.118	0.155
-313.968	-200.000	-0.019	-0.137
-312.953	-62.972	0.216	0.089
-311.939	800.000	0.055	0.185
-310.924	34.940	-0.258	-0.224
-309.910	-97.162	-0.312	-0.081
-308.895	-162.890	0.368	-0.018
-307.880	-53.249	0.160	-0.073
-306.866	633.610	0.049	-0.124
-305.851	800.000	0.042	-0.162
-304.837	194.987	-0.110	-0.165
-303.822	-95.812	-0.206	0.055
-302.807	258.629	0.105	0.180
-301.793	-161.301	0.223	0.011
-300.778	-200.000	0.045	-0.253
-299.764	-91.966	-0.123	-0.034
-298.749	-200.000	0.014	-0.521
-297.735	11.284	0.324	-0.246
-296.720	-92.486	-0.072	0.020
-295.705	199.339	-0.153	0.233
-294.691	14.433	0.270	0.209
-293.676	135.327	-0.172	0.222
-292.662	677.434	0.084	-0.217
-291.647	-200.000	0.012	-0.176
-290.632	524.220	0.027	-0.062
-289.618	-98.023	-0.172	0.044
-288.603	207.020	-0.202	0.313
-287.589	-85.425	0.090	0.028
-286.574	-31.847	-0.338	-0.188
-285.559	-89.853	-0.138	0.040
-284.545	98.005	-0.072	-0.083
-283.530	-200.000	-0.006	-0.081
-282.516	-200.000	0.038	0.246
-281.501	-200.000	-0.008	0.077
-280.486	-32.123	0.186	-0.103
-279.472	90.965	-0.167	0.185
-278.457	-137.729	0.137	0.015
-277.443	-40.913	0.112	0.057
-276.428	130.875	0.114	-0.145
-275.413	201.334	-0.097	-0.148
-274.399	-43.194	-0.230	0.116
-273.384	10.454	-0.111	0.084
-272.370	2.705	-0.192	0.138
-271.355	-200.000	0.028	-0.122
-270.340	8.247	-0.071	-0.053
-269.326	26.392	-0.254	0.211
-268.311	42.755	-0.151	0.136
-267.297	-200.000	0.009	0.094
-266.282	399.071	0.134	0.277
-265.267	284.207	-0.152	0.272
-264.253	-173.050	-0.281	-0.009
-263.238	800.000	0.088	-0.252
-262.224	-200.000	-0.050	-0.000
-261.209	-9.831	0.322	0.212
-260.195	-60.693	0.125	0.052
-259.180	452.939	0.034	0.074
-258.165	800.000	-0.038	0.161
-257.151	-200.000	-0.000	0.061
-256.136	-63.453	0.134	-0.054
-255.122	-55.370	0.172	-0.076
-254.107	-111.829	0.172	-0.035
-253.092	-90.344	-0.111	-0.032
-252.078	-41.757	-0.222	-0.113
-251.063	-200.000	-0.023	0.223
-250.049	-98.770	-0.198	0.050
-249.034	-200.000	-0.022	-0.232
-248.019	-52.338	-0.411	0.189
-247.005	77.326	-0.058	0.061
-245.990	211.786	0.166	-0.258
-244.976	445.442	0.030	0.065
-243.961	631.131	-0.074	0.186
-242.946	87.257	-0.156	0.171
-241.932	-122.293	0.217	-0.035
-240.917	3.917	-0.050	0.037
-239.903	10.242	0.028	0.021
-238.888	179.842	-0.166	0.240
-237.873	90.402	0.202	-0.224
-236.859	16.346	-0.108	0.084
-235.844	190.556	-0.165	0.245
-234.830	269.715	-0.160	0.278
-233.815	266.177	0.106	-0.183
-232.800	-39.437	-0.162	0.084
-231.786	22.697	0.164	-0.133
-230.771	-173.702	0.313	0.009
-229.757	46.060	-0.092	-0.084
-228.742	600.279	0.057	-0.139
-227.727	-53.191	-0.193	0.087
-226.713	104.788	0.159	0.185
-225.698	800.000	0.159	0.491
-224.684	187.765	-0.204	0.302
-223.669	-117.462	-0.132	-0.024
-222.655	-200.000	-0.063	0.397
-221.640	213.469	-0.049	-0.076
-220.625	114.454	0.146	0.176
-219.611	-61.734	0.233	-0.097
-218.596	-200.000	-0.008	0.158
-217.582	-32.252	-0.081	0.045
-216.567	-132.595	-0.053	0.007
-215.552	800.000	0.075	0.228
-214.538	-87.210	0.112	-0.034
-213.523	634.761	0.052	0.129
-212.509	-54.338	-0.060	0.027
-211.494	-107.263	-0.099	-0.021
-210.479	-113.902	0.166	-0.032
-209.465	-148.651	0.357	0.029
-208.450	145.338	0.214	-0.284
-207.436	800.000	-0.082	-0.229
-206.421	-144.176	0.203	0.019
-205.406	324.848	0.177	0.334
-204.392	160.667	-0.096	-0.132
-203.377	-43.350	0.092	-0.046
-202.363	68.751	-0.072	-0.073
-201.348	77.582	-0.238	-0.250
-200.333	-55.960	-0.273	0.120
-199.319	41.941	0.219	0.197
-198.304	-200.000	-0.016	0.332
-197.290	-185.460	0.048	-0.001
-196.275	800.000	-0.099	-0.379
-195.260	99.514	-0.058	0.066
-194.246	312.999	-0.121	-0.224
-193.231	-200.000	0.011	0.232
-192.217	96.678	-0.114	-0.129
-191.202	-200.000	-0.071	0.339
-190.187	-200.000	0.085	-0.379
-189.173	-150.782	-0.097	-0.007
-188.158	-121.171	0.115	0.019
-187.144	79.099	0.155	0.165
-186.129	394.745	0.182	0.374
-185.114	554.126	0.061	-0.145
-184.100	727.953	-0.135	-0.357
-183.085	232.065	-0.107	0.174
-182.071	-37.194	0.255	-0.135
-181.056	-96.339	-0.247	0.064
-180.042	-200.000	-0.046	0.340
-179.027	-190.924	-0.015	0.000
-178.012	-176.066	0.327	-0.009
-176.998	19.157	0.126	-0.100
-175.983	-129.332	0.156	0.021
-174.969	-89.184	-0.154	-0.045
-173.954	-56.126	-0.227	0.100
-172.939	-53.847	0.167	0.075
-171.925	-166.689	0.288	0.012
-170.910	-166.352	0.118	-0.005
-169.896	59.121	0.168	0.163
-168.881	9.708	-0.209	0.157
-167.866	7.471	-0.307	-0.227
-166.852	-164.898	-0.094	-0.004
-165.837	-93.619	0.353	-0.096
-164.823	-200.000	-0.016	0.252
-163.808	800.000	0.077	0.253
-162.793	-200.000	-0.056	-0.486
-161.779	-7.849	-0.220	0.147
-160.764	-200.000	-0.034	0.000
-159.750	-12.444	-0.170	0.109
-158.735	800.000	-0.066	0.245
-157.720	111.009	0.080	0.095
-156.706	-135.947	-0.278	0.032
-155.691	216.106	0.150	-0.235
-154.677	-200.000	-0.131	0.611
-153.662	-129.733	0.388	0.053
-152.647	472.308	0.154	0.343
-151.633	158.054	0.052	-0.071
-150.618	-125.270	-0.369	0.056
-149.604	8.714	-0.117	-0.087
-148.589	-70.211	0.128	0.048
-147.574	164.851	0.054	-0.075
-146.560	661.996	-0.079	-0.200
-145.545	24.029	-0.149	-0.121
-144.531	-9.594	0.372	-0.245
-143.516	-123.636	-0.316	0.049
-142.502	538.913	-0.158	-0.371
-141.487	56.973	-0.103	-0.099
-140.472	800.000	0.037	-0.107
-139.458	111.825	-0.061	0.072
-138.443	-38.932	-0.537	-0.279
-137.429	298.241	0.126	-0.229
-136.414	800.000	-0.046	0.161
-135.399	-92.712	0.179	-0.049
-134.385	356.648	0.068	-0.133
-133.370	-82.102	0.214	0.069
-132.356	-200.000	-0.016	-0.094
-131.341	23.843	-0.297	0.242
-130.326	180.891	-0.037	0.053
-129.312	-200.000	-0.027	0.193
-128.297	-200.000	0.007	0.071
-127.283	-200.000	0.011	0.159
-126.268	103.544	-0.150	0.174
-125.253	800.000	-0.141	0.446
-124.239	142.121	-0.138	0.180
-123.224	41.865	-0.098	0.087
-122.210	800.000	-0.019	-0.059
-121.195	-104.984	-0.342	0.077
