DTS Sentinel unit serial number:	SN413079Multiplexer serial number:	ORYXHardware model number:	OX4-SRSoftware version number:	ORYX F/W v4.00 Oryx Data Collector v3.7.2.0data status	okinstallation	princeton_trtdifferential loss correction	single-endedforward channel	channel 4reverse channel	N/Adate	2019/09/11time	16:03:11forward acquisition time	60.00reverse acquisition time	0.00gamma	496.2192k internal	0.2277k external	0.2277temperature offset calibration	1.0013default loss term (dB/km)	0.3790temperature slope calibration	1.0000multiplexer offset coefficient	1.0000multiplexer slope coefficient	1.0000fibre end	0.00T internal ref (°C)	43.09T ext. ref 1 (°C)	1.00T ext. ref 2 (°C)	38.73length (m)	temperature (°C)	Stokes	anti-Stokes-747.200	174.618	0.119	0.178
-746.185	-200.000	-0.075	0.367
-745.171	-171.200	0.290	-0.010
-744.156	-10.328	0.137	0.093
-743.142	-25.441	-0.262	-0.160
-742.127	-141.216	-0.035	0.004
-741.112	394.154	0.061	0.132
-740.098	-200.000	0.062	0.373
-739.083	-129.665	-0.261	-0.037
-738.069	-150.092	-0.205	0.016
-737.054	-17.355	0.221	0.144
-736.039	18.864	0.124	0.102
-735.025	136.482	0.070	0.094
-734.010	48.503	0.153	0.147
-732.996	-112.560	-0.443	0.091
-731.981	-48.583	-0.227	0.113
-730.966	75.961	0.139	-0.151
-729.952	-50.540	0.034	-0.016
-728.937	479.690	-0.026	0.060
-727.923	-153.925	0.155	0.011
-726.908	-41.492	0.265	-0.140
-725.894	800.000	0.092	-0.367
-724.879	800.000	0.121	0.362
-723.864	-93.908	0.028	-0.008
-722.850	231.218	-0.214	0.361
-721.835	421.625	-0.064	0.142
-720.821	-33.636	0.151	0.086
-719.806	306.583	-0.165	-0.317
-718.791	-200.000	0.025	0.117
-717.777	-29.009	0.198	-0.117
-716.762	-69.484	0.164	0.065
-715.748	55.393	-0.331	-0.330
-714.733	-200.000	0.004	0.025
-713.718	-6.811	-0.121	0.084
-712.704	759.266	0.096	-0.267
-711.689	800.000	0.071	-0.296
-710.675	-200.000	-0.003	-0.163
-709.660	-160.489	-0.220	0.012
-708.645	-200.000	-0.008	0.084
-707.631	-200.000	-0.006	0.043
-706.616	106.174	0.084	-0.103
-705.602	-200.000	-0.021	-0.132
-704.587	-200.000	-0.001	-0.119
-703.572	79.548	0.410	0.452
-702.558	800.000	-0.015	0.043
-701.543	800.000	0.134	-0.385
-700.529	-200.000	0.005	0.162
-699.514	-200.000	0.011	0.333
-698.499	800.000	-0.016	0.052
-697.485	91.297	0.051	-0.059
-696.470	302.041	0.070	-0.134
-695.456	-156.727	0.394	0.025
-694.441	800.000	-0.073	-0.249
-693.426	-38.183	-0.143	-0.078
-692.412	149.757	-0.067	-0.093
-691.397	800.000	0.016	-0.072
-690.383	74.896	-0.115	0.124
-689.368	-48.122	-0.082	-0.041
-688.354	-154.023	-0.229	-0.016
-687.339	-72.326	0.290	-0.110
-686.324	-200.000	0.005	0.183
-685.310	-21.918	-0.100	-0.063
-684.295	-200.000	-0.004	0.067
-683.281	-68.538	0.094	-0.037
-682.266	-81.506	0.285	0.096
-681.251	570.661	0.047	0.118
-680.237	151.368	0.073	0.103
-679.222	-200.000	0.019	0.162
-678.208	-75.243	-0.235	-0.086
-677.193	-144.609	0.307	0.029
-676.178	272.768	0.142	-0.257
-675.164	-200.000	-0.002	-0.090
-674.149	305.379	-0.072	-0.137
-673.135	-38.628	-0.157	0.085
-672.120	-93.508	0.187	0.053
-671.105	-200.000	-0.005	-0.047
-670.091	-200.000	0.016	0.106
-669.076	-200.000	0.032	0.569
-668.062	266.639	0.095	0.171
-667.047	51.660	0.039	0.038
-666.032	-80.886	-0.007	-0.003
-665.018	746.099	0.108	-0.299
-664.003	800.000	-0.065	-0.206
-662.989	800.000	0.024	-0.094
-661.974	194.216	0.250	-0.389
-660.959	154.937	-0.030	-0.043
-659.945	51.099	0.271	-0.264
-658.930	-126.663	0.175	-0.027
-657.916	-38.903	-0.215	0.116
-656.901	250.465	0.060	0.105
-655.886	468.827	0.079	-0.182
-654.872	-200.000	0.018	-0.102
-653.857	-138.528	-0.140	0.016
-652.843	-128.266	-0.214	-0.031
-651.828	116.829	0.028	-0.035
-650.814	-158.776	0.427	-0.025
-649.799	-163.533	0.192	-0.009
-648.784	-132.301	-0.508	-0.067
-647.770	-83.545	-0.128	0.042
-646.755	-37.356	-0.368	0.202
-645.741	109.751	0.031	-0.038
-644.726	167.333	0.256	-0.373
-643.711	366.896	0.190	-0.393
-642.697	178.165	0.182	-0.272
-641.682	217.640	0.067	0.109
-640.668	457.289	-0.129	0.295
-639.653	-200.000	-0.038	0.288
-638.638	275.086	0.041	-0.074
-637.624	8.244	-0.096	-0.074
-636.609	37.379	-0.186	0.169
-635.595	35.230	-0.154	0.139
-634.580	800.000	-0.134	0.447
-633.565	-35.664	-0.414	-0.230
-632.551	202.374	-0.069	0.110
-631.536	-91.509	0.021	0.006
-630.522	46.024	-0.103	-0.097
-629.507	20.631	0.105	-0.087
-628.492	56.995	0.241	0.241
-627.478	-8.258	0.233	-0.161
-626.463	146.371	-0.119	0.164
-625.449	-50.597	0.171	0.082
-624.434	-130.968	-0.211	-0.029
-623.419	419.497	0.022	-0.049
-622.405	-4.970	0.080	0.057
-621.390	103.625	0.102	0.123
-620.376	134.848	-0.169	-0.225
-619.361	800.000	0.066	-0.190
-618.346	-4.915	-0.044	0.031
-617.332	-70.032	-0.323	0.126
-616.317	292.926	-0.028	-0.053
-615.303	-161.191	0.164	0.009
-614.288	800.000	-0.075	0.223
-613.273	-90.255	0.279	0.083
-612.259	40.685	0.179	-0.166
-611.244	197.019	0.141	0.220
-610.230	33.613	0.111	-0.099
-609.215	33.519	0.103	0.092
-608.201	-200.000	0.079	-0.421
-607.186	-101.111	0.358	0.090
-606.171	-200.000	-0.025	-0.150
-605.157	248.180	0.032	0.056
-604.142	22.853	-0.261	0.219
-603.128	-9.722	-0.116	0.079
-602.113	284.292	0.057	0.105
-601.098	167.471	0.227	0.330
-600.084	-113.321	-0.379	-0.076
-599.069	-83.238	-0.128	0.042
-598.055	-62.164	-0.275	0.117
-597.040	-138.604	0.204	0.023
-596.025	39.017	0.204	-0.186
-595.011	-51.428	-0.367	-0.176
-593.996	800.000	-0.034	0.128
-592.982	-200.000	-0.001	0.157
-591.967	800.000	-0.086	0.294
-590.952	30.744	-0.080	-0.070
-589.938	243.726	-0.027	-0.046
-588.923	-200.000	0.032	0.392
-587.909	-82.591	-0.100	0.033
-586.894	-103.524	-0.132	-0.032
-585.879	800.000	-0.060	-0.235
-584.865	285.428	0.139	0.256
-583.850	-39.929	0.222	-0.119
-582.836	-104.726	0.312	-0.074
-581.821	-44.026	0.084	-0.043
-580.806	-139.872	0.395	-0.043
-579.792	522.531	0.115	-0.277
-578.777	-78.636	-0.176	0.062
-577.763	-61.308	-0.102	-0.044
-576.748	170.096	0.083	-0.121
-575.733	-200.000	-0.020	0.447
-574.719	-200.000	-0.034	0.212
-573.704	144.899	-0.017	0.023
-572.690	800.000	0.076	0.236
-571.675	115.933	0.136	-0.170
-570.661	-67.832	0.342	0.137
-569.646	-0.840	0.204	0.148
-568.631	-40.651	0.401	0.213
-567.617	-200.000	-0.000	-0.422
-566.602	550.733	0.123	-0.301
-565.588	26.308	0.060	0.052
-564.573	-200.000	0.015	0.097
-563.558	800.000	0.040	-0.144
-562.544	-106.343	-0.459	0.105
-561.529	-200.000	0.026	-0.146
-560.515	280.817	0.055	-0.101
-559.500	-136.974	-0.363	-0.043
-558.485	-43.278	-0.446	0.231
-557.471	10.387	-0.184	-0.143
-556.456	800.000	0.146	-0.425
-555.442	-102.564	-0.341	-0.083
-554.427	286.158	-0.039	0.072
-553.412	73.941	0.239	0.257
-552.398	378.899	0.102	-0.213
-551.383	-157.685	0.644	-0.039
-550.369	-7.675	-0.123	-0.085
-549.354	4.010	0.342	0.256
-548.339	-200.000	0.033	0.292
-547.325	71.045	-0.188	-0.200
-546.310	-200.000	-0.001	-0.102
-545.296	21.404	-0.178	0.148
-544.281	-188.044	-0.191	-0.003
-543.266	-12.374	0.225	-0.150
-542.252	800.000	0.039	0.166
-541.237	-17.592	-0.141	0.091
-540.223	26.927	-0.047	-0.041
-539.208	342.077	-0.125	0.250
-538.193	295.951	-0.099	-0.185
-537.179	80.091	-0.162	0.178
-536.164	11.353	-0.067	0.053
-535.150	-193.251	0.244	0.002
-534.135	618.570	0.178	-0.458
-533.121	25.121	-0.136	-0.115
-532.106	26.448	0.139	-0.119
-531.091	-200.000	-0.030	-0.186
-530.077	-200.000	-0.002	-0.175
-529.062	779.198	-0.119	-0.332
-528.048	-16.013	0.224	-0.146
-527.033	34.612	-0.159	-0.142
-526.018	301.285	0.119	-0.224
-525.004	-200.000	0.060	-0.279
-523.989	-200.000	0.020	0.148
-522.975	-200.000	0.002	0.060
-521.960	-37.670	-0.245	-0.133
-520.945	-156.647	-0.064	-0.004
-519.931	-200.000	-0.022	0.251
-518.916	26.168	-0.100	-0.085
-517.902	-18.381	0.101	0.065
-516.887	-200.000	0.025	-0.123
-515.872	-112.895	-0.450	0.091
-514.858	343.888	-0.064	-0.128
-513.843	129.205	0.151	0.197
-512.829	91.516	-0.079	0.091
-511.814	-74.620	0.166	0.061
-510.799	-200.000	-0.009	-0.124
-509.785	221.101	0.065	-0.107
-508.770	-122.605	-0.166	-0.028
-507.756	-58.304	0.043	0.019
-506.741	-200.000	0.014	-0.088
-505.726	20.262	-0.185	0.153
-504.712	210.871	-0.058	0.093
-503.697	-200.000	0.027	0.328
-502.683	154.074	0.183	0.256
-501.668	-114.193	0.074	0.015
-500.653	65.628	0.074	0.077
-499.639	-123.812	0.273	0.044
-498.624	376.825	0.074	-0.155
-497.610	139.400	0.056	0.076
-496.595	187.181	-0.256	-0.390
-495.581	-9.370	-0.164	0.112
-494.566	204.930	0.197	0.312
-493.551	-200.000	0.086	0.527
-492.537	274.783	-0.117	0.211
-491.522	-104.865	-0.264	0.062
-490.508	-17.009	-0.259	0.167
-489.493	32.658	0.071	-0.062
-488.478	-49.849	-0.284	0.137
-487.464	81.214	0.098	-0.108
-486.449	312.372	-0.056	-0.107
-485.435	205.009	-0.074	-0.117
-484.420	-200.000	-0.072	0.467
-483.405	-200.000	0.012	-0.073
-482.391	-185.066	0.196	-0.003
-481.376	-67.275	0.086	0.035
-480.362	-200.000	-0.003	-0.108
-479.347	49.342	-0.141	0.135
-478.332	-90.178	-0.156	0.046
-477.318	-72.893	-0.154	0.058
-476.303	-200.000	-0.037	0.192
-475.289	639.982	-0.169	0.438
-474.274	-65.914	-0.304	0.124
-473.259	625.410	-0.088	0.225
-472.245	628.488	0.069	-0.179
-471.230	62.732	0.119	-0.121
-470.216	123.735	-0.227	0.290
-469.201	-96.099	-0.361	-0.098
-468.186	-5.231	-0.024	-0.017
-467.172	800.000	-0.047	-0.142
-466.157	265.156	0.070	0.125
-465.143	-29.386	0.022	0.013
-464.128	186.900	-0.190	0.289
-463.113	-30.547	-0.150	-0.087
-462.099	800.000	-0.052	-0.222
-461.084	195.604	0.065	0.101
-460.070	407.160	0.067	-0.144
-459.055	-96.708	0.191	0.051
-458.040	-131.968	0.244	-0.032
-457.026	71.219	-0.256	0.270
-456.011	115.084	0.103	-0.129
-454.997	135.780	-0.122	-0.161
-453.982	-200.000	-0.014	-0.415
-452.968	-5.026	-0.090	0.063
-451.953	303.135	0.142	0.267
-450.938	548.095	0.066	-0.162
-449.924	-200.000	-0.024	-0.137
-448.909	139.664	0.161	-0.216
-447.895	399.966	0.147	-0.314
-446.880	-28.377	0.089	-0.052
-445.865	-200.000	-0.013	-0.408
-444.851	15.567	-0.287	-0.229
-443.836	-179.498	0.377	0.008
-442.822	-24.792	-0.164	-0.099
-441.807	-108.595	-0.189	0.041
-440.792	-200.000	0.018	-0.254
-439.778	-26.846	0.262	-0.156
-438.763	-79.592	0.156	-0.054
-437.749	-155.310	-0.085	0.006
-436.734	-46.792	-0.237	0.118
-435.719	-120.795	-0.100	0.017
-434.705	241.663	0.261	-0.443
-433.690	130.152	0.094	-0.122
-432.676	800.000	0.083	0.251
-431.661	535.487	-0.042	0.101
-430.646	-128.105	-0.103	-0.015
-429.632	-200.000	-0.031	-0.157
-428.617	20.172	0.107	-0.088
-427.603	728.274	0.106	0.287
-426.588	-200.000	-0.023	0.244
-425.573	140.898	0.086	0.116
-424.559	-65.334	-0.266	0.109
-423.544	-200.000	0.025	-0.306
-422.530	260.767	-0.070	0.123
-421.515	800.000	-0.042	0.175
-420.500	213.992	-0.240	-0.387
-419.486	800.000	-0.062	-0.241
-418.471	-200.000	-0.004	-0.262
-417.457	-130.030	0.324	0.045
-416.442	-156.195	0.085	-0.005
-415.428	800.000	-0.045	0.138
-414.413	-95.925	-0.294	0.080
-413.398	-90.768	-0.254	-0.075
-412.384	365.327	0.214	0.438
-411.369	-200.000	-0.017	0.470
-410.355	800.000	0.041	-0.150
-409.340	-26.118	-0.188	0.112
-408.325	-75.410	-0.114	0.041
-407.311	-192.630	0.208	-0.002
-406.296	-200.000	-0.010	0.083
-405.282	-200.000	-0.016	0.314
-404.267	-130.159	0.249	0.035
-403.252	-200.000	0.004	0.160
-402.238	578.041	-0.127	-0.316
-401.223	800.000	0.114	-0.323
-400.209	-200.000	0.001	0.033
-399.194	-88.368	0.161	0.049
-398.179	-200.000	-0.002	0.041
-397.165	-138.460	0.295	-0.033
-396.150	800.000	0.046	0.129
-395.136	29.314	0.286	0.247
-394.121	-200.000	-0.062	-0.393
-393.106	800.000	0.069	-0.254
-392.092	-22.255	-0.354	-0.218
-391.077	66.982	0.096	0.099
-390.063	202.386	0.077	-0.121
-389.048	-25.184	0.035	-0.021
-388.033	296.990	-0.042	-0.079
-387.019	10.270	-0.147	0.114
-386.004	-106.715	-0.110	-0.025
-384.990	-6.510	0.172	-0.119
-383.975	-118.287	0.220	0.040
-382.960	-149.524	0.057	0.005
-381.946	-33.536	-0.322	0.181
-380.931	-200.000	-0.023	0.261
-379.917	-86.951	0.175	-0.054
-378.902	800.000	-0.032	0.101
-377.888	-200.000	-0.076	0.361
-376.873	-4.601	-0.013	0.009
-375.858	-96.813	0.262	-0.070
-374.844	627.153	-0.115	-0.296
-373.829	-200.000	-0.009	-0.109
-372.815	171.213	0.064	-0.093
-371.800	-23.191	0.077	-0.047
-370.785	369.053	0.133	-0.274
-369.771	-151.138	0.091	-0.007
-368.756	-73.026	0.237	0.088
-367.742	84.493	-0.127	0.141
-366.727	491.002	0.041	-0.096
-365.712	231.564	0.139	-0.231
-364.698	-26.381	-0.209	-0.125
-363.683	65.436	-0.125	-0.129
-362.669	-200.000	0.036	-0.345
-361.654	41.983	-0.107	-0.098
-360.639	-68.856	-0.131	0.051
-359.625	175.624	-0.089	0.130
-358.610	-200.000	0.039	0.203
-357.596	319.817	-0.126	-0.242
-356.581	-20.806	-0.030	0.019
-355.566	-14.954	0.101	-0.066
-354.552	-8.067	0.382	-0.262
-353.537	-22.465	0.386	0.237
-352.523	158.964	0.097	-0.137
-351.508	76.893	0.287	0.309
-350.493	17.363	-0.106	0.086
-349.479	800.000	-0.077	-0.302
-348.464	232.519	0.199	-0.331
-347.450	-48.848	0.178	-0.087
-346.435	-122.450	-0.112	-0.019
-345.420	-57.911	0.079	0.035
-344.406	800.000	0.054	-0.222
-343.391	-200.000	0.025	-0.373
-342.377	-1.001	0.133	0.095
-341.362	800.000	-0.080	-0.270
-340.348	114.124	-0.132	-0.163
-339.333	18.445	0.192	-0.155
-338.318	92.604	0.260	0.298
-337.304	-61.612	-0.126	-0.054
-336.289	170.133	-0.245	-0.356
-335.275	602.381	-0.063	-0.159
-334.260	66.199	0.224	0.231
-333.245	-200.000	0.030	-0.146
-332.231	304.681	0.035	-0.065
-331.216	141.855	0.037	-0.050
-330.202	730.435	0.091	0.246
-329.187	800.000	-0.034	-0.105
-328.172	-96.197	-0.277	0.074
-327.158	-115.271	0.150	0.029
-326.143	-51.898	-0.189	-0.089
-325.129	800.000	-0.041	0.115
-324.114	-160.139	0.081	-0.004
-323.099	104.883	0.191	-0.228
-322.085	-155.364	0.568	-0.037
-321.070	-98.401	-0.282	-0.073
-320.056	-100.677	-0.112	0.028
-319.041	-26.980	0.158	-0.094
-318.026	-76.731	-0.244	0.087
-317.012	800.000	0.091	0.350
-315.997	521.460	0.113	0.268
-314.983	-74.188	-0.206	0.076
-313.968	-126.966	-0.215	-0.032
-312.953	-12.353	-0.299	-0.198
-311.939	582.995	-0.050	0.124
-310.924	-200.000	0.008	0.047
-309.910	-88.242	0.349	0.106
-308.895	-106.298	0.119	-0.027
-307.880	-200.000	0.004	0.087
-306.866	-118.616	-0.142	0.025
-305.851	800.000	-0.019	0.064
-304.837	156.165	0.214	0.298
-303.822	-53.106	0.341	0.159
-302.807	-82.571	-0.147	0.048
-301.793	173.728	-0.109	-0.159
-300.778	-21.824	0.162	-0.100
-299.764	-76.098	0.169	0.061
-298.749	-200.000	-0.022	-0.156
-297.735	-200.000	0.032	-0.216
-296.720	330.583	-0.145	0.283
-295.705	258.801	0.255	0.445
-294.691	-33.054	0.160	0.090
-293.676	-25.383	0.254	-0.152
-292.662	383.691	-0.029	-0.060
-291.647	589.548	0.123	-0.308
-290.632	-200.000	-0.035	0.303
-289.618	800.000	-0.085	0.349
-288.603	263.351	0.056	0.099
-287.589	-22.620	0.102	-0.063
-286.574	238.266	0.146	0.246
-285.559	-56.964	0.052	-0.023
-284.545	145.720	-0.021	-0.028
-283.530	-41.811	-0.187	-0.097
-282.516	800.000	-0.049	-0.145
-281.501	310.910	0.091	0.173
-280.486	-200.000	-0.031	0.449
-279.472	-58.602	-0.263	0.116
-278.457	63.349	0.099	0.100
-277.443	-46.873	-0.290	-0.144
-276.428	-200.000	-0.005	0.030
-275.413	-119.885	-0.181	-0.032
-274.399	18.377	0.238	0.192
-273.384	37.384	-0.173	0.155
-272.370	435.570	-0.137	-0.302
-271.355	-200.000	0.119	0.000
-270.340	-149.589	-0.156	0.012
-269.326	221.929	-0.260	0.423
-268.311	800.000	0.052	0.204
-267.297	-89.196	-0.140	0.042
-266.282	-133.092	-0.115	-0.015
-265.267	-91.098	-0.382	-0.111
-264.253	25.221	-0.168	0.141
-263.238	-181.872	-0.336	0.006
-262.224	23.115	0.346	-0.287
-261.209	-200.000	0.022	-0.217
-260.195	-122.211	0.144	0.024
-259.180	-115.248	-0.038	0.007
-258.165	317.444	-0.129	-0.247
-257.151	-108.451	0.366	0.080
-256.136	800.000	-0.017	0.055
-255.122	800.000	-0.054	-0.158
-254.107	-5.906	0.028	-0.020
-253.092	-88.685	0.031	-0.009
-252.078	800.000	-0.122	-0.378
-251.063	-2.773	-0.258	0.182
-250.049	106.936	0.247	0.297
-249.034	-16.296	-0.283	0.182
-248.019	202.607	0.236	0.369
-247.005	-51.547	0.174	0.082
-245.990	-200.000	0.078	-0.544
-244.976	361.246	0.006	0.012
-243.961	83.188	0.091	-0.101
-242.946	-122.664	0.194	0.032
-241.932	25.533	-0.333	0.280
-240.917	-57.026	-0.264	-0.118
-239.903	-85.986	-0.207	0.065
-238.888	-92.404	-0.372	0.106
-237.873	-53.062	0.400	-0.186
-236.859	-200.000	0.039	-0.244
-235.844	-39.189	-0.395	0.210
-234.830	-47.199	-0.160	0.079
-233.815	-97.675	0.087	-0.023
-232.800	-200.000	0.050	0.280
-231.786	-17.982	-0.016	-0.010
-230.771	6.251	-0.291	-0.218
-229.757	-55.132	0.186	-0.084
-228.742	800.000	-0.069	0.284
-227.727	-155.342	-0.341	-0.022
-226.713	64.837	0.171	-0.175
-225.698	152.295	-0.144	0.198
-224.684	163.878	-0.124	-0.177
-223.669	112.205	0.109	0.133
-222.655	111.675	-0.079	0.096
-221.640	-83.872	-0.087	-0.028
-220.625	-83.017	-0.263	-0.085
-219.611	-157.281	-0.223	-0.014
-218.596	800.000	0.092	-0.327
-217.582	-99.325	-0.191	-0.049
-216.567	-35.392	0.068	0.037
-215.552	-18.361	-0.271	-0.171
-214.538	-200.000	0.029	-0.244
-213.523	459.636	0.048	-0.109
-212.509	800.000	-0.056	-0.218
-211.494	48.376	0.146	0.138
-210.479	142.886	0.094	0.126
-209.465	-121.365	-0.395	0.066
-208.450	796.802	-0.025	0.070
-207.436	51.198	0.217	-0.208
-206.421	800.000	0.077	0.245
-205.406	800.000	0.080	0.249
-204.392	154.898	-0.149	0.207
-203.377	-114.321	-0.167	0.032
-202.363	-32.232	0.224	0.126
-201.348	104.153	-0.126	-0.149
-200.333	-34.242	0.251	-0.139
-199.319	-96.033	0.262	0.070
-198.304	19.274	0.269	-0.218
-197.290	-200.000	0.004	-0.050
-196.275	295.827	-0.055	-0.102
-195.260	648.542	-0.118	-0.305
-194.246	-45.967	0.271	0.135
-193.231	124.614	-0.168	0.213
-192.217	-200.000	-0.035	0.188
-191.202	-200.000	0.014	-0.064
-190.187	-186.457	0.361	-0.005
-189.173	-90.388	0.089	-0.026
-188.158	-127.334	-0.186	-0.027
-187.144	-200.000	-0.024	-0.164
-186.129	-148.486	-0.280	0.023
-185.114	-12.849	0.350	-0.230
-184.100	800.000	0.020	-0.081
-183.085	-7.365	0.181	-0.124
-182.071	-27.296	0.083	-0.049
-181.056	800.000	-0.028	-0.093
-180.042	800.000	0.095	0.273
-179.027	78.614	-0.250	0.270
-178.012	-35.103	-0.088	-0.048
-176.998	155.818	0.052	-0.073
-175.983	92.238	-0.130	0.147
-174.969	-200.000	0.023	-0.105
-173.954	-177.697	0.569	0.014
-172.939	-200.000	0.016	-0.092
-171.925	-8.101	0.179	-0.121
-170.910	425.525	-0.097	0.210
-169.896	-171.446	-0.085	-0.003
-168.881	-200.000	-0.005	0.193
-167.866	-12.510	0.140	-0.092
-166.852	-50.641	0.432	0.205
-165.837	66.848	0.224	0.230
-164.823	-40.053	-0.189	0.099
-163.808	-58.328	-0.091	-0.040
-162.793	119.438	0.165	-0.205
-161.779	800.000	0.059	-0.202
-160.764	-76.380	-0.211	-0.075
-159.750	232.070	0.233	-0.386
-158.735	-92.793	0.121	-0.034
-157.720	-200.000	-0.010	0.198
-156.706	64.541	-0.158	-0.160
-155.691	227.881	0.184	0.301
-154.677	-68.505	-0.314	-0.122
-153.662	800.000	-0.070	0.283
-152.647	-142.698	-0.048	0.005
-151.633	800.000	-0.037	-0.124
-150.618	437.438	0.087	0.190
-149.604	-105.352	0.371	-0.085
-148.589	800.000	0.094	0.308
-147.574	100.491	-0.231	0.270
-146.560	-74.480	-0.107	0.039
-145.545	-200.000	0.049	0.327
-144.531	-200.000	0.064	-0.426
-143.516	-149.059	0.298	0.024
-142.502	45.697	0.263	0.245
-141.487	203.668	-0.227	0.354
-140.472	-118.654	-0.187	-0.033
-139.458	41.913	0.177	0.162
-138.443	-144.882	-0.178	-0.016
-137.429	800.000	-0.068	0.191
-136.414	269.915	0.115	-0.203
-135.399	-178.394	0.296	0.007
-134.385	298.434	0.162	0.300
-133.370	-79.450	-0.126	-0.043
-132.356	60.784	-0.172	-0.171
-131.341	800.000	0.015	-0.052
-130.326	-31.680	-0.344	0.194
-129.312	800.000	-0.131	-0.370
-128.297	-101.090	-0.205	0.050
-127.283	-62.611	0.092	-0.038
-126.268	206.199	0.075	-0.118
-125.253	-134.273	-0.179	-0.022
-124.239	484.504	-0.041	-0.094
-123.224	138.002	-0.088	0.116
-122.210	-55.227	0.286	-0.129
-121.195	251.599	-0.168	0.287
