DTS Sentinel unit serial number:	SN413079Multiplexer serial number:	ORYXHardware model number:	OX4-SRSoftware version number:	ORYX F/W v4.00 Oryx Data Collector v3.7.2.0data status	okinstallation	princeton_trtdifferential loss correction	single-endedforward channel	channel 4reverse channel	N/Adate	2019/09/11time	16:07:11forward acquisition time	60.00reverse acquisition time	0.00gamma	496.2192k internal	0.2277k external	0.2277temperature offset calibration	1.0015default loss term (dB/km)	0.3790temperature slope calibration	1.0000multiplexer offset coefficient	1.0000multiplexer slope coefficient	1.0000fibre end	0.00T internal ref (°C)	43.19T ext. ref 1 (°C)	1.05T ext. ref 2 (°C)	38.87length (m)	temperature (°C)	Stokes	anti-Stokes-747.200	-200.000	0.065	-0.356
-746.185	-200.000	0.008	0.188
-745.171	-38.603	0.063	-0.034
-744.156	-71.831	-0.226	-0.087
-743.142	270.273	0.011	-0.020
-742.127	-25.010	0.207	-0.127
-741.112	-23.827	-0.303	-0.187
-740.098	-200.000	-0.011	0.112
-739.083	236.973	-0.066	0.112
-738.069	262.402	-0.121	0.216
-737.054	-200.000	-0.005	-0.237
-736.039	-187.872	-0.120	-0.002
-735.025	-200.000	0.033	0.378
-734.010	29.425	-0.189	0.165
-732.996	601.163	0.047	0.121
-731.981	102.405	-0.185	-0.222
-730.966	-127.295	-0.110	-0.017
-729.952	-14.438	0.253	0.168
-728.937	55.877	-0.308	-0.307
-727.923	148.432	0.099	0.137
-726.908	205.012	-0.065	-0.103
-725.894	751.465	0.020	0.055
-724.879	-86.917	-0.147	-0.046
-723.864	-200.000	0.000	0.219
-722.850	-200.000	-0.009	0.421
-721.835	800.000	0.098	-0.376
-720.821	-79.644	-0.064	-0.022
-719.806	-184.137	-0.096	0.002
-718.791	-129.266	0.301	0.043
-717.777	-135.990	-0.153	0.019
-716.762	-78.087	-0.212	-0.075
-715.748	91.968	-0.147	-0.170
-714.733	-91.143	0.037	-0.011
-713.718	-115.359	0.500	0.097
-712.704	130.242	0.185	-0.244
-711.689	-179.826	-0.229	0.005
-710.675	-84.644	-0.054	-0.017
-709.660	-165.315	0.009	-0.000
-708.645	-200.000	-0.015	0.070
-707.631	26.150	-0.206	0.177
-706.616	800.000	0.055	-0.201
-705.602	101.294	-0.149	0.178
-704.587	59.265	0.264	-0.268
-703.572	78.389	-0.072	-0.080
-702.558	355.216	0.151	-0.308
-701.543	346.559	0.099	-0.201
-700.529	-103.186	-0.234	-0.057
-699.514	458.980	-0.112	0.256
-698.499	290.448	-0.142	-0.266
-697.485	-95.311	-0.097	-0.027
-696.470	554.631	-0.051	-0.126
-695.456	-16.069	0.203	-0.133
-694.441	-200.000	0.005	0.104
-693.426	-93.855	0.237	0.067
-692.412	-34.688	0.082	0.046
-691.397	-100.379	0.188	-0.048
-690.383	-200.000	-0.021	-0.405
-689.368	10.464	-0.115	-0.090
-688.354	-122.048	-0.202	-0.034
-687.339	800.000	-0.042	-0.148
-686.324	133.696	0.130	-0.173
-685.310	800.000	0.081	-0.263
-684.295	800.000	-0.052	-0.203
-683.281	800.000	-0.062	-0.235
-682.266	800.000	-0.161	0.593
-681.251	-151.168	-0.436	-0.034
-680.237	-200.000	0.020	-0.284
-679.222	800.000	0.116	-0.339
-678.208	47.545	0.215	-0.206
-677.193	-53.616	-0.303	-0.142
-676.178	-52.352	0.312	-0.148
-675.164	118.810	-0.107	0.136
-674.149	489.862	-0.125	0.294
-673.135	-118.544	-0.230	-0.042
-672.120	800.000	0.039	0.129
-671.105	615.389	-0.084	0.215
-670.091	-103.962	-0.123	0.029
-669.076	-125.254	0.241	-0.038
-668.062	800.000	0.028	-0.083
-667.047	-200.000	0.020	-0.095
-666.032	0.804	-0.146	-0.107
-665.018	-24.757	-0.160	0.098
-664.003	94.679	0.157	0.183
-662.989	124.269	0.183	-0.237
-661.974	5.248	-0.196	-0.148
-660.959	-102.723	-0.206	-0.050
-659.945	-96.597	-0.296	-0.080
-658.930	-136.253	-0.057	0.007
-657.916	-129.680	0.102	-0.015
-656.901	-40.228	0.022	-0.012
-655.886	-10.447	0.206	0.140
-654.872	5.911	-0.244	-0.185
-653.857	445.778	0.128	-0.290
-652.843	-152.351	0.251	0.019
-651.828	66.431	0.146	0.152
-650.814	800.000	-0.125	-0.361
-649.799	66.649	-0.255	-0.266
-648.784	366.411	0.043	0.088
-647.770	-61.892	-0.320	-0.137
-646.755	-139.177	0.207	0.023
-645.741	-31.604	-0.042	0.024
-644.726	-44.211	0.134	0.069
-643.711	-200.000	0.002	0.087
-642.697	183.342	0.121	0.183
-641.682	217.779	-0.025	-0.042
-640.668	-69.779	-0.157	0.061
-639.653	-21.629	0.254	0.159
-638.638	50.112	-0.146	-0.141
-637.624	-25.296	-0.125	-0.076
-636.609	48.250	-0.091	0.087
-635.595	505.281	0.103	-0.244
-634.580	-146.461	-0.198	-0.018
-633.565	-40.496	-0.203	0.108
-632.551	-39.924	-0.162	0.087
-631.536	-66.273	-0.182	-0.074
-630.522	-118.679	-0.187	0.034
-629.507	-66.347	0.092	0.037
-628.492	800.000	-0.006	-0.026
-627.478	-200.000	0.226	-0.001
-626.463	-148.004	-0.544	-0.046
-625.449	-93.068	-0.292	-0.084
-624.434	-143.044	0.219	-0.022
-623.419	156.108	-0.047	0.067
-622.405	-200.000	-0.012	-0.106
-621.390	-118.383	-0.050	0.009
-620.376	48.368	-0.094	0.091
-619.361	9.673	-0.177	0.138
-618.346	-200.000	-0.015	0.072
-617.332	64.248	0.192	0.198
-616.317	-200.000	0.039	-0.201
-615.303	-110.251	-0.406	0.087
-614.288	800.000	-0.042	0.126
-613.273	800.000	-0.063	0.192
-612.259	-43.888	-0.182	0.094
-611.244	-40.380	-0.143	-0.076
-610.230	30.154	-0.255	-0.223
-609.215	-192.975	-0.259	0.002
-608.201	-79.952	-0.176	-0.061
-607.186	201.953	0.077	-0.122
-606.171	800.000	0.050	0.143
-605.157	-200.000	0.018	0.145
-604.142	28.760	0.233	0.202
-603.128	-31.787	0.370	0.213
-602.113	37.828	0.151	-0.138
-601.098	-37.162	-0.307	0.169
-600.084	-51.171	0.198	0.095
-599.069	-102.869	0.229	-0.056
-598.055	-200.000	0.004	0.427
-597.040	-106.571	0.115	-0.026
-596.025	103.834	-0.174	0.209
-595.011	-79.933	0.428	0.147
-593.996	522.935	0.104	-0.251
-592.982	-55.023	-0.121	-0.056
-591.967	46.521	-0.306	0.291
-590.952	-84.617	-0.298	0.096
-589.938	41.463	-0.167	0.155
-588.923	-144.668	0.179	-0.017
-587.909	-55.701	0.070	-0.032
-586.894	800.000	0.049	-0.168
-585.879	253.747	-0.312	0.546
-584.865	-160.891	-0.099	0.005
-583.850	-152.716	0.202	0.015
-582.836	-125.773	-0.187	0.029
-581.821	-97.648	-0.276	-0.073
-580.806	800.000	0.068	0.216
-579.792	218.203	0.131	0.215
-578.777	-73.964	-0.255	-0.095
-577.763	-200.000	0.002	0.157
-576.748	187.426	0.187	-0.285
-575.733	-40.332	-0.237	-0.126
-574.719	800.000	0.042	0.161
-573.704	-12.961	0.335	-0.223
-572.690	-31.535	-0.128	-0.074
-571.675	-200.000	0.007	-0.208
-570.661	-61.333	0.275	-0.118
-569.646	-56.657	0.123	-0.056
-568.631	18.644	0.149	0.122
-567.617	-121.585	-0.166	-0.028
-566.602	800.000	0.045	0.157
-565.588	-200.000	0.010	-0.085
-564.573	-60.288	0.108	0.047
-563.558	94.496	0.107	-0.124
-562.544	665.035	-0.037	0.098
-561.529	116.178	-0.180	0.225
-560.515	800.000	-0.014	0.062
-559.500	-200.000	-0.002	-0.057
-558.485	-165.519	0.190	0.008
-557.471	-104.005	-0.206	-0.049
-556.456	-84.946	-0.097	0.031
-555.442	-200.000	0.004	-0.090
-554.427	609.357	-0.067	0.171
-553.412	61.732	-0.198	0.202
-552.398	114.145	0.068	-0.084
-551.383	151.970	0.167	0.233
-550.369	121.760	0.198	-0.252
-549.354	103.013	0.164	-0.197
-548.339	61.411	0.200	-0.203
-547.325	-200.000	-0.007	0.065
-546.310	800.000	0.057	-0.210
-545.296	-144.082	0.218	0.021
-544.281	31.557	0.095	-0.083
-543.266	573.227	-0.207	-0.517
-542.252	-90.201	0.241	-0.072
-541.237	408.193	0.053	-0.114
-540.223	-142.286	-0.050	-0.005
-539.208	-200.000	0.020	-0.089
-538.193	-7.569	0.386	-0.267
-537.179	-4.390	-0.155	0.110
-536.164	55.354	0.085	-0.084
-535.150	-176.563	0.078	-0.002
-534.135	111.378	-0.132	-0.162
-533.121	-144.492	-0.332	0.031
-532.106	-200.000	0.035	0.378
-531.091	800.000	0.047	-0.196
-530.077	-103.403	0.036	0.009
-529.062	83.929	-0.186	-0.208
-528.048	162.227	0.150	-0.215
-527.033	-159.269	-0.282	0.016
-526.018	95.423	-0.239	-0.279
-525.004	-200.000	0.006	-0.104
-523.989	212.247	-0.083	0.134
-522.975	221.665	0.038	0.062
-521.960	-200.000	-0.018	-0.134
-520.945	-137.624	0.362	0.042
-519.931	-200.000	-0.016	-0.146
-518.916	-171.242	-0.103	-0.004
-517.902	800.000	-0.040	-0.120
-516.887	246.379	0.061	0.105
-515.872	-126.321	0.317	0.048
-514.858	169.692	-0.102	-0.148
-513.843	-149.976	-0.082	0.007
-512.829	149.822	-0.129	0.179
-511.814	34.662	-0.114	0.101
-510.799	54.262	-0.049	-0.048
-509.785	274.020	0.130	-0.235
-508.770	561.999	-0.078	-0.193
-507.756	64.104	-0.193	0.199
-506.741	-200.000	-0.029	-0.216
-505.726	33.552	-0.072	-0.064
-504.712	700.200	0.040	0.107
-503.697	-200.000	-0.000	-0.041
-502.683	-162.882	-0.143	-0.007
-501.668	212.560	-0.098	-0.158
-500.653	800.000	-0.113	0.471
-499.639	69.066	-0.092	0.097
-498.624	-200.000	-0.005	-0.031
-497.610	-91.631	-0.306	-0.089
-496.595	-200.000	-0.002	-0.065
-495.581	-29.572	0.230	-0.134
-494.566	-100.804	-0.028	-0.007
-493.551	-111.034	-0.316	0.066
-492.537	800.000	-0.082	0.349
-491.522	-147.165	0.221	0.019
-490.508	61.429	-0.013	-0.013
-489.493	-200.000	0.003	-0.366
-488.478	234.225	0.098	-0.165
-487.464	-141.515	0.253	0.026
-486.449	-200.000	0.051	-0.308
-485.435	-24.228	-0.079	-0.048
-484.420	-200.000	0.026	0.311
-483.405	571.421	-0.162	0.402
-482.391	-200.000	-0.001	-0.163
-481.376	-64.185	0.097	0.040
-480.362	-154.806	0.153	-0.010
-479.347	-82.089	-0.231	0.077
-478.332	142.236	0.142	-0.192
-477.318	-83.277	0.419	0.137
-476.303	800.000	0.040	-0.161
-475.289	-200.000	0.033	0.293
-474.274	-200.000	0.015	0.089
-473.259	42.855	0.101	0.094
-472.245	471.144	-0.008	-0.018
-471.230	-25.458	0.075	0.045
-470.216	185.682	-0.366	0.554
-469.201	199.845	0.175	0.273
-468.186	-49.601	-0.029	-0.014
-467.172	81.145	-0.040	-0.044
-466.157	28.403	-0.218	0.188
-465.143	165.517	-0.171	0.247
-464.128	-101.800	0.203	-0.050
-463.113	54.598	0.206	0.202
-462.099	45.839	0.161	0.151
-461.084	28.900	-0.147	0.127
-460.070	800.000	-0.057	0.206
-459.055	-108.898	0.176	0.038
-458.040	425.489	-0.030	0.067
-457.026	-67.359	0.112	-0.045
-456.011	-82.338	0.154	0.051
-454.997	427.361	0.084	0.184
-453.982	-58.109	-0.097	-0.043
-452.968	800.000	0.039	0.144
-451.953	43.649	-0.246	-0.229
-450.938	-120.227	0.258	0.045
-449.924	21.985	0.372	-0.309
-448.909	-116.094	0.168	0.032
-447.895	51.681	0.191	0.185
-446.880	800.000	-0.047	-0.184
-445.865	66.327	0.096	-0.099
-444.851	-200.000	0.009	-0.092
-443.836	800.000	0.061	0.179
-442.822	38.381	0.044	-0.040
-441.807	-91.799	-0.310	-0.090
-440.792	-105.258	0.412	-0.096
-439.778	62.742	-0.059	-0.060
-438.763	800.000	0.037	0.146
-437.749	-79.570	0.210	-0.072
-436.734	-61.123	-0.398	0.171
-435.719	6.479	0.175	-0.133
-434.705	-125.024	-0.307	-0.048
-433.690	614.767	0.024	-0.062
-432.676	-76.520	-0.123	0.044
-431.661	-12.815	-0.120	0.079
-430.646	23.676	0.226	-0.189
-429.632	529.352	0.059	-0.142
-428.617	-29.252	-0.151	0.088
-427.603	-48.116	-0.431	-0.212
-426.588	226.569	0.140	0.231
-425.573	130.295	0.068	0.089
-424.559	-114.689	0.038	0.007
-423.544	-20.795	-0.278	-0.173
-422.530	-34.163	-0.191	0.107
-421.515	800.000	0.072	0.244
-420.500	356.361	0.111	-0.226
-419.486	-61.712	0.298	0.127
-418.471	52.879	-0.108	-0.105
-417.457	-67.993	0.269	0.107
-416.442	711.722	-0.023	0.061
-415.428	122.669	-0.064	0.081
-414.413	351.843	0.093	0.188
-413.398	55.350	0.154	-0.151
-412.384	464.749	0.115	-0.261
-411.369	100.199	0.097	-0.114
-410.355	61.565	-0.267	0.270
-409.340	-21.681	0.372	-0.231
-408.325	-112.361	0.327	-0.067
-407.311	83.229	0.166	-0.184
-406.296	100.436	-0.105	-0.124
-405.282	800.000	-0.040	0.136
-404.267	-11.297	-0.163	0.109
-403.252	-200.000	0.035	-0.207
-402.238	-200.000	0.084	0.433
-401.223	-19.754	0.289	0.181
-400.209	95.173	-0.223	0.258
-399.194	-19.033	-0.095	0.060
-398.179	193.568	-0.161	0.248
-397.165	-2.128	-0.095	0.068
-396.150	-149.412	0.222	-0.018
-395.136	263.641	-0.200	0.354
-394.121	-50.836	-0.159	0.076
-393.106	-88.995	0.145	0.044
-392.092	188.590	0.075	-0.115
-391.077	97.328	0.106	-0.124
-390.063	221.190	-0.147	-0.240
-389.048	-200.000	0.041	-0.194
-388.033	-48.562	0.187	-0.092
-387.019	59.468	-0.146	0.146
-386.004	-56.378	0.106	-0.048
-384.990	-200.000	0.004	-0.388
-383.975	354.461	-0.028	-0.057
-382.960	57.093	0.329	-0.326
-381.946	103.118	-0.250	0.297
-380.931	-179.767	-0.265	0.006
-379.917	-179.450	-0.206	0.005
-378.902	106.694	0.394	-0.475
-377.888	-200.000	-0.005	-0.160
-376.873	-39.084	-0.184	-0.098
-375.858	27.477	0.139	0.119
-374.844	195.438	-0.179	-0.277
-373.829	-162.935	-0.498	-0.025
-372.815	247.059	-0.139	0.239
-371.800	216.101	0.214	0.345
-370.785	232.721	-0.071	0.118
-369.771	48.348	-0.271	0.258
-368.756	-22.453	0.307	0.189
-367.742	134.582	-0.117	-0.155
-366.727	-28.389	-0.254	-0.149
-365.712	3.999	-0.270	-0.201
-364.698	800.000	0.045	0.188
-363.683	-169.176	0.224	-0.008
-362.669	334.999	0.063	-0.124
-361.654	800.000	0.060	-0.209
-360.639	-200.000	-0.045	-0.370
-359.625	23.544	-0.030	-0.025
-358.610	12.356	0.206	-0.161
-357.596	-119.219	0.081	-0.014
-356.581	168.892	-0.202	0.292
-355.566	71.461	-0.064	-0.068
-354.552	-97.194	0.136	-0.036
-353.537	-200.000	0.028	0.429
-352.523	-153.680	-0.405	-0.028
-351.508	-117.785	0.161	0.029
-350.493	-1.441	0.134	-0.096
-349.479	169.734	-0.098	-0.142
-348.464	-200.000	0.006	0.179
-347.450	-79.749	0.094	0.032
-346.435	-141.037	-0.044	0.005
-345.420	-85.814	-0.203	-0.064
-344.406	-55.401	0.157	0.072
-343.391	-34.593	-0.123	0.068
-342.377	-6.088	0.213	-0.148
-341.362	555.759	-0.135	0.330
-340.348	-183.288	-0.291	-0.005
-339.333	-52.657	0.163	0.076
-338.318	-66.140	-0.058	0.024
-337.304	800.000	-0.079	-0.342
-336.289	-41.905	0.211	-0.110
-335.275	-58.086	-0.080	0.035
-334.260	-63.946	0.248	0.103
-333.245	249.720	0.038	0.066
-332.231	427.417	0.059	0.130
-331.216	-61.314	-0.256	0.109
-330.202	-148.834	0.134	0.011
-329.187	800.000	0.009	0.036
-328.172	-79.108	0.170	0.059
-327.158	605.319	0.090	0.228
-326.143	-139.126	-0.288	0.032
-325.129	-75.450	0.215	-0.078
-324.114	-95.239	0.360	0.098
-323.099	529.122	-0.037	0.089
-322.085	-151.632	0.136	-0.010
-321.070	49.868	0.158	0.151
-320.056	800.000	-0.043	-0.138
-319.041	36.967	0.142	-0.128
-318.026	-200.000	0.010	-0.109
-317.012	-74.095	-0.307	0.113
-315.997	-142.688	-0.148	0.015
-314.983	-127.189	0.233	-0.035
-313.968	421.792	-0.149	-0.324
-312.953	-88.569	0.312	-0.094
-311.939	-13.289	0.045	-0.030
-310.924	800.000	0.059	-0.183
-309.910	-21.016	-0.209	0.130
-308.895	-47.331	-0.202	-0.100
-307.880	-105.326	-0.208	-0.048
-306.866	-42.248	0.175	-0.091
-305.851	-39.887	-0.235	0.124
-304.837	-200.000	-0.050	-0.280
-303.822	-200.000	-0.007	-0.360
-302.807	-93.761	-0.244	0.068
-301.793	-25.535	-0.179	0.107
-300.778	142.916	0.099	-0.134
-299.764	-61.605	-0.413	-0.175
-298.749	784.139	0.071	-0.196
-297.735	413.987	-0.032	-0.069
-296.720	-200.000	0.046	0.292
-295.705	304.601	-0.068	-0.128
-294.691	323.296	-0.048	-0.092
-293.676	-92.975	0.250	-0.071
-292.662	77.773	0.018	-0.019
-291.647	-70.287	0.325	0.125
-290.632	-200.000	0.002	0.045
-289.618	-200.000	0.031	0.369
-288.603	-183.699	0.402	-0.007
-287.589	800.000	0.100	0.289
-286.574	510.000	0.085	0.201
-285.559	-200.000	0.001	-0.089
-284.545	50.312	-0.233	-0.223
-283.530	470.235	0.079	-0.179
-282.516	14.258	-0.229	-0.180
-281.501	288.060	0.104	0.191
-280.486	-61.276	0.223	-0.095
-279.472	-118.669	0.297	-0.053
-278.457	-200.000	-0.054	-0.284
-277.443	-104.347	-0.250	0.059
-276.428	-21.970	-0.117	0.072
-275.413	-123.860	-0.101	0.016
-274.399	800.000	-0.043	-0.172
-273.384	-124.775	0.348	0.054
-272.370	391.509	-0.073	0.154
-271.355	69.904	-0.086	-0.090
-270.340	-10.012	-0.095	0.064
-269.326	-147.684	0.173	-0.015
-268.311	800.000	0.042	-0.155
-267.297	132.505	0.164	-0.214
-266.282	800.000	-0.089	-0.273
-265.267	800.000	0.058	0.221
-264.253	-200.000	0.021	0.392
-263.238	-81.600	-0.176	-0.058
-262.224	800.000	0.042	0.180
-261.209	-97.320	0.115	0.030
-260.195	-90.831	-0.430	0.125
-259.180	-160.953	0.059	0.003
-258.165	800.000	0.043	-0.183
-257.151	-200.000	-0.037	0.215
-256.136	-70.575	0.352	-0.135
-255.122	-139.955	0.202	-0.022
-254.107	34.760	-0.264	-0.233
-253.092	22.991	-0.120	-0.100
-252.078	65.091	-0.114	0.117
-251.063	-174.509	0.091	-0.003
-250.049	363.281	0.195	0.395
-249.034	-58.893	0.328	0.143
-248.019	800.000	-0.109	-0.325
-247.005	205.352	-0.159	0.249
-245.990	143.150	-0.097	0.130
-244.976	-85.327	-0.160	0.050
-243.961	-120.549	0.509	-0.087
-242.946	-68.092	0.176	0.069
-241.932	106.163	0.114	0.136
-240.917	423.042	-0.147	-0.318
-239.903	59.975	0.099	0.098
-238.888	4.094	-0.313	0.231
-237.873	-200.000	0.037	0.308
-236.859	38.069	-0.237	0.213
-235.844	-129.757	-0.295	-0.041
-234.830	63.731	-0.016	0.016
-233.815	-43.231	-0.171	-0.088
-232.800	800.000	-0.144	0.424
-231.786	109.287	0.112	-0.136
-230.771	800.000	0.041	-0.120
-229.757	-40.825	0.123	0.064
-228.742	-78.189	-0.236	-0.082
-227.727	-200.000	-0.002	-0.405
-226.713	8.790	-0.231	-0.176
-225.698	-53.907	-0.079	0.036
-224.684	-137.454	0.164	0.019
-223.669	597.760	-0.049	-0.122
-222.655	-30.557	0.365	0.209
-221.640	27.858	-0.256	-0.218
-220.625	-200.000	-0.006	0.305
-219.611	-189.713	-0.040	0.000
-218.596	308.097	-0.110	-0.207
-217.582	-200.000	-0.027	-0.144
-216.567	-135.108	0.113	-0.014
-215.552	-18.197	-0.191	0.121
-214.538	800.000	-0.047	0.199
-213.523	84.760	0.120	0.133
-212.509	144.132	-0.149	-0.200
-211.494	-200.000	-0.398	0.001
-210.479	54.024	0.038	-0.037
-209.465	67.710	-0.134	-0.139
-208.450	203.105	-0.015	-0.023
-207.436	-127.007	0.368	0.055
-206.421	200.039	-0.098	-0.152
-205.406	-89.917	0.279	-0.082
-204.392	-129.542	-0.139	-0.019
-203.377	20.069	-0.066	0.054
-202.363	390.383	0.081	0.168
-201.348	186.730	0.080	-0.120
-200.333	108.485	-0.131	-0.157
-199.319	237.390	-0.040	-0.068
-198.304	-188.728	0.058	-0.001
-197.290	158.990	0.117	0.164
-196.275	800.000	0.059	-0.173
-195.260	159.624	-0.274	-0.385
-194.246	-200.000	-0.048	0.261
-193.231	-96.306	-0.201	0.054
-192.217	607.091	-0.145	0.364
-191.202	202.606	0.179	0.279
-190.187	-165.272	0.230	-0.010
-189.173	-24.330	-0.145	0.087
-188.158	-78.371	0.096	-0.033
-187.144	800.000	0.089	0.273
-186.129	-46.305	0.334	-0.166
-185.114	102.150	-0.025	0.030
-184.100	34.870	0.181	0.160
-183.085	89.782	0.311	-0.350
-182.071	-200.000	-0.034	0.340
-181.056	-149.838	0.289	0.023
-180.042	186.939	-0.184	-0.277
-179.027	-67.572	-0.176	-0.069
-178.012	-56.430	0.241	0.108
-176.998	28.617	-0.037	-0.032
-175.983	101.053	0.069	-0.081
-174.969	153.810	-0.154	-0.213
-173.954	36.106	0.272	-0.241
-172.939	596.030	0.106	0.264
-171.925	-200.000	0.011	0.152
-170.910	-200.000	0.006	0.033
-169.896	800.000	-0.060	0.187
-168.881	42.071	-0.159	0.145
-167.866	-200.000	0.036	-0.261
-166.852	-104.161	0.112	-0.026
-165.837	-200.000	0.030	-0.166
-164.823	-101.481	0.184	0.045
-163.808	-101.031	0.347	-0.086
-162.793	-25.277	-0.180	-0.108
-161.779	180.664	-0.104	-0.154
-160.764	4.883	0.209	-0.155
-159.750	200.977	-0.099	-0.153
-158.735	127.782	-0.164	-0.209
-157.720	626.230	-0.103	0.261
-156.706	94.438	0.144	-0.164
-155.691	10.355	-0.094	-0.072
-154.677	800.000	0.127	-0.446
-153.662	77.432	0.306	-0.328
-152.647	689.497	0.046	0.121
-151.633	-72.243	0.084	0.031
-150.618	-105.107	-0.146	-0.034
-149.604	85.734	0.256	0.284
-148.589	-158.594	-0.304	-0.018
-147.574	-200.000	-0.045	-0.228
-146.560	1.923	0.263	0.191
-145.545	-42.090	0.261	0.134
-144.531	100.585	0.174	0.204
-143.516	-177.435	-0.203	-0.005
-142.502	-47.600	-0.107	0.052
-141.487	-19.832	-0.340	0.212
-140.472	-179.398	-0.268	0.006
-139.458	67.366	-0.312	0.320
-138.443	16.246	0.318	0.253
-137.429	15.148	-0.139	0.110
-136.414	-43.448	0.150	0.076
-135.399	-21.317	-0.026	0.016
-134.385	483.756	0.165	0.377
-133.370	-200.000	0.004	-0.031
-132.356	283.904	0.098	-0.178
-131.341	349.933	0.219	-0.435
-130.326	94.987	-0.031	-0.035
-129.312	-144.363	-0.418	0.039
-128.297	-61.675	0.199	0.084
-127.283	25.740	0.132	-0.111
-126.268	-200.000	0.020	-0.293
-125.253	-37.022	-0.245	0.132
-124.239	-56.210	0.316	-0.142
-123.224	-97.695	-0.063	-0.016
-122.210	30.181	0.046	0.040
-121.195	-2.476	0.137	-0.096
