DTS Sentinel unit serial number:	SN413079Multiplexer serial number:	ORYXHardware model number:	OX4-SRSoftware version number:	ORYX F/W v4.00 Oryx Data Collector v3.7.2.0data status	okinstallation	princeton_trtdifferential loss correction	single-endedforward channel	channel 4reverse channel	N/Adate	2019/09/16time	21:01:35forward acquisition time	60.00reverse acquisition time	0.00gamma	496.2192k internal	0.2313k external	0.2313temperature offset calibration	0.9964default loss term (dB/km)	0.3790temperature slope calibration	1.0000multiplexer offset coefficient	1.0000multiplexer slope coefficient	1.0000fibre end	0.00T internal ref (°C)	32.00T ext. ref 1 (°C)	0.04T ext. ref 2 (°C)	25.42length (m)	temperature (°C)	Stokes	anti-Stokes-747.200	244.604	0.053	0.090
-746.185	-200.000	0.011	0.537
-745.171	-62.359	0.076	0.032
-744.156	-200.000	0.033	0.211
-743.142	-173.993	0.185	0.006
-742.127	-115.783	-0.255	0.048
-741.112	130.084	0.104	0.136
-740.098	800.000	0.166	0.678
-739.083	-27.165	0.088	0.052
-738.069	720.594	0.079	0.213
-737.054	25.077	0.174	0.146
-736.039	-141.463	0.055	-0.006
-735.025	584.065	-0.092	0.229
-734.010	144.107	0.082	-0.110
-732.996	-200.000	0.058	-0.305
-731.981	-200.000	-0.036	0.197
-730.966	-15.324	0.077	0.050
-729.952	77.280	-0.159	-0.172
-728.937	800.000	-0.098	0.422
-727.923	-200.000	0.014	0.091
-726.908	-37.540	0.219	0.119
-725.894	178.505	0.040	0.059
-724.879	-83.663	0.152	0.049
-723.864	13.919	-0.277	0.218
-722.850	-200.000	-0.006	0.134
-721.835	-126.571	-0.115	-0.017
-720.821	707.632	-0.012	-0.033
-719.806	-91.275	0.266	0.077
-718.791	-200.000	0.030	0.374
-717.777	81.216	-0.214	-0.235
-716.762	-126.386	0.251	0.038
-715.748	-124.530	-0.143	-0.023
-714.733	-200.000	-0.037	0.238
-713.718	113.955	0.167	-0.206
-712.704	297.035	-0.103	0.191
-711.689	-98.405	-0.266	-0.069
-710.675	-200.000	-0.059	-0.553
-709.660	122.043	-0.111	-0.141
-708.645	284.674	-0.078	0.142
-707.631	-30.894	0.164	-0.094
-706.616	-200.000	-0.012	-0.312
-705.602	164.504	0.088	-0.126
-704.587	-48.591	0.277	-0.135
-703.572	-5.250	-0.331	0.231
-702.558	167.342	0.208	0.299
-701.543	-94.691	-0.189	-0.052
-700.529	-72.933	0.453	-0.169
-699.514	800.000	-0.070	0.236
-698.499	-19.762	0.127	-0.079
-697.485	85.746	-0.083	-0.093
-696.470	420.937	0.102	-0.221
-695.456	-145.091	-0.209	0.019
-694.441	75.208	0.228	0.244
-693.426	9.260	0.187	-0.143
-692.412	597.229	0.120	0.301
-691.397	-37.836	0.141	0.076
-690.383	-85.691	-0.174	0.055
-689.368	2.280	-0.099	0.072
-688.354	-71.783	0.132	-0.050
-687.339	144.887	0.193	0.261
-686.324	-155.587	0.228	0.015
-685.310	800.000	-0.034	-0.132
-684.295	4.746	-0.201	0.149
-683.281	12.779	0.122	0.095
-682.266	-57.316	-0.015	-0.007
-681.251	24.624	0.315	-0.264
-680.237	198.595	0.183	0.283
-679.222	-121.376	-0.057	0.010
-678.208	8.168	-0.184	0.140
-677.193	749.003	-0.043	-0.119
-676.178	81.732	-0.056	-0.061
-675.164	-140.211	0.207	0.022
-674.149	149.134	0.075	0.103
-673.135	24.715	-0.165	-0.138
-672.120	337.232	0.149	0.292
-671.105	-200.000	0.028	0.133
-670.091	-200.000	-0.052	0.294
-669.076	-200.000	-0.017	0.124
-668.062	-51.587	-0.265	-0.125
-667.047	-107.995	0.153	-0.034
-666.032	-200.000	0.002	0.103
-665.018	-200.000	0.037	0.207
-664.003	-200.000	-0.022	-0.401
-662.989	800.000	0.014	-0.050
-661.974	-55.786	0.084	-0.038
-660.959	246.217	-0.238	-0.406
-659.945	-200.000	-0.006	-0.057
-658.930	462.356	-0.041	-0.092
-657.916	-195.676	0.299	-0.002
-656.901	166.737	-0.175	-0.251
-655.886	800.000	-0.073	0.262
-654.872	-80.995	-0.053	0.018
-653.857	-127.702	0.030	0.004
-652.843	-78.299	-0.137	-0.048
-651.828	380.714	0.116	-0.240
-650.814	-144.300	-0.298	-0.028
-649.799	85.076	-0.191	0.211
-648.784	-128.999	-0.187	0.027
-647.770	-200.000	-0.039	-0.277
-646.755	-73.853	0.370	-0.136
-645.741	-21.398	-0.239	0.147
-644.726	244.956	0.115	-0.195
-643.711	156.002	-0.199	-0.277
-642.697	-160.084	-0.213	0.012
-641.682	-61.737	0.457	-0.194
-640.668	-200.000	0.008	0.121
-639.653	-61.425	-0.130	0.055
-638.638	330.827	0.168	-0.327
-637.624	-200.000	-0.002	0.040
-636.609	356.075	-0.147	-0.296
-635.595	-24.081	-0.201	0.122
-634.580	312.858	-0.109	-0.208
-633.565	-200.000	-0.011	-0.059
-632.551	142.043	0.144	0.193
-631.536	-40.948	0.111	0.058
-630.522	-200.000	-0.042	-0.355
-629.507	-137.078	-0.142	-0.016
-628.492	643.841	-0.150	-0.386
-627.478	-200.000	0.019	-0.220
-626.463	-135.927	0.268	-0.032
-625.449	-200.000	-0.015	0.158
-624.434	30.241	-0.227	0.196
-623.419	-8.463	0.148	-0.101
-622.405	-135.903	-0.240	0.029
-621.390	-200.000	0.009	-0.043
-620.376	-105.611	0.220	0.050
-619.361	-19.674	0.272	0.170
-618.346	-79.970	-0.201	-0.068
-617.332	30.641	0.067	0.058
-616.317	-134.393	0.272	0.034
-615.303	438.484	-0.086	0.188
-614.288	68.677	-0.290	-0.301
-613.273	-200.000	0.005	0.119
-612.259	59.339	0.148	0.148
-611.244	-200.000	-0.075	-0.494
-610.230	403.377	0.032	-0.068
-609.215	-138.155	0.329	-0.037
-608.201	800.000	0.083	0.304
-607.186	-109.433	0.279	0.059
-606.171	-100.881	0.133	0.033
-605.157	-200.000	0.051	0.453
-604.142	169.962	-0.104	-0.150
-603.128	-200.000	0.054	-0.282
-602.113	347.422	0.132	0.261
-601.098	364.682	0.065	-0.133
-600.084	-65.733	0.211	-0.085
-599.069	26.279	-0.185	0.156
-598.055	-98.306	0.214	-0.055
-597.040	-5.942	-0.235	0.162
-596.025	83.567	0.265	0.292
-595.011	342.207	-0.117	0.232
-593.996	413.098	0.116	-0.248
-592.982	445.532	-0.092	-0.205
-591.967	212.545	0.047	-0.075
-590.952	-69.791	0.172	-0.066
-589.938	800.000	0.025	0.074
-588.923	-200.000	0.006	-0.046
-587.909	-86.285	-0.153	-0.048
-586.894	23.532	0.073	-0.061
-585.879	-112.964	0.108	0.022
-584.865	-12.322	-0.266	0.175
-583.850	-58.789	-0.488	-0.213
-582.836	-57.795	0.052	-0.023
-581.821	222.130	-0.072	0.117
-580.806	-200.000	0.021	-0.245
-579.792	-115.339	-0.181	-0.034
-578.777	-200.000	0.025	-0.233
-577.763	-55.972	-0.232	0.104
-576.748	218.781	-0.188	-0.303
-575.733	790.763	-0.017	0.048
-574.719	-77.884	-0.379	0.132
-573.704	800.000	-0.054	0.230
-572.690	-200.000	-0.018	-0.236
-571.675	-200.000	-0.034	0.181
-570.661	-200.000	-0.016	-0.412
-569.646	-94.147	0.151	0.042
-568.631	-200.000	-0.017	0.355
-567.617	-78.778	0.115	0.040
-566.602	-123.253	0.266	0.043
-565.588	497.372	0.059	-0.138
-564.573	-166.443	-0.096	0.004
-563.558	68.161	0.299	0.308
-562.544	800.000	0.081	0.224
-561.529	48.617	0.135	0.127
-560.515	-15.915	0.284	0.182
-559.500	-177.347	-0.077	0.002
-558.485	-46.341	-0.122	0.060
-557.471	-31.968	0.160	0.090
-556.456	-56.597	0.108	0.048
-555.442	-200.000	-0.005	-0.130
-554.427	295.238	0.105	0.193
-553.412	124.941	-0.171	-0.216
-552.398	448.862	0.106	0.234
-551.383	66.382	-0.108	0.110
-550.369	-75.631	-0.179	-0.064
-549.354	-200.000	0.004	-0.021
-548.339	-200.000	-0.065	0.352
-547.325	16.964	0.061	0.049
-546.310	800.000	0.030	-0.127
-545.296	800.000	0.070	-0.200
-544.281	-138.400	0.326	0.036
-543.266	-106.503	0.399	-0.090
-542.252	-55.291	0.117	0.053
-541.237	151.451	-0.045	0.062
-540.223	413.290	-0.161	-0.344
-539.208	-143.298	0.169	-0.016
-538.193	179.290	-0.132	0.194
-537.179	-73.219	-0.435	-0.160
-536.164	-200.000	0.007	0.101
-535.150	536.408	0.077	-0.184
-534.135	20.382	-0.154	0.125
-533.121	149.362	-0.064	-0.087
-532.106	19.283	0.096	0.078
-531.091	-200.000	-0.000	-0.097
-530.077	-133.886	-0.389	-0.049
-529.062	-200.000	0.018	0.214
-528.048	-124.853	0.077	-0.012
-527.033	79.244	0.078	0.084
-526.018	44.126	0.208	0.192
-525.004	-103.192	-0.197	-0.047
-523.989	-121.057	0.088	-0.015
-522.975	72.835	-0.194	0.204
-521.960	112.295	-0.162	0.197
-520.945	-169.309	0.372	-0.014
-519.931	-75.651	-0.103	0.037
-518.916	404.985	-0.156	0.330
-517.902	-48.120	-0.079	-0.039
-516.887	37.481	-0.251	-0.224
-515.872	57.866	-0.217	0.213
-514.858	-162.596	0.267	-0.013
-513.843	-6.780	0.268	-0.183
-512.829	-26.570	-0.122	0.072
-511.814	43.706	0.052	0.048
-510.799	-56.138	0.018	-0.008
-509.785	172.779	0.075	0.108
-508.770	-71.758	0.170	-0.064
-507.756	-200.000	0.001	0.011
-506.741	-28.148	0.098	0.057
-505.726	29.053	-0.179	0.153
-504.712	-200.000	0.009	0.054
-503.697	-39.290	0.197	-0.104
-502.683	-200.000	-0.005	0.081
-501.668	166.396	0.141	-0.201
-500.653	74.980	-0.096	-0.101
-499.639	-19.093	0.150	-0.093
-498.624	800.000	0.073	0.217
-497.610	-178.259	-0.209	0.005
-496.595	-86.640	-0.130	-0.040
-495.581	-46.534	-0.209	-0.103
-494.566	-20.433	0.193	-0.119
-493.551	800.000	-0.066	0.218
-492.537	611.228	-0.065	-0.162
-491.522	-87.836	0.296	-0.089
-490.508	-110.698	0.462	-0.096
-489.493	-65.609	-0.367	0.148
-488.478	-145.104	0.162	-0.015
-487.464	-50.181	-0.358	-0.170
-486.449	-146.263	0.180	-0.016
-485.435	108.275	0.096	-0.115
-484.420	800.000	0.192	-0.554
-483.405	-33.934	-0.061	-0.034
-482.391	-87.671	0.335	0.101
-481.376	-200.000	0.015	-0.263
-480.362	-73.501	-0.309	0.113
-479.347	187.686	0.062	-0.093
-478.332	135.775	0.178	-0.232
-477.318	76.327	-0.181	0.193
-476.303	42.205	-0.101	0.092
-475.289	-200.000	0.021	-0.127
-474.274	800.000	-0.059	0.185
-473.259	-112.901	-0.127	-0.025
-472.245	-200.000	-0.013	0.204
-471.230	-68.201	0.194	-0.076
-470.216	-200.000	0.032	-0.244
-469.201	-200.000	-0.026	-0.276
-468.186	114.379	-0.169	0.206
-467.172	800.000	0.053	0.155
-466.157	-114.763	0.275	-0.053
-465.143	737.339	0.088	-0.237
-464.128	-21.595	-0.147	0.090
-463.113	-23.052	0.136	0.082
-462.099	-9.069	-0.179	0.120
-461.084	72.041	0.182	0.190
-460.070	-200.000	0.006	0.233
-459.055	-143.844	-0.354	0.034
-458.040	489.658	-0.045	-0.104
-457.026	-93.120	0.272	0.076
-456.011	14.892	-0.104	0.082
-454.997	519.869	0.135	0.317
-453.982	-83.392	-0.135	-0.043
-452.968	228.919	0.093	-0.153
-451.953	-69.134	-0.150	0.058
-450.938	-108.919	-0.270	-0.058
-449.924	92.365	-0.310	-0.350
-448.909	-140.369	-0.097	-0.010
-447.895	-82.890	-0.217	0.070
-446.880	111.854	-0.044	-0.053
-445.865	698.355	-0.022	-0.059
-444.851	-145.114	0.225	0.020
-443.836	75.713	-0.154	0.163
-442.822	-200.000	0.026	0.174
-441.807	-105.814	0.260	-0.059
-440.792	-54.025	-0.090	0.041
-439.778	123.719	0.208	0.262
-438.763	-153.479	0.107	0.007
-437.749	-48.767	0.074	0.036
-436.734	-34.318	0.128	0.070
-435.719	-19.515	-0.132	-0.082
-434.705	60.472	-0.050	0.049
-433.690	-113.860	-0.167	-0.032
-432.676	800.000	-0.074	-0.253
-431.661	-53.554	0.297	0.136
-430.646	30.842	-0.278	0.238
-429.632	-32.123	0.093	-0.052
-428.617	-47.987	-0.440	-0.213
-427.603	333.305	-0.152	-0.294
-426.588	312.963	-0.038	-0.071
-425.573	226.135	0.111	-0.180
-424.559	-159.814	-0.091	-0.005
-423.544	220.202	0.139	0.223
-422.530	255.509	0.215	-0.368
-421.515	-128.441	0.090	-0.013
-420.500	261.543	0.145	0.252
-419.486	-144.557	0.200	0.019
-418.471	800.000	0.011	0.043
-417.457	607.886	-0.062	-0.154
-416.442	195.043	0.104	0.158
-415.428	177.981	-0.028	-0.040
-414.413	-130.114	-0.190	-0.026
-413.398	-139.314	-0.165	0.018
-412.384	12.787	-0.120	-0.093
-411.369	167.154	0.082	0.116
-410.355	113.032	-0.263	-0.320
-409.340	-1.151	0.040	-0.029
-408.325	-6.533	-0.114	-0.078
-407.311	-14.214	0.206	-0.133
-406.296	-132.994	0.376	-0.048
-405.282	800.000	-0.005	0.018
-404.267	-200.000	-0.041	-0.220
-403.252	-200.000	0.009	-0.146
-402.238	193.503	-0.185	0.280
-401.223	302.747	0.031	0.057
-400.209	-200.000	-0.011	-0.100
-399.194	381.596	-0.050	-0.102
-398.179	-200.000	-0.053	0.234
-397.165	145.569	0.108	0.144
-396.150	800.000	-0.041	0.154
-395.136	-200.000	-0.010	0.176
-394.121	-120.134	0.224	0.038
-393.106	-33.423	-0.367	-0.203
-392.092	20.959	0.230	-0.186
-391.077	116.968	0.061	0.075
-390.063	44.791	0.022	0.020
-389.048	-87.353	-0.256	0.078
-388.033	-30.002	-0.077	-0.044
-387.019	367.525	-0.113	0.228
-386.004	-56.292	-0.274	-0.122
-384.990	309.819	0.076	-0.143
-383.975	32.691	0.099	0.086
-382.960	217.845	-0.202	-0.322
-381.946	36.537	0.033	0.029
-380.931	231.296	-0.037	-0.061
-379.917	64.420	-0.048	0.048
-378.902	237.205	0.040	-0.067
-377.888	-200.000	0.023	0.265
-376.873	-200.000	0.028	0.197
-375.858	201.663	-0.133	0.205
-374.844	-114.017	-0.174	0.034
-373.829	367.741	-0.076	-0.153
-372.815	800.000	-0.101	0.326
-371.800	-33.429	0.168	-0.093
-370.785	-122.955	0.061	0.010
-369.771	-172.842	-0.246	-0.008
-368.756	-177.307	0.336	0.008
-367.742	800.000	-0.138	-0.397
-366.727	463.788	-0.108	0.240
-365.712	700.135	0.032	-0.083
-364.698	-13.090	0.235	-0.153
-363.683	-97.131	-0.211	0.055
-362.669	-80.168	-0.165	0.055
-361.654	-200.000	0.040	-0.239
-360.639	-168.744	0.138	-0.005
-359.625	-35.096	0.250	0.136
-358.610	245.262	-0.115	0.193
-357.596	-153.294	-0.432	0.030
-356.581	800.000	0.042	0.122
-355.566	1.919	0.131	-0.095
-354.552	-11.843	-0.139	0.091
-353.537	-75.227	-0.162	0.058
-352.523	215.608	0.156	-0.247
-351.508	-92.631	0.377	-0.106
-350.493	-40.967	-0.378	-0.195
-349.479	34.936	-0.261	-0.228
-348.464	-116.034	0.151	-0.028
-347.450	800.000	0.047	0.171
-346.435	800.000	0.027	0.105
-345.420	-200.000	0.018	-0.115
-344.406	177.639	-0.108	0.157
-343.391	-159.150	-0.105	-0.006
-342.377	28.480	-0.134	-0.113
-341.362	48.656	-0.127	0.119
-340.348	800.000	-0.078	-0.229
-339.333	278.467	0.299	0.533
-338.318	-200.000	-0.048	0.314
-337.304	-36.566	0.360	0.193
-336.289	201.799	-0.258	0.397
-335.275	-55.831	0.289	-0.129
-334.260	182.160	0.238	0.350
-333.245	-200.000	0.004	0.078
-332.231	-167.088	-0.193	-0.008
-331.216	-23.841	-0.323	-0.193
-330.202	-43.788	0.116	0.059
-329.187	57.956	0.184	-0.180
-328.172	-162.941	-0.242	0.012
-327.158	239.152	0.113	0.188
-326.143	-200.000	-0.034	0.180
-325.129	117.234	0.184	0.225
-324.114	442.730	-0.091	-0.199
-323.099	-138.743	-0.155	-0.017
-322.085	-50.756	0.135	-0.064
-321.070	231.392	-0.026	-0.043
-320.056	-200.000	0.018	-0.118
-319.041	418.739	-0.198	-0.423
-318.026	173.092	0.053	0.076
-317.012	-179.545	0.131	0.003
-315.997	115.005	-0.027	-0.033
-314.983	-113.353	0.362	-0.071
-313.968	-200.000	-0.031	0.163
-312.953	-151.105	-0.315	0.024
-311.939	14.937	-0.107	-0.083
-310.924	33.394	0.119	0.103
-309.910	-100.850	0.345	-0.085
-308.895	536.408	-0.077	0.182
-307.880	242.914	0.102	0.170
-306.866	-51.040	-0.091	-0.043
-305.851	-2.917	0.256	-0.178
-304.837	-75.832	0.226	0.080
-303.822	-63.201	-0.302	-0.124
-302.807	800.000	-0.032	0.097
-301.793	-144.864	-0.250	0.023
-300.778	437.891	-0.064	-0.139
-299.764	-106.364	0.179	-0.040
-298.749	-91.395	0.392	-0.112
-297.735	-48.031	-0.161	-0.077
-296.720	-147.193	-0.391	0.033
-295.705	-49.950	0.018	-0.009
-294.691	-107.299	0.017	0.004
-293.676	51.187	-0.192	-0.181
-292.662	54.667	0.063	-0.060
-291.647	-200.000	0.042	-0.227
-290.632	800.000	-0.067	-0.248
-289.618	-27.407	-0.363	-0.210
-288.603	-66.756	0.070	0.028
-287.589	3.512	-0.216	-0.157
-286.574	-128.847	0.260	-0.036
-285.559	-75.875	0.427	0.151
-284.545	-200.000	-0.000	0.248
-283.530	-84.705	0.221	0.069
-282.516	89.573	-0.098	0.109
-281.501	-29.996	-0.161	0.091
-280.486	603.620	-0.133	-0.330
-279.472	-156.932	-0.204	0.012
-278.457	-32.989	-0.054	0.030
-277.443	-200.000	0.002	0.072
-276.428	480.511	-0.086	0.195
-275.413	-108.223	-0.420	-0.090
-274.399	-60.012	0.174	-0.074
-273.384	-164.118	-0.096	0.004
-272.370	-200.000	0.068	0.345
-271.355	-90.814	0.147	0.042
-270.340	-49.787	-0.161	-0.076
-269.326	-200.000	0.015	0.094
-268.311	-40.134	-0.201	0.104
-267.297	-163.071	-0.253	-0.012
-266.282	-145.502	0.486	0.043
-265.267	-98.068	-0.097	0.025
-264.253	-200.000	-0.031	0.144
-263.238	44.909	0.147	0.135
-262.224	-91.756	-0.465	0.132
-261.209	800.000	-0.063	0.225
-260.195	-130.122	0.181	0.025
-259.180	15.113	0.212	-0.165
-258.165	594.571	-0.071	-0.175
-257.151	-28.410	-0.142	-0.081
-256.136	48.973	-0.196	0.183
-255.122	-54.901	-0.173	0.078
-254.107	-43.831	-0.134	-0.067
-253.092	-200.000	0.021	-0.188
-252.078	-16.292	0.258	0.163
-251.063	-200.000	0.010	0.093
-250.049	-115.446	-0.210	0.039
-249.034	-102.577	0.123	0.029
-248.019	167.212	0.113	-0.160
-247.005	-28.238	-0.180	-0.104
-245.990	520.829	-0.095	0.222
-244.976	228.123	-0.063	0.101
-243.961	39.789	-0.020	0.018
-242.946	-63.559	0.187	0.076
-241.932	-200.000	0.002	-0.169
-240.917	-43.402	-0.271	-0.136
-239.903	700.266	-0.071	-0.185
-238.888	-127.454	-0.189	0.027
-237.873	-72.121	0.232	-0.085
-236.859	800.000	0.078	-0.304
-235.844	800.000	0.063	0.180
-234.830	-23.055	0.070	-0.042
-233.815	-200.000	0.024	-0.130
-232.800	-8.000	0.162	-0.109
-231.786	-114.941	0.211	-0.040
-230.771	174.715	0.073	-0.105
-229.757	-53.544	-0.412	-0.187
-228.742	43.587	0.052	-0.047
-227.727	-61.929	-0.198	-0.082
-226.713	456.304	0.191	-0.421
-225.698	-38.089	-0.110	-0.058
-224.684	454.917	-0.124	0.272
-223.669	620.011	0.091	-0.227
-222.655	-53.620	-0.359	-0.163
-221.640	-91.103	0.402	-0.115
-220.625	171.109	0.291	0.414
-219.611	33.394	-0.199	0.172
-218.596	263.256	0.020	0.034
-217.582	-200.000	0.010	-0.058
-216.567	-200.000	0.003	-0.134
-215.552	79.888	0.163	-0.174
-214.538	800.000	-0.076	-0.268
-213.523	119.791	-0.168	-0.207
-212.509	57.499	-0.269	-0.261
-211.494	-159.161	0.152	0.008
-210.479	800.000	-0.120	-0.389
-209.465	-178.376	0.258	0.006
-208.450	-162.446	0.121	-0.006
-207.436	-200.000	0.000	0.028
-206.421	227.189	-0.228	0.368
-205.406	800.000	-0.024	-0.094
-204.392	645.954	-0.036	0.091
-203.377	29.821	0.169	-0.143
-202.363	-200.000	-0.024	0.157
-201.348	-142.813	0.109	0.011
-200.333	800.000	0.112	0.397
-199.319	713.359	-0.047	0.124
-198.304	171.460	0.084	-0.120
-197.290	-95.141	0.192	-0.052
-196.275	30.900	0.128	0.109
-195.260	357.556	0.043	-0.086
-194.246	-200.000	0.031	-0.460
-193.231	-84.489	0.076	0.024
-192.217	800.000	-0.030	-0.085
-191.202	361.628	0.065	0.129
-190.187	-77.688	0.088	0.030
-189.173	-37.676	0.308	-0.163
-188.158	55.074	-0.305	0.293
-187.144	100.150	0.142	0.164
-186.129	-5.106	0.442	-0.302
-185.114	631.803	0.104	0.262
-184.100	-48.322	0.360	0.172
-183.085	-60.042	-0.180	-0.076
-182.071	-72.780	-0.217	-0.079
-181.056	54.172	-0.143	0.136
-180.042	800.000	-0.071	0.265
-179.027	-200.000	0.014	0.330
-178.012	128.656	0.057	-0.072
-176.998	51.693	0.133	-0.125
-175.983	-1.343	0.258	0.181
-174.969	-75.168	0.297	0.105
-173.954	-153.310	0.203	0.014
-172.939	-151.374	-0.307	-0.023
-171.925	83.970	-0.046	0.050
-170.910	-200.000	-0.025	0.200
-169.896	218.054	0.144	0.228
-168.881	53.466	-0.082	-0.078
-167.866	-167.932	-0.217	0.008
-166.852	235.417	0.067	-0.109
-165.837	-53.251	0.193	0.088
-164.823	800.000	-0.057	-0.177
-163.808	38.351	-0.125	0.110
-162.793	797.675	0.027	-0.074
-161.779	-200.000	-0.008	0.057
-160.764	509.654	0.034	0.078
-159.750	15.883	0.194	0.152
-158.735	97.766	0.195	-0.223
-157.720	-131.903	-0.213	0.028
-156.706	800.000	0.051	-0.181
-155.691	-162.267	0.150	0.007
-154.677	-37.889	-0.328	0.173
-153.662	-124.723	0.168	0.026
-152.647	-200.000	0.006	0.404
-151.633	800.000	0.035	0.113
-150.618	-92.757	-0.266	-0.074
-149.604	179.986	-0.017	0.025
-148.589	-98.267	0.075	0.019
-147.574	800.000	-0.072	0.258
-146.560	48.212	0.013	-0.012
-145.545	-62.476	-0.094	-0.039
-144.531	-168.865	0.164	0.006
-143.516	42.056	0.113	-0.102
-142.502	516.187	0.084	0.195
-141.487	800.000	0.047	0.146
-140.472	-191.252	0.047	0.000
-139.458	78.973	-0.185	0.196
-138.443	13.497	0.231	0.177
-137.429	-200.000	-0.058	-0.284
-136.414	41.227	0.323	0.289
-135.399	43.637	-0.098	0.089
-134.385	13.880	-0.172	0.133
-133.370	147.227	0.033	0.045
-132.356	185.130	-0.147	0.215
-131.341	-84.325	0.367	0.115
-130.326	161.330	0.246	0.341
-129.312	800.000	0.138	-0.391
-128.297	7.412	-0.308	0.228
-127.283	-200.000	0.017	0.102
-126.268	800.000	-0.036	0.136
-125.253	188.533	-0.167	-0.247
-124.239	-67.633	0.318	-0.123
-123.224	-200.000	0.025	0.147
-122.210	-86.498	0.141	-0.043
-121.195	-57.825	-0.153	-0.066
