DTS Sentinel unit serial number:	SN413079Multiplexer serial number:	ORYXHardware model number:	OX4-SRSoftware version number:	ORYX F/W v4.00 Oryx Data Collector v3.7.2.0data status	okinstallation	princeton_trtdifferential loss correction	single-endedforward channel	channel 4reverse channel	N/Adate	2019/09/16time	21:25:35forward acquisition time	60.00reverse acquisition time	0.00gamma	496.2192k internal	0.2313k external	0.2313temperature offset calibration	0.9968default loss term (dB/km)	0.3790temperature slope calibration	1.0000multiplexer offset coefficient	1.0000multiplexer slope coefficient	1.0000fibre end	0.00T internal ref (°C)	31.56T ext. ref 1 (°C)	0.05T ext. ref 2 (°C)	25.49length (m)	temperature (°C)	Stokes	anti-Stokes-747.200	-172.858	0.043	-0.001
-746.185	45.987	-0.080	0.076
-745.171	-200.000	0.045	0.451
-744.156	-127.250	-0.106	-0.016
-743.142	-200.000	0.038	0.322
-742.127	-158.912	0.030	0.002
-741.112	-136.487	0.150	0.018
-740.098	-60.803	-0.543	0.233
-739.083	-40.413	0.208	-0.109
-738.069	-152.364	0.257	0.019
-737.054	-154.641	0.349	0.024
-736.039	43.947	-0.042	0.039
-735.025	-107.972	0.095	-0.021
-734.010	-68.280	0.424	-0.167
-732.996	-3.596	-0.217	-0.153
-731.981	-119.832	-0.164	0.029
-730.966	-152.972	-0.178	0.013
-729.952	68.901	-0.237	-0.247
-728.937	-200.000	0.004	-0.063
-727.923	-119.567	0.114	-0.020
-726.908	177.846	-0.066	0.097
-725.894	-200.000	-0.038	-0.259
-724.879	800.000	-0.051	-0.188
-723.864	68.476	0.188	-0.195
-722.850	-121.594	-0.232	0.039
-721.835	-200.000	-0.041	-0.278
-720.821	-169.208	0.127	-0.005
-719.806	-200.000	0.014	-0.265
-718.791	-44.592	-0.208	-0.105
-717.777	-62.032	-0.198	0.084
-716.762	800.000	-0.041	0.147
-715.748	-11.843	-0.102	-0.068
-714.733	47.358	0.121	-0.114
-713.718	-200.000	0.013	0.064
-712.704	-36.796	-0.113	-0.061
-711.689	104.565	0.271	-0.324
-710.675	128.427	0.317	-0.408
-709.660	165.972	-0.102	-0.146
-708.645	-61.189	-0.223	-0.095
-707.631	-200.000	0.065	0.310
-706.616	44.825	0.036	0.033
-705.602	456.631	-0.053	-0.119
-704.587	-32.171	-0.072	-0.041
-703.572	-200.000	-0.029	-0.354
-702.558	91.166	-0.138	-0.156
-701.543	353.352	-0.045	0.091
-700.529	-102.409	-0.436	0.106
-699.514	102.750	0.357	-0.423
-698.499	800.000	-0.132	-0.462
-697.485	334.290	-0.107	0.210
-696.470	-200.000	-0.002	0.294
-695.456	317.133	0.275	0.527
-694.441	-30.838	0.049	-0.028
-693.426	-132.052	-0.221	-0.029
-692.412	-200.000	0.005	0.056
-691.397	-48.565	-0.173	-0.084
-690.383	-32.464	-0.128	0.072
-689.368	82.888	0.159	-0.175
-688.354	161.324	-0.155	-0.220
-687.339	-49.536	0.141	-0.068
-686.324	-200.000	-0.010	0.055
-685.310	15.615	0.092	-0.073
-684.295	202.275	-0.219	0.342
-683.281	-132.416	-0.063	0.008
-682.266	-200.000	-0.027	-0.413
-681.251	18.008	0.209	0.168
-680.237	-116.851	-0.275	-0.051
-679.222	198.187	-0.286	-0.443
-678.208	141.358	0.196	0.262
-677.193	341.213	0.017	0.033
-676.178	-177.224	0.312	0.008
-675.164	-200.000	-0.001	-0.039
-674.149	178.902	0.145	0.214
-673.135	-79.475	0.515	0.176
-672.120	16.477	-0.029	0.024
-671.105	400.584	-0.047	-0.100
-670.091	-17.038	0.090	-0.058
-669.076	66.548	-0.293	-0.301
-668.062	214.214	-0.041	0.066
-667.047	40.501	-0.055	-0.050
-666.032	800.000	0.055	0.184
-665.018	-200.000	0.022	-0.376
-664.003	800.000	0.104	-0.336
-662.989	30.460	0.126	0.109
-661.974	800.000	-0.121	0.381
-660.959	-200.000	-0.022	-0.112
-659.945	-20.443	-0.300	-0.187
-658.930	-40.442	-0.187	0.098
-657.916	-200.000	-0.053	-0.277
-656.901	-200.000	-0.040	0.224
-655.886	21.055	-0.142	-0.116
-654.872	-200.000	-0.018	0.165
-653.857	-90.823	-0.169	-0.049
-652.843	57.090	0.259	0.256
-651.828	75.495	-0.151	0.161
-650.814	-93.797	-0.126	0.035
-649.799	123.967	0.095	-0.121
-648.784	42.740	0.352	0.324
-647.770	-162.734	-0.522	-0.026
-646.755	35.535	-0.061	-0.054
-645.741	-161.841	-0.225	0.012
-644.726	-13.991	-0.204	0.133
-643.711	343.976	0.028	0.056
-642.697	-55.398	-0.106	0.048
-641.682	-12.904	-0.201	0.132
-640.668	-200.000	0.023	-0.307
-639.653	74.350	0.051	-0.054
-638.638	-200.000	-0.004	-0.207
-637.624	-104.868	0.103	-0.024
-636.609	-200.000	-0.008	0.253
-635.595	201.992	0.126	-0.196
-634.580	-8.137	-0.065	0.044
-633.565	800.000	-0.083	0.255
-632.551	-10.669	-0.214	0.143
-631.536	133.811	-0.033	0.044
-630.522	800.000	0.054	-0.208
-629.507	-54.177	-0.110	0.051
-628.492	-2.387	0.204	-0.144
-627.478	506.166	-0.036	0.085
-626.463	-85.533	0.053	0.017
-625.449	-200.000	0.014	-0.392
-624.434	-200.000	-0.121	-0.538
-623.419	92.172	0.168	-0.191
-622.405	-113.121	-0.321	0.064
-621.390	6.802	0.033	-0.025
-620.376	-67.373	-0.444	0.176
-619.361	-200.000	0.016	0.291
-618.346	-86.029	0.228	0.071
-617.332	-129.905	0.141	0.020
-616.317	-200.000	0.040	-0.219
-615.303	-18.040	0.114	-0.072
-614.288	10.351	0.458	-0.352
-613.273	46.093	0.129	0.121
-612.259	800.000	-0.059	0.191
-611.244	-94.062	0.180	0.050
-610.230	-17.902	0.289	-0.183
-609.215	-128.542	0.080	-0.011
-608.201	-70.485	0.376	0.144
-607.186	68.237	-0.094	0.097
-606.171	-45.054	0.278	0.140
-605.157	-109.153	0.031	-0.007
-604.142	-182.771	0.191	-0.003
-603.128	-109.529	0.160	-0.034
-602.113	-47.716	-0.122	-0.060
-601.098	-200.000	-0.527	-0.002
-600.084	-200.000	-0.050	-0.455
-599.069	-53.469	0.146	0.067
-598.055	-89.094	0.234	-0.070
-597.040	-39.307	-0.179	0.095
-596.025	4.739	-0.160	-0.119
-595.011	0.948	0.228	-0.165
-593.996	800.000	0.042	0.142
-592.982	-82.220	-0.035	0.011
-591.967	-64.390	-0.151	0.062
-590.952	-103.859	-0.172	-0.041
-589.938	42.617	-0.241	0.222
-588.923	118.191	0.073	-0.091
-587.909	800.000	-0.083	-0.253
-586.894	-107.254	0.017	0.004
-585.879	-15.593	-0.404	0.260
-584.865	114.197	-0.102	-0.126
-583.850	19.537	-0.118	0.095
-582.836	-124.975	-0.088	0.014
-581.821	708.942	-0.117	0.312
-580.806	-137.807	-0.215	0.024
-579.792	392.644	0.083	0.174
-578.777	-27.162	0.125	0.073
-577.763	-22.024	0.268	0.164
-576.748	-200.000	0.005	0.476
-575.733	-200.000	-0.010	0.210
-574.719	9.044	-0.149	0.114
-573.704	-119.295	-0.067	-0.012
-572.690	-200.000	-0.004	-0.273
-571.675	188.213	-0.060	0.090
-570.661	-9.560	0.090	-0.060
-569.646	-30.845	0.225	-0.128
-568.631	-200.000	-0.022	-0.114
-567.617	177.893	-0.231	-0.340
-566.602	-137.444	0.395	-0.045
-565.588	35.709	-0.157	-0.139
-564.573	-13.723	-0.364	-0.237
-563.558	-200.000	0.009	0.146
-562.544	167.449	0.128	-0.184
-561.529	800.000	-0.073	-0.233
-560.515	-75.337	0.242	0.087
-559.500	-200.000	-0.046	-0.285
-558.485	45.403	-0.162	-0.151
-557.471	-119.442	0.382	-0.067
-556.456	530.198	-0.094	-0.222
-555.442	-38.167	-0.182	0.097
-554.427	624.657	0.132	0.335
-553.412	135.673	0.265	0.347
-552.398	-114.134	-0.165	0.032
-551.383	-86.913	0.267	-0.082
-550.369	126.698	-0.028	-0.036
-549.354	-200.000	0.026	0.188
-548.339	290.143	0.025	-0.046
-547.325	-200.000	0.012	-0.235
-546.310	122.726	-0.142	-0.178
-545.296	-107.398	-0.146	0.032
-544.281	23.027	0.191	-0.158
-543.266	58.426	0.156	0.154
-542.252	800.000	0.047	-0.191
-541.237	121.959	0.150	0.188
-540.223	-127.464	-0.112	-0.016
-539.208	-200.000	0.025	0.193
-538.193	-200.000	-0.008	-0.134
-537.179	-155.989	-0.299	0.019
-536.164	-60.807	0.175	-0.074
-535.150	-200.000	0.004	-0.186
-534.135	-200.000	0.002	0.185
-533.121	-78.674	0.170	-0.058
-532.106	50.334	0.076	0.072
-531.091	-91.217	0.137	0.040
-530.077	722.200	-0.086	0.229
-529.062	800.000	-0.092	0.328
-528.048	200.280	-0.146	-0.226
-527.033	-200.000	0.015	-0.111
-526.018	556.333	-0.042	-0.103
-525.004	-59.166	0.139	-0.060
-523.989	106.282	-0.175	-0.209
-522.975	133.581	-0.145	-0.188
-521.960	237.567	-0.042	0.070
-520.945	25.452	0.052	0.044
-519.931	-176.924	0.235	-0.006
-518.916	-123.033	0.188	0.030
-517.902	-74.860	0.288	0.104
-516.887	121.755	0.120	0.151
-515.872	-84.972	-0.216	-0.068
-514.858	-57.364	0.129	-0.057
-513.843	86.097	-0.208	0.230
-512.829	641.171	-0.064	0.163
-511.814	75.369	0.081	-0.086
-510.799	800.000	-0.077	-0.275
-509.785	48.458	0.189	-0.178
-508.770	-2.119	0.198	0.140
-507.756	59.815	-0.238	0.237
-506.741	271.017	-0.137	0.242
-505.726	-200.000	-0.008	-0.336
-504.712	-20.638	-0.354	-0.218
-503.697	-123.581	-0.154	-0.024
-502.683	-200.000	0.004	-0.120
-501.668	217.253	-0.175	-0.281
-500.653	465.938	0.038	0.085
-499.639	597.152	-0.126	-0.314
-498.624	-200.000	-0.008	-0.367
-497.610	-200.000	0.017	-0.130
-496.595	129.197	-0.331	-0.425
-495.581	21.217	-0.042	0.034
-494.566	-108.196	0.314	-0.068
-493.551	11.105	-0.193	-0.148
-492.537	-90.860	0.371	0.107
-491.522	742.017	0.096	-0.258
-490.508	-82.052	0.031	0.010
-489.493	-91.204	0.075	0.021
-488.478	-174.650	-0.163	-0.005
-487.464	-200.000	0.023	0.594
-486.449	-127.586	-0.227	-0.033
-485.435	72.876	-0.148	-0.156
-484.420	7.211	-0.194	-0.145
-483.405	427.991	-0.055	0.119
-482.391	-32.448	-0.110	0.061
-481.376	67.827	-0.255	0.261
-480.362	-167.869	0.133	-0.005
-479.347	-127.165	0.201	0.029
-478.332	-75.184	-0.108	-0.039
-477.318	-158.779	-0.224	0.013
-476.303	373.338	-0.137	0.280
-475.289	234.200	-0.032	0.053
-474.274	-175.646	-0.315	0.009
-473.259	-9.738	-0.389	-0.260
-472.245	176.164	0.070	-0.102
-471.230	76.421	0.108	-0.115
-470.216	-147.762	0.041	-0.003
-469.201	-99.177	0.077	-0.019
-468.186	-200.000	0.045	0.287
-467.172	160.077	0.061	0.085
-466.157	-153.811	0.271	-0.019
-465.143	-157.867	-0.354	0.021
-464.128	135.298	0.052	0.068
-463.113	-200.000	-0.014	-0.236
-462.099	-56.277	-0.063	-0.028
-461.084	-65.031	0.086	0.035
-460.070	800.000	0.063	-0.250
-459.055	254.879	0.096	-0.165
-458.040	-50.789	0.247	0.116
-457.026	-155.580	-0.226	-0.015
-456.011	-200.000	-0.012	-0.218
-454.997	-200.000	0.041	-0.199
-453.982	-70.634	0.060	0.023
-452.968	273.602	0.107	0.190
-451.953	333.346	-0.085	0.164
-450.938	-95.243	0.335	0.090
-449.924	-111.855	-0.273	0.055
-448.909	-200.000	-0.060	0.461
-447.895	16.464	0.168	0.133
-446.880	-200.000	0.009	-0.206
-445.865	-36.056	-0.118	-0.064
-444.851	-143.438	-0.041	-0.004
-443.836	-127.294	0.050	-0.007
-442.822	207.560	0.135	-0.211
-441.807	642.690	0.119	-0.304
-440.792	357.318	0.141	-0.282
-439.778	-79.119	0.117	0.040
-438.763	-64.889	0.313	-0.127
-437.749	-34.170	-0.203	0.112
-436.734	-62.394	0.379	0.158
-435.719	-200.000	-0.053	-0.396
-434.705	-36.200	-0.211	0.114
-433.690	-52.357	0.255	-0.118
-432.676	44.359	0.134	0.123
-431.661	461.832	-0.135	-0.302
-430.646	507.951	0.026	0.061
-429.632	398.417	0.142	-0.297
-428.617	190.695	0.127	0.192
-427.603	800.000	0.044	0.137
-426.588	-34.548	-0.185	0.101
-425.573	-200.000	-0.008	-0.167
-424.559	-171.147	-0.189	-0.006
-423.544	169.398	-0.164	-0.234
-422.530	205.160	-0.176	-0.273
-421.515	-91.525	0.341	0.097
-420.500	231.081	0.172	0.281
-419.486	-69.697	0.293	-0.112
-418.471	800.000	-0.017	0.059
-417.457	-64.658	0.136	0.055
-416.442	284.056	-0.179	-0.323
-415.428	-200.000	0.007	-0.054
-414.413	-181.146	-0.448	-0.009
-413.398	47.198	0.147	-0.137
-412.384	107.927	-0.185	0.220
-411.369	800.000	0.135	-0.435
-410.355	-42.032	0.384	-0.197
-409.340	-200.000	-0.061	-0.351
-408.325	73.954	-0.239	-0.251
-407.311	268.988	-0.068	-0.119
-406.296	-200.000	-0.008	-0.276
-405.282	-6.075	-0.185	0.127
-404.267	43.244	0.079	-0.072
-403.252	-57.323	-0.175	0.077
-402.238	9.427	0.246	0.186
-401.223	-170.908	-0.310	-0.011
-400.209	3.477	-0.072	-0.053
-399.194	72.645	0.089	-0.093
-398.179	117.673	-0.090	0.110
-397.165	103.415	-0.076	-0.090
-396.150	152.670	0.132	0.180
-395.136	-139.031	-0.344	0.037
-394.121	-55.323	0.153	-0.069
-393.106	339.310	0.090	-0.176
-392.092	-200.000	-0.005	-0.022
-391.077	206.639	0.056	0.087
-390.063	2.374	-0.033	-0.024
-389.048	-78.367	0.565	0.194
-388.033	800.000	0.142	-0.404
-387.019	294.830	-0.075	-0.137
-386.004	35.943	-0.032	-0.028
-384.990	-200.000	0.028	-0.214
-383.975	246.910	0.041	0.069
-382.960	189.015	0.169	0.252
-381.946	121.210	-0.121	-0.151
-380.931	-103.162	0.427	0.101
-379.917	-22.132	-0.235	0.143
-378.902	174.114	-0.153	0.221
-377.888	-200.000	0.021	0.282
-376.873	-65.865	-0.139	0.056
-375.858	-200.000	0.014	0.131
-374.844	-4.719	-0.288	0.199
-373.829	62.826	0.057	-0.057
-372.815	569.918	-0.182	-0.443
-371.800	72.209	-0.167	0.174
-370.785	-74.929	-0.191	-0.069
-369.771	-62.797	-0.082	0.034
-368.756	302.679	-0.118	0.217
-367.742	138.412	-0.199	0.261
-366.727	-187.758	0.221	0.003
-365.712	152.733	-0.102	-0.140
-364.698	-113.101	-0.328	-0.065
-363.683	-191.036	-0.468	0.005
-362.669	-160.721	0.451	-0.024
-361.654	101.482	0.088	-0.102
-360.639	208.364	0.165	-0.257
-359.625	282.825	0.144	0.258
-358.610	-125.875	-0.112	0.017
-357.596	-49.503	0.316	0.151
-356.581	-142.512	0.296	0.029
-355.566	390.874	-0.133	0.275
-354.552	-89.277	-0.218	-0.064
-353.537	-52.116	-0.108	-0.050
-352.523	-61.154	-0.242	0.102
-351.508	-43.089	-0.536	0.271
-350.493	570.153	0.076	0.185
-349.479	-13.395	0.136	0.088
-348.464	-200.000	-0.004	-0.109
-347.450	-177.477	-0.165	-0.004
-346.435	427.457	-0.100	0.217
-345.420	23.854	-0.150	0.123
-344.406	137.298	0.244	-0.319
-343.391	-32.715	0.113	-0.063
-342.377	402.249	-0.220	-0.462
-341.362	-162.030	0.183	-0.009
-340.348	-200.000	-0.006	0.265
-339.333	52.817	0.216	0.206
-338.318	249.550	0.019	0.032
-337.304	-39.960	-0.103	0.053
-336.289	-200.000	-0.013	-0.290
-335.275	-71.117	0.216	0.081
-334.260	177.812	-0.187	0.272
-333.245	37.170	-0.098	0.087
-332.231	-152.302	-0.337	0.024
-331.216	165.941	-0.083	0.118
-330.202	-200.000	0.015	0.265
-329.187	50.017	0.117	-0.110
-328.172	77.909	-0.337	-0.358
-327.158	-93.798	-0.245	0.067
-326.143	800.000	0.131	0.448
-325.129	180.291	0.283	0.414
-324.114	-92.723	0.215	0.060
-323.099	18.612	-0.056	-0.045
-322.085	-40.200	0.187	-0.097
-321.070	-200.000	-0.024	0.394
-320.056	-200.000	-0.014	-0.247
-319.041	-200.000	-0.048	0.220
-318.026	-200.000	0.019	-0.153
-317.012	43.220	-0.169	0.154
-315.997	-200.000	0.039	0.176
-314.983	105.042	0.146	0.171
-313.968	334.801	0.086	0.166
-312.953	-200.000	-0.104	0.480
-311.939	107.303	0.205	-0.243
-310.924	-19.990	0.154	-0.095
-309.910	-200.000	0.012	0.199
-308.895	-17.704	-0.206	-0.129
-307.880	360.760	-0.108	-0.217
-306.866	-103.027	0.095	0.023
-305.851	-132.650	0.070	-0.009
-304.837	-126.298	-0.179	0.027
-303.822	13.875	0.019	0.015
-302.807	80.567	-0.082	0.088
-301.793	38.886	0.313	0.279
-300.778	-39.865	-0.165	-0.086
-299.764	-52.206	-0.256	0.118
-298.749	-21.829	0.096	0.058
-297.735	800.000	-0.066	0.182
-296.720	31.219	0.208	0.178
-295.705	725.546	-0.085	0.225
-294.691	95.764	-0.116	-0.132
-293.676	56.301	-0.183	0.177
-292.662	634.894	0.162	0.409
-291.647	73.556	-0.234	-0.244
-290.632	-76.932	-0.063	-0.022
-289.618	346.829	0.093	-0.183
-288.603	47.326	-0.383	0.355
-287.589	158.572	-0.223	0.308
-286.574	50.066	0.362	-0.340
-285.559	-6.433	0.072	-0.049
-284.545	-28.446	0.125	-0.072
-283.530	-140.246	0.073	0.008
-282.516	800.000	0.080	-0.334
-281.501	800.000	-0.051	-0.155
-280.486	-127.171	-0.094	-0.014
-279.472	-76.849	-0.170	-0.059
-278.457	62.472	-0.044	-0.044
-277.443	800.000	0.014	-0.046
-276.428	-80.439	0.227	0.075
-275.413	352.862	-0.013	-0.027
-274.399	6.150	-0.167	-0.124
-273.384	127.456	0.022	-0.027
-272.370	61.012	0.112	-0.111
-271.355	-200.000	-0.010	0.141
-270.340	-116.487	-0.208	-0.038
-269.326	-129.594	-0.127	-0.017
-268.311	-74.298	0.164	-0.059
-267.297	448.111	-0.088	0.193
-266.282	-78.570	-0.129	0.044
-265.267	-186.220	-0.179	-0.003
-264.253	338.991	-0.146	-0.283
-263.238	-34.007	-0.240	-0.132
-262.224	-200.000	0.013	0.125
-261.209	-200.000	0.020	-0.291
-260.195	-80.647	0.132	0.044
-259.180	-26.742	-0.023	0.013
-258.165	-53.313	-0.078	0.036
-257.151	15.762	-0.023	0.018
-256.136	8.432	-0.254	-0.190
-255.122	-110.116	0.113	0.024
-254.107	226.351	-0.062	-0.101
-253.092	-34.623	-0.140	-0.076
-252.078	178.312	0.101	0.146
-251.063	92.489	-0.162	-0.182
-250.049	-110.840	0.209	0.043
-249.034	-37.872	-0.051	-0.027
-248.019	140.949	-0.052	-0.068
-247.005	-200.000	0.002	0.259
-245.990	-71.032	0.211	-0.079
-244.976	92.974	0.021	-0.023
-243.961	51.954	-0.038	-0.036
-242.946	175.353	-0.061	-0.088
-241.932	459.213	0.134	-0.297
-240.917	81.195	0.185	-0.199
-239.903	800.000	-0.141	-0.439
-238.888	207.842	-0.158	-0.245
-237.873	58.144	0.298	-0.290
-236.859	-170.858	0.394	-0.013
-235.844	-49.025	-0.149	0.071
-234.830	-13.845	0.131	0.084
-233.815	35.013	-0.177	-0.154
-232.800	-200.000	-0.007	0.169
-231.786	476.048	0.113	0.254
-230.771	-3.827	-0.057	0.039
-229.757	36.268	0.192	-0.169
-228.742	74.317	0.159	0.166
-227.727	227.637	0.111	-0.180
-226.713	75.504	-0.053	-0.056
-225.698	36.115	0.214	0.188
-224.684	-200.000	0.005	0.191
-223.669	-200.000	0.002	0.137
-222.655	-93.642	0.318	0.087
-221.640	29.443	0.214	0.181
-220.625	-153.533	-0.245	0.017
-219.611	286.167	-0.195	-0.349
-218.596	95.626	-0.095	0.108
-217.582	597.301	0.165	0.405
-216.567	-72.063	-0.224	0.083
-215.552	346.725	-0.181	-0.354
-214.538	157.912	0.381	-0.524
-213.523	-36.477	-0.277	0.148
-212.509	-149.420	0.179	-0.014
-211.494	800.000	0.082	0.235
-210.479	-23.442	0.099	0.059
-209.465	15.488	0.107	0.084
-208.450	-97.274	-0.154	0.040
-207.436	364.984	-0.180	0.360
-206.421	749.315	-0.099	0.264
-205.406	171.356	-0.130	-0.185
-204.392	226.647	-0.109	-0.176
-203.377	-155.901	-0.245	-0.015
-202.363	800.000	0.056	-0.199
-201.348	-127.877	-0.301	0.043
-200.333	3.839	0.103	0.075
-199.319	23.698	-0.208	-0.170
-198.304	-107.111	-0.496	0.109
-197.290	-84.482	0.447	-0.140
-196.275	53.547	-0.135	0.128
-195.260	-105.255	-0.133	0.030
-194.246	150.297	-0.160	0.216
-193.231	13.599	0.184	-0.142
-192.217	-116.852	-0.242	-0.044
-191.202	-200.000	-0.029	-0.174
-190.187	32.455	-0.215	0.185
-189.173	-200.000	0.038	-0.253
-188.158	-200.000	-0.041	0.456
-187.144	-64.036	0.360	0.146
-186.129	-16.467	0.165	0.104
-185.114	-67.193	-0.219	-0.085
-184.100	-200.000	0.031	0.259
-183.085	-105.868	0.509	-0.114
-182.071	49.250	-0.135	0.126
-181.056	16.882	0.328	0.257
-180.042	4.783	0.137	-0.100
-179.027	-170.873	-0.278	0.009
-178.012	-142.523	0.238	0.023
-176.998	-34.206	0.143	0.078
-175.983	800.000	-0.013	0.038
-174.969	800.000	0.109	-0.301
-173.954	168.931	0.121	-0.171
-172.939	-10.801	0.133	0.087
-171.925	-142.131	0.404	0.040
-170.910	115.274	0.176	0.213
-169.896	203.125	0.103	0.158
-168.881	-36.008	0.334	0.179
-167.866	3.566	0.252	-0.182
-166.852	-182.398	0.208	0.004
-165.837	8.063	-0.273	0.203
-164.823	800.000	-0.050	-0.140
-163.808	245.629	0.058	-0.097
-162.793	83.647	0.208	0.225
-161.779	800.000	0.167	0.523
-160.764	274.534	0.183	0.321
-159.750	800.000	-0.103	0.298
-158.735	144.771	0.190	-0.252
-157.720	800.000	-0.081	0.271
-156.706	101.245	-0.215	-0.248
-155.691	-200.000	0.026	0.241
-154.677	800.000	-0.022	-0.064
-153.662	80.950	-0.151	-0.162
-152.647	-86.140	0.606	0.185
-151.633	2.102	0.232	0.166
-150.618	-146.842	0.200	-0.017
-149.604	399.621	-0.122	0.253
-148.589	-72.960	0.435	0.158
-147.574	-106.300	0.482	-0.107
-146.560	-47.847	-0.394	-0.189
-145.545	800.000	0.152	0.473
-144.531	-150.437	0.129	-0.010
-143.516	-111.698	-0.299	0.060
-142.502	193.600	-0.133	-0.199
-141.487	103.951	0.216	-0.252
-140.472	-92.957	-0.152	-0.042
-139.458	107.754	0.156	-0.184
-138.443	-1.704	-0.124	-0.086
-137.429	-155.274	0.277	-0.018
-136.414	-10.658	0.172	-0.113
-135.399	83.381	-0.165	-0.178
-134.385	-200.000	-0.025	0.207
-133.370	-64.707	-0.161	0.064
-132.356	42.587	0.131	0.118
-131.341	-130.365	0.156	0.021
-130.326	-58.696	0.164	0.071
-129.312	-33.493	-0.164	-0.090
-128.297	-91.451	-0.315	0.089
-127.283	-136.604	-0.054	-0.006
-126.268	163.295	-0.074	0.103
-125.253	357.140	0.162	0.320
-124.239	-200.000	-0.055	-0.267
-123.224	83.765	-0.085	0.092
-122.210	-66.957	-0.273	-0.107
-121.195	142.345	0.106	-0.139
