DTS Sentinel unit serial number:	SN413079Multiplexer serial number:	ORYXHardware model number:	OX4-SRSoftware version number:	ORYX F/W v4.00 Oryx Data Collector v3.7.2.0data status	okinstallation	princeton_trtdifferential loss correction	single-endedforward channel	channel 4reverse channel	N/Adate	2019/09/19time	14:49:35forward acquisition time	60.00reverse acquisition time	0.00gamma	496.2192k internal	0.2304k external	0.2304temperature offset calibration	1.0026default loss term (dB/km)	0.3790temperature slope calibration	1.0000multiplexer offset coefficient	1.0000multiplexer slope coefficient	1.0000fibre end	0.00T internal ref (°C)	32.81T ext. ref 1 (°C)	1.09T ext. ref 2 (°C)	29.73length (m)	temperature (°C)	Stokes	anti-Stokes-747.200	-80.543	0.077	0.026
-746.185	111.651	-0.232	0.285
-745.171	-56.908	-0.219	-0.099
-744.156	237.580	-0.090	0.152
-743.142	800.000	0.062	-0.215
-742.127	322.043	-0.073	0.141
-741.112	380.817	0.104	0.218
-740.098	-98.038	0.066	0.017
-739.083	167.842	0.064	0.092
-738.069	-48.623	0.035	0.017
-737.054	50.909	0.093	0.090
-736.039	-97.369	-0.284	-0.075
-735.025	331.829	0.116	-0.227
-734.010	30.107	-0.266	0.231
-732.996	-72.606	-0.161	-0.061
-731.981	361.211	-0.202	0.412
-730.966	28.168	-0.029	0.025
-729.952	-75.545	-0.188	-0.068
-728.937	-200.000	-0.070	-0.331
-727.923	-200.000	0.020	0.146
-726.908	800.000	-0.040	0.131
-725.894	-200.000	-0.020	0.245
-724.879	-98.864	-0.250	0.065
-723.864	800.000	0.042	0.128
-722.850	118.296	0.056	-0.070
-721.835	-112.066	-0.329	0.067
-720.821	-100.061	-0.291	-0.074
-719.806	736.468	0.078	-0.212
-718.791	800.000	-0.073	-0.219
-717.777	7.036	-0.148	0.112
-716.762	240.760	-0.037	0.064
-715.748	800.000	-0.075	0.221
-714.733	97.317	0.083	-0.096
-713.718	31.739	-0.218	-0.191
-712.704	-91.743	0.205	0.059
-711.689	509.920	0.100	0.237
-710.675	369.725	-0.158	-0.326
-709.660	800.000	-0.120	-0.391
-708.645	-144.548	-0.297	0.028
-707.631	7.790	-0.142	-0.108
-706.616	261.240	-0.064	0.113
-705.602	50.034	0.235	0.225
-704.587	-10.778	0.016	0.011
-703.572	218.019	0.091	0.147
-702.558	-200.000	0.057	-0.262
-701.543	-130.412	-0.354	-0.049
-700.529	-12.515	0.217	-0.144
-699.514	59.497	-0.120	0.120
-698.499	-51.985	-0.348	0.164
-697.485	-200.000	-0.013	-0.304
-696.470	98.664	-0.198	-0.233
-695.456	-130.428	0.079	0.011
-694.441	18.392	-0.223	-0.181
-693.426	-132.892	-0.129	0.017
-692.412	-200.000	0.065	0.340
-691.397	-72.505	-0.248	0.093
-690.383	800.000	0.023	0.075
-689.368	232.287	-0.226	0.376
-688.354	119.133	0.188	-0.236
-687.339	-200.000	0.013	-0.132
-686.324	228.553	-0.113	-0.187
-685.310	-100.705	-0.175	-0.044
-684.295	-200.000	-0.047	0.209
-683.281	800.000	-0.026	0.100
-682.266	-200.000	0.010	-0.200
-681.251	91.651	-0.173	0.198
-680.237	-43.748	-0.160	-0.082
-679.222	-200.000	0.060	-0.284
-678.208	-27.685	0.131	0.077
-677.193	800.000	0.076	-0.260
-676.178	-88.327	0.252	-0.076
-675.164	800.000	0.020	-0.082
-674.149	800.000	-0.150	-0.423
-673.135	47.985	0.285	-0.270
-672.120	86.369	0.105	0.117
-671.105	-34.169	-0.159	-0.089
-670.091	800.000	0.119	-0.503
-669.076	-22.456	-0.151	-0.093
-668.062	-148.219	0.248	0.021
-667.047	70.095	0.157	-0.164
-666.032	329.815	-0.008	0.016
-665.018	138.993	-0.101	0.135
-664.003	-162.906	-0.252	-0.012
-662.989	-147.199	0.142	-0.012
-661.974	-95.899	-0.228	-0.062
-660.959	-200.000	-0.017	0.110
-659.945	800.000	-0.064	-0.218
-658.930	-63.844	-0.100	0.041
-657.916	236.114	0.057	0.096
-656.901	355.753	-0.095	-0.192
-655.886	800.000	0.026	0.099
-654.872	-61.841	0.132	-0.056
-653.857	103.466	0.147	-0.175
-652.843	-123.698	-0.119	-0.019
-651.828	-93.213	-0.072	-0.020
-650.814	-200.000	-0.068	-0.315
-649.799	135.041	-0.111	0.146
-648.784	-139.260	0.365	-0.040
-647.770	147.177	-0.091	0.125
-646.755	-178.792	0.305	-0.007
-645.741	-200.000	-0.019	0.106
-644.726	-103.151	-0.243	0.058
-643.711	52.232	-0.045	0.044
-642.697	46.582	0.064	0.061
-641.682	-95.947	0.194	-0.052
-640.668	705.436	-0.136	-0.363
-639.653	62.137	-0.240	-0.242
-638.638	168.814	-0.094	-0.136
-637.624	800.000	-0.106	0.364
-636.609	800.000	-0.073	-0.224
-635.595	-17.133	-0.375	-0.240
-634.580	-200.000	-0.051	0.406
-633.565	693.316	-0.115	-0.306
-632.551	797.570	-0.173	0.484
-631.536	5.004	0.033	0.025
-630.522	-200.000	-0.001	-0.061
-629.507	-172.781	0.294	-0.009
-628.492	800.000	0.024	0.070
-627.478	432.084	-0.114	-0.249
-626.463	-165.502	-0.035	-0.002
-625.449	-200.000	-0.001	-0.212
-624.434	130.720	0.070	0.090
-623.419	800.000	0.010	0.030
-622.405	800.000	0.062	-0.183
-621.390	12.994	0.345	-0.270
-620.376	-186.899	-0.132	-0.002
-619.361	-200.000	-0.004	0.340
-618.346	165.096	0.221	-0.317
-617.332	-68.135	-0.399	0.157
-616.317	800.000	-0.047	-0.160
-615.303	-160.483	0.129	0.007
-614.288	57.960	-0.292	0.290
-613.273	613.454	0.063	-0.160
-612.259	-23.862	0.374	0.227
-611.244	315.295	-0.059	-0.113
-610.230	-138.896	-0.056	-0.006
-609.215	171.507	0.036	-0.052
-608.201	608.907	-0.095	0.241
-607.186	203.371	-0.091	0.143
-606.171	260.301	-0.035	-0.061
-605.157	-114.017	0.095	-0.019
-604.142	-200.000	-0.031	0.232
-603.128	493.724	0.168	0.391
-602.113	-200.000	-0.011	-0.160
-601.098	-126.239	-0.121	0.018
-600.084	6.825	-0.041	-0.031
-599.069	-39.836	0.278	0.147
-598.055	-200.000	-0.059	0.438
-597.040	235.981	0.144	0.242
-596.025	211.651	0.099	-0.158
-595.011	-129.357	0.188	-0.027
-593.996	-32.797	-0.173	0.097
-592.982	175.371	-0.093	0.137
-591.967	-121.942	-0.283	0.047
-590.952	167.331	0.155	-0.223
-589.938	-36.146	-0.186	-0.101
-588.923	371.541	0.145	0.297
-587.909	167.438	-0.171	0.246
-586.894	122.732	-0.121	-0.153
-585.879	-145.088	0.185	0.017
-584.865	-12.153	0.256	-0.169
-583.850	-181.345	0.257	-0.005
-582.836	-56.570	0.068	-0.030
-581.821	-145.384	0.180	-0.016
-580.806	-132.057	0.027	0.004
-579.792	-53.941	0.121	0.056
-578.777	-190.694	-0.243	-0.003
-577.763	-74.845	0.211	0.077
-576.748	781.389	-0.054	0.149
-575.733	65.960	-0.279	-0.287
-574.719	-37.577	0.028	0.015
-573.704	101.578	0.234	-0.275
-572.690	-200.000	0.011	-0.120
-571.675	-200.000	-0.038	0.226
-570.661	-82.958	0.416	0.136
-569.646	20.910	-0.174	-0.142
-568.631	160.533	-0.107	-0.151
-567.617	73.438	0.164	-0.174
-566.602	-119.036	0.284	0.050
-565.588	505.972	-0.085	-0.199
-564.573	-99.902	0.236	0.060
-563.558	482.886	-0.062	-0.141
-562.544	470.242	-0.106	-0.240
-561.529	-200.000	0.008	-0.205
-560.515	51.799	-0.078	0.075
-559.500	-108.558	0.345	-0.075
-558.485	-200.000	0.026	-0.119
-557.471	118.419	-0.023	-0.029
-556.456	-200.000	0.055	0.263
-555.442	61.918	-0.307	-0.310
-554.427	800.000	0.088	-0.297
-553.412	145.691	-0.040	-0.054
-552.398	-2.160	-0.153	0.108
-551.383	-23.310	-0.065	0.039
-550.369	232.418	-0.097	-0.161
-549.354	149.611	0.276	0.378
-548.339	-37.036	-0.250	-0.135
-547.325	50.588	0.183	0.175
-546.310	800.000	-0.034	0.100
-545.296	800.000	-0.028	-0.108
-544.281	-200.000	0.003	-0.019
-543.266	800.000	0.045	-0.172
-542.252	-11.064	-0.116	-0.078
-541.237	-200.000	0.015	0.269
-540.223	113.648	-0.131	0.161
-539.208	-200.000	0.070	0.337
-538.193	800.000	-0.066	0.219
-537.179	-200.000	-0.002	0.154
-536.164	-51.523	-0.383	-0.180
-535.150	-107.095	-0.386	0.086
-534.135	800.000	-0.069	0.273
-533.121	159.032	0.125	0.176
-532.106	25.953	0.105	0.089
-531.091	408.651	-0.092	0.196
-530.077	55.807	0.190	0.186
-529.062	-116.279	-0.258	0.048
-528.048	40.090	0.142	-0.129
-527.033	385.103	0.118	0.245
-526.018	-14.639	0.176	-0.114
-525.004	-118.368	-0.211	0.038
-523.989	231.416	-0.193	-0.319
-522.975	257.272	-0.052	-0.091
-521.960	100.127	-0.100	0.117
-520.945	-17.871	0.107	-0.067
-519.931	45.832	0.196	0.183
-518.916	-51.248	-0.377	-0.178
-517.902	95.992	0.088	0.102
-516.887	800.000	-0.074	0.247
-515.872	800.000	0.011	-0.034
-514.858	-64.110	-0.154	-0.063
-513.843	-176.265	-0.246	-0.006
-512.829	-58.804	-0.311	-0.136
-511.814	-97.169	-0.305	-0.080
-510.799	26.987	0.076	-0.064
-509.785	31.117	0.020	-0.017
-508.770	27.946	-0.206	0.175
-507.756	-87.824	-0.195	0.059
-506.741	95.120	-0.079	-0.091
-505.726	-91.931	-0.164	0.047
-504.712	113.786	-0.117	-0.144
-503.697	-5.571	0.077	-0.053
-502.683	550.340	0.076	0.184
-501.668	-39.846	0.227	-0.120
-500.653	-120.723	0.377	0.064
-499.639	-77.157	-0.142	-0.050
-498.624	410.272	0.161	0.345
-497.610	118.979	-0.278	-0.346
-496.595	401.776	0.130	-0.276
-495.581	-108.436	-0.178	-0.039
-494.566	-59.530	0.315	-0.136
-493.551	-200.000	-0.024	-0.318
-492.537	-200.000	-0.085	-0.558
-491.522	73.108	0.162	0.171
-490.508	517.903	-0.069	0.163
-489.493	82.708	0.017	0.018
-488.478	-142.281	0.109	-0.011
-487.464	66.711	0.111	-0.114
-486.449	-200.000	0.081	-0.367
-485.435	56.029	-0.079	-0.077
-484.420	79.531	0.176	-0.190
-483.405	77.080	-0.061	-0.066
-482.391	-156.906	0.085	0.005
-481.376	-200.000	0.026	0.303
-480.362	-46.603	0.256	-0.127
-479.347	800.000	0.077	0.221
-478.332	81.896	-0.318	0.347
-477.318	800.000	-0.076	0.236
-476.303	-67.966	-0.543	0.214
-475.289	152.018	-0.176	-0.242
-474.274	10.071	-0.106	-0.081
-473.259	-112.497	-0.247	0.050
-472.245	225.720	0.145	-0.236
-471.230	496.146	0.042	0.097
-470.216	246.487	0.104	0.176
-469.201	205.981	-0.042	-0.067
-468.186	51.995	-0.136	0.131
-467.172	-200.000	0.019	-0.333
-466.157	800.000	-0.104	-0.365
-465.143	-110.754	0.159	0.033
-464.128	38.176	0.091	-0.081
-463.113	-87.488	0.303	-0.092
-462.099	-100.761	0.228	0.056
-461.084	-91.158	-0.363	0.105
-460.070	-37.609	0.158	0.085
-459.055	-200.000	0.014	-0.154
-458.040	800.000	0.044	-0.128
-457.026	798.993	0.086	0.239
-456.011	96.592	-0.168	-0.193
-454.997	161.678	-0.178	-0.251
-453.982	360.451	-0.102	-0.205
-452.968	-200.000	-0.053	-0.235
-451.953	-99.680	-0.385	-0.097
-450.938	-163.019	0.223	0.011
-449.924	577.840	-0.073	0.179
-448.909	-25.621	-0.097	-0.058
-447.895	-200.000	0.015	-0.102
-446.880	167.958	0.252	-0.360
-445.865	18.913	-0.159	0.128
-444.851	43.671	0.087	0.080
-443.836	398.459	0.046	-0.096
-442.822	15.651	-0.185	0.146
-441.807	-173.306	-0.502	-0.015
-440.792	77.867	-0.244	0.262
-439.778	-135.796	-0.275	0.033
-438.763	-200.000	0.013	0.124
-437.749	289.000	-0.173	-0.316
-436.734	489.161	-0.031	-0.072
-435.719	155.061	0.079	-0.109
-434.705	-200.000	-0.010	0.246
-433.690	753.843	0.065	0.175
-432.676	39.569	-0.136	0.122
-431.661	61.644	0.394	0.395
-430.646	-28.071	0.083	0.049
-429.632	-162.197	0.332	-0.017
-428.617	267.903	-0.071	-0.125
-427.603	72.603	0.135	-0.142
-426.588	-127.864	0.292	0.042
-425.573	-86.145	-0.193	-0.060
-424.559	245.320	-0.179	0.303
-423.544	738.715	0.082	-0.222
-422.530	99.077	-0.116	-0.135
-421.515	-200.000	0.009	0.208
-420.500	800.000	0.048	-0.164
-419.486	800.000	-0.066	-0.184
-418.471	106.567	-0.102	-0.122
-417.457	525.095	0.245	0.580
-416.442	-133.651	0.313	-0.039
-415.428	-200.000	-0.007	0.250
-414.413	332.694	-0.066	-0.128
-413.398	84.178	0.082	-0.090
-412.384	-6.866	0.178	-0.121
-411.369	-144.319	0.361	0.034
-410.355	-121.021	-0.252	-0.043
-409.340	-19.079	-0.283	0.177
-408.325	800.000	0.063	-0.251
-407.311	-200.000	-0.027	0.251
-406.296	-65.048	-0.126	-0.051
-405.282	740.779	0.116	0.313
-404.267	-200.000	0.041	0.276
-403.252	-200.000	-0.027	0.263
-402.238	-149.523	-0.242	-0.019
-401.223	-105.937	-0.097	0.022
-400.209	89.824	0.194	-0.218
-399.194	36.944	-0.277	-0.246
-398.179	130.110	0.044	0.057
-397.165	-40.654	0.251	0.130
-396.150	124.852	0.178	-0.225
-395.136	-13.267	-0.130	0.085
-394.121	800.000	-0.022	0.089
-393.106	75.203	-0.160	-0.170
-392.092	39.608	0.195	0.176
-391.077	36.291	-0.074	-0.066
-390.063	503.389	-0.097	0.225
-389.048	-143.403	0.257	-0.025
-388.033	-65.310	-0.106	0.043
-387.019	72.855	-0.434	-0.455
-386.004	-28.547	-0.052	-0.030
-384.990	-0.442	-0.073	0.052
-383.975	800.000	-0.032	0.104
-382.960	108.555	0.209	0.251
-381.946	484.483	-0.053	0.121
-380.931	227.595	0.166	0.271
-379.917	-125.303	0.171	-0.026
-378.902	-200.000	0.055	-0.280
-377.888	126.352	-0.135	0.171
-376.873	-105.552	0.058	0.013
-375.858	698.183	-0.139	-0.366
-374.844	-2.285	-0.062	-0.044
-373.829	35.212	-0.149	0.131
-372.815	557.039	0.082	-0.198
-371.800	333.113	0.125	-0.243
-370.785	800.000	0.031	0.137
-369.771	-19.884	-0.065	0.040
-368.756	-150.317	-0.174	-0.013
-367.742	431.597	0.079	-0.172
-366.727	30.461	0.102	0.088
-365.712	-200.000	0.012	0.260
-364.698	-137.290	0.170	0.019
-363.683	-200.000	0.038	0.246
-362.669	75.716	0.192	0.204
-361.654	-77.030	0.490	0.172
-360.639	-200.000	-0.030	-0.279
-359.625	800.000	0.038	-0.121
-358.610	57.594	-0.063	0.062
-357.596	-38.689	-0.130	0.069
-356.581	146.149	-0.101	-0.136
-355.566	-143.446	0.192	-0.018
-354.552	-113.387	-0.432	0.085
-353.537	-32.857	0.126	0.070
-352.523	-156.388	-0.288	-0.018
-351.508	331.625	0.042	0.082
-350.493	256.937	-0.094	-0.162
-349.479	-4.783	-0.070	0.049
-348.464	-29.955	0.141	0.081
-347.450	126.038	-0.130	-0.164
-346.435	-127.429	0.103	0.015
-345.420	348.308	0.059	-0.117
-344.406	-7.668	-0.159	-0.108
-343.391	500.482	0.096	0.223
-342.377	-23.168	-0.517	-0.312
-341.362	-59.745	0.040	0.017
-340.348	-87.327	0.216	0.066
-339.333	-98.379	0.393	-0.101
-338.318	-20.486	0.169	0.104
-337.304	-200.000	0.048	-0.230
-336.289	506.454	-0.093	-0.215
-335.275	-130.768	-0.226	-0.030
-334.260	-161.601	0.134	-0.007
-333.245	-35.559	-0.053	-0.029
-332.231	328.305	-0.148	-0.285
-331.216	-200.000	-0.010	0.140
-330.202	85.835	-0.150	0.165
-329.187	12.563	0.189	-0.146
-328.172	-200.000	0.037	0.178
-327.158	45.316	0.332	0.307
-326.143	126.893	-0.130	-0.165
-325.129	800.000	0.023	0.079
-324.114	-170.772	-0.015	0.001
-323.099	-111.150	0.419	-0.086
-322.085	-180.492	-0.111	-0.002
-321.070	18.859	-0.228	-0.183
-320.056	-200.000	-0.012	0.059
-319.041	-10.223	-0.355	0.236
-318.026	-93.539	0.306	-0.085
-317.012	-83.821	0.297	0.095
-315.997	-128.885	-0.134	0.019
-314.983	-21.899	0.229	-0.139
-313.968	-142.508	0.294	-0.029
-312.953	-37.497	0.154	-0.082
-311.939	800.000	0.041	0.168
-310.924	-165.730	0.273	-0.012
-309.910	-200.000	-0.031	0.387
-308.895	-88.455	-0.183	0.055
-307.880	-96.484	0.192	-0.051
-306.866	-38.389	0.305	0.162
-305.851	78.734	-0.035	-0.037
-304.837	496.596	-0.197	-0.454
-303.822	-99.513	0.159	-0.040
-302.807	-200.000	0.014	-0.105
-301.793	-86.652	0.347	0.106
-300.778	-83.084	-0.182	-0.059
-299.764	-72.582	0.273	-0.101
-298.749	-121.443	-0.254	-0.042
-297.735	-21.206	-0.168	-0.103
-296.720	800.000	-0.080	0.315
-295.705	-36.609	0.049	-0.026
-294.691	-88.803	-0.273	-0.081
-293.676	800.000	0.085	0.243
-292.662	5.476	0.129	0.096
-291.647	-19.432	-0.123	-0.076
-290.632	81.389	0.126	0.136
-289.618	-179.692	-0.216	0.005
-288.603	-200.000	-0.094	-0.459
-287.589	-200.000	-0.016	0.269
-286.574	-200.000	-0.086	-0.380
-285.559	116.167	0.093	-0.114
-284.545	266.645	0.098	-0.171
-283.530	4.001	-0.175	0.128
-282.516	-200.000	-0.001	0.182
-281.501	141.743	0.187	0.248
-280.486	-90.393	0.254	-0.074
-279.472	43.150	0.190	-0.174
-278.457	144.436	0.095	-0.127
-277.443	-144.624	0.191	0.018
-276.428	-200.000	-0.016	0.119
-275.413	262.760	-0.072	0.125
-274.399	77.325	-0.044	0.047
-273.384	103.625	0.207	-0.242
-272.370	378.188	0.136	-0.278
-271.355	29.914	-0.135	0.115
-270.340	-103.805	0.394	-0.092
-269.326	67.207	0.223	-0.227
-268.311	118.541	-0.124	-0.153
-267.297	64.853	0.371	-0.374
-266.282	-194.713	0.214	0.002
-265.267	169.078	0.295	-0.421
-264.253	-160.534	0.180	-0.010
-263.238	26.801	-0.105	0.088
-262.224	-154.197	-0.295	0.020
-261.209	-57.002	0.113	-0.050
-260.195	14.789	0.061	0.048
-259.180	-102.837	-0.260	0.062
-258.165	-154.606	0.304	0.020
-257.151	-31.729	-0.225	-0.126
-256.136	64.370	0.200	-0.201
-255.122	-101.657	-0.204	0.049
-254.107	264.930	0.179	0.312
-253.092	-106.238	-0.034	0.008
-252.078	-51.007	-0.176	-0.082
-251.063	-0.109	0.203	-0.145
-250.049	108.284	-0.147	0.175
-249.034	-18.902	-0.102	-0.063
-248.019	-65.823	0.165	0.066
-247.005	-200.000	-0.005	-0.071
-245.990	-60.793	-0.140	-0.059
-244.976	-55.177	0.034	0.015
-243.961	800.000	0.041	-0.127
-242.946	-193.819	-0.044	-0.000
-241.932	-200.000	-0.007	-0.083
-240.917	20.090	-0.043	-0.035
-239.903	227.524	0.086	-0.140
-238.888	800.000	-0.131	-0.423
-237.873	-136.892	0.222	0.025
-236.859	-14.335	0.128	-0.082
-235.844	-91.377	-0.212	0.061
-234.830	-200.000	0.024	-0.261
-233.815	-193.065	-0.112	-0.001
-232.800	-108.085	0.277	0.060
-231.786	-130.523	-0.146	-0.020
-230.771	-86.989	0.328	-0.100
-229.757	-126.891	0.049	0.007
-228.742	-56.865	-0.314	-0.139
-227.727	-200.000	0.030	0.162
-226.713	-200.000	0.005	0.044
-225.698	-114.768	-0.250	0.048
-224.684	287.098	-0.008	-0.014
-223.669	-7.289	-0.107	-0.072
-222.655	-158.598	-0.185	-0.011
-221.640	-200.000	0.019	-0.201
-220.625	-49.592	0.471	-0.224
-219.611	-57.404	0.315	0.138
-218.596	800.000	-0.065	0.189
-217.582	-72.380	0.249	-0.092
-216.567	-63.001	0.154	0.063
-215.552	1.462	-0.171	-0.123
-214.538	-200.000	0.032	0.202
-213.523	28.471	0.161	0.136
-212.509	405.340	0.200	0.421
-211.494	102.999	-0.119	-0.140
-210.479	23.304	-0.306	0.251
-209.465	126.501	0.133	0.168
-208.450	-200.000	0.007	0.129
-207.436	-146.025	0.219	0.019
-206.421	206.796	0.127	-0.197
-205.406	-187.310	-0.349	-0.005
-204.392	3.143	-0.168	-0.122
-203.377	-200.000	0.016	-0.091
-202.363	-53.917	0.081	-0.037
-201.348	-30.551	-0.228	-0.129
-200.333	-200.000	0.013	-0.093
-199.319	-157.346	0.202	-0.012
-198.304	-88.513	0.058	0.017
-197.290	-200.000	-0.045	0.350
-196.275	11.118	-0.231	-0.176
-195.260	597.456	-0.078	0.193
-194.246	85.186	0.281	-0.307
-193.231	-200.000	0.045	0.323
-192.217	-65.120	0.025	-0.010
-191.202	-127.917	0.126	0.018
-190.187	-107.682	-0.335	0.073
-189.173	-41.650	-0.284	-0.145
-188.158	328.722	-0.054	-0.104
-187.144	800.000	0.059	0.203
-186.129	800.000	-0.020	0.077
-185.114	649.239	-0.047	0.119
-184.100	-110.319	-0.166	0.034
-183.085	96.497	-0.254	0.290
-182.071	-200.000	0.006	0.133
-181.056	-184.971	-0.470	-0.007
-180.042	-91.466	-0.180	0.051
-179.027	79.580	-0.131	0.141
-178.012	-73.925	-0.045	-0.016
-176.998	-200.000	0.013	-0.199
-175.983	-80.215	-0.314	0.105
-174.969	537.268	0.150	0.355
-173.954	800.000	-0.080	0.247
-172.939	-32.689	-0.153	-0.085
-171.925	150.906	0.067	0.091
-170.910	-200.000	-0.009	0.291
-169.896	520.016	0.193	0.451
-168.881	-200.000	-0.003	-0.086
-167.866	-14.919	0.197	0.126
-166.852	-86.140	-0.144	0.044
-165.837	-71.157	0.237	-0.089
-164.823	-112.910	0.103	0.020
-163.808	219.216	-0.098	0.156
-162.793	92.325	0.070	-0.078
-161.779	1.143	-0.105	-0.075
-160.764	76.216	-0.183	0.192
-159.750	-200.000	-0.000	0.029
-158.735	7.475	-0.227	-0.169
-157.720	-200.000	-0.033	0.198
-156.706	755.351	-0.072	0.195
-155.691	-191.882	0.496	-0.005
-154.677	196.439	-0.137	-0.208
-153.662	-23.766	0.158	-0.094
-152.647	379.684	-0.025	0.051
-151.633	93.618	-0.156	-0.176
-150.618	-11.248	0.071	0.047
-149.604	52.165	0.136	-0.129
-148.589	800.000	0.098	-0.313
-147.574	-200.000	-0.020	-0.099
-146.560	124.460	0.151	-0.189
-145.545	360.952	-0.126	-0.251
-144.531	-63.401	0.273	0.112
-143.516	-109.841	0.069	0.014
-142.502	-44.140	-0.146	0.073
-141.487	-200.000	0.016	0.312
-140.472	-101.610	0.342	-0.083
-139.458	800.000	0.109	-0.301
-138.443	-132.440	-0.328	0.042
-137.429	-124.157	0.304	0.047
-136.414	464.819	-0.025	0.055
-135.399	42.248	0.249	0.225
-134.385	-44.660	-0.310	0.154
-133.370	31.443	0.158	0.135
-132.356	4.188	-0.053	0.039
-131.341	284.471	0.116	-0.208
-130.326	3.988	-0.201	0.146
-129.312	41.696	0.333	-0.300
-128.297	-87.452	0.364	0.110
-127.283	-110.179	-0.068	-0.014
-126.268	-200.000	-0.028	0.440
-125.253	-200.000	-0.040	0.329
-124.239	-200.000	-0.056	0.297
-123.224	-200.000	-0.063	0.420
-122.210	-179.491	-0.186	0.004
