DTS Sentinel unit serial number:	SN413079Multiplexer serial number:	ORYXHardware model number:	OX4-SRSoftware version number:	ORYX F/W v4.00 Oryx Data Collector v3.7.2.0data status	okinstallation	princeton_trtdifferential loss correction	single-endedforward channel	channel 4reverse channel	N/Adate	2019/09/13time	04:01:35forward acquisition time	60.00reverse acquisition time	0.00gamma	496.2192k internal	0.2321k external	0.2321temperature offset calibration	1.0194default loss term (dB/km)	0.3790temperature slope calibration	1.0000multiplexer offset coefficient	1.0000multiplexer slope coefficient	1.0000fibre end	0.00T internal ref (°C)	27.00T ext. ref 1 (°C)	4.06T ext. ref 2 (°C)	21.30length (m)	temperature (°C)	Stokes	anti-Stokes-747.200	81.332	-0.259	0.283
-746.185	363.233	0.030	0.061
-745.171	-144.027	0.219	0.021
-744.156	7.156	-0.140	0.106
-743.142	-33.057	-0.085	-0.047
-742.127	-200.000	-0.038	0.242
-741.112	17.988	0.194	0.157
-740.098	46.583	0.082	-0.077
-739.083	-179.652	-0.055	0.001
-738.069	-47.834	0.354	0.173
-737.054	168.842	-0.256	-0.369
-736.039	102.190	0.198	-0.234
-735.025	800.000	0.074	0.306
-734.010	302.392	0.197	-0.368
-732.996	159.162	-0.121	-0.170
-731.981	-45.853	-0.374	0.187
-730.966	-147.239	-0.045	0.004
-729.952	-60.407	-0.306	0.132
-728.937	-14.268	0.159	0.103
-727.923	-36.997	-0.219	0.119
-726.908	-102.069	-0.443	0.108
-725.894	-105.717	-0.287	0.066
-724.879	-200.000	-0.005	0.074
-723.864	104.332	0.142	0.169
-722.850	-95.486	0.306	-0.083
-721.835	-54.738	-0.062	-0.028
-720.821	-67.732	0.373	0.148
-719.806	53.838	-0.113	-0.110
-718.791	-200.000	-0.098	-0.478
-717.777	-58.810	-0.368	0.161
-716.762	-200.000	-0.029	0.149
-715.748	304.572	-0.108	-0.203
-714.733	143.265	-0.142	-0.191
-713.718	-183.294	0.221	-0.004
-712.704	-45.675	0.060	-0.030
-711.689	-92.116	-0.692	-0.197
-710.675	800.000	0.050	0.141
-709.660	4.822	-0.242	0.180
-708.645	-1.628	0.115	0.082
-707.631	800.000	0.048	0.182
-706.616	425.604	-0.124	0.271
-705.602	-74.819	0.286	-0.104
-704.587	-138.291	-0.226	-0.025
-703.572	-93.668	-0.182	-0.051
-702.558	-99.522	0.141	-0.036
-701.543	-31.501	-0.217	-0.123
-700.529	-17.697	0.167	-0.106
-699.514	33.680	0.075	-0.066
-698.499	510.264	-0.198	-0.466
-697.485	-155.006	0.251	-0.017
-696.470	-200.000	0.017	0.115
-695.456	800.000	0.082	0.245
-694.441	60.066	-0.180	-0.180
-693.426	484.792	0.109	0.249
-692.412	800.000	0.113	-0.366
-691.397	538.793	-0.171	-0.409
-690.383	47.295	-0.143	0.134
-689.368	800.000	-0.078	-0.341
-688.354	-194.699	-0.283	0.002
-687.339	235.933	-0.288	-0.480
-686.324	166.641	-0.054	-0.077
-685.310	113.296	0.183	-0.224
-684.295	-200.000	-0.028	0.172
-683.281	-140.915	-0.145	-0.015
-682.266	800.000	0.063	-0.197
-681.251	-99.897	0.243	0.061
-680.237	-85.530	-0.350	-0.110
-679.222	800.000	-0.061	-0.243
-678.208	406.532	-0.190	-0.404
-677.193	800.000	-0.052	0.185
-676.178	80.746	-0.130	-0.142
-675.164	-25.208	-0.124	-0.074
-674.149	-35.786	-0.093	0.051
-673.135	-186.956	0.134	0.002
-672.120	151.083	-0.092	-0.126
-671.105	31.247	0.208	-0.180
-670.091	107.264	-0.130	-0.155
-669.076	-34.328	0.048	0.027
-668.062	37.195	0.047	0.042
-667.047	-48.864	0.312	-0.151
-666.032	-59.296	0.200	0.087
-665.018	-189.347	-0.183	0.002
-664.003	-92.647	0.160	-0.045
-662.989	365.323	0.067	0.136
-661.974	127.317	-0.521	0.666
-660.959	36.431	0.131	-0.116
-659.945	-88.069	0.013	0.004
-658.930	-172.803	-0.219	-0.007
-657.916	31.822	0.215	0.186
-656.901	-58.193	-0.074	-0.033
-655.886	-189.466	-0.140	0.002
-654.872	-200.000	0.027	-0.130
-653.857	448.195	-0.045	-0.100
-652.843	-69.659	-0.213	0.082
-651.828	-117.674	-0.307	0.056
-650.814	575.827	-0.099	0.244
-649.799	800.000	-0.097	0.305
-648.784	209.193	0.121	-0.191
-647.770	-55.697	0.326	-0.147
-646.755	13.874	-0.152	0.119
-645.741	404.252	0.035	0.074
-644.726	39.544	-0.204	0.184
-643.711	-41.508	-0.131	0.068
-642.697	103.743	-0.116	-0.137
-641.682	-100.548	0.026	-0.007
-640.668	800.000	0.008	-0.023
-639.653	-164.712	-0.030	0.001
-638.638	800.000	0.102	-0.332
-637.624	-71.718	-0.237	0.089
-636.609	56.355	0.212	-0.208
-635.595	75.732	0.090	-0.096
-634.580	-74.426	-0.122	0.044
-633.565	-30.770	0.323	-0.184
-632.551	114.360	-0.283	0.347
-631.536	-200.000	-0.002	0.041
-630.522	-65.111	-0.282	-0.115
-629.507	13.267	0.173	-0.135
-628.492	-200.000	-0.044	-0.263
-627.478	-186.810	-0.188	-0.003
-626.463	618.597	-0.078	-0.197
-625.449	12.813	-0.292	-0.227
-624.434	429.228	0.104	0.226
-623.419	245.489	-0.169	0.286
-622.405	-64.033	0.276	0.113
-621.390	30.484	-0.394	0.339
-620.376	-103.668	-0.167	0.039
-619.361	-137.141	-0.335	0.038
-618.346	-21.955	0.103	-0.063
-617.332	-200.000	0.007	0.223
-616.317	800.000	-0.019	-0.062
-615.303	92.011	-0.069	-0.078
-614.288	-61.392	-0.111	-0.047
-613.273	-48.427	-0.176	0.085
-612.259	800.000	-0.067	-0.286
-611.244	265.939	-0.162	-0.285
-610.230	24.304	-0.152	0.126
-609.215	604.927	0.139	0.347
-608.201	-33.511	-0.164	0.091
-607.186	-117.273	0.283	0.052
-606.171	76.396	0.234	0.250
-605.157	537.016	0.048	0.115
-604.142	-200.000	0.062	-0.386
-603.128	-200.000	0.019	0.340
-602.113	-4.455	0.123	-0.085
-601.098	-148.992	-0.073	0.006
-600.084	-193.681	-0.301	-0.003
-599.069	-8.981	0.326	0.219
-598.055	-102.092	-0.326	0.079
-597.040	-151.105	0.200	0.015
-596.025	-82.241	-0.058	-0.019
-595.011	-2.332	-0.130	0.092
-593.996	102.439	-0.232	-0.272
-592.982	-200.000	0.026	0.224
-591.967	-174.709	0.143	-0.004
-590.952	800.000	-0.072	0.251
-589.938	800.000	0.040	0.134
-588.923	213.018	0.208	0.330
-587.909	800.000	-0.020	0.069
-586.894	-200.000	-0.007	0.085
-585.879	199.452	0.041	0.063
-584.865	-36.590	-0.099	0.053
-583.850	-177.559	0.155	0.004
-582.836	-200.000	0.011	0.060
-581.821	-129.273	0.239	-0.033
-580.806	-200.000	0.003	0.235
-579.792	-200.000	0.024	-0.211
-578.777	-200.000	-0.007	0.048
-577.763	-186.601	-0.056	-0.001
-576.748	-200.000	-0.000	0.044
-575.733	348.473	0.052	-0.104
-574.719	93.277	-0.305	-0.347
-573.704	38.078	-0.066	0.059
-572.690	-79.192	-0.073	0.025
-571.675	452.206	0.116	-0.256
-570.661	591.046	-0.166	-0.411
-569.646	-200.000	0.053	-0.274
-568.631	564.881	-0.052	-0.127
-567.617	-65.952	-0.539	0.216
-566.602	800.000	-0.138	0.387
-565.588	639.060	-0.161	-0.411
-564.573	98.431	0.241	0.279
-563.558	-29.456	-0.043	0.025
-562.544	-164.824	0.152	0.007
-561.529	-200.000	0.014	0.177
-560.515	380.612	-0.144	-0.297
-559.500	-57.148	0.089	-0.039
-558.485	-52.005	0.186	-0.087
-557.471	9.392	0.236	0.179
-556.456	-92.293	-0.047	0.013
-555.442	80.392	0.308	-0.333
-554.427	372.283	0.083	-0.170
-553.412	490.258	0.089	-0.204
-552.398	-59.860	0.115	-0.049
-551.383	-43.952	-0.084	0.042
-550.369	-154.903	-0.168	0.011
-549.354	-79.245	-0.195	0.066
-548.339	-145.825	0.281	-0.025
-547.325	-151.843	-0.118	0.009
-546.310	-200.000	0.000	-0.316
-545.296	-200.000	-0.027	-0.167
-544.281	-4.857	0.134	0.093
-543.266	800.000	0.054	-0.199
-542.252	-80.493	-0.081	0.027
-541.237	-99.822	0.162	-0.041
-540.223	-92.816	0.203	0.057
-539.208	122.452	-0.198	-0.248
-538.193	-200.000	0.012	0.101
-537.179	-141.161	0.282	-0.029
-536.164	250.662	0.029	-0.050
-535.150	800.000	0.075	0.247
-534.135	-19.457	-0.314	-0.195
-533.121	92.958	0.126	-0.143
-532.106	-157.200	-0.176	0.011
-531.091	800.000	-0.022	0.079
-530.077	-132.762	0.076	-0.010
-529.062	290.770	-0.207	0.377
-528.048	30.614	0.144	-0.123
-527.033	800.000	-0.054	-0.218
-526.018	137.939	-0.186	-0.244
-525.004	711.613	0.169	0.448
-523.989	-136.794	-0.157	-0.018
-522.975	13.043	-0.011	-0.009
-521.960	52.993	-0.161	-0.154
-520.945	-70.272	0.230	0.088
-519.931	513.287	0.044	-0.102
-518.916	-101.600	0.323	-0.079
-517.902	153.494	-0.230	-0.316
-516.887	-200.000	0.038	-0.184
-515.872	800.000	-0.027	0.079
-514.858	-200.000	0.008	0.242
-513.843	-200.000	0.001	-0.123
-512.829	461.655	0.125	-0.279
-511.814	289.230	0.175	0.318
-510.799	800.000	0.041	0.137
-509.785	87.371	0.086	0.095
-508.770	10.706	0.204	-0.156
-507.756	270.576	0.161	-0.283
-506.741	800.000	-0.045	0.173
-505.726	-200.000	-0.002	-0.454
-504.712	190.335	0.136	0.205
-503.697	-138.276	-0.212	0.023
-502.683	-200.000	-0.026	0.281
-501.668	-98.913	-0.338	0.086
-500.653	161.992	-0.162	0.227
-499.639	-182.075	-0.298	-0.006
-498.624	-134.373	-0.313	-0.038
-497.610	-24.588	-0.204	0.122
-496.595	-167.397	-0.248	-0.010
-495.581	-173.661	0.055	0.002
-494.566	-200.000	-0.001	-0.122
-493.551	713.300	0.128	0.339
-492.537	78.348	-0.169	0.180
-491.522	-64.899	0.238	-0.096
-490.508	436.678	-0.098	0.214
-489.493	64.005	0.153	-0.154
-488.478	800.000	0.046	-0.180
-487.464	-200.000	-0.000	-0.073
-486.449	25.364	-0.106	-0.089
-485.435	320.432	-0.091	0.173
-484.420	-200.000	0.036	0.443
-483.405	-54.502	-0.125	-0.056
-482.391	-60.602	-0.248	0.105
-481.376	-174.376	0.340	0.010
-480.362	-77.894	0.102	-0.035
-479.347	-41.036	0.247	0.127
-478.332	-191.326	-0.169	0.002
-477.318	-63.787	0.283	0.116
-476.303	193.190	-0.026	0.040
-475.289	783.858	-0.097	-0.266
-474.274	-105.100	-0.287	-0.066
-473.259	-111.804	-0.231	-0.047
-472.245	4.355	0.205	-0.150
-471.230	-95.300	0.171	-0.046
-470.216	-156.928	0.148	-0.009
-469.201	486.593	-0.065	-0.149
-468.186	-200.000	-0.018	-0.080
-467.172	-49.412	-0.051	-0.024
-466.157	-200.000	0.056	-0.258
-465.143	800.000	-0.054	-0.198
-464.128	800.000	0.084	0.234
-463.113	-30.020	0.262	-0.149
-462.099	-147.233	0.074	0.006
-461.084	50.833	0.110	-0.104
-460.070	120.709	0.200	0.248
-459.055	-200.000	0.060	0.432
-458.040	-107.960	0.104	-0.023
-457.026	800.000	-0.055	0.194
-456.011	-35.292	0.086	0.047
-454.997	-47.162	-0.124	0.060
-453.982	424.673	0.075	-0.161
-452.968	11.523	-0.184	-0.141
-451.953	-92.661	0.138	-0.039
-450.938	384.271	-0.038	0.078
-449.924	124.064	-0.364	-0.457
-448.909	-119.428	0.079	-0.014
-447.895	-86.359	-0.187	0.057
-446.880	-160.502	-0.318	-0.017
-445.865	671.741	-0.141	0.364
-444.851	-200.000	-0.050	0.238
-443.836	800.000	-0.098	0.400
-442.822	60.928	0.073	-0.073
-441.807	252.125	0.077	-0.132
-440.792	-168.961	-0.226	0.008
-439.778	-30.996	0.132	0.074
-438.763	26.132	0.137	0.115
-437.749	27.928	-0.181	-0.152
-436.734	40.933	-0.058	-0.052
-435.719	307.194	-0.152	0.283
-434.705	-58.261	-0.164	0.071
-433.690	-22.793	-0.065	0.039
-432.676	800.000	0.070	-0.231
-431.661	301.306	-0.245	0.452
-430.646	-109.250	-0.357	-0.076
-429.632	-65.776	0.041	-0.016
-428.617	287.937	0.262	-0.473
-427.603	105.139	-0.130	-0.153
-426.588	-200.000	-0.020	-0.107
-425.573	58.376	0.121	0.118
-424.559	-200.000	-0.014	0.151
-423.544	32.156	-0.224	0.193
-422.530	-129.889	0.101	-0.014
-421.515	-34.390	0.214	-0.117
-420.500	-200.000	-0.002	0.062
-419.486	102.783	0.135	0.158
-418.471	800.000	0.051	-0.222
-417.457	-64.167	-0.152	-0.062
-416.442	-24.074	-0.083	0.049
-415.428	-73.354	-0.094	-0.034
-414.413	-164.305	-0.097	0.004
-413.398	-81.952	0.124	0.040
-412.384	-200.000	0.045	0.270
-411.369	-200.000	-0.001	0.164
-410.355	15.364	0.329	-0.257
-409.340	181.697	0.067	0.099
-408.325	-157.557	0.139	0.008
-407.311	52.270	-0.057	0.054
-406.296	-200.000	0.040	0.454
-405.282	-0.723	0.123	0.087
-404.267	-108.224	0.148	-0.032
-403.252	-200.000	-0.011	0.125
-402.238	-31.942	-0.033	-0.019
-401.223	44.030	-0.266	-0.243
-400.209	-200.000	-0.006	-0.230
-399.194	-200.000	-0.010	0.091
-398.179	164.815	-0.139	-0.195
-397.165	-148.005	-0.178	0.015
-396.150	800.000	0.025	-0.096
-395.136	-39.153	-0.324	0.170
-394.121	-65.285	-0.134	-0.054
-393.106	-82.263	-0.153	-0.050
-392.092	-148.782	-0.103	-0.008
-391.077	54.992	-0.130	0.125
-390.063	800.000	0.033	-0.097
-389.048	355.078	-0.128	-0.253
-388.033	-32.084	0.206	0.115
-387.019	-200.000	-0.014	0.149
-386.004	609.311	0.063	0.156
-384.990	-152.394	-0.160	-0.011
-383.975	172.109	-0.102	0.146
-382.960	586.796	-0.101	0.247
-381.946	-148.217	-0.182	-0.015
-380.931	295.845	-0.080	-0.146
-379.917	192.073	-0.154	0.232
-378.902	-135.218	0.159	-0.019
-377.888	-144.332	0.179	0.017
-376.873	-136.685	0.243	-0.028
-375.858	-8.975	-0.144	-0.096
-374.844	143.531	-0.115	0.152
-373.829	-13.492	-0.166	-0.107
-372.815	-200.000	-0.070	0.379
-371.800	-79.500	0.168	0.056
-370.785	210.503	-0.108	0.168
-369.771	102.920	-0.155	0.180
-368.756	-73.042	0.206	0.075
-367.742	44.388	0.337	-0.308
-366.727	202.575	-0.078	0.119
-365.712	-81.632	0.102	0.033
-364.698	-188.365	0.596	-0.007
-363.683	-200.000	0.056	0.251
-362.669	-34.102	-0.200	0.110
-361.654	1.522	0.079	0.057
-360.639	-40.694	0.234	0.121
-359.625	-16.967	0.196	0.123
-358.610	-200.000	0.004	-0.359
-357.596	800.000	-0.101	0.303
-356.581	-200.000	0.088	-0.395
-355.566	-86.562	-0.460	0.140
-354.552	-65.958	0.031	-0.012
-353.537	-161.957	0.224	0.011
-352.523	800.000	0.041	-0.175
-351.508	800.000	0.016	-0.050
-350.493	214.724	-0.145	-0.229
-349.479	-42.495	0.147	-0.075
-348.464	-0.787	0.213	-0.150
-347.450	15.412	0.067	0.052
-346.435	-52.734	0.115	-0.053
-345.420	-46.058	-0.175	-0.086
-344.406	-17.674	0.175	0.109
-343.391	-144.593	0.312	0.029
-342.377	-94.444	-0.127	0.034
-341.362	9.363	0.147	-0.110
-340.348	118.638	0.053	0.065
-339.333	126.884	0.163	0.205
-338.318	499.096	0.080	0.183
-337.304	800.000	-0.099	-0.351
-336.289	800.000	0.118	-0.326
-335.275	326.160	-0.075	0.142
-334.260	-115.471	0.280	-0.052
-333.245	90.131	-0.060	-0.067
-332.231	69.227	0.238	-0.243
-331.216	90.679	0.192	-0.214
-330.202	-73.614	-0.141	-0.051
-329.187	-79.036	0.243	-0.082
-328.172	-27.628	0.182	-0.105
-327.158	-78.531	0.230	-0.078
-326.143	-95.845	0.281	0.075
-325.129	-200.000	0.044	-0.250
-324.114	-46.116	-0.309	0.151
-323.099	91.553	0.238	0.266
-322.085	52.350	0.245	0.232
-321.070	-133.085	-0.262	-0.033
-320.056	33.179	0.067	-0.058
-319.041	89.849	-0.224	-0.249
-318.026	-200.000	-0.015	-0.093
-317.012	94.000	-0.020	-0.023
-315.997	-200.000	-0.031	-0.245
-314.983	-22.880	0.042	0.025
-313.968	90.999	0.147	0.164
-312.953	269.507	-0.229	0.400
-311.939	-85.918	0.202	-0.062
-310.924	-145.314	0.202	0.018
-309.910	-32.978	0.275	-0.152
-308.895	200.623	-0.116	-0.177
-307.880	102.939	0.148	0.173
-306.866	-200.000	-0.005	-0.127
-305.851	165.394	0.125	0.176
-304.837	-70.794	0.376	-0.141
-303.822	116.308	-0.149	-0.181
-302.807	684.872	0.069	0.178
-301.793	393.602	-0.037	-0.076
-300.778	0.554	-0.250	-0.178
-299.764	-86.247	-0.350	-0.107
-298.749	800.000	0.144	0.422
-297.735	800.000	0.039	0.156
-296.720	-200.000	-0.032	0.139
-295.705	236.060	-0.233	0.383
-294.691	-90.907	0.096	-0.028
-293.676	-45.322	-0.191	-0.094
-292.662	-200.000	-0.020	-0.144
-291.647	-200.000	0.007	0.139
-290.632	-200.000	0.018	0.222
-289.618	694.643	-0.118	-0.309
-288.603	-84.874	0.194	-0.061
-287.589	-200.000	-0.006	-0.037
-286.574	168.578	-0.115	-0.162
-285.559	-54.395	0.177	-0.080
-284.545	-164.966	-0.210	-0.009
-283.530	458.922	-0.089	0.196
-282.516	218.028	-0.238	-0.377
-281.501	-19.833	0.100	0.062
-280.486	800.000	-0.070	0.274
-279.472	-111.099	0.063	0.013
-278.457	-71.238	-0.091	-0.034
-277.443	-200.000	-0.094	0.504
-276.428	-25.622	0.095	-0.055
-275.413	-129.915	-0.120	-0.016
-274.399	133.173	-0.159	0.204
-273.384	-123.880	0.350	0.055
-272.370	-200.000	0.027	-0.418
-271.355	712.099	0.004	-0.011
-270.340	-200.000	0.021	0.232
-269.326	508.241	0.065	0.149
-268.311	-200.000	0.005	-0.038
-267.297	-200.000	0.031	-0.168
-266.282	417.184	-0.026	-0.055
-265.267	206.273	0.026	0.040
-264.253	20.359	0.188	-0.150
-263.238	260.818	-0.187	-0.322
-262.224	-139.747	0.324	0.034
-261.209	800.000	-0.076	-0.238
-260.195	-200.000	-0.025	-0.223
-259.180	800.000	-0.057	-0.191
-258.165	55.692	0.099	0.095
-257.151	-162.916	0.186	0.009
-256.136	-200.000	-0.011	0.081
-255.122	-200.000	-0.397	0.000
-254.107	-200.000	-0.010	-0.132
-253.092	118.207	-0.133	-0.163
-252.078	-132.072	-0.176	0.023
-251.063	-140.961	0.441	0.045
-250.049	227.650	-0.135	0.218
-249.034	99.407	0.208	-0.239
-248.019	773.704	0.141	0.380
-247.005	22.176	-0.160	0.129
-245.990	303.383	-0.029	0.054
-244.976	-200.000	-0.023	0.277
-243.961	800.000	0.093	-0.327
-242.946	-88.210	-0.185	-0.055
-241.932	119.093	-0.102	0.125
-240.917	800.000	-0.025	-0.092
-239.903	182.973	0.039	-0.056
-238.888	456.150	0.016	-0.036
-237.873	-29.822	-0.364	0.205
-236.859	-200.000	-0.018	0.173
-235.844	147.556	0.070	0.093
-234.830	52.177	-0.112	-0.106
-233.815	107.063	0.095	-0.112
-232.800	-151.587	-0.351	0.026
-231.786	-8.093	0.328	-0.219
-230.771	125.264	-0.219	-0.274
-229.757	119.027	0.234	-0.287
-228.742	683.175	0.067	0.172
-227.727	135.599	-0.137	0.177
-226.713	-68.021	-0.254	0.098
-225.698	800.000	0.060	-0.191
-224.684	456.413	-0.109	0.240
-223.669	199.829	0.030	0.046
-222.655	155.822	0.135	-0.184
-221.640	800.000	-0.114	-0.366
-220.625	-146.540	-0.252	-0.022
-219.611	-187.770	-0.296	-0.004
-218.596	-146.252	0.328	-0.029
-217.582	218.545	0.093	-0.147
-216.567	28.876	0.106	0.089
-215.552	-127.602	0.164	0.024
-214.538	3.507	-0.321	0.232
-213.523	-5.911	0.249	-0.169
-212.509	-170.515	-0.066	-0.002
-211.494	320.503	-0.063	0.119
-210.479	-200.000	0.008	0.287
-209.465	-100.006	-0.276	0.068
-208.450	-58.246	0.300	-0.129
-207.436	189.052	-0.090	0.133
-206.421	-163.894	0.397	0.018
-205.406	138.083	-0.128	0.166
-204.392	10.747	-0.150	0.114
-203.377	-25.786	0.181	0.106
-202.363	-49.455	-0.295	-0.139
-201.348	66.018	0.139	-0.139
-200.333	73.231	0.182	-0.188
-199.319	800.000	0.103	-0.329
-198.304	322.655	-0.144	-0.272
-197.290	9.642	0.214	0.160
-196.275	-89.805	0.304	-0.088
-195.260	-170.683	0.087	0.003
-194.246	-86.429	0.147	-0.045
-193.231	384.150	-0.018	-0.038
-192.217	-112.746	0.193	-0.038
-191.202	-121.609	-0.165	0.027
-190.187	149.197	-0.068	-0.091
-189.173	592.795	-0.075	-0.183
-188.158	308.554	-0.075	-0.139
-187.144	800.000	0.074	0.307
-186.129	-30.384	0.290	-0.163
-185.114	-200.000	0.085	0.373
-184.100	-29.681	-0.056	-0.031
-183.085	-38.910	-0.022	-0.011
-182.071	-92.592	-0.152	0.042
-181.056	46.099	0.234	0.214
-180.042	-95.070	-0.168	-0.045
-179.027	-128.088	-0.408	-0.058
-178.012	800.000	-0.050	0.163
-176.998	385.904	-0.103	-0.209
-175.983	-200.000	0.043	-0.276
-174.969	468.145	0.165	-0.366
-173.954	23.198	0.189	-0.153
-172.939	111.303	-0.119	0.142
-171.925	800.000	0.098	-0.300
-170.910	65.619	-0.046	-0.046
-169.896	11.603	-0.391	-0.297
-168.881	-200.000	-0.013	-0.167
-167.866	-6.611	0.187	0.126
-166.852	-200.000	0.010	-0.176
-165.837	217.979	0.064	0.101
-164.823	-200.000	-0.028	0.223
-163.808	-43.221	0.233	0.117
-162.793	-64.503	-0.208	0.083
-161.779	-41.435	0.053	-0.027
-160.764	194.072	0.157	-0.235
-159.750	-31.426	0.241	0.134
-158.735	488.059	0.149	0.337
-157.720	276.369	-0.131	0.230
-156.706	46.056	-0.258	-0.236
-155.691	149.167	-0.010	0.013
-154.677	445.632	-0.092	0.199
-153.662	800.000	-0.100	0.288
-152.647	-167.910	0.065	0.003
-151.633	-90.402	0.577	0.165
-150.618	26.647	-0.299	-0.247
-149.604	308.029	0.227	-0.419
-148.589	-0.312	-0.147	0.103
-147.574	223.900	-0.084	0.133
-146.560	-200.000	-0.017	0.302
-145.545	65.423	0.161	0.160
-144.531	-200.000	-0.007	-0.035
-143.516	275.809	-0.070	0.123
-142.502	-200.000	-0.064	0.327
-141.487	-24.000	-0.204	0.120
-140.472	108.792	0.106	-0.125
-139.458	-18.913	0.288	0.177
-138.443	-200.000	-0.011	0.116
-137.429	-200.000	-0.003	0.267
-136.414	129.553	0.145	0.182
-135.399	70.934	-0.173	-0.177
-134.385	-200.000	-0.007	-0.376
-133.370	-83.490	0.079	0.025
-132.356	36.436	-0.210	0.183
-131.341	70.006	-0.213	-0.216
-130.326	-200.000	-0.018	-0.102
-129.312	-17.952	0.332	-0.205
-128.297	-121.618	0.142	-0.023
-127.283	-82.985	-0.036	-0.011
-126.268	513.447	0.033	0.077
-125.253	-33.822	-0.311	0.169
-124.239	-55.778	0.067	0.029
-123.224	-200.000	0.026	0.250
-122.210	800.000	0.115	0.330
