DTS Sentinel unit serial number:	SN413079Multiplexer serial number:	ORYXHardware model number:	OX4-SRSoftware version number:	ORYX F/W v4.00 Oryx Data Collector v3.7.2.0data status	okinstallation	princeton_trtdifferential loss correction	single-endedforward channel	channel 4reverse channel	N/Adate	2019/09/13time	16:29:35forward acquisition time	60.00reverse acquisition time	0.00gamma	496.2192k internal	0.2296k external	0.2296temperature offset calibration	1.0217default loss term (dB/km)	0.3790temperature slope calibration	1.0000multiplexer offset coefficient	1.0000multiplexer slope coefficient	1.0000fibre end	0.00T internal ref (°C)	35.06T ext. ref 1 (°C)	4.89T ext. ref 2 (°C)	30.81length (m)	temperature (°C)	Stokes	anti-Stokes-747.200	-194.149	0.164	0.001
-746.185	37.954	-0.242	-0.220
-745.171	205.449	-0.048	0.077
-744.156	-200.000	0.044	0.337
-743.142	-94.480	-0.142	-0.040
-742.127	800.000	-0.015	0.053
-741.112	-200.000	-0.001	0.167
-740.098	-200.000	0.031	0.181
-739.083	97.035	0.180	0.211
-738.069	178.270	-0.186	0.278
-737.054	-200.000	0.015	0.172
-736.039	-200.000	-0.041	-0.272
-735.025	422.597	0.120	-0.263
-734.010	-166.581	0.376	-0.016
-732.996	-95.018	-0.229	-0.063
-731.981	-200.000	0.007	0.131
-730.966	-200.000	0.046	0.377
-729.952	251.700	0.138	-0.240
-728.937	-18.158	0.341	0.218
-727.923	219.305	0.153	-0.250
-726.908	-113.225	-0.399	0.080
-725.894	800.000	-0.093	-0.305
-724.879	-101.683	-0.092	0.023
-723.864	-10.027	-0.298	0.202
-722.850	-151.032	-0.315	0.024
-721.835	-137.226	-0.253	-0.029
-720.821	-200.000	0.003	0.158
-719.806	-151.181	0.117	0.009
-718.791	-57.179	-0.015	-0.007
-717.777	12.957	0.254	-0.201
-716.762	76.360	0.142	-0.153
-715.748	-165.197	-0.367	0.017
-714.733	-143.161	0.139	-0.014
-713.718	-113.846	0.219	0.043
-712.704	-200.000	-0.006	-0.128
-711.689	-200.000	0.005	0.040
-710.675	218.336	-0.135	0.220
-709.660	187.887	-0.121	-0.185
-708.645	201.668	0.213	0.335
-707.631	-110.650	0.368	-0.078
-706.616	147.458	-0.055	-0.075
-705.602	-200.000	-0.036	0.171
-704.587	78.303	0.132	-0.144
-703.572	215.246	-0.049	-0.080
-702.558	-91.155	0.193	0.057
-701.543	127.371	0.132	-0.171
-700.529	800.000	-0.071	-0.283
-699.514	235.742	-0.062	-0.105
-698.499	-106.861	0.134	-0.030
-697.485	-112.055	0.128	-0.026
-696.470	-90.472	0.302	-0.089
-695.456	-178.146	-0.411	-0.010
-694.441	-111.289	0.348	-0.072
-693.426	-200.000	-0.016	0.083
-692.412	52.556	-0.301	-0.293
-691.397	75.417	-0.170	0.183
-690.383	-46.525	0.086	0.043
-689.368	301.217	-0.176	0.332
-688.354	-190.966	0.115	0.001
-687.339	-35.833	-0.120	0.066
-686.324	-133.887	-0.239	0.030
-685.310	-78.085	-0.107	0.038
-684.295	70.793	0.121	0.127
-683.281	-65.360	-0.428	-0.176
-682.266	-95.261	-0.246	-0.068
-681.251	-119.957	-0.138	-0.024
-680.237	338.467	0.030	0.059
-679.222	1.759	0.201	0.147
-678.208	-62.626	-0.266	-0.112
-677.193	-60.508	-0.203	0.088
-676.178	-26.209	-0.091	0.054
-675.164	-102.510	0.145	-0.035
-674.149	-157.219	0.226	0.014
-673.135	-200.000	0.035	0.180
-672.120	-29.573	-0.271	-0.158
-671.105	98.100	0.279	-0.328
-670.091	196.105	-0.185	0.287
-669.076	157.650	-0.151	-0.212
-668.062	-0.871	0.294	-0.212
-667.047	-33.048	0.174	0.098
-666.032	-44.475	-0.320	-0.163
-665.018	14.093	-0.221	0.175
-664.003	-200.000	-0.018	-0.159
-662.989	85.334	0.111	-0.124
-661.974	800.000	0.084	-0.301
-660.959	146.152	-0.074	-0.102
-659.945	-16.098	0.208	0.135
-658.930	228.508	0.070	0.116
-657.916	-21.370	-0.333	-0.207
-656.901	191.638	0.112	0.172
-655.886	-200.000	0.005	-0.130
-654.872	-18.940	-0.331	0.210
-653.857	-69.194	-0.132	0.052
-652.843	-121.104	0.225	0.038
-651.828	-45.954	0.241	0.121
-650.814	-200.000	-0.001	-0.084
-649.799	506.212	-0.130	-0.306
-648.784	-200.000	-0.019	0.194
-647.770	635.276	-0.034	-0.089
-646.755	32.975	-0.237	-0.209
-645.741	28.710	0.210	0.181
-644.726	-63.340	0.419	0.176
-643.711	134.154	-0.219	-0.289
-642.697	24.070	0.098	0.082
-641.682	67.714	0.202	-0.210
-640.668	800.000	0.072	-0.293
-639.653	-27.949	-0.170	0.100
-638.638	-200.000	-0.008	-0.084
-637.624	-200.000	-0.004	-0.061
-636.609	-36.280	0.073	0.040
-635.595	12.678	-0.121	-0.095
-634.580	12.499	0.176	0.138
-633.565	-200.000	-0.029	-0.133
-632.551	-22.875	-0.247	-0.152
-631.536	34.333	-0.268	0.238
-630.522	98.374	-0.281	-0.330
-629.507	-41.003	0.237	-0.125
-628.492	-0.464	-0.246	0.178
-627.478	8.808	-0.333	0.256
-626.463	-58.149	-0.216	-0.096
-625.449	169.060	-0.007	0.011
-624.434	107.894	-0.129	-0.157
-623.419	800.000	0.037	0.137
-622.405	-115.047	-0.229	-0.044
-621.390	-112.525	-0.250	0.051
-620.376	800.000	0.077	0.218
-619.361	-102.133	0.108	-0.026
-618.346	-200.000	0.003	-0.067
-617.332	-130.353	-0.356	-0.049
-616.317	-133.510	-0.074	0.009
-615.303	-111.124	0.112	-0.023
-614.288	-23.372	-0.527	0.322
-613.273	-47.232	-0.132	-0.065
-612.259	241.321	-0.206	-0.351
-611.244	-200.000	-0.046	-0.213
-610.230	132.927	-0.191	-0.251
-609.215	-200.000	0.099	-0.536
-608.201	-200.000	0.092	-0.431
-607.186	800.000	-0.079	-0.308
-606.171	800.000	-0.045	-0.147
-605.157	-200.000	-0.004	0.118
-604.142	800.000	-0.052	-0.159
-603.128	40.703	0.269	0.247
-602.113	253.298	0.043	-0.075
-601.098	374.683	0.030	-0.063
-600.084	146.724	0.101	0.138
-599.069	304.949	-0.076	-0.143
-598.055	289.730	0.115	0.211
-597.040	-177.293	0.270	-0.007
-596.025	101.061	-0.187	-0.221
-595.011	-96.819	-0.233	-0.062
-593.996	-64.237	-0.190	-0.079
-592.982	-200.000	0.053	-0.394
-591.967	-81.076	0.159	-0.054
-590.952	163.572	-0.092	0.131
-589.938	91.762	-0.223	-0.254
-588.923	-50.517	0.247	-0.118
-587.909	800.000	0.016	0.068
-586.894	47.134	-0.261	0.247
-585.879	-63.395	0.209	-0.087
-584.865	619.954	-0.092	-0.235
-583.850	-200.000	0.003	-0.098
-582.836	-74.306	-0.475	-0.174
-581.821	117.992	-0.253	-0.317
-580.806	277.779	0.169	-0.306
-579.792	-80.540	0.137	-0.046
-578.777	-99.837	-0.077	0.019
-577.763	-86.327	-0.125	-0.039
-576.748	-4.373	0.130	-0.091
-575.733	-200.000	0.008	-0.063
-574.719	-53.988	-0.313	-0.145
-573.704	760.831	0.048	0.133
-572.690	82.178	-0.073	0.080
-571.675	-127.661	0.156	-0.023
-570.661	-48.897	-0.524	-0.255
-569.646	215.952	-0.163	-0.263
-568.631	800.000	-0.088	-0.316
-567.617	-8.833	0.185	-0.126
-566.602	-120.969	0.186	0.032
-565.588	732.839	-0.009	0.023
-564.573	-34.625	0.254	0.141
-563.558	-37.581	-0.275	0.149
-562.544	-125.882	-0.177	-0.027
-561.529	203.774	-0.049	0.077
-560.515	-126.220	0.282	0.043
-559.500	-59.109	0.225	0.098
-558.485	191.675	-0.214	0.328
-557.471	-175.947	-0.211	0.006
-556.456	-116.828	-0.163	0.030
-555.442	-200.000	0.069	-0.324
-554.427	-90.911	0.342	-0.100
-553.412	45.004	-0.168	0.157
-552.398	65.582	-0.294	0.302
-551.383	69.946	-0.130	0.136
-550.369	-46.576	-0.035	-0.017
-549.354	-160.720	-0.112	-0.006
-548.339	-100.801	-0.377	-0.094
-547.325	1.589	0.217	0.159
-546.310	371.098	0.104	0.215
-545.296	800.000	0.046	0.186
-544.281	-154.447	-0.232	0.016
-543.266	-45.701	0.068	-0.034
-542.252	-200.000	-0.031	0.158
-541.237	-100.334	0.307	-0.077
-540.223	-3.914	-0.059	-0.042
-539.208	-100.610	0.160	0.040
-538.193	78.460	-0.073	-0.079
-537.179	-200.000	-0.049	0.392
-536.164	49.398	-0.166	-0.159
-535.150	-47.485	0.218	-0.108
-534.135	-17.311	0.283	0.181
-533.121	800.000	0.039	0.114
-532.106	215.635	0.208	-0.334
-531.091	-18.647	-0.348	0.220
-530.077	-49.667	0.086	-0.041
-529.062	-189.583	0.271	0.003
-528.048	571.608	0.033	-0.082
-527.033	25.783	-0.044	0.037
-526.018	-200.000	0.053	0.255
-525.004	-76.769	0.302	-0.107
-523.989	800.000	-0.059	-0.196
-522.975	224.165	0.105	0.172
-521.960	-6.740	0.255	-0.176
-520.945	-33.691	0.041	0.023
-519.931	-26.979	-0.021	0.012
-518.916	-89.529	-0.503	0.150
-517.902	-161.572	-0.194	-0.010
-516.887	296.541	0.017	0.032
-515.872	-49.487	-0.288	-0.139
-514.858	259.290	0.053	0.092
-513.843	129.719	-0.234	0.303
-512.829	61.819	-0.317	0.319
-511.814	-152.141	-0.288	-0.021
-510.799	-70.232	0.316	-0.122
-509.785	89.775	0.048	-0.055
-508.770	-2.384	-0.072	-0.051
-507.756	330.764	-0.231	-0.450
-506.741	66.485	0.059	-0.061
-505.726	-55.176	0.101	0.046
-504.712	146.446	0.184	0.250
-503.697	184.605	-0.044	0.066
-502.683	96.209	-0.230	0.266
-501.668	62.932	-0.203	-0.205
-500.653	-101.044	-0.291	-0.072
-499.639	-200.000	-0.004	-0.165
-498.624	100.843	0.117	0.138
-497.610	61.102	-0.137	0.137
-496.595	-151.402	-0.327	-0.025
-495.581	800.000	0.047	-0.155
-494.566	126.358	0.236	0.302
-493.551	-165.678	-0.169	-0.007
-492.537	-120.319	0.386	0.067
-491.522	69.000	-0.056	-0.058
-490.508	-42.319	0.068	-0.035
-489.493	-61.838	0.072	-0.031
-488.478	-56.936	0.207	-0.092
-487.464	-187.704	0.148	0.002
-486.449	532.943	0.098	0.234
-485.435	6.958	-0.113	0.085
-484.420	125.234	0.136	-0.174
-483.405	800.000	0.106	-0.323
-482.391	277.892	-0.115	-0.207
-481.376	135.700	0.230	-0.302
-480.362	-116.045	-0.213	0.040
-479.347	-4.959	0.208	-0.145
-478.332	-11.624	-0.041	0.027
-477.318	-200.000	0.060	-0.467
-476.303	800.000	0.149	-0.491
-475.289	-121.106	0.206	0.035
-474.274	61.502	0.224	-0.225
-473.259	181.646	0.136	-0.202
-472.245	800.000	0.049	0.217
-471.230	-1.360	0.142	0.101
-470.216	-32.220	-0.203	-0.115
-469.201	129.481	-0.015	-0.020
-468.186	-23.446	-0.071	0.043
-467.172	156.370	0.055	0.077
-466.157	100.681	-0.058	-0.068
-465.143	-200.000	0.010	0.183
-464.128	-104.178	0.294	-0.069
-463.113	74.005	0.189	0.201
-462.099	15.377	-0.183	-0.145
-461.084	23.632	0.079	0.066
-460.070	53.534	-0.221	0.215
-459.055	-154.337	-0.231	-0.016
-458.040	73.573	-0.172	0.182
-457.026	564.506	0.078	0.192
-456.011	-200.000	-0.095	0.517
-454.997	-91.056	-0.044	0.013
-453.982	790.850	-0.077	-0.215
-452.968	-200.000	-0.031	-0.141
-451.953	-200.000	-0.021	0.112
-450.938	-200.000	0.016	-0.137
-449.924	125.652	-0.144	-0.184
-448.909	-200.000	0.295	0.000
-447.895	-200.000	0.023	0.124
-446.880	-21.075	0.159	0.098
-445.865	94.147	-0.137	0.157
-444.851	24.866	0.501	0.420
-443.836	800.000	-0.064	-0.196
-442.822	548.717	0.033	-0.079
-441.807	800.000	0.103	-0.446
-440.792	690.028	0.026	-0.069
-439.778	-99.520	-0.233	0.059
-438.763	296.090	-0.177	-0.328
-437.749	361.701	-0.191	-0.386
-436.734	-174.468	-0.263	0.008
-435.719	-133.551	0.212	0.027
-434.705	-36.035	0.228	-0.125
-433.690	-200.000	-0.032	-0.283
-432.676	-58.145	-0.089	-0.039
-431.661	-44.167	0.191	0.097
-430.646	138.438	-0.054	0.071
-429.632	-200.000	0.007	-0.188
-428.617	6.621	-0.046	-0.034
-427.603	-103.874	0.286	-0.067
-426.588	48.879	0.015	-0.015
-425.573	-200.000	0.012	0.325
-424.559	-13.184	0.208	0.136
-423.544	-143.513	-0.079	0.008
-422.530	734.447	0.097	0.262
-421.515	230.137	-0.034	0.056
-420.500	-100.883	0.251	0.062
-419.486	185.173	0.065	0.097
-418.471	-185.013	0.405	0.006
-417.457	-200.000	0.045	0.296
-416.442	-200.000	-0.023	-0.132
-415.428	67.804	0.216	-0.223
-414.413	535.043	-0.124	0.297
-413.398	406.933	0.115	0.245
-412.384	-169.233	0.421	-0.016
-411.369	387.614	0.181	-0.378
-410.355	-8.610	0.269	0.182
-409.340	-86.672	-0.185	0.057
-408.325	-130.226	0.200	-0.027
-407.311	-171.726	0.217	0.007
-406.296	91.786	-0.146	0.166
-405.282	287.749	0.108	0.197
-404.267	-138.478	0.267	0.030
-403.252	800.000	0.064	0.194
-402.238	10.099	0.101	-0.078
-401.223	800.000	0.079	0.228
-400.209	143.094	0.141	0.189
-399.194	340.142	-0.146	0.287
-398.179	124.121	-0.131	0.166
-397.165	-91.010	0.274	0.079
-396.150	499.571	-0.075	-0.174
-395.136	-200.000	0.004	-0.170
-394.121	-126.722	-0.399	-0.059
-393.106	800.000	-0.039	-0.156
-392.092	667.210	-0.108	-0.282
-391.077	244.506	0.268	-0.453
-390.063	669.128	-0.015	0.039
-389.048	38.670	0.299	0.268
-388.033	258.817	0.065	-0.114
-387.019	198.060	0.194	-0.298
-386.004	7.426	-0.355	-0.267
-384.990	139.887	-0.161	0.214
-383.975	-66.329	-0.159	-0.064
-382.960	-200.000	-0.001	-0.109
-381.946	-122.076	0.237	-0.039
-380.931	395.523	-0.049	0.103
-379.917	46.494	0.222	0.208
-378.902	86.580	-0.128	0.142
-377.888	800.000	0.048	0.196
-376.873	40.117	-0.179	-0.163
-375.858	-94.224	-0.225	0.062
-374.844	800.000	0.134	0.409
-373.829	84.733	-0.099	-0.110
-372.815	800.000	-0.049	0.174
-371.800	83.952	0.094	0.103
-370.785	-200.000	-0.040	-0.214
-369.771	83.384	0.239	0.262
-368.756	-170.022	0.010	0.000
-367.742	-116.501	0.352	0.065
-366.727	-200.000	-0.048	-0.244
-365.712	7.070	-0.073	0.055
-364.698	-123.478	-0.158	-0.025
-363.683	154.189	-0.034	0.047
-362.669	800.000	-0.063	-0.222
-361.654	-13.854	0.102	0.066
-360.639	-49.722	0.254	0.122
-359.625	46.040	-0.191	0.178
-358.610	-44.004	-0.233	-0.118
-357.596	-81.040	-0.165	-0.055
-356.581	93.976	-0.231	0.264
-355.566	-1.889	-0.269	0.191
-354.552	39.457	0.055	-0.050
-353.537	-142.557	-0.058	-0.006
-352.523	-115.554	0.201	0.038
-351.508	-200.000	-0.001	0.035
-350.493	103.297	-0.177	-0.209
-349.479	260.481	0.002	0.003
-348.464	-200.000	-0.025	-0.342
-347.450	800.000	-0.069	0.255
-346.435	-17.102	0.196	-0.124
-345.420	-123.054	0.429	0.069
-344.406	-20.462	0.219	-0.136
-343.391	-78.221	-0.251	-0.087
-342.377	319.475	-0.181	-0.345
-341.362	-143.207	0.109	-0.011
-340.348	-200.000	0.066	0.316
-339.333	-29.385	0.448	0.258
-338.318	1.738	0.158	0.114
-337.304	-200.000	0.038	-0.214
-336.289	737.586	0.124	0.334
-335.275	-147.077	-0.157	-0.013
-334.260	-200.000	-0.241	0.001
-333.245	-27.532	-0.031	0.018
-332.231	217.888	0.077	-0.124
-331.216	-45.875	0.055	-0.027
-330.202	528.855	0.077	0.184
-329.187	195.275	-0.235	0.358
-328.172	413.995	0.168	0.360
-327.158	-77.036	-0.089	-0.031
-326.143	800.000	-0.066	0.187
-325.129	-132.197	0.226	-0.030
-324.114	305.002	0.080	-0.149
-323.099	69.549	-0.190	-0.196
-322.085	-200.000	-0.008	-0.143
-321.070	92.166	-0.044	-0.050
-320.056	416.668	0.073	0.157
-319.041	-59.377	0.080	-0.034
-318.026	-179.465	-0.433	0.010
-317.012	-135.475	0.428	-0.051
-315.997	305.006	-0.158	-0.295
-314.983	-33.522	-0.068	0.038
-313.968	269.318	0.192	-0.339
-312.953	-47.217	-0.273	-0.134
-311.939	-200.000	0.001	-0.049
-310.924	-200.000	-0.001	0.052
-309.910	-161.342	0.424	-0.022
-308.895	-200.000	0.032	-0.163
-307.880	800.000	0.026	0.095
-306.866	-98.268	-0.205	-0.053
-305.851	111.453	0.147	-0.178
-304.837	-98.742	-0.129	0.033
-303.822	-124.809	-0.185	-0.029
-302.807	-118.190	0.075	0.013
-301.793	-72.845	0.200	-0.074
-300.778	-144.974	-0.052	0.005
-299.764	537.363	0.089	-0.212
-298.749	-59.856	0.284	0.122
-297.735	-188.645	0.151	-0.002
-296.720	800.000	-0.030	0.104
-295.705	-76.574	-0.117	0.041
-294.691	-25.192	0.302	0.180
-293.676	800.000	-0.044	0.191
-292.662	-22.129	0.334	0.203
-291.647	-167.771	-0.132	0.005
-290.632	0.450	0.164	0.117
-289.618	7.919	0.162	0.122
-288.603	72.056	-0.237	0.248
-287.589	-87.623	0.277	-0.084
-286.574	-127.018	0.291	0.043
-285.559	84.462	0.098	-0.107
-284.545	183.472	0.296	-0.439
-283.530	129.596	0.185	0.237
-282.516	-95.357	-0.158	-0.043
-281.501	-200.000	-0.065	0.288
-280.486	800.000	-0.046	-0.149
-279.472	18.030	-0.220	0.176
-278.457	-55.959	-0.200	0.090
-277.443	-106.624	-0.183	0.041
-276.428	120.053	0.109	0.135
-275.413	-200.000	0.027	0.120
-274.399	282.685	-0.017	0.030
-273.384	1.426	0.211	0.152
-272.370	-113.190	0.295	0.058
-271.355	-33.569	-0.046	0.026
-270.340	-108.464	0.238	0.051
-269.326	-111.727	0.122	-0.025
-268.311	3.663	-0.121	-0.089
-267.297	236.720	0.132	-0.219
-266.282	-200.000	0.018	0.168
-265.267	800.000	-0.059	0.250
-264.253	-131.534	-0.239	-0.032
-263.238	41.483	0.040	0.036
-262.224	-200.000	0.045	-0.233
-261.209	-59.184	-0.159	0.069
-260.195	67.269	0.357	-0.365
-259.180	-152.479	-0.146	-0.010
-258.165	263.362	-0.111	0.194
-257.151	-38.530	-0.152	-0.081
-256.136	-199.157	0.200	0.001
-255.122	224.651	0.120	-0.194
-254.107	556.694	0.074	0.179
-253.092	123.125	-0.144	0.180
-252.078	63.495	0.181	0.182
-251.063	-48.532	-0.176	0.085
-250.049	-11.249	-0.195	0.129
-249.034	-200.000	0.060	-0.281
-248.019	-200.000	-0.035	0.251
-247.005	800.000	-0.123	0.406
-245.990	-74.779	0.117	-0.042
-244.976	-50.444	-0.135	0.064
-243.961	169.456	0.175	0.251
-242.946	-69.969	-0.194	-0.074
-241.932	-32.561	0.185	0.104
-240.917	-51.141	0.257	0.121
-239.903	126.954	0.103	0.131
-238.888	3.717	0.094	0.069
-237.873	502.109	-0.155	-0.359
-236.859	-133.310	0.086	0.011
-235.844	-200.000	-0.048	0.288
-234.830	-0.672	-0.238	-0.169
-233.815	-200.000	0.031	-0.270
-232.800	241.749	0.210	-0.351
-231.786	-96.421	0.145	-0.038
-230.771	33.776	-0.253	0.221
-229.757	160.851	-0.177	-0.248
-228.742	-73.885	0.133	-0.048
-227.727	-58.810	0.030	-0.013
-226.713	-122.364	0.039	-0.006
-225.698	116.491	-0.095	-0.117
-224.684	-110.217	-0.167	0.035
-223.669	-200.000	-0.048	-0.224
-222.655	-1.612	0.091	-0.065
-221.640	105.831	0.381	0.451
-220.625	-186.864	-0.220	-0.003
-219.611	-80.829	0.095	-0.032
-218.596	-51.446	-0.192	0.090
-217.582	-74.909	-0.328	-0.118
-216.567	30.799	-0.257	-0.220
-215.552	80.929	-0.144	0.155
-214.538	90.800	-0.095	-0.106
-213.523	-58.419	-0.336	0.146
-212.509	-15.355	0.322	-0.206
-211.494	-200.000	-0.029	-0.403
-210.479	-14.475	-0.268	-0.172
-209.465	-40.728	-0.252	0.131
-208.450	-134.129	-0.326	-0.040
-207.436	-42.267	-0.051	0.026
-206.421	234.766	0.058	0.096
-205.406	-48.765	-0.174	-0.083
-204.392	-8.643	-0.072	0.048
-203.377	-200.000	0.008	-0.417
-202.363	16.350	0.149	0.118
-201.348	357.078	-0.159	-0.318
-200.333	-153.467	0.310	-0.021
-199.319	-39.406	-0.165	0.087
-198.304	-196.287	0.272	-0.002
-197.290	274.541	0.120	-0.213
-196.275	215.452	-0.190	-0.302
-195.260	780.782	0.090	0.246
-194.246	-152.752	-0.024	0.002
-193.231	-78.295	0.256	0.088
-192.217	-200.000	-0.055	0.469
-191.202	-138.567	0.156	0.017
-190.187	19.412	0.192	0.154
-189.173	-200.000	-0.011	0.281
-188.158	800.000	-0.188	0.548
-187.144	-200.000	-0.062	0.313
-186.129	-62.247	0.307	0.128
-185.114	-124.090	0.190	0.030
-184.100	609.504	-0.165	-0.412
-183.085	-134.612	0.245	-0.030
-182.071	448.430	-0.049	0.108
-181.056	-23.801	-0.114	0.068
-180.042	341.169	-0.064	-0.124
-179.027	214.597	0.023	-0.036
-178.012	-200.000	-0.046	0.239
-176.998	43.780	-0.107	0.098
-175.983	9.223	0.161	-0.122
-174.969	-29.128	-0.317	0.181
-173.954	-158.701	-0.141	-0.008
-172.939	231.348	-0.127	0.208
-171.925	-200.000	0.018	0.425
-170.910	250.592	-0.059	0.100
-169.896	800.000	0.069	0.235
-168.881	3.176	-0.201	0.146
-167.866	244.260	0.151	-0.253
-166.852	800.000	-0.094	0.359
-165.837	80.398	0.313	0.337
-164.823	449.195	0.084	0.184
-163.808	-114.612	0.243	-0.047
-162.793	-70.507	-0.127	-0.048
-161.779	-163.938	0.228	-0.011
-160.764	-56.808	-0.159	0.070
-159.750	75.225	-0.163	0.172
-158.735	281.774	-0.141	0.252
-157.720	641.635	0.088	-0.225
-156.706	-11.149	-0.230	-0.151
-155.691	25.607	-0.148	-0.123
-154.677	138.976	0.295	0.387
-153.662	300.704	0.107	-0.197
-152.647	389.959	0.035	-0.072
-151.633	28.390	-0.301	-0.254
-150.618	-90.838	-0.439	0.126
-149.604	84.714	0.112	-0.123
-148.589	-36.435	-0.260	0.140
-147.574	-147.356	-0.532	0.045
-146.560	-84.396	0.068	0.022
-145.545	137.227	-0.106	-0.138
-144.531	142.552	-0.140	-0.186
-143.516	42.122	-0.334	0.302
-142.502	304.399	-0.096	-0.178
-141.487	-159.171	0.719	0.040
-140.472	-82.635	-0.242	0.078
-139.458	6.652	-0.150	0.111
-138.443	-124.876	0.260	0.040
-137.429	-46.351	-0.267	-0.131
-136.414	407.957	0.074	0.156
-135.399	776.761	-0.116	0.316
-134.385	-62.252	-0.236	-0.098
-133.370	-87.845	0.141	0.042
-132.356	-51.774	0.153	0.071
-131.341	62.335	-0.352	0.350
-130.326	8.679	-0.041	-0.031
-129.312	-125.757	0.084	0.013
-128.297	-101.737	0.199	0.048
-127.283	559.237	0.129	0.311
-126.268	138.928	0.164	-0.215
-125.253	-89.205	0.301	-0.089
-124.239	387.569	-0.024	-0.050
-123.224	-23.663	0.194	0.116
-122.210	-128.189	-0.361	0.051
-121.195	-145.650	-0.177	0.016
