DTS Sentinel unit serial number:	SN413079Multiplexer serial number:	ORYXHardware model number:	OX4-SRSoftware version number:	ORYX F/W v4.00 Oryx Data Collector v3.7.2.0data status	okinstallation	princeton_trtdifferential loss correction	single-endedforward channel	channel 4reverse channel	N/Adate	2019/09/12time	11:59:11forward acquisition time	60.00reverse acquisition time	0.00gamma	496.2192k internal	0.2289k external	0.2289temperature offset calibration	1.0072default loss term (dB/km)	0.3790temperature slope calibration	1.0000multiplexer offset coefficient	1.0000multiplexer slope coefficient	1.0000fibre end	0.00T internal ref (°C)	40.28T ext. ref 1 (°C)	2.01T ext. ref 2 (°C)	38.30length (m)	temperature (°C)	Stokes	anti-Stokes-747.200	367.867	0.129	0.267
-746.185	-85.804	-0.145	0.046
-745.171	6.367	0.081	-0.062
-744.156	595.162	0.098	0.248
-743.142	191.950	-0.070	-0.108
-742.127	-200.000	-0.024	-0.188
-741.112	-123.365	0.145	0.024
-740.098	476.561	0.122	0.282
-739.083	-129.053	0.178	0.026
-738.069	476.020	0.063	0.145
-737.054	717.310	-0.054	0.146
-736.039	44.639	-0.151	-0.142
-735.025	-40.909	-0.125	0.066
-734.010	-139.346	-0.319	-0.035
-732.996	-140.721	-0.090	-0.010
-731.981	-11.470	-0.037	0.025
-730.966	-7.391	0.017	0.012
-729.952	307.322	-0.030	-0.058
-728.937	800.000	-0.086	0.279
-727.923	45.449	-0.160	-0.151
-726.908	-30.999	0.153	0.089
-725.894	34.753	-0.174	0.156
-724.879	-140.412	-0.411	0.044
-723.864	-10.771	0.235	0.159
-722.850	800.000	-0.033	0.113
-721.835	87.420	0.156	0.177
-720.821	-200.000	0.020	-0.174
-719.806	-122.483	-0.038	-0.006
-718.791	34.213	-0.148	-0.132
-717.777	91.758	0.159	-0.183
-716.762	104.349	0.205	0.247
-715.748	-153.670	-0.036	0.003
-714.733	70.967	0.066	-0.070
-713.718	-196.254	-0.194	0.001
-712.704	-200.000	-0.006	0.050
-711.689	340.918	0.112	-0.225
-710.675	-140.420	0.233	-0.025
-709.660	48.709	-0.031	0.030
-708.645	-91.274	0.105	-0.031
-707.631	-200.000	-0.083	0.435
-706.616	144.333	0.037	0.051
-705.602	800.000	0.103	-0.394
-704.587	-21.941	0.184	0.114
-703.572	178.569	-0.295	-0.441
-702.558	216.822	0.086	-0.140
-701.543	-124.905	0.091	0.014
-700.529	33.859	0.180	0.160
-699.514	-200.000	-0.029	-0.199
-698.499	-93.711	0.357	0.101
-697.485	179.693	0.061	-0.091
-696.470	519.656	-0.118	0.283
-695.456	439.558	-0.177	0.395
-694.441	145.965	-0.194	-0.266
-693.426	4.503	0.123	-0.092
-692.412	226.541	0.072	-0.120
-691.397	101.648	-0.186	0.221
-690.383	21.478	0.063	0.053
-689.368	-200.000	-0.006	-0.186
-688.354	-125.500	-0.149	-0.023
-687.339	-200.000	0.011	-0.175
-686.324	-81.725	0.341	0.114
-685.310	800.000	0.014	-0.054
-684.295	-78.398	-0.184	-0.065
-683.281	800.000	0.095	-0.300
-682.266	516.631	-0.041	-0.098
-681.251	-64.335	0.220	-0.092
-680.237	-200.000	-0.021	0.171
-679.222	-105.572	-0.061	-0.014
-678.208	800.000	0.099	-0.417
-677.193	3.173	-0.340	0.253
-676.178	-125.843	0.358	-0.055
-675.164	-86.497	0.141	-0.044
-674.149	800.000	-0.021	0.069
-673.135	-161.760	-0.179	-0.009
-672.120	-152.868	0.210	0.015
-671.105	-9.676	0.222	0.151
-670.091	68.663	-0.144	-0.151
-669.076	756.555	-0.064	0.178
-668.062	-200.000	0.037	0.296
-667.047	-28.991	-0.107	-0.063
-666.032	800.000	-0.092	-0.324
-665.018	-200.000	0.033	-0.476
-664.003	-7.227	-0.198	0.137
-662.989	56.376	-0.335	-0.332
-661.974	-29.930	-0.175	-0.102
-660.959	-83.075	-0.201	0.066
-659.945	800.000	-0.082	0.232
-658.930	62.947	-0.215	0.220
-657.916	-200.000	-0.079	-0.366
-656.901	-97.452	0.256	0.068
-655.886	189.071	-0.167	0.255
-654.872	87.394	-0.048	-0.054
-653.857	13.184	-0.257	0.203
-652.843	-200.000	-0.074	0.372
-651.828	-65.674	0.120	0.049
-650.814	-200.000	0.020	-0.344
-649.799	-136.514	0.157	0.019
-648.784	-131.387	0.238	0.032
-647.770	333.779	0.133	0.263
-646.755	7.746	0.217	-0.166
-645.741	-159.744	0.320	0.018
-644.726	100.676	0.057	0.067
-643.711	17.599	-0.162	-0.131
-642.697	-18.361	0.135	-0.086
-641.682	187.157	0.162	0.246
-640.668	-200.000	-0.013	-0.077
-639.653	-200.000	-0.000	-0.082
-638.638	-100.464	0.149	0.038
-637.624	-141.837	0.280	-0.029
-636.609	-56.748	0.156	0.070
-635.595	-200.000	0.029	0.301
-634.580	-7.330	-0.241	0.167
-633.565	-178.263	0.233	-0.006
-632.551	800.000	-0.061	0.226
-631.536	409.207	0.174	-0.375
-630.522	-12.695	-0.154	0.102
-629.507	-75.229	0.236	-0.086
-628.492	-142.154	-0.232	0.023
-627.478	-88.676	0.236	-0.072
-626.463	800.000	0.028	-0.107
-625.449	-200.000	0.057	0.300
-624.434	-29.000	-0.172	0.101
-623.419	-61.308	0.186	0.080
-622.405	99.236	0.164	-0.193
-621.390	15.138	-0.173	-0.138
-620.376	-200.000	-0.009	0.141
-619.361	-4.489	0.228	0.161
-618.346	800.000	0.124	-0.488
-617.332	-127.954	-0.201	0.029
-616.317	-200.000	-0.029	0.337
-615.303	-138.603	-0.040	0.005
-614.288	800.000	-0.067	0.274
-613.273	800.000	-0.030	0.093
-612.259	9.668	0.052	0.040
-611.244	-100.055	0.058	0.015
-610.230	-166.860	0.208	-0.009
-609.215	-144.171	0.094	0.009
-608.201	442.027	0.178	-0.397
-607.186	-200.000	-0.023	-0.111
-606.171	-128.377	0.242	0.035
-605.157	-157.253	-0.444	-0.027
-604.142	152.312	0.208	0.290
-603.128	-177.509	-0.187	0.005
-602.113	-48.351	-0.278	-0.137
-601.098	-137.146	0.338	0.039
-600.084	110.073	0.200	-0.244
-599.069	-56.321	0.089	-0.040
-598.055	-104.675	-0.177	0.042
-597.040	-95.450	0.173	-0.047
-596.025	11.188	-0.166	-0.129
-595.011	800.000	-0.031	-0.104
-593.996	-134.647	-0.199	-0.025
-592.982	-177.515	-0.128	-0.003
-591.967	-73.646	-0.096	0.035
-590.952	-136.066	0.137	-0.016
-589.938	138.822	-0.134	-0.179
-588.923	-26.189	-0.120	0.072
-587.909	20.425	-0.096	0.079
-586.894	-10.880	-0.100	-0.067
-585.879	800.000	0.024	-0.091
-584.865	-200.000	0.027	-0.158
-583.850	231.003	-0.090	-0.151
-582.836	151.468	-0.171	-0.238
-581.821	-169.773	-0.155	0.006
-580.806	-110.606	0.145	-0.030
-579.792	170.645	0.169	0.246
-578.777	800.000	0.092	0.262
-577.763	-145.537	-0.139	-0.013
-576.748	800.000	0.068	0.246
-575.733	-200.000	0.056	-0.270
-574.719	264.997	0.084	-0.148
-573.704	-102.872	-0.119	-0.029
-572.690	-49.004	-0.032	-0.016
-571.675	251.484	-0.168	0.291
-570.661	14.634	0.075	-0.060
-569.646	800.000	0.039	-0.132
-568.631	-84.689	-0.319	-0.102
-567.617	-200.000	0.014	-0.118
-566.602	-69.376	-0.077	-0.030
-565.588	385.261	-0.220	-0.462
-564.573	155.383	0.067	-0.094
-563.558	800.000	-0.062	0.251
-562.544	-1.019	0.226	0.163
-561.529	510.197	-0.127	-0.299
-560.515	-79.587	-0.161	0.055
-559.500	-200.000	0.003	-0.364
-558.485	175.216	0.072	0.107
-557.471	26.292	-0.147	0.125
-556.456	-200.000	-0.006	-0.124
-555.442	800.000	0.084	-0.257
-554.427	68.359	-0.276	0.288
-553.412	-200.000	-0.083	0.377
-552.398	-14.790	-0.208	-0.136
-551.383	-7.291	-0.074	-0.051
-550.369	178.518	-0.090	0.134
-549.354	20.876	0.114	-0.094
-548.339	-27.512	-0.206	-0.122
-547.325	61.414	0.073	-0.074
-546.310	-86.137	-0.313	-0.098
-545.296	14.472	0.190	-0.150
-544.281	-30.412	-0.166	-0.095
-543.266	-117.822	0.126	0.023
-542.252	181.838	0.179	0.268
-541.237	-63.270	-0.175	0.073
-540.223	-6.713	0.202	-0.140
-539.208	800.000	-0.051	0.218
-538.193	90.277	0.137	0.156
-537.179	741.099	0.047	-0.128
-536.164	-183.698	0.201	-0.003
-535.150	800.000	-0.039	0.132
-534.135	561.073	-0.122	0.299
-533.121	232.544	-0.126	-0.210
-532.106	-200.000	-0.012	0.205
-531.091	-29.910	-0.131	0.076
-530.077	-35.515	-0.134	0.074
-529.062	698.453	-0.058	0.154
-528.048	67.957	0.075	-0.078
-527.033	-105.281	-0.309	-0.071
-526.018	75.945	0.273	-0.293
-525.004	38.455	-0.321	-0.290
-523.989	-200.000	0.022	-0.211
-522.975	-91.457	0.259	-0.075
-521.960	164.930	-0.118	0.169
-520.945	800.000	-0.095	0.369
-519.931	-200.000	-0.010	0.168
-518.916	-125.222	-0.027	0.004
-517.902	800.000	0.029	0.090
-516.887	390.962	-0.009	-0.018
-515.872	-78.282	-0.080	0.028
-514.858	800.000	0.035	-0.144
-513.843	73.272	-0.238	0.252
-512.829	-200.000	-0.044	0.487
-511.814	463.611	0.076	-0.174
-510.799	-121.714	-0.205	-0.034
-509.785	-200.000	-0.034	0.185
-508.770	110.029	0.241	-0.293
-507.756	-46.650	-0.168	0.084
-506.741	-200.000	0.057	0.257
-505.726	-109.417	0.189	-0.041
-504.712	-200.000	0.001	-0.105
-503.697	-86.888	0.204	-0.063
-502.683	224.599	-0.063	-0.104
-501.668	-130.926	-0.108	-0.015
-500.653	-109.665	-0.300	-0.064
-499.639	197.241	-0.072	0.111
-498.624	-108.726	0.207	0.045
-497.610	162.501	0.077	-0.110
-496.595	-61.962	-0.105	0.045
-495.581	461.055	0.219	-0.495
-494.566	356.316	0.101	0.204
-493.551	-200.000	0.001	-0.070
-492.537	104.627	0.090	0.107
-491.522	-106.326	-0.370	0.084
-490.508	-79.684	-0.262	0.090
-489.493	-1.877	0.210	-0.150
-488.478	-101.187	-0.256	-0.063
-487.464	-87.898	0.049	0.015
-486.449	517.517	-0.088	0.208
-485.435	-81.263	0.166	0.056
-484.420	102.729	0.091	-0.108
-483.405	593.956	-0.115	-0.287
-482.391	207.233	0.105	0.165
-481.376	-48.365	-0.591	-0.289
-480.362	294.684	0.041	-0.075
-479.347	42.344	0.167	-0.154
-478.332	-200.000	-0.005	0.172
-477.318	184.274	-0.097	-0.146
-476.303	-200.000	0.023	0.166
-475.289	-141.268	0.234	0.024
-474.274	-5.318	-0.134	0.093
-473.259	452.420	0.071	0.160
-472.245	-200.000	0.009	0.168
-471.230	-200.000	0.076	-0.361
-470.216	574.722	0.142	0.350
-469.201	-128.413	0.099	0.014
-468.186	-200.000	-0.015	-0.154
-467.172	393.937	0.117	-0.247
-466.157	-93.023	-0.255	0.072
-465.143	323.979	-0.093	0.179
-464.128	288.962	-0.109	0.201
-463.113	-200.000	-0.007	0.145
-462.099	-173.662	0.234	-0.007
-461.084	38.388	0.225	0.203
-460.070	78.776	-0.132	-0.143
-459.055	152.265	0.175	0.243
-458.040	576.059	0.082	-0.202
-457.026	-157.202	0.091	-0.006
-456.011	-123.879	0.300	-0.048
-454.997	-106.451	-0.310	-0.070
-453.982	800.000	-0.070	0.196
-452.968	-168.056	-0.344	-0.014
-451.953	127.560	-0.087	0.112
-450.938	-54.553	0.298	0.137
-449.924	-122.530	0.240	0.040
-448.909	800.000	-0.048	-0.181
-447.895	57.605	0.211	0.209
-446.880	-200.000	-0.028	0.181
-445.865	-67.946	0.060	0.024
-444.851	42.528	-0.095	0.087
-443.836	-141.336	0.120	0.012
-442.822	-47.215	0.211	-0.104
-441.807	800.000	-0.026	0.082
-440.792	-40.799	-0.193	-0.101
-439.778	-19.421	0.243	-0.152
-438.763	-24.315	-0.272	0.164
-437.749	287.498	0.030	-0.054
-436.734	50.140	0.185	0.177
-435.719	120.819	0.125	0.158
-434.705	552.110	-0.101	-0.244
-433.690	-98.834	-0.071	0.018
-432.676	126.766	0.183	-0.234
-431.661	-54.652	-0.248	-0.114
-430.646	-88.872	0.172	-0.052
-429.632	230.109	-0.084	-0.138
-428.617	800.000	0.053	0.223
-427.603	154.318	-0.166	0.231
-426.588	-200.000	-0.025	0.206
-425.573	800.000	0.057	0.165
-424.559	722.324	-0.018	-0.050
-423.544	-9.568	-0.098	0.066
-422.530	86.758	-0.123	0.137
-421.515	-114.189	-0.157	-0.031
-420.500	-95.953	-0.117	-0.032
-419.486	-48.689	0.110	-0.054
-418.471	677.503	0.163	0.430
-417.457	-200.000	-0.035	-0.266
-416.442	-111.781	-0.186	0.038
-415.428	-200.000	-0.021	0.235
-414.413	101.628	-0.095	0.112
-413.398	800.000	0.033	0.103
-412.384	27.020	-0.117	0.099
-411.369	73.122	-0.112	0.119
-410.355	-24.272	-0.185	-0.111
-409.340	566.505	0.119	-0.291
-408.325	-200.000	-0.017	-0.232
-407.311	10.044	0.273	-0.209
-406.296	-8.841	0.113	-0.076
-405.282	-89.905	-0.259	-0.077
-404.267	-180.131	-0.121	0.003
-403.252	58.920	0.131	0.131
-402.238	256.152	0.109	-0.190
-401.223	-200.000	0.010	-0.126
-400.209	-106.285	0.301	-0.068
-399.194	-108.522	0.212	0.046
-398.179	101.027	0.156	0.183
-397.165	136.705	0.161	0.213
-396.150	-23.464	0.227	-0.138
-395.136	88.051	0.103	-0.116
-394.121	-41.747	-0.061	-0.032
-393.106	-85.720	0.081	-0.025
-392.092	-46.914	-0.255	0.126
-391.077	-59.527	-0.147	0.064
-390.063	182.023	-0.076	-0.113
-389.048	800.000	0.065	-0.226
-388.033	-100.922	0.288	-0.071
-387.019	48.524	-0.103	-0.098
-386.004	-150.268	0.225	-0.018
-384.990	-106.902	-0.102	0.023
-383.975	-200.000	-0.023	0.104
-382.960	83.137	0.095	0.105
-381.946	-173.816	-0.294	0.009
-380.931	-134.563	-0.119	0.015
-379.917	114.268	-0.092	0.113
-378.902	116.223	0.164	0.203
-377.888	127.749	-0.042	0.054
-376.873	800.000	0.054	0.154
-375.858	233.568	-0.106	-0.176
-374.844	262.108	-0.161	-0.282
-373.829	-88.550	0.064	0.019
-372.815	-73.031	0.148	-0.055
-371.800	-175.602	0.301	-0.008
-370.785	-200.000	-0.005	0.388
-369.771	800.000	0.068	0.276
-368.756	-2.614	-0.053	0.038
-367.742	-154.497	-0.263	-0.018
-366.727	-159.731	0.376	0.021
-365.712	-73.035	-0.148	0.055
-364.698	624.042	-0.015	0.038
-363.683	-200.000	-0.060	0.453
-362.669	42.157	-0.228	-0.209
-361.654	108.287	-0.055	-0.066
-360.639	-132.021	0.330	0.043
-359.625	-200.000	-0.003	0.072
-358.610	398.062	0.057	0.119
-357.596	800.000	-0.071	-0.216
-356.581	95.235	-0.079	-0.091
-355.566	-140.462	-0.478	-0.050
-354.552	-36.920	-0.075	0.041
-353.537	-61.424	0.031	0.013
-352.523	-100.473	0.244	-0.061
-351.508	-161.464	0.278	-0.014
-350.493	-169.998	0.318	0.011
-349.479	34.789	-0.235	0.207
-348.464	-72.566	0.308	0.115
-347.450	110.104	-0.161	0.195
-346.435	-47.702	0.319	-0.156
-345.420	139.515	0.140	0.186
-344.406	800.000	-0.061	0.199
-343.391	-25.994	-0.310	0.184
-342.377	-136.586	0.242	-0.028
-341.362	10.904	0.363	0.280
-340.348	136.098	0.300	-0.394
-339.333	343.860	0.022	-0.044
-338.318	-200.000	-0.004	0.125
-337.304	-93.509	-0.087	-0.024
-336.289	-172.665	-0.352	0.011
-335.275	-157.701	-0.409	0.025
-334.260	74.350	0.062	0.066
-333.245	93.367	0.099	0.113
-332.231	-118.112	0.099	-0.018
-331.216	577.276	-0.155	-0.382
-330.202	-27.862	-0.198	-0.116
-329.187	164.102	0.148	0.211
-328.172	511.298	0.143	-0.335
-327.158	15.461	-0.062	-0.049
-326.143	211.243	0.054	-0.086
-325.129	7.923	0.252	-0.191
-324.114	-92.309	0.358	-0.102
-323.099	-145.699	0.301	0.027
-322.085	315.363	-0.103	0.196
-321.070	-200.000	-0.045	-0.201
-320.056	246.771	-0.251	-0.427
-319.041	-94.987	0.175	0.048
-318.026	736.725	0.063	-0.171
-317.012	57.642	-0.021	0.021
-315.997	26.583	-0.311	-0.262
-314.983	-91.528	-0.221	0.063
-313.968	11.199	-0.118	-0.091
-312.953	74.286	0.228	0.242
-311.939	-200.000	-0.047	0.252
-310.924	-128.781	-0.102	0.014
-309.910	-55.058	-0.060	0.027
-308.895	-200.000	0.016	-0.167
-307.880	800.000	-0.068	0.200
-306.866	800.000	-0.020	0.057
-305.851	-143.051	-0.416	0.041
-304.837	-21.484	0.156	0.096
-303.822	71.443	-0.119	0.124
-302.807	648.996	0.094	-0.241
-301.793	547.386	0.012	-0.028
-300.778	23.200	0.083	-0.069
-299.764	-12.819	-0.196	-0.128
-298.749	-74.781	0.274	0.099
-297.735	-93.895	0.241	-0.067
-296.720	104.089	-0.092	0.109
-295.705	415.527	-0.013	0.028
-294.691	-69.109	-0.267	0.103
-293.676	-111.477	-0.345	0.071
-292.662	-5.929	-0.070	-0.048
-291.647	354.511	-0.127	0.254
-290.632	37.094	-0.142	-0.126
-289.618	800.000	0.050	-0.172
-288.603	-37.081	0.052	-0.028
-287.589	137.067	-0.069	-0.091
-286.574	-47.288	0.064	0.032
-285.559	41.548	-0.204	-0.186
-284.545	315.992	-0.128	0.243
-283.530	800.000	-0.080	-0.248
-282.516	-100.151	0.299	-0.075
-281.501	-49.323	-0.387	0.186
-280.486	108.856	0.175	0.211
-279.472	190.321	0.094	0.142
-278.457	112.007	-0.080	-0.097
-277.443	-123.341	-0.259	0.042
-276.428	92.628	-0.012	0.014
-275.413	-116.965	0.317	0.058
-274.399	119.331	-0.144	0.179
-273.384	184.550	-0.102	0.153
-272.370	-200.000	-0.001	-0.040
-271.355	-108.325	-0.212	0.046
-270.340	260.436	-0.137	0.239
-269.326	-40.368	-0.307	-0.161
-268.311	45.146	0.112	-0.104
-267.297	-92.151	0.288	-0.082
-266.282	55.085	-0.311	-0.302
-265.267	197.955	-0.035	-0.054
-264.253	-32.142	-0.020	-0.011
-263.238	31.716	0.128	0.111
-262.224	-136.454	-0.270	0.032
-261.209	19.313	-0.012	-0.009
-260.195	-185.098	0.062	-0.001
-259.180	-115.346	0.226	-0.043
-258.165	-44.692	-0.198	0.099
-257.151	20.897	0.204	-0.166
-256.136	800.000	0.007	-0.022
-255.122	-88.052	0.205	0.062
-254.107	30.829	0.022	-0.019
-253.092	231.565	-0.077	-0.128
-252.078	-196.016	0.200	-0.001
-251.063	800.000	-0.093	-0.316
-250.049	-36.910	0.567	-0.306
-249.034	-71.496	-0.372	0.140
-248.019	-200.000	0.038	0.491
-247.005	-200.000	0.003	0.464
-245.990	-68.281	0.556	-0.217
-244.976	-154.573	0.089	0.006
-243.961	203.479	0.156	-0.242
-242.946	-200.000	0.030	-0.230
-241.932	10.691	-0.284	0.218
-240.917	21.450	-0.203	-0.166
-239.903	-200.000	0.019	0.314
-238.888	48.500	0.309	-0.291
-237.873	-38.051	-0.197	-0.105
-236.859	300.563	0.022	-0.041
-235.844	9.786	-0.053	0.040
-234.830	-200.000	0.018	0.168
-233.815	26.571	-0.046	-0.038
-232.800	-78.775	-0.072	-0.025
-231.786	350.748	-0.109	0.216
-230.771	-200.000	-0.037	-0.168
-229.757	63.538	-0.129	-0.130
-228.742	25.826	0.061	0.051
-227.727	30.188	0.127	-0.109
-226.713	-69.611	0.108	-0.041
-225.698	-41.116	-0.166	0.086
-224.684	-117.218	0.285	-0.052
-223.669	-109.126	0.118	0.025
-222.655	-112.765	-0.073	0.015
-221.640	800.000	-0.065	-0.212
-220.625	527.336	0.063	0.149
-219.611	87.412	0.205	-0.228
-218.596	-178.818	-0.177	0.004
-217.582	218.266	-0.026	-0.042
-216.567	-55.419	0.206	-0.093
-215.552	332.853	0.079	-0.154
-214.538	-200.000	0.021	-0.274
-213.523	-40.604	-0.056	-0.029
-212.509	-200.000	0.011	0.126
-211.494	-200.000	0.032	-0.275
-210.479	-200.000	-0.034	0.235
-209.465	-119.193	-0.296	-0.052
-208.450	800.000	0.056	-0.177
-207.436	-132.145	-0.235	-0.031
-206.421	77.768	0.321	-0.343
-205.406	404.168	-0.082	0.173
-204.392	368.984	0.112	0.227
-203.377	81.131	-0.171	0.185
-202.363	-86.153	0.093	-0.029
-201.348	-200.000	0.059	-0.306
-200.333	-91.427	-0.210	-0.060
-199.319	-70.170	0.228	-0.087
-198.304	800.000	0.082	0.236
-197.290	32.691	0.052	0.045
-196.275	567.985	0.053	0.128
-195.260	62.603	-0.171	0.171
-194.246	-87.993	0.164	-0.049
-193.231	233.316	-0.074	-0.121
-192.217	-200.000	0.030	-0.349
-191.202	133.730	0.017	-0.022
-190.187	118.992	0.120	-0.149
-189.173	-134.594	0.109	0.013
-188.158	217.662	-0.018	-0.029
-187.144	800.000	-0.042	-0.146
-186.129	800.000	0.059	0.223
-185.114	-118.226	0.024	0.004
-184.100	193.155	-0.049	-0.075
-183.085	2.624	-0.329	-0.239
-182.071	-98.813	0.079	-0.020
-181.056	-200.000	-0.040	-0.272
-180.042	83.350	-0.151	0.165
-179.027	507.144	0.054	0.126
-178.012	750.036	0.114	-0.309
-176.998	130.483	-0.099	0.127
-175.983	282.357	0.036	-0.064
-174.969	-138.463	-0.088	0.010
-173.954	-200.000	-0.041	0.383
-172.939	-200.000	-0.001	-0.094
-171.925	156.362	0.074	-0.102
-170.910	84.026	-0.228	-0.249
-169.896	-97.208	-0.231	0.060
-168.881	30.769	0.208	-0.178
-167.866	800.000	0.044	0.170
-166.852	6.666	-0.256	0.191
-165.837	5.010	-0.092	-0.067
-164.823	-162.475	-0.073	0.004
-163.808	107.025	-0.328	0.390
-162.793	-200.000	-0.012	-0.136
-161.779	71.614	0.076	0.080
-160.764	111.560	-0.032	0.039
-159.750	210.526	-0.042	-0.066
-158.735	1.441	-0.093	0.067
-157.720	-14.280	-0.213	0.138
-156.706	-194.320	0.120	-0.001
-155.691	99.957	0.113	0.131
-154.677	-200.000	0.025	-0.336
-153.662	490.940	0.075	0.171
-152.647	-106.010	0.300	-0.068
-151.633	-71.252	0.193	0.073
-150.618	-41.511	-0.209	0.108
-149.604	-14.392	-0.054	-0.035
-148.589	-60.400	0.314	0.134
-147.574	-200.000	-0.071	0.327
-146.560	-103.638	-0.264	0.062
-145.545	-29.643	0.236	-0.135
-144.531	387.600	0.069	0.143
-143.516	86.437	0.125	0.138
-142.502	-120.803	-0.121	-0.020
-141.487	74.210	0.102	0.107
-140.472	-100.977	-0.297	0.073
-139.458	56.960	-0.141	0.138
-138.443	192.760	0.170	0.257
-137.429	-72.458	-0.166	0.061
-136.414	-200.000	-0.020	-0.181
-135.399	166.274	-0.253	-0.359
-134.385	490.611	0.025	-0.058
-133.370	-200.000	-0.063	-0.359
-132.356	-26.088	-0.051	-0.030
-131.341	-62.531	-0.143	-0.060
-130.326	-23.450	-0.233	-0.140
-129.312	613.093	-0.106	0.267
-128.297	-185.782	0.372	-0.006
-127.283	-200.000	-0.107	0.478
-126.268	-193.247	-0.311	0.003
-125.253	-200.000	0.014	0.126
-124.239	-200.000	-0.064	0.519
-123.224	313.091	0.078	0.147
-122.210	-20.954	-0.122	-0.075
-121.195	-200.000	-0.018	0.173
