DTS Sentinel unit serial number:	SN413079Multiplexer serial number:	ORYXHardware model number:	OX4-SRSoftware version number:	ORYX F/W v4.00 Oryx Data Collector v3.7.2.0data status	okinstallation	princeton_trtdifferential loss correction	single-endedforward channel	channel 4reverse channel	N/Adate	2019/09/11time	05:11:11forward acquisition time	60.00reverse acquisition time	0.00gamma	496.2192k internal	0.2316k external	0.2316temperature offset calibration	0.9944default loss term (dB/km)	0.3790temperature slope calibration	1.0000multiplexer offset coefficient	1.0000multiplexer slope coefficient	1.0000fibre end	0.00T internal ref (°C)	29.44T ext. ref 1 (°C)	-0.29T ext. ref 2 (°C)	23.44length (m)	temperature (°C)	Stokes	anti-Stokes-747.200	405.229	-0.083	0.176
-746.185	-200.000	0.014	0.177
-745.171	-21.066	0.120	0.075
-744.156	-80.911	-0.168	-0.056
-743.142	-200.000	-0.002	-0.138
-742.127	260.889	0.183	0.321
-741.112	54.629	0.260	-0.253
-740.098	-23.387	0.277	0.169
-739.083	-60.683	-0.159	0.068
-738.069	-200.000	0.013	-0.168
-737.054	-92.038	-0.183	-0.052
-736.039	-200.000	-0.056	-0.306
-735.025	20.284	-0.124	0.102
-734.010	800.000	0.069	-0.218
-732.996	71.617	0.049	0.051
-731.981	484.127	-0.103	0.238
-730.966	198.555	0.134	-0.207
-729.952	-200.000	0.027	0.143
-728.937	-42.672	-0.153	-0.079
-727.923	93.683	0.175	-0.200
-726.908	-18.059	-0.444	-0.281
-725.894	47.013	0.153	-0.144
-724.879	-16.974	-0.033	0.021
-723.864	-200.000	-0.045	-0.771
-722.850	-42.104	-0.085	-0.044
-721.835	31.609	-0.187	-0.163
-720.821	184.083	-0.086	-0.128
-719.806	-96.738	-0.435	-0.116
-718.791	-90.208	-0.087	-0.026
-717.777	-35.969	0.307	0.168
-716.762	311.497	0.137	0.259
-715.748	-200.000	0.037	-0.238
-714.733	-73.659	0.143	0.053
-713.718	-200.000	-0.010	0.106
-712.704	-200.000	0.029	-0.361
-711.689	-8.165	0.082	-0.056
-710.675	-145.937	-0.102	0.009
-709.660	143.867	-0.148	-0.199
-708.645	420.590	0.074	0.161
-707.631	119.416	-0.062	0.078
-706.616	43.501	0.142	-0.131
-705.602	-45.947	-0.217	-0.108
-704.587	11.553	0.035	-0.028
-703.572	29.583	0.079	-0.068
-702.558	-46.711	-0.262	-0.130
-701.543	-79.810	0.085	0.029
-700.529	-82.549	-0.121	-0.040
-699.514	25.523	0.263	0.222
-698.499	-200.000	0.038	-0.246
-697.485	800.000	-0.119	-0.363
-696.470	-179.664	-0.206	0.005
-695.456	356.034	-0.134	-0.270
-694.441	-163.774	0.305	0.014
-693.426	-22.802	-0.256	-0.156
-692.412	-68.278	-0.153	-0.060
-691.397	649.291	0.121	-0.313
-690.383	800.000	0.078	0.260
-689.368	-21.807	0.032	-0.020
-688.354	-45.434	0.313	-0.157
-687.339	-57.693	-0.119	-0.053
-686.324	-97.807	0.073	0.019
-685.310	25.636	0.214	-0.180
-684.295	-200.000	-0.005	0.025
-683.281	-151.142	-0.074	-0.006
-682.266	-42.611	0.089	0.046
-681.251	-200.000	0.056	-0.361
-680.237	208.565	-0.126	-0.199
-679.222	-200.000	0.025	-0.158
-678.208	-200.000	-0.039	0.190
-677.193	182.612	-0.032	0.048
-676.178	70.971	0.042	-0.044
-675.164	484.736	0.090	-0.207
-674.149	109.885	-0.170	-0.206
-673.135	-81.632	-0.268	0.089
-672.120	-46.555	-0.228	0.113
-671.105	-19.740	-0.106	0.066
-670.091	41.608	0.132	-0.121
-669.076	800.000	0.102	-0.298
-668.062	-124.343	-0.369	-0.058
-667.047	-8.280	0.156	0.106
-666.032	67.093	-0.069	0.071
-665.018	-3.519	-0.238	-0.167
-664.003	-11.448	0.052	0.034
-662.989	258.819	-0.102	0.178
-661.974	153.021	0.207	0.286
-660.959	800.000	0.048	0.195
-659.945	800.000	0.071	0.207
-658.930	25.418	0.113	-0.095
-657.916	-200.000	-0.019	0.097
-656.901	229.792	-0.101	-0.166
-655.886	-200.000	-0.008	0.495
-654.872	309.783	0.014	-0.027
-653.857	-162.045	-0.165	0.008
-652.843	-200.000	-0.037	0.178
-651.828	135.989	-0.189	-0.249
-650.814	29.285	0.156	0.134
-649.799	-80.210	-0.234	0.079
-648.784	-121.134	0.274	-0.046
-647.770	-15.210	0.046	0.030
-646.755	-55.178	-0.198	-0.090
-645.741	-200.000	0.013	0.073
-644.726	172.762	-0.130	-0.190
-643.711	-123.765	-0.252	0.040
-642.697	61.563	-0.129	-0.129
-641.682	-51.616	-0.189	-0.089
-640.668	154.663	0.261	0.362
-639.653	452.062	0.075	-0.168
-638.638	-84.095	0.266	0.085
-637.624	190.183	0.202	-0.305
-636.609	-40.804	-0.313	-0.163
-635.595	-200.000	0.009	-0.224
-634.580	-113.432	0.231	0.046
-633.565	-149.528	-0.302	-0.024
-632.551	82.969	-0.087	0.096
-631.536	111.498	0.089	-0.108
-630.522	7.253	-0.347	0.261
-629.507	334.567	0.120	-0.235
-628.492	29.441	-0.190	0.163
-627.478	-200.000	-0.031	-0.207
-626.463	-200.000	0.002	-0.018
-625.449	-200.000	-0.006	0.106
-624.434	-200.000	0.005	-0.320
-623.419	-200.000	-0.083	0.434
-622.405	-47.343	-0.071	-0.035
-621.390	-19.138	-0.153	-0.096
-620.376	-116.314	-0.541	-0.101
-619.361	-53.681	0.082	0.038
-618.346	721.975	-0.042	0.114
-617.332	-39.508	0.234	-0.124
-616.317	106.513	-0.231	-0.276
-615.303	71.638	0.054	0.056
-614.288	59.674	-0.122	-0.121
-613.273	-5.150	-0.203	0.141
-612.259	505.916	-0.082	0.191
-611.244	450.286	-0.119	-0.265
-610.230	-107.732	-0.093	-0.020
-609.215	-106.308	0.167	0.038
-608.201	130.102	-0.199	0.256
-607.186	-129.817	-0.407	-0.056
-606.171	195.443	-0.094	0.145
-605.157	-21.428	0.144	0.088
-604.142	-79.093	-0.445	0.152
-603.128	217.148	-0.020	-0.032
-602.113	-173.331	-0.192	-0.006
-601.098	17.115	0.076	-0.060
-600.084	156.503	0.219	-0.305
-599.069	-200.000	0.030	-0.405
-598.055	-131.548	-0.515	0.068
-597.040	-50.879	0.194	0.092
-596.025	800.000	-0.031	-0.110
-595.011	102.238	-0.226	0.266
-593.996	371.595	-0.092	-0.187
-592.982	75.468	0.160	0.170
-591.967	800.000	-0.078	0.236
-590.952	-181.128	0.217	0.004
-589.938	-70.174	-0.112	-0.043
-588.923	-32.641	0.119	0.067
-587.909	-115.752	0.148	-0.028
-586.894	370.054	0.089	0.182
-585.879	31.915	0.138	0.120
-584.865	4.160	0.267	-0.197
-583.850	-99.742	-0.176	-0.044
-582.836	-47.353	-0.324	0.159
-581.821	-106.223	0.157	0.035
-580.806	-7.321	0.180	-0.123
-579.792	153.662	-0.225	0.310
-578.777	-46.859	-0.104	0.051
-577.763	-122.119	-0.227	-0.037
-576.748	74.070	-0.152	0.160
-575.733	-200.000	0.018	-0.209
-574.719	-111.302	0.148	-0.031
-573.704	800.000	0.057	-0.170
-572.690	-80.611	0.085	0.029
-571.675	-105.693	0.293	0.067
-570.661	-155.782	0.223	-0.014
-569.646	-200.000	-0.088	-0.391
-568.631	1.026	0.176	-0.127
-567.617	-200.000	-0.041	-0.236
-566.602	61.873	-0.104	0.104
-565.588	-106.106	0.646	0.146
-564.573	-20.774	0.263	0.162
-563.558	0.963	-0.058	-0.042
-562.544	-49.597	-0.098	0.047
-561.529	87.127	-0.139	-0.154
-560.515	800.000	-0.056	-0.222
-559.500	384.082	-0.125	-0.259
-558.485	-126.174	0.362	0.055
-557.471	-158.288	0.182	-0.011
-556.456	-9.984	-0.155	-0.103
-555.442	-114.604	-0.141	0.027
-554.427	29.869	-0.166	0.142
-553.412	800.000	-0.050	-0.184
-552.398	-91.895	0.357	-0.102
-551.383	-200.000	0.005	-0.101
-550.369	-15.983	-0.160	0.103
-549.354	-23.566	-0.196	-0.118
-548.339	326.772	0.067	0.129
-547.325	76.058	-0.220	-0.234
-546.310	-200.000	-0.029	-0.203
-545.296	-200.000	0.038	0.177
-544.281	800.000	-0.109	0.357
-543.266	-162.996	-0.162	0.008
-542.252	800.000	0.077	0.222
-541.237	-200.000	-0.040	0.201
-540.223	-106.597	-0.295	-0.066
-539.208	273.741	-0.053	-0.094
-538.193	-167.317	0.163	0.007
-537.179	-6.702	0.176	0.121
-536.164	-11.708	-0.129	-0.085
-535.150	-118.615	-0.195	0.035
-534.135	512.941	0.042	0.098
-533.121	800.000	-0.017	-0.056
-532.106	-200.000	-0.043	-0.280
-531.091	184.161	-0.072	0.107
-530.077	63.724	-0.128	-0.129
-529.062	85.279	-0.206	-0.227
-528.048	-200.000	0.004	0.030
-527.033	-52.981	0.032	-0.015
-526.018	800.000	-0.123	0.460
-525.004	-96.551	0.247	-0.066
-523.989	-20.275	0.222	-0.137
-522.975	-49.338	-0.204	-0.098
-521.960	-181.080	-0.174	-0.004
-520.945	-168.438	0.255	0.010
-519.931	237.260	-0.087	-0.146
-518.916	-94.051	-0.301	-0.083
-517.902	113.191	0.021	0.025
-516.887	-136.126	-0.104	0.012
-515.872	104.258	-0.252	0.297
-514.858	-93.328	0.031	-0.009
-513.843	231.168	-0.157	-0.258
-512.829	46.878	-0.171	0.160
-511.814	-6.594	0.263	0.180
-510.799	45.886	0.163	0.152
-509.785	-138.152	-0.740	0.082
-508.770	-200.000	-0.042	0.228
-507.756	-77.334	0.171	0.060
-506.741	-59.191	0.371	-0.160
-505.726	21.053	0.139	-0.114
-504.712	-200.000	-0.012	-0.126
-503.697	-56.868	-0.132	0.059
-502.683	-111.031	0.146	0.030
-501.668	-64.040	-0.316	-0.129
-500.653	190.403	0.139	-0.210
-499.639	-200.000	0.035	0.180
-498.624	-200.000	-0.026	-0.145
-497.610	-63.272	0.206	0.085
-496.595	-89.921	0.172	0.050
-495.581	800.000	0.011	0.040
-494.566	800.000	-0.028	-0.114
-493.551	-4.254	-0.072	-0.050
-492.537	68.697	0.065	-0.067
-491.522	-30.304	-0.269	-0.153
-490.508	800.000	-0.062	0.242
-489.493	800.000	0.022	-0.071
-488.478	-200.000	0.036	0.177
-487.464	-200.000	0.016	-0.505
-486.449	382.202	-0.060	0.124
-485.435	-8.318	-0.087	-0.059
-484.420	800.000	-0.112	0.359
-483.405	166.673	0.234	0.333
-482.391	175.131	0.108	-0.156
-481.376	-200.000	-0.047	0.243
-480.362	-200.000	-0.029	-0.134
-479.347	161.884	-0.331	-0.464
-478.332	-148.641	0.406	0.033
-477.318	800.000	-0.063	0.202
-476.303	-86.692	0.187	0.057
-475.289	-15.698	-0.203	-0.130
-474.274	-200.000	0.003	0.101
-473.259	-200.000	-0.030	-0.309
-472.245	-127.886	-0.254	-0.037
-471.230	69.560	0.194	-0.200
-470.216	94.667	0.052	-0.059
-469.201	233.304	-0.071	-0.117
-468.186	-151.070	0.428	-0.032
-467.172	-63.910	-0.047	-0.019
-466.157	7.960	-0.075	-0.056
-465.143	42.605	0.283	0.259
-464.128	27.955	0.281	0.237
-463.113	-12.858	-0.125	-0.081
-462.099	-200.000	0.037	0.581
-461.084	800.000	0.110	0.379
-460.070	-92.656	-0.160	0.045
-459.055	-91.840	0.146	-0.041
-458.040	141.053	-0.146	0.193
-457.026	594.996	0.116	0.287
-456.011	-57.897	-0.280	0.122
-454.997	12.045	-0.096	-0.074
-453.982	193.309	0.066	0.101
-452.968	-200.000	-0.002	-0.087
-451.953	157.703	-0.233	-0.323
-450.938	-148.489	-0.205	0.017
-449.924	-111.606	0.121	0.025
-448.909	77.036	-0.225	-0.239
-447.895	-200.000	0.025	-0.128
-446.880	287.899	-0.160	-0.290
-445.865	-56.468	-0.162	-0.072
-444.851	-4.568	-0.160	0.111
-443.836	111.113	0.175	0.211
-442.822	6.777	-0.132	-0.099
-441.807	87.051	0.028	-0.031
-440.792	-200.000	0.052	0.229
-439.778	1.170	0.098	-0.070
-438.763	-93.293	-0.243	-0.067
-437.749	-9.157	-0.427	-0.286
-436.734	44.557	0.113	0.104
-435.719	-200.000	0.037	-0.168
-434.705	-21.094	-0.066	-0.041
-433.690	-118.542	0.183	0.032
-432.676	-76.392	0.283	-0.099
-431.661	15.229	0.065	0.051
-430.646	-33.013	0.120	0.067
-429.632	425.853	0.006	-0.013
-428.617	-12.982	0.259	-0.168
-427.603	-85.525	-0.388	-0.121
-426.588	-42.520	0.157	-0.080
-425.573	-200.000	-0.023	0.196
-424.559	-200.000	-0.006	0.104
-423.544	291.263	-0.008	-0.015
-422.530	736.377	0.064	0.172
-421.515	-147.174	-0.255	-0.022
-420.500	423.467	0.134	-0.287
-419.486	733.075	0.106	0.285
-418.471	-200.000	-0.007	-0.146
-417.457	695.679	0.147	-0.387
-416.442	28.569	0.079	0.067
-415.428	-200.000	-0.008	0.187
-414.413	103.719	0.087	-0.102
-413.398	-182.392	-0.131	0.002
-412.384	395.005	-0.010	0.022
-411.369	30.904	-0.027	-0.024
-410.355	-200.000	0.002	0.009
-409.340	-94.614	0.098	-0.027
-408.325	389.263	0.121	-0.250
-407.311	368.405	-0.144	0.290
-406.296	-15.050	-0.214	-0.137
-405.282	29.333	0.249	-0.212
-404.267	-108.780	-0.380	-0.081
-403.252	367.187	-0.189	-0.382
-402.238	43.485	-0.119	-0.109
-401.223	195.751	0.064	0.097
-400.209	710.643	-0.060	0.160
-399.194	105.238	-0.255	0.300
-398.179	383.990	0.082	-0.168
-397.165	-1.908	-0.023	-0.016
-396.150	-200.000	-0.080	0.409
-395.136	316.330	-0.078	0.147
-394.121	-123.401	0.234	-0.037
-393.106	80.852	0.116	-0.125
-392.092	204.360	0.099	-0.154
-391.077	608.850	-0.117	-0.291
-390.063	58.901	-0.220	-0.216
-389.048	-93.428	0.320	-0.089
-388.033	-200.000	0.036	-0.178
-387.019	85.528	-0.199	-0.218
-386.004	-200.000	-0.056	-0.357
-384.990	-10.506	-0.207	0.137
-383.975	-82.644	0.180	-0.058
-382.960	-200.000	-0.010	-0.207
-381.946	-150.038	-0.230	0.018
-380.931	-200.000	-0.017	-0.316
-379.917	-57.777	0.372	-0.163
-378.902	-102.029	0.364	-0.088
-377.888	276.965	0.007	-0.012
-376.873	-46.519	0.112	0.055
-375.858	-200.000	-0.019	0.299
-374.844	701.399	0.030	0.078
-373.829	-72.085	-0.111	0.041
-372.815	-9.124	0.275	0.184
-371.800	-200.000	-0.013	-0.239
-370.785	-102.915	-0.107	0.025
-369.771	360.731	0.060	0.120
-368.756	800.000	0.045	-0.131
-367.742	-200.000	0.011	0.191
-366.727	66.254	0.210	0.213
-365.712	-124.599	-0.176	0.027
-364.698	236.411	0.112	0.185
-363.683	-136.567	-0.156	-0.018
-362.669	-157.648	0.333	-0.020
-361.654	-140.639	0.235	-0.024
-360.639	-15.313	0.123	0.078
-359.625	-120.153	-0.159	-0.027
-358.610	317.129	-0.136	0.257
-357.596	439.205	0.176	0.383
-356.581	-128.268	0.226	-0.032
-355.566	-86.321	-0.208	0.064
-354.552	-153.526	0.106	0.007
-353.537	307.850	0.107	0.199
-352.523	127.565	-0.067	0.084
-351.508	-32.800	0.207	0.115
-350.493	119.303	0.227	-0.280
-349.479	-158.588	-0.342	0.020
-348.464	-10.707	0.063	0.041
-347.450	800.000	-0.077	0.265
-346.435	-47.370	0.219	0.106
-345.420	800.000	-0.104	0.321
-344.406	-200.000	-0.043	-0.321
-343.391	-200.000	-0.014	-0.065
-342.377	-74.188	-0.102	-0.037
-341.362	-51.857	0.308	-0.143
-340.348	-151.389	0.141	-0.010
-339.333	-107.406	0.344	0.075
-338.318	-200.000	0.028	0.131
-337.304	-37.855	-0.168	-0.089
-336.289	578.899	0.033	-0.080
-335.275	-192.141	0.224	0.002
-334.260	573.894	-0.073	-0.177
-333.245	-89.149	-0.252	-0.074
-332.231	-168.517	-0.250	0.010
-331.216	800.000	-0.032	-0.110
-330.202	-161.256	0.115	0.006
-329.187	45.616	0.033	-0.031
-328.172	7.478	-0.046	-0.034
-327.158	-96.528	0.176	-0.046
-326.143	-85.080	0.128	0.040
-325.129	-73.210	-0.083	-0.030
-324.114	-118.364	0.121	-0.021
-323.099	564.567	-0.126	-0.304
-322.085	298.893	0.036	-0.065
-321.070	-200.000	0.006	-0.131
-320.056	-200.000	-0.023	0.212
-319.041	-129.410	0.137	0.019
-318.026	-105.201	0.034	-0.008
-317.012	800.000	-0.023	-0.064
-315.997	800.000	0.050	0.163
-314.983	91.177	0.126	-0.141
-313.968	800.000	-0.035	0.132
-312.953	-163.023	-0.238	0.011
-311.939	-13.451	0.249	0.161
-310.924	-200.000	-0.048	-0.356
-309.910	-7.353	0.143	0.096
-308.895	-200.000	-0.014	-0.349
-307.880	-20.929	-0.253	0.154
-306.866	800.000	0.084	0.235
-305.851	420.745	-0.090	-0.191
-304.837	345.514	0.191	-0.374
-303.822	-85.466	0.140	-0.043
-302.807	-36.497	-0.085	-0.046
-301.793	-200.000	0.001	-0.276
-300.778	124.992	0.082	-0.103
-299.764	518.070	-0.086	-0.200
-298.749	-49.356	-0.121	-0.057
-297.735	-109.940	0.455	0.095
-296.720	-112.918	-0.265	0.052
-295.705	-200.000	-0.007	-0.047
-294.691	-136.823	-0.143	-0.016
-293.676	61.081	0.056	0.056
-292.662	-200.000	0.004	-0.082
-291.647	-25.790	0.249	0.146
-290.632	74.515	0.046	-0.048
-289.618	-200.000	-0.006	-0.058
-288.603	-103.567	-0.233	0.055
-287.589	408.059	0.079	0.166
-286.574	294.456	-0.041	0.075
-285.559	-59.034	0.145	-0.062
-284.545	800.000	0.034	0.148
-283.530	-188.210	0.266	-0.003
-282.516	167.126	-0.275	-0.389
-281.501	-65.017	0.228	0.092
-280.486	3.855	0.146	0.106
-279.472	187.495	0.138	-0.205
-278.457	-200.000	-0.000	0.213
-277.443	55.875	0.034	-0.033
-276.428	-108.780	0.119	0.025
-275.413	-200.000	0.034	-0.193
-274.399	391.910	0.167	0.344
-273.384	-94.563	-0.456	0.123
-272.370	38.431	-0.310	-0.275
-271.355	-1.847	-0.145	-0.101
-270.340	800.000	-0.067	-0.273
-269.326	800.000	-0.043	-0.121
-268.311	800.000	-0.040	0.115
-267.297	-94.571	-0.227	-0.062
-266.282	800.000	0.025	-0.074
-265.267	23.499	-0.110	-0.090
-264.253	129.263	0.280	-0.356
-263.238	-141.488	0.094	-0.009
-262.224	-200.000	0.002	0.172
-261.209	-59.422	-0.290	0.124
-260.195	-105.393	-0.313	0.071
-259.180	38.532	-0.069	0.061
-258.165	558.298	0.077	0.184
-257.151	-41.395	0.111	-0.057
-256.136	-113.158	0.154	-0.030
-255.122	622.017	-0.098	0.245
-254.107	572.223	0.075	0.182
-253.092	-53.832	-0.147	0.067
-252.078	344.672	0.105	0.205
-251.063	384.446	0.088	-0.181
-250.049	800.000	0.129	0.384
-249.034	757.688	-0.124	0.335
-248.019	-132.115	-0.050	-0.006
-247.005	609.104	-0.099	0.246
-245.990	76.173	0.201	0.211
-244.976	44.436	0.155	0.142
-243.961	-99.473	0.334	-0.083
-242.946	224.532	-0.149	-0.240
-241.932	-200.000	-0.012	0.514
-240.917	-130.698	0.204	-0.027
-239.903	-200.000	-0.027	0.255
-238.888	329.751	-0.277	0.530
-237.873	177.522	0.249	-0.361
-236.859	-200.000	-0.023	-0.239
-235.844	89.719	-0.131	-0.145
-234.830	-71.814	-0.195	-0.072
-233.815	-60.290	0.177	-0.075
-232.800	128.685	-0.197	0.249
-231.786	216.320	-0.014	0.022
-230.771	-200.000	0.002	0.152
-229.757	294.235	-0.015	0.028
-228.742	-131.538	-0.108	0.014
-227.727	14.764	0.238	-0.185
-226.713	107.552	0.074	0.087
-225.698	81.790	0.189	-0.203
-224.684	109.064	0.091	0.108
-223.669	-41.266	0.377	-0.193
-222.655	90.030	0.240	-0.266
-221.640	96.883	0.268	0.305
-220.625	312.141	0.103	-0.191
-219.611	95.512	-0.155	-0.175
-218.596	-33.348	0.140	-0.077
-217.582	287.676	-0.167	0.300
-216.567	-140.896	0.190	-0.019
-215.552	-174.685	0.218	0.006
-214.538	-105.647	0.273	0.061
-213.523	95.664	0.054	-0.061
-212.509	-200.000	0.002	-0.354
-211.494	132.041	0.147	-0.187
-210.479	238.399	-0.069	-0.114
-209.465	-157.424	-0.180	0.011
-208.450	731.712	0.105	-0.277
-207.436	-100.992	-0.431	0.105
-206.421	75.665	0.070	0.073
-205.406	-20.960	-0.296	-0.180
-204.392	-200.000	-0.004	-0.037
-203.377	55.329	0.065	-0.062
-202.363	402.970	0.032	0.067
-201.348	58.144	0.147	0.142
-200.333	151.855	0.095	0.128
-199.319	95.563	0.198	0.224
-198.304	-32.158	0.416	-0.231
-197.290	-200.000	0.017	0.413
-196.275	-33.400	0.125	0.069
-195.260	-24.160	-0.145	-0.086
-194.246	-44.274	0.179	0.089
-193.231	139.880	-0.094	0.123
-192.217	60.519	-0.225	-0.221
-191.202	165.841	0.181	-0.254
-190.187	-37.057	0.232	0.123
-189.173	-38.602	-0.028	0.015
-188.158	387.077	0.204	0.418
-187.144	437.384	-0.107	0.232
-186.129	156.023	-0.137	-0.187
-185.114	-69.715	-0.149	0.057
-184.100	505.881	0.104	-0.238
-183.085	-59.225	0.375	-0.160
-182.071	-200.000	0.080	0.395
-181.056	-200.000	-0.025	0.132
-180.042	800.000	0.046	0.173
-179.027	-200.000	0.027	0.155
-178.012	-52.221	-0.135	0.062
-176.998	139.295	0.243	0.317
-175.983	-67.334	0.208	0.081
-174.969	-58.271	0.186	-0.080
-173.954	-200.000	-0.026	0.242
-172.939	-87.597	-0.343	0.103
-171.925	147.695	-0.148	-0.198
-170.910	-122.500	-0.351	0.057
-169.896	127.253	-0.042	0.053
-168.881	-58.931	0.255	0.109
-167.866	93.417	-0.208	0.234
-166.852	-200.000	-0.024	0.272
-165.837	-200.000	-0.012	0.332
-164.823	99.290	0.152	0.173
-163.808	59.691	0.033	-0.032
-162.793	-130.909	-0.105	0.014
-161.779	-95.539	0.200	0.053
-160.764	459.783	0.126	0.278
-159.750	-76.850	-0.386	0.134
-158.735	-118.258	0.063	0.011
-157.720	-200.000	0.006	-0.170
-156.706	459.671	0.129	0.285
-155.691	-57.204	0.089	-0.039
-154.677	267.952	-0.183	-0.318
-153.662	800.000	-0.098	-0.300
-152.647	-53.658	-0.114	-0.052
-151.633	-37.681	-0.218	-0.115
-150.618	-27.772	0.282	-0.162
-149.604	3.061	-0.115	0.083
-148.589	271.205	0.098	-0.170
-147.574	221.652	-0.122	0.193
-146.560	179.908	0.264	-0.383
-145.545	-128.617	0.013	0.002
-144.531	89.046	0.325	0.358
-143.516	88.434	-0.211	0.232
-142.502	800.000	-0.036	0.107
-141.487	260.431	0.066	-0.112
-140.472	50.403	-0.129	-0.121
-139.458	-92.306	0.150	0.042
-138.443	-124.826	-0.266	-0.041
-137.429	-157.476	0.326	-0.019
-136.414	-142.521	0.027	0.003
-135.399	-14.690	0.136	0.087
-134.385	19.181	0.174	0.138
-133.370	-200.000	0.002	-0.311
-132.356	770.382	-0.076	-0.205
-131.341	-97.815	-0.282	-0.072
-130.326	-33.007	0.051	0.028
-129.312	401.626	-0.068	-0.141
-128.297	-149.315	0.206	0.016
-127.283	-39.333	0.171	-0.089
-126.268	-55.326	0.279	0.124
-125.253	275.463	0.174	-0.305
-124.239	-98.833	0.180	-0.045
-123.224	-28.081	-0.077	-0.044
-122.210	-182.520	0.077	0.001
-121.195	-152.500	0.227	0.016
