DTS Sentinel unit serial number:	SN413079Multiplexer serial number:	ORYXHardware model number:	OX4-SRSoftware version number:	ORYX F/W v4.00 Oryx Data Collector v3.7.2.0data status	okinstallation	princeton_trtdifferential loss correction	single-endedforward channel	channel 4reverse channel	N/Adate	2019/09/14time	11:01:35forward acquisition time	60.00reverse acquisition time	0.00gamma	496.2192k internal	0.2295k external	0.2295temperature offset calibration	1.0147default loss term (dB/km)	0.3790temperature slope calibration	1.0000multiplexer offset coefficient	1.0000multiplexer slope coefficient	1.0000fibre end	0.00T internal ref (°C)	36.03T ext. ref 1 (°C)	4.39T ext. ref 2 (°C)	33.95length (m)	temperature (°C)	Stokes	anti-Stokes-747.200	800.000	0.070	0.216
-746.185	-56.942	-0.140	0.063
-745.171	-34.549	0.302	0.169
-744.156	-98.095	-0.119	-0.031
-743.142	340.362	0.142	0.283
-742.127	36.378	-0.090	0.081
-741.112	372.837	0.106	-0.220
-740.098	24.587	-0.148	0.125
-739.083	-140.657	0.131	0.014
-738.069	71.464	0.196	0.208
-737.054	61.364	0.046	-0.047
-736.039	2.408	-0.187	-0.139
-735.025	-90.693	0.430	-0.127
-734.010	-38.132	-0.099	-0.054
-732.996	155.527	-0.061	-0.085
-731.981	31.997	-0.086	0.076
-730.966	-82.564	0.108	0.036
-729.952	8.909	-0.101	-0.078
-728.937	-191.140	-0.062	0.001
-727.923	-71.092	-0.224	0.086
-726.908	-200.000	-0.111	0.000
-725.894	-114.772	-0.136	-0.026
-724.879	252.013	0.106	-0.185
-723.864	356.595	0.097	0.198
-722.850	59.924	-0.138	-0.139
-721.835	-200.000	0.019	0.228
-720.821	-7.348	-0.144	0.100
-719.806	-113.766	-0.179	-0.036
-718.791	-6.950	0.180	-0.125
-717.777	-200.000	-0.008	-0.041
-716.762	-50.891	-0.332	-0.159
-715.748	43.651	-0.180	-0.169
-714.733	74.409	-0.183	-0.196
-713.718	-167.456	-0.280	-0.011
-712.704	800.000	0.038	0.122
-711.689	800.000	0.069	-0.250
-710.675	-128.997	-0.206	0.029
-709.660	-200.000	0.033	0.358
-708.645	-200.000	0.001	-0.071
-707.631	-123.556	-0.105	-0.017
-706.616	303.898	0.058	-0.109
-705.602	194.291	-0.023	-0.036
-704.587	800.000	0.022	0.093
-703.572	6.518	-0.081	-0.061
-702.558	315.497	-0.151	0.290
-701.543	-200.000	-0.001	-0.071
-700.529	3.660	-0.185	-0.137
-699.514	-134.328	-0.103	0.013
-698.499	41.871	0.116	0.107
-697.485	-200.000	0.035	-0.181
-696.470	-5.671	0.198	0.138
-695.456	-78.689	0.151	0.053
-694.441	112.942	0.123	-0.152
-693.426	250.845	-0.212	-0.367
-692.412	-151.102	-0.227	0.017
-691.397	-200.000	-0.003	0.123
-690.383	-200.000	-0.030	-0.208
-689.368	484.718	0.072	0.167
-688.354	300.995	-0.038	-0.072
-687.339	305.288	0.180	-0.341
-686.324	-47.485	0.251	-0.124
-685.310	-48.115	0.061	-0.030
-684.295	134.496	-0.136	-0.181
-683.281	-133.612	-0.417	0.053
-682.266	8.196	-0.136	0.104
-681.251	-200.000	-0.059	0.337
-680.237	-200.000	0.019	-0.298
-679.222	-70.424	0.139	-0.054
-678.208	306.932	-0.083	0.158
-677.193	-200.000	-0.017	0.080
-676.178	18.571	-0.230	0.187
-675.164	-12.562	-0.094	-0.062
-674.149	198.267	0.049	-0.077
-673.135	40.048	-0.217	0.199
-672.120	-67.595	-0.254	-0.102
-671.105	-169.468	0.113	-0.004
-670.091	336.298	-0.146	-0.289
-669.076	-81.508	0.334	0.112
-668.062	123.429	-0.161	-0.206
-667.047	219.149	0.113	-0.185
-666.032	26.874	0.166	-0.142
-665.018	-143.749	-0.096	-0.009
-664.003	133.903	0.019	0.025
-662.989	24.608	0.179	-0.151
-661.974	239.473	0.172	-0.291
-660.959	-134.428	-0.358	-0.045
-659.945	-160.451	-0.205	-0.011
-658.930	-106.111	-0.232	-0.053
-657.916	188.036	0.114	0.173
-656.901	-200.000	-0.015	0.130
-655.886	-200.000	0.001	-0.395
-654.872	196.139	0.104	-0.161
-653.857	31.749	0.292	-0.256
-652.843	259.362	0.217	-0.381
-651.828	-200.000	0.018	-0.121
-650.814	-165.077	-0.237	-0.011
-649.799	-137.493	0.194	-0.022
-648.784	-200.000	0.015	0.178
-647.770	47.349	-0.240	-0.227
-646.755	800.000	-0.017	0.071
-645.741	-135.241	0.249	0.030
-644.726	242.532	-0.079	0.134
-643.711	19.882	0.099	-0.081
-642.697	800.000	-0.072	-0.227
-641.682	-137.243	0.346	0.040
-640.668	-62.120	-0.151	-0.064
-639.653	-92.946	0.181	0.052
-638.638	-5.646	0.173	-0.121
-637.624	-45.777	-0.191	-0.096
-636.609	-93.506	0.173	-0.049
-635.595	435.280	-0.095	0.211
-634.580	800.000	-0.111	0.372
-633.565	180.657	-0.148	0.222
-632.551	-124.362	0.266	-0.042
-631.536	197.074	-0.045	0.070
-630.522	73.805	0.281	0.300
-629.507	-200.000	-0.022	0.139
-628.492	-119.963	-0.142	0.025
-627.478	24.307	0.388	-0.326
-626.463	280.373	0.052	-0.094
-625.449	-123.525	-0.307	0.050
-624.434	229.965	-0.045	0.075
-623.419	-200.000	-0.041	-0.223
-622.405	91.161	-0.183	0.209
-621.390	-74.463	-0.164	-0.060
-620.376	465.139	0.075	-0.171
-619.361	-181.845	-0.247	0.005
-618.346	156.857	0.113	-0.159
-617.332	-185.786	0.133	-0.002
-616.317	19.866	0.216	-0.177
-615.303	800.000	-0.091	0.336
-614.288	-44.916	0.238	0.121
-613.273	-24.154	-0.139	-0.085
-612.259	800.000	-0.049	0.153
-611.244	800.000	-0.061	0.183
-610.230	163.051	-0.189	-0.270
-609.215	-200.000	-0.001	0.023
-608.201	-51.840	0.031	-0.014
-607.186	-200.000	0.038	-0.176
-606.171	233.172	0.050	0.084
-605.157	-123.088	-0.171	0.028
-604.142	-0.202	0.203	-0.147
-603.128	-49.991	-0.102	0.049
-602.113	-168.279	-0.137	-0.005
-601.098	-200.000	0.037	-0.213
-600.084	796.510	-0.090	-0.251
-599.069	117.007	-0.306	0.381
-598.055	-200.000	0.014	0.282
-597.040	132.472	-0.163	-0.214
-596.025	-52.383	0.403	0.189
-595.011	-58.895	0.237	0.104
-593.996	-147.497	-0.308	-0.026
-592.982	432.278	-0.120	0.264
-591.967	-13.054	0.198	0.131
-590.952	-67.676	0.288	-0.115
-589.938	594.386	-0.033	0.084
-588.923	546.405	0.051	-0.123
-587.909	-200.000	-0.039	-0.257
-586.894	-152.374	0.220	-0.016
-585.879	-42.309	-0.293	0.152
-584.865	22.914	-0.198	-0.165
-583.850	-200.000	-0.074	0.334
-582.836	49.686	0.142	0.136
-581.821	800.000	0.103	-0.321
-580.806	-200.000	0.003	-0.118
-579.792	-200.000	-0.028	-0.134
-578.777	-186.238	0.147	-0.002
-577.763	-40.871	0.118	0.062
-576.748	800.000	-0.053	-0.225
-575.733	-200.000	-0.018	-0.108
-574.719	97.841	0.205	0.240
-573.704	213.623	-0.141	0.226
-572.690	-124.035	0.176	0.028
-571.675	-68.971	-0.450	-0.176
-570.661	-40.761	-0.159	0.083
-569.646	-123.645	0.278	0.045
-568.631	-200.000	0.007	-0.045
-567.617	-43.713	-0.156	-0.080
-566.602	-158.602	-0.371	0.022
-565.588	581.013	0.058	0.144
-564.573	165.479	-0.060	0.086
-563.558	-200.000	0.002	-0.143
-562.544	453.504	-0.089	0.199
-561.529	-3.365	-0.060	0.042
-560.515	-123.289	-0.061	0.010
-559.500	141.986	0.064	0.087
-558.485	-200.000	0.005	0.218
-557.471	-8.734	-0.201	-0.137
-556.456	800.000	-0.123	0.457
-555.442	-74.436	-0.107	0.039
-554.427	-104.906	-0.069	-0.016
-553.412	-200.000	0.006	0.053
-552.398	-92.117	-0.162	0.046
-551.383	-37.165	-0.183	0.099
-550.369	800.000	-0.073	-0.251
-549.354	-138.524	-0.349	0.039
-548.339	-27.421	-0.271	0.160
-547.325	-200.000	0.018	0.193
-546.310	118.071	0.041	-0.052
-545.296	-93.716	0.078	-0.022
-544.281	-104.206	0.124	-0.029
-543.266	-200.000	0.036	-0.287
-542.252	-200.000	-0.024	-0.158
-541.237	437.696	0.025	0.056
-540.223	800.000	0.054	0.152
-539.208	-146.356	-0.318	-0.028
-538.193	-88.266	0.087	0.026
-537.179	-47.266	0.255	-0.126
-536.164	38.928	0.169	0.153
-535.150	800.000	0.062	0.237
-534.135	69.037	-0.100	-0.104
-533.121	-8.927	0.408	-0.277
-532.106	-100.651	-0.222	0.056
-531.091	-200.000	-0.046	0.257
-530.077	-73.139	-0.302	0.112
-529.062	-95.836	0.170	0.046
-528.048	800.000	-0.081	0.233
-527.033	-59.621	0.247	0.107
-526.018	268.385	-0.021	-0.037
-525.004	-200.000	0.005	0.032
-523.989	-11.167	0.051	-0.034
-522.975	326.935	-0.039	-0.076
-521.960	-99.068	0.131	-0.034
-520.945	-20.338	0.078	0.048
-519.931	563.509	-0.093	0.228
-518.916	-200.000	-0.049	-0.282
-517.902	-77.445	0.111	-0.039
-516.887	-200.000	0.005	0.055
-515.872	-200.000	0.013	-0.088
-514.858	253.170	0.052	0.091
-513.843	-7.167	0.012	0.008
-512.829	1.076	0.242	0.176
-511.814	84.279	0.129	0.143
-510.799	-7.958	0.284	-0.194
-509.785	256.433	0.134	-0.234
-508.770	55.444	-0.158	-0.155
-507.756	-165.084	0.233	-0.010
-506.741	-94.278	-0.302	0.084
-505.726	175.115	-0.105	-0.154
-504.712	187.024	0.142	0.214
-503.697	-115.474	0.337	-0.064
-502.683	46.076	0.150	0.141
-501.668	194.500	0.181	0.278
-500.653	-200.000	-0.002	-0.161
-499.639	-200.000	-0.053	-0.290
-498.624	-51.273	-0.362	0.172
-497.610	-14.308	0.048	0.031
-496.595	99.486	-0.027	-0.031
-495.581	118.137	-0.232	0.290
-494.566	-64.514	-0.122	-0.050
-493.551	800.000	0.027	0.114
-492.537	16.270	0.118	0.094
-491.522	81.131	-0.198	-0.216
-490.508	-200.000	-0.051	-0.353
-489.493	-200.000	0.045	-0.293
-488.478	800.000	-0.038	0.126
-487.464	800.000	0.097	0.287
-486.449	-84.838	0.254	0.081
-485.435	66.730	-0.005	0.005
-484.420	25.006	0.422	-0.354
-483.405	-11.605	-0.175	-0.116
-482.391	-11.017	-0.190	0.127
-481.376	453.083	-0.020	-0.044
-480.362	193.813	0.074	-0.113
-479.347	-130.497	-0.141	0.019
-478.332	-200.000	0.034	-0.171
-477.318	124.243	0.170	-0.216
-476.303	-96.637	-0.139	-0.037
-475.289	-2.662	0.320	-0.227
-474.274	49.847	0.176	0.168
-473.259	-35.329	0.307	0.169
-472.245	783.750	-0.092	-0.256
-471.230	-123.428	-0.075	-0.012
-470.216	-33.295	0.032	0.018
-469.201	31.600	0.051	-0.045
-468.186	-159.378	-0.211	-0.012
-467.172	-25.874	0.176	0.105
-466.157	36.301	-0.140	0.125
-465.143	152.905	-0.152	0.210
-464.128	-200.000	0.015	0.234
-463.113	-160.454	-0.316	0.017
-462.099	-50.182	-0.392	-0.187
-461.084	-200.000	-0.031	-0.503
-460.070	-64.887	0.251	-0.103
-459.055	800.000	-0.088	-0.281
-458.040	800.000	0.131	-0.498
-457.026	800.000	-0.119	-0.511
-456.011	-131.383	0.214	0.029
-454.997	-200.000	0.036	0.339
-453.982	-97.842	-0.123	-0.032
-452.968	-200.000	0.025	0.279
-451.953	-156.161	-0.386	0.025
-450.938	800.000	-0.039	0.155
-449.924	-200.000	-0.009	0.263
-448.909	13.884	-0.326	-0.256
-447.895	298.636	-0.088	-0.163
-446.880	800.000	0.034	0.146
-445.865	248.467	-0.128	-0.220
-444.851	-70.314	0.269	-0.103
-443.836	800.000	-0.069	0.273
-442.822	-51.955	-0.086	-0.040
-441.807	-60.611	0.087	0.037
-440.792	-166.435	0.016	-0.001
-439.778	-29.397	-0.033	0.019
-438.763	260.381	0.125	0.218
-437.749	-200.000	0.009	-0.136
-436.734	-84.867	-0.333	0.105
-435.719	4.243	-0.286	0.212
-434.705	28.145	0.091	0.077
-433.690	800.000	0.049	0.137
-432.676	-140.533	-0.267	-0.028
-431.661	24.216	-0.023	-0.019
-430.646	13.392	0.066	-0.051
-429.632	-200.000	-0.023	-0.146
-428.617	-26.306	-0.219	0.130
-427.603	38.391	-0.052	-0.046
-426.588	-78.751	0.205	0.071
-425.573	-200.000	-0.013	0.145
-424.559	-200.000	-0.062	-0.283
-423.544	800.000	-0.064	-0.211
-422.530	126.410	-0.123	-0.157
-421.515	800.000	-0.077	0.314
-420.500	18.394	-0.194	0.156
-419.486	65.820	-0.092	0.094
-418.471	-90.525	0.127	0.037
-417.457	-84.488	-0.106	0.034
-416.442	-28.692	0.349	0.202
-415.428	-44.883	-0.250	0.126
-414.413	-200.000	-0.010	0.346
-413.398	-56.493	0.260	0.116
-412.384	-200.000	0.004	0.315
-411.369	68.388	0.081	-0.084
-410.355	800.000	0.099	-0.376
-409.340	-200.000	0.046	0.206
-408.325	392.604	0.060	-0.125
-407.311	800.000	-0.041	-0.149
-406.296	800.000	0.098	-0.298
-405.282	-7.534	-0.189	-0.129
-404.267	-200.000	0.046	0.221
-403.252	38.395	-0.168	-0.151
-402.238	-19.603	-0.237	-0.148
-401.223	-200.000	0.004	-0.185
-400.209	800.000	0.080	-0.299
-399.194	-166.934	0.270	-0.011
-398.179	-60.644	0.294	0.126
-397.165	7.026	-0.153	0.115
-396.150	-107.751	-0.105	-0.023
-395.136	-200.000	-0.034	-0.152
-394.121	800.000	0.026	0.109
-393.106	618.461	-0.055	-0.140
-392.092	800.000	0.072	-0.206
-391.077	-200.000	0.050	-0.252
-390.063	-200.000	-0.003	-0.078
-389.048	110.894	-0.156	-0.190
-388.033	-90.033	0.162	-0.048
-387.019	99.969	-0.146	0.170
-386.004	800.000	-0.056	0.164
-384.990	-200.000	-0.026	0.202
-383.975	-39.324	-0.236	0.125
-382.960	800.000	0.093	0.299
-381.946	800.000	-0.029	-0.099
-380.931	275.605	0.113	-0.202
-379.917	-6.975	0.246	0.169
-378.902	112.031	-0.305	-0.371
-377.888	-200.000	-0.032	-0.156
-376.873	8.425	-0.322	-0.244
-375.858	800.000	0.027	0.083
-374.844	201.781	0.072	0.111
-373.829	99.099	0.125	0.145
-372.815	-200.000	-0.057	-0.371
-371.800	56.102	0.203	-0.198
-370.785	-200.000	0.010	-0.192
-369.771	-74.485	0.112	0.041
-368.756	142.662	0.051	0.068
-367.742	-200.000	-0.041	-0.242
-366.727	-61.830	0.223	-0.094
-365.712	130.204	0.107	0.138
-364.698	6.042	0.290	0.217
-363.683	45.222	-0.218	-0.202
-362.669	-60.177	-0.043	-0.018
-361.654	-13.188	0.045	-0.030
-360.639	245.017	0.122	-0.207
-359.625	-200.000	0.013	0.076
-358.610	632.729	-0.068	-0.174
-357.596	-200.000	-0.003	0.308
-356.581	800.000	-0.072	0.260
-355.566	-123.274	0.412	0.066
-354.552	-32.181	-0.256	-0.144
-353.537	-141.762	0.139	0.014
-352.523	-200.000	-0.011	0.075
-351.508	497.214	-0.011	-0.026
-350.493	566.709	-0.106	-0.260
-349.479	49.970	0.156	-0.148
-348.464	800.000	-0.031	-0.131
-347.450	-200.000	0.002	-0.126
-346.435	537.299	0.070	-0.167
-345.420	787.407	-0.066	0.182
-344.406	175.747	0.216	0.316
-343.391	73.482	-0.055	0.058
-342.377	-45.034	-0.224	-0.112
-341.362	150.070	0.030	-0.041
-340.348	800.000	-0.041	0.142
-339.333	369.418	0.026	-0.052
-338.318	442.297	-0.139	0.305
-337.304	17.977	-0.226	0.181
-336.289	113.116	-0.048	0.059
-335.275	140.339	0.106	0.141
-334.260	-87.829	0.047	0.014
-333.245	-45.891	0.360	0.179
-332.231	292.512	-0.071	-0.131
-331.216	8.294	-0.089	-0.067
-330.202	-200.000	-0.019	-0.125
-329.187	-200.000	0.021	-0.190
-328.172	-3.776	-0.099	-0.069
-327.158	-62.924	-0.278	-0.116
-326.143	-7.379	0.104	0.071
-325.129	180.934	-0.105	-0.155
-324.114	-88.735	0.206	0.062
-323.099	-80.761	-0.178	0.060
-322.085	52.731	0.145	0.139
-321.070	-200.000	0.046	-0.209
-320.056	92.470	0.029	0.033
-319.041	-200.000	-0.053	0.360
-318.026	-200.000	-0.049	0.343
-317.012	21.500	0.127	0.104
-315.997	-77.338	-0.168	-0.059
-314.983	-123.142	-0.220	0.036
-313.968	-170.744	-0.285	0.010
-312.953	-195.730	-0.033	-0.000
-311.939	196.366	0.113	-0.173
-310.924	800.000	-0.071	0.267
-309.910	-43.095	0.201	0.103
-308.895	153.727	-0.062	0.085
-307.880	108.988	-0.119	0.143
-306.866	-111.517	0.205	0.042
-305.851	-200.000	0.056	-0.296
-304.837	800.000	-0.007	-0.028
-303.822	51.125	0.241	0.229
-302.807	-83.174	0.245	-0.079
-301.793	-64.145	-0.215	-0.088
-300.778	40.850	0.061	0.055
-299.764	40.024	-0.199	0.180
-298.749	-200.000	0.066	0.441
-297.735	-148.713	-0.331	-0.027
-296.720	-31.116	-0.252	-0.143
-295.705	-115.294	0.359	-0.068
-294.691	244.962	-0.157	-0.265
-293.676	-104.354	0.179	-0.042
-292.662	158.970	-0.152	0.213
-291.647	-9.052	0.316	0.212
-290.632	800.000	0.023	-0.099
-289.618	-20.052	0.142	0.088
-288.603	-53.977	0.192	0.088
-287.589	159.469	0.177	0.247
-286.574	-48.126	0.215	-0.104
-285.559	108.649	-0.130	0.156
-284.545	0.106	0.158	0.113
-283.530	-68.343	-0.212	-0.083
-282.516	-173.205	-0.181	0.006
-281.501	75.937	-0.087	-0.092
-280.486	-82.936	-0.340	0.110
-279.472	-200.000	0.006	0.312
-278.457	92.560	-0.183	-0.207
-277.443	-61.886	-0.089	-0.038
-276.428	-92.598	0.254	-0.072
-275.413	-69.536	0.268	-0.103
-274.399	-200.000	-0.091	-0.479
-273.384	-62.424	-0.264	0.110
-272.370	96.815	0.137	-0.158
-271.355	111.030	-0.109	-0.132
-270.340	-137.802	0.136	0.015
-269.326	-200.000	0.002	-0.015
-268.311	-200.000	0.018	-0.110
-267.297	475.636	-0.102	-0.232
-266.282	57.606	0.185	-0.181
-265.267	-200.000	-0.007	0.071
-264.253	-126.759	0.180	-0.027
-263.238	525.366	0.060	-0.142
-262.224	133.385	0.184	-0.239
-261.209	-55.125	0.195	-0.088
-260.195	195.858	0.099	-0.151
-259.180	7.994	0.098	-0.074
-258.165	93.473	-0.070	-0.080
-257.151	-200.000	0.001	-0.015
-256.136	-120.619	-0.336	-0.057
-255.122	-14.016	0.244	-0.158
-254.107	-26.587	-0.425	-0.249
-253.092	49.833	0.121	-0.114
-252.078	112.635	0.214	0.260
-251.063	-132.531	-0.474	0.061
-250.049	6.409	-0.190	0.141
-249.034	800.000	0.046	-0.181
-248.019	30.071	-0.048	0.041
-247.005	41.264	0.143	-0.130
-245.990	-28.209	-0.109	-0.063
-244.976	489.587	-0.044	-0.101
-243.961	78.306	-0.318	0.341
-242.946	-200.000	-0.053	0.262
-241.932	-114.293	0.367	-0.071
-240.917	29.031	0.256	0.218
-239.903	417.167	0.076	0.163
-238.888	-73.737	-0.203	0.074
-237.873	181.073	-0.056	0.082
-236.859	-63.907	-0.191	0.078
-235.844	800.000	0.142	0.431
-234.830	800.000	-0.125	0.414
-233.815	-49.067	0.246	0.118
-232.800	18.482	0.102	-0.082
-231.786	-78.959	0.055	0.019
-230.771	-130.464	0.120	-0.016
-229.757	793.029	0.079	-0.217
-228.742	800.000	0.049	0.173
-227.727	-113.845	0.250	0.049
-226.713	-200.000	0.012	-0.058
-225.698	232.473	0.059	0.097
-224.684	-88.156	0.021	0.006
-223.669	-170.173	-0.153	-0.005
-222.655	-68.000	0.263	0.103
-221.640	231.667	-0.140	-0.229
-220.625	-11.664	0.041	-0.027
-219.611	96.337	-0.021	0.025
-218.596	-83.114	-0.288	0.093
-217.582	-30.432	0.135	0.077
-216.567	46.461	-0.069	-0.064
-215.552	391.023	-0.075	-0.156
-214.538	-78.870	0.292	0.100
-213.523	-90.897	-0.034	0.010
-212.509	194.799	-0.088	-0.133
-211.494	70.078	0.142	-0.147
-210.479	-109.215	-0.194	-0.041
-209.465	18.007	-0.249	0.198
-208.450	-200.000	0.000	0.094
-207.436	-94.669	-0.512	0.139
-206.421	-121.126	-0.038	0.006
-205.406	273.795	-0.100	-0.177
-204.392	332.317	-0.121	0.233
-203.377	-87.454	0.074	0.022
-202.363	361.094	-0.129	-0.258
-201.348	-200.000	0.015	-0.256
-200.333	-35.851	-0.113	-0.061
-199.319	73.679	-0.077	-0.081
-198.304	-200.000	0.010	0.173
-197.290	800.000	0.047	-0.169
-196.275	-127.812	-0.216	-0.031
-195.260	-200.000	0.021	0.159
-194.246	239.188	0.243	0.404
-193.231	-152.452	0.175	-0.013
-192.217	-9.094	-0.330	0.221
-191.202	127.614	-0.124	-0.157
-190.187	46.644	0.207	-0.192
-189.173	-78.184	-0.404	-0.139
-188.158	-113.275	0.130	0.026
-187.144	118.505	-0.157	-0.194
-186.129	-25.087	0.187	0.111
-185.114	-158.374	0.196	-0.011
-184.100	-74.620	0.324	0.117
-183.085	800.000	-0.037	0.148
-182.071	800.000	0.070	0.208
-181.056	-33.123	0.188	0.104
-180.042	-200.000	0.031	-0.152
-179.027	-121.572	0.262	-0.043
-178.012	86.790	0.250	-0.276
-176.998	800.000	0.134	-0.398
-175.983	4.488	0.086	-0.063
-174.969	-115.707	-0.060	0.011
-173.954	-19.349	0.271	-0.168
-172.939	247.230	-0.081	-0.137
-171.925	-199.695	-0.280	0.001
-170.910	409.135	-0.094	0.198
-169.896	90.385	-0.142	0.159
-168.881	37.158	0.180	0.159
-167.866	800.000	-0.058	0.186
-166.852	-200.000	-0.036	-0.189
-165.837	-74.130	0.402	0.146
-164.823	730.471	0.082	-0.219
-163.808	-123.587	0.224	-0.035
-162.793	-200.000	-0.025	-0.146
-161.779	-200.000	0.011	0.101
-160.764	-147.378	0.293	0.025
-159.750	-98.328	0.106	-0.027
-158.735	-86.815	-0.227	-0.069
-157.720	-200.000	0.090	-0.404
-156.706	-63.032	-0.130	0.053
-155.691	-110.323	0.095	-0.020
-154.677	-200.000	0.067	0.551
-153.662	800.000	-0.038	-0.135
-152.647	333.853	-0.025	-0.047
-151.633	-200.000	0.028	-0.197
-150.618	-23.080	0.074	-0.045
-149.604	-51.362	0.289	-0.135
-148.589	-200.000	-0.078	-0.470
-147.574	103.722	0.304	-0.357
-146.560	-200.000	0.017	-0.079
-145.545	127.769	-0.128	0.162
-144.531	-200.000	0.017	-0.105
-143.516	191.344	0.049	0.073
-142.502	50.618	-0.244	-0.231
-141.487	800.000	-0.073	-0.238
-140.472	-29.866	0.244	0.139
-139.458	-65.770	-0.084	-0.034
-138.443	55.021	0.096	-0.092
-137.429	-106.043	-0.097	-0.022
-136.414	-47.401	0.233	-0.113
-135.399	-87.176	-0.364	0.111
-134.385	-200.000	-0.024	0.166
-133.370	-91.868	0.066	0.019
-132.356	1.036	-0.241	0.172
-131.341	50.115	0.108	0.102
-130.326	-200.000	0.009	-0.208
-129.312	153.916	-0.093	-0.128
-128.297	-17.051	-0.100	0.063
-127.283	-79.224	-0.288	0.098
-126.268	-160.248	0.084	0.005
-125.253	-99.240	-0.236	-0.059
-124.239	-200.000	0.035	0.287
-123.224	30.864	0.355	0.303
-122.210	34.702	0.222	-0.193
-121.195	220.528	0.121	0.194
