DTS Sentinel unit serial number:	SN413079Multiplexer serial number:	ORYXHardware model number:	OX4-SRSoftware version number:	ORYX F/W v4.00 Oryx Data Collector v3.7.2.0data status	okinstallation	princeton_trtdifferential loss correction	single-endedforward channel	channel 4reverse channel	N/Adate	2019/09/14time	14:09:35forward acquisition time	60.00reverse acquisition time	0.00gamma	496.2192k internal	0.2289k external	0.2289temperature offset calibration	1.0149default loss term (dB/km)	0.3790temperature slope calibration	1.0000multiplexer offset coefficient	1.0000multiplexer slope coefficient	1.0000fibre end	0.00T internal ref (°C)	38.39T ext. ref 1 (°C)	5.06T ext. ref 2 (°C)	37.21length (m)	temperature (°C)	Stokes	anti-Stokes-747.200	-21.496	-0.059	-0.037
-746.185	-200.000	-0.054	0.252
-745.171	-89.266	0.167	-0.050
-744.156	-27.258	0.357	0.213
-743.142	-90.106	0.195	0.058
-742.127	-143.049	-0.300	0.030
-741.112	-62.426	0.153	-0.065
-740.098	12.593	-0.260	0.206
-739.083	800.000	0.070	0.276
-738.069	800.000	-0.021	0.064
-737.054	800.000	0.037	-0.124
-736.039	-200.000	0.013	-0.322
-735.025	-149.228	0.119	0.010
-734.010	-126.279	-0.163	0.025
-732.996	-53.399	0.146	0.069
-731.981	-200.000	-0.012	0.067
-730.966	-200.000	0.089	-0.534
-729.952	-152.835	0.251	-0.018
-728.937	-91.114	0.169	0.050
-727.923	96.158	-0.081	-0.095
-726.908	-181.371	-0.159	-0.003
-725.894	-31.092	0.102	-0.059
-724.879	92.888	0.171	-0.197
-723.864	-181.285	-0.133	0.003
-722.850	-48.160	-0.346	-0.171
-721.835	-85.206	-0.242	0.078
-720.821	313.441	0.170	-0.327
-719.806	92.330	-0.097	0.112
-718.791	116.837	-0.101	-0.126
-717.777	35.290	-0.150	-0.135
-716.762	-194.459	-0.316	0.003
-715.748	365.960	0.006	0.013
-714.733	-131.938	-0.089	0.012
-713.718	-106.167	0.137	-0.031
-712.704	-6.501	0.183	0.128
-711.689	251.874	-0.019	-0.033
-710.675	800.000	0.137	0.404
-709.660	-200.000	0.028	-0.274
-708.645	204.940	0.149	-0.237
-707.631	-162.952	0.221	-0.011
-706.616	81.742	0.199	-0.220
-705.602	379.363	-0.072	-0.150
-704.587	-64.353	-0.020	-0.008
-703.572	82.029	0.123	-0.137
-702.558	-43.666	-0.129	0.067
-701.543	-200.000	0.011	-0.378
-700.529	-3.290	-0.139	-0.099
-699.514	-137.119	-0.364	0.042
-698.499	15.239	-0.364	-0.292
-697.485	-32.977	-0.259	-0.147
-696.470	78.146	-0.140	0.152
-695.456	-200.000	-0.024	-0.173
-694.441	154.399	0.170	-0.239
-693.426	-29.357	0.149	0.087
-692.412	166.409	0.198	-0.286
-691.397	-200.000	-0.035	0.210
-690.383	24.273	0.114	0.096
-689.368	64.850	0.163	-0.168
-688.354	-123.528	0.413	0.067
-687.339	-200.000	-0.016	-0.143
-686.324	29.612	-0.176	0.153
-685.310	-187.262	0.044	0.001
-684.295	-11.353	0.097	-0.065
-683.281	309.238	0.163	-0.312
-682.266	57.744	0.091	0.091
-681.251	-9.700	-0.135	-0.092
-680.237	-182.839	0.166	-0.003
-679.222	-104.447	-0.125	-0.030
-678.208	-200.000	-0.001	-0.391
-677.193	457.713	-0.080	-0.182
-676.178	-200.000	0.007	0.210
-675.164	261.590	0.100	-0.178
-674.149	70.308	-0.175	0.185
-673.135	287.754	-0.133	-0.246
-672.120	-200.000	-0.049	-0.300
-671.105	-200.000	0.056	0.287
-670.091	-200.000	0.017	-0.203
-669.076	-117.578	0.173	-0.032
-668.062	788.832	-0.060	0.169
-667.047	17.955	0.161	-0.131
-666.032	414.431	0.107	-0.233
-665.018	-200.000	0.003	-0.406
-664.003	83.654	0.086	-0.096
-662.989	271.813	-0.076	-0.136
-661.974	-52.173	0.132	-0.062
-660.959	125.433	-0.173	0.223
-659.945	-88.627	0.154	0.047
-658.930	-200.000	0.016	0.078
-657.916	-88.160	0.227	-0.069
-656.901	-16.364	0.300	-0.194
-655.886	-200.000	0.026	-0.159
-654.872	470.760	-0.082	0.188
-653.857	79.903	-0.147	-0.161
-652.843	-133.655	0.272	0.035
-651.828	-86.148	-0.330	-0.104
-650.814	-111.313	-0.228	0.047
-649.799	-31.457	-0.373	-0.214
-648.784	-173.715	-0.142	0.004
-647.770	-135.870	-0.126	-0.015
-646.755	800.000	0.071	0.199
-645.741	136.116	0.138	0.183
-644.726	274.614	0.052	0.094
-643.711	126.498	-0.038	0.049
-642.697	14.497	0.128	-0.102
-641.682	-200.000	0.205	0.000
-640.668	163.207	-0.188	0.270
-639.653	55.870	-0.041	-0.041
-638.638	-200.000	-0.023	-0.257
-637.624	-200.000	-0.035	0.266
-636.609	212.168	-0.171	-0.275
-635.595	-63.996	0.237	0.099
-634.580	-153.318	0.298	-0.021
-633.565	-3.442	-0.083	-0.059
-632.551	-14.339	0.076	-0.050
-631.536	-200.000	0.020	-0.224
-630.522	114.786	-0.052	0.064
-629.507	-99.163	-0.309	-0.080
-628.492	-175.608	-0.296	0.008
-627.478	254.545	-0.033	0.057
-626.463	-200.000	0.026	0.135
-625.449	-200.000	-0.028	-0.231
-624.434	800.000	0.062	0.214
-623.419	325.731	0.066	-0.129
-622.405	-48.584	-0.312	-0.153
-621.390	800.000	0.056	-0.166
-620.376	-200.000	-0.025	-0.116
-619.361	-83.549	0.182	0.059
-618.346	800.000	0.011	-0.044
-617.332	-200.000	0.034	0.161
-616.317	174.222	-0.054	-0.079
-615.303	800.000	0.140	-0.458
-614.288	5.639	-0.246	-0.186
-613.273	-200.000	0.002	-0.151
-612.259	152.984	-0.095	0.133
-611.244	800.000	0.078	0.275
-610.230	181.858	0.164	-0.246
-609.215	-95.699	0.259	-0.071
-608.201	14.825	0.142	0.114
-607.186	291.727	-0.095	0.176
-606.171	-184.668	0.199	-0.003
-605.157	-200.000	-0.034	-0.159
-604.142	209.335	0.078	0.125
-603.128	451.110	-0.025	-0.056
-602.113	-72.715	0.332	-0.125
-601.098	132.824	-0.161	0.212
-600.084	-77.995	0.253	-0.089
-599.069	6.992	-0.070	-0.053
-598.055	76.412	0.153	-0.166
-597.040	-29.251	0.476	-0.278
-596.025	55.686	-0.245	0.242
-595.011	-200.000	0.034	-0.188
-593.996	58.268	0.314	-0.314
-592.982	-41.824	0.249	0.130
-591.967	-32.888	-0.197	0.111
-590.952	23.740	-0.097	-0.081
-589.938	453.829	0.203	0.457
-588.923	317.919	0.116	0.224
-587.909	-149.765	0.039	-0.003
-586.894	15.710	0.016	-0.013
-585.879	-93.492	0.059	-0.017
-584.865	165.453	0.206	0.296
-583.850	112.781	0.028	-0.035
-582.836	70.050	0.285	-0.300
-581.821	-200.000	0.003	0.039
-580.806	33.198	-0.254	0.224
-579.792	-115.069	0.227	0.044
-578.777	50.582	0.206	0.199
-577.763	-59.775	-0.099	-0.043
-576.748	-36.769	0.140	0.077
-575.733	-7.821	-0.461	0.317
-574.719	-59.158	0.256	-0.113
-573.704	-200.000	0.002	0.038
-572.690	47.439	-0.173	-0.164
-571.675	-158.662	-0.178	0.010
-570.661	800.000	-0.056	0.176
-569.646	800.000	0.042	-0.149
-568.631	-15.892	0.222	0.144
-567.617	-123.116	-0.122	-0.020
-566.602	-89.790	-0.126	-0.038
-565.588	-145.735	0.294	-0.027
-564.573	-109.473	0.258	0.055
-563.558	-144.981	0.454	0.042
-562.544	-200.000	0.002	-0.046
-561.529	87.803	-0.102	0.115
-560.515	800.000	0.076	-0.229
-559.500	-40.660	-0.450	-0.238
-558.485	-130.082	0.417	0.058
-557.471	81.831	0.150	-0.165
-556.456	75.328	-0.185	0.198
-555.442	26.269	-0.102	0.087
-554.427	119.935	0.303	-0.382
-553.412	764.347	0.064	-0.178
-552.398	800.000	0.109	-0.339
-551.383	-91.579	0.032	0.009
-550.369	27.612	-0.295	0.253
-549.354	-200.000	0.030	-0.155
-548.339	-200.000	-0.009	-0.085
-547.325	266.178	-0.095	-0.169
-546.310	-200.000	-0.004	-0.099
-545.296	220.256	0.063	-0.103
-544.281	319.125	0.095	-0.184
-543.266	800.000	-0.057	-0.192
-542.252	-120.238	0.280	0.049
-541.237	-45.604	0.152	0.077
-540.223	-138.296	0.329	0.037
-539.208	-174.109	0.190	0.006
-538.193	-200.000	0.029	0.205
-537.179	-22.912	0.185	-0.113
-536.164	-121.819	-0.227	-0.038
-535.150	117.154	-0.121	0.152
-534.135	-70.966	-0.063	-0.024
-533.121	-32.193	0.224	-0.127
-532.106	105.389	-0.121	0.146
-531.091	365.068	-0.130	0.265
-530.077	-169.705	-0.188	-0.007
-529.062	207.838	-0.061	-0.097
-528.048	-43.982	-0.411	0.210
-527.033	635.796	-0.104	0.267
-526.018	-166.243	-0.164	0.007
-525.004	-134.241	0.254	-0.032
-523.989	-21.571	-0.118	0.073
-522.975	230.693	0.041	-0.069
-521.960	120.222	0.112	-0.141
-520.945	-52.492	-0.245	0.115
-519.931	-105.507	0.231	-0.053
-518.916	68.497	-0.321	0.335
-517.902	50.441	0.154	0.148
-516.887	-22.630	-0.217	0.133
-515.872	-175.852	0.260	-0.007
-514.858	800.000	-0.064	-0.261
-513.843	-200.000	0.009	-0.125
-512.829	372.677	-0.108	0.223
-511.814	83.784	-0.247	0.274
-510.799	189.554	0.107	0.162
-509.785	-41.313	-0.139	-0.073
-508.770	-7.036	0.107	0.074
-507.756	235.226	-0.180	-0.301
-506.741	712.425	0.035	-0.094
-505.726	110.015	-0.201	0.244
-504.712	-92.229	0.183	-0.053
-503.697	-104.528	-0.260	0.061
-502.683	-25.700	-0.203	0.122
-501.668	-75.325	0.398	-0.144
-500.653	-151.338	-0.341	0.026
-499.639	800.000	-0.021	-0.086
-498.624	-200.000	-0.042	-0.211
-497.610	-153.523	0.350	0.025
-496.595	800.000	-0.156	-0.506
-495.581	-76.950	-0.038	-0.013
-494.566	319.578	0.108	-0.207
-493.551	-0.482	0.065	-0.047
-492.537	800.000	-0.049	0.159
-491.522	153.634	-0.142	-0.198
-490.508	-47.588	0.209	-0.103
-489.493	-104.056	0.088	-0.021
-488.478	-41.388	0.071	0.037
-487.464	-43.149	-0.178	0.092
-486.449	-1.334	-0.209	-0.150
-485.435	800.000	-0.092	0.272
-484.420	-129.506	-0.096	-0.013
-483.405	-24.980	-0.041	-0.025
-482.391	147.380	0.061	0.083
-481.376	800.000	0.088	-0.337
-480.362	-126.000	-0.401	0.061
-479.347	28.677	-0.176	-0.151
-478.332	-98.494	-0.048	0.012
-477.318	-200.000	-0.020	-0.142
-476.303	34.237	-0.076	0.067
-475.289	-200.000	-0.024	0.226
-474.274	800.000	-0.082	-0.307
-473.259	-103.466	0.176	-0.042
-472.245	800.000	0.009	-0.030
-471.230	-110.451	0.167	0.035
-470.216	106.008	-0.210	-0.251
-469.201	-200.000	0.003	0.208
-468.186	-124.280	0.332	0.053
-467.172	-71.130	0.299	0.114
-466.157	381.044	-0.101	0.209
-465.143	199.018	0.110	-0.171
-464.128	48.852	-0.143	0.136
-463.113	-119.908	0.275	0.048
-462.099	800.000	0.101	-0.320
-461.084	-83.160	-0.045	-0.015
-460.070	26.359	0.451	0.382
-459.055	246.172	-0.282	0.482
-458.040	167.342	-0.109	-0.157
-457.026	-200.000	-0.064	-0.316
-456.011	-27.314	0.037	0.022
-454.997	-200.000	0.038	0.329
-453.982	-88.043	-0.137	-0.042
-452.968	-124.368	-0.106	0.017
-451.953	-112.615	-0.268	0.054
-450.938	125.988	-0.198	-0.254
-449.924	-200.000	-0.020	0.118
-448.909	-15.077	0.164	0.106
-447.895	-3.856	0.157	-0.111
-446.880	-93.869	0.294	-0.082
-445.865	-39.899	-0.218	-0.115
-444.851	163.837	0.106	-0.152
-443.836	-200.000	0.015	-0.268
-442.822	-67.992	-0.447	-0.177
-441.807	-12.357	-0.220	0.146
-440.792	-110.361	0.275	-0.058
-439.778	-8.910	0.315	0.214
-438.763	412.621	0.174	0.375
-437.749	-74.838	-0.256	-0.093
-436.734	64.509	-0.081	-0.082
-435.719	-50.120	-0.193	-0.093
-434.705	-200.000	0.021	-0.168
-433.690	-22.118	-0.280	0.172
-432.676	4.698	-0.222	0.165
-431.661	-95.266	0.161	0.044
-430.646	-103.783	0.295	-0.070
-429.632	800.000	0.051	-0.174
-428.617	-23.510	0.355	-0.216
-427.603	-87.670	-0.193	-0.059
-426.588	-154.922	-0.161	0.011
-425.573	288.767	-0.137	0.251
-424.559	0.875	0.325	0.236
-423.544	-200.000	0.029	-0.140
-422.530	-147.627	0.224	-0.019
-421.515	-138.555	0.155	-0.017
-420.500	-42.765	-0.121	0.062
-419.486	800.000	0.040	0.156
-418.471	-65.587	-0.142	0.058
-417.457	800.000	-0.017	0.061
-416.442	800.000	0.098	0.276
-415.428	152.055	0.047	0.065
-414.413	800.000	-0.078	-0.221
-413.398	800.000	0.020	0.086
-412.384	-151.349	-0.123	0.009
-411.369	-87.427	0.150	-0.046
-410.355	-200.000	0.010	-0.259
-409.340	71.936	0.098	0.103
-408.325	-37.016	0.040	0.021
-407.311	125.211	-0.234	0.299
-406.296	-166.093	0.274	0.012
-405.282	-175.575	0.070	-0.002
-404.267	-15.593	-0.209	0.135
-403.252	-200.000	0.001	-0.315
-402.238	21.237	-0.047	0.039
-401.223	800.000	-0.047	-0.183
-400.209	-200.000	-0.000	-0.155
-399.194	-161.483	-0.419	-0.022
-398.179	24.320	-0.240	-0.200
-397.165	373.569	-0.156	-0.320
-396.150	-97.235	0.469	-0.124
-395.136	736.020	-0.115	0.310
-394.121	-22.001	0.267	0.164
-393.106	151.621	0.263	0.363
-392.092	-103.721	-0.178	0.042
-391.077	-74.728	0.167	-0.061
-390.063	-48.794	0.210	0.102
-389.048	-13.416	0.230	-0.151
-388.033	-79.493	-0.105	-0.036
-387.019	759.775	-0.020	-0.055
-386.004	637.324	0.046	0.119
-384.990	-105.123	-0.049	0.011
-383.975	712.738	-0.098	0.261
-382.960	-62.229	-0.137	0.058
-381.946	-96.965	0.103	0.027
-380.931	-21.580	0.247	0.152
-379.917	-177.883	-0.254	0.006
-378.902	-200.000	-0.011	0.237
-377.888	67.907	0.031	-0.032
-376.873	-88.273	0.129	-0.039
-375.858	770.153	0.054	-0.149
-374.844	-65.478	0.245	-0.099
-373.829	800.000	0.028	-0.089
-372.815	-7.305	0.193	0.132
-371.800	-107.529	0.314	0.069
-370.785	188.112	-0.114	-0.172
-369.771	800.000	-0.034	0.099
-368.756	22.985	-0.132	0.109
-367.742	482.197	-0.069	-0.158
-366.727	-48.081	0.083	0.040
-365.712	42.084	0.126	-0.116
-364.698	568.678	-0.126	-0.309
-363.683	-200.000	-0.018	-0.357
-362.669	-116.652	0.346	0.064
-361.654	718.612	-0.058	0.156
-360.639	67.977	0.124	-0.128
-359.625	800.000	-0.060	-0.255
-358.610	71.057	-0.166	-0.173
-357.596	38.275	-0.207	-0.186
-356.581	-33.429	0.113	-0.063
-355.566	-3.628	-0.140	0.098
-354.552	-125.908	-0.106	-0.016
-353.537	-200.000	-0.060	0.277
-352.523	637.945	0.113	-0.289
-351.508	368.767	-0.125	0.255
-350.493	370.454	0.144	0.295
-349.479	778.826	-0.044	0.122
-348.464	46.376	0.179	0.167
-347.450	-200.000	-0.042	0.197
-346.435	294.208	0.081	0.149
-345.420	-123.489	0.196	0.032
-344.406	96.057	-0.078	0.090
-343.391	-21.121	-0.152	-0.094
-342.377	-200.000	0.003	-0.166
-341.362	88.785	0.052	0.059
-340.348	-116.851	0.292	0.054
-339.333	92.308	-0.231	0.263
-338.318	10.781	0.145	0.112
-337.304	800.000	-0.030	0.129
-336.289	-54.578	0.131	-0.060
-335.275	-200.000	-0.022	-0.157
-334.260	23.225	-0.170	0.141
-333.245	-200.000	-0.041	0.376
-332.231	-13.735	-0.074	0.049
-331.216	800.000	-0.047	0.185
-330.202	-200.000	-0.017	-0.248
-329.187	-191.971	-0.174	0.002
-328.172	408.924	-0.087	-0.185
-327.158	0.225	0.118	0.085
-326.143	800.000	0.042	-0.118
-325.129	-8.187	-0.190	-0.129
-324.114	384.474	0.080	-0.167
-323.099	-134.660	-0.140	-0.017
-322.085	-45.084	0.082	0.041
-321.070	194.830	-0.120	-0.184
-320.056	-28.443	0.241	-0.140
-319.041	146.868	0.126	0.170
-318.026	88.847	0.119	-0.134
-317.012	-9.288	-0.058	-0.039
-315.997	-34.186	-0.157	-0.087
-314.983	89.917	0.138	0.155
-313.968	-41.350	-0.329	-0.171
-312.953	-20.926	-0.153	-0.095
-311.939	-200.000	0.025	-0.149
-310.924	-200.000	-0.049	-0.342
-309.910	156.219	0.075	-0.105
-308.895	332.881	-0.198	0.385
-307.880	26.126	-0.225	-0.189
-306.866	-97.891	-0.300	-0.078
-305.851	273.970	0.078	-0.139
-304.837	-200.000	-0.011	-0.388
-303.822	800.000	0.005	-0.020
-302.807	50.118	-0.090	-0.086
-301.793	137.234	-0.050	-0.066
-300.778	800.000	-0.063	-0.226
-299.764	4.479	-0.394	-0.291
-298.749	-15.799	0.008	0.005
-297.735	80.334	-0.035	-0.038
-296.720	34.966	-0.056	0.050
-295.705	551.371	0.137	-0.331
-294.691	181.376	-0.058	-0.086
-293.676	384.154	0.054	-0.111
-292.662	-86.215	-0.529	-0.164
-291.647	531.052	-0.148	0.353
-290.632	128.859	0.158	0.203
-289.618	-200.000	-0.035	0.193
-288.603	418.907	0.068	0.147
-287.589	800.000	0.042	0.167
-286.574	-58.517	0.252	0.110
-285.559	-176.281	-0.282	-0.007
-284.545	-200.000	-0.061	0.332
-283.530	232.903	-0.140	0.231
-282.516	-163.247	0.355	0.017
-281.501	-75.055	-0.142	0.051
-280.486	-69.326	-0.239	0.093
-279.472	241.093	0.154	0.258
-278.457	-77.040	-0.115	-0.040
-277.443	800.000	-0.086	0.326
-276.428	48.111	0.236	-0.222
-275.413	800.000	-0.112	-0.387
-274.399	132.189	-0.191	0.248
-273.384	227.681	0.075	-0.123
-272.370	37.939	0.077	-0.069
-271.355	-143.141	0.353	-0.034
-270.340	-200.000	-0.009	-0.191
-269.326	161.944	0.019	0.027
-268.311	25.700	0.213	0.178
-267.297	88.957	0.234	0.262
-266.282	800.000	-0.077	-0.237
-265.267	-43.181	-0.301	0.153
-264.253	-20.773	-0.300	-0.185
-263.238	-89.731	0.250	0.074
-262.224	178.193	-0.053	0.078
-261.209	800.000	-0.015	-0.046
-260.195	-55.589	0.107	-0.048
-259.180	26.114	-0.334	-0.281
-258.165	-99.640	0.234	-0.059
-257.151	-62.740	0.129	0.054
-256.136	-200.000	-0.007	-0.108
-255.122	-93.886	-0.190	0.053
-254.107	74.759	0.156	0.165
-253.092	143.281	-0.219	0.294
-252.078	-200.000	0.016	0.074
-251.063	1.738	0.292	0.211
-250.049	-81.986	-0.194	0.064
-249.034	-104.373	-0.361	-0.084
-248.019	-130.654	-0.247	-0.033
-247.005	-59.190	0.242	0.105
-245.990	-200.000	-0.047	0.422
-244.976	-200.000	-0.023	-0.293
-243.961	105.586	-0.042	0.050
-242.946	-192.498	-0.207	0.002
-241.932	-32.525	0.339	-0.190
-240.917	-32.546	0.153	-0.086
-239.903	764.916	0.130	-0.355
-238.888	473.179	0.114	0.258
-237.873	-200.000	-0.013	-0.134
-236.859	66.412	0.195	0.199
-235.844	-21.236	0.266	-0.163
-234.830	-179.416	-0.309	0.007
-233.815	-38.666	-0.176	-0.093
-232.800	800.000	0.077	0.309
-231.786	800.000	0.094	-0.348
-230.771	-175.363	0.340	0.009
-229.757	-80.028	-0.342	-0.115
-228.742	-200.000	0.015	-0.090
-227.727	-74.900	-0.366	0.132
-226.713	-129.137	0.125	0.018
-225.698	50.617	0.188	-0.178
-224.684	-141.283	0.251	0.026
-223.669	-96.989	0.182	0.048
-222.655	49.952	0.181	0.172
-221.640	-119.830	0.271	0.047
-220.625	800.000	0.022	0.072
-219.611	64.098	-0.075	0.075
-218.596	-68.201	0.254	0.099
-217.582	-54.275	-0.518	0.236
-216.567	-123.894	0.378	0.060
-215.552	77.900	-0.102	0.109
-214.538	-103.477	0.081	0.019
-213.523	28.708	-0.036	0.030
-212.509	289.348	-0.157	0.286
-211.494	224.386	0.079	0.128
-210.479	-104.076	0.084	-0.020
-209.465	-53.203	-0.131	-0.060
-208.450	-18.174	-0.285	-0.179
-207.436	-200.000	-0.009	0.121
-206.421	-108.756	-0.070	-0.015
-205.406	-200.000	-0.060	-0.317
-204.392	-73.191	-0.063	0.023
-203.377	-35.046	-0.102	0.056
-202.363	-200.000	0.029	0.147
-201.348	365.471	0.073	0.147
-200.333	727.158	0.066	0.175
-199.319	772.603	0.059	0.163
-198.304	486.483	-0.032	0.074
-197.290	55.046	-0.253	0.245
-196.275	-200.000	-0.003	0.078
-195.260	393.162	-0.088	0.184
-194.246	-5.157	0.213	0.147
-193.231	-24.219	0.173	-0.103
-192.217	80.099	-0.084	-0.091
-191.202	76.773	-0.091	-0.096
-190.187	-200.000	0.054	-0.296
-189.173	-156.036	-0.050	-0.003
-188.158	-25.545	-0.157	-0.093
-187.144	-73.666	0.087	-0.032
-186.129	-124.151	0.420	-0.066
-185.114	32.452	0.157	-0.136
-184.100	800.000	-0.086	0.242
-183.085	-176.310	-0.463	-0.012
-182.071	115.745	-0.359	-0.441
-181.056	363.086	0.213	-0.429
-180.042	-68.275	0.260	0.101
-179.027	4.756	-0.105	-0.077
-178.012	507.206	-0.077	-0.178
-176.998	800.000	-0.052	-0.151
-175.983	105.824	-0.110	-0.130
-174.969	51.615	-0.242	0.230
-173.954	195.255	-0.251	0.382
-172.939	-200.000	-0.019	0.187
-171.925	-91.992	0.309	-0.088
-170.910	800.000	-0.051	0.171
-169.896	-122.439	0.190	-0.031
-168.881	-47.429	0.142	-0.069
-167.866	-135.793	-0.214	0.025
-166.852	121.697	-0.062	0.077
-165.837	404.570	-0.160	0.338
-164.823	-156.064	-0.310	0.020
-163.808	-10.326	-0.128	-0.085
-162.793	421.105	0.162	-0.348
-161.779	-65.204	-0.283	0.114
-160.764	-200.000	-0.020	0.389
-159.750	-73.213	0.257	-0.094
-158.735	-52.491	0.005	-0.002
-157.720	-151.152	-0.340	0.026
-156.706	208.423	0.048	-0.075
-155.691	-55.117	0.306	0.138
-154.677	-200.000	0.088	0.435
-153.662	22.921	0.035	-0.029
-152.647	147.018	-0.129	-0.174
-151.633	596.466	-0.079	-0.196
-150.618	800.000	-0.049	-0.204
-149.604	800.000	0.044	0.124
-148.589	-69.775	-0.301	0.115
-147.574	-123.716	0.130	-0.021
-146.560	3.611	0.119	-0.087
-145.545	485.305	0.052	-0.118
-144.531	163.260	0.029	-0.041
-143.516	714.303	-0.119	-0.315
-142.502	199.818	-0.173	-0.266
-141.487	94.768	-0.104	-0.118
-140.472	-85.320	-0.143	-0.045
-139.458	114.021	-0.243	-0.296
-138.443	17.907	-0.175	-0.139
-137.429	-200.000	-0.001	0.075
-136.414	800.000	-0.053	0.232
-135.399	-11.924	0.256	0.168
-134.385	800.000	0.056	0.178
-133.370	108.743	0.222	0.265
-132.356	496.655	-0.112	0.258
-131.341	1.984	-0.246	-0.177
-130.326	-60.004	-0.304	0.130
-129.312	-200.000	0.029	0.183
-128.297	-192.747	0.447	-0.004
-127.283	117.026	-0.176	-0.216
-126.268	-23.857	-0.160	-0.096
-125.253	-49.337	0.206	-0.098
-124.239	341.654	-0.064	0.125
-123.224	-32.447	0.384	-0.214
-122.210	104.524	0.142	0.167
-121.195	-89.303	0.392	-0.116
