DTS Sentinel unit serial number:	SN413079Multiplexer serial number:	ORYXHardware model number:	OX4-SRSoftware version number:	ORYX F/W v4.00 Oryx Data Collector v3.7.2.0data status	okinstallation	princeton_trtdifferential loss correction	single-endedforward channel	channel 4reverse channel	N/Adate	2019/09/17time	02:13:35forward acquisition time	60.00reverse acquisition time	0.00gamma	496.2192k internal	0.2312k external	0.2312temperature offset calibration	0.9974default loss term (dB/km)	0.3790temperature slope calibration	1.0000multiplexer offset coefficient	1.0000multiplexer slope coefficient	1.0000fibre end	0.00T internal ref (°C)	29.72T ext. ref 1 (°C)	0.12T ext. ref 2 (°C)	24.65length (m)	temperature (°C)	Stokes	anti-Stokes-747.200	105.766	0.220	-0.264
-746.185	-200.000	-0.114	0.639
-745.171	-26.239	0.076	0.045
-744.156	631.082	-0.090	-0.230
-743.142	-144.747	0.201	-0.019
-742.127	-122.790	-0.233	0.038
-741.112	-200.000	0.027	-0.159
-740.098	-98.669	-0.244	0.063
-739.083	-15.459	0.199	0.129
-738.069	800.000	0.085	0.253
-737.054	108.034	0.161	-0.194
-736.039	-200.000	-0.008	-0.271
-735.025	-17.399	0.141	0.090
-734.010	-200.000	-0.004	-0.195
-732.996	372.946	-0.027	-0.055
-731.981	-145.902	0.005	-0.000
-730.966	541.081	-0.135	-0.326
-729.952	168.015	-0.226	-0.326
-728.937	-37.961	0.089	-0.048
-727.923	-108.282	0.269	0.059
-726.908	-39.333	-0.211	-0.112
-725.894	800.000	-0.063	0.198
-724.879	-34.952	0.218	-0.121
-723.864	-200.000	-0.010	-0.157
-722.850	51.476	-0.198	0.191
-721.835	287.878	0.069	-0.127
-720.821	-132.114	0.173	-0.023
-719.806	-29.518	-0.251	-0.146
-718.791	167.014	0.106	0.153
-717.777	-200.000	0.010	-0.522
-716.762	800.000	-0.030	0.093
-715.748	-200.000	0.007	0.056
-714.733	-200.000	-0.018	0.120
-713.718	-188.805	-0.143	-0.002
-712.704	-143.959	0.087	0.008
-711.689	225.709	0.032	0.052
-710.675	-200.000	0.018	-0.394
-709.660	-200.000	-0.010	-0.086
-708.645	-92.505	0.142	-0.040
-707.631	-98.300	0.024	0.006
-706.616	525.031	-0.086	0.204
-705.602	90.491	-0.077	0.088
-704.587	-200.000	0.048	-0.290
-703.572	-123.608	-0.177	-0.028
-702.558	-200.000	0.003	-0.085
-701.543	-123.630	0.175	0.028
-700.529	147.410	0.061	-0.083
-699.514	-183.327	0.151	0.003
-698.499	-80.894	-0.262	0.088
-697.485	-70.904	0.385	0.147
-696.470	-113.805	0.258	-0.051
-695.456	-115.914	-0.265	0.050
-694.441	94.836	0.192	-0.221
-693.426	-73.815	0.254	0.093
-692.412	-71.092	0.261	0.099
-691.397	-200.000	-0.002	0.040
-690.383	-200.000	-0.040	0.379
-689.368	74.520	-0.244	-0.259
-688.354	-200.000	0.030	0.250
-687.339	800.000	0.091	0.256
-686.324	-113.383	-0.188	0.037
-685.310	800.000	-0.061	-0.250
-684.295	-130.613	0.330	0.045
-683.281	246.229	0.020	-0.034
-682.266	84.233	0.183	0.202
-681.251	-86.267	0.223	0.069
-680.237	-63.755	0.056	-0.023
-679.222	-129.715	0.186	-0.026
-678.208	6.219	0.098	0.074
-677.193	800.000	-0.093	-0.289
-676.178	-80.919	0.267	0.089
-675.164	-76.600	0.149	0.053
-674.149	-200.000	0.026	-0.153
-673.135	800.000	0.112	-0.423
-672.120	800.000	-0.061	-0.180
-671.105	-188.404	-0.093	-0.001
-670.091	-4.598	0.203	0.142
-669.076	-200.000	0.003	0.121
-668.062	-200.000	0.016	0.142
-667.047	-200.000	-0.008	0.221
-666.032	-96.650	0.333	0.089
-665.018	62.778	-0.149	-0.151
-664.003	-105.940	-0.286	-0.065
-662.989	-73.719	-0.051	-0.019
-661.974	800.000	-0.073	-0.227
-660.959	259.808	-0.077	-0.135
-659.945	-141.208	0.151	-0.016
-658.930	-77.016	-0.032	-0.011
-657.916	-162.397	0.337	-0.017
-656.901	543.501	-0.063	-0.152
-655.886	78.039	0.130	0.141
-654.872	409.862	0.057	0.122
-653.857	129.734	0.093	0.120
-652.843	-35.458	-0.187	0.103
-651.828	800.000	0.075	0.232
-650.814	800.000	0.035	0.137
-649.799	-200.000	0.076	-0.366
-648.784	-200.000	-0.048	-0.328
-647.770	-200.000	0.000	-0.157
-646.755	-68.901	-0.479	0.187
-645.741	-200.000	-0.025	-0.287
-644.726	800.000	-0.082	0.272
-643.711	800.000	-0.028	0.102
-642.697	-186.633	-0.384	0.005
-641.682	-85.042	-0.330	-0.104
-640.668	20.709	0.297	0.243
-639.653	-27.718	-0.233	-0.137
-638.638	-34.766	-0.047	0.026
-637.624	-117.253	0.082	0.015
-636.609	35.578	0.177	-0.157
-635.595	-51.480	-0.096	0.045
-634.580	11.890	-0.190	-0.147
-633.565	19.802	0.080	-0.065
-632.551	-19.448	-0.218	-0.137
-631.536	74.797	0.305	-0.325
-630.522	172.840	0.065	-0.094
-629.507	210.072	-0.168	0.266
-628.492	-81.524	0.193	0.064
-627.478	-55.586	-0.310	0.140
-626.463	215.515	0.236	0.379
-625.449	800.000	-0.031	-0.112
-624.434	-40.604	0.209	-0.110
-623.419	-7.988	0.085	0.058
-622.405	-82.289	0.323	0.106
-621.390	41.919	0.145	0.133
-620.376	-141.931	-0.209	-0.021
-619.361	-179.802	-0.170	0.004
-618.346	-95.958	0.315	-0.085
-617.332	-128.138	-0.163	0.024
-616.317	-107.758	0.200	-0.044
-615.303	-110.536	-0.270	0.057
-614.288	-200.000	0.005	0.205
-613.273	-19.094	0.150	0.094
-612.259	-200.000	-0.033	0.293
-611.244	30.273	-0.296	-0.255
-610.230	-163.925	-0.177	0.008
-609.215	800.000	0.098	-0.275
-608.201	-58.656	-0.204	-0.089
-607.186	67.133	-0.232	0.239
-606.171	42.509	0.275	0.252
-605.157	-200.000	0.008	0.081
-604.142	-200.000	-0.029	0.212
-603.128	214.221	-0.116	-0.186
-602.113	-141.993	-0.251	0.025
-601.098	712.797	-0.168	-0.448
-600.084	-11.250	-0.229	0.152
-599.069	-200.000	-0.005	0.097
-598.055	-44.139	0.214	-0.108
-597.040	-30.334	-0.211	0.121
-596.025	93.688	-0.218	-0.249
-595.011	-82.894	-0.315	0.103
-593.996	-37.497	0.271	0.146
-592.982	-91.825	0.146	0.042
-591.967	-93.654	0.116	-0.032
-590.952	18.378	0.276	0.223
-589.938	482.019	-0.084	-0.191
-588.923	46.851	-0.090	0.084
-587.909	-200.000	0.029	0.180
-586.894	-65.412	-0.297	-0.120
-585.879	40.844	-0.201	-0.183
-584.865	-200.000	-0.051	-0.255
-583.850	-200.000	0.038	0.244
-582.836	-90.899	-0.236	-0.068
-581.821	-14.537	0.140	-0.091
-580.806	-200.000	0.012	-0.144
-579.792	-39.467	0.299	0.158
-578.777	87.297	-0.018	-0.020
-577.763	33.131	-0.080	-0.070
-576.748	-144.112	0.091	0.009
-575.733	78.038	-0.067	-0.072
-574.719	-147.002	0.282	-0.024
-573.704	-169.129	0.372	-0.014
-572.690	-40.066	0.080	-0.042
-571.675	-200.000	-0.010	0.045
-570.661	-200.000	0.072	-0.403
-569.646	278.751	-0.058	0.104
-568.631	-79.633	0.262	0.089
-567.617	-39.276	0.131	0.069
-566.602	-79.348	-0.461	0.157
-565.588	677.267	-0.109	0.286
-564.573	-112.008	0.082	0.017
-563.558	133.468	0.210	0.273
-562.544	337.299	-0.190	-0.372
-561.529	10.904	-0.131	-0.101
-560.515	-200.000	-0.017	-0.146
-559.500	174.274	0.229	0.333
-558.485	-18.051	0.314	0.198
-557.471	-164.499	0.126	0.006
-556.456	-72.871	-0.178	-0.066
-555.442	-200.000	-0.031	0.230
-554.427	-65.767	0.526	-0.212
-553.412	-43.710	-0.256	-0.130
-552.398	124.579	-0.090	0.114
-551.383	-108.658	-0.354	0.076
-550.369	274.497	-0.027	-0.047
-549.354	779.944	-0.100	-0.275
-548.339	110.022	0.103	-0.125
-547.325	-200.000	0.047	-0.399
-546.310	-200.000	0.002	0.304
-545.296	230.789	0.154	-0.254
-544.281	800.000	-0.084	-0.249
-543.266	-49.330	0.178	-0.085
-542.252	152.605	-0.106	-0.146
-541.237	-57.030	-0.167	0.074
-540.223	800.000	-0.079	-0.241
-539.208	800.000	-0.085	0.327
-538.193	188.955	-0.145	-0.218
-537.179	-200.000	-0.045	-0.373
-536.164	-94.471	0.097	-0.027
-535.150	63.354	-0.290	-0.292
-534.135	800.000	-0.063	0.220
-533.121	-147.604	0.347	0.029
-532.106	-174.504	0.201	-0.006
-531.091	800.000	0.097	-0.323
-530.077	-129.889	-0.246	-0.034
-529.062	156.725	0.137	0.190
-528.048	127.006	-0.104	-0.133
-527.033	-200.000	-0.002	0.447
-526.018	-94.169	0.401	-0.110
-525.004	200.319	-0.094	-0.145
-523.989	-46.939	-0.093	-0.046
-522.975	-142.871	0.112	0.011
-521.960	238.857	-0.201	0.337
-520.945	195.042	0.023	-0.036
-519.931	-143.374	-0.265	-0.026
-518.916	-104.663	-0.277	-0.064
-517.902	-200.000	-0.007	-0.303
-516.887	800.000	-0.037	-0.158
-515.872	-90.273	0.296	-0.087
-514.858	-200.000	-0.056	0.281
-513.843	-200.000	0.012	-0.100
-512.829	163.243	0.054	0.076
-511.814	-200.000	0.047	0.252
-510.799	-137.216	-0.180	-0.021
-509.785	223.421	-0.033	0.054
-508.770	-72.080	0.281	0.105
-507.756	800.000	0.090	0.365
-506.741	-200.000	-0.015	0.136
-505.726	514.151	0.101	0.237
-504.712	-200.000	0.022	-0.287
-503.697	177.290	0.117	-0.172
-502.683	280.321	-0.141	0.253
-501.668	-13.535	-0.257	0.167
-500.653	58.424	-0.023	0.022
-499.639	114.670	0.283	-0.347
-498.624	537.897	-0.115	-0.274
-497.610	110.014	0.073	0.089
-496.595	79.488	-0.278	-0.299
-495.581	800.000	0.051	0.169
-494.566	-61.735	-0.279	0.118
-493.551	-200.000	0.026	0.206
-492.537	-2.765	-0.221	0.155
-491.522	-136.799	0.058	0.007
-490.508	-71.207	0.116	0.044
-489.493	-119.515	-0.182	-0.032
-488.478	-29.097	-0.285	0.164
-487.464	800.000	-0.131	-0.366
-486.449	-200.000	-0.000	-0.030
-485.435	-135.607	0.411	-0.049
-484.420	-200.000	-0.034	-0.182
-483.405	583.847	-0.090	0.223
-482.391	13.598	0.165	0.129
-481.376	-55.626	-0.274	0.123
-480.362	-29.548	-0.237	0.136
-479.347	-142.003	0.245	0.024
-478.332	-200.000	0.027	0.151
-477.318	800.000	-0.103	0.356
-476.303	-65.566	0.176	-0.071
-475.289	-72.900	-0.119	-0.044
-474.274	96.438	0.239	-0.274
-473.259	800.000	-0.064	-0.224
-472.245	-74.039	-0.213	-0.078
-471.230	372.582	-0.151	-0.307
-470.216	800.000	0.013	0.042
-469.201	184.654	0.103	0.154
-468.186	107.550	-0.181	-0.217
-467.172	10.600	0.124	-0.095
-466.157	17.752	0.276	-0.221
-465.143	-200.000	-0.010	0.082
-464.128	65.462	-0.122	-0.123
-463.113	-57.942	-0.061	-0.027
-462.099	620.224	-0.068	-0.172
-461.084	-110.101	0.171	0.036
-460.070	12.289	0.233	-0.180
-459.055	48.239	-0.218	0.205
-458.040	61.675	-0.245	-0.244
-457.026	683.546	0.054	0.141
-456.011	-200.000	-0.034	-0.214
-454.997	-120.906	0.135	-0.023
-453.982	385.966	-0.073	-0.151
-452.968	146.300	0.176	-0.237
-451.953	-18.589	0.305	0.191
-450.938	507.086	0.106	-0.248
-449.924	800.000	0.093	0.294
-448.909	-200.000	0.153	0.000
-447.895	-33.346	-0.083	-0.046
-446.880	-80.363	0.199	0.067
-445.865	-55.288	0.239	-0.108
-444.851	-73.592	0.155	0.057
-443.836	-178.724	0.194	-0.004
-442.822	-72.709	-0.325	0.120
-441.807	-200.000	0.024	-0.199
-440.792	116.644	-0.073	-0.090
-439.778	800.000	0.089	0.291
-438.763	210.219	0.142	-0.223
-437.749	110.828	-0.191	-0.231
-436.734	633.838	0.114	0.290
-435.719	38.913	-0.164	-0.147
-434.705	-61.195	0.049	0.021
-433.690	-27.762	-0.201	-0.117
-432.676	57.157	-0.178	-0.174
-431.661	-98.018	0.364	-0.094
-430.646	73.417	-0.215	0.225
-429.632	0.760	-0.146	-0.104
-428.617	-80.787	-0.161	-0.054
-427.603	23.031	-0.172	-0.141
-426.588	-13.782	-0.174	-0.113
-425.573	-150.183	0.295	0.023
-424.559	-72.885	-0.167	-0.061
-423.544	-200.000	-0.055	-0.338
-422.530	800.000	0.015	-0.048
-421.515	203.547	0.041	-0.063
-420.500	-80.786	0.450	0.150
-419.486	-33.056	-0.259	0.144
-418.471	-200.000	0.008	0.239
-417.457	-133.930	0.082	-0.010
-416.442	175.671	0.076	0.110
-415.428	-62.024	0.355	-0.149
-414.413	-155.165	-0.152	0.010
-413.398	800.000	-0.015	0.049
-412.384	-117.607	-0.231	0.042
-411.369	-77.725	0.175	-0.061
-410.355	9.781	0.232	-0.176
-409.340	170.527	0.096	-0.137
-408.325	135.080	-0.116	-0.151
-407.311	-29.138	0.200	-0.115
-406.296	63.978	-0.041	0.041
-405.282	-132.759	0.405	-0.052
-404.267	-179.219	0.187	-0.004
-403.252	-166.493	-0.071	0.003
-402.238	800.000	0.025	0.085
-401.223	58.619	0.129	-0.127
-400.209	-102.097	-0.235	-0.057
-399.194	-7.453	-0.415	-0.281
-398.179	-200.000	0.006	-0.132
-397.165	256.215	-0.067	-0.115
-396.150	700.680	-0.062	0.164
-395.136	-200.000	0.024	-0.104
-394.121	60.205	0.274	0.271
-393.106	325.600	0.157	0.300
-392.092	-61.164	0.103	-0.044
-391.077	-200.000	-0.024	-0.129
-390.063	-21.658	-0.157	0.096
-389.048	-200.000	-0.027	0.123
-388.033	194.410	-0.003	0.005
-387.019	148.752	-0.032	0.044
-386.004	359.147	0.092	0.184
-384.990	800.000	0.156	0.524
-383.975	144.813	0.058	-0.077
-382.960	-133.766	-0.081	-0.010
-381.946	800.000	0.016	-0.058
-380.931	60.276	-0.171	0.169
-379.917	-163.840	-0.337	-0.016
-378.902	-200.000	-0.018	0.101
-377.888	20.059	-0.197	0.159
-376.873	-200.000	-0.005	0.130
-375.858	-200.000	-0.043	-0.206
-374.844	-51.495	0.053	0.025
-373.829	322.107	0.126	-0.240
-372.815	-79.661	-0.099	-0.034
-371.800	-69.890	-0.257	-0.098
-370.785	-5.929	-0.274	-0.188
-369.771	395.340	0.106	-0.222
-368.756	800.000	0.011	-0.037
-367.742	-60.738	0.285	-0.121
-366.727	800.000	0.028	0.104
-365.712	68.867	-0.156	0.160
-364.698	-49.782	-0.516	-0.245
-363.683	-57.172	-0.152	0.067
-362.669	-153.505	-0.204	0.014
-361.654	800.000	-0.070	0.200
-360.639	153.390	0.093	-0.127
-359.625	181.716	0.151	0.222
-358.610	-200.000	0.005	0.167
-357.596	8.022	-0.186	0.139
-356.581	800.000	-0.073	0.223
-355.566	-37.263	-0.136	0.073
-354.552	103.030	-0.015	-0.017
-353.537	-58.021	-0.145	-0.063
-352.523	-85.530	0.242	-0.075
-351.508	-95.459	0.236	0.063
-350.493	184.318	0.139	0.206
-349.479	-157.279	-0.396	-0.024
-348.464	409.971	-0.115	0.243
-347.450	-76.490	-0.099	-0.035
-346.435	-114.338	0.211	-0.041
-345.420	-87.135	-0.118	-0.036
-344.406	-200.000	-0.008	-0.519
-343.391	800.000	-0.038	0.123
-342.377	-52.450	0.208	0.096
-341.362	-200.000	-0.025	0.111
-340.348	-152.520	0.050	-0.004
-339.333	800.000	-0.038	0.132
-338.318	146.208	-0.010	0.013
-337.304	-102.455	0.492	-0.118
-336.289	-113.720	-0.149	0.029
-335.275	19.149	-0.072	-0.058
-334.260	-45.567	-0.278	-0.138
-333.245	-1.953	0.084	0.059
-332.231	570.906	-0.037	-0.090
-331.216	220.644	0.128	0.205
-330.202	-200.000	0.023	0.106
-329.187	-63.504	-0.171	0.070
-328.172	-200.000	0.006	0.062
-327.158	-87.122	-0.312	0.095
-326.143	59.681	-0.119	-0.117
-325.129	-58.301	-0.333	-0.144
-324.114	-87.243	0.246	0.075
-323.099	23.620	0.139	0.114
-322.085	521.709	-0.100	0.234
-321.070	207.326	-0.116	0.181
-320.056	800.000	0.034	0.107
-319.041	750.168	0.068	0.182
-318.026	426.430	0.065	-0.140
-317.012	-176.449	0.231	-0.006
-315.997	800.000	-0.045	-0.191
-314.983	-44.216	0.160	0.080
-313.968	800.000	0.048	0.144
-312.953	5.536	-0.286	-0.210
-311.939	292.018	0.070	0.127
-310.924	429.061	-0.085	0.184
-309.910	-11.179	-0.176	-0.115
-308.895	183.007	-0.122	0.180
-307.880	202.285	-0.175	0.269
-306.866	-61.481	0.184	-0.077
-305.851	-64.782	-0.138	0.056
-304.837	233.799	0.095	-0.156
-303.822	164.544	-0.107	-0.150
-302.807	715.926	-0.030	-0.079
-301.793	139.732	0.096	-0.126
-300.778	30.224	-0.138	-0.118
-299.764	-11.915	-0.140	-0.091
-298.749	-9.160	-0.145	-0.097
-297.735	394.614	0.056	0.117
-296.720	-46.822	0.263	-0.128
-295.705	384.108	0.054	-0.111
-294.691	-17.273	0.279	0.175
-293.676	-156.502	-0.050	0.003
-292.662	143.875	-0.158	0.210
-291.647	205.233	-0.176	0.272
-290.632	-25.706	-0.170	0.100
-289.618	800.000	-0.059	0.190
-288.603	800.000	0.083	0.345
-287.589	-200.000	0.008	0.070
-286.574	170.533	-0.196	0.280
-285.559	2.754	0.416	0.301
-284.545	-31.494	0.134	-0.075
-283.530	800.000	0.051	0.187
-282.516	-42.597	0.164	-0.083
-281.501	-200.000	0.027	0.166
-280.486	-200.000	-0.005	-0.052
-279.472	-200.000	0.021	-0.133
-278.457	204.097	0.081	-0.125
-277.443	773.412	-0.115	0.312
-276.428	18.396	0.235	0.187
-275.413	-200.000	0.002	-0.072
-274.399	-103.388	-0.103	0.024
-273.384	151.072	0.089	-0.120
-272.370	-200.000	-0.015	0.177
-271.355	59.003	0.260	0.255
-270.340	-200.000	-0.044	-0.233
-269.326	54.980	0.212	0.204
-268.311	-91.706	0.405	-0.115
-267.297	-109.157	-0.183	0.039
-266.282	65.581	-0.141	0.142
-265.267	-200.000	-0.000	0.210
-264.253	-38.072	-0.067	0.035
-263.238	-120.124	0.123	0.021
-262.224	-13.905	0.230	0.148
-261.209	-75.921	-0.503	0.177
-260.195	-28.725	0.264	-0.151
-259.180	800.000	-0.103	-0.342
-258.165	-159.090	0.100	0.006
-257.151	147.764	-0.191	-0.256
-256.136	800.000	-0.063	0.253
-255.122	-69.017	-0.252	0.097
-254.107	-104.051	-0.362	0.084
-253.092	216.175	0.157	-0.249
-252.078	-30.746	0.116	-0.065
-251.063	-116.327	-0.248	0.046
-250.049	-200.000	-0.035	0.300
-249.034	800.000	0.054	0.189
-248.019	-200.000	0.039	-0.205
-247.005	800.000	0.007	-0.019
-245.990	-200.000	-0.020	0.140
-244.976	800.000	0.015	-0.066
-243.961	76.949	0.098	-0.103
-242.946	243.004	-0.123	0.204
-241.932	762.954	-0.113	0.306
-240.917	-158.335	0.223	-0.013
-239.903	505.877	-0.133	-0.306
-238.888	-105.887	0.296	-0.066
-237.873	249.985	0.181	0.305
-236.859	747.183	0.007	0.018
-235.844	94.986	0.247	-0.280
-234.830	-200.000	-0.126	0.000
-233.815	56.136	0.104	0.100
-232.800	-44.800	0.142	0.070
-231.786	121.597	-0.144	-0.178
-230.771	461.410	-0.037	-0.083
-229.757	-19.464	0.215	-0.132
-228.742	24.499	0.234	0.192
-227.727	800.000	-0.045	0.194
-226.713	561.656	0.159	-0.382
-225.698	43.564	0.083	-0.076
-224.684	19.577	0.109	-0.087
-223.669	-1.109	0.260	-0.183
-222.655	53.045	0.134	-0.127
-221.640	800.000	-0.042	0.122
-220.625	485.583	-0.124	0.280
-219.611	89.924	-0.223	0.248
-218.596	327.121	0.040	-0.077
-217.582	-200.000	0.040	0.312
-216.567	-181.032	-0.157	0.003
-215.552	36.170	-0.217	0.190
-214.538	84.262	-0.221	-0.241
-213.523	65.001	0.291	-0.292
-212.509	6.188	-0.166	-0.122
-211.494	30.322	-0.134	0.114
-210.479	-122.666	-0.386	0.062
-209.465	800.000	0.118	0.351
-208.450	-200.000	0.014	-0.162
-207.436	-187.205	0.371	0.005
-206.421	42.444	0.306	-0.276
-205.406	63.962	-0.108	-0.108
-204.392	-61.953	0.287	0.119
-203.377	234.892	0.031	-0.051
-202.363	91.632	-0.243	-0.271
-201.348	159.906	-0.030	-0.041
-200.333	90.413	0.152	0.169
-199.319	138.999	0.118	-0.154
-198.304	16.327	0.097	0.076
-197.290	-152.242	-0.079	-0.006
-196.275	235.016	-0.159	0.261
-195.260	72.131	0.189	-0.196
-194.246	-200.000	0.018	-0.285
-193.231	5.101	0.204	-0.149
-192.217	86.293	-0.196	0.214
-191.202	-100.419	0.243	-0.060
-190.187	-71.696	-0.144	0.053
-189.173	-73.397	0.267	0.097
-188.158	-100.211	-0.201	-0.050
-187.144	-136.751	-0.109	0.012
-186.129	63.468	-0.042	0.041
-185.114	-200.000	0.007	0.090
-184.100	-22.595	0.062	-0.037
-183.085	24.333	-0.173	0.142
-182.071	-52.895	0.195	-0.089
-181.056	-31.564	0.122	0.068
-180.042	-38.403	0.128	0.067
-179.027	-200.000	0.016	-0.449
-178.012	59.812	0.282	-0.277
-176.998	-158.602	-0.231	-0.013
-175.983	120.867	0.031	-0.038
-174.969	-200.000	0.035	0.198
-173.954	135.231	0.265	-0.342
-172.939	-38.883	0.084	0.044
-171.925	-21.934	0.289	-0.174
-170.910	8.430	0.292	-0.218
-169.896	-65.300	-0.309	0.123
-168.881	-62.369	-0.101	0.042
-167.866	800.000	-0.133	0.380
-166.852	-49.050	-0.078	-0.037
-165.837	30.557	0.076	-0.065
-164.823	644.739	-0.070	-0.178
-163.808	93.835	0.158	-0.178
-162.793	800.000	0.068	-0.204
-161.779	800.000	-0.079	0.236
-160.764	-200.000	-0.006	0.240
-159.750	-132.521	0.043	-0.005
-158.735	-107.990	0.132	0.028
-157.720	-62.259	0.112	0.046
-156.706	-52.956	-0.184	-0.084
-155.691	-58.782	-0.065	0.028
-154.677	-69.349	0.345	0.131
-153.662	567.900	-0.086	0.207
-152.647	-200.000	-0.046	-0.210
-151.633	-27.013	0.295	0.171
-150.618	-14.826	-0.246	-0.156
-149.604	-200.000	0.061	0.437
-148.589	56.633	-0.108	-0.104
-147.574	-23.944	0.447	-0.265
-146.560	-143.606	0.474	0.045
-145.545	800.000	0.069	0.189
-144.531	800.000	0.032	-0.110
-143.516	43.370	0.199	-0.180
-142.502	-200.000	0.047	-0.306
-141.487	358.584	-0.125	0.247
-140.472	37.107	-0.097	0.085
-139.458	88.219	-0.126	-0.139
-138.443	372.452	0.091	0.184
-137.429	601.446	-0.075	0.184
-136.414	162.126	0.391	0.543
-135.399	47.749	0.193	0.178
-134.385	-200.000	0.006	-0.361
-133.370	475.832	0.058	-0.130
-132.356	-200.000	0.071	-0.000
-131.341	-200.000	-0.009	0.218
-130.326	18.688	-0.095	0.075
-129.312	-36.157	0.257	-0.137
-128.297	-200.000	-0.024	0.169
-127.283	149.234	-0.199	-0.266
-126.268	213.373	-0.108	0.170
-125.253	386.857	0.131	-0.267
-124.239	-173.217	0.043	0.001
-123.224	8.455	0.334	0.249
-122.210	163.118	0.181	-0.252
-121.195	72.654	0.239	-0.247
