DTS Sentinel unit serial number:	SN413079Multiplexer serial number:	ORYXHardware model number:	OX4-SRSoftware version number:	ORYX F/W v4.00 Oryx Data Collector v3.7.2.0data status	okinstallation	princeton_trtdifferential loss correction	single-endedforward channel	channel 4reverse channel	N/Adate	2019/09/17time	17:05:35forward acquisition time	60.00reverse acquisition time	0.00gamma	496.2192k internal	0.2280k external	0.2280temperature offset calibration	0.9978default loss term (dB/km)	0.3790temperature slope calibration	1.0000multiplexer offset coefficient	1.0000multiplexer slope coefficient	1.0000fibre end	0.00T internal ref (°C)	42.66T ext. ref 1 (°C)	0.35T ext. ref 2 (°C)	39.12length (m)	temperature (°C)	Stokes	anti-Stokes-747.200	-137.103	-0.214	-0.025
-746.185	594.706	0.049	-0.125
-745.171	-200.000	-0.024	0.229
-744.156	71.963	0.199	0.213
-743.142	-19.061	-0.310	-0.198
-742.127	-6.284	-0.143	-0.100
-741.112	108.064	-0.167	0.205
-740.098	-21.727	-0.142	0.089
-739.083	-118.391	-0.105	0.019
-738.069	79.664	0.232	0.257
-737.054	800.000	-0.026	0.085
-736.039	-123.496	-0.260	0.043
-735.025	60.968	0.037	-0.037
-734.010	52.664	-0.317	0.311
-732.996	271.938	-0.186	-0.337
-731.981	419.530	0.130	-0.285
-730.966	-154.779	-0.271	0.018
-729.952	-101.265	0.141	-0.035
-728.937	-31.624	-0.290	-0.168
-727.923	343.720	-0.065	-0.132
-726.908	230.325	-0.142	0.239
-725.894	-81.847	-0.156	-0.052
-724.879	-36.929	-0.308	-0.170
-723.864	23.017	0.083	-0.070
-722.850	-99.130	-0.332	0.086
-721.835	236.131	0.009	0.015
-720.821	171.822	-0.135	-0.200
-719.806	377.151	0.104	-0.218
-718.791	800.000	0.052	0.176
-717.777	-104.529	-0.178	0.042
-716.762	78.758	0.064	-0.071
-715.748	-7.153	-0.179	-0.125
-714.733	142.511	0.151	0.206
-713.718	-161.095	0.208	-0.011
-712.704	-200.000	0.004	0.329
-711.689	-11.919	0.104	-0.070
-710.675	331.320	-0.071	-0.140
-709.660	10.164	0.202	-0.158
-708.645	-200.000	-0.016	0.115
-707.631	103.574	-0.096	-0.116
-706.616	-200.000	-0.006	-0.188
-705.602	602.615	0.077	0.197
-704.587	-200.000	0.032	-0.260
-703.572	348.842	-0.165	-0.334
-702.558	800.000	-0.074	0.220
-701.543	-34.056	0.423	-0.239
-700.529	53.522	-0.137	-0.135
-699.514	4.574	-0.078	0.059
-698.499	-200.000	-0.002	-0.165
-697.485	-141.816	-0.301	0.031
-696.470	-103.959	-0.094	-0.023
-695.456	98.957	-0.085	0.101
-694.441	-200.000	0.005	-0.305
-693.426	-200.000	-0.006	-0.227
-692.412	59.698	0.103	-0.104
-691.397	-200.000	-0.022	0.183
-690.383	221.164	0.058	0.095
-689.368	-86.517	0.373	0.118
-688.354	57.343	0.113	0.113
-687.339	-20.250	-0.007	0.004
-686.324	15.843	-0.115	0.093
-685.310	-109.975	0.232	0.050
-684.295	800.000	0.014	0.047
-683.281	-135.560	-0.252	-0.031
-682.266	133.389	0.104	0.138
-681.251	-200.000	-0.043	-0.202
-680.237	531.776	0.133	-0.322
-679.222	326.395	0.179	-0.352
-678.208	800.000	0.028	-0.091
-677.193	-200.000	0.042	-0.268
-676.178	481.597	0.058	-0.135
-675.164	-200.000	-0.000	-0.216
-674.149	-193.164	-0.207	-0.002
-673.135	76.958	0.254	0.277
-672.120	4.305	-0.069	0.052
-671.105	-200.000	-0.360	0.001
-670.091	-138.629	0.171	0.019
-669.076	800.000	0.108	-0.381
-668.062	234.119	-0.079	-0.134
-667.047	20.501	0.211	0.175
-666.032	105.897	0.145	0.176
-665.018	353.657	-0.085	-0.173
-664.003	-16.350	-0.043	0.028
-662.989	127.285	0.049	-0.063
-661.974	6.407	0.304	-0.232
-660.959	-135.956	0.187	0.023
-659.945	-200.000	0.024	0.336
-658.930	452.959	-0.050	0.114
-657.916	46.803	0.222	-0.212
-656.901	155.924	-0.116	0.165
-655.886	350.334	0.096	-0.195
-654.872	-200.000	0.030	-0.165
-653.857	426.479	-0.048	0.107
-652.843	16.775	0.067	0.054
-651.828	-200.000	-0.032	-0.243
-650.814	800.000	0.094	-0.327
-649.799	-69.517	0.149	0.059
-648.784	202.474	0.049	-0.077
-647.770	-200.000	0.001	-0.369
-646.755	-70.328	-0.124	-0.048
-645.741	-165.537	0.180	0.008
-644.726	-127.384	0.351	-0.052
-643.711	34.090	0.190	-0.169
-642.697	-200.000	-0.028	-0.131
-641.682	-130.371	-0.312	-0.043
-640.668	10.215	0.210	0.164
-639.653	155.396	0.112	-0.158
-638.638	-1.725	-0.185	-0.134
-637.624	-200.000	-0.005	-0.057
-636.609	26.568	-0.211	0.181
-635.595	301.774	0.093	-0.176
-634.580	-200.000	0.023	0.116
-633.565	89.997	-0.160	0.183
-632.551	-123.829	0.008	0.001
-631.536	167.335	0.061	0.089
-630.522	-84.914	0.204	-0.066
-629.507	-0.913	-0.084	-0.061
-628.492	-41.531	-0.159	0.084
-627.478	-100.748	-0.356	-0.090
-626.463	-166.449	-0.039	-0.002
-625.449	-41.277	-0.367	0.194
-624.434	173.242	-0.246	-0.363
-623.419	499.173	0.124	-0.293
-622.405	-37.116	0.205	0.112
-621.390	213.790	-0.098	-0.158
-620.376	146.273	0.137	-0.188
-619.361	62.948	-0.217	-0.222
-618.346	17.814	0.322	-0.262
-617.332	-96.499	0.287	-0.077
-616.317	710.913	-0.125	0.339
-615.303	-1.422	-0.171	0.123
-614.288	2.238	0.170	-0.126
-613.273	-81.477	-0.177	0.060
-612.259	-200.000	-0.009	0.042
-611.244	-154.068	0.093	-0.006
-610.230	-38.586	-0.154	0.083
-609.215	-76.653	-0.085	-0.030
-608.201	-107.568	0.240	-0.054
-607.186	345.937	-0.165	-0.333
-606.171	408.515	0.079	-0.171
-605.157	67.332	-0.206	0.215
-604.142	-78.857	-0.317	-0.110
-603.128	800.000	-0.029	-0.111
-602.113	800.000	0.028	0.089
-601.098	7.065	0.208	0.158
-600.084	-72.848	0.090	-0.034
-599.069	355.093	-0.092	0.188
-598.055	-89.856	0.182	-0.054
-597.040	-200.000	-0.023	-0.269
-596.025	800.000	-0.021	0.087
-595.011	-60.800	-0.022	-0.010
-593.996	-44.435	-0.237	-0.121
-592.982	-106.342	0.272	-0.062
-591.967	65.102	0.294	-0.304
-590.952	780.903	-0.069	0.193
-589.938	65.904	-0.059	-0.061
-588.923	800.000	-0.054	-0.240
-587.909	-26.900	-0.190	-0.113
-586.894	-104.631	0.290	0.068
-585.879	-125.247	-0.135	0.021
-584.865	205.124	0.173	-0.274
-583.850	370.555	-0.032	-0.067
-582.836	223.954	-0.181	0.299
-581.821	-13.293	0.393	0.261
-580.806	458.094	-0.036	0.082
-579.792	-200.000	-0.064	0.403
-578.777	800.000	0.044	0.168
-577.763	-200.000	0.029	0.154
-576.748	-87.515	-0.195	-0.060
-575.733	272.385	-0.085	-0.154
-574.719	-200.000	-0.010	-0.112
-573.704	-46.453	-0.129	-0.065
-572.690	-200.000	0.005	0.355
-571.675	-70.450	-0.163	-0.063
-570.661	-200.000	-0.025	-0.260
-569.646	153.103	-0.312	0.436
-568.631	800.000	0.017	0.057
-567.617	211.103	-0.024	-0.038
-566.602	-113.347	0.558	-0.112
-565.588	83.710	0.138	0.154
-564.573	-200.000	-0.054	-0.528
-563.558	397.048	0.036	-0.078
-562.544	110.092	-0.160	0.196
-561.529	31.046	0.174	-0.152
-560.515	-82.772	0.511	0.169
-559.500	-105.047	-0.234	0.055
-558.485	147.973	-0.176	0.243
-557.471	98.292	0.061	0.072
-556.456	-200.000	-0.035	0.225
-555.442	-66.266	0.466	-0.189
-554.427	-181.615	-0.207	-0.004
-553.412	93.822	-0.177	-0.204
-552.398	109.129	0.240	0.293
-551.383	103.349	-0.060	-0.072
-550.369	571.088	-0.079	-0.196
-549.354	-2.475	-0.211	0.151
-548.339	90.672	0.105	0.120
-547.325	-200.000	0.021	0.168
-546.310	800.000	0.092	-0.410
-545.296	289.707	0.138	-0.256
-544.281	-200.000	-0.086	-0.406
-543.266	-200.000	0.005	0.219
-542.252	272.581	-0.040	-0.073
-541.237	51.321	0.286	-0.277
-540.223	800.000	-0.158	-0.450
-539.208	43.079	0.216	0.201
-538.193	-105.066	-0.251	-0.059
-537.179	29.126	-0.229	-0.199
-536.164	460.139	-0.155	0.351
-535.150	-200.000	-0.024	-0.191
-534.135	-80.310	0.238	-0.081
-533.121	-70.119	-0.146	0.057
-532.106	-56.469	-0.277	-0.125
-531.091	-172.848	0.194	0.006
-530.077	113.542	-0.160	-0.199
-529.062	800.000	0.113	0.405
-528.048	800.000	-0.116	0.456
-527.033	-0.092	-0.103	-0.074
-526.018	106.891	-0.112	0.136
-525.004	-75.286	0.140	-0.051
-523.989	-158.898	-0.428	-0.025
-522.975	-124.304	-0.336	-0.054
-521.960	-96.806	0.112	0.030
-520.945	800.000	0.023	-0.067
-519.931	-200.000	0.016	0.403
-518.916	-140.810	0.222	-0.023
-517.902	9.099	0.127	0.098
-516.887	-200.000	-0.020	-0.197
-515.872	-109.961	-0.272	0.058
-514.858	-200.000	-0.025	0.327
-513.843	139.495	-0.166	-0.222
-512.829	-54.894	-0.117	0.054
-511.814	312.383	0.072	0.139
-510.799	-175.221	0.250	-0.007
-509.785	57.132	0.024	-0.024
-508.770	39.726	0.121	-0.111
-507.756	-32.498	0.088	-0.050
-506.741	-82.632	0.173	-0.057
-505.726	800.000	0.009	-0.033
-504.712	191.656	-0.185	0.284
-503.697	-79.711	0.163	0.056
-502.683	-113.693	-0.069	-0.014
-501.668	156.175	-0.130	0.183
-500.653	-38.051	-0.179	-0.097
-499.639	373.930	-0.148	0.306
-498.624	-200.000	-0.044	0.256
-497.610	-43.819	-0.110	0.057
-496.595	800.000	-0.044	0.169
-495.581	-200.000	0.035	0.182
-494.566	100.401	-0.219	0.259
-493.551	-200.000	0.016	0.284
-492.537	-25.565	0.258	0.155
-491.522	800.000	0.051	-0.154
-490.508	38.173	-0.175	-0.159
-489.493	-33.964	0.188	0.106
-488.478	-170.417	-0.318	-0.011
-487.464	229.841	-0.015	-0.024
-486.449	120.884	-0.116	-0.148
-485.435	-58.090	0.142	0.063
-484.420	-200.000	0.027	-0.130
-483.405	406.725	-0.111	0.238
-482.391	218.981	0.074	0.120
-481.376	-200.000	0.006	0.334
-480.362	-85.125	0.153	0.049
-479.347	24.487	0.300	0.253
-478.332	162.690	-0.137	0.195
-477.318	-139.213	-0.189	0.021
-476.303	-138.460	0.355	0.040
-475.289	-6.602	0.159	0.110
-474.274	-5.038	-0.206	-0.145
-473.259	35.377	-0.203	-0.181
-472.245	800.000	0.077	0.223
-471.230	-102.735	0.227	-0.055
-470.216	-9.438	0.145	0.099
-469.201	-119.455	-0.377	0.067
-468.186	470.497	-0.052	0.120
-467.172	-135.830	0.309	-0.037
-466.157	365.375	-0.095	0.194
-465.143	-101.407	0.319	0.079
-464.128	9.672	0.175	0.135
-463.113	-200.000	-0.014	-0.232
-462.099	800.000	-0.081	0.281
-461.084	106.973	0.073	-0.088
-460.070	-128.403	-0.165	-0.024
-459.055	-155.996	-0.238	-0.015
-458.040	590.906	0.131	-0.328
-457.026	-125.063	-0.290	-0.045
-456.011	-200.000	0.023	0.227
-454.997	200.201	-0.091	0.142
-453.982	182.124	-0.174	0.260
-452.968	-200.000	0.065	-0.446
-451.953	83.046	0.187	-0.206
-450.938	800.000	-0.047	-0.142
-449.924	211.173	-0.114	0.183
-448.909	-200.000	0.012	0.270
-447.895	112.403	0.128	0.158
-446.880	-47.143	-0.356	0.177
-445.865	-200.000	0.067	0.330
-444.851	178.426	0.035	0.053
-443.836	539.708	0.069	-0.168
-442.822	606.790	0.037	-0.093
-441.807	-111.037	-0.274	-0.057
-440.792	-48.596	-0.390	-0.190
-439.778	-154.942	-0.402	-0.027
-438.763	202.701	-0.073	0.114
-437.749	10.664	0.064	0.050
-436.734	17.280	0.066	0.053
-435.719	-28.307	-0.297	0.174
-434.705	565.003	0.165	-0.407
-433.690	145.703	0.052	-0.071
-432.676	45.195	0.217	0.203
-431.661	135.176	0.183	0.242
-430.646	-51.953	-0.145	0.068
-429.632	271.775	-0.136	-0.244
-428.617	71.164	-0.055	0.058
-427.603	-200.000	0.011	0.188
-426.588	18.838	0.206	0.168
-425.573	800.000	0.110	0.415
-424.559	-6.908	-0.261	-0.180
-423.544	-98.473	0.061	0.016
-422.530	-107.468	0.223	-0.050
-421.515	413.069	-0.235	0.508
-420.500	-42.837	0.201	-0.104
-419.486	-38.890	0.273	-0.146
-418.471	-200.000	-0.014	-0.158
-417.457	-200.000	-0.229	-0.001
-416.442	-142.477	0.302	-0.030
-415.428	-1.458	0.042	0.030
-414.413	-49.698	0.210	-0.101
-413.398	2.019	-0.329	-0.241
-412.384	355.058	0.061	0.122
-411.369	77.378	0.267	0.288
-410.355	122.316	0.105	0.133
-409.340	-93.573	-0.054	-0.015
-408.325	-45.736	0.068	-0.034
-407.311	-18.990	-0.132	-0.084
-406.296	-12.616	0.070	-0.046
-405.282	103.604	-0.032	0.038
-404.267	-200.000	-0.037	0.263
-403.252	7.768	0.039	-0.030
-402.238	-116.035	0.413	0.078
-401.223	-200.000	-0.053	-0.238
-400.209	-143.987	-0.260	0.025
-399.194	-200.000	0.028	0.354
-398.179	331.532	0.212	0.416
-397.165	-39.926	-0.163	0.086
-396.150	-91.379	-0.153	0.045
-395.136	-41.409	-0.168	-0.088
-394.121	-23.841	-0.095	-0.058
-393.106	-135.632	0.254	-0.031
-392.092	-135.682	-0.248	-0.030
-391.077	-53.784	-0.198	-0.092
-390.063	113.536	0.086	-0.105
-389.048	455.395	-0.120	-0.271
-388.033	800.000	0.054	0.228
-387.019	435.549	-0.054	0.120
-386.004	101.855	-0.088	-0.104
-384.990	-100.812	0.068	-0.017
-383.975	-102.423	0.168	-0.041
-382.960	47.436	-0.068	0.065
-381.946	77.628	0.142	0.153
-380.931	-183.641	0.106	-0.002
-379.917	149.292	0.119	0.164
-378.902	315.629	0.073	0.140
-377.888	61.107	-0.169	0.170
-376.873	401.320	-0.079	0.168
-375.858	-54.169	0.014	-0.006
-374.844	28.799	-0.068	-0.058
-373.829	-200.000	-0.011	-0.070
-372.815	68.511	-0.140	-0.146
-371.800	9.070	0.269	-0.206
-370.785	-130.817	-0.142	-0.019
-369.771	-102.468	-0.253	0.061
-368.756	-107.849	0.033	0.007
-367.742	51.432	-0.283	-0.273
-366.727	227.745	-0.260	-0.428
-365.712	-200.000	0.023	0.117
-364.698	-122.029	-0.037	0.006
-363.683	800.000	-0.010	-0.039
-362.669	294.679	-0.078	-0.145
-361.654	-200.000	-0.005	-0.100
-360.639	96.730	0.060	-0.070
-359.625	16.973	0.177	-0.142
-358.610	126.004	0.200	0.256
-357.596	60.506	0.071	0.072
-356.581	-89.388	-0.125	0.037
-355.566	-39.645	0.017	0.009
-354.552	-200.000	0.017	0.251
-353.537	-200.000	-0.017	-0.086
-352.523	-188.176	-0.200	-0.003
-351.508	262.440	-0.124	0.219
-350.493	90.154	0.340	-0.385
-349.479	529.218	-0.042	-0.100
-348.464	-200.000	-0.033	0.160
-347.450	230.448	0.061	-0.101
-346.435	800.000	-0.040	0.127
-345.420	35.535	-0.109	0.097
-344.406	-135.691	0.041	-0.005
-343.391	-16.305	0.283	-0.182
-342.377	183.613	0.123	0.184
-341.362	-200.000	0.024	0.292
-340.348	-200.000	0.016	0.176
-339.333	-61.118	-0.130	0.056
-338.318	-200.000	-0.001	-0.018
-337.304	-51.154	-0.300	-0.142
-336.289	-200.000	-0.047	0.215
-335.275	-200.000	-0.015	0.221
-334.260	258.733	0.106	0.184
-333.245	150.241	0.065	0.089
-332.231	199.126	0.098	0.152
-331.216	-200.000	0.047	0.224
-330.202	-200.000	-0.060	-0.374
-329.187	52.755	-0.250	-0.242
-328.172	-108.954	0.181	-0.039
-327.158	321.600	-0.122	0.235
-326.143	-83.602	0.267	-0.086
-325.129	-122.260	0.256	0.042
-324.114	800.000	-0.060	-0.184
-323.099	-200.000	-0.029	-0.157
-322.085	43.426	-0.247	0.228
-321.070	610.422	0.009	0.023
-320.056	-200.000	0.014	0.080
-319.041	-77.769	0.206	0.072
-318.026	-200.000	-0.030	-0.209
-317.012	-47.753	-0.178	-0.088
-315.997	-13.044	-0.177	-0.117
-314.983	-137.785	-0.182	0.021
-313.968	82.255	0.144	0.158
-312.953	-200.000	0.008	-0.097
-311.939	18.385	0.064	-0.052
-310.924	-50.341	0.145	0.069
-309.910	-27.546	0.307	0.180
-308.895	245.656	-0.106	0.181
-307.880	167.150	0.103	0.148
-306.866	249.174	0.029	-0.050
-305.851	-170.627	-0.146	-0.005
-304.837	82.246	0.240	-0.264
-303.822	-39.734	0.256	0.135
-302.807	-200.000	0.067	0.323
-301.793	-150.370	0.070	0.005
-300.778	138.353	0.070	0.093
-299.764	-200.000	0.022	-0.130
-298.749	42.533	-0.102	0.094
-297.735	-119.061	-0.166	0.029
-296.720	800.000	0.045	-0.146
-295.705	216.287	-0.240	-0.386
-294.691	52.678	-0.120	-0.116
-293.676	716.393	0.034	-0.090
-292.662	-200.000	0.007	-0.324
-291.647	305.199	0.133	-0.251
-290.632	-200.000	0.011	-0.198
-289.618	-136.655	0.244	0.029
-288.603	-200.000	0.004	0.127
-287.589	-74.945	0.300	-0.109
-286.574	-15.685	-0.095	0.061
-285.559	146.422	0.214	0.290
-284.545	101.748	0.148	-0.174
-283.530	9.369	-0.179	0.137
-282.516	-200.000	0.097	0.443
-281.501	-181.203	0.387	-0.008
-280.486	-200.000	-0.005	0.162
-279.472	5.761	-0.154	-0.115
-278.457	84.124	0.374	0.413
-277.443	-50.560	0.212	0.101
-276.428	-128.446	-0.051	-0.007
-275.413	71.860	0.071	-0.075
-274.399	458.949	0.172	0.385
-273.384	-137.355	0.313	0.036
-272.370	-185.380	0.299	0.005
-271.355	-200.000	0.013	0.140
-270.340	-15.888	-0.386	-0.248
-269.326	-200.000	-0.053	-0.311
-268.311	557.509	0.190	-0.464
-267.297	75.913	-0.078	-0.083
-266.282	-79.831	0.041	0.014
-265.267	74.802	0.034	-0.036
-264.253	-127.976	0.270	-0.039
-263.238	176.147	-0.097	-0.143
-262.224	-125.778	-0.158	-0.024
-261.209	-161.983	0.091	-0.005
-260.195	800.000	0.018	0.077
-259.180	-56.733	-0.137	0.061
-258.165	160.395	0.139	-0.196
-257.151	-24.505	-0.222	0.133
-256.136	-44.214	-0.238	-0.121
-255.122	-96.842	-0.112	0.030
-254.107	-103.227	0.147	-0.035
-253.092	-35.556	-0.033	0.018
-252.078	-154.762	0.081	-0.005
-251.063	160.685	0.131	-0.184
-250.049	608.474	-0.063	0.160
-249.034	-200.000	0.006	-0.449
-248.019	-200.000	0.120	0.000
-247.005	-200.000	-0.011	0.113
-245.990	800.000	-0.060	0.178
-244.976	252.266	-0.032	0.054
-243.961	-200.000	0.009	-0.144
-242.946	-112.645	0.030	-0.006
-241.932	-200.000	-0.031	-0.391
-240.917	-35.549	-0.274	-0.150
-239.903	425.806	-0.066	0.142
-238.888	-81.266	-0.284	-0.095
-237.873	-31.981	-0.110	0.062
-236.859	-12.250	-0.194	-0.128
-235.844	460.897	0.064	-0.144
-234.830	292.084	0.157	0.288
-233.815	69.175	-0.053	-0.055
-232.800	-93.220	-0.367	0.103
-231.786	-138.044	-0.078	0.009
-230.771	-200.000	0.024	-0.305
-229.757	35.678	0.168	-0.148
-228.742	-13.966	0.202	-0.132
-227.727	-200.000	0.026	0.153
-226.713	238.421	-0.156	-0.261
-225.698	73.449	-0.095	-0.100
-224.684	-142.447	-0.138	-0.014
-223.669	-44.563	0.265	0.134
-222.655	-200.000	0.027	0.383
-221.640	91.463	0.108	0.122
-220.625	-11.082	0.088	-0.058
-219.611	-90.021	-0.155	-0.045
-218.596	-123.148	0.435	-0.070
-217.582	35.752	-0.061	0.054
-216.567	220.498	-0.088	-0.142
-215.552	18.867	0.225	0.182
-214.538	-200.000	0.017	-0.123
-213.523	-200.000	-0.010	-0.079
-212.509	-200.000	0.082	-0.374
-211.494	2.352	-0.199	-0.145
-210.479	-7.043	-0.304	-0.208
-209.465	490.405	-0.029	-0.066
-208.450	-155.044	-0.187	0.012
-207.436	-83.261	-0.067	-0.022
-206.421	-157.225	0.237	0.014
-205.406	26.937	-0.031	0.026
-204.392	89.696	-0.282	-0.317
-203.377	-200.000	0.026	0.179
-202.363	-200.000	-0.003	0.026
-201.348	7.850	-0.160	-0.121
-200.333	320.007	0.003	-0.006
-199.319	800.000	0.141	0.466
-198.304	-37.087	-0.074	0.040
-197.290	-200.000	0.027	-0.226
-196.275	800.000	0.153	-0.555
-195.260	800.000	-0.046	-0.151
-194.246	-88.689	0.178	-0.053
-193.231	-87.679	0.400	0.122
-192.217	-32.007	-0.102	0.057
-191.202	652.073	0.115	-0.296
-190.187	-54.744	0.173	-0.079
-189.173	-200.000	0.047	-0.237
-188.158	-83.197	0.167	-0.054
-187.144	-79.435	-0.338	0.115
-186.129	-152.752	0.038	-0.003
-185.114	73.412	0.174	0.183
-184.100	-61.081	-0.104	0.044
-183.085	268.899	0.180	-0.319
-182.071	51.451	-0.146	0.140
-181.056	67.646	-0.039	-0.040
-180.042	272.511	0.113	-0.201
-179.027	-55.110	-0.035	-0.016
-178.012	-157.318	-0.133	-0.008
-176.998	136.441	0.133	0.175
-175.983	-200.000	0.020	0.141
-174.969	-147.685	-0.190	0.016
-173.954	156.635	0.060	0.083
-172.939	800.000	-0.035	-0.113
-171.925	-200.000	0.006	0.220
-170.910	-126.159	-0.325	-0.049
-169.896	-71.761	0.417	-0.156
-168.881	117.642	-0.152	-0.188
-167.866	-200.000	0.029	0.130
-166.852	30.527	-0.100	-0.086
-165.837	-200.000	0.011	-0.275
-164.823	194.029	-0.133	-0.203
-163.808	-171.617	0.314	-0.010
-162.793	296.669	-0.127	0.235
-161.779	-93.908	-0.286	-0.079
-160.764	800.000	-0.044	0.144
-159.750	800.000	0.002	0.005
-158.735	-200.000	0.005	-0.052
-157.720	85.077	0.092	0.101
-156.706	497.373	0.054	-0.124
-155.691	264.149	-0.078	0.137
-154.677	129.604	0.101	-0.130
-153.662	-191.328	-0.107	-0.001
-152.647	-92.829	0.302	-0.085
-151.633	-58.230	-0.165	-0.072
-150.618	103.113	0.030	-0.035
-149.604	-200.000	0.004	-0.158
-148.589	800.000	-0.013	0.050
-147.574	-83.269	-0.162	-0.052
-146.560	-200.000	0.021	-0.185
-145.545	83.677	0.201	0.220
-144.531	481.310	0.179	-0.408
-143.516	-200.000	0.006	-0.276
-142.502	-67.498	0.306	0.121
-141.487	-200.000	0.004	0.135
-140.472	800.000	0.048	-0.194
-139.458	566.145	0.029	0.071
-138.443	-200.000	-0.027	0.152
-137.429	-100.909	-0.254	0.063
-136.414	-146.206	0.156	-0.014
-135.399	-107.066	0.175	0.039
-134.385	-28.635	-0.104	-0.060
-133.370	-149.529	-0.113	-0.009
-132.356	-200.000	-0.023	-0.260
-131.341	726.731	0.052	0.140
-130.326	-33.716	-0.192	-0.107
-129.312	164.300	-0.135	0.191
-128.297	187.583	0.147	0.221
-127.283	-41.822	0.172	0.089
-126.268	-22.007	0.090	-0.055
-125.253	189.362	0.131	0.197
-124.239	-26.443	-0.136	0.080
-123.224	-200.000	-0.002	-0.058
-122.210	116.016	0.226	-0.277
