DTS Sentinel unit serial number:	SN413079Multiplexer serial number:	ORYXHardware model number:	OX4-SRSoftware version number:	ORYX F/W v4.00 Oryx Data Collector v3.7.2.0data status	okinstallation	princeton_trtdifferential loss correction	single-endedforward channel	channel 4reverse channel	N/Adate	2019/09/11time	10:43:10forward acquisition time	60.00reverse acquisition time	0.00gamma	496.2192k internal	0.2294k external	0.2294temperature offset calibration	0.9970default loss term (dB/km)	0.3790temperature slope calibration	1.0000multiplexer offset coefficient	1.0000multiplexer slope coefficient	1.0000fibre end	0.00T internal ref (°C)	36.75T ext. ref 1 (°C)	0.18T ext. ref 2 (°C)	33.79length (m)	temperature (°C)	Stokes	anti-Stokes-747.200	359.511	0.137	-0.280
-746.185	29.982	0.181	0.158
-745.171	-174.186	-0.182	0.005
-744.156	-54.162	0.193	0.090
-743.142	776.316	-0.094	-0.263
-742.127	491.668	-0.050	0.117
-741.112	-47.600	-0.061	0.030
-740.098	616.018	-0.073	-0.187
-739.083	-14.483	0.216	-0.142
-738.069	404.510	-0.097	0.210
-737.054	-200.000	0.012	0.122
-736.039	-124.109	-0.146	-0.023
-735.025	392.538	-0.099	0.211
-734.010	-76.658	-0.240	0.086
-732.996	33.315	-0.126	-0.112
-731.981	-135.521	0.382	0.047
-730.966	56.656	0.194	-0.193
-729.952	800.000	-0.082	-0.269
-728.937	-200.000	-0.069	-0.317
-727.923	-21.689	-0.200	-0.124
-726.908	33.640	-0.252	-0.224
-725.894	-200.000	-0.032	0.272
-724.879	800.000	-0.100	-0.340
-723.864	800.000	-0.092	-0.293
-722.850	87.147	0.147	-0.166
-721.835	-113.827	-0.244	0.048
-720.821	-74.958	0.106	0.039
-719.806	666.099	0.040	0.105
-718.791	33.981	-0.112	0.100
-717.777	-200.000	-0.002	-0.071
-716.762	-14.069	0.142	-0.094
-715.748	94.007	0.156	0.180
-714.733	-3.637	0.411	0.292
-713.718	-45.562	0.286	0.145
-712.704	-49.231	-0.026	-0.013
-711.689	-200.000	-0.024	-0.280
-710.675	-118.446	-0.462	-0.084
-709.660	183.999	0.089	-0.135
-708.645	-115.748	0.231	-0.044
-707.631	-1.169	-0.112	0.081
-706.616	800.000	-0.052	-0.214
-705.602	-200.000	-0.041	0.182
-704.587	-200.000	-0.018	0.193
-703.572	594.172	-0.096	0.241
-702.558	20.013	-0.225	0.185
-701.543	151.426	-0.102	0.142
-700.529	-83.764	-0.138	0.045
-699.514	-71.831	-0.398	-0.151
-698.499	516.993	-0.050	0.119
-697.485	494.975	-0.052	0.123
-696.470	-156.220	0.308	0.020
-695.456	-36.815	-0.138	-0.076
-694.441	0.077	-0.325	0.237
-693.426	-117.220	0.381	-0.071
-692.412	21.256	0.199	-0.165
-691.397	621.784	-0.117	0.300
-690.383	30.193	0.149	-0.130
-689.368	-93.367	0.162	-0.046
-688.354	-117.360	-0.313	0.058
-687.339	102.022	-0.119	0.141
-686.324	-1.654	-0.046	-0.033
-685.310	-21.555	-0.186	-0.116
-684.295	64.326	-0.121	0.124
-683.281	-200.000	0.013	-0.229
-682.266	-122.161	0.019	0.003
-681.251	-3.605	0.240	-0.170
-680.237	379.766	-0.117	-0.244
-679.222	226.397	0.146	0.241
-678.208	800.000	-0.093	0.268
-677.193	-83.606	0.146	0.048
-676.178	-63.526	-0.215	-0.090
-675.164	453.367	-0.100	-0.227
-674.149	34.221	-0.191	0.170
-673.135	741.488	0.054	0.147
-672.120	800.000	-0.051	-0.186
-671.105	-166.539	0.324	-0.014
-670.091	800.000	-0.053	0.151
-669.076	-200.000	0.015	-0.168
-668.062	-110.256	0.233	0.050
-667.047	362.143	-0.243	-0.497
-666.032	-159.007	0.573	-0.033
-665.018	10.155	-0.200	-0.155
-664.003	0.112	0.202	0.147
-662.989	-122.900	0.142	-0.023
-661.974	-200.000	0.034	-0.304
-660.959	503.929	-0.124	-0.292
-659.945	765.290	-0.025	-0.071
-658.930	-2.436	0.077	-0.055
-657.916	-7.183	0.323	0.223
-656.901	-97.137	0.195	0.052
-655.886	-200.000	0.004	-0.165
-654.872	160.635	0.092	-0.131
-653.857	-52.291	-0.088	0.041
-652.843	-111.937	-0.107	-0.022
-651.828	194.975	-0.200	0.309
-650.814	-86.833	-0.453	-0.141
-649.799	202.349	0.031	0.048
-648.784	-57.913	-0.089	-0.040
-647.770	-103.309	-0.314	-0.076
-646.755	67.554	0.141	-0.147
-645.741	-147.360	-0.260	0.022
-644.726	800.000	0.078	-0.324
-643.711	143.673	0.200	0.271
-642.697	-153.228	0.295	0.021
-641.682	-32.712	0.151	0.086
-640.668	74.538	-0.288	0.308
-639.653	-200.000	0.024	-0.149
-638.638	225.898	-0.127	0.210
-637.624	800.000	-0.013	-0.051
-636.609	-24.407	-0.112	0.068
-635.595	800.000	-0.045	-0.182
-634.580	-66.585	-0.088	-0.035
-633.565	800.000	0.066	-0.224
-632.551	-24.259	-0.184	0.112
-631.536	114.892	0.127	0.158
-630.522	53.150	-0.076	-0.074
-629.507	-48.950	0.166	-0.081
-628.492	-200.000	0.028	0.178
-627.478	-200.000	0.004	-0.020
-626.463	-5.737	-0.108	0.075
-625.449	-42.775	0.020	-0.011
-624.434	20.898	-0.062	-0.051
-623.419	800.000	0.080	-0.233
-622.405	-49.830	-0.227	-0.110
-621.390	60.107	-0.226	0.228
-620.376	-71.802	0.430	-0.163
-619.361	413.132	0.144	-0.311
-618.346	-39.029	-0.250	0.134
-617.332	-22.799	-0.238	-0.146
-616.317	52.971	-0.083	-0.081
-615.303	-200.000	-0.050	-0.315
-614.288	-116.874	0.163	-0.030
-613.273	-133.601	-0.322	0.041
-612.259	60.335	-0.050	-0.050
-611.244	23.396	0.050	-0.042
-610.230	-149.153	-0.105	-0.009
-609.215	287.661	-0.101	0.185
-608.201	65.804	-0.168	-0.173
-607.186	-12.988	0.272	0.180
-606.171	-61.992	-0.259	-0.110
-605.157	-200.000	-0.014	0.098
-604.142	170.431	-0.205	0.299
-603.128	471.718	-0.095	-0.219
-602.113	244.472	0.093	-0.159
-601.098	237.347	0.156	-0.262
-600.084	756.727	0.117	-0.322
-599.069	-59.453	-0.060	0.026
-598.055	402.295	-0.058	0.123
-597.040	-133.490	-0.160	0.020
-596.025	-78.462	-0.406	0.141
-595.011	-200.000	-0.005	0.200
-593.996	125.086	-0.141	0.181
-592.982	-142.808	-0.110	-0.011
-591.967	-200.000	0.038	-0.299
-590.952	-112.873	0.154	0.031
-589.938	39.626	0.088	0.080
-588.923	-62.212	-0.223	0.094
-587.909	-69.861	-0.072	-0.028
-586.894	800.000	0.031	-0.088
-585.879	-200.000	-0.016	0.426
-584.865	23.008	-0.080	-0.067
-583.850	-109.005	-0.153	0.033
-582.836	-200.000	0.047	-0.219
-581.821	313.173	-0.138	-0.264
-580.806	-155.597	0.180	-0.012
-579.792	-200.000	-0.073	0.364
-578.777	13.677	0.245	0.193
-577.763	800.000	-0.071	0.221
-576.748	-21.171	0.075	-0.047
-575.733	800.000	0.059	-0.207
-574.719	800.000	0.047	-0.133
-573.704	-200.000	0.017	0.085
-572.690	-86.886	-0.385	-0.119
-571.675	800.000	0.063	0.211
-570.661	-199.212	-0.094	-0.001
-569.646	-200.000	0.054	-0.247
-568.631	-122.541	-0.325	-0.054
-567.617	-66.991	-0.320	-0.128
-566.602	35.962	0.089	-0.079
-565.588	539.921	0.137	-0.332
-564.573	56.104	0.059	-0.058
-563.558	-200.000	0.007	0.190
-562.544	784.856	-0.097	0.270
-561.529	105.017	-0.190	0.227
-560.515	36.368	0.381	-0.341
-559.500	-69.962	0.261	-0.101
-558.485	87.771	-0.076	0.086
-557.471	-164.657	0.042	-0.002
-556.456	-112.928	-0.326	-0.066
-555.442	126.586	-0.131	-0.169
-554.427	374.417	-0.034	-0.070
-553.412	-80.086	-0.345	0.117
-552.398	-154.009	0.145	0.010
-551.383	-47.579	-0.418	0.206
-550.369	60.206	0.021	0.021
-549.354	733.159	0.070	-0.190
-548.339	-200.000	-0.036	-0.223
-547.325	92.586	0.077	-0.088
-546.310	-53.668	-0.236	0.110
-545.296	23.106	0.205	0.171
-544.281	-57.092	0.154	-0.069
-543.266	365.357	-0.046	0.093
-542.252	42.789	-0.254	0.235
-541.237	-51.635	-0.063	-0.030
-540.223	-36.010	0.245	-0.135
-539.208	-142.065	0.270	-0.027
-538.193	-148.592	0.146	-0.012
-537.179	-133.720	0.433	-0.055
-536.164	-30.136	0.250	0.144
-535.150	592.827	0.028	0.070
-534.135	-123.451	0.379	0.061
-533.121	276.015	0.088	-0.158
-532.106	-91.079	0.304	-0.088
-531.091	110.934	0.052	0.064
-530.077	-200.000	-0.042	0.281
-529.062	-104.300	-0.084	-0.020
-528.048	-200.000	0.022	0.423
-527.033	621.349	0.102	-0.261
-526.018	-200.000	0.023	0.119
-525.004	-195.383	-0.355	-0.003
-523.989	157.768	-0.174	-0.245
-522.975	115.278	0.127	-0.158
-521.960	17.672	-0.140	-0.113
-520.945	800.000	0.051	0.183
-519.931	-152.797	-0.063	-0.005
-518.916	-83.234	0.335	0.109
-517.902	-82.742	0.328	-0.108
-516.887	800.000	-0.015	0.050
-515.872	189.627	-0.125	0.190
-514.858	-162.387	-0.097	-0.005
-513.843	244.179	-0.140	-0.238
-512.829	-25.562	-0.105	0.063
-511.814	-16.435	-0.183	-0.118
-510.799	-16.750	0.273	-0.175
-509.785	496.938	0.102	-0.238
-508.770	-200.000	-0.081	0.000
-507.756	800.000	-0.096	-0.296
-506.741	800.000	-0.025	-0.079
-505.726	-200.000	0.018	0.283
-504.712	-200.000	-0.033	-0.203
-503.697	800.000	0.032	0.140
-502.683	-113.389	-0.340	-0.068
-501.668	224.021	0.102	0.166
-500.653	800.000	0.098	0.305
-499.639	-200.000	0.002	-0.020
-498.624	-8.562	-0.146	0.099
-497.610	-200.000	-0.006	0.044
-496.595	28.784	0.122	-0.105
-495.581	-200.000	0.008	-0.100
-494.566	-198.113	0.125	-0.001
-493.551	25.417	0.007	-0.006
-492.537	109.628	-0.162	0.196
-491.522	-90.541	0.075	-0.022
-490.508	800.000	0.075	0.252
-489.493	-62.830	0.132	0.055
-488.478	42.401	0.165	0.152
-487.464	800.000	0.023	0.065
-486.449	212.633	-0.164	-0.262
-485.435	-1.878	-0.146	-0.104
-484.420	10.938	0.155	-0.120
-483.405	-35.441	0.244	0.134
-482.391	125.401	0.088	-0.112
-481.376	800.000	-0.103	0.311
-480.362	-107.634	0.083	0.018
-479.347	106.964	-0.029	-0.035
-478.332	-200.000	0.063	0.357
-477.318	321.096	-0.101	-0.194
-476.303	14.977	0.381	0.302
-475.289	-4.462	0.197	-0.138
-474.274	-200.000	-0.036	-0.195
-473.259	-174.693	0.297	0.009
-472.245	800.000	-0.031	0.088
-471.230	175.390	-0.145	0.212
-470.216	-200.000	0.036	0.252
-469.201	-115.186	-0.163	-0.031
-468.186	-83.743	0.086	0.028
-467.172	703.441	-0.055	0.145
-466.157	-200.000	-0.022	-0.216
-465.143	-97.287	0.162	0.043
-464.128	-22.352	0.128	-0.079
-463.113	80.035	0.161	-0.175
-462.099	58.222	-0.223	0.222
-461.084	-200.000	0.075	0.392
-460.070	-98.163	0.238	-0.062
-459.055	65.210	0.233	0.238
-458.040	44.306	0.152	-0.141
-457.026	-157.534	-0.236	0.014
-456.011	603.377	-0.081	0.205
-454.997	-75.736	-0.200	-0.072
-453.982	-38.042	0.106	0.057
-452.968	696.270	-0.067	-0.178
-451.953	-200.000	-0.017	-0.116
-450.938	-200.000	-0.038	-0.429
-449.924	223.980	-0.244	-0.398
-448.909	-119.875	-0.436	-0.076
-447.895	-92.030	0.219	-0.063
-446.880	-163.643	0.396	-0.019
-445.865	-59.912	0.086	0.037
-444.851	800.000	-0.146	0.447
-443.836	-172.943	-0.322	-0.010
-442.822	-200.000	-0.017	-0.378
-441.807	800.000	-0.065	0.197
-440.792	-96.280	0.097	-0.026
-439.778	-107.360	0.500	0.111
-438.763	-127.472	-0.169	-0.025
-437.749	508.629	0.104	0.245
-436.734	20.874	0.125	-0.102
-435.719	19.053	-0.300	-0.243
-434.705	800.000	0.056	-0.160
-433.690	-165.552	0.222	0.010
-432.676	-89.764	0.360	-0.107
-431.661	-200.000	0.045	-0.297
-430.646	-200.000	-0.040	0.214
-429.632	153.661	-0.144	-0.199
-428.617	-90.998	-0.348	0.101
-427.603	-47.640	-0.135	-0.066
-426.588	54.662	0.192	0.187
-425.573	122.134	-0.145	-0.183
-424.559	597.758	0.101	0.254
-423.544	-90.719	-0.140	-0.041
-422.530	-200.000	0.010	-0.345
-421.515	704.977	0.012	-0.033
-420.500	-200.000	-0.009	-0.059
-419.486	45.535	-0.310	0.289
-418.471	-117.145	0.312	-0.057
-417.457	249.663	0.096	-0.164
-416.442	-110.078	-0.035	-0.007
-415.428	276.211	0.055	0.098
-414.413	-105.476	0.394	-0.090
-413.398	79.694	-0.110	0.119
-412.384	-50.864	-0.280	0.133
-411.369	-200.000	0.004	0.048
-410.355	800.000	-0.038	0.135
-409.340	17.858	-0.302	0.243
-408.325	-180.711	-0.327	0.007
-407.311	88.639	-0.128	0.143
-406.296	182.982	0.159	0.237
-405.282	7.899	0.084	-0.063
-404.267	302.996	-0.127	0.238
-403.252	-200.000	-0.009	-0.076
-402.238	-200.000	-0.023	0.227
-401.223	-38.234	0.237	0.127
-400.209	-107.568	-0.134	-0.030
-399.194	800.000	-0.098	-0.366
-398.179	-200.000	-0.006	0.094
-397.165	-109.485	-0.061	0.013
-396.150	68.827	0.261	-0.270
-395.136	-119.433	-0.250	-0.044
-394.121	-180.235	-0.382	0.008
-393.106	16.052	-0.144	-0.115
-392.092	90.356	-0.119	-0.134
-391.077	134.409	-0.106	0.139
-390.063	444.862	-0.043	-0.096
-389.048	-200.000	0.019	-0.098
-388.033	358.151	-0.123	0.248
-387.019	-30.342	-0.315	0.180
-386.004	-200.000	-0.007	-0.215
-384.990	-127.334	0.175	0.026
-383.975	308.048	0.131	-0.247
-382.960	-200.000	-0.000	-0.057
-381.946	258.972	0.147	-0.255
-380.931	-200.000	-0.036	-0.186
-379.917	-135.403	-0.043	0.005
-378.902	32.074	-0.249	0.217
-377.888	-200.000	0.021	0.143
-376.873	800.000	0.038	-0.128
-375.858	332.652	0.154	-0.300
-374.844	-200.000	0.016	0.107
-373.829	-200.000	0.015	0.203
-372.815	800.000	-0.075	-0.255
-371.800	-63.307	-0.195	-0.081
-370.785	-200.000	-0.034	-0.288
-369.771	-28.145	0.243	-0.141
-368.756	800.000	0.068	-0.243
-367.742	243.923	-0.154	-0.260
-366.727	69.586	0.092	0.095
-365.712	275.819	0.089	-0.160
-364.698	-131.002	-0.150	-0.020
-363.683	-67.908	0.175	0.069
-362.669	-169.697	-0.110	-0.004
-361.654	381.102	-0.082	0.169
-360.639	36.110	0.178	-0.158
-359.625	800.000	0.040	-0.120
-358.610	-74.171	-0.559	-0.204
-357.596	-79.304	0.181	-0.062
-356.581	-87.357	-0.168	0.051
-355.566	92.150	-0.126	0.143
-354.552	-79.601	0.035	0.012
-353.537	702.440	-0.129	-0.342
-352.523	162.759	0.132	-0.186
-351.508	-22.380	0.058	0.035
-350.493	-200.000	0.006	-0.342
-349.479	-200.000	0.018	-0.172
-348.464	264.520	-0.075	-0.131
-347.450	-97.133	0.259	-0.068
-346.435	107.159	-0.256	-0.307
-345.420	-25.216	0.104	-0.062
-344.406	-200.000	0.007	0.131
-343.391	-87.012	0.109	-0.034
-342.377	-200.000	-0.018	0.306
-341.362	348.934	0.132	-0.262
-340.348	258.932	0.198	0.344
-339.333	22.327	-0.273	0.225
-338.318	684.180	-0.034	-0.090
-337.304	342.632	-0.078	-0.154
-336.289	-159.161	0.068	-0.004
-335.275	-200.000	-0.003	0.247
-334.260	319.857	-0.055	-0.105
-333.245	-42.325	0.101	-0.052
-332.231	156.441	-0.030	0.042
-331.216	800.000	-0.071	0.215
-330.202	-200.000	-0.004	0.193
-329.187	800.000	-0.103	0.350
-328.172	-200.000	0.047	0.350
-327.158	-200.000	-0.002	-0.195
-326.143	223.836	0.167	-0.272
-325.129	-82.649	0.228	0.074
-324.114	-200.000	-0.038	-0.340
-323.099	-20.959	0.194	0.120
-322.085	-137.695	0.125	-0.014
-321.070	-200.000	-0.023	-0.197
-320.056	800.000	0.129	-0.396
-319.041	80.080	0.135	-0.146
-318.026	37.322	-0.068	-0.060
-317.012	256.968	0.080	-0.138
-315.997	-200.000	-0.033	-0.241
-314.983	26.268	-0.222	0.187
-313.968	-82.215	-0.155	0.051
-312.953	82.003	0.207	-0.226
-311.939	800.000	0.085	0.259
-310.924	-200.000	-0.008	0.374
-309.910	-67.179	0.141	0.056
-308.895	223.785	-0.091	-0.147
-307.880	-200.000	0.007	0.104
-306.866	800.000	0.073	-0.219
-305.851	800.000	-0.068	0.300
-304.837	-200.000	-0.009	-0.098
-303.822	-200.000	0.024	-0.182
-302.807	-200.000	-0.045	0.360
-301.793	-200.000	0.017	0.206
-300.778	-200.000	-0.028	0.141
-299.764	171.855	0.235	0.340
-298.749	43.575	0.280	0.258
-297.735	51.187	-0.268	-0.256
-296.720	800.000	-0.061	-0.185
-295.705	-200.000	-0.005	0.064
-294.691	513.683	-0.030	-0.070
-293.676	-62.305	0.400	-0.167
-292.662	-96.061	0.334	0.089
-291.647	-22.921	-0.374	0.227
-290.632	187.294	0.167	0.250
-289.618	800.000	0.041	0.159
-288.603	-110.428	0.338	-0.070
-287.589	800.000	-0.030	-0.128
-286.574	-200.000	0.019	0.082
-285.559	-59.001	0.358	-0.155
-284.545	279.597	-0.186	0.334
-283.530	-49.106	0.234	0.112
-282.516	-200.000	0.011	-0.235
-281.501	-200.000	0.041	-0.254
-280.486	800.000	0.039	-0.118
-279.472	141.845	0.271	0.361
-278.457	-75.823	-0.137	0.049
-277.443	800.000	0.058	-0.164
-276.428	-26.600	0.239	0.141
-275.413	32.320	-0.030	0.026
-274.399	-200.000	-0.001	-0.101
-273.384	-52.422	0.368	-0.171
-272.370	800.000	0.034	0.140
-271.355	219.930	0.062	0.100
-270.340	800.000	-0.062	-0.216
-269.326	166.143	-0.154	-0.220
-268.311	-9.966	0.168	-0.112
-267.297	162.078	0.264	-0.372
-266.282	-110.193	-0.058	-0.012
-265.267	172.559	0.044	-0.064
-264.253	6.300	-0.115	0.086
-263.238	-200.000	-0.014	0.140
-262.224	800.000	-0.081	-0.245
-261.209	-41.916	0.231	-0.119
-260.195	202.683	-0.252	0.391
-259.180	741.197	0.046	0.124
-258.165	-200.000	0.020	0.108
-257.151	22.291	0.255	0.209
-256.136	-39.760	-0.121	0.064
-255.122	800.000	-0.040	-0.158
-254.107	-59.974	-0.354	-0.152
-253.092	-200.000	-0.011	0.122
-252.078	129.504	-0.182	-0.233
-251.063	800.000	-0.016	0.066
-250.049	-73.591	0.117	0.043
-249.034	-200.000	0.016	0.318
-248.019	-63.796	-0.233	0.096
-247.005	211.345	0.221	-0.349
-245.990	-86.295	-0.350	-0.108
-244.976	-200.000	0.003	-0.210
-243.961	800.000	-0.046	-0.180
-242.946	-102.255	0.337	-0.081
-241.932	132.623	0.058	-0.075
-240.917	-200.000	0.011	-0.093
-239.903	66.123	-0.171	0.174
-238.888	-94.267	-0.195	-0.053
-237.873	-124.954	-0.176	-0.027
-236.859	-67.407	0.047	0.019
-235.844	42.651	0.091	-0.083
-234.830	29.114	-0.282	0.240
-233.815	113.843	-0.157	-0.191
-232.800	800.000	0.064	0.223
-231.786	-123.350	-0.154	0.025
-230.771	-200.000	0.045	0.230
-229.757	-200.000	0.009	0.103
-228.742	-200.000	-0.052	0.383
-227.727	60.728	0.103	0.103
-226.713	-200.000	-0.007	-0.103
-225.698	712.895	-0.074	0.197
-224.684	800.000	-0.112	-0.347
-223.669	157.302	0.120	-0.166
-222.655	244.673	0.203	0.341
-221.640	184.801	-0.089	0.132
-220.625	147.155	-0.164	0.222
-219.611	75.468	-0.019	-0.020
-218.596	395.017	-0.082	0.172
-217.582	3.478	-0.289	-0.211
-216.567	-43.506	0.096	0.049
-215.552	-200.000	0.006	0.273
-214.538	-34.424	-0.341	0.187
-213.523	150.813	0.231	-0.314
-212.509	-200.000	0.014	0.461
-211.494	363.443	0.162	-0.326
-210.479	800.000	-0.075	-0.234
-209.465	800.000	0.091	0.297
-208.450	-200.000	0.014	0.086
-207.436	131.582	0.096	0.124
-206.421	-200.000	0.073	-0.492
-205.406	-106.134	0.333	0.075
-204.392	-47.365	0.148	0.072
-203.377	50.972	-0.074	0.070
-202.363	-200.000	-0.008	-0.057
-201.348	-200.000	-0.039	-0.225
-200.333	156.621	-0.034	-0.047
-199.319	-129.791	0.173	0.024
-198.304	-9.688	0.144	0.096
-197.290	579.327	0.046	-0.112
-196.275	59.385	0.190	0.187
-195.260	53.854	-0.262	0.252
-194.246	514.975	0.115	0.270
-193.231	326.890	-0.161	0.308
-192.217	317.645	-0.097	0.183
-191.202	-15.898	0.189	0.120
-190.187	-200.000	0.074	-0.343
-189.173	115.277	-0.183	-0.224
-188.158	-200.000	-0.042	0.193
-187.144	-118.184	-0.218	0.039
-186.129	656.006	0.070	-0.179
-185.114	-9.006	-0.201	0.135
-184.100	-124.703	-0.067	0.010
-183.085	-200.000	-0.005	0.365
-182.071	8.977	-0.307	-0.232
-181.056	292.070	0.140	-0.255
-180.042	198.300	-0.135	0.206
-179.027	-172.273	-0.280	0.009
-178.012	257.830	0.034	0.059
-176.998	10.652	-0.176	0.134
-175.983	-63.798	0.004	-0.002
-174.969	-44.467	0.454	0.227
-173.954	94.246	0.169	0.192
-172.939	-144.035	0.032	0.003
-171.925	-41.968	0.100	-0.051
-170.910	-150.922	0.119	0.009
-169.896	15.156	0.147	-0.115
-168.881	557.055	-0.102	0.245
-167.866	-110.337	0.274	-0.057
-166.852	69.349	-0.094	-0.097
-165.837	105.506	0.116	0.138
-164.823	111.942	-0.095	0.114
-163.808	-200.000	0.035	0.167
-162.793	-46.282	-0.381	0.187
-161.779	-200.000	-0.013	-0.178
-160.764	-108.372	0.088	-0.019
-159.750	-90.097	0.178	0.052
-158.735	-66.336	0.061	-0.024
-157.720	-34.458	0.144	-0.079
-156.706	95.863	0.142	0.162
-155.691	-75.644	-0.151	-0.054
-154.677	5.807	-0.087	0.064
-153.662	-200.000	0.014	-0.233
-152.647	-68.418	0.124	0.048
-151.633	800.000	0.016	0.063
-150.618	-97.024	0.156	0.041
-149.604	-27.905	-0.269	0.156
-148.589	-200.000	-0.048	0.220
-147.574	-200.000	-0.040	-0.213
-146.560	-66.146	-0.120	-0.048
-145.545	-15.087	0.367	0.235
-144.531	63.899	-0.088	0.088
-143.516	-200.000	-0.013	0.068
-142.502	-120.083	0.046	0.008
-141.487	-200.000	0.010	0.114
-140.472	-102.264	-0.097	-0.023
-139.458	-45.174	-0.119	-0.059
-138.443	-200.000	-0.018	0.276
-137.429	476.976	-0.080	0.181
-136.414	-200.000	-0.051	-0.503
-135.399	303.704	-0.052	-0.097
-134.385	-200.000	-0.007	-0.111
-133.370	-102.791	0.243	0.058
-132.356	-61.703	-0.261	-0.109
-131.341	-15.702	0.203	0.129
-130.326	191.826	0.016	0.024
-129.312	409.479	0.084	0.178
-128.297	146.611	0.146	-0.196
-127.283	-62.676	-0.231	0.096
-126.268	-59.875	0.283	-0.121
-125.253	495.430	-0.073	0.169
-124.239	-109.326	-0.379	0.080
-123.224	800.000	0.060	0.213
-122.210	90.218	0.178	0.198
