DTS Sentinel unit serial number:	SN413079Multiplexer serial number:	ORYXHardware model number:	OX4-SRSoftware version number:	ORYX F/W v4.00 Oryx Data Collector v3.7.2.0data status	okinstallation	princeton_trtdifferential loss correction	single-endedforward channel	channel 4reverse channel	N/Adate	2019/09/13time	15:37:35forward acquisition time	60.00reverse acquisition time	0.00gamma	496.2192k internal	0.2298k external	0.2298temperature offset calibration	1.0216default loss term (dB/km)	0.3790temperature slope calibration	1.0000multiplexer offset coefficient	1.0000multiplexer slope coefficient	1.0000fibre end	0.00T internal ref (°C)	34.94T ext. ref 1 (°C)	4.76T ext. ref 2 (°C)	29.33length (m)	temperature (°C)	Stokes	anti-Stokes-747.200	-200.000	0.032	0.156
-746.185	-200.000	-0.028	0.333
-745.171	88.143	-0.020	0.023
-744.156	800.000	0.097	0.318
-743.142	-14.457	-0.498	0.327
-742.127	-14.777	-0.174	0.114
-741.112	-57.385	0.410	0.184
-740.098	92.120	0.154	0.176
-739.083	-200.000	0.020	0.204
-738.069	-99.782	-0.206	0.053
-737.054	-200.000	-0.010	0.049
-736.039	-68.527	-0.062	0.025
-735.025	800.000	-0.064	0.190
-734.010	-75.969	0.142	0.051
-732.996	-174.468	-0.429	0.013
-731.981	145.614	-0.018	-0.024
-730.966	268.104	-0.118	-0.210
-729.952	-38.502	-0.141	0.076
-728.937	-200.000	0.014	-0.177
-727.923	-110.317	0.100	-0.021
-726.908	53.045	0.077	0.076
-725.894	49.500	-0.017	-0.017
-724.879	-19.389	-0.065	-0.041
-723.864	-200.000	0.003	0.138
-722.850	-17.314	-0.312	0.200
-721.835	-70.054	0.160	-0.062
-720.821	139.483	0.043	0.057
-719.806	44.431	-0.303	-0.284
-718.791	57.207	0.341	-0.339
-717.777	-200.000	-0.046	0.347
-716.762	-84.040	-0.100	-0.033
-715.748	-88.090	0.332	-0.101
-714.733	-113.033	0.051	-0.010
-713.718	64.029	0.051	-0.053
-712.704	76.318	-0.262	0.283
-711.689	179.188	0.036	-0.054
-710.675	-66.737	-0.121	0.049
-709.660	-106.868	-0.275	0.062
-708.645	-59.831	-0.284	-0.124
-707.631	481.632	0.063	0.145
-706.616	22.471	0.203	-0.169
-705.602	-72.587	-0.427	-0.160
-704.587	6.059	-0.241	-0.182
-703.572	58.409	0.119	-0.119
-702.558	-200.000	0.026	0.261
-701.543	-54.424	-0.330	0.152
-700.529	-200.000	0.001	0.040
-699.514	-200.000	-0.005	0.102
-698.499	12.977	-0.228	0.179
-697.485	800.000	-0.042	0.133
-696.470	-146.497	0.111	-0.010
-695.456	800.000	0.033	0.142
-694.441	-105.196	-0.077	0.018
-693.426	151.661	0.133	-0.184
-692.412	184.282	0.141	0.213
-691.397	333.756	-0.195	-0.384
-690.383	-75.436	0.309	0.112
-689.368	-200.000	-0.037	0.186
-688.354	7.403	0.167	-0.127
-687.339	483.346	0.077	0.178
-686.324	53.071	0.253	-0.246
-685.310	189.297	0.162	-0.248
-684.295	201.812	-0.052	0.081
-683.281	-173.967	-0.284	0.009
-682.266	-159.349	-0.170	-0.010
-681.251	-117.637	-0.275	-0.050
-680.237	-136.450	0.256	-0.030
-679.222	-75.138	0.246	0.090
-678.208	-64.436	-0.085	-0.035
-677.193	-200.000	0.060	-0.339
-676.178	84.768	0.169	-0.189
-675.164	-200.000	0.000	0.037
-674.149	260.931	0.051	-0.091
-673.135	3.710	-0.091	-0.068
-672.120	-192.542	-0.193	-0.002
-671.105	551.061	-0.097	-0.236
-670.091	106.454	-0.165	0.199
-669.076	732.446	-0.073	-0.198
-668.062	-200.000	-0.003	-0.029
-667.047	242.220	0.080	-0.136
-666.032	-29.180	0.257	-0.150
-665.018	800.000	0.030	-0.119
-664.003	-199.614	0.048	0.000
-662.989	476.539	0.065	-0.149
-661.974	75.184	0.137	-0.147
-660.959	-200.000	-0.054	-0.310
-659.945	-200.000	-0.024	-0.177
-658.930	-59.257	-0.505	-0.221
-657.916	-69.215	-0.226	-0.088
-656.901	-83.972	0.121	-0.039
-655.886	-29.298	0.232	-0.135
-654.872	181.776	0.172	-0.257
-653.857	-200.000	-0.012	0.206
-652.843	-200.000	0.023	0.353
-651.828	303.404	0.048	0.091
-650.814	182.306	-0.179	-0.269
-649.799	45.700	-0.269	0.253
-648.784	-8.780	0.178	-0.122
-647.770	105.274	0.181	0.217
-646.755	-48.941	0.504	0.245
-645.741	-32.798	-0.137	0.077
-644.726	-74.758	-0.491	0.179
-643.711	160.739	-0.199	0.282
-642.697	-100.282	-0.319	-0.081
-641.682	-176.923	-0.389	-0.010
-640.668	185.312	0.093	0.141
-639.653	104.683	0.094	-0.113
-638.638	-136.287	-0.188	0.022
-637.624	103.364	-0.234	0.279
-636.609	-11.093	0.120	-0.080
-635.595	149.416	-0.031	-0.043
-634.580	-15.319	-0.091	-0.059
-633.565	43.941	0.222	-0.206
-632.551	-110.625	0.175	0.037
-631.536	2.388	0.418	-0.307
-630.522	194.435	-0.098	-0.150
-629.507	19.661	0.292	0.239
-628.492	-200.000	0.010	-0.076
-627.478	261.793	0.111	0.196
-626.463	-39.393	0.168	-0.089
-625.449	-200.000	0.003	-0.136
-624.434	800.000	0.085	0.336
-623.419	-154.641	-0.488	-0.033
-622.405	-23.270	0.364	0.222
-621.390	-58.124	-0.091	-0.040
-620.376	796.903	-0.042	-0.118
-619.361	800.000	-0.038	-0.119
-618.346	-200.000	-0.024	-0.273
-617.332	303.677	0.150	-0.283
-616.317	62.617	0.047	-0.047
-615.303	621.783	-0.079	0.202
-614.288	-200.000	0.012	-0.207
-613.273	33.597	0.178	-0.157
-612.259	411.157	0.088	-0.190
-611.244	15.239	0.294	0.234
-610.230	800.000	0.122	-0.498
-609.215	-23.706	-0.398	-0.242
-608.201	-3.610	0.158	-0.112
-607.186	800.000	-0.023	-0.068
-606.171	800.000	-0.150	-0.484
-605.157	800.000	0.143	-0.434
-604.142	477.690	0.118	-0.271
-603.128	-88.068	-0.289	-0.088
-602.113	501.141	0.124	0.292
-601.098	-12.910	0.175	0.115
-600.084	473.413	0.062	0.143
-599.069	-141.954	0.387	-0.039
-598.055	-200.000	0.013	-0.189
-597.040	-157.097	0.148	0.009
-596.025	516.841	-0.066	-0.156
-595.011	-56.768	-0.096	0.043
-593.996	-200.000	-0.012	0.069
-592.982	-103.427	0.401	-0.096
-591.967	-66.946	-0.275	0.110
-590.952	199.973	-0.104	-0.162
-589.938	-200.000	-0.021	-0.115
-588.923	-81.362	0.088	-0.029
-587.909	41.827	-0.105	-0.096
-586.894	-200.000	-0.001	-0.100
-585.879	153.970	-0.172	-0.239
-584.865	-61.252	0.095	0.040
-583.850	208.074	-0.080	-0.127
-582.836	-146.306	-0.322	0.029
-581.821	196.218	0.016	0.025
-580.806	-128.383	-0.318	0.046
-579.792	-68.433	0.059	-0.023
-578.777	119.236	-0.109	-0.136
-577.763	-94.709	0.185	-0.051
-576.748	-154.913	0.085	-0.006
-575.733	-115.695	-0.094	-0.018
-574.719	52.731	-0.236	0.229
-573.704	800.000	-0.047	0.200
-572.690	-200.000	-0.046	0.221
-571.675	-99.324	-0.052	-0.013
-570.661	800.000	-0.056	-0.206
-569.646	800.000	0.036	-0.156
-568.631	-200.000	0.019	-0.182
-567.617	-122.449	-0.129	0.021
-566.602	-80.257	-0.060	-0.020
-565.588	800.000	0.077	0.233
-564.573	-129.537	0.148	0.021
-563.558	77.135	-0.114	-0.123
-562.544	3.685	-0.168	0.124
-561.529	-138.116	0.268	0.030
-560.515	-20.159	-0.055	-0.034
-559.500	392.687	-0.084	0.178
-558.485	181.933	0.044	-0.065
-557.471	-147.056	0.432	0.037
-556.456	327.342	-0.115	0.223
-555.442	-13.159	-0.084	0.055
-554.427	99.694	0.169	0.199
-553.412	-80.295	-0.115	-0.039
-552.398	-158.046	0.395	0.024
-551.383	-198.576	0.219	0.001
-550.369	119.964	0.033	0.041
-549.354	-73.007	-0.390	0.145
-548.339	58.943	-0.137	-0.136
-547.325	-107.807	0.062	0.014
-546.310	-200.000	-0.037	-0.206
-545.296	39.734	0.080	-0.073
-544.281	-200.000	0.020	-0.149
-543.266	46.232	0.174	-0.163
-542.252	-200.000	-0.044	0.235
-541.237	-151.340	-0.190	-0.014
-540.223	-101.624	-0.230	-0.057
-539.208	-16.924	0.101	0.065
-538.193	597.366	-0.058	-0.145
-537.179	159.948	0.104	0.147
-536.164	-43.801	0.094	0.048
-535.150	-200.000	0.007	0.362
-534.135	650.221	-0.077	0.201
-533.121	-104.380	-0.381	-0.089
-532.106	-77.970	0.376	0.131
-531.091	138.681	0.147	0.196
-530.077	-180.661	0.353	-0.007
-529.062	-40.784	-0.186	0.098
-528.048	280.264	-0.180	-0.326
-527.033	-23.861	-0.209	-0.127
-526.018	-200.000	-0.018	-0.403
-525.004	-39.188	-0.282	0.150
-523.989	-200.000	0.045	0.236
-522.975	-200.000	0.009	0.093
-521.960	95.701	-0.084	0.097
-520.945	314.567	-0.126	-0.240
-519.931	800.000	0.077	-0.324
-518.916	800.000	0.056	-0.171
-517.902	-162.292	0.360	-0.018
-516.887	108.387	0.102	0.123
-515.872	-4.516	0.326	-0.228
-514.858	-68.604	0.155	-0.061
-513.843	-56.554	-0.071	-0.032
-512.829	404.837	0.104	-0.221
-511.814	-85.986	0.274	0.086
-510.799	-40.887	0.416	-0.217
-509.785	-69.636	-0.228	0.088
-508.770	-200.000	-0.006	0.143
-507.756	-38.218	0.326	0.175
-506.741	800.000	0.008	-0.027
-505.726	-200.000	-0.015	-0.259
-504.712	60.709	0.240	0.241
-503.697	-125.654	0.172	-0.026
-502.683	1.677	0.237	0.172
-501.668	-33.940	-0.271	0.151
-500.653	296.088	-0.081	0.149
-499.639	-154.981	-0.333	-0.022
-498.624	-200.000	-0.062	0.297
-497.610	-14.027	-0.176	-0.115
-496.595	-108.911	0.084	-0.018
-495.581	-200.000	-0.024	-0.136
-494.566	-151.817	-0.283	0.021
-493.551	158.005	-0.142	-0.199
-492.537	-73.381	-0.179	-0.066
-491.522	37.402	0.110	-0.098
-490.508	-200.000	0.033	-0.176
-489.493	-200.000	-0.003	0.228
-488.478	199.096	0.080	-0.123
-487.464	78.481	-0.221	0.239
-486.449	214.682	-0.100	0.160
-485.435	-114.078	0.112	0.022
-484.420	-154.099	-0.107	0.007
-483.405	-55.927	-0.379	-0.171
-482.391	189.184	0.030	0.046
-481.376	147.882	0.106	-0.144
-480.362	140.239	-0.177	-0.236
-479.347	37.506	0.141	-0.126
-478.332	-154.912	0.161	0.011
-477.318	405.473	0.068	0.144
-476.303	-86.956	-0.135	0.041
-475.289	38.830	0.188	0.170
-474.274	800.000	0.088	0.282
-473.259	800.000	-0.099	0.351
-472.245	468.958	-0.103	-0.234
-471.230	397.698	0.091	0.192
-470.216	800.000	0.012	-0.049
-469.201	229.958	0.040	0.065
-468.186	-97.035	0.260	-0.069
-467.172	748.487	-0.101	0.276
-466.157	27.549	0.082	-0.070
-465.143	-118.333	0.092	0.016
-464.128	-200.000	-0.002	0.108
-463.113	800.000	-0.023	-0.066
-462.099	124.015	0.060	-0.076
-461.084	1.318	-0.376	-0.273
-460.070	27.693	-0.186	-0.158
-459.055	-104.488	-0.340	-0.079
-458.040	-139.081	0.181	0.020
-457.026	-200.000	0.004	0.038
-456.011	34.105	0.029	-0.025
-454.997	416.311	0.042	-0.090
-453.982	800.000	-0.089	-0.325
-452.968	-71.458	0.260	0.098
-451.953	339.901	-0.130	0.256
-450.938	-93.505	-0.303	-0.084
-449.924	800.000	-0.027	-0.113
-448.909	304.969	-0.115	-0.215
-447.895	-107.566	0.543	-0.120
-446.880	800.000	-0.025	-0.108
-445.865	487.657	-0.178	-0.410
-444.851	419.664	0.189	-0.408
-443.836	152.749	0.252	-0.347
-442.822	8.259	0.101	0.077
-441.807	559.633	0.031	0.076
-440.792	53.671	0.165	0.160
-439.778	-79.838	-0.204	-0.069
-438.763	15.024	-0.135	-0.106
-437.749	-152.778	-0.046	0.003
-436.734	-67.457	-0.097	-0.038
-435.719	-200.000	-0.033	0.267
-434.705	-44.754	0.083	-0.042
-433.690	459.337	0.092	0.206
-432.676	-30.507	0.326	0.186
-431.661	-141.701	-0.323	0.033
-430.646	-200.000	0.018	0.098
-429.632	152.982	0.104	0.143
-428.617	482.732	0.035	-0.080
-427.603	-15.572	-0.187	-0.120
-426.588	306.452	0.152	0.285
-425.573	-38.660	0.088	0.047
-424.559	-50.483	-0.276	0.131
-423.544	326.531	-0.075	-0.144
-422.530	-123.985	0.294	0.047
-421.515	678.076	0.080	0.208
-420.500	88.977	-0.017	0.019
-419.486	-66.042	0.326	0.131
-418.471	-5.941	-0.193	-0.133
-417.457	20.899	-0.087	0.071
-416.442	-56.281	0.105	-0.047
-415.428	53.826	0.075	-0.073
-414.413	-65.478	-0.060	0.024
-413.398	262.243	-0.054	0.094
-412.384	711.304	-0.132	-0.353
-411.369	-132.445	0.219	0.028
-410.355	86.575	-0.091	-0.101
-409.340	-200.000	0.041	-0.257
-408.325	310.403	-0.026	0.050
-407.311	-28.720	0.297	-0.172
-406.296	-111.208	0.197	0.041
-405.282	-139.379	0.238	-0.026
-404.267	46.804	-0.029	-0.027
-403.252	36.959	0.213	0.189
-402.238	-131.304	-0.108	-0.014
-401.223	-80.535	-0.280	0.094
-400.209	-39.622	0.207	-0.109
-399.194	-14.445	-0.163	0.106
-398.179	114.469	-0.076	0.093
-397.165	448.937	-0.072	0.161
-396.150	48.805	-0.203	-0.191
-395.136	433.275	-0.079	-0.172
-394.121	-200.000	0.031	-0.209
-393.106	102.919	0.122	-0.143
-392.092	-92.890	0.161	0.045
-391.077	800.000	-0.028	-0.125
-390.063	175.542	-0.109	0.159
-389.048	-200.000	0.004	0.047
-388.033	-58.218	0.149	0.065
-387.019	-10.871	0.243	0.162
-386.004	137.467	-0.100	0.131
-384.990	245.309	-0.320	0.542
-383.975	199.352	0.144	-0.223
-382.960	-127.152	0.167	0.025
-381.946	98.537	0.120	-0.139
-380.931	-181.592	-0.079	0.002
-379.917	128.378	-0.154	-0.197
-378.902	28.684	0.150	-0.128
-377.888	-52.251	-0.407	-0.190
-376.873	249.578	-0.046	-0.078
-375.858	338.493	0.062	0.122
-374.844	631.804	-0.076	0.194
-373.829	-200.000	-0.058	0.389
-372.815	154.136	0.159	0.220
-371.800	-187.579	0.137	-0.002
-370.785	-21.948	0.181	-0.111
-369.771	-121.883	0.218	0.036
-368.756	-26.412	-0.352	0.208
-367.742	124.061	0.108	0.136
-366.727	12.261	0.147	0.114
-365.712	-200.000	0.050	-0.265
-364.698	-24.745	-0.210	-0.126
-363.683	-13.994	0.097	0.063
-362.669	-2.964	0.303	-0.212
-361.654	-132.966	0.224	0.029
-360.639	-92.589	-0.163	0.046
-359.625	635.806	-0.021	0.053
-358.610	-4.697	0.306	0.212
-357.596	-39.876	-0.370	0.194
-356.581	104.019	-0.274	-0.324
-355.566	-200.000	0.043	-0.221
-354.552	-34.684	-0.298	-0.164
-353.537	-110.015	0.378	0.079
-352.523	-23.702	-0.066	0.040
-351.508	457.644	-0.174	0.389
-350.493	-200.000	0.009	0.129
-349.479	-84.304	0.186	0.059
-348.464	-80.855	0.136	0.045
-347.450	-77.914	0.347	-0.120
-346.435	-84.639	0.163	-0.052
-345.420	-102.317	0.204	-0.049
-344.406	-200.000	-0.025	0.181
-343.391	-141.756	-0.234	-0.024
-342.377	-71.374	-0.272	0.102
-341.362	84.414	-0.151	0.166
-340.348	-200.000	-0.003	0.036
-339.333	-154.370	0.124	-0.008
-338.318	-200.000	-0.029	-0.206
-337.304	49.330	-0.122	0.115
-336.289	-200.000	-0.069	0.306
-335.275	-43.616	-0.184	0.093
-334.260	91.279	0.330	-0.372
-333.245	139.709	-0.196	-0.260
-332.231	-200.000	0.033	0.173
-331.216	26.644	0.146	0.123
-330.202	-59.677	-0.114	0.049
-329.187	-175.927	-0.352	-0.009
-328.172	20.053	0.199	-0.161
-327.158	-200.000	-0.010	0.225
-326.143	113.170	-0.168	0.204
-325.129	800.000	0.066	-0.190
-324.114	-200.000	-0.038	-0.300
-323.099	100.118	0.114	0.133
-322.085	-200.000	-0.004	0.164
-321.070	-46.033	-0.250	-0.124
-320.056	-30.961	0.071	0.040
-319.041	-7.774	0.161	0.109
-318.026	-200.000	-0.093	0.000
-317.012	181.749	-0.096	-0.142
-315.997	-200.000	-0.097	0.443
-314.983	-154.754	0.186	-0.012
-313.968	-200.000	-0.019	-0.119
-312.953	-80.790	0.102	0.034
-311.939	800.000	0.073	0.276
-310.924	-114.806	-0.326	-0.063
-309.910	-58.320	0.169	0.074
-308.895	-7.077	0.130	-0.088
-307.880	-200.000	-0.030	-0.200
-306.866	-23.594	0.310	-0.187
-305.851	-200.000	-0.006	0.057
-304.837	12.292	-0.049	-0.038
-303.822	348.540	0.134	0.266
-302.807	-126.481	-0.234	0.035
-301.793	29.102	-0.193	-0.164
-300.778	-127.089	0.367	-0.054
-299.764	50.364	0.092	-0.087
-298.749	-113.496	0.062	-0.012
-297.735	43.952	0.140	-0.128
-296.720	800.000	-0.065	-0.208
-295.705	96.917	0.067	-0.077
-294.691	167.984	0.166	-0.237
-293.676	-103.351	0.280	-0.066
-292.662	-119.587	0.083	0.014
-291.647	-180.251	0.236	0.005
-290.632	-159.816	-0.217	0.012
-289.618	-40.316	0.112	-0.058
-288.603	327.300	-0.158	0.303
-287.589	227.068	-0.017	0.027
-286.574	-169.823	0.217	0.008
-285.559	-86.529	-0.244	0.075
-284.545	-200.000	-0.001	0.147
-283.530	-200.000	-0.013	0.356
-282.516	-139.109	0.126	0.014
-281.501	144.962	-0.159	-0.213
-280.486	-200.000	0.022	-0.318
-279.472	-200.000	0.033	0.481
-278.457	51.052	0.127	0.120
-277.443	27.710	-0.272	0.229
-276.428	-200.000	0.043	-0.219
-275.413	-31.763	-0.170	-0.095
-274.399	-28.864	-0.209	-0.120
-273.384	-200.000	0.017	-0.132
-272.370	-200.000	-0.002	0.213
-271.355	6.375	0.417	-0.310
-270.340	50.650	-0.111	-0.105
-269.326	134.005	-0.246	-0.319
-268.311	115.120	0.234	0.286
-267.297	-110.384	-0.178	0.037
-266.282	85.219	-0.133	0.146
-265.267	-117.176	0.109	-0.020
-264.253	-86.295	0.236	0.073
-263.238	-119.685	-0.130	0.022
-262.224	800.000	0.107	0.365
-261.209	278.609	-0.098	0.174
-260.195	-200.000	-0.031	-0.349
-259.180	-200.000	-0.032	-0.202
-258.165	-99.138	0.388	0.098
-257.151	165.358	0.228	0.322
-256.136	-200.000	-0.015	-0.066
-255.122	95.169	-0.341	0.389
-254.107	800.000	-0.026	-0.111
-253.092	800.000	0.041	-0.179
-252.078	-67.770	-0.345	0.135
-251.063	728.563	-0.165	0.441
-250.049	-76.890	-0.205	0.072
-249.034	-193.621	-0.045	-0.000
-248.019	50.465	-0.263	-0.249
-247.005	-200.000	0.048	-0.536
-245.990	-200.000	-0.021	-0.110
-244.976	74.062	-0.130	0.137
-243.961	-42.990	0.335	0.170
-242.946	145.366	-0.145	0.194
-241.932	177.526	0.053	-0.077
-240.917	800.000	-0.014	-0.039
-239.903	-167.175	-0.185	0.008
-238.888	149.415	-0.097	0.131
-237.873	299.127	-0.096	0.177
-236.859	17.730	0.224	-0.178
-235.844	-149.723	-0.214	0.017
-234.830	244.990	0.086	-0.145
-233.815	22.385	-0.271	-0.222
-232.800	-72.213	-0.139	-0.051
-231.786	-200.000	0.028	-0.143
-230.771	-200.000	-0.018	-0.366
-229.757	-15.159	0.140	0.089
-228.742	51.590	0.177	0.168
-227.727	-105.562	-0.200	-0.045
-226.713	155.575	-0.227	-0.313
-225.698	-180.761	-0.180	0.004
-224.684	-130.414	0.045	0.006
-223.669	120.975	0.145	0.180
-222.655	76.981	-0.264	-0.280
-221.640	-133.917	0.265	0.033
-220.625	-200.000	0.005	0.115
-219.611	376.126	0.017	0.034
-218.596	71.487	0.042	-0.043
-217.582	-128.404	-0.181	0.026
-216.567	-29.815	0.255	0.145
-215.552	800.000	-0.073	0.203
-214.538	800.000	-0.111	0.322
-213.523	208.819	0.157	0.245
-212.509	-200.000	0.040	-0.196
-211.494	488.597	0.038	0.087
-210.479	114.723	-0.060	-0.073
-209.465	800.000	-0.026	-0.089
-208.450	-120.735	-0.218	-0.037
-207.436	-68.189	-0.244	0.095
-206.421	53.834	0.139	-0.133
-205.406	800.000	0.107	0.398
-204.392	323.496	0.249	0.474
-203.377	-121.679	0.184	-0.030
-202.363	-85.539	-0.405	-0.126
-201.348	357.877	-0.267	0.533
-200.333	-200.000	-0.054	0.260
-199.319	260.077	0.111	0.191
-198.304	-200.000	0.011	0.449
-197.290	203.134	-0.088	-0.136
-196.275	-200.000	-0.009	-0.113
-195.260	-107.514	-0.325	0.071
-194.246	68.090	0.051	-0.052
-193.231	800.000	0.097	-0.294
-192.217	-49.168	0.157	-0.075
-191.202	-32.376	-0.038	-0.021
-190.187	-73.223	0.197	-0.072
-189.173	141.407	0.261	0.344
-188.158	-35.813	0.119	-0.064
-187.144	-150.187	-0.240	-0.019
-186.129	101.741	-0.188	-0.219
-185.114	-200.000	0.068	-0.349
-184.100	232.355	0.054	0.088
-183.085	-36.804	-0.283	0.152
-182.071	-107.826	0.180	0.039
-181.056	-200.000	0.050	-0.252
-180.042	800.000	-0.078	-0.232
-179.027	-200.000	0.015	-0.092
-178.012	-66.443	0.143	0.057
-176.998	-52.576	0.244	-0.112
-175.983	-149.054	-0.156	-0.013
-174.969	-200.000	-0.013	0.127
-173.954	-85.989	-0.322	0.099
-172.939	800.000	0.130	-0.361
-171.925	-145.321	-0.157	-0.014
-170.910	-44.511	-0.137	0.068
-169.896	-126.906	0.177	0.026
-168.881	-200.000	0.030	0.241
-167.866	230.126	-0.196	0.319
-166.852	5.754	-0.156	-0.115
-165.837	-200.000	0.028	-0.387
-164.823	800.000	-0.081	0.340
-163.808	-65.017	-0.198	0.080
-162.793	-3.834	0.063	0.044
-161.779	-142.874	0.107	-0.010
-160.764	-200.000	0.014	0.122
-159.750	-178.848	-0.121	0.003
-158.735	-92.468	-0.077	0.021
-157.720	800.000	-0.080	-0.338
-156.706	-31.598	-0.146	0.082
-155.691	417.965	-0.131	0.279
-154.677	137.533	0.203	-0.265
-153.662	340.881	-0.088	0.171
-152.647	287.077	0.079	-0.142
-151.633	800.000	0.009	-0.025
-150.618	800.000	0.028	-0.086
-149.604	-99.765	0.521	-0.130
-148.589	-138.807	-0.238	0.026
-147.574	-200.000	0.069	0.332
-146.560	33.700	0.108	-0.094
-145.545	-80.888	-0.199	-0.066
-144.531	2.929	0.121	-0.088
-143.516	3.405	-0.117	0.085
-142.502	-200.000	-0.014	0.165
-141.487	-51.922	-0.110	-0.051
-140.472	-190.652	0.199	-0.002
-139.458	-8.497	-0.107	0.072
-138.443	-189.425	0.302	0.004
-137.429	-95.076	0.598	0.161
-136.414	61.006	-0.058	0.058
-135.399	-200.000	-0.161	-0.001
-134.385	276.439	-0.200	-0.354
-133.370	-200.000	-0.022	-0.137
-132.356	-11.711	0.198	0.129
-131.341	179.348	-0.167	0.244
-130.326	800.000	0.034	0.096
-129.312	53.065	-0.176	0.168
-128.297	-200.000	-0.009	0.110
-127.283	39.076	-0.199	-0.178
-126.268	87.803	-0.159	0.176
-125.253	14.183	0.199	-0.155
-124.239	-170.333	0.211	0.007
-123.224	-200.000	-0.105	0.461
-122.210	699.414	-0.083	0.217
