DTS Sentinel unit serial number:	SN413079Multiplexer serial number:	ORYXHardware model number:	OX4-SRSoftware version number:	ORYX F/W v4.00 Oryx Data Collector v3.7.2.0data status	okinstallation	princeton_trtdifferential loss correction	single-endedforward channel	channel 4reverse channel	N/Adate	2019/09/17time	07:05:35forward acquisition time	60.00reverse acquisition time	0.00gamma	496.2192k internal	0.2320k external	0.2320temperature offset calibration	0.9982default loss term (dB/km)	0.3790temperature slope calibration	1.0000multiplexer offset coefficient	1.0000multiplexer slope coefficient	1.0000fibre end	0.00T internal ref (°C)	27.44T ext. ref 1 (°C)	0.12T ext. ref 2 (°C)	21.11length (m)	temperature (°C)	Stokes	anti-Stokes-747.200	-172.407	0.292	-0.009
-746.185	124.572	0.193	0.245
-745.171	800.000	-0.102	-0.313
-744.156	-34.413	0.099	0.055
-743.142	-138.507	0.117	0.013
-742.127	95.525	0.173	-0.200
-741.112	-161.910	0.053	-0.003
-740.098	-200.000	0.045	0.331
-739.083	-53.491	0.093	-0.043
-738.069	-157.760	-0.305	0.018
-737.054	-102.858	0.232	0.056
-736.039	-38.113	-0.448	-0.240
-735.025	92.028	0.138	0.157
-734.010	-200.000	0.291	0.001
-732.996	488.338	0.053	0.123
-731.981	-84.657	-0.208	-0.066
-730.966	-119.648	0.320	-0.056
-729.952	4.889	-0.042	0.031
-728.937	6.160	0.265	-0.199
-727.923	-122.515	-0.383	0.063
-726.908	112.595	-0.270	0.330
-725.894	51.228	-0.070	-0.067
-724.879	-200.000	-0.000	-0.096
-723.864	47.327	-0.228	0.214
-722.850	-200.000	0.058	-0.523
-721.835	216.128	-0.166	0.267
-720.821	-48.552	-0.356	-0.173
-719.806	131.413	0.155	-0.201
-718.791	-33.548	0.230	-0.129
-717.777	214.576	-0.299	-0.479
-716.762	483.205	0.152	0.348
-715.748	137.193	0.069	0.091
-714.733	12.975	0.169	-0.132
-713.718	356.799	-0.103	0.207
-712.704	-141.460	-0.162	0.017
-711.689	-136.913	-0.330	0.038
-710.675	-200.000	-0.037	-0.381
-709.660	67.463	0.172	-0.178
-708.645	-200.000	-0.110	0.000
-707.631	-200.000	0.012	0.091
-706.616	-100.403	-0.141	0.035
-705.602	-64.870	0.156	0.064
-704.587	55.379	-0.227	0.222
-703.572	275.283	-0.066	0.119
-702.558	-200.000	-0.056	0.261
-701.543	120.267	-0.389	0.488
-700.529	3.285	0.032	-0.024
-699.514	435.451	0.143	-0.315
-698.499	16.668	-0.145	-0.115
-697.485	34.428	-0.356	-0.314
-696.470	-200.000	-0.024	-0.176
-695.456	-76.345	0.093	0.033
-694.441	-94.949	-0.116	-0.032
-693.426	434.571	-0.142	0.311
-692.412	-111.776	-0.274	-0.056
-691.397	-200.000	-0.037	-0.283
-690.383	-71.512	-0.236	0.089
-689.368	66.817	0.078	0.080
-688.354	176.093	-0.128	-0.187
-687.339	-58.600	-0.358	0.157
-686.324	-9.873	-0.314	0.211
-685.310	-200.000	0.008	-0.167
-684.295	-99.418	0.401	0.102
-683.281	-17.072	-0.205	0.131
-682.266	800.000	0.067	0.290
-681.251	-200.000	-0.028	0.212
-680.237	-59.782	-0.208	-0.090
-679.222	800.000	0.036	0.112
-678.208	653.064	0.111	0.287
-677.193	-49.908	-0.214	0.102
-676.178	144.607	0.166	-0.223
-675.164	-200.000	0.006	-0.354
-674.149	333.502	-0.093	0.181
-673.135	-171.717	-0.638	0.021
-672.120	-110.249	0.374	-0.079
-671.105	274.787	0.123	-0.220
-670.091	346.955	0.167	-0.331
-669.076	350.667	0.184	0.366
-668.062	-63.944	0.103	0.042
-667.047	-200.000	-0.030	0.195
-666.032	43.009	0.232	-0.213
-665.018	23.474	-0.206	-0.171
-664.003	-31.900	-0.187	-0.106
-662.989	-157.750	0.115	0.007
-661.974	88.221	0.113	0.126
-660.959	-49.373	0.220	-0.106
-659.945	-129.174	0.247	-0.035
-658.930	104.002	0.124	-0.147
-657.916	-200.000	0.019	-0.112
-656.901	38.110	-0.276	0.247
-655.886	9.471	-0.075	-0.058
-654.872	23.636	0.318	-0.264
-653.857	-20.284	0.214	0.133
-652.843	800.000	-0.062	0.234
-651.828	-200.000	-0.317	0.001
-650.814	-200.000	-0.017	-0.101
-649.799	800.000	0.086	-0.313
-648.784	-35.900	-0.171	0.093
-647.770	-144.073	-0.348	0.033
-646.755	-73.789	0.176	-0.065
-645.741	-73.815	-0.341	-0.125
-644.726	-135.829	-0.233	0.028
-643.711	115.421	0.139	0.171
-642.697	-159.796	0.121	-0.007
-641.682	16.696	-0.127	-0.101
-640.668	84.638	-0.121	0.134
-639.653	-16.923	-0.130	-0.083
-638.638	-200.000	0.008	-0.081
-637.624	30.426	-0.207	-0.178
-636.609	-158.296	0.130	-0.008
-635.595	603.610	0.066	0.165
-634.580	-117.006	0.109	0.020
-633.565	-200.000	0.063	0.358
-632.551	40.362	-0.209	-0.190
-631.536	-62.897	0.284	-0.118
-630.522	186.239	-0.193	-0.289
-629.507	800.000	0.058	0.172
-628.492	-110.645	0.205	-0.043
-627.478	131.339	0.090	0.116
-626.463	-26.012	0.103	0.061
-625.449	-34.546	-0.282	-0.155
-624.434	650.277	-0.046	0.119
-623.419	432.962	0.070	0.154
-622.405	283.769	0.226	-0.408
-621.390	-200.000	-0.036	-0.331
-620.376	-52.208	0.240	-0.112
-619.361	800.000	-0.019	-0.073
-618.346	-4.510	0.247	-0.172
-617.332	-163.328	-0.138	0.007
-616.317	148.261	0.249	0.339
-615.303	111.088	-0.097	-0.117
-614.288	-137.911	0.259	0.029
-613.273	-151.043	-0.328	0.025
-612.259	57.104	-0.137	-0.134
-611.244	80.550	-0.165	-0.179
-610.230	800.000	-0.120	-0.349
-609.215	24.134	-0.201	0.167
-608.201	-200.000	0.022	0.301
-607.186	113.858	0.065	-0.079
-606.171	105.147	-0.046	0.055
-605.157	170.612	-0.018	-0.025
-604.142	-141.756	-0.173	0.017
-603.128	-27.418	0.049	-0.029
-602.113	-91.259	-0.152	-0.044
-601.098	-200.000	0.043	0.365
-600.084	228.294	-0.118	-0.193
-599.069	-5.286	-0.297	-0.206
-598.055	142.115	-0.024	0.031
-597.040	-200.000	-0.018	0.311
-596.025	800.000	-0.064	0.197
-595.011	-197.640	-0.306	0.002
-593.996	-42.295	-0.086	0.044
-592.982	-200.000	-0.021	-0.233
-591.967	800.000	-0.045	0.187
-590.952	-66.292	0.161	0.065
-589.938	418.799	0.135	0.291
-588.923	30.979	-0.027	0.023
-587.909	-67.635	-0.237	-0.093
-586.894	-54.359	-0.202	-0.092
-585.879	-200.000	0.064	0.423
-584.865	85.580	0.021	0.023
-583.850	249.056	0.066	-0.113
-582.836	130.233	-0.155	-0.200
-581.821	-143.985	0.059	-0.006
-580.806	214.065	0.225	-0.357
-579.792	-200.000	0.007	0.144
-578.777	-104.972	0.292	-0.067
-577.763	-138.478	-0.480	0.053
-576.748	476.963	0.099	0.226
-575.733	219.007	0.046	0.074
-574.719	-169.015	-0.112	-0.004
-573.704	96.519	0.179	-0.206
-572.690	537.346	-0.063	0.151
-571.675	91.110	0.231	-0.260
-570.661	31.834	-0.255	0.220
-569.646	-14.211	-0.279	0.180
-568.631	-7.062	-0.079	-0.054
-567.617	73.902	-0.114	0.120
-566.602	-32.154	-0.143	-0.080
-565.588	-43.596	0.290	0.147
-564.573	-162.976	-0.133	0.006
-563.558	91.202	0.164	0.184
-562.544	-200.000	-0.003	-0.096
-561.529	196.867	-0.105	-0.161
-560.515	-8.485	0.113	-0.077
-559.500	48.220	0.176	-0.165
-558.485	163.013	0.144	0.204
-557.471	-200.000	0.018	-0.143
-556.456	-8.048	0.194	-0.131
-555.442	4.010	-0.137	0.100
-554.427	74.099	-0.154	0.162
-553.412	216.713	0.148	-0.237
-552.398	15.932	-0.129	-0.102
-551.383	170.818	0.081	-0.116
-550.369	-19.873	0.361	0.224
-549.354	58.973	-0.230	0.227
-548.339	-113.338	0.048	-0.010
-547.325	119.170	0.138	-0.171
-546.310	-123.015	-0.099	-0.016
-545.296	-21.854	-0.118	0.072
-544.281	229.734	0.094	-0.155
-543.266	8.226	-0.162	-0.122
-542.252	-79.250	-0.089	0.030
-541.237	-150.079	-0.030	0.002
-540.223	47.669	-0.312	-0.293
-539.208	33.232	0.049	-0.043
-538.193	-85.671	-0.208	0.065
-537.179	-1.411	0.136	0.096
-536.164	-200.000	0.042	-0.320
-535.150	-160.958	0.097	-0.005
-534.135	150.438	-0.188	-0.256
-533.121	-200.000	0.128	-0.000
-532.106	273.133	-0.067	0.119
-531.091	-200.000	0.051	-0.332
-530.077	58.632	0.229	0.225
-529.062	68.681	0.139	0.143
-528.048	-24.087	-0.207	-0.124
-527.033	-8.572	-0.186	-0.125
-526.018	-107.242	-0.315	-0.070
-525.004	-1.987	-0.409	-0.288
-523.989	776.253	0.084	-0.229
-522.975	21.983	-0.160	0.131
-521.960	-77.418	0.394	0.137
-520.945	-82.307	0.099	-0.032
-519.931	-67.773	0.266	-0.104
-518.916	183.598	0.082	0.121
-517.902	800.000	0.060	0.168
-516.887	273.275	-0.038	0.067
-515.872	-189.477	0.314	0.004
-514.858	621.101	-0.058	0.147
-513.843	24.367	-0.050	-0.041
-512.829	49.773	0.216	0.204
-511.814	604.444	-0.029	0.072
-510.799	-112.722	0.312	-0.062
-509.785	-139.919	-0.221	0.023
-508.770	505.930	0.177	0.410
-507.756	800.000	-0.046	-0.176
-506.741	610.062	-0.030	-0.074
-505.726	-54.328	-0.262	0.119
-504.712	718.176	0.124	0.329
-503.697	-200.000	-0.031	-0.303
-502.683	-32.587	0.125	0.070
-501.668	-155.309	-0.112	-0.007
-500.653	-200.000	0.013	-0.205
-499.639	800.000	-0.055	0.154
-498.624	-76.485	-0.191	-0.067
-497.610	-200.000	0.012	0.159
-496.595	-148.359	-0.309	0.025
-495.581	178.610	-0.177	-0.259
-494.566	-97.246	0.289	0.076
-493.551	53.939	0.082	-0.079
-492.537	-125.803	-0.065	-0.010
-491.522	-19.321	-0.208	0.129
-490.508	322.412	-0.103	0.197
-489.493	-38.078	-0.122	0.065
-488.478	-132.297	-0.216	-0.028
-487.464	82.434	0.140	0.152
-486.449	69.935	0.185	-0.191
-485.435	142.226	0.116	-0.154
-484.420	-200.000	-0.057	0.297
-483.405	-200.000	-0.128	0.001
-482.391	-200.000	-0.196	-0.001
-481.376	-125.140	-0.359	0.055
-480.362	-132.724	-0.122	-0.016
-479.347	3.862	0.179	0.131
-478.332	-18.453	0.127	-0.079
-477.318	-140.232	0.432	0.045
-476.303	-200.000	-0.002	0.064
-475.289	17.549	0.388	-0.309
-474.274	800.000	0.036	-0.140
-473.259	800.000	-0.013	0.045
-472.245	666.016	0.070	-0.181
-471.230	-125.462	0.110	0.017
-470.216	-91.176	0.034	-0.010
-469.201	-200.000	-0.085	0.413
-468.186	-133.882	0.066	-0.008
-467.172	-48.269	-0.104	0.050
-466.157	-49.817	-0.179	-0.085
-465.143	53.507	0.100	0.096
-464.128	800.000	0.104	-0.304
-463.113	42.014	-0.256	0.232
-462.099	251.664	0.057	-0.097
-461.084	12.030	-0.213	-0.164
-460.070	800.000	0.092	-0.259
-459.055	147.444	0.186	0.250
-458.040	800.000	0.112	0.427
-457.026	800.000	0.074	0.294
-456.011	-200.000	-0.041	0.376
-454.997	-164.908	-0.279	-0.012
-453.982	-107.182	0.140	0.031
-452.968	-62.028	-0.162	0.068
-451.953	-167.179	0.054	0.002
-450.938	-70.974	-0.235	-0.089
-449.924	800.000	-0.042	-0.124
-448.909	-152.311	-0.091	-0.007
-447.895	-29.626	-0.168	0.096
-446.880	800.000	-0.036	0.111
-445.865	232.293	-0.133	-0.219
-444.851	381.142	0.063	-0.130
-443.836	184.478	-0.025	-0.036
-442.822	-119.361	-0.379	-0.066
-441.807	224.314	0.158	-0.255
-440.792	24.153	0.204	-0.168
-439.778	-151.713	-0.175	0.013
-438.763	-118.656	-0.180	-0.032
-437.749	800.000	-0.048	-0.139
-436.734	108.652	0.253	-0.302
-435.719	3.437	0.083	0.061
-434.705	17.909	0.138	-0.110
-433.690	800.000	0.007	-0.019
-432.676	-130.311	0.251	0.034
-431.661	800.000	-0.150	-0.438
-430.646	240.824	0.238	-0.396
-429.632	-200.000	0.010	-0.144
-428.617	-155.026	-0.152	-0.010
-427.603	-5.479	0.111	0.076
-426.588	-51.376	0.125	-0.058
-425.573	42.540	-0.130	0.118
-424.559	62.660	0.241	0.240
-423.544	155.344	-0.226	-0.310
-422.530	176.568	0.187	-0.271
-421.515	176.058	0.092	-0.133
-420.500	49.095	0.195	0.183
-419.486	-200.000	-0.006	-0.072
-418.471	-43.165	-0.161	0.081
-417.457	-5.213	0.334	0.229
-416.442	-171.926	-0.391	0.013
-415.428	783.369	-0.154	0.422
-414.413	800.000	0.006	-0.022
-413.398	142.250	-0.183	0.242
-412.384	-58.781	0.345	0.149
-411.369	-200.000	0.030	-0.232
-410.355	64.259	0.315	0.317
-409.340	-83.707	-0.389	0.124
-408.325	-200.000	0.004	-0.019
-407.311	800.000	0.051	0.154
-406.296	-139.932	-0.150	0.016
-405.282	5.203	-0.103	0.076
-404.267	800.000	0.039	-0.164
-403.252	655.759	-0.070	-0.179
-402.238	-200.000	-0.054	-0.268
-401.223	-55.736	-0.273	-0.122
-400.209	29.330	0.228	-0.193
-399.194	800.000	-0.077	0.245
-398.179	-200.000	-0.009	0.170
-397.165	-35.593	-0.213	0.115
-396.150	297.554	-0.039	0.071
-395.136	4.408	-0.277	-0.202
-394.121	12.633	-0.182	-0.140
-393.106	569.137	0.108	-0.261
-392.092	134.684	0.050	0.065
-391.077	96.547	-0.104	0.119
-390.063	276.506	0.060	-0.106
-389.048	618.080	-0.015	0.038
-388.033	13.460	0.126	-0.098
-387.019	-146.276	0.338	0.030
-386.004	-99.334	0.115	0.029
-384.990	-200.000	-0.020	0.240
-383.975	-200.000	-0.020	-0.229
-382.960	-67.852	0.058	0.023
-381.946	-200.000	0.024	-0.227
-380.931	204.490	-0.101	-0.156
-379.917	671.908	-0.086	-0.223
-378.902	144.138	-0.073	0.097
-377.888	-200.000	-0.007	-0.274
-376.873	-117.040	-0.247	-0.045
-375.858	2.935	0.194	0.140
-374.844	-61.747	-0.311	-0.130
-373.829	124.065	-0.059	-0.074
-372.815	-200.000	0.028	0.350
-371.800	-140.194	0.280	0.029
-370.785	-14.078	0.183	0.118
-369.771	90.753	-0.181	0.202
-368.756	97.176	0.133	-0.152
-367.742	-200.000	-0.018	0.142
-366.727	-5.103	-0.087	-0.060
-365.712	-107.512	0.171	-0.037
-364.698	32.577	-0.157	0.135
-363.683	800.000	0.075	-0.318
-362.669	800.000	0.078	0.299
-361.654	-0.867	-0.353	-0.249
-360.639	-200.000	0.045	-0.376
-359.625	-200.000	0.010	0.052
-358.610	-54.461	0.204	-0.092
-357.596	-38.476	-0.201	0.106
-356.581	78.750	0.062	0.066
-355.566	-120.063	-0.230	0.039
-354.552	18.975	0.028	-0.022
-353.537	46.818	-0.286	-0.265
-352.523	-62.943	-0.100	0.041
-351.508	800.000	-0.049	0.148
-350.493	-119.161	0.305	0.053
-349.479	-10.096	0.159	-0.105
-348.464	-92.579	0.102	0.029
-347.450	-153.877	-0.154	0.010
-346.435	169.691	-0.081	0.116
-345.420	-40.417	0.117	-0.061
-344.406	-87.291	0.210	-0.063
-343.391	-200.000	-0.018	0.141
-342.377	-114.441	-0.159	0.030
-341.362	800.000	-0.076	-0.269
-340.348	-109.057	0.112	-0.024
-339.333	18.018	-0.200	-0.159
-338.318	52.497	0.092	-0.088
-337.304	-200.000	-0.041	-0.305
-336.289	349.524	0.147	0.289
-335.275	77.685	0.130	0.138
-334.260	150.434	-0.069	0.093
-333.245	-200.000	0.043	0.211
-332.231	-66.948	-0.262	-0.103
-331.216	19.838	-0.087	-0.070
-330.202	1.835	-0.027	-0.019
-329.187	800.000	0.140	0.577
-328.172	61.805	0.181	-0.180
-327.158	-68.252	-0.260	0.101
-326.143	-1.511	-0.147	0.103
-325.129	-143.110	-0.181	-0.017
-324.114	44.938	-0.069	0.063
-323.099	-3.703	-0.265	0.183
-322.085	373.756	0.117	0.237
-321.070	323.546	-0.088	0.168
-320.056	-127.446	0.192	-0.028
-319.041	309.711	0.065	0.121
-318.026	54.017	0.149	-0.143
-317.012	222.988	-0.114	-0.182
-315.997	195.906	0.199	-0.301
-314.983	-62.693	0.301	-0.124
-313.968	22.279	-0.184	-0.150
-312.953	565.657	-0.071	-0.172
-311.939	800.000	-0.042	-0.177
-310.924	-170.977	0.093	-0.003
-309.910	800.000	-0.041	-0.125
-308.895	279.535	-0.103	0.183
-307.880	-200.000	-0.023	0.155
-306.866	145.832	-0.124	0.165
-305.851	-200.000	0.026	0.181
-304.837	46.578	-0.234	0.216
-303.822	-200.000	0.002	-0.190
-302.807	-200.000	0.042	-0.493
-301.793	-200.000	0.108	-0.570
-300.778	241.468	0.062	-0.102
-299.764	800.000	0.043	0.150
-298.749	643.681	0.062	-0.157
-297.735	138.480	-0.070	0.091
-296.720	-77.352	0.237	-0.082
-295.705	257.890	0.090	-0.153
-294.691	800.000	-0.080	-0.265
-293.676	-52.122	-0.431	-0.199
-292.662	728.643	-0.044	0.116
-291.647	177.802	0.344	0.499
-290.632	800.000	-0.127	-0.396
-289.618	84.756	-0.109	-0.118
-288.603	-31.380	0.076	-0.042
-287.589	255.914	-0.136	-0.232
-286.574	159.725	0.150	-0.207
-285.559	-175.177	-0.440	0.012
-284.545	117.321	0.135	0.165
-283.530	-200.000	0.105	-0.474
-282.516	-19.966	-0.215	-0.132
-281.501	113.687	0.169	-0.203
-280.486	-1.172	0.157	0.110
-279.472	800.000	0.084	0.329
-278.457	25.456	0.143	0.118
-277.443	56.687	-0.417	0.403
-276.428	-71.510	0.126	0.047
-275.413	-129.961	0.141	0.019
-274.399	-35.568	-0.144	0.078
-273.384	-2.637	-0.205	-0.142
-272.370	800.000	0.077	0.317
-271.355	185.934	0.288	-0.425
-270.340	-138.227	-0.221	0.024
-269.326	-200.000	-0.021	-0.164
-268.311	-77.433	0.355	0.122
-267.297	-121.682	-0.341	-0.056
-266.282	91.290	-0.017	-0.019
-265.267	94.225	-0.298	-0.336
-264.253	-200.000	-0.042	0.335
-263.238	800.000	0.051	0.206
-262.224	800.000	0.036	0.106
-261.209	-200.000	0.010	0.157
-260.195	-82.754	0.120	0.038
-259.180	800.000	-0.143	0.467
-258.165	-21.602	-0.205	-0.124
-257.151	800.000	0.028	0.078
-256.136	-135.662	0.451	0.053
-255.122	-200.000	-0.075	0.664
-254.107	-200.000	-0.029	-0.138
-253.092	-130.550	-0.183	0.025
-252.078	545.744	0.061	-0.145
-251.063	-176.772	0.548	-0.014
-250.049	-94.348	0.032	-0.009
-249.034	71.574	-0.117	0.121
-248.019	-130.780	0.306	-0.041
-247.005	-167.757	0.313	0.012
-245.990	103.757	-0.236	-0.275
-244.976	83.701	0.056	-0.061
-243.961	-200.000	0.019	0.427
-242.946	75.977	0.167	-0.175
-241.932	-200.000	0.009	0.124
-240.917	-173.516	-0.132	0.004
-239.903	-120.344	-0.093	0.016
-238.888	89.278	-0.213	0.236
-237.873	475.803	-0.044	0.098
-236.859	66.770	0.115	-0.116
-235.844	-88.227	0.066	0.020
-234.830	780.921	0.100	0.271
-233.815	800.000	0.016	0.052
-232.800	-200.000	0.019	-0.237
-231.786	37.797	0.189	0.167
-230.771	800.000	0.046	0.178
-229.757	800.000	0.144	0.485
-228.742	430.696	0.048	0.103
-227.727	-62.513	0.069	-0.028
-226.713	-89.552	0.186	-0.054
-225.698	-186.997	-0.062	0.001
-224.684	740.793	-0.105	-0.278
-223.669	115.618	-0.115	0.140
-222.655	800.000	0.099	-0.327
-221.640	-78.848	-0.203	-0.069
-220.625	-134.044	0.096	-0.012
-219.611	-200.000	-0.068	0.308
-218.596	131.523	0.135	0.171
-217.582	800.000	-0.055	0.164
-216.567	83.356	-0.185	-0.199
-215.552	29.488	-0.202	-0.170
-214.538	-101.628	0.159	0.038
-213.523	-200.000	0.043	0.256
-212.509	214.539	0.138	-0.217
-211.494	-76.751	-0.150	0.052
-210.479	42.033	-0.091	0.082
-209.465	-148.485	0.252	0.020
-208.450	-48.011	0.265	-0.127
-207.436	-24.551	0.239	-0.141
-206.421	65.257	0.148	0.148
-205.406	-20.697	-0.258	-0.157
-204.392	111.256	-0.099	-0.118
-203.377	142.559	-0.064	-0.084
-202.363	-13.054	0.218	-0.140
-201.348	-13.373	-0.097	-0.062
-200.333	-30.099	0.207	-0.117
-199.319	-1.533	-0.083	0.058
-198.304	496.461	0.156	0.354
-197.290	-200.000	-0.008	0.321
-196.275	-85.943	-0.246	-0.075
-195.260	-117.206	0.106	0.019
-194.246	53.981	0.116	-0.110
-193.231	139.039	0.141	-0.183
-192.217	91.697	-0.080	0.089
-191.202	-114.298	0.378	-0.072
-190.187	-46.677	-0.175	-0.085
-189.173	725.094	0.182	0.480
-188.158	800.000	0.020	0.081
-187.144	-10.548	0.260	0.171
-186.129	-33.840	-0.231	0.126
-185.114	-129.644	-0.349	0.048
-184.100	-151.689	0.198	-0.014
-183.085	297.983	-0.263	0.478
-182.071	800.000	0.124	0.391
-181.056	-60.419	0.207	-0.087
-180.042	380.633	0.102	0.206
-179.027	-200.000	0.012	0.147
-178.012	182.638	0.132	0.192
-176.998	8.903	-0.141	-0.105
-175.983	47.610	-0.116	-0.107
-174.969	62.232	0.191	-0.189
-173.954	255.515	-0.083	-0.140
-172.939	-97.427	0.273	0.070
-171.925	75.481	-0.259	-0.270
-170.910	161.194	-0.040	0.055
-169.896	418.629	0.014	-0.029
-168.881	-170.269	0.356	0.012
-167.866	-200.000	-0.080	0.412
-166.852	71.557	0.298	-0.306
-165.837	499.601	-0.032	-0.073
-164.823	-12.717	-0.053	0.034
-163.808	-46.302	-0.239	-0.116
-162.793	-65.682	0.045	-0.018
-161.779	-200.000	-0.039	0.253
-160.764	-86.235	0.560	0.170
-159.750	47.734	0.147	-0.136
-158.735	-46.460	0.293	-0.142
-157.720	280.986	0.096	0.169
-156.706	165.646	0.227	-0.318
-155.691	62.841	-0.177	-0.175
-154.677	-200.000	0.032	0.184
-153.662	-33.444	0.121	-0.066
-152.647	800.000	0.011	0.033
-151.633	83.421	0.190	0.205
-150.618	107.166	-0.189	0.222
-149.604	46.960	0.200	0.184
-148.589	-61.036	0.057	-0.024
-147.574	56.309	-0.120	-0.115
-146.560	-65.472	0.073	0.029
-145.545	800.000	0.061	-0.216
-144.531	554.148	0.013	0.031
-143.516	-63.222	-0.176	-0.072
-142.502	-42.226	0.085	-0.043
-141.487	298.388	0.130	0.236
-140.472	-74.325	0.073	-0.026
-139.458	-59.166	0.289	-0.123
-138.443	-99.196	-0.346	0.086
-137.429	-54.483	0.204	0.091
-136.414	-31.008	0.251	-0.140
-135.399	-49.076	0.450	-0.212
-134.385	-19.075	0.084	-0.052
-133.370	154.621	0.094	0.127
-132.356	17.714	-0.428	0.336
-131.341	42.852	-0.123	0.111
-130.326	-200.000	0.034	-0.385
-129.312	-72.141	-0.331	-0.121
-128.297	16.098	0.155	0.121
-127.283	800.000	0.141	0.476
-126.268	-56.909	0.157	0.068
-125.253	-158.547	0.067	0.004
-124.239	-151.092	-0.252	-0.019
-123.224	-200.000	-0.001	-0.370
-122.210	-107.330	0.186	-0.040
-121.195	-91.119	0.102	-0.029
-120.180	800.000	0.077	-0.228
-119.166	92.168	0.095	0.105
