DTS Sentinel unit serial number:	SN413079Multiplexer serial number:	ORYXHardware model number:	OX4-SRSoftware version number:	ORYX F/W v4.00 Oryx Data Collector v3.7.2.0data status	okinstallation	princeton_trtdifferential loss correction	single-endedforward channel	channel 4reverse channel	N/Adate	2019/09/16time	18:21:34forward acquisition time	60.00reverse acquisition time	0.00gamma	496.2192k internal	0.2301k external	0.2301temperature offset calibration	0.9947default loss term (dB/km)	0.3790temperature slope calibration	1.0000multiplexer offset coefficient	1.0000multiplexer slope coefficient	1.0000fibre end	0.00T internal ref (°C)	36.94T ext. ref 1 (°C)	15.77T ext. ref 2 (°C)	30.40length (m)	temperature (°C)	Stokes	anti-Stokes-747.200	-134.129	-0.289	-0.036
-746.185	-44.836	-0.265	0.135
-745.171	-49.167	0.174	-0.085
-744.156	-175.886	-0.349	-0.009
-743.142	-177.866	0.085	-0.002
-742.127	-31.752	-0.093	-0.053
-741.112	-5.502	-0.145	-0.101
-740.098	800.000	0.097	0.292
-739.083	800.000	-0.045	0.171
-738.069	30.162	0.195	0.170
-737.054	2.979	0.142	-0.105
-736.039	344.564	0.071	-0.143
-735.025	-200.000	-0.046	0.249
-734.010	30.358	-0.309	0.269
-732.996	-59.397	0.083	0.036
-731.981	68.084	0.129	0.135
-730.966	280.493	-0.053	-0.096
-729.952	-112.271	-0.136	0.028
-728.937	266.542	-0.160	-0.284
-727.923	247.349	-0.061	-0.106
-726.908	-131.069	0.115	0.016
-725.894	62.028	0.166	0.169
-724.879	39.904	-0.153	-0.140
-723.864	-71.792	-0.071	0.027
-722.850	-65.319	0.355	-0.146
-721.835	-45.925	0.451	0.227
-720.821	800.000	-0.036	-0.119
-719.806	150.181	-0.175	-0.242
-718.791	-1.775	0.061	-0.043
-717.777	800.000	-0.031	-0.128
-716.762	98.383	0.259	0.304
-715.748	91.279	0.248	0.283
-714.733	-139.492	-0.283	0.031
-713.718	800.000	-0.083	-0.249
-712.704	721.114	-0.122	-0.331
-711.689	-200.000	0.060	0.363
-710.675	567.812	0.103	0.255
-709.660	-19.382	0.180	0.114
-708.645	-110.123	0.142	0.030
-707.631	214.194	-0.137	0.221
-706.616	-57.126	0.288	0.129
-705.602	-200.000	0.011	-0.110
-704.587	31.112	-0.144	0.126
-703.572	-81.062	0.263	-0.088
-702.558	-106.614	-0.175	0.040
-701.543	-100.910	0.243	0.061
-700.529	-51.999	-0.162	0.077
-699.514	62.245	-0.207	-0.210
-698.499	-57.106	0.208	0.093
-697.485	800.000	-0.064	-0.179
-696.470	751.082	-0.038	-0.103
-695.456	70.746	-0.328	-0.346
-694.441	800.000	0.090	-0.333
-693.426	-63.233	0.229	-0.096
-692.412	-200.000	-0.021	-0.228
-691.397	377.506	0.045	0.093
-690.383	329.662	-0.152	-0.298
-689.368	18.060	-0.279	0.227
-688.354	-168.524	0.115	-0.004
-687.339	-200.000	-0.012	0.155
-686.324	-15.267	-0.257	0.167
-685.310	240.324	0.134	0.228
-684.295	51.924	-0.165	0.159
-683.281	29.306	0.078	-0.067
-682.266	-99.853	0.206	0.052
-681.251	-55.385	0.137	0.062
-680.237	389.385	-0.112	0.236
-679.222	-200.000	-0.003	0.071
-678.208	-9.852	-0.126	0.085
-677.193	609.756	-0.004	-0.009
-676.178	-153.649	0.070	-0.005
-675.164	151.298	0.236	-0.326
-674.149	-200.000	-0.043	-0.201
-673.135	36.248	-0.170	0.152
-672.120	-192.693	0.366	-0.003
-671.105	-85.334	0.262	-0.083
-670.091	79.081	-0.192	-0.209
-669.076	-63.783	0.399	0.166
-668.062	715.549	-0.095	0.257
-667.047	438.887	0.125	0.277
-666.032	-200.000	0.024	-0.278
-665.018	800.000	-0.025	0.099
-664.003	89.553	-0.082	-0.093
-662.989	-69.310	0.107	-0.042
-661.974	-102.307	0.224	0.055
-660.959	52.880	0.334	-0.324
-659.945	-73.408	0.054	-0.020
-658.930	-19.057	-0.236	0.149
-657.916	-200.000	0.010	-0.049
-656.901	800.000	0.074	0.220
-655.886	-70.892	-0.328	-0.125
-654.872	772.445	0.104	0.288
-653.857	-36.589	0.215	-0.117
-652.843	-200.000	-0.111	0.000
-651.828	147.636	-0.121	0.166
-650.814	-66.593	0.447	0.180
-649.799	371.584	0.083	-0.172
-648.784	-136.288	-0.298	0.035
-647.770	800.000	-0.124	-0.359
-646.755	57.924	-0.134	-0.133
-645.741	90.755	0.196	-0.223
-644.726	-39.032	0.096	-0.051
-643.711	-47.472	0.114	0.056
-642.697	800.000	-0.029	-0.122
-641.682	800.000	-0.057	0.175
-640.668	800.000	-0.058	0.208
-639.653	-52.643	-0.147	0.069
-638.638	800.000	-0.019	0.069
-637.624	-96.395	-0.245	-0.066
-636.609	-30.550	0.155	0.089
-635.595	-200.000	0.005	-0.087
-634.580	-143.107	-0.110	-0.011
-633.565	-120.938	0.170	0.029
-632.551	-40.082	-0.265	0.140
-631.536	-200.000	-0.079	-0.523
-630.522	-200.000	0.013	0.176
-629.507	214.111	0.093	-0.149
-628.492	800.000	0.017	0.072
-627.478	187.851	-0.055	0.083
-626.463	-200.000	-0.003	0.172
-625.449	139.651	0.065	-0.087
-624.434	-33.508	0.226	0.126
-623.419	142.235	0.160	0.215
-622.405	15.599	0.224	0.179
-621.390	9.980	0.126	0.097
-620.376	-126.858	0.268	-0.040
-619.361	-143.116	0.188	-0.018
-618.346	88.898	0.038	0.043
-617.332	-71.313	0.141	0.054
-616.317	104.386	-0.246	-0.293
-615.303	-156.798	-0.076	-0.005
-614.288	-134.391	0.334	0.042
-613.273	-112.495	-0.158	-0.032
-612.259	-6.430	-0.086	0.060
-611.244	-200.000	-0.042	0.287
-610.230	-152.108	0.097	-0.007
-609.215	160.208	0.360	-0.510
-608.201	0.269	0.238	-0.172
-607.186	86.306	-0.111	-0.124
-606.171	20.919	-0.415	-0.341
-605.157	31.492	-0.299	0.260
-604.142	492.859	0.022	0.051
-603.128	800.000	-0.080	0.329
-602.113	222.628	-0.144	0.234
-601.098	234.791	0.152	0.255
-600.084	151.773	0.013	-0.018
-599.069	122.104	0.067	-0.085
-598.055	505.486	-0.044	0.103
-597.040	415.379	0.065	-0.141
-596.025	-31.764	0.122	0.069
-595.011	44.158	0.040	0.037
-593.996	-120.457	-0.052	-0.009
-592.982	-131.636	0.360	0.048
-591.967	387.107	-0.037	0.076
-590.952	430.610	0.084	0.184
-589.938	800.000	-0.072	-0.246
-588.923	303.487	0.167	0.313
-587.909	260.608	-0.037	0.065
-586.894	800.000	0.093	0.291
-585.879	271.097	0.151	0.269
-584.865	18.722	-0.173	0.141
-583.850	-84.929	-0.254	-0.081
-582.836	-65.313	0.147	0.060
-581.821	17.768	0.286	-0.231
-580.806	-57.811	0.044	-0.019
-579.792	-80.341	-0.122	0.041
-578.777	-83.393	-0.331	-0.108
-577.763	25.040	-0.174	0.146
-576.748	-200.000	-0.034	0.339
-575.733	66.154	0.146	0.150
-574.719	14.931	-0.085	-0.067
-573.704	-76.311	0.255	0.091
-572.690	-38.380	-0.165	-0.088
-571.675	24.578	0.146	0.122
-570.661	-42.281	0.226	0.117
-569.646	541.869	-0.102	-0.245
-568.631	31.009	-0.098	0.085
-567.617	-55.008	-0.156	-0.071
-566.602	-37.652	-0.166	-0.089
-565.588	206.712	0.219	-0.345
-564.573	-66.236	0.237	-0.095
-563.558	25.348	-0.209	-0.176
-562.544	199.878	0.256	0.397
-561.529	-1.985	-0.266	0.189
-560.515	800.000	0.095	0.271
-559.500	800.000	-0.054	-0.207
-558.485	-200.000	0.006	-0.160
-557.471	13.871	0.115	-0.090
-556.456	-200.000	0.038	0.265
-555.442	90.506	0.054	0.061
-554.427	-0.359	-0.235	-0.169
-553.412	-200.000	-0.022	-0.251
-552.398	-200.000	0.001	0.092
-551.383	93.677	-0.316	0.362
-550.369	508.100	-0.031	0.072
-549.354	-159.874	0.187	-0.010
-548.339	84.494	-0.062	-0.069
-547.325	-200.000	0.023	-0.262
-546.310	-82.294	-0.084	-0.028
-545.296	-85.094	0.284	0.090
-544.281	800.000	0.049	0.153
-543.266	-73.556	-0.208	-0.077
-542.252	-61.915	0.095	-0.040
-541.237	-61.956	0.120	-0.051
-540.223	-134.066	0.305	-0.038
-539.208	-122.831	-0.291	-0.048
-538.193	800.000	0.043	0.162
-537.179	-79.637	0.137	-0.047
-536.164	45.478	0.374	-0.349
-535.150	250.599	0.018	-0.032
-534.135	-82.454	-0.365	-0.120
-533.121	70.486	-0.169	-0.176
-532.106	-97.260	-0.310	0.082
-531.091	208.229	0.164	0.259
-530.077	753.224	0.098	-0.269
-529.062	-9.747	-0.281	0.189
-528.048	-3.444	0.105	-0.074
-527.033	23.182	0.079	-0.066
-526.018	15.370	0.178	0.141
-525.004	44.942	-0.253	0.235
-523.989	-40.825	-0.319	0.167
-522.975	-37.881	-0.281	-0.151
-521.960	-10.958	-0.075	-0.050
-520.945	-200.000	-0.002	-0.081
-519.931	-145.760	-0.259	-0.023
-518.916	800.000	0.053	0.159
-517.902	-200.000	-0.002	0.079
-516.887	54.921	0.282	-0.275
-515.872	800.000	0.082	0.315
-514.858	-200.000	-0.069	-0.314
-513.843	800.000	-0.089	-0.292
-512.829	-200.000	-0.031	-0.211
-511.814	295.161	-0.076	-0.140
-510.799	-200.000	0.011	0.068
-509.785	800.000	0.128	0.360
-508.770	260.280	-0.085	0.148
-507.756	-52.505	-0.390	0.182
-506.741	-61.990	-0.179	0.076
-505.726	-21.259	-0.362	0.224
-504.712	-149.425	-0.166	0.013
-503.697	415.137	0.043	-0.093
-502.683	-19.704	0.117	-0.073
-501.668	-155.974	-0.051	-0.003
-500.653	-200.000	-0.012	-0.101
-499.639	8.137	-0.168	0.127
-498.624	800.000	0.068	-0.250
-497.610	-21.531	0.143	0.088
-496.595	-4.825	-0.063	-0.044
-495.581	-144.739	0.206	-0.019
-494.566	-82.316	0.227	0.075
-493.551	440.096	-0.117	0.258
-492.537	-67.435	0.116	-0.046
-491.522	184.287	-0.023	0.034
-490.508	-82.152	0.124	-0.041
-489.493	800.000	-0.146	-0.428
-488.478	53.598	-0.148	-0.143
-487.464	-200.000	-0.022	0.495
-486.449	41.020	0.151	-0.138
-485.435	331.894	-0.046	0.090
-484.420	-4.552	-0.303	0.212
-483.405	-144.364	0.087	0.008
-482.391	455.356	-0.178	0.399
-481.376	-200.000	0.030	-0.196
-480.362	-200.000	-0.004	-0.278
-479.347	94.593	0.154	-0.176
-478.332	-189.081	-0.209	0.003
-477.318	-200.000	-0.005	-0.395
-476.303	-200.000	-0.046	0.211
-475.289	42.889	-0.238	0.218
-474.274	-154.954	-0.156	-0.010
-473.259	12.105	0.228	0.177
-472.245	800.000	-0.030	0.091
-471.230	276.714	-0.120	-0.215
-470.216	333.737	0.124	-0.242
-469.201	-200.000	-0.008	-0.194
-468.186	-151.286	-0.187	0.014
-467.172	-27.178	0.094	-0.055
-466.157	212.509	0.122	0.195
-465.143	-43.937	-0.134	0.068
-464.128	-200.000	0.006	0.391
-463.113	-12.968	-0.063	0.041
-462.099	-157.629	-0.224	-0.013
-461.084	-200.000	0.265	-0.001
-460.070	-15.053	0.257	-0.166
-459.055	-200.000	0.017	-0.076
-458.040	-140.032	-0.214	0.023
-457.026	-60.608	-0.199	-0.085
-456.011	93.849	0.162	-0.185
-454.997	-200.000	0.005	0.297
-453.982	-43.636	-0.221	0.112
-452.968	-122.671	0.219	0.036
-451.953	-84.036	-0.265	-0.085
-450.938	441.265	0.069	0.152
-449.924	283.677	0.125	0.226
-448.909	94.873	-0.083	0.095
-447.895	-200.000	-0.021	0.115
-446.880	-118.151	-0.069	-0.012
-445.865	-29.265	-0.053	0.031
-444.851	519.527	-0.036	0.084
-443.836	-44.909	-0.136	-0.068
-442.822	-124.275	0.049	0.008
-441.807	63.983	0.233	0.236
-440.792	82.768	-0.032	0.036
-439.778	31.533	-0.180	0.155
-438.763	800.000	0.050	0.181
-437.749	291.903	0.072	0.133
-436.734	569.348	-0.082	-0.201
-435.719	11.375	0.089	-0.068
-434.705	1.367	0.095	-0.069
-433.690	-28.604	-0.141	0.082
-432.676	-19.082	-0.262	0.164
-431.661	-128.913	-0.244	-0.035
-430.646	28.076	-0.111	0.094
-429.632	133.537	-0.055	-0.072
-428.617	800.000	-0.046	0.204
-427.603	505.712	-0.098	-0.230
-426.588	163.995	0.152	-0.215
-425.573	-200.000	-0.008	0.291
-424.559	216.399	0.167	0.267
-423.544	800.000	0.063	-0.222
-422.530	359.037	-0.170	-0.343
-421.515	-125.750	0.085	0.013
-420.500	32.735	0.165	0.144
-419.486	800.000	0.016	0.067
-418.471	22.681	-0.073	-0.060
-417.457	-29.685	0.166	0.095
-416.442	43.638	-0.014	0.012
-415.428	-116.577	0.274	0.051
-414.413	-136.628	0.269	0.031
-413.398	-8.409	-0.375	0.253
-412.384	-200.000	0.094	0.446
-411.369	-65.913	-0.344	-0.138
-410.355	190.316	0.057	-0.087
-409.340	117.770	-0.053	0.066
-408.325	-200.000	0.008	0.064
-407.311	56.447	-0.308	-0.301
-406.296	36.164	0.246	0.218
-405.282	-200.000	0.008	0.158
-404.267	487.622	-0.089	0.203
-403.252	-200.000	-0.001	0.092
-402.238	-174.672	-0.166	-0.005
-401.223	96.557	0.050	-0.058
-400.209	296.800	0.062	-0.114
-399.194	-200.000	-0.044	-0.232
-398.179	-61.517	0.025	-0.010
-397.165	-48.892	0.205	0.099
-396.150	-109.833	-0.139	-0.029
-395.136	-200.000	-0.012	-0.056
-394.121	309.141	-0.018	-0.033
-393.106	-200.000	0.016	0.089
-392.092	-103.203	0.126	0.030
-391.077	61.697	0.246	-0.246
-390.063	-30.070	-0.177	-0.101
-389.048	-54.970	0.315	-0.143
-388.033	-60.657	0.168	0.072
-387.019	-200.000	-0.003	0.310
-386.004	-200.000	0.004	-0.306
-384.990	-200.000	-0.034	0.456
-383.975	391.183	0.119	0.247
-382.960	352.390	-0.128	-0.256
-381.946	-57.320	-0.246	-0.109
-380.931	-46.126	0.154	0.076
-379.917	-62.611	-0.209	0.087
-378.902	800.000	-0.071	-0.201
-377.888	101.301	0.236	-0.276
-376.873	-200.000	0.210	0.001
-375.858	32.026	-0.103	-0.089
-374.844	-200.000	-0.046	0.303
-373.829	-82.610	0.100	-0.032
-372.815	-200.000	0.008	-0.430
-371.800	-86.521	-0.020	-0.006
-370.785	61.788	0.133	-0.133
-369.771	-97.737	0.216	-0.056
-368.756	-200.000	0.012	-0.414
-367.742	238.657	-0.124	-0.207
-366.727	452.155	-0.118	0.263
-365.712	268.410	-0.167	0.293
-364.698	-34.191	0.097	0.053
-363.683	149.034	0.171	-0.232
-362.669	335.575	0.110	-0.215
-361.654	-96.833	0.233	-0.061
-360.639	-119.268	-0.171	0.030
-359.625	800.000	-0.106	0.447
-358.610	-200.000	0.102	-0.482
-357.596	-90.950	-0.295	-0.085
-356.581	104.516	0.181	0.214
-355.566	-146.003	0.149	-0.013
-354.552	-6.065	-0.185	-0.127
-353.537	30.496	0.185	-0.159
-352.523	166.622	-0.111	-0.158
-351.508	-193.293	-0.035	-0.000
-350.493	-200.000	0.012	0.108
-349.479	109.614	0.095	-0.114
-348.464	800.000	-0.017	0.047
-347.450	97.852	-0.142	0.164
-346.435	25.193	-0.258	-0.215
-345.420	189.511	0.208	-0.313
-344.406	-128.945	-0.183	-0.026
-343.391	-200.000	0.040	-0.248
-342.377	-108.996	0.309	-0.066
-341.362	-26.235	-0.125	-0.074
-340.348	-131.081	0.252	-0.034
-339.333	244.692	0.052	0.088
-338.318	-50.640	-0.112	0.053
-337.304	-125.820	-0.058	0.009
-336.289	-93.265	0.430	-0.120
-335.275	-200.000	-0.028	0.131
-334.260	-200.000	0.014	-0.263
-333.245	57.435	-0.059	-0.058
-332.231	160.475	-0.425	-0.595
-331.216	-200.000	-0.021	-0.475
-330.202	-104.813	0.178	0.041
-329.187	644.024	-0.045	-0.115
-328.172	675.584	0.060	0.157
-327.158	-56.099	-0.153	0.068
-326.143	67.462	-0.198	0.202
-325.129	-38.871	0.215	-0.113
-324.114	-109.169	0.270	-0.058
-323.099	-148.344	0.129	0.011
-322.085	131.549	0.180	0.232
-321.070	-93.134	-0.220	0.062
-320.056	-116.612	0.183	0.034
-319.041	-136.457	0.138	-0.016
-318.026	-39.329	-0.039	0.020
-317.012	-200.000	0.019	0.250
-315.997	-20.505	-0.365	0.225
-314.983	-166.184	0.440	-0.019
-313.968	16.713	0.291	0.231
-312.953	79.794	-0.071	0.077
-311.939	-24.568	-0.272	-0.162
-310.924	-70.416	0.176	0.067
-309.910	-36.221	0.113	0.061
-308.895	-135.554	-0.326	0.039
-307.880	651.628	-0.138	0.355
-306.866	-132.243	-0.376	0.049
-305.851	-132.401	-0.291	-0.038
-304.837	-65.407	-0.156	-0.063
-303.822	17.303	-0.105	-0.083
-302.807	-133.043	-0.140	-0.018
-301.793	800.000	0.076	-0.236
-300.778	-102.331	0.203	0.049
-299.764	-75.445	0.305	-0.109
-298.749	-200.000	-0.008	0.108
-297.735	-162.877	0.237	0.012
-296.720	11.165	0.040	-0.031
-295.705	-57.161	0.246	-0.109
-294.691	-77.750	0.355	0.123
-293.676	336.035	0.108	-0.209
-292.662	-123.086	0.170	-0.027
-291.647	-62.570	0.227	-0.094
-290.632	-67.783	-0.146	-0.057
-289.618	-200.000	-0.004	-0.166
-288.603	262.457	-0.132	0.230
-287.589	-117.737	-0.165	-0.030
-286.574	-27.063	-0.294	-0.172
-285.559	-26.209	0.306	0.180
-284.545	573.476	-0.135	0.329
-283.530	27.869	0.173	-0.146
-282.516	331.068	-0.049	0.095
-281.501	15.456	-0.254	-0.200
-280.486	800.000	-0.044	0.124
-279.472	4.332	0.319	0.234
-278.457	308.059	0.057	-0.106
-277.443	127.854	-0.149	-0.189
-276.428	229.743	-0.188	0.308
-275.413	99.508	-0.071	-0.082
-274.399	-82.252	-0.239	-0.078
-273.384	366.707	0.061	-0.123
-272.370	125.456	0.198	0.249
-271.355	693.123	-0.104	0.272
-270.340	800.000	-0.031	0.127
-269.326	-103.304	0.151	0.036
-268.311	607.756	0.092	-0.229
-267.297	281.043	0.099	-0.176
-266.282	-53.477	-0.196	0.090
-265.267	-74.617	0.356	-0.128
-264.253	-200.000	0.024	0.295
-263.238	-200.000	0.034	0.378
-262.224	-200.000	-0.015	-0.125
-261.209	26.314	-0.128	-0.107
-260.195	-122.468	-0.100	-0.016
-259.180	-200.000	0.069	0.317
-258.165	59.616	0.141	0.139
-257.151	41.096	-0.272	-0.246
-256.136	27.195	0.090	-0.075
-255.122	45.014	0.099	0.091
-254.107	-157.513	0.121	-0.007
-253.092	-176.548	-0.161	0.004
-252.078	-200.000	-0.010	-0.224
-251.063	319.488	0.139	-0.264
-250.049	76.597	0.170	-0.181
-249.034	-45.422	0.338	0.168
-248.019	449.643	-0.082	-0.180
-247.005	-90.997	0.269	0.077
-245.990	800.000	-0.011	-0.046
-244.976	32.639	-0.094	-0.082
-243.961	-141.612	0.159	-0.016
-242.946	-110.936	-0.078	-0.016
-241.932	147.721	-0.218	-0.293
-240.917	68.436	0.196	-0.201
-239.903	-171.918	0.128	-0.004
-238.888	25.204	-0.067	0.055
-237.873	-25.271	0.196	-0.116
-236.859	800.000	0.060	0.209
-235.844	-200.000	0.039	0.240
-234.830	-71.719	-0.218	-0.081
-233.815	-158.310	0.171	0.010
-232.800	-106.828	-0.205	0.046
-231.786	-45.406	0.223	-0.111
-230.771	800.000	-0.026	0.110
-229.757	106.325	-0.168	0.199
-228.742	-36.528	-0.090	-0.048
-227.727	-114.546	-0.175	0.033
-226.713	563.125	-0.095	-0.230
-225.698	800.000	0.045	-0.140
-224.684	-46.419	-0.277	0.136
-223.669	-27.938	-0.062	-0.036
-222.655	56.287	0.088	0.085
-221.640	-200.000	-0.033	-0.288
-220.625	338.787	0.100	-0.194
-219.611	-103.254	-0.383	0.090
-218.596	800.000	-0.081	-0.226
-217.582	-200.000	-0.005	-0.243
-216.567	-200.000	-0.033	0.146
-215.552	-93.213	-0.499	-0.139
-214.538	1.210	-0.167	0.120
-213.523	-29.971	0.150	0.086
-212.509	-125.976	-0.146	0.022
-211.494	208.574	0.063	-0.099
-210.479	800.000	-0.184	0.533
-209.465	-96.480	-0.109	-0.029
-208.450	-200.000	0.014	0.070
-207.436	57.904	0.282	0.276
-206.421	-106.572	0.183	0.041
-205.406	800.000	0.052	-0.152
-204.392	78.067	-0.061	-0.065
-203.377	94.836	-0.125	-0.142
-202.363	62.908	-0.300	0.300
-201.348	800.000	-0.106	-0.344
-200.333	181.169	0.216	0.317
-199.319	-53.400	0.160	-0.073
-198.304	351.800	0.120	0.237
-197.290	-12.658	0.134	-0.087
-196.275	-58.151	0.293	-0.127
-195.260	-65.939	-0.036	0.014
-194.246	6.581	-0.121	0.090
-193.231	-9.489	0.362	-0.241
-192.217	210.351	0.067	-0.106
-191.202	-200.000	-0.032	0.279
-190.187	-57.336	0.284	0.125
-189.173	-115.344	0.257	0.048
-188.158	-143.014	-0.124	-0.012
-187.144	-29.694	-0.196	0.111
-186.129	-60.980	-0.337	0.142
-185.114	-200.000	0.007	-0.078
-184.100	-179.849	-0.083	0.002
-183.085	-66.650	0.191	0.075
-182.071	-39.830	0.218	0.113
-181.056	800.000	-0.042	0.128
-180.042	800.000	0.062	-0.258
-179.027	586.603	-0.091	0.224
-178.012	-41.603	0.194	0.099
-176.998	-200.000	0.052	-0.382
-175.983	-200.000	-0.002	-0.106
-174.969	-108.425	-0.381	-0.082
-173.954	522.640	-0.025	0.059
-172.939	10.315	-0.322	-0.245
-171.925	568.625	0.165	0.399
-170.910	140.979	0.124	-0.164
-169.896	-16.054	0.118	0.075
-168.881	-13.421	0.181	-0.117
-167.866	800.000	-0.095	-0.409
-166.852	-7.976	-0.131	0.088
-165.837	-113.041	0.241	-0.047
-164.823	-200.000	0.001	-0.064
-163.808	-200.000	0.028	0.186
-162.793	800.000	-0.003	-0.011
-161.779	41.189	-0.217	0.195
-160.764	-200.000	0.044	-0.273
-159.750	204.407	-0.040	-0.061
-158.735	50.317	0.179	-0.169
-157.720	4.959	0.305	-0.223
-156.706	724.062	0.067	-0.178
-155.691	-6.134	-0.072	0.049
-154.677	94.086	-0.054	0.062
-153.662	-38.374	-0.168	-0.088
-152.647	-124.131	-0.213	-0.033
-151.633	-107.998	0.161	0.035
-150.618	800.000	-0.005	0.017
-149.604	9.133	-0.185	-0.139
-148.589	209.755	0.111	-0.174
-147.574	14.683	-0.222	0.172
-146.560	24.859	0.068	-0.056
-145.545	-62.995	-0.055	0.023
-144.531	-200.000	-0.024	0.244
-143.516	13.091	-0.274	0.211
-142.502	33.008	0.279	0.241
-141.487	182.570	0.100	0.147
-140.472	-146.802	0.271	0.023
-139.458	-200.000	-0.072	-0.341
-138.443	-200.000	0.011	-0.160
-137.429	800.000	0.033	-0.128
-136.414	-30.811	-0.226	0.127
-135.399	800.000	0.114	0.344
-134.385	-45.101	-0.390	0.193
-133.370	178.821	-0.126	-0.184
-132.356	102.299	0.121	0.141
-131.341	800.000	-0.044	-0.177
-130.326	-142.854	0.092	-0.009
-129.312	95.247	0.261	0.296
-128.297	-109.678	-0.028	-0.006
-127.283	-9.276	0.148	-0.098
-126.268	-34.202	-0.189	0.103
-125.253	-6.309	-0.307	-0.208
-124.239	-87.984	0.195	0.058
-123.224	135.102	-0.028	-0.036
-122.210	-55.100	0.095	0.043
-121.195	-24.723	0.348	-0.206
-120.180	-198.594	-0.051	0.000
