DTS Sentinel unit serial number:	SN413079Multiplexer serial number:	ORYXHardware model number:	OX4-SRSoftware version number:	ORYX F/W v4.00 Oryx Data Collector v3.7.2.0data status	okinstallation	princeton_trtdifferential loss correction	single-endedforward channel	channel 4reverse channel	N/Adate	2019/09/16time	07:01:35forward acquisition time	60.00reverse acquisition time	0.00gamma	496.2192k internal	0.2320k external	0.2320temperature offset calibration	0.9982default loss term (dB/km)	0.3790temperature slope calibration	1.0000multiplexer offset coefficient	1.0000multiplexer slope coefficient	1.0000fibre end	0.00T internal ref (°C)	27.37T ext. ref 1 (°C)	11.50T ext. ref 2 (°C)	21.82length (m)	temperature (°C)	Stokes	anti-Stokes-747.200	-135.031	-0.103	0.013
-746.185	-200.000	-0.007	0.075
-745.171	-200.000	0.008	0.052
-744.156	-33.793	0.088	0.049
-743.142	135.964	-0.126	-0.166
-742.127	258.314	-0.173	0.301
-741.112	132.071	-0.195	-0.254
-740.098	-19.534	0.317	0.198
-739.083	-78.491	0.273	0.094
-738.069	14.337	-0.059	0.047
-737.054	-200.000	-0.017	0.115
-736.039	132.580	-0.051	0.067
-735.025	-108.312	0.253	0.055
-734.010	225.505	-0.028	-0.045
-732.996	800.000	0.087	-0.314
-731.981	441.302	-0.157	-0.348
-730.966	-49.247	-0.176	-0.085
-729.952	-121.940	-0.172	0.029
-728.937	48.254	-0.117	0.111
-727.923	800.000	0.019	-0.081
-726.908	-107.250	-0.177	-0.039
-725.894	-100.967	-0.228	0.056
-724.879	-101.262	0.293	-0.072
-723.864	-200.000	0.030	0.149
-722.850	800.000	-0.036	0.138
-721.835	-18.650	-0.232	-0.146
-720.821	800.000	-0.106	-0.301
-719.806	-107.842	-0.228	0.050
-718.791	68.930	0.228	0.236
-717.777	-200.000	0.024	0.200
-716.762	272.007	0.222	0.395
-715.748	800.000	-0.050	0.190
-714.733	46.169	-0.106	-0.099
-713.718	118.666	-0.298	-0.371
-712.704	-53.828	0.119	-0.055
-711.689	-118.521	-0.120	-0.021
-710.675	240.205	-0.037	-0.063
-709.660	-46.877	-0.161	0.079
-708.645	-87.163	0.276	-0.085
-707.631	235.167	-0.149	-0.249
-706.616	147.704	0.145	0.198
-705.602	6.163	-0.259	-0.194
-704.587	23.962	-0.134	-0.111
-703.572	-116.403	-0.106	0.020
-702.558	0.943	0.255	-0.184
-701.543	179.603	0.173	-0.256
-700.529	-200.000	0.082	-0.383
-699.514	-131.400	0.189	0.025
-698.499	800.000	-0.152	0.456
-697.485	-48.921	0.209	0.101
-696.470	-45.629	0.274	-0.137
-695.456	75.753	0.115	-0.122
-694.441	64.979	-0.124	-0.126
-693.426	372.183	-0.139	-0.284
-692.412	314.640	0.151	0.288
-691.397	-183.060	0.266	-0.005
-690.383	-91.520	-0.207	0.060
-689.368	233.642	0.005	0.008
-688.354	332.175	0.100	0.194
-687.339	48.734	0.104	0.099
-686.324	-23.427	0.272	-0.165
-685.310	380.974	0.150	-0.310
-684.295	0.170	-0.327	-0.235
-683.281	279.367	-0.059	0.107
-682.266	-116.333	0.286	0.053
-681.251	-200.000	-0.003	-0.064
-680.237	-134.523	-0.255	0.031
-679.222	800.000	0.068	-0.225
-678.208	-14.849	0.186	0.120
-677.193	-166.685	0.148	0.006
-676.178	-89.802	-0.276	-0.082
-675.164	152.745	-0.159	-0.219
-674.149	-81.144	-0.256	0.085
-673.135	-111.592	0.154	-0.032
-672.120	-101.024	-0.233	0.058
-671.105	58.973	0.205	-0.203
-670.091	-30.466	-0.214	0.122
-669.076	-79.284	0.147	-0.050
-668.062	-91.263	-0.131	-0.038
-667.047	220.082	0.111	0.179
-666.032	83.028	-0.137	0.150
-665.018	761.856	-0.113	-0.309
-664.003	566.961	-0.034	-0.084
-662.989	-24.165	-0.080	0.048
-661.974	-22.616	0.220	-0.134
-660.959	-200.000	0.029	0.159
-659.945	-84.445	-0.172	-0.055
-658.930	-200.000	0.044	-0.325
-657.916	-111.695	0.075	-0.015
-656.901	800.000	0.013	0.047
-655.886	760.287	-0.073	0.200
-654.872	-200.000	-0.015	0.130
-653.857	-24.676	0.134	0.080
-652.843	-115.821	-0.087	0.016
-651.828	196.310	0.125	0.192
-650.814	309.422	0.125	-0.235
-649.799	45.616	0.193	-0.179
-648.784	362.122	-0.066	-0.133
-647.770	-200.000	0.004	0.214
-646.755	-33.898	-0.368	-0.204
-645.741	800.000	0.071	-0.224
-644.726	-200.000	-0.054	0.284
-643.711	-6.139	0.089	-0.062
-642.697	-5.117	-0.091	-0.063
-641.682	783.614	0.036	-0.099
-640.668	-60.502	-0.497	-0.213
-639.653	150.652	-0.092	-0.126
-638.638	186.848	0.074	-0.111
-637.624	-160.031	-0.086	0.005
-636.609	-172.784	0.213	-0.007
-635.595	-200.000	-0.045	0.289
-634.580	46.932	-0.159	0.149
-633.565	437.042	-0.130	-0.284
-632.551	-200.000	-0.012	0.055
-631.536	7.114	-0.123	-0.092
-630.522	800.000	-0.081	-0.249
-629.507	-53.174	-0.257	-0.119
-628.492	-200.000	0.007	0.230
-627.478	578.400	0.059	-0.144
-626.463	360.688	-0.050	-0.101
-625.449	-40.977	0.098	-0.051
-624.434	-200.000	-0.005	0.048
-623.419	-200.000	-0.271	0.001
-622.405	800.000	-0.041	-0.182
-621.390	-200.000	-0.010	-0.094
-620.376	-3.655	0.169	-0.118
-619.361	-66.072	-0.044	0.017
-618.346	724.747	-0.032	-0.085
-617.332	-200.000	0.003	0.069
-616.317	-131.818	0.240	0.032
-615.303	44.104	-0.161	0.148
-614.288	93.500	0.115	-0.131
-613.273	-127.014	0.190	-0.028
-612.259	-91.517	-0.324	0.093
-611.244	-74.893	0.475	0.172
-610.230	46.742	0.228	0.213
-609.215	800.000	0.027	0.099
-608.201	-10.704	0.207	0.138
-607.186	125.148	0.171	-0.217
-606.171	-0.451	0.277	0.198
-605.157	-57.230	-0.151	-0.067
-604.142	593.021	-0.066	-0.164
-603.128	456.165	0.106	-0.236
-602.113	-73.675	-0.185	-0.068
-601.098	-132.445	0.256	-0.033
-600.084	221.570	-0.100	0.161
-599.069	123.725	-0.029	0.037
-598.055	275.763	-0.099	-0.177
-597.040	27.134	-0.185	0.156
-596.025	669.398	-0.066	0.172
-595.011	-158.086	-0.264	-0.016
-593.996	-200.000	0.042	0.295
-592.982	-200.000	0.023	0.160
-591.967	405.363	0.178	-0.378
-590.952	800.000	-0.037	-0.146
-589.938	37.943	-0.096	-0.086
-588.923	-126.625	-0.219	-0.033
-587.909	38.241	-0.167	-0.149
-586.894	45.180	0.180	-0.166
-585.879	-23.245	-0.101	-0.061
-584.865	94.273	-0.228	0.261
-583.850	-98.843	-0.142	0.036
-582.836	-200.000	0.080	-0.423
-581.821	-164.019	0.102	-0.005
-580.806	-200.000	-0.000	0.317
-579.792	29.880	0.055	0.047
-578.777	33.428	-0.017	-0.015
-577.763	170.267	-0.158	-0.227
-576.748	47.293	0.076	0.071
-575.733	535.900	0.013	-0.030
-574.719	-119.030	0.334	-0.059
-573.704	94.939	0.056	-0.065
-572.690	-59.087	-0.130	0.056
-571.675	295.004	0.034	-0.062
-570.661	-200.000	-0.008	0.052
-569.646	62.102	-0.164	-0.164
-568.631	312.985	-0.184	0.347
-567.617	-113.811	0.326	0.064
-566.602	-21.259	-0.518	-0.318
-565.588	27.860	-0.084	-0.071
-564.573	-200.000	0.069	0.347
-563.558	-57.123	0.092	-0.041
-562.544	-26.296	-0.253	0.149
-561.529	143.908	0.093	-0.124
-560.515	-92.247	0.186	-0.053
-559.500	-57.936	0.313	0.137
-558.485	-129.838	0.411	-0.057
-557.471	104.439	-0.261	-0.308
-556.456	-148.848	0.058	0.005
-555.442	-161.649	-0.181	0.009
-554.427	193.672	0.177	-0.268
-553.412	-200.000	0.042	0.338
-552.398	-145.359	-0.142	-0.013
-551.383	-74.591	-0.218	0.079
-550.369	-14.608	0.230	-0.148
-549.354	-10.276	-0.196	-0.130
-548.339	-32.599	-0.204	-0.114
-547.325	-108.663	-0.163	0.035
-546.310	-40.131	0.104	-0.054
-545.296	-58.724	-0.232	-0.101
-544.281	717.207	-0.071	-0.189
-543.266	-200.000	-0.002	0.020
-542.252	327.526	0.100	0.193
-541.237	-200.000	-0.053	0.505
-540.223	-145.507	-0.064	-0.006
-539.208	-76.169	-0.146	-0.052
-538.193	-147.667	0.053	-0.004
-537.179	49.509	-0.213	-0.201
-536.164	-116.115	0.281	-0.052
-535.150	234.000	-0.125	-0.207
-534.135	150.375	-0.266	-0.362
-533.121	157.398	0.069	0.096
-532.106	108.895	0.317	0.380
-531.091	-200.000	0.023	-0.193
-530.077	800.000	0.072	-0.276
-529.062	800.000	0.061	-0.219
-528.048	-15.576	-0.055	0.035
-527.033	5.432	-0.331	0.245
-526.018	-22.860	-0.114	0.069
-525.004	-13.728	-0.108	-0.070
-523.989	-90.547	0.279	-0.081
-522.975	75.260	-0.163	-0.172
-521.960	-103.411	-0.234	-0.055
-520.945	-200.000	0.005	-0.361
-519.931	-11.338	0.238	0.157
-518.916	607.140	-0.069	-0.172
-517.902	-26.273	-0.320	0.188
-516.887	-62.719	-0.024	0.010
-515.872	800.000	-0.006	-0.022
-514.858	179.225	-0.042	0.062
-513.843	-146.456	0.054	0.005
-512.829	49.210	-0.068	0.064
-511.814	-60.107	0.026	-0.011
-510.799	-62.801	0.155	-0.065
-509.785	-93.399	-0.182	-0.051
-508.770	68.538	0.142	0.145
-507.756	-10.394	-0.116	0.077
-506.741	60.107	0.069	-0.068
-505.726	-86.558	-0.390	0.120
-504.712	-139.311	-0.044	-0.005
-503.697	171.645	-0.090	-0.129
-502.683	-112.450	0.147	0.029
-501.668	-141.404	0.115	-0.012
-500.653	37.663	-0.175	0.155
-499.639	-200.000	-0.055	-0.381
-498.624	-200.000	0.005	-0.024
-497.610	32.819	0.193	-0.167
-496.595	-200.000	0.033	-0.228
-495.581	-6.369	-0.154	-0.105
-494.566	-52.498	0.253	-0.117
-493.551	-200.000	-0.003	-0.080
-492.537	794.046	0.072	-0.199
-491.522	-82.844	0.205	0.066
-490.508	-200.000	0.022	0.153
-489.493	-26.074	0.156	-0.092
-488.478	521.919	-0.073	-0.173
-487.464	-200.000	-0.044	0.274
-486.449	800.000	-0.026	-0.081
-485.435	800.000	-0.100	0.296
-484.420	800.000	0.106	0.335
-483.405	-51.110	0.150	0.070
-482.391	800.000	0.004	0.012
-481.376	203.094	-0.131	0.203
-480.362	-31.871	-0.172	0.097
-479.347	61.737	-0.206	0.205
-478.332	-200.000	-0.021	0.256
-477.318	49.191	0.033	0.031
-476.303	-51.753	0.186	0.087
-475.289	673.864	-0.078	-0.203
-474.274	56.106	-0.120	-0.117
-473.259	-115.994	-0.114	-0.021
-472.245	31.334	0.136	-0.117
-471.230	732.475	-0.070	0.187
-470.216	127.249	0.087	0.110
-469.201	-21.587	0.191	0.117
-468.186	686.738	0.132	-0.344
-467.172	-32.873	-0.313	-0.174
-466.157	276.063	-0.071	0.125
-465.143	70.279	-0.205	0.212
-464.128	11.190	0.240	-0.183
-463.113	-200.000	-0.042	-0.261
-462.099	-43.013	0.037	-0.019
-461.084	-200.000	0.032	-0.213
-460.070	-134.494	-0.386	-0.047
-459.055	-200.000	0.023	-0.109
-458.040	320.051	0.061	-0.116
-457.026	-85.610	0.160	0.050
-456.011	-105.829	0.300	-0.068
-454.997	101.144	0.254	0.295
-453.982	-200.000	-0.058	0.390
-452.968	800.000	-0.106	0.378
-451.953	-72.320	-0.074	0.027
-450.938	169.445	-0.204	-0.292
-449.924	-94.205	0.516	0.141
-448.909	441.643	-0.096	0.209
-447.895	-16.471	0.060	-0.038
-446.880	-139.635	-0.374	0.040
-445.865	4.219	-0.232	-0.170
-444.851	-200.000	-0.009	0.157
-443.836	-31.105	0.168	0.095
-442.822	650.205	-0.111	0.284
-441.807	-0.762	0.116	0.082
-440.792	347.489	0.076	-0.149
-439.778	-200.000	-0.038	0.226
-438.763	-200.000	-0.011	-0.089
-437.749	106.128	0.088	0.104
-436.734	785.271	-0.080	-0.219
-435.719	-117.236	-0.169	0.031
-434.705	-75.404	-0.059	0.021
-433.690	-200.000	-0.012	-0.390
-432.676	-74.782	-0.167	0.060
-431.661	96.906	-0.148	-0.169
-430.646	33.006	-0.121	-0.105
-429.632	-72.068	-0.201	-0.074
-428.617	800.000	-0.073	0.209
-427.603	-38.063	-0.399	0.212
-426.588	247.984	-0.041	0.070
-425.573	47.098	-0.085	0.079
-424.559	-31.884	0.040	-0.022
-423.544	-3.636	0.309	0.214
-422.530	117.621	0.101	-0.124
-421.515	-104.821	0.296	0.068
-420.500	144.811	-0.201	-0.268
-419.486	-56.864	-0.290	-0.128
-418.471	-136.028	0.335	-0.039
-417.457	800.000	-0.019	-0.065
-416.442	-200.000	-0.017	-0.326
-415.428	-141.374	-0.120	0.012
-414.413	-103.358	0.369	0.087
-413.398	57.280	0.319	-0.311
-412.384	-127.050	-0.193	-0.028
-411.369	92.950	-0.089	0.100
-410.355	-200.000	0.033	-0.196
-409.340	-97.460	0.151	-0.039
-408.325	-200.000	0.052	-0.231
-407.311	49.232	0.121	-0.114
-406.296	-88.150	-0.602	0.180
-405.282	-114.056	-0.172	0.033
-404.267	800.000	0.061	0.206
-403.252	467.998	-0.116	-0.260
-402.238	-156.175	-0.262	-0.016
-401.223	293.791	0.136	0.248
-400.209	-109.888	0.353	0.074
-399.194	-87.518	0.104	-0.031
-398.179	319.845	0.068	-0.129
-397.165	209.977	0.033	0.051
-396.150	-116.466	-0.076	-0.014
-395.136	800.000	-0.014	0.057
-394.121	800.000	-0.107	-0.296
-393.106	-200.000	0.353	-0.001
-392.092	220.673	-0.094	0.150
-391.077	-65.774	0.039	0.016
-390.063	-112.449	0.245	-0.049
-389.048	-135.667	-0.299	0.035
-388.033	407.190	-0.110	0.231
-387.019	-20.820	0.088	-0.054
-386.004	800.000	-0.036	-0.123
-384.990	-79.495	-0.182	0.061
-383.975	-200.000	0.027	-0.193
-382.960	216.065	0.193	-0.306
-381.946	-200.000	0.037	0.289
-380.931	341.410	-0.083	0.161
-379.917	-200.000	0.064	-0.389
-378.902	-139.739	0.221	0.023
-377.888	-112.312	-0.475	-0.095
-376.873	158.011	-0.167	-0.230
-375.858	23.306	0.187	0.153
-374.844	375.648	0.094	0.191
-373.829	125.691	0.116	0.146
-372.815	-90.667	0.222	-0.064
-371.800	-200.000	0.020	-0.317
-370.785	88.283	0.186	-0.206
-369.771	-103.224	-0.079	0.019
-368.756	145.262	-0.148	-0.197
-367.742	49.414	-0.130	0.122
-366.727	356.543	0.032	-0.063
-365.712	6.203	0.141	0.105
-364.698	81.256	0.033	0.036
-363.683	-81.558	-0.540	-0.177
-362.669	-200.000	0.022	-0.396
-361.654	326.851	-0.026	-0.049
-360.639	-200.000	0.048	-0.429
-359.625	-43.478	-0.026	-0.013
-358.610	-126.711	-0.434	-0.064
-357.596	-133.477	-0.078	0.010
-356.581	-88.690	-0.358	-0.106
-355.566	41.747	0.273	0.246
-354.552	-112.026	-0.145	0.029
-353.537	-149.818	-0.150	0.012
-352.523	34.461	-0.353	0.307
-351.508	281.296	0.138	-0.246
-350.493	-200.000	0.003	-0.151
-349.479	458.021	-0.065	0.143
-348.464	-75.447	0.216	-0.077
-347.450	164.518	0.230	0.323
-346.435	-200.000	0.017	0.171
-345.420	-76.034	0.154	-0.054
-344.406	-200.000	0.048	-0.235
-343.391	800.000	0.061	-0.249
-342.377	-200.000	-0.006	0.060
-341.362	149.198	0.287	0.387
-340.348	-83.453	0.368	0.117
-339.333	-167.002	-0.149	0.006
-338.318	-170.248	-0.130	0.005
-337.304	-125.117	0.401	0.061
-336.289	325.391	0.048	0.092
-335.275	-75.829	0.148	0.052
-334.260	36.168	0.226	0.198
-333.245	-200.000	-0.020	0.106
-332.231	335.941	-0.129	-0.249
-331.216	74.342	0.140	-0.146
-330.202	244.716	0.136	0.228
-329.187	-130.157	-0.161	-0.022
-328.172	142.058	0.223	0.295
-327.158	-200.000	-0.008	0.041
-326.143	429.221	-0.057	-0.122
-325.129	-73.546	0.204	0.074
-324.114	107.537	-0.055	-0.066
-323.099	623.579	0.056	0.139
-322.085	37.993	0.228	0.202
-321.070	3.491	0.328	-0.238
-320.056	403.945	0.183	-0.382
-319.041	630.379	0.062	0.157
-318.026	230.434	0.165	0.268
-317.012	800.000	-0.093	0.361
-315.997	800.000	0.025	-0.095
-314.983	23.402	0.093	-0.076
-313.968	87.840	0.153	0.169
-312.953	-158.755	-0.188	0.011
-311.939	261.711	-0.090	0.155
-310.924	-200.000	-0.017	-0.141
-309.910	70.492	0.119	-0.123
-308.895	-200.000	0.032	0.387
-307.880	220.207	-0.123	0.196
-306.866	154.998	0.178	0.244
-305.851	1.308	-0.235	-0.168
-304.837	25.127	-0.233	0.192
-303.822	-103.625	-0.320	-0.075
-302.807	277.007	-0.075	-0.133
-301.793	800.000	0.039	-0.129
-300.778	64.412	0.235	0.235
-299.764	53.273	-0.184	0.176
-298.749	-200.000	-0.075	0.343
-297.735	348.160	0.128	0.251
-296.720	227.428	-0.101	0.164
-295.705	-200.000	-0.002	-0.075
-294.691	800.000	0.029	0.087
-293.676	236.937	-0.097	-0.160
-292.662	-154.117	0.374	0.025
-291.647	-200.000	0.008	-0.039
-290.632	-82.253	-0.236	-0.076
-289.618	-26.750	0.213	0.123
-288.603	136.561	0.194	0.252
-287.589	-200.000	-0.030	0.136
-286.574	-69.932	-0.509	0.193
-285.559	800.000	0.047	-0.132
-284.545	800.000	0.107	0.419
-283.530	54.229	-0.055	0.053
-282.516	-200.000	-0.001	0.091
-281.501	-112.062	-0.199	-0.040
-280.486	145.066	0.082	-0.109
-279.472	-68.389	-0.184	0.071
-278.457	-178.835	0.046	-0.001
-277.443	-42.842	-0.232	-0.117
-276.428	200.872	0.084	-0.128
-275.413	199.334	-0.255	0.389
-274.399	-60.847	-0.150	0.063
-273.384	85.219	-0.104	0.113
-272.370	49.777	0.106	-0.099
-271.355	48.166	0.298	0.276
-270.340	109.021	0.020	0.023
-269.326	-200.000	0.003	-0.121
-268.311	224.780	0.046	-0.073
-267.297	-200.000	0.234	0.001
-266.282	-149.542	0.346	-0.027
-265.267	5.852	0.131	-0.097
-264.253	800.000	-0.103	-0.403
-263.238	-200.000	0.020	-0.104
-262.224	800.000	-0.042	-0.182
-261.209	-9.618	0.073	0.048
-260.195	319.113	0.145	-0.272
-259.180	-97.055	0.329	0.085
-258.165	616.279	-0.112	-0.280
-257.151	138.818	0.291	0.379
-256.136	-100.746	0.367	0.090
-255.122	17.954	-0.180	0.142
-254.107	-200.000	0.326	-0.000
-253.092	169.778	-0.194	0.275
-252.078	351.247	0.089	-0.176
-251.063	280.938	0.087	0.154
-250.049	-134.818	-0.216	-0.026
-249.034	369.024	0.108	-0.217
-248.019	728.283	0.121	0.320
-247.005	-200.000	-0.013	0.206
-245.990	-68.376	0.124	0.048
-244.976	203.114	0.035	-0.053
-243.961	26.130	-0.162	0.134
-242.946	314.380	0.053	-0.098
-241.932	-200.000	0.015	0.273
-240.917	-115.902	0.311	0.058
-239.903	-100.078	-0.098	0.024
-238.888	169.750	0.132	0.187
-237.873	80.570	-0.105	-0.112
-236.859	226.272	0.091	0.146
-235.844	800.000	-0.074	-0.223
-234.830	800.000	0.030	-0.102
-233.815	-14.854	-0.287	-0.182
-232.800	-27.777	-0.489	0.281
-231.786	-122.112	-0.286	0.047
-230.771	-147.409	0.378	-0.032
-229.757	22.056	-0.219	-0.177
-228.742	-178.119	-0.220	0.005
-227.727	-37.130	-0.232	-0.123
-226.713	-200.000	0.022	-0.100
-225.698	-200.000	0.039	0.384
-224.684	30.542	-0.179	-0.152
-223.669	-91.567	-0.347	-0.098
-222.655	-90.284	0.159	0.046
-221.640	324.191	0.237	0.448
-220.625	157.639	0.150	0.206
-219.611	-58.402	0.104	0.045
-218.596	48.722	0.041	-0.038
-217.582	15.512	-0.052	-0.040
-216.567	-58.258	-0.162	0.070
-215.552	-43.550	0.061	-0.031
-214.538	-126.886	0.128	0.019
-213.523	-113.636	0.234	-0.045
-212.509	-200.000	-0.026	-0.154
-211.494	321.855	-0.022	-0.041
-210.479	-200.000	0.027	0.254
-209.465	185.862	-0.155	0.228
-208.450	682.278	-0.027	0.071
-207.436	-0.237	-0.262	-0.185
-206.421	-84.080	0.214	0.067
-205.406	-90.761	0.391	0.112
-204.392	-64.528	0.205	-0.083
-203.377	125.490	0.197	-0.246
-202.363	218.004	-0.077	0.122
-201.348	-106.690	0.482	-0.106
-200.333	-145.031	0.454	-0.041
-199.319	494.282	-0.087	-0.198
-198.304	502.377	0.134	0.306
-197.290	-121.118	0.360	0.060
-196.275	250.374	-0.145	-0.244
-195.260	518.460	0.146	0.339
-194.246	29.247	0.130	0.109
-193.231	77.400	-0.160	-0.169
-192.217	-200.000	0.003	-0.176
-191.202	44.029	0.324	-0.294
-190.187	-68.966	-0.311	-0.119
-189.173	29.604	-0.077	0.065
-188.158	29.646	-0.241	0.203
-187.144	100.139	0.190	0.218
-186.129	433.746	-0.043	-0.093
-185.114	-200.000	-0.050	-0.469
-184.100	800.000	0.046	-0.167
-183.085	800.000	0.032	0.139
-182.071	-108.512	0.034	0.007
-181.056	800.000	-0.107	-0.438
-180.042	207.704	0.150	-0.231
-179.027	-200.000	-0.005	-0.168
-178.012	-18.794	-0.132	0.081
-176.998	392.663	0.146	-0.300
-175.983	259.389	-0.043	-0.073
-174.969	562.778	-0.066	0.159
-173.954	126.157	0.092	0.116
-172.939	-146.070	-0.082	0.007
-171.925	50.515	0.130	0.122
-170.910	-172.638	0.238	-0.007
-169.896	-80.159	0.115	0.038
-168.881	800.000	0.129	0.440
-167.866	-29.080	0.137	0.078
-166.852	-107.706	0.047	-0.010
-165.837	-124.037	-0.390	0.061
-164.823	44.420	0.230	0.209
-163.808	-108.520	-0.019	0.004
-162.793	-25.554	-0.273	-0.159
-161.779	-53.062	-0.094	0.043
-160.764	-149.886	-0.150	0.012
-159.750	-117.473	0.078	-0.014
-158.735	-63.889	-0.264	0.107
-157.720	144.105	0.063	-0.083
-156.706	-82.157	-0.280	0.090
-155.691	656.408	0.091	0.230
-154.677	-200.000	-0.087	-0.418
-153.662	-144.059	-0.069	-0.006
-152.647	-53.190	0.221	0.100
-151.633	350.144	-0.128	0.250
-150.618	-132.875	0.261	-0.033
-149.604	-200.000	0.098	0.437
-148.589	294.143	-0.195	0.352
-147.574	94.357	-0.208	-0.233
-146.560	459.870	0.056	-0.122
-145.545	150.210	-0.144	-0.194
-144.531	-104.926	0.033	-0.008
-143.516	-136.032	0.162	-0.019
-142.502	-108.896	-0.076	0.016
-141.487	-126.774	0.262	-0.038
-140.472	-110.704	0.178	0.036
-139.458	-28.966	0.300	0.170
-138.443	-90.236	0.168	0.048
-137.429	-52.524	0.267	0.122
-136.414	-108.958	0.330	-0.070
-135.399	-200.000	0.026	0.327
-134.385	1.297	0.304	0.216
-133.370	68.325	-0.087	-0.088
-132.356	-109.072	-0.114	-0.024
-131.341	132.359	0.135	-0.171
-130.326	121.301	-0.277	-0.340
-129.312	-119.078	0.173	-0.030
-128.297	29.321	-0.139	-0.117
-127.283	455.193	0.090	-0.196
-126.268	-126.019	-0.209	0.031
-125.253	-144.287	-0.117	0.011
-124.239	-84.061	-0.264	-0.083
-123.224	-95.028	0.095	-0.025
-122.210	18.698	-0.204	-0.161
