DTS Sentinel unit serial number:	SN413079Multiplexer serial number:	ORYXHardware model number:	OX4-SRSoftware version number:	ORYX F/W v4.00 Oryx Data Collector v3.7.2.0data status	okinstallation	princeton_trtdifferential loss correction	single-endedforward channel	channel 4reverse channel	N/Adate	2019/09/17time	11:37:35forward acquisition time	60.00reverse acquisition time	0.00gamma	496.2192k internal	0.2308k external	0.2308temperature offset calibration	0.9991default loss term (dB/km)	0.3790temperature slope calibration	1.0000multiplexer offset coefficient	1.0000multiplexer slope coefficient	1.0000fibre end	0.00T internal ref (°C)	30.77T ext. ref 1 (°C)	0.37T ext. ref 2 (°C)	26.61length (m)	temperature (°C)	Stokes	anti-Stokes-747.200	-73.360	0.370	0.138
-746.185	-68.200	-0.195	0.077
-745.171	-69.995	-0.349	-0.135
-744.156	422.869	0.065	-0.142
-743.142	-200.000	-0.018	0.125
-742.127	800.000	0.014	-0.047
-741.112	-54.973	0.163	0.075
-740.098	-39.626	-0.293	-0.156
-739.083	119.893	0.146	0.184
-738.069	3.785	-0.387	0.287
-737.054	-105.625	-0.030	-0.007
-736.039	-95.992	-0.468	0.127
-735.025	-2.525	0.281	-0.200
-734.010	-141.060	0.158	0.016
-732.996	-49.904	-0.142	0.068
-731.981	243.671	0.163	-0.278
-730.966	-96.218	0.286	-0.077
-729.952	74.455	0.079	-0.084
-728.937	124.059	-0.068	-0.087
-727.923	413.316	-0.030	0.065
-726.908	139.139	-0.214	-0.286
-725.894	592.411	-0.153	-0.384
-724.879	-138.235	-0.162	0.018
-723.864	166.227	-0.214	0.308
-722.850	-157.189	0.456	-0.028
-721.835	800.000	0.040	0.142
-720.821	-171.276	0.233	0.008
-719.806	-43.229	-0.326	-0.168
-718.791	-126.101	-0.402	0.061
-717.777	-6.270	-0.142	-0.099
-716.762	-11.093	0.090	-0.060
-715.748	-200.000	-0.006	0.240
-714.733	-99.417	0.084	0.021
-713.718	800.000	-0.137	-0.559
-712.704	-174.829	0.309	-0.009
-711.689	-118.108	0.279	-0.051
-710.675	-155.300	0.226	-0.015
-709.660	132.290	0.084	0.110
-708.645	-37.074	-0.170	0.093
-707.631	-70.603	0.358	-0.137
-706.616	21.019	0.056	-0.046
-705.602	136.783	0.257	0.340
-704.587	151.264	0.074	0.102
-703.572	-175.720	0.035	0.001
-702.558	560.439	0.051	-0.124
-701.543	554.557	0.028	-0.069
-700.529	-118.151	-0.279	-0.050
-699.514	-20.543	-0.077	0.048
-698.499	-29.477	0.089	-0.052
-697.485	347.693	0.070	-0.139
-696.470	-179.272	-0.498	-0.011
-695.456	-4.992	0.225	0.157
-694.441	377.258	-0.072	-0.150
-693.426	-34.591	-0.287	-0.159
-692.412	-106.242	-0.398	-0.090
-691.397	-131.522	-0.206	0.028
-690.383	-200.000	-0.031	-0.179
-689.368	-200.000	-0.004	-0.207
-688.354	-66.184	-0.434	0.176
-687.339	4.333	0.224	0.167
-686.324	-200.000	-0.027	-0.335
-685.310	-145.270	0.116	-0.011
-684.295	800.000	0.123	-0.406
-683.281	171.983	-0.044	-0.064
-682.266	800.000	0.047	0.165
-681.251	47.242	-0.186	-0.175
-680.237	-200.000	0.075	-0.408
-679.222	-64.405	0.038	-0.016
-678.208	-65.791	0.202	0.082
-677.193	800.000	0.025	-0.089
-676.178	-129.938	-0.304	-0.042
-675.164	95.996	0.055	-0.064
-674.149	-200.000	-0.004	-0.228
-673.135	343.757	-0.106	-0.211
-672.120	191.753	0.222	-0.339
-671.105	299.580	0.197	-0.369
-670.091	262.789	-0.079	0.138
-669.076	55.498	0.109	-0.107
-668.062	800.000	0.103	-0.360
-667.047	-139.219	-0.466	-0.051
-666.032	46.405	0.080	-0.075
-665.018	-200.000	-0.059	-0.431
-664.003	345.966	0.157	0.312
-662.989	85.889	0.166	-0.185
-661.974	-200.000	0.018	-0.160
-660.959	-95.610	0.145	0.039
-659.945	-200.000	-0.002	0.137
-658.930	-66.757	-0.122	-0.049
-657.916	716.753	-0.070	-0.189
-656.901	32.014	-0.072	-0.063
-655.886	-200.000	0.003	0.070
-654.872	800.000	-0.036	-0.103
-653.857	401.306	0.136	0.288
-652.843	-200.000	0.010	0.124
-651.828	-85.103	-0.269	-0.085
-650.814	-39.906	-0.144	-0.076
-649.799	744.269	0.057	-0.155
-648.784	-71.412	-0.203	0.077
-647.770	80.386	-0.188	-0.205
-646.755	177.241	0.048	0.071
-645.741	169.676	-0.275	-0.397
-644.726	119.429	-0.265	0.332
-643.711	800.000	-0.033	-0.099
-642.697	-172.233	-0.089	0.003
-641.682	10.080	-0.186	0.143
-640.668	-119.345	0.243	0.043
-639.653	347.873	-0.074	-0.147
-638.638	71.037	0.320	0.336
-637.624	-51.051	0.130	0.062
-636.609	800.000	0.042	0.132
-635.595	245.541	-0.126	0.215
-634.580	-96.542	-0.150	-0.040
-633.565	-200.000	-0.027	-0.198
-632.551	-73.207	-0.057	0.021
-631.536	-155.868	0.100	-0.006
-630.522	-200.000	-0.140	-0.000
-629.507	-67.286	0.237	0.094
-628.492	374.330	0.062	0.129
-627.478	54.247	-0.122	-0.119
-626.463	715.830	0.137	-0.367
-625.449	-200.000	0.012	0.272
-624.434	517.782	-0.028	0.066
-623.419	387.701	-0.088	-0.184
-622.405	345.271	0.062	-0.123
-621.390	444.010	-0.054	0.120
-620.376	-91.971	-0.049	0.014
-619.361	21.045	-0.114	-0.093
-618.346	-200.000	-0.010	0.044
-617.332	60.955	0.353	0.354
-616.317	232.606	0.096	0.160
-615.303	270.964	-0.098	-0.175
-614.288	84.377	-0.069	-0.076
-613.273	201.287	-0.030	-0.047
-612.259	-135.783	-0.230	0.028
-611.244	30.360	-0.236	0.204
-610.230	-52.689	-0.264	0.123
-609.215	64.031	0.188	0.192
-608.201	-19.046	0.138	-0.087
-607.186	-11.931	0.110	0.073
-606.171	-106.716	0.152	0.034
-605.157	103.808	0.186	0.220
-604.142	-89.399	-0.237	-0.071
-603.128	-97.228	0.217	-0.057
-602.113	-200.000	-0.033	0.157
-601.098	21.848	0.077	0.063
-600.084	-200.000	0.009	0.131
-599.069	-200.000	-0.026	-0.203
-598.055	800.000	-0.041	-0.175
-597.040	-108.830	0.299	-0.065
-596.025	-200.000	-0.004	0.213
-595.011	281.696	0.172	0.311
-593.996	-200.000	-0.044	-0.221
-592.982	-77.867	0.222	0.077
-591.967	800.000	0.018	0.067
-590.952	-200.000	0.009	-0.275
-589.938	-28.812	-0.072	-0.042
-588.923	2.870	0.083	0.061
-587.909	16.340	-0.110	0.088
-586.894	-123.970	0.071	0.011
-585.879	220.167	0.117	-0.189
-584.865	54.323	-0.295	-0.287
-583.850	137.875	0.069	0.092
-582.836	359.113	0.121	-0.245
-581.821	103.830	0.222	-0.263
-580.806	724.686	0.101	-0.272
-579.792	-200.000	-0.021	0.293
-578.777	-84.311	-0.216	0.069
-577.763	140.506	-0.086	-0.115
-576.748	-88.829	-0.210	0.063
-575.733	-137.185	0.235	0.027
-574.719	800.000	-0.063	0.211
-573.704	-200.000	-0.037	0.232
-572.690	103.153	0.136	-0.161
-571.675	-200.000	0.005	-0.112
-570.661	31.930	0.222	-0.193
-569.646	67.052	-0.140	-0.144
-568.631	800.000	-0.057	0.182
-567.617	9.903	-0.044	0.034
-566.602	-123.544	0.261	-0.042
-565.588	-104.361	-0.221	-0.052
-564.573	-101.750	0.238	0.058
-563.558	95.034	0.040	0.046
-562.544	449.755	0.080	0.179
-561.529	42.880	-0.176	-0.162
-560.515	-16.179	0.199	-0.127
-559.500	-114.742	0.077	0.015
-558.485	-200.000	-0.070	-0.377
-557.471	104.410	-0.112	0.133
-556.456	-200.000	0.014	0.108
-555.442	-200.000	-0.025	-0.194
-554.427	-0.123	0.131	-0.094
-553.412	-107.468	-0.373	0.083
-552.398	-103.149	0.347	0.083
-551.383	498.936	0.084	-0.194
-550.369	-13.699	-0.346	0.226
-549.354	-200.000	0.016	-0.278
-548.339	291.803	-0.100	-0.184
-547.325	-80.196	0.338	0.114
-546.310	-200.000	-0.004	-0.326
-545.296	-103.340	-0.433	-0.103
-544.281	-15.651	-0.329	0.212
-543.266	-112.604	-0.314	0.063
-542.252	-62.629	0.189	0.079
-541.237	800.000	0.031	0.114
-540.223	-144.013	-0.079	0.007
-539.208	449.852	0.176	0.391
-538.193	30.718	0.153	0.132
-537.179	399.544	0.034	-0.071
-536.164	-200.000	-0.015	-0.263
-535.150	-134.453	-0.215	0.026
-534.135	71.465	0.167	0.175
-533.121	-200.000	-0.007	0.045
-532.106	628.963	-0.095	-0.243
-531.091	-8.573	0.193	0.130
-530.077	375.658	0.041	0.085
-529.062	15.979	0.355	-0.282
-528.048	33.586	0.058	0.051
-527.033	-28.235	-0.059	-0.035
-526.018	-176.459	-0.202	0.005
-525.004	-18.344	-0.045	0.029
-523.989	6.549	-0.037	-0.028
-522.975	38.304	0.403	-0.361
-521.960	67.847	-0.238	0.245
-520.945	-54.677	0.093	0.042
-519.931	50.410	-0.058	0.055
-518.916	-71.961	-0.310	0.116
-517.902	-105.422	0.016	-0.004
-516.887	-200.000	-0.058	-0.318
-515.872	38.996	-0.141	-0.127
-514.858	145.257	0.060	0.081
-513.843	40.633	-0.117	0.106
-512.829	800.000	-0.095	0.306
-511.814	440.230	0.014	-0.032
-510.799	-200.000	0.013	-0.176
-509.785	800.000	0.053	0.233
-508.770	148.590	0.203	0.277
-507.756	176.134	-0.032	0.046
-506.741	4.548	-0.122	-0.090
-505.726	-200.000	-0.012	-0.114
-504.712	-23.285	0.119	-0.072
-503.697	-200.000	0.001	0.225
-502.683	-119.817	-0.179	-0.031
-501.668	80.880	0.103	-0.111
-500.653	-200.000	-0.062	-0.293
-499.639	258.418	-0.055	0.096
-498.624	-27.376	-0.097	-0.057
-497.610	72.349	-0.201	0.211
-496.595	-200.000	-0.006	0.140
-495.581	800.000	-0.037	0.124
-494.566	297.916	-0.014	-0.026
-493.551	735.900	-0.123	-0.331
-492.537	800.000	-0.110	0.465
-491.522	11.241	0.148	-0.114
-490.508	-200.000	0.009	-0.044
-489.493	-200.000	0.021	-0.131
-488.478	-59.465	-0.249	-0.108
-487.464	87.516	-0.306	-0.340
-486.449	-43.486	0.112	0.057
-485.435	-94.463	-0.070	0.019
-484.420	-68.576	0.114	-0.044
-483.405	152.154	0.164	0.225
-482.391	-26.351	0.146	0.086
-481.376	800.000	-0.040	0.141
-480.362	-49.849	-0.201	-0.096
-479.347	-24.234	-0.038	-0.023
-478.332	-55.339	0.187	0.084
-477.318	-118.158	0.240	-0.043
-476.303	-46.556	-0.202	-0.100
-475.289	-54.332	-0.124	-0.057
-474.274	-28.708	0.265	-0.154
-473.259	800.000	0.022	-0.078
-472.245	-200.000	0.034	0.240
-471.230	15.096	-0.055	-0.043
-470.216	47.119	-0.118	0.111
-469.201	21.594	-0.095	-0.078
-468.186	196.384	0.127	-0.195
-467.172	441.511	-0.058	-0.128
-466.157	-200.000	-0.075	-0.415
-465.143	594.399	0.104	-0.258
-464.128	81.047	0.122	0.132
-463.113	-54.932	-0.242	-0.109
-462.099	-168.480	0.242	-0.009
-461.084	63.541	0.209	-0.211
-460.070	11.921	-0.160	0.124
-459.055	-200.000	-0.029	-0.146
-458.040	238.276	-0.294	-0.490
-457.026	-106.646	0.310	-0.069
-456.011	-135.288	-0.231	0.028
-454.997	-7.574	0.403	-0.274
-453.982	34.445	0.189	-0.166
-452.968	-200.000	-0.015	-0.078
-451.953	-118.635	0.368	-0.065
-450.938	120.073	-0.150	0.187
-449.924	-6.522	-0.203	-0.139
-448.909	584.826	0.082	0.201
-447.895	22.673	0.130	0.107
-446.880	-182.446	-0.293	-0.005
-445.865	-98.790	-0.229	-0.058
-444.851	21.299	0.021	-0.017
-443.836	426.657	-0.064	-0.139
-442.822	274.713	-0.111	0.198
-441.807	-30.566	-0.102	0.058
-440.792	-58.074	-0.197	0.086
-439.778	-66.074	0.120	-0.048
-438.763	165.445	0.137	0.194
-437.749	-200.000	0.063	0.571
-436.734	-96.112	-0.042	-0.011
-435.719	-5.178	-0.059	-0.041
-434.705	201.077	-0.080	-0.124
-433.690	327.283	0.051	-0.098
-432.676	198.182	0.115	0.177
-431.661	-200.000	-0.005	-0.141
-430.646	53.095	0.278	0.267
-429.632	-27.464	-0.317	0.185
-428.617	-198.495	0.325	-0.002
-427.603	800.000	-0.095	-0.403
-426.588	38.758	-0.292	-0.262
-425.573	800.000	-0.079	-0.324
-424.559	-127.846	0.141	-0.020
-423.544	455.986	0.136	0.302
-422.530	-183.720	-0.351	0.006
-421.515	0.216	0.144	-0.103
-420.500	-64.414	0.078	0.032
-419.486	-75.482	0.073	-0.026
-418.471	177.697	-0.112	-0.164
-417.457	566.917	0.033	-0.080
-416.442	35.508	-0.159	-0.140
-415.428	-155.624	-0.066	-0.004
-414.413	390.983	0.033	-0.069
-413.398	38.787	-0.127	-0.114
-412.384	-200.000	-0.006	0.060
-411.369	-161.809	-0.220	-0.011
-410.355	124.737	0.100	-0.126
-409.340	800.000	-0.058	-0.184
-408.325	-200.000	-0.003	-0.146
-407.311	-19.901	0.027	-0.016
-406.296	298.513	0.032	-0.059
-405.282	38.136	0.148	0.132
-404.267	-105.402	0.357	-0.081
-403.252	800.000	-0.080	0.278
-402.238	-85.880	0.238	-0.074
-401.223	-79.708	-0.137	0.046
-400.209	-122.738	0.206	0.033
-399.194	-200.000	0.000	0.428
-398.179	165.046	-0.068	-0.096
-397.165	-122.486	0.195	0.032
-396.150	105.844	0.066	-0.078
-395.136	-40.518	0.133	-0.069
-394.121	676.666	-0.089	-0.233
-393.106	-104.634	0.222	0.051
-392.092	-200.000	0.028	-0.406
-391.077	134.200	-0.040	0.052
-390.063	237.463	0.124	-0.206
-389.048	552.533	0.082	0.198
-388.033	29.456	-0.167	-0.142
-387.019	-4.433	0.161	0.111
-386.004	-188.338	0.135	0.002
-384.990	-39.660	-0.053	0.028
-383.975	205.728	-0.107	0.167
-382.960	35.930	0.200	0.176
-381.946	-46.504	-0.063	-0.031
-380.931	-53.187	-0.047	-0.022
-379.917	-94.173	-0.115	-0.032
-378.902	-200.000	-0.003	-0.091
-377.888	800.000	0.106	0.339
-376.873	33.885	0.410	-0.357
-375.858	-12.121	-0.099	0.065
-374.844	800.000	0.082	-0.255
-373.829	-107.999	-0.033	-0.007
-372.815	-55.239	0.094	-0.043
-371.800	-200.000	0.049	0.250
-370.785	-54.110	-0.138	0.063
-369.771	-90.189	-0.147	0.043
-368.756	290.947	-0.072	0.131
-367.742	53.013	0.030	0.029
-366.727	380.399	-0.054	0.110
-365.712	-88.315	-0.061	0.018
-364.698	-200.000	-0.018	0.171
-363.683	178.191	0.060	0.087
-362.669	-200.000	-0.046	0.329
-361.654	-200.000	-0.029	0.457
-360.639	396.609	-0.041	0.086
-359.625	-36.391	-0.186	0.100
-358.610	-67.338	0.247	0.097
-357.596	98.844	-0.203	0.234
-356.581	-94.792	-0.231	0.063
-355.566	-139.433	-0.349	-0.037
-354.552	-2.992	0.036	0.025
-353.537	-200.000	-0.073	0.364
-352.523	800.000	0.017	0.049
-351.508	124.735	-0.150	-0.189
-350.493	1.657	-0.076	0.055
-349.479	-62.056	-0.027	0.011
-348.464	-200.000	-0.009	0.094
-347.450	0.514	-0.093	-0.067
-346.435	-98.290	0.219	-0.056
-345.420	800.000	0.075	-0.285
-344.406	-93.849	0.114	0.031
-343.391	800.000	0.086	0.305
-342.377	381.077	0.043	-0.089
-341.362	-200.000	0.037	0.253
-340.348	800.000	-0.014	-0.057
-339.333	-44.648	-0.258	-0.129
-338.318	-200.000	0.001	0.083
-337.304	-62.353	-0.257	0.107
-336.289	-200.000	0.023	0.153
-335.275	-69.285	0.171	0.066
-334.260	-122.491	-0.272	-0.044
-333.245	51.293	0.057	-0.054
-332.231	-107.998	-0.257	0.056
-331.216	-200.000	0.045	-0.337
-330.202	-167.763	0.216	-0.009
-329.187	800.000	-0.085	-0.305
-328.172	800.000	-0.053	-0.169
-327.158	260.449	-0.113	-0.195
-326.143	26.049	-0.103	-0.086
-325.129	98.464	0.086	-0.099
-324.114	-200.000	0.043	-0.191
-323.099	8.105	-0.078	-0.059
-322.085	213.671	0.189	-0.299
-321.070	-19.171	0.231	0.143
-320.056	197.238	-0.165	0.252
-319.041	-200.000	0.001	0.061
-318.026	-200.000	0.020	-0.194
-317.012	49.523	-0.092	0.086
-315.997	-156.546	0.101	0.006
-314.983	327.874	0.099	-0.189
-313.968	800.000	0.026	-0.101
-312.953	103.023	0.088	0.103
-311.939	800.000	0.071	-0.229
-310.924	60.021	0.314	0.310
-309.910	-87.556	-0.235	0.071
-308.895	-200.000	0.028	0.286
-307.880	634.431	-0.041	-0.103
-306.866	318.231	-0.115	-0.217
-305.851	506.759	-0.074	0.171
-304.837	0.111	-0.097	-0.069
-303.822	800.000	-0.021	-0.083
-302.807	263.526	-0.107	0.186
-301.793	-4.234	-0.271	0.187
-300.778	102.412	0.046	-0.054
-299.764	800.000	0.042	-0.163
-298.749	800.000	-0.107	0.333
-297.735	23.788	0.127	-0.104
-296.720	65.010	0.143	-0.144
-295.705	247.721	0.065	-0.110
-294.691	109.716	0.239	0.286
-293.676	-7.780	-0.195	-0.132
-292.662	62.310	-0.214	0.213
-291.647	-11.299	0.220	0.145
-290.632	-145.970	-0.229	-0.020
-289.618	-179.761	-0.218	-0.005
-288.603	-200.000	0.028	0.395
-287.589	-37.843	0.250	-0.133
-286.574	-72.118	0.166	0.062
-285.559	800.000	0.015	0.042
-284.545	308.534	0.152	-0.284
-283.530	-200.000	0.010	-0.252
-282.516	-200.000	-0.009	0.090
-281.501	-38.316	-0.116	-0.061
-280.486	800.000	0.024	0.099
-279.472	-200.000	0.039	0.305
-278.457	20.288	0.095	0.076
-277.443	-81.290	-0.259	0.085
-276.428	482.504	-0.029	0.066
-275.413	367.314	-0.094	0.189
-274.399	800.000	0.005	0.020
-273.384	260.905	0.180	0.310
-272.370	-95.522	0.169	-0.045
-271.355	-200.000	0.037	0.173
-270.340	75.941	-0.216	-0.228
-269.326	574.790	-0.049	0.118
-268.311	800.000	-0.072	0.236
-267.297	38.456	0.109	0.097
-266.282	51.672	-0.111	-0.106
-265.267	-42.675	0.201	-0.102
-264.253	20.740	0.117	-0.094
-263.238	-37.114	0.191	-0.102
-262.224	-12.017	0.326	0.213
-261.209	3.756	-0.269	0.196
-260.195	268.306	0.233	-0.408
-259.180	-83.044	0.241	-0.077
-258.165	-177.318	0.389	0.010
-257.151	-133.776	-0.150	0.019
-256.136	-125.935	0.083	0.012
-255.122	772.066	-0.043	-0.116
-254.107	-101.084	-0.053	0.013
-253.092	-66.609	-0.395	-0.156
-252.078	229.755	0.242	-0.394
-251.063	3.973	-0.086	0.063
-250.049	57.731	-0.134	0.131
-249.034	-89.672	-0.127	-0.037
-248.019	-200.000	-0.042	0.190
-247.005	-79.348	0.204	-0.069
-245.990	194.917	0.068	0.104
-244.976	-200.000	-0.042	0.221
-243.961	216.818	0.059	-0.094
-242.946	-65.657	0.073	-0.029
-241.932	-200.000	-0.018	0.203
-240.917	24.970	0.136	-0.112
-239.903	800.000	0.075	-0.258
-238.888	78.553	-0.313	-0.333
-237.873	27.007	-0.068	-0.057
-236.859	-186.304	-0.161	-0.002
-235.844	-106.770	-0.241	0.053
-234.830	215.611	-0.094	-0.149
-233.815	-166.969	0.158	-0.006
-232.800	-14.315	0.290	-0.186
-231.786	90.570	-0.111	0.124
-230.771	-200.000	-0.010	0.428
-229.757	678.927	-0.024	-0.063
-228.742	-65.728	-0.150	-0.060
-227.727	258.131	0.105	0.179
-226.713	152.172	-0.141	0.192
-225.698	428.817	0.155	0.335
-224.684	-200.000	0.063	-0.337
-223.669	-62.039	-0.319	-0.133
-222.655	100.292	0.309	-0.357
-221.640	-104.297	-0.205	-0.047
-220.625	-51.943	0.189	-0.088
-219.611	-99.014	-0.329	-0.083
-218.596	-80.823	0.067	-0.022
-217.582	-200.000	-0.012	-0.108
-216.567	85.673	0.171	0.187
-215.552	-1.263	-0.078	-0.055
-214.538	-67.552	-0.139	0.054
-213.523	29.144	-0.214	-0.181
-212.509	-143.972	-0.125	-0.012
-211.494	502.181	-0.106	0.244
-210.479	-44.956	0.397	0.197
-209.465	-32.888	0.199	0.110
-208.450	-200.000	0.045	-0.283
-207.436	52.138	0.163	0.155
-206.421	-123.894	0.374	0.059
-205.406	-47.266	-0.365	0.177
-204.392	800.000	0.057	0.163
-203.377	-56.271	0.193	-0.086
-202.363	-200.000	-0.001	0.042
-201.348	785.108	0.010	0.028
-200.333	-200.000	0.003	0.143
-199.319	-182.485	-0.272	-0.005
-198.304	-200.000	-0.020	0.268
-197.290	53.826	0.223	0.213
-196.275	-200.000	0.079	-0.393
-195.260	47.229	-0.263	-0.243
-194.246	-70.020	0.457	0.173
-193.231	-140.223	-0.201	0.021
-192.217	368.983	0.099	0.199
-191.202	-135.781	0.158	-0.019
-190.187	80.780	0.186	0.199
-189.173	-200.000	0.037	0.245
-188.158	309.063	0.034	0.064
-187.144	-68.756	-0.070	0.027
-186.129	-22.595	-0.210	-0.126
-185.114	-112.518	0.160	-0.032
-184.100	121.278	0.118	0.146
-183.085	75.048	-0.169	0.177
-182.071	-200.000	-0.022	-0.225
-181.056	-166.933	0.166	0.007
-180.042	800.000	0.045	-0.153
-179.027	-125.105	0.154	-0.024
-178.012	-200.000	-0.037	-0.397
-176.998	-200.000	0.014	-0.369
-175.983	-200.000	0.008	0.405
-174.969	-200.000	-0.383	0.001
-173.954	-59.957	0.267	-0.113
-172.939	800.000	-0.020	0.084
-171.925	211.938	-0.215	-0.337
-170.910	-79.979	-0.070	-0.023
-169.896	800.000	0.061	0.206
-168.881	-84.768	0.135	-0.042
-167.866	-90.089	-0.260	0.075
-166.852	-18.030	0.114	-0.071
-165.837	-87.704	-0.229	0.069
-164.823	190.444	0.239	0.357
-163.808	-200.000	0.028	0.124
-162.793	-130.154	0.256	-0.035
-161.779	764.906	0.055	0.148
-160.764	-115.927	-0.225	-0.042
-159.750	116.350	0.119	-0.145
-158.735	-160.706	-0.182	-0.010
-157.720	445.275	-0.068	-0.149
-156.706	274.989	0.137	0.241
-155.691	20.575	-0.217	0.174
-154.677	230.314	-0.052	-0.084
-153.662	-200.000	0.060	-0.271
-152.647	441.215	-0.135	-0.294
-151.633	-35.285	-0.101	-0.054
-150.618	-160.781	0.250	0.013
-149.604	-0.907	-0.308	-0.217
-148.589	284.523	-0.131	-0.234
-147.574	-60.997	-0.178	0.075
-146.560	-57.879	-0.198	-0.086
-145.545	-72.729	-0.138	0.051
-144.531	82.649	0.129	0.140
-143.516	800.000	-0.016	0.054
-142.502	800.000	0.041	0.129
-141.487	273.503	0.051	-0.089
-140.472	181.969	0.156	0.229
-139.458	-114.255	0.341	-0.065
-138.443	626.023	-0.109	0.273
-137.429	-200.000	0.013	0.206
-136.414	-200.000	-0.033	0.270
-135.399	-101.467	0.128	0.031
-134.385	-200.000	-0.048	0.328
-133.370	800.000	-0.052	-0.182
-132.356	-34.623	-0.128	0.069
-131.341	35.150	-0.164	0.143
-130.326	-96.212	-0.264	0.069
-129.312	-200.000	0.019	-0.187
-128.297	87.861	-0.068	-0.074
-127.283	130.876	0.126	0.160
-126.268	-131.223	0.261	-0.034
-125.253	-156.479	-0.215	-0.013
-124.239	800.000	0.032	0.115
-123.224	-30.569	0.263	0.148
-122.210	701.359	0.016	0.041
-121.195	246.207	0.082	0.137
