DTS Sentinel unit serial number:	SN413079Multiplexer serial number:	ORYXHardware model number:	OX4-SRSoftware version number:	ORYX F/W v4.00 Oryx Data Collector v3.7.2.0data status	okinstallation	princeton_trtdifferential loss correction	single-endedforward channel	channel 4reverse channel	N/Adate	2019/09/17time	17:49:34forward acquisition time	60.00reverse acquisition time	0.00gamma	496.2192k internal	0.2278k external	0.2278temperature offset calibration	0.9982default loss term (dB/km)	0.3790temperature slope calibration	1.0000multiplexer offset coefficient	1.0000multiplexer slope coefficient	1.0000fibre end	0.00T internal ref (°C)	43.44T ext. ref 1 (°C)	0.34T ext. ref 2 (°C)	38.73length (m)	temperature (°C)	Stokes	anti-Stokes-747.200	-136.660	-0.116	-0.014
-746.185	-57.391	0.111	0.050
-745.171	-46.321	-0.205	-0.104
-744.156	184.475	0.145	0.221
-743.142	-37.523	-0.323	0.178
-742.127	-200.000	0.093	0.540
-741.112	-77.584	0.230	0.082
-740.098	-98.424	-0.233	0.062
-739.083	-200.000	0.013	0.124
-738.069	-91.689	-0.072	-0.021
-737.054	-200.000	0.000	0.122
-736.039	30.458	-0.170	0.149
-735.025	800.000	-0.041	-0.182
-734.010	-78.462	-0.075	-0.026
-732.996	267.619	-0.127	-0.230
-731.981	-139.603	-0.320	0.035
-730.966	800.000	-0.058	0.224
-729.952	-86.617	0.327	-0.103
-728.937	24.159	-0.249	0.212
-727.923	-39.075	-0.146	0.079
-726.908	-200.000	-0.044	-0.213
-725.894	800.000	0.083	-0.342
-724.879	-135.582	0.259	-0.032
-723.864	-115.041	0.523	-0.102
-722.850	82.564	-0.150	0.168
-721.835	-200.000	0.021	-0.123
-720.821	254.018	0.105	0.185
-719.806	-110.731	-0.208	-0.044
-718.791	-107.593	-0.066	0.015
-717.777	280.485	-0.108	-0.199
-716.762	378.229	0.029	-0.061
-715.748	-44.404	0.072	0.037
-714.733	-174.090	0.153	0.005
-713.718	-33.655	0.217	-0.123
-712.704	-114.089	0.302	-0.060
-711.689	144.628	-0.031	-0.043
-710.675	-12.637	0.073	0.049
-709.660	-200.000	0.003	-0.253
-708.645	251.021	-0.044	0.077
-707.631	-200.000	0.024	0.287
-706.616	-61.374	-0.109	-0.047
-705.602	-67.795	0.438	0.176
-704.587	131.411	-0.082	-0.108
-703.572	-200.000	-0.050	0.350
-702.558	-150.205	-0.290	0.023
-701.543	-63.349	-0.228	0.096
-700.529	-99.254	-0.078	0.020
-699.514	-200.000	0.016	0.109
-698.499	201.212	-0.057	0.089
-697.485	-5.770	0.048	0.034
-696.470	49.307	0.100	0.096
-695.456	800.000	-0.041	0.118
-694.441	800.000	-0.091	-0.264
-693.426	-200.000	-0.037	-0.236
-692.412	555.809	0.062	0.154
-691.397	2.028	0.251	0.186
-690.383	165.418	0.119	0.173
-689.368	-200.000	-0.035	0.422
-688.354	111.661	-0.034	-0.042
-687.339	-142.172	0.068	-0.007
-686.324	-200.000	-0.003	-0.209
-685.310	174.577	0.126	0.188
-684.295	575.380	-0.084	-0.210
-683.281	-72.776	0.154	-0.058
-682.266	-25.150	-0.126	-0.077
-681.251	800.000	-0.084	0.346
-680.237	-200.000	0.014	0.538
-679.222	265.036	-0.189	-0.338
-678.208	83.590	-0.125	-0.140
-677.193	-11.030	-0.113	-0.077
-676.178	-143.598	-0.217	0.021
-675.164	654.947	-0.193	0.509
-674.149	-5.089	0.332	0.235
-673.135	-58.507	-0.133	0.059
-672.120	128.670	0.149	0.194
-671.105	38.231	-0.323	-0.295
-670.091	-200.000	-0.020	-0.208
-669.076	42.562	0.295	0.276
-668.062	-22.019	0.134	0.084
-667.047	-104.995	0.423	0.099
-666.032	-89.652	-0.107	0.032
-665.018	243.123	0.160	-0.275
-664.003	-200.000	0.021	0.237
-662.989	-24.480	-0.146	-0.089
-661.974	268.980	0.105	-0.189
-660.959	-21.037	-0.102	-0.064
-659.945	27.859	-0.216	-0.187
-658.930	-200.000	0.009	0.105
-657.916	800.000	0.075	0.242
-656.901	223.472	-0.065	0.108
-655.886	800.000	-0.058	-0.194
-654.872	-150.844	0.297	0.023
-653.857	352.215	0.071	-0.145
-652.843	59.296	-0.090	0.091
-651.828	232.346	-0.255	0.430
-650.814	-200.000	0.012	0.203
-649.799	-88.900	0.057	-0.017
-648.784	753.066	-0.120	-0.333
-647.770	-36.008	0.077	0.043
-646.755	220.885	-0.175	0.289
-645.741	318.092	-0.113	0.220
-644.726	-200.000	-0.041	0.211
-643.711	-66.824	0.150	0.061
-642.697	-200.000	0.004	0.080
-641.682	800.000	-0.091	0.262
-640.668	800.000	0.090	0.258
-639.653	140.026	0.100	0.135
-638.638	67.299	-0.117	-0.122
-637.624	240.376	-0.082	0.140
-636.609	45.817	-0.071	-0.067
-635.595	24.156	-0.026	-0.022
-634.580	143.393	-0.193	-0.263
-633.565	-200.000	-0.061	-0.320
-632.551	6.901	0.064	0.049
-631.536	-166.079	-0.248	-0.011
-630.522	800.000	-0.085	-0.352
-629.507	-51.463	-0.158	0.076
-628.492	214.076	0.172	0.279
-627.478	-200.000	-0.062	0.484
-626.463	-95.678	0.296	0.081
-625.449	-200.000	0.012	0.183
-624.434	-200.000	-0.001	0.213
-623.419	35.646	-0.081	0.073
-622.405	-200.000	-0.023	-0.408
-621.390	800.000	0.020	0.065
-620.376	-26.448	-0.267	-0.160
-619.361	-200.000	0.076	-0.413
-618.346	800.000	0.108	0.414
-617.332	-108.209	-0.259	0.057
-616.317	-139.647	-0.322	-0.035
-615.303	156.021	-0.107	-0.151
-614.288	621.775	-0.078	0.200
-613.273	-5.002	-0.177	-0.125
-612.259	-200.000	0.074	0.345
-611.244	-104.572	-0.276	0.065
-610.230	29.978	0.072	-0.063
-609.215	-80.913	-0.273	0.093
-608.201	13.804	0.300	0.239
-607.186	-0.490	-0.227	-0.165
-606.171	-133.099	-0.070	0.009
-605.157	-200.000	0.033	0.155
-604.142	165.055	0.209	0.302
-603.128	54.030	0.141	0.139
-602.113	-126.782	-0.070	-0.011
-601.098	-200.000	0.004	-0.425
-600.084	85.203	-0.138	-0.155
-599.069	-119.019	-0.092	0.016
-598.055	-157.628	0.305	0.019
-597.040	34.373	0.077	-0.069
-596.025	639.780	0.121	0.316
-595.011	800.000	0.067	0.265
-593.996	169.099	0.234	-0.342
-592.982	-200.000	-0.048	-0.270
-591.967	53.345	0.290	-0.284
-590.952	800.000	-0.037	0.156
-589.938	-74.837	-0.502	-0.184
-588.923	-200.000	-0.070	-0.412
-587.909	-200.000	0.000	-0.389
-586.894	113.524	-0.054	0.067
-585.879	-200.000	0.010	0.422
-584.865	800.000	-0.033	0.128
-583.850	-25.135	-0.128	0.078
-582.836	-61.923	-0.116	0.050
-581.821	-11.156	-0.029	-0.020
-580.806	233.849	-0.131	-0.221
-579.792	-69.914	-0.421	-0.164
-578.777	236.918	-0.157	-0.267
-577.763	800.000	0.045	-0.145
-576.748	347.309	-0.136	-0.274
-575.733	178.779	-0.200	-0.299
-574.719	37.496	0.116	0.105
-573.704	213.981	-0.210	0.340
-572.690	-162.879	-0.187	0.009
-571.675	43.492	0.109	-0.102
-570.661	-121.409	0.138	0.024
-569.646	800.000	-0.009	-0.032
-568.631	133.327	0.152	-0.201
-567.617	577.868	0.174	0.435
-566.602	-29.555	-0.236	0.138
-565.588	342.072	-0.019	0.039
-564.573	-49.374	-0.237	-0.116
-563.558	68.778	0.236	-0.248
-562.544	483.977	-0.047	-0.110
-561.529	-99.365	0.256	0.066
-560.515	-110.491	-0.168	-0.036
-559.500	396.105	0.063	0.134
-558.485	58.702	-0.081	-0.081
-557.471	-29.181	-0.083	0.049
-556.456	800.000	0.075	-0.268
-555.442	16.646	-0.108	0.087
-554.427	392.463	-0.118	0.250
-553.412	800.000	0.081	-0.251
-552.398	-200.000	0.052	0.250
-551.383	-76.058	0.437	0.158
-550.369	194.312	-0.102	-0.159
-549.354	800.000	0.041	-0.132
-548.339	-118.064	-0.136	-0.025
-547.325	-200.000	-0.026	0.388
-546.310	-50.495	-0.131	-0.063
-545.296	370.406	0.140	-0.289
-544.281	-132.591	0.055	0.007
-543.266	94.660	-0.031	-0.036
-542.252	800.000	0.035	0.147
-541.237	-200.000	0.002	0.055
-540.223	-25.090	-0.195	-0.118
-539.208	800.000	-0.050	0.210
-538.193	-195.660	0.300	-0.002
-537.179	22.071	-0.188	-0.157
-536.164	800.000	0.103	0.426
-535.150	104.550	-0.024	-0.028
-534.135	139.629	-0.147	0.198
-533.121	-197.813	-0.122	0.001
-532.106	-134.654	0.262	0.033
-531.091	-105.222	0.135	-0.032
-530.077	-200.000	-0.002	-0.119
-529.062	-43.590	-0.074	-0.038
-528.048	800.000	0.073	0.241
-527.033	-200.000	0.041	0.344
-526.018	188.656	-0.091	-0.139
-525.004	-44.182	0.050	-0.026
-523.989	-200.000	0.022	-0.342
-522.975	-12.694	0.240	0.160
-521.960	-61.348	0.180	0.077
-520.945	230.146	-0.087	-0.146
-519.931	-77.308	-0.192	-0.068
-518.916	-138.532	-0.221	-0.025
-517.902	-79.941	-0.269	0.092
-516.887	-61.530	-0.322	0.138
-515.872	269.760	-0.103	-0.184
-514.858	-22.823	0.256	0.158
-513.843	800.000	0.066	0.257
-512.829	174.703	0.037	-0.055
-511.814	-63.430	0.269	-0.113
-510.799	-75.600	-0.257	0.093
-509.785	-200.000	0.011	0.082
-508.770	-30.412	-0.159	0.092
-507.756	-200.000	0.007	-0.359
-506.741	-80.757	0.248	0.084
-505.726	38.981	0.221	-0.202
-504.712	125.873	-0.136	0.175
-503.697	197.568	0.118	0.183
-502.683	177.728	-0.043	0.064
-501.668	32.950	-0.085	-0.075
-500.653	-61.901	0.197	-0.084
-499.639	103.763	-0.209	-0.250
-498.624	-98.582	-0.102	0.027
-497.610	-47.024	-0.207	-0.103
-496.595	800.000	-0.021	0.072
-495.581	-14.402	-0.120	0.079
-494.566	-200.000	-0.032	-0.160
-493.551	-200.000	-0.032	0.215
-492.537	59.747	-0.264	0.266
-491.522	-190.164	0.092	-0.001
-490.508	-135.124	-0.369	-0.045
-489.493	-123.005	-0.099	0.016
-488.478	-44.461	-0.060	-0.031
-487.464	99.942	0.057	0.067
-486.449	-95.431	-0.166	0.046
-485.435	310.954	0.142	-0.270
-484.420	-200.000	0.015	0.197
-483.405	-200.000	0.007	0.056
-482.391	163.637	0.111	-0.159
-481.376	-84.948	-0.222	0.071
-480.362	-131.726	0.317	-0.042
-479.347	-46.389	-0.462	-0.231
-478.332	-200.000	0.008	-0.113
-477.318	-200.000	-0.004	0.196
-476.303	-3.278	0.230	-0.164
-475.289	52.186	-0.133	-0.130
-474.274	99.946	-0.241	0.285
-473.259	170.191	0.053	-0.077
-472.245	16.557	0.238	0.191
-471.230	377.169	0.068	-0.141
-470.216	-32.646	0.198	-0.112
-469.201	-200.000	-0.017	-0.143
-468.186	-48.417	-0.282	0.138
-467.172	-135.002	0.329	-0.040
-466.157	206.823	0.122	-0.194
-465.143	2.181	0.175	0.129
-464.128	-200.000	0.018	0.177
-463.113	-167.543	0.314	-0.013
-462.099	170.033	0.172	-0.251
-461.084	673.207	-0.014	-0.037
-460.070	258.725	0.224	-0.394
-459.055	-200.000	-0.028	0.279
-458.040	-24.160	-0.097	-0.059
-457.026	336.862	-0.009	-0.017
-456.011	-4.174	-0.080	0.056
-454.997	72.719	-0.204	-0.217
-453.982	-91.911	0.124	-0.036
-452.968	37.827	-0.289	-0.261
-451.953	103.675	0.258	-0.308
-450.938	800.000	0.052	-0.187
-449.924	-137.966	-0.222	0.025
-448.909	800.000	0.042	-0.166
-447.895	357.213	-0.108	0.220
-446.880	-139.986	0.130	-0.014
-445.865	68.004	0.241	0.251
-444.851	-147.950	-0.177	0.015
-443.836	169.502	-0.194	0.283
-442.822	-200.000	0.019	0.160
-441.807	-200.000	0.010	0.270
-440.792	16.690	0.135	0.108
-439.778	-188.651	0.131	0.002
-438.763	164.814	-0.083	-0.120
-437.749	-155.565	-0.326	0.021
-436.734	-200.000	0.011	0.397
-435.719	129.771	-0.124	0.162
-434.705	-200.000	-0.020	0.184
-433.690	616.869	-0.003	-0.008
-432.676	-90.291	0.236	-0.070
-431.661	164.006	-0.185	-0.265
-430.646	-146.444	-0.242	-0.021
-429.632	800.000	-0.008	-0.026
-428.617	-126.988	0.307	0.046
-427.603	-200.000	0.034	-0.173
-426.588	-99.267	-0.186	-0.048
-425.573	69.527	0.176	-0.184
-424.559	-5.907	0.285	0.198
-423.544	599.411	-0.046	0.116
-422.530	491.353	0.058	0.136
-421.515	-200.000	-0.039	-0.348
-420.500	-84.578	-0.261	-0.084
-419.486	-103.758	-0.350	-0.083
-418.471	-200.000	0.006	-0.174
-417.457	800.000	0.123	0.355
-416.442	-101.877	0.153	-0.038
-415.428	710.740	-0.068	-0.182
-414.413	415.334	-0.074	0.161
-413.398	-200.000	-0.008	-0.050
-412.384	-108.052	0.146	0.032
-411.369	-200.000	0.021	-0.246
-410.355	-175.522	0.311	0.009
-409.340	548.349	0.039	-0.095
-408.325	-141.788	-0.176	-0.018
-407.311	320.427	0.077	-0.148
-406.296	-53.082	-0.110	0.051
-405.282	791.356	-0.098	-0.275
-404.267	-55.561	-0.183	0.083
-403.252	-89.975	-0.371	-0.110
-402.238	394.644	-0.066	0.140
-401.223	-167.037	-0.111	0.005
-400.209	800.000	0.089	-0.275
-399.194	-140.612	-0.043	-0.005
-398.179	-137.941	0.341	-0.039
-397.165	-101.260	-0.203	-0.050
-396.150	428.916	-0.041	-0.089
-395.136	-200.000	-0.036	0.289
-394.121	-200.000	-0.003	0.108
-393.106	-200.000	-0.002	0.095
-392.092	92.941	-0.147	-0.169
-391.077	658.141	-0.117	-0.305
-390.063	-50.937	-0.232	-0.111
-389.048	-18.363	0.334	0.212
-388.033	-189.872	0.245	0.003
-387.019	-78.608	-0.250	-0.087
-386.004	-200.000	0.018	0.085
-384.990	352.383	-0.069	0.140
-383.975	-138.398	0.455	0.051
-382.960	800.000	0.041	0.126
-381.946	231.054	-0.202	0.336
-380.931	-200.000	-0.004	-0.067
-379.917	179.906	0.129	-0.192
-378.902	-101.634	-0.044	0.011
-377.888	-200.000	-0.016	0.177
-376.873	11.836	-0.152	0.119
-375.858	452.580	-0.037	0.082
-374.844	-200.000	-0.020	-0.141
-373.829	-200.000	-0.052	-0.296
-372.815	-64.247	-0.463	-0.191
-371.800	-84.699	0.127	-0.040
-370.785	147.753	-0.176	-0.241
-369.771	-127.896	-0.217	-0.032
-368.756	-168.961	0.261	-0.010
-367.742	-89.209	-0.086	-0.026
-366.727	-30.958	-0.390	0.223
-365.712	86.965	-0.219	0.245
-364.698	-200.000	-0.043	0.309
-363.683	-200.000	0.025	-0.326
-362.669	-146.571	0.172	0.015
-361.654	-200.000	-0.040	-0.363
-360.639	-90.751	0.105	0.031
-359.625	32.703	0.094	0.082
-358.610	137.747	-0.014	-0.018
-357.596	41.235	0.042	-0.038
-356.581	-170.691	0.241	-0.008
-355.566	-200.000	0.012	0.195
-354.552	-19.007	0.135	-0.085
-353.537	8.197	0.421	0.321
-352.523	-2.323	-0.135	0.096
-351.508	-102.029	0.051	0.012
-350.493	-36.279	-0.061	0.033
-349.479	800.000	0.051	0.183
-348.464	29.176	-0.101	-0.087
-347.450	-138.157	0.149	-0.017
-346.435	610.037	0.097	-0.245
-345.420	478.951	-0.037	0.086
-344.406	-8.346	0.152	0.103
-343.391	-116.187	0.184	-0.035
-342.377	87.818	0.155	-0.174
-341.362	-200.000	0.039	-0.184
-340.348	-200.000	0.015	0.179
-339.333	22.850	-0.177	-0.147
-338.318	-115.543	0.174	0.033
-337.304	800.000	0.056	-0.222
-336.289	-200.000	-0.023	0.188
-335.275	-136.469	0.131	0.015
-334.260	-48.379	-0.142	0.069
-333.245	-71.955	-0.101	0.038
-332.231	-174.086	-0.269	-0.008
-331.216	14.116	0.162	0.128
-330.202	444.779	0.097	-0.216
-329.187	123.346	-0.057	-0.072
-328.172	-200.000	-0.021	0.203
-327.158	-200.000	-0.022	0.119
-326.143	28.992	-0.160	-0.137
-325.129	-200.000	0.002	0.244
-324.114	-131.211	0.179	-0.024
-323.099	482.552	-0.165	0.380
-322.085	326.320	0.135	0.263
-321.070	536.826	0.113	-0.273
-320.056	-102.480	-0.165	-0.040
-319.041	639.196	0.095	0.245
-318.026	800.000	-0.052	-0.192
-317.012	9.103	0.167	0.128
-315.997	780.123	-0.066	0.183
-314.983	-200.000	0.024	0.274
-313.968	800.000	-0.059	0.242
-312.953	-66.062	0.110	0.044
-311.939	39.058	-0.077	0.070
-310.924	46.193	-0.372	-0.349
-309.910	-135.067	0.333	0.041
-308.895	-157.282	-0.448	-0.027
-307.880	-94.785	-0.148	0.041
-306.866	309.882	0.105	0.198
-305.851	80.446	0.244	-0.266
-304.837	188.885	-0.096	0.145
-303.822	-200.000	0.008	-0.142
-302.807	-99.702	-0.189	0.048
-301.793	468.050	-0.123	-0.279
-300.778	-200.000	-0.022	0.167
-299.764	545.212	0.018	0.045
-298.749	75.934	0.187	0.200
-297.735	309.050	0.110	0.208
-296.720	800.000	-0.013	0.053
-295.705	-30.635	-0.122	-0.070
-294.691	-3.767	0.349	0.245
-293.676	-114.535	-0.132	0.026
-292.662	-152.846	0.122	-0.009
-291.647	36.793	0.121	-0.108
-290.632	-41.497	0.122	-0.063
-289.618	-136.456	0.107	-0.013
-288.603	800.000	0.064	0.203
-287.589	800.000	-0.090	-0.266
-286.574	-110.523	-0.307	0.064
-285.559	585.131	-0.096	-0.239
-284.545	-200.000	0.041	-0.217
-283.530	-96.775	0.228	-0.061
-282.516	-43.686	0.193	0.098
-281.501	800.000	0.102	0.373
-280.486	-73.902	0.161	0.059
-279.472	-88.045	-0.196	-0.059
-278.457	94.941	-0.075	0.086
-277.443	68.060	-0.032	0.033
-276.428	17.284	0.077	-0.062
-275.413	800.000	0.056	-0.195
-274.399	206.496	0.093	0.147
-273.384	-200.000	-0.018	-0.114
-272.370	-200.000	-0.048	0.235
-271.355	-200.000	-0.002	0.091
-270.340	-131.381	-0.122	-0.016
-269.326	557.338	-0.101	0.245
-268.311	92.498	0.136	0.155
-267.297	-37.773	0.079	0.043
-266.282	-14.399	-0.266	0.173
-265.267	-200.000	0.045	0.368
-264.253	138.033	0.307	0.407
-263.238	-143.589	0.060	0.006
-262.224	-15.609	0.294	-0.190
-261.209	800.000	-0.087	-0.335
-260.195	-131.436	-0.299	0.040
-259.180	-65.832	0.114	-0.046
-258.165	-31.367	-0.168	0.095
-257.151	780.498	0.036	-0.100
-256.136	-15.969	0.033	0.021
-255.122	124.142	-0.098	-0.124
-254.107	800.000	0.065	0.261
-253.092	-200.000	-0.005	0.217
-252.078	-200.000	-0.006	0.101
-251.063	-200.000	0.014	0.160
-250.049	90.529	0.171	-0.194
-249.034	94.803	0.156	0.179
-248.019	-172.563	0.204	0.007
-247.005	-200.000	-0.016	-0.071
-245.990	-200.000	-0.019	-0.105
-244.976	48.282	0.252	0.239
-243.961	191.019	0.115	-0.174
-242.946	757.154	0.063	-0.173
-241.932	27.478	0.324	-0.275
-240.917	134.944	-0.087	-0.114
-239.903	-200.000	0.019	0.324
-238.888	20.039	-0.238	-0.194
-237.873	78.761	0.286	-0.309
-236.859	80.688	-0.028	0.030
-235.844	-200.000	0.001	0.059
-234.830	-200.000	0.088	0.418
-233.815	-189.922	-0.156	0.002
-232.800	-43.749	0.188	0.096
-231.786	-142.642	-0.174	0.017
-230.771	17.186	0.063	0.051
-229.757	118.314	0.231	-0.287
-228.742	-66.693	-0.230	-0.092
-227.727	-11.970	0.189	-0.125
-226.713	-64.307	-0.156	0.064
-225.698	-151.370	-0.410	-0.031
-224.684	69.826	-0.148	-0.154
-223.669	-200.000	0.030	-0.208
-222.655	113.000	0.150	-0.184
-221.640	-29.900	-0.245	-0.141
-220.625	-43.171	0.176	-0.090
-219.611	312.804	-0.104	-0.197
-218.596	-155.489	0.109	-0.007
-217.582	-36.160	-0.223	-0.121
-216.567	-115.979	-0.254	0.048
-215.552	48.208	0.267	-0.252
-214.538	88.460	-0.048	-0.054
-213.523	209.616	-0.037	-0.058
-212.509	661.627	0.139	0.362
-211.494	53.489	-0.258	0.250
-210.479	-70.299	-0.061	-0.023
-209.465	-200.000	0.004	0.160
-208.450	460.232	-0.117	0.262
-207.436	259.048	0.054	0.095
-206.421	-200.000	0.051	-0.273
-205.406	167.531	0.050	-0.071
-204.392	30.982	0.057	-0.050
-203.377	-200.000	-0.013	-0.243
-202.363	-38.217	0.274	-0.146
-201.348	383.054	-0.108	0.223
-200.333	-3.408	0.113	0.079
-199.319	-200.000	-0.028	0.137
-198.304	800.000	0.070	-0.282
-197.290	-8.988	-0.164	-0.110
-196.275	115.109	-0.135	-0.166
-195.260	55.399	0.153	0.149
-194.246	159.108	-0.111	-0.155
-193.231	-131.656	0.214	-0.028
-192.217	-200.000	-0.017	0.256
-191.202	-200.000	-0.040	0.355
-190.187	-180.403	-0.204	-0.004
-189.173	-59.306	0.352	-0.152
-188.158	-200.000	0.018	0.092
-187.144	800.000	0.034	0.097
-186.129	-94.528	0.052	-0.014
-185.114	223.393	0.215	-0.349
-184.100	-200.000	0.008	-0.157
-183.085	135.381	0.136	-0.179
-182.071	14.293	0.181	0.142
-181.056	-200.000	0.033	-0.226
-180.042	-72.002	0.358	-0.134
-179.027	378.477	0.105	-0.216
-178.012	56.755	0.445	-0.436
-176.998	472.031	0.112	-0.254
-175.983	347.692	0.076	0.151
-174.969	482.969	0.088	0.201
-173.954	18.066	-0.052	0.042
-172.939	755.909	0.129	-0.351
-171.925	-43.109	0.169	0.086
-170.910	82.571	-0.227	0.248
-169.896	-47.579	0.117	0.057
-168.881	80.231	0.143	0.155
-167.866	-92.512	-0.343	-0.097
-166.852	39.061	0.235	0.212
-165.837	194.366	0.046	-0.070
-164.823	-56.223	0.232	0.104
-163.808	800.000	0.031	0.108
-162.793	-157.485	0.270	0.016
-161.779	225.654	0.112	0.182
-160.764	222.826	-0.168	-0.272
-159.750	155.683	-0.109	-0.151
-158.735	28.126	-0.170	0.144
-157.720	-117.227	0.200	0.037
-156.706	113.009	0.152	-0.185
-155.691	-134.298	0.332	-0.041
-154.677	13.974	-0.091	-0.071
-153.662	35.642	0.213	-0.188
-152.647	-24.052	-0.238	-0.143
-151.633	513.514	-0.143	-0.335
-150.618	17.469	0.079	-0.063
-149.604	228.157	0.044	0.072
-148.589	-101.022	0.270	0.067
-147.574	74.601	0.238	-0.251
-146.560	-89.314	-0.170	0.050
-145.545	-200.000	0.003	-0.470
-144.531	-53.812	-0.145	-0.067
-143.516	-200.000	0.037	0.298
-142.502	25.465	-0.224	-0.187
-141.487	800.000	-0.043	0.177
-140.472	-18.535	0.202	0.127
-139.458	-200.000	0.059	-0.431
-138.443	45.498	0.121	-0.112
-137.429	351.079	-0.090	0.179
-136.414	-73.524	-0.005	0.002
-135.399	-200.000	-0.014	0.132
-134.385	-11.347	-0.166	0.110
-133.370	50.692	-0.177	0.168
-132.356	-200.000	0.012	0.205
-131.341	443.685	0.096	0.212
-130.326	588.001	-0.038	0.094
-129.312	800.000	0.008	-0.034
-128.297	-200.000	0.006	-0.098
-127.283	800.000	-0.015	-0.047
-126.268	407.119	0.097	0.206
-125.253	44.597	-0.011	0.010
-124.239	156.990	-0.061	-0.085
-123.224	182.932	0.235	0.348
-122.210	150.099	0.159	0.216
