DTS Sentinel unit serial number:	SN413079Multiplexer serial number:	ORYXHardware model number:	OX4-SRSoftware version number:	ORYX F/W v4.00 Oryx Data Collector v3.7.2.0data status	okinstallation	princeton_trtdifferential loss correction	single-endedforward channel	channel 4reverse channel	N/Adate	2019/09/13time	00:41:34forward acquisition time	60.00reverse acquisition time	0.00gamma	496.2192k internal	0.2317k external	0.2317temperature offset calibration	1.0171default loss term (dB/km)	0.3790temperature slope calibration	1.0000multiplexer offset coefficient	1.0000multiplexer slope coefficient	1.0000fibre end	0.00T internal ref (°C)	28.25T ext. ref 1 (°C)	3.68T ext. ref 2 (°C)	22.81length (m)	temperature (°C)	Stokes	anti-Stokes-747.200	31.402	0.320	0.278
-746.185	617.950	-0.126	0.320
-745.171	-106.381	0.349	0.079
-744.156	800.000	0.048	0.146
-743.142	117.476	-0.084	-0.105
-742.127	-200.000	-0.048	0.306
-741.112	800.000	-0.024	-0.089
-740.098	-188.510	0.165	-0.002
-739.083	80.580	0.151	0.164
-738.069	-76.097	-0.279	0.100
-737.054	27.992	0.213	0.182
-736.039	-200.000	0.009	-0.171
-735.025	178.959	0.140	0.208
-734.010	-56.065	0.167	0.075
-732.996	-88.709	-0.096	-0.029
-731.981	455.699	-0.126	0.283
-730.966	-200.000	-0.026	0.240
-729.952	-100.293	0.338	-0.085
-728.937	27.887	0.105	-0.089
-727.923	800.000	-0.072	-0.212
-726.908	536.795	0.103	-0.247
-725.894	-200.000	0.007	-0.081
-724.879	225.083	0.033	-0.054
-723.864	-52.726	-0.100	0.047
-722.850	-34.194	-0.317	0.176
-721.835	409.229	-0.153	0.328
-720.821	-2.573	0.205	-0.145
-719.806	-200.000	0.007	0.045
-718.791	167.331	-0.200	-0.288
-717.777	56.942	0.385	0.379
-716.762	-163.606	0.247	-0.012
-715.748	-83.156	-0.284	0.092
-714.733	-22.023	0.384	-0.236
-713.718	-200.000	0.058	-0.303
-712.704	476.077	-0.109	-0.250
-711.689	-76.275	-0.302	0.108
-710.675	126.571	0.170	0.217
-709.660	222.637	-0.043	-0.071
-708.645	-27.501	-0.076	0.044
-707.631	-19.438	0.328	0.205
-706.616	39.648	-0.246	-0.223
-705.602	-162.334	-0.156	-0.008
-704.587	-200.000	-0.022	-0.278
-703.572	800.000	-0.060	0.232
-702.558	-51.475	-0.069	-0.032
-701.543	313.819	-0.244	-0.465
-700.529	459.584	-0.081	-0.182
-699.514	-200.000	-0.017	0.115
-698.499	-35.965	0.130	-0.071
-697.485	-76.630	-0.217	-0.077
-696.470	-165.175	-0.201	0.009
-695.456	-200.000	0.007	-0.074
-694.441	-56.058	-0.283	-0.127
-693.426	25.906	-0.123	-0.104
-692.412	267.386	0.056	-0.100
-691.397	-200.000	0.013	-0.165
-690.383	309.814	-0.051	-0.096
-689.368	-44.961	-0.162	0.081
-688.354	-132.536	0.204	-0.026
-687.339	-148.655	-0.359	0.029
-686.324	-200.000	-0.080	-0.465
-685.310	-200.000	-0.027	0.126
-684.295	-93.962	-0.147	0.041
-683.281	-29.527	0.127	-0.073
-682.266	20.641	-0.382	-0.312
-681.251	-141.941	-0.106	-0.011
-680.237	800.000	-0.104	0.320
-679.222	109.464	0.162	0.196
-678.208	310.099	-0.126	0.239
-677.193	196.693	0.085	0.131
-676.178	73.668	0.161	0.171
-675.164	2.633	-0.243	-0.178
-674.149	-200.000	0.005	-0.086
-673.135	169.174	0.153	-0.220
-672.120	-128.101	0.213	0.031
-671.105	-66.320	-0.329	-0.132
-670.091	63.662	0.087	-0.088
-669.076	-200.000	-0.024	-0.113
-668.062	-102.979	0.355	0.085
-667.047	-112.247	-0.211	0.043
-666.032	55.615	0.312	-0.305
-665.018	23.283	-0.204	-0.169
-664.003	-131.504	0.211	-0.028
-662.989	149.572	0.147	-0.201
-661.974	301.706	-0.144	-0.269
-660.959	-12.676	0.163	0.107
-659.945	14.930	-0.260	-0.206
-658.930	-200.000	0.013	-0.327
-657.916	67.573	0.190	-0.195
-656.901	-163.033	-0.115	0.006
-655.886	233.465	-0.074	0.123
-654.872	-200.000	-0.034	-0.281
-653.857	-73.994	0.211	0.077
-652.843	-197.528	0.188	0.001
-651.828	422.298	-0.063	-0.136
-650.814	45.408	0.084	-0.078
-649.799	173.212	-0.092	-0.134
-648.784	-46.417	-0.335	-0.166
-647.770	-101.394	-0.383	-0.094
-646.755	-34.791	0.198	0.109
-645.741	800.000	-0.014	-0.044
-644.726	800.000	0.113	-0.363
-643.711	200.936	0.155	0.241
-642.697	-98.068	0.422	-0.110
-641.682	-154.079	-0.315	0.022
-640.668	30.724	-0.055	0.048
-639.653	-54.513	0.113	0.052
-638.638	-200.000	0.020	-0.154
-637.624	-61.030	0.115	-0.049
-636.609	53.235	0.292	0.282
-635.595	-141.823	-0.250	0.025
-634.580	-11.319	-0.102	-0.068
-633.565	-200.000	-0.022	-0.179
-632.551	-60.477	0.195	0.083
-631.536	-200.000	0.019	0.173
-630.522	-81.794	0.331	0.109
-629.507	-117.098	-0.186	-0.034
-628.492	800.000	-0.055	0.159
-627.478	107.600	0.150	0.180
-626.463	38.316	-0.152	0.137
-625.449	-200.000	-0.002	-0.159
-624.434	173.429	-0.207	-0.301
-623.419	-8.963	-0.204	-0.138
-622.405	800.000	-0.041	-0.121
-621.390	86.213	-0.229	-0.254
-620.376	183.928	-0.049	0.073
-619.361	-36.416	-0.257	-0.140
-618.346	800.000	0.100	-0.347
-617.332	148.926	0.090	-0.123
-616.317	800.000	0.050	0.158
-615.303	181.153	-0.247	-0.366
-614.288	800.000	0.025	0.072
-613.273	138.931	0.094	0.124
-612.259	-119.194	-0.177	-0.031
-611.244	-16.962	-0.256	-0.163
-610.230	360.801	-0.044	-0.088
-609.215	-68.224	0.019	0.007
-608.201	168.655	0.116	-0.166
-607.186	-200.000	0.034	0.254
-606.171	-76.592	-0.122	0.043
-605.157	265.785	-0.126	-0.222
-604.142	364.466	0.192	-0.389
-603.128	430.541	-0.143	-0.311
-602.113	318.837	-0.192	-0.366
-601.098	-119.048	0.265	0.047
-600.084	-49.956	-0.208	-0.099
-599.069	-18.152	-0.164	-0.103
-598.055	-125.552	-0.384	0.059
-597.040	40.468	0.154	0.139
-596.025	190.076	0.013	-0.020
-595.011	-37.067	-0.224	-0.121
-593.996	-4.851	-0.084	-0.058
-592.982	134.107	0.108	-0.141
-591.967	48.087	0.066	0.062
-590.952	-143.734	-0.421	0.040
-589.938	-44.838	0.129	-0.064
-588.923	141.137	0.225	0.299
-587.909	-200.000	0.155	-0.000
-586.894	-200.000	0.041	-0.212
-585.879	-109.422	-0.238	-0.051
-584.865	-200.000	0.037	-0.214
-583.850	-69.813	0.171	-0.066
-582.836	-51.028	0.379	0.179
-581.821	13.613	-0.114	-0.089
-580.806	-177.480	-0.304	-0.007
-579.792	125.751	-0.086	-0.109
-578.777	43.793	0.225	0.207
-577.763	-200.000	-0.014	0.175
-576.748	-77.025	0.404	-0.142
-575.733	-14.252	-0.159	0.103
-574.719	272.716	0.162	0.288
-573.704	236.358	0.029	0.048
-572.690	-27.059	0.251	0.147
-571.675	381.164	-0.111	-0.229
-570.661	566.570	-0.042	0.104
-569.646	94.133	0.096	-0.109
-568.631	-200.000	-0.511	0.002
-567.617	-113.270	-0.110	0.022
-566.602	-84.460	0.242	-0.077
-565.588	89.591	-0.179	-0.201
-564.573	507.589	-0.033	-0.076
-563.558	-200.000	0.032	0.144
-562.544	-200.000	-0.005	0.181
-561.529	-0.015	0.075	0.054
-560.515	356.089	-0.094	-0.187
-559.500	-200.000	-0.019	0.345
-558.485	-142.561	-0.141	-0.014
-557.471	800.000	0.137	-0.382
-556.456	-94.639	-0.201	-0.055
-555.442	-28.809	0.233	0.135
-554.427	-44.234	-0.529	0.267
-553.412	20.580	0.364	0.296
-552.398	557.253	-0.160	-0.388
-551.383	-84.569	0.149	0.047
-550.369	-61.890	0.056	-0.024
-549.354	480.527	0.067	-0.152
-548.339	800.000	-0.012	-0.037
-547.325	280.698	0.097	-0.173
-546.310	-94.963	0.011	-0.003
-545.296	-11.035	-0.196	-0.130
-544.281	-53.151	0.074	-0.034
-543.266	800.000	-0.017	-0.071
-542.252	-64.660	-0.194	-0.079
-541.237	137.584	0.055	0.072
-540.223	-118.721	-0.141	-0.025
-539.208	800.000	-0.035	-0.145
-538.193	268.885	0.130	-0.228
-537.179	800.000	-0.085	-0.291
-536.164	16.481	-0.217	0.172
-535.150	-56.755	-0.163	-0.073
-534.135	166.262	0.129	-0.184
-533.121	-51.921	0.135	-0.063
-532.106	31.202	0.297	-0.256
-531.091	-59.740	-0.333	-0.143
-530.077	-103.153	0.194	-0.046
-529.062	-177.033	0.212	-0.005
-528.048	-200.000	0.018	-0.152
-527.033	81.589	-0.102	-0.111
-526.018	-40.900	0.041	-0.021
-525.004	-53.475	-0.180	0.083
-523.989	292.245	0.226	-0.414
-522.975	-200.000	-0.007	0.333
-521.960	-25.284	-0.182	-0.108
-520.945	-200.000	0.052	0.290
-519.931	79.734	-0.120	-0.129
-518.916	-16.348	0.265	-0.169
-517.902	-200.000	0.083	0.435
-516.887	-200.000	0.030	0.236
-515.872	-14.575	0.127	0.082
-514.858	9.453	0.246	0.186
-513.843	17.007	-0.314	0.250
-512.829	130.486	0.111	0.143
-511.814	-200.000	0.057	-0.291
-510.799	-200.000	0.040	-0.296
-509.785	-200.000	0.004	-0.045
-508.770	-200.000	0.042	0.205
-507.756	800.000	0.087	-0.319
-506.741	292.531	-0.059	0.107
-505.726	800.000	0.043	-0.180
-504.712	-34.670	0.123	-0.068
-503.697	-200.000	-0.027	-0.176
-502.683	103.812	-0.051	0.060
-501.668	-107.336	0.122	-0.027
-500.653	400.071	0.104	-0.218
-499.639	115.838	0.134	0.164
-498.624	800.000	-0.062	0.237
-497.610	-169.547	0.148	0.005
-496.595	511.483	0.039	-0.091
-495.581	17.943	0.298	-0.238
-494.566	-200.000	-0.070	0.334
-493.551	-168.347	0.140	-0.005
-492.537	-186.965	-0.065	-0.001
-491.522	800.000	0.047	0.141
-490.508	-19.366	-0.136	0.085
-489.493	-200.000	-0.014	0.131
-488.478	22.391	-0.314	-0.257
-487.464	-24.077	-0.041	0.025
-486.449	-43.553	-0.267	-0.135
-485.435	-200.000	0.017	-0.089
-484.420	231.598	0.062	0.102
-483.405	-108.873	-0.069	0.015
-482.391	154.189	0.111	-0.153
-481.376	374.695	-0.158	0.323
-480.362	-200.000	-0.040	-0.197
-479.347	-123.154	0.272	-0.044
-478.332	-200.000	0.276	-0.000
-477.318	-153.900	0.272	-0.019
-476.303	-95.857	-0.359	-0.096
-475.289	30.330	-0.191	0.164
-474.274	493.750	0.107	-0.245
-473.259	-131.166	0.154	-0.021
-472.245	-200.000	0.023	-0.362
-471.230	-114.181	0.078	-0.015
-470.216	-64.353	-0.188	-0.077
-469.201	-152.661	0.111	0.008
-468.186	222.369	-0.101	-0.162
-467.172	-200.000	-0.028	0.196
-466.157	-18.711	-0.413	-0.258
-465.143	-200.000	-0.002	-0.086
-464.128	-136.011	-0.283	-0.033
-463.113	-200.000	-0.024	-0.230
-462.099	800.000	-0.045	0.154
-461.084	-200.000	0.028	0.224
-460.070	-33.633	0.072	-0.040
-459.055	34.072	-0.366	0.320
-458.040	-168.538	-0.156	-0.006
-457.026	77.839	0.080	0.085
-456.011	800.000	0.020	0.077
-454.997	-93.672	-0.101	0.028
-453.982	800.000	0.064	-0.202
-452.968	118.575	-0.210	-0.259
-451.953	-200.000	0.004	0.083
-450.938	16.979	-0.140	-0.111
-449.924	-48.817	-0.287	-0.138
-448.909	339.999	-0.121	0.235
-447.895	50.683	-0.090	-0.085
-446.880	-63.901	0.028	0.011
-445.865	-80.756	0.366	-0.122
-444.851	296.017	0.060	-0.110
-443.836	-8.243	0.231	0.156
-442.822	11.550	-0.197	-0.151
-441.807	-33.592	-0.281	0.155
-440.792	44.247	0.324	0.297
-439.778	800.000	-0.095	0.322
-438.763	-126.447	-0.462	-0.069
-437.749	141.327	0.209	0.277
-436.734	180.238	0.039	-0.057
-435.719	-155.671	0.192	0.012
-434.705	-131.359	-0.288	-0.038
-433.690	-154.843	0.399	-0.026
-432.676	800.000	-0.089	0.325
-431.661	-200.000	0.020	-0.299
-430.646	56.941	-0.317	-0.309
-429.632	370.379	-0.062	-0.125
-428.617	-155.782	-0.331	-0.021
-427.603	-15.078	-0.213	0.136
-426.588	-85.265	-0.316	0.099
-425.573	17.422	0.154	0.122
-424.559	-158.748	-0.346	0.020
-423.544	-190.288	-0.552	0.006
-422.530	174.360	0.201	0.291
-421.515	-115.205	-0.240	-0.045
-420.500	-46.340	-0.203	-0.100
-419.486	800.000	0.090	0.274
-418.471	-50.555	0.247	-0.116
-417.457	296.935	-0.050	-0.092
-416.442	-200.000	0.011	0.096
-415.428	800.000	0.049	-0.164
-414.413	95.697	-0.057	-0.065
-413.398	-61.079	0.082	0.035
-412.384	-50.958	-0.241	-0.113
-411.369	-20.315	0.106	-0.065
-410.355	60.258	-0.028	0.027
-409.340	-200.000	0.013	0.127
-408.325	-152.589	0.169	0.012
-407.311	-67.626	-0.324	-0.127
-406.296	20.344	0.231	-0.187
-405.282	-72.002	0.083	0.031
-404.267	-200.000	0.038	0.274
-403.252	-169.365	0.036	0.001
-402.238	-132.073	-0.250	0.033
-401.223	-84.004	-0.034	-0.011
-400.209	389.420	-0.064	0.133
-399.194	19.432	-0.184	-0.148
-398.179	-17.381	0.147	-0.092
-397.165	-175.862	-0.166	0.004
-396.150	-200.000	0.065	0.347
-395.136	-200.000	0.034	-0.557
-394.121	800.000	-0.045	0.190
-393.106	-16.877	-0.059	0.037
-392.092	-190.428	0.361	-0.004
-391.077	238.813	0.026	0.043
-390.063	29.713	-0.128	-0.109
-389.048	800.000	-0.020	-0.055
-388.033	-96.021	0.299	-0.080
-387.019	-27.875	-0.041	-0.024
-386.004	-200.000	-0.022	0.119
-384.990	-77.156	-0.370	0.129
-383.975	-49.475	0.069	-0.033
-382.960	135.050	-0.095	-0.123
-381.946	-19.402	0.148	-0.092
-380.931	800.000	-0.037	0.130
-379.917	781.641	0.078	0.213
-378.902	800.000	0.113	-0.387
-377.888	-87.542	-0.105	-0.032
-376.873	265.062	-0.052	0.091
-375.858	-130.840	-0.201	0.027
-374.844	-200.000	-0.013	0.331
-373.829	94.239	-0.194	-0.220
-372.815	-109.444	0.069	0.015
-371.800	3.198	-0.197	-0.143
-370.785	518.486	-0.075	0.176
-369.771	-200.000	0.027	0.148
-368.756	-200.000	0.007	0.126
-367.742	186.917	0.151	0.225
-366.727	98.380	0.093	0.107
-365.712	132.414	0.164	0.211
-364.698	-139.227	-0.190	0.020
-363.683	800.000	0.092	0.268
-362.669	-30.158	-0.100	0.057
-361.654	-126.252	-0.213	0.032
-360.639	800.000	0.108	0.307
-359.625	-200.000	0.006	0.043
-358.610	19.485	0.040	0.032
-357.596	-1.756	0.184	-0.129
-356.581	-134.935	0.132	-0.016
-355.566	20.844	0.192	-0.155
-354.552	118.970	0.105	-0.129
-353.537	-79.962	0.067	-0.022
-352.523	453.606	0.166	0.367
-351.508	-66.774	0.259	-0.102
-350.493	-112.702	0.164	-0.032
-349.479	-200.000	0.013	-0.301
-348.464	-175.504	-0.388	0.011
-347.450	-52.034	0.280	0.130
-346.435	386.255	0.063	0.130
-345.420	70.448	0.350	0.361
-344.406	-200.000	-0.008	-0.093
-343.391	-11.618	0.077	0.050
-342.377	37.889	-0.197	0.175
-341.362	-84.940	-0.238	0.074
-340.348	-90.257	0.293	-0.085
-339.333	19.821	0.301	-0.241
-338.318	187.270	-0.086	0.128
-337.304	31.036	0.222	0.190
-336.289	69.936	-0.292	-0.300
-335.275	127.669	0.206	-0.261
-334.260	-200.000	-0.008	0.114
-333.245	77.118	0.184	0.195
-332.231	-200.000	0.006	0.150
-331.216	-155.189	0.245	0.016
-330.202	263.445	-0.064	-0.112
-329.187	-200.000	-0.040	0.265
-328.172	172.711	0.152	-0.218
-327.158	-200.000	-0.032	-0.187
-326.143	61.157	0.278	0.275
-325.129	-134.703	-0.442	-0.054
-324.114	-200.000	-0.019	-0.203
-323.099	-200.000	0.015	-0.179
-322.085	759.032	-0.056	0.152
-321.070	-63.199	-0.242	0.099
-320.056	-72.087	-0.203	0.075
-319.041	-83.060	0.281	0.090
-318.026	106.734	-0.175	0.207
-317.012	-67.898	0.158	-0.062
-315.997	-61.855	-0.297	0.124
-314.983	231.351	0.050	0.081
-313.968	800.000	0.138	0.390
-312.953	-184.092	0.210	0.003
-311.939	-194.562	-0.111	0.001
-310.924	188.384	-0.148	0.220
-309.910	-86.365	0.155	0.047
-308.895	70.745	-0.160	0.165
-307.880	-200.000	0.023	0.455
-306.866	-4.175	-0.171	0.118
-305.851	-200.000	0.030	0.149
-304.837	800.000	-0.041	0.145
-303.822	-61.118	0.090	0.038
-302.807	-200.000	-0.042	-0.398
-301.793	513.183	-0.121	0.281
-300.778	298.768	0.088	-0.161
-299.764	-19.043	-0.122	-0.075
-298.749	267.673	0.152	-0.265
-297.735	-200.000	-0.003	-0.090
-296.720	79.914	-0.199	-0.213
-295.705	-142.912	0.224	-0.022
-294.691	-54.958	-0.299	-0.134
-293.676	72.205	-0.070	-0.073
-292.662	-62.961	0.110	0.045
-291.647	67.826	0.251	0.256
-290.632	399.456	-0.046	0.096
-289.618	-41.352	-0.083	0.043
-288.603	-200.000	-0.004	-0.223
-287.589	-200.000	0.038	-0.249
-286.574	661.766	0.099	0.254
-285.559	132.558	0.127	0.163
-284.545	-13.524	0.192	-0.124
-283.530	113.384	0.052	-0.062
-282.516	96.442	-0.102	-0.116
-281.501	364.073	0.153	0.305
-280.486	-27.817	0.232	-0.134
-279.472	-4.873	-0.090	0.062
-278.457	35.349	0.247	0.215
-277.443	512.892	0.226	-0.524
-276.428	331.146	-0.062	0.118
-275.413	-200.000	-0.030	-0.160
-274.399	466.667	0.053	-0.117
-273.384	-200.000	-0.025	0.110
-272.370	-28.643	-0.161	-0.092
-271.355	-200.000	0.036	-0.192
-270.340	-200.000	-0.027	0.187
-269.326	178.502	-0.090	0.131
-268.311	35.262	0.237	0.207
-267.297	-95.608	-0.221	-0.059
-266.282	800.000	0.116	-0.334
-265.267	-200.000	-0.054	0.358
-264.253	101.879	0.071	-0.082
-263.238	377.852	0.107	0.217
-262.224	71.880	-0.173	-0.178
-261.209	800.000	0.087	-0.294
-260.195	40.351	0.346	-0.309
-259.180	447.077	-0.118	-0.259
-258.165	-55.192	-0.166	0.074
-257.151	-178.302	0.134	-0.003
-256.136	21.797	0.154	0.124
-255.122	3.051	-0.191	-0.138
-254.107	110.137	-0.236	-0.281
-253.092	-138.828	-0.178	-0.019
-252.078	800.000	-0.065	0.260
-251.063	703.866	0.032	0.083
-250.049	-118.272	0.068	0.012
-249.034	32.993	-0.129	0.111
-248.019	800.000	-0.056	-0.194
-247.005	118.450	-0.141	-0.173
-245.990	54.610	0.125	-0.119
-244.976	152.531	0.149	0.201
-243.961	345.968	-0.021	0.041
-242.946	800.000	0.024	0.071
-241.932	6.610	-0.381	0.281
-240.917	654.252	-0.100	0.255
-239.903	316.177	-0.159	0.297
-238.888	-8.854	0.436	0.290
-237.873	663.311	0.048	0.123
-236.859	-20.146	0.437	0.267
-235.844	-200.000	0.014	0.091
-234.830	121.178	-0.103	0.127
-233.815	130.007	0.257	0.326
-232.800	-200.000	0.048	0.278
-231.786	73.118	0.250	0.259
-230.771	-76.914	0.063	-0.022
-229.757	800.000	0.067	0.191
-228.742	76.959	-0.044	0.046
-227.727	254.227	0.131	0.222
-226.713	-200.000	0.006	-0.092
-225.698	323.207	0.150	-0.283
-224.684	216.008	-0.103	0.162
-223.669	800.000	-0.125	0.456
-222.655	-71.687	-0.197	0.073
-221.640	-130.923	0.186	-0.025
-220.625	-200.000	-0.006	0.098
-219.611	-79.458	-0.263	-0.088
-218.596	-20.597	0.349	-0.213
-217.582	-200.000	-0.044	-0.281
-216.567	-129.146	0.203	-0.028
-215.552	214.351	-0.114	-0.179
-214.538	-138.934	0.297	0.032
-213.523	800.000	0.022	0.077
-212.509	-124.797	0.283	-0.043
-211.494	308.635	-0.085	0.157
-210.479	-97.617	0.472	0.121
-209.465	87.891	-0.175	0.192
-208.450	800.000	-0.053	-0.223
-207.436	-109.068	-0.074	-0.016
-206.421	634.091	0.010	-0.025
-205.406	52.237	-0.215	0.203
-204.392	-119.488	0.100	-0.017
-203.377	96.155	-0.102	0.116
-202.363	115.516	0.266	-0.322
-201.348	-139.237	0.038	-0.004
-200.333	-23.784	-0.186	0.110
-199.319	56.409	-0.297	0.286
-198.304	286.738	-0.152	0.272
-197.290	187.156	-0.053	0.078
-196.275	800.000	0.066	0.283
-195.260	-15.483	0.243	-0.154
-194.246	540.915	-0.098	-0.231
-193.231	-142.346	0.063	-0.006
-192.217	-85.348	0.290	-0.090
-191.202	335.906	0.025	-0.049
-190.187	-91.831	-0.192	0.054
-189.173	-200.000	0.006	-0.039
-188.158	-46.704	0.216	0.105
-187.144	182.233	0.059	0.087
-186.129	30.214	0.143	-0.121
-185.114	-190.283	0.279	-0.003
-184.100	79.119	-0.182	-0.193
-183.085	-200.000	0.062	-0.365
-182.071	173.720	0.075	0.107
-181.056	46.693	0.284	0.262
-180.042	-96.873	0.266	0.069
-179.027	130.754	0.216	-0.275
-178.012	-77.005	-0.586	0.202
-176.998	-38.604	-0.261	-0.136
-175.983	800.000	0.134	-0.396
-174.969	-10.305	0.193	0.127
-173.954	69.565	-0.120	-0.123
-172.939	43.254	0.246	-0.222
-171.925	9.466	0.066	-0.049
-170.910	115.378	-0.148	0.179
-169.896	32.408	-0.269	0.230
-168.881	256.818	0.143	0.244
-167.866	-200.000	-0.001	0.151
-166.852	179.709	-0.058	0.084
-165.837	103.934	0.089	-0.103
-164.823	29.415	-0.108	0.091
-163.808	-13.743	0.167	-0.107
-162.793	89.675	-0.096	-0.106
-161.779	368.581	0.087	0.175
-160.764	35.735	0.081	0.070
-159.750	17.608	0.056	0.044
-158.735	800.000	-0.052	0.172
-157.720	82.115	-0.039	0.041
-156.706	-200.000	-0.005	-0.298
-155.691	-200.000	0.100	-0.476
-154.677	-96.123	0.227	-0.060
-153.662	800.000	-0.035	-0.137
-152.647	-118.262	-0.085	0.015
-151.633	-91.913	-0.103	-0.029
-150.618	-124.976	0.136	0.021
-149.604	152.260	0.093	0.126
-148.589	40.200	0.452	0.402
-147.574	143.931	0.106	-0.140
-146.560	-138.291	-0.161	0.018
-145.545	221.928	-0.188	-0.299
-144.531	-200.000	0.025	0.201
-143.516	-9.692	-0.203	-0.134
-142.502	51.249	0.164	-0.154
-141.487	359.246	-0.045	0.089
-140.472	-47.274	-0.349	0.168
-139.458	-59.802	-0.086	-0.036
-138.443	800.000	-0.090	-0.388
-137.429	342.464	-0.050	0.097
-136.414	90.185	0.138	-0.152
-135.399	800.000	-0.024	0.066
-134.385	162.792	0.283	0.393
-133.370	601.581	0.093	0.227
-132.356	-30.280	0.041	-0.023
-131.341	79.206	0.122	0.129
-130.326	151.869	-0.156	0.210
-129.312	99.556	-0.079	0.091
-128.297	-167.553	0.209	-0.008
-127.283	364.448	0.042	0.083
-126.268	800.000	0.023	0.100
-125.253	270.303	0.262	0.455
-124.239	-139.054	0.100	-0.011
-123.224	800.000	-0.145	0.625
-122.210	65.925	0.081	0.082
-121.195	800.000	-0.086	0.351
