DTS Sentinel unit serial number:	SN413079Multiplexer serial number:	ORYXHardware model number:	OX4-SRSoftware version number:	ORYX F/W v4.00 Oryx Data Collector v3.7.2.0data status	okinstallation	princeton_trtdifferential loss correction	single-endedforward channel	channel 4reverse channel	N/Adate	2019/09/16time	02:45:35forward acquisition time	60.00reverse acquisition time	0.00gamma	496.2192k internal	0.2320k external	0.2320temperature offset calibration	0.9973default loss term (dB/km)	0.3790temperature slope calibration	1.0000multiplexer offset coefficient	1.0000multiplexer slope coefficient	1.0000fibre end	0.00T internal ref (°C)	27.75T ext. ref 1 (°C)	10.33T ext. ref 2 (°C)	22.34length (m)	temperature (°C)	Stokes	anti-Stokes-747.200	303.549	-0.137	-0.256
-746.185	88.460	0.111	-0.125
-745.171	15.156	0.076	-0.060
-744.156	-172.996	-0.218	0.007
-743.142	-79.976	0.280	-0.095
-742.127	18.388	-0.362	-0.292
-741.112	13.951	-0.094	-0.074
-740.098	121.954	-0.117	0.148
-739.083	-33.097	0.128	0.072
-738.069	34.109	-0.202	-0.178
-737.054	261.856	-0.167	-0.293
-736.039	178.236	-0.167	-0.246
-735.025	106.350	0.119	0.142
-734.010	186.654	0.159	-0.239
-732.996	91.664	-0.194	-0.220
-731.981	-200.000	0.036	-0.180
-730.966	279.501	-0.133	0.240
-729.952	-200.000	0.005	0.394
-728.937	-173.304	-0.039	0.001
-727.923	-82.890	-0.197	-0.064
-726.908	181.790	0.101	-0.150
-725.894	-52.231	-0.138	0.064
-724.879	-123.921	-0.048	-0.008
-723.864	-82.036	-0.084	0.028
-722.850	-110.646	-0.252	0.053
-721.835	-200.000	0.035	0.263
-720.821	93.585	-0.159	0.182
-719.806	-200.000	-0.004	-0.343
-718.791	-105.072	-0.244	-0.056
-717.777	-200.000	-0.000	-0.329
-716.762	-67.711	-0.348	0.138
-715.748	-111.340	-0.507	-0.105
-714.733	-145.063	0.378	0.035
-713.718	-132.362	-0.169	0.022
-712.704	8.969	-0.305	0.232
-711.689	-200.000	-0.003	-0.186
-710.675	-61.091	-0.213	0.091
-709.660	196.012	-0.023	-0.035
-708.645	-9.501	-0.089	-0.060
-707.631	347.943	-0.077	-0.152
-706.616	-103.684	-0.093	0.022
-705.602	-76.038	0.344	0.123
-704.587	-200.000	0.021	-0.189
-703.572	-5.364	0.109	0.076
-702.558	-26.280	-0.182	0.108
-701.543	-69.942	0.060	0.023
-700.529	34.443	0.199	0.175
-699.514	-2.553	-0.182	-0.129
-698.499	-200.000	-0.036	0.230
-697.485	69.268	0.146	-0.152
-696.470	67.491	0.091	0.094
-695.456	-200.000	-0.047	-0.219
-694.441	-91.371	0.095	0.027
-693.426	-14.700	0.048	0.031
-692.412	385.913	0.091	-0.190
-691.397	7.763	-0.092	-0.070
-690.383	800.000	-0.014	-0.060
-689.368	440.843	0.104	-0.229
-688.354	89.192	-0.202	0.227
-687.339	16.603	-0.264	0.210
-686.324	-111.534	0.095	0.019
-685.310	334.387	-0.032	-0.063
-684.295	-90.172	-0.048	-0.014
-683.281	186.624	0.108	-0.163
-682.266	-30.098	-0.117	0.067
-681.251	-200.000	-0.006	-0.333
-680.237	95.065	0.189	-0.217
-679.222	-200.000	-0.025	-0.331
-678.208	496.431	0.105	-0.243
-677.193	800.000	0.034	0.133
-676.178	-123.988	-0.162	-0.026
-675.164	-200.000	-0.011	-0.190
-674.149	32.719	-0.278	0.242
-673.135	307.489	0.135	-0.254
-672.120	-57.906	0.030	-0.013
-671.105	-200.000	0.043	0.284
-670.091	-72.097	0.470	-0.176
-669.076	-56.151	-0.293	0.132
-668.062	-144.593	0.501	-0.047
-667.047	-65.033	-0.143	-0.058
-666.032	-95.201	-0.145	-0.039
-665.018	-168.264	-0.221	0.009
-664.003	-31.762	-0.222	-0.125
-662.989	198.794	-0.124	0.191
-661.974	-5.453	-0.286	-0.198
-660.959	19.950	0.438	-0.356
-659.945	-31.266	0.320	-0.182
-658.930	661.127	-0.055	0.142
-657.916	-50.522	-0.102	0.049
-656.901	-16.822	0.038	0.024
-655.886	22.229	-0.201	-0.166
-654.872	-35.080	-0.265	-0.145
-653.857	201.821	0.190	0.295
-652.843	-108.026	-0.164	0.036
-651.828	-43.261	0.164	0.084
-650.814	-14.179	-0.332	0.216
-649.799	713.529	-0.078	0.209
-648.784	755.549	-0.023	-0.063
-647.770	35.861	0.184	-0.163
-646.755	99.402	-0.076	-0.088
-645.741	-1.504	0.292	-0.207
-644.726	-190.514	0.123	-0.001
-643.711	-200.000	0.020	0.228
-642.697	-83.274	-0.426	0.138
-641.682	800.000	-0.079	-0.289
-640.668	-200.000	0.012	0.081
-639.653	800.000	0.048	0.134
-638.638	-95.277	0.052	0.014
-637.624	281.065	-0.206	0.371
-636.609	-200.000	0.008	-0.135
-635.595	-1.557	-0.086	-0.061
-634.580	226.056	0.135	0.220
-633.565	71.775	-0.178	0.186
-632.551	800.000	0.092	-0.274
-631.536	800.000	-0.019	-0.062
-630.522	800.000	0.071	0.216
-629.507	-200.000	-0.056	0.365
-628.492	288.401	-0.094	-0.171
-627.478	-200.000	-0.007	0.215
-626.463	-47.279	-0.312	-0.153
-625.449	62.532	0.175	0.176
-624.434	90.886	0.145	0.164
-623.419	-45.997	0.058	-0.029
-622.405	-200.000	0.013	-0.324
-621.390	682.508	0.030	0.078
-620.376	-58.439	0.082	-0.036
-619.361	162.757	-0.082	-0.116
-618.346	-200.000	-0.039	-0.259
-617.332	-200.000	-0.038	0.247
-616.317	172.790	0.091	0.132
-615.303	-16.238	-0.216	-0.138
-614.288	-134.399	0.222	-0.027
-613.273	-7.499	-0.241	-0.164
-612.259	28.293	0.101	0.086
-611.244	-88.130	0.059	-0.018
-610.230	-40.450	-0.117	0.061
-609.215	-105.087	-0.399	0.092
-608.201	41.972	-0.115	-0.105
-607.186	378.371	-0.089	0.183
-606.171	378.784	-0.098	0.202
-605.157	140.691	0.129	-0.171
-604.142	800.000	0.060	-0.234
-603.128	348.607	0.188	0.373
-602.113	-200.000	0.024	0.361
-601.098	-200.000	-0.009	0.184
-600.084	-200.000	0.021	0.104
-599.069	-67.898	-0.100	-0.039
-598.055	-133.815	-0.203	0.025
-597.040	-200.000	0.002	-0.160
-596.025	-200.000	-0.049	-0.336
-595.011	-97.521	0.079	-0.021
-593.996	-200.000	-0.036	-0.231
-592.982	114.204	0.228	-0.279
-591.967	26.359	0.239	0.200
-590.952	204.384	-0.117	-0.182
-589.938	254.891	-0.071	0.123
-588.923	41.670	-0.139	0.127
-587.909	-25.065	0.213	0.127
-586.894	800.000	-0.053	0.227
-585.879	-100.137	-0.161	-0.040
-584.865	4.079	0.326	0.240
-583.850	16.349	0.061	-0.048
-582.836	800.000	-0.027	-0.086
-581.821	0.616	0.189	-0.136
-580.806	225.729	0.144	-0.234
-579.792	-169.897	-0.416	0.015
-578.777	-122.340	-0.245	0.040
-577.763	570.772	0.130	0.318
-576.748	-200.000	-0.007	-0.079
-575.733	160.380	0.087	0.122
-574.719	2.927	-0.346	0.252
-573.704	800.000	0.062	-0.205
-572.690	-66.879	-0.173	-0.069
-571.675	-200.000	-0.007	-0.072
-570.661	-55.739	0.112	-0.050
-569.646	64.922	0.092	0.093
-568.631	-200.000	0.000	0.331
-567.617	-200.000	0.013	0.199
-566.602	743.476	0.118	-0.319
-565.588	-71.952	-0.069	-0.026
-564.573	800.000	0.037	0.161
-563.558	-136.495	-0.335	-0.039
-562.544	-137.853	-0.187	-0.021
-561.529	800.000	0.183	-0.593
-560.515	-200.000	-0.010	-0.229
-559.500	-200.000	-0.002	0.066
-558.485	-200.000	-0.039	0.369
-557.471	-135.759	-0.251	-0.030
-556.456	0.249	0.031	-0.022
-555.442	-57.563	0.350	-0.154
-554.427	-200.000	0.001	-0.172
-553.412	800.000	0.151	0.493
-552.398	-140.843	0.183	-0.019
-551.383	-124.292	0.048	-0.008
-550.369	39.115	-0.268	-0.241
-549.354	231.244	0.116	-0.191
-548.339	-116.037	0.355	0.066
-547.325	-200.000	0.034	0.253
-546.310	159.500	0.087	-0.122
-545.296	191.987	0.022	0.034
-544.281	-200.000	0.004	-0.197
-543.266	-200.000	-0.053	-0.250
-542.252	285.612	0.163	0.295
-541.237	-117.334	0.069	-0.013
-540.223	-48.515	0.277	-0.134
-539.208	-200.000	0.002	-0.113
-538.193	-80.070	-0.312	-0.105
-537.179	-110.213	0.117	-0.024
-536.164	94.690	0.159	-0.181
-535.150	800.000	-0.050	-0.204
-534.135	-21.260	-0.178	-0.109
-533.121	-200.000	-0.052	-0.438
-532.106	642.131	0.079	-0.202
-531.091	-33.115	0.066	-0.037
-530.077	365.853	-0.045	0.091
-529.062	117.077	0.079	0.097
-528.048	800.000	-0.026	0.095
-527.033	410.129	0.023	-0.049
-526.018	-13.902	-0.329	-0.213
-525.004	565.339	0.043	-0.106
-523.989	6.315	0.147	0.110
-522.975	420.431	-0.140	0.301
-521.960	800.000	-0.074	-0.244
-520.945	-79.853	0.060	0.020
-519.931	-76.253	-0.127	0.045
-518.916	800.000	-0.123	0.376
-517.902	-200.000	-0.047	-0.210
-516.887	800.000	-0.060	-0.184
-515.872	-53.885	-0.122	0.056
-514.858	-33.265	-0.179	-0.099
-513.843	0.469	-0.366	0.262
-512.829	800.000	0.069	0.204
-511.814	-127.067	-0.246	0.036
-510.799	15.026	-0.060	-0.047
-509.785	-200.000	0.051	-0.424
-508.770	236.430	0.403	-0.668
-507.756	-98.818	-0.422	-0.107
-506.741	711.045	-0.057	-0.151
-505.726	-150.471	0.207	0.016
-504.712	-37.904	0.239	-0.127
-503.697	-52.576	-0.261	0.121
-502.683	-138.723	-0.290	-0.032
-501.668	344.325	-0.036	0.071
-500.653	170.830	-0.086	0.123
-499.639	167.142	0.053	-0.076
-498.624	-97.957	-0.189	-0.049
-497.610	63.282	0.124	-0.124
-496.595	-11.844	-0.295	0.194
-495.581	60.385	0.369	0.366
-494.566	-154.611	0.049	0.003
-493.551	3.607	-0.250	-0.182
-492.537	36.148	-0.204	0.180
-491.522	800.000	-0.113	-0.397
-490.508	-108.009	-0.228	0.050
-489.493	349.690	0.147	-0.290
-488.478	50.040	-0.229	-0.217
-487.464	-200.000	-0.005	0.112
-486.449	56.654	0.243	0.237
-485.435	-200.000	-0.036	-0.234
-484.420	800.000	-0.041	0.135
-483.405	-128.730	0.151	-0.021
-482.391	-21.461	0.272	-0.166
-481.376	20.283	0.136	-0.110
-480.362	-73.219	0.025	0.009
-479.347	43.159	0.177	0.161
-478.332	-200.000	0.007	-0.166
-477.318	-15.611	-0.230	-0.147
-476.303	105.781	0.135	-0.159
-475.289	343.989	0.062	0.122
-474.274	88.034	-0.188	-0.209
-473.259	-200.000	-0.007	-0.094
-472.245	-111.178	0.332	0.068
-471.230	-200.000	-0.018	0.269
-470.216	-40.410	0.208	0.108
-469.201	800.000	-0.069	-0.295
-468.186	-200.000	-0.065	-0.298
-467.172	-89.796	-0.140	-0.041
-466.157	800.000	0.020	-0.063
-465.143	-200.000	0.004	-0.246
-464.128	44.019	-0.138	0.127
-463.113	-57.078	-0.312	-0.137
-462.099	-200.000	0.042	-0.329
-461.084	-80.518	0.221	0.074
-460.070	800.000	-0.136	-0.497
-459.055	800.000	-0.039	0.134
-458.040	3.975	-0.332	0.242
-457.026	-13.483	-0.067	0.043
-456.011	-81.930	-0.449	0.147
-454.997	-102.888	0.186	-0.044
-453.982	-200.000	-0.041	0.216
-452.968	-8.289	-0.079	-0.053
-451.953	800.000	-0.065	0.222
-450.938	-200.000	-0.010	-0.149
-449.924	75.059	0.166	0.175
-448.909	-173.263	-0.140	-0.004
-447.895	95.138	-0.139	0.158
-446.880	91.572	0.074	0.083
-445.865	-77.833	-0.140	-0.048
-444.851	118.328	0.060	0.074
-443.836	407.019	0.040	0.085
-442.822	52.864	-0.081	0.077
-441.807	-130.991	-0.255	-0.034
-440.792	800.000	0.042	0.141
-439.778	-14.666	0.264	0.169
-438.763	800.000	0.064	-0.192
-437.749	28.842	0.159	-0.134
-436.734	242.084	-0.160	0.268
-435.719	124.091	-0.283	-0.355
-434.705	76.104	-0.120	-0.127
-433.690	-4.524	-0.092	0.064
-432.676	9.355	-0.301	0.227
-431.661	241.341	0.040	-0.066
-430.646	800.000	-0.104	0.339
-429.632	-10.824	-0.189	0.125
-428.617	-200.000	-0.027	-0.272
-427.603	596.954	-0.060	0.148
-426.588	-97.202	0.195	-0.051
-425.573	-200.000	-0.010	-0.070
-424.559	-91.721	0.162	0.046
-423.544	-200.000	0.002	0.018
-422.530	18.489	-0.099	-0.079
-421.515	174.718	0.193	-0.279
-420.500	-105.308	0.330	0.075
-419.486	174.301	-0.204	0.295
-418.471	-4.620	-0.354	-0.244
-417.457	-200.000	-0.025	0.333
-416.442	288.501	0.014	-0.026
-415.428	386.071	-0.051	0.105
-414.413	800.000	0.080	0.347
-413.398	205.500	-0.089	-0.138
-412.384	10.503	0.100	0.076
-411.369	87.873	0.153	-0.169
-410.355	35.914	-0.167	-0.147
-409.340	-82.257	-0.257	0.084
-408.325	18.034	-0.031	0.024
-407.311	-66.868	0.117	0.046
-406.296	523.485	0.044	0.103
-405.282	12.906	-0.073	-0.056
-404.267	17.722	-0.139	0.110
-403.252	800.000	0.028	-0.109
-402.238	-200.000	-0.003	0.233
-401.223	-200.000	-0.032	0.279
-400.209	-92.341	-0.342	0.096
-399.194	61.628	0.109	-0.108
-398.179	44.984	0.307	0.282
-397.165	-187.654	-0.237	-0.003
-396.150	-44.371	0.289	-0.144
-395.136	800.000	0.049	0.138
-394.121	432.041	-0.073	-0.158
-393.106	27.817	-0.125	-0.105
-392.092	-136.759	0.230	0.026
-391.077	-99.944	0.130	0.032
-390.063	-5.108	-0.126	-0.086
-389.048	-87.041	-0.146	-0.044
-388.033	679.166	0.043	0.111
-387.019	130.463	0.077	-0.098
-386.004	-179.405	-0.208	-0.005
-384.990	-132.766	0.391	-0.050
-383.975	-129.683	-0.350	0.048
-382.960	-14.386	-0.309	-0.199
-381.946	-99.887	-0.290	0.072
-380.931	-200.000	0.016	0.127
-379.917	53.159	0.273	-0.261
-378.902	246.348	0.156	0.262
-377.888	800.000	-0.018	-0.080
-376.873	-200.000	0.057	-0.333
-375.858	800.000	-0.069	0.211
-374.844	800.000	0.118	0.373
-373.829	4.425	-0.183	0.134
-372.815	80.044	0.003	0.004
-371.800	406.907	-0.064	-0.134
-370.785	-200.000	-0.022	0.124
-369.771	-173.343	-0.073	-0.002
-368.756	224.081	0.092	0.148
-367.742	80.972	-0.097	-0.105
-366.727	-51.674	0.281	0.130
-365.712	507.959	-0.087	-0.201
-364.698	49.035	-0.292	0.273
-363.683	46.877	0.265	0.245
-362.669	-200.000	0.055	0.308
-361.654	210.591	0.179	0.281
-360.639	-200.000	0.016	-0.120
-359.625	-93.536	0.041	0.011
-358.610	-200.000	0.018	-0.109
-357.596	-200.000	-0.016	0.081
-356.581	-48.481	-0.059	-0.028
-355.566	-200.000	0.034	0.179
-354.552	108.313	-0.070	0.083
-353.537	-136.146	-0.338	0.039
-352.523	644.779	-0.159	-0.404
-351.508	-68.383	0.189	-0.073
-350.493	-20.631	-0.018	0.011
-349.479	597.126	-0.085	-0.210
-348.464	-125.413	-0.116	-0.018
-347.450	129.875	0.098	0.125
-346.435	-39.780	-0.027	0.014
-345.420	47.179	0.053	0.049
-344.406	-200.000	0.009	-0.309
-343.391	450.152	-0.066	-0.144
-342.377	-137.284	0.215	-0.024
-341.362	-87.603	0.111	0.033
-340.348	-200.000	-0.003	-0.020
-339.333	-93.363	0.121	-0.033
-338.318	96.930	0.172	-0.197
-337.304	-82.103	0.189	0.061
-336.289	-174.523	-0.245	0.007
-335.275	800.000	-0.108	-0.398
-334.260	-82.010	0.062	-0.020
-333.245	-60.968	0.335	0.141
-332.231	800.000	0.019	-0.075
-331.216	658.122	-0.021	-0.054
-330.202	68.400	0.201	0.205
-329.187	-31.270	0.266	-0.149
-328.172	12.237	0.202	-0.154
-327.158	-81.128	-0.355	-0.117
-326.143	-106.923	-0.219	0.048
-325.129	57.619	0.095	-0.092
-324.114	800.000	-0.087	0.325
-323.099	800.000	-0.016	-0.070
-322.085	800.000	0.018	-0.070
-321.070	-32.773	0.135	0.075
-320.056	-39.860	0.271	-0.141
-319.041	-200.000	0.009	0.174
-318.026	76.319	0.213	0.225
-317.012	214.023	-0.044	0.069
-315.997	-200.000	-0.006	-0.160
-314.983	-141.710	-0.047	-0.005
-313.968	-56.831	0.029	0.013
-312.953	-200.000	-0.006	-0.246
-311.939	-69.596	-0.102	-0.039
-310.924	-200.000	0.015	0.167
-309.910	-40.713	-0.311	-0.160
-308.895	27.771	0.024	-0.020
-307.880	2.346	0.095	-0.068
-306.866	239.260	0.028	0.046
-305.851	7.709	-0.203	0.151
-304.837	559.062	-0.049	-0.117
-303.822	800.000	-0.180	-0.641
-302.807	136.288	-0.151	0.195
-301.793	800.000	-0.012	0.041
-300.778	800.000	0.097	-0.269
-299.764	800.000	-0.024	0.077
-298.749	-58.730	-0.062	0.027
-297.735	332.979	-0.063	-0.122
-296.720	-12.542	0.206	-0.133
-295.705	52.060	0.087	0.082
-294.691	-157.667	0.261	0.015
-293.676	11.917	-0.180	-0.137
-292.662	151.286	0.106	0.143
-291.647	-93.144	-0.349	0.096
-290.632	511.619	0.152	0.351
-289.618	-168.476	0.172	-0.007
-288.603	-106.508	0.375	0.083
-287.589	800.000	0.050	0.176
-286.574	191.452	0.206	0.308
-285.559	-2.837	0.107	0.074
-284.545	160.242	0.427	0.591
-283.530	168.080	-0.139	0.196
-282.516	-139.213	-0.195	-0.021
-281.501	285.925	0.209	0.374
-280.486	-200.000	0.031	-0.000
-279.472	-41.762	0.278	-0.141
-278.457	-200.000	-0.027	0.287
-277.443	-123.268	-0.099	0.016
-276.428	-144.534	-0.443	0.041
-275.413	-200.000	0.052	0.371
-274.399	-115.872	-0.190	0.035
-273.384	-58.838	-0.178	0.076
-272.370	73.964	0.139	0.144
-271.355	98.851	-0.128	-0.146
-270.340	-200.000	-0.009	0.301
-269.326	-200.000	-0.009	-0.216
-268.311	-17.262	0.122	0.076
-267.297	180.996	0.078	0.114
-266.282	-74.849	0.145	-0.052
-265.267	178.817	-0.031	-0.045
-264.253	19.236	0.407	0.324
-263.238	-15.070	-0.115	-0.073
-262.224	102.243	0.183	-0.212
-261.209	29.481	-0.089	0.075
-260.195	-71.952	0.178	0.066
-259.180	28.477	-0.174	-0.146
-258.165	-63.561	-0.240	-0.098
-257.151	800.000	-0.034	0.102
-256.136	655.243	-0.110	-0.280
-255.122	-97.533	0.174	-0.045
-254.107	685.615	0.125	0.325
-253.092	300.834	0.208	-0.381
-252.078	-200.000	-0.090	-0.401
-251.063	-109.817	0.525	0.109
-250.049	452.168	0.056	0.123
-249.034	-130.635	0.094	-0.013
-248.019	114.622	0.103	0.124
-247.005	-22.412	-0.205	-0.123
-245.990	-16.028	-0.291	0.184
-244.976	-68.851	0.143	-0.055
-243.961	-44.760	-0.042	0.021
-242.946	122.824	0.274	-0.340
-241.932	-61.869	0.079	0.033
-240.917	-56.455	-0.208	-0.091
-239.903	-120.983	0.392	0.065
-238.888	12.551	-0.048	0.036
-237.873	800.000	-0.090	-0.265
-236.859	731.501	0.166	-0.439
-235.844	800.000	0.049	-0.137
-234.830	151.396	-0.099	0.134
-233.815	72.558	-0.061	0.063
-232.800	143.382	0.157	-0.207
-231.786	-136.083	-0.244	0.028
-230.771	-93.471	-0.136	-0.037
-229.757	34.253	0.165	-0.142
-228.742	-88.462	-0.137	0.041
-227.727	-31.093	-0.141	0.079
-226.713	98.637	0.165	0.188
-225.698	207.431	0.119	0.184
-224.684	-200.000	0.010	0.204
-223.669	-122.303	-0.155	-0.025
-222.655	-81.944	-0.251	0.081
-221.640	293.455	-0.031	0.055
-220.625	-28.080	0.049	-0.028
-219.611	35.492	0.339	-0.295
-218.596	-56.826	-0.158	0.069
-217.582	28.197	0.228	-0.191
-216.567	-77.475	0.056	-0.019
-215.552	-38.126	-0.100	-0.052
-214.538	-12.749	0.183	-0.118
-213.523	392.888	0.161	0.331
-212.509	800.000	-0.073	0.214
-211.494	104.536	0.163	0.190
-210.479	-186.373	-0.239	0.003
-209.465	-200.000	-0.005	0.229
-208.450	61.472	-0.064	-0.063
-207.436	-200.000	-0.062	-0.341
-206.421	393.261	-0.088	0.181
-205.406	800.000	0.045	-0.157
-204.392	-50.291	0.339	-0.159
-203.377	-60.549	-0.084	-0.035
-202.363	23.937	0.258	-0.211
-201.348	482.128	0.070	-0.157
-200.333	330.943	0.208	0.396
-199.319	-200.000	0.016	0.253
-198.304	-200.000	0.131	0.000
-197.290	16.647	0.063	-0.049
-196.275	-165.214	-0.231	-0.010
-195.260	-200.000	0.048	-0.234
-194.246	800.000	-0.105	-0.383
-193.231	-2.667	0.060	0.042
-192.217	186.921	0.259	0.381
-191.202	170.509	0.074	0.105
-190.187	21.479	0.100	0.080
-189.173	152.633	-0.113	0.153
-188.158	-200.000	0.009	-0.047
-187.144	208.387	0.226	-0.350
-186.129	-116.836	0.191	0.035
-185.114	-50.183	0.045	0.021
-184.100	51.466	-0.191	0.180
-183.085	159.550	-0.098	0.135
-182.071	-100.535	-0.128	0.031
-181.056	800.000	-0.040	-0.163
-180.042	-87.206	0.308	0.092
-179.027	-131.941	0.197	-0.025
-178.012	800.000	-0.079	0.220
-176.998	555.237	-0.062	-0.147
-175.983	139.718	-0.235	0.307
-174.969	316.703	-0.144	-0.269
-173.954	-44.959	0.492	0.243
-172.939	-21.274	-0.056	-0.034
-171.925	-120.314	-0.096	0.016
-170.910	-188.091	0.411	0.005
-169.896	-50.657	-0.096	0.045
-168.881	-107.554	0.203	-0.044
-167.866	-128.235	-0.214	0.030
-166.852	-76.593	-0.222	-0.077
-165.837	606.967	0.113	0.278
-164.823	13.614	0.185	-0.142
-163.808	-107.803	0.072	0.016
-162.793	103.128	-0.227	-0.263
-161.779	-162.781	0.282	-0.014
-160.764	501.683	0.082	0.187
-159.750	-30.445	0.284	0.159
-158.735	125.323	-0.161	-0.201
-157.720	-200.000	0.005	-0.270
-156.706	-62.357	-0.510	-0.210
-155.691	800.000	-0.077	0.288
-154.677	-31.191	-0.219	-0.122
-153.662	-130.293	-0.125	0.017
-152.647	-58.840	0.159	-0.068
-151.633	-122.652	0.125	-0.020
-150.618	81.048	-0.113	-0.120
-149.604	94.511	0.077	0.086
-148.589	83.288	0.298	-0.321
-147.574	267.993	0.169	-0.293
-146.560	-140.124	0.010	-0.001
-145.545	56.184	-0.060	0.058
-144.531	-137.510	0.274	0.031
-143.516	44.993	-0.214	0.195
-142.502	-200.000	0.018	-0.158
-141.487	800.000	-0.013	-0.040
-140.472	136.026	0.275	0.354
-139.458	186.069	0.118	0.173
-138.443	-200.000	0.016	-0.166
-137.429	28.952	-0.179	-0.150
-136.414	-51.978	0.337	-0.155
-135.399	201.636	-0.063	0.096
-134.385	-126.875	0.317	-0.046
-133.370	-106.365	-0.119	0.026
-132.356	37.416	-0.136	-0.119
-131.341	-200.000	-0.010	0.206
-130.326	-103.329	0.178	0.042
-129.312	-200.000	-0.013	0.139
-128.297	75.878	0.196	0.205
-127.283	-67.664	-0.240	-0.093
-126.268	-103.987	-0.084	-0.019
-125.253	-47.718	-0.251	-0.120
-124.239	-109.463	-0.219	0.046
-123.224	-116.608	0.230	0.042
-122.210	-200.000	-0.004	0.314
-121.195	-182.708	-0.198	0.004
