DTS Sentinel unit serial number:	SN413079Multiplexer serial number:	ORYXHardware model number:	OX4-SRSoftware version number:	ORYX F/W v4.00 Oryx Data Collector v3.7.2.0data status	okinstallation	princeton_trtdifferential loss correction	single-endedforward channel	channel 4reverse channel	N/Adate	2019/09/16time	22:41:35forward acquisition time	60.00reverse acquisition time	0.00gamma	496.2192k internal	0.2313k external	0.2313temperature offset calibration	0.9973default loss term (dB/km)	0.3790temperature slope calibration	1.0000multiplexer offset coefficient	1.0000multiplexer slope coefficient	1.0000fibre end	0.00T internal ref (°C)	30.62T ext. ref 1 (°C)	0.08T ext. ref 2 (°C)	24.20length (m)	temperature (°C)	Stokes	anti-Stokes-747.200	-19.559	-0.138	0.087
-746.185	-82.681	0.214	0.070
-745.171	638.887	0.121	0.313
-744.156	-200.000	-0.014	0.314
-743.142	-154.315	-0.333	0.023
-742.127	-60.212	0.154	0.066
-741.112	-104.294	-0.207	-0.049
-740.098	-155.264	-0.288	0.019
-739.083	-95.499	0.190	-0.052
-738.069	800.000	-0.052	0.177
-737.054	53.500	0.153	0.148
-736.039	-38.044	-0.211	-0.114
-735.025	-200.000	-0.010	0.185
-734.010	-64.726	-0.061	0.025
-732.996	-200.000	0.003	-0.201
-731.981	144.124	0.135	-0.182
-730.966	800.000	0.076	-0.260
-729.952	340.688	-0.072	-0.143
-728.937	62.888	-0.202	-0.205
-727.923	800.000	0.048	0.182
-726.908	-37.549	0.111	-0.060
-725.894	-200.000	0.024	-0.192
-724.879	89.816	0.141	-0.159
-723.864	-73.363	0.239	-0.088
-722.850	191.875	-0.147	-0.225
-721.835	800.000	-0.072	-0.243
-720.821	183.030	-0.067	0.101
-719.806	679.515	0.120	0.317
-718.791	197.259	-0.083	0.128
-717.777	800.000	-0.047	-0.138
-716.762	-113.821	0.136	0.027
-715.748	-51.717	-0.247	0.117
-714.733	-78.223	0.180	-0.063
-713.718	-197.041	0.271	-0.002
-712.704	0.730	0.076	0.055
-711.689	37.268	-0.016	-0.015
-710.675	-200.000	-0.027	-0.341
-709.660	327.184	-0.019	-0.036
-708.645	-110.565	-0.475	-0.100
-707.631	-200.000	-0.000	-0.065
-706.616	-200.000	0.052	-0.293
-705.602	-6.724	0.231	-0.159
-704.587	-84.346	-0.254	-0.081
-703.572	-179.345	-0.166	0.004
-702.558	97.198	0.150	-0.174
-701.543	115.505	-0.214	-0.265
-700.529	407.328	-0.024	-0.052
-699.514	367.030	-0.102	-0.208
-698.499	204.796	0.060	-0.094
-697.485	-200.000	0.033	-0.292
-696.470	-39.219	-0.275	0.146
-695.456	-39.837	-0.336	0.178
-694.441	800.000	0.068	-0.234
-693.426	181.057	0.078	0.116
-692.412	-81.594	0.080	0.027
-691.397	206.794	-0.171	0.269
-690.383	68.951	-0.065	0.068
-689.368	4.495	-0.032	-0.024
-688.354	-88.605	0.343	0.103
-687.339	-200.000	0.061	-0.313
-686.324	454.293	-0.136	-0.306
-685.310	123.022	0.093	-0.118
-684.295	-200.000	0.005	0.175
-683.281	-47.863	-0.198	0.097
-682.266	-54.984	-0.164	0.075
-681.251	-137.216	-0.222	-0.026
-680.237	-200.000	0.006	-0.311
-679.222	612.008	-0.101	-0.256
-678.208	-200.000	-0.033	-0.361
-677.193	-117.994	0.197	-0.036
-676.178	-98.810	-0.159	-0.041
-675.164	-200.000	-0.105	0.000
-674.149	292.644	0.095	0.174
-673.135	28.587	0.315	-0.270
-672.120	-200.000	-0.037	0.248
-671.105	-2.756	-0.213	0.150
-670.091	-174.028	0.165	-0.005
-669.076	-200.000	-0.041	-0.185
-668.062	-200.000	0.033	0.245
-667.047	351.195	-0.101	-0.202
-666.032	77.679	-0.097	-0.105
-665.018	-200.000	-0.032	-0.193
-664.003	234.812	-0.051	-0.084
-662.989	635.438	-0.054	0.138
-661.974	-94.654	-0.155	0.043
-660.959	-132.694	0.213	-0.028
-659.945	497.189	-0.128	0.297
-658.930	-35.993	0.222	0.122
-657.916	-200.000	0.002	0.119
-656.901	800.000	0.053	0.179
-655.886	-21.754	0.311	-0.191
-654.872	-148.130	0.114	0.010
-653.857	800.000	0.089	-0.386
-652.843	167.880	-0.115	0.165
-651.828	319.843	0.160	0.306
-650.814	93.374	0.143	-0.164
-649.799	7.694	0.224	-0.169
-648.784	36.536	-0.043	-0.038
-647.770	-91.493	0.382	0.110
-646.755	655.213	-0.091	-0.236
-645.741	-14.571	-0.087	0.057
-644.726	60.201	-0.293	0.293
-643.711	499.578	0.104	0.243
-642.697	-83.573	-0.208	-0.067
-641.682	800.000	-0.039	0.166
-640.668	187.982	-0.054	-0.082
-639.653	-200.000	0.003	-0.063
-638.638	733.080	0.074	0.200
-637.624	-58.516	-0.335	-0.147
-636.609	-91.618	0.203	0.058
-635.595	800.000	-0.035	-0.130
-634.580	111.780	0.029	-0.036
-633.565	8.121	0.222	-0.168
-632.551	-179.480	0.328	-0.007
-631.536	800.000	0.059	0.207
-630.522	800.000	-0.036	0.158
-629.507	608.327	-0.066	0.165
-628.492	-96.301	-0.102	-0.027
-627.478	-96.183	0.210	-0.056
-626.463	-10.541	0.169	-0.113
-625.449	166.518	-0.060	-0.085
-624.434	-124.034	0.322	-0.051
-623.419	-200.000	0.011	-0.102
-622.405	-182.262	-0.276	0.005
-621.390	-105.473	-0.119	0.027
-620.376	-124.047	0.594	-0.094
-619.361	197.482	-0.031	-0.048
-618.346	800.000	0.010	0.043
-617.332	160.674	-0.058	-0.081
-616.317	800.000	-0.027	-0.107
-615.303	-76.112	0.206	0.073
-614.288	-85.901	-0.353	0.110
-613.273	148.380	-0.236	-0.321
-612.259	800.000	0.014	-0.054
-611.244	-200.000	-0.011	-0.058
-610.230	709.836	0.015	0.041
-609.215	-200.000	-0.002	-0.354
-608.201	56.080	-0.256	0.251
-607.186	-72.643	0.081	0.030
-606.171	32.924	0.067	-0.058
-605.157	23.514	0.205	-0.170
-604.142	528.037	-0.032	-0.077
-603.128	196.021	0.236	0.362
-602.113	-43.329	-0.133	0.068
-601.098	-0.217	-0.077	-0.055
-600.084	200.956	-0.117	0.181
-599.069	-160.965	-0.210	0.011
-598.055	-62.150	-0.493	0.207
-597.040	16.406	0.215	0.171
-596.025	800.000	0.076	0.255
-595.011	91.499	0.177	-0.201
-593.996	-200.000	0.025	0.274
-592.982	-152.675	0.085	-0.006
-591.967	-139.048	0.096	-0.011
-590.952	85.709	-0.135	0.150
-589.938	-113.557	0.398	0.079
-588.923	105.632	0.154	-0.183
-587.909	67.037	-0.186	0.191
-586.894	260.846	-0.247	0.430
-585.879	131.121	0.183	0.237
-584.865	70.309	-0.091	-0.095
-583.850	-125.743	0.186	-0.028
-582.836	-12.206	-0.083	-0.054
-581.821	-37.452	-0.127	0.069
-580.806	63.457	0.212	-0.214
-579.792	-104.664	0.423	-0.098
-578.777	-68.515	0.050	0.019
-577.763	241.398	-0.031	-0.051
-576.748	-66.069	0.202	0.081
-575.733	-52.141	0.287	-0.134
-574.719	-155.661	-0.324	-0.021
-573.704	-71.412	-0.212	-0.080
-572.690	117.424	-0.117	-0.145
-571.675	-107.594	0.333	-0.073
-570.661	-200.000	0.061	0.279
-569.646	-200.000	-0.016	0.373
-568.631	-119.349	-0.126	0.022
-567.617	96.115	-0.050	-0.057
-566.602	136.348	-0.181	-0.237
-565.588	800.000	-0.123	0.387
-564.573	-22.308	0.179	0.109
-563.558	157.090	0.280	-0.389
-562.544	-77.012	-0.377	-0.133
-561.529	-182.323	-0.309	-0.006
-560.515	-114.762	-0.206	0.040
-559.500	-76.686	-0.406	-0.143
-558.485	-30.340	-0.287	0.164
-557.471	301.593	-0.151	0.281
-556.456	218.229	-0.173	0.278
-555.442	-57.901	0.280	0.123
-554.427	-200.000	0.003	-0.280
-553.412	-200.000	0.024	-0.147
-552.398	800.000	-0.073	-0.282
-551.383	-200.000	-0.011	-0.271
-550.369	-200.000	0.004	0.018
-549.354	-173.014	0.067	-0.002
-548.339	-200.000	-0.065	-0.379
-547.325	-200.000	0.013	0.169
-546.310	187.483	0.091	-0.136
-545.296	78.496	0.145	0.155
-544.281	-196.054	-0.337	0.002
-543.266	382.578	-0.127	0.263
-542.252	285.689	0.244	0.443
-541.237	-200.000	0.048	0.255
-540.223	-156.044	-0.370	-0.024
-539.208	-57.722	-0.238	-0.105
-538.193	256.914	0.036	-0.062
-537.179	-45.892	-0.128	0.063
-536.164	4.207	0.144	-0.106
-535.150	-148.468	-0.277	-0.023
-534.135	-71.132	0.240	-0.091
-533.121	-26.214	-0.164	0.097
-532.106	-144.032	0.192	0.018
-531.091	-133.098	0.201	0.026
-530.077	-72.663	0.093	0.035
-529.062	-50.053	-0.260	-0.124
-528.048	207.455	-0.092	0.144
-527.033	323.559	0.083	0.158
-526.018	-126.894	0.026	-0.004
-525.004	605.111	-0.021	-0.053
-523.989	1.351	-0.154	0.111
-522.975	-121.729	0.202	0.034
-521.960	347.573	0.082	-0.162
-520.945	-115.462	-0.153	0.029
-519.931	-200.000	-0.019	-0.279
-518.916	231.219	0.057	0.094
-517.902	-6.596	-0.152	0.104
-516.887	21.266	-0.205	-0.168
-515.872	161.718	-0.308	-0.434
-514.858	-78.829	0.155	-0.053
-513.843	55.727	-0.174	-0.170
-512.829	96.780	0.106	0.122
-511.814	119.160	0.090	-0.111
-510.799	14.513	-0.134	-0.105
-509.785	-97.845	-0.043	-0.011
-508.770	-200.000	-0.009	0.258
-507.756	80.977	-0.205	0.222
-506.741	-154.519	0.433	-0.029
-505.726	-130.161	-0.103	-0.014
-504.712	58.472	-0.305	-0.301
-503.697	-27.287	-0.222	-0.130
-502.683	263.568	-0.080	-0.140
-501.668	211.955	0.104	-0.165
-500.653	-200.000	0.035	-0.255
-499.639	-135.136	0.262	0.032
-498.624	25.115	-0.059	-0.049
-497.610	800.000	0.093	0.346
-496.595	-94.947	0.110	0.030
-495.581	-200.000	-0.076	-0.406
-494.566	-82.857	0.291	-0.094
-493.551	2.718	0.257	0.187
-492.537	-200.000	-0.005	-0.091
-491.522	-103.407	0.408	-0.096
-490.508	420.949	0.122	0.263
-489.493	-93.447	-0.356	-0.099
-488.478	-4.731	0.190	0.131
-487.464	766.068	-0.017	-0.046
-486.449	173.455	0.171	-0.248
-485.435	-200.000	-0.038	0.173
-484.420	-112.620	-0.146	-0.029
-483.405	-200.000	0.007	0.093
-482.391	-56.504	-0.566	-0.252
-481.376	-200.000	0.093	0.420
-480.362	93.887	-0.045	-0.051
-479.347	638.542	-0.040	0.103
-478.332	-200.000	0.052	-0.258
-477.318	66.508	0.203	0.207
-476.303	-68.557	-0.247	-0.096
-475.289	45.581	-0.180	0.167
-474.274	163.114	-0.064	0.091
-473.259	-200.000	0.029	-0.170
-472.245	-200.000	-0.004	0.058
-471.230	-76.871	-0.126	0.044
-470.216	6.083	-0.072	-0.054
-469.201	-75.708	-0.236	0.084
-468.186	-200.000	-0.011	-0.288
-467.172	370.960	-0.081	0.166
-466.157	-103.440	-0.056	0.013
-465.143	-166.626	0.100	0.004
-464.128	583.133	-0.109	0.267
-463.113	486.356	-0.056	-0.129
-462.099	-110.905	0.324	0.067
-461.084	800.000	0.106	0.372
-460.070	158.433	-0.103	0.143
-459.055	613.532	0.103	0.258
-458.040	293.836	0.059	0.109
-457.026	-155.459	-0.220	-0.014
-456.011	800.000	0.039	0.162
-454.997	-148.702	0.115	0.009
-453.982	-120.345	-0.249	-0.043
-452.968	-49.815	0.073	0.035
-451.953	-86.994	0.182	-0.055
-450.938	102.933	-0.052	-0.061
-449.924	-200.000	-0.018	-0.282
-448.909	-30.361	-0.428	0.243
-447.895	-98.413	-0.243	-0.062
-446.880	800.000	0.081	0.312
-445.865	705.564	-0.037	0.098
-444.851	463.413	-0.115	-0.258
-443.836	-63.167	0.095	0.039
-442.822	-87.628	-0.152	0.046
-441.807	-200.000	0.016	0.077
-440.792	60.947	0.245	-0.244
-439.778	-200.000	0.105	0.000
-438.763	-200.000	-0.001	-0.292
-437.749	-100.856	0.136	-0.034
-436.734	213.216	0.252	0.399
-435.719	-200.000	-0.011	-0.332
-434.705	143.021	-0.175	-0.233
-433.690	-62.901	0.076	-0.032
-432.676	1.399	-0.249	-0.179
-431.661	-61.929	0.188	-0.079
-430.646	-75.775	0.288	0.102
-429.632	109.262	-0.199	0.239
-428.617	-119.369	0.071	-0.012
-427.603	-200.000	0.008	-0.080
-426.588	-200.000	0.060	-0.281
-425.573	392.318	0.113	0.235
-424.559	74.124	-0.088	-0.092
-423.544	-200.000	0.003	0.110
-422.530	800.000	0.054	-0.168
-421.515	11.650	-0.140	-0.108
-420.500	-81.966	-0.375	0.123
-419.486	737.980	0.038	0.101
-418.471	-82.426	0.272	0.088
-417.457	800.000	-0.076	-0.226
-416.442	-200.000	0.038	-0.204
-415.428	-87.996	0.496	-0.149
-414.413	-200.000	0.036	0.222
-413.398	3.621	-0.401	-0.292
-412.384	-9.555	0.121	0.081
-411.369	75.478	0.210	0.222
-410.355	260.400	-0.027	0.046
-409.340	-91.580	-0.116	0.033
-408.325	-200.000	0.057	0.292
-407.311	-40.564	-0.253	-0.131
-406.296	-200.000	-0.000	-0.076
-405.282	-86.581	-0.120	-0.037
-404.267	126.490	0.260	0.329
-403.252	-97.776	-0.404	-0.105
-402.238	115.567	0.080	0.098
-401.223	-200.000	0.015	0.411
-400.209	-200.000	0.024	-0.229
-399.194	296.279	0.043	0.080
-398.179	113.433	-0.211	-0.256
-397.165	800.000	-0.175	-0.514
-396.150	800.000	0.114	0.318
-395.136	297.903	-0.132	-0.242
-394.121	464.682	-0.128	-0.285
-393.106	60.831	-0.077	-0.077
-392.092	-27.261	0.194	-0.113
-391.077	58.681	-0.246	-0.241
-390.063	-200.000	0.017	-0.077
-389.048	-200.000	0.023	0.241
-388.033	5.035	0.049	0.036
-387.019	641.625	-0.126	-0.321
-386.004	-184.307	-0.253	-0.004
-384.990	-37.126	0.251	0.134
-383.975	-200.000	0.005	0.268
-382.960	6.384	-0.142	0.106
-381.946	-91.563	-0.028	0.008
-380.931	-87.064	0.182	0.056
-379.917	-134.056	0.208	0.026
-378.902	405.876	0.075	-0.158
-377.888	-200.000	-0.003	0.148
-376.873	263.222	-0.055	0.095
-375.858	-200.000	-0.035	-0.234
-374.844	800.000	-0.130	0.402
-373.829	800.000	0.203	0.686
-372.815	-180.693	-0.146	0.003
-371.800	-137.546	0.308	0.035
-370.785	-200.000	-0.024	-0.488
-369.771	26.024	0.275	0.229
-368.756	-200.000	0.062	0.321
-367.742	-145.835	-0.224	0.020
-366.727	293.959	0.155	-0.283
-365.712	66.855	-0.167	0.170
-364.698	87.723	-0.077	-0.086
-363.683	-144.662	0.295	0.027
-362.669	800.000	-0.073	0.213
-361.654	544.901	0.134	0.320
-360.639	-65.164	-0.043	0.017
-359.625	-200.000	-0.012	0.389
-358.610	-61.869	-0.052	-0.022
-357.596	-129.476	-0.365	0.050
-356.581	-200.000	-0.075	0.461
-355.566	116.462	0.073	-0.089
-354.552	-148.919	-0.267	-0.022
-353.537	-108.925	-0.291	0.062
-352.523	149.781	-0.093	-0.126
-351.508	-86.010	-0.087	-0.027
-350.493	29.989	0.367	-0.313
-349.479	800.000	0.066	-0.249
-348.464	229.033	0.143	-0.232
-347.450	800.000	-0.056	-0.172
-346.435	-55.894	0.177	-0.079
-345.420	440.978	-0.115	-0.250
-344.406	446.215	-0.027	-0.060
-343.391	172.536	-0.251	-0.360
-342.377	172.719	0.054	-0.078
-341.362	51.511	0.148	0.141
-340.348	-200.000	0.043	-0.475
-339.333	-170.334	-0.326	-0.011
-338.318	800.000	-0.041	0.167
-337.304	-129.270	0.294	-0.041
-336.289	-0.716	-0.054	-0.038
-335.275	800.000	0.064	0.180
-334.260	-200.000	0.009	0.150
-333.245	285.696	0.157	-0.282
-332.231	-200.000	-0.002	0.217
-331.216	-200.000	-0.074	0.328
-330.202	-200.000	0.001	-0.148
-329.187	50.898	0.039	0.037
-328.172	-86.725	-0.116	0.035
-327.158	-56.761	-0.042	0.019
-326.143	21.897	0.346	0.282
-325.129	340.233	-0.161	0.314
-324.114	406.226	0.069	-0.146
-323.099	603.330	-0.123	-0.305
-322.085	-157.671	0.150	-0.009
-321.070	800.000	0.053	0.158
-320.056	79.261	0.162	0.173
-319.041	-200.000	0.008	-0.107
-318.026	176.248	0.237	0.343
-317.012	263.768	-0.080	-0.139
-315.997	-101.328	-0.167	0.041
-314.983	319.293	0.137	0.259
-313.968	-65.238	-0.229	0.092
-312.953	-150.139	0.319	0.025
-311.939	155.229	0.097	0.134
-310.924	-18.904	-0.078	-0.049
-309.910	-200.000	-0.008	-0.369
-308.895	-174.334	-0.505	-0.015
-307.880	-14.575	0.333	-0.214
-306.866	282.496	-0.069	0.123
-305.851	-109.986	0.039	0.008
-304.837	800.000	-0.013	-0.055
-303.822	-75.072	-0.238	0.085
-302.807	-75.691	0.059	-0.021
-301.793	202.710	0.183	0.281
-300.778	253.624	0.069	0.118
-299.764	-41.331	-0.164	-0.084
-298.749	36.779	0.197	-0.173
-297.735	-103.690	0.189	0.044
-296.720	687.466	0.060	-0.157
-295.705	354.245	-0.119	0.235
-294.691	454.831	0.136	0.301
-293.676	9.859	0.172	-0.130
-292.662	179.520	0.112	-0.163
-291.647	-106.227	-0.298	0.066
-290.632	294.394	0.110	0.200
-289.618	-182.191	-0.119	-0.002
-288.603	-46.106	0.115	-0.056
-287.589	-118.254	-0.211	-0.037
-286.574	800.000	-0.068	-0.250
-285.559	-9.840	0.077	-0.051
-284.545	-200.000	0.005	0.050
-283.530	351.317	0.237	-0.468
-282.516	-200.000	0.036	-0.224
-281.501	-112.084	0.147	-0.029
-280.486	-117.240	0.261	0.047
-279.472	800.000	-0.030	0.098
-278.457	111.478	-0.053	0.063
-277.443	-69.843	0.085	0.032
-276.428	9.703	0.167	0.126
-275.413	-200.000	0.002	-0.247
-274.399	-93.208	0.052	-0.014
-273.384	-121.042	0.109	-0.018
-272.370	-19.223	0.245	-0.151
-271.355	-200.000	0.003	0.237
-270.340	-200.000	-0.004	0.101
-269.326	635.530	-0.057	0.145
-268.311	-3.828	0.243	-0.168
-267.297	-18.334	-0.227	-0.141
-266.282	66.316	-0.100	0.101
-265.267	-94.768	0.101	0.027
-264.253	-22.394	-0.358	-0.216
-263.238	-134.496	0.316	-0.038
-262.224	-80.639	-0.265	0.088
-261.209	25.396	-0.291	-0.240
-260.195	-25.059	0.250	-0.147
-259.180	-88.525	-0.154	-0.046
-258.165	-4.682	-0.267	-0.183
-257.151	-166.842	-0.246	-0.010
-256.136	-170.031	0.159	-0.006
-255.122	-119.631	-0.125	0.022
-254.107	-200.000	0.014	-0.406
-253.092	441.072	0.044	0.096
-252.078	-146.634	-0.297	-0.026
-251.063	25.794	0.255	0.211
-250.049	-148.294	-0.016	-0.001
-249.034	-99.916	0.220	-0.055
-248.019	232.714	-0.124	0.203
-247.005	-3.951	0.133	-0.092
-245.990	597.353	-0.018	0.046
-244.976	24.422	0.184	-0.152
-243.961	-200.000	0.076	0.377
-242.946	-140.087	-0.149	0.016
-241.932	800.000	0.080	0.226
-240.917	412.870	-0.064	-0.134
-239.903	-149.856	-0.120	0.009
-238.888	11.742	-0.128	0.098
-237.873	-138.744	0.108	-0.012
-236.859	-200.000	-0.004	0.306
-235.844	188.954	-0.113	0.168
-234.830	-169.842	-0.166	0.006
-233.815	779.696	0.051	0.139
-232.800	-107.431	0.148	-0.032
-231.786	-200.000	-0.062	-0.326
-230.771	287.707	0.098	0.176
-229.757	185.318	0.019	-0.028
-228.742	-25.437	0.037	-0.022
-227.727	-47.765	-0.314	0.151
-226.713	-55.869	0.262	0.116
-225.698	75.787	0.179	-0.188
-224.684	155.412	0.126	-0.172
-223.669	-99.511	-0.240	-0.060
-222.655	-200.000	-0.002	0.013
-221.640	-70.200	-0.183	-0.069
-220.625	-60.812	-0.242	-0.102
-219.611	338.211	0.064	0.124
-218.596	-126.345	-0.271	0.040
-217.582	-200.000	0.014	-0.202
-216.567	-200.000	-0.006	-0.070
-215.552	547.238	0.177	0.420
-214.538	15.300	-0.142	0.111
-213.523	800.000	0.069	-0.229
-212.509	7.501	0.133	0.099
-211.494	268.751	0.258	0.449
-210.479	343.923	0.038	0.075
-209.465	-156.928	-0.261	-0.016
-208.450	-1.076	0.353	-0.248
-207.436	-23.532	-0.214	-0.128
-206.421	-200.000	0.088	0.582
-205.406	-80.073	-0.353	-0.118
-204.392	42.997	0.193	0.175
-203.377	-19.278	-0.113	-0.069
-202.363	288.236	0.097	-0.175
-201.348	122.899	0.151	0.187
-200.333	83.926	0.153	-0.165
-199.319	41.004	-0.214	0.192
-198.304	-200.000	-0.033	0.183
-197.290	800.000	-0.024	0.100
-196.275	386.255	-0.111	0.227
-195.260	-110.101	0.205	0.043
-194.246	-83.787	-0.343	0.108
-193.231	-200.000	-0.006	0.084
-192.217	166.669	-0.096	0.135
-191.202	-200.000	-0.002	0.103
-190.187	16.864	0.208	-0.163
-189.173	251.770	0.122	-0.206
-188.158	-127.631	0.308	0.044
-187.144	756.486	0.091	-0.244
-186.129	66.509	0.156	-0.157
-185.114	46.058	0.345	-0.317
-184.100	-31.380	-0.121	-0.067
-183.085	-200.000	0.078	-0.388
-182.071	-200.000	0.047	-0.410
-181.056	-108.651	0.235	0.050
-180.042	-34.956	-0.259	0.140
-179.027	90.079	-0.230	-0.255
-178.012	22.885	0.307	0.250
-176.998	-163.175	0.280	-0.013
-175.983	127.375	0.065	-0.082
-174.969	-200.000	-0.033	-0.182
-173.954	230.725	-0.117	-0.189
-172.939	-174.877	-0.107	0.003
-171.925	1.071	-0.249	-0.177
-170.910	-40.305	0.139	-0.072
-169.896	-200.000	0.014	0.175
-168.881	102.494	-0.116	0.134
-167.866	314.669	0.124	0.232
-166.852	-66.808	0.014	0.005
-165.837	-109.794	-0.246	-0.051
-164.823	-91.619	0.149	-0.042
-163.808	-19.240	-0.163	-0.100
-162.793	47.906	0.113	0.105
-161.779	-200.000	0.036	-0.312
-160.764	355.268	0.120	-0.237
-159.750	800.000	-0.035	0.149
-158.735	-200.000	0.066	-0.292
-157.720	800.000	-0.023	-0.096
-156.706	29.189	0.241	0.202
-155.691	483.576	0.050	-0.114
-154.677	-200.000	-0.013	0.123
-153.662	-48.274	0.174	-0.083
-152.647	-147.397	-0.200	0.017
-151.633	124.984	0.125	-0.156
-150.618	-62.616	-0.197	0.081
-149.604	-42.657	-0.140	0.070
-148.589	246.223	-0.112	-0.186
-147.574	25.033	0.136	-0.112
-146.560	-200.000	0.008	-0.279
-145.545	-63.711	0.216	-0.088
-144.531	-200.000	-0.033	0.256
-143.516	800.000	-0.078	0.317
-142.502	79.236	0.115	-0.122
-141.487	222.366	0.074	0.119
-140.472	92.552	0.208	-0.233
-139.458	-11.926	0.189	0.123
-138.443	-200.000	-0.021	0.199
-137.429	-27.731	-0.138	-0.079
-136.414	-200.000	0.078	-0.436
-135.399	460.904	0.069	0.153
-134.385	209.027	-0.240	0.371
-133.370	-200.000	-0.040	0.359
-132.356	404.016	0.119	0.249
-131.341	-43.539	-0.276	0.138
-130.326	800.000	-0.110	-0.472
-129.312	-109.585	-0.335	0.070
-128.297	800.000	-0.150	0.478
-127.283	-88.288	-0.053	0.016
-126.268	-200.000	0.021	-0.237
-125.253	126.163	-0.250	0.313
-124.239	67.454	-0.164	-0.165
-123.224	-72.470	0.283	-0.104
-122.210	122.678	-0.040	-0.050
