DTS Sentinel unit serial number:	SN413079Multiplexer serial number:	ORYXHardware model number:	OX4-SRSoftware version number:	ORYX F/W v4.00 Oryx Data Collector v3.7.2.0data status	okinstallation	princeton_trtdifferential loss correction	single-endedforward channel	channel 4reverse channel	N/Adate	2019/09/16time	05:49:35forward acquisition time	60.00reverse acquisition time	0.00gamma	496.2192k internal	0.2320k external	0.2320temperature offset calibration	0.9982default loss term (dB/km)	0.3790temperature slope calibration	1.0000multiplexer offset coefficient	1.0000multiplexer slope coefficient	1.0000fibre end	0.00T internal ref (°C)	27.37T ext. ref 1 (°C)	11.21T ext. ref 2 (°C)	22.21length (m)	temperature (°C)	Stokes	anti-Stokes-747.200	509.163	-0.094	-0.221
-746.185	-200.000	-0.009	0.480
-745.171	241.967	0.106	-0.179
-744.156	800.000	-0.117	0.334
-743.142	-136.238	0.241	0.028
-742.127	-124.691	0.198	-0.031
-741.112	20.502	-0.130	0.106
-740.098	-200.000	-0.013	0.148
-739.083	385.004	0.074	0.155
-738.069	121.396	-0.203	0.256
-737.054	217.979	-0.157	0.253
-736.039	-64.036	-0.237	0.098
-735.025	-200.000	-0.043	0.593
-734.010	-6.150	0.032	-0.022
-732.996	-147.305	-0.454	0.039
-731.981	-28.271	-0.214	0.125
-730.966	205.283	-0.182	0.285
-729.952	-43.142	-0.295	-0.151
-728.937	800.000	-0.068	-0.241
-727.923	80.816	0.131	-0.142
-726.908	-89.828	-0.178	-0.053
-725.894	800.000	-0.073	0.316
-724.879	-132.167	-0.128	-0.017
-723.864	-20.735	-0.092	-0.057
-722.850	-109.162	-0.490	0.105
-721.835	131.529	0.160	-0.208
-720.821	-141.451	-0.183	-0.019
-719.806	-200.000	-0.009	-0.170
-718.791	791.217	0.137	-0.381
-717.777	-200.000	0.022	-0.360
-716.762	193.725	0.093	0.141
-715.748	321.799	-0.177	0.339
-714.733	-170.090	-0.171	-0.006
-713.718	-132.497	-0.353	-0.046
-712.704	115.134	-0.170	-0.209
-711.689	-22.745	0.136	0.083
-710.675	75.639	0.073	0.078
-709.660	795.348	-0.117	-0.324
-708.645	73.244	-0.109	0.115
-707.631	69.563	0.121	0.126
-706.616	184.956	0.028	0.042
-705.602	-171.793	0.125	0.004
-704.587	150.520	0.117	0.161
-703.572	21.660	0.114	-0.094
-702.558	296.040	0.040	0.075
-701.543	89.158	0.177	0.199
-700.529	12.150	0.284	-0.221
-699.514	6.237	-0.222	-0.166
-698.499	-76.687	-0.056	-0.020
-697.485	-200.000	-0.013	0.171
-696.470	-35.620	0.252	-0.138
-695.456	-200.000	0.052	-0.255
-694.441	-88.485	-0.189	0.057
-693.426	-200.000	-0.055	-0.320
-692.412	-56.457	0.266	0.119
-691.397	-66.462	-0.294	-0.118
-690.383	-169.753	-0.185	-0.007
-689.368	-17.213	-0.176	-0.112
-688.354	-73.042	-0.187	-0.069
-687.339	-200.000	-0.015	0.444
-686.324	178.722	0.146	0.215
-685.310	-96.096	-0.070	0.019
-684.295	623.800	0.064	-0.164
-683.281	-94.243	-0.410	-0.113
-682.266	-200.000	0.023	-0.118
-681.251	368.933	-0.033	0.068
-680.237	786.673	-0.072	0.200
-679.222	-79.553	-0.168	0.057
-678.208	16.412	-0.344	-0.274
-677.193	800.000	-0.024	0.103
-676.178	112.021	-0.109	-0.133
-675.164	37.512	-0.148	0.132
-674.149	-64.890	-0.279	0.114
-673.135	-200.000	-0.045	-0.389
-672.120	91.562	-0.133	0.151
-671.105	-200.000	-0.002	-0.201
-670.091	-112.734	-0.247	-0.049
-669.076	-66.798	0.424	0.169
-668.062	-200.000	0.000	0.134
-667.047	-200.000	-0.023	-0.162
-666.032	800.000	-0.142	-0.493
-665.018	-200.000	-0.011	-0.175
-664.003	-12.973	0.342	-0.224
-662.989	-200.000	0.009	0.164
-661.974	207.491	-0.185	0.291
-660.959	-107.582	0.138	0.031
-659.945	-155.622	-0.295	0.019
-658.930	-113.608	-0.153	0.030
-657.916	-75.029	-0.247	-0.089
-656.901	21.524	0.316	0.259
-655.886	490.316	-0.102	0.234
-654.872	222.792	-0.264	-0.428
-653.857	268.600	-0.155	-0.273
-652.843	-200.000	-0.025	-0.236
-651.828	355.565	0.217	0.435
-650.814	118.046	0.179	0.222
-649.799	-22.852	0.127	0.077
-648.784	55.023	0.206	0.200
-647.770	-200.000	0.067	-0.340
-646.755	-26.330	0.087	-0.052
-645.741	205.589	0.051	0.080
-644.726	-137.689	-0.292	0.033
-643.711	115.598	-0.097	-0.119
-642.697	-76.568	-0.129	-0.046
-641.682	-21.934	-0.091	0.055
-640.668	-35.935	0.292	-0.159
-639.653	-200.000	-0.022	0.461
-638.638	35.048	-0.189	-0.167
-637.624	-114.686	-0.085	-0.016
-636.609	439.980	-0.076	-0.167
-635.595	-154.376	-0.045	0.003
-634.580	-88.945	0.269	0.080
-633.565	800.000	0.042	0.121
-632.551	-200.000	0.009	0.252
-631.536	451.847	-0.045	-0.101
-630.522	-4.652	0.271	0.188
-629.507	64.286	0.141	0.143
-628.492	689.461	0.027	0.071
-627.478	-12.758	-0.151	0.099
-626.463	-57.744	0.116	-0.051
-625.449	180.423	0.076	0.113
-624.434	331.091	0.031	0.060
-623.419	-21.366	-0.177	0.109
-622.405	17.678	0.454	-0.363
-621.390	93.916	0.136	0.155
-620.376	-61.423	-0.339	-0.144
-619.361	122.162	0.081	-0.102
-618.346	762.406	-0.083	0.226
-617.332	-200.000	-0.052	-0.297
-616.317	800.000	0.043	-0.134
-615.303	90.391	-0.119	0.135
-614.288	-97.232	0.230	-0.060
-613.273	17.195	0.126	-0.100
-612.259	-112.416	-0.089	-0.018
-611.244	800.000	-0.140	-0.468
-610.230	-128.307	-0.435	0.062
-609.215	32.001	-0.365	0.316
-608.201	-24.720	-0.135	-0.080
-607.186	-20.962	0.093	-0.057
-606.171	5.517	0.177	0.132
-605.157	-200.000	0.000	-0.359
-604.142	-200.000	0.079	-0.387
-603.128	57.561	0.062	-0.061
-602.113	191.359	-0.053	-0.081
-601.098	74.335	-0.261	-0.276
-600.084	-118.622	-0.319	0.057
-599.069	-99.934	-0.341	0.086
-598.055	45.422	0.053	-0.049
-597.040	-141.387	-0.522	0.053
-596.025	-132.566	0.157	-0.020
-595.011	265.828	0.022	0.038
-593.996	-166.863	-0.197	0.008
-592.982	-91.437	-0.234	-0.067
-591.967	208.802	0.097	0.152
-590.952	617.501	-0.081	0.203
-589.938	-2.543	-0.101	0.071
-588.923	800.000	-0.033	0.143
-587.909	-127.039	0.183	0.027
-586.894	-200.000	0.004	0.162
-585.879	-151.320	-0.097	-0.007
-584.865	-200.000	0.051	0.254
-583.850	67.641	0.141	-0.144
-582.836	-200.000	0.021	-0.211
-581.821	-27.171	-0.191	0.112
-580.806	66.939	0.043	-0.044
-579.792	-60.089	-0.112	0.048
-578.777	-200.000	-0.032	-0.155
-577.763	-200.000	-0.007	0.107
-576.748	108.896	0.154	0.185
-575.733	800.000	-0.019	0.074
-574.719	-19.574	0.143	-0.089
-573.704	-68.103	0.046	0.018
-572.690	-49.399	-0.094	-0.045
-571.675	-177.664	0.401	0.010
-570.661	113.128	-0.135	0.164
-569.646	179.883	-0.188	0.276
-568.631	-60.922	0.167	0.071
-567.617	556.762	0.153	-0.370
-566.602	-87.731	0.173	0.052
-565.588	-71.971	-0.181	0.067
-564.573	-147.319	-0.172	0.015
-563.558	800.000	0.027	0.086
-562.544	-95.656	-0.160	-0.043
-561.529	457.995	0.220	0.491
-560.515	157.446	-0.141	0.196
-559.500	-68.514	-0.191	-0.074
-558.485	-30.256	-0.319	-0.182
-557.471	-128.899	-0.284	0.040
-556.456	-137.256	0.123	0.014
-555.442	428.204	0.074	-0.161
-554.427	282.562	-0.116	0.209
-553.412	219.239	-0.111	-0.179
-552.398	-121.934	0.054	0.009
-551.383	512.595	-0.048	-0.112
-550.369	-56.774	-0.060	-0.027
-549.354	-101.041	0.178	0.044
-548.339	37.296	-0.085	0.076
-547.325	27.089	-0.149	-0.125
-546.310	-48.956	-0.357	0.172
-545.296	545.951	-0.084	-0.201
-544.281	635.800	-0.065	0.165
-543.266	-200.000	-0.016	0.130
-542.252	-200.000	0.088	0.492
-541.237	327.734	-0.044	-0.085
-540.223	405.185	0.118	-0.249
-539.208	-136.630	-0.302	-0.035
-538.193	-41.460	0.218	0.112
-537.179	11.831	-0.152	0.117
-536.164	-2.261	0.282	-0.198
-535.150	172.693	0.111	0.160
-534.135	-107.014	-0.190	0.042
-533.121	586.479	-0.040	0.098
-532.106	-200.000	0.006	0.029
-531.091	-184.339	0.295	0.005
-530.077	-200.000	-0.019	0.136
-529.062	182.884	0.059	0.087
-528.048	21.596	0.098	0.080
-527.033	321.557	-0.145	0.277
-526.018	800.000	0.089	-0.378
-525.004	120.517	0.149	-0.185
-523.989	-62.965	-0.164	0.068
-522.975	-36.079	-0.373	0.202
-521.960	-119.974	0.177	-0.030
-520.945	435.751	-0.027	-0.058
-519.931	56.831	0.150	0.147
-518.916	-200.000	-0.103	-0.000
-517.902	-57.095	-0.310	-0.137
-516.887	501.750	-0.062	0.144
-515.872	800.000	0.065	0.186
-514.858	-200.000	-0.017	-0.248
-513.843	-41.250	-0.229	-0.118
-512.829	38.831	-0.175	0.157
-511.814	-167.064	0.416	0.017
-510.799	252.783	0.092	0.157
-509.785	455.335	0.096	0.213
-508.770	-200.000	0.009	0.278
-507.756	91.189	-0.195	-0.219
-506.741	800.000	-0.039	-0.123
-505.726	800.000	0.036	0.157
-504.712	116.118	-0.188	0.231
-503.697	170.531	-0.116	0.166
-502.683	601.983	0.016	-0.039
-501.668	-2.404	0.231	-0.162
-500.653	605.414	0.128	-0.319
-499.639	33.453	-0.115	0.100
-498.624	-137.527	0.179	-0.020
-497.610	157.213	-0.092	0.128
-496.595	72.084	-0.149	-0.155
-495.581	4.864	-0.186	0.137
-494.566	-40.110	0.111	0.058
-493.551	216.828	-0.134	0.214
-492.537	30.395	0.296	0.253
-491.522	170.938	0.085	-0.122
-490.508	240.042	-0.113	0.189
-489.493	248.127	0.197	0.333
-488.478	-96.959	0.197	-0.052
-487.464	656.191	0.131	-0.337
-486.449	51.143	-0.097	0.092
-485.435	-166.147	0.414	-0.018
-484.420	-196.701	-0.451	-0.003
-483.405	257.592	0.116	0.200
-482.391	429.868	0.093	-0.201
-481.376	-129.748	-0.268	0.037
-480.362	70.166	0.174	-0.180
-479.347	-73.921	0.120	-0.044
-478.332	357.499	0.098	0.196
-477.318	141.725	0.046	0.061
-476.303	800.000	-0.039	-0.121
-475.289	31.579	0.344	-0.296
-474.274	636.608	-0.073	0.186
-473.259	-200.000	0.017	-0.264
-472.245	428.072	0.070	-0.152
-471.230	-95.147	-0.231	-0.062
-470.216	800.000	0.033	-0.109
-469.201	-200.000	0.366	0.001
-468.186	-117.244	0.123	-0.022
-467.172	265.564	0.073	0.127
-466.157	-21.653	-0.237	0.145
-465.143	-64.429	0.191	-0.078
-464.128	80.437	-0.145	-0.157
-463.113	-145.754	-0.157	-0.014
-462.099	800.000	-0.106	0.322
-461.084	-4.337	-0.122	-0.084
-460.070	188.396	-0.124	-0.185
-459.055	182.008	-0.131	-0.192
-458.040	-132.010	-0.093	0.012
-457.026	89.691	0.110	-0.122
-456.011	262.231	-0.257	0.446
-454.997	-200.000	-0.012	0.102
-453.982	800.000	-0.034	-0.122
-452.968	494.595	-0.121	-0.278
-451.953	-29.870	-0.325	-0.185
-450.938	-16.174	0.079	0.050
-449.924	-65.008	-0.161	0.065
-448.909	-200.000	0.001	0.061
-447.895	27.640	0.186	-0.156
-446.880	35.280	0.118	-0.103
-445.865	683.717	0.102	-0.267
-444.851	-200.000	0.075	-0.413
-443.836	315.220	0.154	0.290
-442.822	220.283	-0.067	-0.107
-441.807	698.900	0.025	-0.065
-440.792	-162.944	-0.485	0.024
-439.778	-189.732	0.049	0.001
-438.763	23.561	0.086	0.071
-437.749	1.421	-0.135	0.097
-436.734	-200.000	0.080	-0.408
-435.719	254.902	-0.085	0.145
-434.705	81.927	-0.134	0.145
-433.690	800.000	-0.064	-0.201
-432.676	-37.290	-0.372	0.199
-431.661	-142.420	0.316	-0.031
-430.646	43.065	-0.375	0.342
-429.632	-116.381	0.134	-0.025
-428.617	-48.417	0.187	-0.090
-427.603	-200.000	0.007	-0.126
-426.588	-200.000	0.128	-0.635
-425.573	188.632	-0.025	0.037
-424.559	45.105	-0.187	-0.172
-423.544	148.426	0.139	-0.187
-422.530	148.997	0.042	-0.056
-421.515	800.000	-0.056	-0.183
-420.500	-160.678	-0.209	0.011
-419.486	-46.073	-0.150	0.074
-418.471	-166.589	0.141	0.006
-417.457	-200.000	-0.009	-0.253
-416.442	-200.000	-0.014	0.440
-415.428	-200.000	-0.003	-0.107
-414.413	-168.171	0.182	0.007
-413.398	-178.520	-0.117	-0.003
-412.384	-89.327	-0.392	-0.115
-411.369	-83.794	0.204	-0.065
-410.355	-142.552	-0.295	0.029
-409.340	-118.350	-0.261	0.046
-408.325	-54.328	0.108	0.049
-407.311	-200.000	0.014	-0.323
-406.296	149.509	-0.076	-0.103
-405.282	-200.000	-0.262	0.000
-404.267	-26.081	0.273	0.160
-403.252	-18.375	0.220	-0.137
-402.238	530.917	-0.075	0.176
-401.223	493.786	0.013	0.030
-400.209	-103.169	0.154	0.036
-399.194	-200.000	-0.003	0.079
-398.179	-200.000	0.032	0.296
-397.165	112.952	0.141	-0.171
-396.150	-200.000	0.005	0.228
-395.136	-56.305	0.120	-0.053
-394.121	183.479	-0.080	-0.119
-393.106	149.317	0.077	-0.104
-392.092	-104.131	0.110	0.025
-391.077	202.829	-0.247	0.381
-390.063	-130.773	-0.228	0.031
-389.048	242.852	-0.071	0.119
-388.033	-200.000	-0.005	-0.257
-387.019	157.612	0.183	0.252
-386.004	-75.767	0.176	0.062
-384.990	-16.638	-0.198	-0.125
-383.975	-150.172	-0.147	0.011
-382.960	30.161	0.116	-0.099
-381.946	-200.000	-0.020	-0.136
-380.931	98.588	0.057	0.066
-379.917	169.368	0.109	0.155
-378.902	-155.974	-0.444	-0.028
-377.888	-200.000	-0.002	0.089
-376.873	213.292	0.165	0.260
-375.858	-87.897	0.167	-0.050
-374.844	-200.000	0.010	-0.459
-373.829	98.060	0.182	-0.209
-372.815	34.415	0.198	-0.172
-371.800	781.117	-0.153	0.419
-370.785	800.000	0.165	0.483
-369.771	-200.000	0.030	-0.205
-368.756	800.000	0.011	-0.037
-367.742	-178.684	-0.303	0.007
-366.727	327.187	0.087	0.166
-365.712	56.903	0.300	-0.291
-364.698	30.660	0.131	-0.111
-363.683	-141.401	-0.286	-0.029
-362.669	35.791	-0.148	0.130
-361.654	0.775	0.358	-0.255
-360.639	12.913	0.156	0.120
-359.625	800.000	-0.112	-0.318
-358.610	184.776	0.136	-0.201
-357.596	-69.254	0.135	0.052
-356.581	35.146	0.140	0.122
-355.566	144.194	-0.152	-0.202
-354.552	73.687	0.195	-0.203
-353.537	800.000	0.069	-0.192
-352.523	-8.123	0.141	0.095
-351.508	149.483	0.169	0.228
-350.493	-93.874	-0.090	-0.025
-349.479	-200.000	0.014	0.146
-348.464	141.814	0.108	0.142
-347.450	-38.525	0.205	0.108
-346.435	800.000	0.089	0.361
-345.420	30.537	0.158	-0.134
-344.406	-87.430	-0.249	-0.075
-343.391	-31.825	0.019	0.010
-342.377	36.886	-0.147	0.130
-341.362	-173.570	-0.281	0.008
-340.348	-200.000	-0.012	0.078
-339.333	-5.058	-0.079	0.054
-338.318	-200.000	0.030	-0.476
-337.304	-25.781	-0.163	-0.096
-336.289	-119.627	0.316	0.054
-335.275	-53.376	-0.164	0.075
-334.260	-54.984	0.127	-0.057
-333.245	-93.239	0.161	0.044
-332.231	123.609	0.034	0.043
-331.216	313.041	-0.063	0.117
-330.202	-53.064	0.257	0.117
-329.187	776.455	-0.104	0.282
-328.172	-41.816	0.169	-0.086
-327.158	57.316	0.053	-0.051
-326.143	-149.668	0.522	0.041
-325.129	301.239	-0.121	-0.223
-324.114	112.142	0.094	0.113
-323.099	-7.284	0.313	-0.211
-322.085	273.075	-0.049	-0.086
-321.070	-47.453	0.371	0.179
-320.056	800.000	0.111	-0.317
-319.041	368.516	-0.069	0.139
-318.026	780.138	-0.056	-0.153
-317.012	26.845	0.051	0.042
-315.997	-147.304	0.217	0.018
-314.983	-133.481	0.205	-0.026
-313.968	19.111	-0.320	0.255
-312.953	-200.000	0.043	0.450
-311.939	800.000	-0.087	0.274
-310.924	347.572	0.025	-0.049
-309.910	800.000	0.085	0.276
-308.895	-93.367	0.177	0.049
-307.880	520.570	-0.072	0.167
-306.866	-76.239	-0.350	-0.123
-305.851	-146.211	-0.127	0.011
-304.837	-200.000	-0.011	-0.148
-303.822	-33.284	-0.258	-0.142
-302.807	288.928	0.130	0.233
-301.793	-200.000	0.061	-0.282
-300.778	-150.038	0.129	-0.010
-299.764	31.359	-0.379	-0.324
-298.749	-200.000	-0.071	-0.424
-297.735	71.693	-0.123	0.127
-296.720	800.000	0.059	0.183
-295.705	125.798	-0.021	0.026
-294.691	-200.000	-0.029	-0.315
-293.676	16.475	-0.038	0.030
-292.662	11.436	0.045	-0.034
-291.647	50.699	-0.091	-0.086
-290.632	-75.842	0.251	-0.088
-289.618	108.922	0.214	-0.255
-288.603	800.000	0.075	-0.296
-287.589	1.407	0.268	0.191
-286.574	70.556	-0.148	-0.152
-285.559	-26.380	-0.156	0.091
-284.545	-72.375	0.321	-0.118
-283.530	-200.000	0.015	-0.190
-282.516	35.993	-0.130	0.114
-281.501	-162.818	-0.348	0.017
-280.486	-95.256	0.221	0.059
-279.472	-88.465	0.079	0.023
-278.457	746.347	0.077	0.205
-277.443	463.675	-0.043	0.095
-276.428	-200.000	0.043	-0.251
-275.413	323.497	-0.072	0.137
-274.399	-76.044	-0.377	0.132
-273.384	-200.000	-0.013	0.072
-272.370	800.000	0.040	-0.172
-271.355	-43.772	-0.236	0.118
-270.340	-200.000	-0.007	0.103
-269.326	-200.000	-0.003	-0.195
-268.311	-200.000	0.005	0.331
-267.297	34.201	-0.168	-0.145
-266.282	-137.362	-0.524	0.059
-265.267	-162.977	0.272	-0.013
-264.253	-12.616	0.085	-0.055
-263.238	245.121	-0.183	-0.306
-262.224	-158.723	0.174	0.010
-261.209	310.077	0.051	-0.094
-260.195	287.415	-0.184	-0.329
-259.180	-200.000	0.065	-0.330
-258.165	-48.635	0.328	-0.157
-257.151	-82.267	-0.332	0.107
-256.136	-196.756	0.420	0.003
-255.122	-112.953	-0.157	-0.031
-254.107	-200.000	-0.003	0.060
-253.092	-200.000	-0.003	0.107
-252.078	-91.011	-0.173	-0.049
-251.063	-200.000	0.033	0.221
-250.049	191.327	-0.011	-0.017
-249.034	-108.572	0.452	0.096
-248.019	55.286	0.135	0.129
-247.005	-103.705	-0.141	-0.033
-245.990	-17.854	0.234	-0.146
-244.976	-200.000	0.023	-0.193
-243.961	-132.243	0.109	0.014
-242.946	105.278	0.169	0.198
-241.932	725.172	-0.034	0.090
-240.917	112.990	-0.048	0.058
-239.903	154.613	-0.184	0.251
-238.888	228.247	-0.205	0.331
-237.873	-200.000	-0.042	0.254
-236.859	-50.833	-0.189	-0.088
-235.844	-107.377	0.301	0.066
-234.830	-49.846	-0.165	-0.078
-233.815	50.166	0.220	-0.206
-232.800	-99.482	0.416	0.104
-231.786	335.440	0.096	0.184
-230.771	-22.126	0.260	-0.156
-229.757	204.542	0.112	0.172
-228.742	-159.401	-0.180	-0.010
-227.727	60.266	-0.133	0.130
-226.713	-78.405	0.306	0.104
-225.698	356.342	-0.045	0.089
-224.684	-7.804	-0.106	-0.071
-223.669	-23.634	0.188	-0.111
-222.655	-50.614	0.147	-0.069
-221.640	800.000	0.049	0.149
-220.625	204.504	-0.209	-0.320
-219.611	175.238	-0.138	-0.199
-218.596	-24.646	-0.153	-0.090
-217.582	800.000	-0.067	-0.199
-216.567	-37.420	0.073	0.039
-215.552	109.005	-0.139	0.165
-214.538	31.905	-0.410	0.350
-213.523	-28.671	0.230	0.131
-212.509	623.209	0.071	-0.176
-211.494	7.099	-0.160	-0.118
-210.479	-65.861	0.217	-0.086
-209.465	-74.723	0.245	-0.087
-208.450	-3.094	-0.264	0.182
-207.436	5.369	-0.372	0.272
-206.421	-36.265	0.079	-0.042
-205.406	-30.108	0.078	0.044
-204.392	-139.059	0.348	-0.037
-203.377	105.078	-0.202	-0.236
-202.363	-167.601	-0.432	0.017
-201.348	-93.589	0.255	-0.070
-200.333	137.937	0.067	0.087
-199.319	-110.583	0.184	-0.038
-198.304	-76.085	-0.165	0.058
-197.290	-103.175	-0.506	-0.118
-196.275	-200.000	0.025	0.208
-195.260	-7.843	0.171	-0.114
-194.246	-120.420	-0.146	-0.025
-193.231	8.406	-0.346	0.258
-192.217	-37.466	0.244	-0.129
-191.202	535.530	0.135	0.317
-190.187	-200.000	0.045	0.278
-189.173	-45.857	-0.104	0.051
-188.158	192.580	0.046	0.069
-187.144	-51.887	0.182	0.084
-186.129	90.589	0.213	-0.236
-185.114	160.826	0.136	-0.188
-184.100	-44.183	-0.066	0.033
-183.085	73.362	0.096	-0.099
-182.071	-37.518	0.299	0.158
-181.056	800.000	0.038	-0.110
-180.042	70.041	-0.074	-0.076
-179.027	0.789	0.109	-0.078
-178.012	0.760	-0.127	-0.090
-176.998	-16.513	0.063	-0.040
-175.983	-158.611	-0.059	0.003
-174.969	248.451	-0.116	-0.194
-173.954	-151.470	-0.155	0.011
-172.939	-124.765	-0.276	0.042
-171.925	-176.173	0.421	0.011
-170.910	352.468	0.077	0.151
-169.896	176.186	0.095	0.136
-168.881	-200.000	-0.003	-0.163
-167.866	256.001	0.074	0.125
-166.852	-200.000	0.007	-0.035
-165.837	-15.068	-0.253	-0.160
-164.823	-200.000	-0.006	0.364
-163.808	-1.284	0.087	0.061
-162.793	143.397	0.217	0.286
-161.779	306.624	0.125	0.230
-160.764	228.817	-0.122	-0.196
-159.750	315.774	0.091	-0.170
-158.735	187.676	-0.111	-0.163
-157.720	208.740	-0.191	-0.295
-156.706	-89.026	0.213	-0.062
-155.691	-13.646	0.394	-0.252
-154.677	800.000	-0.090	-0.265
-153.662	-108.471	-0.148	-0.031
-152.647	-200.000	-0.002	0.075
-151.633	189.187	0.137	0.202
-150.618	-115.784	0.378	0.070
-149.604	-20.911	0.117	-0.071
-148.589	-34.639	0.083	-0.045
-147.574	-160.197	0.156	-0.008
-146.560	294.741	0.083	0.149
-145.545	424.995	-0.043	-0.091
-144.531	-161.379	0.373	-0.019
-143.516	-56.737	0.213	0.093
-142.502	-200.000	0.026	-0.228
-141.487	12.073	-0.163	0.124
-140.472	-51.386	0.126	-0.058
-139.458	-46.306	-0.032	-0.016
-138.443	-63.326	-0.285	-0.116
-137.429	-156.641	-0.035	-0.002
-136.414	-36.139	0.379	-0.202
-135.399	-200.000	-0.034	0.311
-134.385	628.103	-0.100	-0.249
-133.370	-127.374	0.209	0.030
-132.356	800.000	0.042	-0.138
-131.341	-106.794	-0.055	-0.012
-130.326	-33.903	0.131	-0.071
-129.312	-85.570	0.185	-0.057
-128.297	800.000	-0.053	-0.145
-127.283	656.673	-0.046	0.116
-126.268	784.829	-0.073	0.198
-125.253	292.553	-0.136	0.244
-124.239	-116.684	-0.180	-0.033
-123.224	38.134	-0.307	0.270
-122.210	143.946	-0.238	0.313
-121.195	-200.000	-0.069	-0.332
