DTS Sentinel unit serial number:	SN413079Multiplexer serial number:	ORYXHardware model number:	OX4-SRSoftware version number:	ORYX F/W v4.00 Oryx Data Collector v3.7.2.0data status	okinstallation	princeton_trtdifferential loss correction	single-endedforward channel	channel 4reverse channel	N/Adate	2019/09/17time	11:29:34forward acquisition time	60.00reverse acquisition time	0.00gamma	496.2192k internal	0.2308k external	0.2308temperature offset calibration	0.9986default loss term (dB/km)	0.3790temperature slope calibration	1.0000multiplexer offset coefficient	1.0000multiplexer slope coefficient	1.0000fibre end	0.00T internal ref (°C)	30.66T ext. ref 1 (°C)	0.33T ext. ref 2 (°C)	26.43length (m)	temperature (°C)	Stokes	anti-Stokes-747.200	191.660	-0.118	0.181
-746.185	787.791	0.117	0.325
-745.171	-102.819	0.215	0.052
-744.156	-130.229	-0.194	-0.027
-743.142	-200.000	-0.004	0.080
-742.127	-86.180	-0.238	0.075
-741.112	84.729	-0.139	-0.155
-740.098	38.003	0.177	0.160
-739.083	68.929	-0.152	0.159
-738.069	-70.934	-0.315	-0.121
-737.054	16.184	0.160	-0.128
-736.039	260.466	0.150	-0.264
-735.025	-200.000	0.018	0.125
-734.010	-67.184	-0.143	0.057
-732.996	800.000	-0.111	-0.324
-731.981	15.585	0.254	-0.203
-730.966	-111.863	0.143	-0.029
-729.952	-71.873	0.028	-0.011
-728.937	-87.671	-0.266	-0.081
-727.923	-200.000	0.017	0.093
-726.908	-200.000	0.044	-0.221
-725.894	-67.049	-0.122	0.049
-724.879	-73.886	-0.380	-0.140
-723.864	81.262	-0.203	-0.223
-722.850	800.000	-0.063	-0.221
-721.835	-58.392	0.155	0.068
-720.821	-67.473	0.123	-0.049
-719.806	-168.366	-0.115	-0.004
-718.791	800.000	-0.066	-0.204
-717.777	-200.000	0.003	-0.013
-716.762	-60.073	-0.233	0.101
-715.748	-106.788	0.035	0.008
-714.733	94.204	-0.100	0.115
-713.718	88.263	-0.101	0.114
-712.704	-5.160	0.133	-0.093
-711.689	66.444	-0.203	0.209
-710.675	649.593	0.021	0.055
-709.660	38.112	-0.113	0.102
-708.645	740.523	0.097	0.263
-707.631	13.985	-0.102	0.081
-706.616	-140.649	0.291	-0.031
-705.602	64.400	0.171	-0.175
-704.587	-200.000	-0.007	0.197
-703.572	45.323	0.169	0.158
-702.558	-75.195	-0.170	-0.061
-701.543	-200.000	-0.057	-0.327
-700.529	-200.000	-0.011	-0.134
-699.514	505.701	-0.084	-0.197
-698.499	-156.913	-0.146	0.009
-697.485	-8.458	0.171	0.117
-696.470	174.906	0.090	-0.132
-695.456	37.438	-0.044	0.039
-694.441	-200.000	0.023	-0.235
-693.426	-105.281	0.239	-0.055
-692.412	-63.635	-0.256	0.106
-691.397	-122.363	0.390	0.064
-690.383	-200.000	0.017	-0.102
-689.368	-130.182	-0.180	-0.025
-688.354	-182.850	0.166	0.003
-687.339	668.093	0.136	-0.357
-686.324	-87.949	-0.419	-0.128
-685.310	800.000	-0.106	-0.336
-684.295	-200.000	-0.013	-0.368
-683.281	408.810	-0.138	-0.296
-682.266	284.559	-0.102	-0.186
-681.251	-86.644	0.116	-0.036
-680.237	-98.266	-0.197	0.051
-679.222	-200.000	-0.004	0.107
-678.208	-200.000	-0.060	-0.275
-677.193	-141.266	0.211	0.022
-676.178	-91.098	-0.349	-0.102
-675.164	341.623	0.071	-0.141
-674.149	78.795	0.097	-0.105
-673.135	-161.384	0.162	-0.009
-672.120	-200.000	0.052	-0.294
-671.105	319.027	0.047	-0.090
-670.091	367.864	-0.032	-0.066
-669.076	509.583	0.122	0.286
-668.062	-168.970	0.279	0.011
-667.047	207.328	-0.126	-0.199
-666.032	241.563	0.046	-0.079
-665.018	-200.000	0.002	-0.145
-664.003	-82.101	0.229	-0.076
-662.989	52.384	-0.128	0.123
-661.974	16.072	-0.115	-0.092
-660.959	-72.714	-0.097	0.036
-659.945	-23.583	-0.019	-0.011
-658.930	-200.000	-0.017	-0.208
-657.916	373.052	-0.061	-0.125
-656.901	-200.000	0.006	0.142
-655.886	-44.025	0.246	0.125
-654.872	-200.000	0.043	-0.306
-653.857	-114.649	0.061	-0.012
-652.843	-156.149	0.075	-0.005
-651.828	-139.952	-0.283	0.030
-650.814	88.052	0.109	0.123
-649.799	540.055	-0.066	0.160
-648.784	31.421	-0.188	-0.164
-647.770	103.154	-0.160	-0.190
-646.755	800.000	0.063	0.272
-645.741	-200.000	0.043	-0.260
-644.726	590.396	0.099	0.248
-643.711	41.138	-0.127	0.116
-642.697	92.247	0.124	-0.141
-641.682	7.830	0.225	0.171
-640.668	10.944	0.163	-0.126
-639.653	269.391	-0.016	-0.029
-638.638	33.717	0.115	0.101
-637.624	-135.920	-0.229	-0.027
-636.609	434.210	-0.061	0.134
-635.595	215.294	0.108	0.173
-634.580	-200.000	0.021	0.155
-633.565	585.765	-0.095	0.237
-632.551	295.201	-0.087	0.161
-631.536	800.000	0.090	-0.320
-630.522	-57.660	0.362	0.161
-629.507	341.738	-0.194	-0.383
-628.492	-200.000	0.006	-0.086
-627.478	-200.000	-0.004	-0.085
-626.463	368.655	0.174	-0.357
-625.449	-143.453	0.285	0.027
-624.434	-153.129	-0.168	0.012
-623.419	253.304	-0.134	0.231
-622.405	-200.000	0.015	0.207
-621.390	528.866	-0.082	-0.196
-620.376	-112.531	-0.058	-0.012
-619.361	257.422	-0.102	0.178
-618.346	-125.720	-0.337	-0.052
-617.332	-58.123	0.158	-0.070
-616.317	11.356	-0.149	0.115
-615.303	379.111	0.182	-0.378
-614.288	-61.233	-0.203	-0.087
-613.273	54.446	0.045	-0.044
-612.259	-200.000	0.005	0.028
-611.244	118.509	-0.032	-0.040
-610.230	800.000	0.117	0.373
-609.215	439.967	0.065	-0.144
-608.201	-116.303	0.183	-0.034
-607.186	117.390	-0.183	-0.228
-606.171	-94.934	-0.140	-0.038
-605.157	-200.000	-0.004	-0.021
-604.142	-21.841	0.159	-0.098
-603.128	146.329	0.039	0.054
-602.113	-40.417	-0.247	0.130
-601.098	-92.708	0.402	-0.114
-600.084	-24.158	0.140	-0.085
-599.069	-60.453	0.043	0.018
-598.055	258.357	-0.080	-0.139
-597.040	-150.054	-0.499	-0.039
-596.025	-79.050	-0.277	-0.095
-595.011	203.388	-0.324	-0.506
-593.996	359.150	-0.075	0.151
-592.982	82.216	0.095	0.104
-591.967	69.520	-0.099	-0.103
-590.952	126.961	-0.185	-0.237
-589.938	304.982	0.074	-0.139
-588.923	-93.692	-0.201	-0.056
-587.909	-120.709	-0.187	-0.032
-586.894	-48.052	0.341	-0.167
-585.879	86.443	-0.122	0.136
-584.865	-89.292	-0.126	-0.038
-583.850	800.000	0.052	-0.193
-582.836	14.955	-0.121	-0.096
-581.821	-160.227	-0.071	-0.004
-580.806	-200.000	-0.003	0.383
-579.792	385.589	-0.108	-0.225
-578.777	-12.142	0.097	-0.064
-577.763	166.594	-0.052	-0.075
-576.748	514.519	-0.183	0.432
-575.733	-200.000	0.034	-0.266
-574.719	-48.667	-0.285	-0.138
-573.704	-93.552	-0.071	0.020
-572.690	146.320	-0.048	-0.065
-571.675	360.817	-0.161	0.325
-570.661	800.000	0.088	0.365
-569.646	437.780	0.039	0.085
-568.631	63.806	-0.083	-0.084
-567.617	-40.811	0.104	0.054
-566.602	-105.872	0.142	0.032
-565.588	-73.222	0.311	0.115
-564.573	-52.600	0.215	0.100
-563.558	146.369	-0.153	0.207
-562.544	-52.631	-0.169	0.079
-561.529	172.977	0.049	-0.071
-560.515	-13.034	0.223	-0.146
-559.500	466.227	0.146	-0.330
-558.485	-200.000	-0.027	-0.332
-557.471	-34.343	0.196	-0.108
-556.456	585.460	0.059	-0.147
-555.442	633.213	-0.040	0.102
-554.427	-200.000	0.018	0.186
-553.412	-200.000	0.016	-0.335
-552.398	425.682	0.098	0.214
-551.383	-81.099	-0.099	0.033
-550.369	86.422	-0.250	-0.278
-549.354	-45.827	-0.081	0.041
-548.339	140.704	0.209	0.279
-547.325	8.199	0.097	-0.073
-546.310	-200.000	-0.028	-0.208
-545.296	632.978	-0.109	0.279
-544.281	-74.714	-0.098	0.035
-543.266	104.337	0.089	0.105
-542.252	76.807	0.159	0.170
-541.237	50.450	0.118	0.112
-540.223	146.781	0.075	-0.101
-539.208	-62.609	0.084	-0.035
-538.193	104.385	0.171	-0.203
-537.179	185.118	-0.103	0.154
-536.164	-200.000	-0.025	0.133
-535.150	-116.701	0.110	-0.020
-534.135	800.000	-0.076	-0.231
-533.121	-200.000	0.002	0.391
-532.106	81.790	-0.172	-0.188
-531.091	-105.042	0.112	-0.026
-530.077	54.441	-0.103	0.100
-529.062	800.000	0.110	-0.372
-528.048	-74.438	0.059	0.021
-527.033	13.768	-0.062	0.049
-526.018	-20.636	0.316	0.196
-525.004	-200.000	-0.022	-0.417
-523.989	-20.795	-0.248	0.153
-522.975	800.000	-0.046	0.143
-521.960	-111.392	0.599	-0.123
-520.945	-7.060	0.137	-0.094
-519.931	156.502	0.086	0.119
-518.916	-200.000	0.009	-0.053
-517.902	7.724	0.078	-0.059
-516.887	-146.067	0.114	-0.010
-515.872	-33.774	0.115	0.064
-514.858	74.016	-0.134	0.141
-513.843	163.475	0.085	-0.121
-512.829	166.796	0.042	0.060
-511.814	-143.389	-0.372	-0.036
-510.799	800.000	-0.076	0.243
-509.785	-159.887	0.079	-0.004
-508.770	-72.973	-0.237	-0.088
-507.756	-200.000	-0.016	-0.088
-506.741	-200.000	0.040	-0.460
-505.726	-9.203	0.012	0.008
-504.712	404.875	-0.094	-0.200
-503.697	-58.242	-0.343	0.151
-502.683	-93.361	-0.114	-0.032
-501.668	-127.030	0.170	0.025
-500.653	515.969	-0.097	-0.228
-499.639	110.265	0.182	-0.220
-498.624	-200.000	-0.001	-0.113
-497.610	402.004	0.143	-0.302
-496.595	306.024	-0.186	-0.348
-495.581	-81.232	-0.254	0.085
-494.566	248.323	-0.062	-0.106
-493.551	800.000	-0.077	0.235
-492.537	-31.330	-0.176	0.100
-491.522	120.045	0.190	0.237
-490.508	-127.993	0.608	-0.088
-489.493	800.000	-0.065	-0.208
-488.478	-200.000	-0.015	0.275
-487.464	-72.054	0.259	0.097
-486.449	73.522	0.221	-0.232
-485.435	800.000	-0.143	-0.470
-484.420	-69.943	0.119	0.045
-483.405	-6.440	-0.127	0.087
-482.391	-200.000	0.002	-0.137
-481.376	366.788	0.158	0.320
-480.362	-67.048	0.208	-0.083
-479.347	122.858	0.083	0.105
-478.332	168.708	-0.089	0.128
-477.318	-157.374	-0.057	0.003
-476.303	-200.000	-0.044	0.391
-475.289	-61.655	0.196	-0.083
-474.274	94.737	0.060	-0.068
-473.259	171.751	0.199	-0.287
-472.245	320.045	0.080	-0.152
-471.230	-40.576	0.132	-0.069
-470.216	800.000	0.049	-0.215
-469.201	800.000	-0.123	0.344
-468.186	-200.000	-0.056	0.266
-467.172	20.898	0.138	-0.113
-466.157	-88.391	0.397	-0.119
-465.143	-24.530	-0.096	0.058
-464.128	538.739	-0.065	0.154
-463.113	-51.130	0.128	0.060
-462.099	-113.729	-0.317	-0.062
-461.084	-68.125	0.105	-0.041
-460.070	296.119	0.180	0.331
-459.055	-15.007	-0.022	0.014
-458.040	386.549	0.277	-0.574
-457.026	445.641	0.064	0.141
-456.011	800.000	-0.113	0.439
-454.997	-107.452	-0.421	0.093
-453.982	56.676	0.110	-0.108
-452.968	-200.000	-0.028	-0.147
-451.953	-200.000	0.016	0.209
-450.938	-162.975	-0.166	0.008
-449.924	-11.314	-0.085	-0.056
-448.909	-138.009	-0.346	-0.039
-447.895	571.731	-0.117	0.287
-446.880	800.000	-0.044	0.131
-445.865	-200.000	-0.035	-0.242
-444.851	-139.075	-0.189	0.021
-443.836	-62.406	0.146	0.061
-442.822	323.405	0.108	0.206
-441.807	-108.538	-0.540	-0.117
-440.792	-200.000	-0.021	0.101
-439.778	24.633	0.081	0.067
-438.763	-28.108	-0.042	-0.024
-437.749	11.247	-0.015	-0.011
-436.734	-159.202	0.442	-0.025
-435.719	-38.034	0.047	-0.025
-434.705	-25.920	-0.078	-0.046
-433.690	-200.000	-0.106	-0.500
-432.676	-170.371	-0.179	0.006
-431.661	-148.498	0.091	0.008
-430.646	-27.387	0.339	-0.198
-429.632	164.807	-0.151	-0.213
-428.617	-113.313	0.304	0.060
-427.603	194.730	-0.096	-0.146
-426.588	113.389	-0.208	-0.253
-425.573	-200.000	0.070	0.478
-424.559	250.088	-0.070	0.119
-423.544	-192.625	0.246	-0.002
-422.530	78.852	-0.369	0.396
-421.515	-200.000	-0.004	-0.051
-420.500	49.514	-0.333	0.314
-419.486	-26.332	0.006	-0.003
-418.471	-200.000	-0.053	-0.340
-417.457	228.825	0.181	-0.297
-416.442	-180.206	0.060	-0.001
-415.428	-162.416	0.213	0.011
-414.413	-120.949	-0.190	-0.032
-413.398	463.353	-0.060	0.134
-412.384	37.048	-0.057	-0.050
-411.369	101.056	-0.206	-0.240
-410.355	-74.555	0.145	-0.053
-409.340	-43.734	-0.179	0.090
-408.325	-82.474	0.249	-0.081
-407.311	-200.000	0.048	0.352
-406.296	-200.000	0.041	-0.252
-405.282	-60.461	-0.169	0.072
-404.267	727.763	0.031	0.083
-403.252	-0.248	0.225	-0.160
-402.238	-200.000	-0.012	0.075
-401.223	-23.389	-0.095	0.057
-400.209	800.000	0.080	0.232
-399.194	-88.252	-0.207	0.062
-398.179	13.098	0.265	0.206
-397.165	-133.625	0.224	0.028
-396.150	196.090	0.140	0.214
-395.136	141.995	0.082	0.109
-394.121	181.560	0.139	-0.205
-393.106	211.056	-0.034	-0.053
-392.092	-66.731	0.276	-0.110
-391.077	800.000	-0.094	-0.259
-390.063	800.000	0.073	0.259
-389.048	120.130	0.126	-0.156
-388.033	-200.000	0.017	-0.292
-387.019	-73.983	0.399	0.145
-386.004	-200.000	-0.052	0.279
-384.990	-200.000	0.014	0.178
-383.975	-124.669	-0.265	0.041
-382.960	-200.000	-0.046	0.225
-381.946	-21.964	-0.187	0.114
-380.931	-19.338	-0.125	-0.078
-379.917	-200.000	-0.020	0.156
-378.902	-83.427	-0.138	0.044
-377.888	800.000	0.085	0.330
-376.873	153.728	0.330	-0.453
-375.858	-200.000	0.031	-0.181
-374.844	76.410	0.048	-0.050
-373.829	-52.162	0.350	0.163
-372.815	-200.000	-0.002	0.264
-371.800	-18.968	-0.127	0.079
-370.785	544.750	0.085	0.203
-369.771	37.778	0.180	-0.160
-368.756	-112.469	0.123	-0.025
-367.742	800.000	-0.116	-0.504
-366.727	-96.000	-0.074	-0.020
-365.712	-200.000	-0.009	0.169
-364.698	-200.000	-0.011	0.111
-363.683	128.731	-0.171	-0.218
-362.669	-46.249	-0.155	-0.076
-361.654	-200.000	-0.046	-0.208
-360.639	-46.455	-0.244	0.120
-359.625	174.488	-0.325	0.471
-358.610	-159.719	0.208	0.012
-357.596	-124.215	-0.189	0.030
-356.581	74.753	-0.114	-0.120
-355.566	21.732	0.149	-0.121
-354.552	57.968	0.039	-0.038
-353.537	-37.183	0.168	0.090
-352.523	-136.227	0.212	-0.025
-351.508	-200.000	0.067	-0.350
-350.493	146.232	0.088	-0.118
-349.479	45.725	-0.152	0.141
-348.464	149.268	-0.057	0.078
-347.450	112.514	0.134	-0.162
-346.435	-200.000	0.001	0.211
-345.420	-162.835	-0.293	0.014
-344.406	616.648	-0.093	0.233
-343.391	800.000	-0.056	-0.168
-342.377	322.388	0.100	0.190
-341.362	79.699	-0.160	0.171
-340.348	653.713	-0.100	0.257
-339.333	439.255	-0.060	-0.131
-338.318	5.819	0.270	0.200
-337.304	188.140	-0.042	0.063
-336.289	120.023	-0.182	-0.226
-335.275	-36.568	-0.266	-0.143
-334.260	88.841	-0.173	0.192
-333.245	-184.383	0.031	0.001
-332.231	16.259	-0.193	0.152
-331.216	-103.774	-0.294	-0.069
-330.202	800.000	-0.091	-0.338
-329.187	800.000	-0.106	-0.293
-328.172	-57.046	0.349	-0.154
-327.158	-200.000	-0.016	-0.187
-326.143	-38.188	-0.530	-0.281
-325.129	472.500	-0.128	0.289
-324.114	-200.000	-0.007	0.053
-323.099	-76.323	-0.150	0.053
-322.085	-57.481	0.264	0.116
-321.070	-26.977	-0.092	-0.054
-320.056	10.920	-0.248	0.189
-319.041	461.353	0.142	0.316
-318.026	119.063	0.300	0.371
-317.012	-69.027	-0.242	0.093
-315.997	800.000	0.114	-0.371
-314.983	118.548	-0.156	-0.192
-313.968	-200.000	-0.000	-0.143
-312.953	661.226	0.096	0.248
-311.939	800.000	-0.059	-0.190
-310.924	431.965	-0.097	0.211
-309.910	-94.565	0.477	-0.130
-308.895	-51.477	0.202	0.094
-307.880	-200.000	-0.013	0.096
-306.866	-156.123	-0.337	-0.021
-305.851	-200.000	0.036	-0.208
-304.837	-102.055	0.343	-0.083
-303.822	175.632	-0.138	-0.200
-302.807	800.000	0.097	-0.278
-301.793	28.500	0.161	0.136
-300.778	-62.715	0.172	0.071
-299.764	27.426	-0.310	0.260
-298.749	9.583	-0.103	-0.078
-297.735	-93.971	-0.187	-0.051
-296.720	100.761	0.298	-0.346
-295.705	213.866	-0.049	0.077
-294.691	46.158	-0.137	0.126
-293.676	6.642	0.073	-0.054
-292.662	-200.000	-0.026	0.227
-291.647	-147.472	-0.081	-0.007
-290.632	-123.755	0.119	-0.019
-289.618	800.000	0.040	0.170
-288.603	733.016	0.037	-0.100
-287.589	36.722	-0.175	-0.154
-286.574	133.499	-0.065	-0.084
-285.559	-200.000	-0.062	-0.345
-284.545	108.674	0.055	0.066
-283.530	-44.589	0.151	0.076
-282.516	800.000	-0.042	0.180
-281.501	-200.000	-0.015	0.371
-280.486	-58.673	0.064	0.028
-279.472	-200.000	-0.020	-0.089
-278.457	-138.832	-0.163	0.018
-277.443	360.826	-0.048	-0.096
-276.428	-29.416	0.207	0.118
-275.413	-0.807	0.089	0.063
-274.399	356.982	0.018	0.036
-273.384	-41.373	0.187	-0.096
-272.370	800.000	-0.032	-0.117
-271.355	-112.800	-0.157	-0.031
-270.340	-103.762	0.159	0.037
-269.326	26.209	-0.098	0.082
-268.311	135.949	0.090	0.116
-267.297	104.457	-0.096	0.113
-266.282	-200.000	0.006	-0.180
-265.267	-200.000	0.012	0.129
-264.253	30.072	0.329	-0.280
-263.238	249.577	-0.173	0.292
-262.224	-81.097	-0.085	-0.028
-261.209	-122.947	-0.181	0.029
-260.195	-200.000	0.009	0.067
-259.180	243.946	-0.094	0.157
-258.165	-147.128	0.323	-0.028
-257.151	209.187	-0.033	-0.052
-256.136	296.746	0.113	0.207
-255.122	-43.613	-0.086	-0.043
-254.107	-143.379	0.094	0.009
-253.092	-166.207	0.283	0.012
-252.078	49.210	0.174	0.163
-251.063	55.258	-0.115	-0.111
-250.049	-22.481	-0.285	-0.172
-249.034	393.949	0.002	-0.004
-248.019	800.000	-0.055	0.178
-247.005	212.426	0.226	0.356
-245.990	-156.063	-0.076	0.005
-244.976	368.906	0.113	0.227
-243.961	-37.024	0.117	-0.063
-242.946	-200.000	0.003	-0.137
-241.932	-200.000	0.073	0.450
-240.917	-106.770	-0.493	-0.109
-239.903	293.862	0.125	0.228
-238.888	-200.000	-0.013	0.141
-237.873	47.553	0.224	0.208
-236.859	42.492	0.419	0.380
-235.844	508.272	0.095	0.220
-234.830	61.787	-0.146	0.145
-233.815	-124.834	0.299	0.046
-232.800	67.611	-0.112	0.114
-231.786	800.000	-0.072	-0.308
-230.771	100.584	0.101	0.117
-229.757	-91.786	-0.145	0.041
-228.742	94.770	-0.030	-0.034
-227.727	-63.664	-0.084	0.034
-226.713	-200.000	0.009	0.285
-225.698	113.211	0.076	-0.091
-224.684	800.000	-0.007	0.031
-223.669	17.264	0.069	-0.055
-222.655	319.146	-0.162	-0.305
-221.640	-200.000	0.011	-0.404
-220.625	-7.821	-0.074	-0.050
-219.611	134.715	-0.069	0.089
-218.596	-200.000	-0.013	-0.236
-217.582	-101.198	-0.163	0.040
-216.567	800.000	0.034	0.119
-215.552	15.747	-0.133	-0.104
-214.538	499.693	-0.014	0.031
-213.523	-33.254	0.060	-0.033
-212.509	-90.940	-0.093	-0.027
-211.494	241.607	-0.214	0.356
-210.479	354.844	0.063	-0.125
-209.465	-47.951	0.307	0.148
-208.450	-200.000	-0.021	0.282
-207.436	417.824	-0.088	-0.188
-206.421	-200.000	0.059	-0.261
-205.406	182.816	-0.167	0.245
-204.392	81.156	-0.026	0.028
-203.377	800.000	-0.081	0.280
-202.363	-35.602	-0.194	-0.105
-201.348	-134.431	0.266	0.032
-200.333	-135.620	0.303	-0.036
-199.319	-24.245	0.243	-0.144
-198.304	303.645	0.060	-0.110
-197.290	-117.435	0.303	-0.054
-196.275	57.418	0.183	-0.178
-195.260	-200.000	0.019	0.190
-194.246	-32.475	0.095	-0.053
-193.231	778.364	0.086	0.233
-192.217	-100.004	0.236	0.059
-191.202	37.810	-0.117	-0.104
-190.187	133.796	0.219	-0.281
-189.173	19.366	-0.420	0.336
-188.158	-141.775	0.066	0.007
-187.144	87.943	-0.152	-0.167
-186.129	20.912	-0.138	0.111
-185.114	-172.265	-0.114	0.004
-184.100	136.755	0.056	0.073
-183.085	-93.505	0.173	0.048
-182.071	244.012	-0.123	-0.206
-181.056	63.499	0.174	-0.173
-180.042	800.000	-0.061	-0.180
-179.027	-200.000	0.009	-0.117
-178.012	-79.169	0.139	0.047
-176.998	59.125	-0.096	-0.094
-175.983	101.681	0.249	-0.288
-174.969	148.034	-0.149	-0.200
-173.954	-30.649	-0.092	0.052
-172.939	129.557	-0.233	-0.296
-171.925	13.920	0.126	0.097
-170.910	-104.691	0.082	0.019
-169.896	15.796	0.197	-0.154
-168.881	-200.000	0.088	0.000
-167.866	-159.112	-0.253	0.014
-166.852	364.381	-0.281	0.561
-165.837	-27.040	-0.249	0.144
-164.823	800.000	-0.077	-0.231
-163.808	-131.723	-0.292	0.038
-162.793	3.012	-0.163	-0.117
-161.779	-83.156	-0.216	0.069
-160.764	252.529	0.076	0.129
-159.750	-200.000	-0.022	0.000
-158.735	-38.925	0.127	-0.066
-157.720	-121.710	-0.170	-0.028
-156.706	800.000	0.054	0.171
-155.691	696.676	-0.021	-0.055
-154.677	-200.000	-0.024	-0.172
-153.662	225.586	-0.110	-0.177
-152.647	-200.000	-0.004	-0.035
-151.633	-17.018	0.288	0.180
-150.618	427.231	0.105	0.225
-149.604	92.278	0.365	-0.408
-148.589	-85.627	0.089	-0.028
-147.574	194.390	0.039	-0.059
-146.560	51.573	0.287	-0.271
-145.545	-6.043	0.183	0.124
-144.531	65.456	0.100	-0.101
-143.516	37.655	0.198	0.175
-142.502	363.962	0.085	-0.169
-141.487	800.000	0.139	-0.547
-140.472	204.662	0.114	-0.176
-139.458	800.000	0.066	0.183
-138.443	800.000	-0.041	0.161
-137.429	-200.000	0.048	-0.252
-136.414	-107.671	0.320	-0.069
-135.399	145.142	-0.198	-0.262
-134.385	85.666	0.111	0.121
-133.370	-200.000	-0.003	0.158
-132.356	76.033	-0.104	0.109
-131.341	800.000	0.101	0.410
-130.326	91.430	0.179	-0.199
-129.312	-62.094	0.429	-0.178
-128.297	800.000	-0.084	-0.276
-127.283	-200.000	-0.047	-0.250
-126.268	-121.701	-0.130	-0.021
-125.253	-104.804	-0.027	-0.006
-124.239	298.719	-0.102	0.187
-123.224	-45.329	0.385	0.190
-122.210	-143.111	-0.080	0.008
