DTS Sentinel unit serial number:	SN413079Multiplexer serial number:	ORYXHardware model number:	OX4-SRSoftware version number:	ORYX F/W v4.00 Oryx Data Collector v3.7.2.0data status	okinstallation	princeton_trtdifferential loss correction	single-endedforward channel	channel 4reverse channel	N/Adate	2019/09/19time	07:37:34forward acquisition time	60.00reverse acquisition time	0.00gamma	496.2192k internal	0.2340k external	0.2340temperature offset calibration	1.0022default loss term (dB/km)	0.3790temperature slope calibration	1.0000multiplexer offset coefficient	1.0000multiplexer slope coefficient	1.0000fibre end	0.00T internal ref (°C)	19.37T ext. ref 1 (°C)	0.55T ext. ref 2 (°C)	14.52length (m)	temperature (°C)	Stokes	anti-Stokes-747.200	800.000	0.023	0.085
-746.185	576.567	0.076	0.185
-745.171	-91.648	-0.064	0.018
-744.156	18.627	-0.143	0.115
-743.142	800.000	0.023	-0.091
-742.127	-31.888	-0.384	0.216
-741.112	762.087	-0.071	-0.193
-740.098	4.782	-0.075	0.056
-739.083	268.818	0.085	-0.149
-738.069	82.131	0.061	-0.067
-737.054	104.642	-0.064	-0.076
-736.039	-96.575	-0.314	0.083
-735.025	-30.210	-0.105	-0.060
-734.010	-116.640	-0.194	0.036
-732.996	-200.000	-0.064	-0.321
-731.981	-200.000	-0.080	-0.544
-730.966	-159.303	-0.496	0.028
-729.952	-200.000	0.022	-0.361
-728.937	115.907	0.102	0.125
-727.923	249.311	-0.027	-0.046
-726.908	-13.573	-0.183	0.119
-725.894	188.675	0.097	0.146
-724.879	-103.766	-0.145	0.034
-723.864	800.000	0.082	-0.261
-722.850	181.785	0.104	-0.154
-721.835	-200.000	-0.022	-0.114
-720.821	800.000	0.042	-0.142
-719.806	237.632	0.053	-0.089
-718.791	137.208	-0.110	0.144
-717.777	-200.000	-0.005	-0.223
-716.762	-200.000	-0.030	0.212
-715.748	-64.859	-0.354	-0.143
-714.733	61.568	0.061	-0.061
-713.718	55.760	-0.061	0.059
-712.704	115.170	-0.059	-0.072
-711.689	800.000	-0.066	-0.243
-710.675	-47.418	-0.101	-0.049
-709.660	-16.290	-0.115	-0.073
-708.645	-45.014	0.106	0.053
-707.631	-22.116	-0.207	-0.126
-706.616	-200.000	-0.008	0.245
-705.602	-7.572	0.220	-0.149
-704.587	800.000	0.099	-0.277
-703.572	-88.331	0.157	-0.047
-702.558	340.547	0.087	-0.170
-701.543	118.743	-0.079	-0.098
-700.529	500.809	0.010	0.022
-699.514	-110.598	-0.053	0.011
-698.499	95.249	0.050	0.057
-697.485	203.980	0.024	-0.037
-696.470	-102.120	-0.164	-0.039
-695.456	-87.009	-0.201	0.061
-694.441	-22.087	0.282	0.171
-693.426	-48.039	0.253	0.122
-692.412	800.000	-0.084	0.344
-691.397	-200.000	-0.027	-0.154
-690.383	69.130	0.081	0.083
-689.368	-37.766	-0.233	-0.124
-688.354	-158.182	-0.344	-0.020
-687.339	-10.720	0.159	0.105
-686.324	-200.000	0.028	-0.169
-685.310	171.547	0.157	0.225
-684.295	-98.716	-0.361	0.092
-683.281	-200.000	-0.002	0.125
-682.266	-200.000	0.054	0.315
-681.251	-200.000	-0.017	0.282
-680.237	401.339	-0.120	-0.251
-679.222	-66.462	0.405	0.161
-678.208	223.167	-0.084	0.135
-677.193	128.831	-0.259	-0.330
-676.178	-200.000	0.014	0.074
-675.164	179.539	-0.118	0.173
-674.149	-100.375	-0.454	0.113
-673.135	-200.000	-0.024	-0.184
-672.120	-200.000	-0.037	0.244
-671.105	-72.630	-0.173	-0.064
-670.091	209.377	0.042	-0.066
-669.076	192.677	-0.081	0.123
-668.062	-132.836	-0.167	-0.021
-667.047	-15.992	0.053	0.034
-666.032	-94.952	-0.165	-0.045
-665.018	-200.000	0.043	0.473
-664.003	-153.051	0.173	-0.012
-662.989	212.156	-0.113	0.178
-661.974	-200.000	0.030	-0.210
-660.959	179.364	0.077	-0.113
-659.945	52.596	0.083	-0.079
-658.930	1.886	0.206	-0.149
-657.916	-75.574	0.123	0.044
-656.901	-17.113	-0.267	0.168
-655.886	800.000	-0.096	0.286
-654.872	-163.222	0.142	-0.007
-653.857	40.131	0.203	0.182
-652.843	351.890	-0.066	0.130
-651.828	584.459	0.122	0.300
-650.814	-137.607	-0.181	0.020
-649.799	202.968	-0.181	-0.280
-648.784	-200.000	0.058	0.501
-647.770	-124.257	0.256	0.040
-646.755	-54.710	-0.041	-0.018
-645.741	12.325	0.209	-0.161
-644.726	-114.540	-0.096	0.018
-643.711	800.000	0.092	0.258
-642.697	69.576	-0.101	-0.104
-641.682	-200.000	-0.058	-0.268
-640.668	-200.000	0.001	0.016
-639.653	-95.159	-0.339	0.091
-638.638	-37.506	-0.155	0.082
-637.624	800.000	0.101	-0.425
-636.609	574.932	-0.093	0.226
-635.595	-26.802	0.161	-0.094
-634.580	1.192	-0.268	-0.192
-633.565	-79.912	-0.141	-0.047
-632.551	69.875	-0.283	-0.291
-631.536	-18.342	0.116	0.073
-630.522	-35.699	0.063	-0.034
-629.507	-200.000	0.045	0.257
-628.492	207.396	0.089	-0.139
-627.478	-126.241	0.259	-0.039
-626.463	-200.000	-0.019	0.103
-625.449	126.610	0.047	-0.060
-624.434	-200.000	0.004	-0.180
-623.419	125.986	-0.179	0.226
-622.405	527.418	-0.038	-0.089
-621.390	800.000	0.161	-0.464
-620.376	-17.928	-0.092	-0.057
-619.361	-200.000	-0.059	-0.325
-618.346	-200.000	-0.018	-0.094
-617.332	800.000	-0.122	0.480
-616.317	357.995	-0.153	-0.304
-615.303	-44.138	0.269	0.135
-614.288	166.570	-0.184	0.261
-613.273	154.156	0.097	-0.133
-612.259	164.728	0.082	-0.115
-611.244	-75.193	-0.376	-0.134
-610.230	-42.845	-0.155	0.079
-609.215	54.880	0.209	-0.202
-608.201	617.495	0.118	-0.296
-607.186	40.776	-0.190	0.171
-606.171	800.000	-0.037	-0.118
-605.157	8.269	-0.265	0.199
-604.142	-200.000	-0.038	-0.189
-603.128	800.000	-0.070	0.229
-602.113	-200.000	0.005	0.199
-601.098	432.326	-0.067	0.144
-600.084	-117.028	-0.195	-0.035
-599.069	-162.542	-0.145	0.007
-598.055	-0.527	0.114	0.081
-597.040	242.382	0.054	-0.090
-596.025	752.776	-0.027	-0.074
-595.011	800.000	0.019	-0.067
-593.996	-111.564	0.244	-0.049
-592.982	-188.315	-0.129	-0.002
-591.967	66.977	0.250	-0.254
-590.952	-15.720	-0.025	0.016
-589.938	-200.000	-0.011	0.053
-588.923	0.353	0.320	-0.228
-587.909	3.292	-0.084	0.061
-586.894	-34.024	-0.245	0.134
-585.879	-16.384	-0.164	0.104
-584.865	-111.042	-0.247	0.051
-583.850	-57.870	0.110	-0.048
-582.836	-200.000	-0.059	-0.266
-581.821	-154.790	-0.409	0.027
-580.806	8.353	0.189	0.142
-579.792	-1.608	-0.159	0.112
-578.777	-200.000	0.009	-0.181
-577.763	638.495	-0.019	0.048
-576.748	19.084	-0.212	0.169
-575.733	71.432	0.124	0.128
-574.719	-200.000	-0.018	-0.216
-573.704	42.239	0.048	0.043
-572.690	-71.669	-0.205	0.076
-571.675	78.314	0.490	-0.522
-570.661	16.109	-0.415	0.326
-569.646	-43.055	0.337	0.170
-568.631	-80.619	0.234	-0.078
-567.617	800.000	-0.051	0.182
-566.602	-200.000	-0.013	-0.119
-565.588	-200.000	0.025	-0.176
-564.573	-157.765	-0.140	-0.008
-563.558	-110.109	-0.264	0.055
-562.544	-200.000	-0.031	0.394
-561.529	-200.000	0.035	0.294
-560.515	-200.000	-0.075	0.574
-559.500	-200.000	0.036	-0.172
-558.485	-200.000	0.004	-0.250
-557.471	800.000	-0.113	-0.359
-556.456	312.269	-0.051	-0.095
-555.442	800.000	0.107	-0.363
-554.427	-3.891	-0.170	-0.118
-553.412	74.141	-0.184	-0.192
-552.398	51.558	0.319	0.302
-551.383	800.000	0.163	-0.485
-550.369	-26.980	0.310	0.180
-549.354	800.000	-0.042	0.136
-548.339	-172.725	-0.166	-0.005
-547.325	228.068	0.108	-0.174
-546.310	-169.038	0.220	0.008
-545.296	-200.000	-0.081	-0.373
-544.281	-73.312	-0.441	-0.161
-543.266	-67.230	-0.200	0.078
-542.252	-50.279	0.041	-0.019
-541.237	800.000	-0.058	-0.230
-540.223	-200.000	-0.049	0.402
-539.208	185.988	-0.134	-0.199
-538.193	-113.798	-0.355	0.069
-537.179	158.433	-0.147	-0.203
-536.164	-89.442	0.334	-0.098
-535.150	-47.896	0.137	0.066
-534.135	-106.438	-0.118	0.026
-533.121	-138.793	-0.417	-0.045
-532.106	-18.790	0.250	-0.155
-531.091	199.737	0.234	-0.357
-530.077	800.000	-0.021	-0.064
-529.062	-200.000	0.015	0.278
-528.048	-108.708	0.172	-0.037
-527.033	800.000	0.075	0.317
-526.018	-58.879	-0.349	-0.150
-525.004	-133.304	0.085	-0.011
-523.989	122.078	0.091	0.113
-522.975	20.403	0.103	0.083
-521.960	800.000	0.066	-0.246
-520.945	529.745	0.111	0.261
-519.931	800.000	0.073	-0.280
-518.916	-200.000	-0.087	-0.496
-517.902	800.000	0.070	0.258
-516.887	-200.000	-0.057	0.248
-515.872	643.484	0.095	-0.241
-514.858	-106.089	-0.021	0.005
-513.843	350.041	0.126	-0.248
-512.829	-66.235	-0.155	0.061
-511.814	800.000	0.093	0.381
-510.799	-200.000	0.008	-0.107
-509.785	-31.614	-0.064	-0.036
-508.770	800.000	-0.024	-0.078
-507.756	36.776	-0.178	-0.156
-506.741	66.003	-0.171	0.172
-505.726	-31.714	0.112	-0.062
-504.712	25.934	0.048	0.040
-503.697	-2.839	0.282	0.196
-502.683	76.439	-0.112	-0.117
-501.668	-200.000	-0.039	0.204
-500.653	-50.264	0.326	0.153
-499.639	-200.000	0.001	-0.233
-498.624	232.094	0.082	-0.134
-497.610	-54.479	-0.115	-0.052
-496.595	101.408	-0.164	0.189
-495.581	153.026	0.115	0.156
-494.566	280.905	0.120	-0.213
-493.551	27.809	-0.169	0.142
-492.537	-24.809	-0.234	0.138
-491.522	-11.170	0.222	0.146
-490.508	107.256	-0.064	-0.075
-489.493	59.155	0.256	0.250
-488.478	111.314	0.181	0.216
-487.464	548.784	0.095	0.226
-486.449	-80.661	0.087	-0.029
-485.435	36.904	-0.311	-0.273
-484.420	-108.062	0.037	0.008
-483.405	163.381	-0.167	-0.233
-482.391	536.380	0.080	-0.190
-481.376	169.270	-0.024	-0.034
-480.362	800.000	0.114	0.356
-479.347	-149.142	-0.156	-0.012
-478.332	-200.000	0.003	0.043
-477.318	-200.000	-0.046	-0.242
-476.303	4.159	-0.364	-0.265
-475.289	800.000	0.147	-0.451
-474.274	113.391	-0.318	-0.383
-473.259	-200.000	0.027	0.346
-472.245	109.657	0.114	-0.136
-471.230	453.560	-0.120	-0.264
-470.216	-104.900	0.146	0.033
-469.201	-136.629	0.412	0.047
-468.186	-200.000	0.002	0.055
-467.172	-200.000	-0.002	-0.102
-466.157	-45.644	0.323	0.159
-465.143	256.638	0.123	0.209
-464.128	57.741	0.208	-0.201
-463.113	-55.940	0.236	0.105
-462.099	190.666	-0.056	-0.084
-461.084	800.000	0.024	-0.075
-460.070	-113.896	-0.368	-0.071
-459.055	-186.660	-0.339	0.005
-458.040	-113.133	0.092	-0.018
-457.026	-9.584	0.035	-0.023
-456.011	30.301	-0.085	0.072
-454.997	-66.775	0.267	-0.105
-453.982	-181.131	0.231	-0.005
-452.968	442.724	0.119	0.259
-451.953	800.000	0.022	-0.081
-450.938	800.000	0.021	-0.068
-449.924	-84.653	-0.143	-0.045
-448.909	-150.322	-0.068	0.005
-447.895	-91.566	0.119	0.034
-446.880	152.686	-0.058	0.079
-445.865	-200.000	0.005	0.107
-444.851	-139.835	-0.375	-0.039
-443.836	230.231	0.091	-0.148
-442.822	50.054	-0.191	0.179
-441.807	-9.047	0.087	0.058
-440.792	-200.000	0.023	-0.127
-439.778	73.109	0.153	-0.159
-438.763	-3.884	-0.110	-0.076
-437.749	115.714	-0.100	-0.121
-436.734	14.953	-0.158	-0.123
-435.719	26.721	0.063	-0.052
-434.705	-200.000	-0.002	-0.010
-433.690	-31.659	-0.032	-0.018
-432.676	-200.000	0.040	-0.271
-431.661	-47.926	0.213	-0.102
-430.646	-78.007	0.232	-0.079
-429.632	-52.116	0.295	0.136
-428.617	-200.000	-0.018	-0.422
-427.603	23.530	0.170	-0.138
-426.588	800.000	-0.059	0.199
-425.573	-106.803	-0.123	0.027
-424.559	397.011	0.020	-0.041
-423.544	-200.000	-0.039	0.303
-422.530	-94.520	-0.312	-0.084
-421.515	-200.000	-0.014	0.114
-420.500	-36.154	-0.226	-0.121
-419.486	-117.375	-0.201	-0.036
-418.471	-110.272	-0.193	-0.040
-417.457	467.663	0.147	0.325
-416.442	800.000	0.038	0.139
-415.428	-200.000	0.036	-0.245
-414.413	-200.000	0.001	-0.122
-413.398	-60.613	-0.366	-0.154
-412.384	-23.231	0.247	-0.147
-411.369	131.112	-0.137	-0.174
-410.355	-72.738	-0.465	0.170
-409.340	-42.782	0.206	0.104
-408.325	122.302	0.100	0.124
-407.311	-54.095	0.078	0.035
-406.296	117.524	0.072	-0.088
-405.282	-200.000	-0.001	-0.069
-404.267	162.846	-0.169	-0.235
-403.252	-40.461	-0.333	-0.171
-402.238	800.000	-0.023	0.088
-401.223	-200.000	0.081	-0.388
-400.209	130.569	-0.222	0.282
-399.194	-21.015	-0.242	0.147
-398.179	81.329	-0.261	0.279
-397.165	138.413	0.141	0.183
-396.150	123.692	-0.156	0.194
-395.136	103.942	-0.181	0.210
-394.121	-125.625	0.357	-0.054
-393.106	215.357	-0.179	-0.280
-392.092	11.030	-0.164	0.124
-391.077	617.958	0.037	0.093
-390.063	-195.679	-0.374	0.003
-389.048	-200.000	0.001	0.047
-388.033	58.213	0.065	-0.063
-387.019	637.411	0.064	-0.160
-386.004	-95.464	0.408	-0.108
-384.990	14.767	0.097	0.075
-383.975	-200.000	0.009	0.114
-382.960	-58.948	0.242	0.103
-381.946	-200.000	0.002	-0.140
-380.931	5.109	-0.294	0.214
-379.917	-10.724	-0.255	-0.166
-378.902	800.000	0.055	-0.183
-377.888	-200.000	-0.063	0.402
-376.873	-122.051	0.082	0.013
-375.858	-173.616	-0.226	0.007
-374.844	-83.262	-0.161	-0.051
-373.829	-20.912	-0.050	0.030
-372.815	800.000	0.073	0.223
-371.800	-54.672	0.133	-0.059
-370.785	800.000	-0.091	0.263
-369.771	-200.000	-0.018	-0.303
-368.756	-200.000	-0.043	0.338
-367.742	473.556	0.024	-0.054
-366.727	216.740	-0.088	-0.139
-365.712	134.000	0.105	0.135
-364.698	-184.987	-0.278	0.004
-363.683	-200.000	-0.045	-0.243
-362.669	-45.186	0.303	-0.149
-361.654	-177.724	-0.217	-0.005
-360.639	-172.645	0.378	0.012
-359.625	26.543	-0.059	-0.048
-358.610	-77.908	0.277	0.094
-357.596	-128.327	-0.254	0.036
-356.581	800.000	0.028	0.104
-355.566	800.000	0.108	0.370
-354.552	-93.401	0.081	0.022
-353.537	-98.443	-0.260	-0.066
-352.523	-200.000	0.009	-0.076
-351.508	204.079	-0.133	0.204
-350.493	91.164	-0.139	-0.154
-349.479	-200.000	0.045	0.222
-348.464	-200.000	0.027	-0.249
-347.450	521.832	-0.101	-0.233
-346.435	-42.808	0.331	-0.166
-345.420	155.194	0.172	-0.234
-344.406	39.749	0.157	-0.139
-343.391	-123.865	-0.367	0.057
-342.377	-200.000	-0.070	0.316
-341.362	-71.809	0.293	0.108
-340.348	198.240	-0.212	0.320
-339.333	560.467	-0.053	-0.127
-338.318	103.055	0.377	0.436
-337.304	-75.255	0.155	-0.055
-336.289	292.905	-0.153	-0.275
-335.275	205.987	0.186	0.286
-334.260	101.009	-0.118	-0.135
-333.245	-36.491	-0.117	-0.062
-332.231	-89.157	0.155	-0.045
-331.216	65.512	-0.188	0.188
-330.202	-66.610	0.183	0.072
-329.187	-104.787	0.283	-0.064
-328.172	-200.000	0.012	-0.212
-327.158	364.019	0.146	-0.289
-326.143	45.197	-0.218	-0.199
-325.129	-32.093	-0.092	-0.051
-324.114	116.790	0.151	0.183
-323.099	-110.039	0.023	0.005
-322.085	92.254	-0.053	-0.059
-321.070	69.285	0.279	-0.283
-320.056	-44.999	-0.202	-0.099
-319.041	-88.763	0.358	-0.105
-318.026	-10.961	0.190	0.124
-317.012	-200.000	-0.034	0.207
-315.997	-200.000	0.021	0.090
-314.983	-200.000	0.031	0.141
-313.968	-78.294	0.094	0.032
-312.953	-8.721	-0.191	0.126
-311.939	36.142	-0.123	0.107
-310.924	-129.940	0.310	-0.042
-309.910	85.625	0.077	0.084
-308.895	-92.945	0.221	0.061
-307.880	110.476	0.148	0.175
-306.866	108.838	-0.133	-0.157
-305.851	62.640	-0.213	0.210
-304.837	-54.609	-0.135	-0.060
-303.822	406.411	-0.157	-0.326
-302.807	-138.223	0.178	0.019
-301.793	-24.361	-0.234	-0.137
-300.778	-13.783	0.328	0.209
-299.764	-200.000	0.051	0.318
-298.749	321.833	0.228	-0.427
-297.735	-200.000	0.073	0.366
-296.720	-200.000	-0.009	0.215
-295.705	54.755	0.092	0.087
-294.691	150.421	0.138	0.185
-293.676	36.831	-0.099	-0.086
-292.662	37.630	-0.284	0.248
-291.647	63.246	-0.224	0.221
-290.632	-177.428	0.141	-0.003
-289.618	-200.000	-0.000	-0.196
-288.603	93.388	-0.057	0.064
-287.589	-113.264	-0.138	-0.027
-286.574	-200.000	-0.032	0.393
-285.559	-4.890	-0.210	0.142
-284.545	-200.000	0.019	-0.241
-283.530	60.199	0.230	0.224
-282.516	23.635	0.228	-0.185
-281.501	-200.000	-0.028	0.162
-280.486	460.031	0.033	0.073
-279.472	-27.839	-0.161	-0.092
-278.457	-87.328	0.294	0.088
-277.443	-200.000	0.037	-0.248
-276.428	-43.220	-0.129	-0.064
-275.413	102.686	0.232	0.267
-274.399	-186.609	0.223	-0.003
-273.384	-115.216	-0.159	-0.030
-272.370	-200.000	-0.039	0.273
-271.355	800.000	0.078	0.263
-270.340	-200.000	0.008	-0.254
-269.326	-40.578	0.131	-0.067
-268.311	-200.000	0.038	-0.250
-267.297	501.537	0.147	0.333
-266.282	26.226	-0.178	0.146
-265.267	92.893	0.145	-0.161
-264.253	50.741	0.168	0.157
-263.238	121.885	0.084	0.103
-262.224	-200.000	-0.038	-0.255
-261.209	14.282	-0.155	-0.119
-260.195	-15.675	0.100	0.063
-259.180	-27.937	0.231	-0.132
-258.165	291.987	-0.145	0.260
-257.151	132.420	-0.169	0.214
-256.136	-90.908	0.284	0.080
-255.122	213.543	0.089	0.138
-254.107	-138.034	0.238	-0.026
-253.092	-64.221	-0.120	-0.048
-252.078	-21.199	0.013	-0.008
-251.063	-83.413	0.265	0.084
-250.049	53.167	-0.109	-0.103
-249.034	-70.175	0.159	-0.060
-248.019	-15.017	-0.219	0.138
-247.005	100.339	-0.107	0.122
-245.990	220.911	-0.199	-0.314
-244.976	-157.552	-0.038	0.002
-243.961	800.000	0.069	0.207
-242.946	-183.346	0.252	0.004
-241.932	142.663	-0.063	-0.082
-240.917	-200.000	0.023	-0.191
-239.903	800.000	-0.070	-0.288
-238.888	247.715	-0.092	-0.153
-237.873	-200.000	0.011	0.097
-236.859	-72.587	-0.126	0.046
-235.844	175.233	0.084	0.120
-234.830	-123.477	0.087	-0.014
-233.815	-106.473	-0.132	-0.029
-232.800	18.714	0.180	0.141
-231.786	-61.126	-0.194	0.081
-230.771	143.680	0.167	-0.219
-229.757	-200.000	0.023	-0.191
-228.742	13.537	-0.149	0.114
-227.727	-44.870	-0.069	0.034
-226.713	-200.000	0.010	-0.066
-225.698	82.756	0.237	-0.253
-224.684	29.885	-0.106	-0.089
-223.669	525.346	-0.022	0.050
-222.655	-182.178	0.377	-0.007
-221.640	-200.000	-0.016	0.242
-220.625	25.489	-0.324	0.264
-219.611	-115.472	-0.162	-0.030
-218.596	-200.000	0.020	0.142
-217.582	389.433	-0.146	-0.297
-216.567	81.818	-0.187	0.199
-215.552	445.955	-0.096	0.208
-214.538	800.000	0.037	-0.111
-213.523	62.471	-0.076	-0.074
-212.509	-69.235	0.117	-0.044
-211.494	293.263	0.023	0.040
-210.479	800.000	0.086	-0.339
-209.465	-31.186	0.397	-0.220
-208.450	-37.376	-0.038	-0.020
-207.436	185.789	-0.125	0.183
-206.421	-200.000	0.014	0.125
-205.406	800.000	0.054	0.149
-204.392	54.764	-0.150	-0.142
-203.377	386.083	-0.150	-0.304
-202.363	-175.907	0.092	0.002
-201.348	264.363	-0.065	0.111
-200.333	-41.750	0.032	0.016
-199.319	67.213	0.265	0.265
-198.304	-23.745	0.276	0.162
-197.290	800.000	-0.054	-0.157
-196.275	-81.955	-0.285	-0.092
-195.260	296.355	-0.089	0.160
-194.246	-200.000	-0.034	0.316
-193.231	800.000	0.118	-0.325
-192.217	245.470	-0.225	0.371
-191.202	367.399	-0.097	0.193
-190.187	371.975	0.112	-0.223
-189.173	-56.856	-0.369	-0.160
-188.158	110.492	-0.210	0.248
-187.144	139.079	0.228	0.295
-186.129	-200.000	-0.014	-0.097
-185.114	800.000	0.078	-0.244
-184.100	-200.000	0.007	-0.269
-183.085	132.493	-0.105	0.133
-182.071	49.823	-0.022	0.020
-181.056	-97.604	0.281	0.071
-180.042	800.000	0.016	0.067
-179.027	17.495	-0.146	0.113
-178.012	800.000	0.057	0.157
-176.998	-37.613	-0.105	-0.055
-175.983	-147.565	0.200	0.016
-174.969	800.000	-0.016	-0.056
-173.954	-7.074	-0.444	0.296
-172.939	339.627	0.230	0.439
-171.925	558.389	-0.106	-0.250
-170.910	-200.000	0.013	-0.164
-169.896	-200.000	0.036	0.326
-168.881	111.896	-0.057	-0.068
-167.866	-40.155	-0.420	0.215
-166.852	-103.859	0.181	0.042
-165.837	-64.861	0.205	0.081
-164.823	4.218	0.238	-0.171
-163.808	208.000	0.169	-0.258
-162.793	-200.000	0.007	0.061
-161.779	44.949	0.171	0.155
-160.764	530.457	-0.144	-0.333
-159.750	30.744	0.218	-0.183
-158.735	286.168	0.138	0.244
-157.720	627.359	-0.049	-0.120
-156.706	32.550	0.286	0.242
-155.691	-200.000	-0.032	0.312
-154.677	465.253	0.112	0.245
-153.662	-43.725	0.405	0.200
-152.647	56.227	0.231	-0.220
-151.633	-100.045	-0.176	0.043
-150.618	-162.142	-0.356	0.018
-149.604	-132.751	-0.233	-0.029
-148.589	-150.786	0.239	-0.018
-147.574	145.396	0.090	-0.119
-146.560	800.000	-0.046	-0.162
-145.545	39.935	-0.312	-0.275
-144.531	800.000	-0.023	0.071
-143.516	-160.669	0.055	0.003
-142.502	-112.240	-0.293	-0.058
-141.487	-26.828	-0.190	0.109
-140.472	190.373	-0.115	0.169
-139.458	116.939	-0.160	-0.192
-138.443	-200.000	0.012	0.216
-137.429	71.283	-0.118	-0.119
-136.414	171.768	-0.156	0.219
-135.399	-200.000	-0.004	-0.137
-134.385	800.000	0.076	0.277
-133.370	-200.000	-0.033	0.155
-132.356	227.785	-0.116	-0.184
-131.341	-115.742	-0.220	-0.040
-130.326	25.658	-0.146	0.119
-129.312	110.949	0.268	0.316
-128.297	110.729	-0.055	0.064
-127.283	800.000	0.072	-0.293
-126.268	187.683	-0.266	0.389
-125.253	-200.000	0.017	0.075
-124.239	-104.782	-0.117	-0.026
-123.224	35.800	0.349	0.300
-122.210	448.099	-0.070	0.150
