DTS Sentinel unit serial number:	SN413079Multiplexer serial number:	ORYXHardware model number:	OX4-SRSoftware version number:	ORYX F/W v4.00 Oryx Data Collector v3.7.2.0data status	okinstallation	princeton_trtdifferential loss correction	single-endedforward channel	channel 4reverse channel	N/Adate	2019/09/12time	19:50:18forward acquisition time	15.00reverse acquisition time	0.00gamma	496.2192k internal	0.2310k external	0.2310temperature offset calibration	1.0162default loss term (dB/km)	0.3790temperature slope calibration	1.0000multiplexer offset coefficient	1.0000multiplexer slope coefficient	1.0000fibre end	0.00T internal ref (°C)	31.94T ext. ref 1 (°C)	3.37T ext. ref 2 (°C)	26.50length (m)	temperature (°C)	Stokes	anti-Stokes-747.200	116.649	0.191	0.238
-746.185	-200.000	-0.174	-0.780
-745.171	157.917	0.825	1.161
-744.156	176.846	-0.435	0.642
-743.142	339.821	-0.090	0.179
-742.127	-114.020	0.641	0.126
-741.112	-62.581	0.621	0.262
-740.098	-200.000	0.053	-0.348
-739.083	-68.542	0.721	-0.284
-738.069	800.000	-0.063	0.273
-737.054	800.000	-0.072	0.231
-736.039	-42.223	-0.629	0.327
-735.025	15.446	0.178	-0.142
-734.010	9.440	-0.447	-0.344
-732.996	190.221	0.140	0.214
-731.981	11.876	0.231	0.180
-730.966	800.000	0.118	0.491
-729.952	295.587	-0.409	-0.761
-728.937	25.212	-0.479	-0.404
-727.923	-200.000	0.139	0.689
-726.908	-57.181	0.360	-0.161
-725.894	349.123	0.137	0.275
-724.879	161.025	-0.341	-0.483
-723.864	16.249	0.461	0.369
-722.850	-36.379	-1.060	-0.580
-721.835	330.934	-0.237	-0.463
-720.821	-24.059	0.629	-0.382
-719.806	-92.012	-0.752	0.216
-718.791	-200.000	0.027	-0.194
-717.777	153.870	-0.571	0.793
-716.762	103.189	-0.119	-0.141
-715.748	-23.890	-0.295	0.179
-714.733	68.523	0.362	0.376
-713.718	-169.951	-1.332	0.048
-712.704	259.138	0.261	0.457
-711.689	-200.000	-0.170	1.012
-710.675	-84.998	-0.683	-0.217
-709.660	124.894	-0.211	-0.270
-708.645	-200.000	-0.010	-0.226
-707.631	-75.201	0.868	0.315
-706.616	-81.828	-0.440	0.146
-705.602	-200.000	-0.036	-0.261
-704.587	-200.000	0.070	-0.638
-703.572	-75.349	0.770	-0.279
-702.558	-53.448	0.369	0.171
-701.543	543.546	0.165	-0.399
-700.529	619.857	-0.106	0.270
-699.514	800.000	-0.205	-0.702
-698.499	13.009	0.459	-0.360
-697.485	42.493	0.720	-0.664
-696.470	-166.319	-0.698	0.030
-695.456	-86.691	0.806	-0.250
-694.441	-30.899	0.415	0.238
-693.426	-55.234	0.696	-0.317
-692.412	208.421	0.046	-0.073
-691.397	-146.448	-0.903	-0.080
-690.383	-142.343	-0.534	-0.053
-689.368	-88.905	-0.428	-0.129
-688.354	-153.447	0.756	-0.053
-687.339	-200.000	-0.170	1.178
-686.324	-103.702	-0.577	0.137
-685.310	-140.275	0.253	-0.027
-684.295	357.279	-0.142	-0.286
-683.281	-148.095	-0.255	-0.021
-682.266	-53.666	0.678	-0.314
-681.251	-102.323	-0.272	0.066
-680.237	800.000	0.357	-1.269
-679.222	134.516	-0.211	0.277
-678.208	-42.530	0.593	-0.306
-677.193	-52.327	0.066	-0.031
-676.178	443.412	0.394	0.876
-675.164	-108.932	0.567	0.123
-674.149	487.529	-0.140	-0.322
-673.135	-65.747	-0.620	0.251
-672.120	-119.137	1.224	0.217
-671.105	131.472	0.409	0.532
-670.091	-144.951	0.283	-0.026
-669.076	-63.026	-0.584	-0.244
-668.062	800.000	0.080	0.315
-667.047	123.078	-0.370	-0.469
-666.032	800.000	-0.206	-0.646
-665.018	-55.240	-0.311	-0.141
-664.003	-200.000	0.020	-0.115
-662.989	498.113	-0.207	-0.483
-661.974	47.618	-0.233	-0.220
-660.959	218.614	0.362	-0.585
-659.945	-25.094	-0.375	-0.225
-658.930	-200.000	0.578	0.003
-657.916	219.572	0.544	0.881
-656.901	800.000	0.234	-1.005
-655.886	-200.000	-0.085	0.396
-654.872	-111.071	-0.130	0.027
-653.857	50.705	-0.227	-0.218
-652.843	-58.408	0.680	-0.299
-651.828	158.003	0.258	-0.362
-650.814	-97.416	-0.657	-0.173
-649.799	390.740	0.152	-0.319
-648.784	-11.610	0.314	-0.209
-647.770	52.814	-0.210	-0.204
-646.755	-50.632	-0.246	0.117
-645.741	176.751	-0.201	0.295
-644.726	-114.768	0.672	-0.130
-643.711	-127.274	0.349	0.052
-642.697	129.033	-0.229	0.295
-641.682	9.990	0.446	-0.343
-640.668	8.100	-0.434	-0.329
-639.653	-200.000	0.014	-0.141
-638.638	800.000	-0.164	0.638
-637.624	800.000	-0.089	-0.260
-636.609	-200.000	0.144	0.897
-635.595	-94.715	0.619	-0.170
-634.580	-37.489	-0.755	-0.407
-633.565	-58.299	0.745	-0.328
-632.551	-134.311	0.991	0.123
-631.536	-31.635	0.478	-0.271
-630.522	59.554	-0.719	0.717
-629.507	-200.000	-0.016	0.603
-628.492	-4.549	-0.551	-0.385
-627.478	328.365	-0.081	0.158
-626.463	800.000	-0.057	0.164
-625.449	257.820	0.530	0.923
-624.434	-200.000	-0.089	0.531
-623.419	-200.000	0.126	-0.603
-622.405	-87.725	0.308	-0.094
-621.390	-45.226	0.706	-0.355
-620.376	-200.000	0.059	-0.566
-619.361	-59.036	-0.183	0.080
-618.346	575.999	0.150	-0.371
-617.332	-77.965	-0.659	0.230
-616.317	800.000	-0.100	-0.408
-615.303	-109.546	-0.080	0.017
-614.288	-137.959	0.640	0.072
-613.273	-0.547	-0.162	0.116
-612.259	-90.701	0.738	-0.215
-611.244	144.706	-0.394	-0.532
-610.230	27.585	-0.671	0.570
-609.215	74.774	-0.354	-0.376
-608.201	-51.864	0.113	0.053
-607.186	800.000	0.265	0.875
-606.171	-49.759	0.222	0.107
-605.157	-65.371	-0.308	-0.125
-604.142	-91.502	0.609	0.175
-603.128	-200.000	0.003	0.236
-602.113	-200.000	-0.116	0.985
-601.098	-38.843	0.178	0.095
-600.084	-49.396	-0.585	-0.282
-599.069	-33.041	0.179	0.100
-598.055	11.724	0.418	-0.324
-597.040	-200.000	-0.021	-0.397
-596.025	524.120	0.114	0.270
-595.011	146.861	-0.018	-0.025
-593.996	800.000	-0.235	0.907
-592.982	-75.122	-0.314	-0.113
-591.967	6.541	0.458	-0.344
-590.952	800.000	-0.213	0.660
-589.938	383.347	0.328	-0.681
-588.923	-59.131	-0.257	0.112
-587.909	-28.977	-0.317	0.184
-586.894	-5.118	-0.105	-0.073
-585.879	-86.967	-0.897	0.276
-584.865	-85.919	-0.361	0.113
-583.850	-34.638	0.379	-0.209
-582.836	-9.369	-0.176	-0.119
-581.821	800.000	-0.115	-0.417
-580.806	71.701	-0.742	0.779
-579.792	497.070	0.153	-0.355
-578.777	322.793	-0.146	-0.281
-577.763	9.434	0.084	-0.064
-576.748	25.072	0.545	-0.456
-575.733	-164.968	0.648	0.029
-574.719	177.391	-0.344	0.505
-573.704	-113.775	0.269	0.053
-572.690	-40.156	-0.149	0.078
-571.675	-200.000	-0.003	-0.434
-570.661	-195.384	-0.581	-0.004
-569.646	723.292	-0.225	-0.604
-568.631	-200.000	-0.042	-0.225
-567.617	-186.436	0.148	0.002
-566.602	-127.884	0.396	0.058
-565.588	132.143	-0.512	-0.666
-564.573	-200.000	0.011	-0.285
-563.558	-13.475	-0.242	-0.158
-562.544	-111.735	0.059	0.012
-561.529	-200.000	0.005	0.114
-560.515	800.000	-0.135	0.413
-559.500	512.198	0.289	0.678
-558.485	683.911	0.063	-0.166
-557.471	-114.451	-0.235	-0.046
-556.456	800.000	0.208	0.799
-555.442	572.544	0.440	1.082
-554.427	-130.912	0.634	-0.086
-553.412	-25.214	-0.208	-0.124
-552.398	161.953	-0.329	-0.464
-551.383	49.942	0.246	0.234
-550.369	-113.940	-0.702	-0.137
-549.354	-68.656	-0.381	0.149
-548.339	185.913	0.458	0.686
-547.325	-95.031	-0.457	-0.124
-546.310	-55.830	0.547	-0.246
-545.296	-79.273	0.406	0.139
-544.281	187.360	-0.416	0.626
-543.266	-63.223	0.337	0.140
-542.252	180.512	0.049	0.072
-541.237	-200.000	0.047	-0.550
-540.223	291.587	0.430	0.788
-539.208	-160.847	-0.374	-0.020
-538.193	800.000	-0.416	1.218
-537.179	102.303	0.320	0.376
-536.164	-200.000	-0.015	0.665
-535.150	-52.957	0.331	0.153
-534.135	728.398	0.361	0.971
-533.121	166.719	0.414	0.591
-532.106	-68.433	-0.557	-0.218
-531.091	-20.645	0.229	-0.142
-530.077	-150.290	-0.730	-0.057
-529.062	-160.094	1.061	0.058
-528.048	-46.396	-0.038	-0.019
-527.033	-134.307	0.323	-0.040
-526.018	42.852	-0.187	-0.172
-525.004	-200.000	-0.015	-0.477
-523.989	7.005	0.320	0.240
-522.975	-86.044	0.668	0.208
-521.960	-200.000	0.106	-0.509
-520.945	99.860	0.804	-0.938
-519.931	-174.975	-0.462	0.013
-518.916	-9.838	-0.411	0.275
-517.902	-42.907	-0.766	0.391
-516.887	185.156	0.487	0.727
-515.872	-200.000	-0.001	-0.223
-514.858	-32.293	0.507	-0.285
-513.843	-200.000	-0.016	-0.084
-512.829	-46.239	0.359	0.178
-511.814	800.000	-0.211	-0.892
-510.799	711.629	-0.397	-1.058
-509.785	800.000	0.038	-0.143
-508.770	38.843	0.221	0.198
-507.756	-200.000	-0.017	-0.344
-506.741	800.000	-0.090	-0.266
-505.726	-15.540	-0.742	-0.477
-504.712	132.433	-0.577	0.748
-503.697	-200.000	-0.048	-0.424
-502.683	29.470	-0.097	0.083
-501.668	-200.000	-0.027	-0.186
-500.653	-200.000	-0.116	0.526
-499.639	78.352	0.254	0.273
-498.624	-121.139	-0.203	-0.034
-497.610	-200.000	0.098	0.864
-496.595	-169.753	-0.580	0.021
-495.581	240.424	-0.359	0.603
-494.566	582.923	-0.323	-0.797
-493.551	463.858	0.158	-0.356
-492.537	-200.000	-0.090	0.707
-491.522	-200.000	-0.099	-0.963
-490.508	30.270	0.616	-0.529
-489.493	211.910	0.268	0.425
-488.478	-200.000	-0.023	-0.512
-487.464	280.140	0.306	-0.550
-486.449	-56.147	-0.757	-0.339
-485.435	692.939	0.126	-0.333
-484.420	36.156	0.363	0.322
-483.405	-200.000	-0.043	0.668
-482.391	731.381	0.174	0.468
-481.376	-97.307	1.003	0.263
-480.362	-72.083	0.193	-0.072
-479.347	179.433	-0.438	-0.644
-478.332	-200.000	0.056	-0.462
-477.318	-60.565	0.973	0.415
-476.303	-61.444	-0.462	0.195
-475.289	-88.652	1.142	0.342
-474.274	25.059	-0.494	0.412
-473.259	-25.719	-0.703	-0.417
-472.245	94.069	0.613	0.699
-471.230	-42.505	-0.236	-0.121
-470.216	84.518	-0.168	0.185
-469.201	353.986	0.303	0.605
-468.186	800.000	-0.099	-0.425
-467.172	-59.170	-0.764	-0.331
-466.157	-125.299	0.690	-0.106
-465.143	-10.785	0.714	-0.474
-464.128	387.602	0.180	0.375
-463.113	-44.202	0.350	-0.176
-462.099	93.085	0.271	0.308
-461.084	-85.326	0.424	0.133
-460.070	-150.633	-0.390	-0.030
-459.055	161.826	0.184	0.258
-458.040	732.453	0.144	-0.387
-457.026	47.038	0.264	0.247
-456.011	220.536	-0.652	1.050
-454.997	-200.000	0.068	0.706
-453.982	800.000	-0.077	0.249
-452.968	189.871	-0.232	0.349
-451.953	-10.921	-0.656	-0.435
-450.938	-34.457	-0.413	0.227
-449.924	49.534	-0.290	-0.274
-448.909	-107.558	-0.706	0.155
-447.895	-200.000	0.017	0.559
-446.880	-119.350	0.561	-0.098
-445.865	143.311	0.187	-0.250
-444.851	-60.890	-0.135	-0.058
-443.836	-125.067	0.309	0.048
-442.822	-200.000	-0.072	-0.974
-441.807	-200.000	-0.103	0.491
-440.792	27.529	0.214	0.180
-439.778	640.645	-0.173	-0.442
-438.763	800.000	-0.159	-0.481
-437.749	-61.323	-0.172	-0.073
-436.734	-69.123	-0.204	-0.079
-435.719	-200.000	0.057	0.325
-434.705	-8.766	0.168	0.113
-433.690	105.501	-0.539	0.639
-432.676	-200.000	0.039	0.242
-431.661	159.908	-0.474	0.663
-430.646	-2.845	0.379	0.266
-429.632	457.877	-0.161	-0.359
-428.617	141.525	0.442	-0.587
-427.603	-83.121	1.156	-0.373
-426.588	-74.039	-0.865	0.315
-425.573	-200.000	-0.015	-0.300
-424.559	-56.944	0.325	0.144
-423.544	-200.000	-0.009	-0.191
-422.530	-200.000	0.007	0.511
-421.515	16.833	0.583	-0.463
-420.500	800.000	0.083	0.260
-419.486	68.649	-0.162	-0.167
-418.471	-200.000	0.090	0.440
-417.457	313.543	-0.328	0.618
-416.442	20.368	-0.401	0.325
-415.428	-134.406	-0.920	0.113
-414.413	-39.942	0.465	0.243
-413.398	182.211	-0.520	-0.768
-412.384	-27.004	-0.405	-0.237
-411.369	-146.664	0.703	-0.061
-410.355	-200.000	-0.159	-0.734
-409.340	240.826	0.320	-0.534
-408.325	-200.000	-0.013	-1.130
-407.311	-98.540	-0.470	-0.120
-406.296	183.557	0.540	-0.800
-405.282	-120.463	0.874	0.149
-404.267	-200.000	0.014	0.101
-403.252	-0.526	-0.415	-0.295
-402.238	-146.120	0.388	0.034
-401.223	110.560	0.463	0.558
-400.209	800.000	0.134	0.581
-399.194	-175.109	0.247	-0.007
-398.179	-53.444	-0.422	0.194
-397.165	-49.069	-0.801	-0.384
-396.150	137.585	-0.146	-0.192
-395.136	-156.617	0.600	-0.037
-394.121	-69.118	-0.820	0.316
-393.106	-200.000	0.064	-0.478
-392.092	162.307	0.096	-0.135
-391.077	-81.958	-0.485	-0.159
-390.063	132.628	0.613	0.793
-389.048	-200.000	-0.025	-0.340
-388.033	614.806	0.187	0.469
-387.019	155.935	-0.295	-0.407
-386.004	504.354	0.506	1.174
-384.990	-64.666	-0.641	-0.260
-383.975	800.000	0.171	-0.551
-382.960	-121.898	0.314	-0.052
-381.946	-183.186	0.434	0.008
-380.931	-152.891	0.587	-0.042
-379.917	-30.122	-0.618	0.352
-378.902	8.601	-0.309	-0.233
-377.888	-4.359	1.023	0.708
-376.873	-200.000	-0.023	0.652
-375.858	477.075	0.595	-1.348
-374.844	11.233	-0.478	-0.366
-373.829	-10.123	-0.289	0.192
-372.815	-37.384	1.065	0.569
-371.800	-80.367	0.422	-0.141
-370.785	-164.529	0.761	0.035
-369.771	-39.703	-0.958	-0.502
-368.756	56.000	-0.917	0.890
-367.742	-171.939	-0.649	0.021
-366.727	-157.396	-0.843	-0.051
-365.712	9.421	-0.415	-0.314
-364.698	-46.239	0.377	-0.186
-363.683	-117.837	1.258	0.226
-362.669	-31.109	0.516	0.291
-361.654	34.004	0.580	-0.505
-360.639	15.856	-0.283	0.223
-359.625	-95.806	-0.292	-0.078
-358.610	-200.000	-0.205	-0.988
-357.596	-13.127	-0.420	-0.273
-356.581	-137.289	0.772	0.088
-355.566	-47.689	0.767	0.372
-354.552	800.000	-0.168	0.538
-353.537	-10.705	-0.715	-0.473
-352.523	-196.318	1.130	-0.008
-351.508	261.467	-0.258	-0.446
-350.493	91.326	0.193	-0.217
-349.479	800.000	-0.146	-0.478
-348.464	800.000	-0.341	-0.955
-347.450	319.087	-0.146	-0.276
-346.435	-36.535	-0.605	-0.326
-345.420	-80.376	-0.173	0.058
-344.406	800.000	-0.079	0.255
-343.391	-111.614	-0.318	0.065
-342.377	-111.480	-0.574	-0.117
-341.362	604.291	0.263	-0.654
-340.348	-200.000	-0.563	0.003
-339.333	-146.151	-0.656	-0.058
-338.318	89.360	0.270	-0.301
-337.304	-200.000	0.101	0.757
-336.289	-200.000	0.013	0.599
-335.275	-200.000	-0.027	0.278
-334.260	30.352	0.145	0.124
-333.245	-200.000	-0.136	-0.603
-332.231	36.187	-0.286	0.252
-331.216	6.585	0.235	-0.175
-330.202	126.069	0.401	0.506
-329.187	-102.738	-0.451	-0.107
-328.172	-200.000	0.002	-0.039
-327.158	800.000	0.234	-0.723
-326.143	253.694	-0.317	-0.540
-325.129	73.008	-0.421	-0.440
-324.114	-57.050	-1.079	-0.475
-323.099	73.452	0.554	-0.580
-322.085	110.785	-0.446	0.536
-321.070	25.867	-0.289	0.241
-320.056	291.173	0.058	-0.105
-319.041	99.204	0.282	-0.325
-318.026	50.038	0.211	0.199
-317.012	-21.896	0.252	-0.153
-315.997	-200.000	0.074	-0.427
-314.983	-32.867	0.939	-0.521
-313.968	58.337	0.537	0.526
-312.953	-127.222	0.185	0.027
-311.939	-175.538	-0.399	0.011
-310.924	-113.822	0.542	-0.105
-309.910	-80.239	0.430	0.144
-308.895	21.915	0.081	0.066
-307.880	73.742	0.500	-0.524
-306.866	-64.786	-0.936	-0.379
-305.851	-12.350	-0.334	-0.218
-304.837	9.907	-0.096	-0.073
-303.822	-83.407	-0.904	0.289
-302.807	-18.268	0.367	0.229
-301.793	-194.351	-0.950	-0.008
-300.778	-200.000	-0.005	0.089
-299.764	285.581	-0.327	-0.588
-298.749	47.680	0.065	0.061
-297.735	142.611	0.279	0.370
-296.720	-31.233	-0.517	-0.291
-295.705	-20.792	0.020	0.012
-294.691	-31.022	-0.769	-0.433
-293.676	-85.830	0.426	0.132
-292.662	295.679	0.399	0.729
-291.647	8.340	0.710	0.533
-290.632	-200.000	-0.111	-0.825
-289.618	50.929	-0.108	-0.102
-288.603	115.017	-0.058	-0.071
-287.589	-93.341	-0.495	0.137
-286.574	288.200	0.301	0.543
-285.559	-200.000	-0.145	-1.003
-284.545	-200.000	-0.043	-0.379
-283.530	-200.000	-0.066	0.413
-282.516	-192.733	-0.854	-0.008
-281.501	33.081	0.281	0.243
-280.486	141.810	0.491	-0.649
-279.472	135.410	0.511	0.663
-278.457	417.650	-0.293	0.625
-277.443	130.013	-0.121	-0.155
-276.428	-200.000	-0.058	-0.727
-275.413	-200.000	0.042	-0.499
-274.399	144.230	0.284	-0.378
-273.384	74.912	-0.522	0.548
-272.370	-200.000	-0.001	0.255
-271.355	-13.492	0.504	-0.325
-270.340	-200.000	-0.056	0.996
-269.326	25.665	0.570	0.473
-268.311	-200.000	-0.185	0.855
-267.297	-4.953	0.385	-0.264
-266.282	52.282	0.383	-0.364
-265.267	800.000	-0.130	0.464
-264.253	209.187	0.037	-0.058
-263.238	800.000	-0.072	-0.245
-262.224	-31.821	0.535	0.299
-261.209	-131.908	-0.801	-0.104
-260.195	-37.121	0.711	-0.379
-259.180	441.002	-0.217	-0.473
-258.165	-200.000	-0.007	0.769
-257.151	-107.854	-0.463	0.100
-256.136	-63.908	-0.619	0.252
-255.122	-87.833	0.967	-0.290
-254.107	-78.003	0.266	0.091
-253.092	800.000	-0.239	-0.932
-252.078	800.000	-0.060	-0.236
-251.063	-200.000	-0.054	0.844
-250.049	231.710	0.120	0.196
-249.034	-200.000	0.018	-0.217
-248.019	152.615	-0.333	-0.453
-247.005	268.388	0.414	-0.723
-245.990	104.650	0.369	-0.433
-244.976	-200.000	0.120	-0.531
-243.961	-49.327	-0.957	0.455
-242.946	35.080	0.354	0.309
-241.932	800.000	0.146	0.444
-240.917	48.908	-0.340	0.318
-239.903	744.526	-0.054	-0.144
-238.888	7.878	0.711	0.531
-237.873	-99.112	-0.064	0.016
-236.859	-189.943	0.786	0.009
-235.844	658.811	-0.260	0.667
-234.830	144.570	0.387	0.515
-233.815	749.122	0.188	0.506
-232.800	-94.152	-0.285	-0.078
-231.786	-63.195	-0.357	-0.146
-230.771	234.923	-0.123	-0.203
-229.757	-102.476	0.477	0.114
-228.742	-130.995	0.786	0.104
-227.727	126.515	0.246	0.309
-226.713	-119.195	-0.924	0.160
-225.698	-200.000	0.128	-0.778
-224.684	-72.886	-0.633	0.232
-223.669	-69.966	0.752	0.285
-222.655	-104.661	1.199	-0.275
-221.640	-200.000	-0.122	0.679
-220.625	11.907	0.277	0.212
-219.611	800.000	-0.050	0.160
-218.596	262.331	-0.238	-0.411
-217.582	221.581	-0.409	0.654
-216.567	-132.386	0.559	0.072
-215.552	-76.166	-0.484	0.170
-214.538	-142.056	-0.315	-0.031
-213.523	800.000	-0.260	-0.859
-212.509	-200.000	0.067	-0.505
-211.494	-200.000	-0.067	-0.521
-210.479	362.481	-0.380	0.758
-209.465	-24.617	0.492	0.291
-208.450	-66.125	0.222	-0.088
-207.436	-173.520	-0.550	-0.016
-206.421	99.377	-0.271	-0.311
-205.406	-56.028	0.549	0.243
-204.392	-54.011	0.441	0.200
-203.377	174.460	0.446	-0.642
-202.363	-49.890	-0.991	-0.468
-201.348	-168.781	0.279	-0.010
-200.333	-109.757	-0.710	0.148
-199.319	-37.697	-0.344	0.182
-198.304	-16.164	-0.795	0.502
-197.290	-177.201	0.550	-0.014
-196.275	34.876	0.275	-0.239
-195.260	-200.000	0.010	-0.600
-194.246	593.751	-0.435	1.068
-193.231	111.100	-0.200	0.240
-192.217	76.473	-0.492	-0.518
-191.202	432.635	0.171	0.369
-190.187	363.234	-0.343	0.685
-189.173	-41.056	0.418	-0.215
-188.158	-200.000	-0.044	-0.708
-187.144	359.403	-0.288	-0.571
-186.129	189.363	-0.352	0.524
-185.114	800.000	-0.147	-0.402
-184.100	90.205	0.803	-0.892
-183.085	-41.979	-0.159	-0.081
-182.071	-49.021	0.871	-0.415
-181.056	19.007	-0.187	-0.149
-180.042	-91.287	-0.493	0.140
-179.027	-145.095	0.547	0.049
-178.012	-200.000	-0.027	-0.472
-176.998	-60.366	0.251	-0.106
-175.983	208.446	0.260	-0.403
-174.969	-75.909	-0.565	-0.198
-173.954	-156.217	-0.164	0.010
-172.939	754.549	0.171	-0.458
-171.925	-152.237	-0.426	-0.031
-170.910	66.737	-0.348	0.352
-169.896	186.726	0.384	0.569
-168.881	262.703	-0.057	-0.099
-167.866	102.532	-0.275	-0.319
-166.852	26.838	-0.339	0.282
-165.837	-200.000	-0.068	-0.298
-164.823	476.530	0.252	0.565
-163.808	-65.123	-0.737	0.295
-162.793	-119.696	-0.274	0.047
-161.779	-131.749	-0.374	-0.049
-160.764	421.532	-0.279	0.594
-159.750	144.889	0.175	-0.232
-158.735	-84.124	0.139	-0.044
-157.720	211.704	0.242	0.378
-156.706	195.376	0.263	-0.397
-155.691	-20.402	-0.340	0.208
-154.677	-118.997	-0.841	-0.146
-153.662	-17.594	-0.186	-0.116
-152.647	-168.466	-0.770	0.029
-151.633	-16.929	0.480	-0.301
-150.618	-200.000	-0.226	1.173
-149.604	1.836	-0.365	0.261
-148.589	106.624	0.784	0.923
-147.574	798.294	-0.192	0.524
-146.560	248.411	-0.342	-0.574
-145.545	-200.000	0.175	-1.112
-144.531	-74.658	0.492	0.176
-143.516	-98.695	0.313	0.079
-142.502	72.215	0.235	-0.243
-141.487	-32.578	-0.508	0.280
-140.472	26.749	0.148	0.123
-139.458	10.823	-0.107	-0.081
-138.443	62.541	0.127	0.125
-137.429	-66.165	0.173	0.069
-136.414	55.265	-0.396	0.380
-135.399	63.349	-0.381	-0.379
-134.385	-200.000	0.002	0.249
-133.370	366.855	0.106	0.211
-132.356	2.181	0.195	0.140
-131.341	-200.000	0.059	-0.908
-130.326	-70.535	0.167	0.063
-129.312	-149.585	-0.306	-0.024
-128.297	36.700	0.460	-0.403
-127.283	-108.319	0.147	-0.031
-126.268	351.577	0.126	-0.248
-125.253	219.015	0.047	0.074
-124.239	-15.063	0.273	-0.173
-123.224	180.248	0.305	-0.444
-122.210	12.323	-0.815	-0.622
