DTS Sentinel unit serial number:	SN413079Multiplexer serial number:	ORYXHardware model number:	OX4-SRSoftware version number:	ORYX F/W v4.00 Oryx Data Collector v3.7.2.0data status	okinstallation	princeton_trtdifferential loss correction	single-endedforward channel	channel 4reverse channel	N/Adate	2019/09/18time	20:29:34forward acquisition time	60.00reverse acquisition time	0.00gamma	496.2192k internal	0.2324k external	0.2324temperature offset calibration	1.0038default loss term (dB/km)	0.3790temperature slope calibration	1.0000multiplexer offset coefficient	1.0000multiplexer slope coefficient	1.0000fibre end	0.00T internal ref (°C)	28.31T ext. ref 1 (°C)	0.99T ext. ref 2 (°C)	19.19length (m)	temperature (°C)	Stokes	anti-Stokes-747.200	-200.000	-0.075	0.390
-746.185	800.000	-0.086	0.300
-745.171	8.680	0.140	0.107
-744.156	-165.688	0.071	0.003
-743.142	-134.029	-0.248	0.031
-742.127	572.759	-0.094	0.230
-741.112	-121.275	0.352	-0.059
-740.098	66.709	0.048	0.049
-739.083	243.535	0.122	0.207
-738.069	-85.179	-0.236	0.075
-737.054	159.426	0.169	0.237
-736.039	-200.000	0.042	0.245
-735.025	-98.905	0.401	-0.103
-734.010	-115.904	-0.276	0.052
-732.996	-34.456	0.060	-0.033
-731.981	-130.457	-0.222	-0.030
-730.966	-73.209	0.158	-0.058
-729.952	408.793	0.046	-0.098
-728.937	-46.463	0.085	-0.042
-727.923	800.000	0.027	0.099
-726.908	-151.753	-0.201	0.015
-725.894	-150.895	-0.194	-0.015
-724.879	-78.976	0.347	0.119
-723.864	149.702	0.149	-0.204
-722.850	30.567	0.146	-0.126
-721.835	-100.362	-0.391	-0.098
-720.821	-65.441	-0.089	-0.036
-719.806	-200.000	-0.004	-0.131
-718.791	800.000	-0.102	-0.343
-717.777	-2.813	0.248	-0.175
-716.762	-132.649	0.336	-0.043
-715.748	-148.385	0.099	-0.008
-714.733	-68.183	0.304	0.119
-713.718	-78.760	-0.209	-0.072
-712.704	-152.426	-0.096	0.007
-711.689	182.741	-0.039	-0.058
-710.675	285.925	0.099	0.181
-709.660	-73.918	0.144	0.053
-708.645	29.221	-0.157	0.134
-707.631	11.155	-0.247	0.190
-706.616	-142.828	0.224	-0.022
-705.602	800.000	-0.056	0.175
-704.587	-200.000	0.009	-0.172
-703.572	-135.017	0.183	0.022
-702.558	393.395	0.027	-0.056
-701.543	-77.921	0.077	-0.027
-700.529	-121.284	0.356	-0.060
-699.514	-110.146	0.163	0.034
-698.499	-156.756	-0.381	0.024
-697.485	-200.000	0.001	-0.064
-696.470	-78.799	0.109	-0.037
-695.456	-137.124	-0.295	0.034
-694.441	7.605	0.031	0.023
-693.426	282.167	0.173	-0.312
-692.412	-200.000	0.005	0.062
-691.397	101.222	-0.116	-0.136
-690.383	39.106	0.004	0.004
-689.368	264.738	-0.091	0.160
-688.354	-6.765	-0.244	-0.167
-687.339	-200.000	-0.018	0.432
-686.324	538.283	-0.085	-0.203
-685.310	-48.594	0.070	-0.034
-684.295	-122.044	0.053	0.009
-683.281	94.847	-0.052	0.059
-682.266	226.248	-0.141	-0.230
-681.251	-172.214	-0.449	0.015
-680.237	-200.000	0.007	0.206
-679.222	65.702	0.125	-0.127
-678.208	800.000	-0.085	0.347
-677.193	-75.535	-0.603	-0.216
-676.178	98.813	0.294	0.342
-675.164	-7.137	-0.104	-0.071
-674.149	70.455	0.134	0.140
-673.135	-156.488	-0.111	-0.007
-672.120	56.607	-0.135	0.132
-671.105	178.498	-0.136	-0.200
-670.091	-110.069	-0.182	0.038
-669.076	800.000	-0.158	-0.493
-668.062	-109.626	-0.209	0.044
-667.047	64.017	-0.095	0.096
-666.032	-103.307	0.276	0.066
-665.018	141.238	-0.256	-0.341
-664.003	294.419	-0.071	0.131
-662.989	-200.000	-0.038	0.215
-661.974	-42.715	-0.186	-0.095
-660.959	-175.661	0.208	-0.006
-659.945	800.000	-0.033	0.134
-658.930	-110.511	-0.039	0.008
-657.916	-142.815	-0.162	-0.016
-656.901	118.541	0.047	0.058
-655.886	-45.010	-0.262	-0.131
-654.872	-180.345	0.213	-0.004
-653.857	-200.000	-0.003	0.191
-652.843	259.081	0.033	0.058
-651.828	-42.760	-0.350	0.179
-650.814	721.281	0.020	0.053
-649.799	-9.789	-0.125	0.084
-648.784	187.143	0.257	-0.386
-647.770	183.534	-0.089	-0.132
-646.755	-117.607	-0.283	0.051
-645.741	-68.642	0.300	-0.117
-644.726	-156.878	0.069	0.004
-643.711	121.311	0.029	0.036
-642.697	-28.702	0.080	0.046
-641.682	-200.000	0.045	-0.339
-640.668	-200.000	0.004	-0.106
-639.653	27.787	0.067	-0.057
-638.638	-200.000	-0.015	-0.121
-637.624	-130.313	-0.327	0.045
-636.609	800.000	0.091	-0.258
-635.595	-198.111	-0.222	0.001
-634.580	426.564	-0.056	-0.121
-633.565	-39.019	0.155	-0.082
-632.551	-90.233	-0.020	0.006
-631.536	246.992	-0.044	0.075
-630.522	-200.000	-0.005	0.056
-629.507	-127.020	-0.195	-0.029
-628.492	193.141	0.200	0.303
-627.478	31.936	0.350	0.303
-626.463	-50.405	0.198	-0.094
-625.449	800.000	0.035	0.107
-624.434	699.206	-0.110	-0.291
-623.419	-110.928	0.085	-0.018
-622.405	-176.663	0.143	0.004
-621.390	41.544	0.169	0.154
-620.376	348.380	0.115	0.227
-619.361	-50.063	-0.176	0.084
-618.346	291.313	0.057	-0.104
-617.332	-200.000	0.021	-0.147
-616.317	800.000	-0.069	-0.255
-615.303	-42.228	-0.156	-0.080
-614.288	-200.000	-0.046	0.299
-613.273	248.143	0.089	-0.151
-612.259	-68.646	0.098	0.038
-611.244	-200.000	0.048	-0.330
-610.230	-57.701	0.389	-0.171
-609.215	800.000	-0.054	0.169
-608.201	-100.404	-0.282	0.070
-607.186	256.355	-0.065	-0.111
-606.171	40.355	0.202	-0.182
-605.157	-120.535	-0.145	0.025
-604.142	94.655	0.150	0.172
-603.128	-36.401	-0.095	0.051
-602.113	744.976	0.140	0.377
-601.098	-8.976	-0.171	-0.115
-600.084	-200.000	0.047	-0.508
-599.069	-24.418	0.121	0.073
-598.055	175.627	-0.066	0.096
-597.040	-118.011	-0.181	0.033
-596.025	-200.000	0.015	-0.455
-595.011	-200.000	0.030	-0.159
-593.996	-200.000	0.003	0.057
-592.982	-200.000	-0.021	0.162
-591.967	-54.883	-0.045	-0.020
-590.952	252.133	0.120	0.206
-589.938	-61.541	-0.260	0.110
-588.923	-58.481	-0.446	-0.194
-587.909	446.067	-0.088	-0.195
-586.894	55.623	-0.341	0.332
-585.879	-7.331	-0.134	0.091
-584.865	145.619	0.310	0.416
-583.850	-145.068	-0.212	0.019
-582.836	103.039	0.127	0.149
-581.821	-32.742	-0.194	0.108
-580.806	248.638	0.128	-0.217
-579.792	45.090	0.122	0.113
-578.777	-35.339	-0.166	-0.091
-577.763	-15.366	0.096	0.062
-576.748	-29.813	0.221	-0.126
-575.733	-200.000	0.019	-0.118
-574.719	64.681	0.307	0.311
-573.704	-26.339	0.134	0.079
-572.690	-34.453	0.033	0.018
-571.675	15.382	0.176	0.139
-570.661	-163.343	-0.103	-0.005
-569.646	-69.903	-0.112	0.043
-568.631	-200.000	-0.030	-0.174
-567.617	116.896	0.108	0.133
-566.602	-60.339	-0.124	-0.053
-565.588	-87.264	0.341	-0.104
-564.573	-150.684	0.188	0.014
-563.558	-3.216	0.223	0.156
-562.544	-200.000	0.046	0.220
-561.529	485.446	0.222	-0.507
-560.515	-144.792	-0.266	-0.024
-559.500	163.638	0.253	0.357
-558.485	-27.456	0.094	-0.055
-557.471	-200.000	0.001	0.068
-556.456	-79.436	0.192	-0.065
-555.442	-99.798	0.182	0.046
-554.427	-200.000	0.087	-0.396
-553.412	-126.926	-0.375	-0.055
-552.398	-34.850	0.151	-0.083
-551.383	525.589	0.046	-0.108
-550.369	26.291	-0.257	0.215
-549.354	376.940	-0.061	0.124
-548.339	-200.000	0.005	0.064
-547.325	-129.519	0.127	-0.018
-546.310	-128.357	-0.034	0.005
-545.296	135.196	-0.110	-0.143
-544.281	152.589	0.211	-0.288
-543.266	-200.000	-0.013	-0.225
-542.252	157.420	-0.099	-0.137
-541.237	471.365	-0.033	-0.074
-540.223	-172.738	0.119	-0.004
-539.208	124.569	-0.110	0.139
-538.193	24.699	0.238	-0.197
-537.179	-103.923	0.297	0.069
-536.164	-109.186	-0.337	-0.072
-535.150	-200.000	0.034	-0.177
-534.135	167.821	0.123	0.176
-533.121	-48.037	-0.262	0.127
-532.106	-137.229	-0.298	0.034
-531.091	-43.809	0.130	-0.066
-530.077	-135.008	-0.151	-0.018
-529.062	160.085	-0.097	-0.135
-528.048	43.471	-0.147	-0.135
-527.033	47.754	-0.161	0.150
-526.018	-45.585	-0.078	0.039
-525.004	743.946	0.060	0.162
-523.989	800.000	0.058	-0.175
-522.975	-200.000	0.054	-0.308
-521.960	-85.756	0.238	0.074
-520.945	227.231	0.117	0.190
-519.931	-138.626	0.308	-0.034
-518.916	192.832	0.250	-0.377
-517.902	-200.000	0.042	-0.411
-516.887	-200.000	0.007	-0.271
-515.872	214.474	-0.120	0.191
-514.858	800.000	0.098	0.291
-513.843	-135.527	-0.278	-0.033
-512.829	-200.000	0.042	-0.304
-511.814	-183.197	-0.537	0.009
-510.799	218.417	-0.062	0.098
-509.785	-179.018	0.183	0.004
-508.770	31.747	0.216	-0.186
-507.756	126.272	0.268	-0.339
-506.741	439.238	-0.084	0.183
-505.726	-33.024	0.121	-0.067
-504.712	148.421	-0.076	0.103
-503.697	-166.410	0.335	0.014
-502.683	-200.000	-0.040	0.176
-501.668	-92.383	0.159	0.045
-500.653	527.826	-0.039	-0.093
-499.639	-200.000	-0.030	-0.375
-498.624	-200.000	0.000	-0.125
-497.610	-0.118	0.288	0.205
-496.595	-34.786	0.059	-0.032
-495.581	-161.738	0.223	0.011
-494.566	195.172	-0.202	-0.307
-493.551	-40.415	0.170	-0.088
-492.537	-17.274	0.247	0.156
-491.522	29.474	0.231	0.196
-490.508	-69.236	-0.343	0.132
-489.493	-111.488	-0.292	0.059
-488.478	800.000	-0.157	0.441
-487.464	-200.000	0.021	-0.149
-486.449	-66.513	-0.284	-0.113
-485.435	800.000	-0.048	0.147
-484.420	213.541	0.056	-0.088
-483.405	285.091	-0.030	0.053
-482.391	10.918	0.264	-0.202
-481.376	-200.000	-0.016	-0.167
-480.362	138.908	-0.241	-0.317
-479.347	-86.704	-0.050	-0.015
-478.332	800.000	0.028	0.106
-477.318	99.335	0.205	0.237
-476.303	-30.748	-0.163	0.092
-475.289	-106.633	0.145	0.032
-474.274	420.870	-0.044	0.094
-473.259	108.586	0.141	0.169
-472.245	-13.294	0.015	0.010
-471.230	358.058	-0.089	-0.177
-470.216	86.691	-0.207	0.228
-469.201	-200.000	-0.013	0.133
-468.186	169.736	0.067	-0.096
-467.172	-106.739	0.318	0.071
-466.157	800.000	0.077	-0.222
-465.143	85.675	0.235	0.258
-464.128	800.000	-0.108	0.317
-463.113	-126.610	-0.301	-0.044
-462.099	-150.406	-0.164	0.013
-461.084	4.894	-0.210	-0.154
-460.070	-118.350	0.409	-0.073
-459.055	-78.545	-0.251	0.086
-458.040	-200.000	-0.008	0.202
-457.026	-41.845	-0.439	-0.225
-456.011	-200.000	-0.092	-0.492
-454.997	-200.000	0.022	-0.259
-453.982	169.668	-0.126	0.179
-452.968	-104.598	-0.171	-0.039
-451.953	371.892	0.143	0.290
-450.938	217.216	-0.057	0.090
-449.924	221.557	0.142	-0.228
-448.909	64.773	-0.199	0.200
-447.895	-88.482	0.128	0.038
-446.880	-200.000	0.012	-0.059
-445.865	-200.000	-0.003	0.265
-444.851	-102.254	-0.255	-0.061
-443.836	119.238	0.129	-0.159
-442.822	800.000	-0.022	0.065
-441.807	-97.886	0.156	0.040
-440.792	-15.488	-0.287	0.183
-439.778	-200.000	0.033	0.271
-438.763	704.073	0.104	-0.272
-437.749	-53.687	-0.314	-0.143
-436.734	411.994	-0.158	-0.335
-435.719	-118.294	-0.217	-0.038
-434.705	4.489	0.316	0.231
-433.690	-37.345	-0.344	0.183
-432.676	800.000	0.058	0.159
-431.661	-27.875	-0.102	-0.059
-430.646	800.000	-0.083	0.231
-429.632	622.721	-0.104	0.262
-428.617	368.898	-0.072	-0.146
-427.603	-200.000	0.054	-0.289
-426.588	-44.304	0.094	-0.047
-425.573	800.000	-0.046	0.137
-424.559	-169.780	0.298	-0.011
-423.544	-200.000	-0.028	0.146
-422.530	-121.542	0.429	0.071
-421.515	280.691	-0.145	-0.258
-420.500	736.623	0.078	-0.208
-419.486	-200.000	-0.054	0.237
-418.471	428.042	-0.051	-0.110
-417.457	-173.547	0.347	-0.010
-416.442	-200.000	-0.007	0.301
-415.428	-0.514	-0.461	-0.326
-414.413	-42.706	-0.141	0.071
-413.398	282.589	0.130	0.232
-412.384	143.845	-0.112	-0.149
-411.369	-27.946	-0.312	0.180
-410.355	256.447	-0.163	0.279
-409.340	324.538	-0.221	-0.420
-408.325	229.045	-0.057	0.092
-407.311	382.571	-0.083	-0.171
-406.296	-200.000	-0.057	0.386
-405.282	-1.394	-0.174	-0.122
-404.267	315.250	-0.097	0.183
-403.252	-41.775	0.110	0.056
-402.238	47.973	0.033	-0.031
-401.223	-200.000	0.007	-0.185
-400.209	-44.685	-0.171	-0.085
-399.194	-155.239	-0.153	0.010
-398.179	-200.000	-0.008	0.231
-397.165	-200.000	0.008	0.053
-396.150	-46.925	0.348	-0.170
-395.136	-200.000	-0.011	0.079
-394.121	-146.801	-0.083	-0.007
-393.106	-181.989	-0.127	-0.002
-392.092	-200.000	-0.010	0.045
-391.077	800.000	-0.076	0.248
-390.063	-189.700	-0.197	-0.002
-389.048	272.677	0.091	-0.159
-388.033	-170.903	0.118	-0.004
-387.019	-109.403	-0.419	0.088
-386.004	-147.159	0.258	-0.022
-384.990	-193.923	-0.074	-0.001
-383.975	-155.479	0.219	-0.014
-382.960	443.145	0.125	0.273
-381.946	567.244	0.157	-0.379
-380.931	19.931	0.160	-0.128
-379.917	-133.206	-0.137	-0.017
-378.902	248.924	-0.185	0.312
-377.888	116.400	-0.023	0.028
-376.873	-200.000	-0.028	0.290
-375.858	454.784	-0.109	-0.239
-374.844	434.609	-0.074	-0.160
-373.829	-200.000	0.015	0.176
-372.815	-75.067	-0.095	-0.034
-371.800	-200.000	0.028	0.218
-370.785	-83.035	0.149	0.048
-369.771	-200.000	-0.043	-0.257
-368.756	-87.703	-0.162	-0.048
-367.742	17.672	0.224	-0.177
-366.727	62.894	-0.060	-0.060
-365.712	-155.649	-0.035	-0.002
-364.698	10.777	-0.240	0.182
-363.683	165.755	0.037	-0.052
-362.669	-69.256	0.257	-0.098
-361.654	-78.187	-0.053	-0.018
-360.639	176.560	0.144	0.209
-359.625	800.000	0.108	0.425
-358.610	686.320	-0.050	-0.129
-357.596	-200.000	0.014	-0.073
-356.581	361.431	-0.039	-0.077
-355.566	-4.495	-0.164	0.112
-354.552	-200.000	0.043	0.270
-353.537	-200.000	-0.046	0.205
-352.523	300.050	0.118	0.217
-351.508	-0.209	0.158	0.112
-350.493	-26.622	-0.373	0.217
-349.479	144.569	0.207	0.274
-348.464	33.113	-0.181	0.156
-347.450	-37.876	-0.110	0.058
-346.435	800.000	-0.014	0.056
-345.420	5.245	-0.151	-0.111
-344.406	-54.348	0.229	-0.103
-343.391	45.543	0.307	0.281
-342.377	71.164	0.189	-0.195
-341.362	359.881	-0.071	-0.142
-340.348	-50.345	0.141	-0.066
-339.333	85.241	0.064	0.070
-338.318	-94.455	-0.211	0.057
-337.304	-96.225	0.155	0.041
-336.289	46.669	0.267	0.246
-335.275	-200.000	0.008	0.148
-334.260	-4.841	0.147	0.101
-333.245	131.011	-0.082	0.104
-332.231	-200.000	0.043	-0.329
-331.216	43.204	0.079	0.072
-330.202	7.035	0.150	-0.111
-329.187	25.299	-0.284	-0.234
-328.172	-23.133	-0.198	0.118
-327.158	34.631	-0.080	-0.069
-326.143	-200.000	-0.014	-0.414
-325.129	-0.116	0.044	-0.031
-324.114	-116.962	0.038	0.007
-323.099	16.803	-0.227	0.178
-322.085	-36.314	0.210	0.113
-321.070	-121.526	-0.461	0.076
-320.056	-0.275	-0.146	0.103
-319.041	-200.000	-0.022	0.265
-318.026	-109.042	0.391	0.083
-317.012	641.509	-0.120	0.304
-315.997	800.000	-0.057	0.157
-314.983	-35.642	0.116	0.062
-313.968	-15.841	0.312	0.197
-312.953	83.293	-0.087	-0.094
-311.939	-41.442	-0.255	0.130
-310.924	-200.000	0.000	0.259
-309.910	-156.182	0.178	-0.011
-308.895	800.000	0.047	-0.159
-307.880	-6.751	-0.154	-0.104
-306.866	52.164	-0.042	-0.039
-305.851	416.543	-0.177	0.375
-304.837	800.000	0.100	-0.302
-303.822	211.161	0.140	-0.219
-302.807	800.000	0.027	0.091
-301.793	-200.000	0.073	0.348
-300.778	800.000	-0.036	-0.124
-299.764	-116.657	0.274	0.050
-298.749	78.636	0.162	-0.172
-297.735	153.274	-0.108	0.147
-296.720	-92.601	0.039	0.011
-295.705	-65.512	-0.325	0.129
-294.691	-200.000	-0.071	0.379
-293.676	800.000	0.049	-0.203
-292.662	478.724	0.008	0.018
-291.647	-169.331	-0.146	0.005
-290.632	410.406	-0.111	0.234
-289.618	-200.000	0.066	0.473
-288.603	83.908	0.164	-0.177
-287.589	243.660	0.114	0.190
-286.574	-200.000	-0.007	-0.072
-285.559	42.495	0.218	-0.197
-284.545	518.002	0.040	0.093
-283.530	0.426	-0.131	0.093
-282.516	152.024	-0.086	0.116
-281.501	-111.837	-0.281	0.056
-280.486	-74.489	-0.148	-0.053
-279.472	-10.466	-0.052	0.034
-278.457	99.203	0.131	-0.150
-277.443	381.177	-0.112	-0.228
-276.428	-63.818	0.095	0.039
-275.413	-87.376	0.380	-0.114
-274.399	106.201	0.069	-0.081
-273.384	-97.379	-0.296	-0.077
-272.370	181.461	-0.201	-0.292
-271.355	113.028	0.167	0.200
-270.340	-96.945	-0.290	0.075
-269.326	800.000	-0.049	-0.139
-268.311	800.000	-0.050	-0.138
-267.297	-93.075	0.140	-0.039
-266.282	-200.000	0.032	-0.232
-265.267	-200.000	0.028	-0.216
-264.253	-106.231	-0.340	0.076
-263.238	-34.508	-0.204	-0.110
-262.224	90.361	-0.264	-0.293
-261.209	29.425	0.223	-0.188
-260.195	-186.390	0.196	0.003
-259.180	-200.000	-0.040	-0.283
-258.165	1.113	0.339	-0.241
-257.151	210.317	0.030	0.047
-256.136	-93.096	-0.179	0.049
-255.122	23.816	-0.118	0.096
-254.107	-56.013	-0.212	-0.094
-253.092	438.458	0.048	-0.103
-252.078	-9.774	0.027	-0.018
-251.063	30.121	0.220	0.186
-250.049	10.322	-0.218	-0.164
-249.034	-44.636	-0.218	-0.108
-248.019	429.161	0.050	0.107
-247.005	800.000	0.111	-0.361
-245.990	99.873	0.154	0.177
-244.976	-200.000	0.015	-0.155
-243.961	-95.422	0.233	-0.062
-242.946	139.560	-0.107	-0.139
-241.932	-15.808	-0.273	-0.172
-240.917	800.000	-0.066	-0.212
-239.903	-36.597	0.050	0.027
-238.888	-200.000	-0.014	-0.116
-237.873	-49.253	0.191	0.090
-236.859	-46.753	0.085	-0.041
-235.844	-200.000	0.013	-0.168
-234.830	-104.303	-0.099	0.023
-233.815	69.855	0.226	-0.231
-232.800	440.169	-0.139	0.301
-231.786	396.256	0.124	0.257
-230.771	-68.770	0.314	0.120
-229.757	260.959	-0.239	-0.409
-228.742	-93.300	-0.291	-0.080
-227.727	-200.000	-0.010	0.118
-226.713	-177.844	0.180	0.004
-225.698	4.553	0.058	0.042
-224.684	-21.807	0.068	-0.041
-223.669	-147.952	-0.306	-0.025
-222.655	-81.173	0.227	0.074
-221.640	800.000	0.025	-0.103
-220.625	800.000	-0.114	-0.382
-219.611	135.623	-0.203	0.261
-218.596	800.000	-0.098	0.278
-217.582	77.554	-0.080	0.084
-216.567	388.668	-0.085	-0.174
-215.552	204.010	-0.132	0.203
-214.538	-152.057	0.373	-0.027
-213.523	-125.735	0.162	-0.024
-212.509	-57.604	-0.088	-0.038
-211.494	-3.565	-0.407	-0.280
-210.479	41.375	0.076	0.068
-209.465	800.000	-0.072	0.230
-208.450	-70.647	-0.078	-0.029
-207.436	-162.770	0.441	0.021
-206.421	-200.000	-0.010	0.075
-205.406	800.000	-0.018	0.050
-204.392	-200.000	0.037	-0.260
-203.377	-43.403	-0.488	0.244
-202.363	121.630	0.136	-0.168
-201.348	-64.362	0.278	-0.112
-200.333	477.859	0.031	-0.070
-199.319	800.000	0.066	0.276
-198.304	-200.000	0.024	-0.196
-197.290	-140.476	-0.303	-0.031
-196.275	232.056	0.122	0.197
-195.260	-15.924	-0.030	-0.019
-194.246	-168.475	-0.105	0.004
-193.231	137.295	0.233	-0.302
-192.217	-15.027	-0.191	-0.121
-191.202	69.135	-0.214	-0.217
-190.187	800.000	0.039	-0.163
-189.173	800.000	-0.027	0.082
-188.158	-97.448	-0.143	-0.037
-187.144	127.836	0.283	-0.355
-186.129	188.030	-0.133	-0.197
-185.114	-9.045	-0.209	0.138
-184.100	157.821	-0.147	0.201
-183.085	6.669	0.072	0.053
-182.071	-73.054	-0.366	-0.133
-181.056	509.403	0.107	-0.246
-180.042	-29.610	0.249	0.141
-179.027	392.091	0.245	0.502
-178.012	-124.560	-0.154	0.024
-176.998	24.987	-0.121	0.099
-175.983	-154.292	0.325	0.022
-174.969	-45.097	0.325	0.159
-173.954	-200.000	0.048	0.734
-172.939	7.209	0.180	-0.133
-171.925	43.596	0.278	-0.251
-170.910	-47.808	0.278	-0.133
-169.896	800.000	0.038	0.107
-168.881	-200.000	-0.015	-0.152
-167.866	89.812	-0.172	0.190
-166.852	74.409	-0.208	0.216
-165.837	-6.360	0.151	0.102
-164.823	547.698	0.102	-0.240
-163.808	7.361	-0.130	0.096
-162.793	-95.425	0.329	0.087
-161.779	-157.026	0.202	-0.012
-160.764	-5.722	-0.181	-0.122
-159.750	-41.043	0.107	-0.055
-158.735	-44.037	0.175	0.087
-157.720	-200.000	0.100	0.445
-156.706	-16.851	0.392	0.245
-155.691	31.735	-0.229	-0.194
-154.677	-55.913	0.117	-0.052
-153.662	-4.707	-0.065	-0.044
-152.647	-105.979	-0.233	0.052
-151.633	-88.759	-0.172	0.051
-150.618	-52.004	-0.366	0.168
-149.604	183.525	-0.080	0.116
-148.589	47.758	-0.128	0.118
-147.574	800.000	0.044	-0.175
-146.560	22.706	-0.175	-0.141
-145.545	385.985	-0.083	0.170
-144.531	-153.481	0.191	-0.013
-143.516	307.706	-0.219	0.403
-142.502	-200.000	0.056	0.450
-141.487	62.716	-0.257	0.254
-140.472	-156.406	-0.195	0.012
-139.458	800.000	-0.022	-0.073
-138.443	-45.936	0.106	-0.052
-137.429	68.423	-0.208	0.210
-136.414	-9.089	-0.086	0.057
-135.399	-200.000	-0.078	0.513
-134.385	760.629	-0.070	-0.186
-133.370	-100.578	-0.262	-0.064
-132.356	800.000	-0.012	0.049
-131.341	388.498	-0.103	0.210
-130.326	112.515	0.089	-0.106
-129.312	-44.456	-0.127	-0.063
-128.297	-31.067	0.125	-0.070
-127.283	392.633	-0.009	0.019
-126.268	-89.701	0.224	0.065
-125.253	149.329	-0.053	0.070
-124.239	-200.000	-0.015	-0.091
-123.224	48.898	0.093	0.086
-122.210	-120.039	-0.214	0.036
-121.195	-200.000	-0.060	0.294
