DTS Sentinel unit serial number:	SN413079Multiplexer serial number:	ORYXHardware model number:	OX4-SRSoftware version number:	ORYX F/W v4.00 Oryx Data Collector v3.7.2.0data status	okinstallation	princeton_trtdifferential loss correction	single-endedforward channel	channel 4reverse channel	N/Adate	2019/09/12time	07:39:10forward acquisition time	60.00reverse acquisition time	0.00gamma	496.2192k internal	0.2304k external	0.2304temperature offset calibration	1.0062default loss term (dB/km)	0.3790temperature slope calibration	1.0000multiplexer offset coefficient	1.0000multiplexer slope coefficient	1.0000fibre end	0.00T internal ref (°C)	32.69T ext. ref 1 (°C)	1.63T ext. ref 2 (°C)	29.17length (m)	temperature (°C)	Stokes	anti-Stokes-747.200	60.233	0.123	0.124
-746.185	112.088	-0.142	0.175
-745.171	800.000	-0.076	0.335
-744.156	-200.000	-0.034	0.298
-743.142	-33.084	-0.081	0.046
-742.127	-22.975	-0.165	-0.101
-741.112	239.203	-0.042	0.071
-740.098	800.000	-0.052	0.175
-739.083	-200.000	0.020	0.095
-738.069	641.611	-0.109	0.283
-737.054	520.396	-0.212	-0.506
-736.039	101.883	-0.241	0.286
-735.025	-154.748	0.083	0.006
-734.010	14.213	-0.116	-0.092
-732.996	800.000	-0.141	-0.429
-731.981	24.188	-0.151	-0.127
-730.966	-200.000	0.011	-0.077
-729.952	-200.000	-0.013	0.171
-728.937	340.468	-0.054	-0.107
-727.923	-200.000	-0.020	-0.241
-726.908	97.878	0.123	0.143
-725.894	-166.333	-0.348	0.015
-724.879	317.515	-0.049	-0.094
-723.864	-185.593	-0.227	-0.003
-722.850	-17.081	-0.074	-0.048
-721.835	7.252	0.084	0.064
-720.821	-185.154	-0.299	-0.005
-719.806	-200.000	-0.006	0.182
-718.791	65.583	0.183	-0.188
-717.777	-17.891	-0.271	-0.173
-716.762	-58.449	-0.127	0.056
-715.748	-200.000	0.006	0.125
-714.733	-51.754	-0.311	0.147
-713.718	-200.000	0.048	-0.383
-712.704	-73.131	0.146	-0.055
-711.689	-35.250	0.180	0.099
-710.675	800.000	0.064	-0.190
-709.660	82.423	0.114	0.126
-708.645	-166.963	0.310	-0.013
-707.631	-200.000	-0.054	-0.331
-706.616	199.165	-0.046	0.072
-705.602	779.734	0.113	-0.315
-704.587	-34.761	-0.145	0.081
-703.572	115.861	-0.144	0.179
-702.558	81.498	0.154	-0.169
-701.543	-200.000	0.046	-0.316
-700.529	-168.319	0.272	-0.011
-699.514	40.691	-0.121	-0.111
-698.499	-149.689	-0.291	0.023
-697.485	196.953	0.196	-0.304
-696.470	-149.037	-0.114	-0.009
-695.456	-115.961	-0.276	0.052
-694.441	800.000	0.053	0.228
-693.426	459.883	0.068	0.153
-692.412	800.000	0.010	-0.033
-691.397	-68.435	0.092	0.036
-690.383	164.139	-0.173	-0.247
-689.368	-176.615	-0.373	-0.010
-688.354	32.391	0.227	-0.200
-687.339	800.000	0.048	0.173
-686.324	206.232	0.155	-0.246
-685.310	800.000	-0.052	-0.232
-684.295	-40.995	0.074	0.039
-683.281	354.098	0.039	0.078
-682.266	-25.847	-0.133	-0.079
-681.251	-29.796	0.061	-0.035
-680.237	-17.623	0.214	0.137
-679.222	-200.000	0.009	-0.050
-678.208	-200.000	0.091	0.439
-677.193	56.149	0.084	-0.082
-676.178	40.563	-0.071	0.065
-675.164	-200.000	-0.028	0.126
-674.149	-35.142	-0.082	-0.046
-673.135	349.553	0.131	-0.262
-672.120	-28.467	0.298	0.175
-671.105	-111.333	0.133	-0.028
-670.091	-200.000	-0.006	-0.154
-669.076	3.610	-0.086	0.064
-668.062	800.000	-0.044	0.132
-667.047	308.185	-0.106	-0.201
-666.032	238.875	0.066	0.111
-665.018	-103.532	-0.123	0.029
-664.003	57.169	-0.060	-0.060
-662.989	125.527	-0.093	-0.120
-661.974	-99.968	0.277	0.070
-660.959	718.047	0.119	-0.320
-659.945	800.000	-0.070	0.269
-658.930	-4.793	0.196	0.137
-657.916	-109.551	0.084	-0.018
-656.901	-29.852	-0.268	-0.155
-655.886	-118.745	-0.216	0.039
-654.872	8.708	-0.158	0.121
-653.857	441.412	0.046	-0.102
-652.843	22.275	0.216	0.179
-651.828	800.000	0.054	-0.192
-650.814	-200.000	-0.052	-0.349
-649.799	-123.109	0.171	-0.028
-648.784	303.273	0.058	-0.109
-647.770	22.787	0.208	-0.173
-646.755	-200.000	-0.015	0.081
-645.741	230.190	0.107	0.177
-644.726	120.408	0.030	0.038
-643.711	-200.000	-0.009	-0.059
-642.697	-28.932	0.102	0.059
-641.682	-138.095	-0.192	0.022
-640.668	11.585	0.147	0.115
-639.653	13.683	0.041	0.032
-638.638	-119.851	0.053	-0.009
-637.624	-147.978	0.283	0.024
-636.609	800.000	0.070	-0.272
-635.595	-200.000	-0.006	-0.456
-634.580	-200.000	-0.011	0.093
-633.565	199.728	-0.056	0.087
-632.551	153.247	-0.189	-0.262
-631.536	52.941	0.172	0.167
-630.522	-200.000	0.074	0.336
-629.507	-200.000	0.036	0.307
-628.492	58.322	0.073	0.072
-627.478	-200.000	-0.005	-0.105
-626.463	-0.408	0.180	-0.130
-625.449	-170.604	-0.114	0.004
-624.434	43.660	0.061	-0.056
-623.419	-155.025	-0.080	0.005
-622.405	-87.309	-0.061	-0.019
-621.390	-188.691	0.214	-0.003
-620.376	800.000	-0.019	0.074
-619.361	47.089	0.091	0.086
-618.346	-200.000	0.047	0.224
-617.332	76.737	0.172	-0.185
-616.317	211.865	0.100	0.159
-615.303	299.828	-0.093	0.173
-614.288	-63.523	-0.080	-0.033
-613.273	28.823	0.076	0.066
-612.259	-21.051	-0.162	0.100
-611.244	13.738	0.074	0.058
-610.230	76.150	-0.193	0.207
-609.215	24.052	-0.031	-0.026
-608.201	330.450	-0.149	-0.290
-607.186	-200.000	-0.001	0.097
-606.171	-135.837	-0.127	0.015
-605.157	-90.299	0.490	-0.144
-604.142	800.000	-0.100	0.360
-603.128	-200.000	-0.023	0.105
-602.113	-200.000	-0.036	0.230
-601.098	-133.970	0.145	0.018
-600.084	53.511	-0.155	-0.150
-599.069	361.584	0.163	0.330
-598.055	453.520	-0.133	-0.298
-597.040	-125.850	-0.330	-0.050
-596.025	800.000	0.100	-0.432
-595.011	800.000	-0.028	-0.090
-593.996	-65.994	0.245	-0.099
-592.982	-19.620	0.176	-0.110
-591.967	132.190	-0.063	-0.083
-590.952	-163.260	0.199	0.010
-589.938	-200.000	-0.009	0.087
-588.923	-37.402	-0.205	-0.111
-587.909	800.000	0.041	-0.180
-586.894	-100.217	0.190	-0.048
-585.879	127.221	0.111	0.143
-584.865	-80.398	-0.273	-0.092
-583.850	362.075	0.067	0.137
-582.836	262.536	-0.046	-0.080
-581.821	800.000	-0.092	0.308
-580.806	144.038	0.169	-0.228
-579.792	-189.303	0.119	-0.001
-578.777	800.000	-0.045	0.133
-577.763	17.689	0.220	0.177
-576.748	213.035	-0.165	-0.264
-575.733	-200.000	0.038	0.229
-574.719	337.169	0.104	-0.204
-573.704	-200.000	0.042	-0.468
-572.690	339.346	0.185	-0.365
-571.675	-71.843	-0.039	-0.015
-570.661	-53.369	-0.018	-0.008
-569.646	15.485	0.163	0.130
-568.631	-139.725	-0.299	-0.032
-567.617	108.281	0.136	-0.164
-566.602	-6.641	0.141	0.097
-565.588	-200.000	-0.032	-0.378
-564.573	105.099	-0.156	-0.186
-563.558	-200.000	0.001	0.064
-562.544	-122.209	0.081	-0.013
-561.529	31.903	-0.101	0.088
-560.515	33.726	-0.113	0.099
-559.500	-34.347	0.157	-0.087
-558.485	-200.000	-0.003	0.202
-557.471	800.000	0.066	0.203
-556.456	501.330	-0.136	-0.318
-555.442	7.595	-0.266	0.202
-554.427	424.922	0.140	0.305
-553.412	50.210	-0.209	0.200
-552.398	-75.021	-0.544	0.197
-551.383	-23.816	0.209	-0.127
-550.369	194.403	-0.079	0.120
-549.354	-16.355	0.299	-0.191
-548.339	108.568	-0.151	-0.182
-547.325	-200.000	0.037	-0.246
-546.310	-107.075	0.226	0.050
-545.296	147.812	0.254	-0.345
-544.281	57.110	-0.101	0.099
-543.266	281.607	0.031	-0.057
-542.252	-200.000	-0.053	0.397
-541.237	735.274	0.073	0.198
-540.223	334.011	0.180	-0.352
-539.208	-139.524	-0.056	0.006
-538.193	800.000	-0.052	-0.201
-537.179	-182.099	-0.206	0.004
-536.164	-93.614	-0.120	0.033
-535.150	-37.614	0.216	0.116
-534.135	-200.000	-0.005	-0.105
-533.121	800.000	-0.082	0.272
-532.106	-57.128	0.242	0.108
-531.091	-24.721	-0.206	0.124
-530.077	20.897	-0.126	0.103
-529.062	-125.772	-0.225	0.034
-528.048	117.246	-0.121	-0.150
-527.033	167.663	-0.139	-0.200
-526.018	-200.000	-0.020	-0.107
-525.004	-60.915	-0.319	0.136
-523.989	54.593	0.255	-0.248
-522.975	-25.933	0.262	-0.156
-521.960	800.000	0.102	-0.374
-520.945	53.851	0.063	-0.061
-519.931	174.410	-0.122	0.178
-518.916	-3.851	0.282	-0.197
-517.902	5.368	-0.095	0.071
-516.887	-200.000	0.076	-0.493
-515.872	360.588	-0.134	0.271
-514.858	-200.000	0.024	0.200
-513.843	800.000	-0.123	-0.406
-512.829	-58.816	-0.106	0.046
-511.814	-104.540	0.282	0.066
-510.799	-200.000	0.021	-0.191
-509.785	-200.000	0.054	-0.294
-508.770	61.112	-0.079	-0.079
-507.756	10.265	-0.193	-0.148
-506.741	-73.615	0.281	-0.103
-505.726	-88.933	0.226	0.067
-504.712	-200.000	-0.002	-0.104
-503.697	-200.000	-0.027	0.212
-502.683	-123.578	-0.163	0.026
-501.668	154.586	-0.234	-0.324
-500.653	-108.914	0.274	0.059
-499.639	192.866	0.119	0.181
-498.624	-200.000	0.045	-0.213
-497.610	100.645	-0.141	0.165
-496.595	119.452	0.124	0.154
-495.581	68.096	-0.143	0.147
-494.566	131.312	0.032	0.041
-493.551	730.731	-0.080	-0.216
-492.537	54.979	0.152	0.148
-491.522	710.578	0.050	0.132
-490.508	29.933	0.106	0.091
-489.493	749.174	-0.162	-0.441
-488.478	-26.870	-0.283	-0.167
-487.464	129.218	-0.127	0.163
-486.449	-200.000	-0.003	0.090
-485.435	-39.973	-0.052	-0.027
-484.420	-200.000	-0.097	-0.435
-483.405	385.595	0.144	0.299
-482.391	800.000	-0.044	-0.161
-481.376	233.225	-0.123	-0.204
-480.362	223.676	-0.146	-0.237
-479.347	-200.000	0.006	0.064
-478.332	-200.000	0.010	-0.174
-477.318	800.000	0.072	-0.243
-476.303	-31.741	-0.227	0.129
-475.289	-47.698	0.138	-0.067
-474.274	-200.000	0.093	-0.480
-473.259	-43.329	-0.179	0.091
-472.245	-187.909	-0.334	0.004
-471.230	-33.735	-0.085	0.047
-470.216	385.513	0.013	0.026
-469.201	20.910	0.208	-0.170
-468.186	-200.000	-0.057	0.408
-467.172	589.070	-0.109	0.269
-466.157	800.000	-0.084	0.238
-465.143	-91.671	0.242	0.069
-464.128	800.000	-0.081	0.252
-463.113	-200.000	-0.039	-0.233
-462.099	-18.689	-0.286	0.179
-461.084	-200.000	-0.015	0.188
-460.070	800.000	0.076	-0.258
-459.055	52.042	-0.164	-0.157
-458.040	-166.672	-0.144	0.006
-457.026	-99.812	-0.319	0.080
-456.011	-200.000	0.038	0.194
-454.997	-7.428	0.155	-0.106
-453.982	-97.496	0.318	-0.083
-452.968	800.000	0.148	0.437
-451.953	-118.179	0.333	0.060
-450.938	138.962	-0.130	-0.172
-449.924	-102.997	-0.260	0.062
-448.909	-77.775	-0.424	-0.148
-447.895	800.000	-0.036	0.121
-446.880	18.934	-0.127	-0.103
-445.865	-83.759	0.133	0.043
-444.851	82.762	-0.115	-0.126
-443.836	108.258	-0.092	0.111
-442.822	208.369	0.067	0.105
-441.807	22.697	0.289	0.238
-440.792	42.056	0.101	0.092
-439.778	-115.741	0.341	-0.064
-438.763	-0.539	-0.281	0.201
-437.749	412.572	0.061	-0.130
-436.734	-120.091	0.092	0.016
-435.719	222.082	0.122	0.198
-434.705	272.761	-0.089	0.159
-433.690	-140.638	-0.123	-0.013
-432.676	230.431	-0.081	0.133
-431.661	27.822	0.175	-0.148
-430.646	-71.002	0.148	-0.056
-429.632	509.079	0.008	0.019
-428.617	63.369	0.240	-0.243
-427.603	-200.000	-0.023	0.136
-426.588	120.240	-0.041	0.051
-425.573	253.332	0.116	0.200
-424.559	-30.706	0.207	-0.118
-423.544	179.044	-0.183	0.270
-422.530	-168.988	0.158	0.006
-421.515	113.032	-0.073	0.089
-420.500	-74.128	-0.190	0.069
-419.486	-98.674	-0.100	0.026
-418.471	-113.433	-0.214	-0.042
-417.457	251.069	0.033	0.056
-416.442	404.294	0.042	0.088
-415.428	-200.000	-0.018	0.101
-414.413	-200.000	-0.027	-0.140
-413.398	-200.000	0.038	-0.168
-412.384	-19.422	-0.168	-0.104
-411.369	251.173	0.173	-0.297
-410.355	14.999	0.088	0.070
-409.340	262.086	-0.030	-0.052
-408.325	351.668	-0.105	-0.209
-407.311	-69.132	-0.180	-0.070
-406.296	-75.313	-0.081	-0.029
-405.282	-81.382	-0.359	0.119
-404.267	-48.120	-0.192	0.093
-403.252	93.331	0.409	-0.465
-402.238	-109.394	0.103	-0.022
-401.223	-124.484	0.164	0.026
-400.209	23.536	-0.095	0.078
-399.194	156.677	0.179	-0.248
-398.179	97.257	-0.212	-0.245
-397.165	-111.026	-0.074	0.015
-396.150	-147.230	0.308	0.026
-395.136	-200.000	-0.029	-0.181
-394.121	142.779	-0.136	-0.181
-393.106	134.337	0.058	-0.076
-392.092	-200.000	-0.060	-0.329
-391.077	67.090	0.164	0.168
-390.063	782.510	0.102	0.280
-389.048	-200.000	-0.050	0.293
-388.033	257.255	0.061	0.106
-387.019	340.949	0.115	-0.226
-386.004	-97.595	-0.039	0.010
-384.990	60.384	0.161	-0.160
-383.975	-165.518	0.271	-0.012
-382.960	800.000	-0.052	-0.224
-381.946	-145.060	-0.170	-0.016
-380.931	372.997	0.101	0.205
-379.917	-67.827	0.245	-0.096
-378.902	-62.939	-0.120	0.050
-377.888	-104.288	-0.259	0.060
-376.873	-80.557	-0.186	-0.062
-375.858	-153.747	0.110	-0.008
-374.844	84.247	-0.076	-0.084
-373.829	-132.507	0.389	-0.050
-372.815	-84.865	-0.044	0.014
-371.800	423.898	0.094	0.203
-370.785	65.993	0.315	0.321
-369.771	-132.501	0.158	-0.020
-368.756	800.000	-0.001	-0.006
-367.742	-2.210	0.275	0.194
-366.727	-133.755	0.026	-0.003
-365.712	433.769	0.168	0.365
-364.698	-55.462	0.120	-0.054
-363.683	-200.000	-0.007	0.195
-362.669	68.160	0.231	-0.237
-361.654	611.260	0.084	0.210
-360.639	106.131	0.104	-0.124
-359.625	-200.000	0.015	-0.199
-358.610	246.211	0.151	0.254
-357.596	-105.031	0.173	0.040
-356.581	-147.930	0.056	0.005
-355.566	800.000	-0.049	-0.194
-354.552	-10.278	-0.337	0.224
-353.537	-59.171	-0.185	0.080
-352.523	-116.844	0.173	0.032
-351.508	-200.000	-0.029	0.221
-350.493	-200.000	-0.029	-0.197
-349.479	377.344	0.161	0.330
-348.464	210.842	-0.094	0.148
-347.450	-54.554	-0.095	0.043
-346.435	800.000	0.053	0.205
-345.420	-114.193	-0.168	0.032
-344.406	-77.340	-0.195	0.068
-343.391	-5.430	-0.133	-0.092
-342.377	-23.170	-0.221	-0.133
-341.362	42.009	0.215	-0.195
-340.348	-200.000	0.006	0.081
-339.333	-35.737	-0.253	-0.137
-338.318	629.724	0.109	0.277
-337.304	-200.000	-0.061	-0.362
-336.289	-138.084	0.185	0.021
-335.275	-200.000	0.012	-0.089
-334.260	-89.301	-0.145	0.043
-333.245	-52.051	-0.116	0.054
-332.231	460.097	0.033	-0.073
-331.216	-67.293	0.251	0.099
-330.202	-119.909	-0.186	0.032
-329.187	-80.093	0.293	-0.098
-328.172	-200.000	-0.014	0.153
-327.158	-107.177	-0.389	-0.086
-326.143	261.105	-0.142	-0.247
-325.129	-115.428	0.177	0.033
-324.114	122.046	-0.071	0.089
-323.099	119.659	-0.093	0.115
-322.085	-38.253	0.271	0.144
-321.070	800.000	0.043	0.133
-320.056	800.000	0.021	0.060
-319.041	207.265	0.059	0.091
-318.026	-58.566	-0.352	-0.153
-317.012	-200.000	-0.062	0.444
-315.997	660.647	0.083	0.213
-314.983	-169.456	-0.235	0.009
-313.968	-17.626	-0.160	-0.101
-312.953	-58.200	0.290	-0.126
-311.939	143.984	-0.165	0.220
-310.924	-97.330	0.102	0.027
-309.910	99.665	0.147	0.171
-308.895	730.357	-0.135	-0.360
-307.880	-80.019	-0.231	-0.078
-306.866	-58.569	0.011	-0.005
-305.851	-200.000	0.045	0.352
-304.837	44.032	0.156	-0.143
-303.822	674.906	0.087	0.225
-302.807	-50.336	0.257	0.122
-301.793	281.097	-0.187	0.334
-300.778	-146.446	-0.390	0.034
-299.764	-141.331	0.109	0.011
-298.749	-107.806	-0.327	-0.071
-297.735	18.972	-0.203	0.163
-296.720	800.000	0.076	0.232
-295.705	800.000	-0.034	-0.129
-294.691	800.000	0.035	0.099
-293.676	-96.596	-0.313	0.082
-292.662	-101.059	-0.294	0.072
-291.647	-25.520	0.099	-0.059
-290.632	387.546	-0.080	0.166
-289.618	-200.000	-0.014	0.090
-288.603	800.000	0.036	0.107
-287.589	242.912	-0.121	-0.203
-286.574	-200.000	-0.020	-0.134
-285.559	-200.000	0.005	-0.405
-284.545	800.000	-0.036	-0.108
-283.530	-100.454	0.313	-0.078
-282.516	41.026	0.029	0.026
-281.501	-29.444	0.149	0.085
-280.486	-48.714	0.303	-0.145
-279.472	-60.236	-0.188	0.080
-278.457	-151.467	-0.371	-0.028
-277.443	438.922	-0.147	0.320
-276.428	58.354	-0.091	-0.090
-275.413	-59.203	-0.397	-0.171
-274.399	800.000	0.049	0.167
-273.384	800.000	0.083	-0.276
-272.370	800.000	-0.074	0.302
-271.355	-200.000	-0.002	-0.050
-270.340	800.000	0.113	0.393
-269.326	800.000	-0.095	-0.271
-268.311	800.000	0.054	0.209
-267.297	737.704	-0.113	0.304
-266.282	800.000	-0.081	-0.291
-265.267	-59.353	-0.193	-0.083
-264.253	-43.952	-0.091	0.046
-263.238	260.352	0.119	0.206
-262.224	-54.543	-0.179	-0.081
-261.209	50.337	0.159	0.151
-260.195	239.863	0.039	0.065
-259.180	96.225	0.148	-0.169
-258.165	-200.000	-0.025	0.260
-257.151	634.692	-0.054	0.137
-256.136	203.828	0.116	-0.180
-255.122	38.081	0.094	0.084
-254.107	-7.250	-0.363	0.246
-253.092	242.039	0.035	-0.059
-252.078	-22.550	0.283	0.171
-251.063	25.432	-0.065	0.054
-250.049	651.934	0.009	-0.022
-249.034	-69.377	0.133	-0.051
-248.019	-200.000	0.016	0.103
-247.005	139.960	-0.113	-0.149
-245.990	67.319	0.119	-0.121
-244.976	-42.644	-0.245	0.124
-243.961	-200.000	0.007	-0.148
-242.946	-200.000	0.026	0.363
-241.932	176.019	-0.078	-0.112
-240.917	122.474	-0.079	0.099
-239.903	-200.000	-0.001	-0.262
-238.888	-200.000	0.014	-0.131
-237.873	-200.000	-0.011	-0.382
-236.859	-200.000	0.009	-0.171
-235.844	-200.000	0.043	0.291
-234.830	-49.003	-0.097	0.046
-233.815	-200.000	-0.037	-0.188
-232.800	-166.025	0.228	0.010
-231.786	-44.330	0.178	-0.089
-230.771	117.646	0.145	-0.178
-229.757	98.483	0.067	0.077
-228.742	-130.851	-0.099	-0.013
-227.727	-200.000	-0.016	-0.164
-226.713	-18.265	0.235	0.146
-225.698	119.852	0.023	-0.028
-224.684	74.193	-0.180	-0.189
-223.669	-47.792	-0.269	-0.130
-222.655	-24.048	0.206	-0.123
-221.640	-39.500	-0.078	0.041
-220.625	-200.000	0.009	0.060
-219.611	109.008	0.269	-0.321
-218.596	-200.000	0.003	0.155
-217.582	-52.808	-0.307	0.141
-216.567	80.588	-0.069	-0.074
-215.552	43.216	-0.063	0.057
-214.538	-18.834	0.272	-0.169
-213.523	-23.915	0.147	0.088
-212.509	-181.715	0.058	-0.001
-211.494	-132.785	-0.279	0.036
-210.479	-53.999	0.344	-0.156
-209.465	360.066	-0.101	0.201
-208.450	108.115	0.108	-0.129
-207.436	-200.000	-0.017	-0.237
-206.421	-84.435	-0.278	-0.088
-205.406	390.080	0.141	0.291
-204.392	-117.515	0.167	-0.030
-203.377	456.287	-0.084	0.185
-202.363	245.969	-0.137	0.230
-201.348	-19.206	0.277	0.172
-200.333	-139.658	0.114	-0.012
-199.319	-10.508	0.569	-0.376
-198.304	-200.000	-0.007	-0.101
-197.290	-200.000	-0.007	0.345
-196.275	430.640	-0.122	-0.262
-195.260	229.694	0.074	0.120
-194.246	-200.000	0.007	-0.038
-193.231	-137.759	0.171	-0.019
-192.217	-58.456	-0.164	-0.071
-191.202	800.000	-0.063	0.199
-190.187	169.421	0.018	-0.026
-189.173	-56.829	0.215	0.095
-188.158	521.385	-0.071	-0.166
-187.144	-53.794	0.139	-0.063
-186.129	-82.676	0.170	0.055
-185.114	-200.000	0.034	0.314
-184.100	-90.475	-0.355	0.102
-183.085	800.000	0.007	0.022
-182.071	-69.655	0.257	-0.098
-181.056	0.254	-0.231	0.164
-180.042	-85.136	-0.301	-0.094
-179.027	256.209	0.054	-0.091
-178.012	49.755	-0.119	0.111
-176.998	800.000	-0.099	-0.285
-175.983	11.412	-0.315	-0.241
-174.969	19.655	-0.134	-0.107
-173.954	419.119	0.136	0.289
-172.939	45.963	-0.226	-0.209
-171.925	396.995	0.117	-0.244
-170.910	-141.802	0.333	0.033
-169.896	-200.000	-0.029	-0.193
-168.881	17.016	-0.133	-0.105
-167.866	-29.158	-0.269	-0.153
-166.852	16.221	-0.092	0.072
-165.837	7.116	0.221	0.164
-164.823	38.509	-0.190	0.168
-163.808	-200.000	-0.002	0.044
-162.793	-58.210	0.280	0.121
-161.779	157.636	-0.130	0.179
-160.764	-73.863	-0.124	0.045
-159.750	133.946	-0.051	-0.065
-158.735	347.101	-0.080	-0.157
-157.720	-51.654	0.104	-0.048
-156.706	-200.000	-0.001	0.038
-155.691	-111.734	-0.183	0.037
-154.677	81.761	0.062	-0.066
-153.662	800.000	0.051	-0.144
-152.647	151.800	0.084	-0.115
-151.633	388.518	-0.166	0.341
-150.618	712.363	-0.097	0.257
-149.604	-200.000	-0.100	0.452
-148.589	90.572	-0.220	-0.245
-147.574	63.866	-0.108	0.108
-146.560	47.658	0.146	0.136
-145.545	-17.584	-0.437	0.273
-144.531	189.714	0.072	0.108
-143.516	-16.319	-0.088	0.055
-142.502	800.000	-0.068	0.199
-141.487	-200.000	0.013	-0.096
-140.472	-200.000	-0.026	-0.317
-139.458	440.234	-0.069	0.151
-138.443	-165.274	0.362	-0.016
-137.429	-69.893	-0.269	-0.102
-136.414	-143.501	-0.292	-0.028
-135.399	24.131	0.076	-0.062
-134.385	-200.000	-0.012	0.157
-133.370	-63.838	0.141	-0.057
-132.356	-25.556	0.310	0.182
-131.341	-200.000	-0.022	-0.246
-130.326	800.000	-0.113	0.324
-129.312	-81.321	-0.089	-0.029
-128.297	-7.617	0.301	-0.202
-127.283	25.871	-0.192	0.159
-126.268	-200.000	-0.013	-0.059
-125.253	91.474	-0.306	-0.342
-124.239	-62.417	0.160	0.066
-123.224	800.000	0.085	-0.348
-122.210	-26.014	0.501	-0.293
-121.195	-79.936	0.321	-0.107
