DTS Sentinel unit serial number:	SN413079Multiplexer serial number:	ORYXHardware model number:	OX4-SRSoftware version number:	ORYX F/W v4.00 Oryx Data Collector v3.7.2.0data status	okinstallation	princeton_trtdifferential loss correction	single-endedforward channel	channel 4reverse channel	N/Adate	2019/09/17time	11:45:34forward acquisition time	60.00reverse acquisition time	0.00gamma	496.2192k internal	0.2308k external	0.2308temperature offset calibration	0.9984default loss term (dB/km)	0.3790temperature slope calibration	1.0000multiplexer offset coefficient	1.0000multiplexer slope coefficient	1.0000fibre end	0.00T internal ref (°C)	30.89T ext. ref 1 (°C)	0.39T ext. ref 2 (°C)	26.67length (m)	temperature (°C)	Stokes	anti-Stokes-747.200	-33.843	0.162	0.091
-746.185	-145.819	-0.292	0.026
-745.171	-200.000	-0.002	-0.038
-744.156	47.339	-0.104	0.099
-743.142	-40.768	-0.229	0.121
-742.127	137.067	-0.116	0.154
-741.112	110.635	-0.357	0.436
-740.098	-200.000	0.008	-0.121
-739.083	-200.000	0.036	0.170
-738.069	-70.042	0.309	0.120
-737.054	45.219	-0.023	-0.021
-736.039	-84.662	-0.169	-0.054
-735.025	-200.000	0.021	0.222
-734.010	-68.848	-0.264	-0.104
-732.996	18.878	-0.373	-0.303
-731.981	93.330	-0.203	-0.233
-730.966	-200.000	-0.027	-0.242
-729.952	251.866	0.083	-0.144
-728.937	4.089	0.013	0.010
-727.923	-200.000	0.017	-0.255
-726.908	73.823	-0.097	0.103
-725.894	-58.644	0.095	-0.042
-724.879	-77.699	-0.230	-0.081
-723.864	33.800	-0.148	-0.131
-722.850	32.742	0.191	-0.168
-721.835	-39.488	0.086	0.046
-720.821	-164.679	0.166	-0.008
-719.806	800.000	-0.047	-0.140
-718.791	-88.339	-0.262	0.079
-717.777	-6.230	0.131	0.091
-716.762	207.948	-0.227	0.360
-715.748	73.858	-0.162	0.172
-714.733	189.802	-0.088	0.134
-713.718	-36.356	-0.188	-0.103
-712.704	74.323	-0.268	-0.285
-711.689	29.995	0.130	0.112
-710.675	124.259	0.085	-0.108
-709.660	-31.576	-0.371	0.212
-708.645	-200.000	0.007	0.096
-707.631	77.831	0.227	-0.246
-706.616	138.302	-0.168	0.224
-705.602	-200.000	0.008	-0.442
-704.587	-95.062	0.090	0.025
-703.572	128.467	0.103	0.133
-702.558	-200.000	-0.009	-0.278
-701.543	96.046	0.098	-0.113
-700.529	800.000	0.112	0.343
-699.514	695.194	0.041	0.109
-698.499	497.930	0.139	0.325
-697.485	-23.588	-0.099	0.060
-696.470	-3.763	0.200	0.141
-695.456	-200.000	-0.000	-0.208
-694.441	-151.422	0.190	0.014
-693.426	-200.000	0.014	0.195
-692.412	-200.000	0.035	0.195
-691.397	-200.000	0.000	0.059
-690.383	-89.833	0.227	0.067
-689.368	800.000	0.092	-0.284
-688.354	37.133	-0.146	-0.131
-687.339	49.039	0.149	0.142
-686.324	-0.391	0.266	-0.192
-685.310	51.638	0.207	-0.199
-684.295	424.208	0.036	-0.078
-683.281	79.877	0.077	-0.083
-682.266	-55.052	0.313	-0.143
-681.251	32.302	0.190	-0.166
-680.237	155.012	-0.222	-0.309
-679.222	800.000	-0.055	-0.164
-678.208	-138.464	-0.248	-0.028
-677.193	-45.855	0.035	0.017
-676.178	94.458	-0.241	0.277
-675.164	-66.629	-0.244	0.098
-674.149	-75.255	0.333	-0.121
-673.135	800.000	-0.092	-0.371
-672.120	405.734	-0.043	0.092
-671.105	4.276	-0.129	0.095
-670.091	-17.563	-0.460	-0.293
-669.076	-125.936	-0.208	-0.032
-668.062	800.000	0.011	-0.039
-667.047	-71.752	-0.420	-0.159
-666.032	-64.310	0.280	0.116
-665.018	652.174	-0.063	-0.163
-664.003	-13.289	0.419	-0.275
-662.989	63.795	-0.104	0.106
-661.974	328.994	-0.121	-0.236
-660.959	395.699	0.101	-0.213
-659.945	568.602	-0.106	-0.260
-658.930	50.221	-0.173	-0.166
-657.916	124.197	-0.154	-0.196
-656.901	56.134	0.133	0.131
-655.886	-200.000	0.005	-0.133
-654.872	8.638	-0.130	0.099
-653.857	-200.000	0.025	-0.172
-652.843	-12.828	0.117	-0.077
-651.828	-183.683	0.142	0.002
-650.814	384.221	-0.082	0.170
-649.799	2.883	0.130	-0.095
-648.784	-53.551	-0.234	-0.109
-647.770	-200.000	0.007	-0.122
-646.755	96.596	-0.048	-0.056
-645.741	87.047	-0.088	-0.098
-644.726	-7.623	-0.130	0.089
-643.711	800.000	0.065	0.287
-642.697	225.854	-0.094	-0.154
-641.682	-141.770	-0.154	0.016
-640.668	800.000	0.011	0.050
-639.653	-200.000	0.037	-0.377
-638.638	800.000	-0.019	-0.079
-637.624	-200.000	0.039	-0.285
-636.609	-98.739	-0.439	0.113
-635.595	-96.712	-0.361	-0.096
-634.580	31.620	-0.108	-0.094
-633.565	-35.524	0.020	0.011
-632.551	-200.000	-0.037	-0.200
-631.536	108.410	0.122	0.148
-630.522	33.149	-0.081	-0.071
-629.507	343.362	0.061	-0.122
-628.492	74.509	-0.194	-0.206
-627.478	-119.327	-0.350	-0.062
-626.463	7.070	0.396	0.299
-625.449	-19.600	0.151	-0.094
-624.434	-200.000	-0.002	0.000
-623.419	162.024	-0.043	-0.061
-622.405	-200.000	-0.023	-0.245
-621.390	76.203	0.045	-0.048
-620.376	44.441	0.246	0.229
-619.361	-200.000	-0.007	0.149
-618.346	-21.581	0.080	0.050
-617.332	534.310	-0.123	0.295
-616.317	44.383	0.237	-0.220
-615.303	-90.674	-0.135	-0.039
-614.288	-132.445	-0.286	0.037
-613.273	-108.839	-0.188	-0.041
-612.259	-150.154	-0.121	-0.009
-611.244	-200.000	-0.039	-0.247
-610.230	74.795	0.077	0.082
-609.215	166.558	0.191	-0.273
-608.201	-196.497	-0.217	-0.001
-607.186	-134.924	0.174	0.021
-606.171	70.127	-0.192	-0.200
-605.157	800.000	0.046	0.152
-604.142	34.682	-0.093	0.083
-603.128	800.000	0.048	0.167
-602.113	-76.573	0.290	0.103
-601.098	-200.000	-0.023	0.348
-600.084	180.587	-0.154	0.229
-599.069	-138.019	0.182	-0.021
-598.055	-20.758	0.118	0.073
-597.040	-200.000	-0.002	-0.056
-596.025	-9.282	-0.201	0.136
-595.011	-156.601	-0.065	-0.004
-593.996	555.841	0.030	0.072
-592.982	-69.747	-0.241	-0.093
-591.967	-200.000	-0.004	0.274
-590.952	555.109	-0.208	0.506
-589.938	-54.701	0.078	0.036
-588.923	-87.746	-0.092	0.028
-587.909	188.067	0.123	-0.186
-586.894	-200.000	-0.058	-0.283
-585.879	569.613	-0.086	0.212
-584.865	-6.697	0.206	-0.142
-583.850	-25.656	0.061	0.036
-582.836	201.114	-0.193	-0.301
-581.821	67.413	-0.138	0.142
-580.806	-113.489	0.230	0.046
-579.792	-42.401	0.074	0.038
-578.777	-172.052	0.256	-0.008
-577.763	-200.000	0.001	0.486
-576.748	41.402	0.325	0.297
-575.733	286.553	0.076	0.138
-574.719	-74.451	-0.286	0.104
-573.704	197.728	-0.096	-0.149
-572.690	-200.000	0.062	0.344
-571.675	-200.000	-0.030	0.258
-570.661	-120.755	0.203	0.035
-569.646	800.000	-0.045	0.158
-568.631	-52.697	-0.178	0.083
-567.617	760.327	-0.110	0.300
-566.602	223.342	-0.074	-0.120
-565.588	-68.218	-0.170	-0.067
-564.573	6.399	0.048	-0.036
-563.558	617.511	0.008	0.019
-562.544	139.467	-0.221	-0.293
-561.529	-26.652	0.182	-0.108
-560.515	151.879	-0.262	0.360
-559.500	45.901	0.158	-0.147
-558.485	-200.000	-0.011	-0.533
-557.471	-81.685	-0.166	0.055
-556.456	-112.029	-0.105	0.021
-555.442	-31.865	0.282	-0.160
-554.427	-114.329	-0.299	-0.058
-553.412	-5.908	-0.228	0.157
-552.398	-11.362	-0.095	0.063
-551.383	655.882	-0.091	0.237
-550.369	-200.000	-0.006	0.037
-549.354	-167.306	-0.554	0.023
-548.339	60.784	-0.298	0.298
-547.325	800.000	0.102	-0.294
-546.310	37.377	0.237	0.212
-545.296	800.000	0.077	0.274
-544.281	-94.430	0.244	0.067
-543.266	62.698	0.057	0.058
-542.252	77.481	-0.033	0.036
-541.237	301.338	-0.126	0.235
-540.223	13.437	0.387	0.303
-539.208	74.140	-0.148	0.157
-538.193	-134.020	0.060	0.007
-537.179	800.000	-0.153	-0.444
-536.164	-30.788	-0.191	0.109
-535.150	-125.572	0.336	0.051
-534.135	-9.271	0.145	-0.097
-533.121	-81.789	0.329	0.109
-532.106	-200.000	0.000	0.023
-531.091	623.409	-0.061	0.154
-530.077	446.374	-0.049	0.108
-529.062	293.316	0.050	0.092
-528.048	-86.472	0.199	0.062
-527.033	56.030	0.242	-0.237
-526.018	-11.541	0.052	-0.034
-525.004	-200.000	0.012	-0.140
-523.989	29.467	-0.205	0.175
-522.975	209.295	0.108	0.171
-521.960	800.000	-0.130	-0.420
-520.945	56.905	-0.141	-0.138
-519.931	247.664	-0.102	0.174
-518.916	-113.782	0.036	-0.007
-517.902	-5.015	0.140	0.097
-516.887	294.993	-0.087	0.160
-515.872	523.359	0.056	0.133
-514.858	300.609	0.178	0.331
-513.843	428.639	-0.052	0.114
-512.829	-103.459	0.214	0.051
-511.814	-23.707	0.167	0.101
-510.799	-200.000	0.081	-0.425
-509.785	233.273	0.102	-0.169
-508.770	346.366	0.081	-0.161
-507.756	-27.923	-0.043	0.025
-506.741	199.115	0.110	0.169
-505.726	800.000	0.037	0.111
-504.712	-127.646	0.193	-0.028
-503.697	-175.736	-0.266	0.007
-502.683	-89.162	-0.200	0.059
-501.668	-87.138	-0.054	0.017
-500.653	-7.625	0.216	0.147
-499.639	207.263	0.132	0.208
-498.624	415.227	-0.183	0.392
-497.610	150.252	-0.395	-0.540
-496.595	38.221	0.191	-0.171
-495.581	186.393	0.105	-0.157
-494.566	-95.119	-0.249	-0.068
-493.551	-10.681	-0.253	0.169
-492.537	116.324	-0.132	0.163
-491.522	33.848	-0.162	-0.142
-490.508	800.000	-0.175	-0.501
-489.493	0.627	0.082	0.059
-488.478	143.619	-0.247	0.332
-487.464	-18.619	0.260	0.163
-486.449	140.460	0.240	-0.319
-485.435	-177.120	-0.156	-0.004
-484.420	-39.364	0.213	0.113
-483.405	138.007	-0.123	0.162
-482.391	-200.000	-0.010	-0.267
-481.376	-39.358	0.320	-0.169
-480.362	-48.297	-0.076	-0.037
-479.347	721.534	-0.024	-0.065
-478.332	-90.322	0.049	-0.014
-477.318	-72.635	-0.169	-0.063
-476.303	82.961	-0.156	0.170
-475.289	-145.196	-0.191	-0.017
-474.274	94.574	-0.172	-0.196
-473.259	800.000	-0.067	0.208
-472.245	231.453	-0.144	-0.238
-471.230	-72.384	0.286	0.107
-470.216	5.692	-0.191	0.142
-469.201	236.561	0.080	0.132
-468.186	488.039	0.058	-0.133
-467.172	-69.134	0.018	0.007
-466.157	-90.019	-0.470	-0.138
-465.143	83.550	0.208	0.228
-464.128	800.000	-0.065	-0.220
-463.113	-188.242	-0.215	-0.003
-462.099	-76.872	-0.257	-0.090
-461.084	-48.026	-0.081	-0.039
-460.070	-175.304	-0.274	0.008
-459.055	-16.482	0.289	0.184
-458.040	568.899	-0.089	0.218
-457.026	494.871	-0.098	-0.227
-456.011	-200.000	-0.012	-0.098
-454.997	-3.662	-0.202	-0.141
-453.982	-140.807	-0.396	-0.041
-452.968	-200.000	-0.016	0.242
-451.953	-200.000	0.004	0.069
-450.938	-72.278	0.161	0.060
-449.924	501.825	-0.112	-0.261
-448.909	-25.613	-0.099	0.058
-447.895	303.960	-0.187	0.349
-446.880	-65.729	0.153	-0.061
-445.865	-200.000	0.026	0.134
-444.851	393.640	0.048	-0.101
-443.836	204.531	-0.058	0.090
-442.822	-138.412	-0.164	-0.018
-441.807	8.510	-0.156	0.118
-440.792	58.872	-0.102	0.101
-439.778	8.835	-0.110	0.083
-438.763	-118.383	-0.127	-0.023
-437.749	-175.411	-0.103	-0.003
-436.734	-200.000	0.052	-0.316
-435.719	761.255	-0.065	-0.178
-434.705	-200.000	-0.019	0.129
-433.690	-200.000	-0.002	0.017
-432.676	107.038	-0.260	-0.310
-431.661	206.522	0.024	0.038
-430.646	10.197	0.261	0.199
-429.632	40.376	0.137	0.123
-428.617	-200.000	-0.034	0.333
-427.603	3.312	-0.283	0.207
-426.588	800.000	0.033	-0.117
-425.573	-67.951	-0.322	0.126
-424.559	-200.000	0.000	0.050
-423.544	-72.585	-0.045	-0.017
-422.530	-181.950	-0.120	-0.002
-421.515	800.000	0.045	-0.142
-420.500	-9.910	0.319	-0.213
-419.486	-125.288	-0.159	-0.024
-418.471	660.165	0.107	0.275
-417.457	-63.388	-0.102	-0.042
-416.442	5.230	-0.265	-0.196
-415.428	439.767	0.136	0.299
-414.413	-37.658	0.223	-0.119
-413.398	-24.294	0.196	0.118
-412.384	39.168	0.167	-0.150
-411.369	-200.000	0.048	0.404
-410.355	-172.350	-0.308	-0.010
-409.340	57.027	0.241	-0.236
-408.325	-200.000	-0.052	-0.352
-407.311	443.958	0.152	-0.335
-406.296	-109.378	-0.090	0.019
-405.282	-200.000	-0.056	0.247
-404.267	138.445	-0.103	-0.136
-403.252	800.000	0.043	0.133
-402.238	-173.508	0.302	0.009
-401.223	125.075	-0.149	-0.189
-400.209	-200.000	-0.027	0.195
-399.194	-200.000	0.003	0.119
-398.179	-200.000	-0.005	0.023
-397.165	-200.000	-0.033	-0.166
-396.150	-34.760	0.264	-0.145
-395.136	-200.000	-0.031	-0.461
-394.121	-50.142	0.363	0.172
-393.106	263.590	0.094	0.164
-392.092	-200.000	0.054	-0.465
-391.077	-100.227	0.120	-0.030
-390.063	-200.000	-0.023	0.112
-389.048	800.000	0.040	-0.161
-388.033	-50.811	0.488	0.230
-387.019	57.547	-0.212	0.208
-386.004	53.452	-0.045	-0.043
-384.990	45.661	0.238	0.221
-383.975	-200.000	-0.014	0.113
-382.960	622.336	0.068	0.173
-381.946	-200.000	-0.010	0.223
-380.931	-157.119	0.085	0.005
-379.917	-141.582	0.180	-0.018
-378.902	-78.820	-0.354	0.121
-377.888	-10.231	0.094	0.062
-376.873	-85.329	0.114	0.036
-375.858	120.507	0.048	0.060
-374.844	800.000	-0.028	0.078
-373.829	57.762	0.180	0.176
-372.815	73.656	-0.044	-0.046
-371.800	327.706	-0.251	0.482
-370.785	69.630	0.362	0.373
-369.771	-200.000	-0.029	-0.255
-368.756	317.026	-0.059	0.112
-367.742	-24.786	0.069	-0.041
-366.727	-107.952	-0.219	-0.048
-365.712	778.876	-0.133	-0.365
-364.698	-48.990	-0.056	-0.027
-363.683	62.735	-0.121	-0.121
-362.669	-19.858	-0.197	-0.122
-361.654	-200.000	-0.009	0.192
-360.639	-200.000	0.037	-0.291
-359.625	235.626	0.200	-0.332
-358.610	-25.578	0.286	-0.169
-357.596	-19.527	0.220	0.136
-356.581	-200.000	-0.007	-0.071
-355.566	-200.000	-0.023	-0.150
-354.552	-140.900	0.475	-0.049
-353.537	450.371	-0.084	-0.185
-352.523	-92.443	-0.058	-0.016
-351.508	-200.000	-0.025	0.135
-350.493	193.489	-0.109	0.164
-349.479	-38.714	-0.307	-0.162
-348.464	-67.491	0.412	-0.162
-347.450	40.922	0.253	0.229
-346.435	-42.143	0.178	-0.091
-345.420	111.773	-0.063	-0.076
-344.406	-25.772	0.221	-0.130
-343.391	-3.228	0.089	-0.062
-342.377	-38.908	-0.316	0.167
-341.362	214.030	0.213	-0.337
-340.348	70.676	0.186	-0.192
-339.333	-65.525	0.121	0.049
-338.318	800.000	0.052	-0.151
-337.304	28.721	-0.285	-0.241
-336.289	388.419	0.029	0.059
-335.275	800.000	0.016	0.048
-334.260	796.176	-0.018	-0.048
-333.245	-0.152	-0.117	-0.083
-332.231	-130.866	-0.121	0.016
-331.216	-29.215	-0.201	-0.115
-330.202	-25.081	-0.163	-0.096
-329.187	-112.450	0.085	-0.017
-328.172	-138.885	0.290	0.032
-327.158	102.004	-0.150	-0.175
-326.143	-83.699	0.132	0.042
-325.129	176.464	-0.137	-0.199
-324.114	800.000	-0.099	-0.327
-323.099	-148.846	0.279	-0.023
-322.085	-138.181	0.342	-0.038
-321.070	800.000	-0.043	0.126
-320.056	-111.825	-0.201	0.041
-319.041	-137.961	0.229	0.026
-318.026	-200.000	-0.023	0.427
-317.012	81.053	0.059	0.064
-315.997	-200.000	0.024	-0.349
-314.983	800.000	0.022	0.096
-313.968	39.766	0.350	-0.314
-312.953	-114.122	0.094	0.018
-311.939	-151.742	0.387	0.028
-310.924	-52.210	-0.353	0.164
-309.910	374.484	0.078	-0.159
-308.895	800.000	-0.011	0.033
-307.880	-200.000	0.020	0.090
-306.866	800.000	0.081	-0.282
-305.851	187.353	0.149	-0.222
-304.837	150.839	0.141	0.191
-303.822	-19.531	-0.259	0.160
-302.807	-200.000	0.011	-0.050
-301.793	211.537	0.117	-0.185
-300.778	-69.750	-0.152	0.058
-299.764	800.000	0.139	0.396
-298.749	-69.395	0.129	0.050
-297.735	49.630	-0.196	-0.185
-296.720	800.000	-0.007	0.023
-295.705	800.000	-0.087	-0.359
-294.691	800.000	0.008	-0.033
-293.676	721.560	-0.023	0.062
-292.662	51.021	0.168	0.159
-291.647	-200.000	0.023	-0.203
-290.632	800.000	-0.055	0.162
-289.618	207.135	0.136	0.212
-288.603	-81.547	-0.096	-0.031
-287.589	237.629	0.096	0.159
-286.574	75.158	-0.100	0.105
-285.559	-84.684	-0.231	0.072
-284.545	246.088	-0.027	0.046
-283.530	23.475	0.274	0.225
-282.516	767.736	-0.194	0.527
-281.501	-156.328	0.325	-0.020
-280.486	-176.874	-0.044	0.001
-279.472	-133.932	-0.341	-0.042
-278.457	-200.000	0.026	0.213
-277.443	3.548	0.243	-0.177
-276.428	-200.000	-0.010	-0.584
-275.413	77.885	-0.271	-0.288
-274.399	-32.003	0.128	0.072
-273.384	137.960	0.079	0.103
-272.370	-200.000	-0.036	-0.301
-271.355	-200.000	0.055	-0.332
-270.340	-200.000	-0.013	-0.059
-269.326	-74.226	-0.184	-0.067
-268.311	-51.337	0.120	-0.056
-267.297	-75.211	-0.156	-0.056
-266.282	-3.707	-0.034	-0.023
-265.267	-198.965	-0.163	0.001
-264.253	-200.000	-0.030	-0.289
-263.238	93.988	-0.074	-0.084
-262.224	-111.259	-0.108	-0.022
-261.209	-6.906	0.140	0.095
-260.195	800.000	-0.084	0.284
-259.180	-200.000	-0.034	0.217
-258.165	-68.309	0.346	-0.134
-257.151	-73.187	0.195	-0.071
-256.136	800.000	-0.063	0.179
-255.122	506.055	-0.124	-0.287
-254.107	-200.000	-0.041	-0.432
-253.092	677.227	-0.033	0.087
-252.078	-63.366	-0.261	-0.107
-251.063	15.576	0.176	0.138
-250.049	800.000	-0.120	-0.366
-249.034	9.492	0.151	0.114
-248.019	800.000	-0.101	0.407
-247.005	800.000	-0.006	0.017
-245.990	-68.033	-0.236	0.092
-244.976	47.699	-0.139	0.129
-243.961	168.876	0.276	0.392
-242.946	-200.000	0.030	-0.207
-241.932	800.000	-0.088	0.246
-240.917	4.864	0.150	-0.110
-239.903	-44.488	-0.168	-0.084
-238.888	-24.380	-0.080	-0.048
-237.873	23.433	0.136	-0.111
-236.859	242.233	0.136	0.226
-235.844	-59.466	0.109	-0.047
-234.830	800.000	0.064	0.235
-233.815	144.940	-0.111	0.148
-232.800	-45.703	-0.236	0.116
-231.786	-69.663	0.455	0.174
-230.771	-29.405	-0.152	-0.087
-229.757	-48.399	-0.111	0.053
-228.742	-41.463	0.095	-0.049
-227.727	-31.445	0.196	0.110
-226.713	-103.759	0.191	0.045
-225.698	31.128	0.136	0.116
-224.684	57.218	-0.170	0.165
-223.669	-28.936	0.078	0.045
-222.655	59.483	0.274	-0.269
-221.640	-51.403	-0.274	-0.128
-220.625	-32.249	-0.154	-0.086
-219.611	-41.828	-0.122	-0.062
-218.596	62.057	0.182	-0.181
-217.582	800.000	-0.101	-0.296
-216.567	-121.946	0.069	0.011
-215.552	783.761	0.100	-0.274
-214.538	-200.000	0.013	-0.145
-213.523	-150.442	0.123	0.009
-212.509	-78.790	0.161	0.055
-211.494	255.969	-0.104	0.178
-210.479	800.000	-0.042	0.131
-209.465	656.627	0.135	-0.346
-208.450	-86.634	-0.051	0.016
-207.436	1.409	-0.355	-0.254
-206.421	-0.090	0.202	-0.143
-205.406	-200.000	-0.026	0.155
-204.392	-111.331	0.229	-0.047
-203.377	158.133	0.182	0.252
-202.363	150.292	0.096	-0.130
-201.348	800.000	0.058	-0.242
-200.333	-37.819	-0.385	0.204
-199.319	-108.876	0.332	-0.071
-198.304	202.170	-0.138	-0.212
-197.290	-107.740	0.270	-0.059
-196.275	-137.534	-0.273	0.031
-195.260	-187.317	-0.545	-0.007
-194.246	-57.375	0.224	-0.098
-193.231	-154.481	-0.264	-0.018
-192.217	-200.000	-0.057	-0.301
-191.202	800.000	-0.065	-0.231
-190.187	-114.549	0.076	-0.015
-189.173	-200.000	0.042	-0.222
-188.158	493.944	0.063	-0.143
-187.144	38.609	0.136	0.120
-186.129	-153.582	-0.203	0.014
-185.114	277.214	-0.060	-0.106
-184.100	-164.322	-0.159	0.007
-183.085	-54.343	-0.161	-0.073
-182.071	-16.097	0.138	0.087
-181.056	83.705	-0.029	0.031
-180.042	31.355	-0.092	-0.078
-179.027	-168.444	-0.064	-0.002
-178.012	-200.000	0.009	-0.204
-176.998	253.276	0.130	-0.220
-175.983	7.869	0.077	-0.057
-174.969	-160.609	-0.278	-0.015
-173.954	-146.563	0.269	-0.023
-172.939	384.238	0.128	0.261
-171.925	428.614	-0.075	0.161
-170.910	-68.759	0.269	0.104
-169.896	248.699	-0.075	0.126
-168.881	336.761	-0.181	-0.349
-167.866	-50.438	0.259	-0.121
-166.852	-27.568	0.296	0.171
-165.837	-155.047	0.200	0.013
-164.823	-93.796	-0.097	0.026
-163.808	-190.676	0.447	-0.005
-162.793	449.821	0.131	0.286
-161.779	-41.157	0.205	0.105
-160.764	-88.381	-0.023	-0.007
-159.750	-91.197	0.200	-0.057
-158.735	202.842	0.295	0.453
-157.720	238.537	-0.100	0.164
-156.706	800.000	0.066	-0.239
-155.691	-200.000	-0.024	0.154
-154.677	-200.000	-0.002	0.144
-153.662	800.000	-0.034	-0.107
-152.647	114.116	-0.213	0.257
-151.633	94.488	-0.049	0.056
-150.618	45.972	0.088	0.081
-149.604	129.016	-0.060	0.076
-148.589	13.667	0.190	0.147
-147.574	-12.035	0.185	-0.121
-146.560	-174.389	-0.246	-0.007
-145.545	-200.000	0.018	0.127
-144.531	-114.829	-0.039	-0.007
-143.516	159.056	0.148	0.204
-142.502	-88.396	-0.378	0.112
-141.487	-150.156	-0.133	0.010
-140.472	-136.113	0.094	0.011
-139.458	207.776	-0.049	-0.076
-138.443	116.038	-0.105	0.127
-137.429	26.207	-0.179	-0.148
-136.414	-38.305	-0.273	-0.143
-135.399	54.882	0.077	-0.074
-134.385	-87.565	-0.053	-0.016
-133.370	-59.683	-0.040	0.017
-132.356	183.051	0.072	-0.105
-131.341	96.986	-0.117	-0.133
-130.326	-181.043	-0.048	-0.001
-129.312	13.541	0.258	-0.199
-128.297	-76.910	0.225	-0.078
-127.283	-200.000	-0.016	0.082
-126.268	-200.000	0.028	0.306
-125.253	-200.000	0.074	0.329
-124.239	-60.006	-0.185	0.078
-123.224	201.451	-0.080	0.122
-122.210	-131.394	0.234	0.031
-121.195	-82.073	0.336	-0.109
-120.180	51.794	-0.076	-0.072
