DTS Sentinel unit serial number:	SN413079Multiplexer serial number:	ORYXHardware model number:	OX4-SRSoftware version number:	ORYX F/W v4.00 Oryx Data Collector v3.7.2.0data status	okinstallation	princeton_trtdifferential loss correction	single-endedforward channel	channel 4reverse channel	N/Adate	2019/09/17time	21:45:34forward acquisition time	60.00reverse acquisition time	0.00gamma	496.2192k internal	0.2328k external	0.2328temperature offset calibration	0.9995default loss term (dB/km)	0.3790temperature slope calibration	1.0000multiplexer offset coefficient	1.0000multiplexer slope coefficient	1.0000fibre end	0.00T internal ref (°C)	26.55T ext. ref 1 (°C)	0.19T ext. ref 2 (°C)	19.15length (m)	temperature (°C)	Stokes	anti-Stokes-747.200	140.345	0.076	-0.100
-746.185	-22.031	-0.138	-0.085
-745.171	24.557	0.180	0.150
-744.156	-200.000	0.055	0.289
-743.142	-112.443	0.264	-0.053
-742.127	800.000	-0.092	0.344
-741.112	-80.922	0.225	0.075
-740.098	299.588	0.057	-0.105
-739.083	-2.161	0.261	0.185
-738.069	62.916	-0.173	0.174
-737.054	-157.277	0.366	0.022
-736.039	-8.485	-0.273	0.185
-735.025	80.652	0.294	0.319
-734.010	121.543	-0.057	-0.071
-732.996	800.000	-0.093	-0.365
-731.981	-183.065	-0.302	0.005
-730.966	207.698	0.149	-0.235
-729.952	-200.000	0.030	-0.147
-728.937	-200.000	0.007	-0.259
-727.923	800.000	-0.036	0.115
-726.908	187.503	-0.214	0.322
-725.894	800.000	-0.043	0.173
-724.879	20.958	0.247	-0.202
-723.864	-117.972	-0.158	-0.028
-722.850	-200.000	0.051	-0.366
-721.835	-68.703	-0.288	0.112
-720.821	86.992	-0.104	0.116
-719.806	-91.923	-0.146	0.042
-718.791	-42.385	0.147	0.075
-717.777	-64.058	0.381	-0.157
-716.762	800.000	0.075	0.292
-715.748	155.196	0.031	0.043
-714.733	544.564	0.081	-0.194
-713.718	800.000	0.050	-0.141
-712.704	45.817	-0.190	-0.176
-711.689	-133.038	-0.358	0.046
-710.675	-24.593	-0.129	0.077
-709.660	-200.000	-0.005	0.331
-708.645	142.009	0.073	0.098
-707.631	-42.167	-0.062	0.032
-706.616	-132.859	0.193	-0.025
-705.602	-200.000	0.017	0.487
-704.587	345.036	0.096	0.190
-703.572	-99.406	-0.219	-0.056
-702.558	-52.299	-0.196	-0.092
-701.543	800.000	0.034	0.147
-700.529	-104.624	0.119	-0.028
-699.514	-114.078	-0.110	0.021
-698.499	248.675	-0.215	0.367
-697.485	31.870	-0.213	0.185
-696.470	-47.023	0.266	-0.131
-695.456	-25.895	0.389	0.231
-694.441	-138.478	0.071	0.008
-693.426	800.000	-0.108	-0.351
-692.412	-200.000	0.004	0.520
-691.397	333.073	-0.142	0.276
-690.383	1.198	-0.099	0.072
-689.368	-51.639	0.053	0.025
-688.354	106.494	-0.319	0.381
-687.339	441.763	-0.072	0.158
-686.324	376.825	-0.072	-0.149
-685.310	-180.473	-0.138	0.003
-684.295	800.000	-0.112	-0.357
-683.281	-38.404	-0.388	-0.206
-682.266	61.723	0.307	0.307
-681.251	34.976	-0.241	-0.212
-680.237	-135.680	-0.190	-0.023
-679.222	216.413	-0.163	-0.261
-678.208	19.863	0.119	0.096
-677.193	-200.000	-0.044	-0.318
-676.178	-29.894	0.028	0.016
-675.164	-52.599	-0.185	-0.086
-674.149	133.822	0.183	-0.238
-673.135	-119.182	-0.172	0.030
-672.120	-200.000	-0.028	-0.155
-671.105	-20.960	0.196	-0.121
-670.091	215.527	-0.190	-0.302
-669.076	71.745	0.272	-0.284
-668.062	-50.396	0.195	-0.092
-667.047	-168.623	-0.273	0.010
-666.032	37.420	0.080	0.072
-665.018	-200.000	-0.003	0.103
-664.003	-200.000	-0.046	-0.355
-662.989	178.120	-0.027	0.040
-661.974	202.773	-0.032	0.050
-660.959	-200.000	-0.014	0.077
-659.945	-200.000	0.070	0.334
-658.930	-200.000	-0.031	0.215
-657.916	1.432	-0.162	-0.117
-656.901	-75.224	-0.151	0.054
-655.886	-124.157	0.132	-0.021
-654.872	231.650	-0.106	0.175
-653.857	-78.163	-0.131	-0.045
-652.843	-127.692	-0.332	-0.048
-651.828	-200.000	-0.002	0.097
-650.814	800.000	0.091	-0.317
-649.799	-68.279	0.158	-0.062
-648.784	218.067	0.240	0.385
-647.770	-200.000	0.031	-0.313
-646.755	-200.000	0.023	-0.158
-645.741	250.266	-0.104	0.176
-644.726	-152.811	-0.228	-0.016
-643.711	234.859	-0.205	-0.340
-642.697	-5.413	-0.160	0.110
-641.682	-123.403	-0.217	0.035
-640.668	-40.224	0.126	-0.066
-639.653	800.000	-0.118	-0.394
-638.638	368.681	0.056	-0.114
-637.624	-53.299	0.231	0.106
-636.609	-200.000	0.065	-0.379
-635.595	800.000	-0.040	-0.146
-634.580	-10.146	-0.137	-0.091
-633.565	-76.750	-0.020	0.007
-632.551	-37.113	-0.212	0.114
-631.536	663.812	-0.098	-0.255
-630.522	312.076	-0.049	-0.093
-629.507	-97.411	-0.153	-0.040
-628.492	50.710	-0.166	0.158
-627.478	-107.816	-0.207	-0.045
-626.463	-38.328	-0.163	-0.086
-625.449	-167.206	0.260	0.011
-624.434	164.870	0.139	0.197
-623.419	-200.000	0.350	-0.000
-622.405	-72.167	-0.297	-0.111
-621.390	-200.000	-0.019	-0.305
-620.376	-97.784	-0.096	-0.025
-619.361	51.297	0.123	-0.117
-618.346	187.146	0.083	0.125
-617.332	-131.196	-0.409	0.054
-616.317	373.823	0.126	-0.257
-615.303	166.309	-0.219	-0.311
-614.288	22.087	-0.185	0.152
-613.273	-42.719	-0.241	0.123
-612.259	800.000	0.058	-0.198
-611.244	250.108	-0.082	-0.140
-610.230	-171.762	-0.183	-0.006
-609.215	116.330	-0.128	0.158
-608.201	553.630	-0.090	0.216
-607.186	69.516	-0.184	0.190
-606.171	77.697	-0.030	-0.032
-605.157	-96.071	-0.184	0.049
-604.142	-200.000	0.112	-0.001
-603.128	-128.786	0.183	-0.026
-602.113	88.393	-0.191	-0.213
-601.098	46.149	-0.175	0.163
-600.084	49.613	0.086	0.081
-599.069	-128.059	0.126	-0.018
-598.055	-134.107	-0.181	0.022
-597.040	82.889	0.140	-0.152
-596.025	-200.000	-0.036	-0.249
-595.011	278.375	0.020	0.036
-593.996	121.791	-0.057	-0.071
-592.982	279.003	-0.079	-0.140
-591.967	2.713	-0.094	-0.069
-590.952	-58.093	-0.374	-0.163
-589.938	81.798	-0.177	0.192
-588.923	-200.000	-0.073	-0.383
-587.909	99.513	-0.241	0.280
-586.894	607.501	-0.151	0.378
-585.879	-121.465	-0.023	0.004
-584.865	-200.000	-0.003	0.219
-583.850	-21.513	0.137	-0.083
-582.836	-144.954	0.134	-0.012
-581.821	124.522	0.186	0.235
-580.806	-19.434	0.132	0.082
-579.792	-172.698	-0.149	0.005
-578.777	51.870	0.271	-0.258
-577.763	-120.806	-0.288	-0.049
-576.748	-200.000	-0.023	-0.153
-575.733	-117.610	0.423	-0.076
-574.719	-119.831	0.146	-0.025
-573.704	140.689	-0.039	0.052
-572.690	496.443	0.044	-0.100
-571.675	-68.159	0.036	-0.014
-570.661	769.561	0.074	-0.203
-569.646	-4.794	-0.252	0.174
-568.631	-200.000	0.025	0.166
-567.617	87.891	-0.299	-0.332
-566.602	-151.712	0.105	0.008
-565.588	800.000	-0.032	-0.110
-564.573	292.458	-0.070	-0.127
-563.558	707.409	0.092	-0.243
-562.544	800.000	-0.104	0.308
-561.529	-110.020	0.430	0.090
-560.515	452.827	0.078	-0.172
-559.500	27.747	0.315	0.266
-558.485	-200.000	-0.044	-0.261
-557.471	-95.019	-0.180	0.049
-556.456	68.887	0.196	-0.202
-555.442	800.000	0.031	0.103
-554.427	-200.000	0.003	-0.072
-553.412	-31.489	0.182	0.102
-552.398	-83.264	0.165	-0.053
-551.383	-200.000	-0.039	-0.464
-550.369	429.836	-0.068	0.146
-549.354	-46.373	-0.084	0.041
-548.339	251.384	0.095	-0.161
-547.325	-146.448	-0.116	-0.010
-546.310	-32.199	-0.238	0.133
-545.296	800.000	-0.058	-0.221
-544.281	-163.386	0.197	0.009
-543.266	-50.859	0.003	-0.001
-542.252	-141.250	0.118	0.012
-541.237	-130.872	0.329	0.044
-540.223	-200.000	0.000	0.060
-539.208	-84.962	-0.043	-0.013
-538.193	-127.177	-0.290	0.042
-537.179	-200.000	0.025	-0.204
-536.164	-32.357	-0.064	0.036
-535.150	-92.802	-0.102	-0.029
-534.135	-143.688	0.269	-0.025
-533.121	-34.845	-0.236	0.129
-532.106	-46.227	0.302	0.149
-531.091	53.088	0.231	-0.221
-530.077	329.667	0.079	-0.152
-529.062	800.000	-0.036	0.119
-528.048	67.532	0.125	-0.128
-527.033	-55.499	0.249	0.112
-526.018	108.522	-0.166	-0.198
-525.004	15.409	-0.141	-0.111
-523.989	-98.520	0.057	-0.015
-522.975	-200.000	-0.005	-0.299
-521.960	-200.000	-0.027	0.394
-520.945	-127.611	-0.236	0.034
-519.931	47.761	-0.066	0.062
-518.916	-200.000	0.045	-0.360
-517.902	171.162	0.083	-0.118
-516.887	-73.310	-0.314	0.115
-515.872	800.000	-0.041	0.138
-514.858	-91.385	-0.110	-0.032
-513.843	93.729	-0.219	-0.248
-512.829	-126.037	0.234	0.035
-511.814	-125.094	0.109	0.017
-510.799	-200.000	-0.011	-0.170
-509.785	800.000	0.018	-0.064
-508.770	51.299	0.101	-0.096
-507.756	49.065	0.241	0.226
-506.741	-33.707	0.121	0.067
-505.726	-43.715	-0.126	0.063
-504.712	-112.852	-0.079	0.016
-503.697	-174.585	0.061	-0.002
-502.683	97.920	-0.007	0.008
-501.668	-98.670	0.257	-0.065
-500.653	63.387	-0.252	-0.252
-499.639	800.000	0.022	-0.086
-498.624	23.261	0.027	-0.022
-497.610	-145.197	-0.352	-0.032
-496.595	22.929	0.081	-0.066
-495.581	-93.914	-0.226	0.062
-494.566	-128.372	0.192	0.027
-493.551	-6.821	-0.118	0.080
-492.537	-5.546	0.117	-0.080
-491.522	-200.000	0.007	-0.107
-490.508	32.469	-0.211	-0.182
-489.493	51.543	0.168	-0.160
-488.478	-13.010	0.214	0.139
-487.464	190.760	0.107	0.161
-486.449	203.990	-0.270	0.417
-485.435	135.041	-0.284	-0.368
-484.420	-28.307	-0.132	0.076
-483.405	-12.101	0.038	0.025
-482.391	-41.678	0.332	-0.170
-481.376	-200.000	-0.022	-0.130
-480.362	-2.640	0.191	0.133
-479.347	-182.874	-0.234	0.004
-478.332	-200.000	-0.015	0.154
-477.318	-56.305	0.196	-0.087
-476.303	44.451	0.128	0.117
-475.289	586.399	0.123	0.302
-474.274	223.142	0.125	-0.200
-473.259	800.000	0.053	0.162
-472.245	89.672	0.194	0.216
-471.230	121.451	-0.212	0.263
-470.216	-98.496	-0.214	-0.055
-469.201	-147.779	-0.030	-0.002
-468.186	-200.000	-0.038	-0.268
-467.172	-61.638	0.289	0.121
-466.157	3.104	0.161	-0.117
-465.143	24.431	-0.373	0.307
-464.128	56.011	0.229	0.221
-463.113	312.800	-0.071	-0.133
-462.099	-42.995	-0.150	-0.076
-461.084	184.074	0.084	0.124
-460.070	-4.483	0.160	-0.110
-459.055	14.013	-0.123	0.095
-458.040	-53.328	0.426	-0.194
-457.026	-44.555	0.041	0.020
-456.011	-122.018	-0.135	0.022
-454.997	-200.000	-0.034	0.202
-453.982	593.450	-0.081	0.199
-452.968	6.715	0.189	0.140
-451.953	800.000	-0.055	-0.198
-450.938	-200.000	-0.021	0.098
-449.924	614.545	-0.066	-0.164
-448.909	516.793	0.033	-0.076
-447.895	-200.000	-0.038	-0.171
-446.880	130.655	0.157	-0.201
-445.865	-49.740	0.165	0.078
-444.851	-108.728	-0.157	0.034
-443.836	100.798	0.163	-0.189
-442.822	52.233	0.174	0.165
-441.807	67.209	-0.199	0.202
-440.792	-46.375	-0.177	0.087
-439.778	-123.380	0.393	-0.062
-438.763	87.102	0.171	-0.189
-437.749	-130.219	-0.089	-0.012
-436.734	800.000	-0.101	0.348
-435.719	152.026	-0.039	-0.053
-434.705	-136.860	0.164	-0.019
-433.690	205.646	-0.084	-0.130
-432.676	-101.898	0.139	0.034
-431.661	-200.000	-0.027	0.237
-430.646	-141.024	0.195	0.020
-429.632	-24.640	-0.241	0.143
-428.617	800.000	-0.049	-0.190
-427.603	80.310	-0.274	-0.294
-426.588	6.407	0.264	-0.195
-425.573	-127.708	-0.074	0.011
-424.559	230.169	-0.136	-0.222
-423.544	-25.384	-0.184	-0.108
-422.530	-49.330	-0.251	-0.119
-421.515	-12.529	0.022	-0.014
-420.500	800.000	0.050	0.192
-419.486	-200.000	0.009	-0.154
-418.471	122.732	-0.305	-0.380
-417.457	-29.826	0.288	0.163
-416.442	23.540	-0.242	0.198
-415.428	4.875	0.087	-0.064
-414.413	113.126	0.152	-0.183
-413.398	-132.424	-0.172	0.022
-412.384	-79.465	-0.115	-0.039
-411.369	97.899	-0.109	0.124
-410.355	-83.835	0.028	-0.009
-409.340	-200.000	-0.041	0.241
-408.325	162.488	0.268	0.373
-407.311	-51.881	0.151	-0.070
-406.296	-175.327	0.376	0.010
-405.282	421.297	-0.135	-0.289
-404.267	76.119	0.146	0.154
-403.252	532.308	-0.068	-0.161
-402.238	-11.600	-0.349	-0.228
-401.223	-200.000	-0.036	0.251
-400.209	-50.048	0.252	0.119
-399.194	56.794	-0.164	0.159
-398.179	47.173	0.087	-0.081
-397.165	-64.546	-0.075	-0.030
-396.150	-50.028	0.067	-0.032
-395.136	800.000	0.026	0.095
-394.121	178.846	0.045	-0.065
-393.106	398.424	0.109	0.227
-392.092	39.015	0.076	0.068
-391.077	-10.060	0.109	-0.072
-390.063	501.437	-0.030	-0.069
-389.048	79.265	0.185	-0.197
-388.033	-200.000	-0.043	0.265
-387.019	12.184	0.182	0.139
-386.004	754.344	-0.083	0.223
-384.990	-200.000	0.019	-0.086
-383.975	124.467	-0.145	0.181
-382.960	136.616	0.052	0.068
-381.946	196.853	-0.109	0.165
-380.931	-200.000	-0.035	0.213
-379.917	-95.336	-0.221	-0.059
-378.902	-130.483	0.052	0.007
-377.888	-34.190	-0.155	0.084
-376.873	-200.000	-0.026	-0.175
-375.858	-33.083	-0.213	0.117
-374.844	-28.156	0.179	-0.103
-373.829	-200.000	0.009	-0.127
-372.815	700.038	-0.057	0.150
-371.800	800.000	-0.060	0.170
-370.785	-19.831	-0.084	-0.051
-369.771	-155.654	0.170	0.011
-368.756	-200.000	0.027	-0.349
-367.742	-200.000	-0.016	-0.182
-366.727	-66.141	-0.102	0.040
-365.712	157.306	-0.198	-0.272
-364.698	737.150	-0.142	-0.378
-363.683	800.000	0.073	-0.240
-362.669	449.345	-0.186	-0.407
-361.654	3.634	-0.084	-0.061
-360.639	13.857	0.449	0.347
-359.625	-104.036	0.130	-0.030
-358.610	-86.269	-0.226	0.069
-357.596	182.025	0.037	0.055
-356.581	-200.000	-0.056	0.320
-355.566	-183.805	0.297	-0.005
-354.552	371.969	-0.127	0.256
-353.537	-185.408	-0.227	0.003
-352.523	-45.586	0.035	-0.017
-351.508	-36.867	0.220	0.117
-350.493	-200.000	-0.009	0.066
-349.479	-142.357	-0.163	0.016
-348.464	225.010	0.320	0.513
-347.450	800.000	-0.028	0.081
-346.435	138.510	0.107	-0.139
-345.420	-200.000	-0.001	-0.032
-344.406	394.762	0.142	0.294
-343.391	-200.000	-0.008	0.092
-342.377	417.066	-0.130	-0.274
-341.362	-24.393	0.177	-0.105
-340.348	91.798	0.043	0.048
-339.333	-200.000	0.035	0.162
-338.318	-4.056	0.098	-0.068
-337.304	-136.829	0.122	-0.014
-336.289	123.933	0.166	-0.206
-335.275	522.686	-0.151	-0.351
-334.260	66.823	0.051	0.051
-333.245	4.838	0.298	0.217
-332.231	15.666	-0.253	-0.197
-331.216	-43.966	-0.230	0.115
-330.202	-200.000	0.019	-0.101
-329.187	34.575	0.287	-0.248
-328.172	-65.163	-0.230	0.092
-327.158	-84.641	-0.224	-0.070
-326.143	-200.000	0.008	-0.238
-325.129	-178.114	-0.274	0.006
-324.114	228.465	-0.201	0.324
-323.099	-87.712	0.038	-0.011
-322.085	-150.168	-0.312	0.024
-321.070	800.000	-0.077	-0.264
-320.056	52.098	0.202	0.191
-319.041	-200.000	-0.036	0.277
-318.026	79.538	0.195	-0.207
-317.012	-40.117	-0.055	-0.028
-315.997	-200.000	-0.009	-0.057
-314.983	-70.104	0.231	0.087
-313.968	-181.187	0.388	-0.008
-312.953	-93.475	-0.266	-0.073
-311.939	800.000	0.050	0.139
-310.924	-200.000	0.018	0.212
-309.910	800.000	0.053	-0.148
-308.895	319.838	-0.115	0.217
-307.880	73.465	-0.183	-0.190
-306.866	577.560	0.073	0.176
-305.851	-14.941	0.240	0.152
-304.837	107.463	0.112	-0.132
-303.822	118.743	-0.177	0.217
-302.807	126.732	-0.206	-0.259
-301.793	340.350	-0.161	-0.311
-300.778	62.599	0.164	0.163
-299.764	-70.759	0.240	0.090
-298.749	-187.456	0.343	-0.005
-297.735	-200.000	0.029	0.198
-296.720	-137.702	-0.500	0.056
-295.705	-110.256	0.124	0.026
-294.691	623.383	0.058	-0.146
-293.676	-159.680	-0.397	0.022
-292.662	-73.208	0.213	0.077
-291.647	-200.000	-0.002	-0.369
-290.632	800.000	0.078	-0.222
-289.618	-200.000	0.053	0.255
-288.603	-163.134	-0.399	0.019
-287.589	800.000	-0.066	-0.188
-286.574	-200.000	0.004	-0.201
-285.559	-25.428	-0.320	0.187
-284.545	-79.435	0.202	-0.068
-283.530	168.613	0.042	-0.059
-282.516	-200.000	0.044	-0.242
-281.501	-132.389	-0.082	0.010
-280.486	800.000	0.127	0.380
-279.472	232.398	0.067	-0.110
-278.457	-40.804	0.391	-0.200
-277.443	-200.000	-0.010	-0.232
-276.428	41.504	0.135	-0.121
-275.413	450.490	0.130	0.284
-274.399	0.046	-0.269	0.190
-273.384	800.000	-0.072	-0.234
-272.370	536.058	0.108	-0.253
-271.355	18.484	-0.192	0.152
-270.340	-200.000	-0.003	0.094
-269.326	126.472	-0.237	0.297
-268.311	-200.000	0.015	0.322
-267.297	-40.876	0.265	-0.136
-266.282	207.554	0.092	0.141
-265.267	-31.359	0.260	0.145
-264.253	-114.922	-0.159	-0.030
-263.238	-159.747	-0.178	0.010
-262.224	-124.506	-0.034	0.005
-261.209	99.589	0.156	-0.179
-260.195	181.621	-0.156	-0.227
-259.180	800.000	0.034	-0.125
-258.165	-129.454	-0.082	-0.011
-257.151	53.958	0.086	0.081
-256.136	6.907	0.103	0.076
-255.122	-12.784	0.209	-0.135
-254.107	-176.624	-0.162	-0.004
-253.092	208.897	0.029	-0.045
-252.078	722.329	-0.050	0.132
-251.063	534.492	-0.079	-0.184
-250.049	-80.571	0.455	0.150
-249.034	-60.018	0.090	-0.038
-248.019	791.646	-0.119	0.323
-247.005	190.970	-0.111	-0.166
-245.990	89.602	-0.207	0.228
-244.976	213.089	0.031	0.048
-243.961	16.733	-0.211	0.165
-242.946	206.785	0.102	0.157
-241.932	-59.292	-0.274	-0.116
-240.917	308.837	-0.039	0.071
-239.903	57.919	-0.108	0.105
-238.888	-55.086	0.069	-0.030
-237.873	-168.542	0.184	-0.007
-236.859	-200.000	0.015	0.170
-235.844	-200.000	-0.001	0.143
-234.830	57.700	-0.253	-0.244
-233.815	-80.496	0.506	0.167
-232.800	-52.746	-0.355	0.162
-231.786	116.026	0.145	-0.176
-230.771	-122.115	0.343	0.056
-229.757	411.811	0.095	0.199
-228.742	-164.604	0.307	-0.014
-227.727	81.944	0.293	0.313
-226.713	118.888	-0.231	-0.282
-225.698	234.375	-0.199	-0.324
-224.684	-200.000	-0.004	-0.168
-223.669	177.436	0.009	-0.013
-222.655	521.926	-0.194	-0.450
-221.640	-200.000	0.034	-0.339
-220.625	757.762	0.029	0.078
-219.611	-44.286	0.257	-0.127
-218.596	-26.577	-0.152	0.088
-217.582	422.276	0.142	0.301
-216.567	-32.805	0.199	-0.109
-215.552	659.117	-0.081	0.206
-214.538	112.647	0.102	-0.122
-213.523	-108.156	0.158	0.034
-212.509	-12.967	0.125	0.080
-211.494	28.486	-0.360	-0.300
-210.479	800.000	-0.027	-0.077
-209.465	303.628	-0.067	0.123
-208.450	-200.000	-0.011	0.175
-207.436	-79.996	-0.129	0.043
-206.421	-58.824	0.244	0.104
-205.406	800.000	0.048	-0.206
-204.392	-199.793	-0.162	0.001
-203.377	-4.972	-0.251	0.171
-202.363	-57.095	-0.173	0.075
-201.348	-188.013	0.288	-0.004
-200.333	-116.431	-0.144	0.026
-199.319	431.612	-0.051	0.109
-198.304	-167.259	0.043	0.002
-197.290	161.367	0.210	0.289
-196.275	-25.164	0.265	0.155
-195.260	800.000	-0.109	-0.463
-194.246	-139.710	-0.194	0.020
-193.231	279.408	0.014	0.025
-192.217	800.000	0.157	0.642
-191.202	172.136	-0.105	0.149
-190.187	31.644	0.316	0.268
-189.173	-69.495	-0.289	-0.109
-188.158	-200.000	-0.005	-0.092
-187.144	-4.766	0.233	-0.159
-186.129	59.215	0.186	0.180
-185.114	-101.376	0.240	0.058
-184.100	-83.473	0.355	0.112
-183.085	-175.994	0.240	0.006
-182.071	-140.611	-0.079	0.008
-181.056	-59.784	-0.091	-0.039
-180.042	-25.502	-0.387	0.226
-179.027	-54.894	0.140	0.062
-178.012	400.907	0.187	0.386
-176.998	207.196	0.026	0.039
-175.983	-16.248	0.366	0.229
-174.969	36.404	-0.252	0.219
-173.954	393.563	0.064	0.131
-172.939	-200.000	-0.048	0.315
-171.925	-200.000	0.038	0.174
-170.910	-200.000	0.025	0.284
-169.896	184.249	0.077	-0.112
-168.881	800.000	0.062	-0.213
-167.866	269.401	0.095	-0.164
-166.852	-140.294	-0.310	-0.032
-165.837	517.394	0.078	0.180
-164.823	-46.407	-0.105	-0.051
-163.808	-28.104	-0.329	0.187
-162.793	800.000	-0.016	-0.051
-161.779	-3.831	-0.105	-0.072
-160.764	170.018	0.344	-0.485
-159.750	-116.174	-0.259	0.047
-158.735	-200.000	-0.003	0.080
-157.720	-48.494	0.023	-0.011
-156.706	-200.000	-0.025	0.228
-155.691	-200.000	0.026	0.288
-154.677	255.581	-0.172	0.291
-153.662	-200.000	0.000	-0.159
-152.647	260.388	0.108	-0.183
-151.633	-42.807	-0.220	0.110
-150.618	25.811	0.226	0.185
-149.604	114.327	0.103	0.124
-148.589	-200.000	0.022	0.125
-147.574	-200.000	-0.031	-0.242
-146.560	32.148	-0.120	-0.102
-145.545	-92.861	0.158	-0.044
-144.531	-200.000	-0.028	-0.171
-143.516	-141.021	-0.323	-0.033
-142.502	-124.494	0.218	-0.033
-141.487	11.049	-0.140	-0.105
-140.472	-200.000	-0.018	-0.199
-139.458	-200.000	-0.000	-0.207
-138.443	575.388	-0.159	-0.381
-137.429	-110.277	0.149	-0.031
-136.414	-200.000	0.033	0.154
-135.399	-97.956	0.020	-0.005
-134.385	800.000	0.020	-0.084
-133.370	-43.706	0.058	0.029
-132.356	37.538	-0.067	-0.059
-131.341	-172.740	0.113	-0.003
-130.326	113.478	-0.031	0.037
-129.312	-72.627	0.306	0.111
-128.297	19.984	-0.210	0.167
-127.283	-97.572	0.084	-0.021
-126.268	286.143	-0.026	0.046
-125.253	-115.782	0.380	0.070
-124.239	724.203	-0.045	-0.117
-123.224	-57.770	0.066	0.029
-122.210	-179.149	0.258	0.006
-121.195	-44.132	-0.103	0.051
