DTS Sentinel unit serial number:	SN413079Multiplexer serial number:	ORYXHardware model number:	OX4-SRSoftware version number:	ORYX F/W v4.00 Oryx Data Collector v3.7.2.0data status	okinstallation	princeton_trtdifferential loss correction	single-endedforward channel	channel 4reverse channel	N/Adate	2019/09/13time	15:49:35forward acquisition time	60.00reverse acquisition time	0.00gamma	496.2192k internal	0.2299k external	0.2299temperature offset calibration	1.0213default loss term (dB/km)	0.3790temperature slope calibration	1.0000multiplexer offset coefficient	1.0000multiplexer slope coefficient	1.0000fibre end	0.00T internal ref (°C)	34.67T ext. ref 1 (°C)	4.77T ext. ref 2 (°C)	29.86length (m)	temperature (°C)	Stokes	anti-Stokes-747.200	-118.458	-0.122	0.022
-746.185	-200.000	-0.029	0.359
-745.171	107.877	-0.224	0.272
-744.156	540.380	-0.026	0.064
-743.142	-89.245	-0.294	-0.088
-742.127	219.794	0.134	0.218
-741.112	-200.000	-0.041	-0.254
-740.098	100.773	-0.145	0.172
-739.083	800.000	0.069	-0.288
-738.069	2.799	-0.051	0.038
-737.054	800.000	-0.012	0.042
-736.039	-55.153	-0.198	-0.091
-735.025	-154.481	0.411	-0.028
-734.010	28.550	0.145	0.125
-732.996	25.207	-0.257	-0.217
-731.981	126.108	0.143	0.184
-730.966	524.195	0.142	0.341
-729.952	-94.823	-0.126	0.035
-728.937	278.653	-0.114	-0.208
-727.923	-114.542	-0.259	0.051
-726.908	662.988	-0.096	0.251
-725.894	-102.877	0.306	0.074
-724.879	-157.787	-0.345	0.021
-723.864	176.841	-0.228	-0.339
-722.850	-62.220	-0.140	-0.059
-721.835	42.308	0.233	-0.216
-720.821	-200.000	-0.036	0.263
-719.806	-22.792	-0.317	-0.195
-718.791	-200.000	0.014	0.071
-717.777	-135.476	-0.474	0.058
-716.762	11.746	-0.148	-0.116
-715.748	-200.000	0.020	-0.111
-714.733	-157.531	-0.003	-0.000
-713.718	-200.000	0.040	-0.224
-712.704	203.927	-0.130	-0.206
-711.689	-114.705	0.063	0.012
-710.675	39.711	0.239	-0.218
-709.660	152.366	0.021	-0.029
-708.645	800.000	-0.034	-0.115
-707.631	549.143	-0.056	0.137
-706.616	9.563	0.196	0.151
-705.602	-135.533	-0.106	-0.013
-704.587	-200.000	0.003	0.105
-703.572	-200.000	0.028	-0.140
-702.558	-73.377	0.250	0.093
-701.543	-33.652	0.436	-0.245
-700.529	800.000	0.025	-0.095
-699.514	-200.000	-0.020	0.175
-698.499	61.535	-0.151	-0.153
-697.485	123.811	0.065	0.084
-696.470	-143.251	0.238	0.023
-695.456	-30.821	-0.168	-0.097
-694.441	321.247	0.160	-0.310
-693.426	-200.000	0.001	0.016
-692.412	748.003	-0.116	0.320
-691.397	259.091	-0.157	0.275
-690.383	402.135	0.092	-0.197
-689.368	380.655	0.109	0.228
-688.354	-200.000	0.007	-0.196
-687.339	215.711	-0.104	-0.169
-686.324	-200.000	-0.032	0.225
-685.310	19.549	-0.176	-0.144
-684.295	88.831	0.103	-0.117
-683.281	418.752	-0.152	-0.331
-682.266	212.302	0.271	-0.434
-681.251	-200.000	-0.033	0.231
-680.237	69.665	0.097	-0.102
-679.222	-127.416	-0.372	0.055
-678.208	-200.000	0.009	0.339
-677.193	-107.323	0.121	0.027
-676.178	-87.945	-0.214	0.065
-675.164	-80.224	-0.062	-0.021
-674.149	-200.000	-0.008	0.140
-673.135	-52.846	-0.214	-0.100
-672.120	36.227	-0.253	-0.227
-671.105	-129.989	-0.372	0.052
-670.091	-200.000	0.009	0.043
-669.076	72.583	-0.073	-0.078
-668.062	-178.882	0.205	0.005
-667.047	-200.000	0.033	-0.250
-666.032	-200.000	-0.013	-0.142
-665.018	32.952	0.125	-0.111
-664.003	-200.000	-0.078	-0.463
-662.989	800.000	0.086	0.347
-661.974	-65.367	0.297	0.121
-660.959	306.241	-0.145	-0.275
-659.945	-133.910	-0.337	-0.043
-658.930	-95.979	-0.427	-0.116
-657.916	51.457	-0.125	-0.121
-656.901	-29.949	0.241	0.139
-655.886	800.000	-0.035	-0.131
-654.872	-200.000	-0.023	0.268
-653.857	125.315	-0.143	-0.184
-652.843	-200.000	-0.054	-0.315
-651.828	-132.490	0.249	-0.033
-650.814	-135.287	-0.164	-0.020
-649.799	-200.000	0.017	-0.343
-648.784	-200.000	-0.016	-0.172
-647.770	5.795	-0.405	-0.304
-646.755	200.212	-0.228	0.356
-645.741	450.927	0.044	0.100
-644.726	-98.087	0.329	-0.086
-643.711	-84.368	0.142	0.046
-642.697	-109.415	-0.491	-0.106
-641.682	217.470	0.037	0.060
-640.668	800.000	0.096	-0.364
-639.653	-113.308	-0.177	0.035
-638.638	109.360	-0.211	0.257
-637.624	110.616	-0.096	0.117
-636.609	-27.579	-0.333	0.196
-635.595	-128.017	0.227	0.033
-634.580	85.499	-0.077	-0.086
-633.565	800.000	-0.057	-0.208
-632.551	-134.543	-0.434	-0.054
-631.536	98.808	-0.096	0.113
-630.522	-200.000	-0.014	0.112
-629.507	716.938	-0.029	0.079
-628.492	-127.722	-0.260	-0.038
-627.478	150.620	0.040	0.056
-626.463	-200.000	0.018	-0.230
-625.449	-23.986	0.028	-0.017
-624.434	26.414	-0.104	0.088
-623.419	-147.175	-0.101	0.009
-622.405	612.638	0.032	-0.082
-621.390	162.479	-0.125	-0.179
-620.376	-180.886	-0.087	0.002
-619.361	263.558	0.074	0.130
-618.346	800.000	-0.002	-0.007
-617.332	609.586	0.105	-0.267
-616.317	-113.763	-0.227	-0.045
-615.303	-200.000	-0.079	-0.379
-614.288	34.772	-0.254	-0.225
-613.273	583.824	0.044	-0.109
-612.259	124.349	-0.136	-0.174
-611.244	650.995	-0.110	0.286
-610.230	53.329	-0.228	-0.222
-609.215	221.602	0.125	-0.203
-608.201	-63.588	0.312	0.130
-607.186	-50.524	-0.099	-0.047
-606.171	-128.075	-0.257	0.037
-605.157	-42.427	-0.205	-0.106
-604.142	307.841	-0.074	-0.140
-603.128	563.847	-0.027	-0.065
-602.113	-200.000	0.035	0.157
-601.098	-200.000	0.054	-0.335
-600.084	64.592	-0.260	0.266
-599.069	-200.000	-0.018	-0.106
-598.055	-56.903	-0.182	0.082
-597.040	615.231	-0.083	-0.210
-596.025	-9.538	0.039	-0.027
-595.011	15.376	-0.143	-0.114
-593.996	36.771	0.110	-0.098
-592.982	730.438	0.116	-0.315
-591.967	-124.339	0.336	-0.053
-590.952	275.303	-0.209	0.377
-589.938	-66.103	-0.041	0.016
-588.923	272.005	-0.034	0.061
-587.909	-55.433	0.299	-0.136
-586.894	-39.748	-0.171	-0.091
-585.879	800.000	-0.017	-0.066
-584.865	43.148	0.107	0.099
-583.850	-200.000	-0.019	0.179
-582.836	182.651	0.059	0.088
-581.821	-200.000	-0.004	0.518
-580.806	-200.000	0.063	-0.336
-579.792	800.000	-0.093	0.275
-578.777	-137.753	0.128	-0.015
-577.763	-200.000	-0.010	-0.290
-576.748	-71.493	-0.102	0.039
-575.733	-117.775	-0.130	0.024
-574.719	23.034	-0.259	0.215
-573.704	476.290	-0.063	0.144
-572.690	-200.000	0.015	0.216
-571.675	59.540	-0.165	-0.165
-570.661	113.411	0.129	-0.158
-569.646	800.000	0.023	-0.095
-568.631	-85.623	0.296	0.093
-567.617	-23.484	0.134	0.081
-566.602	-128.842	-0.170	-0.024
-565.588	-34.147	0.262	0.146
-564.573	-7.879	0.233	-0.159
-563.558	440.891	-0.179	-0.397
-562.544	-34.015	-0.133	0.074
-561.529	-44.758	-0.137	-0.069
-560.515	11.093	-0.054	-0.042
-559.500	567.771	0.054	0.133
-558.485	87.549	-0.227	-0.254
-557.471	-39.846	0.367	0.194
-556.456	-72.851	-0.061	0.023
-555.442	-81.143	-0.120	0.040
-554.427	-67.153	0.464	0.185
-553.412	-200.000	0.009	0.059
-552.398	-129.153	-0.316	0.045
-551.383	61.786	-0.057	-0.057
-550.369	-200.000	0.073	-0.340
-549.354	-20.043	0.040	-0.025
-548.339	-119.712	0.082	-0.014
-547.325	10.015	0.175	-0.135
-546.310	77.927	0.037	-0.040
-545.296	-200.000	-0.031	0.139
-544.281	-73.249	0.125	-0.046
-543.266	87.473	0.150	-0.168
-542.252	-109.705	0.152	0.032
-541.237	12.602	-0.136	-0.106
-540.223	-32.935	-0.167	-0.094
-539.208	207.764	0.146	0.231
-538.193	201.329	-0.251	-0.391
-537.179	442.454	-0.204	0.453
-536.164	-69.001	0.029	-0.011
-535.150	-155.191	0.130	0.009
-534.135	-200.000	0.052	0.286
-533.121	1.818	0.092	-0.067
-532.106	-200.000	-0.029	-0.376
-531.091	-0.412	-0.237	-0.171
-530.077	-150.291	-0.067	-0.005
-529.062	-169.303	0.246	-0.009
-528.048	-88.782	0.061	-0.018
-527.033	626.746	0.062	0.158
-526.018	-136.489	-0.279	-0.033
-525.004	522.254	-0.211	0.501
-523.989	251.802	-0.114	0.197
-522.975	48.997	-0.204	-0.193
-521.960	-105.700	0.235	-0.054
-520.945	-127.565	-0.126	-0.019
-519.931	-141.271	-0.184	0.019
-518.916	-162.222	0.208	-0.011
-517.902	459.509	0.097	0.218
-516.887	-1.252	0.233	0.167
-515.872	-179.661	-0.211	-0.005
-514.858	-22.596	0.269	0.164
-513.843	-73.578	-0.028	-0.010
-512.829	-18.353	0.131	-0.083
-511.814	-106.714	0.278	-0.062
-510.799	475.273	0.133	-0.303
-509.785	-89.362	0.384	0.114
-508.770	-38.541	0.335	-0.179
-507.756	-131.561	0.148	0.020
-506.741	-145.845	0.120	-0.011
-505.726	-119.882	0.263	-0.046
-504.712	-11.034	0.233	-0.156
-503.697	800.000	-0.098	0.310
-502.683	-200.000	-0.031	-0.413
-501.668	-200.000	-0.023	0.317
-500.653	-18.691	-0.120	0.076
-499.639	29.330	-0.219	0.188
-498.624	-156.821	0.410	-0.026
-497.610	159.485	-0.153	0.216
-496.595	18.268	0.186	-0.150
-495.581	-92.729	-0.122	0.035
-494.566	93.516	0.059	-0.068
-493.551	-200.000	-0.032	-0.378
-492.537	511.152	0.054	-0.127
-491.522	-154.597	0.299	0.020
-490.508	-81.974	-0.062	-0.021
-489.493	-108.783	0.478	-0.103
-488.478	-143.331	0.129	0.012
-487.464	-111.792	0.423	-0.086
-486.449	-89.171	0.153	0.046
-485.435	729.216	-0.091	0.247
-484.420	66.609	0.020	0.021
-483.405	-160.216	-0.196	-0.011
-482.391	-57.318	-0.180	0.080
-481.376	-2.362	0.100	-0.071
-480.362	-200.000	0.031	-0.137
-479.347	679.156	-0.147	0.387
-478.332	353.958	0.113	0.227
-477.318	800.000	-0.058	-0.241
-476.303	107.265	0.064	0.077
-475.289	-200.000	-0.002	-0.070
-474.274	-20.514	0.087	-0.054
-473.259	30.936	0.067	-0.058
-472.245	-7.491	0.048	-0.032
-471.230	90.316	-0.193	-0.218
-470.216	-107.975	0.158	0.035
-469.201	138.770	-0.044	0.058
-468.186	-200.000	-0.055	-0.322
-467.172	298.611	0.285	-0.529
-466.157	-200.000	0.018	0.337
-465.143	-68.386	-0.186	-0.073
-464.128	376.910	0.066	0.136
-463.113	-46.596	-0.129	0.064
-462.099	-97.165	-0.171	-0.045
-461.084	-200.000	0.018	-0.089
-460.070	-200.000	0.038	-0.315
-459.055	24.046	-0.129	0.108
-458.040	-200.000	-0.044	0.658
-457.026	30.059	-0.156	0.135
-456.011	42.025	-0.128	-0.117
-454.997	-200.000	-0.007	0.156
-453.982	800.000	0.080	0.298
-452.968	476.752	-0.107	0.244
-451.953	-200.000	0.001	0.122
-450.938	-119.680	0.311	0.054
-449.924	-143.241	0.448	-0.043
-448.909	-200.000	-0.013	-0.204
-447.895	-200.000	0.003	0.043
-446.880	-200.000	0.021	-0.127
-445.865	-27.780	-0.077	-0.045
-444.851	-161.473	0.348	0.018
-443.836	129.073	0.164	-0.211
-442.822	-171.870	-0.166	0.005
-441.807	-200.000	-0.012	0.130
-440.792	-54.560	0.184	-0.084
-439.778	272.152	-0.119	0.211
-438.763	-124.911	0.049	0.008
-437.749	-73.735	0.488	0.179
-436.734	76.476	0.072	0.077
-435.719	-134.157	0.179	-0.022
-434.705	-10.776	-0.226	-0.151
-433.690	-200.000	-0.013	0.146
-432.676	800.000	-0.072	0.248
-431.661	60.613	-0.079	-0.079
-430.646	213.015	-0.065	-0.104
-429.632	712.805	0.085	-0.227
-428.617	800.000	-0.074	0.216
-427.603	-116.924	0.248	0.046
-426.588	318.537	-0.186	-0.355
-425.573	722.619	-0.116	-0.311
-424.559	-200.000	0.090	-0.581
-423.544	50.601	-0.238	-0.227
-422.530	-94.872	0.327	-0.089
-421.515	593.760	-0.172	-0.430
-420.500	-112.483	0.141	0.028
-419.486	163.358	0.028	0.040
-418.471	122.793	-0.085	-0.107
-417.457	-49.328	0.276	0.133
-416.442	521.924	0.143	0.339
-415.428	443.806	-0.041	-0.090
-414.413	-131.805	-0.185	0.024
-413.398	553.207	0.097	-0.235
-412.384	656.679	0.005	-0.013
-411.369	-0.800	0.085	-0.061
-410.355	-131.275	0.132	-0.018
-409.340	61.811	0.262	-0.262
-408.325	-200.000	0.046	-0.272
-407.311	669.755	-0.138	-0.359
-406.296	286.859	0.031	-0.057
-405.282	-200.000	0.014	-0.237
-404.267	119.763	-0.202	-0.252
-403.252	120.936	-0.171	-0.214
-402.238	204.351	-0.223	0.349
-401.223	-105.664	-0.162	0.037
-400.209	-200.000	-0.008	0.250
-399.194	800.000	0.046	-0.148
-398.179	594.568	0.073	0.182
-397.165	-200.000	-0.112	0.614
-396.150	115.906	0.112	0.138
-395.136	58.736	-0.223	-0.221
-394.121	133.950	0.124	-0.161
-393.106	560.956	-0.123	-0.298
-392.092	730.202	0.033	0.088
-391.077	434.106	0.071	-0.155
-390.063	41.220	0.062	0.056
-389.048	4.771	-0.054	-0.040
-388.033	-127.977	-0.422	0.061
-387.019	-200.000	0.000	-0.100
-386.004	337.936	-0.239	0.467
-384.990	417.566	-0.056	0.121
-383.975	50.068	-0.043	-0.041
-382.960	-114.233	0.106	-0.021
-381.946	101.713	-0.111	-0.130
-380.931	-72.980	-0.322	0.119
-379.917	162.225	0.129	-0.182
-378.902	-85.577	0.274	-0.086
-377.888	-83.960	0.259	0.083
-376.873	-141.955	-0.186	-0.019
-375.858	286.823	-0.091	0.166
-374.844	-81.930	-0.123	-0.040
-373.829	70.784	-0.103	-0.107
-372.815	7.780	0.160	-0.121
-371.800	-141.566	0.250	-0.025
-370.785	92.317	0.060	0.068
-369.771	-99.847	0.170	0.043
-368.756	-60.278	-0.090	-0.038
-367.742	-117.740	0.208	0.038
-366.727	-26.021	0.132	-0.078
-365.712	84.675	-0.216	0.238
-364.698	-36.095	0.185	-0.100
-363.683	-200.000	-0.006	-0.183
-362.669	-200.000	-0.053	-0.294
-361.654	568.399	-0.053	0.129
-360.639	183.661	0.177	-0.263
-359.625	-28.137	0.229	0.133
-358.610	108.607	-0.165	0.199
-357.596	-113.503	-0.200	0.039
-356.581	117.832	-0.093	0.115
-355.566	-29.573	-0.052	0.030
-354.552	-157.896	-0.317	0.019
-353.537	63.865	0.303	0.306
-352.523	-200.000	0.002	-0.066
-351.508	-200.000	-0.036	-0.219
-350.493	-200.000	0.026	-0.172
-349.479	69.055	0.257	0.265
-348.464	415.476	-0.133	0.285
-347.450	800.000	-0.050	0.195
-346.435	-50.527	0.208	0.098
-345.420	35.150	0.218	-0.192
-344.406	-17.898	0.627	-0.395
-343.391	-200.000	0.013	0.109
-342.377	-21.870	0.069	-0.042
-341.362	800.000	0.056	-0.170
-340.348	70.220	0.197	0.205
-339.333	800.000	0.016	0.063
-338.318	-98.747	0.193	0.049
-337.304	27.530	0.237	0.200
-336.289	-105.851	0.117	-0.027
-335.275	274.751	-0.182	0.323
-334.260	-200.000	-0.009	0.057
-333.245	-111.593	0.223	0.046
-332.231	155.398	-0.133	0.183
-331.216	-179.918	0.275	0.006
-330.202	5.885	0.204	0.152
-329.187	356.965	-0.040	0.079
-328.172	-200.000	0.012	0.238
-327.158	27.993	0.051	-0.044
-326.143	-111.882	-0.320	0.065
-325.129	-200.000	-0.017	0.393
-324.114	243.156	0.224	0.376
-323.099	-160.829	0.341	0.018
-322.085	1.648	0.109	0.079
-321.070	-200.000	-0.002	0.243
-320.056	-48.876	0.231	-0.111
-319.041	-10.764	-0.190	0.126
-318.026	338.007	-0.153	0.299
-317.012	399.243	0.060	0.126
-315.997	55.868	-0.328	0.319
-314.983	408.598	0.051	-0.109
-313.968	521.530	0.011	0.025
-312.953	800.000	-0.042	-0.154
-311.939	324.844	0.078	0.150
-310.924	-65.256	0.069	-0.028
-309.910	-100.283	0.239	-0.059
-308.895	-200.000	-0.043	-0.247
-307.880	45.951	0.071	-0.066
-306.866	-101.726	-0.176	0.043
-305.851	24.043	-0.076	-0.063
-304.837	-200.000	0.003	-0.053
-303.822	119.324	-0.163	0.203
-302.807	61.537	-0.164	-0.164
-301.793	-145.820	0.169	-0.015
-300.778	-100.211	0.135	-0.034
-299.764	-74.564	0.132	-0.048
-298.749	96.054	-0.160	0.183
-297.735	210.079	0.094	-0.147
-296.720	-200.000	0.063	0.300
-295.705	5.071	-0.162	-0.120
-294.691	-59.431	0.299	-0.129
-293.676	-45.186	0.092	0.046
-292.662	-94.098	-0.160	0.044
-291.647	-102.221	-0.230	-0.055
-290.632	-13.330	0.096	0.062
-289.618	110.141	0.086	0.103
-288.603	-54.924	-0.262	-0.118
-287.589	-128.986	-0.222	-0.031
-286.574	323.240	0.048	0.092
-285.559	-200.000	-0.050	-0.264
-284.545	-104.735	-0.212	0.049
-283.530	6.434	-0.155	0.115
-282.516	346.442	0.038	-0.076
-281.501	-200.000	-0.033	-0.152
-280.486	-6.800	-0.258	-0.176
-279.472	-200.000	0.051	0.390
-278.457	415.615	0.073	-0.155
-277.443	-49.257	-0.168	0.080
-276.428	-164.045	0.199	-0.009
-275.413	-200.000	-0.001	0.278
-274.399	-82.141	-0.302	0.099
-273.384	-136.751	0.149	0.017
-272.370	-200.000	-0.021	0.158
-271.355	778.855	-0.089	-0.242
-270.340	-63.942	-0.067	-0.028
-269.326	53.149	-0.235	0.225
-268.311	-84.559	-0.433	0.137
-267.297	78.943	0.113	0.121
-266.282	-132.854	0.165	0.021
-265.267	110.005	0.084	0.101
-264.253	-121.617	-0.166	-0.027
-263.238	-200.000	0.011	-0.102
-262.224	45.647	0.199	-0.184
-261.209	800.000	0.019	-0.077
-260.195	-78.823	-0.072	0.025
-259.180	-13.241	-0.348	0.226
-258.165	291.888	-0.125	0.228
-257.151	-119.843	0.139	-0.024
-256.136	-200.000	0.017	0.361
-255.122	104.934	-0.080	-0.094
-254.107	-157.526	-0.160	0.010
-253.092	130.256	-0.094	0.121
-252.078	664.779	-0.054	-0.139
-251.063	-3.298	-0.086	0.060
-250.049	-120.793	0.118	0.020
-249.034	98.051	-0.161	-0.186
-248.019	-109.988	0.436	-0.091
-247.005	-200.000	-0.006	-0.064
-245.990	-200.000	-0.014	0.229
-244.976	-27.894	-0.077	0.045
-243.961	-200.000	-0.056	-0.266
-242.946	-196.305	0.192	-0.001
-241.932	-118.350	-0.213	0.038
-240.917	-40.544	-0.228	-0.118
-239.903	-200.000	0.027	0.126
-238.888	-46.693	0.150	0.073
-237.873	-99.661	-0.156	-0.039
-236.859	118.456	-0.015	-0.019
-235.844	396.453	-0.070	-0.146
-234.830	-105.177	-0.166	0.038
-233.815	151.132	-0.042	0.058
-232.800	-25.833	0.196	-0.116
-231.786	-110.260	-0.083	0.017
-230.771	-104.334	-0.102	0.024
-229.757	-64.425	0.315	-0.128
-228.742	315.979	0.096	0.181
-227.727	450.797	0.052	-0.114
-226.713	-146.742	-0.235	-0.020
-225.698	-200.000	0.041	-0.320
-224.684	-188.427	-0.200	-0.003
-223.669	-125.075	-0.246	-0.038
-222.655	-77.251	-0.358	0.125
-221.640	392.677	-0.020	-0.042
-220.625	-110.509	0.074	-0.015
-219.611	-157.700	-0.034	0.002
-218.596	-200.000	-0.012	0.079
-217.582	17.940	-0.205	0.163
-216.567	-36.801	0.275	-0.147
-215.552	-2.081	-0.474	0.333
-214.538	35.080	-0.226	-0.198
-213.523	-96.928	0.190	0.050
-212.509	-71.798	0.109	-0.041
-211.494	800.000	0.057	0.171
-210.479	-26.659	-0.103	0.060
-209.465	-123.801	-0.268	0.042
-208.450	10.136	0.090	0.068
-207.436	551.768	0.057	-0.136
-206.421	90.309	-0.329	-0.368
-205.406	-200.000	0.033	-0.198
-204.392	800.000	0.037	0.142
-203.377	800.000	-0.062	-0.194
-202.363	87.302	-0.331	-0.366
-201.348	25.918	0.324	-0.270
-200.333	-83.860	0.245	0.078
-199.319	-29.808	-0.107	-0.061
-198.304	800.000	0.038	0.122
-197.290	-200.000	0.045	0.508
-196.275	800.000	0.091	-0.284
-195.260	-172.170	0.253	0.008
-194.246	-141.328	0.212	-0.022
-193.231	-74.186	-0.294	0.106
-192.217	35.971	-0.222	0.195
-191.202	-14.227	-0.187	-0.121
-190.187	-200.000	-0.030	-0.509
-189.173	-5.351	0.198	-0.136
-188.158	800.000	0.067	0.190
-187.144	-67.102	0.109	-0.043
-186.129	-47.163	0.211	-0.103
-185.114	-200.000	0.043	0.214
-184.100	-95.719	-0.240	-0.064
-183.085	800.000	0.057	-0.241
-182.071	-3.087	-0.327	0.228
-181.056	-18.259	-0.129	0.081
-180.042	800.000	-0.074	-0.208
-179.027	80.837	0.226	0.243
-178.012	-200.000	-0.045	0.416
-176.998	-122.229	-0.093	0.015
-175.983	-73.210	-0.225	0.082
-174.969	-200.000	-0.004	-0.084
-173.954	-200.000	0.008	0.036
-172.939	-165.719	0.248	-0.011
-171.925	-192.009	0.337	-0.003
-170.910	174.329	-0.090	-0.129
-169.896	22.479	0.213	0.174
-168.881	800.000	0.088	0.369
-167.866	68.987	-0.150	-0.154
-166.852	-2.372	-0.224	-0.157
-165.837	-200.000	-0.001	-0.214
-164.823	478.068	-0.051	0.116
-163.808	-34.369	0.115	0.063
-162.793	-130.648	-0.133	-0.018
-161.779	800.000	-0.133	0.379
-160.764	-86.190	0.363	-0.112
-159.750	183.734	-0.032	0.047
-158.735	99.978	-0.039	0.045
-157.720	84.644	0.281	0.307
-156.706	70.104	0.043	0.044
-155.691	131.005	0.089	-0.114
-154.677	-55.043	0.119	-0.054
-153.662	2.744	-0.063	0.046
-152.647	800.000	0.019	-0.054
-151.633	265.757	0.123	0.214
-150.618	-200.000	0.037	0.347
-149.604	-74.225	0.514	0.185
-148.589	-78.151	0.090	-0.031
-147.574	-137.624	0.109	0.012
-146.560	123.258	-0.057	0.071
-145.545	108.056	-0.079	0.094
-144.531	-106.605	-0.073	0.016
-143.516	-154.307	0.414	0.028
-142.502	-200.000	-0.018	0.111
-141.487	-83.492	0.214	-0.068
-140.472	40.335	-0.324	-0.291
-139.458	-27.876	-0.243	-0.140
-138.443	-125.593	0.115	0.017
-137.429	800.000	0.049	0.206
-136.414	-200.000	-0.027	0.243
-135.399	800.000	0.049	-0.158
-134.385	146.849	0.107	-0.143
-133.370	-100.436	-0.068	-0.017
-132.356	-90.184	-0.139	0.040
-131.341	800.000	0.152	0.443
-130.326	-161.483	0.106	0.005
-129.312	-87.419	-0.171	-0.051
-128.297	462.217	-0.067	0.149
-127.283	-118.445	-0.217	-0.038
-126.268	-103.214	0.249	0.059
-125.253	-43.478	-0.137	0.069
-124.239	-200.000	-0.016	0.080
-123.224	-82.113	-0.126	0.041
