DTS Sentinel unit serial number:	SN413079Multiplexer serial number:	ORYXHardware model number:	OX4-SRSoftware version number:	ORYX F/W v4.00 Oryx Data Collector v3.7.2.0data status	okinstallation	princeton_trtdifferential loss correction	single-endedforward channel	channel 4reverse channel	N/Adate	2019/09/18time	19:33:34forward acquisition time	60.00reverse acquisition time	0.00gamma	496.2192k internal	0.2315k external	0.2315temperature offset calibration	1.0028default loss term (dB/km)	0.3790temperature slope calibration	1.0000multiplexer offset coefficient	1.0000multiplexer slope coefficient	1.0000fibre end	0.00T internal ref (°C)	32.58T ext. ref 1 (°C)	1.03T ext. ref 2 (°C)	22.55length (m)	temperature (°C)	Stokes	anti-Stokes-747.200	465.680	0.135	0.306
-746.185	-160.333	0.037	-0.002
-745.171	-88.149	-0.110	-0.033
-744.156	24.051	0.019	0.016
-743.142	-85.237	0.402	0.127
-742.127	-200.000	0.018	0.264
-741.112	38.593	-0.130	-0.118
-740.098	-60.248	-0.072	0.031
-739.083	800.000	0.012	-0.051
-738.069	-34.225	0.089	-0.049
-737.054	-200.000	-0.037	0.263
-736.039	-10.737	0.146	0.098
-735.025	-50.889	0.333	0.158
-734.010	467.352	-0.174	-0.395
-732.996	-157.189	-0.274	0.017
-731.981	-200.000	0.009	0.204
-730.966	237.850	-0.067	0.112
-729.952	35.376	-0.120	0.106
-728.937	-200.000	0.016	0.098
-727.923	541.109	-0.098	-0.237
-726.908	-75.636	-0.645	-0.232
-725.894	-62.506	-0.207	-0.087
-724.879	112.408	-0.080	0.097
-723.864	95.414	-0.250	-0.288
-722.850	536.728	0.018	0.043
-721.835	-105.694	-0.485	-0.111
-720.821	-159.214	-0.167	-0.010
-719.806	-117.876	-0.179	-0.032
-718.791	-101.120	-0.240	-0.059
-717.777	53.374	0.208	-0.202
-716.762	218.057	0.127	-0.205
-715.748	179.464	0.147	-0.217
-714.733	-200.000	0.041	-0.234
-713.718	-124.726	0.190	-0.030
-712.704	-80.733	-0.299	0.101
-711.689	-111.859	0.335	-0.069
-710.675	673.012	-0.120	-0.316
-709.660	-49.994	0.035	-0.017
-708.645	-82.500	0.270	0.089
-707.631	151.363	-0.233	0.321
-706.616	-132.906	-0.140	0.018
-705.602	-72.761	-0.288	0.107
-704.587	356.277	0.129	-0.260
-703.572	-114.937	-0.131	0.025
-702.558	-4.594	-0.139	-0.097
-701.543	-200.000	-0.030	-0.307
-700.529	-71.503	-0.052	-0.020
-699.514	95.875	0.072	0.083
-698.499	167.970	-0.211	-0.304
-697.485	-200.000	0.045	-0.300
-696.470	-25.663	-0.029	0.017
-695.456	128.004	-0.154	-0.198
-694.441	-70.305	0.278	-0.107
-693.426	8.924	-0.259	-0.198
-692.412	800.000	-0.072	0.312
-691.397	432.407	0.194	-0.426
-690.383	66.159	-0.148	-0.152
-689.368	-103.373	-0.112	-0.027
-688.354	800.000	-0.025	0.085
-687.339	-200.000	-0.042	0.206
-686.324	-190.584	0.131	0.001
-685.310	-45.270	-0.150	-0.075
-684.295	-4.313	0.097	-0.068
-683.281	-76.432	-0.122	-0.043
-682.266	-200.000	0.035	-0.200
-681.251	543.001	0.144	0.348
-680.237	-100.883	-0.390	0.097
-679.222	-24.478	-0.134	0.081
-678.208	576.914	0.085	0.209
-677.193	643.841	-0.058	-0.148
-676.178	-200.000	-0.029	-0.343
-675.164	-200.000	0.031	-0.259
-674.149	-58.813	-0.284	-0.124
-673.135	0.639	-0.204	0.147
-672.120	-76.328	-0.241	0.086
-671.105	800.000	-0.029	-0.094
-670.091	710.584	-0.041	0.109
-669.076	800.000	-0.087	0.249
-668.062	-53.970	-0.155	-0.071
-667.047	3.371	0.115	0.085
-666.032	-32.029	0.113	-0.064
-665.018	27.664	-0.159	-0.135
-664.003	250.082	-0.025	-0.043
-662.989	12.035	0.304	-0.236
-661.974	160.577	-0.328	-0.463
-660.959	-200.000	0.015	-0.090
-659.945	-136.225	-0.415	-0.049
-658.930	88.902	-0.139	-0.157
-657.916	391.360	0.085	-0.178
-656.901	800.000	0.112	0.433
-655.886	2.454	0.188	0.138
-654.872	154.526	-0.346	-0.481
-653.857	-114.315	-0.207	0.040
-652.843	227.842	-0.053	0.087
-651.828	76.075	-0.157	-0.168
-650.814	800.000	-0.029	-0.090
-649.799	-200.000	-0.044	-0.225
-648.784	56.339	0.180	0.176
-647.770	-83.499	-0.219	-0.071
-646.755	800.000	0.060	-0.176
-645.741	-168.838	-0.303	0.012
-644.726	131.436	-0.097	-0.126
-643.711	-69.367	-0.200	0.077
-642.697	79.336	0.056	0.061
-641.682	-12.986	-0.357	-0.234
-640.668	-169.395	0.149	0.006
-639.653	-200.000	-0.028	0.237
-638.638	800.000	0.062	-0.183
-637.624	800.000	0.085	-0.361
-636.609	800.000	0.110	0.448
-635.595	-84.173	-0.429	0.137
-634.580	420.871	-0.046	-0.099
-633.565	80.955	-0.069	-0.076
-632.551	40.493	0.017	-0.015
-631.536	44.945	-0.262	0.243
-630.522	-173.597	-0.395	-0.012
-629.507	46.752	0.063	0.059
-628.492	-200.000	-0.004	-0.219
-627.478	53.912	0.086	0.084
-626.463	800.000	0.052	-0.196
-625.449	-72.167	0.216	-0.081
-624.434	-38.995	-0.070	-0.037
-623.419	-200.000	0.019	-0.405
-622.405	-151.762	-0.057	-0.004
-621.390	1.359	-0.198	0.144
-620.376	-71.670	-0.016	-0.006
-619.361	-117.592	-0.130	-0.024
-618.346	800.000	0.057	-0.182
-617.332	-43.537	0.118	-0.060
-616.317	800.000	-0.059	0.232
-615.303	156.826	-0.368	-0.513
-614.288	-38.517	-0.203	0.108
-613.273	-47.538	0.312	-0.153
-612.259	455.720	0.076	-0.169
-611.244	658.088	-0.036	0.092
-610.230	800.000	0.009	-0.032
-609.215	-200.000	0.023	-0.360
-608.201	61.116	-0.079	-0.079
-607.186	-37.228	0.167	0.090
-606.171	274.032	0.145	-0.258
-605.157	-98.405	0.074	0.019
-604.142	-120.111	0.433	-0.075
-603.128	-143.538	-0.338	0.032
-602.113	551.885	-0.114	-0.275
-601.098	531.589	0.093	-0.222
-600.084	-126.134	-0.260	-0.039
-599.069	399.237	-0.139	0.293
-598.055	800.000	0.037	-0.134
-597.040	-200.000	-0.025	-0.372
-596.025	-158.497	0.401	-0.023
-595.011	32.291	0.314	-0.273
-593.996	-94.333	0.016	-0.004
-592.982	28.444	0.203	0.173
-591.967	130.565	0.064	-0.083
-590.952	-123.554	-0.171	-0.027
-589.938	800.000	-0.091	0.383
-588.923	575.540	-0.168	0.412
-587.909	108.591	0.189	0.227
-586.894	117.941	-0.042	0.052
-585.879	10.444	-0.316	0.243
-584.865	260.095	-0.080	-0.139
-583.850	57.003	0.222	-0.218
-582.836	99.084	0.132	0.153
-581.821	-103.905	-0.535	0.126
-580.806	-200.000	0.130	-0.679
-579.792	76.075	0.117	-0.125
-578.777	-200.000	0.018	-0.127
-577.763	-59.869	-0.553	-0.238
-576.748	-200.000	-0.025	-0.120
-575.733	-147.162	-0.326	-0.028
-574.719	800.000	-0.050	-0.149
-573.704	105.709	-0.048	-0.057
-572.690	-200.000	-0.051	0.291
-571.675	179.117	-0.194	-0.286
-570.661	-200.000	0.013	-0.104
-569.646	403.367	-0.018	0.037
-568.631	337.855	0.145	0.283
-567.617	-4.524	-0.236	0.164
-566.602	-104.396	0.032	0.008
-565.588	270.866	-0.149	0.264
-564.573	-200.000	-0.018	0.410
-563.558	-44.113	0.176	-0.089
-562.544	210.649	0.338	-0.534
-561.529	-145.754	-0.038	-0.003
-560.515	502.930	0.043	-0.099
-559.500	-200.000	-0.004	0.232
-558.485	-131.229	-0.074	0.010
-557.471	-5.066	-0.083	0.058
-556.456	94.743	-0.203	-0.232
-555.442	104.276	-0.203	-0.240
-554.427	-72.530	-0.433	0.161
-553.412	-44.827	0.112	-0.056
-552.398	-114.768	-0.281	0.054
-551.383	5.818	0.161	-0.120
-550.369	130.086	-0.080	-0.103
-549.354	210.661	0.095	0.150
-548.339	-25.917	0.061	-0.036
-547.325	429.384	0.129	0.279
-546.310	-26.358	0.180	-0.106
-545.296	-116.718	-0.275	0.051
-544.281	161.395	-0.121	0.171
-543.266	-136.186	-0.393	0.046
-542.252	-99.629	0.630	-0.159
-541.237	412.311	-0.054	-0.115
-540.223	-102.127	0.298	0.072
-539.208	-175.377	-0.149	-0.004
-538.193	-9.954	-0.086	0.057
-537.179	-108.107	0.150	-0.033
-536.164	67.478	-0.213	0.219
-535.150	771.220	-0.066	-0.180
-534.135	-200.000	-0.046	0.431
-533.121	-200.000	0.020	-0.206
-532.106	572.364	-0.183	0.448
-531.091	-200.000	0.009	0.292
-530.077	-1.964	0.182	-0.129
-529.062	105.224	0.166	0.196
-528.048	-18.464	0.132	-0.083
-527.033	-167.858	-0.477	0.019
-526.018	5.704	0.345	-0.257
-525.004	-50.253	-0.253	0.120
-523.989	800.000	0.085	-0.318
-522.975	-138.840	-0.252	0.028
-521.960	-200.000	0.019	-0.085
-520.945	223.513	-0.047	0.077
-519.931	-200.000	-0.020	0.217
-518.916	-131.172	-0.158	0.021
-517.902	-87.604	0.128	0.039
-516.887	-148.767	-0.097	0.008
-515.872	-56.750	0.117	0.052
-514.858	800.000	0.055	0.177
-513.843	-93.382	0.258	0.072
-512.829	-59.066	-0.246	-0.107
-511.814	-82.107	-0.041	-0.013
-510.799	594.427	-0.120	0.298
-509.785	-107.304	-0.206	-0.046
-508.770	-14.946	0.269	-0.174
-507.756	-191.389	0.403	0.004
-506.741	-200.000	-0.029	-0.166
-505.726	-69.732	-0.351	-0.135
-504.712	714.324	-0.041	0.110
-503.697	-154.122	0.130	0.009
-502.683	114.515	0.107	-0.131
-501.668	88.974	-0.205	0.230
-500.653	-162.646	0.379	0.019
-499.639	-4.590	-0.120	-0.083
-498.624	800.000	0.127	-0.356
-497.610	-32.759	0.242	-0.135
-496.595	-23.491	-0.123	-0.074
-495.581	-200.000	0.051	-0.306
-494.566	127.655	-0.180	-0.229
-493.551	-200.000	0.026	0.200
-492.537	339.849	0.033	0.065
-491.522	535.450	0.042	0.099
-490.508	-28.186	0.141	0.082
-489.493	286.119	0.095	-0.172
-488.478	111.320	-0.148	0.179
-487.464	150.711	0.218	0.297
-486.449	-200.000	-0.043	0.232
-485.435	-156.976	-0.250	-0.015
-484.420	-144.160	-0.063	-0.006
-483.405	-136.848	0.202	-0.023
-482.391	-200.000	0.025	0.156
-481.376	-50.649	0.047	-0.022
-480.362	-78.166	-0.305	0.105
-479.347	40.406	-0.237	0.214
-478.332	-142.806	-0.019	-0.002
-477.318	-158.735	-0.120	-0.007
-476.303	800.000	0.079	0.325
-475.289	-43.939	-0.248	0.125
-474.274	34.660	0.387	-0.339
-473.259	-142.147	-0.124	-0.012
-472.245	248.322	-0.035	-0.060
-471.230	-152.812	0.078	-0.006
-470.216	-140.310	-0.275	0.029
-469.201	492.600	-0.017	-0.039
-468.186	344.358	0.091	-0.178
-467.172	53.294	0.131	0.126
-466.157	52.823	0.148	-0.142
-465.143	-1.115	-0.114	0.081
-464.128	-190.713	-0.143	0.002
-463.113	796.975	0.120	-0.331
-462.099	-200.000	0.011	0.177
-461.084	209.806	0.078	-0.123
-460.070	-200.000	-0.000	0.048
-459.055	-160.289	-0.103	0.006
-458.040	800.000	0.062	-0.253
-457.026	-83.855	0.093	0.030
-456.011	-37.206	0.116	-0.062
-454.997	-88.676	0.027	0.008
-453.982	-200.000	-0.033	0.216
-452.968	-200.000	0.007	-0.135
-451.953	58.158	0.084	-0.082
-450.938	-140.427	0.333	-0.035
-449.924	86.305	0.133	0.147
-448.909	-67.155	-0.230	-0.091
-447.895	-184.686	-0.353	0.006
-446.880	293.893	0.105	-0.192
-445.865	-106.408	-0.071	-0.016
-444.851	472.501	0.123	0.277
-443.836	-154.843	-0.096	-0.006
-442.822	-51.859	-0.245	-0.114
-441.807	-2.060	-0.148	-0.104
-440.792	800.000	0.068	0.242
-439.778	78.848	-0.133	-0.143
-438.763	-73.843	0.038	0.014
-437.749	-200.000	-0.010	-0.253
-436.734	270.255	0.067	-0.118
-435.719	-94.818	-0.305	0.083
-434.705	-97.015	-0.169	0.044
-433.690	800.000	0.104	0.436
-432.676	81.983	-0.040	-0.043
-431.661	111.725	0.226	-0.273
-430.646	-103.115	-0.183	0.043
-429.632	-64.324	-0.225	0.092
-428.617	-200.000	0.019	-0.361
-427.603	309.008	0.110	0.207
-426.588	80.462	-0.049	0.053
-425.573	143.337	0.028	-0.037
-424.559	10.168	0.129	0.099
-423.544	-57.519	0.206	0.091
-422.530	596.429	-0.091	0.227
-421.515	800.000	0.105	0.434
-420.500	-23.786	0.239	-0.144
-419.486	37.385	-0.079	0.070
-418.471	-141.933	-0.354	-0.035
-417.457	658.303	-0.069	-0.178
-416.442	-200.000	-0.010	-0.083
-415.428	223.085	0.048	0.078
-414.413	189.699	-0.012	0.018
-413.398	283.958	-0.115	-0.206
-412.384	19.041	-0.122	0.097
-411.369	-139.225	-0.314	-0.034
-410.355	358.640	0.022	-0.043
-409.340	-8.249	0.286	0.192
-408.325	-136.201	0.302	-0.035
-407.311	79.668	0.223	0.240
-406.296	205.026	-0.080	-0.124
-405.282	123.577	-0.144	-0.181
-404.267	53.702	-0.080	-0.077
-403.252	-200.000	-0.413	-0.002
-402.238	800.000	0.014	-0.049
-401.223	-84.248	-0.072	-0.023
-400.209	-93.185	-0.291	0.081
-399.194	-200.000	0.005	-0.273
-398.179	214.292	0.220	0.348
-397.165	580.014	0.044	-0.107
-396.150	-168.616	0.396	0.015
-395.136	60.211	0.074	0.073
-394.121	-200.000	0.015	0.104
-393.106	-200.000	0.032	-0.398
-392.092	-125.590	0.308	0.047
-391.077	498.870	0.129	-0.297
-390.063	-178.149	0.305	0.007
-389.048	211.143	-0.122	0.191
-388.033	-107.984	-0.273	0.059
-387.019	800.000	-0.049	-0.163
-386.004	-45.035	0.101	-0.050
-384.990	-169.494	-0.249	0.009
-383.975	-200.000	-0.003	0.312
-382.960	-153.669	0.283	0.019
-381.946	-155.249	0.161	0.010
-380.931	0.548	0.224	-0.160
-379.917	161.709	-0.150	-0.209
-378.902	-200.000	-0.011	-0.373
-377.888	-104.380	0.105	-0.024
-376.873	-200.000	-0.054	0.285
-375.858	-200.000	-0.007	0.275
-374.844	391.491	-0.037	-0.076
-373.829	58.696	-0.072	0.071
-372.815	-200.000	-0.043	-0.207
-371.800	-11.017	0.038	0.025
-370.785	-124.465	-0.350	-0.054
-369.771	800.000	0.045	0.129
-368.756	-4.764	0.285	-0.196
-367.742	310.870	-0.115	-0.215
-366.727	-56.681	-0.107	-0.047
-365.712	501.513	-0.149	0.344
-364.698	800.000	-0.049	0.203
-363.683	-200.000	-0.018	0.180
-362.669	-129.920	0.348	0.048
-361.654	-9.627	-0.307	0.204
-360.639	-200.000	-0.036	0.235
-359.625	-131.312	-0.155	-0.021
-358.610	-113.867	-0.309	0.060
-357.596	-130.909	0.139	0.019
-356.581	3.217	0.094	-0.068
-355.566	-120.149	-0.272	0.046
-354.552	369.102	0.130	0.263
-353.537	-52.277	-0.233	0.108
-352.523	314.889	0.078	0.146
-351.508	-200.000	-0.001	-0.090
-350.493	553.936	0.081	-0.195
-349.479	-133.613	0.260	0.032
-348.464	316.100	-0.089	0.168
-347.450	800.000	0.118	-0.329
-346.435	348.156	-0.089	-0.174
-345.420	-200.000	-0.010	0.257
-344.406	-83.904	0.164	0.052
-343.391	-28.966	0.195	-0.112
-342.377	800.000	-0.084	0.361
-341.362	-200.000	0.018	-0.216
-340.348	-127.752	-0.197	0.028
-339.333	-200.000	0.027	-0.186
-338.318	86.275	-0.261	0.286
-337.304	31.410	0.239	0.205
-336.289	-25.061	0.223	-0.132
-335.275	185.831	0.060	-0.089
-334.260	126.513	0.101	0.127
-333.245	-30.448	0.157	-0.089
-332.231	245.034	-0.100	-0.168
-331.216	-34.854	-0.399	0.217
-330.202	138.226	0.130	0.170
-329.187	-200.000	-0.006	0.077
-328.172	-200.000	-0.027	-0.257
-327.158	53.014	-0.244	0.233
-326.143	-200.000	0.009	-0.261
-325.129	2.034	-0.143	0.103
-324.114	-51.319	0.300	0.140
-323.099	-6.612	0.119	-0.081
-322.085	134.372	0.165	0.214
-321.070	14.861	0.165	0.129
-320.056	32.048	-0.127	0.109
-319.041	42.231	0.219	0.199
-318.026	-69.517	-0.260	0.099
-317.012	547.339	0.094	-0.224
-315.997	-160.270	0.107	-0.006
-314.983	611.899	0.044	0.109
-313.968	185.720	0.079	-0.117
-312.953	318.969	-0.101	0.191
-311.939	-173.829	0.104	-0.003
-310.924	49.124	-0.054	0.050
-309.910	36.671	0.210	-0.185
-308.895	-200.000	0.014	0.169
-307.880	73.064	0.223	0.232
-306.866	800.000	0.140	-0.392
-305.851	-200.000	-0.037	0.221
-304.837	-38.396	-0.137	0.072
-303.822	800.000	-0.109	-0.315
-302.807	273.743	0.062	0.108
-301.793	329.527	-0.102	-0.195
-300.778	660.426	-0.081	-0.207
-299.764	-38.520	0.222	0.117
-298.749	186.277	-0.194	0.287
-297.735	-139.292	-0.052	0.006
-296.720	-81.159	-0.319	0.105
-295.705	-200.000	-0.005	-0.222
-294.691	-6.331	0.079	-0.054
-293.676	-108.858	-0.137	0.029
-292.662	-88.598	0.269	0.080
-291.647	-126.083	0.338	-0.051
-290.632	744.146	-0.017	-0.047
-289.618	-139.214	-0.091	-0.010
-288.603	575.697	0.040	0.098
-287.589	49.089	-0.187	-0.175
-286.574	-66.893	0.228	0.090
-285.559	-200.000	0.039	0.345
-284.545	-200.000	-0.031	0.198
-283.530	-7.879	0.174	-0.117
-282.516	-17.207	-0.313	-0.196
-281.501	-200.000	-0.014	0.402
-280.486	-71.827	0.129	-0.048
-279.472	-200.000	-0.001	0.265
-278.457	-68.576	0.067	0.026
-277.443	228.888	-0.163	-0.265
-276.428	-44.284	-0.250	-0.125
-275.413	415.781	0.070	-0.149
-274.399	183.371	0.189	-0.278
-273.384	-44.590	-0.157	-0.078
-272.370	-112.029	-0.171	0.034
-271.355	-147.541	0.338	0.028
-270.340	33.007	-0.112	-0.097
-269.326	-99.917	0.335	-0.083
-268.311	-52.629	0.286	0.132
-267.297	100.949	-0.077	0.089
-266.282	-53.804	-0.124	0.056
-265.267	-20.128	-0.349	0.214
-264.253	-65.533	0.292	0.117
-263.238	100.974	-0.187	-0.216
-262.224	-84.900	0.066	-0.021
-261.209	-200.000	0.006	0.158
-260.195	27.756	0.173	-0.145
-259.180	-95.420	0.660	-0.176
-258.165	97.550	-0.111	-0.127
-257.151	79.953	0.019	-0.020
-256.136	20.394	0.128	-0.102
-255.122	-45.864	-0.243	-0.119
-254.107	-200.000	-0.006	-0.648
-253.092	182.188	0.124	-0.182
-252.078	303.800	-0.148	-0.272
-251.063	34.471	-0.070	-0.061
-250.049	-154.402	0.215	0.014
-249.034	-81.482	-0.169	0.055
-248.019	-200.000	0.037	0.237
-247.005	-157.912	0.208	0.012
-245.990	72.544	-0.214	0.222
-244.976	103.717	-0.169	-0.197
-243.961	151.934	0.169	-0.228
-242.946	-18.340	-0.172	0.107
-241.932	-57.931	-0.210	0.091
-240.917	-152.059	-0.163	-0.012
-239.903	-91.307	-0.122	0.035
-238.888	800.000	0.071	0.252
-237.873	20.649	-0.167	-0.134
-236.859	155.992	0.086	-0.117
-235.844	-64.390	0.118	0.048
-234.830	225.403	-0.090	0.145
-233.815	-114.603	0.108	0.021
-232.800	-111.024	0.348	-0.071
-231.786	-68.416	0.103	-0.040
-230.771	-200.000	-0.025	0.280
-229.757	40.789	0.167	-0.149
-228.742	-200.000	-0.001	0.026
-227.727	38.646	0.062	-0.055
-226.713	430.387	0.096	-0.206
-225.698	-200.000	0.030	0.220
-224.684	-63.351	-0.366	0.150
-223.669	185.697	0.016	-0.023
-222.655	113.292	0.126	-0.151
-221.640	105.763	-0.047	-0.055
-220.625	688.185	0.150	0.390
-219.611	271.347	-0.178	0.312
-218.596	231.710	0.057	-0.093
-217.582	1.087	-0.170	0.121
-216.567	20.209	0.361	0.290
-215.552	-82.112	0.101	-0.033
-214.538	-200.000	-0.000	0.166
-213.523	49.683	0.034	0.031
-212.509	800.000	-0.011	0.036
-211.494	-128.356	0.199	-0.028
-210.479	-81.337	-0.157	0.051
-209.465	343.519	-0.257	-0.500
-208.450	-156.096	0.171	0.011
-207.436	7.428	0.283	0.210
-206.421	-112.027	0.497	0.099
-205.406	-84.883	0.035	0.011
-204.392	35.565	0.163	0.142
-203.377	-86.880	0.149	0.045
-202.363	17.684	-0.190	-0.150
-201.348	-63.696	-0.158	-0.064
-200.333	8.616	0.249	-0.186
-199.319	114.499	0.242	-0.293
-198.304	147.354	0.046	0.062
-197.290	-134.657	0.059	-0.007
-196.275	26.132	0.286	0.237
-195.260	684.314	0.113	0.291
-194.246	-197.361	-0.302	-0.002
-193.231	-81.432	0.061	-0.020
-192.217	-88.410	0.327	-0.097
-191.202	-200.000	-0.018	-0.079
-190.187	-7.743	0.281	-0.189
-189.173	486.850	-0.211	0.477
-188.158	-200.000	0.028	0.230
-187.144	-89.395	-0.256	0.075
-186.129	800.000	-0.010	0.033
-185.114	52.075	0.110	-0.104
-184.100	708.480	-0.061	-0.161
-183.085	-118.051	-0.206	0.037
-182.071	-200.000	-0.012	-0.166
-181.056	800.000	-0.148	0.461
-180.042	-105.668	0.167	0.037
-179.027	179.274	0.144	-0.210
-178.012	209.387	0.204	0.317
-176.998	129.959	0.131	0.166
-175.983	-66.962	0.243	-0.095
-174.969	507.212	-0.062	0.142
-173.954	800.000	0.048	0.178
-172.939	-13.795	0.229	0.147
-171.925	-41.258	0.124	-0.064
-170.910	198.560	-0.140	-0.212
-169.896	352.235	-0.179	-0.352
-168.881	-100.706	0.104	-0.025
-167.866	-200.000	-0.052	-0.234
-166.852	-200.000	0.010	-0.410
-165.837	-59.061	0.104	0.044
-164.823	-200.000	-0.003	0.230
-163.808	-159.479	0.253	0.014
-162.793	-48.149	-0.373	0.178
-161.779	-14.798	-0.054	0.034
-160.764	-72.823	0.109	-0.040
-159.750	-56.909	0.309	-0.135
-158.735	-178.555	0.151	-0.003
-157.720	358.367	-0.092	-0.182
-156.706	-94.955	0.254	0.068
-155.691	87.517	-0.063	0.069
-154.677	98.342	-0.281	-0.321
-153.662	24.964	0.211	0.174
-152.647	124.847	-0.237	0.295
-151.633	-125.432	-0.485	0.073
-150.618	-200.000	-0.024	0.140
-149.604	-27.565	-0.074	-0.043
-148.589	-66.140	0.104	0.041
-147.574	-32.991	0.068	0.038
-146.560	328.457	-0.166	0.315
-145.545	-200.000	-0.009	0.191
-144.531	-77.856	0.103	-0.035
-143.516	-200.000	0.072	0.391
-142.502	-145.082	-0.203	-0.018
-141.487	142.040	-0.083	-0.109
-140.472	-53.569	0.295	0.133
-139.458	669.128	-0.141	0.360
-138.443	128.393	0.057	-0.072
-137.429	-200.000	-0.012	0.055
-136.414	-200.000	-0.010	0.385
-135.399	-200.000	-0.203	-0.000
-134.385	-200.000	0.010	0.148
-133.370	63.788	0.162	-0.161
-132.356	107.411	0.042	0.050
-131.341	-154.310	-0.183	0.012
-130.326	159.524	-0.260	-0.359
-129.312	800.000	-0.092	0.360
-128.297	-200.000	0.002	-0.127
-127.283	18.684	-0.236	0.187
-126.268	-38.018	0.092	-0.048
-125.253	-142.915	-0.481	-0.046
-124.239	123.097	0.197	0.244
-123.224	282.373	-0.011	-0.019
-122.210	159.996	-0.139	0.192
