DTS Sentinel unit serial number:	SN413079Multiplexer serial number:	ORYXHardware model number:	OX4-SRSoftware version number:	ORYX F/W v4.00 Oryx Data Collector v3.7.2.0data status	okinstallation	princeton_trtdifferential loss correction	single-endedforward channel	channel 4reverse channel	N/Adate	2019/09/16time	08:21:34forward acquisition time	60.00reverse acquisition time	0.00gamma	496.2192k internal	0.2313k external	0.2313temperature offset calibration	0.9980default loss term (dB/km)	0.3790temperature slope calibration	1.0000multiplexer offset coefficient	1.0000multiplexer slope coefficient	1.0000fibre end	0.00T internal ref (°C)	29.05T ext. ref 1 (°C)	11.86T ext. ref 2 (°C)	25.47length (m)	temperature (°C)	Stokes	anti-Stokes-747.200	-200.000	0.000	-0.058
-746.185	262.047	-0.095	0.167
-745.171	201.622	-0.061	-0.095
-744.156	-200.000	-0.006	0.210
-743.142	117.275	0.064	0.080
-742.127	444.947	-0.096	0.215
-741.112	86.968	0.062	0.069
-740.098	-121.853	-0.042	-0.007
-739.083	112.490	0.119	-0.146
-738.069	476.352	-0.051	0.117
-737.054	800.000	-0.062	0.250
-736.039	-16.043	-0.357	0.230
-735.025	260.673	0.082	0.144
-734.010	-200.000	-0.043	-0.356
-732.996	-47.905	0.272	-0.134
-731.981	800.000	-0.071	-0.241
-730.966	-200.000	-0.027	-0.278
-729.952	-164.315	0.179	0.008
-728.937	504.838	-0.068	-0.159
-727.923	358.176	-0.231	-0.468
-726.908	-127.170	-0.126	0.019
-725.894	267.072	0.138	-0.244
-724.879	-133.680	-0.084	0.011
-723.864	-108.572	0.198	0.043
-722.850	-200.000	-0.053	0.283
-721.835	-32.842	-0.189	0.106
-720.821	-200.000	0.034	-0.268
-719.806	-105.052	-0.316	0.073
-718.791	-87.361	0.057	-0.018
-717.777	178.400	-0.187	0.277
-716.762	-122.293	-0.568	0.094
-715.748	67.479	0.156	-0.162
-714.733	-200.000	0.008	-0.080
-713.718	-200.000	0.013	-0.149
-712.704	-200.000	-0.028	-0.367
-711.689	-200.000	-0.005	0.124
-710.675	-199.978	0.334	0.002
-709.660	-200.000	0.069	-0.365
-708.645	96.238	0.051	-0.059
-707.631	201.378	-0.140	-0.218
-706.616	-61.732	0.129	-0.055
-705.602	-31.754	-0.181	0.103
-704.587	65.536	0.130	0.133
-703.572	79.714	-0.052	0.057
-702.558	-144.292	0.047	-0.004
-701.543	-35.319	0.191	0.105
-700.529	800.000	0.013	-0.048
-699.514	800.000	0.085	0.325
-698.499	28.787	0.106	-0.091
-697.485	2.446	0.344	0.252
-696.470	-200.000	-0.012	0.126
-695.456	181.054	-0.140	-0.208
-694.441	800.000	0.068	-0.214
-693.426	71.955	-0.347	-0.366
-692.412	800.000	0.035	0.155
-691.397	-200.000	0.016	0.291
-690.383	-90.621	-0.431	0.126
-689.368	-21.861	-0.170	-0.105
-688.354	-101.883	0.088	-0.021
-687.339	-148.870	-0.087	-0.007
-686.324	-49.538	0.107	-0.052
-685.310	40.721	0.223	-0.204
-684.295	-151.233	-0.099	-0.008
-683.281	24.928	0.047	-0.039
-682.266	-31.173	0.450	-0.257
-681.251	16.708	-0.289	-0.231
-680.237	-200.000	0.047	-0.537
-679.222	-43.918	0.076	-0.039
-678.208	96.403	-0.203	0.235
-677.193	-200.000	-0.009	0.041
-676.178	-68.827	-0.286	0.112
-675.164	270.877	-0.106	-0.190
-674.149	-80.587	-0.254	0.085
-673.135	35.272	-0.079	-0.070
-672.120	-105.765	-0.144	-0.033
-671.105	-72.045	0.224	0.084
-670.091	113.041	-0.125	-0.153
-669.076	-200.000	-0.000	0.152
-668.062	84.528	0.137	-0.151
-667.047	607.916	0.049	-0.125
-666.032	-200.000	-0.029	-0.293
-665.018	-51.741	-0.284	-0.134
-664.003	-200.000	0.013	0.115
-662.989	436.949	0.185	-0.408
-661.974	-200.000	-0.003	0.023
-660.959	155.464	0.089	-0.124
-659.945	-15.379	-0.139	0.090
-658.930	-145.854	0.137	-0.012
-657.916	-87.085	0.023	0.007
-656.901	280.500	-0.116	-0.210
-655.886	-110.488	0.304	0.064
-654.872	-112.105	-0.191	0.039
-653.857	-48.045	0.220	-0.107
-652.843	295.366	0.075	-0.138
-651.828	-200.000	-0.065	-0.333
-650.814	20.242	0.150	0.122
-649.799	-80.194	0.177	0.060
-648.784	-145.873	-0.428	0.038
-647.770	129.937	-0.315	0.407
-646.755	629.655	-0.124	0.317
-645.741	333.932	-0.056	-0.110
-644.726	-200.000	0.044	-0.334
-643.711	800.000	-0.125	0.425
-642.697	800.000	-0.029	0.114
-641.682	-137.144	-0.182	0.021
-640.668	-200.000	-0.004	0.047
-639.653	420.522	-0.148	0.321
-638.638	-200.000	0.011	0.371
-637.624	90.757	-0.066	-0.075
-636.609	365.923	0.031	-0.063
-635.595	129.556	-0.229	0.295
-634.580	-125.264	0.279	-0.043
-633.565	27.894	-0.132	0.112
-632.551	-200.000	0.003	0.026
-631.536	-90.767	-0.236	0.069
-630.522	308.560	-0.117	0.221
-629.507	82.705	0.280	-0.307
-628.492	661.347	-0.027	0.071
-627.478	101.457	0.065	-0.077
-626.463	800.000	0.029	0.107
-625.449	-200.000	0.052	-0.349
-624.434	-15.123	0.235	0.152
-623.419	800.000	0.027	-0.076
-622.405	211.073	0.160	0.255
-621.390	332.960	-0.136	0.265
-620.376	-113.757	0.197	-0.039
-619.361	688.153	-0.112	-0.296
-618.346	534.002	-0.054	0.128
-617.332	-200.000	0.008	-0.045
-616.317	-83.290	-0.290	-0.094
-615.303	332.091	0.142	0.277
-614.288	800.000	-0.015	-0.046
-613.273	345.900	0.097	-0.193
-612.259	-200.000	-0.003	-0.029
-611.244	-200.000	-0.013	-0.063
-610.230	-200.000	-0.021	-0.231
-609.215	207.631	0.127	-0.200
-608.201	-116.958	-0.215	-0.040
-607.186	-200.000	0.010	-0.284
-606.171	188.343	0.028	0.042
-605.157	162.046	0.085	0.121
-604.142	1.090	-0.063	0.046
-603.128	157.354	-0.068	-0.096
-602.113	24.745	-0.164	-0.137
-601.098	-200.000	0.004	0.122
-600.084	-156.603	0.180	0.011
-599.069	-40.264	0.322	0.169
-598.055	-186.386	0.206	0.003
-597.040	-126.483	-0.226	0.034
-596.025	-200.000	0.019	-0.145
-595.011	-200.000	0.009	-0.106
-593.996	-9.081	-0.018	-0.012
-592.982	-191.195	-0.081	-0.001
-591.967	-200.000	-0.012	-0.128
-590.952	800.000	0.032	-0.095
-589.938	28.238	-0.205	0.174
-588.923	-125.181	-0.089	-0.014
-587.909	164.875	-0.078	-0.111
-586.894	800.000	0.056	-0.190
-585.879	-71.311	0.543	-0.205
-584.865	397.467	0.097	-0.204
-583.850	-200.000	0.058	-0.447
-582.836	-14.932	-0.272	0.176
-581.821	206.093	-0.175	-0.274
-580.806	-94.349	0.103	0.028
-579.792	193.121	-0.143	0.218
-578.777	800.000	0.068	-0.213
-577.763	71.311	-0.064	-0.067
-576.748	800.000	0.029	0.119
-575.733	-97.173	-0.488	0.128
-574.719	-52.533	-0.433	-0.202
-573.704	262.903	0.091	0.159
-572.690	172.949	-0.023	-0.034
-571.675	-200.000	0.001	0.045
-570.661	119.019	0.235	0.293
-569.646	800.000	-0.118	-0.345
-568.631	563.961	-0.051	-0.123
-567.617	-71.968	-0.159	0.060
-566.602	-101.477	-0.263	-0.065
-565.588	-55.412	-0.307	0.139
-564.573	-56.344	-0.078	-0.035
-563.558	-27.813	0.274	-0.160
-562.544	800.000	0.077	0.229
-561.529	-0.846	-0.144	-0.103
-560.515	-11.005	0.384	-0.255
-559.500	800.000	-0.127	0.483
-558.485	-200.000	0.012	-0.072
-557.471	104.336	0.061	-0.072
-556.456	-55.195	0.256	-0.116
-555.442	346.035	0.140	0.276
-554.427	-113.551	-0.145	0.029
-553.412	-200.000	0.010	0.213
-552.398	180.260	-0.169	-0.249
-551.383	185.844	0.118	0.176
-550.369	-200.000	-0.011	0.157
-549.354	800.000	0.086	0.256
-548.339	54.110	0.114	-0.111
-547.325	800.000	-0.063	-0.249
-546.310	-152.675	0.284	0.020
-545.296	-109.644	0.408	-0.087
-544.281	-94.323	0.134	0.037
-543.266	-4.951	0.103	-0.071
-542.252	-184.120	-0.280	-0.005
-541.237	-196.194	-0.300	0.002
-540.223	52.648	0.091	0.088
-539.208	60.077	-0.087	0.086
-538.193	49.141	0.108	0.102
-537.179	87.807	-0.140	0.156
-536.164	384.856	0.151	0.312
-535.150	-133.901	-0.096	0.012
-534.135	50.572	-0.214	0.203
-533.121	153.056	-0.053	-0.072
-532.106	73.370	0.207	-0.218
-531.091	353.410	0.052	0.104
-530.077	9.280	-0.238	-0.181
-529.062	418.699	-0.044	0.094
-528.048	416.021	0.037	-0.080
-527.033	435.191	-0.164	0.359
-526.018	-46.422	0.150	0.074
-525.004	-11.643	0.321	-0.212
-523.989	-13.367	0.362	-0.236
-522.975	-200.000	0.044	0.248
-521.960	800.000	-0.078	-0.263
-520.945	800.000	-0.028	-0.078
-519.931	475.657	-0.120	-0.273
-518.916	-28.093	-0.420	0.244
-517.902	-42.603	-0.204	0.105
-516.887	737.424	-0.077	0.209
-515.872	-80.413	-0.133	-0.045
-514.858	250.856	0.223	-0.380
-513.843	-31.220	0.330	0.187
-512.829	335.894	0.066	0.129
-511.814	181.666	0.169	-0.250
-510.799	800.000	0.092	0.266
-509.785	-114.384	-0.138	-0.027
-508.770	-200.000	0.033	0.252
-507.756	136.423	-0.220	0.289
-506.741	-200.000	-0.003	0.257
-505.726	7.094	-0.455	0.341
-504.712	53.200	-0.180	-0.173
-503.697	800.000	-0.067	0.190
-502.683	-48.451	-0.354	-0.171
-501.668	800.000	-0.039	-0.111
-500.653	800.000	0.065	0.228
-499.639	49.539	0.179	-0.170
-498.624	-200.000	-0.012	-0.109
-497.610	-174.388	0.172	-0.005
-496.595	153.430	-0.184	-0.253
-495.581	667.039	0.126	-0.326
-494.566	-35.759	-0.197	-0.107
-493.551	-37.259	-0.145	-0.078
-492.537	235.898	0.079	0.131
-491.522	301.661	-0.090	0.167
-490.508	12.524	-0.140	-0.109
-489.493	294.095	-0.158	0.290
-488.478	-67.249	0.172	0.068
-487.464	368.248	0.154	0.313
-486.449	27.250	-0.226	0.190
-485.435	800.000	0.110	0.467
-484.420	800.000	-0.050	-0.138
-483.405	496.711	0.062	-0.143
-482.391	14.160	-0.297	0.232
-481.376	-106.900	-0.118	-0.026
-480.362	-77.578	-0.283	-0.099
-479.347	-70.524	0.296	-0.113
-478.332	-34.925	-0.329	-0.180
-477.318	-110.189	-0.102	0.021
-476.303	800.000	0.068	-0.267
-475.289	367.541	0.148	0.299
-474.274	121.139	0.153	-0.191
-473.259	175.295	-0.016	0.023
-472.245	-200.000	-0.061	-0.314
-471.230	800.000	0.112	-0.331
-470.216	83.548	0.084	0.092
-469.201	-56.510	-0.254	0.113
-468.186	800.000	0.068	-0.262
-467.172	800.000	-0.036	-0.144
-466.157	124.764	-0.089	0.112
-465.143	-172.381	-0.336	0.011
-464.128	800.000	-0.064	-0.232
-463.113	-200.000	0.044	-0.242
-462.099	-162.026	0.325	-0.016
-461.084	800.000	-0.129	-0.461
-460.070	800.000	0.015	-0.052
-459.055	-91.197	0.038	-0.011
-458.040	-200.000	-0.035	-0.224
-457.026	-78.753	-0.360	-0.123
-456.011	-200.000	-0.017	0.101
-454.997	-200.000	0.027	-0.229
-453.982	34.452	0.205	-0.179
-452.968	-38.243	0.219	-0.117
-451.953	-200.000	0.022	-0.305
-450.938	25.250	-0.232	-0.193
-449.924	-76.680	0.207	-0.073
-448.909	283.417	0.094	0.169
-447.895	140.363	-0.043	0.058
-446.880	-151.099	-0.117	0.009
-445.865	800.000	-0.074	-0.297
-444.851	-19.448	0.288	-0.179
-443.836	-51.283	0.337	-0.158
-442.822	35.929	-0.139	0.122
-441.807	-34.778	-0.236	-0.130
-440.792	-21.901	-0.146	0.089
-439.778	-200.000	-0.051	-0.285
-438.763	-38.280	-0.232	0.123
-437.749	561.670	0.049	-0.119
-436.734	-200.000	0.019	0.239
-435.719	176.193	-0.101	0.147
-434.705	-166.362	-0.347	-0.015
-433.690	113.920	-0.045	0.054
-432.676	-37.270	0.059	0.032
-431.661	-119.250	-0.120	-0.021
-430.646	-115.408	-0.315	-0.060
-429.632	-33.819	-0.247	-0.136
-428.617	800.000	-0.053	0.219
-427.603	-124.999	-0.263	-0.041
-426.588	-68.370	0.097	0.038
-425.573	370.697	0.095	0.192
-424.559	-117.809	-0.360	0.065
-423.544	381.493	0.145	-0.298
-422.530	-33.450	0.176	0.097
-421.515	-183.841	-0.176	0.003
-420.500	-200.000	-0.014	0.197
-419.486	-39.247	0.023	-0.012
-418.471	-77.041	0.187	0.065
-417.457	-200.000	0.018	-0.211
-416.442	-200.000	-0.000	0.104
-415.428	800.000	0.025	-0.110
-414.413	-129.315	0.093	0.013
-413.398	-10.999	0.266	0.176
-412.384	-57.479	0.208	0.091
-411.369	10.572	-0.250	0.191
-410.355	135.221	-0.149	-0.194
-409.340	-103.386	0.273	-0.064
-408.325	114.824	-0.115	0.141
-407.311	507.316	-0.110	0.255
-406.296	17.314	0.140	-0.111
-405.282	631.476	0.091	0.230
-404.267	-183.726	0.351	0.006
-403.252	-109.480	-0.135	0.028
-402.238	-44.424	-0.221	0.111
-401.223	-53.122	0.347	0.160
-400.209	-115.985	-0.167	-0.031
-399.194	70.857	0.189	0.196
-398.179	3.986	0.194	0.142
-397.165	2.777	-0.472	-0.343
-396.150	255.259	0.171	0.293
-395.136	-130.289	0.173	-0.024
-394.121	94.645	0.234	0.266
-393.106	-200.000	-0.035	-0.213
-392.092	-177.782	-0.076	0.002
-391.077	-27.743	-0.264	-0.153
-390.063	-118.994	0.291	0.051
-389.048	800.000	-0.045	-0.175
-388.033	412.810	-0.169	0.359
-387.019	-200.000	-0.009	0.138
-386.004	365.992	0.046	0.092
-384.990	186.276	0.143	0.212
-383.975	-76.370	0.232	-0.082
-382.960	395.569	0.049	-0.102
-381.946	-145.283	0.309	-0.028
-380.931	-200.000	-0.013	0.129
-379.917	-12.732	-0.218	-0.142
-378.902	-51.771	-0.137	-0.064
-377.888	5.407	0.231	-0.170
-376.873	800.000	0.043	0.158
-375.858	84.564	-0.187	-0.205
-374.844	-200.000	0.059	0.273
-373.829	128.307	0.093	-0.118
-372.815	447.651	-0.055	-0.121
-371.800	-200.000	0.031	0.158
-370.785	-59.528	-0.063	0.027
-369.771	-43.482	-0.423	-0.214
-368.756	-200.000	0.032	0.188
-367.742	559.104	-0.023	0.056
-366.727	42.033	0.143	-0.130
-365.712	-64.494	0.120	0.049
-364.698	-200.000	-0.002	0.167
-363.683	492.902	-0.112	-0.257
-362.669	-108.175	-0.266	-0.057
-361.654	5.529	-0.227	0.168
-360.639	164.195	-0.195	0.275
-359.625	-167.518	-0.332	0.013
-358.610	-200.000	-0.002	-0.364
-357.596	50.865	0.320	-0.303
-356.581	494.736	0.046	0.105
-355.566	-91.732	-0.200	-0.057
-354.552	800.000	0.033	-0.106
-353.537	-19.313	0.055	-0.034
-352.523	-200.000	0.003	0.175
-351.508	-4.365	-0.191	0.132
-350.493	-163.380	-0.047	0.002
-349.479	-146.845	0.095	0.008
-348.464	86.954	0.031	0.034
-347.450	182.626	-0.250	0.369
-346.435	-125.437	0.142	0.022
-345.420	-44.660	0.319	0.159
-344.406	-8.741	0.217	0.145
-343.391	-200.000	-0.021	-0.312
-342.377	124.690	-0.156	-0.195
-341.362	-138.034	0.149	-0.017
-340.348	800.000	-0.149	0.543
-339.333	-200.000	0.008	0.073
-338.318	-200.000	-0.009	0.101
-337.304	35.709	0.309	0.271
-336.289	-26.982	-0.095	0.055
-335.275	-146.955	0.188	-0.016
-334.260	136.713	-0.125	0.163
-333.245	-94.904	-0.118	0.032
-332.231	307.464	0.032	-0.060
-331.216	-92.320	-0.128	0.036
-330.202	70.558	-0.182	-0.188
-329.187	800.000	0.097	-0.274
-328.172	338.573	-0.163	-0.317
-327.158	-200.000	-0.020	-0.254
-326.143	75.835	-0.083	-0.087
-325.129	194.084	0.090	0.136
-324.114	-200.000	-0.040	0.194
-323.099	800.000	0.103	0.312
-322.085	796.595	0.045	0.125
-321.070	-200.000	-0.029	-0.210
-320.056	-132.035	0.074	-0.010
-319.041	-52.866	0.262	-0.120
-318.026	-129.538	-0.342	-0.047
-317.012	-200.000	0.005	-0.327
-315.997	412.512	0.117	-0.248
-314.983	-87.083	-0.209	-0.064
-313.968	151.639	0.136	0.185
-312.953	-52.170	0.155	-0.072
-311.939	-6.974	-0.174	0.118
-310.924	-51.084	0.179	-0.084
-309.910	20.308	-0.297	0.240
-308.895	-146.497	-0.103	0.009
-307.880	-39.984	0.250	-0.130
-306.866	77.303	0.403	0.428
-305.851	18.494	0.179	-0.142
-304.837	-70.107	0.115	-0.044
-303.822	-75.959	-0.080	-0.028
-302.807	46.477	0.129	-0.120
-301.793	-72.642	0.175	-0.064
-300.778	-122.944	0.126	-0.020
-299.764	800.000	0.047	0.203
-298.749	-200.000	-0.009	-0.233
-297.735	800.000	0.014	0.044
-296.720	-104.203	-0.179	0.042
-295.705	-171.026	-0.145	0.005
-294.691	-103.806	0.192	-0.045
-293.676	35.076	0.143	0.125
-292.662	224.521	0.124	0.200
-291.647	-115.512	-0.126	-0.024
-290.632	800.000	-0.051	-0.177
-289.618	105.016	0.259	-0.304
-288.603	-200.000	-0.041	0.237
-287.589	134.746	0.083	-0.107
-286.574	6.701	-0.267	0.198
-285.559	-10.648	-0.347	-0.229
-284.545	-200.000	0.482	0.001
-283.530	-50.237	-0.133	-0.063
-282.516	92.769	-0.268	0.302
-281.501	110.514	-0.225	-0.269
-280.486	-10.527	-0.153	0.101
-279.472	6.616	-0.137	0.101
-278.457	-30.051	0.133	0.075
-277.443	69.307	0.205	-0.210
-276.428	-79.881	0.058	-0.019
-275.413	-3.770	0.264	-0.183
-274.399	95.197	-0.113	-0.129
-273.384	62.271	-0.029	0.029
-272.370	-59.799	-0.064	0.027
-271.355	3.267	-0.295	-0.214
-270.340	-81.474	0.308	-0.101
-269.326	38.750	-0.102	-0.091
-268.311	-200.000	-0.005	0.062
-267.297	212.551	0.162	0.255
-266.282	-49.781	0.115	-0.054
-265.267	30.731	-0.155	-0.132
-264.253	-69.096	0.370	-0.142
-263.238	21.727	0.077	-0.063
-262.224	-200.000	-0.023	0.109
-261.209	800.000	-0.040	0.110
-260.195	-122.821	0.329	-0.053
-259.180	800.000	-0.109	-0.304
-258.165	-112.270	-0.384	0.077
-257.151	70.477	0.139	-0.143
-256.136	-48.314	-0.149	-0.071
-255.122	-54.852	0.372	-0.167
-254.107	89.220	-0.076	-0.084
-253.092	121.919	0.176	-0.219
-252.078	-67.573	-0.260	0.101
-251.063	694.340	0.054	0.140
-250.049	-117.440	-0.143	0.026
-249.034	339.076	-0.119	0.230
-248.019	-24.671	-0.151	-0.089
-247.005	-200.000	-0.057	-0.297
-245.990	27.148	0.278	0.232
-244.976	-62.005	-0.131	0.054
-243.961	-77.327	-0.124	0.043
-242.946	-132.517	0.103	0.013
-241.932	513.168	-0.126	0.292
-240.917	-96.630	0.180	0.047
-239.903	-149.220	-0.357	-0.028
-238.888	109.287	0.101	0.121
-237.873	356.633	-0.067	0.133
-236.859	43.610	0.140	0.128
-235.844	-77.293	-0.195	0.067
-234.830	80.533	0.069	-0.074
-233.815	-200.000	-0.005	-0.233
-232.800	8.698	0.102	0.076
-231.786	166.463	-0.129	0.182
-230.771	-200.000	0.039	-0.201
-229.757	126.514	0.190	-0.239
-228.742	-150.825	0.195	0.015
-227.727	41.842	0.065	-0.059
-226.713	109.006	0.221	0.263
-225.698	339.010	-0.109	-0.212
-224.684	-53.052	0.041	-0.019
-223.669	77.823	-0.167	-0.177
-222.655	105.711	0.106	0.125
-221.640	-94.164	-0.196	0.053
-220.625	72.763	-0.209	-0.217
-219.611	292.101	0.140	-0.254
-218.596	800.000	0.212	0.582
-217.582	-122.227	0.092	-0.015
-216.567	-127.006	0.160	-0.023
-215.552	-200.000	-0.032	-0.185
-214.538	-142.395	-0.094	-0.009
-213.523	-64.398	-0.045	0.018
-212.509	378.124	-0.057	-0.116
-211.494	800.000	0.018	0.076
-210.479	-112.458	0.040	0.008
-209.465	-137.508	-0.236	0.026
-208.450	441.964	-0.113	0.245
-207.436	-181.755	0.306	0.006
-206.421	-54.917	0.292	0.131
-205.406	309.217	0.121	0.224
-204.392	-108.632	-0.090	-0.019
-203.377	-55.427	0.420	-0.187
-202.363	-185.758	0.367	-0.005
-201.348	374.127	0.175	-0.354
-200.333	245.789	0.150	0.251
-199.319	-62.429	-0.274	-0.113
-198.304	-65.877	0.218	0.086
-197.290	-90.816	-0.281	-0.080
-196.275	350.471	0.026	-0.051
-195.260	-71.648	0.037	0.014
-194.246	-43.828	-0.141	-0.071
-193.231	-95.245	0.069	-0.018
-192.217	53.223	-0.085	0.081
-191.202	-32.455	0.180	-0.100
-190.187	-82.283	-0.279	0.090
-189.173	51.825	0.264	0.250
-188.158	-22.261	-0.214	-0.129
-187.144	13.280	-0.043	0.033
-186.129	-157.507	0.015	0.001
-185.114	35.219	0.200	0.174
-184.100	800.000	0.040	-0.164
-183.085	552.819	0.043	-0.103
-182.071	-5.226	0.143	0.098
-181.056	77.243	0.084	0.089
-180.042	-51.043	-0.139	-0.065
-179.027	800.000	0.085	-0.257
-178.012	-98.136	0.106	0.027
-176.998	350.454	-0.071	0.138
-175.983	-25.085	0.187	0.110
-174.969	-107.176	0.065	0.014
-173.954	-200.000	0.047	-0.245
-172.939	-148.643	-0.181	0.015
-171.925	556.141	-0.074	-0.177
-170.910	123.555	0.152	0.189
-169.896	-200.000	0.011	0.100
-168.881	251.861	0.173	0.292
-167.866	-31.571	0.289	0.161
-166.852	-35.316	-0.111	0.060
-165.837	-134.347	0.288	0.035
-164.823	15.602	0.147	-0.115
-163.808	-46.297	0.216	0.105
-162.793	-26.448	0.191	-0.111
-161.779	-157.322	-0.153	-0.009
-160.764	800.000	-0.126	-0.467
-159.750	-148.960	0.274	-0.022
-158.735	-145.825	-0.240	-0.021
-157.720	-153.521	0.140	-0.010
-156.706	302.386	-0.080	0.146
-155.691	-200.000	0.016	0.115
-154.677	-149.187	-0.169	-0.013
-153.662	-113.433	0.387	-0.075
-152.647	800.000	-0.024	0.077
-151.633	-74.833	0.218	0.078
-150.618	116.700	-0.097	-0.117
-149.604	5.783	-0.337	-0.247
-148.589	35.326	-0.220	-0.191
-147.574	44.152	0.245	-0.223
-146.560	319.680	0.088	0.165
-145.545	676.961	-0.045	0.116
-144.531	17.581	-0.131	-0.103
-143.516	9.203	0.170	-0.127
-142.502	-151.245	0.269	-0.020
-141.487	-200.000	-0.016	0.251
-140.472	-47.935	0.142	0.068
-139.458	-27.771	-0.131	-0.075
-138.443	-95.190	-0.115	0.031
-137.429	355.220	0.077	-0.153
-136.414	-200.000	-0.030	0.163
-135.399	161.976	-0.192	0.266
-134.385	-114.619	0.119	0.023
-133.370	-89.513	0.219	-0.064
-132.356	-140.810	-0.034	0.003
-131.341	-160.056	-0.129	-0.007
-130.326	134.342	-0.174	-0.224
-129.312	199.009	-0.072	0.109
-128.297	114.242	-0.264	-0.318
-127.283	-164.247	0.280	0.013
-126.268	800.000	0.045	0.161
-125.253	-60.955	-0.160	0.067
-124.239	-171.107	-0.162	-0.005
-123.224	-71.705	0.319	-0.118
-122.210	-66.155	0.216	0.085
-121.195	79.336	0.090	-0.095
