DTS Sentinel unit serial number:	SN413079Multiplexer serial number:	ORYXHardware model number:	OX4-SRSoftware version number:	ORYX F/W v4.00 Oryx Data Collector v3.7.2.0data status	okinstallation	princeton_trtdifferential loss correction	single-endedforward channel	channel 4reverse channel	N/Adate	2019/09/14time	21:41:35forward acquisition time	60.00reverse acquisition time	0.00gamma	496.2192k internal	0.2306k external	0.2306temperature offset calibration	1.0073default loss term (dB/km)	0.3790temperature slope calibration	1.0000multiplexer offset coefficient	1.0000multiplexer slope coefficient	1.0000fibre end	0.00T internal ref (°C)	32.80T ext. ref 1 (°C)	4.76T ext. ref 2 (°C)	27.70length (m)	temperature (°C)	Stokes	anti-Stokes-747.200	-2.500	0.061	-0.043
-746.185	190.904	-0.083	-0.127
-745.171	224.399	0.209	0.343
-744.156	-200.000	0.009	0.313
-743.142	-61.837	0.200	0.085
-742.127	-125.383	0.141	0.022
-741.112	-50.319	-0.239	-0.115
-740.098	-200.000	0.029	0.254
-739.083	-200.000	0.021	0.096
-738.069	140.708	-0.189	0.255
-737.054	-34.689	-0.317	-0.177
-736.039	-126.992	-0.343	-0.051
-735.025	7.084	0.149	0.113
-734.010	-126.157	0.046	-0.007
-732.996	-88.413	-0.149	-0.045
-731.981	-111.939	-0.357	-0.073
-730.966	-147.713	0.415	0.035
-729.952	800.000	0.079	-0.339
-728.937	-91.496	-0.351	0.102
-727.923	-105.304	0.063	0.015
-726.908	190.611	0.099	-0.152
-725.894	-97.666	-0.188	0.049
-724.879	-200.000	0.000	-0.392
-723.864	-34.164	-0.165	-0.092
-722.850	-200.000	-0.018	0.344
-721.835	-87.252	-0.401	-0.124
-720.821	-145.870	-0.191	-0.017
-719.806	-78.229	-0.214	-0.075
-718.791	-200.000	0.063	-0.361
-717.777	-200.000	0.017	0.229
-716.762	-59.988	0.184	-0.080
-715.748	800.000	0.049	-0.157
-714.733	-79.251	-0.094	-0.032
-713.718	42.799	-0.114	-0.105
-712.704	103.372	0.128	0.152
-711.689	800.000	0.035	-0.128
-710.675	-200.000	0.021	-0.176
-709.660	-200.000	-0.016	0.293
-708.645	800.000	-0.114	-0.378
-707.631	-9.150	0.101	0.069
-706.616	99.884	-0.212	-0.250
-705.602	-120.126	0.117	0.020
-704.587	-56.674	0.363	0.163
-703.572	-43.312	-0.349	0.179
-702.558	-156.286	0.081	0.005
-701.543	-123.715	0.323	-0.052
-700.529	-76.477	-0.266	-0.095
-699.514	800.000	-0.070	0.214
-698.499	-157.464	-0.124	-0.008
-697.485	0.969	0.150	0.109
-696.470	800.000	-0.047	0.143
-695.456	-55.289	-0.129	-0.059
-694.441	227.505	0.115	0.191
-693.426	12.798	0.105	0.083
-692.412	-23.307	0.204	-0.124
-691.397	-122.965	-0.170	0.028
-690.383	-200.000	-0.024	-0.138
-689.368	-136.674	-0.147	-0.017
-688.354	-93.881	0.498	0.139
-687.339	284.278	-0.086	-0.158
-686.324	145.928	-0.127	0.173
-685.310	-63.433	0.091	-0.038
-684.295	-200.000	0.001	0.231
-683.281	597.082	0.068	0.172
-682.266	70.385	0.164	0.172
-681.251	800.000	0.029	-0.085
-680.237	-200.000	0.020	0.186
-679.222	-200.000	-0.012	-0.263
-678.208	-74.302	0.152	0.056
-677.193	151.446	0.083	0.115
-676.178	310.905	0.047	0.089
-675.164	-149.642	0.310	-0.025
-674.149	-200.000	-0.037	-0.171
-673.135	43.744	0.081	0.076
-672.120	-114.829	-0.088	-0.017
-671.105	175.049	-0.132	-0.195
-670.091	78.137	0.256	-0.278
-669.076	800.000	0.040	-0.118
-668.062	-81.681	-0.242	0.080
-667.047	-126.799	0.230	0.034
-666.032	339.905	0.201	0.398
-665.018	27.818	0.042	0.036
-664.003	-23.999	0.215	0.130
-662.989	-146.683	-0.119	0.010
-661.974	224.664	0.088	0.145
-660.959	-6.369	-0.250	-0.173
-659.945	-129.450	0.141	-0.020
-658.930	-67.627	0.169	0.067
-657.916	224.695	-0.100	-0.164
-656.901	800.000	0.097	0.312
-655.886	-200.000	-0.016	-0.265
-654.872	-113.600	0.426	-0.084
-653.857	-150.267	0.199	-0.016
-652.843	-21.133	0.220	-0.137
-651.828	-200.000	-0.039	0.292
-650.814	800.000	-0.049	-0.200
-649.799	-58.520	-0.267	0.117
-648.784	54.111	0.179	0.174
-647.770	800.000	0.096	-0.303
-646.755	-200.000	-0.026	-0.249
-645.741	-54.684	0.151	0.069
-644.726	-200.000	0.016	-0.165
-643.711	-88.082	-0.144	0.044
-642.697	-88.215	-0.315	-0.096
-641.682	630.423	-0.115	-0.295
-640.668	123.999	0.027	-0.034
-639.653	580.769	-0.104	-0.258
-638.638	-200.000	-0.028	0.255
-637.624	141.489	-0.119	0.159
-636.609	-53.722	-0.251	-0.116
-635.595	-200.000	0.040	-0.193
-634.580	681.604	-0.092	0.242
-633.565	51.770	0.055	-0.053
-632.551	272.165	-0.052	-0.093
-631.536	-200.000	0.019	-0.161
-630.522	-70.380	0.173	-0.066
-629.507	-115.319	-0.087	0.017
-628.492	-200.000	-0.008	-0.043
-627.478	800.000	0.074	0.323
-626.463	19.743	-0.069	-0.056
-625.449	-127.435	0.053	-0.008
-624.434	-146.276	-0.223	-0.020
-623.419	104.255	0.047	0.056
-622.405	-200.000	-0.021	0.263
-621.390	-200.000	0.059	-0.327
-620.376	559.226	0.051	-0.124
-619.361	-57.767	-0.151	0.067
-618.346	116.565	-0.034	0.042
-617.332	-126.003	0.224	0.034
-616.317	800.000	-0.067	-0.200
-615.303	425.344	-0.128	0.278
-614.288	-10.779	0.165	-0.110
-613.273	-131.344	-0.093	-0.012
-612.259	74.846	0.173	-0.184
-611.244	-29.761	0.268	-0.155
-610.230	212.555	0.234	-0.373
-609.215	-76.156	-0.326	-0.116
-608.201	-26.635	-0.229	0.135
-607.186	5.555	-0.090	0.067
-606.171	-200.000	0.022	-0.161
-605.157	136.403	0.043	-0.057
-604.142	15.424	0.196	0.156
-603.128	55.731	0.278	-0.272
-602.113	-170.662	-0.456	0.016
-601.098	-95.264	-0.429	-0.117
-600.084	-200.000	-0.007	0.044
-599.069	-149.528	0.245	-0.020
-598.055	-39.659	-0.225	0.119
-597.040	2.328	-0.161	0.118
-596.025	-200.000	-0.035	0.245
-595.011	340.738	0.047	-0.093
-593.996	-2.555	0.099	0.070
-592.982	328.233	0.148	-0.287
-591.967	-77.692	0.179	0.063
-590.952	-7.287	0.262	-0.180
-589.938	96.461	-0.227	-0.263
-588.923	-200.000	0.041	0.307
-587.909	365.626	0.091	0.186
-586.894	-200.000	-0.008	-0.169
-585.879	252.973	0.097	-0.168
-584.865	-4.865	0.272	-0.190
-583.850	-24.932	-0.185	0.111
-582.836	117.494	0.255	0.317
-581.821	-101.056	-0.079	0.020
-580.806	-59.540	-0.195	0.085
-579.792	-37.296	-0.160	0.087
-578.777	122.884	-0.102	-0.129
-577.763	-34.083	-0.231	0.129
-576.748	-0.414	0.082	0.059
-575.733	-200.000	-0.075	-0.474
-574.719	73.954	-0.220	0.233
-573.704	68.851	-0.216	-0.224
-572.690	757.343	-0.025	0.068
-571.675	-200.000	-0.032	-0.258
-570.661	800.000	-0.078	-0.229
-569.646	169.502	-0.097	0.140
-568.631	-200.000	0.027	-0.282
-567.617	-47.810	-0.141	0.069
-566.602	-60.201	0.365	-0.157
-565.588	57.849	0.162	-0.160
-564.573	-11.800	0.200	0.133
-563.558	47.734	-0.080	-0.076
-562.544	800.000	0.017	-0.052
-561.529	-31.771	0.471	-0.267
-560.515	-200.000	0.040	0.250
-559.500	28.759	-0.137	0.117
-558.485	-54.889	0.094	0.043
-557.471	-200.000	0.066	-0.322
-556.456	-153.222	0.351	-0.025
-555.442	201.399	0.101	-0.157
-554.427	-86.192	-0.292	0.091
-553.412	355.255	-0.185	0.372
-552.398	-115.678	-0.113	0.021
-551.383	252.999	0.210	-0.362
-550.369	-143.209	-0.104	-0.010
-549.354	-63.341	0.679	0.282
-548.339	4.100	-0.170	-0.125
-547.325	800.000	-0.047	0.155
-546.310	-96.802	-0.341	0.090
-545.296	-200.000	0.003	0.158
-544.281	105.130	-0.061	0.072
-543.266	-158.214	0.335	-0.020
-542.252	-144.440	0.497	0.047
-541.237	138.295	0.247	0.327
-540.223	93.674	-0.123	0.141
-539.208	291.181	-0.070	-0.128
-538.193	37.038	0.206	-0.184
-537.179	800.000	-0.076	0.264
-536.164	800.000	-0.151	-0.503
-535.150	800.000	-0.073	0.226
-534.135	-200.000	-0.024	-0.120
-533.121	-73.783	0.275	-0.101
-532.106	459.002	0.081	0.183
-531.091	-200.000	-0.039	0.186
-530.077	282.510	-0.208	0.377
-529.062	406.998	0.124	0.265
-528.048	75.872	-0.111	-0.118
-527.033	-200.000	-0.010	0.140
-526.018	-49.982	0.247	-0.118
-525.004	694.261	0.130	-0.343
-523.989	-200.000	-0.015	0.111
-522.975	-200.000	0.003	0.212
-521.960	-144.840	0.212	-0.020
-520.945	-189.187	0.342	0.004
-519.931	505.229	-0.088	-0.207
-518.916	-2.715	0.275	0.194
-517.902	-62.253	0.411	0.173
-516.887	-137.315	0.294	-0.034
-515.872	108.699	0.116	-0.140
-514.858	800.000	-0.099	-0.281
-513.843	-200.000	-0.017	0.088
-512.829	-67.245	0.357	0.142
-511.814	27.824	0.178	0.151
-510.799	800.000	-0.053	-0.169
-509.785	-200.000	-0.029	-0.599
-508.770	-164.902	-0.208	-0.009
-507.756	-41.447	0.196	0.102
-506.741	-200.000	0.011	0.067
-505.726	-136.104	-0.069	0.008
-504.712	-200.000	0.010	-0.082
-503.697	721.271	-0.153	-0.410
-502.683	-125.802	0.352	0.054
-501.668	552.181	-0.084	0.202
-500.653	481.915	-0.138	0.316
-499.639	83.381	-0.226	0.248
-498.624	800.000	0.118	0.354
-497.610	-92.842	0.087	-0.024
-496.595	59.489	-0.013	0.013
-495.581	800.000	-0.031	-0.105
-494.566	-200.000	-0.002	0.099
-493.551	-200.000	0.015	0.160
-492.537	-80.809	-0.363	-0.122
-491.522	-200.000	0.024	-0.268
-490.508	52.389	0.063	-0.060
-489.493	-200.000	-0.042	-0.243
-488.478	-90.894	0.099	-0.029
-487.464	-200.000	0.007	-0.134
-486.449	-126.754	-0.093	0.014
-485.435	97.429	-0.128	-0.148
-484.420	25.179	-0.183	-0.153
-483.405	-88.791	-0.167	0.050
-482.391	469.433	0.076	0.173
-481.376	697.015	0.057	-0.150
-480.362	247.280	0.045	0.077
-479.347	-21.787	-0.141	-0.087
-478.332	-200.000	0.010	0.045
-477.318	-19.718	0.110	0.068
-476.303	-47.497	0.187	-0.092
-475.289	-2.204	-0.221	0.156
-474.274	-200.000	-0.044	0.290
-473.259	-200.000	-0.026	0.386
-472.245	-47.550	0.182	-0.089
-471.230	26.982	0.370	-0.312
-470.216	67.175	0.195	-0.200
-469.201	-84.852	0.203	0.064
-468.186	-63.974	0.110	-0.045
-467.172	800.000	0.095	-0.401
-466.157	-200.000	-0.067	0.359
-465.143	237.835	-0.035	0.059
-464.128	-99.584	-0.031	0.008
-463.113	-121.841	-0.113	-0.019
-462.099	-200.000	0.007	0.088
-461.084	235.337	-0.179	-0.297
-460.070	692.876	-0.051	0.135
-459.055	800.000	0.046	0.158
-458.040	800.000	0.138	0.518
-457.026	2.039	0.253	0.184
-456.011	-181.626	-0.193	-0.004
-454.997	-200.000	0.032	0.332
-453.982	-18.270	-0.241	0.152
-452.968	-78.477	-0.292	0.100
-451.953	-41.528	-0.404	-0.209
-450.938	-200.000	0.008	-0.219
-449.924	-80.462	0.364	0.122
-448.909	609.061	0.118	-0.296
-447.895	26.112	-0.226	-0.190
-446.880	-120.015	-0.029	-0.005
-445.865	313.111	-0.259	-0.490
-444.851	-79.908	-0.260	-0.088
-443.836	-138.007	0.142	0.016
-442.822	2.059	0.134	-0.098
-441.807	-200.000	0.029	0.192
-440.792	396.877	-0.080	-0.168
-439.778	-17.999	-0.413	0.260
-438.763	-51.026	0.318	-0.150
-437.749	676.973	0.066	-0.173
-436.734	-18.361	0.022	-0.014
-435.719	258.497	0.121	0.210
-434.705	411.042	0.057	0.121
-433.690	-109.139	0.047	-0.010
-432.676	173.017	-0.133	0.192
-431.661	-200.000	-0.004	0.315
-430.646	-8.706	0.248	-0.167
-429.632	72.936	-0.076	0.079
-428.617	-66.537	0.173	-0.069
-427.603	99.303	0.192	-0.223
-426.588	-200.000	-0.031	0.175
-425.573	395.678	-0.195	0.409
-424.559	-117.364	0.146	0.026
-423.544	-159.179	-0.119	-0.007
-422.530	186.657	-0.210	0.314
-421.515	-200.000	0.022	0.158
-420.500	-200.000	0.006	0.347
-419.486	-184.249	0.131	0.002
-418.471	151.770	0.056	-0.076
-417.457	491.053	0.108	-0.248
-416.442	-18.521	0.088	0.055
-415.428	798.539	0.110	0.305
-414.413	147.072	0.164	-0.222
-413.398	236.408	0.071	0.118
-412.384	-200.000	0.004	-0.100
-411.369	72.251	0.131	-0.137
-410.355	83.853	0.083	-0.091
-409.340	-114.797	-0.151	-0.029
-408.325	158.144	0.087	0.121
-407.311	-69.970	-0.118	0.045
-406.296	-58.806	-0.054	0.024
-405.282	176.009	0.223	0.325
-404.267	-200.000	-0.002	-0.146
-403.252	-200.000	-0.021	-0.244
-402.238	144.927	-0.038	-0.052
-401.223	-104.322	-0.074	0.017
-400.209	-140.572	-0.327	0.034
-399.194	-87.867	0.212	-0.064
-398.179	60.354	0.084	0.084
-397.165	-120.676	0.090	-0.015
-396.150	-75.109	0.100	-0.036
-395.136	800.000	-0.128	0.371
-394.121	103.592	0.062	0.073
-393.106	-13.431	-0.107	-0.070
-392.092	293.784	0.119	-0.217
-391.077	-31.605	-0.177	-0.100
-390.063	-134.319	-0.199	-0.024
-389.048	-9.173	0.141	0.095
-388.033	485.800	-0.058	0.134
-387.019	-95.654	-0.369	-0.099
-386.004	-43.688	0.089	-0.045
-384.990	-200.000	-0.018	0.172
-383.975	100.478	-0.253	-0.294
-382.960	-200.000	0.018	-0.088
-381.946	800.000	0.066	0.190
-380.931	42.465	0.151	0.138
-379.917	-200.000	0.002	0.369
-378.902	170.730	0.245	-0.352
-377.888	15.309	0.200	0.157
-376.873	89.153	0.164	-0.183
-375.858	-76.961	0.340	0.119
-374.844	-17.373	-0.160	-0.101
-373.829	0.158	-0.387	0.277
-372.815	193.947	0.008	0.012
-371.800	-51.246	-0.141	0.066
-370.785	-77.432	0.309	-0.108
-369.771	-75.101	-0.065	-0.023
-368.756	-200.000	-0.020	-0.172
-367.742	-102.504	-0.289	0.069
-366.727	800.000	-0.081	0.295
-365.712	364.349	-0.039	-0.078
-364.698	-31.853	-0.023	0.013
-363.683	120.068	-0.169	0.211
-362.669	231.459	-0.096	0.157
-361.654	-200.000	-0.030	-0.256
-360.639	-128.703	-0.410	0.058
-359.625	-100.126	0.416	0.104
-358.610	84.703	0.115	-0.126
-357.596	79.900	0.043	0.046
-356.581	-150.473	-0.247	-0.019
-355.566	800.000	0.035	-0.127
-354.552	-163.649	-0.225	0.011
-353.537	110.129	-0.165	0.199
-352.523	2.240	-0.152	-0.110
-351.508	208.308	-0.070	-0.109
-350.493	-125.457	-0.154	0.024
-349.479	-200.000	0.003	0.084
-348.464	-80.520	-0.471	-0.157
-347.450	-175.036	-0.022	-0.001
-346.435	641.620	0.110	0.281
-345.420	-11.809	-0.071	0.047
-344.406	-128.817	-0.099	0.014
-343.391	-200.000	-0.010	0.218
-342.377	147.418	-0.296	0.400
-341.362	23.020	0.269	-0.221
-340.348	-90.801	-0.142	0.041
-339.333	198.143	0.061	0.094
-338.318	174.380	0.021	-0.030
-337.304	800.000	-0.092	0.285
-336.289	800.000	-0.083	0.264
-335.275	-41.415	0.057	0.029
-334.260	-106.942	-0.410	-0.091
-333.245	352.167	0.064	-0.127
-332.231	-160.250	0.152	-0.008
-331.216	-3.529	0.179	-0.125
-330.202	-193.522	-0.126	-0.001
-329.187	-162.759	0.166	0.008
-328.172	-100.900	-0.082	-0.020
-327.158	800.000	-0.065	-0.203
-326.143	28.090	-0.199	0.168
-325.129	-88.002	0.193	-0.058
-324.114	800.000	0.113	-0.440
-323.099	-200.000	0.028	0.128
-322.085	16.267	0.214	0.169
-321.070	-200.000	0.013	0.281
-320.056	-95.469	0.063	-0.017
-319.041	800.000	-0.110	-0.309
-318.026	-126.750	0.189	-0.028
-317.012	-15.217	0.361	0.231
-315.997	-200.000	0.054	0.245
-314.983	17.678	0.335	0.266
-313.968	-76.503	0.180	0.063
-312.953	-150.005	-0.152	0.012
-311.939	32.759	-0.140	-0.121
-310.924	22.011	-0.206	-0.168
-309.910	-106.700	-0.286	0.064
-308.895	-129.098	0.085	-0.012
-307.880	-200.000	-0.064	-0.304
-306.866	275.372	0.140	-0.248
-305.851	-87.412	0.145	0.044
-304.837	-79.300	-0.137	-0.047
-303.822	-73.619	0.224	0.082
-302.807	379.865	0.249	-0.511
-301.793	0.526	-0.341	-0.244
-300.778	174.024	-0.137	0.198
-299.764	42.536	-0.152	0.138
-298.749	-200.000	-0.419	0.000
-297.735	723.420	-0.047	-0.126
-296.720	-135.893	-0.011	0.001
-295.705	73.486	-0.081	0.084
-294.691	-200.000	-0.012	0.198
-293.676	-152.237	-0.385	0.028
-292.662	1.582	0.183	0.132
-291.647	-101.567	0.237	0.057
-290.632	-95.348	-0.136	0.036
-289.618	179.332	0.120	-0.176
-288.603	-19.453	-0.085	0.053
-287.589	-193.266	0.264	0.002
-286.574	-63.296	0.130	0.053
-285.559	-1.538	-0.152	-0.107
-284.545	-74.380	0.128	0.046
-283.530	71.263	0.225	-0.234
-282.516	218.314	-0.064	0.102
-281.501	-200.000	-0.010	0.109
-280.486	428.781	0.084	0.180
-279.472	-108.099	0.083	0.018
-278.457	102.246	0.067	0.078
-277.443	156.954	0.111	-0.153
-276.428	-76.074	0.226	0.080
-275.413	-99.140	-0.447	0.113
-274.399	321.302	-0.162	-0.307
-273.384	-180.598	0.053	-0.001
-272.370	629.585	0.093	-0.236
-271.355	-103.249	0.368	-0.087
-270.340	-35.200	0.129	0.070
-269.326	-47.846	-0.230	-0.111
-268.311	-200.000	-0.029	-0.180
-267.297	-30.098	0.354	-0.201
-266.282	-159.139	-0.268	0.015
-265.267	-161.289	0.278	-0.014
-264.253	104.111	0.100	0.117
-263.238	-126.385	0.274	0.041
-262.224	-70.838	-0.307	-0.116
-261.209	-200.000	0.023	-0.196
-260.195	182.164	-0.160	-0.236
-259.180	-117.988	-0.249	-0.045
-258.165	-35.424	0.229	0.124
-257.151	800.000	-0.049	0.189
-256.136	51.905	-0.375	0.356
-255.122	30.012	0.088	-0.075
-254.107	122.842	-0.208	0.260
-253.092	-200.000	-0.017	0.101
-252.078	800.000	-0.048	0.188
-251.063	-2.153	-0.207	0.145
-250.049	-200.000	-0.014	0.100
-249.034	768.239	0.147	-0.398
-248.019	800.000	0.024	-0.073
-247.005	15.420	0.126	-0.099
-245.990	197.856	0.063	0.096
-244.976	65.897	-0.052	-0.053
-243.961	265.343	0.139	-0.243
-242.946	36.507	-0.163	0.144
-241.932	-200.000	-0.010	-0.238
-240.917	24.741	0.346	0.286
-239.903	-132.720	-0.146	0.019
-238.888	-74.891	0.146	0.052
-237.873	-200.000	0.017	-0.123
-236.859	-153.130	-0.037	0.003
-235.844	38.852	-0.150	0.134
-234.830	164.346	0.136	-0.192
-233.815	-179.471	-0.236	0.005
-232.800	-200.000	0.076	-0.452
-231.786	559.319	0.072	-0.173
-230.771	-157.589	-0.168	0.010
-229.757	109.306	-0.154	-0.184
-228.742	158.981	0.089	-0.123
-227.727	-72.043	0.197	-0.073
-226.713	747.893	-0.090	-0.241
-225.698	542.394	-0.103	-0.245
-224.684	143.133	0.357	0.474
-223.669	800.000	0.069	0.203
-222.655	50.901	-0.299	0.282
-221.640	227.704	0.089	0.144
-220.625	800.000	-0.074	-0.231
-219.611	-37.348	-0.162	-0.086
-218.596	31.972	0.110	0.095
-217.582	172.475	-0.122	0.175
-216.567	-87.689	-0.056	-0.017
-215.552	132.887	-0.211	-0.271
-214.538	256.904	0.155	-0.266
-213.523	800.000	0.123	0.396
-212.509	206.990	0.139	-0.217
-211.494	-161.792	-0.511	0.026
-210.479	-32.443	0.285	0.158
-209.465	133.400	-0.109	0.140
-208.450	15.993	0.177	-0.139
-207.436	-145.750	-0.372	0.033
-206.421	497.671	0.052	-0.119
-205.406	-106.028	-0.088	0.020
-204.392	-200.000	0.018	0.416
-203.377	-70.526	-0.299	0.113
-202.363	91.979	-0.247	-0.277
-201.348	2.845	0.205	-0.148
-200.333	259.012	-0.135	0.233
-199.319	-91.664	-0.115	0.033
-198.304	-200.000	0.022	-0.283
-197.290	-128.975	-0.158	-0.022
-196.275	35.111	0.233	0.203
-195.260	91.113	0.192	0.215
-194.246	-17.948	0.390	-0.243
-193.231	-28.037	0.094	-0.054
-192.217	-75.991	-0.417	-0.147
-191.202	-139.315	0.115	-0.012
-190.187	217.965	0.106	0.168
-189.173	183.173	-0.095	-0.139
-188.158	-200.000	0.021	-0.524
-187.144	588.334	0.076	-0.187
-186.129	800.000	-0.065	0.237
-185.114	-83.985	0.162	0.051
-184.100	-200.000	-0.016	0.215
-183.085	-94.913	0.163	0.044
-182.071	-132.472	-0.275	-0.035
-181.056	800.000	0.056	0.243
-180.042	-77.592	-0.318	-0.110
-179.027	-66.830	0.135	0.053
-178.012	-200.000	0.005	-0.029
-176.998	490.408	-0.040	0.090
-175.983	-200.000	-0.025	-0.178
-174.969	303.698	0.098	0.180
-173.954	-77.323	-0.125	0.043
-172.939	156.596	-0.216	0.297
-171.925	-200.000	0.058	-0.322
-170.910	71.674	0.141	0.146
-169.896	417.561	0.130	-0.277
-168.881	474.479	-0.125	0.282
-167.866	-48.997	-0.185	0.088
-166.852	-11.273	-0.093	0.061
-165.837	-24.343	0.269	0.159
-164.823	-139.619	0.436	0.046
-163.808	-200.000	0.029	-0.193
-162.793	-93.506	-0.258	-0.071
-161.779	800.000	-0.053	-0.149
-160.764	-167.540	0.100	0.004
-159.750	624.191	-0.071	0.177
-158.735	366.509	-0.036	-0.071
-157.720	240.865	-0.075	0.125
-156.706	-29.136	-0.085	-0.048
-155.691	52.676	-0.192	0.182
-154.677	800.000	-0.053	0.178
-153.662	413.676	0.096	-0.204
-152.647	352.472	-0.028	-0.056
-151.633	-87.571	0.160	-0.048
-150.618	-170.944	0.403	-0.014
-149.604	-200.000	0.004	0.194
-148.589	-171.507	0.134	0.004
-147.574	242.001	-0.167	0.278
-146.560	391.743	0.186	-0.383
-145.545	-118.211	-0.297	0.053
-144.531	-71.925	0.020	0.007
-143.516	168.488	-0.092	0.130
-142.502	-130.929	-0.329	0.044
-141.487	-97.333	0.227	-0.059
-140.472	-5.965	0.164	0.111
-139.458	-75.474	-0.193	-0.068
-138.443	-23.936	0.094	-0.056
-137.429	-74.720	0.158	0.057
-136.414	100.483	0.104	0.120
-135.399	-200.000	0.023	0.187
-134.385	-40.495	0.098	-0.050
-133.370	258.698	0.120	0.206
-132.356	-68.156	-0.215	-0.083
-131.341	-99.675	-0.209	-0.052
-130.326	-123.821	0.146	0.023
-129.312	-200.000	0.022	0.197
-128.297	-200.000	0.022	-0.106
-127.283	-200.000	0.003	0.070
-126.268	-69.475	-0.081	0.031
-125.253	695.903	-0.018	-0.048
-124.239	800.000	-0.105	0.292
-123.224	-200.000	-0.010	-0.155
-122.210	255.443	-0.129	0.219
-121.195	295.917	0.215	0.390
