DTS Sentinel unit serial number:	SN413079Multiplexer serial number:	ORYXHardware model number:	OX4-SRSoftware version number:	ORYX F/W v4.00 Oryx Data Collector v3.7.2.0data status	okinstallation	princeton_trtdifferential loss correction	single-endedforward channel	channel 4reverse channel	N/Adate	2019/09/13time	23:49:35forward acquisition time	60.00reverse acquisition time	0.00gamma	496.2192k internal	0.2324k external	0.2324temperature offset calibration	1.0135default loss term (dB/km)	0.3790temperature slope calibration	1.0000multiplexer offset coefficient	1.0000multiplexer slope coefficient	1.0000fibre end	0.00T internal ref (°C)	26.62T ext. ref 1 (°C)	3.18T ext. ref 2 (°C)	20.97length (m)	temperature (°C)	Stokes	anti-Stokes-747.200	-107.660	-0.101	-0.022
-746.185	313.887	-0.143	0.272
-745.171	-200.000	-0.063	-0.401
-744.156	219.584	0.073	0.117
-743.142	17.204	-0.239	-0.191
-742.127	135.893	-0.278	0.366
-741.112	488.130	0.155	0.358
-740.098	-200.000	-0.004	0.261
-739.083	-19.335	0.228	0.142
-738.069	115.060	-0.023	-0.029
-737.054	140.603	0.084	0.112
-736.039	512.651	-0.128	-0.300
-735.025	-115.031	-0.452	-0.087
-734.010	-19.799	0.198	-0.123
-732.996	104.704	-0.075	-0.089
-731.981	-97.293	0.471	-0.124
-730.966	-4.701	-0.230	0.160
-729.952	779.975	0.034	-0.095
-728.937	-27.845	0.113	0.066
-727.923	-72.430	0.183	-0.068
-726.908	-177.864	0.135	0.003
-725.894	-65.395	-0.052	-0.021
-724.879	-67.822	0.229	-0.090
-723.864	-142.594	0.092	0.009
-722.850	233.417	-0.178	0.295
-721.835	111.139	0.240	0.291
-720.821	-200.000	-0.014	0.067
-719.806	-200.000	0.017	-0.246
-718.791	326.533	-0.153	-0.295
-717.777	-113.051	0.094	-0.019
-716.762	-200.000	0.048	-0.348
-715.748	33.891	-0.121	-0.106
-714.733	48.646	-0.138	-0.131
-713.718	6.392	0.075	0.056
-712.704	-200.000	0.019	-0.137
-711.689	-129.325	-0.068	0.009
-710.675	-134.274	0.207	0.026
-709.660	800.000	0.035	0.121
-708.645	183.964	0.225	-0.335
-707.631	-200.000	-0.029	-0.322
-706.616	-200.000	-0.015	-0.280
-705.602	99.749	-0.203	0.237
-704.587	6.324	0.178	0.133
-703.572	95.154	0.155	0.178
-702.558	115.797	0.078	-0.096
-701.543	-200.000	0.031	0.142
-700.529	800.000	-0.079	-0.260
-699.514	-61.286	-0.264	0.112
-698.499	234.318	-0.133	0.220
-697.485	250.215	-0.061	-0.104
-696.470	1.370	-0.157	0.113
-695.456	-56.243	-0.022	-0.010
-694.441	25.832	0.144	0.121
-693.426	-0.029	-0.132	-0.095
-692.412	-200.000	-0.091	-0.502
-691.397	204.829	0.069	0.107
-690.383	-112.982	0.068	-0.014
-689.368	-123.059	0.110	-0.018
-688.354	-102.669	-0.283	0.068
-687.339	204.785	0.085	-0.134
-686.324	800.000	-0.102	-0.334
-685.310	133.937	0.236	-0.307
-684.295	-59.150	-0.469	0.204
-683.281	-70.339	0.132	0.051
-682.266	606.060	-0.089	-0.223
-681.251	-15.356	0.186	0.120
-680.237	800.000	0.055	-0.168
-679.222	-115.356	-0.414	-0.079
-678.208	-200.000	-0.001	-0.068
-677.193	-194.157	-0.180	0.001
-676.178	660.095	-0.009	0.024
-675.164	-200.000	-0.037	-0.163
-674.149	-137.209	0.200	0.023
-673.135	122.249	-0.145	0.182
-672.120	24.435	-0.240	-0.200
-671.105	-70.660	-0.310	0.118
-670.091	15.210	0.053	-0.042
-669.076	310.629	0.083	0.156
-668.062	37.278	-0.261	0.232
-667.047	-13.629	0.096	0.063
-666.032	252.037	-0.131	0.224
-665.018	-148.269	-0.229	0.019
-664.003	-103.652	-0.107	0.025
-662.989	-75.856	0.231	0.082
-661.974	-125.961	0.271	0.041
-660.959	-160.607	-0.188	-0.010
-659.945	248.560	0.137	-0.234
-658.930	197.528	-0.159	0.244
-657.916	-19.901	0.298	-0.185
-656.901	-123.561	-0.189	0.030
-655.886	-109.113	-0.122	0.026
-654.872	-200.000	-0.032	0.367
-653.857	-101.786	0.172	-0.042
-652.843	-200.000	-0.006	0.141
-651.828	-52.354	-0.221	0.103
-650.814	-31.629	-0.122	-0.069
-649.799	-1.826	-0.336	-0.238
-648.784	517.358	0.083	0.196
-647.770	-200.000	0.046	0.297
-646.755	228.517	0.030	-0.048
-645.741	124.807	-0.087	0.110
-644.726	48.750	0.101	-0.095
-643.711	90.386	0.162	0.182
-642.697	89.722	-0.119	-0.134
-641.682	-111.477	-0.191	-0.039
-640.668	-200.000	-0.007	-0.098
-639.653	-118.141	0.244	-0.044
-638.638	800.000	-0.093	0.348
-637.624	800.000	0.044	-0.182
-636.609	800.000	0.051	0.149
-635.595	-200.000	-0.087	-0.413
-634.580	-53.004	0.245	0.113
-633.565	-45.375	0.206	-0.103
-632.551	-200.000	0.001	-0.223
-631.536	-60.564	-0.040	0.017
-630.522	-113.215	0.217	-0.043
-629.507	583.749	-0.117	0.288
-628.492	-30.839	0.128	0.073
-627.478	33.539	-0.087	-0.076
-626.463	-67.334	-0.199	0.079
-625.449	-50.969	0.271	-0.128
-624.434	-4.597	-0.167	0.116
-623.419	213.749	-0.093	-0.148
-622.405	-126.605	-0.071	-0.011
-621.390	287.525	0.132	-0.239
-620.376	5.391	0.156	-0.115
-619.361	-71.040	-0.357	-0.135
-618.346	-200.000	-0.049	0.255
-617.332	-200.000	0.032	0.214
-616.317	-65.539	0.428	0.173
-615.303	4.276	-0.076	-0.056
-614.288	800.000	-0.045	-0.165
-613.273	800.000	-0.005	-0.021
-612.259	-111.355	-0.323	-0.066
-611.244	136.184	-0.184	0.241
-610.230	34.413	0.219	-0.192
-609.215	800.000	0.080	-0.262
-608.201	-178.459	-0.184	-0.004
-607.186	800.000	-0.037	0.149
-606.171	538.655	-0.072	-0.171
-605.157	-200.000	-0.028	0.157
-604.142	-86.785	0.183	-0.056
-603.128	297.639	-0.199	-0.367
-602.113	-200.000	-0.012	-0.106
-601.098	-200.000	0.012	-0.113
-600.084	-41.133	-0.120	-0.062
-599.069	-97.519	0.306	0.080
-598.055	15.165	-0.244	-0.192
-597.040	4.487	-0.160	-0.118
-596.025	244.367	-0.022	0.037
-595.011	72.833	0.099	0.104
-593.996	-7.562	0.275	0.187
-592.982	95.525	0.327	0.374
-591.967	-200.000	-0.004	-0.087
-590.952	-131.128	0.493	-0.066
-589.938	800.000	0.079	0.321
-588.923	-32.367	-0.109	-0.061
-587.909	-200.000	-0.033	0.196
-586.894	-118.885	0.283	0.050
-585.879	-49.572	0.175	-0.084
-584.865	617.560	-0.156	-0.392
-583.850	800.000	0.032	0.119
-582.836	-200.000	-0.555	0.002
-581.821	-148.519	0.340	0.028
-580.806	39.550	-0.165	-0.148
-579.792	-139.150	0.045	-0.005
-578.777	-200.000	0.013	0.388
-577.763	-56.223	-0.152	-0.068
-576.748	-134.348	-0.324	-0.040
-575.733	-200.000	0.014	0.245
-574.719	579.299	-0.135	-0.331
-573.704	-103.492	-0.308	-0.073
-572.690	117.175	0.086	0.105
-571.675	174.611	0.086	0.125
-570.661	-117.319	0.195	-0.035
-569.646	17.159	-0.210	0.167
-568.631	-71.231	0.225	-0.085
-567.617	-200.000	-0.009	-0.146
-566.602	-79.575	0.322	-0.109
-565.588	135.700	-0.215	0.281
-564.573	-112.736	-0.158	0.031
-563.558	-200.000	-0.061	-0.276
-562.544	-57.249	-0.018	0.008
-561.529	-95.946	-0.180	0.048
-560.515	800.000	-0.044	0.152
-559.500	-200.000	0.003	0.196
-558.485	-200.000	0.002	0.071
-557.471	28.239	0.124	0.105
-556.456	-46.929	-0.318	-0.156
-555.442	33.110	0.195	0.169
-554.427	501.393	0.140	0.324
-553.412	-168.623	-0.397	-0.015
-552.398	-5.350	0.151	-0.104
-551.383	-200.000	-0.293	0.001
-550.369	800.000	0.103	0.385
-549.354	-200.000	-0.010	-0.116
-548.339	800.000	-0.077	-0.309
-547.325	-200.000	-0.010	-0.350
-546.310	-200.000	0.005	0.091
-545.296	-28.442	-0.091	0.053
-544.281	-43.997	0.260	0.131
-543.266	-73.818	0.253	-0.092
-542.252	41.799	0.385	-0.350
-541.237	-200.000	-0.016	-0.282
-540.223	-173.980	-0.171	-0.005
-539.208	-118.955	0.144	0.025
-538.193	-200.000	0.036	0.196
-537.179	-151.947	0.170	0.012
-536.164	-132.602	-0.183	0.024
-535.150	-200.000	0.012	0.429
-534.135	800.000	0.048	-0.144
-533.121	127.291	0.065	0.083
-532.106	-45.913	-0.201	-0.099
-531.091	-100.728	0.143	0.035
-530.077	16.247	0.126	0.100
-529.062	-128.863	-0.371	0.052
-528.048	74.978	0.128	0.135
-527.033	-178.040	0.249	-0.006
-526.018	228.161	-0.150	0.245
-525.004	139.989	-0.333	0.439
-523.989	-200.000	-0.032	-0.156
-522.975	-200.000	0.034	0.280
-521.960	-46.173	0.352	-0.173
-520.945	-48.142	-0.224	0.108
-519.931	-200.000	-0.016	0.183
-518.916	209.620	0.324	-0.508
-517.902	43.985	0.139	-0.128
-516.887	332.240	0.074	-0.143
-515.872	-58.176	-0.049	-0.021
-514.858	-200.000	0.113	0.000
-513.843	456.725	-0.226	0.501
-512.829	97.796	-0.131	-0.150
-511.814	-57.110	0.163	-0.072
-510.799	-63.675	-0.020	-0.008
-509.785	800.000	-0.023	-0.079
-508.770	1.899	-0.133	0.096
-507.756	612.141	-0.081	0.204
-506.741	-13.856	-0.226	-0.146
-505.726	294.747	0.022	-0.041
-504.712	-89.812	-0.231	-0.068
-503.697	301.025	-0.090	-0.166
-502.683	503.695	-0.058	-0.135
-501.668	48.098	0.093	0.087
-500.653	-78.337	0.296	0.102
-499.639	800.000	0.037	0.106
-498.624	-200.000	-0.030	0.258
-497.610	-200.000	0.043	0.264
-496.595	-117.284	0.192	-0.035
-495.581	463.072	0.119	0.265
-494.566	-200.000	-0.018	0.099
-493.551	-23.549	0.372	-0.223
-492.537	-81.358	0.535	0.176
-491.522	-123.247	0.380	0.061
-490.508	-62.617	0.298	-0.124
-489.493	-111.984	0.374	0.075
-488.478	-131.447	-0.128	-0.017
-487.464	800.000	0.120	-0.384
-486.449	-114.019	0.172	-0.033
-485.435	-78.890	-0.091	-0.031
-484.420	-200.000	-0.052	0.234
-483.405	-61.479	0.269	0.113
-482.391	-200.000	0.057	-0.464
-481.376	76.914	0.107	-0.114
-480.362	-66.942	-0.116	0.046
-479.347	-32.805	0.163	-0.091
-478.332	-187.650	0.191	-0.003
-477.318	-0.885	0.374	-0.265
-476.303	-71.653	-0.133	0.050
-475.289	230.226	0.071	0.115
-474.274	-200.000	-0.016	-0.203
-473.259	-27.084	0.287	-0.167
-472.245	9.085	-0.148	-0.112
-471.230	-83.146	-0.090	-0.029
-470.216	-89.614	-0.315	-0.092
-469.201	-130.222	0.048	-0.007
-468.186	-27.045	-0.234	-0.136
-467.172	-74.765	-0.066	-0.024
-466.157	-42.380	-0.252	0.129
-465.143	387.243	0.028	-0.058
-464.128	-149.045	0.281	-0.023
-463.113	-182.959	0.083	-0.001
-462.099	404.364	0.118	0.247
-461.084	265.290	0.161	-0.279
-460.070	-31.702	-0.146	0.082
-459.055	-69.134	0.154	0.059
-458.040	448.126	0.096	-0.212
-457.026	180.509	-0.171	0.250
-456.011	653.098	-0.058	0.148
-454.997	800.000	0.046	-0.129
-453.982	-200.000	-0.079	-0.377
-452.968	66.880	-0.199	-0.202
-451.953	-200.000	0.041	-0.334
-450.938	-200.000	-0.036	-0.282
-449.924	455.996	-0.096	0.212
-448.909	-54.297	0.172	-0.078
-447.895	495.968	0.118	0.271
-446.880	244.920	0.149	-0.249
-445.865	224.464	0.091	-0.146
-444.851	-59.983	0.083	0.036
-443.836	-123.617	-0.140	-0.022
-442.822	-200.000	0.001	0.312
-441.807	275.408	0.099	-0.175
-440.792	37.737	0.153	-0.136
-439.778	-12.388	0.234	-0.153
-438.763	-8.397	0.218	-0.146
-437.749	165.289	0.124	0.175
-436.734	-179.665	-0.281	0.006
-435.719	663.181	0.155	0.398
-434.705	237.587	-0.046	0.075
-433.690	-41.961	-0.167	0.085
-432.676	410.705	0.018	0.039
-431.661	439.779	0.129	0.280
-430.646	-109.990	0.159	0.033
-429.632	42.722	0.199	-0.181
-428.617	-200.000	0.003	-0.064
-427.603	89.570	-0.231	-0.258
-426.588	-36.606	-0.137	-0.074
-425.573	-72.922	0.236	0.087
-424.559	800.000	0.085	-0.289
-423.544	-171.268	0.265	-0.009
-422.530	-200.000	-0.007	0.111
-421.515	1.590	-0.093	0.067
-420.500	-28.009	-0.070	0.040
-419.486	101.327	0.036	0.042
-418.471	-9.270	-0.118	0.079
-417.457	-200.000	0.043	-0.403
-416.442	-127.114	-0.418	-0.061
-415.428	-200.000	-0.008	-0.261
-414.413	-57.027	0.045	-0.020
-413.398	-164.485	-0.229	0.010
-412.384	174.033	-0.097	-0.140
-411.369	172.271	-0.038	0.055
-410.355	-200.000	-0.056	-0.490
-409.340	542.760	-0.124	-0.295
-408.325	-117.315	0.137	-0.025
-407.311	123.037	-0.215	-0.268
-406.296	184.423	0.141	-0.207
-405.282	800.000	0.064	0.219
-404.267	-93.908	0.032	0.009
-403.252	800.000	-0.009	0.033
-402.238	87.084	-0.109	-0.120
-401.223	-0.126	0.034	0.024
-400.209	-11.688	-0.163	0.107
-399.194	136.307	0.226	-0.293
-398.179	-186.842	-0.181	0.003
-397.165	417.021	-0.094	-0.200
-396.150	237.539	0.063	-0.105
-395.136	-58.062	0.114	-0.049
-394.121	-200.000	0.028	-0.263
-393.106	-53.911	-0.342	-0.155
-392.092	-97.875	-0.088	-0.023
-391.077	47.946	-0.071	-0.066
-390.063	-116.172	0.175	0.032
-389.048	-77.347	0.142	-0.049
-388.033	-174.517	-0.062	0.002
-387.019	-72.318	-0.104	-0.038
-386.004	23.703	-0.077	-0.063
-384.990	-97.736	-0.214	-0.055
-383.975	41.092	0.110	-0.099
-382.960	97.979	-0.133	-0.152
-381.946	-200.000	-0.010	-0.044
-380.931	-200.000	-0.023	0.119
-379.917	264.436	0.118	-0.204
-378.902	-133.710	-0.081	-0.010
-377.888	144.166	0.087	0.116
-376.873	-200.000	0.009	0.121
-375.858	68.330	-0.075	-0.077
-374.844	427.548	-0.157	-0.337
-373.829	-200.000	0.000	-0.032
-372.815	800.000	0.084	-0.256
-371.800	-200.000	0.039	0.392
-370.785	26.842	0.184	0.154
-369.771	283.442	-0.075	-0.134
-368.756	-146.643	-0.249	-0.021
-367.742	-88.207	-0.212	0.063
-366.727	66.159	-0.175	0.176
-365.712	-41.040	-0.164	0.085
-364.698	800.000	0.063	-0.197
-363.683	800.000	-0.079	-0.238
-362.669	112.247	-0.014	0.016
-361.654	-31.141	0.214	-0.120
-360.639	-200.000	-0.036	0.286
-359.625	-175.776	-0.205	0.005
-358.610	-77.388	-0.124	-0.043
-357.596	-99.628	-0.302	0.075
-356.581	-82.535	-0.112	0.036
-355.566	800.000	0.055	-0.156
-354.552	-79.796	-0.168	-0.056
-353.537	-128.120	0.179	-0.026
-352.523	800.000	0.039	-0.109
-351.508	-65.267	-0.253	-0.101
-350.493	-79.355	-0.177	0.060
-349.479	-44.591	-0.047	-0.023
-348.464	-116.875	0.147	-0.027
-347.450	131.440	-0.104	0.133
-346.435	800.000	0.099	0.335
-345.420	58.156	0.085	0.083
-344.406	-2.050	-0.284	0.199
-343.391	137.920	-0.216	0.281
-342.377	-200.000	0.051	-0.247
-341.362	249.691	0.208	-0.350
-340.348	-200.000	-0.027	-0.122
-339.333	79.565	-0.263	0.281
-338.318	22.936	-0.135	0.110
-337.304	7.528	0.230	-0.171
-336.289	225.280	0.272	-0.437
-335.275	-187.881	-0.344	-0.004
-334.260	-119.400	0.179	-0.031
-333.245	391.053	0.115	0.237
-332.231	-15.489	0.229	-0.145
-331.216	-200.000	-0.025	-0.188
-330.202	31.092	0.180	-0.153
-329.187	130.887	-0.289	0.369
-328.172	88.917	-0.157	-0.173
-327.158	-65.706	-0.652	-0.259
-326.143	83.243	-0.054	-0.058
-325.129	311.924	-0.123	0.229
-324.114	228.825	-0.102	-0.165
-323.099	-200.000	0.037	-0.172
-322.085	311.318	0.040	0.074
-321.070	-114.232	0.540	0.103
-320.056	-116.433	0.276	-0.051
-319.041	-22.328	0.305	0.183
-318.026	-22.864	0.086	-0.052
-317.012	800.000	0.040	-0.132
-315.997	800.000	-0.075	0.219
-314.983	367.146	-0.104	-0.208
-313.968	-186.419	0.146	0.002
-312.953	-200.000	0.001	0.311
-311.939	-65.687	-0.135	-0.054
-310.924	-68.422	-0.085	-0.033
-309.910	358.163	-0.056	0.111
-308.895	329.178	0.109	0.209
-307.880	-200.000	0.014	0.144
-306.866	-5.205	-0.165	0.113
-305.851	658.943	0.030	0.076
-304.837	404.097	-0.102	0.213
-303.822	-200.000	-0.007	0.127
-302.807	-108.640	0.218	-0.046
-301.793	-121.646	-0.382	-0.063
-300.778	653.451	0.117	-0.297
-299.764	800.000	-0.183	0.534
-298.749	-157.650	0.471	0.028
-297.735	-200.000	0.000	0.001
-296.720	-149.642	-0.161	-0.013
-295.705	190.895	-0.151	0.225
-294.691	800.000	0.048	-0.162
-293.676	538.534	-0.129	0.305
-292.662	-33.892	-0.553	0.302
-291.647	134.892	-0.159	0.205
-290.632	-200.000	-0.047	-0.241
-289.618	-16.017	0.105	-0.066
-288.603	-18.471	-0.163	0.101
-287.589	72.033	0.113	0.117
-286.574	6.709	-0.290	-0.214
-285.559	344.820	-0.133	-0.259
-284.545	-98.001	0.200	-0.051
-283.530	-150.094	-0.177	0.014
-282.516	-71.362	-0.119	0.044
-281.501	98.038	0.076	-0.087
-280.486	-21.637	0.038	0.023
-279.472	218.575	0.076	-0.120
-278.457	-76.591	0.102	-0.036
-277.443	46.044	0.136	-0.125
-276.428	135.060	0.063	0.081
-275.413	267.862	-0.068	-0.119
-274.399	235.180	-0.103	0.169
-273.384	-154.005	-0.009	0.001
-272.370	-200.000	0.013	0.204
-271.355	519.221	0.078	-0.181
-270.340	-159.165	0.016	0.001
-269.326	-40.759	0.081	0.042
-268.311	-200.000	-0.040	0.399
-267.297	-138.880	-0.127	0.014
-266.282	-98.325	-0.464	-0.118
-265.267	-70.827	0.287	-0.107
-264.253	800.000	-0.028	-0.088
-263.238	-50.247	0.289	-0.136
-262.224	-200.000	0.005	-0.091
-261.209	-122.031	0.387	0.063
-260.195	174.665	0.172	0.246
-259.180	-64.580	-0.074	0.030
-258.165	-99.965	-0.230	-0.057
-257.151	-83.143	0.301	0.096
-256.136	210.340	0.050	-0.078
-255.122	-200.000	0.039	-0.232
-254.107	-200.000	0.035	0.207
-253.092	-28.875	0.138	0.078
-252.078	201.576	0.235	0.358
-251.063	-200.000	0.031	-0.165
-250.049	-100.044	-0.238	0.059
-249.034	-58.036	-0.174	0.075
-248.019	-38.245	0.213	-0.112
-247.005	65.221	-0.078	0.078
-245.990	56.398	0.331	0.319
-244.976	55.521	0.134	0.129
-243.961	-14.966	-0.270	0.171
-242.946	465.611	0.087	0.192
-241.932	260.035	0.092	-0.158
-240.917	47.094	-0.363	0.335
-239.903	-93.639	0.169	-0.046
-238.888	185.364	-0.081	0.119
-237.873	3.759	-0.244	0.177
-236.859	-79.374	0.226	0.076
-235.844	-133.120	-0.163	-0.020
-234.830	129.318	-0.234	0.295
-233.815	-158.496	0.132	0.008
-232.800	-200.000	-0.003	-0.119
-231.786	369.784	0.233	0.468
-230.771	260.039	-0.056	0.096
-229.757	317.420	0.126	0.237
-228.742	-101.713	-0.371	0.089
-227.727	67.752	0.411	0.416
-226.713	100.475	0.105	-0.121
-225.698	-200.000	-0.043	0.255
-224.684	-7.582	-0.104	-0.069
-223.669	-200.000	0.036	0.427
-222.655	-133.916	0.489	-0.060
-221.640	191.263	-0.122	0.182
-220.625	-200.000	0.011	0.253
-219.611	-200.000	0.026	0.387
-218.596	800.000	-0.111	0.398
-217.582	-200.000	0.012	-0.262
-216.567	399.758	0.069	-0.143
-215.552	-103.364	-0.090	0.021
-214.538	355.840	-0.137	0.269
-213.523	-88.778	0.186	0.055
-212.509	-60.511	0.202	0.085
-211.494	-101.297	-0.090	-0.022
-210.479	-71.830	-0.054	-0.020
-209.465	-148.872	-0.104	-0.008
-208.450	-200.000	-0.023	-0.113
-207.436	-105.122	0.321	-0.073
-206.421	184.000	-0.071	-0.104
-205.406	-52.142	-0.092	0.042
-204.392	-24.956	0.438	-0.257
-203.377	-200.000	0.027	-0.162
-202.363	800.000	-0.026	-0.099
-201.348	-38.732	0.294	-0.153
-200.333	-200.000	-0.023	0.177
-199.319	324.537	-0.117	0.220
-198.304	-121.989	-0.057	-0.009
-197.290	-55.472	-0.186	0.083
-196.275	-200.000	-0.005	0.223
-195.260	138.610	-0.108	-0.140
-194.246	800.000	-0.073	-0.288
-193.231	-18.986	0.267	-0.164
-192.217	800.000	0.116	-0.338
-191.202	-128.594	-0.232	0.032
-190.187	800.000	-0.049	0.139
-189.173	111.447	-0.219	0.261
-188.158	-115.447	-0.563	-0.105
-187.144	-49.785	0.181	0.085
-186.129	-161.296	0.234	-0.012
-185.114	-200.000	-0.006	-0.234
-184.100	727.965	0.039	-0.104
-183.085	-59.804	-0.251	0.106
-182.071	352.701	0.075	0.146
-181.056	-197.519	-0.290	0.002
-180.042	-9.694	-0.164	-0.108
-179.027	-200.000	-0.011	0.253
-178.012	-122.442	0.333	0.054
-176.998	-200.000	0.033	0.150
-175.983	800.000	-0.111	0.327
-174.969	-20.715	0.279	-0.169
-173.954	477.093	-0.046	-0.102
-172.939	-165.742	-0.184	-0.008
-171.925	-200.000	-0.011	0.117
-170.910	194.976	-0.012	-0.017
-169.896	-15.792	-0.212	0.134
-168.881	-200.000	-0.274	0.000
-167.866	-15.766	0.244	0.154
-166.852	800.000	-0.117	-0.356
-165.837	-200.000	-0.044	-0.272
-164.823	88.931	0.006	-0.007
-163.808	-158.123	0.103	0.006
-162.793	-46.908	-0.189	-0.091
-161.779	-200.000	0.017	0.112
-160.764	27.151	-0.218	0.180
-159.750	-200.000	-0.030	-0.274
-158.735	439.421	0.029	0.062
-157.720	-200.000	0.017	0.149
-156.706	219.267	-0.301	-0.474
-155.691	-200.000	-0.009	-0.200
-154.677	130.034	-0.138	-0.174
-153.662	-134.384	0.187	-0.023
-152.647	-200.000	0.041	-0.216
-151.633	170.533	-0.068	0.096
-150.618	407.257	0.099	-0.206
-149.604	-44.636	0.209	-0.103
-148.589	424.805	0.053	0.113
-147.574	-170.499	-0.181	-0.006
-146.560	113.935	0.128	0.154
-145.545	215.413	0.159	0.249
-144.531	-115.036	-0.207	0.039
-143.516	-200.000	-0.011	0.169
-142.502	-182.641	-0.198	0.004
-141.487	-143.792	0.351	0.033
-140.472	-0.109	-0.170	0.119
-139.458	308.766	-0.121	-0.222
-138.443	422.007	-0.121	-0.257
-137.429	32.019	-0.260	-0.221
-136.414	470.653	0.028	0.062
-135.399	286.935	-0.100	0.178
-134.385	-146.491	0.509	-0.044
-133.370	-51.795	-0.059	-0.027
-132.356	516.505	-0.125	-0.289
-131.341	800.000	-0.018	-0.052
-130.326	-24.231	0.098	-0.057
-129.312	-104.859	-0.088	0.020
-128.297	84.431	-0.270	0.291
-127.283	-66.813	-0.119	-0.047
-126.268	-21.233	0.212	-0.128
-125.253	481.643	0.137	-0.307
-124.239	227.173	0.075	0.120
-123.224	-15.130	-0.254	0.161
