DTS Sentinel unit serial number:	SN413079Multiplexer serial number:	ORYXHardware model number:	OX4-SRSoftware version number:	ORYX F/W v4.00 Oryx Data Collector v3.7.2.0data status	okinstallation	princeton_trtdifferential loss correction	single-endedforward channel	channel 4reverse channel	N/Adate	2019/09/12time	19:49:18forward acquisition time	15.00reverse acquisition time	0.00gamma	496.2192k internal	0.2310k external	0.2310temperature offset calibration	1.0162default loss term (dB/km)	0.3790temperature slope calibration	1.0000multiplexer offset coefficient	1.0000multiplexer slope coefficient	1.0000fibre end	0.00T internal ref (°C)	31.94T ext. ref 1 (°C)	3.46T ext. ref 2 (°C)	26.59length (m)	temperature (°C)	Stokes	anti-Stokes-747.200	82.718	-0.371	-0.410
-746.185	800.000	-0.023	-0.074
-745.171	-200.000	0.016	-0.240
-744.156	-157.232	0.777	0.048
-743.142	5.453	-0.387	-0.290
-742.127	94.296	0.090	0.104
-741.112	90.780	-0.393	-0.447
-740.098	-146.094	0.643	-0.058
-739.083	-200.000	0.052	0.376
-738.069	14.008	-0.556	0.439
-737.054	-52.556	0.346	0.162
-736.039	257.273	0.296	-0.517
-735.025	-200.000	-0.043	-0.329
-734.010	-113.475	0.373	0.074
-732.996	-41.252	-1.002	0.525
-731.981	800.000	0.157	0.523
-730.966	74.809	-0.362	-0.387
-729.952	-85.789	-0.409	0.129
-728.937	40.797	-0.610	-0.558
-727.923	127.192	-0.314	0.405
-726.908	-62.882	-0.130	-0.055
-725.894	48.669	-0.520	-0.495
-724.879	-35.782	0.150	-0.083
-723.864	-120.320	-0.483	0.084
-722.850	-84.532	-0.374	-0.120
-721.835	83.072	-0.432	0.477
-720.821	641.863	0.191	-0.492
-719.806	345.022	0.160	0.319
-718.791	-200.000	0.093	-0.596
-717.777	4.487	0.158	-0.118
-716.762	431.190	-0.098	0.216
-715.748	-96.749	0.710	-0.190
-714.733	-18.114	-0.387	0.246
-713.718	125.788	-0.300	-0.385
-712.704	-45.813	-0.645	0.323
-711.689	204.746	0.126	0.199
-710.675	-98.786	0.251	0.065
-709.660	-44.762	-0.271	-0.137
-708.645	-200.000	-0.006	-0.244
-707.631	159.683	-0.563	0.795
-706.616	800.000	0.126	0.537
-705.602	-200.000	0.007	0.229
-704.587	-114.291	0.305	0.060
-703.572	-200.000	-0.095	0.788
-702.558	-200.000	-0.022	0.955
-701.543	82.794	-0.289	0.319
-700.529	-94.482	-0.411	-0.114
-699.514	-200.000	-0.078	-1.122
-698.499	-55.619	0.872	0.396
-697.485	83.575	-0.669	0.739
-696.470	-200.000	-0.042	-0.297
-695.456	800.000	0.193	0.808
-694.441	-200.000	0.008	0.342
-693.426	14.419	-0.296	-0.234
-692.412	138.192	-0.447	0.594
-691.397	122.320	0.075	-0.095
-690.383	-200.000	0.020	0.932
-689.368	-91.276	0.148	-0.043
-688.354	-36.155	-0.605	-0.331
-687.339	-48.810	0.416	-0.202
-686.324	30.403	-0.144	-0.124
-685.310	142.800	0.355	0.478
-684.295	28.704	-0.053	-0.045
-683.281	-12.467	-0.720	-0.476
-682.266	-93.186	-0.138	-0.039
-681.251	144.102	-0.663	0.896
-680.237	800.000	-0.155	0.437
-679.222	-161.576	1.132	0.059
-678.208	56.256	-0.453	-0.446
-677.193	212.816	-0.155	0.248
-676.178	59.948	-0.714	0.714
-675.164	-61.751	-0.336	0.143
-674.149	-88.130	-0.371	-0.113
-673.135	222.062	0.182	-0.297
-672.120	-85.042	0.686	0.218
-671.105	-200.000	0.025	0.420
-670.091	-14.119	-0.475	-0.310
-669.076	29.981	0.087	0.075
-668.062	130.433	0.224	-0.290
-667.047	-151.507	0.992	-0.074
-666.032	75.635	0.146	-0.156
-665.018	-81.266	-0.308	0.103
-664.003	12.230	0.126	-0.098
-662.989	69.459	-0.348	-0.362
-661.974	-160.146	-0.626	-0.034
-660.959	-200.000	0.054	-0.562
-659.945	122.924	0.393	0.498
-658.930	85.569	0.509	-0.566
-657.916	19.681	0.674	-0.549
-656.901	8.382	-0.703	0.535
-655.886	471.517	-0.438	0.998
-654.872	31.154	0.279	-0.242
-653.857	160.387	-0.143	-0.203
-652.843	-74.786	0.289	0.105
-651.828	164.046	0.331	-0.472
-650.814	-200.000	0.067	-0.658
-649.799	-17.107	-0.232	0.148
-648.784	178.986	-0.373	0.551
-647.770	-182.554	-0.034	0.001
-646.755	-189.216	-0.838	-0.010
-645.741	-40.923	0.449	-0.235
-644.726	-37.171	-0.215	-0.116
-643.711	0.147	-0.387	0.279
-642.697	82.586	-0.219	0.241
-641.682	167.064	-0.615	0.883
-640.668	-200.000	0.075	-0.459
-639.653	134.860	-0.150	-0.198
-638.638	362.326	0.151	-0.307
-637.624	-157.416	0.385	0.023
-636.609	-18.665	0.497	0.314
-635.595	507.177	-0.074	0.174
-634.580	-82.190	-0.498	0.164
-633.565	-148.465	-0.676	-0.056
-632.551	-74.434	-0.581	-0.212
-631.536	-200.000	-0.032	0.749
-630.522	-120.107	0.152	-0.026
-629.507	33.161	0.604	0.530
-628.492	13.856	-0.366	-0.288
-627.478	-200.000	0.070	0.742
-626.463	-29.975	0.466	-0.268
-625.449	-52.446	0.235	0.110
-624.434	-80.420	0.206	-0.070
-623.419	4.345	-0.274	0.203
-622.405	154.026	-0.237	-0.329
-621.390	-200.000	-0.033	0.755
-620.376	58.292	-0.540	-0.535
-619.361	-22.935	0.075	0.046
-618.346	-66.011	0.895	-0.361
-617.332	-200.000	-0.155	-0.814
-616.317	21.178	0.464	-0.381
-615.303	15.012	-0.292	-0.231
-614.288	-128.318	-0.532	-0.077
-613.273	29.745	-0.582	-0.501
-612.259	26.511	0.242	0.205
-611.244	-200.000	-0.018	0.631
-610.230	-200.000	-0.055	-0.903
-609.215	171.291	-0.135	0.196
-608.201	-62.380	0.903	0.380
-607.186	-200.000	0.031	0.178
-606.171	41.435	0.249	-0.227
-605.157	-7.047	0.507	-0.348
-604.142	-107.821	0.142	0.031
-603.128	194.799	0.101	0.154
-602.113	-50.398	-0.533	0.254
-601.098	-129.761	0.809	-0.112
-600.084	-49.844	0.532	-0.255
-599.069	472.909	0.246	0.559
-598.055	-138.797	0.480	0.053
-597.040	-184.022	-1.029	-0.017
-596.025	555.791	-0.455	1.107
-595.011	-35.890	-0.354	-0.193
-593.996	79.689	0.058	0.063
-592.982	334.823	0.079	-0.155
-591.967	800.000	0.110	-0.362
-590.952	-43.834	0.612	-0.311
-589.938	-1.667	0.430	-0.306
-588.923	-200.000	-0.001	-0.948
-587.909	-53.518	-0.813	-0.375
-586.894	-75.537	0.035	-0.013
-585.879	101.955	0.838	0.987
-584.865	164.493	-0.283	-0.403
-583.850	-56.420	-0.144	-0.065
-582.836	-200.000	-0.024	-0.354
-581.821	-45.256	0.605	-0.303
-580.806	-200.000	-0.079	-0.846
-579.792	9.794	-0.260	-0.199
-578.777	-39.241	0.440	0.233
-577.763	-147.021	-0.720	0.062
-576.748	-200.000	-0.014	-0.214
-575.733	344.838	-0.297	0.589
-574.719	9.236	-0.552	0.421
-573.704	-24.618	0.559	-0.336
-572.690	41.642	0.427	-0.390
-571.675	-200.000	-0.016	0.165
-570.661	451.599	-0.157	-0.349
-569.646	48.469	-0.324	-0.306
-568.631	-104.305	0.278	0.065
-567.617	-132.520	-0.808	-0.105
-566.602	44.815	-0.672	0.624
-565.588	-105.459	0.646	0.148
-564.573	-115.608	0.758	0.143
-563.558	-25.497	-0.154	0.092
-562.544	-200.000	0.138	0.842
-561.529	-186.663	0.284	-0.004
-560.515	211.741	0.455	-0.723
-559.500	74.044	-0.431	-0.456
-558.485	-57.605	0.172	-0.076
-557.471	130.418	-0.358	-0.463
-556.456	142.276	-0.480	-0.642
-555.442	14.316	0.299	-0.235
-554.427	-200.000	0.031	-0.471
-553.412	-46.758	-0.237	0.117
-552.398	-45.341	0.889	-0.444
-551.383	10.152	-0.645	0.494
-550.369	-108.086	-0.446	0.097
-549.354	-22.059	0.839	0.514
-548.339	-65.908	0.605	0.244
-547.325	-124.448	-0.957	-0.150
-546.310	800.000	0.031	0.105
-545.296	-192.652	-0.427	0.004
-544.281	-87.975	-0.426	0.129
-543.266	84.858	0.684	0.755
-542.252	49.782	0.117	-0.112
-541.237	-41.243	0.381	0.198
-540.223	-91.762	0.332	0.095
-539.208	-18.530	0.376	-0.236
-538.193	196.949	0.114	0.175
-537.179	-200.000	0.235	-1.063
-536.164	-187.480	-0.672	-0.009
-535.150	351.165	0.266	-0.529
-534.135	41.320	-0.423	0.385
-533.121	5.735	0.674	0.502
-532.106	373.259	0.113	0.231
-531.091	-41.494	-0.802	-0.415
-530.077	-200.000	-0.046	0.638
-529.062	43.231	-0.328	0.302
-528.048	-117.784	-0.842	-0.152
-527.033	39.112	0.076	0.068
-526.018	800.000	0.053	0.151
-525.004	-137.167	-0.102	0.012
-523.989	17.035	-0.390	0.311
-522.975	-200.000	-0.108	-0.903
-521.960	-200.000	0.047	-0.292
-520.945	-200.000	0.018	-0.310
-519.931	-200.000	0.014	0.161
-518.916	215.830	-0.237	-0.379
-517.902	-39.017	-0.482	0.256
-516.887	-57.790	0.710	-0.312
-515.872	292.846	0.207	-0.380
-514.858	-62.519	-0.331	-0.139
-513.843	-200.000	-0.016	0.370
-512.829	204.913	0.518	0.808
-511.814	800.000	0.115	-0.382
-510.799	-42.602	-0.194	-0.099
-509.785	141.923	-0.159	-0.212
-508.770	-200.000	-0.030	-0.287
-507.756	-69.686	-0.397	-0.153
-506.741	117.882	-0.578	0.716
-505.726	281.821	0.478	0.862
-504.712	800.000	-0.222	0.752
-503.697	172.230	-0.517	-0.748
-502.683	-200.000	0.064	0.478
-501.668	70.199	0.069	0.072
-500.653	121.616	-0.189	0.237
-499.639	-59.187	0.721	-0.312
-498.624	-23.712	0.655	0.395
-497.610	-115.525	-0.235	-0.044
-496.595	-100.852	-0.393	-0.097
-495.581	-200.000	0.044	-0.428
-494.566	-200.000	0.034	-0.569
-493.551	125.094	-0.520	-0.659
-492.537	4.887	0.338	-0.250
-491.522	-28.272	-0.161	0.094
-490.508	126.225	-0.031	-0.039
-489.493	157.688	0.424	0.591
-488.478	-200.000	0.088	-1.189
-487.464	-200.000	0.035	-0.626
-486.449	380.570	0.060	0.124
-485.435	165.704	-0.287	-0.408
-484.420	478.533	-0.071	0.162
-483.405	-137.292	0.206	0.024
-482.391	-200.000	0.022	0.380
-481.376	-1.966	-0.884	0.625
-480.362	-200.000	-0.012	-0.407
-479.347	-79.193	-0.128	0.044
-478.332	-200.000	0.033	-0.460
-477.318	33.818	0.193	0.169
-476.303	46.100	0.346	-0.322
-475.289	-31.712	-0.262	-0.148
-474.274	177.394	-0.322	-0.472
-473.259	-107.772	0.482	-0.106
-472.245	65.633	-0.264	-0.268
-471.230	-83.894	0.680	0.218
-470.216	-138.108	0.777	-0.087
-469.201	-37.490	-0.582	-0.312
-468.186	-48.870	-0.517	0.249
-467.172	-67.058	0.494	0.196
-466.157	209.421	-0.285	0.449
-465.143	800.000	0.284	-0.857
-464.128	-92.850	-0.347	-0.097
-463.113	-51.885	0.774	-0.362
-462.099	-41.522	-0.063	0.033
-461.084	-12.435	-0.259	0.170
-460.070	-71.845	0.856	0.320
-459.055	70.849	-0.406	-0.422
-458.040	-40.423	-0.754	-0.394
-457.026	89.971	-0.284	-0.319
-456.011	225.831	-0.493	-0.803
-454.997	-74.358	-0.638	-0.231
-453.982	441.314	0.162	-0.357
-452.968	-91.760	0.724	-0.207
-451.953	-5.000	-0.212	-0.147
-450.938	800.000	0.157	-0.622
-449.924	616.275	0.089	0.224
-448.909	463.402	-0.184	-0.412
-447.895	-134.645	-0.785	0.096
-446.880	-65.425	0.247	-0.100
-445.865	459.267	0.171	0.382
-444.851	-153.270	-0.499	-0.035
-443.836	238.121	0.278	-0.462
-442.822	105.911	0.321	-0.382
-441.807	-200.000	-0.131	0.914
-440.792	800.000	-0.171	0.573
-439.778	-92.526	0.610	-0.172
-438.763	157.401	0.467	-0.648
-437.749	-200.000	0.024	0.383
-436.734	-200.000	0.001	0.204
-435.719	1.585	-1.068	-0.772
-434.705	-200.000	-0.014	0.281
-433.690	-90.551	-0.598	-0.173
-432.676	-196.610	-0.568	-0.004
-431.661	-62.544	-0.641	0.267
-430.646	268.187	0.156	0.274
-429.632	101.859	-0.237	0.278
-428.617	37.623	-0.157	0.140
-427.603	-115.014	0.813	-0.155
-426.588	668.112	0.213	-0.553
-425.573	56.676	0.202	-0.197
-424.559	800.000	0.140	0.443
-423.544	203.216	0.178	0.276
-422.530	355.887	0.180	-0.359
-421.515	94.110	0.184	0.210
-420.500	-24.578	0.132	-0.079
-419.486	800.000	0.078	-0.307
-418.471	-108.278	0.483	0.105
-417.457	-200.000	0.016	0.186
-416.442	230.214	0.280	-0.459
-415.428	238.638	-0.241	0.401
-414.413	-44.507	0.821	0.411
-413.398	460.696	0.238	0.531
-412.384	-34.388	-0.361	-0.198
-411.369	800.000	0.275	0.938
-410.355	-200.000	-0.004	0.140
-409.340	-44.272	-0.659	0.331
-408.325	-135.703	0.565	0.067
-407.311	-1.545	-0.322	-0.227
-406.296	-30.894	0.697	0.394
-405.282	1.401	-0.324	-0.234
-404.267	800.000	0.141	-0.594
-403.252	-130.387	0.398	-0.054
-402.238	-109.323	-1.164	0.247
-401.223	-86.074	-1.046	-0.324
-400.209	-93.165	-0.423	0.118
-399.194	-87.986	-0.075	0.023
-398.179	-64.911	0.213	-0.086
-397.165	-200.000	0.009	0.318
-396.150	800.000	-0.122	-0.536
-395.136	-160.382	0.889	-0.048
-394.121	318.104	0.429	-0.813
-393.106	22.717	0.469	0.384
-392.092	-173.607	0.301	-0.009
-391.077	270.595	-0.049	-0.086
-390.063	447.574	-0.072	0.158
-389.048	644.179	0.023	0.059
-388.033	398.515	0.315	-0.660
-387.019	-148.576	-0.432	-0.035
-386.004	-153.556	0.378	-0.026
-384.990	-121.329	0.543	0.091
-383.975	-100.423	0.957	0.237
-382.960	178.689	-0.239	0.350
-381.946	229.574	-0.291	0.476
-380.931	119.568	-0.133	0.165
-379.917	-64.821	-0.249	-0.101
-378.902	-200.000	-0.081	-0.496
-377.888	-200.000	-0.041	0.427
-376.873	800.000	-0.078	-0.271
-375.858	800.000	0.127	-0.509
-374.844	81.606	0.618	0.669
-373.829	-70.899	0.711	0.268
-372.815	-61.126	0.714	-0.301
-371.800	-82.917	0.478	0.154
-370.785	-51.386	0.598	0.280
-369.771	273.104	0.158	-0.280
-368.756	406.697	0.300	0.634
-367.742	66.832	-0.201	-0.204
-366.727	-200.000	-0.014	0.741
-365.712	129.583	-0.401	-0.512
-364.698	-133.524	0.608	-0.076
-363.683	28.983	-0.371	0.315
-362.669	800.000	-0.061	-0.183
-361.654	-200.000	0.021	0.130
-360.639	800.000	0.157	-0.564
-359.625	649.629	0.146	0.374
-358.610	7.217	-0.360	-0.269
-357.596	800.000	0.194	-0.627
-356.581	32.367	1.002	0.865
-355.566	413.536	0.185	0.394
-354.552	-200.000	0.185	1.229
-353.537	45.554	0.045	0.041
-352.523	-83.263	0.350	0.112
-351.508	87.590	0.492	-0.545
-350.493	-99.443	-0.736	0.185
-349.479	800.000	-0.291	1.162
-348.464	-200.000	-0.037	-0.229
-347.450	437.654	0.225	-0.490
-346.435	-200.000	0.045	0.545
-345.420	800.000	-0.214	0.812
-344.406	145.914	0.388	0.521
-343.391	-17.533	0.851	0.535
-342.377	718.791	-0.314	0.833
-341.362	630.424	-0.308	-0.780
-340.348	-79.661	-0.544	0.183
-339.333	-36.753	-0.462	-0.248
-338.318	-50.960	-0.465	0.218
-337.304	-98.468	0.577	0.148
-336.289	119.528	-0.392	-0.485
-335.275	-200.000	0.074	0.975
-334.260	20.669	-0.920	0.745
-333.245	104.845	0.433	0.510
-332.231	-200.000	0.151	-0.962
-331.216	800.000	0.057	0.220
-330.202	-147.787	0.566	-0.047
-329.187	800.000	0.223	-0.775
-328.172	310.706	-0.090	-0.168
-327.158	-166.756	0.421	-0.017
-326.143	-163.746	-0.942	-0.044
-325.129	-200.000	-0.078	0.458
-324.114	270.792	0.416	0.731
-323.099	-200.000	-0.044	0.678
-322.085	390.281	0.299	0.619
-321.070	3.625	-0.738	-0.538
-320.056	-119.441	0.394	0.068
-319.041	-162.563	0.496	0.024
-318.026	-30.399	0.580	-0.329
-317.012	-39.942	-0.429	-0.223
-315.997	-200.000	-0.026	-0.126
-314.983	-200.000	0.048	0.914
-313.968	-200.000	0.108	0.803
-312.953	197.351	0.230	0.350
-311.939	307.941	-0.212	0.394
-310.924	-22.962	-0.289	-0.174
-309.910	-112.927	-0.241	0.048
-308.895	356.734	-0.182	-0.363
-307.880	-139.868	0.280	0.030
-306.866	527.397	-0.117	-0.274
-305.851	-65.111	-0.735	-0.296
-304.837	-19.519	-0.369	-0.228
-303.822	-200.000	0.005	0.832
-302.807	176.305	0.264	-0.383
-301.793	-51.391	-1.087	0.507
-300.778	545.825	0.230	0.549
-299.764	-68.186	-0.304	0.118
-298.749	-85.803	-0.720	0.223
-297.735	-67.801	-0.296	-0.115
-296.720	75.607	-0.471	0.496
-295.705	211.101	-0.796	-1.250
-294.691	800.000	-0.117	-0.354
-293.676	-25.770	0.751	-0.441
-292.662	26.107	0.311	-0.259
-291.647	702.907	0.199	-0.523
-290.632	-27.561	0.517	-0.299
-289.618	-65.899	-0.394	0.157
-288.603	-126.530	-0.272	0.040
-287.589	268.364	0.195	0.341
-286.574	-99.703	-0.296	-0.074
-285.559	-75.292	-0.457	-0.163
-284.545	4.616	0.661	-0.484
-283.530	800.000	0.107	0.306
-282.516	-200.000	-0.032	0.323
-281.501	-200.000	0.031	-0.732
-280.486	238.171	-0.111	-0.183
-279.472	22.874	0.154	-0.126
-278.457	-10.186	-0.855	0.566
-277.443	800.000	0.198	0.705
-276.428	-8.867	0.279	-0.186
-275.413	599.867	-0.252	-0.624
-274.399	-200.000	-0.074	-0.554
-273.384	800.000	0.148	-0.567
-272.370	220.322	0.678	1.084
-271.355	-200.000	-0.208	-0.978
-270.340	3.024	-0.670	0.485
-269.326	102.191	-0.258	-0.300
-268.311	-123.513	-0.151	0.024
-267.297	-200.000	0.050	0.325
-266.282	23.240	0.617	-0.505
-265.267	-200.000	0.087	0.700
-264.253	-139.918	-0.538	0.057
-263.238	-130.353	0.283	-0.038
-262.224	-129.251	-0.059	0.008
-261.209	-32.594	-0.569	-0.316
-260.195	-200.000	0.143	0.694
-259.180	800.000	0.157	0.507
-258.165	-200.000	-0.002	-0.183
-257.151	70.730	0.207	0.213
-256.136	-80.580	-0.514	0.170
-255.122	-68.869	0.177	-0.068
-254.107	8.164	-0.734	0.549
-253.092	168.071	-0.246	0.349
-252.078	800.000	0.054	-0.196
-251.063	-65.168	0.268	0.108
-250.049	-102.001	0.809	0.194
-249.034	-182.289	0.464	-0.009
-248.019	-200.000	0.015	0.390
-247.005	12.061	0.337	0.258
-245.990	-200.000	0.121	-0.696
-244.976	34.983	-0.338	-0.295
-243.961	-67.726	0.800	-0.312
-242.946	-39.913	0.109	0.057
-241.932	-200.000	-0.104	-0.676
-240.917	155.158	0.408	-0.558
-239.903	54.217	0.477	-0.457
-238.888	-137.020	-0.342	0.039
-237.873	-126.063	0.428	0.064
-236.859	11.180	-0.124	-0.094
-235.844	800.000	0.272	0.929
-234.830	-200.000	0.010	1.086
-233.815	800.000	-0.182	0.608
-232.800	286.974	0.282	0.508
-231.786	-86.402	-0.844	-0.258
-230.771	-37.912	-0.349	-0.185
-229.757	55.329	0.203	0.195
-228.742	-200.000	0.028	0.201
-227.727	-92.801	0.527	-0.147
-226.713	-200.000	0.054	-0.478
-225.698	800.000	-0.058	-0.180
-224.684	-200.000	-0.073	-0.411
-223.669	800.000	0.061	0.252
-222.655	42.145	0.517	0.467
-221.640	-16.529	-0.441	-0.278
-220.625	-103.504	0.845	0.198
-219.611	81.860	0.437	0.471
-218.596	-77.834	-0.081	0.028
-217.582	426.496	-0.166	-0.357
-216.567	800.000	-0.110	-0.402
-215.552	-117.249	-0.636	-0.115
-214.538	48.869	0.117	0.109
-213.523	-200.000	-0.057	-0.473
-212.509	800.000	-0.090	-0.352
-211.494	94.744	0.120	-0.135
-210.479	-49.684	0.780	0.369
-209.465	-166.669	0.640	-0.026
-208.450	-52.721	-0.204	0.094
-207.436	183.310	0.157	0.231
-206.421	-200.000	0.121	-0.590
-205.406	-200.000	-0.008	0.373
-204.392	-10.217	-0.862	0.569
-203.377	-93.156	-1.119	0.309
-202.363	169.828	-0.251	-0.357
-201.348	800.000	0.093	0.375
-200.333	800.000	-0.188	0.644
-199.319	242.484	-0.443	-0.737
-198.304	63.878	0.678	-0.677
-197.290	-92.263	-0.491	0.138
-196.275	730.170	0.210	-0.557
-195.260	800.000	-0.167	0.589
-194.246	-200.000	-0.041	0.827
-193.231	-134.284	0.632	0.077
-192.217	-60.127	-0.889	0.377
-191.202	-58.232	0.219	0.095
-190.187	-123.986	0.475	0.074
-189.173	72.905	0.730	-0.758
-188.158	800.000	0.035	0.141
-187.144	-200.000	0.133	1.019
-186.129	-200.000	0.012	-0.593
-185.114	800.000	0.229	-0.821
-184.100	-163.759	0.759	-0.035
-183.085	204.231	0.171	-0.263
-182.071	31.617	0.657	0.561
-181.056	-7.569	-0.649	0.436
-180.042	-144.250	0.067	0.006
-179.027	747.835	-0.135	0.361
-178.012	-7.062	0.705	0.475
-176.998	85.185	-0.699	0.761
-175.983	-200.000	-0.083	-0.717
-174.969	-200.000	0.002	0.139
-173.954	-200.000	0.152	-1.013
-172.939	25.241	-0.767	0.633
-171.925	228.250	0.129	-0.209
-170.910	-36.508	-0.933	-0.499
-169.896	144.947	-0.428	-0.569
-168.881	-127.077	-0.504	-0.073
-167.866	348.085	-0.298	-0.584
-166.852	-81.553	0.702	-0.229
-165.837	103.720	-0.393	-0.459
-164.823	-34.686	0.662	-0.359
-163.808	-15.250	0.520	-0.330
-162.793	-129.545	-0.480	0.066
-161.779	-200.000	-0.013	0.422
-160.764	-128.412	-0.172	-0.024
-159.750	167.765	0.378	-0.534
-158.735	-66.217	-0.369	-0.146
-157.720	-2.382	0.340	0.237
-156.706	-126.812	-0.504	0.074
-155.691	-125.931	-0.205	-0.031
-154.677	-135.577	0.208	-0.025
-153.662	-102.869	-0.582	-0.137
-152.647	-42.906	-0.422	-0.212
-151.633	147.920	0.016	-0.021
-150.618	88.808	-0.282	-0.311
-149.604	-200.000	-0.059	-0.355
-148.589	-164.627	0.414	-0.019
-147.574	87.524	0.340	-0.373
-146.560	-200.000	-0.036	-0.550
-145.545	800.000	0.167	0.519
-144.531	-27.620	0.464	0.267
-143.516	-200.000	-0.102	-0.495
-142.502	-172.273	0.426	0.014
-141.487	-4.198	0.173	-0.119
-140.472	-200.000	0.016	-0.331
-139.458	-81.555	0.450	-0.147
-138.443	800.000	0.123	0.391
-137.429	59.056	-0.490	-0.479
-136.414	-0.455	0.494	-0.348
-135.399	-104.975	-0.470	-0.107
-134.385	-200.000	0.040	0.205
-133.370	110.250	0.125	-0.149
-132.356	-60.986	-0.459	0.192
-131.341	358.911	0.152	0.301
-130.326	79.654	-0.251	0.267
-129.312	-120.852	0.254	0.042
-128.297	-130.352	-0.401	-0.054
-127.283	800.000	0.137	-0.403
-126.268	478.870	0.297	0.667
-125.253	-72.764	-0.517	-0.189
-124.239	277.676	-0.062	-0.109
-123.224	-200.000	-0.041	-0.522
-122.210	-200.000	0.169	0.945
-121.195	-189.512	0.197	-0.002
