DTS Sentinel unit serial number:	SN413079Multiplexer serial number:	ORYXHardware model number:	OX4-SRSoftware version number:	ORYX F/W v4.00 Oryx Data Collector v3.7.2.0data status	okinstallation	princeton_trtdifferential loss correction	single-endedforward channel	channel 4reverse channel	N/Adate	2019/09/19time	04:49:34forward acquisition time	60.00reverse acquisition time	0.00gamma	496.2192k internal	0.2340k external	0.2340temperature offset calibration	1.0030default loss term (dB/km)	0.3790temperature slope calibration	1.0000multiplexer offset coefficient	1.0000multiplexer slope coefficient	1.0000fibre end	0.00T internal ref (°C)	19.87T ext. ref 1 (°C)	0.61T ext. ref 2 (°C)	12.91length (m)	temperature (°C)	Stokes	anti-Stokes-747.200	-200.000	0.089	0.413
-746.185	630.044	-0.120	0.304
-745.171	-148.470	0.059	-0.005
-744.156	-200.000	-0.038	0.392
-743.142	-31.348	0.148	0.084
-742.127	430.700	-0.087	0.189
-741.112	239.208	0.102	-0.170
-740.098	800.000	-0.126	0.370
-739.083	-200.000	-0.025	0.226
-738.069	-200.000	0.001	-0.292
-737.054	578.479	-0.069	-0.168
-736.039	52.857	-0.357	0.343
-735.025	-117.144	0.407	-0.074
-734.010	-59.141	-0.300	-0.130
-732.996	14.841	-0.345	0.270
-731.981	-28.589	-0.213	0.123
-730.966	-111.168	-0.415	-0.085
-729.952	-57.922	-0.074	0.033
-728.937	-200.000	0.037	0.195
-727.923	-115.018	-0.669	0.127
-726.908	129.441	0.090	0.115
-725.894	38.353	-0.148	0.132
-724.879	800.000	-0.065	-0.235
-723.864	120.489	-0.119	0.149
-722.850	128.174	-0.292	0.373
-721.835	-200.000	0.027	0.181
-720.821	-142.209	-0.166	0.017
-719.806	-49.296	-0.290	-0.139
-718.791	544.886	-0.117	-0.281
-717.777	286.217	-0.043	0.078
-716.762	-200.000	-0.003	-0.210
-715.748	-142.461	0.155	0.015
-714.733	129.679	-0.161	-0.206
-713.718	-23.188	0.065	-0.039
-712.704	-33.965	-0.281	0.155
-711.689	146.644	0.125	0.169
-710.675	140.994	-0.197	-0.261
-709.660	-75.667	0.157	-0.056
-708.645	-93.119	-0.368	-0.103
-707.631	5.991	0.443	0.329
-706.616	196.422	-0.064	-0.097
-705.602	-200.000	0.061	-0.273
-704.587	-96.503	-0.067	0.018
-703.572	-200.000	0.016	0.256
-702.558	-180.351	-0.343	0.007
-701.543	-52.186	0.338	0.157
-700.529	251.685	0.071	-0.120
-699.514	-106.313	-0.281	-0.063
-698.499	-200.000	0.047	-0.256
-697.485	482.924	0.189	0.431
-696.470	-58.566	0.337	-0.146
-695.456	-156.620	-0.233	-0.014
-694.441	-83.349	-0.103	-0.033
-693.426	79.044	0.058	-0.062
-692.412	67.740	-0.079	-0.080
-691.397	464.203	0.020	-0.045
-690.383	-101.848	-0.209	-0.051
-689.368	20.292	0.180	0.146
-688.354	800.000	0.153	0.562
-687.339	-183.166	-0.331	-0.006
-686.324	-100.679	-0.265	0.065
-685.310	360.390	-0.121	0.243
-684.295	-200.000	-0.014	0.259
-683.281	-200.000	-0.005	-0.062
-682.266	248.149	-0.209	-0.353
-681.251	193.064	-0.058	0.088
-680.237	31.661	-0.188	-0.162
-679.222	-181.435	-0.186	0.004
-678.208	-170.483	0.355	-0.012
-677.193	772.767	0.075	0.204
-676.178	16.641	-0.065	0.052
-675.164	56.651	0.088	-0.085
-674.149	153.203	-0.127	-0.174
-673.135	-63.514	0.233	0.096
-672.120	223.393	0.127	-0.205
-671.105	303.444	-0.078	0.145
-670.091	-91.259	0.121	0.035
-669.076	-129.648	-0.156	-0.022
-668.062	-29.989	0.287	-0.163
-667.047	-108.701	0.236	0.051
-666.032	-200.000	0.000	0.135
-665.018	15.895	-0.182	-0.143
-664.003	800.000	-0.057	-0.242
-662.989	-180.248	0.485	0.010
-661.974	-107.250	-0.115	-0.025
-660.959	-8.280	-0.341	-0.229
-659.945	34.585	-0.293	-0.256
-658.930	26.959	0.145	0.122
-657.916	-200.000	0.026	0.358
-656.901	-89.987	-0.171	-0.050
-655.886	-84.096	-0.076	-0.024
-654.872	700.454	-0.074	-0.196
-653.857	-69.783	0.085	-0.032
-652.843	-0.656	-0.052	-0.037
-651.828	-92.143	0.159	0.045
-650.814	-184.535	0.079	0.001
-649.799	-34.144	0.085	-0.046
-648.784	-69.013	-0.270	-0.104
-647.770	-130.604	0.510	-0.069
-646.755	-200.000	0.038	-0.186
-645.741	-18.414	0.348	-0.217
-644.726	-51.641	0.051	-0.024
-643.711	-83.665	-0.336	-0.107
-642.697	25.988	-0.163	-0.136
-641.682	800.000	0.058	0.175
-640.668	-84.231	-0.070	0.022
-639.653	-190.648	-0.217	-0.002
-638.638	-136.088	0.198	0.023
-637.624	-135.958	0.155	-0.018
-636.609	-82.819	0.108	0.035
-635.595	-114.057	-0.350	-0.068
-634.580	436.578	-0.040	-0.087
-633.565	559.507	0.143	-0.344
-632.551	800.000	-0.044	-0.165
-631.536	-47.844	-0.203	-0.098
-630.522	-200.000	0.016	-0.250
-629.507	294.754	0.049	0.089
-628.492	23.055	-0.081	-0.067
-627.478	123.627	-0.212	-0.266
-626.463	800.000	-0.055	0.217
-625.449	-120.539	-0.198	-0.034
-624.434	-131.959	-0.297	-0.039
-623.419	-10.016	0.335	0.222
-622.405	121.706	0.175	-0.218
-621.390	-147.695	-0.181	0.015
-620.376	-200.000	0.048	-0.280
-619.361	414.711	0.189	0.402
-618.346	-35.241	-0.227	-0.124
-617.332	-46.358	0.107	-0.052
-616.317	81.499	0.080	0.086
-615.303	-37.630	-0.059	0.031
-614.288	255.279	0.152	-0.260
-613.273	-22.484	-0.410	-0.247
-612.259	-100.233	0.451	-0.112
-611.244	-121.346	-0.092	0.015
-610.230	-200.000	-0.017	0.204
-609.215	-42.834	-0.122	0.062
-608.201	-82.820	-0.199	-0.064
-607.186	8.388	0.179	-0.134
-606.171	-30.227	0.117	-0.066
-605.157	-165.779	-0.377	0.016
-604.142	-30.079	0.295	-0.167
-603.128	-8.545	0.197	0.132
-602.113	-200.000	-0.021	-0.164
-601.098	800.000	-0.050	-0.161
-600.084	307.399	-0.042	-0.078
-599.069	-200.000	0.006	-0.058
-598.055	-180.179	-0.230	0.005
-597.040	177.767	0.102	0.148
-596.025	800.000	0.052	0.175
-595.011	336.850	-0.086	0.166
-593.996	-200.000	0.025	-0.142
-592.982	-120.649	0.201	-0.034
-591.967	197.154	-0.086	-0.130
-590.952	-93.534	0.461	0.127
-589.938	289.918	0.055	0.100
-588.923	72.729	-0.047	0.049
-587.909	-131.039	-0.250	-0.033
-586.894	-200.000	-0.006	-0.168
-585.879	-200.000	0.020	-0.203
-584.865	355.889	0.101	-0.200
-583.850	25.445	0.130	-0.108
-582.836	459.440	0.058	-0.128
-581.821	800.000	-0.178	-0.694
-580.806	-1.685	0.288	-0.202
-579.792	-62.641	0.251	0.104
-578.777	125.235	0.120	-0.151
-577.763	800.000	-0.047	-0.198
-576.748	653.563	0.132	0.338
-575.733	6.608	-0.093	-0.069
-574.719	-105.732	0.102	0.023
-573.704	444.061	-0.036	0.079
-572.690	-124.940	0.117	-0.018
-571.675	800.000	-0.032	-0.118
-570.661	233.554	-0.164	-0.268
-569.646	-104.766	-0.324	-0.074
-568.631	-200.000	-0.046	0.209
-567.617	150.985	0.168	-0.228
-566.602	27.658	-0.212	-0.177
-565.588	-140.727	-0.041	-0.004
-564.573	-65.313	-0.494	-0.198
-563.558	-110.960	0.381	-0.078
-562.544	554.723	0.028	0.068
-561.529	229.505	0.077	0.125
-560.515	-95.740	-0.173	-0.046
-559.500	-161.458	-0.128	-0.007
-558.485	35.737	0.200	-0.175
-557.471	-132.529	-0.270	-0.035
-556.456	-200.000	-0.004	-0.051
-555.442	-47.664	0.206	-0.099
-554.427	126.478	-0.092	0.116
-553.412	-200.000	-0.017	-0.212
-552.398	-200.000	0.029	0.131
-551.383	-11.037	-0.159	-0.104
-550.369	-80.224	-0.266	-0.088
-549.354	1.465	0.125	-0.089
-548.339	579.626	-0.032	0.078
-547.325	-31.996	-0.050	0.028
-546.310	-200.000	0.007	-0.223
-545.296	-49.069	-0.025	-0.012
-544.281	226.116	0.065	-0.105
-543.266	47.624	0.292	-0.271
-542.252	19.206	0.134	-0.107
-541.237	561.121	0.058	0.140
-540.223	35.027	0.146	0.127
-539.208	205.792	0.112	-0.172
-538.193	413.273	0.136	0.288
-537.179	800.000	-0.073	0.213
-536.164	167.225	0.048	-0.068
-535.150	712.594	0.018	-0.049
-534.135	-126.356	0.293	0.043
-533.121	-30.838	0.183	-0.103
-532.106	-200.000	0.017	-0.176
-531.091	-200.000	0.007	0.044
-530.077	-161.003	-0.129	0.007
-529.062	-60.889	-0.335	-0.141
-528.048	-1.168	0.037	-0.026
-527.033	800.000	-0.049	0.194
-526.018	-22.005	-0.183	-0.111
-525.004	-129.171	-0.208	-0.029
-523.989	-85.282	-0.389	0.121
-522.975	-200.000	0.001	0.053
-521.960	-32.100	0.201	-0.112
-520.945	-63.587	0.088	0.036
-519.931	121.148	-0.186	0.230
-518.916	800.000	0.050	0.153
-517.902	464.616	-0.064	-0.141
-516.887	4.473	-0.161	-0.117
-515.872	-200.000	0.018	-0.182
-514.858	-144.697	0.093	-0.009
-513.843	512.896	-0.102	0.237
-512.829	-54.701	0.082	-0.037
-511.814	-13.945	0.129	-0.083
-510.799	-29.958	-0.103	-0.058
-509.785	-24.070	-0.251	0.149
-508.770	141.005	-0.037	-0.048
-507.756	-48.792	-0.230	-0.110
-506.741	-55.864	0.181	-0.080
-505.726	254.037	-0.187	0.318
-504.712	-88.149	0.106	-0.031
-503.697	-38.921	0.192	-0.100
-502.683	-181.483	-0.074	0.001
-501.668	-20.003	0.125	-0.076
-500.653	12.336	0.172	-0.132
-499.639	-31.511	0.112	-0.062
-498.624	-3.865	-0.080	0.055
-497.610	-154.769	0.503	0.033
-496.595	-200.000	-0.061	-0.351
-495.581	800.000	0.122	-0.362
-494.566	-54.079	-0.348	-0.157
-493.551	-200.000	0.007	0.239
-492.537	-200.000	-0.027	0.232
-491.522	-78.241	-0.271	-0.092
-490.508	-75.531	0.314	-0.111
-489.493	-75.934	0.112	0.039
-488.478	-146.598	0.422	-0.036
-487.464	-200.000	-0.058	0.286
-486.449	-27.774	-0.515	-0.296
-485.435	210.836	-0.148	0.231
-484.420	221.106	0.293	-0.466
-483.405	-49.563	0.146	-0.069
-482.391	-37.296	-0.051	-0.027
-481.376	800.000	0.070	0.234
-480.362	452.724	0.151	-0.332
-479.347	4.945	0.138	0.101
-478.332	-53.890	-0.274	0.124
-477.318	-48.287	0.166	-0.079
-476.303	24.873	-0.151	-0.124
-475.289	-200.000	-0.059	-0.281
-474.274	-155.037	-0.229	0.015
-473.259	-109.120	-0.071	0.015
-472.245	-200.000	-0.004	0.241
-471.230	-107.699	-0.189	-0.041
-470.216	800.000	0.127	-0.378
-469.201	24.429	0.189	0.155
-468.186	132.655	-0.088	0.113
-467.172	257.813	0.064	0.110
-466.157	-200.000	0.011	-0.083
-465.143	-21.821	-0.389	0.235
-464.128	-46.134	0.258	-0.126
-463.113	30.592	-0.166	0.141
-462.099	-176.911	-0.162	-0.004
-461.084	-185.387	0.444	-0.007
-460.070	-63.658	-0.274	0.112
-459.055	59.264	0.143	-0.139
-458.040	-139.446	-0.097	0.010
-457.026	-136.302	-0.294	-0.034
-456.011	165.301	0.149	-0.208
-454.997	90.996	0.175	-0.195
-453.982	-29.474	-0.209	0.119
-452.968	-200.000	-0.019	0.216
-451.953	-72.002	0.307	0.113
-450.938	-200.000	0.041	0.259
-449.924	-16.642	0.329	0.206
-448.909	398.564	-0.123	0.256
-447.895	-159.859	0.225	0.012
-446.880	-120.747	0.365	-0.061
-445.865	-200.000	0.040	0.185
-444.851	-9.096	0.094	-0.062
-443.836	-16.263	0.279	0.175
-442.822	800.000	0.085	-0.305
-441.807	800.000	0.064	-0.190
-440.792	58.279	-0.234	0.228
-439.778	9.451	-0.390	-0.292
-438.763	113.235	-0.102	-0.123
-437.749	-133.459	-0.301	0.037
-436.734	800.000	-0.016	0.051
-435.719	211.690	0.045	-0.069
-434.705	-82.620	0.217	-0.070
-433.690	-200.000	-0.036	0.198
-432.676	479.618	0.042	-0.094
-431.661	62.524	0.081	0.080
-430.646	26.746	0.017	0.014
-429.632	-21.136	0.130	0.079
-428.617	-97.298	0.227	-0.059
-427.603	-103.909	-0.129	0.030
-426.588	29.838	0.087	-0.073
-425.573	-140.809	0.271	0.028
-424.559	-8.926	-0.269	0.178
-423.544	716.238	0.039	-0.103
-422.530	325.926	0.017	0.033
-421.515	-10.777	-0.079	0.052
-420.500	-51.869	-0.141	0.065
-419.486	-123.442	-0.038	0.006
-418.471	-200.000	-0.020	-0.201
-417.457	-36.988	-0.099	0.052
-416.442	800.000	0.045	-0.157
-415.428	180.697	0.197	-0.286
-414.413	540.207	0.096	0.227
-413.398	-100.020	-0.236	0.058
-412.384	800.000	0.079	-0.250
-411.369	160.774	-0.135	-0.186
-410.355	800.000	0.028	-0.077
-409.340	99.355	-0.310	0.355
-408.325	-92.727	0.192	0.053
-407.311	-30.582	0.126	0.071
-406.296	-84.768	-0.238	0.074
-405.282	530.188	-0.037	-0.086
-404.267	164.928	0.179	0.250
-403.252	-4.668	-0.029	0.020
-402.238	666.681	-0.029	-0.074
-401.223	363.680	-0.283	0.563
-400.209	800.000	0.136	0.416
-399.194	800.000	-0.070	-0.243
-398.179	30.137	-0.052	-0.044
-397.165	-134.068	0.228	-0.028
-396.150	800.000	0.067	0.191
-395.136	-82.437	-0.125	-0.040
-394.121	800.000	0.075	-0.277
-393.106	6.390	0.155	-0.113
-392.092	-40.590	0.062	-0.032
-391.077	33.892	0.132	0.113
-390.063	-83.427	-0.446	-0.141
-389.048	-10.267	0.040	-0.026
-388.033	-195.443	0.211	0.002
-387.019	-59.297	0.384	-0.163
-386.004	-200.000	-0.026	0.195
-384.990	-30.930	0.053	0.030
-383.975	-178.280	-0.105	0.002
-382.960	630.718	-0.129	0.322
-381.946	-200.000	0.056	-0.431
-380.931	-78.533	0.126	0.043
-379.917	800.000	-0.046	-0.152
-378.902	300.621	0.147	-0.269
-377.888	-161.682	-0.298	-0.015
-376.873	-80.815	-0.208	0.068
-375.858	-200.000	-0.013	-0.116
-374.844	113.579	-0.251	-0.301
-373.829	-200.000	-0.029	-0.271
-372.815	-200.000	0.017	-0.100
-371.800	606.609	0.046	0.114
-370.785	-200.000	0.017	0.193
-369.771	104.847	-0.192	-0.224
-368.756	228.736	0.183	0.295
-367.742	-36.119	0.143	-0.076
-366.727	800.000	0.092	-0.272
-365.712	-200.000	-0.050	0.261
-364.698	56.918	0.220	0.212
-363.683	-145.313	-0.157	0.014
-362.669	176.176	0.122	-0.175
-361.654	172.005	0.239	-0.339
-360.639	3.803	-0.235	-0.169
-359.625	596.062	0.195	0.476
-358.610	172.281	-0.181	0.256
-357.596	240.467	0.064	-0.106
-356.581	-200.000	-0.001	0.062
-355.566	196.872	0.091	0.136
-354.552	539.121	-0.007	-0.016
-353.537	-4.465	-0.225	0.154
-352.523	-200.000	-0.002	0.027
-351.508	71.183	-0.118	-0.121
-350.493	39.831	0.162	0.144
-349.479	584.998	-0.051	-0.124
-348.464	-25.374	-0.211	0.123
-347.450	-200.000	-0.028	-0.229
-346.435	239.232	0.152	0.250
-345.420	-13.165	-0.108	0.069
-344.406	-109.096	0.053	0.011
-343.391	800.000	-0.034	-0.095
-342.377	-70.990	-0.242	0.090
-341.362	248.459	0.046	0.078
-340.348	-6.045	0.311	0.210
-339.333	800.000	-0.058	-0.214
-338.318	229.458	-0.108	-0.174
-337.304	125.788	-0.142	-0.177
-336.289	-191.700	-0.339	-0.003
-335.275	82.919	-0.148	0.159
-334.260	144.674	0.024	0.032
-333.245	800.000	0.086	0.283
-332.231	-145.837	-0.256	-0.022
-331.216	-157.362	0.091	0.005
-330.202	154.154	-0.213	0.288
-329.187	548.529	0.027	-0.065
-328.172	-1.940	0.019	-0.013
-327.158	436.307	0.138	-0.296
-326.143	196.984	0.097	0.147
-325.129	-104.336	-0.199	0.046
-324.114	-107.067	0.175	0.038
-323.099	370.796	0.040	-0.081
-322.085	-96.866	0.176	0.046
-321.070	800.000	0.115	0.398
-320.056	53.673	-0.153	0.145
-319.041	800.000	-0.020	-0.061
-318.026	-98.961	0.200	0.050
-317.012	-56.838	-0.226	0.098
-315.997	800.000	0.076	0.304
-314.983	-37.375	-0.212	0.112
-313.968	349.886	-0.025	0.049
-312.953	37.536	0.066	0.058
-311.939	-200.000	-0.090	0.000
-310.924	-155.114	-0.015	-0.001
-309.910	87.729	0.079	0.087
-308.895	-154.547	0.292	-0.019
-307.880	-16.881	-0.245	-0.153
-306.866	-81.269	0.252	0.082
-305.851	274.312	0.227	0.397
-304.837	594.383	-0.104	0.255
-303.822	21.177	0.061	0.048
-302.807	-200.000	-0.010	0.080
-301.793	-116.304	0.108	-0.020
-300.778	-74.272	-0.176	-0.063
-299.764	-57.282	0.378	0.164
-298.749	323.512	0.192	-0.361
-297.735	-64.382	-0.090	-0.036
-296.720	-61.873	0.180	0.074
-295.705	800.000	-0.078	-0.269
-294.691	-73.532	0.055	0.020
-293.676	-129.352	-0.243	-0.033
-292.662	-79.606	-0.181	0.060
-291.647	118.066	-0.077	-0.094
-290.632	-17.746	0.447	-0.277
-289.618	113.593	-0.214	0.256
-288.603	-108.367	0.116	-0.025
-287.589	-130.946	-0.294	-0.039
-286.574	110.182	0.394	0.466
-285.559	27.153	0.195	-0.161
-284.545	-60.131	0.028	0.012
-283.530	414.834	-0.014	-0.029
-282.516	-200.000	-0.029	0.198
-281.501	47.950	0.212	0.195
-280.486	180.530	-0.085	0.123
-279.472	-92.861	0.320	-0.088
-278.457	478.869	-0.130	-0.289
-277.443	109.891	-0.416	-0.491
-276.428	193.572	0.135	-0.201
-275.413	20.978	0.198	0.158
-274.399	-152.871	-0.120	-0.008
-273.384	564.670	-0.049	0.118
-272.370	800.000	0.160	0.627
-271.355	226.365	-0.115	0.183
-270.340	-152.680	-0.295	0.021
-269.326	800.000	0.101	0.297
-268.311	-200.000	-0.023	-0.192
-267.297	-200.000	-0.024	0.314
-266.282	-60.294	-0.304	-0.127
-265.267	4.106	0.372	0.268
-264.253	-28.137	-0.075	0.043
-263.238	141.617	-0.011	-0.014
-262.224	-137.405	-0.245	0.027
-261.209	-59.506	-0.076	0.032
-260.195	13.245	0.144	0.110
-259.180	26.851	-0.326	0.269
-258.165	-155.163	-0.049	0.003
-257.151	-70.588	-0.327	0.122
-256.136	-32.752	-0.180	0.098
-255.122	-39.471	-0.239	-0.123
-254.107	800.000	-0.119	0.494
-253.092	-33.701	0.086	-0.047
-252.078	-200.000	-0.007	0.144
-251.063	315.092	0.087	-0.162
-250.049	-200.000	0.027	-0.185
-249.034	-46.571	0.115	-0.055
-248.019	27.798	-0.216	0.179
-247.005	800.000	0.030	0.104
-245.990	-200.000	-0.032	-0.182
-244.976	-200.000	-0.046	-0.216
-243.961	2.940	0.173	0.123
-242.946	41.482	-0.252	-0.224
-241.932	1.372	0.213	-0.150
-240.917	-19.740	-0.157	-0.096
-239.903	-75.726	0.178	0.062
-238.888	327.943	-0.115	0.216
-237.873	-200.000	0.002	-0.242
-236.859	132.916	0.249	0.316
-235.844	-85.528	0.102	-0.031
-234.830	-27.240	0.106	0.061
-233.815	180.288	-0.142	0.205
-232.800	121.182	0.194	-0.237
-231.786	-100.535	0.052	0.013
-230.771	-32.711	0.090	-0.049
-229.757	83.911	0.202	-0.217
-228.742	-142.344	0.187	-0.018
-227.727	-158.724	-0.175	0.010
-226.713	-187.749	-0.142	-0.002
-225.698	-200.000	0.017	0.136
-224.684	-75.298	0.079	0.028
-223.669	496.651	0.077	-0.173
-222.655	428.231	-0.017	-0.036
-221.640	280.610	0.114	-0.200
-220.625	-200.000	0.067	0.312
-219.611	-200.000	-0.043	-0.266
-218.596	131.414	0.124	0.156
-217.582	37.963	-0.142	0.124
-216.567	800.000	0.118	-0.350
-215.552	156.424	0.144	0.195
-214.538	-142.954	0.630	0.060
-213.523	43.894	-0.163	0.146
-212.509	32.033	-0.187	0.159
-211.494	-200.000	-0.021	-0.132
-210.479	-200.000	-0.051	-0.317
-209.465	-200.000	0.035	-0.203
-208.450	128.460	0.254	0.318
-207.436	20.159	-0.154	0.122
-206.421	1.230	0.105	-0.074
-205.406	-200.000	-0.017	-0.201
-204.392	297.735	-0.109	0.197
-203.377	-49.871	0.089	0.041
-202.363	32.348	-0.138	0.117
-201.348	800.000	0.110	-0.398
-200.333	-152.992	-0.144	-0.010
-199.319	-28.937	-0.146	0.082
-198.304	-149.666	0.344	0.027
-197.290	92.141	-0.121	-0.134
-196.275	-89.718	-0.168	0.048
-195.260	5.992	-0.317	0.230
-194.246	455.743	-0.054	0.117
-193.231	-200.000	0.002	-0.274
-192.217	800.000	-0.070	0.198
-191.202	202.789	0.177	-0.268
-190.187	800.000	-0.089	0.255
-189.173	-52.644	-0.116	0.053
-188.158	157.994	0.223	0.304
-187.144	-83.602	-0.100	-0.031
-186.129	-167.780	0.110	0.004
-185.114	153.128	0.154	0.207
-184.100	-74.254	-0.274	0.097
-183.085	800.000	0.017	0.048
-182.071	314.532	-0.104	-0.192
-181.056	-63.617	0.114	-0.046
-180.042	800.000	0.068	0.198
-179.027	465.303	0.092	0.202
-178.012	-200.000	0.035	0.226
-176.998	-30.139	-0.100	-0.056
-175.983	219.344	0.052	0.082
-174.969	-124.543	0.123	0.019
-173.954	110.400	0.229	0.270
-172.939	-42.361	-0.120	-0.060
-171.925	24.091	-0.299	0.242
-170.910	-148.359	0.115	-0.009
-169.896	-147.938	-0.132	0.011
-168.881	121.466	-0.102	0.125
-167.866	513.156	-0.134	-0.306
-166.852	202.248	0.112	0.170
-165.837	-200.000	-0.027	0.333
-164.823	11.167	-0.082	0.061
-163.808	80.259	0.027	-0.029
-162.793	800.000	-0.040	0.170
-161.779	-177.519	-0.114	-0.003
-160.764	3.438	-0.195	0.139
-159.750	226.545	0.122	-0.194
-158.735	-173.662	0.088	0.003
-157.720	-49.471	-0.040	-0.019
-156.706	34.989	-0.164	-0.140
-155.691	-4.594	-0.267	0.180
-154.677	-144.124	-0.282	-0.026
-153.662	76.551	0.043	0.045
-152.647	620.643	0.148	0.364
-151.633	387.711	0.109	0.221
-150.618	-200.000	0.019	-0.131
-149.604	361.382	0.062	-0.121
-148.589	-40.492	0.240	-0.122
-147.574	-7.630	-0.039	0.026
-146.560	220.662	-0.114	-0.179
-145.545	-200.000	-0.016	-0.287
-144.531	87.672	-0.231	-0.250
-143.516	1.893	-0.155	-0.110
-142.502	12.957	0.293	-0.222
-141.487	419.617	-0.089	-0.187
-140.472	656.131	0.048	0.121
-139.458	240.431	-0.158	0.257
-138.443	800.000	-0.096	-0.303
-137.429	-200.000	-0.002	-0.037
-136.414	-5.517	-0.190	-0.127
-135.399	-200.000	0.001	0.078
-134.385	-55.057	0.246	-0.108
-133.370	74.319	0.236	0.243
-132.356	235.680	-0.045	0.073
-131.341	230.184	0.050	-0.080
-130.326	-200.000	-0.019	-0.098
-129.312	194.515	-0.178	0.265
-128.297	13.771	0.109	-0.083
-127.283	121.468	-0.115	0.141
-126.268	29.789	0.433	0.361
-125.253	152.269	0.150	-0.200
-124.239	112.344	0.085	-0.101
-123.224	-200.000	-0.006	-0.058
-122.210	-76.045	-0.034	0.012
-121.195	-33.809	-0.226	0.122
