DTS Sentinel unit serial number:	SN413079Multiplexer serial number:	ORYXHardware model number:	OX4-SRSoftware version number:	ORYX F/W v4.00 Oryx Data Collector v3.7.2.0data status	okinstallation	princeton_trtdifferential loss correction	single-endedforward channel	channel 4reverse channel	N/Adate	2019/09/13time	09:09:35forward acquisition time	60.00reverse acquisition time	0.00gamma	496.2192k internal	0.2314k external	0.2314temperature offset calibration	1.0196default loss term (dB/km)	0.3790temperature slope calibration	1.0000multiplexer offset coefficient	1.0000multiplexer slope coefficient	1.0000fibre end	0.00T internal ref (°C)	28.77T ext. ref 1 (°C)	4.38T ext. ref 2 (°C)	26.22length (m)	temperature (°C)	Stokes	anti-Stokes-747.200	-112.332	-0.210	-0.043
-746.185	41.229	0.101	0.092
-745.171	48.962	-0.130	-0.123
-744.156	-200.000	-0.004	0.241
-743.142	-142.340	0.205	-0.021
-742.127	9.911	0.527	0.406
-741.112	635.443	-0.088	0.226
-740.098	60.730	0.098	0.099
-739.083	-200.000	0.043	0.253
-738.069	46.647	0.108	0.101
-737.054	-200.000	-0.039	0.309
-736.039	-37.935	-0.263	0.142
-735.025	181.595	-0.229	0.342
-734.010	-88.834	-0.360	-0.108
-732.996	-200.000	-0.008	-0.167
-731.981	800.000	-0.085	-0.278
-730.966	-200.000	-0.053	-0.266
-729.952	402.028	0.089	-0.190
-728.937	33.968	0.133	-0.118
-727.923	800.000	0.115	0.363
-726.908	-200.000	-0.049	-0.297
-725.894	542.471	-0.102	0.246
-724.879	82.819	-0.073	-0.081
-723.864	-200.000	0.027	-0.177
-722.850	93.671	-0.131	-0.150
-721.835	800.000	-0.041	0.151
-720.821	800.000	-0.032	0.104
-719.806	-200.000	0.031	0.271
-718.791	-200.000	0.034	0.402
-717.777	-79.311	0.165	-0.056
-716.762	271.483	-0.083	-0.148
-715.748	-75.343	-0.119	-0.043
-714.733	-112.449	-0.111	0.022
-713.718	-87.173	0.433	0.133
-712.704	79.530	-0.090	0.098
-711.689	78.681	-0.126	0.137
-710.675	-129.798	-0.069	-0.010
-709.660	790.571	-0.076	0.211
-708.645	-200.000	0.047	-0.223
-707.631	144.045	0.234	0.315
-706.616	-200.000	-0.008	0.153
-705.602	-43.166	-0.216	0.111
-704.587	-20.303	-0.128	0.080
-703.572	-26.640	-0.071	-0.042
-702.558	-146.483	-0.211	-0.019
-701.543	-200.000	-0.024	-0.183
-700.529	-82.918	0.239	-0.078
-699.514	-95.050	-0.216	-0.059
-698.499	-127.031	-0.207	-0.031
-697.485	63.579	0.208	-0.212
-696.470	157.294	-0.112	-0.157
-695.456	-31.510	0.297	-0.169
-694.441	288.925	0.038	-0.071
-693.426	199.212	0.162	0.250
-692.412	330.327	0.044	0.086
-691.397	-90.453	-0.053	0.015
-690.383	-200.000	0.045	0.313
-689.368	202.957	-0.187	0.293
-688.354	-90.839	-0.171	0.050
-687.339	-200.000	0.003	-0.029
-686.324	800.000	0.101	0.337
-685.310	3.609	-0.087	0.064
-684.295	-163.224	-0.141	0.007
-683.281	191.553	0.281	0.429
-682.266	-16.171	-0.302	-0.194
-681.251	124.295	-0.070	0.088
-680.237	800.000	0.171	-0.503
-679.222	432.954	0.086	-0.189
-678.208	21.692	0.123	0.101
-677.193	-121.418	0.174	-0.029
-676.178	164.853	0.028	-0.040
-675.164	-200.000	0.062	0.329
-674.149	-159.138	0.254	-0.014
-673.135	277.027	0.043	0.077
-672.120	-146.133	0.155	0.014
-671.105	339.558	-0.061	0.120
-670.091	495.341	0.045	0.104
-669.076	800.000	0.055	-0.228
-668.062	-117.180	0.118	0.022
-667.047	-15.770	-0.081	-0.052
-666.032	800.000	-0.025	0.102
-665.018	-54.585	0.241	-0.110
-664.003	-200.000	-0.001	-0.102
-662.989	119.229	0.123	0.154
-661.974	-38.615	0.239	-0.127
-660.959	800.000	-0.132	-0.420
-659.945	-73.552	0.540	0.199
-658.930	109.854	0.206	-0.250
-657.916	-200.000	-0.056	0.412
-656.901	800.000	0.035	0.152
-655.886	38.423	0.337	0.303
-654.872	12.792	-0.051	-0.040
-653.857	-79.447	0.254	-0.087
-652.843	61.389	-0.122	-0.123
-651.828	-54.995	0.142	0.065
-650.814	65.193	0.204	0.208
-649.799	800.000	-0.049	0.173
-648.784	-200.000	0.036	-0.161
-647.770	93.809	-0.122	-0.139
-646.755	772.879	0.095	0.261
-645.741	-200.000	0.026	0.321
-644.726	-200.000	0.016	-0.071
-643.711	-200.000	0.065	0.355
-642.697	28.518	-0.101	0.086
-641.682	47.278	-0.128	0.120
-640.668	-26.911	0.366	0.216
-639.653	-18.979	-0.068	-0.043
-638.638	-64.426	0.146	-0.060
-637.624	27.060	0.093	-0.079
-636.609	-66.762	0.056	0.022
-635.595	-89.502	-0.363	-0.108
-634.580	93.173	0.165	0.188
-633.565	-7.982	0.087	0.059
-632.551	-200.000	0.010	-0.334
-631.536	266.625	0.082	-0.145
-630.522	-58.804	-0.218	0.095
-629.507	91.112	0.056	-0.064
-628.492	800.000	-0.104	-0.360
-627.478	41.077	0.250	-0.228
-626.463	-62.084	-0.214	0.090
-625.449	-200.000	0.067	-0.476
-624.434	800.000	0.094	-0.342
-623.419	-83.648	-0.058	0.019
-622.405	140.799	0.067	0.090
-621.390	31.362	-0.168	0.146
-620.376	800.000	0.059	-0.176
-619.361	800.000	0.067	0.231
-618.346	-39.055	0.320	0.170
-617.332	-48.407	0.323	-0.157
-616.317	-85.436	-0.127	0.040
-615.303	800.000	-0.075	0.253
-614.288	-200.000	-0.035	-0.203
-613.273	568.844	0.031	-0.077
-612.259	184.901	-0.082	0.122
-611.244	226.546	0.148	-0.242
-610.230	3.142	-0.181	0.133
-609.215	800.000	-0.071	0.219
-608.201	-99.869	-0.204	-0.051
-607.186	144.174	-0.134	-0.180
-606.171	40.783	0.121	0.110
-605.157	2.028	-0.232	-0.169
-604.142	561.322	0.104	0.255
-603.128	-200.000	-0.002	0.153
-602.113	463.110	-0.098	0.220
-601.098	29.064	0.232	-0.199
-600.084	800.000	-0.087	0.325
-599.069	-200.000	-0.092	0.422
-598.055	800.000	0.090	0.295
-597.040	-33.001	-0.017	-0.010
-596.025	156.870	-0.258	-0.360
-595.011	348.169	-0.082	0.164
-593.996	-4.894	-0.124	-0.086
-592.982	132.876	0.139	0.181
-591.967	307.101	0.139	-0.260
-590.952	-200.000	0.032	-0.222
-589.938	-84.606	-0.398	0.126
-588.923	-166.829	-0.149	-0.006
-587.909	-91.316	0.142	-0.041
-586.894	-72.859	0.366	-0.136
-585.879	-200.000	0.123	0.000
-584.865	157.555	0.281	-0.392
-583.850	-119.317	0.110	-0.019
-582.836	-146.553	-0.382	-0.033
-581.821	-121.569	-0.339	-0.057
-580.806	-200.000	0.012	-0.057
-579.792	-71.175	0.226	-0.085
-578.777	-200.000	-0.005	-0.070
-577.763	241.498	0.101	0.170
-576.748	272.403	0.095	-0.168
-575.733	-104.350	0.251	-0.059
-574.719	162.228	-0.077	-0.109
-573.704	-85.139	0.168	0.053
-572.690	257.849	-0.132	-0.228
-571.675	800.000	-0.089	-0.312
-570.661	60.009	-0.132	0.131
-569.646	751.749	0.131	0.357
-568.631	486.123	-0.074	0.169
-567.617	77.124	-0.215	-0.230
-566.602	-200.000	-0.018	-0.272
-565.588	-37.346	-0.185	-0.100
-564.573	-86.616	0.408	0.126
-563.558	-2.808	-0.235	0.166
-562.544	-2.668	-0.258	0.182
-561.529	-101.631	-0.118	0.029
-560.515	-63.333	0.273	-0.113
-559.500	131.733	0.143	-0.186
-558.485	743.723	0.026	-0.069
-557.471	19.291	0.061	0.049
-556.456	46.640	0.061	0.057
-555.442	-155.414	-0.159	-0.010
-554.427	-200.000	0.042	-0.435
-553.412	251.130	-0.156	0.267
-552.398	-78.593	0.259	-0.089
-551.383	-200.000	0.009	-0.112
-550.369	-200.000	-0.015	-0.189
-549.354	-200.000	-0.001	-0.286
-548.339	-15.613	-0.097	0.062
-547.325	800.000	0.075	-0.222
-546.310	79.732	-0.090	0.097
-545.296	-132.522	0.194	0.025
-544.281	563.326	-0.129	0.314
-543.266	136.864	-0.276	0.362
-542.252	-138.634	-0.277	-0.030
-541.237	-200.000	0.019	-0.487
-540.223	-200.000	-0.034	-0.229
-539.208	-118.339	-0.251	-0.045
-538.193	-200.000	-0.005	-0.536
-537.179	-107.615	0.094	0.021
-536.164	-44.585	0.229	0.115
-535.150	154.259	0.144	-0.199
-534.135	252.837	0.095	-0.164
-533.121	365.606	0.038	0.076
-532.106	174.421	0.190	-0.276
-531.091	205.456	-0.151	-0.236
-530.077	453.587	0.094	-0.210
-529.062	307.155	-0.214	-0.401
-528.048	800.000	0.047	-0.191
-527.033	138.534	0.123	0.163
-526.018	-13.774	-0.143	0.093
-525.004	216.243	0.071	-0.113
-523.989	-126.269	-0.136	-0.020
-522.975	-186.394	-0.380	-0.005
-521.960	198.784	-0.168	0.259
-520.945	-48.544	0.353	-0.170
-519.931	67.417	0.140	-0.143
-518.916	13.799	0.116	0.090
-517.902	-29.780	0.172	0.099
-516.887	72.865	-0.283	0.297
-515.872	291.277	0.160	0.292
-514.858	-69.377	-0.098	0.038
-513.843	-93.483	-0.223	-0.062
-512.829	-57.147	0.207	-0.092
-511.814	-200.000	-0.006	-0.159
-510.799	405.276	-0.059	0.125
-509.785	-45.678	-0.224	-0.111
-508.770	82.937	-0.182	-0.199
-507.756	-176.964	0.265	0.007
-506.741	800.000	-0.041	0.146
-505.726	800.000	-0.034	-0.130
-504.712	335.747	-0.083	0.162
-503.697	800.000	0.068	-0.203
-502.683	-107.289	-0.550	-0.121
-501.668	-200.000	-0.004	-0.123
-500.653	233.857	-0.049	-0.081
-499.639	-200.000	0.044	-0.235
-498.624	800.000	0.090	-0.350
-497.610	-200.000	-0.032	-0.414
-496.595	116.714	-0.053	-0.066
-495.581	274.883	0.041	-0.073
-494.566	-200.000	0.027	-0.251
-493.551	-117.080	-0.174	0.032
-492.537	-200.000	0.041	-0.442
-491.522	800.000	0.038	-0.137
-490.508	-5.069	-0.251	-0.173
-489.493	-45.241	0.095	0.047
-488.478	-43.575	-0.405	-0.205
-487.464	76.374	-0.188	0.200
-486.449	-25.193	-0.357	-0.212
-485.435	-97.791	-0.145	0.038
-484.420	-41.397	0.304	0.157
-483.405	11.301	-0.233	0.179
-482.391	-114.688	0.119	-0.023
-481.376	266.040	0.068	0.120
-480.362	196.411	-0.137	0.210
-479.347	-200.000	-0.020	-0.198
-478.332	-4.691	-0.279	0.193
-477.318	-153.724	-0.158	-0.011
-476.303	800.000	-0.049	0.159
-475.289	-200.000	-0.001	0.020
-474.274	251.566	-0.165	-0.281
-473.259	625.076	0.051	0.129
-472.245	-84.739	0.025	0.008
-471.230	-172.249	0.077	-0.002
-470.216	-200.000	-0.030	0.133
-469.201	-71.100	0.192	0.072
-468.186	-39.894	-0.168	-0.088
-467.172	800.000	0.046	0.146
-466.157	164.607	-0.210	0.297
-465.143	-22.976	0.276	0.167
-464.128	104.854	0.017	-0.021
-463.113	-178.688	-0.241	0.006
-462.099	738.923	-0.080	0.215
-461.084	-161.685	-0.202	-0.010
-460.070	229.020	0.044	-0.073
-459.055	37.817	-0.151	-0.134
-458.040	-156.054	-0.264	-0.017
-457.026	-79.691	0.199	0.067
-456.011	208.276	0.144	-0.225
-454.997	375.778	0.023	-0.047
-453.982	-40.164	-0.039	-0.021
-452.968	108.639	-0.145	0.174
-451.953	495.043	0.062	0.142
-450.938	-97.611	-0.267	-0.069
-449.924	800.000	0.083	0.270
-448.909	-92.476	0.378	0.106
-447.895	129.729	-0.137	0.176
-446.880	5.801	0.190	0.141
-445.865	213.010	-0.214	0.338
-444.851	-200.000	-0.024	0.256
-443.836	-15.568	0.065	0.041
-442.822	-200.000	0.004	0.220
-441.807	163.902	0.081	0.114
-440.792	257.880	-0.095	-0.163
-439.778	132.505	0.237	-0.306
-438.763	-200.000	0.007	0.190
-437.749	-33.475	-0.175	-0.097
-436.734	57.609	0.093	0.092
-435.719	-97.447	0.160	-0.042
-434.705	-200.000	-0.052	-0.455
-433.690	140.525	-0.147	0.195
-432.676	-200.000	-0.018	0.411
-431.661	404.912	-0.052	-0.111
-430.646	-71.951	-0.174	0.065
-429.632	320.139	-0.098	0.186
-428.617	-16.016	-0.286	0.183
-427.603	800.000	0.084	0.329
-426.588	-200.000	0.014	0.279
-425.573	675.541	0.133	0.346
-424.559	-158.106	0.384	0.023
-423.544	155.259	-0.099	0.137
-422.530	134.677	-0.074	0.096
-421.515	800.000	0.043	0.174
-420.500	-128.694	-0.121	0.017
-419.486	-37.103	0.040	0.021
-418.471	249.226	-0.102	0.172
-417.457	624.127	0.041	0.103
-416.442	324.551	0.127	-0.242
-415.428	-1.643	-0.144	-0.102
-414.413	-90.332	-0.082	0.024
-413.398	363.929	0.089	0.180
-412.384	495.423	0.179	0.413
-411.369	363.146	0.026	-0.052
-410.355	55.320	-0.102	-0.099
-409.340	-200.000	0.030	-0.207
-408.325	-75.229	0.108	0.039
-407.311	86.113	-0.429	0.473
-406.296	-42.198	-0.155	0.079
-405.282	99.640	0.085	0.099
-404.267	224.515	-0.172	0.279
-403.252	-153.083	0.184	-0.013
-402.238	63.360	-0.091	-0.091
-401.223	-101.599	0.260	0.063
-400.209	146.637	-0.261	-0.351
-399.194	-17.339	0.358	-0.225
-398.179	-40.325	0.155	0.081
-397.165	170.690	0.161	-0.231
-396.150	39.878	-0.190	-0.171
-395.136	368.824	-0.053	-0.107
-394.121	-200.000	-0.005	0.149
-393.106	2.608	-0.098	0.071
-392.092	-200.000	0.014	0.138
-391.077	-145.267	-0.164	0.015
-390.063	-109.188	0.200	-0.042
-389.048	-200.000	-0.053	-0.243
-388.033	32.541	-0.152	-0.131
-387.019	800.000	0.024	-0.086
-386.004	703.025	-0.115	0.304
-384.990	31.113	-0.241	-0.206
-383.975	87.033	-0.130	0.143
-382.960	-39.191	0.160	-0.084
-381.946	-111.596	0.177	-0.036
-380.931	-200.000	-0.007	-0.166
-379.917	-167.163	-0.448	-0.018
-378.902	800.000	0.027	0.095
-377.888	416.488	-0.063	-0.134
-376.873	-119.987	0.308	0.053
-375.858	-48.996	-0.070	-0.034
-374.844	-165.240	-0.292	0.013
-373.829	13.876	0.198	-0.154
-372.815	-25.063	0.088	0.052
-371.800	-97.438	-0.291	-0.076
-370.785	320.500	0.085	-0.161
-369.771	122.001	0.067	-0.083
-368.756	-200.000	-0.022	0.281
-367.742	-200.000	0.023	0.448
-366.727	94.602	0.125	-0.142
-365.712	-122.995	0.118	0.019
-364.698	-200.000	-0.030	0.000
-363.683	-156.395	-0.206	-0.013
-362.669	31.557	-0.182	0.157
-361.654	-109.589	0.103	-0.022
-360.639	800.000	0.026	0.109
-359.625	-124.978	0.159	0.025
-358.610	-169.151	0.140	-0.005
-357.596	-128.427	0.252	0.036
-356.581	213.242	-0.093	-0.146
-355.566	-200.000	-0.057	0.403
-354.552	-90.636	-0.283	0.082
-353.537	5.048	0.276	-0.203
-352.523	-138.106	0.282	0.031
-351.508	70.976	-0.226	0.234
-350.493	436.834	0.049	-0.107
-349.479	-118.374	0.375	-0.067
-348.464	20.588	-0.267	0.216
-347.450	-17.365	0.333	0.209
-346.435	23.593	0.010	0.008
-345.420	800.000	0.063	0.192
-344.406	149.981	0.021	-0.029
-343.391	396.499	-0.242	-0.505
-342.377	83.707	0.151	-0.164
-341.362	-158.404	-0.340	-0.020
-340.348	-41.978	-0.197	-0.101
-339.333	62.014	-0.146	-0.145
-338.318	378.037	-0.070	-0.143
-337.304	32.943	0.184	0.159
-336.289	-200.000	-0.028	-0.169
-335.275	-72.424	0.058	-0.021
-334.260	800.000	0.011	-0.032
-333.245	-200.000	-0.006	0.133
-332.231	800.000	-0.134	-0.411
-331.216	-200.000	-0.006	-0.192
-330.202	459.193	0.091	-0.202
-329.187	-200.000	0.029	-0.341
-328.172	137.636	-0.195	-0.255
-327.158	-127.587	0.191	-0.028
-326.143	800.000	0.052	0.146
-325.129	-101.712	0.425	-0.103
-324.114	-113.184	0.313	0.062
-323.099	198.423	-0.142	-0.216
-322.085	-200.000	0.016	-0.212
-321.070	-51.599	0.367	0.171
-320.056	-200.000	-0.045	0.447
-319.041	359.650	0.058	-0.115
-318.026	-115.870	-0.216	-0.040
-317.012	44.211	-0.226	-0.207
-315.997	-200.000	-0.034	0.441
-314.983	800.000	0.071	0.210
-313.968	-75.138	-0.112	0.040
-312.953	322.612	-0.080	0.151
-311.939	800.000	-0.067	-0.270
-310.924	68.461	0.181	0.185
-309.910	-104.085	0.467	0.108
-308.895	-200.000	0.013	0.234
-307.880	800.000	0.053	0.215
-306.866	-23.520	0.225	0.134
-305.851	-96.169	-0.326	0.086
-304.837	-48.210	-0.180	-0.087
-303.822	580.815	-0.040	-0.097
-302.807	110.048	0.106	0.126
-301.793	-200.000	-0.003	-0.119
-300.778	-84.552	0.178	-0.056
-299.764	-112.136	0.270	-0.054
-298.749	-37.773	0.181	0.096
-297.735	-23.071	0.286	-0.172
-296.720	120.175	0.165	0.205
-295.705	-5.778	0.292	-0.199
-294.691	6.088	-0.306	-0.226
-293.676	101.478	0.148	0.171
-292.662	45.052	0.061	0.056
-291.647	-133.551	0.322	0.040
-290.632	-119.974	0.260	-0.044
-289.618	-36.128	-0.187	-0.101
-288.603	-76.557	-0.320	0.112
-287.589	-200.000	-0.011	0.279
-286.574	-31.448	0.254	-0.142
-285.559	-132.391	-0.239	0.031
-284.545	-200.000	-0.041	-0.407
-283.530	-47.093	-0.295	-0.143
-282.516	142.696	0.016	-0.021
-281.501	-38.900	-0.376	-0.197
-280.486	27.482	0.114	0.096
-279.472	47.278	0.134	-0.124
-278.457	-18.517	-0.224	-0.139
-277.443	800.000	0.007	-0.019
-276.428	330.264	0.159	0.306
-275.413	589.703	-0.036	0.088
-274.399	-46.483	-0.222	-0.109
-273.384	280.116	-0.198	0.353
-272.370	419.752	0.107	0.228
-271.355	1.021	0.025	-0.018
-270.340	125.081	0.201	0.252
-269.326	-102.013	0.388	0.093
-268.311	61.922	0.237	0.235
-267.297	-144.939	0.288	0.026
-266.282	-29.033	-0.375	-0.214
-265.267	800.000	0.035	0.107
-264.253	30.922	0.181	0.154
-263.238	-200.000	-0.029	0.145
-262.224	196.141	0.078	-0.118
-261.209	-54.182	-0.135	-0.061
-260.195	392.058	0.089	0.184
-259.180	-169.452	0.456	0.017
-258.165	305.475	0.066	-0.122
-257.151	800.000	0.080	0.286
-256.136	-41.565	0.323	-0.165
-255.122	800.000	0.006	-0.021
-254.107	256.733	0.125	-0.214
-253.092	-25.225	0.109	-0.064
-252.078	252.940	-0.034	0.057
-251.063	-80.131	0.305	-0.102
-250.049	170.171	0.118	-0.168
-249.034	299.871	-0.066	0.122
-248.019	447.889	-0.079	-0.172
-247.005	-200.000	0.002	-0.083
-245.990	122.433	0.146	-0.182
-244.976	-200.000	0.027	-0.123
-243.961	-95.002	-0.196	0.053
-242.946	-200.000	0.005	0.030
-241.932	-37.309	-0.314	0.167
-240.917	800.000	0.123	-0.414
-239.903	-60.680	-0.060	0.025
-238.888	800.000	-0.089	-0.286
-237.873	-24.943	-0.078	-0.046
-236.859	558.624	0.172	0.413
-235.844	800.000	-0.055	0.159
-234.830	0.020	-0.174	0.123
-233.815	-144.268	-0.167	0.015
-232.800	194.846	0.083	-0.125
-231.786	700.239	-0.116	-0.304
-230.771	-200.000	0.012	0.122
-229.757	-59.073	-0.105	0.045
-228.742	-59.341	0.317	-0.135
-227.727	-200.000	0.001	0.074
-226.713	-144.262	-0.407	-0.038
-225.698	58.157	-0.266	0.259
-224.684	172.894	0.114	0.163
-223.669	-142.726	0.244	0.024
-222.655	-90.837	0.164	0.047
-221.640	732.129	-0.012	0.031
-220.625	130.997	0.104	0.133
-219.611	-102.119	-0.300	0.072
-218.596	-116.126	-0.231	0.043
-217.582	-167.094	-0.012	0.000
-216.567	-93.373	0.468	-0.129
-215.552	-200.000	0.000	-0.124
-214.538	-75.181	0.312	0.111
-213.523	686.435	0.095	0.247
-212.509	7.944	0.316	0.235
-211.494	123.968	-0.081	0.101
-210.479	41.086	-0.147	-0.132
-209.465	37.995	-0.213	-0.188
-208.450	105.496	-0.210	-0.247
-207.436	360.439	-0.148	0.295
-206.421	-61.971	0.127	-0.053
-205.406	228.045	-0.122	0.197
-204.392	-200.000	-0.042	0.290
-203.377	-200.000	-0.048	0.252
-202.363	103.728	0.277	0.323
-201.348	-200.000	-0.013	0.082
-200.333	-35.258	0.329	-0.178
-199.319	-115.564	0.263	-0.049
-198.304	617.427	-0.150	-0.375
-197.290	208.879	-0.105	0.163
-196.275	800.000	0.032	-0.128
-195.260	-51.627	0.423	0.196
-194.246	800.000	-0.103	-0.286
-193.231	71.664	0.082	-0.085
-192.217	800.000	0.069	-0.285
-191.202	800.000	-0.112	-0.407
-190.187	50.108	-0.116	0.108
-189.173	-57.964	-0.027	-0.012
-188.158	-134.428	0.173	0.021
-187.144	526.795	0.171	-0.400
-186.129	-77.489	0.083	0.028
-185.114	-164.221	0.153	0.007
-184.100	-174.677	0.079	-0.002
-183.085	800.000	-0.085	-0.344
-182.071	-64.060	-0.367	0.149
-181.056	800.000	0.029	-0.080
-180.042	-49.121	-0.189	-0.090
-179.027	7.068	0.194	-0.143
-178.012	-19.569	0.267	0.164
-176.998	-117.648	-0.120	-0.021
-175.983	277.811	-0.021	-0.036
-174.969	-200.000	-0.026	0.341
-173.954	-119.429	-0.214	0.037
-172.939	55.359	0.097	-0.093
-171.925	-65.586	-0.275	0.110
-170.910	-140.242	-0.182	0.019
-169.896	429.657	0.076	0.162
-168.881	-73.513	-0.171	-0.062
-167.866	416.536	0.121	0.257
-166.852	-161.924	-0.111	-0.006
-165.837	42.309	0.098	-0.088
-164.823	26.407	-0.050	0.042
-163.808	-87.592	0.177	0.053
-162.793	800.000	0.017	-0.049
-161.779	800.000	-0.037	-0.129
-160.764	84.155	0.083	-0.090
-159.750	-200.000	0.070	0.000
-158.735	-87.570	-0.163	0.049
-157.720	255.776	0.158	0.269
-156.706	105.743	-0.188	0.220
-155.691	27.804	-0.206	0.172
-154.677	-29.308	-0.232	0.132
-153.662	-200.000	0.018	0.251
-152.647	-56.039	0.088	-0.039
-151.633	-185.942	0.294	-0.004
-150.618	-200.000	-0.033	-0.187
-149.604	10.545	-0.277	-0.209
-148.589	134.914	0.064	-0.082
-147.574	207.100	-0.008	-0.013
-146.560	22.211	0.117	-0.095
-145.545	268.713	0.116	0.201
-144.531	-154.136	-0.043	0.003
-143.516	-200.000	-0.059	0.271
-142.502	-137.199	-0.222	-0.025
-141.487	-3.444	0.304	-0.209
-140.472	27.416	0.085	-0.071
-139.458	-200.000	0.079	0.368
-138.443	-47.699	-0.080	-0.038
-137.429	65.222	0.309	0.309
-136.414	-200.000	0.052	0.362
-135.399	-78.234	0.210	0.072
-134.385	-200.000	0.036	0.163
-133.370	-106.067	0.207	-0.046
-132.356	682.698	-0.066	-0.170
-131.341	-8.349	-0.034	-0.023
-130.326	121.452	-0.072	-0.089
-129.312	465.309	0.127	-0.281
-128.297	-200.000	0.014	-0.142
-127.283	-85.485	-0.052	0.016
-126.268	30.079	-0.157	0.133
-125.253	128.181	0.119	-0.149
-124.239	-200.000	-0.041	0.233
-123.224	-200.000	-0.023	-0.173
-122.210	275.276	0.117	-0.206
-121.195	381.793	-0.169	0.344
