DTS Sentinel unit serial number:	SN413079Multiplexer serial number:	ORYXHardware model number:	OX4-SRSoftware version number:	ORYX F/W v4.00 Oryx Data Collector v3.7.2.0data status	okinstallation	princeton_trtdifferential loss correction	single-endedforward channel	channel 4reverse channel	N/Adate	2019/09/14time	10:53:35forward acquisition time	60.00reverse acquisition time	0.00gamma	496.2192k internal	0.2296k external	0.2296temperature offset calibration	1.0146default loss term (dB/km)	0.3790temperature slope calibration	1.0000multiplexer offset coefficient	1.0000multiplexer slope coefficient	1.0000fibre end	0.00T internal ref (°C)	35.75T ext. ref 1 (°C)	4.34T ext. ref 2 (°C)	33.21length (m)	temperature (°C)	Stokes	anti-Stokes-747.200	800.000	-0.149	0.429
-746.185	800.000	-0.062	0.215
-745.171	-12.449	0.210	0.140
-744.156	97.855	-0.165	0.194
-743.142	-54.402	0.233	0.108
-742.127	-4.444	-0.184	0.130
-741.112	-200.000	0.012	-0.154
-740.098	35.858	-0.285	0.256
-739.083	328.529	0.048	-0.095
-738.069	-139.946	0.229	0.025
-737.054	-85.492	-0.087	-0.028
-736.039	68.417	-0.153	-0.160
-735.025	-45.904	0.228	0.115
-734.010	800.000	0.065	-0.225
-732.996	64.577	-0.236	-0.243
-731.981	-154.770	-0.082	0.006
-730.966	260.222	-0.141	-0.249
-729.952	440.606	0.023	-0.052
-728.937	-161.584	0.173	0.009
-727.923	-200.000	0.025	0.120
-726.908	-132.290	-0.300	-0.040
-725.894	-200.000	-0.037	0.194
-724.879	339.086	-0.042	-0.084
-723.864	800.000	-0.077	-0.239
-722.850	112.509	-0.038	-0.047
-721.835	800.000	0.092	-0.312
-720.821	666.908	-0.113	-0.299
-719.806	170.845	-0.125	-0.183
-718.791	-41.897	-0.087	-0.046
-717.777	-125.019	-0.189	-0.030
-716.762	106.086	-0.122	-0.147
-715.748	2.232	0.146	-0.107
-714.733	-58.338	0.028	0.012
-713.718	504.343	-0.122	-0.289
-712.704	-30.342	0.186	-0.108
-711.689	-44.119	-0.451	0.231
-710.675	-76.447	-0.177	0.063
-709.660	-189.027	-0.212	-0.003
-708.645	800.000	0.048	-0.149
-707.631	-200.000	-0.051	0.319
-706.616	368.771	0.114	0.235
-705.602	299.848	0.131	-0.246
-704.587	153.093	-0.178	0.249
-703.572	37.863	-0.120	0.109
-702.558	-27.125	-0.203	0.121
-701.543	-200.000	0.008	0.091
-700.529	800.000	0.043	-0.174
-699.514	675.276	0.140	-0.371
-698.499	-145.525	0.086	0.008
-697.485	800.000	0.073	0.310
-696.470	445.171	0.035	0.078
-695.456	800.000	-0.053	-0.165
-694.441	-124.111	0.376	0.060
-693.426	203.863	-0.042	0.066
-692.412	-82.975	0.166	0.054
-691.397	-97.872	0.130	-0.034
-690.383	-107.664	0.044	-0.010
-689.368	118.616	-0.179	0.225
-688.354	-143.200	-0.204	-0.020
-687.339	-158.872	-0.463	0.027
-686.324	800.000	0.106	0.307
-685.310	-94.670	0.189	-0.052
-684.295	63.742	-0.132	-0.135
-683.281	93.350	-0.209	0.241
-682.266	-53.142	0.214	-0.100
-681.251	-200.000	-0.088	-0.492
-680.237	-67.441	-0.163	-0.065
-679.222	-111.853	-0.086	-0.018
-678.208	-200.000	0.444	-0.002
-677.193	41.742	-0.095	-0.087
-676.178	800.000	0.059	0.251
-675.164	19.642	0.201	0.165
-674.149	-200.000	0.011	-0.232
-673.135	0.981	-0.171	0.125
-672.120	10.033	0.106	0.082
-671.105	-55.200	-0.220	-0.101
-670.091	-142.173	-0.059	-0.006
-669.076	-187.550	-0.279	-0.004
-668.062	267.390	0.063	-0.112
-667.047	-123.632	0.398	-0.064
-666.032	-74.673	0.239	0.088
-665.018	-136.687	-0.252	0.030
-664.003	-200.000	0.031	0.264
-662.989	-111.784	-0.277	0.057
-661.974	-2.254	-0.041	-0.029
-660.959	-200.000	-0.051	-0.232
-659.945	399.317	-0.101	-0.215
-658.930	25.705	-0.135	0.115
-657.916	-200.000	0.011	0.134
-656.901	-200.000	-0.057	-0.267
-655.886	4.969	-0.325	-0.244
-654.872	-200.000	0.017	-0.088
-653.857	52.522	0.079	-0.077
-652.843	268.355	0.100	-0.178
-651.828	-60.200	0.017	0.007
-650.814	-24.962	0.301	-0.182
-649.799	800.000	-0.126	-0.456
-648.784	-200.000	-0.030	-0.351
-647.770	-20.275	0.227	-0.142
-646.755	800.000	-0.061	-0.241
-645.741	60.054	0.056	-0.057
-644.726	80.048	-0.103	0.112
-643.711	186.556	-0.357	-0.542
-642.697	239.396	0.050	0.084
-641.682	-107.333	0.116	0.026
-640.668	247.806	0.116	0.200
-639.653	126.825	0.076	0.098
-638.638	-116.119	0.168	-0.032
-637.624	221.821	-0.089	0.145
-636.609	-77.089	-0.279	-0.099
-635.595	83.937	0.112	0.124
-634.580	-200.000	0.002	0.142
-633.565	800.000	-0.024	-0.105
-632.551	43.213	0.293	0.272
-631.536	89.645	-0.091	0.103
-630.522	101.867	-0.138	-0.163
-629.507	53.146	0.274	-0.267
-628.492	160.348	-0.050	-0.071
-627.478	50.599	-0.240	-0.231
-626.463	-200.000	-0.017	-0.108
-625.449	28.825	-0.136	-0.117
-624.434	272.028	-0.058	-0.104
-623.419	424.534	0.105	0.229
-622.405	32.115	-0.112	-0.098
-621.390	-77.604	-0.105	0.037
-620.376	-32.064	0.210	0.120
-619.361	800.000	-0.056	0.171
-618.346	236.553	-0.090	-0.152
-617.332	459.739	0.082	0.186
-616.317	51.042	0.126	0.121
-615.303	-136.763	0.137	-0.016
-614.288	-200.000	-0.151	0.000
-613.273	-200.000	-0.018	-0.233
-612.259	340.492	0.059	-0.117
-611.244	-200.000	-0.007	0.050
-610.230	1.909	0.201	-0.147
-609.215	45.279	0.086	0.081
-608.201	-106.495	0.318	-0.072
-607.186	-0.481	0.198	0.143
-606.171	-200.000	-0.012	0.273
-605.157	61.498	0.213	0.215
-604.142	-154.655	0.218	-0.015
-603.128	800.000	-0.057	-0.161
-602.113	-133.629	-0.233	-0.030
-601.098	-122.833	-0.079	-0.013
-600.084	234.231	0.053	-0.088
-599.069	-48.232	0.288	-0.141
-598.055	140.057	0.178	0.239
-597.040	160.511	0.142	0.201
-596.025	-200.000	0.007	-0.137
-595.011	-99.059	-0.175	-0.045
-593.996	-200.000	0.004	0.040
-592.982	304.701	0.179	-0.337
-591.967	99.664	0.103	-0.122
-590.952	119.142	-0.304	0.382
-589.938	15.841	0.204	-0.163
-588.923	-50.097	-0.113	-0.054
-587.909	-165.076	-0.482	0.022
-586.894	86.856	-0.057	-0.064
-585.879	-200.000	0.033	0.194
-584.865	-45.585	-0.116	-0.058
-583.850	-25.876	0.222	-0.133
-582.836	-77.709	-0.182	0.064
-581.821	178.941	-0.040	-0.060
-580.806	47.301	0.193	-0.183
-579.792	-149.811	-0.087	-0.007
-578.777	170.513	0.130	-0.189
-577.763	800.000	0.051	-0.145
-576.748	45.688	0.110	-0.103
-575.733	17.103	-0.320	0.257
-574.719	345.379	0.082	-0.164
-573.704	-8.424	-0.129	-0.088
-572.690	-200.000	0.001	0.035
-571.675	117.846	-0.181	-0.226
-570.661	34.656	-0.170	-0.151
-569.646	-123.559	0.208	-0.034
-568.631	108.274	-0.151	-0.183
-567.617	215.602	0.249	-0.401
-566.602	428.494	0.063	0.137
-565.588	-63.818	-0.381	0.158
-564.573	-60.558	-0.301	0.130
-563.558	139.438	0.115	-0.154
-562.544	-151.037	0.235	0.018
-561.529	157.765	0.149	-0.209
-560.515	29.433	0.055	-0.047
-559.500	-125.170	-0.080	0.012
-558.485	751.272	0.087	-0.238
-557.471	-97.989	-0.392	0.102
-556.456	-200.000	-0.053	0.000
-555.442	-69.969	0.300	0.116
-554.427	223.876	0.084	-0.138
-553.412	-28.027	0.217	-0.127
-552.398	800.000	0.056	-0.160
-551.383	-174.969	0.353	-0.010
-550.369	36.115	-0.137	-0.122
-549.354	-200.000	0.024	0.172
-548.339	-1.060	0.245	0.176
-547.325	621.858	0.061	0.155
-546.310	-200.000	-0.009	-0.109
-545.296	-51.272	0.061	0.029
-544.281	538.775	-0.161	-0.387
-543.266	4.261	-0.072	-0.054
-542.252	23.804	-0.144	-0.120
-541.237	83.637	0.092	0.102
-540.223	99.310	-0.037	-0.043
-539.208	-75.147	0.204	0.074
-538.193	-155.366	-0.180	-0.012
-537.179	-43.679	0.245	0.125
-536.164	-5.254	0.075	0.052
-535.150	158.140	-0.107	0.150
-534.135	800.000	0.057	0.242
-533.121	-200.000	0.004	-0.415
-532.106	-108.048	-0.129	0.028
-531.091	-55.121	0.066	-0.030
-530.077	85.774	0.052	-0.058
-529.062	-41.240	-0.144	0.075
-528.048	-113.992	-0.318	0.062
-527.033	126.504	0.023	0.030
-526.018	800.000	0.115	0.325
-525.004	219.688	0.087	0.141
-523.989	97.951	-0.201	0.235
-522.975	-118.437	-0.225	0.040
-521.960	17.045	0.467	-0.375
-520.945	-200.000	0.004	0.127
-519.931	-167.388	0.200	-0.008
-518.916	-61.047	0.052	-0.022
-517.902	371.330	0.040	-0.082
-516.887	-63.725	-0.288	0.119
-515.872	-141.885	0.319	-0.032
-514.858	99.369	-0.055	0.064
-513.843	-200.000	0.025	0.134
-512.829	-200.000	0.020	0.506
-511.814	-200.000	0.003	0.262
-510.799	539.156	-0.058	0.140
-509.785	198.974	0.066	-0.102
-508.770	-102.609	0.197	-0.048
-507.756	243.827	0.109	-0.184
-506.741	795.939	0.031	-0.086
-505.726	-200.000	0.013	0.228
-504.712	109.177	0.081	0.098
-503.697	-200.000	0.070	0.368
-502.683	-62.523	-0.123	0.052
-501.668	-94.884	-0.257	0.070
-500.653	34.233	-0.206	-0.182
-499.639	235.259	0.164	-0.275
-498.624	-120.173	-0.307	-0.053
-497.610	-156.879	0.337	0.021
-496.595	-93.565	-0.167	-0.047
-495.581	224.779	0.040	0.066
-494.566	-111.458	0.386	-0.079
-493.551	-65.087	-0.144	-0.059
-492.537	-200.000	-0.083	0.464
-491.522	-138.984	-0.317	-0.035
-490.508	-192.492	0.244	0.002
-489.493	-76.274	-0.380	-0.135
-488.478	50.441	-0.303	-0.290
-487.464	174.401	-0.048	0.070
-486.449	-200.000	-0.016	0.086
-485.435	-56.305	0.113	-0.051
-484.420	360.954	-0.046	-0.093
-483.405	147.848	0.227	-0.309
-482.391	-200.000	-0.010	-0.203
-481.376	3.553	-0.254	-0.187
-480.362	45.473	0.251	0.235
-479.347	81.927	0.045	-0.050
-478.332	-126.231	-0.135	-0.020
-477.318	-185.012	-0.157	-0.002
-476.303	-139.631	-0.116	0.013
-475.289	-200.000	-0.061	0.428
-474.274	60.810	0.036	-0.036
-473.259	306.685	-0.049	-0.093
-472.245	585.362	0.154	-0.383
-471.230	219.826	0.082	-0.133
-470.216	800.000	-0.088	-0.272
-469.201	5.521	-0.198	0.148
-468.186	-74.009	-0.133	-0.049
-467.172	-108.313	-0.138	-0.030
-466.157	63.661	-0.251	-0.255
-465.143	-200.000	-0.021	-0.147
-464.128	-41.309	0.164	-0.085
-463.113	-7.192	-0.207	0.142
-462.099	133.890	-0.068	0.089
-461.084	800.000	-0.037	-0.110
-460.070	175.349	-0.015	-0.023
-459.055	-200.000	-0.042	0.202
-458.040	392.896	0.045	-0.094
-457.026	160.555	0.108	0.152
-456.011	-26.893	-0.164	-0.097
-454.997	725.016	0.002	0.005
-453.982	-96.943	0.391	-0.104
-452.968	-200.000	-0.017	-0.166
-451.953	800.000	-0.065	-0.250
-450.938	366.032	-0.032	-0.066
-449.924	800.000	-0.029	0.124
-448.909	-127.963	-0.185	0.027
-447.895	-47.555	0.338	0.166
-446.880	-65.807	-0.246	0.099
-445.865	-200.000	-0.024	0.175
-444.851	-61.578	-0.219	-0.093
-443.836	89.095	0.151	0.170
-442.822	800.000	-0.044	0.144
-441.807	800.000	-0.014	0.059
-440.792	-176.263	-0.173	-0.005
-439.778	-79.082	-0.443	0.152
-438.763	-146.873	-0.198	-0.017
-437.749	431.265	0.047	-0.102
-436.734	260.056	-0.070	-0.123
-435.719	-69.858	0.356	0.137
-434.705	-157.387	0.402	-0.024
-433.690	800.000	-0.052	0.180
-432.676	485.535	0.126	-0.290
-431.661	-106.967	-0.273	0.061
-430.646	-28.413	-0.110	0.064
-429.632	-25.647	-0.223	0.133
-428.617	-26.931	-0.397	0.234
-427.603	107.312	-0.180	-0.217
-426.588	38.986	-0.240	0.216
-425.573	12.983	-0.101	-0.079
-424.559	-28.405	-0.294	-0.171
-423.544	-118.507	0.159	0.028
-422.530	18.233	-0.073	0.058
-421.515	-71.523	-0.339	0.128
-420.500	-9.251	-0.119	0.080
-419.486	-200.000	0.016	-0.325
-418.471	16.970	0.042	-0.034
-417.457	107.298	0.050	-0.060
-416.442	800.000	0.065	0.232
-415.428	-120.046	-0.236	-0.041
-414.413	253.653	0.105	0.180
-413.398	67.333	-0.206	0.212
-412.384	161.131	0.072	0.101
-411.369	-97.756	-0.033	-0.009
-410.355	-200.000	0.027	-0.185
-409.340	-200.000	-0.070	0.376
-408.325	-116.179	0.194	-0.036
-407.311	-45.442	-0.111	-0.056
-406.296	797.330	-0.042	0.118
-405.282	117.214	-0.016	0.020
-404.267	-131.974	0.259	-0.034
-403.252	-95.214	0.186	-0.051
-402.238	38.769	0.386	-0.347
-401.223	-18.533	0.173	-0.109
-400.209	250.599	-0.094	-0.160
-399.194	33.071	0.111	0.097
-398.179	-126.625	0.422	0.063
-397.165	-200.000	-0.012	-0.236
-396.150	-200.000	-0.038	0.383
-395.136	-83.785	-0.090	0.029
-394.121	454.813	-0.036	-0.079
-393.106	-137.872	-0.188	0.021
-392.092	-119.948	-0.209	-0.036
-391.077	-200.000	0.013	-0.140
-390.063	-200.000	0.042	0.225
-389.048	-67.213	0.021	0.008
-388.033	-85.549	-0.114	-0.036
-387.019	-200.000	-0.059	0.382
-386.004	272.178	-0.196	0.349
-384.990	-54.717	0.121	0.055
-383.975	355.767	0.150	-0.301
-382.960	800.000	-0.049	0.206
-381.946	-129.087	-0.104	-0.015
-380.931	-200.000	0.057	-0.266
-379.917	143.160	0.244	0.327
-378.902	-118.642	-0.203	0.036
-377.888	28.355	0.281	0.239
-376.873	-97.986	-0.213	0.055
-375.858	430.526	0.072	0.156
-374.844	0.431	0.199	0.143
-373.829	689.566	-0.054	0.143
-372.815	-200.000	0.010	-0.048
-371.800	325.952	-0.106	-0.205
-370.785	-200.000	-0.010	-0.110
-369.771	196.679	-0.084	0.129
-368.756	203.252	0.172	-0.268
-367.742	-117.163	-0.144	-0.026
-366.727	-200.000	0.001	0.263
-365.712	-40.045	-0.182	-0.096
-364.698	-144.161	0.165	-0.016
-363.683	96.845	0.069	0.080
-362.669	-90.580	-0.312	-0.091
-361.654	398.366	0.070	0.146
-360.639	-179.248	0.176	0.004
-359.625	-27.159	-0.161	-0.094
-358.610	-103.911	0.289	0.068
-357.596	475.901	-0.119	0.271
-356.581	-200.000	0.001	-0.218
-355.566	67.060	0.112	-0.115
-354.552	-24.967	-0.082	0.049
-353.537	656.331	-0.062	-0.161
-352.523	-28.972	-0.211	0.122
-351.508	37.166	-0.369	0.329
-350.493	-200.000	-0.011	0.215
-349.479	98.768	-0.121	0.141
-348.464	-44.210	0.225	0.114
-347.450	-171.105	-0.086	-0.003
-346.435	6.151	0.142	-0.106
-345.420	800.000	-0.039	-0.123
-344.406	73.877	0.188	-0.198
-343.391	-62.609	0.150	0.063
-342.377	34.549	-0.227	0.199
-341.362	209.455	-0.110	0.173
-340.348	168.048	0.046	-0.066
-339.333	-13.244	0.075	0.049
-338.318	4.947	-0.234	0.173
-337.304	64.944	-0.118	-0.120
-336.289	-158.434	-0.299	0.017
-335.275	-181.485	0.130	0.003
-334.260	313.325	-0.050	-0.094
-333.245	-200.000	0.003	0.311
-332.231	-9.142	-0.061	-0.041
-331.216	81.175	0.131	0.142
-330.202	28.336	-0.087	0.074
-329.187	-14.129	0.136	-0.088
-328.172	22.648	0.233	-0.192
-327.158	-66.484	-0.113	0.045
-326.143	-50.903	0.335	-0.158
-325.129	340.081	0.187	0.366
-324.114	68.623	-0.149	0.154
-323.099	-114.004	0.256	-0.050
-322.085	800.000	-0.052	-0.147
-321.070	800.000	0.041	0.180
-320.056	67.344	0.138	0.141
-319.041	-148.229	0.172	0.014
-318.026	-200.000	-0.001	-0.201
-317.012	-140.452	0.309	0.032
-315.997	-200.000	0.023	0.278
-314.983	-200.000	-0.004	-0.169
-313.968	-200.000	-0.040	-0.216
-312.953	-78.062	0.168	-0.058
-311.939	-165.672	0.155	-0.007
-310.924	-87.231	0.209	0.064
-309.910	-200.000	-0.018	-0.087
-308.895	-200.000	0.016	-0.173
-307.880	-52.906	-0.264	-0.122
-306.866	-79.296	-0.134	0.046
-305.851	18.044	0.192	-0.154
-304.837	410.032	0.178	-0.380
-303.822	81.065	-0.323	0.350
-302.807	335.942	-0.051	0.100
-301.793	800.000	-0.090	0.280
-300.778	-200.000	-0.005	-0.073
-299.764	371.016	0.080	0.163
-298.749	-147.026	-0.053	-0.005
-297.735	233.604	0.021	-0.034
-296.720	-79.324	0.205	-0.070
-295.705	24.851	0.053	0.044
-294.691	800.000	0.132	-0.450
-293.676	-45.973	0.090	0.045
-292.662	49.227	0.168	-0.159
-291.647	226.592	-0.056	-0.092
-290.632	256.694	-0.057	-0.098
-289.618	-19.146	-0.073	0.046
-288.603	46.489	-0.355	0.330
-287.589	-98.154	-0.183	0.047
-286.574	-90.004	-0.395	0.116
-285.559	329.676	0.067	0.129
-284.545	-107.340	0.126	0.028
-283.530	91.067	-0.255	0.287
-282.516	-155.262	-0.380	0.025
-281.501	-154.765	-0.206	-0.014
-280.486	-139.914	0.207	-0.022
-279.472	-56.715	-0.170	0.075
-278.457	53.463	0.175	0.168
-277.443	-102.767	0.405	0.097
-276.428	66.755	0.110	0.112
-275.413	166.866	-0.124	-0.177
-274.399	-102.422	-0.271	0.065
-273.384	800.000	-0.045	-0.160
-272.370	-200.000	0.021	0.183
-271.355	-137.565	-0.298	-0.034
-270.340	-200.000	-0.072	0.457
-269.326	-200.000	0.005	-0.167
-268.311	800.000	-0.066	-0.193
-267.297	-64.673	0.021	-0.009
-266.282	435.390	-0.047	-0.103
-265.267	98.076	-0.392	-0.453
-264.253	5.038	0.310	0.229
-263.238	6.526	-0.168	0.125
-262.224	298.106	0.151	-0.278
-261.209	138.981	-0.029	-0.038
-260.195	-200.000	0.006	0.154
-259.180	18.567	0.185	0.148
-258.165	614.740	-0.098	0.246
-257.151	-200.000	0.032	0.184
-256.136	-200.000	-0.003	-0.321
-255.122	-107.793	-0.336	0.073
-254.107	-190.192	-0.105	-0.001
-253.092	170.955	0.190	-0.273
-252.078	5.344	-0.094	-0.069
-251.063	485.192	0.202	0.462
-250.049	-85.633	0.346	0.108
-249.034	-200.000	-0.003	0.268
-248.019	116.657	0.153	0.188
-247.005	-200.000	0.025	0.418
-245.990	-76.308	-0.380	-0.134
-244.976	617.209	-0.062	0.155
-243.961	-24.194	0.205	0.123
-242.946	-159.019	0.367	0.021
-241.932	-90.762	0.095	-0.027
-240.917	-56.260	-0.277	-0.123
-239.903	-54.607	0.251	-0.114
-238.888	36.443	0.255	0.225
-237.873	-136.001	0.198	-0.023
-236.859	-148.884	0.206	-0.017
-235.844	800.000	0.017	-0.057
-234.830	-200.000	0.002	0.061
-233.815	-58.282	0.102	0.045
-232.800	95.558	0.322	-0.368
-231.786	383.968	0.111	-0.229
-230.771	-1.911	-0.195	0.137
-229.757	145.172	-0.167	0.224
-228.742	800.000	-0.119	0.449
-227.727	-200.000	0.032	-0.233
-226.713	568.342	-0.068	0.166
-225.698	-69.024	0.312	0.121
-224.684	-200.000	-0.013	0.468
-223.669	100.239	0.207	0.241
-222.655	-86.943	0.167	-0.051
-221.640	-75.932	-0.210	-0.074
-220.625	162.329	0.213	-0.299
-219.611	438.135	-0.070	0.152
-218.596	-200.000	-0.028	-0.264
-217.582	-108.150	0.147	0.032
-216.567	23.591	-0.054	-0.044
-215.552	-182.904	0.059	0.001
-214.538	58.542	0.105	0.103
-213.523	164.751	0.153	0.216
-212.509	520.356	-0.055	0.129
-211.494	-200.000	-0.074	-0.497
-210.479	-64.735	0.526	-0.213
-209.465	-51.604	-0.283	0.132
-208.450	-16.534	0.185	0.118
-207.436	320.669	-0.114	-0.217
-206.421	20.220	0.179	-0.144
-205.406	676.226	0.118	-0.306
-204.392	-60.803	0.026	-0.011
-203.377	13.273	0.141	0.109
-202.363	-200.000	-0.028	-0.233
-201.348	-69.348	-0.124	-0.048
-200.333	-35.835	-0.103	0.056
-199.319	-130.722	-0.183	0.025
-198.304	-200.000	-0.023	0.262
-197.290	-61.714	0.234	-0.098
-196.275	18.728	-0.053	0.042
-195.260	137.074	0.159	0.208
-194.246	36.662	-0.072	0.064
-193.231	800.000	-0.058	-0.231
-192.217	375.253	-0.086	-0.175
-191.202	-200.000	0.017	0.374
-190.187	3.075	-0.018	0.013
-189.173	-32.836	-0.028	0.015
-188.158	-84.529	0.146	-0.046
-187.144	-12.179	-0.106	0.069
-186.129	-114.260	0.163	-0.032
-185.114	-113.837	-0.178	-0.035
-184.100	-153.351	-0.106	0.007
-183.085	-14.840	-0.056	-0.036
-182.071	-49.727	0.233	-0.111
-181.056	-200.000	-0.049	0.312
-180.042	131.399	-0.120	0.154
-179.027	313.365	0.025	0.046
-178.012	-67.754	0.186	-0.073
-176.998	800.000	0.047	-0.134
-175.983	-92.015	-0.458	0.129
-174.969	14.204	0.299	-0.233
-173.954	141.372	-0.107	-0.141
-172.939	-95.016	-0.443	-0.120
-171.925	35.933	0.124	-0.109
-170.910	282.962	0.059	0.106
-169.896	263.199	0.062	-0.108
-168.881	-200.000	-0.048	0.395
-167.866	317.151	-0.066	0.125
-166.852	-27.409	0.233	-0.136
-165.837	108.049	0.152	-0.181
-164.823	386.935	-0.058	-0.120
-163.808	-68.273	-0.087	0.034
-162.793	340.121	-0.087	-0.169
-161.779	38.656	-0.124	-0.110
-160.764	21.071	-0.167	0.135
-159.750	96.941	0.345	-0.394
-158.735	317.165	0.061	-0.116
-157.720	-200.000	0.044	-0.217
-156.706	-200.000	-0.036	-0.424
-155.691	662.734	-0.159	-0.409
-154.677	466.120	-0.092	0.206
-153.662	575.628	0.097	0.236
-152.647	517.984	-0.099	-0.232
-151.633	800.000	0.067	-0.250
-150.618	78.395	0.263	0.280
-149.604	127.069	-0.049	-0.062
-148.589	671.956	0.109	0.282
-147.574	800.000	0.162	0.542
-146.560	-170.750	0.306	-0.011
-145.545	800.000	0.082	0.263
-144.531	-200.000	-0.128	-0.001
-143.516	-107.210	0.286	-0.063
-142.502	-200.000	0.015	0.255
-141.487	-43.801	-0.291	-0.146
-140.472	-7.005	0.360	-0.244
-139.458	800.000	-0.094	-0.268
-138.443	149.498	0.290	-0.393
-137.429	800.000	0.078	-0.320
-136.414	-105.589	-0.266	-0.060
-135.399	-83.119	0.111	0.036
-134.385	101.982	0.097	-0.113
-133.370	800.000	0.031	0.131
-132.356	-122.238	-0.342	0.056
-131.341	-98.300	-0.137	-0.035
-130.326	-111.905	0.067	0.014
-129.312	-57.853	0.089	0.039
-128.297	35.563	0.300	-0.263
-127.283	-123.363	-0.474	-0.075
-126.268	-200.000	0.005	-0.027
-125.253	-16.868	-0.214	-0.135
-124.239	-200.000	0.005	-0.400
-123.224	-22.793	0.374	0.225
-122.210	-49.195	0.087	0.041
-121.195	800.000	0.087	0.324
