DTS Sentinel unit serial number:	SN413079Multiplexer serial number:	ORYXHardware model number:	OX4-SRSoftware version number:	ORYX F/W v4.00 Oryx Data Collector v3.7.2.0data status	okinstallation	princeton_trtdifferential loss correction	single-endedforward channel	channel 4reverse channel	N/Adate	2019/09/17time	15:17:35forward acquisition time	60.00reverse acquisition time	0.00gamma	496.2192k internal	0.2293k external	0.2293temperature offset calibration	0.9984default loss term (dB/km)	0.3790temperature slope calibration	1.0000multiplexer offset coefficient	1.0000multiplexer slope coefficient	1.0000fibre end	0.00T internal ref (°C)	37.87T ext. ref 1 (°C)	0.38T ext. ref 2 (°C)	34.82length (m)	temperature (°C)	Stokes	anti-Stokes-747.200	-200.000	0.002	-0.035
-746.185	35.344	-0.308	0.277
-745.171	406.242	-0.112	-0.241
-744.156	-91.578	-0.170	0.050
-743.142	182.765	0.066	-0.100
-742.127	-124.517	0.133	-0.021
-741.112	-200.000	0.037	-0.264
-740.098	-1.965	-0.048	0.034
-739.083	213.218	0.243	0.393
-738.069	125.702	0.187	0.242
-737.054	-200.000	0.060	-0.333
-736.039	-200.000	-0.017	-0.327
-735.025	15.073	-0.101	0.081
-734.010	-4.030	-0.076	0.054
-732.996	-7.449	0.155	-0.107
-731.981	-50.534	0.192	0.093
-730.966	44.862	-0.186	0.175
-729.952	215.851	-0.189	-0.307
-728.937	242.210	-0.139	-0.237
-727.923	-101.153	0.338	-0.085
-726.908	-36.297	-0.240	-0.132
-725.894	-33.961	0.460	-0.259
-724.879	-91.204	-0.160	-0.047
-723.864	-200.000	-0.028	0.395
-722.850	800.000	0.069	0.234
-721.835	15.190	0.032	0.026
-720.821	800.000	0.068	-0.270
-719.806	-33.546	0.161	0.091
-718.791	-26.701	-0.197	-0.118
-717.777	-200.000	0.000	0.236
-716.762	3.634	-0.318	0.237
-715.748	800.000	-0.056	0.170
-714.733	-146.124	0.164	0.015
-713.718	72.518	-0.134	0.142
-712.704	142.208	0.118	0.160
-711.689	376.457	0.040	-0.083
-710.675	-178.536	-0.425	0.010
-709.660	-27.925	-0.070	-0.041
-708.645	800.000	0.019	-0.060
-707.631	134.151	-0.161	-0.214
-706.616	-200.000	0.005	-0.151
-705.602	-200.000	-0.017	0.235
-704.587	-94.138	0.253	0.071
-703.572	-200.000	-0.026	0.311
-702.558	240.588	-0.115	-0.197
-701.543	-200.000	0.072	-0.366
-700.529	800.000	-0.104	-0.299
-699.514	-7.886	0.050	-0.035
-698.499	-175.668	-0.112	0.003
-697.485	-102.753	-0.134	0.033
-696.470	800.000	-0.021	-0.091
-695.456	19.051	0.209	-0.171
-694.441	800.000	0.043	-0.157
-693.426	300.624	-0.072	0.135
-692.412	800.000	0.076	0.295
-691.397	-61.203	0.093	0.040
-690.383	347.030	-0.021	-0.042
-689.368	-200.000	0.058	0.313
-688.354	-95.699	-0.226	0.062
-687.339	99.820	0.170	0.202
-686.324	66.905	0.233	0.242
-685.310	-113.289	-0.137	0.028
-684.295	800.000	-0.014	-0.058
-683.281	-200.000	-0.004	0.183
-682.266	366.478	0.045	-0.094
-681.251	86.190	0.141	-0.158
-680.237	42.124	0.226	-0.209
-679.222	-76.241	-0.030	0.011
-678.208	-100.595	-0.363	-0.091
-677.193	-21.151	-0.266	-0.166
-676.178	-114.804	0.095	0.019
-675.164	-69.902	0.356	0.138
-674.149	800.000	-0.074	-0.317
-673.135	-65.086	-0.104	-0.043
-672.120	295.916	-0.056	0.104
-671.105	-200.000	0.020	0.159
-670.091	418.120	-0.090	0.197
-669.076	43.706	-0.174	-0.162
-668.062	218.876	-0.067	0.109
-667.047	282.661	0.158	0.290
-666.032	68.869	-0.124	-0.130
-665.018	-118.842	-0.245	0.044
-664.003	73.841	0.199	0.213
-662.989	-10.553	0.436	0.295
-661.974	-38.706	0.248	0.133
-660.959	-166.151	0.132	0.006
-659.945	154.577	-0.104	-0.145
-658.930	-122.060	-0.352	-0.059
-657.916	58.082	0.114	0.114
-656.901	800.000	-0.099	-0.309
-655.886	-122.789	-0.180	0.030
-654.872	-75.716	-0.158	0.057
-653.857	4.720	0.306	-0.229
-652.843	-138.718	0.097	-0.011
-651.828	-70.305	-0.149	-0.058
-650.814	9.534	0.100	-0.078
-649.799	6.313	-0.184	0.140
-648.784	185.975	-0.134	0.202
-647.770	-200.000	-0.015	0.272
-646.755	607.065	-0.096	0.243
-645.741	-26.572	-0.230	0.137
-644.726	122.736	-0.090	-0.114
-643.711	332.195	0.116	0.228
-642.697	-200.000	-0.006	-0.148
-641.682	-83.204	-0.255	-0.083
-640.668	66.254	-0.197	-0.203
-639.653	-91.163	0.181	0.053
-638.638	-112.706	-0.162	0.033
-637.624	462.138	-0.200	-0.455
-636.609	800.000	-0.063	-0.265
-635.595	-63.293	-0.265	0.111
-634.580	800.000	-0.015	0.065
-633.565	105.600	0.225	-0.271
-632.551	171.753	0.122	-0.178
-631.536	-69.213	-0.299	-0.117
-630.522	-200.000	-0.044	0.250
-629.507	-38.532	0.284	-0.153
-628.492	-190.247	0.350	-0.004
-627.478	112.420	-0.305	-0.376
-626.463	135.861	0.192	-0.255
-625.449	18.950	0.180	0.147
-624.434	86.348	0.081	0.091
-623.419	800.000	0.084	0.295
-622.405	-38.935	-0.061	0.033
-621.390	173.551	0.203	0.298
-620.376	-9.989	0.086	0.058
-619.361	-96.226	0.358	0.097
-618.346	-132.426	-0.207	-0.027
-617.332	489.701	0.098	0.228
-616.317	-200.000	0.023	-0.124
-615.303	-102.551	0.314	0.077
-614.288	178.208	-0.191	0.284
-613.273	-1.084	0.310	0.223
-612.259	19.178	-0.375	0.306
-611.244	800.000	0.038	-0.119
-610.230	98.030	-0.278	0.326
-609.215	-200.000	-0.005	0.232
-608.201	-37.777	0.275	-0.149
-607.186	-63.048	-0.394	0.166
-606.171	52.699	0.017	-0.017
-605.157	-200.000	0.017	-0.324
-604.142	-200.000	0.020	-0.132
-603.128	-121.201	0.181	-0.031
-602.113	286.815	0.105	0.193
-601.098	-159.242	-0.072	0.004
-600.084	79.020	0.271	0.296
-599.069	-53.470	0.080	-0.037
-598.055	309.368	0.219	-0.417
-597.040	800.000	0.007	0.028
-596.025	730.322	0.067	-0.183
-595.011	-86.864	-0.311	-0.096
-593.996	-143.582	-0.251	0.024
-592.982	-200.000	0.060	-0.316
-591.967	800.000	0.088	0.287
-590.952	25.581	-0.319	0.270
-589.938	-200.000	-0.011	0.076
-588.923	-156.913	-0.513	0.032
-587.909	-200.000	0.051	-0.259
-586.894	-72.590	-0.541	-0.203
-585.879	-94.104	0.187	0.052
-584.865	192.052	0.215	-0.329
-583.850	-78.530	0.168	0.058
-582.836	-172.778	-0.151	-0.005
-581.821	-27.357	0.219	-0.130
-580.806	-68.859	0.132	-0.052
-579.792	-128.162	-0.206	-0.030
-578.777	-200.000	-0.033	-0.229
-577.763	-96.784	0.097	0.026
-576.748	-48.152	-0.080	-0.039
-575.733	167.922	-0.111	0.160
-574.719	43.920	0.276	0.257
-573.704	-10.309	-0.183	0.123
-572.690	-58.183	0.184	0.082
-571.675	-30.876	-0.091	0.052
-570.661	-35.546	-0.240	-0.132
-569.646	45.707	-0.231	-0.217
-568.631	800.000	-0.088	0.254
-567.617	-41.532	0.040	0.021
-566.602	47.249	-0.064	-0.060
-565.588	-24.305	-0.100	0.061
-564.573	800.000	0.140	-0.430
-563.558	-200.000	-0.004	-0.189
-562.544	129.808	-0.299	-0.389
-561.529	800.000	0.028	0.101
-560.515	6.114	0.200	0.151
-559.500	267.421	0.077	-0.136
-558.485	-78.562	-0.157	0.054
-557.471	112.368	-0.101	0.125
-556.456	-140.023	-0.347	-0.037
-555.442	-46.797	0.433	-0.215
-554.427	337.801	0.189	0.374
-553.412	-200.000	0.005	-0.044
-552.398	74.771	0.043	0.046
-551.383	-45.473	-0.153	0.077
-550.369	387.372	-0.056	-0.118
-549.354	-82.307	0.258	-0.085
-548.339	242.743	-0.102	0.173
-547.325	36.011	0.231	0.206
-546.310	156.931	0.103	0.145
-545.296	36.395	0.148	-0.132
-544.281	-116.006	0.024	0.005
-543.266	-85.592	-0.200	-0.063
-542.252	341.366	0.072	-0.144
-541.237	16.822	0.125	-0.100
-540.223	-179.481	-0.265	0.006
-539.208	185.114	-0.076	-0.114
-538.193	-200.000	-0.015	-0.286
-537.179	-10.682	-0.289	-0.194
-536.164	-170.622	0.250	-0.009
-535.150	-63.423	0.291	0.121
-534.135	-7.544	0.227	0.156
-533.121	7.990	-0.081	-0.061
-532.106	800.000	0.062	-0.247
-531.091	-156.944	-0.144	0.009
-530.077	680.034	0.014	-0.037
-529.062	-154.039	-0.156	-0.011
-528.048	-72.331	0.423	-0.159
-527.033	-71.572	0.350	0.133
-526.018	-57.211	-0.262	0.117
-525.004	-43.592	0.234	0.120
-523.989	-200.000	-0.025	-0.274
-522.975	800.000	-0.028	-0.090
-521.960	-200.000	-0.011	-0.185
-520.945	-63.620	-0.141	0.059
-519.931	-200.000	-0.013	-0.199
-518.916	211.900	0.234	-0.373
-517.902	-77.853	-0.292	-0.102
-516.887	-200.000	-0.039	0.320
-515.872	-200.000	0.028	0.521
-514.858	800.000	-0.085	-0.262
-513.843	236.579	-0.104	-0.174
-512.829	800.000	-0.021	0.080
-511.814	800.000	0.094	-0.383
-510.799	-138.308	-0.369	0.041
-509.785	-200.000	0.024	-0.346
-508.770	-126.107	0.248	-0.038
-507.756	800.000	-0.029	-0.118
-506.741	-200.000	0.021	0.206
-505.726	-37.257	0.245	0.133
-504.712	-118.648	0.145	0.026
-503.697	-7.726	-0.284	0.195
-502.683	439.858	-0.109	-0.241
-501.668	254.561	0.043	0.074
-500.653	800.000	0.043	-0.159
-499.639	248.919	-0.110	-0.188
-498.624	-84.557	-0.286	0.091
-497.610	-1.102	-0.336	0.241
-496.595	-27.977	-0.221	0.130
-495.581	93.824	-0.092	-0.105
-494.566	-200.000	-0.040	-0.179
-493.551	800.000	0.018	0.076
-492.537	-25.825	0.167	0.100
-491.522	139.386	0.109	0.145
-490.508	545.648	-0.130	-0.314
-489.493	-200.000	0.001	-0.013
-488.478	-28.563	0.063	0.037
-487.464	275.854	-0.290	0.521
-486.449	-200.000	0.073	0.328
-485.435	-130.628	-0.356	-0.049
-484.420	351.209	-0.031	0.063
-483.405	800.000	0.034	0.113
-482.391	-124.214	0.130	0.021
-481.376	284.023	0.151	-0.275
-480.362	800.000	-0.051	-0.156
-479.347	-16.476	0.044	0.028
-478.332	-111.378	-0.261	-0.054
-477.318	42.718	0.091	0.084
-476.303	800.000	-0.011	-0.041
-475.289	800.000	0.135	-0.383
-474.274	800.000	0.083	-0.292
-473.259	92.574	-0.163	0.186
-472.245	-200.000	0.040	-0.297
-471.230	400.539	0.151	0.320
-470.216	-52.666	-0.277	-0.129
-469.201	530.435	-0.110	-0.262
-468.186	800.000	-0.114	0.417
-467.172	90.867	-0.112	0.127
-466.157	800.000	0.029	-0.092
-465.143	-95.819	0.159	0.043
-464.128	146.749	0.034	-0.046
-463.113	-175.656	-0.357	0.010
-462.099	-39.010	-0.049	0.026
-461.084	121.578	-0.166	0.210
-460.070	37.479	0.057	0.051
-459.055	-116.620	-0.353	-0.066
-458.040	-61.855	-0.263	0.111
-457.026	-52.816	0.225	0.105
-456.011	800.000	0.060	-0.194
-454.997	-46.966	-0.024	0.012
-453.982	87.382	-0.166	-0.185
-452.968	-63.100	-0.215	0.090
-451.953	-200.000	0.105	0.000
-450.938	-64.985	-0.224	-0.092
-449.924	-200.000	-0.080	-0.381
-448.909	89.593	-0.109	0.123
-447.895	-200.000	0.002	-0.031
-446.880	281.440	-0.057	-0.103
-445.865	800.000	-0.061	-0.201
-444.851	-1.607	-0.306	-0.218
-443.836	499.817	0.023	-0.053
-442.822	800.000	-0.052	-0.171
-441.807	162.227	-0.153	-0.217
-440.792	-166.704	-0.135	-0.006
-439.778	-44.454	0.065	0.033
-438.763	-61.861	-0.266	-0.113
-437.749	-163.611	0.309	-0.015
-436.734	800.000	-0.166	-0.515
-435.719	611.480	-0.087	-0.220
-434.705	-17.350	-0.046	-0.029
-433.690	-124.152	0.042	0.007
-432.676	35.520	0.113	0.100
-431.661	21.529	0.157	0.129
-430.646	-82.690	-0.210	0.069
-429.632	135.156	0.207	0.271
-428.617	-118.481	0.104	-0.019
-427.603	-93.385	0.164	-0.046
-426.588	-104.500	0.103	0.024
-425.573	62.096	-0.271	0.273
-424.559	134.690	0.311	0.407
-423.544	775.782	-0.099	0.272
-422.530	-200.000	-0.036	0.251
-421.515	-101.065	0.169	0.042
-420.500	-96.356	0.278	-0.074
-419.486	496.838	0.061	-0.142
-418.471	300.066	0.051	-0.094
-417.457	-30.241	-0.180	0.103
-416.442	-136.195	-0.169	0.020
-415.428	236.813	-0.051	-0.085
-414.413	69.282	-0.214	0.222
-413.398	67.814	-0.088	-0.090
-412.384	-23.107	0.253	-0.154
-411.369	-200.000	0.007	-0.175
-410.355	-200.000	-0.009	0.146
-409.340	-200.000	-0.053	0.251
-408.325	-10.903	-0.208	0.139
-407.311	-147.918	0.309	-0.026
-406.296	66.443	-0.185	-0.190
-405.282	800.000	0.088	0.266
-404.267	-200.000	0.029	0.237
-403.252	208.070	0.139	0.220
-402.238	-91.943	-0.213	-0.061
-401.223	37.109	-0.360	-0.321
-400.209	-42.962	0.042	0.021
-399.194	-82.039	-0.173	-0.057
-398.179	236.628	-0.014	0.023
-397.165	-200.000	0.032	0.165
-396.150	-200.000	0.015	0.298
-395.136	-116.254	-0.145	0.027
-394.121	-60.944	-0.157	0.067
-393.106	209.749	-0.115	0.182
-392.092	-104.669	0.148	0.034
-391.077	28.753	-0.085	0.073
-390.063	23.064	0.274	-0.227
-389.048	-168.769	-0.208	-0.008
-388.033	-26.857	0.218	-0.129
-387.019	-98.247	0.107	0.028
-386.004	-59.568	0.226	0.098
-384.990	-150.117	-0.107	0.008
-383.975	15.623	-0.098	-0.077
-382.960	-66.421	0.302	0.121
-381.946	0.162	0.053	-0.038
-380.931	-132.175	0.385	-0.050
-379.917	550.473	0.056	-0.135
-378.902	-184.466	-0.257	0.004
-377.888	341.557	-0.167	0.329
-376.873	148.554	0.135	-0.184
-375.858	-158.232	0.200	-0.012
-374.844	-111.109	-0.112	-0.023
-373.829	800.000	0.067	-0.276
-372.815	-200.000	-0.037	-0.437
-371.800	40.896	0.264	0.240
-370.785	800.000	-0.107	-0.303
-369.771	659.646	0.075	-0.195
-368.756	-200.000	-0.010	0.160
-367.742	800.000	0.062	0.221
-366.727	-79.779	0.112	-0.038
-365.712	222.792	0.085	0.137
-364.698	304.239	-0.079	0.148
-363.683	800.000	0.046	0.199
-362.669	137.593	-0.092	-0.121
-361.654	0.790	0.222	-0.160
-360.639	301.791	0.041	0.077
-359.625	-100.685	0.122	0.030
-358.610	705.947	-0.163	0.433
-357.596	4.460	-0.093	-0.069
-356.581	-90.435	-0.205	0.060
-355.566	-123.017	0.277	0.045
-354.552	-24.648	0.152	-0.091
-353.537	425.081	0.138	0.299
-352.523	16.993	0.098	-0.078
-351.508	-73.719	0.210	0.077
-350.493	39.243	0.263	0.237
-349.479	770.570	-0.035	-0.097
-348.464	449.389	-0.052	0.116
-347.450	800.000	-0.098	-0.326
-346.435	800.000	0.072	-0.255
-345.420	-27.086	-0.160	0.094
-344.406	-200.000	-0.026	0.167
-343.391	-200.000	0.056	-0.254
-342.377	-131.664	0.145	-0.019
-341.362	-200.000	-0.054	-0.289
-340.348	-38.161	0.140	0.075
-339.333	646.853	0.123	0.317
-338.318	17.382	0.173	0.138
-337.304	17.308	-0.065	-0.052
-336.289	-200.000	0.009	0.084
-335.275	-64.013	0.021	-0.009
-334.260	360.143	-0.077	0.156
-333.245	-200.000	0.032	0.148
-332.231	11.005	-0.128	0.098
-331.216	-84.933	0.108	-0.034
-330.202	53.016	0.176	0.169
-329.187	130.300	0.034	0.044
-328.172	291.829	-0.076	0.140
-327.158	321.926	0.154	0.295
-326.143	-168.141	-0.150	-0.006
-325.129	-35.562	-0.164	-0.089
-324.114	115.019	0.105	-0.129
-323.099	-118.370	0.037	-0.007
-322.085	-118.011	-0.301	0.054
-321.070	479.144	0.210	-0.479
-320.056	-59.149	-0.266	0.115
-319.041	614.549	0.103	0.260
-318.026	449.935	-0.068	0.151
-317.012	800.000	0.042	0.144
-315.997	14.207	0.191	-0.150
-314.983	-62.551	-0.272	-0.114
-313.968	-197.140	-0.219	0.001
-312.953	42.785	-0.174	-0.160
-311.939	-86.550	0.254	-0.078
-310.924	469.939	-0.071	-0.160
-309.910	40.695	0.166	-0.151
-308.895	-35.783	-0.122	0.067
-307.880	296.535	-0.093	-0.171
-306.866	-168.336	0.439	0.017
-305.851	800.000	0.018	-0.069
-304.837	5.104	-0.133	0.098
-303.822	-133.962	-0.308	-0.038
-302.807	244.144	0.072	-0.121
-301.793	-200.000	0.011	0.502
-300.778	800.000	0.062	-0.187
-299.764	-110.146	-0.262	0.055
-298.749	60.339	-0.064	-0.064
-297.735	-200.000	0.033	0.305
-296.720	149.032	-0.069	-0.093
-295.705	4.341	-0.123	0.091
-294.691	-124.088	-0.401	-0.063
-293.676	22.078	-0.240	-0.197
-292.662	800.000	-0.076	-0.218
-291.647	210.358	-0.027	-0.042
-290.632	-132.263	-0.126	-0.016
-289.618	17.517	0.321	-0.256
-288.603	-30.655	0.180	0.103
-287.589	-200.000	0.019	-0.216
-286.574	-91.338	0.113	0.033
-285.559	-115.186	-0.092	0.017
-284.545	-89.967	0.141	-0.041
-283.530	225.280	0.109	0.177
-282.516	-1.365	-0.242	0.171
-281.501	800.000	-0.031	0.102
-280.486	-91.962	0.210	-0.060
-279.472	-76.339	0.253	-0.090
-278.457	-200.000	-0.011	0.048
-277.443	190.779	-0.120	0.182
-276.428	-200.000	0.015	-0.181
-275.413	73.457	0.226	0.238
-274.399	430.449	0.070	-0.152
-273.384	-22.041	0.083	0.051
-272.370	-200.000	0.083	0.382
-271.355	-148.727	0.090	0.007
-270.340	-200.000	-0.056	0.274
-269.326	37.788	-0.207	-0.185
-268.311	19.901	-0.272	-0.220
-267.297	-200.000	-0.032	-0.320
-266.282	287.502	-0.119	0.217
-265.267	-114.451	0.449	0.087
-264.253	-82.796	0.154	0.050
-263.238	25.352	0.280	-0.234
-262.224	-176.727	0.256	-0.007
-261.209	535.779	0.028	0.066
-260.195	-43.400	0.318	0.161
-259.180	287.811	0.083	0.151
-258.165	-70.020	-0.367	-0.140
-257.151	-58.200	0.254	0.111
-256.136	101.403	-0.154	0.180
-255.122	-15.626	-0.313	-0.200
-254.107	-167.073	-0.235	0.010
-253.092	370.750	0.131	0.267
-252.078	-104.165	-0.179	-0.042
-251.063	413.319	-0.130	0.278
-250.049	31.596	0.317	0.274
-249.034	800.000	-0.062	0.260
-248.019	106.290	0.270	-0.321
-247.005	-44.918	-0.306	-0.153
-245.990	115.522	0.039	0.048
-244.976	-171.153	0.190	0.006
-243.961	-200.000	-0.028	-0.203
-242.946	38.377	0.070	-0.063
-241.932	85.646	-0.045	0.050
-240.917	774.402	0.106	-0.290
-239.903	135.658	-0.207	0.271
-238.888	-50.830	-0.192	-0.091
-237.873	-125.264	0.106	0.016
-236.859	-134.630	0.502	-0.061
-235.844	-48.371	0.200	0.097
-234.830	-146.040	0.267	0.024
-233.815	389.630	0.078	0.163
-232.800	618.809	-0.049	-0.122
-231.786	29.308	0.121	-0.103
-230.771	-135.321	0.175	0.021
-229.757	613.823	-0.056	-0.139
-228.742	-146.611	-0.359	-0.031
-227.727	24.433	0.270	0.224
-226.713	136.372	0.051	-0.067
-225.698	145.768	-0.183	-0.246
-224.684	-35.912	0.117	-0.064
-223.669	-93.152	0.311	-0.087
-222.655	-170.326	0.288	-0.010
-221.640	-174.901	-0.136	0.004
-220.625	800.000	0.033	-0.137
-219.611	-93.860	0.239	0.066
-218.596	-8.966	-0.074	-0.050
-217.582	316.063	-0.232	0.439
-216.567	-200.000	0.014	-0.117
-215.552	55.538	-0.212	-0.205
-214.538	800.000	-0.025	0.086
-213.523	-66.195	-0.065	-0.026
-212.509	-200.000	-0.031	0.140
-211.494	-200.000	-0.041	-0.225
-210.479	-76.470	-0.234	0.082
-209.465	457.493	-0.042	-0.093
-208.450	87.006	0.131	0.145
-207.436	-200.000	0.037	-0.262
-206.421	262.895	0.224	-0.390
-205.406	-19.826	0.053	0.033
-204.392	91.120	-0.117	0.132
-203.377	-200.000	-0.020	0.563
-202.363	-21.207	-0.227	0.139
-201.348	-109.684	-0.289	-0.061
-200.333	-112.833	-0.106	0.021
-199.319	-88.728	0.216	0.064
-198.304	-160.856	-0.330	0.017
-197.290	-10.449	0.132	0.087
-196.275	-88.761	-0.149	-0.044
-195.260	-200.000	-0.062	-0.500
-194.246	-73.664	0.267	0.098
-193.231	-200.000	0.021	-0.319
-192.217	500.402	0.104	0.240
-191.202	-200.000	0.004	0.310
-190.187	-200.000	0.000	0.134
-189.173	565.631	-0.191	-0.464
-188.158	463.882	0.097	-0.217
-187.144	-200.000	0.053	0.265
-186.129	276.972	-0.235	-0.419
-185.114	0.461	0.372	0.266
-184.100	159.538	0.113	-0.157
-183.085	445.942	0.180	-0.395
-182.071	387.959	-0.006	0.013
-181.056	459.623	-0.098	-0.218
-180.042	226.432	0.114	0.186
-179.027	248.262	0.163	0.276
-178.012	-123.298	0.207	-0.033
-176.998	-200.000	0.035	0.489
-175.983	409.302	0.129	-0.274
-174.969	800.000	-0.013	0.051
-173.954	-140.202	0.052	0.005
-172.939	-200.000	0.021	0.367
-171.925	-200.000	0.004	0.096
-170.910	652.141	0.088	-0.227
-169.896	136.450	0.020	0.026
-168.881	-14.601	0.186	-0.120
-167.866	-140.740	0.316	0.033
-166.852	-2.317	0.228	0.160
-165.837	153.276	-0.321	0.439
-164.823	150.805	0.155	-0.210
-163.808	25.285	0.106	0.088
-162.793	98.403	-0.148	-0.170
-161.779	244.277	0.171	-0.287
-160.764	271.489	0.139	0.244
-159.750	800.000	-0.099	0.369
-158.735	-46.898	0.167	-0.081
-157.720	92.772	-0.082	-0.092
-156.706	-163.375	0.397	0.019
-155.691	-158.456	-0.432	0.025
-154.677	-133.011	-0.228	-0.029
-153.662	253.133	-0.053	-0.090
-152.647	-89.050	0.141	0.042
-151.633	-77.599	-0.248	-0.086
-150.618	-26.602	-0.250	0.147
-149.604	-8.080	0.063	0.042
-148.589	-103.932	-0.188	-0.044
-147.574	800.000	0.075	0.222
-146.560	-45.545	-0.177	0.087
-145.545	138.232	-0.138	0.181
-144.531	570.692	-0.099	-0.242
-143.516	172.854	0.173	-0.249
-142.502	-1.214	0.100	-0.070
-141.487	-22.936	0.347	0.209
-140.472	-200.000	0.025	0.463
-139.458	-92.936	-0.156	-0.044
-138.443	61.900	0.183	-0.182
-137.429	-139.351	0.179	0.019
-136.414	-4.472	-0.134	0.092
-135.399	26.379	0.137	0.114
-134.385	-200.000	0.005	-0.216
-133.370	-200.000	0.011	0.140
-132.356	-47.564	0.036	-0.017
-131.341	800.000	0.019	0.077
-130.326	76.158	-0.276	-0.292
-129.312	-150.820	-0.236	0.018
-128.297	-98.861	-0.434	0.110
-127.283	322.193	-0.018	0.034
-126.268	-62.700	-0.469	-0.194
-125.253	-144.679	0.290	0.027
-124.239	-48.562	-0.357	0.172
-123.224	-170.020	-0.315	-0.011
-122.210	800.000	-0.060	0.172
-121.195	-200.000	0.040	-0.193
-120.180	-49.387	-0.194	0.092
