DTS Sentinel unit serial number:	SN413079Multiplexer serial number:	ORYXHardware model number:	OX4-SRSoftware version number:	ORYX F/W v4.00 Oryx Data Collector v3.7.2.0data status	okinstallation	princeton_trtdifferential loss correction	single-endedforward channel	channel 4reverse channel	N/Adate	2019/09/12time	06:31:11forward acquisition time	60.00reverse acquisition time	0.00gamma	496.2192k internal	0.2307k external	0.2307temperature offset calibration	1.0060default loss term (dB/km)	0.3790temperature slope calibration	1.0000multiplexer offset coefficient	1.0000multiplexer slope coefficient	1.0000fibre end	0.00T internal ref (°C)	32.14T ext. ref 1 (°C)	1.58T ext. ref 2 (°C)	27.30length (m)	temperature (°C)	Stokes	anti-Stokes-747.200	800.000	-0.032	-0.110
-746.185	-84.291	-0.129	0.042
-745.171	-127.454	0.118	0.017
-744.156	124.895	-0.231	0.296
-743.142	-128.212	-0.176	0.026
-742.127	118.375	0.214	0.269
-741.112	362.026	0.054	-0.110
-740.098	185.187	-0.142	0.214
-739.083	-83.100	0.044	0.014
-738.069	266.267	0.187	0.333
-737.054	-171.997	0.142	0.005
-736.039	-99.663	-0.304	-0.077
-735.025	-97.247	0.374	-0.099
-734.010	-77.821	0.173	0.061
-732.996	-152.008	0.113	0.008
-731.981	98.520	0.108	-0.126
-730.966	-99.389	-0.411	0.105
-729.952	149.175	0.087	0.120
-728.937	-16.665	-0.152	-0.098
-727.923	236.605	-0.260	0.437
-726.908	-24.977	-0.217	0.131
-725.894	-143.094	-0.188	-0.018
-724.879	156.030	0.183	0.256
-723.864	-200.000	-0.009	0.129
-722.850	-135.738	0.076	-0.009
-721.835	-83.920	-0.048	0.015
-720.821	66.086	-0.160	-0.165
-719.806	278.518	0.091	-0.165
-718.791	-128.335	0.056	0.008
-717.777	68.959	-0.353	-0.369
-716.762	-54.803	0.070	-0.032
-715.748	-102.279	0.288	0.070
-714.733	-200.000	-0.026	0.123
-713.718	-130.021	-0.137	-0.019
-712.704	19.316	-0.166	-0.136
-711.689	-200.000	-0.025	0.206
-710.675	159.476	0.175	-0.248
-709.660	800.000	0.065	0.234
-708.645	-200.000	0.070	0.364
-707.631	144.791	-0.059	-0.081
-706.616	-138.690	-0.077	0.009
-705.602	-78.167	0.261	-0.091
-704.587	23.496	-0.145	0.121
-703.572	-200.000	-0.007	0.179
-702.558	-200.000	0.006	0.132
-701.543	84.278	0.186	-0.206
-700.529	-125.231	-0.296	0.046
-699.514	175.375	-0.122	-0.180
-698.499	-171.766	0.176	-0.006
-697.485	-200.000	0.014	0.192
-696.470	322.703	0.080	-0.154
-695.456	-178.074	-0.187	-0.005
-694.441	166.481	0.149	-0.215
-693.426	109.244	0.279	-0.339
-692.412	800.000	-0.082	-0.276
-691.397	-200.000	-0.031	-0.207
-690.383	-25.041	-0.121	-0.073
-689.368	138.987	0.154	-0.205
-688.354	-52.613	-0.238	0.112
-687.339	800.000	0.078	-0.249
-686.324	800.000	-0.020	0.066
-685.310	800.000	-0.127	-0.515
-684.295	574.529	-0.043	-0.108
-683.281	52.479	0.189	-0.183
-682.266	104.024	0.151	-0.180
-681.251	800.000	0.064	-0.219
-680.237	422.337	-0.077	-0.168
-679.222	296.724	-0.135	0.252
-678.208	-81.802	0.067	0.022
-677.193	100.511	-0.154	-0.181
-676.178	265.107	0.170	-0.301
-675.164	800.000	0.044	0.141
-674.149	65.505	0.126	-0.129
-673.135	32.842	-0.197	-0.173
-672.120	-102.949	-0.196	0.047
-671.105	-121.707	-0.047	-0.008
-670.091	800.000	-0.040	-0.167
-669.076	-200.000	-0.013	0.062
-668.062	-74.859	-0.195	-0.071
-667.047	-21.339	0.492	-0.305
-666.032	-181.054	0.113	0.002
-665.018	-190.161	-0.166	0.002
-664.003	130.076	0.140	0.181
-662.989	445.708	-0.123	-0.274
-661.974	-200.000	-0.016	0.075
-660.959	-200.000	-0.027	0.193
-659.945	158.570	-0.017	-0.024
-658.930	-200.000	0.001	-0.078
-657.916	-12.992	0.184	0.122
-656.901	-200.000	-0.008	-0.162
-655.886	97.789	-0.040	0.046
-654.872	109.162	0.066	-0.080
-653.857	144.878	0.093	-0.127
-652.843	800.000	-0.066	0.240
-651.828	148.366	-0.047	-0.065
-650.814	20.523	-0.194	0.159
-649.799	-14.668	-0.416	-0.271
-648.784	-120.188	-0.279	0.048
-647.770	-126.127	-0.250	0.038
-646.755	-119.778	-0.394	-0.069
-645.741	800.000	-0.092	0.355
-644.726	-168.233	-0.532	0.021
-643.711	-200.000	-0.011	0.106
-642.697	15.384	0.096	-0.077
-641.682	70.161	0.225	-0.235
-640.668	800.000	-0.074	0.275
-639.653	718.997	-0.079	0.213
-638.638	-200.000	0.047	0.284
-637.624	636.712	-0.093	-0.240
-636.609	-200.000	0.009	-0.122
-635.595	-200.000	0.005	-0.218
-634.580	152.732	0.012	0.017
-633.565	-68.067	0.287	-0.113
-632.551	-200.000	0.028	-0.204
-631.536	174.705	-0.174	-0.255
-630.522	11.155	0.105	0.082
-629.507	237.461	0.285	-0.479
-628.492	531.662	0.153	-0.366
-627.478	-33.996	-0.255	-0.142
-626.463	200.066	0.161	-0.250
-625.449	-200.000	0.086	-0.458
-624.434	163.697	-0.051	0.072
-623.419	72.762	0.172	-0.182
-622.405	0.265	0.154	-0.111
-621.390	-9.700	-0.223	-0.150
-620.376	1.795	0.263	-0.192
-619.361	-113.744	0.345	-0.068
-618.346	70.413	-0.071	-0.074
-617.332	64.976	-0.206	0.211
-616.317	-22.851	0.098	-0.060
-615.303	57.048	0.180	0.178
-614.288	170.251	-0.182	0.263
-613.273	-10.400	0.153	-0.103
-612.259	800.000	-0.024	-0.072
-611.244	-92.210	-0.151	0.043
-610.230	-23.405	0.213	-0.130
-609.215	-41.110	-0.243	-0.127
-608.201	228.574	0.046	-0.076
-607.186	-64.096	0.270	-0.111
-606.171	-122.390	0.181	-0.030
-605.157	-14.848	-0.083	0.054
-604.142	-70.291	0.094	-0.036
-603.128	13.413	-0.331	-0.260
-602.113	225.967	0.078	0.127
-601.098	800.000	-0.019	-0.071
-600.084	143.340	0.146	-0.197
-599.069	-200.000	0.005	-0.040
-598.055	348.298	-0.169	0.337
-597.040	183.365	-0.227	-0.340
-596.025	93.136	-0.109	-0.124
-595.011	-200.000	0.049	-0.354
-593.996	-200.000	0.014	-0.344
-592.982	-64.325	0.295	-0.121
-591.967	-51.655	-0.258	-0.122
-590.952	32.952	0.126	-0.110
-589.938	776.204	-0.144	-0.397
-588.923	-200.000	0.004	-0.135
-587.909	-52.402	-0.210	0.098
-586.894	340.752	-0.137	0.270
-585.879	241.003	-0.134	0.226
-584.865	800.000	0.017	0.048
-583.850	-47.086	-0.098	0.048
-582.836	52.677	-0.304	-0.294
-581.821	114.210	0.095	-0.116
-580.806	800.000	-0.085	-0.260
-579.792	13.128	-0.078	-0.061
-578.777	800.000	0.139	-0.529
-577.763	-200.000	-0.014	-0.151
-576.748	-7.638	-0.201	-0.137
-575.733	570.566	0.070	-0.173
-574.719	134.824	-0.227	0.298
-573.704	-90.256	0.185	-0.054
-572.690	-200.000	-0.021	0.099
-571.675	92.182	-0.168	-0.191
-570.661	-98.998	0.294	-0.075
-569.646	-148.643	0.290	0.024
-568.631	-56.078	0.338	0.152
-567.617	-200.000	-0.067	0.368
-566.602	-87.672	0.356	0.108
-565.588	800.000	-0.038	-0.119
-564.573	-200.000	0.008	0.160
-563.558	108.332	-0.030	-0.036
-562.544	-200.000	-0.035	-0.276
-561.529	0.765	0.147	-0.106
-560.515	-138.715	-0.265	0.029
-559.500	306.622	0.032	0.060
-558.485	125.354	-0.076	0.096
-557.471	311.167	0.119	0.226
-556.456	-131.485	-0.312	0.042
-555.442	-139.802	-0.407	0.044
-554.427	-200.000	0.010	0.172
-553.412	-75.718	-0.211	0.076
-552.398	48.199	-0.129	-0.122
-551.383	-91.481	-0.198	0.057
-550.369	546.483	-0.039	0.094
-549.354	-79.799	-0.152	0.052
-548.339	-200.000	-0.011	0.184
-547.325	-200.000	0.007	-0.068
-546.310	543.303	-0.041	-0.099
-545.296	345.634	0.120	-0.238
-544.281	800.000	-0.046	0.174
-543.266	445.311	0.144	0.320
-542.252	-67.463	0.251	0.099
-541.237	-94.149	-0.115	0.032
-540.223	-157.868	0.068	-0.004
-539.208	-200.000	-0.031	-0.548
-538.193	120.532	0.208	-0.261
-537.179	-200.000	-0.051	0.228
-536.164	-68.757	-0.078	0.030
-535.150	800.000	-0.092	-0.283
-534.135	800.000	0.010	0.033
-533.121	-200.000	-0.004	0.317
-532.106	-72.493	0.169	-0.063
-531.091	26.990	0.111	-0.094
-530.077	156.640	-0.028	-0.040
-529.062	-200.000	0.033	0.267
-528.048	-68.057	0.233	0.092
-527.033	87.197	-0.213	0.238
-526.018	-31.847	-0.018	0.010
-525.004	800.000	0.076	0.213
-523.989	-39.482	0.128	0.068
-522.975	-92.495	-0.181	0.051
-521.960	-200.000	0.002	-0.048
-520.945	469.116	-0.161	0.364
-519.931	800.000	0.042	0.130
-518.916	-32.400	-0.124	0.069
-517.902	43.582	0.103	0.095
-516.887	229.494	-0.213	-0.350
-515.872	38.251	0.371	-0.333
-514.858	720.799	-0.068	0.181
-513.843	-141.727	0.497	-0.050
-512.829	800.000	0.028	-0.106
-511.814	-200.000	-0.009	0.231
-510.799	661.947	-0.081	0.211
-509.785	-124.704	0.230	0.036
-508.770	-151.615	-0.268	0.020
-507.756	-200.000	0.059	0.324
-506.741	-79.594	-0.051	-0.017
-505.726	59.369	0.211	-0.209
-504.712	140.303	-0.188	-0.250
-503.697	-76.986	0.139	0.049
-502.683	308.734	-0.110	-0.208
-501.668	293.775	0.104	0.191
-500.653	800.000	-0.116	0.427
-499.639	214.359	-0.127	-0.203
-498.624	133.080	0.072	-0.094
-497.610	-200.000	-0.009	-0.293
-496.595	450.282	0.094	0.208
-495.581	-104.095	-0.437	0.102
-494.566	-63.168	0.398	0.165
-493.551	-54.599	0.100	0.046
-492.537	87.014	0.096	-0.107
-491.522	112.972	-0.292	0.357
-490.508	-101.778	0.164	0.040
-489.493	-42.172	-0.170	-0.088
-488.478	800.000	0.022	-0.066
-487.464	-200.000	-0.038	-0.235
-486.449	273.145	0.277	-0.492
-485.435	-13.714	-0.242	-0.158
-484.420	-200.000	-0.028	-0.236
-483.405	370.909	0.035	0.071
-482.391	53.357	-0.096	0.093
-481.376	-200.000	0.004	0.221
-480.362	-200.000	-0.004	-0.397
-479.347	-112.419	0.042	0.008
-478.332	22.310	0.078	0.064
-477.318	-200.000	0.007	0.156
-476.303	-21.846	0.059	-0.036
-475.289	-112.831	-0.413	-0.082
-474.274	-6.778	-0.028	0.019
-473.259	113.299	0.153	-0.186
-472.245	96.568	0.142	0.164
-471.230	370.573	-0.242	-0.493
-470.216	-34.356	-0.147	-0.081
-469.201	-45.270	0.142	0.071
-468.186	-82.808	0.132	0.043
-467.172	23.815	-0.110	-0.091
-466.157	-152.082	-0.352	0.026
-465.143	-16.744	0.412	0.262
-464.128	234.694	-0.070	0.116
-463.113	-200.000	0.012	-0.083
-462.099	148.661	-0.144	-0.195
-461.084	264.338	0.227	0.398
-460.070	-116.678	0.054	-0.010
-459.055	-190.893	0.049	-0.001
-458.040	-50.881	0.081	-0.038
-457.026	499.595	0.086	0.199
-456.011	18.019	-0.090	0.072
-454.997	383.712	-0.012	0.024
-453.982	243.398	0.189	-0.318
-452.968	-200.000	-0.020	-0.134
-451.953	-200.000	0.006	-0.445
-450.938	-147.020	-0.438	-0.038
-449.924	800.000	-0.096	0.299
-448.909	336.924	-0.103	-0.200
-447.895	64.685	0.200	-0.203
-446.880	264.893	0.131	0.229
-445.865	466.619	-0.062	0.139
-444.851	-200.000	0.012	-0.400
-443.836	99.269	0.228	0.265
-442.822	-92.754	-0.264	-0.074
-441.807	1.209	-0.261	0.188
-440.792	267.671	-0.266	-0.468
-439.778	-200.000	0.072	0.444
-438.763	183.626	0.067	0.099
-437.749	58.102	0.076	0.075
-436.734	179.842	-0.022	0.032
-435.719	324.894	0.025	0.049
-434.705	331.659	0.192	-0.373
-433.690	176.259	0.129	-0.189
-432.676	9.678	-0.081	0.061
-431.661	112.562	0.108	-0.132
-430.646	65.175	-0.178	0.181
-429.632	-200.000	-0.054	-0.343
-428.617	-25.486	-0.182	-0.108
-427.603	171.946	-0.143	0.206
-426.588	-200.000	0.012	0.187
-425.573	800.000	-0.050	0.148
-424.559	-76.091	0.177	0.063
-423.544	800.000	0.087	0.295
-422.530	-200.000	0.046	-0.307
-421.515	-139.966	0.119	-0.013
-420.500	-106.154	0.038	-0.009
-419.486	-85.028	-0.076	0.024
-418.471	-200.000	-0.010	-0.478
-417.457	-115.808	-0.341	-0.064
-416.442	-87.775	-0.274	-0.083
-415.428	18.301	0.028	-0.022
-414.413	800.000	0.014	-0.051
-413.398	-136.633	-0.187	-0.022
-412.384	-16.093	-0.058	-0.037
-411.369	87.951	0.133	0.148
-410.355	97.150	-0.093	0.108
-409.340	-200.000	0.087	0.458
-408.325	800.000	-0.048	0.136
-407.311	-50.623	-0.277	0.131
-406.296	-200.000	-0.038	0.251
-405.282	-200.000	0.010	0.099
-404.267	71.705	-0.081	-0.084
-403.252	-117.094	-0.086	0.016
-402.238	134.716	0.219	0.286
-401.223	55.491	-0.087	0.084
-400.209	-200.000	0.035	0.345
-399.194	-108.829	0.027	-0.006
-398.179	-115.465	0.036	0.007
-397.165	123.312	-0.135	-0.170
-396.150	-180.502	0.196	-0.004
-395.136	85.550	-0.215	0.237
-394.121	-38.754	-0.310	0.164
-393.106	9.652	-0.088	0.067
-392.092	-172.359	-0.262	0.008
-391.077	-127.845	-0.215	-0.031
-390.063	257.730	0.198	0.342
-389.048	-200.000	0.016	0.261
-388.033	204.189	0.142	0.221
-387.019	800.000	-0.062	0.254
-386.004	-132.739	-0.058	0.007
-384.990	-121.723	-0.142	0.024
-383.975	-200.000	0.016	0.208
-382.960	-138.894	0.288	-0.031
-381.946	152.311	0.060	-0.082
-380.931	61.199	-0.034	-0.034
-379.917	-76.941	-0.141	-0.049
-378.902	-47.129	0.146	-0.072
-377.888	-36.800	-0.155	-0.084
-376.873	-200.000	0.040	-0.189
-375.858	-77.937	-0.253	-0.087
-374.844	-200.000	0.031	-0.205
-373.829	-200.000	0.017	-0.160
-372.815	470.899	-0.073	0.164
-371.800	-200.000	0.006	-0.113
-370.785	-126.403	0.261	-0.039
-369.771	164.986	-0.088	-0.125
-368.756	203.347	0.041	-0.064
-367.742	-45.249	-0.067	-0.033
-366.727	66.782	-0.105	-0.107
-365.712	-200.000	0.002	-0.227
-364.698	-22.871	0.170	0.103
-363.683	-84.626	-0.086	-0.027
-362.669	-105.931	0.187	-0.042
-361.654	212.676	0.040	-0.064
-360.639	-187.992	0.417	-0.005
-359.625	-200.000	0.023	0.248
-358.610	-71.319	0.262	-0.098
-357.596	184.637	-0.011	-0.016
-356.581	-88.292	-0.076	-0.023
-355.566	-101.136	-0.140	-0.034
-354.552	169.451	-0.211	0.302
-353.537	-69.356	0.252	0.097
-352.523	442.376	-0.008	-0.018
-351.508	52.652	-0.328	-0.314
-350.493	175.611	0.370	0.538
-349.479	-99.472	0.184	-0.046
-348.464	-159.191	0.170	0.010
-347.450	30.757	-0.210	0.180
-346.435	800.000	0.008	-0.027
-345.420	619.831	0.094	-0.237
-344.406	-116.520	-0.255	0.047
-343.391	-200.000	-0.003	0.202
-342.377	-200.000	0.042	0.269
-341.362	-200.000	0.010	0.190
-340.348	-19.693	-0.169	0.104
-339.333	-36.533	0.321	-0.173
-338.318	352.133	0.130	0.259
-337.304	261.371	0.134	-0.233
-336.289	-155.732	-0.214	-0.014
-335.275	-3.274	-0.183	-0.127
-334.260	43.856	-0.210	-0.192
-333.245	277.835	0.218	0.389
-332.231	800.000	-0.021	0.072
-331.216	14.525	-0.121	0.095
-330.202	-200.000	-0.006	-0.025
-329.187	-141.758	-0.137	-0.014
-328.172	758.587	-0.137	-0.371
-327.158	-128.488	0.192	0.027
-326.143	-200.000	-0.035	0.155
-325.129	-129.772	0.255	-0.035
-324.114	-37.760	0.179	-0.095
-323.099	159.649	-0.100	0.139
-322.085	-33.287	0.154	0.085
-321.070	644.504	0.033	-0.084
-320.056	-200.000	-0.046	-0.207
-319.041	358.330	-0.088	-0.176
-318.026	581.224	0.106	-0.261
-317.012	62.141	-0.217	-0.216
-315.997	-85.879	0.398	-0.123
-314.983	-8.753	-0.113	-0.076
-313.968	168.109	-0.071	0.101
-312.953	59.305	0.122	0.120
-311.939	-93.720	-0.242	0.067
-310.924	179.287	-0.024	0.035
-309.910	-26.563	-0.227	0.133
-308.895	-138.668	-0.173	-0.019
-307.880	-50.109	0.276	-0.131
-306.866	-72.048	-0.077	0.029
-305.851	739.815	-0.071	-0.190
-304.837	-178.102	0.310	0.007
-303.822	122.470	-0.148	-0.185
-302.807	286.507	0.063	-0.114
-301.793	41.476	0.126	-0.114
-300.778	139.708	-0.111	-0.146
-299.764	-158.200	-0.097	-0.006
-298.749	141.017	-0.081	0.107
-297.735	800.000	0.042	0.179
-296.720	-200.000	0.001	0.057
-295.705	-76.622	-0.183	-0.064
-294.691	-27.284	0.424	0.247
-293.676	-69.375	-0.250	-0.096
-292.662	-200.000	-0.023	0.297
-291.647	735.126	0.052	-0.140
-290.632	183.177	-0.077	-0.113
-289.618	-45.145	0.172	-0.086
-288.603	30.343	0.407	-0.347
-287.589	-44.502	0.095	0.047
-286.574	715.692	-0.076	0.200
-285.559	-36.915	-0.099	-0.053
-284.545	800.000	0.084	0.277
-283.530	39.265	-0.123	0.110
-282.516	-71.722	-0.421	-0.157
-281.501	165.063	0.059	0.084
-280.486	-11.758	0.126	0.083
-279.472	800.000	-0.072	0.311
-278.457	142.556	-0.130	-0.173
-277.443	11.683	-0.303	0.232
-276.428	125.620	-0.111	-0.140
-275.413	218.965	0.062	0.099
-274.399	800.000	-0.029	-0.117
-273.384	-17.175	0.456	-0.287
-272.370	-169.703	0.039	0.001
-271.355	-200.000	0.009	0.088
-270.340	198.830	0.216	0.330
-269.326	71.121	-0.158	-0.163
-268.311	244.974	-0.097	-0.163
-267.297	800.000	0.120	0.397
-266.282	348.299	0.095	0.186
-265.267	75.252	-0.077	0.081
-264.253	-200.000	-0.010	-0.320
-263.238	10.704	-0.324	-0.246
-262.224	-196.903	-0.103	0.001
-261.209	87.482	0.096	-0.106
-260.195	102.441	-0.060	0.070
-259.180	108.517	-0.145	0.173
-258.165	-46.001	0.157	-0.077
-257.151	-72.167	0.177	0.066
-256.136	227.443	-0.085	0.139
-255.122	-30.011	0.135	0.077
-254.107	31.794	-0.202	-0.174
-253.092	747.495	-0.068	-0.182
-252.078	-200.000	-0.057	-0.293
-251.063	-159.664	0.421	-0.023
-250.049	-170.471	-0.258	-0.009
-249.034	114.195	0.007	-0.008
-248.019	1.349	-0.358	-0.257
-247.005	-45.941	0.367	0.181
-245.990	-200.000	-0.055	0.299
-244.976	524.210	0.018	0.042
-243.961	800.000	-0.108	0.301
-242.946	1.368	0.251	-0.180
-241.932	-7.810	0.033	-0.022
-240.917	612.085	0.134	-0.335
-239.903	-10.654	-0.248	-0.163
-238.888	280.171	-0.129	-0.231
-237.873	627.070	0.151	0.380
-236.859	-74.120	0.331	0.119
-235.844	58.453	0.050	0.049
-234.830	-145.190	-0.283	-0.026
-233.815	17.338	0.133	-0.105
-232.800	-103.747	0.127	-0.030
-231.786	800.000	0.066	0.219
-230.771	-59.891	0.221	-0.094
-229.757	-36.762	-0.318	0.170
-228.742	119.845	-0.038	-0.048
-227.727	-200.000	0.037	-0.225
-226.713	-200.000	-0.041	-0.277
-225.698	-169.860	-0.209	0.007
-224.684	-17.980	-0.236	0.147
-223.669	25.899	0.289	0.240
-222.655	800.000	0.021	-0.084
-221.640	-200.000	0.020	-0.105
-220.625	-186.544	-0.402	-0.006
-219.611	-200.000	0.003	0.106
-218.596	-7.036	0.122	-0.083
-217.582	800.000	-0.099	0.292
-216.567	-164.605	0.291	0.013
-215.552	-54.097	0.117	0.053
-214.538	-42.674	-0.225	0.114
-213.523	-150.116	-0.195	0.015
-212.509	606.217	0.102	-0.252
-211.494	-138.407	0.256	-0.028
-210.479	-164.285	0.196	-0.009
-209.465	386.923	-0.081	0.167
-208.450	-25.212	0.092	0.054
-207.436	139.154	-0.033	-0.043
-206.421	93.835	-0.218	-0.246
-205.406	301.989	0.068	-0.124
-204.392	-127.629	0.183	-0.026
-203.377	-67.566	-0.217	0.085
-202.363	239.978	-0.181	-0.301
-201.348	192.392	0.188	0.282
-200.333	-200.000	-0.057	-0.360
-199.319	33.954	0.194	0.168
-198.304	800.000	-0.113	0.425
-197.290	800.000	0.135	0.437
-196.275	84.386	0.130	0.142
-195.260	-200.000	-0.002	-0.168
-194.246	-200.000	-0.051	-0.281
-193.231	-33.794	0.240	0.132
-192.217	87.665	0.190	0.209
-191.202	-130.726	0.395	0.053
-190.187	-200.000	0.009	-0.061
-189.173	11.151	0.137	0.104
-188.158	-200.000	-0.011	0.107
-187.144	82.757	0.209	-0.226
-186.129	-94.299	-0.169	-0.046
-185.114	-200.000	0.025	0.179
-184.100	-141.228	0.255	0.026
-183.085	-100.254	0.092	-0.023
-182.071	-22.001	-0.271	0.164
-181.056	294.891	0.249	0.454
-180.042	800.000	0.067	0.192
-179.027	323.897	0.135	0.256
-178.012	466.300	-0.128	0.286
-176.998	236.305	0.210	0.346
-175.983	197.835	0.018	-0.028
-174.969	-78.697	-0.231	-0.078
-173.954	800.000	0.112	0.343
-172.939	672.950	0.086	0.221
-171.925	116.736	-0.131	-0.160
-170.910	98.231	0.018	0.021
-169.896	800.000	0.085	-0.277
-168.881	-13.164	0.207	-0.134
-167.866	321.415	0.117	-0.221
-166.852	91.962	0.058	0.065
-165.837	-58.870	0.360	-0.155
-164.823	-200.000	-0.031	0.286
-163.808	113.617	0.164	-0.197
-162.793	-148.617	0.092	-0.007
-161.779	9.879	0.239	0.180
-160.764	99.999	-0.356	0.411
-159.750	-200.000	0.037	0.232
-158.735	-94.615	-0.220	-0.060
-157.720	800.000	0.051	0.204
-156.706	-200.000	-0.016	0.208
-155.691	57.936	0.257	0.250
-154.677	702.943	0.064	0.169
-153.662	-3.354	0.130	0.090
-152.647	318.316	0.100	-0.187
-151.633	29.177	-0.315	-0.266
-150.618	137.779	0.055	-0.071
-149.604	-10.897	-0.121	-0.080
-148.589	659.412	-0.057	0.146
-147.574	57.223	0.015	0.014
-146.560	139.654	0.113	0.148
-145.545	-133.091	0.103	0.013
-144.531	-76.947	-0.146	0.051
-143.516	-14.834	0.183	-0.117
-142.502	800.000	0.028	0.088
-141.487	-88.679	0.084	-0.025
-140.472	-103.619	0.223	0.052
-139.458	-124.505	0.243	0.038
-138.443	47.471	0.041	-0.038
-137.429	220.880	-0.084	0.134
-136.414	-48.495	0.191	-0.091
-135.399	331.548	-0.125	-0.239
-134.385	800.000	0.009	0.035
-133.370	800.000	-0.037	0.119
-132.356	-13.025	-0.110	0.071
-131.341	-56.841	-0.293	-0.128
-130.326	-182.477	0.385	-0.007
-129.312	774.320	0.039	-0.106
-128.297	-200.000	-0.011	-0.078
-127.283	-104.519	0.042	0.010
-126.268	-60.772	-0.250	-0.105
-125.253	-200.000	-0.023	0.515
-124.239	-111.054	0.176	0.036
-123.224	-36.058	0.274	-0.147
-122.210	1.731	-0.053	-0.038
-121.195	71.219	-0.057	0.059
