DTS Sentinel unit serial number:	SN413079Multiplexer serial number:	ORYXHardware model number:	OX4-SRSoftware version number:	ORYX F/W v4.00 Oryx Data Collector v3.7.2.0data status	okinstallation	princeton_trtdifferential loss correction	single-endedforward channel	channel 4reverse channel	N/Adate	2019/09/18time	20:09:35forward acquisition time	60.00reverse acquisition time	0.00gamma	496.2192k internal	0.2320k external	0.2320temperature offset calibration	1.0029default loss term (dB/km)	0.3790temperature slope calibration	1.0000multiplexer offset coefficient	1.0000multiplexer slope coefficient	1.0000fibre end	0.00T internal ref (°C)	29.70T ext. ref 1 (°C)	0.93T ext. ref 2 (°C)	20.31length (m)	temperature (°C)	Stokes	anti-Stokes-747.200	-1.776	0.246	-0.175
-746.185	-200.000	0.029	0.342
-745.171	318.421	0.079	0.151
-744.156	72.061	-0.132	0.139
-743.142	-46.314	-0.218	0.108
-742.127	31.016	-0.180	-0.156
-741.112	66.692	-0.280	0.288
-740.098	9.914	-0.177	0.136
-739.083	82.833	0.194	-0.213
-738.069	41.918	-0.322	-0.295
-737.054	-48.324	-0.358	-0.174
-736.039	800.000	0.055	-0.212
-735.025	-145.656	0.368	0.033
-734.010	101.487	-0.191	-0.225
-732.996	-200.000	0.010	-0.361
-731.981	800.000	-0.047	0.190
-730.966	-129.869	-0.348	-0.048
-729.952	-74.056	-0.391	-0.143
-728.937	333.403	-0.109	-0.213
-727.923	12.949	0.100	-0.078
-726.908	-200.000	-0.015	-0.196
-725.894	-56.556	-0.125	-0.056
-724.879	17.398	-0.071	-0.057
-723.864	-18.044	-0.264	0.167
-722.850	-78.770	-0.090	-0.031
-721.835	454.635	-0.097	-0.217
-720.821	-51.711	-0.036	-0.017
-719.806	-186.398	-0.120	0.002
-718.791	26.338	0.161	-0.136
-717.777	27.884	-0.254	-0.217
-716.762	800.000	0.086	-0.246
-715.748	-77.789	0.122	-0.043
-714.733	800.000	0.119	-0.386
-713.718	-89.337	-0.222	0.066
-712.704	141.825	0.092	0.123
-711.689	134.373	-0.143	-0.188
-710.675	154.479	0.046	-0.064
-709.660	618.736	-0.167	-0.423
-708.645	-113.002	-0.176	0.035
-707.631	-200.000	-0.020	0.141
-706.616	-200.000	-0.052	-0.355
-705.602	-70.813	0.107	0.041
-704.587	448.905	-0.143	0.319
-703.572	571.326	-0.107	0.262
-702.558	-81.907	0.368	-0.122
-701.543	-200.000	-0.074	0.392
-700.529	-30.198	0.259	-0.149
-699.514	253.432	-0.156	-0.268
-698.499	-66.441	0.378	-0.152
-697.485	-200.000	-0.012	-0.376
-696.470	37.816	0.163	-0.146
-695.456	479.077	0.102	-0.232
-694.441	-112.479	0.336	0.068
-693.426	249.679	0.032	0.055
-692.412	-118.999	0.133	0.023
-691.397	347.311	-0.041	0.082
-690.383	800.000	0.063	-0.237
-689.368	-75.646	-0.091	0.033
-688.354	-2.794	0.102	0.072
-687.339	-158.046	-0.104	0.006
-686.324	-200.000	0.068	-0.441
-685.310	800.000	-0.073	-0.279
-684.295	800.000	-0.088	-0.252
-683.281	-54.549	-0.275	-0.126
-682.266	-57.676	0.421	-0.186
-681.251	242.508	0.033	-0.055
-680.237	300.619	-0.021	0.039
-679.222	402.016	-0.146	-0.310
-678.208	57.335	-0.125	-0.123
-677.193	-1.963	-0.386	0.274
-676.178	-200.000	0.004	-0.117
-675.164	-136.867	0.187	-0.022
-674.149	800.000	-0.019	0.075
-673.135	193.599	-0.151	-0.230
-672.120	364.550	0.109	-0.222
-671.105	-46.160	-0.219	0.109
-670.091	-200.000	0.012	-0.294
-669.076	-72.830	0.319	0.118
-668.062	-51.158	0.309	-0.146
-667.047	-76.443	0.218	0.077
-666.032	526.513	-0.058	-0.137
-665.018	-200.000	-0.031	-0.328
-664.003	-28.784	-0.239	-0.138
-662.989	120.003	-0.083	0.103
-661.974	659.980	-0.087	-0.226
-660.959	-200.000	0.362	-0.001
-659.945	82.653	0.096	-0.106
-658.930	800.000	-0.065	-0.193
-657.916	89.518	-0.197	-0.222
-656.901	-200.000	0.004	0.046
-655.886	-87.923	0.096	0.029
-654.872	800.000	0.075	-0.285
-653.857	-124.790	-0.242	0.038
-652.843	30.886	-0.048	-0.041
-651.828	-36.990	-0.231	0.125
-650.814	110.779	-0.097	0.117
-649.799	-19.447	0.117	-0.073
-648.784	-90.858	-0.049	-0.014
-647.770	-6.975	-0.118	-0.081
-646.755	551.630	-0.160	0.388
-645.741	-200.000	-0.096	-0.477
-644.726	-19.751	-0.126	-0.078
-643.711	-200.000	-0.005	0.206
-642.697	800.000	-0.115	-0.426
-641.682	-26.182	-0.032	0.019
-640.668	-95.666	-0.256	-0.069
-639.653	215.147	0.173	-0.277
-638.638	800.000	-0.135	0.522
-637.624	-160.824	0.136	-0.007
-636.609	800.000	0.011	-0.041
-635.595	-133.848	0.171	0.021
-634.580	-198.258	-0.056	-0.000
-633.565	234.406	-0.103	-0.170
-632.551	228.809	-0.131	0.215
-631.536	-63.813	-0.362	0.149
-630.522	12.830	-0.130	0.102
-629.507	420.017	-0.064	-0.138
-628.492	0.042	-0.240	-0.172
-627.478	-128.337	-0.137	0.020
-626.463	800.000	0.077	-0.237
-625.449	341.963	0.100	0.196
-624.434	24.751	0.247	0.206
-623.419	283.268	0.089	0.161
-622.405	91.480	0.253	0.286
-621.390	-200.000	-0.000	-0.186
-620.376	-88.640	-0.080	0.024
-619.361	-52.856	-0.280	0.130
-618.346	10.896	0.171	-0.131
-617.332	-114.683	-0.365	-0.070
-616.317	-200.000	-0.017	-0.142
-615.303	68.161	0.039	0.040
-614.288	359.622	-0.203	-0.408
-613.273	-78.150	0.321	-0.111
-612.259	-79.576	-0.233	-0.079
-611.244	-80.472	-0.329	-0.110
-610.230	-130.140	-0.294	0.040
-609.215	720.970	0.034	0.090
-608.201	115.456	-0.185	-0.227
-607.186	-200.000	0.016	-0.165
-606.171	-200.000	-0.014	-0.110
-605.157	-99.714	-0.223	-0.056
-604.142	800.000	-0.010	0.034
-603.128	281.862	-0.096	0.172
-602.113	-64.125	-0.157	0.065
-601.098	15.376	-0.067	0.053
-600.084	-51.209	0.067	0.032
-599.069	-17.621	0.105	-0.066
-598.055	-16.599	0.049	0.031
-597.040	574.105	-0.035	-0.086
-596.025	149.698	-0.146	-0.199
-595.011	-128.985	0.081	0.011
-593.996	453.816	0.104	-0.232
-592.982	65.008	0.202	0.205
-591.967	-200.000	-0.047	0.230
-590.952	143.696	0.073	-0.098
-589.938	88.880	-0.204	-0.228
-588.923	-12.719	0.050	-0.033
-587.909	322.522	0.159	-0.304
-586.894	-200.000	0.051	-0.299
-585.879	3.895	-0.158	0.116
-584.865	-81.451	-0.383	0.127
-583.850	-82.813	0.158	0.051
-582.836	377.120	-0.054	-0.111
-581.821	-46.173	0.268	-0.132
-580.806	-138.251	-0.504	0.056
-579.792	800.000	0.131	0.414
-578.777	-90.739	-0.098	-0.028
-577.763	426.577	0.078	-0.169
-576.748	26.742	-0.269	0.226
-575.733	83.083	-0.083	-0.091
-574.719	-91.718	-0.460	0.132
-573.704	-125.917	-0.208	0.032
-572.690	39.859	-0.189	-0.170
-571.675	-135.433	0.237	0.028
-570.661	-200.000	0.010	0.168
-569.646	-40.331	0.239	0.125
-568.631	-29.713	-0.219	0.126
-567.617	800.000	0.114	0.430
-566.602	-45.386	0.189	0.094
-565.588	109.136	0.112	0.135
-564.573	-200.000	-0.024	-0.169
-563.558	-147.807	0.426	-0.036
-562.544	-76.876	0.171	-0.060
-561.529	370.354	-0.179	-0.365
-560.515	97.872	0.103	0.119
-559.500	-168.714	0.233	0.009
-558.485	191.945	0.284	0.430
-557.471	800.000	0.093	0.297
-556.456	800.000	-0.104	-0.342
-555.442	800.000	0.082	-0.331
-554.427	97.622	0.031	0.036
-553.412	-200.000	0.034	0.229
-552.398	-64.496	0.074	0.030
-551.383	-200.000	0.031	-0.206
-550.369	-200.000	-0.027	-0.133
-549.354	-154.206	0.469	0.032
-548.339	-15.059	0.179	0.115
-547.325	517.694	0.191	-0.449
-546.310	-139.230	0.123	-0.013
-545.296	-95.917	0.119	-0.032
-544.281	-200.000	0.018	0.142
-543.266	86.069	0.207	0.229
-542.252	154.274	-0.092	0.127
-541.237	-49.063	0.180	-0.087
-540.223	19.470	-0.103	0.083
-539.208	-200.000	-0.024	0.167
-538.193	375.322	0.084	-0.173
-537.179	-87.575	-0.259	0.078
-536.164	-200.000	0.006	-0.192
-535.150	-101.527	-0.136	-0.033
-534.135	-95.635	0.269	-0.072
-533.121	163.500	-0.065	-0.092
-532.106	-2.372	0.015	0.011
-531.091	176.376	-0.022	-0.033
-530.077	278.503	0.044	0.079
-529.062	800.000	0.122	0.383
-528.048	10.398	0.077	0.059
-527.033	-143.113	-0.049	-0.005
-526.018	45.839	-0.189	-0.176
-525.004	-200.000	0.043	0.329
-523.989	-2.426	0.114	0.080
-522.975	-133.412	-0.196	0.025
-521.960	-27.386	0.185	0.108
-520.945	146.250	0.218	-0.293
-519.931	71.252	-0.138	-0.143
-518.916	151.227	-0.208	0.284
-517.902	32.318	0.164	-0.142
-516.887	45.431	0.215	-0.199
-515.872	-53.898	-0.045	-0.020
-514.858	-144.706	-0.221	-0.020
-513.843	-113.315	-0.261	0.051
-512.829	800.000	-0.029	0.085
-511.814	28.803	-0.200	0.170
-510.799	204.858	-0.070	-0.109
-509.785	-85.477	0.396	0.124
-508.770	-200.000	-0.026	0.242
-507.756	68.918	0.126	-0.129
-506.741	800.000	-0.108	0.384
-505.726	-112.173	-0.156	-0.031
-504.712	800.000	0.098	-0.320
-503.697	31.406	0.288	-0.248
-502.683	298.625	0.091	-0.168
-501.668	-200.000	0.059	-0.383
-500.653	800.000	-0.031	-0.120
-499.639	123.104	0.210	0.264
-498.624	-88.043	-0.160	0.048
-497.610	25.374	-0.104	0.087
-496.595	30.634	0.035	-0.030
-495.581	-100.870	0.095	0.023
-494.566	749.475	-0.124	0.336
-493.551	-182.670	-0.107	0.002
-492.537	423.192	0.090	0.194
-491.522	86.419	0.307	-0.339
-490.508	135.932	0.073	-0.095
-489.493	775.782	-0.147	-0.402
-488.478	-105.776	0.198	0.045
-487.464	-200.000	0.011	-0.312
-486.449	-85.361	0.066	-0.021
-485.435	-133.878	0.122	0.015
-484.420	-200.000	0.032	0.176
-483.405	388.320	-0.128	0.264
-482.391	215.225	0.173	-0.275
-481.376	105.184	-0.186	-0.220
-480.362	-150.822	-0.125	0.009
-479.347	-16.906	0.229	0.145
-478.332	-29.287	0.262	-0.150
-477.318	-30.346	0.236	-0.134
-476.303	116.951	0.106	0.130
-475.289	-200.000	0.010	0.140
-474.274	-200.000	-0.007	0.140
-473.259	52.888	-0.189	0.180
-472.245	-200.000	0.032	-0.208
-471.230	-7.028	0.306	0.208
-470.216	-102.230	0.131	-0.032
-469.201	-200.000	-0.036	0.193
-468.186	106.820	0.122	0.144
-467.172	322.490	0.058	0.111
-466.157	-65.355	0.138	0.055
-465.143	-56.474	0.426	0.189
-464.128	-109.563	-0.292	0.062
-463.113	418.934	-0.113	-0.241
-462.099	-75.960	-0.118	0.042
-461.084	479.946	0.032	0.073
-460.070	-55.780	-0.261	-0.117
-459.055	-60.902	-0.183	0.078
-458.040	-25.055	-0.081	-0.048
-457.026	-37.025	-0.113	0.060
-456.011	-49.999	-0.182	0.086
-454.997	118.007	0.102	-0.126
-453.982	312.356	0.004	0.007
-452.968	-18.304	-0.305	-0.191
-451.953	15.772	0.214	0.169
-450.938	464.056	0.117	-0.262
-449.924	7.458	-0.266	0.199
-448.909	-200.000	0.016	-0.328
-447.895	-105.771	0.189	-0.043
-446.880	195.781	0.082	-0.125
-445.865	260.126	0.112	-0.193
-444.851	800.000	-0.115	0.369
-443.836	-39.964	-0.257	-0.134
-442.822	288.412	-0.167	-0.303
-441.807	387.489	0.115	0.237
-440.792	134.811	-0.078	0.102
-439.778	-45.079	0.187	-0.093
-438.763	-147.697	0.055	-0.005
-437.749	328.200	0.096	0.184
-436.734	-61.528	-0.387	0.162
-435.719	800.000	0.068	0.267
-434.705	98.175	-0.088	-0.101
-433.690	-75.589	0.044	0.016
-432.676	165.798	0.130	0.184
-431.661	697.422	-0.169	-0.444
-430.646	68.779	-0.228	-0.233
-429.632	64.693	0.204	-0.205
-428.617	-200.000	0.010	0.051
-427.603	-144.032	0.389	-0.036
-426.588	240.190	-0.104	-0.173
-425.573	126.310	0.119	-0.151
-424.559	0.283	-0.270	-0.193
-423.544	148.559	-0.101	-0.136
-422.530	174.624	0.113	0.163
-421.515	-63.582	-0.371	-0.152
-420.500	-54.843	0.153	0.069
-419.486	45.997	0.218	-0.201
-418.471	159.616	-0.045	0.062
-417.457	155.872	-0.176	0.242
-416.442	17.593	-0.167	-0.132
-415.428	800.000	0.024	-0.088
-414.413	9.547	0.244	0.184
-413.398	-200.000	0.035	-0.220
-412.384	274.538	-0.128	-0.226
-411.369	366.977	-0.091	-0.183
-410.355	197.827	-0.234	0.357
-409.340	123.125	-0.075	0.094
-408.325	-44.862	-0.180	-0.089
-407.311	-101.870	-0.235	-0.057
-406.296	-42.913	0.212	0.107
-405.282	33.511	0.243	0.211
-404.267	800.000	-0.049	-0.199
-403.252	-190.546	0.224	-0.002
-402.238	800.000	-0.058	0.188
-401.223	-145.810	0.223	0.020
-400.209	248.820	0.060	-0.101
-399.194	800.000	0.059	-0.173
-398.179	-200.000	-0.021	-0.175
-397.165	800.000	0.039	0.161
-396.150	-127.404	0.197	0.029
-395.136	204.431	-0.058	-0.089
-394.121	-200.000	0.010	-0.117
-393.106	800.000	0.058	0.171
-392.092	21.177	0.112	-0.091
-391.077	800.000	0.036	0.156
-390.063	-26.237	0.148	-0.086
-389.048	-116.353	0.273	-0.050
-388.033	6.800	0.195	-0.145
-387.019	-20.029	-0.283	0.174
-386.004	174.378	0.094	0.136
-384.990	-200.000	0.010	0.192
-383.975	-200.000	-0.002	0.233
-382.960	-200.000	0.039	-0.203
-381.946	-200.000	0.009	-0.118
-380.931	-200.000	-0.035	0.253
-379.917	260.440	-0.030	-0.052
-378.902	-200.000	0.003	-0.176
-377.888	73.540	-0.349	0.364
-376.873	-165.609	-0.066	-0.003
-375.858	-200.000	-0.024	0.157
-374.844	800.000	-0.040	0.136
-373.829	-200.000	-0.008	0.065
-372.815	-173.386	-0.112	0.003
-371.800	216.751	-0.217	-0.344
-370.785	215.231	-0.158	-0.249
-369.771	-2.662	0.280	-0.195
-368.756	800.000	0.077	0.226
-367.742	40.818	-0.202	0.181
-366.727	800.000	-0.098	-0.278
-365.712	584.878	-0.089	0.218
-364.698	800.000	0.081	-0.256
-363.683	-200.000	0.019	-0.182
-362.669	800.000	-0.081	0.265
-361.654	800.000	0.099	0.367
-360.639	-200.000	0.006	0.048
-359.625	-200.000	-0.035	0.186
-358.610	404.730	-0.134	0.281
-357.596	800.000	0.129	0.407
-356.581	-200.000	0.023	0.186
-355.566	-113.118	-0.152	0.030
-354.552	-129.197	-0.203	-0.028
-353.537	178.517	0.149	0.216
-352.523	286.109	-0.078	0.140
-351.508	169.444	-0.105	0.149
-350.493	54.840	0.122	0.117
-349.479	-115.034	-0.137	0.026
-348.464	368.364	-0.034	-0.067
-347.450	800.000	-0.125	0.352
-346.435	-200.000	-0.071	0.479
-345.420	-200.000	0.075	0.461
-344.406	800.000	0.043	-0.140
-343.391	639.519	-0.106	-0.269
-342.377	75.719	-0.178	-0.187
-341.362	212.349	-0.122	-0.191
-340.348	-200.000	-0.016	-0.132
-339.333	27.282	-0.061	-0.051
-338.318	40.943	-0.192	0.172
-337.304	-38.492	0.153	0.080
-336.289	-77.596	-0.296	-0.102
-335.275	22.025	0.255	-0.207
-334.260	-13.829	-0.106	0.068
-333.245	36.433	0.152	0.133
-332.231	269.289	0.098	0.171
-331.216	474.405	-0.065	0.146
-330.202	349.142	-0.089	0.174
-329.187	800.000	-0.042	0.179
-328.172	71.718	0.035	0.036
-327.158	-81.882	0.176	-0.057
-326.143	-200.000	0.000	0.120
-325.129	-81.065	0.138	-0.045
-324.114	70.513	-0.045	0.046
-323.099	98.628	0.094	-0.108
-322.085	239.222	-0.132	-0.219
-321.070	-24.128	-0.315	-0.187
-320.056	547.221	0.117	0.278
-319.041	10.038	0.133	0.101
-318.026	50.909	0.219	0.206
-317.012	-19.857	0.022	-0.014
-315.997	103.775	0.217	-0.254
-314.983	-115.958	0.219	0.041
-313.968	-182.992	0.140	0.002
-312.953	377.499	-0.048	0.098
-311.939	21.118	-0.290	0.234
-310.924	-140.685	-0.345	0.035
-309.910	-200.000	-0.337	0.001
-308.895	62.292	-0.071	0.071
-307.880	17.713	-0.235	-0.186
-306.866	-98.675	0.336	-0.085
-305.851	3.609	-0.271	-0.197
-304.837	1.659	-0.120	-0.086
-303.822	-20.905	0.162	-0.099
-302.807	242.986	-0.149	-0.248
-301.793	-73.684	-0.269	-0.097
-300.778	9.771	0.187	0.141
-299.764	-118.765	0.157	0.027
-298.749	-200.000	-0.006	-0.075
-297.735	44.924	-0.107	0.098
-296.720	-113.969	0.142	0.027
-295.705	494.610	0.120	0.274
-294.691	276.305	0.108	0.190
-293.676	-200.000	-0.046	-0.299
-292.662	-185.051	0.027	-0.000
-291.647	19.664	0.077	-0.062
-290.632	17.123	-0.264	0.208
-289.618	226.132	-0.148	0.239
-288.603	800.000	0.161	0.484
-287.589	282.023	-0.134	-0.239
-286.574	-106.042	-0.169	-0.038
-285.559	800.000	-0.078	-0.319
-284.545	-131.497	0.150	-0.020
-283.530	-139.766	0.252	-0.027
-282.516	-93.111	0.287	0.079
-281.501	-54.847	0.281	-0.126
-280.486	-32.003	-0.338	-0.188
-279.472	-115.406	0.079	0.015
-278.457	97.801	-0.257	0.294
-277.443	-200.000	0.016	0.337
-276.428	-200.000	0.015	0.093
-275.413	147.767	0.123	-0.165
-274.399	36.525	0.262	0.230
-273.384	-161.536	0.034	0.002
-272.370	-200.000	0.006	-0.104
-271.355	710.815	-0.056	-0.148
-270.340	584.180	0.073	0.177
-269.326	-195.716	-0.398	-0.003
-268.311	-69.278	-0.223	0.085
-267.297	59.020	0.057	0.056
-266.282	517.375	-0.106	0.246
-265.267	-200.000	0.048	-0.321
-264.253	800.000	-0.028	-0.102
-263.238	-200.000	0.004	-0.113
-262.224	-71.040	-0.263	-0.098
-261.209	71.973	0.262	-0.271
-260.195	586.776	0.048	0.116
-259.180	0.120	0.170	-0.120
-258.165	-70.138	0.116	-0.044
-257.151	-117.802	-0.138	0.025
-256.136	485.618	0.047	0.105
-255.122	-146.052	-0.064	0.006
-254.107	-27.882	0.065	0.037
-253.092	235.015	-0.057	0.094
-252.078	259.408	0.106	0.181
-251.063	-200.000	-0.001	0.107
-250.049	72.571	-0.129	-0.133
-249.034	442.728	0.018	0.039
-248.019	111.582	0.116	-0.139
-247.005	-134.218	-0.350	0.043
-245.990	-5.753	-0.148	-0.100
-244.976	-81.774	0.352	-0.114
-243.961	-200.000	-0.002	-0.012
-242.946	222.397	-0.065	0.103
-241.932	-49.750	0.405	0.191
-240.917	224.067	-0.161	-0.259
-239.903	36.204	0.130	0.114
-238.888	211.872	0.119	0.186
-237.873	-98.976	-0.137	-0.034
-236.859	-77.479	-0.235	-0.081
-235.844	-90.606	0.303	-0.087
-234.830	-0.067	-0.253	0.178
-233.815	-200.000	-0.048	-0.329
-232.800	124.186	0.123	0.153
-231.786	-71.174	-0.084	-0.031
-230.771	363.513	0.082	-0.164
-229.757	13.300	-0.027	0.020
-228.742	-200.000	0.003	0.247
-227.727	-200.000	-0.017	0.235
-226.713	-139.724	0.068	-0.007
-225.698	-200.000	-0.013	-0.199
-224.684	-65.521	-0.072	-0.028
-223.669	766.940	0.026	-0.069
-222.655	76.435	0.056	0.059
-221.640	111.810	0.059	-0.071
-220.625	27.845	-0.079	0.066
-219.611	-71.364	0.323	-0.120
-218.596	42.826	-0.069	0.062
-217.582	-200.000	0.007	-0.333
-216.567	-120.777	0.086	0.014
-215.552	37.401	0.094	0.082
-214.538	-25.266	-0.191	-0.112
-213.523	-81.120	0.268	-0.088
-212.509	17.733	0.193	-0.152
-211.494	800.000	-0.055	-0.195
-210.479	38.595	-0.346	-0.305
-209.465	684.533	-0.049	-0.126
-208.450	-200.000	0.060	-0.291
-207.436	-124.850	0.197	0.030
-206.421	578.401	0.046	-0.111
-205.406	-105.950	0.154	0.034
-204.392	-200.000	0.045	0.531
-203.377	-133.423	-0.195	-0.024
-202.363	-176.055	0.245	-0.006
-201.348	-116.211	0.203	-0.037
-200.333	153.593	-0.105	-0.142
-199.319	618.882	0.085	-0.211
-198.304	-106.786	0.220	-0.048
-197.290	229.277	-0.084	-0.136
-196.275	-165.112	0.138	0.006
-195.260	36.760	-0.158	-0.138
-194.246	607.062	0.076	-0.187
-193.231	174.508	0.104	0.149
-192.217	-200.000	-0.007	-0.302
-191.202	-195.710	-0.252	0.002
-190.187	800.000	0.058	0.160
-189.173	-200.000	-0.003	-0.369
-188.158	800.000	0.070	-0.206
-187.144	195.560	-0.126	0.189
-186.129	-200.000	0.017	-0.151
-185.114	212.821	0.057	-0.089
-184.100	-84.578	-0.186	-0.058
-183.085	20.677	0.228	0.182
-182.071	75.481	-0.128	-0.133
-181.056	-200.000	-0.006	0.251
-180.042	531.106	0.088	0.207
-179.027	-39.772	0.234	-0.121
-178.012	-39.683	-0.241	0.124
-176.998	-135.296	-0.232	0.027
-175.983	46.335	-0.257	0.236
-174.969	23.432	0.189	0.154
-173.954	608.511	0.086	-0.211
-172.939	7.203	-0.320	-0.236
-171.925	-86.321	0.276	-0.084
-170.910	-56.582	-0.096	-0.042
-169.896	488.836	0.060	0.135
-168.881	-200.000	-0.027	0.150
-167.866	223.166	-0.026	0.042
-166.852	800.000	-0.098	0.275
-165.837	64.543	-0.125	-0.125
-164.823	-125.052	0.328	0.050
-163.808	-30.760	-0.060	-0.034
-162.793	648.518	-0.118	-0.297
-161.779	361.985	0.091	-0.180
-160.764	-91.239	-0.382	-0.108
-159.750	-54.148	0.386	0.174
-158.735	-34.268	0.222	0.120
-157.720	-7.173	-0.271	0.182
-156.706	-200.000	0.001	0.295
-155.691	-84.579	0.161	0.050
-154.677	61.979	0.240	-0.236
-153.662	-200.000	-0.063	0.351
-152.647	-200.000	0.065	-0.391
-151.633	-100.002	0.324	0.080
-150.618	-118.525	0.236	-0.041
-149.604	-46.545	-0.200	0.097
-148.589	5.000	-0.307	-0.224
-147.574	200.715	0.062	0.095
-146.560	57.568	0.082	0.079
-145.545	39.019	-0.191	-0.169
-144.531	-65.716	0.136	0.054
-143.516	-200.000	-0.014	-0.129
-142.502	-127.578	0.385	0.055
-141.487	312.403	0.043	-0.080
-140.472	800.000	0.040	-0.152
-139.458	261.625	0.049	0.084
-138.443	104.486	-0.143	0.166
-137.429	76.269	-0.177	0.185
-136.414	441.178	-0.139	0.301
-135.399	-61.801	0.101	0.042
-134.385	-126.819	0.149	-0.022
-133.370	48.344	-0.257	0.238
-132.356	-7.477	-0.118	0.079
-131.341	-103.938	0.115	-0.027
-130.326	800.000	-0.043	0.129
-129.312	-200.000	-0.050	0.229
-128.297	272.532	-0.130	-0.226
-127.283	10.158	0.202	0.152
-126.268	613.120	0.041	-0.101
-125.253	377.650	0.030	-0.060
-124.239	85.439	0.169	-0.183
-123.224	800.000	-0.030	-0.102
-122.210	-200.000	-0.003	0.158
-121.195	39.124	-0.030	0.026
-120.180	30.869	0.226	0.191
