DTS Sentinel unit serial number:	SN413079Multiplexer serial number:	ORYXHardware model number:	OX4-SRSoftware version number:	ORYX F/W v4.00 Oryx Data Collector v3.7.2.0data status	okinstallation	princeton_trtdifferential loss correction	single-endedforward channel	channel 4reverse channel	N/Adate	2019/09/17time	19:25:34forward acquisition time	60.00reverse acquisition time	0.00gamma	496.2192k internal	0.2304k external	0.2304temperature offset calibration	0.9988default loss term (dB/km)	0.3790temperature slope calibration	1.0000multiplexer offset coefficient	1.0000multiplexer slope coefficient	1.0000fibre end	0.00T internal ref (°C)	37.30T ext. ref 1 (°C)	0.25T ext. ref 2 (°C)	25.50length (m)	temperature (°C)	Stokes	anti-Stokes-747.200	-27.182	-0.183	0.109
-746.185	27.706	0.188	-0.161
-745.171	277.678	0.226	-0.410
-744.156	241.006	0.046	-0.077
-743.142	-200.000	0.054	0.354
-742.127	-155.543	-0.197	-0.013
-741.112	174.672	-0.022	-0.033
-740.098	-3.398	-0.295	0.209
-739.083	-140.933	0.280	-0.029
-738.069	432.366	-0.081	0.179
-737.054	-63.233	0.173	-0.072
-736.039	-65.007	-0.185	-0.076
-735.025	-200.000	-0.037	0.305
-734.010	-0.227	-0.177	-0.128
-732.996	454.509	-0.104	-0.234
-731.981	-106.455	-0.115	0.026
-730.966	-141.395	0.312	0.032
-729.952	-85.388	-0.257	0.082
-728.937	-19.210	-0.237	-0.150
-727.923	-79.498	-0.209	-0.072
-726.908	-137.804	0.233	0.027
-725.894	-83.918	-0.113	-0.037
-724.879	-21.617	-0.116	-0.072
-723.864	-67.462	-0.316	-0.126
-722.850	395.051	0.037	-0.078
-721.835	-200.000	-0.009	-0.254
-720.821	390.913	0.093	-0.197
-719.806	70.028	0.273	0.286
-718.791	-162.256	-0.096	0.005
-717.777	438.201	-0.047	0.105
-716.762	-46.462	-0.157	0.078
-715.748	-168.726	0.244	-0.009
-714.733	176.644	0.109	-0.161
-713.718	800.000	-0.006	0.020
-712.704	8.827	0.020	0.015
-711.689	800.000	0.062	0.194
-710.675	-15.966	0.127	0.082
-709.660	-6.995	0.190	0.131
-708.645	160.722	-0.070	-0.100
-707.631	-60.207	-0.189	-0.082
-706.616	16.756	-0.442	0.356
-705.602	-97.167	0.175	0.046
-704.587	-65.351	0.070	-0.029
-703.572	302.149	-0.117	-0.221
-702.558	157.181	0.139	-0.196
-701.543	124.437	0.044	-0.056
-700.529	800.000	0.071	0.224
-699.514	220.626	-0.296	0.482
-698.499	-200.000	-0.023	-0.479
-697.485	800.000	-0.094	-0.318
-696.470	675.067	0.147	0.387
-695.456	-32.109	-0.193	0.110
-694.441	-66.236	0.098	-0.039
-693.426	-200.000	-0.013	0.089
-692.412	-200.000	0.037	0.385
-691.397	393.527	0.037	0.079
-690.383	-200.000	0.005	-0.258
-689.368	70.639	0.241	-0.253
-688.354	-13.262	0.167	-0.110
-687.339	13.890	0.240	0.190
-686.324	-165.402	0.320	0.014
-685.310	268.252	-0.158	-0.282
-684.295	-113.197	-0.122	0.024
-683.281	800.000	0.089	-0.291
-682.266	-16.073	-0.165	-0.107
-681.251	-81.381	0.246	-0.082
-680.237	-48.241	-0.254	-0.124
-679.222	-145.237	-0.141	0.013
-678.208	-169.092	-0.247	0.009
-677.193	-93.475	0.285	0.080
-676.178	-183.069	-0.131	0.002
-675.164	-35.117	-0.238	-0.132
-674.149	-200.000	-0.018	0.202
-673.135	-200.000	0.023	-0.174
-672.120	-106.379	-0.435	-0.099
-671.105	800.000	0.036	-0.126
-670.091	205.489	-0.201	0.317
-669.076	800.000	-0.056	0.194
-668.062	285.769	0.084	-0.154
-667.047	33.998	-0.145	0.128
-666.032	-101.429	-0.145	0.036
-665.018	-25.183	-0.237	0.143
-664.003	521.265	0.122	0.290
-662.989	-154.473	-0.237	0.016
-661.974	673.040	-0.127	0.334
-660.959	-65.123	0.193	0.079
-659.945	-38.520	-0.402	0.216
-658.930	-200.000	0.043	-0.247
-657.916	-7.630	0.152	0.105
-656.901	-127.160	-0.146	0.022
-655.886	10.118	0.236	0.182
-654.872	-200.000	0.017	0.142
-653.857	129.174	-0.198	-0.256
-652.843	-15.296	-0.198	-0.128
-651.828	-200.000	-0.003	-0.321
-650.814	-200.000	0.009	-0.063
-649.799	-102.779	0.087	0.021
-648.784	-200.000	0.053	-0.250
-647.770	53.231	0.176	0.171
-646.755	800.000	-0.006	-0.021
-645.741	-123.311	0.165	-0.027
-644.726	584.392	0.191	-0.476
-643.711	205.069	0.084	0.132
-642.697	-200.000	-0.029	-0.278
-641.682	-13.069	-0.290	0.191
-640.668	-69.197	-0.029	0.011
-639.653	-112.552	0.214	-0.043
-638.638	451.113	0.144	-0.323
-637.624	118.549	0.061	-0.076
-636.609	-110.045	0.141	0.030
-635.595	-200.000	-0.007	-0.204
-634.580	-200.000	0.061	-0.348
-633.565	18.720	-0.286	-0.232
-632.551	142.402	-0.073	-0.099
-631.536	-18.353	0.144	0.091
-630.522	-62.146	-0.152	0.064
-629.507	139.507	-0.099	0.132
-628.492	-99.241	-0.206	-0.053
-627.478	690.141	0.026	-0.069
-626.463	-200.000	-0.187	0.001
-625.449	800.000	-0.033	-0.146
-624.434	-127.121	0.339	-0.050
-623.419	421.726	-0.225	0.489
-622.405	89.444	-0.303	0.342
-621.390	-41.518	0.349	-0.182
-620.376	-28.387	-0.026	0.015
-619.361	-200.000	0.015	0.068
-618.346	800.000	0.040	-0.146
-617.332	-200.000	0.001	0.095
-616.317	800.000	-0.039	0.154
-615.303	-168.273	0.072	-0.003
-614.288	-17.325	-0.073	0.047
-613.273	-28.057	-0.157	-0.092
-612.259	438.556	-0.042	-0.094
-611.244	-63.796	-0.314	-0.130
-610.230	418.574	-0.019	-0.041
-609.215	-134.863	-0.198	-0.024
-608.201	390.306	0.061	-0.129
-607.186	800.000	-0.061	-0.180
-606.171	-104.988	-0.072	0.017
-605.157	-122.118	0.272	0.045
-604.142	-109.176	0.253	-0.054
-603.128	-200.000	-0.017	0.161
-602.113	-143.603	-0.165	-0.016
-601.098	59.568	0.057	0.057
-600.084	-73.481	-0.168	0.062
-599.069	800.000	-0.046	-0.181
-598.055	451.247	-0.057	-0.128
-597.040	-78.643	-0.235	-0.081
-596.025	800.000	-0.043	-0.131
-595.011	800.000	-0.050	-0.168
-593.996	-200.000	0.003	-0.041
-592.982	800.000	-0.069	-0.217
-591.967	-50.304	0.264	0.126
-590.952	-109.891	0.184	0.039
-589.938	-90.746	-0.316	0.092
-588.923	-121.910	-0.217	0.036
-587.909	45.281	0.099	0.093
-586.894	188.657	0.263	-0.398
-585.879	434.017	-0.208	-0.456
-584.865	393.058	0.133	0.279
-583.850	-200.000	-0.000	0.327
-582.836	-200.000	-0.004	0.055
-581.821	-94.118	0.231	0.064
-580.806	-62.091	0.108	-0.046
-579.792	800.000	0.065	-0.281
-578.777	-176.920	0.169	-0.004
-577.763	-87.174	0.135	-0.041
-576.748	538.781	-0.100	-0.240
-575.733	634.275	0.073	-0.187
-574.719	800.000	-0.085	-0.250
-573.704	-158.025	0.333	0.020
-572.690	-42.450	0.159	-0.082
-571.675	-200.000	0.004	0.171
-570.661	-36.457	0.279	-0.152
-569.646	14.703	-0.154	-0.122
-568.631	81.448	-0.141	-0.154
-567.617	160.483	0.146	-0.206
-566.602	-20.626	0.123	0.077
-565.588	-94.461	0.168	0.046
-564.573	170.668	0.050	0.072
-563.558	0.330	-0.128	-0.092
-562.544	-163.997	0.315	0.015
-561.529	466.388	0.109	-0.247
-560.515	800.000	0.059	-0.222
-559.500	800.000	-0.071	-0.297
-558.485	-37.571	-0.077	0.042
-557.471	-71.697	0.246	0.093
-556.456	-110.590	-0.232	-0.049
-555.442	139.913	-0.177	-0.235
-554.427	-200.000	0.058	-0.312
-553.412	59.349	-0.212	-0.211
-552.398	-123.858	0.189	0.030
-551.383	104.834	0.118	0.141
-550.369	37.044	0.261	-0.234
-549.354	-84.635	0.140	-0.045
-548.339	-181.335	-0.096	0.002
-547.325	-139.962	0.173	-0.018
-546.310	-200.000	-0.002	0.126
-545.296	-142.523	0.025	0.002
-544.281	-40.955	-0.105	-0.055
-543.266	-50.385	-0.276	0.132
-542.252	-43.137	0.065	0.033
-541.237	-200.000	0.002	-0.126
-540.223	-200.000	0.016	0.207
-539.208	554.979	-0.067	0.164
-538.193	-169.879	-0.380	0.014
-537.179	151.609	-0.028	-0.039
-536.164	-200.000	-0.005	-0.418
-535.150	58.470	0.207	0.205
-534.135	58.681	0.102	0.101
-533.121	-64.812	0.233	0.095
-532.106	-115.626	0.153	0.029
-531.091	-96.319	0.271	-0.072
-530.077	-131.905	-0.336	-0.044
-529.062	20.647	0.144	-0.118
-528.048	-200.000	-0.029	0.147
-527.033	-40.683	-0.111	-0.058
-526.018	687.345	-0.074	0.194
-525.004	-108.835	0.139	0.030
-523.989	-200.000	0.009	0.157
-522.975	283.520	-0.212	0.385
-521.960	14.739	-0.185	-0.146
-520.945	-123.475	-0.166	0.027
-519.931	211.888	-0.136	0.216
-518.916	597.386	0.095	-0.238
-517.902	-200.000	-0.010	-0.152
-516.887	800.000	0.067	-0.231
-515.872	-200.000	-0.089	0.471
-514.858	62.842	0.222	0.224
-513.843	794.245	-0.105	-0.291
-512.829	154.220	-0.129	-0.179
-511.814	-113.248	0.315	0.062
-510.799	-58.195	-0.315	0.138
-509.785	-200.000	0.018	0.081
-508.770	302.558	-0.053	0.099
-507.756	68.114	-0.353	-0.365
-506.741	51.317	-0.180	-0.172
-505.726	687.580	0.124	-0.328
-504.712	-138.680	-0.341	-0.038
-503.697	600.910	-0.143	0.359
-502.683	-200.000	-0.015	-0.097
-501.668	157.315	0.086	-0.120
-500.653	-64.084	-0.085	-0.035
-499.639	5.844	0.204	0.152
-498.624	517.355	-0.022	0.053
-497.610	-75.049	0.302	0.109
-496.595	-90.775	-0.121	-0.035
-495.581	800.000	0.066	-0.260
-494.566	202.873	0.057	0.089
-493.551	-31.566	-0.107	-0.061
-492.537	271.164	-0.170	-0.302
-491.522	520.687	-0.128	-0.303
-490.508	165.911	0.153	-0.218
-489.493	800.000	0.010	0.044
-488.478	800.000	0.089	0.338
-487.464	73.374	-0.066	0.070
-486.449	-10.353	-0.080	0.054
-485.435	-36.023	-0.201	-0.110
-484.420	-90.084	0.297	0.087
-483.405	-200.000	-0.118	0.573
-482.391	-161.686	0.163	0.008
-481.376	-141.384	-0.420	-0.043
-480.362	10.869	0.172	-0.132
-479.347	-200.000	0.024	-0.547
-478.332	638.030	-0.162	-0.415
-477.318	-60.066	0.350	0.150
-476.303	-155.790	0.402	-0.026
-475.289	7.479	-0.084	0.063
-474.274	-142.613	0.240	0.024
-473.259	-99.110	0.197	-0.050
-472.245	33.965	-0.274	0.241
-471.230	-3.804	0.128	0.090
-470.216	375.068	0.036	-0.073
-469.201	290.599	0.090	0.165
-468.186	800.000	0.022	-0.071
-467.172	200.837	-0.140	0.217
-466.157	-51.767	0.329	0.154
-465.143	10.104	-0.203	0.156
-464.128	-129.366	0.318	-0.045
-463.113	-106.661	0.209	-0.047
-462.099	-200.000	-0.048	-0.224
-461.084	47.785	0.182	0.171
-460.070	59.117	-0.358	0.354
-459.055	598.780	-0.114	0.284
-458.040	356.488	-0.160	0.321
-457.026	-158.833	-0.165	0.009
-456.011	-40.783	0.064	-0.033
-454.997	125.595	0.148	0.188
-453.982	-175.020	0.556	-0.016
-452.968	-60.303	0.193	0.083
-451.953	412.973	0.073	0.157
-450.938	-106.822	0.297	-0.066
-449.924	-76.592	0.114	0.040
-448.909	51.551	-0.186	-0.178
-447.895	-86.181	-0.094	0.029
-446.880	-38.003	-0.386	0.206
-445.865	800.000	-0.073	-0.226
-444.851	-24.872	-0.273	0.163
-443.836	-200.000	0.000	-0.039
-442.822	74.266	0.095	-0.101
-441.807	28.118	-0.080	0.068
-440.792	799.134	0.108	0.300
-439.778	59.733	-0.401	-0.398
-438.763	-99.129	-0.168	-0.043
-437.749	14.626	-0.227	-0.179
-436.734	180.027	0.095	-0.140
-435.719	-200.000	0.014	0.310
-434.705	-6.016	0.224	0.154
-433.690	-2.598	0.172	0.121
-432.676	182.548	-0.050	-0.074
-431.661	-42.249	0.145	0.075
-430.646	-63.955	0.263	0.108
-429.632	-152.693	-0.313	-0.022
-428.617	102.410	0.046	-0.054
-427.603	-200.000	-0.019	0.242
-426.588	-102.294	0.191	-0.046
-425.573	82.407	-0.264	-0.289
-424.559	-138.860	0.102	0.011
-423.544	-95.193	0.321	-0.087
-422.530	800.000	-0.050	0.195
-421.515	-20.074	-0.193	0.120
-420.500	2.403	0.271	-0.197
-419.486	208.885	0.099	-0.155
-418.471	-12.257	0.115	0.075
-417.457	681.422	0.042	-0.111
-416.442	800.000	0.090	0.337
-415.428	90.464	-0.163	0.183
-414.413	30.941	-0.142	0.122
-413.398	-89.223	-0.048	0.014
-412.384	159.940	0.099	0.138
-411.369	-104.235	-0.232	-0.054
-410.355	46.736	-0.199	-0.186
-409.340	273.918	-0.096	0.170
-408.325	-42.529	-0.109	-0.056
-407.311	-179.061	0.134	-0.003
-406.296	-200.000	-0.022	0.110
-405.282	147.742	-0.074	-0.101
-404.267	-49.022	-0.235	-0.113
-403.252	-200.000	0.039	0.194
-402.238	-200.000	-0.006	0.106
-401.223	800.000	0.077	0.254
-400.209	41.109	-0.095	0.087
-399.194	76.794	-0.114	-0.121
-398.179	139.979	-0.191	-0.252
-397.165	-68.965	0.214	0.083
-396.150	-200.000	0.001	-0.334
-395.136	-122.996	0.396	0.064
-394.121	705.731	0.191	-0.506
-393.106	113.593	0.207	-0.253
-392.092	-129.586	0.219	0.030
-391.077	-26.112	-0.246	-0.145
-390.063	99.771	0.265	-0.308
-389.048	95.244	0.451	0.515
-388.033	398.158	-0.035	0.074
-387.019	600.715	-0.064	0.161
-386.004	-56.205	0.070	-0.031
-384.990	-17.329	-0.373	-0.236
-383.975	-200.000	0.027	-0.211
-382.960	139.820	-0.306	-0.404
-381.946	75.505	-0.125	0.133
-380.931	2.882	-0.040	-0.029
-379.917	-130.452	0.184	0.025
-378.902	-200.000	0.026	-0.121
-377.888	185.743	-0.030	0.045
-376.873	-84.802	-0.141	-0.044
-375.858	-200.000	-0.030	0.159
-374.844	148.566	-0.036	-0.049
-373.829	-200.000	-0.016	0.298
-372.815	-200.000	-0.024	0.171
-371.800	800.000	0.015	0.066
-370.785	116.685	0.202	0.248
-369.771	154.898	-0.051	0.070
-368.756	-96.157	0.196	0.052
-367.742	449.264	-0.042	0.093
-366.727	-191.490	-0.040	0.000
-365.712	100.636	-0.107	0.125
-364.698	-32.209	0.060	-0.034
-363.683	743.337	-0.087	-0.236
-362.669	-200.000	-0.055	-0.279
-361.654	800.000	-0.081	0.314
-360.639	800.000	0.057	0.161
-359.625	-36.627	-0.133	0.072
-358.610	-20.163	0.212	0.131
-357.596	49.201	-0.094	0.089
-356.581	278.098	-0.134	0.239
-355.566	-106.078	-0.309	0.070
-354.552	-161.751	0.108	-0.006
-353.537	-30.667	-0.158	-0.089
-352.523	-200.000	0.003	0.287
-351.508	-91.159	-0.414	0.119
-350.493	85.702	0.045	-0.050
-349.479	6.136	-0.194	0.144
-348.464	-200.000	0.092	0.418
-347.450	-113.037	0.074	0.015
-346.435	237.451	-0.067	-0.111
-345.420	631.096	0.160	0.406
-344.406	292.842	0.064	0.116
-343.391	-83.530	0.162	-0.052
-342.377	-27.091	-0.097	-0.056
-341.362	-124.410	0.052	-0.008
-340.348	444.684	-0.172	0.378
-339.333	772.967	0.084	-0.230
-338.318	-33.663	0.212	0.117
-337.304	-120.749	-0.262	0.044
-336.289	800.000	-0.079	0.225
-335.275	98.332	-0.022	-0.025
-334.260	214.528	-0.038	-0.060
-333.245	-200.000	0.069	0.388
-332.231	-72.094	0.265	-0.099
-331.216	-139.860	0.157	-0.017
-330.202	800.000	-0.126	-0.543
-329.187	-200.000	-0.052	-0.296
-328.172	62.522	-0.185	0.185
-327.158	216.863	-0.140	0.223
-326.143	501.603	0.057	-0.132
-325.129	-30.795	0.146	0.082
-324.114	-139.808	0.260	-0.028
-323.099	-10.635	0.105	0.070
-322.085	4.527	0.301	0.221
-321.070	-100.806	0.119	-0.029
-320.056	320.013	0.134	-0.254
-319.041	-24.365	0.082	-0.049
-318.026	3.932	-0.112	-0.082
-317.012	-200.000	-0.088	0.000
-315.997	10.885	0.065	0.050
-314.983	-18.637	0.031	-0.020
-313.968	-55.173	-0.119	-0.054
-312.953	-200.000	-0.061	-0.314
-311.939	-78.680	-0.232	-0.079
-310.924	162.271	-0.173	-0.243
-309.910	107.229	0.099	0.117
-308.895	-138.645	0.166	0.018
-307.880	-190.667	-0.273	0.003
-306.866	-127.166	-0.059	0.009
-305.851	195.677	-0.114	0.174
-304.837	-83.808	-0.378	0.121
-303.822	53.798	-0.126	0.121
-302.807	-19.316	0.181	-0.112
-301.793	-26.149	0.205	0.121
-300.778	536.133	-0.087	0.206
-299.764	-200.000	0.032	0.349
-298.749	213.763	-0.064	0.101
-297.735	-200.000	0.006	0.478
-296.720	750.367	-0.091	0.244
-295.705	-200.000	-0.010	0.201
-294.691	-3.880	-0.353	-0.245
-293.676	244.436	0.155	-0.261
-292.662	390.957	-0.082	-0.170
-291.647	-200.000	0.030	-0.418
-290.632	695.707	0.091	-0.240
-289.618	208.160	-0.150	0.234
-288.603	-200.000	-0.020	-0.113
-287.589	-87.628	-0.385	0.116
-286.574	62.019	0.023	-0.023
-285.559	-200.000	0.006	0.042
-284.545	-130.515	0.198	0.027
-283.530	606.383	-0.073	-0.182
-282.516	-42.832	-0.215	0.109
-281.501	229.169	0.160	-0.260
-280.486	22.673	0.108	0.088
-279.472	181.573	-0.129	0.190
-278.457	231.231	0.116	0.191
-277.443	-7.590	0.206	-0.139
-276.428	-200.000	-0.017	-0.340
-275.413	-111.468	-0.083	0.017
-274.399	192.811	0.056	-0.085
-273.384	33.147	-0.112	-0.097
-272.370	-57.162	-0.110	-0.048
-271.355	-111.444	-0.190	-0.039
-270.340	99.552	0.172	-0.199
-269.326	45.124	-0.414	-0.381
-268.311	-17.112	0.345	-0.218
-267.297	48.842	-0.170	-0.159
-266.282	-200.000	0.043	0.267
-265.267	-148.545	-0.108	-0.009
-264.253	116.981	-0.136	-0.167
-263.238	28.465	-0.258	0.218
-262.224	-125.793	-0.184	-0.028
-261.209	-200.000	-0.025	0.217
-260.195	150.197	0.187	0.253
-259.180	-188.263	0.160	0.002
-258.165	800.000	-0.036	-0.106
-257.151	-200.000	0.017	0.277
-256.136	33.719	0.145	-0.126
-255.122	-57.074	-0.130	0.057
-254.107	-8.179	-0.200	-0.135
-253.092	-62.629	0.327	-0.136
-252.078	120.975	-0.308	0.383
-251.063	193.022	0.122	0.185
-250.049	-25.481	0.266	0.157
-249.034	249.307	0.064	0.108
-248.019	143.665	0.201	-0.268
-247.005	-114.253	0.301	-0.058
-245.990	-40.245	-0.294	-0.153
-244.976	-200.000	0.044	-0.283
-243.961	800.000	-0.058	0.205
-242.946	-14.761	-0.101	0.065
-241.932	-200.000	0.034	0.183
-240.917	-49.408	0.251	-0.119
-239.903	13.176	-0.278	-0.215
-238.888	800.000	0.118	0.331
-237.873	-200.000	-0.076	0.396
-236.859	1.129	-0.364	-0.261
-235.844	800.000	-0.093	-0.282
-234.830	-30.280	0.453	-0.257
-233.815	-63.504	0.268	0.110
-232.800	-61.325	-0.137	-0.058
-231.786	132.910	-0.069	0.089
-230.771	-200.000	-0.002	0.339
-229.757	-200.000	-0.051	0.239
-228.742	51.648	-0.082	-0.078
-227.727	-106.414	0.129	-0.029
-226.713	-161.295	-0.276	-0.014
-225.698	117.201	0.185	0.227
-224.684	800.000	0.048	-0.206
-223.669	-200.000	0.042	-0.213
-222.655	800.000	0.055	0.173
-221.640	55.431	0.084	0.081
-220.625	-58.887	0.368	0.159
-219.611	32.756	-0.178	-0.154
-218.596	-32.391	-0.152	0.085
-217.582	-88.345	0.026	0.008
-216.567	327.670	-0.070	0.133
-215.552	286.416	0.094	0.169
-214.538	-101.894	-0.194	0.047
-213.523	280.879	0.089	0.158
-212.509	-200.000	0.023	0.215
-211.494	-42.652	-0.027	-0.014
-210.479	92.846	-0.082	-0.092
-209.465	-73.042	0.287	0.105
-208.450	-200.000	0.010	0.196
-207.436	-200.000	0.010	0.088
-206.421	92.308	-0.272	0.306
-205.406	166.421	-0.189	-0.266
-204.392	-73.111	0.211	-0.077
-203.377	800.000	-0.045	0.178
-202.363	800.000	-0.065	0.215
-201.348	-152.150	-0.332	-0.024
-200.333	-134.381	-0.391	-0.048
-199.319	-24.146	-0.180	0.107
-198.304	-113.788	-0.185	0.036
-197.290	19.509	0.098	-0.079
-196.275	-152.951	0.339	0.024
-195.260	800.000	0.086	0.329
-194.246	-200.000	0.036	0.226
-193.231	-200.000	-0.013	0.206
-192.217	-94.107	0.081	0.022
-191.202	800.000	0.033	-0.127
-190.187	675.992	0.022	0.058
-189.173	252.109	0.087	-0.147
-188.158	-200.000	0.000	0.005
-187.144	-141.373	0.150	0.015
-186.129	-200.000	-0.002	-0.026
-185.114	-33.709	-0.328	0.180
-184.100	-37.272	-0.258	-0.137
-183.085	-133.790	0.246	-0.031
-182.071	-6.514	-0.258	-0.175
-181.056	-27.836	0.157	-0.091
-180.042	61.961	0.101	-0.100
-179.027	159.664	0.098	-0.135
-178.012	-121.713	0.146	-0.024
-176.998	800.000	0.095	-0.338
-175.983	86.160	0.148	0.162
-174.969	-61.919	0.244	-0.102
-173.954	48.852	-0.115	0.107
-172.939	-131.884	-0.164	0.021
-171.925	-83.993	-0.167	-0.053
-170.910	148.562	-0.075	-0.100
-169.896	278.217	0.151	0.267
-168.881	-43.096	0.108	-0.054
-167.866	-43.824	0.291	-0.146
-166.852	-162.763	0.113	-0.005
-165.837	366.578	-0.056	-0.113
-164.823	-200.000	-0.076	-0.375
-163.808	-200.000	0.020	0.237
-162.793	-200.000	-0.011	-0.053
-161.779	621.006	-0.024	0.061
-160.764	-200.000	0.006	0.210
-159.750	-200.000	0.001	0.136
-158.735	629.230	0.058	-0.147
-157.720	-200.000	0.150	0.000
-156.706	-200.000	0.000	0.085
-155.691	-62.828	-0.170	-0.070
-154.677	-101.465	0.328	0.079
-153.662	-86.759	-0.259	0.079
-152.647	-57.804	-0.293	-0.128
-151.633	610.253	0.134	-0.333
-150.618	800.000	0.012	-0.052
-149.604	459.192	0.063	0.140
-148.589	46.010	0.195	-0.180
-147.574	-200.000	0.005	0.159
-146.560	383.365	0.060	-0.124
-145.545	92.213	0.007	0.007
-144.531	-118.254	0.160	-0.028
-143.516	800.000	0.087	0.268
-142.502	384.273	0.119	0.244
-141.487	379.677	0.166	0.339
-140.472	-200.000	-0.007	0.188
-139.458	-73.627	-0.354	-0.128
-138.443	52.783	-0.145	-0.138
-137.429	238.458	-0.086	0.142
-136.414	27.276	0.185	0.155
-135.399	-109.076	0.176	-0.037
-134.385	-92.071	0.292	0.082
-133.370	17.033	0.284	-0.224
-132.356	44.338	0.304	-0.278
-131.341	701.885	-0.096	-0.252
-130.326	305.790	-0.070	0.130
-129.312	-92.733	-0.226	-0.063
-128.297	-57.644	-0.352	0.154
-127.283	223.134	0.130	0.209
-126.268	-7.366	0.120	0.081
-125.253	-33.098	0.153	-0.084
-124.239	88.058	0.215	-0.237
-123.224	343.957	-0.094	0.183
-122.210	399.045	-0.066	-0.138
-121.195	-137.856	0.122	-0.014
