DTS Sentinel unit serial number:	SN413079Multiplexer serial number:	ORYXHardware model number:	OX4-SRSoftware version number:	ORYX F/W v4.00 Oryx Data Collector v3.7.2.0data status	okinstallation	princeton_trtdifferential loss correction	single-endedforward channel	channel 4reverse channel	N/Adate	2019/09/17time	21:33:35forward acquisition time	60.00reverse acquisition time	0.00gamma	496.2192k internal	0.2327k external	0.2327temperature offset calibration	0.9993default loss term (dB/km)	0.3790temperature slope calibration	1.0000multiplexer offset coefficient	1.0000multiplexer slope coefficient	1.0000fibre end	0.00T internal ref (°C)	27.02T ext. ref 1 (°C)	0.19T ext. ref 2 (°C)	19.19length (m)	temperature (°C)	Stokes	anti-Stokes-747.200	321.054	0.043	0.082
-746.185	800.000	-0.097	0.358
-745.171	7.228	-0.227	0.171
-744.156	-95.492	-0.241	0.065
-743.142	498.404	-0.060	0.140
-742.127	25.685	-0.233	0.196
-741.112	-122.321	-0.129	0.021
-740.098	36.362	-0.166	0.148
-739.083	-50.838	0.174	0.082
-738.069	-85.607	0.236	0.074
-737.054	-83.522	-0.269	0.087
-736.039	243.816	-0.069	-0.117
-735.025	16.667	-0.111	-0.089
-734.010	800.000	0.130	0.456
-732.996	470.972	-0.076	-0.172
-731.981	484.456	0.074	-0.169
-730.966	-134.503	0.157	-0.019
-729.952	165.606	-0.207	-0.295
-728.937	-168.156	-0.200	-0.008
-727.923	210.497	-0.202	0.320
-726.908	800.000	0.073	-0.260
-725.894	800.000	0.105	-0.307
-724.879	-8.313	-0.204	0.138
-723.864	-35.431	-0.116	-0.063
-722.850	-92.013	0.247	-0.070
-721.835	800.000	-0.056	-0.184
-720.821	-2.942	0.203	-0.143
-719.806	-200.000	0.038	-0.170
-718.791	800.000	-0.124	-0.373
-717.777	165.913	0.225	-0.320
-716.762	96.456	-0.306	0.353
-715.748	-6.007	-0.246	0.169
-714.733	76.078	0.047	0.050
-713.718	238.707	-0.057	0.095
-712.704	-52.490	-0.357	-0.166
-711.689	-200.000	0.009	0.459
-710.675	-71.779	0.326	-0.122
-709.660	-54.430	-0.246	-0.112
-708.645	-46.260	0.092	-0.046
-707.631	-73.274	-0.086	0.032
-706.616	-200.000	0.009	0.349
-705.602	-147.951	0.181	0.015
-704.587	-117.588	-0.089	0.016
-703.572	800.000	-0.100	0.334
-702.558	-200.000	0.003	-0.062
-701.543	-24.273	-0.077	-0.046
-700.529	-200.000	0.001	0.116
-699.514	301.747	0.075	-0.140
-698.499	217.917	-0.189	0.304
-697.485	4.780	0.214	-0.159
-696.470	307.000	-0.103	0.194
-695.456	113.852	0.211	-0.258
-694.441	155.750	0.182	-0.252
-693.426	-56.051	-0.052	-0.023
-692.412	-59.576	-0.136	-0.059
-691.397	1.643	-0.163	-0.118
-690.383	14.197	0.167	-0.131
-689.368	-84.942	0.119	0.037
-688.354	-64.510	-0.091	0.037
-687.339	-117.003	0.250	0.046
-686.324	296.499	0.044	0.081
-685.310	44.962	-0.112	-0.103
-684.295	-200.000	-0.009	-0.563
-683.281	-90.200	-0.129	-0.038
-682.266	39.444	-0.246	-0.222
-681.251	149.951	-0.122	-0.167
-680.237	-32.675	-0.284	0.159
-679.222	-124.597	0.333	-0.052
-678.208	800.000	-0.024	-0.076
-677.193	32.540	-0.283	0.246
-676.178	85.121	-0.315	-0.348
-675.164	332.243	-0.065	-0.125
-674.149	36.749	-0.223	-0.198
-673.135	367.333	0.093	0.189
-672.120	-200.000	-0.001	0.301
-671.105	74.267	-0.168	0.178
-670.091	-58.510	-0.183	0.080
-669.076	-192.592	0.152	-0.001
-668.062	-72.401	0.308	-0.114
-667.047	692.999	0.160	0.422
-666.032	-200.000	-0.027	0.252
-665.018	91.510	0.232	-0.263
-664.003	156.506	-0.122	-0.170
-662.989	-69.392	-0.300	0.116
-661.974	64.520	0.134	0.136
-660.959	-63.308	0.119	-0.049
-659.945	-25.606	0.254	-0.151
-658.930	800.000	0.066	-0.220
-657.916	-115.589	0.335	-0.063
-656.901	196.929	0.087	-0.134
-655.886	282.454	-0.051	0.093
-654.872	324.736	-0.160	-0.307
-653.857	-105.869	-0.378	-0.086
-652.843	-140.522	0.117	0.012
-651.828	-60.517	-0.350	-0.149
-650.814	-200.000	-0.001	-0.016
-649.799	-5.145	0.226	-0.156
-648.784	7.223	0.184	-0.138
-647.770	273.436	0.048	-0.086
-646.755	-84.850	-0.185	-0.058
-645.741	-57.220	0.261	-0.115
-644.726	65.359	-0.359	0.365
-643.711	322.739	-0.065	-0.124
-642.697	800.000	-0.090	0.297
-641.682	21.805	0.254	-0.208
-640.668	-200.000	0.007	-0.044
-639.653	800.000	0.063	-0.223
-638.638	-200.000	-0.010	0.111
-637.624	-200.000	0.002	-0.162
-636.609	-125.972	0.112	0.017
-635.595	196.573	-0.071	0.109
-634.580	35.181	-0.178	-0.157
-633.565	-98.972	0.028	-0.007
-632.551	-88.610	-0.229	0.068
-631.536	-69.764	-0.169	0.065
-630.522	-99.559	-0.034	-0.009
-629.507	-41.746	-0.246	-0.127
-628.492	476.910	0.021	0.048
-627.478	-45.864	-0.209	-0.104
-626.463	133.842	-0.071	-0.092
-625.449	153.831	-0.132	0.181
-624.434	-3.486	0.028	0.019
-623.419	729.744	0.132	0.353
-622.405	346.118	0.137	-0.271
-621.390	-200.000	-0.024	0.117
-620.376	71.712	-0.179	-0.186
-619.361	-11.167	-0.246	-0.163
-618.346	9.755	-0.070	0.054
-617.332	49.976	-0.071	-0.067
-616.317	-68.866	0.173	-0.067
-615.303	148.662	-0.133	0.180
-614.288	-2.222	-0.174	0.123
-613.273	-200.000	0.004	-0.089
-612.259	52.855	0.048	-0.046
-611.244	1.712	0.357	-0.258
-610.230	134.061	0.096	0.124
-609.215	-97.053	0.171	-0.045
-608.201	800.000	-0.047	0.148
-607.186	-156.284	0.463	0.029
-606.171	800.000	-0.032	0.131
-605.157	369.121	-0.118	-0.240
-604.142	-200.000	0.007	-0.271
-603.128	52.981	0.112	-0.108
-602.113	52.418	0.121	-0.116
-601.098	511.283	0.055	-0.129
-600.084	-200.000	-0.018	0.106
-599.069	4.018	0.203	-0.149
-598.055	-54.230	-0.252	0.115
-597.040	-5.744	0.068	0.047
-596.025	75.827	-0.218	0.231
-595.011	-25.917	-0.145	-0.086
-593.996	800.000	0.093	-0.312
-592.982	167.964	0.086	-0.123
-591.967	800.000	0.071	-0.261
-590.952	127.803	-0.155	0.197
-589.938	-7.844	0.054	0.036
-588.923	42.253	-0.109	-0.099
-587.909	-26.290	-0.198	0.117
-586.894	354.456	0.117	0.233
-585.879	547.119	0.013	0.030
-584.865	-177.153	0.218	-0.005
-583.850	-96.942	0.152	0.040
-582.836	-200.000	0.007	-0.225
-581.821	200.235	-0.185	-0.285
-580.806	48.253	0.360	0.338
-579.792	-81.612	-0.077	0.025
-578.777	-200.000	0.009	-0.086
-577.763	21.215	0.365	0.297
-576.748	648.313	0.050	-0.129
-575.733	-200.000	-0.006	-0.099
-574.719	303.412	0.076	-0.142
-573.704	147.995	-0.177	-0.240
-572.690	7.896	0.188	-0.141
-571.675	75.166	0.015	-0.016
-570.661	800.000	0.019	-0.072
-569.646	-54.494	0.252	0.114
-568.631	22.342	-0.121	-0.099
-567.617	-53.756	-0.266	0.121
-566.602	33.472	0.082	-0.071
-565.588	578.889	0.008	-0.019
-564.573	800.000	-0.154	-0.520
-563.558	41.994	-0.258	-0.235
-562.544	-200.000	-0.016	0.429
-561.529	13.540	-0.211	0.164
-560.515	800.000	0.028	-0.115
-559.500	270.229	-0.129	-0.227
-558.485	119.164	0.137	-0.170
-557.471	-75.063	-0.063	-0.022
-556.456	800.000	-0.074	-0.209
-555.442	-200.000	0.042	-0.205
-554.427	25.850	-0.050	0.042
-553.412	-81.372	-0.187	-0.061
-552.398	24.463	-0.197	-0.163
-551.383	122.377	-0.271	0.339
-550.369	116.230	-0.135	0.165
-549.354	-200.000	-0.016	-0.340
-548.339	-86.864	0.125	-0.038
-547.325	800.000	-0.075	0.254
-546.310	475.521	0.042	0.096
-545.296	349.928	-0.194	-0.383
-544.281	-200.000	-0.009	0.111
-543.266	-200.000	0.010	-0.124
-542.252	238.879	-0.067	0.112
-541.237	417.467	-0.166	0.354
-540.223	21.160	-0.125	0.101
-539.208	-33.523	0.216	0.119
-538.193	662.526	0.023	-0.060
-537.179	277.907	-0.030	0.054
-536.164	-95.196	0.380	0.103
-535.150	-37.067	0.397	-0.213
-534.135	-56.886	-0.151	-0.067
-533.121	-31.467	0.123	-0.069
-532.106	-72.979	0.236	0.087
-531.091	55.099	0.185	0.179
-530.077	800.000	-0.057	-0.234
-529.062	758.607	0.032	-0.087
-528.048	-105.381	-0.095	0.022
-527.033	72.079	0.090	-0.094
-526.018	120.335	-0.114	-0.142
-525.004	-130.867	0.177	0.024
-523.989	34.426	-0.194	-0.169
-522.975	104.071	-0.240	-0.282
-521.960	-200.000	0.002	-0.047
-520.945	800.000	-0.075	0.208
-519.931	-200.000	0.040	0.306
-518.916	-99.829	0.128	0.032
-517.902	-34.541	-0.399	0.219
-516.887	68.616	0.140	-0.144
-515.872	797.136	0.034	-0.095
-514.858	-101.066	-0.195	-0.048
-513.843	-200.000	0.066	0.395
-512.829	-200.000	0.009	0.106
-511.814	393.232	0.096	0.200
-510.799	-200.000	0.023	0.188
-509.785	-139.240	-0.213	-0.023
-508.770	-13.778	-0.160	-0.103
-507.756	-13.514	0.132	-0.086
-506.741	589.795	0.048	-0.118
-505.726	256.655	-0.170	0.291
-504.712	356.659	-0.117	-0.233
-503.697	129.410	-0.168	-0.214
-502.683	-200.000	-0.063	-0.335
-501.668	386.697	-0.096	0.197
-500.653	94.478	-0.117	-0.133
-499.639	49.700	0.075	-0.070
-498.624	-200.000	0.045	-0.294
-497.610	102.990	0.129	0.151
-496.595	229.311	-0.067	0.109
-495.581	-50.044	-0.168	-0.079
-494.566	-68.139	-0.047	0.018
-493.551	304.288	0.061	0.113
-492.537	800.000	-0.045	-0.168
-491.522	800.000	0.054	0.233
-490.508	-6.849	0.132	0.089
-489.493	-200.000	-0.092	0.412
-488.478	152.378	0.215	0.292
-487.464	800.000	0.140	-0.465
-486.449	47.326	-0.088	-0.082
-485.435	96.010	-0.196	0.223
-484.420	-200.000	-0.021	-0.371
-483.405	-93.442	0.124	-0.034
-482.391	12.315	0.334	-0.257
-481.376	-58.136	0.146	-0.063
-480.362	-94.011	0.214	-0.059
-479.347	-193.816	0.128	0.001
-478.332	-186.305	-0.067	-0.001
-477.318	-200.000	-0.037	0.249
-476.303	-132.836	0.273	-0.035
-475.289	386.977	0.145	0.300
-474.274	-200.000	-0.009	0.169
-473.259	-81.697	0.073	0.024
-472.245	-88.522	-0.405	-0.120
-471.230	-40.658	-0.079	-0.041
-470.216	-146.089	-0.046	0.004
-469.201	-60.751	-0.206	-0.087
-468.186	186.883	0.056	0.084
-467.172	-200.000	0.053	-0.307
-466.157	-148.330	-0.184	0.015
-465.143	407.885	0.103	-0.218
-464.128	-200.000	-0.022	0.352
-463.113	-45.961	-0.190	0.093
-462.099	800.000	0.036	-0.141
-461.084	-200.000	-0.017	-0.511
-460.070	-200.000	0.013	-0.155
-459.055	478.793	-0.087	-0.197
-458.040	-200.000	0.006	0.250
-457.026	-109.860	0.105	0.022
-456.011	-153.265	-0.178	-0.012
-454.997	100.816	0.207	0.240
-453.982	609.608	0.094	0.233
-452.968	800.000	-0.021	-0.072
-451.953	-116.724	0.195	0.036
-450.938	-89.541	0.288	0.084
-449.924	-167.437	-0.328	0.013
-448.909	-200.000	0.019	-0.151
-447.895	-200.000	0.016	0.241
-446.880	-128.485	-0.157	0.022
-445.865	-14.543	0.238	-0.152
-444.851	187.964	0.161	-0.239
-443.836	53.702	0.052	-0.050
-442.822	-200.000	-0.036	0.187
-441.807	-200.000	-0.031	0.258
-440.792	40.440	0.086	-0.077
-439.778	-87.074	0.127	0.039
-438.763	-62.747	0.113	-0.047
-437.749	-28.324	0.046	0.026
-436.734	-91.082	0.126	0.036
-435.719	-51.540	-0.350	0.163
-434.705	555.429	0.042	0.100
-433.690	-126.848	0.265	-0.039
-432.676	188.778	0.089	0.132
-431.661	-74.378	-0.173	-0.062
-430.646	-200.000	-0.025	0.138
-429.632	-68.602	0.209	-0.081
-428.617	191.435	0.048	0.072
-427.603	-96.099	0.264	0.070
-426.588	96.396	0.013	0.015
-425.573	61.710	0.124	-0.123
-424.559	-200.000	0.130	0.605
-423.544	800.000	0.048	-0.151
-422.530	368.956	-0.121	0.244
-421.515	-85.475	0.294	0.091
-420.500	-109.283	0.230	-0.049
-419.486	37.395	-0.142	0.125
-418.471	-200.000	-0.012	0.251
-417.457	48.565	-0.284	0.264
-416.442	17.905	-0.072	0.057
-415.428	800.000	-0.039	-0.131
-414.413	-37.084	-0.176	0.094
-413.398	-190.552	0.228	0.002
-412.384	8.712	-0.008	-0.006
-411.369	-62.581	0.183	0.075
-410.355	-90.333	0.144	-0.042
-409.340	-94.387	-0.206	0.056
-408.325	-166.870	0.454	0.019
-407.311	800.000	-0.045	-0.137
-406.296	-126.749	-0.051	-0.008
-405.282	-200.000	-0.019	-0.084
-404.267	-70.122	0.132	0.050
-403.252	-10.803	-0.107	0.071
-402.238	-21.148	0.164	0.100
-401.223	-47.367	0.300	-0.145
-400.209	84.534	0.157	0.171
-399.194	-200.000	0.051	0.421
-398.179	-89.634	-0.282	-0.082
-397.165	2.447	-0.248	-0.179
-396.150	-200.000	-0.007	0.355
-395.136	-25.947	-0.390	0.228
-394.121	213.748	-0.143	-0.224
-393.106	-18.945	0.237	0.147
-392.092	186.629	-0.010	-0.015
-391.077	-19.051	0.384	0.237
-390.063	-75.656	-0.187	-0.066
-389.048	800.000	0.114	0.399
-388.033	-55.995	-0.094	0.042
-387.019	-86.230	0.471	0.144
-386.004	800.000	-0.046	-0.129
-384.990	87.696	0.165	0.182
-383.975	73.627	0.132	0.137
-382.960	-200.000	-0.010	-0.251
-381.946	-98.211	0.108	-0.028
-380.931	-5.770	-0.296	-0.202
-379.917	-144.282	-0.461	-0.043
-378.902	-20.830	0.088	0.054
-377.888	800.000	0.085	0.294
-376.873	-200.000	-0.011	0.067
-375.858	128.646	0.128	-0.162
-374.844	155.798	0.106	-0.146
-373.829	-103.039	0.012	0.003
-372.815	800.000	-0.038	-0.131
-371.800	-3.658	-0.344	-0.237
-370.785	261.138	-0.097	0.166
-369.771	279.669	-0.032	-0.056
-368.756	267.229	0.159	-0.276
-367.742	800.000	0.067	-0.183
-366.727	-84.677	0.261	-0.082
-365.712	800.000	0.041	-0.121
-364.698	-2.613	0.312	-0.217
-363.683	800.000	0.013	0.049
-362.669	265.092	-0.083	-0.144
-361.654	800.000	0.031	-0.105
-360.639	-103.587	0.353	0.082
-359.625	-200.000	0.063	-0.306
-358.610	-123.968	0.260	-0.041
-357.596	800.000	0.115	-0.334
-356.581	229.053	0.102	-0.165
-355.566	-11.886	-0.240	0.156
-354.552	-200.000	0.001	0.112
-353.537	-100.732	-0.171	0.042
-352.523	54.735	0.099	-0.095
-351.508	607.496	0.058	0.143
-350.493	198.732	-0.074	-0.113
-349.479	-103.248	-0.392	-0.092
-348.464	201.804	-0.153	-0.234
-347.450	-61.100	0.064	0.027
-346.435	-18.559	0.276	0.171
-345.420	88.274	-0.395	0.435
-344.406	800.000	0.041	-0.163
-343.391	332.715	0.135	-0.259
-342.377	14.939	0.145	-0.113
-341.362	800.000	0.080	-0.236
-340.348	471.113	-0.067	-0.149
-339.333	789.465	-0.090	0.246
-338.318	-200.000	-0.007	0.231
-337.304	162.011	0.299	0.415
-336.289	-125.340	0.117	0.018
-335.275	-77.704	-0.322	0.110
-334.260	79.799	0.101	-0.108
-333.245	-86.629	0.111	0.034
-332.231	800.000	-0.044	-0.143
-331.216	-52.189	0.370	0.170
-330.202	800.000	-0.028	0.100
-329.187	384.073	0.044	-0.089
-328.172	-20.418	-0.268	0.164
-327.158	-81.736	-0.322	0.105
-326.143	-200.000	0.046	-0.440
-325.129	427.220	-0.131	-0.280
-324.114	-200.000	-0.021	0.169
-323.099	430.697	0.049	-0.105
-322.085	-200.000	0.028	-0.300
-321.070	-39.506	0.053	-0.028
-320.056	-41.939	0.121	0.061
-319.041	800.000	-0.107	-0.423
-318.026	-83.274	0.100	-0.032
-317.012	197.339	0.112	0.169
-315.997	-51.941	0.216	0.100
-314.983	42.888	-0.186	0.168
-313.968	533.922	-0.086	0.201
-312.953	-110.249	-0.424	0.088
-311.939	-74.408	-0.102	0.037
-310.924	-62.478	-0.360	-0.148
-309.910	18.344	-0.247	-0.196
-308.895	270.806	0.178	0.310
-307.880	641.405	-0.116	-0.292
-306.866	69.671	-0.206	-0.210
-305.851	-103.887	0.282	-0.065
-304.837	-49.288	-0.204	-0.097
-303.822	-152.287	-0.119	0.009
-302.807	-122.546	0.342	-0.055
-301.793	59.843	-0.250	0.245
-300.778	338.982	0.153	-0.296
-299.764	-33.836	0.322	-0.176
-298.749	140.180	0.158	-0.207
-297.735	102.728	0.025	0.029
-296.720	41.871	-0.087	-0.078
-295.705	201.164	0.203	-0.309
-294.691	-200.000	0.009	-0.093
-293.676	-106.577	0.070	0.015
-292.662	-200.000	0.021	0.254
-291.647	53.517	-0.037	-0.036
-290.632	-160.484	-0.366	-0.019
-289.618	34.485	0.241	-0.208
-288.603	262.940	0.122	0.210
-287.589	-139.611	-0.062	0.007
-286.574	-70.998	0.338	-0.126
-285.559	-88.745	-0.106	-0.031
-284.545	-42.670	-0.215	-0.108
-283.530	48.565	-0.112	-0.104
-282.516	-2.742	-0.246	0.170
-281.501	-32.148	0.192	-0.106
-280.486	8.435	0.055	0.041
-279.472	308.105	-0.180	0.333
-278.457	229.515	0.071	-0.115
-277.443	125.216	-0.266	0.332
-276.428	456.060	0.136	0.299
-275.413	149.002	0.084	-0.112
-274.399	444.670	-0.105	0.227
-273.384	-144.887	0.422	0.038
-272.370	800.000	0.028	0.103
-271.355	-29.265	-0.043	0.024
-270.340	196.056	0.034	-0.052
-269.326	109.974	-0.069	0.082
-268.311	72.378	0.086	-0.089
-267.297	22.435	0.269	0.218
-266.282	218.377	0.035	-0.055
-265.267	-73.614	0.317	0.114
-264.253	-157.429	0.225	0.013
-263.238	-58.063	0.126	0.054
-262.224	-121.204	0.067	0.011
-261.209	-200.000	-0.011	0.210
-260.195	390.313	-0.087	0.179
-259.180	-42.843	-0.082	0.041
-258.165	-106.645	0.210	0.046
-257.151	-133.896	-0.550	0.068
-256.136	257.633	0.154	0.262
-255.122	7.066	-0.316	0.233
-254.107	-35.149	0.195	-0.105
-253.092	-200.000	-0.025	0.197
-252.078	-88.915	-0.076	-0.022
-251.063	191.175	0.123	0.183
-250.049	-108.163	0.334	-0.071
-249.034	61.017	-0.228	-0.223
-248.019	-91.769	0.202	0.057
-247.005	-97.471	0.269	0.069
-245.990	92.611	-0.302	-0.337
-244.976	-32.744	-0.080	-0.044
-243.961	800.000	-0.036	-0.104
-242.946	244.087	-0.249	-0.413
-241.932	200.039	-0.203	0.307
-240.917	329.667	0.038	-0.072
-239.903	133.743	-0.312	0.400
-238.888	207.723	-0.094	0.145
-237.873	-200.000	-0.089	-0.457
-236.859	800.000	0.078	0.300
-235.844	-73.372	0.034	0.012
-234.830	119.039	-0.277	0.339
-233.815	62.300	-0.311	-0.307
-232.800	37.593	0.180	-0.158
-231.786	-38.334	0.271	0.142
-230.771	800.000	0.080	-0.252
-229.757	-107.364	0.159	-0.035
-228.742	-200.000	-0.007	-0.113
-227.727	19.671	-0.370	0.294
-226.713	249.349	-0.111	0.186
-225.698	-116.759	0.194	0.035
-224.684	110.625	-0.307	0.365
-223.669	142.208	-0.161	-0.211
-222.655	-90.528	0.114	-0.033
-221.640	-200.000	-0.017	-0.129
-220.625	-200.000	-0.017	-0.292
-219.611	453.446	-0.089	-0.195
-218.596	-107.954	-0.322	-0.069
-217.582	800.000	0.023	0.081
-216.567	800.000	0.131	-0.479
-215.552	-64.474	-0.264	0.106
-214.538	-200.000	0.028	0.601
-213.523	-153.706	-0.107	-0.007
-212.509	-200.000	-0.045	0.249
-211.494	147.779	0.100	-0.133
-210.479	270.817	0.103	-0.179
-209.465	-64.180	0.303	-0.122
-208.450	-54.482	0.100	0.045
-207.436	100.653	0.125	-0.144
-206.421	-112.177	-0.161	-0.032
-205.406	210.222	0.145	0.225
-204.392	497.614	0.039	0.089
-203.377	138.036	-0.148	-0.191
-202.363	-200.000	0.012	-0.117
-201.348	256.334	-0.079	-0.133
-200.333	-87.755	-0.220	-0.066
-199.319	11.279	-0.209	0.158
-198.304	81.625	-0.192	-0.205
-197.290	17.080	0.253	-0.198
-196.275	141.936	-0.253	-0.331
-195.260	-147.429	0.079	0.007
-194.246	364.714	-0.103	0.204
-193.231	-200.000	-0.011	0.152
-192.217	-200.000	0.029	0.216
-191.202	-200.000	-0.017	0.113
-190.187	-200.000	0.056	0.392
-189.173	-200.000	-0.011	0.215
-188.158	-70.422	0.068	-0.025
-187.144	-170.962	-0.330	-0.011
-186.129	-111.240	-0.128	0.026
-185.114	-140.783	-0.108	0.011
-184.100	-135.613	-0.283	-0.033
-183.085	170.310	-0.108	0.152
-182.071	-128.677	-0.255	0.036
-181.056	386.190	-0.242	0.494
-180.042	637.421	-0.142	-0.355
-179.027	-94.379	-0.277	0.075
-178.012	60.508	-0.079	-0.077
-176.998	8.206	0.089	-0.066
-175.983	-143.178	0.229	0.022
-174.969	281.897	-0.044	0.078
-173.954	-200.000	0.092	0.534
-172.939	503.273	0.082	0.186
-171.925	-41.778	-0.254	-0.129
-170.910	-104.051	0.292	0.067
-169.896	-94.957	-0.342	-0.091
-168.881	-46.591	0.098	-0.047
-167.866	-178.484	-0.068	-0.002
-166.852	40.382	0.139	-0.123
-165.837	189.287	0.091	0.135
-164.823	800.000	0.090	0.344
-163.808	-139.242	0.153	-0.016
-162.793	-19.646	-0.203	-0.124
-161.779	15.412	0.167	0.129
-160.764	344.603	-0.107	-0.208
-159.750	195.500	-0.073	0.110
-158.735	-200.000	0.014	-0.204
-157.720	-135.973	0.236	-0.027
-156.706	644.169	-0.048	-0.121
-155.691	-141.840	0.327	-0.032
-154.677	51.142	0.244	-0.228
-153.662	-200.000	0.039	0.241
-152.647	4.989	-0.215	0.156
-151.633	-84.547	0.154	-0.048
-150.618	396.409	-0.023	-0.048
-149.604	-4.175	-0.181	-0.123
-148.589	800.000	0.115	-0.320
-147.574	-108.682	-0.120	0.025
-146.560	-200.000	-0.014	0.224
-145.545	156.261	0.098	-0.133
-144.531	-106.337	0.123	-0.027
-143.516	691.454	-0.071	0.184
-142.502	-45.685	0.199	-0.097
-141.487	800.000	-0.066	-0.241
-140.472	121.016	-0.010	-0.012
-139.458	127.372	-0.100	0.125
-138.443	36.009	0.085	-0.074
-137.429	99.704	-0.118	0.135
-136.414	-148.073	0.391	0.032
-135.399	-11.025	0.334	-0.217
-134.385	0.075	0.225	0.158
-133.370	29.253	0.162	0.136
-132.356	-95.856	0.250	-0.066
-131.341	800.000	0.061	-0.179
-130.326	800.000	-0.110	0.441
-129.312	-106.704	0.133	-0.029
-128.297	-154.339	-0.645	-0.043
-127.283	-90.383	-0.122	-0.035
-126.268	157.287	-0.187	-0.254
-125.253	800.000	-0.035	0.131
-124.239	162.849	-0.118	-0.163
-123.224	-200.000	-0.015	-0.304
-122.210	333.647	-0.085	0.162
-121.195	-200.000	0.068	-0.316
-120.180	-102.710	0.325	0.076
