DTS Sentinel unit serial number:	SN413079Multiplexer serial number:	ORYXHardware model number:	OX4-SRSoftware version number:	ORYX F/W v4.00 Oryx Data Collector v3.7.2.0data status	okinstallation	princeton_trtdifferential loss correction	single-endedforward channel	channel 4reverse channel	N/Adate	2019/09/17time	10:05:35forward acquisition time	60.00reverse acquisition time	0.00gamma	496.2192k internal	0.2311k external	0.2311temperature offset calibration	0.9977default loss term (dB/km)	0.3790temperature slope calibration	1.0000multiplexer offset coefficient	1.0000multiplexer slope coefficient	1.0000fibre end	0.00T internal ref (°C)	29.69T ext. ref 1 (°C)	0.17T ext. ref 2 (°C)	25.31length (m)	temperature (°C)	Stokes	anti-Stokes-747.200	419.522	-0.126	-0.273
-746.185	63.113	0.065	0.066
-745.171	-88.247	0.428	0.130
-744.156	-74.819	-0.322	0.117
-743.142	56.766	-0.164	-0.162
-742.127	141.367	-0.094	0.126
-741.112	-200.000	-0.014	0.414
-740.098	278.075	0.059	0.106
-739.083	800.000	0.054	0.176
-738.069	110.559	-0.266	0.325
-737.054	-128.005	0.058	0.009
-736.039	50.478	-0.054	0.052
-735.025	-9.971	0.143	-0.097
-734.010	-88.301	-0.521	0.158
-732.996	-200.000	0.033	-0.286
-731.981	-200.000	-0.054	-0.300
-730.966	130.441	-0.175	0.228
-729.952	-152.961	0.269	-0.019
-728.937	218.910	0.225	-0.365
-727.923	800.000	0.058	-0.214
-726.908	19.431	-0.426	-0.348
-725.894	-200.000	-0.015	-0.168
-724.879	-132.694	-0.455	-0.059
-723.864	61.723	-0.185	-0.187
-722.850	-51.252	-0.141	0.067
-721.835	-200.000	-0.023	-0.221
-720.821	-126.916	-0.308	0.046
-719.806	80.134	0.053	0.058
-718.791	-69.005	-0.451	-0.176
-717.777	153.592	-0.134	-0.186
-716.762	746.663	-0.081	-0.223
-715.748	-128.855	0.191	-0.027
-714.733	280.315	-0.041	0.074
-713.718	262.990	0.097	0.171
-712.704	-6.352	0.284	0.196
-711.689	-200.000	-0.074	-0.410
-710.675	733.846	-0.069	0.187
-709.660	-153.939	0.296	0.020
-708.645	-79.938	-0.298	0.101
-707.631	3.579	-0.196	-0.145
-706.616	-200.000	0.021	-0.140
-705.602	-43.104	0.359	-0.185
-704.587	-9.816	0.071	0.048
-703.572	-31.595	-0.138	0.079
-702.558	-14.759	0.226	-0.147
-701.543	-49.979	0.110	0.053
-700.529	800.000	0.085	0.336
-699.514	-128.524	0.364	-0.052
-698.499	-200.000	-0.082	-0.436
-697.485	89.511	0.086	-0.097
-696.470	-12.529	0.174	0.115
-695.456	120.113	0.124	-0.156
-694.441	20.809	-0.194	-0.159
-693.426	-182.644	-0.088	0.002
-692.412	144.608	-0.131	-0.177
-691.397	-88.959	-0.106	-0.032
-690.383	346.597	0.102	-0.204
-689.368	800.000	0.083	0.250
-688.354	-141.512	-0.302	-0.031
-687.339	800.000	0.038	0.131
-686.324	-49.469	-0.112	-0.054
-685.310	-130.367	0.255	-0.035
-684.295	800.000	-0.101	-0.419
-683.281	341.679	0.118	0.234
-682.266	79.452	-0.132	0.144
-681.251	800.000	-0.039	0.171
-680.237	-78.595	0.261	-0.090
-679.222	-200.000	0.020	-0.094
-678.208	-200.000	0.053	0.267
-677.193	687.196	0.139	0.368
-676.178	355.460	0.084	-0.169
-675.164	267.664	-0.084	0.149
-674.149	166.291	0.168	0.241
-673.135	511.147	-0.110	-0.260
-672.120	-200.000	0.044	-0.259
-671.105	-200.000	-0.043	0.233
-670.091	-52.905	0.357	0.166
-669.076	56.791	-0.172	-0.170
-668.062	-125.218	-0.304	-0.047
-667.047	-91.058	0.122	-0.035
-666.032	564.733	-0.082	0.201
-665.018	-148.570	0.514	0.042
-664.003	192.997	0.071	-0.109
-662.989	52.482	0.107	-0.103
-661.974	477.728	-0.029	0.066
-660.959	21.641	0.053	-0.044
-659.945	-89.529	0.079	0.023
-658.930	31.240	-0.095	0.083
-657.916	-64.722	-0.150	-0.062
-656.901	-50.460	0.177	0.084
-655.886	535.990	0.181	-0.435
-654.872	-76.292	-0.192	-0.068
-653.857	-200.000	0.013	0.193
-652.843	-135.096	-0.197	0.024
-651.828	-49.857	0.203	0.098
-650.814	-150.137	-0.252	-0.020
-649.799	295.646	0.080	0.149
-648.784	323.176	-0.079	0.153
-647.770	31.614	-0.162	0.141
-646.755	-36.090	-0.330	-0.181
-645.741	503.448	-0.125	-0.293
-644.726	-87.737	0.327	0.100
-643.711	4.098	-0.084	0.062
-642.697	144.819	0.051	0.069
-641.682	-43.765	-0.191	-0.097
-640.668	-69.089	0.203	-0.079
-639.653	-18.231	-0.225	0.142
-638.638	45.354	0.277	0.259
-637.624	800.000	-0.023	-0.081
-636.609	-152.687	-0.119	0.009
-635.595	-125.918	0.202	-0.031
-634.580	-200.000	0.020	0.099
-633.565	-51.270	-0.384	0.182
-632.551	249.266	0.035	-0.060
-631.536	-200.000	0.043	-0.306
-630.522	-200.000	0.009	0.051
-629.507	444.433	0.145	0.322
-628.492	-23.489	-0.046	-0.028
-627.478	418.079	0.098	0.212
-626.463	800.000	-0.159	-0.616
-625.449	-25.936	-0.168	-0.100
-624.434	-25.182	-0.232	-0.139
-623.419	-110.755	-0.220	-0.046
-622.405	-36.567	0.059	0.032
-621.390	-125.856	-0.146	0.022
-620.376	310.472	-0.058	0.109
-619.361	-200.000	0.023	0.269
-618.346	-90.191	-0.110	0.032
-617.332	28.400	-0.070	0.060
-616.317	-200.000	-0.010	0.100
-615.303	-25.127	0.224	-0.134
-614.288	292.684	0.186	-0.342
-613.273	-200.000	0.020	-0.574
-612.259	55.431	-0.076	-0.074
-611.244	-10.689	-0.314	0.210
-610.230	137.457	0.038	0.050
-609.215	-0.655	-0.082	0.059
-608.201	199.730	0.045	-0.069
-607.186	-144.877	0.147	-0.014
-606.171	194.516	0.146	-0.224
-605.157	-99.381	-0.118	-0.030
-604.142	-200.000	-0.032	0.268
-603.128	800.000	-0.078	-0.342
-602.113	-132.627	-0.103	-0.013
-601.098	152.352	-0.121	0.167
-600.084	-78.482	0.125	0.043
-599.069	144.056	-0.183	-0.246
-598.055	171.627	0.200	-0.290
-597.040	800.000	-0.058	0.180
-596.025	-33.525	0.193	-0.107
-595.011	23.880	-0.168	0.140
-593.996	-44.647	-0.207	-0.105
-592.982	-66.159	-0.087	-0.035
-591.967	-19.320	-0.100	-0.062
-590.952	353.792	0.040	0.080
-589.938	-200.000	-0.025	-0.138
-588.923	379.916	-0.086	0.178
-587.909	544.129	-0.058	0.140
-586.894	-200.000	0.030	0.139
-585.879	-200.000	-0.012	-0.142
-584.865	314.692	0.053	-0.101
-583.850	800.000	-0.131	0.371
-582.836	-48.898	-0.116	0.056
-581.821	-81.522	0.104	-0.034
-580.806	-200.000	0.027	-0.137
-579.792	-27.778	-0.393	0.230
-578.777	-22.236	-0.251	0.153
-577.763	98.628	0.267	0.311
-576.748	-200.000	0.000	-0.053
-575.733	72.121	0.141	-0.148
-574.719	60.537	-0.350	-0.349
-573.704	-1.856	-0.068	-0.048
-572.690	207.474	-0.033	0.052
-571.675	312.620	-0.154	0.292
-570.661	166.153	-0.159	-0.227
-569.646	-54.856	-0.159	0.073
-568.631	-176.167	-0.187	0.005
-567.617	163.303	0.110	-0.157
-566.602	-134.045	-0.182	0.023
-565.588	-200.000	-0.062	-0.305
-564.573	-200.000	-0.044	-0.294
-563.558	800.000	-0.082	0.239
-562.544	-200.000	0.048	0.258
-561.529	-11.286	-0.274	-0.182
-560.515	-200.000	-0.009	-0.322
-559.500	371.244	0.064	-0.130
-558.485	-24.345	0.223	0.134
-557.471	86.922	-0.222	0.247
-556.456	-153.318	0.299	-0.021
-555.442	-200.000	-0.058	0.292
-554.427	117.392	0.030	-0.037
-553.412	-200.000	-0.025	-0.201
-552.398	800.000	0.048	0.149
-551.383	-176.171	-0.197	-0.005
-550.369	-133.797	0.211	0.026
-549.354	-103.261	0.235	0.056
-548.339	-200.000	0.011	-0.150
-547.325	375.815	-0.073	-0.150
-546.310	413.602	0.074	-0.159
-545.296	47.757	0.250	0.235
-544.281	-15.393	-0.265	-0.171
-543.266	-84.330	0.269	-0.086
-542.252	-125.706	-0.232	-0.035
-541.237	-7.124	0.285	-0.195
-540.223	-200.000	-0.035	-0.230
-539.208	-200.000	0.045	-0.200
-538.193	64.514	-0.023	-0.023
-537.179	439.587	-0.163	0.358
-536.164	-200.000	-0.008	0.094
-535.150	-83.980	0.137	-0.044
-534.135	12.496	0.259	-0.201
-533.121	126.141	-0.120	0.152
-532.106	275.728	-0.083	-0.148
-531.091	-79.761	-0.144	-0.049
-530.077	294.734	-0.079	-0.146
-529.062	63.351	-0.223	0.225
-528.048	-114.592	0.194	-0.037
-527.033	-200.000	-0.055	-0.371
-526.018	-200.000	-0.030	-0.202
-525.004	-200.000	0.008	0.041
-523.989	106.606	0.065	0.077
-522.975	49.445	0.026	-0.025
-521.960	-200.000	-0.061	-0.272
-520.945	110.473	-0.095	-0.115
-519.931	117.150	-0.139	-0.172
-518.916	132.398	0.038	0.050
-517.902	-200.000	0.011	-0.065
-516.887	45.968	-0.055	-0.051
-515.872	-99.037	0.074	-0.019
-514.858	-200.000	-0.262	-0.001
-513.843	-200.000	-0.002	-0.322
-512.829	800.000	0.044	-0.175
-511.814	-73.136	0.331	0.122
-510.799	202.980	-0.205	0.319
-509.785	-78.425	0.235	-0.081
-508.770	-38.717	-0.049	0.026
-507.756	188.270	0.157	0.236
-506.741	-27.774	-0.403	-0.235
-505.726	-87.314	0.394	-0.120
-504.712	800.000	0.119	-0.347
-503.697	34.227	-0.181	-0.158
-502.683	-33.488	-0.127	-0.071
-501.668	28.527	-0.099	-0.084
-500.653	-36.625	0.329	0.178
-499.639	-40.585	-0.196	0.102
-498.624	-45.746	-0.383	-0.190
-497.610	-92.300	0.155	0.044
-496.595	800.000	-0.083	-0.300
-495.581	800.000	0.105	0.385
-494.566	-22.729	-0.283	-0.172
-493.551	679.221	-0.133	-0.348
-492.537	358.265	0.124	-0.249
-491.522	33.334	0.184	0.161
-490.508	-72.482	0.174	0.065
-489.493	-200.000	0.016	0.337
-488.478	-59.310	-0.068	0.029
-487.464	318.543	-0.165	-0.314
-486.449	64.240	-0.219	0.221
-485.435	-60.880	0.254	0.108
-484.420	-200.000	0.044	-0.229
-483.405	89.129	0.107	0.119
-482.391	-200.000	-0.014	0.219
-481.376	-200.000	-0.023	-0.148
-480.362	800.000	-0.112	-0.343
-479.347	68.656	-0.206	0.213
-478.332	-26.073	0.349	0.206
-477.318	585.067	-0.124	-0.307
-476.303	100.398	0.067	0.078
-475.289	244.290	-0.230	-0.387
-474.274	-200.000	0.036	0.162
-473.259	-200.000	0.039	-0.354
-472.245	-39.365	0.285	-0.150
-471.230	-11.937	0.256	-0.169
-470.216	-114.224	0.334	0.065
-469.201	49.701	0.120	0.113
-468.186	-33.403	0.106	0.059
-467.172	652.913	0.102	0.263
-466.157	-16.170	0.005	-0.003
-465.143	140.030	-0.077	-0.101
-464.128	287.062	-0.080	-0.145
-463.113	110.177	-0.194	-0.233
-462.099	252.363	-0.195	0.333
-461.084	-76.894	-0.214	0.075
-460.070	6.191	-0.280	0.208
-459.055	-181.908	-0.176	-0.003
-458.040	151.509	0.066	-0.090
-457.026	800.000	-0.088	0.258
-456.011	-109.000	0.059	-0.013
-454.997	-70.125	0.124	-0.047
-453.982	240.504	-0.085	-0.142
-452.968	186.473	0.109	-0.163
-451.953	-103.362	0.252	-0.060
-450.938	-200.000	-0.021	-0.196
-449.924	196.611	-0.135	0.207
-448.909	800.000	0.031	0.101
-447.895	-200.000	0.049	0.288
-446.880	297.936	-0.110	0.203
-445.865	-200.000	-0.032	-0.217
-444.851	155.551	-0.156	0.215
-443.836	-29.256	0.377	0.217
-442.822	55.124	-0.126	-0.122
-441.807	66.489	-0.055	0.056
-440.792	165.663	0.184	0.261
-439.778	800.000	-0.076	-0.284
-438.763	-187.661	0.209	-0.003
-437.749	-151.392	-0.389	0.029
-436.734	-122.754	-0.124	-0.020
-435.719	29.475	-0.111	0.095
-434.705	-200.000	-0.034	-0.256
-433.690	-4.412	0.151	0.105
-432.676	115.276	0.165	-0.202
-431.661	-118.434	-0.053	0.009
-430.646	-200.000	-0.113	0.000
-429.632	-56.043	0.065	-0.029
-428.617	-148.945	0.083	0.007
-427.603	-198.408	0.156	-0.001
-426.588	-44.934	0.137	0.069
-425.573	-85.184	-0.352	0.110
-424.559	124.195	0.300	0.379
-423.544	-200.000	0.026	-0.251
-422.530	-132.102	-0.416	0.054
-421.515	-21.695	-0.169	0.103
-420.500	-72.398	0.414	0.154
-419.486	80.789	0.173	-0.187
-418.471	481.269	-0.200	0.456
-417.457	77.063	0.107	-0.114
-416.442	66.374	-0.172	-0.175
-415.428	3.307	0.159	0.116
-414.413	69.970	-0.100	0.104
-413.398	-200.000	-0.048	-0.263
-412.384	800.000	0.013	0.041
-411.369	-70.163	0.116	0.044
-410.355	-101.979	-0.268	0.065
-409.340	-140.223	0.100	0.011
-408.325	211.052	-0.143	-0.225
-407.311	332.356	0.099	-0.192
-406.296	528.918	0.018	-0.043
-405.282	-200.000	-0.024	-0.283
-404.267	-200.000	0.046	-0.378
-403.252	800.000	-0.052	0.180
-402.238	232.372	-0.205	0.337
-401.223	610.190	-0.029	0.072
-400.209	-4.530	0.222	-0.154
-399.194	800.000	0.054	-0.169
-398.179	489.442	-0.146	-0.334
-397.165	-70.727	0.142	0.054
-396.150	800.000	0.043	0.161
-395.136	-31.783	0.216	-0.122
-394.121	6.356	0.235	0.175
-393.106	146.012	0.189	-0.254
-392.092	-151.217	-0.144	-0.011
-391.077	296.870	0.154	0.283
-390.063	-14.431	-0.164	0.106
-389.048	-200.000	0.019	-0.105
-388.033	-19.986	0.284	-0.176
-387.019	333.793	0.185	-0.358
-386.004	12.787	0.086	-0.067
-384.990	-144.482	-0.257	0.024
-383.975	228.953	0.137	0.223
-382.960	-200.000	0.044	0.248
-381.946	-200.000	0.007	-0.220
-380.931	-2.835	0.239	0.167
-379.917	2.095	-0.258	0.187
-378.902	-63.729	0.223	-0.092
-377.888	-159.421	0.312	0.017
-376.873	87.652	-0.299	0.331
-375.858	-200.000	0.003	-0.097
-374.844	569.566	0.084	-0.203
-373.829	245.591	0.212	-0.358
-372.815	36.263	0.155	-0.137
-371.800	-112.402	0.203	-0.041
-370.785	-200.000	0.035	0.169
-369.771	-200.000	0.022	0.283
-368.756	800.000	0.064	0.197
-367.742	86.463	-0.227	-0.250
-366.727	-61.840	-0.158	0.066
-365.712	800.000	0.092	0.346
-364.698	800.000	-0.076	0.331
-363.683	-77.991	0.218	0.075
-362.669	100.389	0.115	-0.133
-361.654	-68.834	-0.171	0.066
-360.639	36.090	-0.244	-0.215
-359.625	663.998	-0.167	0.430
-358.610	-200.000	0.004	0.171
-357.596	300.295	0.169	0.311
-356.581	800.000	0.048	-0.159
-355.566	-200.000	-0.014	-0.188
-354.552	-200.000	0.007	-0.131
-353.537	83.580	-0.098	-0.106
-352.523	-113.793	-0.316	-0.062
-351.508	55.402	-0.076	-0.074
-350.493	124.346	0.034	0.043
-349.479	-55.902	-0.306	-0.137
-348.464	415.279	-0.142	-0.303
-347.450	309.031	0.067	-0.125
-346.435	195.216	0.060	-0.092
-345.420	800.000	0.069	0.220
-344.406	1.234	0.050	-0.036
-343.391	800.000	-0.022	0.086
-342.377	188.431	-0.227	0.340
-341.362	-36.630	0.137	-0.073
-340.348	265.410	-0.176	0.308
-339.333	701.874	0.086	0.227
-338.318	-200.000	-0.036	-0.158
-337.304	-1.812	0.065	0.045
-336.289	127.717	0.151	-0.192
-335.275	-11.227	0.384	0.253
-334.260	107.947	0.086	-0.103
-333.245	800.000	-0.092	0.332
-332.231	-200.000	0.015	-0.250
-331.216	340.900	0.069	0.135
-330.202	121.648	-0.138	0.172
-329.187	-123.720	0.271	-0.043
-328.172	257.264	0.106	-0.183
-327.158	-75.524	-0.390	0.139
-326.143	-187.784	0.203	0.003
-325.129	-50.691	0.289	0.136
-324.114	459.307	-0.111	0.247
-323.099	-124.386	0.423	-0.066
-322.085	800.000	0.064	-0.199
-321.070	-200.000	0.008	0.092
-320.056	11.854	0.270	0.207
-319.041	800.000	0.055	0.221
-318.026	-200.000	-0.022	-0.417
-317.012	-200.000	-0.006	-0.155
-315.997	-118.698	-0.181	-0.032
-314.983	-49.119	-0.240	0.114
-313.968	540.072	0.117	0.278
-312.953	-200.000	-0.015	0.270
-311.939	-56.327	-0.181	0.080
-310.924	-114.105	0.304	-0.059
-309.910	43.244	0.193	0.176
-308.895	183.466	-0.152	-0.224
-307.880	422.302	-0.050	0.107
-306.866	-69.859	0.236	0.090
-305.851	451.217	-0.095	0.209
-304.837	-128.079	-0.056	-0.008
-303.822	800.000	-0.009	-0.039
-302.807	25.049	-0.068	0.056
-301.793	192.343	0.141	-0.212
-300.778	58.063	-0.137	0.134
-299.764	-200.000	0.127	0.570
-298.749	29.142	-0.313	0.265
-297.735	-111.375	-0.215	0.044
-296.720	800.000	0.056	-0.203
-295.705	240.351	-0.069	0.114
-294.691	0.520	-0.176	0.126
-293.676	-148.828	-0.059	0.005
-292.662	40.969	0.177	-0.160
-291.647	-133.972	0.161	0.020
-290.632	742.243	0.052	0.139
-289.618	243.953	0.007	-0.011
-288.603	376.111	-0.058	0.118
-287.589	33.468	0.117	-0.101
-286.574	-200.000	-0.017	0.088
-285.559	-139.612	0.526	0.056
-284.545	-168.933	-0.189	-0.007
-283.530	-22.425	0.280	0.169
-282.516	678.289	0.200	0.518
-281.501	-136.885	0.539	-0.062
-280.486	-14.379	0.007	-0.004
-279.472	57.518	-0.061	0.059
-278.457	256.440	-0.165	0.282
-277.443	800.000	-0.033	-0.097
-276.428	-13.854	0.152	0.098
-275.413	800.000	-0.071	0.265
-274.399	31.599	-0.302	-0.259
-273.384	-200.000	0.022	0.217
-272.370	800.000	0.102	0.314
-271.355	110.344	0.082	-0.099
-270.340	-184.722	-0.366	0.006
-269.326	-200.000	-0.037	0.164
-268.311	267.084	-0.121	-0.210
-267.297	198.472	0.123	-0.187
-266.282	800.000	0.068	0.204
-265.267	800.000	0.070	0.211
-264.253	-109.367	0.132	0.028
-263.238	-39.873	-0.477	0.248
-262.224	177.578	0.209	-0.303
-261.209	-137.164	-0.336	-0.038
-260.195	-200.000	0.016	0.096
-259.180	-68.621	0.338	-0.131
-258.165	14.395	0.064	-0.050
-257.151	166.266	-0.107	-0.151
-256.136	2.030	-0.243	-0.175
-255.122	93.338	-0.351	-0.396
-254.107	-139.460	0.235	-0.025
-253.092	-98.289	-0.327	-0.084
-252.078	-200.000	0.031	-0.159
-251.063	-136.993	-0.174	-0.020
-250.049	68.333	-0.148	-0.151
-249.034	-1.608	0.298	-0.209
-248.019	-30.519	0.239	0.135
-247.005	27.670	-0.048	-0.040
-245.990	289.366	-0.147	-0.266
-244.976	-137.224	0.113	0.013
-243.961	-200.000	-0.046	-0.440
-242.946	800.000	0.074	-0.221
-241.932	109.604	0.193	-0.230
-240.917	-59.265	0.093	0.040
-239.903	-200.000	0.016	-0.151
-238.888	-85.576	-0.228	0.071
-237.873	-91.255	0.232	0.066
-236.859	-35.050	-0.250	-0.136
-235.844	-200.000	-0.016	-0.096
-234.830	-69.640	0.244	0.093
-233.815	13.506	0.239	0.185
-232.800	151.871	-0.147	0.200
-231.786	-8.136	0.169	-0.113
-230.771	33.692	-0.287	-0.248
-229.757	135.673	-0.167	-0.216
-228.742	-25.049	-0.057	-0.034
-227.727	118.961	0.126	-0.155
-226.713	-164.589	0.312	0.014
-225.698	-47.961	-0.504	-0.242
-224.684	-105.389	0.210	0.047
-223.669	-70.408	0.142	0.053
-222.655	-200.000	0.040	0.180
-221.640	-200.000	0.012	0.112
-220.625	-173.190	-0.317	0.010
-219.611	-23.833	-0.096	0.057
-218.596	800.000	-0.018	-0.061
-217.582	800.000	0.083	0.247
-216.567	366.940	-0.041	-0.081
-215.552	-200.000	0.015	0.233
-214.538	-200.000	0.052	0.367
-213.523	284.341	-0.053	0.095
-212.509	8.720	0.174	0.130
-211.494	-137.666	-0.107	-0.012
-210.479	-123.338	-0.115	0.018
-209.465	-62.294	0.230	-0.095
-208.450	24.507	-0.223	0.183
-207.436	-200.000	0.004	0.177
-206.421	-155.399	-0.260	-0.017
-205.406	12.340	-0.111	-0.085
-204.392	-200.000	-0.007	0.497
-203.377	-200.000	0.004	-0.071
-202.363	472.494	0.136	-0.305
-201.348	68.541	0.301	-0.306
-200.333	-137.708	0.219	-0.024
-199.319	-89.960	-0.101	-0.029
-198.304	-7.955	-0.143	0.096
-197.290	97.119	0.116	0.133
-196.275	-200.000	-0.009	-0.072
-195.260	83.075	0.160	0.173
-194.246	-71.689	0.402	-0.149
-193.231	800.000	0.042	0.155
-192.217	-200.000	0.008	-0.330
-191.202	-82.313	0.268	0.087
-190.187	-67.009	0.238	-0.093
-189.173	39.003	0.092	0.081
-188.158	-200.000	0.024	0.453
-187.144	85.091	0.154	-0.168
-186.129	-200.000	0.006	-0.340
-185.114	13.021	-0.175	0.134
-184.100	-18.872	-0.072	-0.045
-183.085	800.000	-0.095	0.282
-182.071	96.250	-0.172	-0.196
-181.056	-200.000	-0.001	-0.184
-180.042	274.172	0.113	0.199
-179.027	-137.450	0.422	-0.047
-178.012	413.902	-0.130	0.274
-176.998	800.000	0.068	-0.248
-175.983	-200.000	0.032	0.374
-174.969	-175.234	-0.123	-0.003
-173.954	-29.546	0.247	-0.140
-172.939	234.302	0.059	0.096
-171.925	156.674	-0.185	0.253
-170.910	-200.000	-0.046	0.215
-169.896	-182.650	-0.287	0.005
-168.881	52.437	0.178	-0.168
-167.866	209.599	-0.176	0.275
-166.852	-74.511	-0.395	0.141
-165.837	-8.848	0.240	-0.159
-164.823	37.309	0.196	0.172
-163.808	-69.084	-0.151	-0.058
-162.793	-89.051	-0.182	0.053
-161.779	-200.000	0.012	-0.168
-160.764	46.753	0.120	0.111
-159.750	604.188	-0.174	0.429
-158.735	148.533	0.067	-0.089
-157.720	42.947	0.063	-0.057
-156.706	-24.963	-0.290	0.171
-155.691	-136.424	0.133	-0.015
-154.677	425.369	0.206	-0.440
-153.662	-32.748	0.176	-0.097
-152.647	345.867	0.047	0.092
-151.633	800.000	0.037	-0.144
-150.618	-200.000	-0.013	0.173
-149.604	89.204	-0.182	-0.201
-148.589	536.070	0.105	0.247
-147.574	300.645	-0.077	-0.141
-146.560	-200.000	-0.023	0.203
-145.545	138.764	0.108	-0.140
-144.531	-85.136	0.347	0.108
-143.516	800.000	-0.062	-0.200
-142.502	327.450	0.074	0.141
-141.487	178.002	0.024	-0.034
-140.472	-200.000	0.003	0.160
-139.458	-179.607	0.200	-0.004
-138.443	130.439	0.113	0.143
-137.429	12.948	-0.093	0.071
-136.414	-39.272	-0.146	0.076
-135.399	-200.000	-0.012	-0.148
-134.385	800.000	-0.044	0.150
-133.370	-200.000	-0.008	-0.041
-132.356	51.709	-0.132	0.125
-131.341	-20.966	0.369	-0.224
-130.326	-93.216	0.313	0.086
-129.312	51.956	-0.162	-0.153
-128.297	-73.756	0.230	0.083
-127.283	230.183	-0.077	0.124
-126.268	-81.787	-0.359	0.117
-125.253	-200.000	-0.030	0.479
-124.239	491.127	-0.041	-0.094
-123.224	-86.282	-0.262	0.080
-122.210	-114.746	0.377	0.071
-121.195	194.554	0.220	-0.331
