DTS Sentinel unit serial number:	SN413079Multiplexer serial number:	ORYXHardware model number:	OX4-SRSoftware version number:	ORYX F/W v4.00 Oryx Data Collector v3.7.2.0data status	okinstallation	princeton_trtdifferential loss correction	single-endedforward channel	channel 4reverse channel	N/Adate	2019/09/15time	00:09:35forward acquisition time	60.00reverse acquisition time	0.00gamma	496.2192k internal	0.2307k external	0.2307temperature offset calibration	1.0047default loss term (dB/km)	0.3790temperature slope calibration	1.0000multiplexer offset coefficient	1.0000multiplexer slope coefficient	1.0000fibre end	0.00T internal ref (°C)	32.19T ext. ref 1 (°C)	4.56T ext. ref 2 (°C)	27.20length (m)	temperature (°C)	Stokes	anti-Stokes-747.200	254.360	0.204	0.354
-746.185	-163.331	-0.215	-0.010
-745.171	-74.686	-0.210	0.077
-744.156	800.000	0.116	0.334
-743.142	-36.018	0.289	0.159
-742.127	197.147	-0.092	0.142
-741.112	69.287	-0.168	0.176
-740.098	38.945	0.193	-0.176
-739.083	106.396	-0.156	0.188
-738.069	-0.539	0.466	0.336
-737.054	-17.976	0.150	-0.095
-736.039	-200.000	0.026	-0.243
-735.025	27.262	0.204	0.174
-734.010	79.032	-0.104	0.113
-732.996	-67.347	-0.348	-0.139
-731.981	59.016	0.097	0.097
-730.966	258.821	0.078	-0.137
-729.952	-38.686	-0.341	-0.183
-728.937	-131.332	0.086	-0.012
-727.923	15.266	0.143	-0.114
-726.908	800.000	0.033	-0.128
-725.894	-114.988	-0.212	-0.041
-724.879	125.810	-0.085	-0.109
-723.864	-6.974	0.101	-0.070
-722.850	22.637	-0.316	-0.263
-721.835	-144.439	-0.276	-0.026
-720.821	-48.585	0.208	0.102
-719.806	7.405	0.050	0.038
-718.791	128.975	-0.108	0.140
-717.777	-200.000	0.028	0.266
-716.762	40.871	-0.286	0.262
-715.748	72.346	0.078	0.083
-714.733	62.330	-0.262	-0.266
-713.718	-95.471	-0.065	0.018
-712.704	111.977	-0.021	0.026
-711.689	1.130	-0.400	0.292
-710.675	51.898	-0.241	0.233
-709.660	221.502	-0.196	-0.320
-708.645	292.082	-0.042	0.077
-707.631	-132.609	0.119	-0.015
-706.616	223.966	-0.082	-0.134
-705.602	-200.000	-0.056	-0.282
-704.587	43.576	-0.214	-0.199
-703.572	-21.287	-0.121	0.075
-702.558	-200.000	-0.027	-0.254
-701.543	-112.983	-0.065	-0.013
-700.529	-168.128	-0.248	0.010
-699.514	-84.541	0.202	0.065
-698.499	-74.573	0.383	0.140
-697.485	-200.000	-0.005	-0.197
-696.470	-24.223	-0.313	-0.189
-695.456	35.925	0.258	0.230
-694.441	-200.000	-0.042	-0.312
-693.426	177.405	-0.092	-0.136
-692.412	-14.537	0.089	-0.058
-691.397	-200.000	-0.024	0.226
-690.383	-57.717	-0.178	0.079
-689.368	-61.387	-0.217	-0.093
-688.354	239.983	-0.109	-0.184
-687.339	-200.000	-0.004	-0.097
-686.324	96.618	0.054	0.063
-685.310	800.000	-0.105	0.352
-684.295	-115.343	-0.261	0.050
-683.281	28.345	0.134	0.115
-682.266	556.260	0.026	-0.064
-681.251	-83.377	0.247	0.080
-680.237	-152.775	-0.327	0.024
-679.222	800.000	0.074	-0.324
-678.208	157.026	0.108	-0.152
-677.193	-200.000	0.043	-0.265
-676.178	-141.461	-0.485	-0.050
-675.164	418.195	-0.053	-0.116
-674.149	266.511	-0.257	-0.456
-673.135	-26.772	-0.320	0.190
-672.120	-57.626	-0.114	0.051
-671.105	-136.736	-0.202	-0.024
-670.091	800.000	-0.118	0.415
-669.076	-161.947	-0.291	0.015
-668.062	-171.138	0.090	-0.003
-667.047	458.925	0.147	0.331
-666.032	200.057	0.213	-0.332
-665.018	-38.329	0.298	-0.160
-664.003	63.380	-0.074	0.075
-662.989	-78.008	0.218	-0.076
-661.974	-200.000	0.023	-0.277
-660.959	-46.054	0.315	-0.157
-659.945	-123.057	-0.070	0.011
-658.930	-47.513	0.146	-0.072
-657.916	-67.408	-0.143	0.057
-656.901	800.000	0.014	-0.059
-655.886	-90.675	-0.218	0.064
-654.872	-200.000	0.046	-0.423
-653.857	-108.460	-0.402	0.088
-652.843	118.741	0.225	-0.282
-651.828	98.521	0.099	-0.116
-650.814	590.010	0.036	0.091
-649.799	34.101	0.098	-0.087
-648.784	577.493	0.095	-0.236
-647.770	5.898	-0.253	-0.190
-646.755	800.000	-0.065	0.183
-645.741	-200.000	-0.008	0.208
-644.726	774.034	-0.108	-0.298
-643.711	-65.814	0.157	-0.064
-642.697	-200.000	-0.018	0.107
-641.682	-112.278	-0.299	0.061
-640.668	800.000	-0.087	0.360
-639.653	296.497	0.088	0.163
-638.638	-106.010	0.230	-0.052
-637.624	-71.690	-0.252	-0.095
-636.609	-148.097	-0.171	0.014
-635.595	75.278	0.162	-0.173
-634.580	533.883	-0.136	-0.326
-633.565	-116.083	-0.404	0.076
-632.551	-84.917	0.424	0.135
-631.536	-21.417	-0.023	-0.014
-630.522	104.547	-0.163	-0.195
-629.507	220.611	0.116	-0.188
-628.492	-134.398	0.147	-0.018
-627.478	-110.289	0.054	0.011
-626.463	-88.563	0.268	0.081
-625.449	800.000	-0.079	0.231
-624.434	800.000	-0.027	0.087
-623.419	-43.669	0.065	0.033
-622.405	-57.989	-0.150	0.066
-621.390	-200.000	0.031	-0.180
-620.376	-65.477	0.343	0.140
-619.361	-173.198	-0.387	-0.012
-618.346	-30.866	0.186	-0.106
-617.332	-200.000	0.022	0.115
-616.317	57.154	-0.172	0.170
-615.303	49.667	0.211	-0.201
-614.288	-145.517	0.365	-0.033
-613.273	-200.000	-0.017	-0.171
-612.259	412.147	0.103	-0.221
-611.244	-200.000	-0.074	-0.351
-610.230	89.463	-0.186	0.210
-609.215	-200.000	-0.006	-0.036
-608.201	37.650	0.102	0.091
-607.186	-103.100	-0.472	0.113
-606.171	-58.906	0.344	-0.150
-605.157	-200.000	0.051	-0.424
-604.142	-200.000	0.030	0.286
-603.128	7.855	0.039	-0.030
-602.113	57.190	0.089	0.088
-601.098	24.897	0.075	-0.063
-600.084	-64.742	-0.164	0.067
-599.069	800.000	-0.080	0.232
-598.055	305.481	0.116	0.219
-597.040	39.351	-0.078	0.070
-596.025	488.337	0.072	0.167
-595.011	800.000	0.042	-0.147
-593.996	799.333	0.111	0.310
-592.982	-104.562	-0.123	0.029
-591.967	800.000	-0.133	-0.408
-590.952	285.155	-0.184	-0.335
-589.938	-200.000	-0.004	-0.199
-588.923	-41.016	0.212	0.111
-587.909	-200.000	0.045	0.276
-586.894	441.395	0.112	0.249
-585.879	-33.263	-0.269	-0.150
-584.865	-200.000	-0.004	0.041
-583.850	168.870	-0.119	-0.172
-582.836	58.468	0.170	-0.168
-581.821	-134.939	-0.158	0.019
-580.806	-121.404	0.145	0.024
-579.792	-99.066	-0.189	0.048
-578.777	447.551	0.063	0.141
-577.763	-119.935	-0.448	-0.078
-576.748	-145.580	0.283	0.026
-575.733	-140.814	0.335	0.035
-574.719	53.690	-0.093	-0.090
-573.704	-16.425	-0.144	-0.092
-572.690	-117.254	-0.078	-0.014
-571.675	631.440	0.031	-0.080
-570.661	-117.407	-0.036	-0.007
-569.646	-103.471	0.414	-0.098
-568.631	8.438	-0.194	0.148
-567.617	800.000	0.025	0.074
-566.602	33.591	0.124	0.109
-565.588	129.606	-0.104	0.134
-564.573	-45.237	-0.180	-0.090
-563.558	221.261	0.101	-0.164
-562.544	245.467	0.081	0.137
-561.529	-200.000	0.020	-0.138
-560.515	2.916	0.032	-0.023
-559.500	800.000	-0.009	-0.033
-558.485	-200.000	0.035	0.324
-557.471	-90.512	-0.220	0.064
-556.456	5.081	0.286	0.212
-555.442	-97.391	-0.322	-0.085
-554.427	-135.710	-0.102	0.012
-553.412	800.000	-0.073	-0.229
-552.398	-200.000	-0.008	0.153
-551.383	50.848	-0.193	0.185
-550.369	126.559	-0.185	0.236
-549.354	-43.112	-0.183	-0.093
-548.339	-115.166	-0.286	-0.055
-547.325	800.000	0.052	0.183
-546.310	-73.043	-0.287	0.106
-545.296	800.000	-0.103	-0.298
-544.281	35.704	-0.276	-0.245
-543.266	-200.000	0.040	-0.312
-542.252	-32.932	0.214	-0.120
-541.237	-200.000	0.030	0.393
-540.223	8.042	-0.237	-0.179
-539.208	-200.000	0.002	0.433
-538.193	800.000	0.118	-0.427
-537.179	-148.335	0.399	0.033
-536.164	-37.493	0.341	0.184
-535.150	-23.223	-0.243	0.147
-534.135	800.000	0.013	-0.051
-533.121	-200.000	-0.022	0.142
-532.106	-200.000	-0.042	0.233
-531.091	-194.040	0.239	-0.002
-530.077	-91.084	-0.225	-0.065
-529.062	800.000	0.089	0.258
-528.048	-90.129	0.150	-0.044
-527.033	152.514	0.156	0.214
-526.018	317.291	0.194	-0.369
-525.004	-14.386	0.173	-0.112
-523.989	-200.000	-0.014	-0.142
-522.975	-68.941	0.123	-0.048
-521.960	-128.406	-0.100	0.014
-520.945	788.133	0.015	0.042
-519.931	140.453	0.035	0.046
-518.916	86.174	-0.114	0.127
-517.902	800.000	0.047	-0.143
-516.887	76.299	-0.184	-0.196
-515.872	450.487	0.209	0.464
-514.858	128.580	-0.142	0.183
-513.843	-200.000	-0.070	-0.323
-512.829	-120.690	0.149	0.025
-511.814	-57.490	-0.250	0.111
-510.799	-22.520	0.251	0.153
-509.785	-68.219	-0.202	0.079
-508.770	-200.000	0.000	0.008
-507.756	125.652	-0.097	-0.124
-506.741	-129.207	-0.159	-0.022
-505.726	-75.459	-0.221	0.079
-504.712	-200.000	0.039	0.239
-503.697	-150.488	0.061	-0.005
-502.683	-200.000	-0.018	-0.163
-501.668	-25.960	0.030	0.018
-500.653	-200.000	0.002	0.055
-499.639	21.750	0.221	0.181
-498.624	-105.609	0.162	-0.037
-497.610	-117.555	0.195	-0.035
-496.595	-75.750	-0.366	-0.131
-495.581	242.510	-0.089	0.150
-494.566	37.426	-0.091	0.082
-493.551	82.903	-0.229	-0.251
-492.537	-102.238	0.395	0.096
-491.522	110.962	0.138	0.167
-490.508	800.000	0.069	-0.239
-489.493	800.000	-0.093	-0.376
-488.478	326.212	-0.040	0.077
-487.464	85.710	-0.132	-0.146
-486.449	-10.410	-0.173	0.116
-485.435	-96.352	0.236	-0.063
-484.420	-124.837	-0.193	-0.030
-483.405	15.988	0.203	0.161
-482.391	48.923	-0.310	0.293
-481.376	212.572	-0.047	0.075
-480.362	404.858	0.052	-0.110
-479.347	800.000	-0.147	-0.474
-478.332	-103.264	0.149	-0.035
-477.318	-200.000	-0.019	-0.298
-476.303	23.147	-0.206	-0.170
-475.289	800.000	0.085	-0.331
-474.274	6.209	-0.253	0.188
-473.259	63.131	0.137	-0.138
-472.245	48.195	0.286	0.269
-471.230	-118.745	-0.306	-0.054
-470.216	-47.168	0.036	-0.018
-469.201	-200.000	-0.011	0.082
-468.186	106.897	0.160	0.191
-467.172	78.629	0.044	-0.048
-466.157	493.493	0.057	-0.131
-465.143	-23.360	0.218	-0.132
-464.128	68.970	-0.163	-0.169
-463.113	-200.000	-0.029	-0.243
-462.099	800.000	-0.030	0.094
-461.084	800.000	-0.076	-0.233
-460.070	-134.889	0.264	0.032
-459.055	19.063	0.177	0.143
-458.040	-200.000	0.053	0.333
-457.026	-57.317	0.107	-0.047
-456.011	-107.719	0.254	0.056
-454.997	-60.116	0.053	-0.023
-453.982	155.317	0.120	0.166
-452.968	-79.166	-0.080	-0.027
-451.953	-177.294	0.259	-0.006
-450.938	-105.964	0.204	0.046
-449.924	-138.453	0.172	-0.019
-448.909	-21.062	-0.138	-0.085
-447.895	173.149	-0.158	0.229
-446.880	800.000	-0.060	0.168
-445.865	209.915	-0.214	-0.338
-444.851	-200.000	-0.035	-0.279
-443.836	-101.049	-0.152	-0.038
-442.822	-200.000	-0.023	0.243
-441.807	-200.000	0.009	-0.446
-440.792	-80.113	0.226	0.076
-439.778	-200.000	-0.027	0.165
-438.763	138.964	-0.274	0.361
-437.749	-91.541	-0.136	-0.039
-436.734	207.228	-0.145	0.228
-435.719	-31.111	-0.136	0.077
-434.705	800.000	-0.037	0.110
-433.690	-200.000	0.036	0.435
-432.676	800.000	0.053	-0.174
-431.661	-200.000	-0.027	0.372
-430.646	233.706	-0.194	0.320
-429.632	-152.259	-0.097	-0.007
-428.617	-200.000	-0.037	0.261
-427.603	-23.948	-0.240	-0.144
-426.588	243.257	-0.146	0.247
-425.573	-94.765	-0.328	0.089
-424.559	276.818	-0.122	-0.218
-423.544	-9.671	0.067	0.045
-422.530	-200.000	-0.017	0.128
-421.515	600.079	-0.067	0.168
-420.500	40.131	0.156	0.141
-419.486	-104.347	-0.174	0.041
-418.471	-107.044	0.129	-0.029
-417.457	-103.613	-0.078	0.018
-416.442	-40.149	-0.217	0.114
-415.428	-33.796	0.206	-0.114
-414.413	-100.727	-0.254	-0.063
-413.398	130.959	0.160	-0.206
-412.384	532.116	-0.095	0.227
-411.369	14.151	0.086	-0.067
-410.355	800.000	0.007	-0.021
-409.340	-59.480	-0.177	0.076
-408.325	120.206	-0.177	-0.220
-407.311	157.654	-0.116	0.161
-406.296	688.885	-0.065	-0.172
-405.282	-109.488	-0.367	0.078
-404.267	-200.000	0.021	-0.189
-403.252	-48.587	0.316	0.153
-402.238	800.000	-0.068	0.205
-401.223	-58.957	-0.071	-0.031
-400.209	74.054	-0.166	0.175
-399.194	189.782	-0.286	-0.431
-398.179	480.184	-0.073	0.166
-397.165	-40.941	0.308	-0.160
-396.150	-59.646	-0.275	-0.118
-395.136	-5.923	0.278	-0.191
-394.121	103.886	-0.217	0.256
-393.106	-142.453	0.156	0.015
-392.092	-200.000	0.018	0.277
-391.077	-17.340	0.011	-0.007
-390.063	-77.539	-0.222	-0.077
-389.048	-148.226	-0.200	-0.017
-388.033	-1.255	-0.105	0.074
-387.019	195.163	0.138	-0.211
-386.004	-50.907	-0.186	-0.087
-384.990	23.663	-0.117	0.097
-383.975	441.439	-0.038	0.083
-382.960	-25.669	0.054	-0.032
-381.946	-61.110	0.289	0.122
-380.931	86.320	-0.188	-0.208
-379.917	46.753	0.174	-0.162
-378.902	244.562	0.052	0.088
-377.888	-28.815	0.239	-0.138
-376.873	-120.104	-0.184	-0.032
-375.858	-185.052	-0.407	0.006
-374.844	5.491	-0.238	0.176
-373.829	776.696	-0.072	0.198
-372.815	167.624	-0.112	-0.160
-371.800	46.435	-0.107	-0.100
-370.785	-7.854	-0.197	0.133
-369.771	-200.000	-0.071	-0.473
-368.756	269.820	0.123	-0.217
-367.742	146.613	0.136	0.183
-366.727	-128.510	-0.095	-0.014
-365.712	-200.000	0.024	0.224
-364.698	520.093	0.049	-0.116
-363.683	207.752	-0.075	0.117
-362.669	800.000	-0.074	-0.206
-361.654	-200.000	-0.064	0.286
-360.639	36.474	-0.105	0.093
-359.625	-117.591	0.204	0.037
-358.610	-200.000	0.200	-0.000
-357.596	-200.000	-0.084	-0.380
-356.581	-5.050	-0.152	0.105
-355.566	-57.077	0.098	0.043
-354.552	-97.995	-0.062	0.016
-353.537	800.000	0.078	0.287
-352.523	-113.101	0.348	0.069
-351.508	403.127	0.027	-0.056
-350.493	-26.471	-0.165	-0.097
-349.479	86.548	-0.015	0.016
-348.464	800.000	0.047	-0.137
-347.450	-200.000	-0.016	0.259
-346.435	-200.000	0.013	0.181
-345.420	800.000	0.018	0.066
-344.406	-144.086	0.130	0.012
-343.391	-200.000	-0.035	0.255
-342.377	34.845	-0.182	-0.159
-341.362	-200.000	0.060	0.351
-340.348	-200.000	-0.014	-0.085
-339.333	-85.574	0.240	0.075
-338.318	-116.376	0.089	0.017
-337.304	-137.605	-0.195	0.022
-336.289	-200.000	-0.012	-0.218
-335.275	481.198	-0.082	0.185
-334.260	451.432	0.007	-0.015
-333.245	284.040	0.094	-0.169
-332.231	25.527	-0.191	0.159
-331.216	116.010	0.211	-0.258
-330.202	109.130	-0.104	0.124
-329.187	-200.000	0.008	0.466
-328.172	-34.366	0.155	-0.085
-327.158	-155.610	0.111	0.007
-326.143	344.491	-0.010	0.019
-325.129	161.191	0.119	0.166
-324.114	753.815	0.048	0.130
-323.099	-61.730	0.123	0.052
-322.085	-200.000	0.057	-0.328
-321.070	84.132	0.095	-0.104
-320.056	29.543	0.315	-0.268
-319.041	635.901	0.091	-0.231
-318.026	76.469	-0.126	-0.133
-317.012	-83.244	0.242	-0.078
-315.997	108.043	0.052	0.062
-314.983	-200.000	-0.024	-0.193
-313.968	-74.383	-0.030	-0.011
-312.953	343.071	-0.070	-0.138
-311.939	63.371	0.198	-0.199
-310.924	-157.082	-0.304	-0.019
-309.910	-45.069	0.048	-0.024
-308.895	433.745	0.132	-0.286
-307.880	-36.384	-0.217	-0.117
-306.866	110.054	-0.216	0.259
-305.851	2.103	0.103	0.074
-304.837	-99.670	-0.183	0.046
-303.822	213.916	0.063	0.100
-302.807	-200.000	0.037	-0.204
-301.793	206.478	-0.116	0.181
-300.778	423.179	0.219	0.471
-299.764	3.033	0.048	-0.035
-298.749	-54.370	-0.233	-0.106
-297.735	-200.000	0.002	-0.225
-296.720	-78.894	0.288	-0.098
-295.705	800.000	-0.060	-0.238
-294.691	800.000	0.116	-0.331
-293.676	-34.169	-0.281	0.154
-292.662	71.238	0.125	0.130
-291.647	-50.150	-0.241	0.114
-290.632	72.204	0.226	0.235
-289.618	69.796	0.251	-0.258
-288.603	-143.560	0.403	-0.038
-287.589	-68.537	0.290	0.112
-286.574	141.891	0.085	-0.113
-285.559	-15.428	-0.172	-0.110
-284.545	124.967	-0.202	-0.254
-283.530	-38.447	0.257	0.136
-282.516	538.643	-0.050	0.119
-281.501	369.064	0.060	0.121
-280.486	-200.000	-0.014	0.361
-279.472	800.000	-0.013	0.051
-278.457	255.627	0.162	0.277
-277.443	-200.000	-0.060	0.355
-276.428	-200.000	0.035	-0.241
-275.413	255.007	0.066	-0.112
-274.399	316.276	0.190	-0.358
-273.384	36.600	0.202	0.178
-272.370	153.435	0.191	-0.261
-271.355	-132.054	-0.205	-0.027
-270.340	582.685	0.125	-0.307
-269.326	80.313	0.060	0.064
-268.311	-140.759	0.131	0.014
-267.297	233.243	0.018	-0.030
-266.282	-181.754	0.179	0.003
-265.267	16.962	-0.033	0.026
-264.253	118.049	0.129	0.158
-263.238	-145.073	0.079	0.007
-262.224	800.000	-0.097	0.341
-261.209	-27.003	-0.113	0.066
-260.195	2.951	0.306	-0.222
-259.180	-200.000	0.022	-0.242
-258.165	-20.791	0.178	-0.109
-257.151	800.000	-0.049	-0.170
-256.136	-161.961	0.214	-0.011
-255.122	547.325	0.042	-0.101
-254.107	-150.710	-0.484	0.037
-253.092	-82.971	-0.269	-0.086
-252.078	-40.997	0.071	0.037
-251.063	139.227	-0.010	0.013
-250.049	-175.317	0.015	-0.000
-249.034	353.541	0.109	0.215
-248.019	-123.003	0.060	-0.010
-247.005	-48.469	-0.155	-0.075
-245.990	800.000	0.046	-0.170
-244.976	-26.567	-0.089	0.052
-243.961	-200.000	0.059	0.290
-242.946	590.905	0.062	-0.152
-241.932	-71.199	-0.073	-0.027
-240.917	39.290	0.163	0.145
-239.903	-200.000	-0.017	-0.104
-238.888	-17.227	-0.218	0.137
-237.873	80.669	0.283	0.304
-236.859	-200.000	0.000	0.363
-235.844	800.000	-0.036	-0.111
-234.830	800.000	-0.048	-0.176
-233.815	89.363	0.157	0.174
-232.800	144.580	0.076	0.102
-231.786	80.944	0.057	0.061
-230.771	800.000	0.017	0.054
-229.757	210.657	-0.132	-0.206
-228.742	-48.166	0.199	0.096
-227.727	-200.000	-0.019	-0.195
-226.713	497.275	0.149	0.341
-225.698	-122.637	-0.197	-0.032
-224.684	735.470	0.134	-0.359
-223.669	130.084	-0.100	-0.127
-222.655	-35.697	-0.126	-0.068
-221.640	20.533	-0.098	0.079
-220.625	169.623	-0.148	-0.211
-219.611	63.384	0.100	-0.100
-218.596	-42.859	-0.162	-0.082
-217.582	107.379	0.146	0.174
-216.567	-200.000	0.017	-0.073
-215.552	-151.002	0.286	0.022
-214.538	800.000	-0.050	0.190
-213.523	58.884	-0.169	0.166
-212.509	-23.201	0.220	0.132
-211.494	-200.000	0.007	0.302
-210.479	-11.979	-0.355	-0.232
-209.465	29.820	0.266	-0.226
-208.450	114.546	0.171	-0.208
-207.436	-146.575	-0.261	0.023
-206.421	-45.355	0.232	0.115
-205.406	-107.109	0.296	0.065
-204.392	410.117	-0.127	-0.267
-203.377	-110.691	0.341	-0.070
-202.363	23.329	0.242	0.198
-201.348	450.414	0.127	0.280
-200.333	216.921	0.183	-0.291
-199.319	-58.190	-0.131	-0.057
-198.304	-200.000	0.019	-0.118
-197.290	106.810	-0.316	-0.373
-196.275	-137.286	0.382	0.043
-195.260	-200.000	0.003	0.045
-194.246	77.149	-0.215	-0.227
-193.231	69.970	-0.083	-0.085
-192.217	-60.425	-0.392	-0.166
-191.202	743.447	-0.111	-0.296
-190.187	-200.000	-0.036	-0.199
-189.173	32.254	0.344	0.295
-188.158	-200.000	0.045	0.303
-187.144	717.899	-0.038	0.101
-186.129	-115.792	-0.138	-0.026
-185.114	-81.229	0.152	-0.050
-184.100	54.287	0.166	0.159
-183.085	12.239	0.249	0.190
-182.071	28.954	0.266	-0.225
-181.056	7.674	-0.125	0.093
-180.042	-53.253	-0.146	-0.066
-179.027	55.056	0.169	-0.163
-178.012	-91.603	-0.205	-0.058
-176.998	22.273	0.276	0.224
-175.983	800.000	0.090	0.379
-174.969	185.599	-0.101	-0.149
-173.954	380.756	-0.119	0.243
-172.939	84.175	0.100	0.109
-171.925	373.570	-0.036	0.072
-170.910	102.419	-0.172	-0.200
-169.896	-200.000	-0.012	-0.234
-168.881	800.000	-0.075	-0.211
-167.866	-89.816	0.204	0.059
-166.852	-91.188	-0.343	0.098
-165.837	-113.593	0.239	0.046
-164.823	244.053	0.121	0.202
-163.808	-6.769	0.284	-0.192
-162.793	-23.258	0.108	0.065
-161.779	-57.717	0.222	0.096
-160.764	457.177	-0.060	-0.133
-159.750	-153.834	-0.045	-0.003
-158.735	-97.520	-0.296	0.077
-157.720	800.000	-0.100	-0.314
-156.706	-200.000	0.009	0.219
-155.691	-6.171	-0.264	-0.179
-154.677	-200.000	-0.016	-0.337
-153.662	-200.000	0.041	-0.262
-152.647	-58.443	-0.159	-0.068
-151.633	-3.169	-0.238	0.165
-150.618	8.538	-0.176	-0.131
-149.604	-98.419	-0.350	0.089
-148.589	-200.000	-0.050	0.266
-147.574	-187.130	-0.071	0.001
-146.560	366.149	0.247	0.495
-145.545	192.090	0.113	0.170
-144.531	-80.026	0.409	-0.136
-143.516	-200.000	-0.024	0.182
-142.502	-58.262	-0.186	0.080
-141.487	-7.293	0.434	0.292
-140.472	112.237	0.115	0.138
-139.458	-200.000	-0.006	0.070
-138.443	-77.543	-0.169	0.058
-137.429	98.108	0.092	0.105
-136.414	-21.686	0.242	0.146
-135.399	-200.000	-0.008	0.037
-134.385	-107.704	-0.092	0.020
-133.370	800.000	0.035	-0.122
-132.356	192.315	-0.040	0.060
-131.341	20.341	0.048	0.038
-130.326	59.513	-0.175	-0.171
-129.312	-107.211	0.108	0.024
-128.297	-13.796	-0.277	-0.178
-127.283	575.669	0.096	0.232
-126.268	800.000	0.016	0.061
-125.253	44.146	0.230	-0.210
-124.239	107.392	-0.126	-0.149
-123.224	-3.623	-0.083	-0.057
-122.210	205.479	0.127	0.196
-121.195	560.347	0.133	0.318
-120.180	156.266	0.121	-0.166
