DTS Sentinel unit serial number:	SN413079Multiplexer serial number:	ORYXHardware model number:	OX4-SRSoftware version number:	ORYX F/W v4.00 Oryx Data Collector v3.7.2.0data status	okinstallation	princeton_trtdifferential loss correction	single-endedforward channel	channel 4reverse channel	N/Adate	2019/09/18time	07:29:35forward acquisition time	60.00reverse acquisition time	0.00gamma	496.2192k internal	0.2333k external	0.2333temperature offset calibration	1.0000default loss term (dB/km)	0.3790temperature slope calibration	1.0000multiplexer offset coefficient	1.0000multiplexer slope coefficient	1.0000fibre end	0.00T internal ref (°C)	23.19T ext. ref 1 (°C)	0.18T ext. ref 2 (°C)	17.56length (m)	temperature (°C)	Stokes	anti-Stokes-747.200	370.631	-0.182	0.372
-746.185	-200.000	0.018	0.238
-745.171	-200.000	-0.006	0.133
-744.156	503.565	-0.129	0.299
-743.142	-54.807	-0.132	0.060
-742.127	-200.000	0.007	0.255
-741.112	41.279	-0.184	-0.167
-740.098	-2.603	-0.365	-0.257
-739.083	-200.000	0.012	-0.155
-738.069	146.319	-0.088	-0.118
-737.054	-83.190	0.173	0.056
-736.039	-192.957	-0.236	-0.002
-735.025	-150.017	0.100	-0.008
-734.010	-125.087	0.198	-0.030
-732.996	-163.125	-0.297	-0.014
-731.981	23.130	0.145	0.120
-730.966	-26.716	-0.113	0.067
-729.952	-71.145	-0.198	0.075
-728.937	237.999	-0.090	0.149
-727.923	-114.400	0.396	-0.077
-726.908	-41.892	0.095	0.049
-725.894	23.120	0.022	-0.018
-724.879	-81.695	-0.132	-0.044
-723.864	-85.129	-0.212	-0.067
-722.850	-5.725	0.324	-0.223
-721.835	33.139	-0.118	-0.103
-720.821	-23.687	-0.214	-0.129
-719.806	-200.000	-0.071	0.325
-718.791	-86.372	0.272	0.084
-717.777	-90.783	0.186	-0.054
-716.762	608.475	-0.050	-0.126
-715.748	-29.911	-0.251	-0.144
-714.733	119.012	-0.179	0.222
-713.718	67.963	0.143	0.147
-712.704	-200.000	0.020	0.132
-711.689	-68.968	-0.275	0.106
-710.675	-151.115	0.161	-0.012
-709.660	463.891	-0.088	0.198
-708.645	116.171	0.142	-0.174
-707.631	-139.663	-0.332	-0.036
-706.616	37.872	-0.192	0.171
-705.602	800.000	0.053	0.180
-704.587	338.907	0.063	-0.124
-703.572	19.053	-0.096	0.078
-702.558	800.000	-0.050	0.150
-701.543	800.000	0.105	-0.299
-700.529	-120.152	-0.450	-0.077
-699.514	199.998	0.057	-0.089
-698.499	-200.000	0.166	-0.000
-697.485	114.088	0.130	-0.159
-696.470	400.603	-0.096	-0.202
-695.456	34.895	0.192	0.169
-694.441	-57.958	-0.238	0.104
-693.426	800.000	0.036	0.103
-692.412	-99.406	-0.136	0.034
-691.397	17.213	0.225	0.179
-690.383	116.299	0.042	-0.052
-689.368	800.000	-0.111	-0.321
-688.354	24.224	0.150	0.124
-687.339	-40.026	0.130	-0.068
-686.324	-78.367	0.163	0.056
-685.310	-198.548	-0.094	0.001
-684.295	-200.000	0.001	-0.129
-683.281	-95.119	0.092	-0.025
-682.266	-200.000	0.001	-0.195
-681.251	-127.602	-0.228	-0.033
-680.237	310.133	-0.007	0.014
-679.222	-78.901	0.106	0.036
-678.208	101.543	0.114	0.134
-677.193	686.275	-0.075	0.197
-676.178	497.644	-0.063	0.146
-675.164	9.488	-0.159	0.121
-674.149	407.955	0.112	0.238
-673.135	-74.392	-0.259	0.094
-672.120	138.827	-0.092	0.121
-671.105	14.579	-0.122	-0.096
-670.091	194.392	-0.147	-0.224
-669.076	-200.000	0.005	-0.371
-668.062	-123.388	-0.303	-0.049
-667.047	42.190	-0.084	0.076
-666.032	800.000	-0.048	-0.180
-665.018	83.025	0.330	-0.359
-664.003	103.213	-0.261	0.306
-662.989	-200.000	-0.031	-0.298
-661.974	-200.000	0.050	-0.422
-660.959	-27.757	-0.165	-0.096
-659.945	121.870	0.148	0.185
-658.930	-61.492	-0.234	-0.098
-657.916	-200.000	-0.045	0.473
-656.901	-106.396	0.272	0.061
-655.886	-200.000	-0.047	-0.348
-654.872	-121.389	-0.213	-0.036
-653.857	-85.660	0.295	-0.092
-652.843	-24.251	0.194	-0.116
-651.828	800.000	-0.097	-0.271
-650.814	358.701	-0.039	0.079
-649.799	-72.489	-0.244	0.090
-648.784	-19.552	-0.087	0.054
-647.770	-102.538	-0.208	-0.050
-646.755	-82.547	0.136	0.044
-645.741	-162.893	-0.149	-0.007
-644.726	-200.000	0.022	0.155
-643.711	91.815	0.025	0.028
-642.697	-69.732	0.412	0.158
-641.682	800.000	0.095	-0.381
-640.668	-200.000	-0.037	0.207
-639.653	-42.803	0.294	-0.150
-638.638	-200.000	-0.008	-0.118
-637.624	-141.384	-0.399	-0.040
-636.609	-153.277	-0.324	0.023
-635.595	-200.000	-0.058	-0.286
-634.580	-168.327	0.179	0.007
-633.565	-200.000	-0.001	0.151
-632.551	224.660	-0.182	0.294
-631.536	-75.688	-0.070	-0.025
-630.522	800.000	0.082	-0.299
-629.507	-200.000	-0.017	-0.310
-628.492	51.858	0.144	-0.137
-627.478	134.616	0.193	-0.251
-626.463	-30.381	-0.085	-0.048
-625.449	-200.000	-0.022	0.000
-624.434	780.861	0.092	0.253
-623.419	396.921	-0.046	-0.097
-622.405	11.663	-0.206	0.158
-621.390	-63.616	-0.282	0.116
-620.376	43.236	0.271	-0.248
-619.361	800.000	-0.050	-0.191
-618.346	449.978	-0.040	-0.089
-617.332	-110.844	-0.188	-0.039
-616.317	-23.108	-0.415	0.250
-615.303	204.980	-0.098	0.152
-614.288	-200.000	0.012	0.571
-613.273	-4.285	-0.104	0.072
-612.259	11.664	-0.162	-0.124
-611.244	-20.649	0.101	-0.062
-610.230	-158.099	0.089	-0.005
-609.215	601.967	0.035	-0.088
-608.201	-16.813	0.131	0.083
-607.186	800.000	0.039	-0.160
-606.171	800.000	-0.079	0.337
-605.157	-104.263	0.334	0.078
-604.142	-200.000	0.008	-0.110
-603.128	-97.071	0.541	-0.142
-602.113	234.494	-0.172	-0.283
-601.098	-200.000	0.032	-0.241
-600.084	-59.686	0.103	0.044
-599.069	89.909	0.184	0.206
-598.055	-200.000	-0.015	-0.195
-597.040	134.474	0.172	-0.224
-596.025	-137.534	-0.089	0.010
-595.011	-132.276	-0.311	0.040
-593.996	-200.000	0.013	0.239
-592.982	-200.000	0.065	0.337
-591.967	32.696	-0.206	0.178
-590.952	-34.924	-0.075	0.041
-589.938	589.895	-0.115	-0.283
-588.923	-200.000	0.014	-0.319
-587.909	-200.000	-0.019	0.163
-586.894	-177.749	-0.214	-0.005
-585.879	-116.575	-0.258	0.047
-584.865	153.215	-0.248	0.340
-583.850	191.850	0.174	-0.262
-582.836	125.475	-0.273	-0.345
-581.821	-39.004	0.381	0.200
-580.806	-200.000	0.004	0.063
-579.792	21.087	-0.085	0.069
-578.777	88.096	-0.246	-0.272
-577.763	166.290	0.095	0.135
-576.748	87.366	-0.088	-0.098
-575.733	-200.000	-0.031	-0.227
-574.719	-51.936	-0.212	-0.099
-573.704	-14.367	-0.091	-0.059
-572.690	-12.652	-0.110	0.072
-571.675	-77.081	-0.116	-0.040
-570.661	17.461	-0.345	-0.273
-569.646	-200.000	-0.011	-0.078
-568.631	-200.000	0.012	0.085
-567.617	86.715	0.146	0.161
-566.602	-200.000	0.046	-0.345
-565.588	259.834	0.149	0.257
-564.573	-200.000	-0.024	0.185
-563.558	800.000	0.095	0.303
-562.544	-200.000	-0.011	0.162
-561.529	-17.639	0.330	-0.207
-560.515	-200.000	0.010	-0.320
-559.500	-96.478	0.229	-0.060
-558.485	-141.275	0.120	0.012
-557.471	310.930	-0.227	-0.424
-556.456	-114.403	-0.285	0.055
-555.442	-176.015	0.193	-0.005
-554.427	-200.000	-0.006	-0.158
-553.412	14.866	0.265	-0.207
-552.398	-119.681	-0.184	-0.032
-551.383	-130.313	-0.143	-0.019
-550.369	466.248	-0.083	0.186
-549.354	5.088	-0.315	0.231
-548.339	-97.982	0.195	-0.050
-547.325	-20.439	0.054	0.033
-546.310	-200.000	-0.024	-0.308
-545.296	328.446	-0.116	0.223
-544.281	53.125	-0.174	-0.166
-543.266	595.473	-0.030	-0.074
-542.252	-167.343	-0.206	-0.008
-541.237	-59.796	-0.177	0.076
-540.223	800.000	-0.095	0.307
-539.208	392.105	-0.120	0.250
-538.193	-129.757	-0.043	-0.006
-537.179	-60.360	-0.113	0.048
-536.164	89.414	-0.320	0.356
-535.150	-107.537	-0.554	0.121
-534.135	-200.000	0.027	0.170
-533.121	-79.744	-0.262	0.088
-532.106	-200.000	-0.002	-0.084
-531.091	186.141	-0.109	-0.162
-530.077	-13.153	0.348	0.226
-529.062	575.562	-0.072	0.176
-528.048	-90.460	-0.234	-0.067
-527.033	36.574	0.110	0.096
-526.018	-200.000	-0.033	0.203
-525.004	57.086	-0.095	-0.092
-523.989	-153.578	0.183	-0.013
-522.975	106.977	-0.102	-0.121
-521.960	-176.111	0.265	-0.007
-520.945	-23.063	-0.238	0.143
-519.931	-130.423	0.180	0.024
-518.916	-200.000	-0.006	0.038
-517.902	-151.130	0.224	-0.017
-516.887	77.528	-0.378	-0.401
-515.872	-124.213	0.358	-0.056
-514.858	-200.000	-0.004	-0.050
-513.843	1.112	-0.235	-0.168
-512.829	800.000	0.098	0.270
-511.814	95.944	0.163	0.186
-510.799	265.554	-0.081	0.141
-509.785	-200.000	0.026	-0.159
-508.770	540.717	-0.103	-0.245
-507.756	-200.000	-0.037	-0.209
-506.741	-117.981	0.086	0.015
-505.726	-114.803	0.193	0.037
-504.712	389.954	-0.112	0.231
-503.697	-200.000	-0.019	0.290
-502.683	-28.593	0.254	-0.146
-501.668	-200.000	-0.113	-0.501
-500.653	453.981	-0.143	0.316
-499.639	-60.939	0.383	0.161
-498.624	-200.000	-0.065	0.413
-497.610	-200.000	0.013	-0.246
-496.595	-200.000	0.060	0.306
-495.581	-43.349	-0.353	0.178
-494.566	800.000	-0.024	-0.094
-493.551	-57.425	0.198	-0.087
-492.537	-55.197	-0.348	-0.156
-491.522	-154.186	-0.223	0.015
-490.508	331.272	-0.151	-0.290
-489.493	379.912	-0.075	-0.153
-488.478	151.000	0.070	-0.094
-487.464	90.957	-0.122	-0.136
-486.449	-90.756	0.118	0.034
-485.435	-102.388	-0.077	0.018
-484.420	-200.000	0.000	0.050
-483.405	-118.317	-0.072	-0.013
-482.391	217.046	0.102	-0.162
-481.376	-83.656	0.043	0.014
-480.362	-200.000	0.035	0.157
-479.347	-69.609	-0.316	0.121
-478.332	252.471	-0.188	-0.319
-477.318	-200.000	-0.014	0.192
-476.303	87.059	0.173	-0.191
-475.289	146.541	0.190	0.253
-474.274	322.784	-0.208	-0.395
-473.259	520.083	-0.092	-0.215
-472.245	-129.276	0.220	0.031
-471.230	34.089	0.246	0.214
-470.216	298.063	0.115	0.210
-469.201	800.000	-0.143	-0.479
-468.186	-200.000	0.096	0.456
-467.172	21.348	0.187	-0.151
-466.157	-150.745	0.082	0.006
-465.143	297.622	0.135	0.247
-464.128	800.000	0.019	-0.058
-463.113	669.664	0.060	-0.154
-462.099	800.000	0.057	-0.161
-461.084	-179.650	-0.239	-0.005
-460.070	-99.369	0.241	-0.060
-459.055	247.064	-0.125	0.210
-458.040	-92.591	-0.167	-0.047
-457.026	800.000	0.070	0.251
-456.011	-17.422	-0.390	0.244
-454.997	800.000	0.103	0.285
-453.982	-23.267	-0.094	0.056
-452.968	734.314	-0.109	0.290
-451.953	-110.120	0.183	-0.038
-450.938	-200.000	-0.024	0.105
-449.924	-200.000	-0.108	0.494
-448.909	89.660	-0.197	0.218
-447.895	-200.000	0.038	-0.194
-446.880	34.193	0.237	-0.206
-445.865	460.716	-0.147	-0.326
-444.851	215.994	0.223	0.352
-443.836	223.795	0.095	0.152
-442.822	454.096	-0.013	-0.028
-441.807	-157.746	0.026	-0.002
-440.792	57.378	0.206	-0.199
-439.778	-29.515	0.220	-0.125
-438.763	221.148	0.054	0.086
-437.749	-120.987	-0.215	0.036
-436.734	800.000	-0.067	0.258
-435.719	-24.539	0.028	0.016
-434.705	-32.871	-0.052	-0.029
-433.690	800.000	0.061	0.258
-432.676	269.023	-0.099	0.173
-431.661	747.459	0.078	0.208
-430.646	-52.928	-0.059	0.027
-429.632	182.968	-0.117	0.172
-428.617	10.612	0.107	0.081
-427.603	-136.705	-0.601	0.069
-426.588	76.703	-0.079	-0.084
-425.573	800.000	0.060	0.205
-424.559	9.688	-0.268	-0.202
-423.544	-4.194	-0.256	0.176
-422.530	-200.000	0.014	0.109
-421.515	800.000	0.022	0.089
-420.500	433.750	0.202	0.435
-419.486	-155.328	-0.087	0.006
-418.471	-200.000	-0.010	0.059
-417.457	546.418	0.074	0.177
-416.442	-169.927	-0.489	0.017
-415.428	630.151	-0.045	0.113
-414.413	-138.347	-0.161	0.018
-413.398	-97.539	0.154	0.040
-412.384	676.165	-0.045	-0.116
-411.369	91.082	-0.272	-0.303
-410.355	-121.896	0.237	0.039
-409.340	270.191	-0.088	0.153
-408.325	103.066	-0.216	0.251
-407.311	139.496	0.044	0.058
-406.296	73.484	0.046	-0.047
-405.282	605.267	-0.130	-0.321
-404.267	-42.635	0.241	-0.122
-403.252	132.886	-0.125	-0.160
-402.238	-176.299	0.045	-0.001
-401.223	-200.000	0.007	-0.227
-400.209	38.861	0.095	-0.084
-399.194	597.906	0.029	-0.072
-398.179	-149.539	-0.064	-0.005
-397.165	-44.405	0.116	-0.057
-396.150	-200.000	0.027	-0.230
-395.136	1.199	0.197	0.140
-394.121	-23.924	-0.185	-0.110
-393.106	-200.000	0.025	-0.318
-392.092	95.523	0.102	0.115
-391.077	800.000	0.046	0.149
-390.063	350.533	0.115	-0.225
-389.048	800.000	0.091	0.250
-388.033	-200.000	-0.004	0.066
-387.019	-43.543	0.246	-0.123
-386.004	45.788	0.309	-0.283
-384.990	745.869	0.111	-0.296
-383.975	131.482	-0.068	0.086
-382.960	-32.479	0.185	0.102
-381.946	-127.722	-0.040	-0.006
-380.931	-49.539	0.351	-0.166
-379.917	-32.812	-0.335	-0.184
-378.902	-53.874	0.210	-0.095
-377.888	258.029	-0.110	-0.187
-376.873	443.722	0.072	0.157
-375.858	117.881	0.271	-0.331
-374.844	-150.775	-0.283	0.021
-373.829	800.000	0.118	0.333
-372.815	-200.000	0.045	0.343
-371.800	-200.000	-0.005	-0.211
-370.785	-76.677	0.180	-0.062
-369.771	800.000	-0.052	-0.166
-368.756	103.882	-0.056	-0.066
-367.742	53.663	0.209	0.199
-366.727	96.460	0.291	-0.330
-365.712	800.000	-0.033	-0.093
-364.698	67.422	0.219	0.221
-363.683	-77.954	-0.210	0.072
-362.669	473.041	0.131	0.292
-361.654	-66.023	0.270	0.107
-360.639	-89.091	-0.155	-0.045
-359.625	-6.841	0.172	0.116
-358.610	140.168	-0.187	-0.244
-357.596	-7.057	0.110	-0.074
-356.581	-77.245	-0.231	-0.080
-355.566	-107.438	0.107	-0.023
-354.552	590.490	0.095	-0.233
-353.537	-14.490	0.305	0.194
-352.523	-64.716	0.068	-0.027
-351.508	170.297	0.177	-0.252
-350.493	-3.815	0.161	0.111
-349.479	37.823	-0.110	-0.097
-348.464	-109.301	-0.468	0.098
-347.450	800.000	-0.042	0.161
-346.435	23.518	-0.148	0.121
-345.420	-64.778	0.327	-0.131
-344.406	-200.000	0.010	-0.236
-343.391	221.573	-0.141	0.224
-342.377	185.042	-0.048	-0.071
-341.362	-200.000	-0.002	-0.138
-340.348	-97.035	0.403	-0.105
-339.333	25.604	0.090	0.074
-338.318	-129.784	0.320	-0.044
-337.304	-117.659	0.545	0.097
-336.289	-72.466	-0.317	0.116
-335.275	-200.000	0.082	-0.378
-334.260	800.000	-0.050	-0.139
-333.245	17.189	0.355	0.279
-332.231	800.000	-0.022	0.083
-331.216	-151.754	0.191	-0.014
-330.202	800.000	0.050	-0.151
-329.187	-108.304	-0.245	0.052
-328.172	-68.858	-0.171	-0.065
-327.158	442.740	0.076	0.164
-326.143	800.000	0.099	-0.315
-325.129	743.392	0.182	-0.485
-324.114	-57.681	0.078	0.034
-323.099	-39.828	-0.142	0.073
-322.085	24.524	0.245	0.201
-321.070	-48.534	0.163	-0.078
-320.056	-73.895	0.266	-0.096
-319.041	-92.341	0.139	-0.039
-318.026	205.796	-0.137	-0.210
-317.012	-200.000	-0.018	0.151
-315.997	280.000	-0.138	0.244
-314.983	-19.029	-0.153	0.094
-313.968	-173.267	-0.140	-0.004
-312.953	400.376	-0.075	-0.156
-311.939	-64.472	0.229	0.092
-310.924	-159.560	0.246	-0.013
-309.910	238.846	-0.153	-0.251
-308.895	800.000	-0.065	0.254
-307.880	-141.992	-0.173	0.017
-306.866	52.538	0.222	0.209
-305.851	800.000	-0.018	0.074
-304.837	-149.416	-0.185	-0.015
-303.822	-87.194	0.221	0.066
-302.807	800.000	0.026	0.074
-301.793	800.000	-0.062	-0.216
-300.778	247.282	-0.096	0.160
-299.764	669.201	0.057	-0.145
-298.749	800.000	0.091	-0.255
-297.735	-32.068	-0.217	-0.120
-296.720	335.212	-0.163	0.313
-295.705	210.054	0.228	0.353
-294.691	-117.923	-0.368	0.065
-293.676	580.082	-0.144	-0.348
-292.662	302.832	0.093	0.171
-291.647	636.908	0.116	-0.290
-290.632	-15.397	-0.211	-0.134
-289.618	800.000	0.032	0.089
-288.603	561.886	-0.073	0.174
-287.589	800.000	-0.092	0.318
-286.574	118.418	0.102	-0.125
-285.559	-158.104	0.329	0.019
-284.545	-48.057	0.309	-0.148
-283.530	-46.809	-0.143	-0.069
-282.516	-76.639	0.418	0.145
-281.501	-163.010	0.156	-0.007
-280.486	-200.000	-0.073	0.316
-279.472	555.315	0.082	-0.194
-278.457	-73.131	-0.593	0.215
-277.443	-17.743	0.367	-0.227
-276.428	681.807	-0.027	0.069
-275.413	-88.052	0.065	-0.019
-274.399	250.515	-0.182	-0.305
-273.384	-11.938	-0.286	0.185
-272.370	-16.064	0.033	0.021
-271.355	652.318	0.085	-0.216
-270.340	39.664	-0.116	-0.102
-269.326	73.900	-0.186	-0.193
-268.311	-200.000	-0.059	-0.315
-267.297	-147.103	-0.131	0.011
-266.282	67.736	-0.356	0.359
-265.267	-43.445	0.150	0.075
-264.253	-200.000	0.047	-0.350
-263.238	-131.739	-0.462	0.060
-262.224	-98.800	-0.083	0.021
-261.209	79.275	0.294	-0.311
-260.195	-200.000	0.015	-0.220
-259.180	-79.680	0.223	0.074
-258.165	201.410	-0.336	0.511
-257.151	-102.383	0.356	0.084
-256.136	218.105	0.132	0.208
-255.122	-200.000	-0.035	-0.206
-254.107	-200.000	0.038	0.351
-253.092	0.743	-0.018	0.013
-252.078	-200.000	-0.025	-0.134
-251.063	10.545	0.225	-0.169
-250.049	46.745	0.039	-0.036
-249.034	97.246	-0.198	0.225
-248.019	382.590	-0.053	0.107
-247.005	-147.739	0.032	0.003
-245.990	521.697	0.094	-0.218
-244.976	-143.087	-0.202	-0.019
-243.961	800.000	-0.069	0.207
-242.946	596.181	0.045	0.111
-241.932	-200.000	0.003	-0.290
-240.917	49.123	-0.225	-0.209
-239.903	-127.305	0.262	0.038
-238.888	159.629	0.195	0.268
-237.873	-0.114	-0.359	-0.252
-236.859	5.558	0.246	0.179
-235.844	-200.000	0.013	0.087
-234.830	-134.007	0.109	0.013
-233.815	-43.917	-0.210	0.104
-232.800	-200.000	0.036	-0.289
-231.786	417.429	0.076	-0.161
-230.771	-141.133	0.153	0.015
-229.757	-200.000	0.014	0.355
-228.742	-26.238	-0.240	-0.139
-227.727	33.057	0.072	-0.062
-226.713	33.188	-0.158	0.135
-225.698	-42.528	0.201	-0.101
-224.684	-106.519	0.198	0.044
-223.669	338.539	-0.255	0.489
-222.655	-200.000	0.035	-0.342
-221.640	800.000	0.056	-0.223
-220.625	-152.127	0.163	-0.012
-219.611	-146.786	0.145	-0.012
-218.596	-10.741	0.053	0.034
-217.582	800.000	-0.067	-0.254
-216.567	95.269	0.048	-0.054
-215.552	278.162	-0.159	0.279
-214.538	13.012	0.146	-0.112
-213.523	-200.000	-0.016	0.086
-212.509	-200.000	0.029	-0.150
-211.494	-126.950	0.066	0.010
-210.479	-133.053	0.067	0.008
-209.465	800.000	0.114	-0.346
-208.450	-200.000	0.005	-0.066
-207.436	-146.682	0.082	0.007
-206.421	-20.301	-0.203	0.123
-205.406	800.000	0.119	-0.395
-204.392	-93.207	-0.400	-0.109
-203.377	-111.506	0.035	-0.007
-202.363	-43.564	0.334	-0.166
-201.348	-200.000	-0.060	0.297
-200.333	-200.000	0.141	0.000
-199.319	-94.436	0.257	-0.069
-198.304	12.652	-0.132	-0.100
-197.290	262.891	-0.065	0.111
-196.275	-156.316	0.191	-0.012
-195.260	-0.368	0.271	0.190
-194.246	45.689	0.134	0.121
-193.231	11.219	0.138	-0.104
-192.217	-103.949	-0.216	0.050
-191.202	436.228	0.094	-0.201
-190.187	-200.000	0.022	-0.267
-189.173	334.270	0.169	0.323
-188.158	23.752	-0.307	0.249
-187.144	-68.758	0.139	0.053
-186.129	800.000	0.065	-0.210
-185.114	561.364	-0.147	0.350
-184.100	597.165	-0.117	-0.285
-183.085	-42.020	-0.023	0.012
-182.071	-200.000	-0.002	-0.106
-181.056	-28.441	-0.129	-0.073
-180.042	617.651	0.118	0.291
-179.027	53.632	0.233	0.220
-178.012	89.597	0.208	-0.228
-176.998	-108.472	-0.233	-0.049
-175.983	-19.604	0.310	0.189
-174.969	50.485	0.115	-0.107
-173.954	-66.448	-0.211	-0.082
-172.939	6.211	-0.129	0.094
-171.925	-200.000	0.060	-0.395
-170.910	-70.747	-0.111	-0.041
-169.896	565.119	0.063	0.150
-168.881	-83.796	-0.176	-0.055
-167.866	255.868	0.151	0.255
-166.852	14.534	0.211	-0.162
-165.837	355.685	0.088	-0.172
-164.823	-200.000	0.021	0.200
-163.808	-154.034	-0.399	0.027
-162.793	448.425	-0.153	0.332
-161.779	800.000	0.055	0.211
-160.764	-200.000	0.031	-0.212
-159.750	60.648	0.112	-0.109
-158.735	36.234	0.141	-0.122
-157.720	800.000	0.086	0.240
-156.706	224.204	0.158	-0.251
-155.691	38.849	-0.050	0.044
-154.677	231.146	0.021	0.035
-153.662	38.875	-0.030	0.026
-152.647	-200.000	-0.037	0.179
-151.633	336.912	-0.159	0.303
-150.618	201.162	-0.113	0.171
-149.604	205.904	0.186	0.284
-148.589	272.883	0.125	0.216
-147.574	-97.201	-0.213	-0.055
-146.560	74.211	-0.298	-0.308
-145.545	-138.621	-0.260	0.028
-144.531	682.848	0.109	-0.280
-143.516	24.625	0.115	0.094
-142.502	-29.040	0.199	0.112
-141.487	-129.816	-0.290	-0.039
-140.472	650.915	-0.119	-0.299
-139.458	287.807	0.280	-0.498
-138.443	172.013	0.169	0.238
-137.429	1.115	0.341	0.241
-136.414	108.283	0.131	-0.153
-135.399	128.173	-0.168	0.210
-134.385	-72.478	-0.103	-0.037
-133.370	-111.549	-0.373	0.074
-132.356	398.532	-0.048	0.099
-131.341	800.000	-0.087	0.293
-130.326	-200.000	0.045	-0.458
-129.312	-34.309	0.249	-0.134
-128.297	4.610	0.359	0.258
-127.283	-155.539	-0.114	0.007
-126.268	15.052	-0.166	0.127
-125.253	-68.553	0.353	-0.134
-124.239	161.765	-0.296	0.407
-123.224	69.255	-0.378	0.382
-122.210	84.730	-0.281	-0.302
-121.195	506.515	0.068	0.154
