DTS Sentinel unit serial number:	SN413079Multiplexer serial number:	ORYXHardware model number:	OX4-SRSoftware version number:	ORYX F/W v4.00 Oryx Data Collector v3.7.2.0data status	okinstallation	princeton_trtdifferential loss correction	single-endedforward channel	channel 4reverse channel	N/Adate	2019/09/15time	02:33:35forward acquisition time	60.00reverse acquisition time	0.00gamma	496.2192k internal	0.2309k external	0.2309temperature offset calibration	1.0037default loss term (dB/km)	0.3790temperature slope calibration	1.0000multiplexer offset coefficient	1.0000multiplexer slope coefficient	1.0000fibre end	0.00T internal ref (°C)	31.50T ext. ref 1 (°C)	4.57T ext. ref 2 (°C)	25.89length (m)	temperature (°C)	Stokes	anti-Stokes-747.200	-200.000	-0.005	-0.222
-746.185	46.080	-0.110	0.104
-745.171	-70.091	-0.141	-0.054
-744.156	-64.531	-0.452	0.186
-743.142	-107.199	0.506	-0.113
-742.127	115.185	0.062	0.076
-741.112	127.908	0.161	0.209
-740.098	-200.000	-0.007	0.121
-739.083	405.436	0.122	-0.260
-738.069	-53.332	0.275	-0.128
-737.054	422.277	0.094	-0.205
-736.039	-171.480	-0.231	-0.008
-735.025	39.833	0.107	-0.098
-734.010	218.220	0.050	0.081
-732.996	155.408	-0.158	-0.221
-731.981	-200.000	-0.080	0.395
-730.966	-37.479	-0.202	-0.109
-729.952	-59.222	0.084	0.037
-728.937	127.812	-0.152	-0.196
-727.923	131.254	-0.112	0.146
-726.908	800.000	-0.066	-0.263
-725.894	99.591	0.110	0.129
-724.879	11.876	0.258	-0.201
-723.864	-162.255	0.115	0.006
-722.850	313.933	-0.050	0.096
-721.835	800.000	-0.059	0.206
-720.821	-82.170	-0.375	0.124
-719.806	-9.517	-0.322	-0.218
-718.791	75.768	0.215	-0.230
-717.777	800.000	0.012	0.039
-716.762	800.000	0.038	-0.117
-715.748	-141.016	-0.286	-0.030
-714.733	4.148	-0.133	-0.099
-713.718	-1.415	0.292	-0.209
-712.704	-200.000	-0.056	-0.286
-711.689	299.617	0.068	0.128
-710.675	220.300	-0.185	0.301
-709.660	8.431	-0.131	-0.100
-708.645	-0.754	-0.324	0.233
-707.631	-96.074	0.064	-0.017
-706.616	-160.762	0.295	0.016
-705.602	371.362	-0.272	-0.560
-704.587	800.000	0.026	-0.107
-703.572	-116.503	-0.124	-0.023
-702.558	-128.512	-0.147	0.021
-701.543	-63.552	0.209	0.087
-700.529	-50.267	-0.063	0.030
-699.514	-126.333	0.442	0.067
-698.499	-3.942	0.298	0.209
-697.485	-200.000	0.029	0.209
-696.470	800.000	-0.106	-0.349
-695.456	325.703	0.076	-0.147
-694.441	300.894	-0.114	-0.214
-693.426	29.493	-0.342	-0.295
-692.412	95.025	-0.231	-0.266
-691.397	174.245	-0.094	-0.138
-690.383	-131.169	-0.262	0.035
-689.368	83.826	-0.042	0.046
-688.354	397.538	-0.107	-0.227
-687.339	67.870	-0.204	-0.211
-686.324	60.611	0.112	0.112
-685.310	-149.498	-0.546	-0.044
-684.295	-200.000	-0.144	-0.000
-683.281	-111.879	0.068	0.014
-682.266	321.955	-0.181	-0.350
-681.251	10.670	0.363	-0.280
-680.237	495.874	-0.034	0.080
-679.222	646.270	-0.094	0.243
-678.208	70.190	0.288	0.301
-677.193	240.234	0.055	0.093
-676.178	-200.000	0.010	-0.086
-675.164	-87.178	-0.269	0.083
-674.149	-200.000	-0.039	-0.371
-673.135	-103.461	-0.103	0.025
-672.120	-117.580	0.192	-0.035
-671.105	-84.160	-0.229	0.074
-670.091	-105.998	-0.325	0.074
-669.076	4.772	0.307	0.228
-668.062	-65.137	0.141	0.058
-667.047	-114.049	0.283	-0.056
-666.032	-33.167	-0.342	0.192
-665.018	800.000	0.040	0.128
-664.003	-200.000	0.078	-0.362
-662.989	-28.131	0.274	-0.160
-661.974	800.000	0.143	0.399
-660.959	-55.784	-0.160	-0.072
-659.945	-89.286	0.125	0.037
-658.930	-21.945	0.124	0.076
-657.916	-200.000	0.002	-0.320
-656.901	123.768	-0.236	-0.300
-655.886	-49.772	-0.096	-0.046
-654.872	-200.000	0.022	-0.134
-653.857	91.739	-0.071	0.081
-652.843	-16.277	-0.258	-0.166
-651.828	-119.968	-0.244	-0.042
-650.814	-66.886	0.394	-0.158
-649.799	373.111	0.119	-0.244
-648.784	800.000	0.066	-0.188
-647.770	-20.261	0.099	-0.062
-646.755	274.515	0.081	-0.145
-645.741	-200.000	-0.012	-0.109
-644.726	-110.438	0.365	0.077
-643.711	186.239	-0.108	0.163
-642.697	89.224	0.043	-0.049
-641.682	-60.642	-0.100	-0.043
-640.668	206.149	-0.120	-0.188
-639.653	-179.158	0.585	0.013
-638.638	261.981	0.178	-0.312
-637.624	102.885	-0.258	0.306
-636.609	-26.182	0.226	0.135
-635.595	41.307	0.205	-0.188
-634.580	98.357	0.061	-0.071
-633.565	-54.288	-0.199	-0.091
-632.551	-88.626	-0.246	-0.074
-631.536	299.356	0.002	0.003
-630.522	5.966	0.124	-0.093
-629.507	-200.000	0.020	0.232
-628.492	-19.024	-0.142	0.090
-627.478	-87.888	-0.183	-0.056
-626.463	-117.818	-0.224	0.041
-625.449	-200.000	0.009	-0.083
-624.434	95.690	-0.219	-0.253
-623.419	24.846	-0.246	0.206
-622.405	379.247	0.090	0.187
-621.390	-78.997	0.038	-0.013
-620.376	-40.367	0.093	0.049
-619.361	259.233	0.106	0.185
-618.346	800.000	0.048	0.151
-617.332	-200.000	0.015	0.134
-616.317	330.418	-0.093	0.182
-615.303	-128.613	0.333	0.048
-614.288	-157.145	-0.147	-0.009
-613.273	-10.473	0.122	0.081
-612.259	90.753	0.213	-0.241
-611.244	-45.975	-0.112	-0.056
-610.230	312.153	0.120	0.227
-609.215	-200.000	0.020	0.336
-608.201	-71.660	-0.084	-0.032
-607.186	-68.597	-0.172	0.067
-606.171	118.621	-0.116	-0.145
-605.157	151.175	-0.102	-0.140
-604.142	-108.981	-0.082	-0.018
-603.128	685.755	0.113	0.299
-602.113	-200.000	-0.111	0.501
-601.098	-26.128	0.195	-0.116
-600.084	-200.000	0.044	-0.439
-599.069	264.815	-0.098	-0.172
-598.055	-168.565	0.168	-0.006
-597.040	-37.741	0.232	0.125
-596.025	584.294	-0.081	0.200
-595.011	-149.830	0.103	-0.008
-593.996	-0.065	-0.248	0.178
-592.982	800.000	-0.044	0.167
-591.967	186.175	0.085	0.128
-590.952	-169.484	0.149	0.005
-589.938	-200.000	-0.066	0.301
-588.923	94.791	0.084	0.097
-587.909	265.346	0.126	-0.221
-586.894	-54.528	-0.316	0.145
-585.879	-105.714	-0.191	0.044
-584.865	70.565	-0.304	-0.317
-583.850	119.525	-0.246	-0.307
-582.836	6.513	-0.166	-0.125
-581.821	419.267	-0.120	0.259
-580.806	-110.452	0.185	-0.039
-579.792	32.929	-0.193	0.168
-578.777	-191.022	0.113	0.001
-577.763	800.000	-0.047	-0.150
-576.748	85.995	-0.041	-0.046
-575.733	64.800	0.160	-0.163
-574.719	-184.384	0.135	0.002
-573.704	280.461	0.109	0.197
-572.690	-152.698	-0.235	-0.017
-571.675	-200.000	-0.004	-0.075
-570.661	-27.824	-0.201	-0.118
-569.646	213.993	-0.135	-0.216
-568.631	800.000	-0.070	0.245
-567.617	693.511	0.121	0.319
-566.602	343.611	-0.168	-0.333
-565.588	16.076	-0.145	-0.115
-564.573	79.911	-0.243	0.263
-563.558	50.135	-0.227	-0.216
-562.544	-200.000	-0.014	-0.115
-561.529	-27.141	-0.231	-0.136
-560.515	5.213	0.210	0.156
-559.500	83.265	-0.130	0.142
-558.485	-91.951	-0.104	-0.030
-557.471	306.264	0.148	0.278
-556.456	-95.765	-0.122	0.033
-555.442	517.951	0.114	0.269
-554.427	-200.000	-0.009	-0.225
-553.412	213.109	-0.095	-0.151
-552.398	110.448	0.121	0.146
-551.383	365.389	0.105	0.212
-550.369	164.788	0.120	-0.171
-549.354	-60.191	0.306	-0.131
-548.339	800.000	0.058	-0.179
-547.325	40.696	-0.227	0.206
-546.310	221.080	-0.027	0.044
-545.296	585.459	0.012	0.030
-544.281	76.952	-0.107	-0.114
-543.266	-150.773	-0.212	0.016
-542.252	56.227	-0.286	-0.280
-541.237	-114.767	-0.174	-0.033
-540.223	-71.202	0.288	-0.109
-539.208	-148.683	0.135	0.011
-538.193	256.886	-0.074	0.129
-537.179	-139.641	0.426	0.046
-536.164	35.658	-0.157	0.139
-535.150	584.380	0.042	-0.104
-534.135	34.562	0.346	-0.304
-533.121	-139.860	0.380	0.041
-532.106	434.079	-0.120	0.262
-531.091	19.314	-0.203	-0.164
-530.077	-78.942	-0.225	-0.077
-529.062	-200.000	0.063	0.302
-528.048	-16.399	0.126	0.081
-527.033	-161.100	0.086	-0.005
-526.018	-200.000	0.003	-0.222
-525.004	-140.239	0.192	0.020
-523.989	-124.213	0.099	-0.016
-522.975	257.054	-0.180	0.311
-521.960	2.995	-0.156	-0.114
-520.945	-200.000	-0.043	-0.240
-519.931	-129.732	0.504	0.070
-518.916	63.647	-0.097	-0.098
-517.902	-9.411	0.144	0.097
-516.887	-200.000	-0.002	-0.181
-515.872	-200.000	-0.014	-0.236
-514.858	-126.872	-0.025	-0.004
-513.843	800.000	0.017	-0.056
-512.829	800.000	-0.024	-0.081
-511.814	256.817	-0.204	-0.353
-510.799	800.000	-0.035	0.124
-509.785	-151.185	-0.149	-0.011
-508.770	-78.685	0.110	-0.038
-507.756	-200.000	-0.018	0.088
-506.741	377.318	-0.068	-0.139
-505.726	121.010	0.357	-0.447
-504.712	-58.919	0.314	-0.137
-503.697	-166.568	0.453	-0.019
-502.683	-196.708	0.215	-0.001
-501.668	118.925	0.222	0.276
-500.653	352.190	-0.157	-0.314
-499.639	800.000	-0.023	-0.072
-498.624	4.753	-0.080	0.059
-497.610	140.308	-0.018	0.024
-496.595	-200.000	-0.041	-0.231
-495.581	233.948	-0.100	-0.165
-494.566	246.676	0.040	0.068
-493.551	87.561	0.140	-0.156
-492.537	-200.000	0.023	-0.122
-491.522	-165.629	-0.252	-0.011
-490.508	9.073	0.091	-0.069
-489.493	-19.860	-0.183	0.114
-488.478	-129.927	0.298	-0.041
-487.464	-106.093	-0.115	0.026
-486.449	136.763	-0.158	-0.208
-485.435	-158.814	0.258	0.015
-484.420	-159.875	-0.126	-0.007
-483.405	105.686	0.092	-0.109
-482.391	-102.469	0.365	0.088
-481.376	-200.000	0.063	0.305
-480.362	-200.000	-0.006	0.276
-479.347	-149.386	-0.180	-0.014
-478.332	546.917	-0.136	-0.326
-477.318	367.822	0.083	-0.168
-476.303	-200.000	-0.009	0.325
-475.289	-19.457	-0.087	0.054
-474.274	-67.460	-0.174	0.069
-473.259	-21.815	-0.153	-0.094
-472.245	-94.264	-0.229	0.063
-471.230	16.887	0.219	-0.175
-470.216	-200.000	-0.009	0.139
-469.201	10.250	-0.125	0.096
-468.186	-110.881	-0.370	0.077
-467.172	161.891	-0.044	0.062
-466.157	-76.764	-0.231	-0.081
-465.143	800.000	-0.050	-0.193
-464.128	37.216	-0.026	0.023
-463.113	800.000	-0.049	0.193
-462.099	101.827	0.065	-0.076
-461.084	-131.322	-0.218	-0.029
-460.070	703.692	0.147	0.389
-459.055	-200.000	0.054	-0.339
-458.040	77.077	0.070	0.074
-457.026	70.092	-0.171	-0.177
-456.011	-34.002	0.270	0.149
-454.997	-56.655	0.331	-0.147
-453.982	-111.794	0.090	-0.018
-452.968	128.287	0.090	-0.115
-451.953	137.552	0.194	0.255
-450.938	-20.848	0.067	0.042
-449.924	-200.000	-0.021	-0.117
-448.909	482.427	0.096	-0.218
-447.895	97.725	0.243	-0.280
-446.880	-200.000	-0.014	0.093
-445.865	1.133	0.158	0.114
-444.851	-200.000	0.009	-0.440
-443.836	800.000	0.024	0.104
-442.822	-200.000	-0.037	-0.286
-441.807	212.189	0.108	0.172
-440.792	34.935	-0.064	-0.056
-439.778	152.566	-0.054	-0.074
-438.763	-90.664	0.052	0.015
-437.749	-200.000	-0.002	0.249
-436.734	-200.000	0.034	0.403
-435.719	-200.000	0.017	0.218
-434.705	-119.544	0.141	-0.024
-433.690	-0.176	0.336	0.240
-432.676	-200.000	0.025	0.182
-431.661	-200.000	-0.016	0.304
-430.646	235.696	0.154	0.256
-429.632	7.352	-0.203	-0.152
-428.617	800.000	-0.053	-0.150
-427.603	800.000	-0.045	0.125
-426.588	-200.000	-0.001	0.064
-425.573	800.000	-0.068	0.224
-424.559	-200.000	-0.036	0.357
-423.544	-185.315	0.070	0.001
-422.530	113.087	-0.075	0.091
-421.515	165.419	0.221	0.313
-420.500	456.651	0.068	0.151
-419.486	-130.187	0.237	0.032
-418.471	657.973	0.071	-0.183
-417.457	-20.975	-0.208	-0.128
-416.442	771.521	-0.142	0.387
-415.428	287.752	-0.181	0.329
-414.413	-10.987	0.049	-0.032
-413.398	-200.000	0.073	-0.344
-412.384	-96.605	0.251	-0.066
-411.369	-83.158	0.397	-0.128
-410.355	-47.789	-0.139	-0.068
-409.340	800.000	0.091	-0.295
-408.325	-139.612	0.125	-0.013
-407.311	18.428	-0.330	-0.264
-406.296	-200.000	0.025	0.188
-405.282	126.686	0.150	-0.190
-404.267	800.000	-0.093	-0.366
-403.252	-67.499	-0.361	-0.142
-402.238	-18.828	0.215	0.134
-401.223	764.101	-0.057	-0.155
-400.209	-54.359	0.493	0.224
-399.194	315.023	-0.073	0.138
-398.179	156.896	-0.173	0.240
-397.165	15.746	0.314	0.248
-396.150	-200.000	-0.038	0.318
-395.136	128.310	0.161	-0.206
-394.121	52.571	0.196	-0.188
-393.106	-131.559	-0.343	-0.045
-392.092	-200.000	0.093	0.471
-391.077	-97.717	0.122	-0.032
-390.063	-22.485	0.289	-0.175
-389.048	-26.443	0.148	0.087
-388.033	-112.621	0.238	0.047
-387.019	-118.406	0.019	-0.003
-386.004	34.923	0.027	-0.024
-384.990	236.596	-0.183	0.304
-383.975	-57.844	-0.195	-0.086
-382.960	-142.318	-0.129	-0.013
-381.946	-0.022	-0.085	-0.061
-380.931	-41.189	0.074	-0.038
-379.917	-9.539	-0.121	0.081
-378.902	-200.000	0.067	0.323
-377.888	400.818	0.031	0.066
-376.873	-106.655	0.026	-0.006
-375.858	-67.876	0.049	0.019
-374.844	-93.156	-0.408	-0.114
-373.829	-200.000	0.008	0.110
-372.815	168.546	-0.067	-0.095
-371.800	762.212	-0.066	0.179
-370.785	27.998	-0.218	0.184
-369.771	24.986	-0.073	-0.061
-368.756	192.452	0.131	0.198
-367.742	-10.388	-0.093	0.062
-366.727	163.519	-0.129	-0.181
-365.712	-50.615	-0.334	0.158
-364.698	-200.000	-0.053	0.312
-363.683	30.736	0.108	0.092
-362.669	-200.000	-0.011	-0.113
-361.654	800.000	0.111	-0.318
-360.639	800.000	0.057	0.159
-359.625	-200.000	-0.029	0.259
-358.610	-200.000	-0.017	-0.127
-357.596	-126.336	-0.223	0.033
-356.581	-200.000	0.001	-0.142
-355.566	90.557	-0.122	-0.136
-354.552	-15.813	-0.130	-0.083
-353.537	88.168	-0.232	0.258
-352.523	160.146	-0.053	-0.074
-351.508	-200.000	0.006	-0.379
-350.493	233.941	-0.075	-0.124
-349.479	191.407	-0.037	0.056
-348.464	800.000	-0.018	0.058
-347.450	-200.000	-0.017	0.106
-346.435	339.039	0.020	0.039
-345.420	-64.969	0.224	0.090
-344.406	5.193	0.178	-0.131
-343.391	-5.574	-0.042	0.029
-342.377	92.838	-0.219	-0.248
-341.362	-81.382	-0.330	0.109
-340.348	26.388	-0.396	-0.331
-339.333	800.000	-0.033	0.143
-338.318	800.000	-0.076	0.291
-337.304	47.151	-0.228	0.212
-336.289	5.812	0.145	-0.108
-335.275	-200.000	0.038	-0.332
-334.260	138.571	0.212	-0.278
-333.245	642.155	0.113	-0.288
-332.231	54.401	0.060	-0.058
-331.216	-34.913	0.085	-0.046
-330.202	800.000	-0.049	-0.167
-329.187	-126.156	0.393	-0.059
-328.172	9.010	-0.131	0.099
-327.158	-47.573	-0.230	-0.112
-326.143	-141.135	-0.266	-0.027
-325.129	800.000	0.030	0.121
-324.114	784.075	-0.144	-0.394
-323.099	-200.000	-0.016	-0.073
-322.085	418.302	0.025	-0.054
-321.070	-36.407	-0.073	0.039
-320.056	391.744	0.106	0.219
-319.041	-107.525	-0.086	-0.019
-318.026	50.103	-0.212	0.200
-317.012	-144.811	0.319	0.029
-315.997	-84.807	0.127	-0.040
-314.983	267.255	0.131	0.230
-313.968	-26.885	0.180	0.105
-312.953	26.541	0.170	-0.142
-311.939	202.080	-0.165	0.254
-310.924	122.131	-0.312	-0.390
-309.910	108.518	0.111	-0.132
-308.895	-12.022	0.164	0.107
-307.880	-6.905	0.179	0.121
-306.866	-90.376	-0.171	0.049
-305.851	-42.479	0.308	0.157
-304.837	214.391	0.093	-0.147
-303.822	5.715	0.150	-0.111
-302.807	-200.000	0.029	-0.212
-301.793	-42.134	0.296	-0.151
-300.778	154.178	-0.062	-0.085
-299.764	190.472	-0.079	-0.119
-298.749	-200.000	-0.035	-0.274
-297.735	-70.695	0.153	0.058
-296.720	97.435	0.227	0.260
-295.705	222.655	-0.122	0.196
-294.691	-156.658	-0.120	0.007
-293.676	-0.175	0.137	0.097
-292.662	-200.000	-0.004	-0.287
-291.647	292.671	-0.067	-0.121
-290.632	742.819	-0.006	-0.015
-289.618	-105.830	0.195	-0.044
-288.603	176.849	-0.186	0.270
-287.589	800.000	-0.054	0.208
-286.574	-200.000	-0.032	0.244
-285.559	-63.986	-0.426	-0.174
-284.545	13.775	-0.205	0.159
-283.530	505.443	0.049	0.113
-282.516	235.893	-0.082	-0.134
-281.501	409.614	0.115	-0.244
-280.486	-172.927	0.350	-0.011
-279.472	-11.639	-0.128	0.084
-278.457	-200.000	-0.007	-0.097
-277.443	800.000	-0.026	-0.100
-276.428	-40.129	0.306	-0.159
-275.413	-200.000	0.007	0.042
-274.399	547.246	-0.118	0.281
-273.384	-5.868	-0.111	0.076
-272.370	357.891	0.104	0.207
-271.355	74.969	0.116	0.122
-270.340	-128.638	-0.221	-0.031
-269.326	-128.419	-0.211	0.030
-268.311	-24.330	-0.152	0.090
-267.297	-200.000	0.015	-0.103
-266.282	-149.551	-0.134	-0.011
-265.267	-21.033	0.195	-0.119
-264.253	33.511	0.017	-0.015
-263.238	-81.719	-0.144	-0.047
-262.224	-52.859	0.291	-0.134
-261.209	15.053	-0.065	0.051
-260.195	-81.635	0.322	0.105
-259.180	-27.782	0.297	0.172
-258.165	-9.870	-0.411	0.272
-257.151	-118.842	-0.143	0.025
-256.136	-38.748	-0.286	-0.150
-255.122	-164.470	0.123	-0.006
-254.107	-25.029	0.278	-0.164
-253.092	800.000	0.060	-0.173
-252.078	-200.000	-0.037	0.192
-251.063	-115.582	0.117	-0.022
-250.049	-59.524	-0.214	0.092
-249.034	29.686	0.066	-0.056
-248.019	29.844	0.016	0.014
-247.005	-101.613	0.064	-0.016
-245.990	351.343	-0.153	0.302
-244.976	-200.000	-0.018	0.112
-243.961	-22.612	0.382	-0.230
-242.946	103.924	0.051	-0.060
-241.932	392.156	-0.142	0.294
-240.917	-200.000	0.012	0.193
-239.903	-200.000	-0.014	0.307
-238.888	669.342	-0.067	-0.173
-237.873	-139.693	0.429	-0.045
-236.859	-165.799	-0.191	0.008
-235.844	800.000	0.025	0.073
-234.830	-17.358	0.148	0.093
-233.815	171.978	-0.097	0.139
-232.800	-200.000	0.043	0.436
-231.786	-200.000	-0.019	0.265
-230.771	-200.000	0.025	0.336
-229.757	103.896	-0.094	0.110
-228.742	20.925	-0.215	-0.174
-227.727	87.532	0.071	-0.079
-226.713	1.244	0.252	-0.180
-225.698	-3.377	-0.055	-0.038
-224.684	-73.154	-0.247	-0.090
-223.669	-187.375	-0.177	0.002
-222.655	68.439	-0.210	0.214
-221.640	-200.000	0.047	0.385
-220.625	57.519	0.132	0.128
-219.611	800.000	-0.088	-0.276
-218.596	14.903	0.191	-0.149
-217.582	-200.000	-0.005	-0.117
-216.567	-36.031	-0.403	0.217
-215.552	-126.237	0.442	0.066
-214.538	-119.174	0.095	0.017
-213.523	584.180	0.049	-0.120
-212.509	340.259	-0.153	-0.297
-211.494	-67.451	-0.218	0.085
-210.479	-38.812	0.268	-0.140
-209.465	-51.426	-0.047	0.022
-208.450	-52.498	-0.315	0.145
-207.436	-106.537	-0.262	-0.058
-206.421	798.256	0.039	-0.108
-205.406	-5.743	0.098	-0.067
-204.392	77.046	0.465	-0.492
-203.377	31.691	-0.161	-0.138
-202.363	-24.557	-0.370	-0.219
-201.348	549.147	0.060	-0.142
-200.333	-122.839	-0.192	0.031
-199.319	306.082	-0.121	-0.225
-198.304	401.913	-0.037	0.078
-197.290	-23.865	0.389	0.231
-196.275	48.198	-0.087	-0.081
-195.260	-13.514	0.101	-0.065
-194.246	164.680	0.044	0.062
-193.231	-52.578	-0.030	-0.014
-192.217	800.000	0.074	0.227
-191.202	-69.940	0.199	0.075
-190.187	19.642	0.166	0.133
-189.173	143.058	-0.144	0.190
-188.158	-40.948	0.095	0.049
-187.144	8.193	-0.293	-0.219
-186.129	110.355	0.106	0.126
-185.114	160.070	-0.192	-0.265
-184.100	-72.014	0.257	-0.095
-183.085	81.415	-0.021	0.023
-182.071	188.426	-0.237	-0.352
-181.056	-161.479	-0.310	-0.016
-180.042	67.444	0.247	-0.251
-179.027	-200.000	0.042	-0.228
-178.012	-200.000	0.012	-0.122
-176.998	-179.244	-0.269	-0.006
-175.983	-127.238	-0.180	0.026
-174.969	-60.113	-0.090	0.038
-173.954	-56.970	0.309	-0.136
-172.939	-200.000	0.024	0.200
-171.925	146.767	-0.182	-0.242
-170.910	-133.598	0.457	-0.057
-169.896	800.000	-0.047	-0.147
-168.881	-133.824	-0.174	0.022
-167.866	133.274	-0.151	-0.194
-166.852	189.409	0.154	0.229
-165.837	-34.440	-0.191	0.104
-164.823	-49.385	-0.106	0.050
-163.808	220.231	-0.045	0.071
-162.793	4.167	0.047	0.034
-161.779	-59.775	-0.141	0.060
-160.764	-54.459	-0.250	-0.112
-159.750	800.000	0.037	-0.135
-158.735	800.000	-0.046	-0.143
-157.720	-200.000	0.031	0.176
-156.706	-16.190	-0.162	-0.102
-155.691	-32.140	0.249	-0.138
-154.677	-34.599	0.149	-0.081
-153.662	-10.843	0.183	0.120
-152.647	-2.177	-0.280	-0.195
-151.633	28.920	-0.264	0.222
-150.618	42.810	0.101	-0.091
-149.604	-180.129	-0.210	-0.004
-148.589	800.000	-0.025	0.072
-147.574	-54.234	0.305	-0.138
-146.560	-200.000	-0.043	0.391
-145.545	-200.000	-0.025	-0.173
-144.531	53.559	0.117	-0.112
-143.516	2.142	0.146	-0.105
-142.502	-97.659	-0.266	0.068
-141.487	-48.923	-0.090	0.043
-140.472	12.132	0.190	-0.145
-139.458	-67.989	0.154	-0.060
-138.443	174.336	0.009	-0.013
-137.429	59.082	0.090	0.087
-136.414	-22.854	-0.042	-0.025
-135.399	-123.226	0.366	0.058
-134.385	-91.702	-0.437	0.123
-133.370	-79.435	-0.381	0.128
-132.356	-200.000	-0.008	0.177
-131.341	-17.318	0.178	-0.111
-130.326	35.251	-0.223	0.194
-129.312	-91.531	0.172	-0.049
-128.297	-30.589	-0.421	-0.236
-127.283	-177.154	0.190	-0.005
-126.268	-200.000	-0.093	0.465
-125.253	-123.910	0.198	0.031
-124.239	-185.056	-0.115	0.002
-123.224	-135.233	-0.338	-0.040
-122.210	-94.074	0.475	0.129
-121.195	-179.655	0.064	0.001
