DTS Sentinel unit serial number:	SN413079Multiplexer serial number:	ORYXHardware model number:	OX4-SRSoftware version number:	ORYX F/W v4.00 Oryx Data Collector v3.7.2.0data status	okinstallation	princeton_trtdifferential loss correction	single-endedforward channel	channel 4reverse channel	N/Adate	2019/09/15time	19:45:35forward acquisition time	60.00reverse acquisition time	0.00gamma	496.2192k internal	0.2305k external	0.2305temperature offset calibration	0.9930default loss term (dB/km)	0.3790temperature slope calibration	1.0000multiplexer offset coefficient	1.0000multiplexer slope coefficient	1.0000fibre end	0.00T internal ref (°C)	37.09T ext. ref 1 (°C)	7.43T ext. ref 2 (°C)	27.10length (m)	temperature (°C)	Stokes	anti-Stokes-747.200	-53.618	-0.252	-0.117
-746.185	97.567	-0.057	0.067
-745.171	-60.568	0.372	-0.161
-744.156	800.000	0.064	-0.236
-743.142	-136.769	0.260	-0.031
-742.127	-200.000	0.048	0.293
-741.112	-200.000	0.030	0.203
-740.098	-18.706	-0.256	0.162
-739.083	-93.002	0.153	-0.043
-738.069	105.037	-0.307	-0.368
-737.054	-9.794	0.039	0.027
-736.039	-23.818	0.146	0.089
-735.025	187.451	-0.070	-0.107
-734.010	-159.509	-0.152	-0.009
-732.996	-200.000	-0.000	-0.230
-731.981	-60.612	0.227	-0.098
-730.966	800.000	-0.007	0.027
-729.952	180.216	-0.107	0.160
-728.937	70.262	-0.193	-0.203
-727.923	-159.345	-0.263	-0.015
-726.908	-20.557	-0.089	0.056
-725.894	800.000	-0.172	-0.535
-724.879	528.872	-0.038	-0.091
-723.864	62.178	0.141	0.143
-722.850	800.000	-0.124	-0.364
-721.835	800.000	-0.057	0.204
-720.821	-45.527	-0.322	0.162
-719.806	-200.000	0.043	-0.383
-718.791	237.422	-0.121	-0.205
-717.777	-82.149	0.261	-0.087
-716.762	110.951	-0.027	-0.033
-715.748	36.494	-0.078	0.070
-714.733	-142.223	0.064	-0.006
-713.718	314.109	0.017	0.033
-712.704	150.614	0.166	-0.229
-711.689	14.174	0.222	-0.176
-710.675	-77.524	-0.179	0.063
-709.660	-200.000	-0.004	-0.263
-708.645	-7.765	-0.206	0.141
-707.631	-125.972	0.192	0.029
-706.616	-118.684	-0.261	0.047
-705.602	-175.694	-0.228	0.006
-704.587	72.704	0.172	-0.182
-703.572	800.000	0.052	-0.160
-702.558	149.636	0.074	0.102
-701.543	-143.988	-0.028	-0.003
-700.529	2.293	0.354	-0.260
-699.514	-3.484	-0.102	-0.072
-698.499	158.326	-0.109	0.153
-697.485	409.918	0.079	0.171
-696.470	-120.856	-0.131	-0.022
-695.456	-42.911	-0.146	0.075
-694.441	-200.000	0.025	0.359
-693.426	65.496	0.078	-0.080
-692.412	38.867	0.067	-0.061
-691.397	54.381	-0.102	-0.100
-690.383	101.704	0.195	0.231
-689.368	-200.000	0.062	-0.316
-688.354	-159.073	-0.266	0.015
-687.339	-200.000	-0.001	-0.264
-686.324	1.120	-0.095	-0.069
-685.310	-200.000	0.031	0.231
-684.295	77.584	-0.182	0.197
-683.281	99.620	0.167	-0.197
-682.266	-31.461	0.053	-0.030
-681.251	-58.298	-0.338	-0.149
-680.237	-30.676	-0.335	-0.193
-679.222	-174.331	-0.268	-0.008
-678.208	19.914	0.251	0.205
-677.193	-39.847	-0.216	-0.114
-676.178	-42.952	-0.166	0.085
-675.164	-167.220	-0.141	-0.006
-674.149	-53.217	-0.150	-0.070
-673.135	204.322	0.160	0.251
-672.120	-200.000	-0.027	-0.190
-671.105	-30.552	-0.072	0.042
-670.091	-200.000	0.008	-0.146
-669.076	-14.164	-0.033	-0.021
-668.062	230.364	0.219	-0.364
-667.047	300.119	-0.117	0.219
-666.032	-200.000	0.030	0.198
-665.018	-200.000	0.073	-0.338
-664.003	-49.790	0.108	0.052
-662.989	-69.743	-0.182	0.071
-661.974	-200.000	0.003	-0.111
-660.959	-134.718	-0.094	-0.012
-659.945	-200.000	-0.014	-0.243
-658.930	197.780	-0.056	0.086
-657.916	115.060	-0.115	-0.143
-656.901	-36.703	0.193	0.105
-655.886	-102.375	0.160	0.039
-654.872	144.637	0.141	-0.192
-653.857	-200.000	0.041	-0.327
-652.843	-151.068	0.105	-0.008
-651.828	5.672	-0.345	-0.259
-650.814	-95.584	0.285	0.078
-649.799	193.139	0.138	0.212
-648.784	-200.000	0.038	-0.400
-647.770	-11.543	0.126	-0.084
-646.755	111.646	-0.259	-0.317
-645.741	3.319	-0.202	-0.149
-644.726	-200.000	0.002	-0.196
-643.711	28.166	-0.175	-0.149
-642.697	19.643	0.120	0.098
-641.682	246.071	0.091	0.156
-640.668	-34.822	-0.448	0.248
-639.653	-200.000	0.028	0.394
-638.638	-200.000	-0.018	-0.197
-637.624	800.000	0.054	0.168
-636.609	800.000	0.033	0.124
-635.595	291.091	-0.169	0.311
-634.580	-85.528	-0.112	0.035
-633.565	-160.975	-0.246	0.013
-632.551	-200.000	-0.022	-0.128
-631.536	-113.445	-0.187	-0.037
-630.522	77.948	0.166	-0.179
-629.507	216.028	-0.044	0.071
-628.492	-38.857	0.272	0.145
-627.478	432.854	-0.062	0.137
-626.463	-149.629	-0.121	0.010
-625.449	75.187	-0.338	-0.361
-624.434	-34.458	0.223	-0.124
-623.419	800.000	0.086	-0.312
-622.405	-36.287	0.173	-0.094
-621.390	-116.351	0.118	-0.022
-620.376	-139.846	-0.292	0.031
-619.361	-146.476	-0.303	0.027
-618.346	-200.000	-0.009	0.214
-617.332	-57.533	0.226	-0.101
-616.317	-87.037	-0.071	0.022
-615.303	46.820	0.207	0.195
-614.288	-200.000	0.002	-0.131
-613.273	-200.000	-0.002	-0.290
-612.259	-200.000	0.027	-0.129
-611.244	-21.807	-0.186	0.114
-610.230	50.231	-0.286	-0.273
-609.215	-25.609	0.477	0.285
-608.201	-90.652	-0.185	0.054
-607.186	-200.000	0.053	-0.379
-606.171	101.809	-0.089	0.106
-605.157	37.795	-0.094	-0.084
-604.142	281.804	-0.054	-0.098
-603.128	32.308	-0.220	0.192
-602.113	-77.176	0.179	-0.063
-601.098	178.725	0.040	0.059
-600.084	800.000	-0.081	0.261
-599.069	-122.692	-0.239	0.039
-598.055	-200.000	0.006	-0.065
-597.040	216.764	0.111	-0.178
-596.025	800.000	0.059	0.193
-595.011	-200.000	-0.005	-0.138
-593.996	-200.000	-0.043	-0.301
-592.982	-100.990	0.385	0.096
-591.967	368.736	-0.035	-0.072
-590.952	81.081	0.195	0.213
-589.938	307.398	0.178	-0.336
-588.923	-110.772	0.304	-0.063
-587.909	-200.000	-0.000	-0.265
-586.894	-34.101	0.191	0.106
-585.879	559.814	0.119	-0.291
-584.865	178.562	-0.260	-0.385
-583.850	61.071	0.208	-0.209
-582.836	263.027	-0.040	0.070
-581.821	-21.371	-0.322	0.199
-580.806	-122.194	-0.133	-0.022
-579.792	-107.971	0.109	-0.024
-578.777	-200.000	0.018	0.345
-577.763	615.251	-0.027	0.068
-576.748	-200.000	-0.024	0.246
-575.733	800.000	0.095	0.348
-574.719	-200.000	0.016	0.093
-573.704	-91.782	-0.217	0.062
-572.690	800.000	-0.042	0.178
-571.675	589.460	-0.139	-0.347
-570.661	6.346	0.094	-0.071
-569.646	-85.853	0.453	0.142
-568.631	94.152	0.148	0.169
-567.617	800.000	0.097	0.334
-566.602	-200.000	0.008	-0.328
-565.588	162.680	0.341	-0.484
-564.573	-34.767	0.264	0.146
-563.558	-86.481	0.045	0.014
-562.544	-49.160	0.128	0.062
-561.529	-22.001	-0.049	-0.030
-560.515	100.645	-0.173	0.203
-559.500	-200.000	-0.046	-0.283
-558.485	134.627	-0.189	-0.248
-557.471	-200.000	0.001	-0.182
-556.456	90.627	0.145	-0.165
-555.442	273.350	-0.100	-0.179
-554.427	-200.000	0.013	0.449
-553.412	-200.000	-0.044	-0.200
-552.398	-200.000	-0.106	-0.540
-551.383	79.457	0.221	0.240
-550.369	259.784	-0.128	-0.223
-549.354	800.000	-0.067	0.189
-548.339	-200.000	-0.018	0.210
-547.325	800.000	0.118	0.376
-546.310	800.000	0.040	0.145
-545.296	-32.947	-0.310	-0.174
-544.281	7.646	0.045	-0.034
-543.266	-88.141	-0.203	0.062
-542.252	-52.093	0.110	-0.051
-541.237	-112.502	-0.252	0.051
-540.223	-3.897	-0.105	-0.074
-539.208	-200.000	0.028	-0.169
-538.193	800.000	-0.055	-0.213
-537.179	664.909	0.085	0.222
-536.164	-128.533	0.196	0.028
-535.150	-91.356	0.154	0.044
-534.135	800.000	-0.099	0.278
-533.121	-55.809	0.168	0.076
-532.106	-200.000	-0.040	0.264
-531.091	-200.000	-0.031	-0.163
-530.077	-61.552	-0.530	0.224
-529.062	-119.951	-0.117	-0.020
-528.048	-177.328	0.317	0.008
-527.033	0.022	-0.088	0.063
-526.018	-56.659	-0.153	0.069
-525.004	-38.302	0.030	-0.016
-523.989	369.509	-0.088	0.179
-522.975	-79.084	0.187	0.064
-521.960	-81.581	-0.348	-0.115
-520.945	-101.685	0.361	-0.088
-519.931	-114.216	-0.255	-0.050
-518.916	40.573	-0.176	0.160
-517.902	-200.000	0.012	0.130
-516.887	-16.093	0.053	-0.034
-515.872	-200.000	-0.065	-0.427
-514.858	800.000	0.051	0.172
-513.843	-94.314	-0.388	0.107
-512.829	399.675	-0.147	0.311
-511.814	-62.344	0.101	-0.042
-510.799	-200.000	-0.018	-0.130
-509.785	25.923	0.070	-0.059
-508.770	-32.706	-0.169	-0.095
-507.756	-41.690	-0.240	-0.124
-506.741	-89.793	-0.055	0.016
-505.726	194.332	-0.078	-0.120
-504.712	-26.191	-0.067	-0.039
-503.697	-200.000	0.004	-0.080
-502.683	-77.195	-0.056	0.020
-501.668	-123.470	0.112	-0.018
-500.653	-9.465	0.080	0.054
-499.639	-85.481	-0.096	0.030
-498.624	289.295	-0.083	-0.151
-497.610	129.761	0.031	-0.040
-496.595	-200.000	-0.016	0.085
-495.581	163.716	0.104	-0.147
-494.566	-200.000	-0.010	-0.331
-493.551	-90.429	0.141	-0.041
-492.537	269.569	-0.104	-0.185
-491.522	69.751	0.212	0.220
-490.508	-82.514	-0.259	-0.085
-489.493	800.000	0.062	-0.269
-488.478	62.515	0.215	0.217
-487.464	-200.000	-0.030	-0.170
-486.449	-200.000	0.025	-0.264
-485.435	-200.000	0.012	0.260
-484.420	-47.801	-0.068	0.033
-483.405	-106.512	-0.203	-0.046
-482.391	800.000	0.060	-0.245
-481.376	312.123	0.090	-0.171
-480.362	42.801	0.101	0.093
-479.347	-200.000	-0.028	-0.127
-478.332	-165.222	-0.123	-0.005
-477.318	246.838	-0.110	0.188
-476.303	266.369	-0.121	-0.212
-475.289	279.599	0.103	-0.186
-474.274	-57.090	-0.202	0.090
-473.259	72.504	-0.177	0.186
-472.245	490.176	-0.115	0.265
-471.230	7.470	0.131	-0.098
-470.216	196.103	0.036	-0.055
-469.201	79.347	0.120	0.130
-468.186	800.000	-0.058	-0.176
-467.172	-96.019	0.291	0.078
-466.157	-200.000	0.050	0.226
-465.143	156.448	-0.019	0.027
-464.128	-75.955	-0.057	0.020
-463.113	-56.610	-0.200	-0.089
-462.099	-47.938	-0.271	-0.132
-461.084	-113.385	-0.098	0.019
-460.070	-130.621	0.464	-0.063
-459.055	-200.000	-0.071	0.325
-458.040	-125.652	0.057	0.009
-457.026	-33.237	-0.382	-0.213
-456.011	234.725	0.101	-0.167
-454.997	-40.134	0.412	-0.216
-453.982	-5.353	-0.136	-0.094
-452.968	211.449	-0.092	-0.146
-451.953	-200.000	0.015	0.400
-450.938	-200.000	0.018	0.081
-449.924	-119.465	0.218	0.038
-448.909	-200.000	-0.013	0.188
-447.895	-88.935	-0.316	-0.094
-446.880	800.000	-0.046	0.202
-445.865	-24.260	0.169	0.102
-444.851	-120.006	0.045	-0.008
-443.836	-50.481	-0.278	-0.132
-442.822	800.000	0.066	-0.277
-441.807	108.447	-0.244	-0.294
-440.792	28.018	0.075	0.063
-439.778	800.000	0.089	0.321
-438.763	-77.553	-0.309	-0.108
-437.749	-129.018	0.320	-0.045
-436.734	-94.881	-0.107	0.029
-435.719	800.000	0.086	-0.346
-434.705	800.000	-0.128	-0.435
-433.690	226.068	-0.122	0.198
-432.676	-3.554	-0.209	-0.146
-431.661	-71.126	0.277	-0.105
-430.646	-86.119	0.331	-0.103
-429.632	800.000	-0.039	0.128
-428.617	71.558	0.146	0.153
-427.603	-200.000	-0.009	0.305
-426.588	171.977	-0.044	0.063
-425.573	67.657	0.279	0.287
-424.559	-81.570	-0.171	-0.056
-423.544	-200.000	0.049	0.272
-422.530	-88.528	0.135	-0.041
-421.515	87.907	0.098	-0.110
-420.500	-200.000	-0.013	-0.139
-419.486	178.685	0.087	0.128
-418.471	340.707	0.172	0.338
-417.457	-48.359	-0.150	0.073
-416.442	800.000	-0.013	-0.058
-415.428	-30.560	-0.096	0.055
-414.413	-107.475	0.139	-0.031
-413.398	170.370	-0.093	-0.134
-412.384	-68.498	-0.259	0.101
-411.369	61.640	0.104	0.104
-410.355	-200.000	0.003	-0.087
-409.340	-101.092	-0.163	-0.040
-408.325	-62.428	-0.281	0.117
-407.311	-60.069	-0.192	-0.082
-406.296	360.579	0.129	0.260
-405.282	-38.853	-0.073	-0.039
-404.267	-29.424	0.147	-0.084
-403.252	-112.951	0.376	0.075
-402.238	-200.000	0.005	0.170
-401.223	-200.000	-0.075	0.432
-400.209	-41.485	-0.346	0.179
-399.194	-200.000	-0.023	-0.176
-398.179	800.000	-0.085	-0.360
-397.165	-101.118	0.228	-0.056
-396.150	-139.374	-0.237	0.026
-395.136	800.000	-0.051	0.154
-394.121	100.194	-0.192	0.223
-393.106	89.978	0.094	0.105
-392.092	-200.000	0.029	0.239
-391.077	-200.000	0.019	-0.131
-390.063	-91.777	0.361	-0.103
-389.048	70.095	0.188	-0.194
-388.033	-200.000	0.018	0.149
-387.019	-111.953	0.254	0.051
-386.004	-152.444	0.192	0.014
-384.990	131.641	-0.105	0.136
-383.975	59.546	0.090	0.089
-382.960	39.687	0.152	-0.137
-381.946	19.316	0.129	0.104
-380.931	-57.974	0.073	0.032
-379.917	-101.275	-0.109	-0.027
-378.902	800.000	-0.061	-0.196
-377.888	377.871	-0.097	-0.200
-376.873	-14.300	-0.147	-0.095
-375.858	-112.564	-0.333	-0.067
-374.844	-200.000	0.001	0.051
-373.829	800.000	0.065	-0.197
-372.815	-200.000	-0.019	0.284
-371.800	198.205	-0.206	-0.316
-370.785	-68.221	0.302	0.118
-369.771	68.268	-0.277	-0.285
-368.756	56.696	-0.093	0.091
-367.742	-117.468	0.246	0.045
-366.727	800.000	0.016	0.070
-365.712	586.001	-0.074	0.183
-364.698	-200.000	0.003	-0.018
-363.683	62.259	-0.151	0.151
-362.669	504.698	-0.099	0.229
-361.654	-200.000	-0.011	0.063
-360.639	-148.045	0.073	-0.006
-359.625	800.000	0.020	-0.080
-358.610	-61.916	0.194	-0.081
-357.596	-200.000	-0.003	0.255
-356.581	449.376	0.072	0.159
-355.566	351.895	0.099	-0.196
-354.552	11.620	0.262	-0.201
-353.537	322.028	-0.110	-0.210
-352.523	-43.838	0.196	0.099
-351.508	-34.086	-0.231	0.127
-350.493	-135.637	-0.189	0.023
-349.479	108.353	0.114	0.136
-348.464	-162.271	-0.210	-0.011
-347.450	-107.132	0.168	0.037
-346.435	61.819	0.176	-0.176
-345.420	-200.000	-0.009	0.065
-344.406	12.423	-0.169	0.130
-343.391	-36.424	-0.166	0.090
-342.377	633.238	-0.089	-0.225
-341.362	-200.000	-0.035	-0.206
-340.348	681.768	0.139	0.362
-339.333	-143.155	-0.085	0.008
-338.318	74.837	-0.282	0.297
-337.304	155.312	0.090	0.124
-336.289	-36.275	-0.018	-0.010
-335.275	-66.728	-0.309	-0.123
-334.260	-200.000	0.009	-0.115
-333.245	-54.350	0.244	0.111
-332.231	442.529	-0.041	-0.089
-331.216	-200.000	0.056	0.250
-330.202	-18.277	0.102	0.064
-329.187	-32.042	0.184	-0.103
-328.172	-65.367	-0.220	-0.089
-327.158	-192.444	0.186	-0.002
-326.143	-80.539	0.101	-0.034
-325.129	46.466	0.180	0.167
-324.114	368.612	-0.156	0.316
-323.099	0.214	0.263	-0.188
-322.085	84.550	0.156	0.171
-321.070	-67.032	0.029	0.011
-320.056	31.655	0.262	-0.225
-319.041	717.775	0.063	-0.167
-318.026	-54.327	-0.323	0.147
-317.012	356.622	-0.087	-0.173
-315.997	800.000	-0.033	0.100
-314.983	147.815	-0.099	0.134
-313.968	-99.982	0.206	-0.051
-312.953	800.000	0.081	0.278
-311.939	490.258	-0.022	0.050
-310.924	45.524	-0.026	0.024
-309.910	263.092	0.266	0.463
-308.895	-61.735	0.161	0.067
-307.880	-200.000	0.040	0.241
-306.866	-3.513	0.157	0.109
-305.851	9.633	-0.153	-0.116
-304.837	-200.000	-0.036	-0.203
-303.822	-200.000	-0.008	-0.153
-302.807	591.741	0.104	0.257
-301.793	26.749	0.204	-0.171
-300.778	35.021	0.018	0.016
-299.764	-200.000	0.038	-0.232
-298.749	353.072	0.199	0.395
-297.735	-156.379	-0.251	-0.016
-296.720	-200.000	0.015	0.167
-295.705	84.573	-0.246	0.269
-294.691	210.279	0.009	0.015
-293.676	-18.165	-0.021	-0.013
-292.662	-57.598	0.406	-0.178
-291.647	-121.344	0.070	0.012
-290.632	800.000	0.038	0.106
-289.618	-200.000	0.001	0.324
-288.603	-103.144	-0.136	-0.032
-287.589	-200.000	-0.008	-0.073
-286.574	800.000	0.093	-0.276
-285.559	-28.143	-0.294	0.170
-284.545	-200.000	-0.030	-0.234
-283.530	220.460	0.137	0.219
-282.516	-109.654	-0.096	-0.020
-281.501	-143.628	-0.240	-0.023
-280.486	214.696	0.121	-0.191
-279.472	7.839	-0.110	-0.083
-278.457	150.386	0.081	-0.110
-277.443	800.000	0.032	-0.140
-276.428	800.000	-0.118	-0.361
-275.413	-128.233	-0.131	-0.019
-274.399	-142.301	0.565	0.056
-273.384	21.066	-0.133	-0.108
-272.370	-200.000	-0.015	-0.172
-271.355	-200.000	-0.001	0.126
-270.340	-200.000	0.005	0.250
-269.326	800.000	0.013	-0.038
-268.311	-12.332	-0.343	0.224
-267.297	62.899	0.147	-0.147
-266.282	266.780	-0.057	-0.100
-265.267	-125.533	-0.152	0.023
-264.253	353.814	-0.082	-0.163
-263.238	433.947	-0.039	-0.086
-262.224	-200.000	0.010	0.365
-261.209	19.409	0.271	0.218
-260.195	800.000	-0.074	0.267
-259.180	451.317	0.135	-0.298
-258.165	800.000	-0.044	0.124
-257.151	17.610	-0.128	0.102
-256.136	-151.806	0.233	0.017
-255.122	-200.000	0.022	-0.124
-254.107	89.315	0.115	0.128
-253.092	800.000	-0.036	0.112
-252.078	-200.000	-0.035	-0.258
-251.063	-200.000	-0.036	0.279
-250.049	-200.000	0.034	0.196
-249.034	140.499	-0.151	0.199
-248.019	-129.390	0.104	0.014
-247.005	127.679	0.107	0.135
-245.990	800.000	-0.091	-0.250
-244.976	-60.814	0.204	-0.086
-243.961	61.475	-0.014	-0.014
-242.946	14.479	0.062	0.049
-241.932	27.296	-0.235	-0.197
-240.917	617.428	0.157	-0.393
-239.903	-50.333	-0.214	0.101
-238.888	-37.569	-0.130	0.069
-237.873	-104.564	-0.331	-0.076
-236.859	-103.180	-0.354	-0.083
-235.844	-4.836	0.136	0.094
-234.830	-200.000	-0.031	0.175
-233.815	774.725	-0.050	0.135
-232.800	-0.624	0.191	0.135
-231.786	186.746	0.023	-0.034
-230.771	535.260	-0.129	0.306
-229.757	61.742	0.074	0.073
-228.742	47.147	0.205	-0.191
-227.727	777.120	-0.158	-0.431
-226.713	800.000	0.051	0.150
-225.698	174.748	0.112	0.161
-224.684	800.000	-0.047	0.189
-223.669	373.621	-0.002	0.004
-222.655	-34.156	-0.161	0.088
-221.640	-200.000	-0.012	-0.055
-220.625	-40.216	-0.105	0.055
-219.611	-200.000	0.009	-0.155
-218.596	416.889	0.113	0.240
-217.582	-200.000	-0.007	0.074
-216.567	-200.000	-0.050	-0.222
-215.552	-120.070	0.166	-0.028
-214.538	-200.000	-0.011	-0.126
-213.523	-200.000	-0.225	-0.001
-212.509	-33.957	0.233	-0.128
-211.494	245.846	-0.089	-0.149
-210.479	-57.922	-0.100	0.043
-209.465	-15.048	0.134	-0.086
-208.450	-147.612	-0.081	-0.007
-207.436	-200.000	0.039	0.267
-206.421	690.572	-0.170	0.444
-205.406	216.885	0.081	0.129
-204.392	58.272	-0.238	0.233
-203.377	-9.993	0.305	0.202
-202.363	-50.517	0.154	-0.072
-201.348	-42.297	-0.285	-0.145
-200.333	-200.000	-0.039	-0.184
-199.319	-103.219	-0.291	-0.069
-198.304	-4.960	0.173	-0.119
-197.290	-200.000	0.012	-0.301
-196.275	418.999	0.110	-0.235
-195.260	33.607	0.116	0.101
-194.246	36.248	0.182	0.160
-193.231	128.021	-0.117	-0.149
-192.217	-49.629	-0.191	-0.091
-191.202	-200.000	-0.044	0.230
-190.187	59.356	0.160	-0.157
-189.173	-200.000	-0.003	-0.205
-188.158	209.583	-0.127	-0.199
-187.144	381.487	0.108	-0.220
-186.129	-184.954	-0.150	-0.002
-185.114	-200.000	-0.007	0.236
-184.100	-25.070	0.128	-0.075
-183.085	249.247	0.107	-0.181
-182.071	19.924	0.093	0.075
-181.056	-123.213	0.221	-0.035
-180.042	-62.329	0.239	0.099
-179.027	800.000	0.050	0.203
-178.012	800.000	-0.027	0.084
-176.998	-200.000	-0.030	-0.202
-175.983	-175.642	-0.348	0.009
-174.969	-31.770	0.207	0.116
-173.954	21.668	0.195	0.158
-172.939	1.925	0.262	-0.188
-171.925	75.375	-0.130	-0.137
-170.910	-3.529	0.130	0.090
-169.896	-200.000	0.107	-0.512
-168.881	-8.460	0.351	-0.235
-167.866	131.159	-0.125	-0.160
-166.852	20.533	0.231	0.186
-165.837	800.000	0.038	-0.113
-164.823	-139.664	-0.200	-0.021
-163.808	165.013	0.205	0.288
-162.793	165.251	0.092	-0.130
-161.779	64.677	0.205	-0.206
-160.764	247.898	-0.075	-0.126
-159.750	74.811	-0.135	-0.141
-158.735	6.895	-0.101	-0.075
-157.720	-75.338	0.191	-0.068
-156.706	-200.000	-0.001	-0.152
-155.691	-78.047	0.042	-0.014
-154.677	-114.225	0.048	-0.009
-153.662	-61.871	-0.348	-0.145
-152.647	800.000	-0.128	0.406
-151.633	800.000	0.057	0.174
-150.618	45.618	0.052	0.047
-149.604	29.946	0.286	0.243
-148.589	800.000	-0.056	-0.166
-147.574	42.651	0.086	0.078
-146.560	5.063	-0.224	0.164
-145.545	35.920	0.400	-0.350
-144.531	23.946	-0.119	-0.098
-143.516	166.117	-0.022	0.031
-142.502	207.254	0.023	0.036
-141.487	-17.691	0.437	0.273
-140.472	-14.267	-0.070	-0.045
-139.458	-200.000	-0.034	-0.197
-138.443	800.000	-0.089	-0.317
-137.429	-196.910	-0.227	-0.001
-136.414	-107.748	0.379	-0.082
-135.399	19.083	0.142	-0.113
-134.385	-175.863	-0.121	-0.003
-133.370	85.407	0.339	-0.370
-132.356	223.191	-0.076	0.121
-131.341	-200.000	0.042	0.234
-130.326	72.187	-0.155	-0.160
-129.312	103.365	0.221	0.258
-128.297	800.000	0.074	-0.250
-127.283	188.167	-0.235	-0.349
-126.268	800.000	-0.049	0.172
-125.253	536.004	-0.125	0.295
-124.239	337.078	0.121	0.234
-123.224	21.859	0.122	-0.098
-122.210	-73.329	-0.392	-0.142
