DTS Sentinel unit serial number:	SN413079Multiplexer serial number:	ORYXHardware model number:	OX4-SRSoftware version number:	ORYX F/W v4.00 Oryx Data Collector v3.7.2.0data status	okinstallation	princeton_trtdifferential loss correction	single-endedforward channel	channel 4reverse channel	N/Adate	2019/09/10time	15:59:11forward acquisition time	60.00reverse acquisition time	0.00gamma	496.2192k internal	0.2293k external	0.2293temperature offset calibration	0.9940default loss term (dB/km)	0.3790temperature slope calibration	1.0000multiplexer offset coefficient	1.0000multiplexer slope coefficient	1.0000fibre end	0.00T internal ref (°C)	38.19T ext. ref 1 (°C)	-0.26T ext. ref 2 (°C)	32.07length (m)	temperature (°C)	Stokes	anti-Stokes-747.200	-33.568	0.173	-0.098
-746.185	-200.000	-0.029	0.430
-745.171	-87.487	0.190	-0.059
-744.156	-200.000	-0.049	0.292
-743.142	-22.855	-0.038	0.023
-742.127	-89.576	0.262	-0.079
-741.112	566.846	0.036	0.090
-740.098	145.711	-0.191	0.262
-739.083	-139.620	0.192	0.021
-738.069	-200.000	0.068	0.392
-737.054	159.240	-0.114	0.162
-736.039	-12.245	-0.327	-0.219
-735.025	491.565	-0.043	0.102
-734.010	765.508	-0.153	-0.426
-732.996	1.569	-0.251	-0.185
-731.981	684.040	-0.042	-0.112
-730.966	46.438	-0.098	-0.092
-729.952	-108.805	0.320	-0.070
-728.937	-58.865	-0.163	-0.072
-727.923	-70.513	-0.282	0.109
-726.908	-200.000	-0.044	-0.312
-725.894	800.000	-0.086	-0.329
-724.879	800.000	0.050	-0.206
-723.864	-200.000	0.012	0.241
-722.850	-200.000	0.004	-0.017
-721.835	44.671	0.096	0.090
-720.821	-200.000	-0.013	-0.398
-719.806	47.427	0.225	-0.214
-718.791	-135.177	-0.504	0.062
-717.777	-200.000	0.001	0.040
-716.762	-67.932	0.118	-0.047
-715.748	-21.103	-0.068	-0.042
-714.733	-200.000	0.001	-0.058
-713.718	131.937	0.060	0.079
-712.704	97.089	0.201	0.236
-711.689	85.948	-0.166	-0.187
-710.675	54.469	-0.209	0.205
-709.660	-109.390	-0.104	-0.022
-708.645	-78.377	-0.268	0.094
-707.631	-60.117	-0.337	0.147
-706.616	-193.587	-0.220	0.002
-705.602	-30.019	0.121	0.070
-704.587	-97.405	0.241	-0.064
-703.572	800.000	-0.058	0.255
-702.558	-169.369	0.265	-0.010
-701.543	47.849	-0.264	-0.252
-700.529	-176.653	0.397	0.010
-699.514	89.277	-0.219	-0.250
-698.499	-154.387	0.325	0.022
-697.485	111.538	-0.214	-0.264
-696.470	800.000	-0.075	0.258
-695.456	800.000	0.065	-0.189
-694.441	120.561	-0.123	-0.156
-693.426	-142.227	0.200	0.020
-692.412	172.370	-0.090	0.132
-691.397	-183.457	-0.290	-0.005
-690.383	-60.601	0.113	-0.049
-689.368	9.833	-0.110	0.085
-688.354	-88.635	-0.075	-0.023
-687.339	-93.222	-0.175	-0.050
-686.324	-2.579	-0.034	-0.024
-685.310	559.987	0.063	-0.156
-684.295	-175.376	0.032	0.001
-683.281	-34.462	-0.086	-0.048
-682.266	-75.011	0.288	-0.105
-681.251	-200.000	0.069	-0.354
-680.237	-15.960	-0.143	0.093
-679.222	-8.614	0.134	-0.092
-678.208	173.979	0.103	0.151
-677.193	-130.796	-0.216	0.030
-676.178	-100.337	0.510	-0.129
-675.164	-200.000	0.096	-0.456
-674.149	-200.000	0.012	-0.330
-673.135	182.082	0.028	-0.042
-672.120	-81.041	-0.114	0.038
-671.105	36.993	-0.133	-0.120
-670.091	-35.514	-0.114	0.063
-669.076	-101.698	0.213	-0.053
-668.062	436.244	-0.069	-0.154
-667.047	-88.099	0.184	0.056
-666.032	-35.596	-0.210	0.116
-665.018	242.902	-0.081	-0.138
-664.003	-200.000	-0.009	-0.118
-662.989	-138.283	-0.045	0.005
-661.974	-200.000	-0.059	-0.309
-660.959	-61.069	0.389	0.168
-659.945	-200.000	-0.022	-0.234
-658.930	-4.875	0.243	0.171
-657.916	800.000	-0.101	-0.355
-656.901	47.422	-0.161	-0.153
-655.886	59.371	0.130	0.130
-654.872	54.112	-0.116	-0.114
-653.857	800.000	0.063	0.214
-652.843	-97.503	-0.138	-0.037
-651.828	71.783	0.184	-0.195
-650.814	800.000	0.134	-0.571
-649.799	-200.000	-0.036	-0.182
-648.784	761.735	-0.061	0.169
-647.770	9.954	0.219	0.169
-646.755	349.404	0.094	-0.190
-645.741	42.942	0.107	0.099
-644.726	-200.000	0.017	0.099
-643.711	-44.114	-0.148	-0.076
-642.697	-149.428	-0.216	-0.017
-641.682	800.000	0.026	-0.086
-640.668	278.395	-0.309	-0.561
-639.653	-2.116	-0.195	-0.139
-638.638	108.421	-0.132	0.160
-637.624	-26.040	0.135	0.081
-636.609	414.317	-0.102	0.221
-635.595	77.622	-0.200	-0.217
-634.580	-75.734	0.062	0.022
-633.565	39.164	-0.105	0.096
-632.551	-96.839	0.423	0.113
-631.536	-121.967	-0.228	-0.038
-630.522	706.532	-0.077	0.206
-629.507	-104.171	0.310	-0.073
-628.492	96.086	0.227	0.264
-627.478	-76.677	-0.303	0.108
-626.463	71.914	0.196	0.207
-625.449	30.390	-0.111	0.096
-624.434	-200.000	0.011	0.122
-623.419	623.654	-0.071	0.181
-622.405	184.966	-0.159	-0.241
-621.390	-64.902	0.228	-0.094
-620.376	-200.000	0.038	-0.171
-619.361	-24.354	-0.322	-0.195
-618.346	-200.000	-0.008	-0.247
-617.332	152.368	-0.275	-0.382
-616.317	70.699	0.159	0.167
-615.303	203.917	-0.208	0.327
-614.288	800.000	-0.062	-0.177
-613.273	50.525	-0.055	-0.053
-612.259	800.000	0.067	-0.272
-611.244	2.808	0.284	0.210
-610.230	198.081	0.083	0.128
-609.215	-165.131	-0.138	0.006
-608.201	6.303	-0.201	-0.152
-607.186	-200.000	0.009	0.338
-606.171	-67.283	0.206	-0.082
-605.157	31.966	-0.061	-0.054
-604.142	800.000	0.131	0.380
-603.128	-121.557	0.178	0.030
-602.113	291.252	0.086	0.158
-601.098	-200.000	-0.024	0.379
-600.084	25.379	0.145	0.123
-599.069	800.000	0.099	-0.422
-598.055	-39.541	0.060	0.032
-597.040	222.112	0.068	0.111
-596.025	94.784	0.173	0.201
-595.011	257.915	-0.143	0.250
-593.996	560.010	-0.105	-0.257
-592.982	783.354	0.072	-0.201
-591.967	-200.000	-0.037	-0.230
-590.952	-124.987	-0.303	-0.047
-589.938	1.644	0.136	-0.099
-588.923	-168.651	-0.188	0.007
-587.909	52.746	-0.091	0.088
-586.894	800.000	0.041	0.158
-585.879	-114.079	0.177	0.035
-584.865	-26.321	-0.131	-0.078
-583.850	-25.517	0.131	0.079
-582.836	478.856	0.099	-0.228
-581.821	-62.953	0.272	0.114
-580.806	63.411	0.166	0.169
-579.792	800.000	0.095	0.308
-578.777	1.858	-0.176	0.129
-577.763	110.048	0.182	-0.222
-576.748	136.797	0.260	-0.345
-575.733	-86.031	0.030	0.010
-574.719	-39.755	0.178	-0.095
-573.704	44.909	0.317	-0.297
-572.690	-115.365	-0.087	0.017
-571.675	19.389	-0.171	0.139
-570.661	-81.949	0.555	0.184
-569.646	35.377	-0.144	0.128
-568.631	-150.087	0.083	0.007
-567.617	-40.743	-0.072	-0.038
-566.602	10.256	0.113	0.087
-565.588	-41.763	0.215	-0.112
-564.573	800.000	0.059	-0.203
-563.558	-25.195	-0.133	0.080
-562.544	-90.205	0.353	0.104
-561.529	672.391	-0.048	0.125
-560.515	41.182	-0.114	0.105
-559.500	70.833	0.130	-0.137
-558.485	-130.347	-0.373	-0.051
-557.471	800.000	0.077	-0.321
-556.456	-49.150	-0.231	-0.112
-555.442	84.268	-0.187	-0.208
-554.427	49.810	-0.083	0.080
-553.412	-200.000	0.027	0.182
-552.398	-150.064	-0.402	0.032
-551.383	225.025	-0.124	0.204
-550.369	680.583	-0.108	0.287
-549.354	136.707	-0.187	-0.248
-548.339	-43.148	0.145	-0.075
-547.325	-93.548	0.350	0.098
-546.310	-115.613	-0.161	-0.031
-545.296	549.208	0.078	-0.189
-544.281	35.737	0.066	0.059
-543.266	72.574	-0.098	-0.104
-542.252	-106.898	-0.190	0.043
-541.237	65.237	-0.164	-0.168
-540.223	28.349	-0.304	-0.261
-539.208	161.858	0.249	0.353
-538.193	-200.000	-0.018	-0.197
-537.179	-58.385	0.182	-0.080
-536.164	247.899	-0.117	0.200
-535.150	-200.000	0.004	0.138
-534.135	-33.249	0.230	0.129
-533.121	220.246	-0.078	0.127
-532.106	119.320	0.058	-0.073
-531.091	-17.946	-0.195	-0.124
-530.077	-100.578	-0.118	-0.030
-529.062	800.000	-0.032	0.129
-528.048	-145.213	0.237	0.022
-527.033	-87.746	-0.452	0.138
-526.018	800.000	0.049	0.211
-525.004	2.358	-0.066	-0.049
-523.989	263.701	-0.065	-0.115
-522.975	800.000	-0.058	-0.167
-521.960	119.900	-0.163	0.205
-520.945	200.221	0.053	0.082
-519.931	-73.957	0.070	0.026
-518.916	-64.233	0.314	0.130
-517.902	397.125	-0.177	-0.375
-516.887	800.000	-0.052	0.164
-515.872	800.000	0.022	-0.094
-514.858	-155.134	-0.299	-0.020
-513.843	-62.169	-0.254	-0.107
-512.829	317.530	-0.106	0.203
-511.814	77.319	-0.065	0.070
-510.799	-87.339	-0.447	-0.138
-509.785	-200.000	0.002	-0.104
-508.770	-140.156	-0.309	0.033
-507.756	300.043	-0.112	0.209
-506.741	33.808	0.176	0.155
-505.726	-154.134	0.132	0.009
-504.712	-39.713	-0.115	-0.061
-503.697	-200.000	0.005	0.090
-502.683	-28.893	-0.179	0.104
-501.668	-164.975	-0.125	-0.006
-500.653	32.897	0.082	-0.072
-499.639	137.462	-0.132	-0.175
-498.624	800.000	-0.079	0.320
-497.610	-200.000	0.006	0.225
-496.595	69.803	0.107	0.112
-495.581	-97.559	-0.303	-0.080
-494.566	685.157	0.086	-0.228
-493.551	-19.962	0.311	0.195
-492.537	-181.002	0.157	0.003
-491.522	800.000	0.078	-0.302
-490.508	-44.610	-0.198	-0.100
-489.493	-86.418	0.105	-0.033
-488.478	760.595	-0.063	0.173
-487.464	137.366	0.096	-0.128
-486.449	-71.598	0.045	-0.017
-485.435	-18.021	0.171	-0.109
-484.420	-56.511	-0.064	-0.029
-483.405	-172.951	0.237	0.007
-482.391	-185.834	0.074	-0.001
-481.376	12.884	0.080	0.063
-480.362	800.000	0.014	0.044
-479.347	322.018	-0.049	0.094
-478.332	-90.446	-0.155	-0.046
-477.318	-79.331	0.348	-0.119
-476.303	-83.909	0.165	0.053
-475.289	577.718	0.108	0.267
-474.274	-85.096	-0.218	-0.069
-473.259	-200.000	0.043	0.256
-472.245	-200.000	-0.038	-0.380
-471.230	41.431	-0.203	-0.186
-470.216	-200.000	0.044	-0.347
-469.201	610.313	0.133	-0.336
-468.186	517.337	-0.076	0.179
-467.172	-128.822	-0.198	-0.028
-466.157	-200.000	-0.028	-0.140
-465.143	800.000	-0.038	-0.131
-464.128	114.046	-0.061	0.075
-463.113	302.813	0.106	-0.198
-462.099	-55.987	-0.384	0.173
-461.084	-116.000	0.373	0.070
-460.070	800.000	-0.060	0.267
-459.055	208.819	0.056	-0.089
-458.040	74.218	0.196	0.208
-457.026	46.855	-0.196	-0.184
-456.011	158.011	0.168	-0.235
-454.997	-67.072	-0.129	-0.052
-453.982	-14.536	0.031	-0.020
-452.968	2.935	0.305	0.224
-451.953	-132.228	0.156	0.020
-450.938	2.452	-0.079	0.058
-449.924	-200.000	-0.067	-0.306
-448.909	-94.475	0.108	0.030
-447.895	66.469	-0.068	0.070
-446.880	390.562	-0.158	0.331
-445.865	-48.647	-0.161	-0.078
-444.851	207.506	-0.264	-0.417
-443.836	-200.000	0.022	-0.129
-442.822	-200.000	0.008	0.141
-441.807	-140.549	0.370	0.039
-440.792	417.063	-0.136	0.294
-439.778	253.919	-0.050	-0.086
-438.763	800.000	0.088	-0.254
-437.749	-72.128	0.336	0.126
-436.734	-103.409	-0.230	0.055
-435.719	147.750	0.036	0.049
-434.705	142.451	0.280	0.375
-433.690	13.082	0.086	-0.068
-432.676	43.809	-0.197	0.182
-431.661	-31.213	-0.141	-0.081
-430.646	-173.188	-0.235	-0.007
-429.632	-91.462	-0.077	0.022
-428.617	29.450	0.291	0.250
-427.603	-134.277	0.265	0.033
-426.588	-200.000	-0.001	-0.324
-425.573	-83.486	-0.373	-0.121
-424.559	-200.000	-0.008	0.608
-423.544	501.719	-0.157	-0.366
-422.530	218.512	-0.136	0.220
-421.515	225.374	-0.214	0.350
-420.500	-200.000	0.014	-0.280
-419.486	-123.698	0.297	0.048
-418.471	231.196	-0.109	-0.181
-417.457	800.000	-0.117	0.398
-416.442	800.000	-0.077	-0.234
-415.428	-200.000	0.006	-0.142
-414.413	-177.726	-0.347	-0.008
-413.398	-200.000	0.023	0.222
-412.384	800.000	0.069	0.213
-411.369	-17.356	-0.398	-0.253
-410.355	-58.624	-0.126	0.055
-409.340	269.434	0.120	-0.213
-408.325	11.789	-0.154	0.119
-407.311	-150.555	-0.449	-0.035
-406.296	-200.000	-0.062	0.347
-405.282	168.428	0.067	-0.096
-404.267	-128.452	0.290	0.042
-403.252	-200.000	0.039	0.279
-402.238	-9.808	-0.149	0.100
-401.223	-200.000	0.003	-0.163
-400.209	-7.546	0.229	-0.157
-399.194	72.083	-0.349	0.366
-398.179	-162.890	0.073	-0.004
-397.165	800.000	0.074	0.261
-396.150	1.461	-0.078	-0.057
-395.136	56.237	0.097	0.095
-394.121	-64.499	-0.063	-0.026
-393.106	412.534	-0.032	0.069
-392.092	578.124	0.067	0.164
-391.077	-12.262	-0.079	-0.052
-390.063	-139.231	-0.269	0.029
-389.048	271.733	0.152	0.270
-388.033	800.000	-0.021	-0.075
-387.019	-87.289	0.271	0.083
-386.004	-13.861	0.061	-0.040
-384.990	-200.000	0.002	-0.382
-383.975	312.274	0.009	0.016
-382.960	-200.000	0.040	-0.246
-381.946	640.889	-0.028	-0.071
-380.931	192.197	0.107	0.163
-379.917	2.400	0.307	0.224
-378.902	-73.308	-0.096	0.035
-377.888	800.000	-0.057	0.215
-376.873	-123.484	0.112	-0.018
-375.858	-6.230	-0.162	-0.111
-374.844	-78.997	0.411	-0.141
-373.829	-105.728	0.206	-0.047
-372.815	432.771	-0.094	-0.206
-371.800	181.675	-0.082	0.121
-370.785	594.464	-0.039	0.098
-369.771	-108.662	-0.210	-0.045
-368.756	333.509	0.212	0.413
-367.742	-200.000	-0.020	0.121
-366.727	267.074	0.034	-0.061
-365.712	203.467	-0.139	0.217
-364.698	109.108	-0.324	-0.391
-363.683	800.000	-0.092	-0.325
-362.669	63.813	0.177	0.179
-361.654	19.138	0.068	-0.055
-360.639	-200.000	-0.002	0.063
-359.625	-110.807	-0.169	-0.035
-358.610	-129.249	-0.346	-0.049
-357.596	-71.040	0.160	-0.061
-356.581	-42.710	-0.156	-0.080
-355.566	-2.259	-0.126	-0.089
-354.552	800.000	0.036	-0.138
-353.537	154.865	0.154	-0.213
-352.523	-200.000	0.041	-0.305
-351.508	366.098	-0.044	0.089
-350.493	-80.461	-0.212	0.071
-349.479	306.449	-0.081	0.151
-348.464	443.315	0.107	-0.236
-347.450	-160.867	0.145	0.008
-346.435	134.531	-0.074	-0.097
-345.420	-86.902	-0.139	0.043
-344.406	101.501	-0.426	-0.500
-343.391	800.000	0.023	-0.091
-342.377	-53.687	-0.200	-0.092
-341.362	346.136	-0.216	0.427
-340.348	446.093	-0.285	0.632
-339.333	-95.536	0.353	-0.095
-338.318	-200.000	0.015	0.069
-337.304	-39.488	-0.127	-0.067
-336.289	9.775	0.259	-0.198
-335.275	643.030	-0.121	-0.310
-334.260	46.397	-0.061	0.057
-333.245	127.873	-0.200	-0.255
-332.231	-28.158	0.053	-0.031
-331.216	105.591	0.187	0.222
-330.202	521.607	-0.041	-0.096
-329.187	-200.000	0.011	-0.052
-328.172	85.576	-0.234	-0.259
-327.158	800.000	0.018	-0.078
-326.143	89.177	-0.124	-0.139
-325.129	260.817	0.177	0.309
-324.114	-109.350	0.339	-0.072
-323.099	-200.000	0.027	-0.162
-322.085	41.502	0.160	0.145
-321.070	-148.977	-0.255	-0.021
-320.056	429.957	-0.100	0.218
-319.041	594.874	-0.065	0.163
-318.026	18.962	-0.055	-0.045
-317.012	-59.657	-0.268	-0.116
-315.997	111.815	-0.139	-0.169
-314.983	773.748	-0.082	0.224
-313.968	495.617	0.122	0.282
-312.953	-158.307	-0.264	-0.015
-311.939	9.286	-0.333	-0.253
-310.924	800.000	0.078	-0.295
-309.910	-133.503	0.062	-0.008
-308.895	-82.637	-0.203	-0.066
-307.880	-95.597	0.273	0.074
-306.866	111.828	0.084	-0.103
-305.851	15.707	-0.074	-0.058
-304.837	683.885	-0.056	0.146
-303.822	156.116	-0.133	-0.185
-302.807	-27.275	0.353	-0.207
-301.793	-53.659	-0.213	-0.098
-300.778	-100.045	0.511	0.128
-299.764	-123.014	0.208	-0.034
-298.749	44.285	-0.371	-0.342
-297.735	-200.000	0.023	-0.176
-296.720	679.185	-0.114	-0.297
-295.705	76.210	0.132	0.141
-294.691	-83.010	0.048	-0.015
-293.676	6.433	0.335	0.250
-292.662	-200.000	0.023	0.229
-291.647	104.730	0.166	0.196
-290.632	20.459	-0.117	-0.095
-289.618	105.156	-0.128	0.152
-288.603	158.721	-0.107	0.149
-287.589	800.000	-0.023	-0.082
-286.574	800.000	0.038	0.120
-285.559	335.539	-0.049	-0.095
-284.545	71.980	0.225	0.235
-283.530	-174.568	0.189	-0.005
-282.516	-200.000	0.019	0.350
-281.501	272.954	0.115	0.205
-280.486	25.826	0.214	-0.180
-279.472	-43.875	0.131	0.066
-278.457	48.799	0.088	0.083
-277.443	150.546	-0.192	0.262
-276.428	57.308	0.229	0.224
-275.413	-10.371	0.015	0.010
-274.399	567.563	0.233	0.568
-273.384	-200.000	0.034	0.212
-272.370	-200.000	0.011	-0.168
-271.355	-104.228	0.109	0.025
-270.340	-7.841	-0.146	-0.099
-269.326	-41.579	0.186	0.096
-268.311	-31.003	0.058	0.033
-267.297	-119.493	0.018	0.003
-266.282	-121.414	0.190	0.032
-265.267	-18.742	-0.114	-0.071
-264.253	800.000	0.041	-0.122
-263.238	-136.929	-0.149	0.017
-262.224	-111.339	0.364	0.075
-261.209	330.660	0.097	-0.187
-260.195	-163.609	0.379	-0.018
-259.180	-198.501	0.116	0.001
-258.165	19.785	-0.325	-0.263
-257.151	800.000	-0.167	-0.480
-256.136	627.649	-0.060	0.152
-255.122	-200.000	0.001	-0.048
-254.107	-63.426	-0.049	0.020
-253.092	325.318	0.110	0.212
-252.078	-200.000	0.023	0.149
-251.063	-200.000	-0.024	0.154
-250.049	-200.000	-0.007	0.145
-249.034	-126.214	-0.145	0.022
-248.019	695.066	0.067	0.175
-247.005	-23.261	-0.079	0.048
-245.990	-4.095	-0.082	0.057
-244.976	66.478	-0.088	0.090
-243.961	216.244	0.149	-0.237
-242.946	233.201	0.257	0.425
-241.932	361.896	-0.149	0.301
-240.917	-200.000	-0.009	0.079
-239.903	-61.734	0.351	-0.148
-238.888	67.488	-0.178	0.183
-237.873	-14.510	-0.205	0.132
-236.859	-200.000	0.022	-0.324
-235.844	-87.050	-0.547	-0.167
-234.830	697.898	0.144	0.379
-233.815	6.128	0.343	-0.255
-232.800	-121.940	0.233	-0.039
-231.786	-95.644	-0.093	0.025
-230.771	800.000	-0.059	0.174
-229.757	-200.000	-0.002	-0.034
-228.742	-200.000	-0.001	-0.179
-227.727	35.435	0.199	-0.175
-226.713	22.934	-0.148	0.122
-225.698	179.531	-0.055	-0.080
-224.684	86.034	0.229	-0.252
-223.669	371.044	-0.028	0.056
-222.655	-44.821	0.169	0.084
-221.640	-200.000	-0.005	0.245
-220.625	192.922	0.139	-0.211
-219.611	-76.365	-0.089	0.031
-218.596	318.799	-0.122	-0.231
-217.582	-200.000	0.022	-0.137
-216.567	-96.196	-0.173	0.046
-215.552	77.459	0.143	-0.153
-214.538	-120.433	-0.262	0.045
-213.523	145.297	0.086	-0.116
-212.509	-52.080	-0.206	-0.096
-211.494	-200.000	0.012	-0.426
-210.479	202.702	0.122	0.189
-209.465	418.338	0.129	-0.275
-208.450	83.459	-0.152	0.166
-207.436	-200.000	-0.000	-0.175
-206.421	800.000	0.096	-0.288
-205.406	800.000	-0.045	-0.154
-204.392	786.422	0.122	0.335
-203.377	-133.607	0.123	-0.015
-202.363	-200.000	-0.036	0.190
-201.348	225.850	0.202	0.328
-200.333	-2.037	-0.090	-0.063
-199.319	-200.000	0.067	-0.574
-198.304	800.000	-0.105	-0.367
-197.290	-121.863	0.304	0.050
-196.275	800.000	0.046	-0.172
-195.260	151.139	-0.192	-0.261
-194.246	-100.591	0.157	-0.039
-193.231	800.000	-0.035	-0.120
-192.217	149.122	0.164	-0.222
-191.202	-97.073	-0.053	-0.014
-190.187	-97.263	0.269	-0.070
-189.173	-167.143	0.464	0.019
-188.158	-11.165	0.148	0.098
-187.144	81.289	0.054	-0.059
-186.129	-149.447	0.059	0.005
-185.114	77.738	-0.106	-0.113
-184.100	65.583	-0.263	-0.267
-183.085	800.000	-0.026	0.102
-182.071	-40.177	-0.261	0.136
-181.056	123.721	-0.128	0.161
-180.042	-20.259	-0.163	0.100
-179.027	-200.000	-0.001	-0.469
-178.012	-95.531	-0.117	-0.031
-176.998	-112.429	0.016	-0.003
-175.983	458.563	0.216	0.481
-174.969	-146.237	0.265	-0.023
-173.954	-24.050	-0.140	-0.084
-172.939	161.416	0.200	0.280
-171.925	-122.956	0.146	-0.024
-170.910	45.224	-0.107	-0.099
-169.896	156.616	0.260	-0.359
-168.881	-96.272	0.115	0.031
-167.866	135.540	-0.162	0.211
-166.852	800.000	0.065	0.201
-165.837	-93.933	-0.026	0.007
-164.823	56.519	0.066	-0.064
-163.808	484.669	-0.061	-0.139
-162.793	115.099	0.244	-0.298
-161.779	800.000	0.104	-0.333
-160.764	544.413	-0.101	0.241
-159.750	-127.978	0.127	-0.018
-158.735	85.040	-0.190	0.208
-157.720	74.147	0.066	-0.070
-156.706	-6.934	0.270	0.184
-155.691	407.020	-0.044	0.093
-154.677	-84.518	-0.161	-0.051
-153.662	188.165	0.172	0.257
-152.647	-83.439	-0.068	-0.022
-151.633	40.882	0.151	-0.136
-150.618	-103.083	0.524	0.124
-149.604	147.192	-0.181	-0.244
-148.589	-200.000	-0.039	-0.291
-147.574	-12.686	0.115	-0.075
-146.560	800.000	0.079	0.300
-145.545	-77.825	-0.220	0.076
-144.531	-131.708	-0.212	0.028
-143.516	173.286	0.148	0.213
-142.502	800.000	-0.023	-0.079
-141.487	-167.985	0.420	-0.016
-140.472	-100.203	-0.303	-0.075
-139.458	247.111	-0.131	0.221
-138.443	-104.594	0.135	-0.031
-137.429	-19.557	0.208	0.129
-136.414	153.361	-0.053	0.072
-135.399	130.714	0.240	0.308
-134.385	195.389	-0.210	-0.318
-133.370	293.898	0.111	-0.202
-132.356	5.363	0.170	0.125
-131.341	74.988	-0.187	0.197
-130.326	-200.000	0.036	0.241
-129.312	310.475	-0.130	0.243
-128.297	800.000	0.058	0.168
-127.283	556.062	0.100	0.240
-126.268	140.157	0.129	-0.170
-125.253	-200.000	0.317	-0.001
-124.239	-4.251	-0.272	-0.188
-123.224	299.079	0.117	-0.216
-122.210	-76.006	0.336	-0.119
-121.195	-200.000	0.029	-0.165
-120.180	800.000	-0.046	0.197
