DTS Sentinel unit serial number:	SN413079Multiplexer serial number:	ORYXHardware model number:	OX4-SRSoftware version number:	ORYX F/W v4.00 Oryx Data Collector v3.7.2.0data status	okinstallation	princeton_trtdifferential loss correction	single-endedforward channel	channel 4reverse channel	N/Adate	2019/09/13time	19:53:35forward acquisition time	60.00reverse acquisition time	0.00gamma	496.2192k internal	0.2316k external	0.2316temperature offset calibration	1.0141default loss term (dB/km)	0.3790temperature slope calibration	1.0000multiplexer offset coefficient	1.0000multiplexer slope coefficient	1.0000fibre end	0.00T internal ref (°C)	29.98T ext. ref 1 (°C)	3.31T ext. ref 2 (°C)	24.23length (m)	temperature (°C)	Stokes	anti-Stokes-747.200	-106.261	-0.309	-0.070
-746.185	-45.877	-0.207	0.103
-745.171	-200.000	0.048	0.308
-744.156	134.782	0.182	0.240
-743.142	-200.000	0.075	0.399
-742.127	91.850	-0.120	-0.137
-741.112	-200.000	-0.003	0.081
-740.098	-106.023	-0.431	0.098
-739.083	-26.695	0.167	0.099
-738.069	-4.702	-0.190	0.133
-737.054	800.000	0.035	-0.152
-736.039	-119.627	-0.240	0.042
-735.025	800.000	-0.065	0.207
-734.010	-139.548	0.104	0.011
-732.996	-104.881	-0.342	0.079
-731.981	-5.409	0.134	0.093
-730.966	184.623	-0.151	0.226
-729.952	65.694	-0.209	-0.215
-728.937	-125.241	-0.093	0.014
-727.923	-148.446	-0.243	0.020
-726.908	-21.651	-0.026	-0.016
-725.894	-135.163	-0.269	0.033
-724.879	-4.552	0.267	-0.186
-723.864	65.695	0.235	0.241
-722.850	178.365	-0.161	-0.238
-721.835	462.028	-0.141	0.318
-720.821	-173.718	-0.251	-0.008
-719.806	-200.000	-0.014	-0.121
-718.791	-104.008	0.204	0.048
-717.777	-200.000	0.036	0.303
-716.762	34.819	0.133	-0.118
-715.748	177.038	0.056	0.083
-714.733	265.053	0.035	-0.062
-713.718	800.000	0.050	0.174
-712.704	-98.660	-0.176	0.045
-711.689	273.815	-0.148	0.265
-710.675	-95.230	0.096	-0.026
-709.660	800.000	-0.046	-0.141
-708.645	484.213	-0.014	0.033
-707.631	66.264	-0.268	0.275
-706.616	-174.771	-0.208	-0.006
-705.602	-6.355	-0.119	0.082
-704.587	184.646	0.070	0.105
-703.572	800.000	0.100	-0.292
-702.558	-49.673	-0.240	-0.115
-701.543	-200.000	-0.017	0.234
-700.529	-200.000	-0.009	0.072
-699.514	-115.286	-0.150	0.029
-698.499	-200.000	0.005	-0.383
-697.485	-94.052	-0.206	0.057
-696.470	-200.000	0.007	-0.156
-695.456	-100.532	-0.093	-0.023
-694.441	86.225	0.405	-0.451
-693.426	46.863	-0.115	0.108
-692.412	-49.265	-0.189	0.091
-691.397	-200.000	0.011	0.347
-690.383	112.498	-0.200	-0.244
-689.368	-27.055	0.262	-0.155
-688.354	-21.329	-0.068	0.042
-687.339	-200.000	0.069	0.327
-686.324	-200.000	0.010	0.080
-685.310	302.707	0.021	0.039
-684.295	-200.000	0.029	-0.274
-683.281	-153.610	-0.370	0.026
-682.266	-153.390	0.475	0.033
-681.251	-110.387	0.161	-0.034
-680.237	141.543	-0.038	-0.051
-679.222	-21.239	0.196	0.121
-678.208	800.000	0.057	-0.176
-677.193	217.424	0.153	0.246
-676.178	47.754	-0.181	0.171
-675.164	-200.000	-0.038	-0.528
-674.149	-106.378	-0.122	-0.027
-673.135	241.668	0.137	0.231
-672.120	-172.785	-0.474	0.015
-671.105	-200.000	-0.010	0.570
-670.091	-87.440	-0.473	-0.145
-669.076	-159.714	0.590	-0.033
-668.062	65.827	-0.171	0.175
-667.047	800.000	-0.089	0.319
-666.032	-111.607	0.332	-0.068
-665.018	-94.213	-0.310	0.086
-664.003	-195.333	0.254	0.002
-662.989	-200.000	-0.006	-0.035
-661.974	538.336	0.077	0.184
-660.959	623.499	-0.097	-0.248
-659.945	800.000	-0.100	0.310
-658.930	559.526	-0.061	0.150
-657.916	198.748	-0.047	0.072
-656.901	-200.000	-0.012	0.059
-655.886	14.702	0.162	0.128
-654.872	-162.740	-0.180	-0.009
-653.857	-82.854	-0.449	0.146
-652.843	333.007	0.185	-0.361
-651.828	-152.497	-0.250	0.018
-650.814	-200.000	-0.037	0.262
-649.799	-57.715	0.145	-0.064
-648.784	-153.933	-0.067	-0.005
-647.770	-200.000	-0.060	-0.359
-646.755	-200.000	-0.080	0.437
-645.741	-89.063	-0.151	-0.045
-644.726	-82.320	-0.301	-0.099
-643.711	193.044	0.143	0.219
-642.697	-144.768	-0.266	0.025
-641.682	12.460	-0.259	-0.201
-640.668	-17.191	0.393	-0.250
-639.653	168.640	-0.038	0.055
-638.638	251.404	-0.050	0.086
-637.624	38.510	-0.091	0.082
-636.609	363.513	-0.225	0.457
-635.595	-200.000	0.025	0.161
-634.580	139.274	-0.096	0.128
-633.565	335.244	0.058	0.113
-632.551	15.532	-0.333	-0.264
-631.536	-38.376	0.272	-0.145
-630.522	-34.372	-0.320	-0.177
-629.507	644.180	-0.027	-0.070
-628.492	-26.365	0.196	-0.116
-627.478	-4.877	-0.127	0.088
-626.463	79.280	-0.044	0.048
-625.449	-200.000	-0.025	0.129
-624.434	-186.637	0.302	0.004
-623.419	126.471	-0.071	-0.091
-622.405	-200.000	0.020	-0.133
-621.390	800.000	0.100	-0.336
-620.376	-200.000	-0.002	0.282
-619.361	800.000	-0.063	-0.193
-618.346	-78.879	-0.133	-0.046
-617.332	800.000	-0.102	0.285
-616.317	-200.000	-0.000	-0.264
-615.303	800.000	0.023	-0.078
-614.288	-198.368	0.128	0.001
-613.273	-200.000	0.022	0.436
-612.259	800.000	0.063	-0.214
-611.244	162.827	0.113	-0.160
-610.230	-145.593	-0.268	-0.024
-609.215	200.622	-0.187	-0.289
-608.201	-108.365	-0.255	-0.055
-607.186	-200.000	-0.007	-0.215
-606.171	3.721	-0.307	0.226
-605.157	251.284	0.141	0.241
-604.142	304.916	-0.055	-0.103
-603.128	259.676	-0.141	-0.245
-602.113	-200.000	0.014	-0.157
-601.098	800.000	0.062	-0.242
-600.084	-25.410	-0.163	-0.097
-599.069	-19.698	0.109	0.068
-598.055	424.176	-0.228	0.493
-597.040	-120.912	-0.199	0.034
-596.025	-71.095	0.043	0.016
-595.011	800.000	-0.048	0.139
-593.996	-200.000	0.004	-0.089
-592.982	96.012	0.124	0.142
-591.967	-7.005	-0.366	0.250
-590.952	277.826	-0.097	0.175
-589.938	-3.687	-0.277	-0.194
-588.923	800.000	0.004	0.018
-587.909	8.634	-0.082	-0.062
-586.894	-7.548	-0.125	0.085
-585.879	49.336	0.225	-0.213
-584.865	-200.000	0.014	0.065
-583.850	-26.171	0.208	-0.123
-582.836	-107.148	-0.253	-0.056
-581.821	41.922	-0.209	0.191
-580.806	-145.291	-0.316	-0.029
-579.792	-200.000	0.029	-0.228
-578.777	6.355	-0.196	-0.146
-577.763	-15.390	-0.107	0.069
-576.748	119.765	0.194	0.241
-575.733	-34.836	0.441	-0.242
-574.719	800.000	0.064	-0.217
-573.704	11.492	-0.156	-0.120
-572.690	800.000	0.145	0.415
-571.675	-81.175	0.158	0.052
-570.661	314.082	-0.150	0.283
-569.646	-165.569	-0.410	-0.018
-568.631	-46.157	-0.123	0.061
-567.617	-17.364	0.177	-0.112
-566.602	800.000	-0.018	0.051
-565.588	-79.386	-0.127	0.043
-564.573	-200.000	-0.030	0.387
-563.558	-142.618	0.111	0.011
-562.544	-47.367	-0.177	-0.087
-561.529	-140.400	0.134	0.014
-560.515	-164.346	0.354	-0.016
-559.500	-75.800	0.286	0.102
-558.485	-69.112	-0.271	-0.105
-557.471	-140.781	0.253	-0.026
-556.456	238.166	0.037	-0.061
-555.442	-73.162	0.079	0.029
-554.427	-192.394	0.033	-0.000
-553.412	29.973	-0.162	-0.139
-552.398	-200.000	0.046	-0.207
-551.383	374.123	-0.080	-0.164
-550.369	-26.803	-0.150	0.088
-549.354	-200.000	0.003	-0.476
-548.339	281.271	-0.159	-0.286
-547.325	48.552	-0.114	0.108
-546.310	-40.976	-0.498	0.259
-545.296	-48.234	-0.201	-0.098
-544.281	633.836	0.072	0.183
-543.266	-181.699	-0.138	-0.003
-542.252	-110.375	0.098	0.020
-541.237	-49.365	0.007	0.003
-540.223	-162.216	-0.169	-0.008
-539.208	-200.000	0.007	-0.155
-538.193	-101.845	-0.267	-0.065
-537.179	-40.016	0.313	-0.164
-536.164	177.052	-0.068	-0.100
-535.150	800.000	0.050	0.163
-534.135	800.000	0.084	0.338
-533.121	-200.000	0.062	-0.347
-532.106	-200.000	0.043	-0.256
-531.091	-114.474	0.105	0.020
-530.077	18.146	-0.399	-0.320
-529.062	66.947	0.232	-0.237
-528.048	-86.724	-0.330	0.101
-527.033	-200.000	0.022	-0.340
-526.018	-60.251	-0.132	0.057
-525.004	-9.899	-0.140	-0.094
-523.989	27.386	0.107	-0.090
-522.975	2.431	0.224	0.162
-521.960	-58.156	0.050	0.022
-520.945	33.323	0.133	0.115
-519.931	-200.000	-0.044	0.308
-518.916	38.093	0.192	0.171
-517.902	800.000	-0.091	-0.352
-516.887	22.678	0.335	0.276
-515.872	208.222	-0.128	-0.201
-514.858	125.197	-0.150	-0.190
-513.843	-89.944	-0.171	-0.050
-512.829	-109.493	0.027	0.006
-511.814	96.246	0.157	0.180
-510.799	-200.000	0.036	-0.274
-509.785	-179.632	-0.184	-0.004
-508.770	-87.836	0.182	-0.055
-507.756	684.393	-0.086	0.224
-506.741	274.676	-0.086	0.153
-505.726	3.340	0.100	-0.073
-504.712	172.177	0.118	-0.170
-503.697	79.399	0.045	-0.048
-502.683	116.808	0.094	0.116
-501.668	83.643	0.133	0.146
-500.653	481.605	0.096	0.219
-499.639	800.000	-0.058	0.174
-498.624	-140.846	0.346	0.036
-497.610	-52.656	-0.208	0.096
-496.595	-142.402	0.162	-0.016
-495.581	-150.023	0.302	0.024
-494.566	77.431	-0.307	-0.327
-493.551	294.256	-0.095	-0.174
-492.537	-106.772	0.300	-0.067
-491.522	-153.224	-0.230	0.016
-490.508	710.678	0.056	0.150
-489.493	-200.000	0.014	0.104
-488.478	-89.503	0.189	0.056
-487.464	26.711	0.077	0.065
-486.449	201.136	-0.151	0.233
-485.435	514.058	0.129	0.302
-484.420	274.039	-0.137	0.243
-483.405	102.905	0.102	0.120
-482.391	-68.386	0.254	0.099
-481.376	151.505	0.223	0.305
-480.362	-200.000	-0.001	0.032
-479.347	-200.000	-0.015	0.098
-478.332	-200.000	-0.039	0.663
-477.318	-122.136	-0.107	0.018
-476.303	-94.267	-0.289	0.079
-475.289	438.407	0.039	-0.084
-474.274	-200.000	-0.073	0.358
-473.259	-120.796	-0.010	-0.002
-472.245	-15.273	-0.181	0.116
-471.230	-200.000	0.002	0.022
-470.216	800.000	0.111	-0.474
-469.201	405.641	0.057	-0.120
-468.186	-200.000	0.015	-0.191
-467.172	-46.501	0.346	-0.170
-466.157	173.416	-0.061	-0.088
-465.143	31.984	-0.165	0.142
-464.128	-31.967	0.293	0.165
-463.113	-22.464	0.287	0.174
-462.099	99.083	-0.052	0.060
-461.084	209.149	0.177	0.277
-460.070	-89.914	-0.154	-0.045
-459.055	-100.031	0.121	-0.030
-458.040	49.521	-0.026	-0.024
-457.026	32.342	-0.083	-0.072
-456.011	20.196	0.049	-0.039
-454.997	-91.412	0.194	-0.056
-453.982	90.656	-0.225	-0.253
-452.968	145.924	0.192	0.258
-451.953	18.543	-0.112	0.090
-450.938	-22.977	-0.224	-0.135
-449.924	34.553	-0.139	-0.122
-448.909	-2.595	-0.211	-0.148
-447.895	47.300	-0.176	0.164
-446.880	232.887	0.102	-0.168
-445.865	290.874	-0.144	-0.262
-444.851	107.131	0.205	0.244
-443.836	145.421	0.162	0.218
-442.822	406.543	0.117	0.247
-441.807	-72.022	0.309	0.115
-440.792	40.918	-0.225	0.203
-439.778	25.246	-0.236	0.196
-438.763	800.000	-0.185	-0.602
-437.749	-140.196	-0.223	-0.023
-436.734	15.314	-0.198	0.156
-435.719	71.715	0.107	0.112
-434.705	800.000	-0.104	0.319
-433.690	11.331	0.224	0.172
-432.676	-200.000	0.002	0.115
-431.661	134.189	0.141	-0.183
-430.646	459.177	-0.028	0.062
-429.632	-195.512	-0.121	-0.001
-428.617	-200.000	0.044	-0.403
-427.603	-200.000	0.001	-0.246
-426.588	109.657	0.038	0.045
-425.573	-68.522	0.350	-0.136
-424.559	-30.711	0.117	0.066
-423.544	-150.517	0.304	0.023
-422.530	92.859	-0.103	-0.117
-421.515	97.757	-0.118	0.135
-420.500	-46.324	0.194	-0.095
-419.486	800.000	-0.090	0.341
-418.471	-73.038	0.086	0.031
-417.457	177.825	-0.109	-0.160
-416.442	51.996	0.154	0.146
-415.428	800.000	-0.119	-0.456
-414.413	-200.000	0.012	0.135
-413.398	146.373	-0.351	-0.471
-412.384	800.000	0.069	-0.227
-411.369	96.235	-0.093	0.107
-410.355	-169.020	0.190	0.007
-409.340	-91.167	0.290	0.083
-408.325	-165.430	-0.217	0.009
-407.311	99.380	0.246	-0.284
-406.296	-83.234	-0.318	-0.102
-405.282	438.184	-0.166	0.361
-404.267	143.798	0.099	0.132
-403.252	-87.349	-0.150	-0.046
-402.238	120.766	0.093	0.115
-401.223	-200.000	-0.034	0.210
-400.209	-119.890	0.320	-0.055
-399.194	-34.910	-0.383	0.209
-398.179	-184.040	0.081	-0.001
-397.165	58.364	0.185	0.181
-396.150	534.684	-0.048	-0.114
-395.136	-34.794	0.263	-0.144
-394.121	-200.000	0.022	0.106
-393.106	108.299	-0.158	-0.188
-392.092	-23.617	0.303	0.182
-391.077	-16.522	-0.319	-0.202
-390.063	36.269	-0.185	-0.163
-389.048	643.980	0.115	0.292
-388.033	145.566	0.045	-0.060
-387.019	-46.970	-0.092	-0.045
-386.004	-200.000	-0.013	-0.386
-384.990	-94.281	0.339	0.093
-383.975	800.000	-0.084	0.269
-382.960	185.417	-0.038	0.057
-381.946	-12.870	0.192	0.125
-380.931	388.015	0.126	0.261
-379.917	100.769	0.161	-0.187
-378.902	-146.959	0.247	0.021
-377.888	-72.638	0.327	0.121
-376.873	-17.692	-0.132	-0.083
-375.858	-123.729	0.173	-0.027
-374.844	-194.186	-0.218	-0.002
-373.829	565.131	-0.128	-0.310
-372.815	-69.947	0.213	-0.081
-371.800	-200.000	-0.002	0.116
-370.785	-200.000	0.018	-0.166
-369.771	-17.108	-0.077	0.049
-368.756	143.232	-0.169	0.224
-367.742	-5.857	-0.115	0.078
-366.727	180.608	0.085	-0.124
-365.712	-115.305	0.419	-0.079
-364.698	-172.587	-0.438	0.014
-363.683	-200.000	-0.013	-0.117
-362.669	110.646	0.146	0.175
-361.654	305.844	-0.040	0.073
-360.639	800.000	0.105	0.352
-359.625	724.213	-0.008	-0.021
-358.610	-151.609	0.187	0.014
-357.596	94.193	-0.163	0.184
-356.581	8.925	0.043	0.032
-355.566	74.609	0.096	-0.101
-354.552	637.735	0.110	0.280
-353.537	-53.044	0.056	-0.026
-352.523	249.665	0.047	-0.080
-351.508	-40.233	0.139	-0.072
-350.493	-116.833	0.287	-0.052
-349.479	-107.175	0.072	0.016
-348.464	4.182	0.255	-0.186
-347.450	234.603	-0.091	-0.150
-346.435	5.645	0.014	0.010
-345.420	8.617	0.159	0.119
-344.406	27.059	0.126	-0.106
-343.391	424.835	-0.067	0.143
-342.377	69.700	-0.156	-0.161
-341.362	800.000	0.077	0.212
-340.348	800.000	0.127	0.359
-339.333	-119.666	0.269	0.046
-338.318	-200.000	0.055	-0.286
-337.304	-200.000	-0.038	-0.209
-336.289	432.602	0.035	-0.075
-335.275	-82.839	-0.111	-0.036
-334.260	119.629	-0.111	0.137
-333.245	-92.965	0.124	-0.035
-332.231	800.000	-0.078	0.260
-331.216	631.100	-0.061	-0.155
-330.202	800.000	-0.063	-0.193
-329.187	800.000	-0.081	-0.242
-328.172	-45.626	-0.032	0.016
-327.158	104.785	-0.106	-0.124
-326.143	-200.000	-0.016	0.168
-325.129	189.656	0.218	0.325
-324.114	-200.000	-0.049	-0.224
-323.099	149.726	0.072	0.097
-322.085	-105.476	0.261	0.059
-321.070	-148.192	-0.254	-0.021
-320.056	58.063	-0.213	-0.208
-319.041	16.522	0.157	-0.123
-318.026	192.090	-0.071	0.107
-317.012	48.526	0.394	0.367
-315.997	800.000	0.149	0.448
-314.983	800.000	-0.015	-0.050
-313.968	603.996	0.110	-0.273
-312.953	14.883	0.521	-0.406
-311.939	11.221	0.098	-0.075
-310.924	663.434	0.143	-0.368
-309.910	-200.000	-0.011	0.157
-308.895	-87.483	0.310	-0.094
-307.880	9.890	-0.375	-0.283
-306.866	783.029	-0.041	0.111
-305.851	-90.928	-0.392	-0.112
-304.837	143.429	0.123	0.163
-303.822	-200.000	0.001	-0.400
-302.807	-79.311	-0.102	0.034
-301.793	23.576	0.258	0.212
-300.778	-100.580	-0.286	-0.070
-299.764	-103.309	0.051	0.012
-298.749	-82.471	-0.272	0.088
-297.735	-200.000	0.007	-0.071
-296.720	43.493	-0.106	-0.097
-295.705	89.732	0.112	-0.125
-294.691	-44.871	0.392	-0.194
-293.676	-153.751	-0.091	0.006
-292.662	80.923	0.227	-0.244
-291.647	-76.699	-0.382	0.133
-290.632	519.154	0.049	-0.113
-289.618	-42.319	-0.074	-0.038
-288.603	-200.000	-0.019	0.235
-287.589	-102.100	-0.114	-0.027
-286.574	-130.168	0.550	0.075
-285.559	-156.886	-0.056	0.003
-284.545	547.679	-0.119	0.284
-283.530	297.274	0.107	0.196
-282.516	-33.273	-0.128	-0.070
-281.501	-88.808	-0.101	-0.030
-280.486	-166.965	-0.091	-0.004
-279.472	-200.000	0.008	0.073
-278.457	381.756	0.071	-0.146
-277.443	-7.651	0.097	0.065
-276.428	-186.885	0.127	0.002
-275.413	-96.478	0.059	0.015
-274.399	166.365	0.099	-0.139
-273.384	181.231	-0.087	-0.128
-272.370	-98.376	-0.178	-0.045
-271.355	-128.650	-0.346	-0.049
-270.340	11.364	0.041	-0.031
-269.326	554.583	-0.138	0.331
-268.311	-144.757	0.177	0.016
-267.297	-12.158	0.297	-0.193
-266.282	110.754	-0.158	-0.189
-265.267	101.169	-0.162	-0.188
-264.253	-200.000	0.001	0.201
-263.238	231.034	-0.058	0.095
-262.224	800.000	-0.105	-0.325
-261.209	-51.583	0.332	-0.154
-260.195	-50.762	-0.141	-0.066
-259.180	116.732	0.061	0.074
-258.165	114.934	0.002	-0.002
-257.151	-20.593	0.054	0.033
-256.136	-113.422	0.459	0.089
-255.122	742.416	0.011	0.029
-254.107	99.014	-0.079	0.090
-253.092	-200.000	0.255	0.001
-252.078	5.803	0.245	0.180
-251.063	-167.238	-0.148	0.006
-250.049	88.088	-0.066	0.072
-249.034	-30.121	-0.079	-0.044
-248.019	-47.590	0.411	-0.198
-247.005	256.967	-0.054	-0.092
-245.990	469.813	-0.079	-0.177
-244.976	226.224	0.026	-0.042
-243.961	107.630	0.014	-0.016
-242.946	520.793	-0.144	0.335
-241.932	-175.712	-0.316	0.008
-240.917	-91.218	0.369	-0.105
-239.903	513.468	0.137	-0.318
-238.888	800.000	0.076	0.243
-237.873	43.109	-0.116	0.106
-236.859	-132.511	0.060	-0.008
-235.844	-200.000	-0.035	-0.162
-234.830	42.032	-0.181	0.163
-233.815	311.609	-0.168	0.313
-232.800	-10.268	0.124	0.082
-231.786	-200.000	0.039	0.249
-230.771	145.000	0.157	-0.208
-229.757	-200.000	-0.014	0.154
-228.742	-200.000	-0.012	-0.118
-227.727	800.000	0.120	0.348
-226.713	-46.559	0.565	-0.275
-225.698	-83.941	-0.239	0.076
-224.684	15.477	-0.058	0.046
-223.669	-200.000	-0.013	-0.071
-222.655	224.999	-0.047	0.075
-221.640	7.543	-0.207	0.154
-220.625	23.318	0.145	0.118
-219.611	800.000	-0.088	-0.293
-218.596	-125.475	0.071	0.011
-217.582	501.757	-0.139	0.318
-216.567	-200.000	0.056	0.328
-215.552	-44.175	-0.130	0.065
-214.538	-200.000	0.012	0.226
-213.523	-64.764	0.181	0.073
-212.509	-41.179	-0.169	-0.087
-211.494	525.095	0.071	-0.165
-210.479	-82.030	-0.184	0.060
-209.465	287.016	-0.064	0.114
-208.450	-72.225	-0.027	0.010
-207.436	3.052	-0.421	-0.303
-206.421	-97.776	0.338	-0.087
-205.406	115.188	-0.242	-0.293
-204.392	63.069	0.088	-0.087
-203.377	95.671	-0.341	-0.386
-202.363	-112.260	-0.151	0.030
-201.348	800.000	0.088	0.305
-200.333	295.482	-0.111	-0.201
-199.319	231.753	0.029	0.047
-198.304	-13.677	0.073	0.047
-197.290	-42.809	-0.029	-0.015
-196.275	-4.805	0.149	-0.102
-195.260	156.739	-0.142	0.195
-194.246	-87.500	0.049	-0.015
-193.231	55.468	-0.130	-0.125
-192.217	102.066	0.156	0.180
-191.202	400.405	-0.043	-0.089
-190.187	-39.282	-0.212	0.110
-189.173	-191.713	-0.119	0.001
-188.158	-200.000	0.023	-0.170
-187.144	-200.000	0.049	-0.415
-186.129	-41.238	-0.054	-0.027
-185.114	-24.228	0.060	0.036
-184.100	-200.000	0.042	-0.235
-183.085	-200.000	0.074	-0.387
-182.071	37.402	0.130	-0.115
-181.056	-107.480	-0.060	0.013
-180.042	-44.268	0.265	-0.132
-179.027	-176.250	-0.097	0.003
-178.012	-91.947	-0.081	-0.023
-176.998	800.000	-0.041	-0.176
-175.983	800.000	0.100	0.291
-174.969	-48.008	0.067	-0.032
-173.954	121.068	-0.355	0.438
-172.939	2.819	0.209	0.150
-171.925	800.000	0.040	-0.121
-170.910	751.599	0.014	-0.037
-169.896	-200.000	0.005	0.069
-168.881	-149.918	0.203	-0.016
-167.866	289.569	-0.165	-0.297
-166.852	242.413	0.232	0.385
-165.837	-145.384	-0.254	-0.023
-164.823	-49.078	0.260	-0.123
-163.808	278.947	-0.056	0.099
-162.793	68.269	0.090	0.092
-161.779	95.733	0.163	-0.184
-160.764	53.152	-0.102	-0.096
-159.750	124.150	-0.196	0.244
-158.735	-154.464	-0.266	-0.018
-157.720	512.773	-0.106	-0.244
-156.706	-200.000	0.013	0.147
-155.691	-57.315	-0.160	0.070
-154.677	-59.156	-0.338	-0.144
-153.662	29.035	-0.208	0.174
-152.647	-150.812	-0.095	-0.007
-151.633	93.135	0.260	0.290
-150.618	15.024	0.150	0.116
-149.604	565.048	-0.123	0.296
-148.589	-43.004	0.187	-0.094
-147.574	-83.754	-0.075	0.024
-146.560	406.966	0.098	-0.205
-145.545	-20.040	0.350	0.214
-144.531	-153.512	-0.192	0.013
-143.516	800.000	-0.010	0.028
-142.502	582.096	0.056	0.136
-141.487	-120.967	-0.261	-0.043
-140.472	28.070	-0.297	-0.248
-139.458	-145.333	-0.040	0.004
-138.443	-80.911	0.117	0.038
-137.429	800.000	0.110	0.312
-136.414	800.000	0.092	0.303
-135.399	141.338	0.145	0.190
-134.385	-2.528	-0.082	-0.057
-133.370	-145.675	0.173	0.015
-132.356	-200.000	-0.008	0.302
-131.341	253.703	-0.186	0.314
-130.326	773.911	0.043	0.115
-129.312	-200.000	0.096	0.451
-128.297	-155.200	0.099	-0.006
-127.283	453.024	0.017	0.036
-126.268	-78.967	0.193	-0.065
-125.253	-71.813	-0.188	-0.069
-124.239	-99.359	-0.062	-0.015
-123.224	-42.256	0.224	0.113
-122.210	78.274	-0.197	-0.208
-121.195	-56.057	0.438	-0.193
-120.180	-190.728	-0.210	0.002
