DTS Sentinel unit serial number:	SN413079Multiplexer serial number:	ORYXHardware model number:	OX4-SRSoftware version number:	ORYX F/W v4.00 Oryx Data Collector v3.7.2.0data status	okinstallation	princeton_trtdifferential loss correction	single-endedforward channel	channel 4reverse channel	N/Adate	2019/09/11time	23:51:11forward acquisition time	60.00reverse acquisition time	0.00gamma	496.2192k internal	0.2309k external	0.2309temperature offset calibration	1.0087default loss term (dB/km)	0.3790temperature slope calibration	1.0000multiplexer offset coefficient	1.0000multiplexer slope coefficient	1.0000fibre end	0.00T internal ref (°C)	33.87T ext. ref 1 (°C)	1.98T ext. ref 2 (°C)	27.76length (m)	temperature (°C)	Stokes	anti-Stokes-747.200	-96.446	0.263	-0.071
-746.185	-200.000	-0.005	0.534
-745.171	67.917	0.243	-0.253
-744.156	85.403	-0.183	0.204
-743.142	32.475	0.359	-0.315
-742.127	-97.446	-0.295	0.078
-741.112	494.131	-0.108	-0.252
-740.098	-200.000	-0.060	0.273
-739.083	-200.000	-0.019	-0.211
-738.069	-22.815	-0.188	0.115
-737.054	-41.087	-0.259	-0.136
-736.039	-169.514	-0.335	-0.012
-735.025	-200.000	-0.379	-0.002
-734.010	800.000	-0.033	0.096
-732.996	-101.788	-0.366	-0.090
-731.981	-81.516	-0.148	0.050
-730.966	-88.997	-0.103	0.031
-729.952	-46.342	-0.164	0.082
-728.937	-26.239	-0.075	0.045
-727.923	67.893	0.083	0.086
-726.908	-131.887	-0.093	0.012
-725.894	-47.473	-0.434	-0.214
-724.879	279.668	-0.158	0.287
-723.864	-200.000	0.010	-0.088
-722.850	-108.797	-0.335	0.073
-721.835	-36.815	-0.058	-0.032
-720.821	-200.000	-0.058	-0.325
-719.806	482.090	-0.072	-0.167
-718.791	-48.773	-0.301	-0.147
-717.777	526.755	0.147	-0.353
-716.762	34.874	-0.148	0.131
-715.748	-200.000	0.014	-0.515
-714.733	-105.498	0.222	0.051
-713.718	-145.263	-0.037	0.003
-712.704	-45.363	-0.260	0.131
-711.689	-65.193	0.117	0.048
-710.675	228.473	-0.121	0.200
-709.660	-200.000	-0.028	-0.237
-708.645	-200.000	-0.012	-0.131
-707.631	-145.760	0.184	0.017
-706.616	335.469	-0.170	-0.334
-705.602	-42.866	-0.267	-0.138
-704.587	-120.120	0.239	-0.042
-703.572	-200.000	0.076	-0.377
-702.558	425.700	0.126	-0.275
-701.543	800.000	0.100	-0.321
-700.529	81.949	-0.155	-0.170
-699.514	716.318	0.116	0.313
-698.499	-121.523	0.296	-0.050
-697.485	-106.288	-0.220	-0.050
-696.470	800.000	-0.054	0.189
-695.456	113.089	-0.142	-0.174
-694.441	-45.688	0.201	0.101
-693.426	800.000	0.088	-0.252
-692.412	39.179	-0.084	0.076
-691.397	213.016	-0.076	0.122
-690.383	-118.681	-0.218	0.039
-689.368	735.195	0.023	0.062
-688.354	-200.000	0.014	-0.200
-687.339	800.000	0.065	-0.198
-686.324	-165.082	0.321	-0.014
-685.310	-200.000	0.007	-0.076
-684.295	133.110	-0.105	-0.138
-683.281	100.437	0.090	0.106
-682.266	-200.000	0.014	-0.351
-681.251	-200.000	-0.027	-0.167
-680.237	430.277	-0.176	-0.386
-679.222	-90.335	0.092	0.027
-678.208	-200.000	0.054	-0.447
-677.193	63.319	0.214	-0.217
-676.178	9.852	-0.454	-0.349
-675.164	227.983	0.105	-0.174
-674.149	-37.896	-0.330	0.178
-673.135	13.271	-0.037	0.029
-672.120	753.018	-0.104	-0.285
-671.105	179.272	-0.143	0.213
-670.091	800.000	-0.076	-0.216
-669.076	-102.104	0.289	0.071
-668.062	662.154	0.083	0.218
-667.047	-109.958	-0.194	-0.041
-666.032	-200.000	0.003	-0.159
-665.018	-20.967	-0.196	0.121
-664.003	-200.000	0.065	-0.361
-662.989	800.000	0.032	-0.091
-661.974	-121.764	-0.164	-0.027
-660.959	-200.000	0.032	-0.270
-659.945	-200.000	-0.053	-0.517
-658.930	-50.223	0.221	0.106
-657.916	-108.198	0.379	0.083
-656.901	-98.096	-0.167	-0.044
-655.886	122.634	0.169	-0.214
-654.872	-200.000	-0.049	-0.361
-653.857	-200.000	-0.063	0.315
-652.843	800.000	-0.068	-0.241
-651.828	-70.415	0.031	-0.012
-650.814	196.239	0.058	0.090
-649.799	88.448	-0.206	-0.232
-648.784	-200.000	-0.017	-0.103
-647.770	-37.524	0.230	0.124
-646.755	-102.564	0.120	-0.029
-645.741	-33.553	0.204	0.114
-644.726	-200.000	-0.031	0.212
-643.711	269.733	-0.111	-0.198
-642.697	22.151	0.124	0.102
-641.682	9.744	-0.188	-0.145
-640.668	726.248	0.020	0.053
-639.653	-119.456	-0.265	0.047
-638.638	-13.648	0.144	0.094
-637.624	23.290	-0.056	-0.046
-636.609	207.028	0.186	0.294
-635.595	800.000	0.018	-0.061
-634.580	-200.000	0.046	-0.321
-633.565	-149.005	0.090	-0.007
-632.551	32.251	0.128	-0.112
-631.536	-200.000	0.012	0.129
-630.522	-200.000	0.050	0.300
-629.507	-200.000	0.007	-0.057
-628.492	-118.222	0.412	0.074
-627.478	236.660	0.100	0.167
-626.463	332.201	0.165	0.323
-625.449	-136.442	-0.329	0.039
-624.434	-56.433	-0.219	0.098
-623.419	9.490	-0.166	0.127
-622.405	64.625	0.057	0.058
-621.390	-46.345	-0.222	-0.110
-620.376	-200.000	0.093	0.498
-619.361	-200.000	-0.012	-0.388
-618.346	-141.372	-0.125	-0.013
-617.332	181.854	0.053	-0.079
-616.317	83.773	-0.069	0.076
-615.303	800.000	0.110	-0.373
-614.288	7.260	0.007	0.005
-613.273	-103.583	-0.284	0.067
-612.259	800.000	0.084	0.334
-611.244	-44.860	0.323	-0.163
-610.230	-101.068	-0.391	-0.097
-609.215	-25.755	0.282	-0.168
-608.201	800.000	0.047	-0.138
-607.186	-32.818	0.313	-0.176
-606.171	-166.838	0.040	0.002
-605.157	800.000	0.031	0.129
-604.142	800.000	0.048	0.168
-603.128	172.080	0.073	0.106
-602.113	142.263	0.250	0.335
-601.098	164.229	0.030	-0.043
-600.084	-123.614	-0.071	0.011
-599.069	746.329	0.045	-0.122
-598.055	441.638	-0.045	-0.099
-597.040	395.076	-0.102	-0.215
-596.025	800.000	-0.072	-0.302
-595.011	800.000	-0.049	-0.155
-593.996	-200.000	-0.034	-0.182
-592.982	800.000	-0.075	-0.331
-591.967	169.000	0.104	-0.150
-590.952	800.000	0.064	0.271
-589.938	19.111	-0.397	0.322
-588.923	9.735	-0.052	0.040
-587.909	-90.466	0.211	-0.062
-586.894	56.344	0.275	0.269
-585.879	66.762	-0.302	-0.310
-584.865	344.936	0.241	-0.478
-583.850	800.000	-0.088	-0.321
-582.836	60.296	0.217	-0.217
-581.821	-200.000	-0.267	0.000
-580.806	177.328	0.062	0.091
-579.792	-59.187	0.086	0.037
-578.777	77.734	-0.235	-0.252
-577.763	-34.725	-0.097	0.054
-576.748	103.304	-0.291	0.344
-575.733	-49.222	-0.143	0.069
-574.719	-33.081	-0.047	0.026
-573.704	-123.961	-0.231	0.037
-572.690	-179.685	0.200	0.004
-571.675	-111.963	-0.439	0.089
-570.661	515.047	0.042	-0.098
-569.646	187.868	0.175	-0.264
-568.631	346.003	-0.059	0.118
-567.617	-53.933	-0.099	-0.045
-566.602	-200.000	-0.002	-0.279
-565.588	-200.000	0.100	0.639
-564.573	18.610	-0.316	0.255
-563.558	800.000	0.093	-0.270
-562.544	-200.000	-0.001	0.080
-561.529	-200.000	0.013	0.337
-560.515	-136.393	-0.145	0.017
-559.500	144.148	0.260	-0.350
-558.485	800.000	0.104	-0.346
-557.471	-200.000	0.064	0.381
-556.456	-75.667	-0.210	0.075
-555.442	-29.337	0.090	-0.052
-554.427	-44.233	-0.514	-0.260
-553.412	-48.289	0.255	-0.124
-552.398	-200.000	-0.029	-0.277
-551.383	156.659	0.159	0.221
-550.369	-30.047	0.262	0.150
-549.354	46.473	-0.206	-0.192
-548.339	-46.083	-0.043	0.021
-547.325	800.000	-0.039	-0.133
-546.310	-45.147	0.296	-0.149
-545.296	223.478	0.058	-0.095
-544.281	54.205	-0.236	0.229
-543.266	-105.214	0.254	-0.058
-542.252	273.530	0.085	0.151
-541.237	-29.372	-0.126	0.073
-540.223	188.833	-0.127	0.192
-539.208	-99.795	-0.174	-0.044
-538.193	-14.355	-0.400	-0.260
-537.179	-120.385	-0.135	-0.023
-536.164	-160.283	0.246	-0.013
-535.150	26.416	-0.050	-0.043
-534.135	800.000	-0.013	0.045
-533.121	56.940	-0.233	0.228
-532.106	295.180	0.128	-0.236
-531.091	-40.850	-0.287	-0.150
-530.077	481.767	0.101	0.230
-529.062	-168.680	-0.283	-0.011
-528.048	376.388	0.051	0.106
-527.033	206.915	0.162	-0.255
-526.018	49.290	0.322	0.305
-525.004	800.000	0.099	0.279
-523.989	-144.960	-0.180	0.017
-522.975	712.359	0.171	-0.456
-521.960	20.563	0.172	0.140
-520.945	-54.884	-0.180	0.082
-519.931	-12.024	-0.297	-0.196
-518.916	-200.000	-0.006	0.454
-517.902	490.975	0.069	0.159
-516.887	-200.000	0.007	-0.062
-515.872	-67.766	-0.331	-0.131
-514.858	770.817	-0.054	-0.149
-513.843	-98.608	0.210	-0.054
-512.829	-200.000	-0.018	-0.125
-511.814	663.091	-0.047	-0.121
-510.799	640.863	0.024	-0.062
-509.785	-200.000	0.048	0.227
-508.770	-200.000	0.002	0.069
-507.756	-200.000	-0.017	0.169
-506.741	-29.884	0.060	-0.035
-505.726	-113.395	-0.179	0.035
-504.712	-164.695	-0.317	0.014
-503.697	-200.000	-0.025	-0.188
-502.683	-200.000	-0.233	-0.000
-501.668	-200.000	0.029	-0.165
-500.653	-140.512	0.354	-0.037
-499.639	-200.000	-0.039	0.385
-498.624	533.769	0.079	0.189
-497.610	198.964	0.068	0.105
-496.595	54.382	-0.056	-0.054
-495.581	252.564	0.065	-0.111
-494.566	-200.000	0.026	-0.282
-493.551	-26.515	-0.119	-0.070
-492.537	-24.929	0.101	-0.061
-491.522	-63.958	0.414	-0.170
-490.508	-25.438	-0.184	-0.110
-489.493	122.944	-0.147	0.185
-488.478	800.000	-0.092	0.335
-487.464	133.236	-0.066	0.085
-486.449	391.366	0.100	0.209
-485.435	182.303	0.199	0.295
-484.420	-110.317	0.239	-0.050
-483.405	-137.981	0.208	0.023
-482.391	-200.000	-0.031	0.557
-481.376	-44.758	-0.117	-0.059
-480.362	-200.000	0.055	-0.266
-479.347	592.106	0.039	0.096
-478.332	-164.039	0.238	-0.011
-477.318	-200.000	0.003	-0.050
-476.303	362.023	-0.069	-0.140
-475.289	304.870	-0.074	0.138
-474.274	249.700	0.089	-0.151
-473.259	-67.787	-0.370	0.145
-472.245	-150.138	0.135	0.011
-471.230	-200.000	0.007	-0.141
-470.216	183.208	-0.282	-0.419
-469.201	-200.000	-0.022	0.098
-468.186	-121.613	-0.242	0.040
-467.172	800.000	0.053	0.157
-466.157	-78.020	0.183	0.063
-465.143	-200.000	0.002	0.174
-464.128	-200.000	-0.024	-0.214
-463.113	443.007	-0.142	-0.312
-462.099	179.241	0.066	0.097
-461.084	-84.308	0.226	-0.072
-460.070	-200.000	-0.001	0.126
-459.055	222.938	-0.054	-0.087
-458.040	-174.915	-0.157	-0.004
-457.026	-21.460	0.237	0.145
-456.011	-162.720	0.049	0.002
-454.997	279.975	-0.081	-0.146
-453.982	403.281	-0.226	0.478
-452.968	2.777	0.051	-0.037
-451.953	388.082	-0.087	-0.181
-450.938	43.327	0.139	-0.128
-449.924	253.300	-0.120	-0.205
-448.909	27.308	-0.197	0.166
-447.895	417.614	0.108	0.231
-446.880	-97.606	-0.096	0.025
-445.865	-154.324	0.190	-0.013
-444.851	97.272	-0.073	-0.084
-443.836	-128.936	0.139	0.020
-442.822	62.761	-0.082	-0.082
-441.807	-61.998	-0.072	-0.030
-440.792	-200.000	0.010	-0.131
-439.778	-74.827	-0.152	0.055
-438.763	800.000	0.009	-0.032
-437.749	-87.567	0.217	0.066
-436.734	-200.000	-0.046	0.268
-435.719	54.960	0.072	-0.069
-434.705	800.000	0.070	-0.303
-433.690	-200.000	0.030	0.261
-432.676	800.000	-0.044	0.138
-431.661	-200.000	-0.001	0.158
-430.646	161.558	-0.119	0.168
-429.632	-101.145	0.229	0.056
-428.617	-0.836	0.101	-0.072
-427.603	-117.023	0.177	-0.032
-426.588	378.724	0.136	-0.279
-425.573	-72.951	0.166	-0.061
-424.559	-78.292	-0.316	-0.109
-423.544	8.477	0.067	0.050
-422.530	704.484	0.076	0.202
-421.515	-123.847	-0.481	-0.076
-420.500	800.000	-0.027	-0.082
-419.486	-200.000	0.013	-0.083
-418.471	-200.000	0.018	-0.174
-417.457	-63.331	-0.168	-0.069
-416.442	-200.000	0.023	0.211
-415.428	20.912	-0.268	0.218
-414.413	-57.504	-0.077	0.034
-413.398	41.740	0.163	-0.148
-412.384	-44.037	-0.245	-0.124
-411.369	-54.154	0.089	0.041
-410.355	-92.427	-0.390	-0.110
-409.340	-200.000	-0.413	0.002
-408.325	-108.370	-0.555	-0.120
-407.311	-111.147	0.118	-0.024
-406.296	800.000	-0.039	-0.164
-405.282	-99.386	-0.279	0.071
-404.267	-134.108	-0.282	-0.035
-403.252	-22.273	0.062	-0.038
-402.238	-200.000	-0.026	-0.118
-401.223	800.000	0.061	-0.171
-400.209	694.070	-0.106	0.279
-399.194	23.108	0.075	-0.062
-398.179	42.599	-0.080	-0.073
-397.165	158.554	-0.115	0.160
-396.150	324.639	0.248	-0.476
-395.136	-79.184	0.299	-0.102
-394.121	118.278	0.182	-0.225
-393.106	-20.346	-0.193	0.119
-392.092	124.109	0.094	0.118
-391.077	-29.919	0.250	0.142
-390.063	-142.332	-0.104	-0.010
-389.048	-165.335	0.016	-0.001
-388.033	-56.167	0.193	0.086
-387.019	7.068	0.325	-0.243
-386.004	-97.832	0.125	0.032
-384.990	-200.000	-0.051	-0.295
-383.975	165.775	-0.094	-0.134
-382.960	-200.000	-0.084	-0.633
-381.946	101.373	-0.079	-0.093
-380.931	428.684	-0.056	0.122
-379.917	243.882	0.051	0.085
-378.902	-135.476	0.252	-0.030
-377.888	-200.000	0.017	0.206
-376.873	735.651	0.046	-0.123
-375.858	-25.522	-0.216	0.128
-374.844	4.840	0.253	-0.187
-373.829	-115.844	-0.396	0.074
-372.815	-76.428	0.484	-0.171
-371.800	-3.707	-0.196	-0.136
-370.785	800.000	0.092	-0.390
-369.771	346.889	-0.201	-0.396
-368.756	23.754	0.168	-0.139
-367.742	-93.026	-0.077	0.021
-366.727	132.172	-0.095	0.123
-365.712	-200.000	0.015	-0.181
-364.698	-31.332	-0.269	-0.151
-363.683	286.294	0.063	-0.113
-362.669	383.705	-0.077	0.158
-361.654	2.195	-0.086	-0.062
-360.639	-119.116	0.203	0.036
-359.625	69.647	0.154	0.159
-358.610	-94.388	-0.225	-0.061
-357.596	194.391	0.185	0.281
-356.581	-64.129	-0.062	-0.025
-355.566	57.831	-0.054	-0.053
-354.552	52.001	-0.115	0.109
-353.537	48.444	0.048	0.045
-352.523	-39.584	0.086	0.045
-351.508	87.138	0.110	-0.121
-350.493	633.387	-0.071	0.179
-349.479	-115.906	0.050	0.009
-348.464	800.000	-0.048	0.182
-347.450	276.501	0.121	0.216
-346.435	137.935	0.115	-0.150
-345.420	800.000	0.098	-0.317
-344.406	93.549	-0.175	-0.198
-343.391	199.712	0.100	-0.154
-342.377	-14.179	0.296	0.191
-341.362	800.000	0.081	-0.233
-340.348	-82.193	-0.314	0.102
-339.333	-34.881	0.235	0.128
-338.318	-200.000	0.008	-0.075
-337.304	149.555	-0.061	-0.082
-336.289	-43.432	-0.145	-0.073
-335.275	127.694	-0.158	-0.201
-334.260	800.000	0.150	-0.460
-333.245	464.854	0.208	0.466
-332.231	-200.000	-0.062	0.296
-331.216	118.365	0.315	0.388
-330.202	76.640	0.077	-0.081
-329.187	17.738	-0.053	-0.042
-328.172	-18.188	-0.149	0.093
-327.158	42.513	-0.135	-0.123
-326.143	-64.781	-0.093	0.038
-325.129	-200.000	0.032	-0.343
-324.114	800.000	-0.063	-0.249
-323.099	-40.398	-0.076	-0.039
-322.085	316.751	0.048	0.090
-321.070	-82.229	-0.154	0.050
-320.056	-200.000	-0.018	-0.276
-319.041	78.997	0.232	-0.248
-318.026	-200.000	0.056	0.286
-317.012	61.355	0.119	0.118
-315.997	46.691	-0.252	-0.234
-314.983	-200.000	0.044	0.253
-313.968	95.250	0.140	0.159
-312.953	-200.000	-0.013	-0.074
-311.939	-25.802	-0.156	-0.092
-310.924	-154.100	0.292	-0.020
-309.910	178.608	0.066	-0.096
-308.895	800.000	0.064	0.276
-307.880	640.549	0.112	-0.285
-306.866	-200.000	0.037	0.233
-305.851	-102.824	0.186	-0.044
-304.837	-64.630	0.093	-0.038
-303.822	-200.000	-0.028	0.429
-302.807	84.270	-0.169	-0.184
-301.793	61.703	0.011	0.011
-300.778	-200.000	-0.020	-0.226
-299.764	-106.383	-0.272	0.061
-298.749	-24.532	-0.342	-0.204
-297.735	139.491	-0.139	0.182
-296.720	-53.687	0.184	0.084
-295.705	571.258	-0.078	-0.191
-294.691	-117.595	0.144	-0.026
-293.676	532.527	-0.108	0.256
-292.662	76.216	-0.113	0.120
-291.647	-200.000	-0.048	0.250
-290.632	-200.000	-0.031	0.205
-289.618	120.800	-0.161	-0.200
-288.603	158.947	-0.167	-0.231
-287.589	-50.514	-0.112	0.053
-286.574	-95.682	-0.182	0.049
-285.559	52.711	0.152	0.145
-284.545	21.881	-0.210	-0.171
-283.530	800.000	0.076	0.258
-282.516	-109.974	-0.188	0.039
-281.501	-163.497	-0.162	-0.008
-280.486	433.504	0.111	0.241
-279.472	-200.000	-0.029	-0.294
-278.457	-71.901	0.341	-0.127
-277.443	18.263	0.176	0.141
-276.428	-95.556	0.114	-0.031
-275.413	-170.914	-0.083	0.003
-274.399	37.816	0.175	0.155
-273.384	94.482	-0.137	-0.155
-272.370	351.230	-0.113	-0.223
-271.355	160.755	-0.180	0.250
-270.340	-40.270	0.083	0.043
-269.326	-149.503	0.241	0.019
-268.311	11.073	-0.144	-0.110
-267.297	-40.896	0.166	0.086
-266.282	104.924	-0.080	0.094
-265.267	-134.944	0.325	0.039
-264.253	-200.000	0.006	0.360
-263.238	800.000	-0.091	0.287
-262.224	86.176	-0.057	0.062
-261.209	302.091	-0.041	0.076
-260.195	341.909	-0.069	0.135
-259.180	603.822	0.037	0.093
-258.165	-59.007	-0.122	-0.052
-257.151	-62.566	0.253	-0.105
-256.136	800.000	0.076	0.251
-255.122	30.693	-0.218	-0.186
-254.107	-180.948	0.180	-0.004
-253.092	-200.000	0.027	0.207
-252.078	-200.000	-0.016	0.262
-251.063	452.092	-0.118	0.259
-250.049	800.000	0.105	-0.291
-249.034	53.663	-0.074	-0.071
-248.019	-1.529	0.111	0.078
-247.005	-200.000	0.058	-0.311
-245.990	111.868	-0.046	-0.055
-244.976	121.173	-0.130	-0.162
-243.961	100.400	0.074	0.086
-242.946	-137.855	-0.179	-0.020
-241.932	-200.000	-0.004	0.401
-240.917	800.000	-0.009	-0.029
-239.903	95.578	-0.103	-0.117
-238.888	-200.000	-0.023	-0.150
-237.873	-200.000	0.064	0.309
-236.859	-145.840	0.226	-0.020
-235.844	4.617	0.258	-0.189
-234.830	15.862	-0.034	0.027
-233.815	800.000	-0.039	-0.170
-232.800	-13.202	-0.146	-0.094
-231.786	-200.000	0.112	0.561
-230.771	-81.323	0.251	0.083
-229.757	47.252	0.250	0.231
-228.742	-101.723	0.116	0.028
-227.727	22.482	0.222	0.181
-226.713	-27.558	-0.145	-0.084
-225.698	800.000	-0.033	0.096
-224.684	-144.580	0.161	-0.015
-223.669	527.231	0.139	0.326
-222.655	106.649	-0.192	-0.227
-221.640	12.808	-0.228	0.175
-220.625	-113.961	0.037	-0.007
-219.611	800.000	-0.071	0.270
-218.596	-200.000	-0.078	0.362
-217.582	800.000	-0.060	-0.183
-216.567	-17.937	-0.423	0.264
-215.552	-60.411	0.389	0.165
-214.538	-200.000	-0.038	-0.282
-213.523	315.667	0.044	0.083
-212.509	-131.411	-0.051	0.007
-211.494	-200.000	-0.007	-0.042
-210.479	-200.000	0.016	0.114
-209.465	-200.000	0.012	-0.296
-208.450	-89.652	0.241	0.070
-207.436	800.000	-0.022	-0.075
-206.421	-200.000	-0.012	0.077
-205.406	213.355	-0.184	-0.289
-204.392	-200.000	-0.003	0.257
-203.377	311.426	0.145	0.270
-202.363	-83.127	0.127	-0.041
-201.348	145.273	0.145	-0.193
-200.333	604.510	0.054	-0.134
-199.319	800.000	0.056	0.165
-198.304	-200.000	-0.026	0.217
-197.290	44.685	-0.216	-0.198
-196.275	-120.746	0.348	-0.059
-195.260	800.000	0.047	0.196
-194.246	-25.078	-0.276	0.162
-193.231	189.980	-0.223	0.333
-192.217	-200.000	0.005	0.049
-191.202	-88.005	0.237	0.071
-190.187	-200.000	-0.086	-0.380
-189.173	319.989	0.115	-0.217
-188.158	143.934	-0.303	-0.402
-187.144	325.653	0.033	-0.062
-186.129	-200.000	0.002	0.227
-185.114	-130.039	0.322	0.044
-184.100	7.875	0.320	-0.238
-183.085	-35.391	0.326	0.176
-182.071	-74.730	-0.083	0.030
-181.056	800.000	0.053	-0.196
-180.042	-200.000	0.006	-0.110
-179.027	-53.000	-0.236	-0.108
-178.012	-200.000	0.040	0.353
-176.998	190.710	-0.211	-0.315
-175.983	-200.000	0.076	-0.343
-174.969	132.957	-0.222	-0.285
-173.954	96.970	0.165	-0.188
-172.939	40.729	-0.297	0.266
-171.925	-200.000	0.020	-0.228
-170.910	-200.000	-0.048	0.278
-169.896	279.402	0.112	0.198
-168.881	204.346	0.097	0.150
-167.866	-43.139	0.135	-0.068
-166.852	-114.873	-0.128	0.024
-165.837	-38.062	0.247	-0.130
-164.823	-200.000	0.043	-0.191
-163.808	-129.780	0.274	0.037
-162.793	132.469	0.139	0.178
-161.779	800.000	-0.060	0.199
-160.764	738.370	-0.074	0.198
-159.750	-82.496	0.086	0.028
-158.735	17.541	0.312	0.246
-157.720	119.776	-0.320	-0.393
-156.706	165.703	0.120	-0.168
-155.691	248.171	-0.106	0.178
-154.677	21.144	0.085	0.069
-153.662	-200.000	0.010	-0.043
-152.647	-93.190	0.140	-0.039
-151.633	29.597	0.085	0.072
-150.618	-87.939	0.471	0.141
-149.604	-200.000	-0.001	-0.010
-148.589	-200.000	-0.029	-0.202
-147.574	-156.308	0.395	-0.025
-146.560	36.846	0.131	-0.115
-145.545	549.044	-0.043	-0.103
-144.531	-67.841	0.085	-0.033
-143.516	-85.831	0.263	-0.081
-142.502	-53.024	0.134	0.061
-141.487	-200.000	-0.018	0.208
-140.472	71.218	-0.043	0.045
-139.458	316.322	-0.110	0.206
-138.443	-11.164	-0.100	0.065
-137.429	-200.000	0.003	0.075
-136.414	226.780	0.073	0.118
-135.399	-200.000	0.054	0.256
-134.385	-200.000	0.011	-0.282
-133.370	-200.000	-0.036	-0.183
-132.356	23.334	0.258	0.210
-131.341	800.000	0.025	0.099
-130.326	-200.000	0.064	0.348
-129.312	9.711	-0.081	0.061
-128.297	-55.816	0.287	-0.127
-127.283	23.788	-0.078	0.064
-126.268	15.976	0.220	0.172
-125.253	-150.671	-0.208	0.016
-124.239	-139.460	-0.094	-0.010
-123.224	-200.000	-0.035	-0.229
-122.210	-200.000	0.018	0.083
