DTS Sentinel unit serial number:	SN413079Multiplexer serial number:	ORYXHardware model number:	OX4-SRSoftware version number:	ORYX F/W v4.00 Oryx Data Collector v3.7.2.0data status	okinstallation	princeton_trtdifferential loss correction	single-endedforward channel	channel 4reverse channel	N/Adate	2019/09/15time	22:29:34forward acquisition time	60.00reverse acquisition time	0.00gamma	496.2192k internal	0.2320k external	0.2320temperature offset calibration	0.9950default loss term (dB/km)	0.3790temperature slope calibration	1.0000multiplexer offset coefficient	1.0000multiplexer slope coefficient	1.0000fibre end	0.00T internal ref (°C)	29.12T ext. ref 1 (°C)	8.73T ext. ref 2 (°C)	22.61length (m)	temperature (°C)	Stokes	anti-Stokes-747.200	-28.103	0.140	0.082
-746.185	243.738	0.149	0.253
-745.171	328.371	-0.077	-0.149
-744.156	-200.000	-0.001	-0.061
-743.142	238.740	-0.174	0.293
-742.127	-200.000	-0.050	0.240
-741.112	337.907	0.142	-0.278
-740.098	-69.243	-0.135	0.053
-739.083	279.114	-0.283	0.510
-738.069	-102.520	-0.385	0.093
-737.054	4.597	0.330	0.245
-736.039	-200.000	-0.021	-0.096
-735.025	-10.440	-0.185	0.124
-734.010	-59.369	-0.065	-0.028
-732.996	-12.229	0.238	-0.157
-731.981	57.555	0.073	0.072
-730.966	221.160	-0.035	-0.056
-729.952	-200.000	-0.008	0.186
-728.937	122.231	-0.209	0.264
-727.923	-49.869	-0.233	-0.112
-726.908	-200.000	0.011	-0.412
-725.894	800.000	-0.028	-0.121
-724.879	569.590	-0.057	-0.141
-723.864	800.000	0.040	0.136
-722.850	-16.316	-0.184	-0.118
-721.835	-97.103	0.156	-0.041
-720.821	16.698	0.095	-0.076
-719.806	279.712	-0.053	-0.095
-718.791	-77.149	0.135	-0.048
-717.777	209.616	0.172	0.273
-716.762	-44.117	-0.445	0.226
-715.748	-82.945	0.121	0.039
-714.733	-114.336	-0.334	0.065
-713.718	-200.000	-0.037	-0.300
-712.704	-68.893	0.032	-0.012
-711.689	171.630	-0.156	0.226
-710.675	-200.000	0.000	-0.051
-709.660	-74.454	0.177	0.065
-708.645	-92.586	0.302	0.086
-707.631	-200.000	0.060	-0.298
-706.616	-200.000	-0.054	0.308
-705.602	-147.237	0.164	0.014
-704.587	-200.000	0.007	0.183
-703.572	800.000	0.058	0.185
-702.558	109.486	0.160	0.193
-701.543	250.683	-0.063	-0.108
-700.529	-200.000	-0.007	0.061
-699.514	-73.230	-0.269	-0.100
-698.499	800.000	-0.138	-0.406
-697.485	-101.759	-0.137	-0.034
-696.470	-41.532	0.135	-0.070
-695.456	0.947	-0.244	0.176
-694.441	-142.865	0.154	0.015
-693.426	-151.250	0.225	0.017
-692.412	-123.086	-0.189	0.031
-691.397	-43.526	-0.207	-0.105
-690.383	156.268	0.155	-0.216
-689.368	-51.662	-0.306	-0.144
-688.354	-200.000	-0.039	-0.415
-687.339	-200.000	0.021	0.171
-686.324	800.000	0.192	0.696
-685.310	-143.250	-0.226	-0.022
-684.295	800.000	0.092	0.351
-683.281	-64.811	0.247	0.101
-682.266	-76.904	0.149	-0.053
-681.251	206.975	-0.115	-0.182
-680.237	29.238	-0.317	0.272
-679.222	-76.038	0.100	0.035
-678.208	-200.000	0.108	-0.652
-677.193	800.000	0.102	-0.351
-676.178	257.838	-0.126	0.218
-675.164	800.000	0.083	-0.278
-674.149	-200.000	0.031	-0.327
-673.135	-66.930	-0.177	0.071
-672.120	288.466	-0.050	-0.092
-671.105	174.366	0.061	-0.089
-670.091	36.739	0.089	0.079
-669.076	-200.000	0.027	0.133
-668.062	-156.002	0.356	0.023
-667.047	-35.287	0.168	0.092
-666.032	33.568	-0.261	-0.228
-665.018	-82.021	0.164	0.054
-664.003	181.980	-0.163	0.242
-662.989	800.000	-0.073	-0.231
-661.974	-169.955	0.195	-0.007
-660.959	651.459	-0.032	-0.083
-659.945	264.888	0.091	-0.160
-658.930	90.471	-0.148	-0.167
-657.916	664.461	0.028	0.072
-656.901	-200.000	-0.054	-0.311
-655.886	-137.358	-0.116	-0.013
-654.872	-90.915	0.491	-0.143
-653.857	75.093	-0.160	-0.170
-652.843	-200.000	-0.061	0.369
-651.828	800.000	-0.034	-0.105
-650.814	505.576	0.173	0.404
-649.799	-90.699	-0.306	-0.089
-648.784	243.320	-0.025	-0.042
-647.770	396.582	-0.124	0.261
-646.755	-36.011	-0.263	-0.143
-645.741	-87.510	-0.317	-0.097
-644.726	-90.341	-0.553	0.162
-643.711	-7.088	-0.158	0.108
-642.697	38.768	0.294	-0.265
-641.682	-154.764	0.374	0.025
-640.668	800.000	-0.044	0.145
-639.653	-80.406	-0.280	0.094
-638.638	-44.354	-0.322	-0.163
-637.624	600.545	0.067	0.167
-636.609	430.022	0.108	0.236
-635.595	74.011	0.174	-0.184
-634.580	-80.553	-0.183	-0.061
-633.565	-159.714	0.086	-0.005
-632.551	177.949	-0.211	0.311
-631.536	-200.000	0.017	0.140
-630.522	724.951	-0.060	0.162
-629.507	76.746	-0.240	0.256
-628.492	172.246	0.096	0.139
-627.478	260.274	-0.133	0.231
-626.463	-200.000	-0.001	0.263
-625.449	-99.866	-0.184	-0.046
-624.434	-200.000	0.037	-0.207
-623.419	800.000	-0.038	0.117
-622.405	254.287	-0.033	-0.057
-621.390	-110.036	0.015	0.003
-620.376	800.000	0.086	-0.304
-619.361	-41.781	-0.165	-0.085
-618.346	-152.873	0.139	-0.010
-617.332	304.044	-0.202	0.377
-616.317	-69.542	-0.268	0.103
-615.303	368.547	0.109	-0.222
-614.288	139.933	0.180	-0.238
-613.273	-118.787	0.259	-0.046
-612.259	-84.240	-0.149	-0.048
-611.244	118.501	0.068	0.084
-610.230	719.705	0.137	0.367
-609.215	-200.000	0.004	-0.191
-608.201	96.705	-0.139	0.160
-607.186	800.000	0.051	-0.166
-606.171	440.474	-0.104	-0.228
-605.157	-28.547	-0.114	-0.066
-604.142	-200.000	-0.031	0.236
-603.128	7.599	0.183	0.138
-602.113	47.646	-0.138	0.129
-601.098	-85.914	-0.177	-0.055
-600.084	279.265	-0.152	-0.273
-599.069	-200.000	-0.048	0.389
-598.055	-6.652	0.021	0.014
-597.040	26.455	0.111	0.093
-596.025	28.597	-0.190	0.162
-595.011	-109.114	-0.347	0.074
-593.996	-57.908	-0.194	-0.085
-592.982	-87.503	0.093	-0.028
-591.967	800.000	0.125	0.467
-590.952	59.239	0.022	-0.022
-589.938	800.000	-0.034	-0.119
-588.923	-30.437	-0.158	0.090
-587.909	-186.687	-0.184	-0.003
-586.894	41.186	0.300	0.273
-585.879	27.225	-0.169	0.142
-584.865	800.000	-0.050	-0.203
-583.850	800.000	-0.025	-0.102
-582.836	-114.994	0.325	-0.062
-581.821	215.185	-0.162	0.258
-580.806	219.658	0.190	-0.305
-579.792	720.808	-0.028	-0.074
-578.777	150.713	0.106	0.145
-577.763	800.000	0.120	-0.343
-576.748	-200.000	0.002	-0.092
-575.733	-200.000	0.012	0.265
-574.719	-88.663	-0.265	-0.079
-573.704	778.461	0.108	-0.297
-572.690	-21.714	-0.133	-0.081
-571.675	-68.144	-0.265	0.104
-570.661	-200.000	0.110	0.601
-569.646	800.000	0.079	0.285
-568.631	455.845	0.071	0.158
-567.617	158.518	0.150	0.209
-566.602	21.173	0.343	0.280
-565.588	90.249	-0.090	0.101
-564.573	800.000	-0.099	-0.306
-563.558	-19.122	0.307	-0.192
-562.544	99.558	0.178	0.207
-561.529	162.888	-0.160	0.226
-560.515	94.235	0.094	-0.107
-559.500	19.389	0.186	0.150
-558.485	-43.116	0.154	0.078
-557.471	-200.000	-0.010	-0.141
-556.456	-200.000	0.001	0.054
-555.442	800.000	0.076	-0.222
-554.427	-100.749	-0.444	0.110
-553.412	-122.895	-0.064	0.010
-552.398	14.445	-0.302	0.237
-551.383	-110.425	-0.557	0.116
-550.369	238.162	0.142	0.237
-549.354	800.000	-0.090	-0.334
-548.339	248.611	0.108	-0.184
-547.325	-195.826	-0.054	-0.000
-546.310	-200.000	0.007	0.075
-545.296	-200.000	-0.007	-0.037
-544.281	-40.777	-0.147	0.076
-543.266	-200.000	0.012	-0.124
-542.252	22.090	0.138	0.113
-541.237	-64.633	-0.184	0.075
-540.223	75.288	-0.080	0.085
-539.208	-111.673	0.142	0.029
-538.193	5.817	-0.233	-0.173
-537.179	-2.265	0.134	-0.095
-536.164	310.731	-0.133	0.250
-535.150	-21.903	0.084	-0.051
-534.135	10.106	-0.084	0.064
-533.121	-110.893	0.136	0.028
-532.106	-148.417	0.134	0.011
-531.091	62.956	0.084	-0.085
-530.077	115.708	-0.172	-0.210
-529.062	217.800	0.128	0.205
-528.048	-141.928	0.115	-0.011
-527.033	-32.798	-0.112	-0.062
-526.018	27.748	0.048	-0.041
-525.004	-131.045	0.228	-0.030
-523.989	800.000	-0.025	-0.107
-522.975	-200.000	-0.036	-0.230
-521.960	-200.000	-0.047	0.284
-520.945	800.000	0.073	-0.219
-519.931	201.247	0.070	-0.108
-518.916	-131.884	-0.264	-0.035
-517.902	563.389	-0.095	-0.232
-516.887	-200.000	-0.040	0.228
-515.872	-200.000	-0.020	-0.180
-514.858	458.364	-0.078	-0.174
-513.843	-200.000	0.005	0.111
-512.829	-200.000	0.061	-0.443
-511.814	-194.127	-0.241	-0.002
-510.799	-27.576	0.271	-0.158
-509.785	-200.000	0.002	0.265
-508.770	100.058	-0.116	-0.135
-507.756	-147.879	0.063	0.005
-506.741	219.725	0.080	-0.128
-505.726	-200.000	0.013	-0.235
-504.712	217.090	0.075	-0.120
-503.697	16.105	0.093	0.074
-502.683	26.054	0.058	-0.048
-501.668	92.677	0.116	0.132
-500.653	-136.325	-0.209	-0.024
-499.639	-147.104	-0.260	-0.022
-498.624	65.179	-0.023	-0.023
-497.610	419.153	0.163	-0.349
-496.595	-124.100	-0.243	-0.038
-495.581	7.572	0.331	0.248
-494.566	-98.299	0.279	-0.072
-493.551	-7.232	0.272	0.185
-492.537	-98.228	0.073	-0.019
-491.522	63.569	0.191	0.192
-490.508	-200.000	-0.003	-0.375
-489.493	-158.938	0.449	0.026
-488.478	-8.715	0.108	-0.072
-487.464	-200.000	0.020	-0.277
-486.449	-4.069	0.291	-0.202
-485.435	116.960	-0.147	-0.180
-484.420	129.882	-0.057	0.073
-483.405	-60.916	0.321	-0.136
-482.391	237.624	-0.129	-0.214
-481.376	332.882	-0.148	0.286
-480.362	-200.000	-0.006	0.026
-479.347	-67.510	0.146	-0.057
-478.332	800.000	0.036	-0.144
-477.318	5.721	-0.114	-0.085
-476.303	-200.000	-0.026	-0.418
-475.289	-19.733	-0.416	0.257
-474.274	-200.000	0.270	-0.001
-473.259	-200.000	0.021	-0.336
-472.245	174.154	0.133	0.193
-471.230	179.146	0.205	0.300
-470.216	97.591	0.106	-0.122
-469.201	12.018	-0.157	-0.121
-468.186	-45.223	-0.160	-0.079
-467.172	442.440	-0.086	-0.189
-466.157	800.000	-0.070	-0.277
-465.143	-48.820	0.244	-0.117
-464.128	-200.000	-0.310	0.000
-463.113	166.411	0.027	-0.038
-462.099	371.746	-0.015	0.030
-461.084	-133.307	-0.367	0.046
-460.070	101.410	-0.162	-0.189
-459.055	-99.257	-0.421	-0.106
-458.040	248.159	-0.243	0.411
-457.026	-200.000	0.023	0.103
-456.011	5.790	0.139	0.103
-454.997	-30.130	-0.441	0.251
-453.982	149.000	0.092	-0.124
-452.968	-148.987	0.307	0.025
-451.953	-31.433	0.072	0.040
-450.938	-126.266	-0.299	-0.045
-449.924	-200.000	0.100	0.000
-448.909	271.047	0.166	-0.293
-447.895	181.546	0.138	0.203
-446.880	800.000	0.093	-0.408
-445.865	-200.000	0.052	-0.459
-444.851	-80.111	0.298	-0.100
-443.836	334.559	0.071	-0.138
-442.822	12.021	-0.082	-0.063
-441.807	63.886	-0.094	-0.094
-440.792	800.000	0.075	-0.209
-439.778	-29.312	0.293	0.168
-438.763	155.485	-0.114	-0.157
-437.749	-145.364	-0.049	-0.004
-436.734	800.000	-0.125	0.482
-435.719	-139.773	0.384	-0.041
-434.705	-102.092	-0.130	-0.031
-433.690	119.640	-0.239	-0.296
-432.676	31.645	-0.133	0.115
-431.661	-200.000	-0.004	0.116
-430.646	668.977	-0.067	-0.174
-429.632	666.578	-0.098	-0.253
-428.617	-73.277	0.068	-0.025
-427.603	-200.000	0.021	0.386
-426.588	83.824	0.154	-0.168
-425.573	6.788	-0.187	-0.139
-424.559	77.917	-0.127	0.135
-423.544	-76.588	0.292	-0.102
-422.530	-200.000	0.015	-0.171
-421.515	780.833	0.125	0.342
-420.500	20.803	-0.164	-0.132
-419.486	152.519	0.081	0.110
-418.471	-6.953	-0.127	-0.086
-417.457	-185.154	0.118	0.002
-416.442	235.103	0.140	0.231
-415.428	480.301	0.066	0.149
-414.413	800.000	-0.026	-0.109
-413.398	-200.000	-0.020	-0.194
-412.384	-155.003	0.044	0.003
-411.369	800.000	-0.031	0.107
-410.355	706.811	0.075	0.198
-409.340	-132.174	-0.241	-0.031
-408.325	-200.000	-0.055	-0.388
-407.311	-66.691	0.402	-0.159
-406.296	-54.666	0.195	-0.088
-405.282	-200.000	-0.017	-0.365
-404.267	152.854	-0.079	0.107
-403.252	-134.210	0.291	0.036
-402.238	-172.036	0.072	0.002
-401.223	150.746	-0.201	0.273
-400.209	95.955	-0.332	0.379
-399.194	270.959	-0.068	0.119
-398.179	-200.000	-0.083	-0.410
-397.165	800.000	-0.064	-0.185
-396.150	610.258	-0.102	-0.254
-395.136	800.000	-0.073	0.220
-394.121	800.000	-0.033	0.095
-393.106	-163.069	0.060	-0.003
-392.092	-39.736	-0.018	0.009
-391.077	-200.000	-0.033	-0.352
-390.063	-45.009	0.227	0.113
-389.048	800.000	0.021	0.059
-388.033	-135.648	0.237	0.028
-387.019	-25.534	-0.133	-0.078
-386.004	-4.242	0.028	-0.019
-384.990	-200.000	-0.010	0.091
-383.975	-155.280	-0.079	-0.005
-382.960	3.394	0.344	-0.250
-381.946	-131.627	0.071	-0.009
-380.931	364.484	0.273	0.547
-379.917	800.000	0.063	-0.266
-378.902	85.948	-0.298	-0.327
-377.888	76.383	-0.143	-0.151
-376.873	296.409	-0.171	-0.313
-375.858	456.486	-0.094	-0.208
-374.844	800.000	0.076	0.260
-373.829	-51.298	0.223	0.104
-372.815	494.175	-0.111	-0.255
-371.800	-149.351	0.124	-0.010
-370.785	800.000	0.065	0.214
-369.771	-159.620	-0.028	0.002
-368.756	-31.935	-0.289	0.161
-367.742	279.331	0.044	-0.079
-366.727	64.943	-0.204	0.205
-365.712	489.586	0.076	0.172
-364.698	-159.080	0.228	-0.013
-363.683	-200.000	0.038	-0.342
-362.669	-27.183	0.193	-0.112
-361.654	800.000	0.049	-0.139
-360.639	109.307	0.091	0.108
-359.625	-66.464	0.280	0.111
-358.610	442.220	0.115	0.251
-357.596	76.259	0.129	0.136
-356.581	-63.853	0.091	-0.037
-355.566	2.558	-0.159	-0.115
-354.552	200.546	0.042	0.065
-353.537	139.303	-0.119	-0.157
-352.523	151.272	-0.118	0.160
-351.508	80.564	-0.115	0.123
-350.493	-200.000	-0.028	-0.267
-349.479	249.687	0.100	0.168
-348.464	800.000	-0.076	0.273
-347.450	-200.000	-0.007	0.078
-346.435	149.515	0.095	-0.128
-345.420	3.175	-0.233	0.169
-344.406	-42.039	0.076	-0.039
-343.391	597.334	-0.207	-0.510
-342.377	-200.000	0.011	-0.193
-341.362	-50.116	0.083	-0.039
-340.348	95.524	-0.071	0.080
-339.333	-99.331	-0.412	0.103
-338.318	800.000	0.112	0.479
-337.304	84.038	-0.239	0.260
-336.289	-17.098	-0.174	0.109
-335.275	20.323	-0.172	0.138
-334.260	-25.566	-0.256	0.151
-333.245	-59.127	0.242	-0.104
-332.231	-200.000	-0.006	0.162
-331.216	-200.000	-0.017	0.080
-330.202	800.000	-0.057	-0.179
-329.187	-86.862	0.093	-0.028
-328.172	800.000	-0.057	0.179
-327.158	-46.379	-0.178	0.087
-326.143	-12.258	0.042	0.027
-325.129	-200.000	0.018	-0.293
-324.114	800.000	0.106	0.459
-323.099	-40.412	0.259	0.134
-322.085	-89.906	0.072	-0.021
-321.070	671.087	-0.071	0.182
-320.056	-200.000	0.007	0.268
-319.041	-7.664	-0.370	0.249
-318.026	172.721	0.132	-0.189
-317.012	800.000	0.070	-0.220
-315.997	275.131	0.164	-0.290
-314.983	-6.698	0.275	-0.186
-313.968	13.698	0.279	-0.216
-312.953	137.994	0.063	-0.082
-311.939	800.000	-0.103	0.308
-310.924	-200.000	0.074	0.349
-309.910	126.479	0.115	-0.144
-308.895	394.073	-0.117	-0.243
-307.880	-138.204	-0.488	-0.054
-306.866	-146.336	-0.193	0.017
-305.851	243.595	0.206	0.343
-304.837	33.099	0.180	-0.155
-303.822	-75.402	0.141	-0.050
-302.807	-85.713	0.075	-0.023
-301.793	735.991	-0.107	0.285
-300.778	17.477	0.182	-0.143
-299.764	-163.492	-0.271	0.013
-298.749	-200.000	-0.002	0.177
-297.735	-4.958	-0.046	0.032
-296.720	-22.001	0.206	-0.125
-295.705	-26.578	-0.050	0.029
-294.691	-200.000	0.007	-0.216
-293.676	-47.812	-0.134	-0.064
-292.662	255.782	0.116	-0.198
-291.647	-93.831	-0.061	-0.017
-290.632	500.800	0.069	-0.157
-289.618	800.000	-0.030	-0.125
-288.603	-200.000	0.047	0.214
-287.589	-71.756	-0.147	0.054
-286.574	122.049	-0.008	-0.009
-285.559	105.933	0.149	0.175
-284.545	-200.000	-0.004	0.114
-283.530	-200.000	-0.050	-0.266
-282.516	-21.773	-0.142	0.086
-281.501	370.954	0.080	0.162
-280.486	-82.678	0.126	0.041
-279.472	-20.244	-0.187	-0.115
-278.457	-100.390	-0.103	0.025
-277.443	-200.000	0.044	-0.571
-276.428	-200.000	-0.057	-0.260
-275.413	-68.035	0.161	-0.062
-274.399	-135.995	-0.109	0.013
-273.384	-131.805	-0.120	0.016
-272.370	-200.000	0.001	-0.131
-271.355	-91.048	0.317	-0.091
-270.340	800.000	-0.112	-0.376
-269.326	650.554	0.088	-0.222
-268.311	442.620	-0.068	0.148
-267.297	-16.559	-0.155	-0.097
-266.282	195.716	0.091	0.137
-265.267	68.095	0.195	0.198
-264.253	-129.001	-0.288	0.040
-263.238	131.986	-0.124	0.159
-262.224	-199.559	0.243	-0.001
-261.209	-150.482	-0.312	0.024
-260.195	-42.448	0.145	-0.074
-259.180	86.392	-0.017	-0.019
-258.165	-61.390	-0.073	0.030
-257.151	520.363	0.039	-0.090
-256.136	-200.000	-0.036	0.341
-255.122	148.961	0.115	0.154
-254.107	193.414	0.050	0.075
-253.092	800.000	0.083	-0.267
-252.078	480.669	-0.028	-0.063
-251.063	-102.397	-0.031	0.007
-250.049	8.810	0.182	0.136
-249.034	332.953	0.079	0.151
-248.019	257.327	-0.172	0.293
-247.005	314.201	0.246	-0.459
-245.990	283.207	-0.091	0.161
-244.976	292.096	-0.114	0.206
-243.961	-121.985	0.259	-0.042
-242.946	-137.488	0.211	-0.024
-241.932	201.569	0.100	0.153
-240.917	-47.075	-0.046	0.022
-239.903	157.217	0.103	-0.141
-238.888	-200.000	0.001	0.113
-237.873	800.000	0.048	0.188
-236.859	301.643	-0.058	0.107
-235.844	619.199	0.082	-0.203
-234.830	-46.669	-0.171	0.083
-233.815	800.000	0.128	-0.429
-232.800	751.561	-0.108	-0.289
-231.786	615.498	0.046	0.114
-230.771	41.429	0.191	0.172
-229.757	800.000	0.045	-0.180
-228.742	136.219	-0.065	-0.084
-227.727	-109.318	0.262	-0.055
-226.713	58.020	-0.081	-0.079
-225.698	258.344	0.079	0.134
-224.684	337.901	0.044	0.084
-223.669	-112.135	-0.115	0.023
-222.655	-200.000	0.010	0.130
-221.640	153.338	0.114	0.155
-220.625	601.353	-0.022	-0.053
-219.611	-200.000	0.007	0.111
-218.596	424.713	0.056	0.119
-217.582	-57.870	-0.258	0.112
-216.567	-129.257	0.244	-0.034
-215.552	68.611	0.196	-0.199
-214.538	38.492	0.297	-0.262
-213.523	-59.766	-0.320	-0.136
-212.509	127.682	0.056	-0.070
-211.494	279.771	0.183	-0.324
-210.479	-22.857	0.268	-0.160
-209.465	63.531	0.234	-0.233
-208.450	40.303	-0.103	0.091
-207.436	109.003	-0.076	-0.090
-206.421	-30.150	-0.158	0.089
-205.406	-200.000	0.050	0.221
-204.392	-116.449	-0.100	0.018
-203.377	-56.417	0.139	-0.061
-202.363	-97.848	0.026	-0.007
-201.348	260.606	0.095	-0.163
-200.333	231.241	-0.193	-0.313
-199.319	66.758	-0.083	-0.084
-198.304	337.574	-0.097	0.186
-197.290	800.000	-0.057	0.229
-196.275	280.133	-0.141	0.250
-195.260	41.621	0.243	0.218
-194.246	-65.534	0.335	-0.133
-193.231	35.428	-0.115	-0.100
-192.217	800.000	0.110	0.378
-191.202	9.380	-0.159	0.119
-190.187	-200.000	0.039	0.377
-189.173	-128.093	-0.082	-0.012
-188.158	-18.031	0.080	0.050
-187.144	-150.907	-0.302	-0.023
-186.129	67.031	0.109	0.109
-185.114	-46.519	0.169	-0.082
-184.100	-200.000	-0.039	0.387
-183.085	-200.000	-0.002	0.213
-182.071	-153.485	0.163	0.011
-181.056	-167.066	0.296	-0.012
-180.042	-159.745	-0.322	0.018
-179.027	123.205	0.017	-0.021
-178.012	-200.000	0.030	-0.208
-176.998	-136.925	-0.364	-0.041
-175.983	-123.913	0.385	-0.060
-174.969	54.875	0.221	-0.211
-173.954	-103.636	0.206	0.048
-172.939	-16.381	-0.066	-0.041
-171.925	288.289	-0.132	-0.237
-170.910	56.126	0.161	0.155
-169.896	104.228	-0.042	0.049
-168.881	-92.806	0.319	0.088
-167.866	-166.277	-0.169	-0.007
-166.852	-124.354	-0.190	-0.029
-165.837	15.614	0.388	0.301
-164.823	-93.610	-0.362	0.099
-163.808	250.803	0.092	0.155
-162.793	60.532	-0.147	-0.144
-161.779	-20.167	-0.077	-0.047
-160.764	62.266	-0.041	-0.041
-159.750	-84.331	0.126	0.039
-158.735	-139.580	0.168	-0.018
-157.720	-200.000	-0.074	0.357
-156.706	-25.051	0.138	-0.081
-155.691	-136.641	-0.236	-0.027
-154.677	-200.000	0.094	0.460
-153.662	-41.819	-0.119	0.060
-152.647	800.000	-0.058	-0.192
-151.633	-49.943	-0.055	0.026
-150.618	14.863	-0.177	0.137
-149.604	-181.488	0.151	-0.003
-148.589	386.584	-0.226	-0.462
-147.574	-27.053	0.410	0.236
-146.560	2.996	-0.176	-0.126
-145.545	-56.911	-0.322	0.141
-144.531	-48.645	0.152	0.072
-143.516	-137.990	-0.190	0.021
-142.502	140.800	0.035	0.045
-141.487	800.000	0.048	-0.180
-140.472	-200.000	-0.041	0.262
-139.458	465.578	-0.034	0.075
-138.443	-42.759	-0.306	0.154
-137.429	-60.832	0.238	0.100
-136.414	-135.041	0.119	0.014
-135.399	170.349	-0.176	0.249
-134.385	103.039	0.043	-0.050
-133.370	800.000	-0.057	-0.178
-132.356	94.684	0.117	0.131
-131.341	-88.177	-0.230	0.068
-130.326	-200.000	0.004	-0.137
-129.312	-200.000	-0.036	0.357
-128.297	425.598	-0.073	-0.155
-127.283	-71.874	0.193	0.071
-126.268	137.702	0.116	-0.150
-125.253	495.875	-0.221	0.500
-124.239	128.635	0.444	0.559
-123.224	-126.589	0.268	-0.039
-122.210	55.532	0.122	-0.117
-121.195	187.724	0.132	0.195
