DTS Sentinel unit serial number:	SN413079Multiplexer serial number:	ORYXHardware model number:	OX4-SRSoftware version number:	ORYX F/W v4.00 Oryx Data Collector v3.7.2.0data status	okinstallation	princeton_trtdifferential loss correction	single-endedforward channel	channel 4reverse channel	N/Adate	2019/09/14time	04:33:35forward acquisition time	60.00reverse acquisition time	0.00gamma	496.2192k internal	0.2321k external	0.2321temperature offset calibration	1.0134default loss term (dB/km)	0.3790temperature slope calibration	1.0000multiplexer offset coefficient	1.0000multiplexer slope coefficient	1.0000fibre end	0.00T internal ref (°C)	26.78T ext. ref 1 (°C)	3.35T ext. ref 2 (°C)	21.99length (m)	temperature (°C)	Stokes	anti-Stokes-747.200	-21.090	-0.186	-0.115
-746.185	-48.549	-0.282	0.137
-745.171	766.867	-0.121	-0.334
-744.156	800.000	-0.058	0.206
-743.142	-106.893	-0.092	0.020
-742.127	-200.000	-0.028	-0.138
-741.112	504.090	-0.078	0.183
-740.098	151.016	-0.210	-0.289
-739.083	-65.690	0.203	-0.082
-738.069	464.268	0.128	0.290
-737.054	-141.883	-0.143	0.014
-736.039	-48.075	-0.168	-0.082
-735.025	261.628	-0.070	-0.123
-734.010	-200.000	-0.028	-0.313
-732.996	-151.820	-0.172	0.013
-731.981	-27.198	0.092	-0.054
-730.966	-174.163	-0.220	-0.006
-729.952	2.693	0.086	0.063
-728.937	-58.790	-0.220	0.096
-727.923	-20.815	-0.074	0.046
-726.908	47.084	-0.067	0.063
-725.894	800.000	0.013	0.050
-724.879	800.000	0.061	0.209
-723.864	286.351	-0.168	-0.306
-722.850	-200.000	-0.041	0.229
-721.835	-70.297	0.081	0.031
-720.821	40.550	-0.249	-0.226
-719.806	-70.353	0.254	0.097
-718.791	-122.851	-0.567	0.092
-717.777	86.513	0.144	0.161
-716.762	-29.688	0.181	0.104
-715.748	-137.339	0.289	-0.033
-714.733	-153.013	-0.210	-0.015
-713.718	-179.784	-0.235	-0.005
-712.704	412.349	0.067	0.143
-711.689	168.541	0.067	-0.096
-710.675	-1.952	-0.352	-0.249
-709.660	167.737	0.151	0.217
-708.645	-200.000	-0.100	0.458
-707.631	17.589	0.167	-0.134
-706.616	63.817	-0.173	-0.176
-705.602	140.047	-0.238	0.317
-704.587	-102.996	0.177	0.042
-703.572	59.805	-0.199	-0.198
-702.558	328.625	-0.094	-0.181
-701.543	34.427	0.277	-0.244
-700.529	181.715	0.051	-0.075
-699.514	-126.725	-0.147	-0.022
-698.499	41.482	0.212	0.194
-697.485	800.000	0.027	0.117
-696.470	305.303	-0.080	-0.150
-695.456	-109.420	0.224	-0.048
-694.441	171.998	-0.132	0.192
-693.426	562.997	0.050	-0.121
-692.412	-108.228	0.200	-0.044
-691.397	-7.725	-0.121	0.082
-690.383	209.130	0.063	-0.100
-689.368	-23.364	0.130	-0.079
-688.354	800.000	0.098	-0.356
-687.339	96.394	0.030	0.035
-686.324	21.965	0.125	0.102
-685.310	-166.190	-0.168	-0.007
-684.295	-100.684	0.269	-0.067
-683.281	336.229	0.141	0.276
-682.266	254.075	-0.075	-0.129
-681.251	37.707	-0.214	0.191
-680.237	-200.000	0.023	-0.166
-679.222	13.127	0.102	-0.080
-678.208	-160.210	0.323	-0.018
-677.193	433.765	0.154	0.338
-676.178	-12.483	0.166	0.109
-675.164	-56.530	-0.157	-0.070
-674.149	-200.000	-0.047	0.280
-673.135	-113.311	0.223	0.044
-672.120	-16.321	-0.340	-0.218
-671.105	800.000	-0.002	0.009
-670.091	18.139	0.129	0.104
-669.076	-200.000	-0.028	-0.161
-668.062	648.659	-0.169	0.436
-667.047	37.878	-0.277	-0.248
-666.032	-99.958	-0.332	-0.084
-665.018	-74.984	0.362	0.131
-664.003	-197.517	0.375	-0.002
-662.989	-7.077	-0.072	0.049
-661.974	-200.000	-0.020	-0.110
-660.959	682.409	-0.044	0.116
-659.945	800.000	-0.017	-0.072
-658.930	776.725	0.098	-0.269
-657.916	571.480	0.017	0.041
-656.901	800.000	-0.051	-0.207
-655.886	488.592	0.157	-0.360
-654.872	-200.000	-0.002	0.056
-653.857	214.074	-0.102	0.163
-652.843	-115.581	0.049	-0.009
-651.828	800.000	0.068	-0.217
-650.814	-25.476	0.335	0.199
-649.799	107.792	0.236	-0.283
-648.784	175.083	0.056	0.082
-647.770	-200.000	0.030	0.192
-646.755	76.218	-0.130	0.138
-645.741	800.000	-0.027	-0.112
-644.726	227.745	-0.143	0.235
-643.711	-10.273	-0.334	-0.223
-642.697	-34.089	-0.156	-0.086
-641.682	800.000	0.097	-0.344
-640.668	-200.000	0.016	-0.075
-639.653	223.396	0.010	-0.016
-638.638	213.636	0.147	0.234
-637.624	-44.849	-0.258	0.130
-636.609	-18.061	0.214	0.135
-635.595	-138.958	0.379	0.041
-634.580	-62.186	-0.295	0.124
-633.565	-23.794	-0.141	0.085
-632.551	42.566	-0.231	-0.211
-631.536	29.584	-0.231	-0.198
-630.522	-200.000	-0.014	0.137
-629.507	-137.454	-0.095	0.011
-628.492	-25.694	0.332	-0.197
-627.478	-106.348	0.156	0.035
-626.463	800.000	-0.012	-0.038
-625.449	136.693	-0.109	-0.144
-624.434	-200.000	0.050	0.303
-623.419	-33.716	0.518	0.287
-622.405	45.236	-0.131	0.122
-621.390	489.076	-0.205	0.471
-620.376	585.689	0.066	-0.164
-619.361	116.975	-0.242	0.299
-618.346	-65.309	-0.192	-0.078
-617.332	-101.917	-0.133	-0.032
-616.317	-56.629	-0.214	-0.095
-615.303	-200.000	0.008	0.085
-614.288	86.079	0.126	-0.140
-613.273	151.875	-0.218	0.299
-612.259	-200.000	-0.009	0.447
-611.244	483.578	0.013	-0.029
-610.230	148.885	-0.062	-0.084
-609.215	-200.000	-0.018	-0.191
-608.201	-200.000	0.029	-0.441
-607.186	-21.578	-0.160	0.098
-606.171	67.360	-0.183	0.188
-605.157	-94.359	-0.218	-0.060
-604.142	-200.000	0.033	-0.167
-603.128	-105.311	0.123	0.028
-602.113	146.619	0.048	-0.065
-601.098	-200.000	0.009	-0.297
-600.084	173.269	0.052	-0.075
-599.069	87.949	-0.011	0.013
-598.055	800.000	0.056	-0.201
-597.040	377.806	-0.068	-0.140
-596.025	-68.659	-0.214	-0.083
-595.011	-79.140	-0.495	-0.169
-593.996	-102.301	-0.154	0.037
-592.982	310.583	-0.078	0.147
-591.967	563.994	0.105	0.255
-590.952	102.288	-0.047	0.055
-589.938	340.647	0.122	0.240
-588.923	800.000	0.039	-0.142
-587.909	-200.000	-0.001	-0.131
-586.894	-100.479	0.277	-0.069
-585.879	-176.652	-0.124	-0.003
-584.865	-49.348	0.244	0.117
-583.850	325.487	-0.097	0.187
-582.836	123.859	-0.045	-0.057
-581.821	-200.000	-0.023	0.109
-580.806	77.772	0.198	0.212
-579.792	-186.874	-0.387	0.005
-578.777	-162.028	0.373	0.019
-577.763	-200.000	-0.017	0.231
-576.748	339.314	-0.170	0.332
-575.733	243.123	-0.024	-0.041
-574.719	-104.713	0.068	-0.016
-573.704	0.791	0.116	0.084
-572.690	225.538	0.162	0.263
-571.675	-49.024	-0.247	-0.119
-570.661	-1.671	-0.180	-0.128
-569.646	-22.612	0.184	0.112
-568.631	-134.305	0.161	-0.020
-567.617	104.386	-0.078	0.092
-566.602	-15.974	0.210	-0.134
-565.588	168.068	0.151	-0.216
-564.573	48.446	0.063	0.059
-563.558	-85.877	0.076	-0.024
-562.544	-200.000	-0.013	0.319
-561.529	21.245	0.122	0.100
-560.515	800.000	0.010	-0.033
-559.500	-8.343	-0.089	0.060
-558.485	226.702	0.116	0.189
-557.471	-113.632	0.267	-0.052
-556.456	-200.000	-0.014	-0.136
-555.442	-200.000	-0.008	-0.317
-554.427	800.000	-0.029	0.083
-553.412	643.790	-0.089	0.228
-552.398	-90.785	-0.131	0.038
-551.383	11.139	0.119	-0.091
-550.369	-21.393	0.123	-0.076
-549.354	-57.339	-0.198	-0.087
-548.339	-200.000	0.034	0.168
-547.325	-186.171	0.299	-0.004
-546.310	723.763	-0.105	0.282
-545.296	270.776	-0.108	-0.191
-544.281	33.250	-0.192	-0.167
-543.266	124.444	0.157	0.198
-542.252	135.353	-0.147	-0.191
-541.237	396.404	-0.120	-0.252
-540.223	-200.000	0.034	0.164
-539.208	800.000	0.032	0.109
-538.193	-31.303	0.107	-0.060
-537.179	-73.600	-0.288	0.105
-536.164	-200.000	0.009	0.346
-535.150	-28.763	0.236	-0.136
-534.135	800.000	-0.064	-0.206
-533.121	408.360	-0.027	0.057
-532.106	-63.705	-0.320	0.132
-531.091	710.358	0.051	0.135
-530.077	296.799	-0.092	-0.169
-529.062	-7.449	0.097	0.066
-528.048	-43.927	0.108	0.055
-527.033	44.675	0.260	0.240
-526.018	99.904	0.335	0.389
-525.004	-33.098	0.058	-0.032
-523.989	-200.000	0.054	0.337
-522.975	-200.000	0.037	0.264
-521.960	-200.000	0.009	-0.063
-520.945	113.642	0.199	-0.242
-519.931	71.289	-0.120	0.125
-518.916	299.839	-0.203	-0.376
-517.902	397.338	-0.103	0.216
-516.887	-200.000	0.009	0.270
-515.872	140.728	-0.045	-0.060
-514.858	-200.000	0.024	-0.139
-513.843	-7.133	-0.249	0.169
-512.829	366.168	-0.031	-0.062
-511.814	-200.000	0.032	0.323
-510.799	148.407	0.208	0.281
-509.785	800.000	-0.016	-0.057
-508.770	90.555	-0.307	-0.344
-507.756	-50.583	0.170	0.080
-506.741	-187.550	-0.528	-0.007
-505.726	21.103	-0.336	-0.273
-504.712	574.959	0.134	-0.326
-503.697	-124.045	0.167	-0.026
-502.683	-97.362	0.289	-0.075
-501.668	-200.000	-0.028	-0.153
-500.653	-133.593	-0.415	0.052
-499.639	22.093	0.250	0.205
-498.624	-200.000	0.011	-0.082
-497.610	-87.291	0.104	0.031
-496.595	305.500	0.034	0.063
-495.581	18.099	0.086	0.069
-494.566	-59.584	0.235	0.101
-493.551	-200.000	-0.021	0.101
-492.537	645.822	-0.058	-0.148
-491.522	-83.197	0.175	-0.056
-490.508	-113.717	-0.351	0.069
-489.493	183.040	-0.169	-0.250
-488.478	800.000	0.027	0.110
-487.464	-200.000	0.025	-0.386
-486.449	57.718	-0.160	0.156
-485.435	800.000	0.047	0.156
-484.420	412.285	0.176	0.375
-483.405	-33.800	-0.348	-0.192
-482.391	-103.234	0.261	-0.062
-481.376	-13.756	0.118	-0.077
-480.362	180.951	0.148	-0.217
-479.347	253.800	-0.053	0.091
-478.332	556.836	0.059	0.142
-477.318	157.253	0.183	-0.253
-476.303	-9.969	-0.210	-0.140
-475.289	-200.000	-0.005	-0.162
-474.274	800.000	0.029	-0.091
-473.259	23.950	-0.244	0.201
-472.245	-133.964	0.219	-0.027
-471.230	-55.934	0.229	-0.102
-470.216	-200.000	0.066	-0.302
-469.201	6.379	0.047	-0.035
-468.186	-200.000	0.006	-0.126
-467.172	79.005	0.069	0.073
-466.157	-200.000	0.019	-0.085
-465.143	151.128	0.279	0.380
-464.128	-200.000	-0.012	-0.057
-463.113	256.870	-0.117	0.200
-462.099	800.000	-0.072	0.215
-461.084	28.005	-0.250	-0.211
-460.070	-156.189	-0.133	-0.008
-459.055	254.800	-0.146	-0.250
-458.040	88.309	-0.250	-0.277
-457.026	800.000	0.057	-0.201
-456.011	-91.413	-0.078	0.022
-454.997	800.000	0.078	-0.300
-453.982	-12.223	0.133	0.087
-452.968	172.338	-0.085	-0.122
-451.953	-106.789	-0.211	-0.047
-450.938	580.186	0.068	-0.167
-449.924	223.888	0.153	0.247
-448.909	-200.000	0.129	-0.589
-447.895	800.000	0.039	-0.153
-446.880	102.056	0.149	0.174
-445.865	396.392	0.204	0.425
-444.851	33.333	-0.046	0.040
-443.836	-200.000	-0.005	0.134
-442.822	-64.416	-0.084	0.034
-441.807	699.241	-0.163	-0.428
-440.792	-200.000	-0.009	-0.087
-439.778	110.820	0.102	0.123
-438.763	68.455	0.166	0.170
-437.749	48.263	0.101	0.094
-436.734	-38.850	-0.268	0.141
-435.719	64.569	-0.262	-0.264
-434.705	284.887	0.085	-0.152
-433.690	603.239	0.073	0.181
-432.676	-51.865	-0.144	0.067
-431.661	505.459	0.073	0.169
-430.646	174.283	-0.235	-0.339
-429.632	-22.618	-0.271	-0.163
-428.617	-20.878	-0.173	0.106
-427.603	72.014	-0.087	0.090
-426.588	176.953	0.193	0.281
-425.573	-125.419	0.116	0.018
-424.559	-95.801	-0.170	0.045
-423.544	-66.838	-0.111	0.044
-422.530	-75.712	-0.083	-0.029
-421.515	18.799	0.245	-0.196
-420.500	86.658	-0.161	0.177
-419.486	800.000	-0.100	-0.384
-418.471	101.461	-0.217	-0.253
-417.457	-200.000	0.000	-0.110
-416.442	58.199	0.253	-0.248
-415.428	144.247	-0.067	0.089
-414.413	452.543	0.067	0.147
-413.398	74.683	0.117	0.123
-412.384	59.304	-0.061	0.060
-411.369	800.000	-0.038	0.108
-410.355	74.987	-0.182	-0.191
-409.340	72.555	0.236	-0.246
-408.325	329.217	0.131	0.252
-407.311	-200.000	-0.043	0.249
-406.296	-23.407	0.182	0.109
-405.282	800.000	0.029	-0.080
-404.267	108.385	-0.210	-0.250
-403.252	-200.000	0.028	0.409
-402.238	-8.378	-0.243	-0.163
-401.223	249.598	-0.125	-0.212
-400.209	-60.219	-0.131	-0.056
-399.194	48.808	0.084	0.079
-398.179	-108.296	-0.322	-0.069
-397.165	61.778	-0.068	0.067
-396.150	-84.957	0.348	0.109
-395.136	377.782	-0.163	0.333
-394.121	3.083	-0.177	-0.128
-393.106	37.555	-0.368	-0.326
-392.092	91.110	-0.148	-0.166
-391.077	-188.573	-0.198	0.002
-390.063	-68.871	0.147	0.057
-389.048	-117.633	0.444	0.080
-388.033	-64.159	-0.116	-0.047
-387.019	70.470	0.030	-0.031
-386.004	67.700	0.179	-0.182
-384.990	60.210	-0.064	-0.063
-383.975	-167.254	-0.108	0.004
-382.960	108.705	0.238	0.283
-381.946	307.712	0.075	-0.139
-380.931	14.969	-0.106	-0.083
-379.917	112.453	0.147	-0.177
-378.902	-200.000	0.004	-0.255
-377.888	130.977	0.138	0.177
-376.873	-114.773	-0.098	0.019
-375.858	-33.444	-0.184	0.101
-374.844	36.155	0.093	0.081
-373.829	-152.921	0.200	-0.014
-372.815	25.762	0.183	-0.152
-371.800	107.101	0.156	0.184
-370.785	117.325	0.082	0.100
-369.771	332.609	-0.096	0.185
-368.756	-88.882	-0.339	0.100
-367.742	-200.000	-0.065	-0.311
-366.727	800.000	-0.072	0.231
-365.712	394.383	0.105	0.218
-364.698	-200.000	-0.005	-0.291
-363.683	60.920	-0.068	-0.067
-362.669	-121.304	0.157	0.026
-361.654	-153.135	-0.056	0.004
-360.639	-200.000	-0.052	0.234
-359.625	262.804	0.105	0.181
-358.610	-200.000	-0.040	0.487
-357.596	800.000	0.059	-0.239
-356.581	800.000	-0.041	-0.175
-355.566	72.221	-0.060	0.062
-354.552	-108.612	-0.213	-0.046
-353.537	312.506	-0.134	0.251
-352.523	800.000	0.014	0.055
-351.508	-11.688	0.211	0.138
-350.493	-200.000	0.009	0.119
-349.479	-131.316	0.168	0.022
-348.464	-22.891	-0.209	-0.126
-347.450	-85.313	0.207	-0.064
-346.435	383.267	0.050	-0.103
-345.420	26.081	-0.101	-0.084
-344.406	642.621	0.099	-0.250
-343.391	209.099	0.126	0.196
-342.377	-32.179	-0.170	-0.094
-341.362	-200.000	-0.006	-0.032
-340.348	-20.822	-0.417	0.255
-339.333	-99.351	0.277	0.069
-338.318	-6.695	-0.063	-0.042
-337.304	-81.067	0.247	0.081
-336.289	260.729	0.056	-0.097
-335.275	-70.405	-0.047	-0.018
-334.260	-61.849	-0.272	-0.113
-333.245	-116.612	0.067	0.012
-332.231	800.000	0.022	0.084
-331.216	65.910	0.046	0.046
-330.202	250.705	0.071	0.120
-329.187	800.000	0.068	-0.234
-328.172	-51.006	-0.467	-0.218
-327.158	-200.000	-0.023	0.121
-326.143	-67.637	0.418	0.163
-325.129	-200.000	-0.063	-0.324
-324.114	570.860	-0.039	0.093
-323.099	800.000	0.054	-0.199
-322.085	-91.403	-0.037	-0.011
-321.070	97.803	-0.114	-0.131
-320.056	128.111	0.184	0.233
-319.041	-61.774	0.318	-0.132
-318.026	-200.000	0.013	0.320
-317.012	-117.784	-0.160	-0.029
-315.997	800.000	0.023	-0.091
-314.983	-6.745	0.111	-0.075
-313.968	217.201	0.144	-0.228
-312.953	-46.029	0.110	-0.054
-311.939	800.000	0.041	0.174
-310.924	29.873	-0.197	-0.167
-309.910	-200.000	0.003	-0.094
-308.895	68.431	-0.103	0.105
-307.880	-200.000	0.010	-0.192
-306.866	-81.931	-0.088	-0.029
-305.851	-58.920	0.179	0.077
-304.837	-151.062	-0.496	0.037
-303.822	284.485	-0.126	-0.225
-302.807	-7.956	0.192	-0.128
-301.793	800.000	-0.061	0.200
-300.778	-47.651	-0.078	0.038
-299.764	-116.583	0.159	-0.029
-298.749	48.022	-0.064	0.060
-297.735	-53.039	-0.230	0.105
-296.720	205.278	-0.043	-0.066
-295.705	-27.119	-0.152	-0.088
-294.691	-200.000	-0.027	0.150
-293.676	316.989	-0.073	0.138
-292.662	133.164	-0.220	-0.283
-291.647	-121.872	0.299	0.049
-290.632	800.000	-0.101	0.370
-289.618	-75.183	-0.096	-0.034
-288.603	-136.339	-0.193	-0.022
-287.589	8.569	-0.309	-0.231
-286.574	-200.000	-0.047	0.345
-285.559	538.352	0.050	0.118
-284.545	-197.195	0.192	0.001
-283.530	668.734	-0.119	-0.306
-282.516	218.199	0.133	-0.210
-281.501	-101.887	0.126	0.030
-280.486	607.436	-0.040	0.100
-279.472	340.974	-0.147	-0.284
-278.457	7.525	0.155	-0.115
-277.443	-100.876	-0.362	0.088
-276.428	-200.000	-0.032	0.454
-275.413	-10.004	0.162	0.107
-274.399	-105.737	0.067	-0.015
-273.384	324.518	0.052	-0.099
-272.370	-130.741	0.069	0.009
-271.355	24.911	-0.275	-0.226
-270.340	-12.150	0.217	-0.141
-269.326	604.212	-0.086	0.211
-268.311	800.000	-0.079	0.274
-267.297	800.000	0.041	0.168
-266.282	-3.850	-0.190	-0.131
-265.267	-49.275	-0.225	0.106
-264.253	-89.651	0.191	-0.056
-263.238	333.962	0.051	-0.098
-262.224	-20.707	0.234	0.142
-261.209	-26.728	0.307	0.178
-260.195	-128.888	-0.157	-0.022
-259.180	-200.000	0.003	0.052
-258.165	580.340	-0.151	-0.367
-257.151	-153.933	0.093	0.006
-256.136	600.853	-0.157	0.386
-255.122	-58.861	-0.213	-0.091
-254.107	31.272	-0.259	-0.221
-253.092	-72.628	0.394	-0.144
-252.078	272.194	-0.123	-0.214
-251.063	-134.782	-0.416	-0.050
-250.049	-0.841	0.053	0.038
-249.034	137.668	0.250	0.325
-248.019	-129.389	0.305	0.042
-247.005	449.167	-0.051	-0.110
-245.990	123.060	-0.186	0.231
-244.976	-84.112	0.389	0.123
-243.961	800.000	-0.124	0.354
-242.946	-200.000	0.008	0.213
-241.932	20.863	-0.340	0.273
-240.917	2.407	-0.072	0.052
-239.903	10.379	-0.337	0.254
-238.888	409.342	0.197	-0.414
-237.873	-200.000	0.023	-0.236
-236.859	186.592	0.263	-0.388
-235.844	-9.976	-0.146	-0.096
-234.830	142.734	0.039	0.052
-233.815	-43.159	0.364	-0.183
-232.800	665.952	0.017	-0.044
-231.786	-105.855	0.259	0.058
-230.771	800.000	-0.033	-0.112
-229.757	800.000	-0.047	-0.187
-228.742	800.000	0.038	-0.106
-227.727	256.239	0.179	0.304
-226.713	-20.615	0.183	0.111
-225.698	-67.329	-0.226	-0.088
-224.684	91.864	0.257	-0.286
-223.669	475.652	-0.106	-0.237
-222.655	-42.063	0.107	0.054
-221.640	429.216	0.054	0.115
-220.625	-200.000	0.006	-0.192
-219.611	350.462	-0.093	0.182
-218.596	-200.000	-0.025	-0.169
-217.582	-179.311	0.100	-0.002
-216.567	-200.000	0.007	0.161
-215.552	-32.480	0.213	-0.118
-214.538	-116.279	0.093	0.017
-213.523	-1.554	-0.071	0.050
-212.509	-200.000	0.006	0.286
-211.494	434.087	-0.052	0.111
-210.479	-62.100	-0.276	0.114
-209.465	93.658	0.101	-0.113
-208.450	-200.000	-0.022	0.119
-207.436	95.434	0.216	-0.244
-206.421	-157.625	0.162	0.010
-205.406	-17.562	0.153	0.095
-204.392	-108.471	0.133	-0.028
-203.377	-143.205	-0.045	-0.004
-202.363	-108.046	0.344	0.074
-201.348	-200.000	0.019	0.452
-200.333	40.936	-0.142	-0.127
-199.319	54.438	0.115	0.110
-198.304	-134.731	0.114	-0.014
-197.290	-63.141	0.310	-0.126
-196.275	-200.000	0.015	0.074
-195.260	-66.228	0.212	-0.083
-194.246	716.674	0.122	-0.321
-193.231	139.222	0.041	-0.054
-192.217	-132.323	-0.351	-0.045
-191.202	-82.694	-0.212	0.068
-190.187	583.964	-0.086	0.209
-189.173	800.000	-0.050	0.165
-188.158	-171.495	0.151	0.005
-187.144	-45.161	0.263	0.129
-186.129	-33.256	0.123	0.067
-185.114	-20.134	0.206	-0.125
-184.100	-58.945	-0.152	-0.065
-183.085	800.000	-0.058	-0.176
-182.071	-87.009	0.323	0.097
-181.056	-153.954	-0.361	0.024
-180.042	-200.000	0.019	0.125
-179.027	400.334	0.094	-0.195
-178.012	-151.621	0.159	-0.012
-176.998	-105.672	-0.140	-0.031
-175.983	-13.151	-0.119	-0.077
-174.969	174.915	0.151	-0.217
-173.954	-1.485	0.125	-0.087
-172.939	-63.091	0.164	0.067
-171.925	-20.277	0.235	0.143
-170.910	-28.902	0.058	0.033
-169.896	158.122	0.149	-0.205
-168.881	82.322	0.381	-0.408
-167.866	-22.557	-0.137	-0.082
-166.852	591.054	0.122	0.297
-165.837	-200.000	-0.007	0.124
-164.823	-200.000	-0.007	-0.173
-163.808	800.000	-0.042	0.128
-162.793	32.884	-0.070	0.060
-161.779	212.436	0.077	-0.120
-160.764	135.666	-0.243	-0.313
-159.750	-15.775	0.322	0.202
-158.735	-90.256	-0.184	0.053
-157.720	-125.816	-0.114	-0.017
-156.706	-131.799	0.235	-0.030
-155.691	800.000	0.029	-0.080
-154.677	-200.000	0.045	-0.300
-153.662	800.000	-0.104	-0.298
-152.647	800.000	-0.065	0.177
-151.633	-175.754	0.109	-0.003
-150.618	-87.144	0.198	-0.059
-149.604	-119.238	-0.105	0.018
-148.589	-93.181	-0.172	-0.047
-147.574	-183.611	-0.275	-0.005
-146.560	800.000	0.075	0.287
-145.545	-2.869	-0.201	0.139
-144.531	146.162	-0.007	-0.009
-143.516	-123.434	-0.214	0.034
-142.502	-24.434	-0.061	0.036
-141.487	116.713	-0.085	0.103
-140.472	-89.094	0.324	0.094
-139.458	-200.000	-0.013	0.071
-138.443	85.006	-0.192	-0.208
-137.429	-200.000	-0.008	0.088
-136.414	-200.000	-0.012	0.472
-135.399	92.004	-0.140	-0.155
-134.385	-46.482	-0.132	0.064
-133.370	-59.283	-0.325	0.138
-132.356	154.460	0.168	-0.228
-131.341	81.935	0.199	0.212
-130.326	-39.606	-0.257	-0.133
-129.312	-18.691	0.102	0.063
-128.297	125.256	-0.050	0.063
-127.283	119.445	-0.211	-0.258
-126.268	491.522	-0.076	0.173
-125.253	-200.000	-0.004	-0.063
-124.239	-41.103	0.286	-0.146
-123.224	-13.817	0.053	-0.034
-122.210	532.382	0.134	0.314
-121.195	117.805	0.136	-0.165
