DTS Sentinel unit serial number:	SN413079Multiplexer serial number:	ORYXHardware model number:	OX4-SRSoftware version number:	ORYX F/W v4.00 Oryx Data Collector v3.7.2.0data status	okinstallation	princeton_trtdifferential loss correction	single-endedforward channel	channel 4reverse channel	N/Adate	2019/09/15time	16:53:34forward acquisition time	60.00reverse acquisition time	0.00gamma	496.2192k internal	0.2276k external	0.2276temperature offset calibration	0.9933default loss term (dB/km)	0.3790temperature slope calibration	1.0000multiplexer offset coefficient	1.0000multiplexer slope coefficient	1.0000fibre end	0.00T internal ref (°C)	44.39T ext. ref 1 (°C)	5.80T ext. ref 2 (°C)	40.49length (m)	temperature (°C)	Stokes	anti-Stokes-747.200	-200.000	0.000	0.236
-746.185	-87.567	-0.252	-0.078
-745.171	793.005	0.056	-0.159
-744.156	-200.000	0.016	-0.101
-743.142	-200.000	0.029	0.239
-742.127	-200.000	0.023	0.138
-741.112	200.604	-0.125	-0.197
-740.098	6.331	-0.227	0.174
-739.083	11.024	0.205	-0.161
-738.069	-97.270	0.166	0.045
-737.054	-163.108	0.120	-0.006
-736.039	-109.549	-0.236	-0.051
-735.025	-200.000	0.014	0.234
-734.010	-200.000	0.016	-0.266
-732.996	-61.511	-0.141	-0.061
-731.981	-39.311	0.308	-0.167
-730.966	-200.000	-0.002	-0.069
-729.952	-133.390	-0.151	-0.020
-728.937	800.000	0.040	-0.159
-727.923	-200.000	0.001	-0.032
-726.908	358.559	0.069	0.143
-725.894	287.942	-0.167	0.312
-724.879	-24.226	0.149	0.092
-723.864	628.885	-0.079	-0.207
-722.850	-90.510	-0.284	-0.085
-721.835	-200.000	-0.025	0.137
-720.821	-59.591	0.243	0.107
-719.806	253.048	0.183	0.322
-718.791	51.978	0.274	-0.269
-717.777	-11.823	0.275	-0.186
-716.762	309.917	-0.048	0.092
-715.748	800.000	-0.084	0.330
-714.733	116.268	0.014	-0.018
-713.718	530.189	0.084	0.204
-712.704	-97.356	-0.072	0.019
-711.689	275.899	0.161	-0.294
-710.675	-80.208	-0.314	-0.108
-709.660	225.234	0.227	-0.379
-708.645	-200.000	0.023	-0.337
-707.631	-5.573	0.245	0.173
-706.616	-43.693	0.039	-0.020
-705.602	79.580	-0.198	-0.218
-704.587	-99.423	-0.166	0.043
-703.572	-131.249	0.081	-0.011
-702.558	-152.997	-0.360	-0.026
-701.543	139.541	-0.159	-0.215
-700.529	-200.000	-0.015	0.115
-699.514	149.046	0.112	-0.156
-698.499	222.926	-0.035	0.059
-697.485	-138.392	-0.441	0.050
-696.470	23.020	-0.059	0.050
-695.456	159.601	0.203	-0.290
-694.441	-101.659	0.155	-0.039
-693.426	93.841	0.234	-0.273
-692.412	-26.814	-0.354	-0.213
-691.397	35.006	-0.210	0.189
-690.383	-200.000	-0.018	-0.279
-689.368	620.461	0.036	0.092
-688.354	-200.000	-0.011	0.084
-687.339	248.875	0.058	-0.102
-686.324	-200.000	-0.047	-0.214
-685.310	74.099	-0.260	0.281
-684.295	156.842	0.053	0.075
-683.281	163.055	-0.131	-0.189
-682.266	-200.000	-0.045	-0.285
-681.251	800.000	0.021	-0.092
-680.237	-64.905	0.244	-0.101
-679.222	-66.146	-0.163	-0.067
-678.208	-200.000	-0.010	-0.110
-677.193	216.046	-0.123	0.201
-676.178	82.730	-0.175	0.196
-675.164	-119.378	-0.192	-0.034
-674.149	-16.980	0.169	-0.110
-673.135	346.195	-0.087	0.176
-672.120	-200.000	-0.012	-0.109
-671.105	5.727	-0.040	-0.031
-670.091	88.652	0.169	-0.193
-669.076	0.607	-0.104	0.076
-668.062	168.936	-0.042	0.061
-667.047	-200.000	-0.043	-0.266
-666.032	-200.000	0.002	-0.265
-665.018	402.085	0.106	-0.229
-664.003	-200.000	0.001	-0.144
-662.989	66.246	0.172	-0.179
-661.974	11.198	0.100	-0.079
-660.959	-200.000	-0.047	-0.378
-659.945	163.389	0.071	-0.102
-658.930	800.000	0.076	-0.313
-657.916	-140.221	0.263	-0.028
-656.901	800.000	-0.067	-0.263
-655.886	-200.000	0.019	-0.109
-654.872	-14.642	0.227	-0.150
-653.857	308.293	0.097	0.185
-652.843	174.020	-0.200	-0.297
-651.828	615.512	0.137	-0.353
-650.814	800.000	0.063	-0.190
-649.799	51.988	0.200	-0.196
-648.784	-22.574	0.100	0.062
-647.770	-167.630	0.208	-0.008
-646.755	104.528	0.180	0.218
-645.741	-88.948	0.380	-0.116
-644.726	112.846	0.140	-0.175
-643.711	15.890	-0.208	-0.168
-642.697	-7.435	-0.361	-0.251
-641.682	-200.000	0.055	-0.305
-640.668	-22.916	-0.137	0.085
-639.653	-25.730	0.040	-0.024
-638.638	23.279	0.220	0.186
-637.624	24.271	-0.199	-0.169
-636.609	-77.183	-0.159	0.057
-635.595	800.000	-0.028	-0.090
-634.580	-200.000	0.009	0.090
-633.565	-21.140	0.025	-0.016
-632.551	470.116	-0.080	0.185
-631.536	-68.640	-0.359	0.143
-630.522	481.873	0.113	-0.264
-629.507	-131.143	-0.171	-0.023
-628.492	636.786	0.124	0.324
-627.478	114.871	-0.060	0.076
-626.463	-200.000	-0.003	-0.130
-625.449	-2.080	0.232	-0.167
-624.434	-27.778	-0.271	-0.161
-623.419	-69.356	0.197	-0.078
-622.405	-83.424	-0.245	-0.081
-621.390	-38.246	-0.114	0.062
-620.376	58.880	0.061	0.061
-619.361	-142.259	0.445	0.045
-618.346	-58.165	0.173	0.077
-617.332	205.411	0.051	0.082
-616.317	-29.256	-0.299	0.176
-615.303	-200.000	0.016	0.183
-614.288	-200.000	0.003	0.186
-613.273	140.478	-0.187	-0.253
-612.259	198.614	0.241	-0.379
-611.244	-53.166	0.124	0.058
-610.230	-125.227	0.036	-0.006
-609.215	132.505	0.099	0.131
-608.201	28.288	0.177	0.153
-607.186	115.381	0.169	-0.211
-606.171	683.327	0.052	-0.140
-605.157	-50.492	-0.168	0.081
-604.142	-187.108	0.121	-0.002
-603.128	387.411	-0.142	0.301
-602.113	-86.863	0.053	-0.017
-601.098	800.000	-0.146	0.424
-600.084	-200.000	0.007	-0.143
-599.069	-200.000	0.015	-0.380
-598.055	157.695	0.103	-0.146
-597.040	285.126	0.100	0.185
-596.025	473.240	0.017	-0.039
-595.011	-143.993	0.308	-0.030
-593.996	256.044	-0.082	-0.145
-592.982	-64.126	0.218	-0.091
-591.967	84.472	0.157	-0.176
-590.952	1.699	0.031	0.023
-589.938	354.403	0.067	0.137
-588.923	49.266	0.191	0.184
-587.909	-120.492	-0.163	0.028
-586.894	22.992	-0.155	-0.130
-585.879	-200.000	-0.038	0.513
-584.865	168.315	-0.108	-0.157
-583.850	-200.000	0.013	-0.150
-582.836	191.125	-0.147	-0.226
-581.821	-200.000	-0.066	-0.366
-580.806	0.826	0.075	-0.055
-579.792	800.000	0.076	-0.257
-578.777	800.000	0.088	-0.317
-577.763	-123.633	0.174	0.028
-576.748	-24.959	-0.058	-0.035
-575.733	-105.629	-0.327	0.076
-574.719	-200.000	-0.010	-0.218
-573.704	-76.521	0.165	-0.059
-572.690	-200.000	0.049	0.310
-571.675	-19.041	-0.310	0.198
-570.661	-114.420	-0.037	0.007
-569.646	-136.508	0.148	0.018
-568.631	-74.748	-0.309	0.114
-567.617	800.000	-0.064	-0.220
-566.602	44.014	0.106	0.100
-565.588	67.802	-0.084	-0.088
-564.573	-4.315	0.050	0.036
-563.558	-200.000	0.002	-0.477
-562.544	311.780	0.126	0.242
-561.529	165.121	-0.145	0.210
-560.515	-147.806	0.144	-0.012
-559.500	242.763	0.146	-0.251
-558.485	189.631	-0.056	-0.086
-557.471	-41.474	-0.061	-0.032
-556.456	-200.000	-0.011	-0.515
-555.442	-74.842	-0.008	0.003
-554.427	-32.419	-0.303	-0.173
-553.412	2.425	-0.089	0.066
-552.398	-120.438	-0.281	0.049
-551.383	800.000	-0.095	0.281
-550.369	-129.745	-0.218	0.031
-549.354	133.654	-0.052	0.069
-548.339	126.665	-0.059	0.076
-547.325	-200.000	-0.069	-0.343
-546.310	-133.042	-0.259	-0.034
-545.296	70.327	0.334	0.353
-544.281	-200.000	-0.084	0.431
-543.266	81.797	0.090	0.100
-542.252	-3.825	0.120	0.085
-541.237	22.397	-0.137	-0.114
-540.223	13.282	-0.202	-0.160
-539.208	-80.003	-0.193	0.066
-538.193	-105.338	0.055	0.013
-537.179	-150.052	-0.139	-0.011
-536.164	800.000	0.076	-0.269
-535.150	107.798	0.074	0.090
-534.135	-150.140	-0.035	0.003
-533.121	127.054	-0.190	-0.246
-532.106	-46.063	0.245	0.123
-531.091	22.677	-0.167	-0.140
-530.077	-3.345	0.068	0.048
-529.062	-200.000	0.030	0.173
-528.048	-200.000	-0.010	0.273
-527.033	-117.302	-0.033	0.006
-526.018	-69.858	-0.166	0.065
-525.004	-72.671	-0.148	-0.056
-523.989	-65.494	-0.100	-0.041
-522.975	33.462	0.072	0.064
-521.960	150.559	0.156	-0.216
-520.945	17.997	0.124	0.101
-519.931	-200.000	0.029	0.156
-518.916	-200.000	-0.043	0.491
-517.902	90.281	-0.435	0.497
-516.887	-158.105	-0.115	-0.007
-515.872	-75.557	0.367	0.133
-514.858	-169.367	0.172	0.006
-513.843	39.582	-0.368	-0.337
-512.829	-121.454	0.055	0.009
-511.814	74.856	0.303	-0.326
-510.799	-101.970	0.063	0.016
-509.785	800.000	-0.046	-0.158
-508.770	-200.000	-0.007	-0.439
-507.756	-45.750	-0.115	-0.058
-506.741	-169.352	0.124	0.005
-505.726	-72.134	0.122	0.046
-504.712	55.104	-0.220	-0.217
-503.697	-40.080	-0.393	0.209
-502.683	800.000	0.032	0.131
-501.668	-0.308	-0.096	-0.069
-500.653	-89.993	0.196	-0.058
-499.639	-89.249	0.252	0.076
-498.624	-43.709	0.290	-0.149
-497.610	-17.650	-0.093	-0.060
-496.595	-73.972	0.388	-0.144
-495.581	800.000	-0.046	-0.145
-494.566	800.000	0.061	-0.186
-493.551	46.073	-0.140	-0.132
-492.537	-188.877	-0.209	-0.003
-491.522	800.000	0.165	-0.516
-490.508	63.460	-0.176	0.181
-489.493	160.094	-0.045	-0.064
-488.478	-108.146	-0.148	-0.033
-487.464	-110.793	0.238	-0.050
-486.449	617.717	-0.102	-0.261
-485.435	164.191	-0.208	-0.299
-484.420	18.463	-0.173	-0.141
-483.405	-200.000	0.025	-0.285
-482.391	-14.363	0.277	0.182
-481.376	108.698	-0.109	0.133
-480.362	-45.242	-0.033	-0.017
-479.347	-200.000	-0.015	-0.236
-478.332	-110.879	-0.143	-0.030
-477.318	164.245	0.051	0.073
-476.303	-200.000	0.033	-0.200
-475.289	-53.287	0.300	-0.140
-474.274	-14.190	-0.097	-0.064
-473.259	67.806	-0.070	-0.073
-472.245	-25.144	0.257	0.155
-471.230	113.721	-0.246	0.305
-470.216	-130.894	0.325	-0.044
-469.201	-74.317	-0.350	-0.129
-468.186	446.401	0.086	0.193
-467.172	-113.715	-0.074	0.015
-466.157	-76.386	-0.111	-0.040
-465.143	800.000	-0.076	-0.269
-464.128	-200.000	0.017	0.224
-463.113	19.239	-0.100	0.082
-462.099	-86.509	-0.270	-0.084
-461.084	-123.894	-0.210	-0.034
-460.070	800.000	0.023	-0.099
-459.055	25.685	0.145	-0.123
-458.040	-200.000	-0.010	-0.153
-457.026	196.010	0.144	0.223
-456.011	-62.831	-0.074	0.031
-454.997	-38.243	0.407	-0.220
-453.982	30.167	-0.178	-0.155
-452.968	-200.000	0.047	-0.277
-451.953	396.829	0.059	0.126
-450.938	2.507	-0.207	0.153
-449.924	-74.756	-0.061	0.022
-448.909	-57.628	0.322	-0.144
-447.895	181.870	-0.051	0.077
-446.880	-130.083	0.218	0.030
-445.865	800.000	0.030	-0.093
-444.851	-200.000	0.022	-0.147
-443.836	164.998	-0.105	-0.150
-442.822	-93.290	0.104	-0.030
-441.807	-35.368	-0.153	0.085
-440.792	149.060	0.021	0.029
-439.778	-199.339	0.346	0.002
-438.763	169.855	0.069	-0.100
-437.749	-200.000	0.029	0.233
-436.734	24.112	-0.067	0.056
-435.719	8.381	-0.202	0.155
-434.705	61.067	0.074	-0.075
-433.690	-39.444	-0.271	-0.145
-432.676	-39.279	-0.306	0.164
-431.661	-101.744	-0.043	0.011
-430.646	-111.599	0.198	0.041
-429.632	-4.561	0.099	0.070
-428.617	-45.770	-0.190	0.096
-427.603	63.308	-0.302	-0.309
-426.588	-35.313	0.055	-0.030
-425.573	800.000	-0.036	0.102
-424.559	-200.000	-0.023	0.181
-423.544	-139.726	-0.140	-0.015
-422.530	305.961	0.146	0.276
-421.515	-121.296	0.173	-0.029
-420.500	114.309	-0.149	0.185
-419.486	360.471	-0.072	-0.147
-418.471	12.027	-0.068	0.053
-417.457	800.000	0.092	-0.373
-416.442	-122.163	0.067	0.011
-415.428	-136.308	-0.137	0.016
-414.413	-37.611	-0.129	-0.070
-413.398	-66.948	0.135	0.054
-412.384	-66.054	-0.146	0.059
-411.369	-133.935	0.139	0.018
-410.355	287.125	-0.112	0.206
-409.340	-67.619	0.154	-0.061
-408.325	65.614	0.112	0.115
-407.311	-44.178	0.178	0.091
-406.296	85.512	-0.038	0.043
-405.282	222.224	-0.041	-0.066
-404.267	800.000	0.036	0.136
-403.252	39.148	0.243	-0.221
-402.238	-102.743	-0.085	0.021
-401.223	146.720	-0.223	-0.304
-400.209	322.618	-0.147	-0.286
-399.194	800.000	-0.063	0.263
-398.179	-141.417	0.159	0.016
-397.165	299.854	0.128	0.240
-396.150	-200.000	0.012	-0.101
-395.136	227.869	-0.080	0.133
-394.121	-108.911	0.317	0.069
-393.106	-200.000	-0.005	0.221
-392.092	-79.794	0.079	0.027
-391.077	217.994	0.159	0.258
-390.063	-200.000	-0.102	-0.493
-389.048	389.725	-0.131	0.276
-388.033	102.214	-0.062	0.074
-387.019	250.263	-0.097	-0.168
-386.004	394.260	0.207	-0.439
-384.990	-200.000	0.005	-0.385
-383.975	-88.314	-0.394	0.120
-382.960	800.000	-0.038	-0.114
-381.946	-154.800	0.050	0.003
-380.931	-112.568	-0.282	0.057
-379.917	207.800	-0.051	0.081
-378.902	-85.782	-0.212	0.067
-377.888	800.000	-0.144	-0.447
-376.873	-123.526	0.105	0.017
-375.858	-200.000	0.016	-0.084
-374.844	5.312	-0.195	0.146
-373.829	134.963	-0.032	0.042
-372.815	800.000	0.060	-0.208
-371.800	-200.000	-0.056	0.319
-370.785	-133.863	0.165	0.021
-369.771	100.863	0.004	0.005
-368.756	-40.875	0.301	0.158
-367.742	-100.036	0.290	-0.074
-366.727	395.011	-0.066	-0.140
-365.712	362.755	0.132	0.268
-364.698	255.193	-0.096	0.168
-363.683	484.756	0.086	0.199
-362.669	-200.000	0.016	0.197
-361.654	-140.627	0.053	0.006
-360.639	-14.535	0.134	-0.088
-359.625	-86.401	0.209	-0.065
-358.610	-200.000	0.029	0.182
-357.596	-200.000	-0.015	-0.254
-356.581	384.125	-0.071	-0.148
-355.566	-50.451	0.194	0.093
-354.552	402.819	-0.061	0.130
-353.537	155.302	0.115	0.161
-352.523	215.326	0.054	0.086
-351.508	-17.986	-0.017	0.011
-350.493	93.530	0.057	0.066
-349.479	86.744	0.274	-0.307
-348.464	-153.644	-0.069	-0.005
-347.450	-13.593	0.131	-0.086
-346.435	228.447	0.101	0.167
-345.420	57.255	0.204	0.202
-344.406	48.288	0.034	0.032
-343.391	-68.731	-0.201	0.079
-342.377	-102.265	-0.211	0.052
-341.362	-31.861	-0.178	0.101
-340.348	-114.319	0.144	-0.028
-339.333	230.173	-0.082	-0.135
-338.318	-43.665	-0.250	-0.128
-337.304	800.000	0.103	-0.452
-336.289	-200.000	0.002	-0.099
-335.275	92.087	0.049	0.056
-334.260	-23.896	0.219	0.133
-333.245	313.702	0.149	-0.284
-332.231	105.056	-0.173	-0.207
-331.216	136.998	0.084	-0.111
-330.202	-56.953	0.249	0.112
-329.187	-200.000	0.005	0.079
-328.172	50.351	0.167	-0.160
-327.158	146.654	-0.093	-0.126
-326.143	222.891	-0.195	-0.319
-325.129	-17.239	0.308	-0.197
-324.114	-87.359	-0.274	-0.084
-323.099	-20.955	-0.161	0.100
-322.085	-200.000	-0.004	0.170
-321.070	-144.694	-0.084	0.008
-320.056	-101.424	0.332	0.082
-319.041	800.000	-0.035	0.120
-318.026	-200.000	0.074	0.466
-317.012	800.000	0.043	0.178
-315.997	307.509	-0.050	-0.095
-314.983	800.000	0.049	-0.167
-313.968	-29.861	-0.226	-0.130
-312.953	75.734	-0.004	-0.005
-311.939	15.850	-0.195	-0.156
-310.924	236.672	0.188	0.316
-309.910	-148.808	0.154	0.013
-308.895	184.374	0.123	0.184
-307.880	400.871	-0.058	0.124
-306.866	120.940	-0.019	-0.024
-305.851	41.367	0.097	-0.089
-304.837	-200.000	0.060	-0.313
-303.822	123.622	0.095	-0.121
-302.807	21.846	0.174	0.144
-301.793	-77.479	-0.219	0.077
-300.778	12.493	-0.164	-0.128
-299.764	-200.000	0.036	-0.450
-298.749	-37.751	0.143	-0.077
-297.735	35.049	-0.102	-0.090
-296.720	-200.000	-0.008	-0.059
-295.705	125.612	0.072	0.092
-294.691	100.752	0.076	0.089
-293.676	-61.187	-0.070	0.030
-292.662	266.628	0.101	0.179
-291.647	-137.531	-0.021	-0.002
-290.632	-3.605	-0.109	-0.077
-289.618	-95.865	-0.225	0.061
-288.603	-18.311	-0.152	0.096
-287.589	-70.082	0.200	-0.077
-286.574	-35.657	0.329	-0.181
-285.559	-200.000	-0.048	-0.253
-284.545	-200.000	0.049	0.302
-283.530	171.725	0.059	-0.085
-282.516	800.000	-0.075	0.240
-281.501	373.789	-0.093	-0.191
-280.486	-200.000	-0.305	0.001
-279.472	11.490	-0.167	-0.130
-278.457	133.460	-0.028	0.037
-277.443	1.367	-0.284	0.206
-276.428	-87.937	-0.143	-0.044
-275.413	115.142	0.185	0.229
-274.399	197.421	0.105	0.163
-273.384	-109.275	0.275	-0.059
-272.370	69.348	0.118	0.122
-271.355	-200.000	-0.001	0.381
-270.340	-84.048	0.254	0.082
-269.326	-52.343	-0.271	0.127
-268.311	428.650	-0.031	-0.068
-267.297	165.384	0.087	-0.124
-266.282	139.196	0.214	0.285
-265.267	122.044	0.120	0.151
-264.253	-43.251	-0.327	0.167
-263.238	11.226	-0.210	-0.162
-262.224	-200.000	-0.025	-0.309
-261.209	-200.000	0.014	0.160
-260.195	-187.690	-0.341	0.005
-259.180	-17.201	0.308	0.196
-258.165	-77.489	-0.205	-0.072
-257.151	231.441	0.183	0.304
-256.136	-200.000	0.076	-0.403
-255.122	16.182	0.330	0.263
-254.107	38.467	-0.353	0.318
-253.092	-4.820	0.052	-0.036
-252.078	-100.032	0.170	0.043
-251.063	-200.000	-0.391	-0.001
-250.049	800.000	0.030	-0.086
-249.034	-200.000	-0.021	-0.093
-248.019	-37.157	0.106	0.057
-247.005	26.197	0.234	-0.197
-245.990	-102.530	-0.281	-0.068
-244.976	-200.000	-0.073	0.347
-243.961	-166.313	-0.044	0.002
-242.946	-64.512	-0.204	0.084
-241.932	-28.399	-0.445	0.259
-240.917	-71.132	-0.254	0.096
-239.903	-87.831	0.150	-0.046
-238.888	766.169	-0.049	-0.136
-237.873	237.676	-0.117	0.196
-236.859	198.988	0.089	0.138
-235.844	-194.142	0.065	0.001
-234.830	162.262	-0.095	0.134
-233.815	158.361	-0.225	-0.316
-232.800	79.125	-0.177	-0.192
-231.786	-124.085	-0.333	-0.053
-230.771	560.526	-0.030	-0.073
-229.757	-57.069	0.045	0.020
-228.742	-140.957	-0.169	0.018
-227.727	-90.794	0.343	-0.100
-226.713	-154.362	0.451	0.031
-225.698	-61.141	0.069	-0.030
-224.684	66.719	0.215	-0.221
-223.669	-200.000	-0.004	-0.160
-222.655	-200.000	-0.003	-0.101
-221.640	178.971	-0.141	0.209
-220.625	-200.000	0.039	0.271
-219.611	0.613	-0.249	0.180
-218.596	-200.000	0.233	0.000
-217.582	-200.000	-0.026	0.159
-216.567	364.776	-0.080	0.163
-215.552	-85.417	0.127	0.040
-214.538	798.973	-0.088	0.246
-213.523	800.000	-0.015	-0.058
-212.509	132.001	0.231	-0.301
-211.494	79.135	0.086	-0.093
-210.479	-200.000	-0.019	-0.136
-209.465	800.000	-0.022	0.081
-208.450	-67.905	0.128	-0.050
-207.436	106.939	-0.143	0.172
-206.421	368.568	0.008	-0.017
-205.406	-95.366	0.225	0.061
-204.392	128.699	0.098	0.125
-203.377	507.448	0.036	0.085
-202.363	25.999	0.106	-0.089
-201.348	-200.000	-0.015	-0.135
-200.333	74.840	0.203	-0.215
-199.319	-151.959	0.180	0.013
-198.304	-40.827	-0.149	-0.078
-197.290	-155.581	-0.088	0.006
-196.275	538.258	-0.033	0.078
-195.260	-200.000	-0.047	0.337
-194.246	0.546	0.199	-0.144
-193.231	-62.825	0.062	-0.026
-192.217	363.282	0.085	0.172
-191.202	-200.000	-0.007	0.204
-190.187	8.567	0.138	0.105
-189.173	128.974	0.289	-0.371
-188.158	-21.026	0.019	-0.012
-187.144	181.584	0.131	0.194
-186.129	800.000	-0.072	-0.251
-185.114	-200.000	-0.013	-0.107
-184.100	-50.008	-0.257	0.123
-183.085	31.882	-0.104	0.091
-182.071	-137.585	0.225	0.026
-181.056	-75.471	-0.246	0.088
-180.042	466.958	0.033	0.074
-179.027	-159.484	0.315	-0.018
-178.012	800.000	-0.024	0.103
-176.998	800.000	0.043	0.156
-175.983	383.868	-0.126	0.262
-174.969	-109.355	0.291	-0.062
-173.954	-200.000	0.028	0.142
-172.939	-200.000	-0.016	0.336
-171.925	800.000	-0.093	-0.301
-170.910	-38.041	0.170	0.091
-169.896	-73.035	0.110	0.041
-168.881	-61.789	-0.056	0.024
-167.866	-200.000	0.002	0.015
-166.852	353.291	-0.163	-0.326
-165.837	-106.277	0.154	0.035
-164.823	-137.405	0.258	-0.029
-163.808	-101.700	0.157	0.038
-162.793	800.000	-0.091	0.290
-161.779	23.968	0.222	-0.185
-160.764	-30.715	-0.393	0.224
-159.750	35.950	-0.033	0.029
-158.735	-200.000	0.059	0.302
-157.720	67.594	-0.187	0.192
-156.706	65.316	-0.176	0.179
-155.691	-183.388	-0.460	-0.008
-154.677	87.386	-0.226	0.252
-153.662	-144.715	0.185	-0.017
-152.647	428.179	-0.110	0.240
-151.633	-200.000	-0.008	0.328
-150.618	353.848	0.089	0.178
-149.604	800.000	0.113	-0.423
-148.589	-88.580	-0.266	0.080
-147.574	-104.233	0.033	-0.008
-146.560	-200.000	0.043	-0.203
-145.545	201.265	-0.158	0.245
-144.531	243.081	-0.144	-0.242
-143.516	-41.135	0.191	0.100
-142.502	127.767	0.100	-0.129
-141.487	-121.033	0.071	-0.012
-140.472	66.571	0.012	0.012
-139.458	-102.236	-0.326	-0.079
-138.443	-151.667	-0.067	-0.005
-137.429	35.619	0.034	0.030
-136.414	-78.646	-0.426	-0.146
-135.399	464.176	0.065	-0.146
-134.385	-200.000	-0.029	-0.151
-133.370	-22.045	0.209	0.128
-132.356	508.849	-0.058	0.134
-131.341	-68.388	0.337	0.132
-130.326	22.592	-0.119	-0.098
-129.312	41.172	-0.133	0.121
-128.297	791.607	-0.027	-0.074
-127.283	189.780	-0.117	-0.177
-126.268	-11.345	0.138	0.092
-125.253	800.000	0.047	-0.133
-124.239	-200.000	-0.003	-0.134
-123.224	-4.435	0.063	0.043
-122.210	-200.000	0.012	0.132
-121.195	-34.414	0.377	-0.208
