DTS Sentinel unit serial number:	SN413079Multiplexer serial number:	ORYXHardware model number:	OX4-SRSoftware version number:	ORYX F/W v4.00 Oryx Data Collector v3.7.2.0data status	okinstallation	princeton_trtdifferential loss correction	single-endedforward channel	channel 4reverse channel	N/Adate	2019/09/12time	09:39:10forward acquisition time	60.00reverse acquisition time	0.00gamma	496.2192k internal	0.2296k external	0.2296temperature offset calibration	1.0068default loss term (dB/km)	0.3790temperature slope calibration	1.0000multiplexer offset coefficient	1.0000multiplexer slope coefficient	1.0000fibre end	0.00T internal ref (°C)	35.75T ext. ref 1 (°C)	1.82T ext. ref 2 (°C)	32.36length (m)	temperature (°C)	Stokes	anti-Stokes-747.200	-57.993	0.232	-0.104
-746.185	1.256	-0.225	0.165
-745.171	-120.887	0.296	-0.051
-744.156	-200.000	0.003	0.282
-743.142	-200.000	0.006	0.194
-742.127	133.804	-0.191	0.252
-741.112	-172.452	-0.236	0.008
-740.098	-14.423	0.125	0.082
-739.083	-15.671	-0.078	0.051
-738.069	339.749	0.111	-0.222
-737.054	-200.000	-0.035	-0.334
-736.039	-41.573	-0.206	-0.108
-735.025	-50.576	0.140	0.068
-734.010	-8.911	-0.390	-0.267
-732.996	-0.459	-0.228	-0.166
-731.981	276.103	-0.126	-0.229
-730.966	197.430	0.159	-0.248
-729.952	237.236	-0.112	-0.190
-728.937	444.473	0.114	0.256
-727.923	-81.461	-0.278	0.094
-726.908	800.000	-0.028	-0.090
-725.894	55.680	-0.160	-0.158
-724.879	-200.000	0.025	-0.124
-723.864	800.000	0.051	-0.166
-722.850	-152.937	0.124	-0.009
-721.835	-62.406	-0.086	0.036
-720.821	800.000	-0.062	-0.215
-719.806	-76.841	-0.212	-0.076
-718.791	-63.683	0.174	0.073
-717.777	76.970	-0.077	-0.083
-716.762	-130.162	-0.494	-0.069
-715.748	-128.608	0.142	0.021
-714.733	-34.628	0.226	-0.126
-713.718	-113.042	-0.020	0.004
-712.704	-115.221	-0.104	-0.020
-711.689	-159.635	-0.098	-0.006
-710.675	-160.102	-0.106	0.006
-709.660	-125.773	0.045	-0.007
-708.645	-86.383	-0.173	-0.054
-707.631	-109.613	-0.156	0.033
-706.616	-200.000	0.015	0.185
-705.602	-200.000	0.011	0.174
-704.587	119.655	-0.082	-0.104
-703.572	-62.679	-0.183	0.077
-702.558	13.162	-0.378	0.299
-701.543	622.502	0.011	0.027
-700.529	-12.170	0.170	-0.113
-699.514	-200.000	-0.025	-0.362
-698.499	16.955	-0.313	-0.253
-697.485	-113.709	-0.332	-0.066
-696.470	218.648	0.070	0.114
-695.456	55.516	0.116	-0.115
-694.441	-200.000	-0.002	-0.021
-693.426	344.486	0.087	0.175
-692.412	339.515	-0.029	0.058
-691.397	411.081	-0.114	-0.247
-690.383	264.306	0.145	-0.257
-689.368	171.261	0.196	0.287
-688.354	-200.000	-0.007	-0.128
-687.339	-200.000	0.039	-0.265
-686.324	29.060	-0.149	0.129
-685.310	209.162	0.154	0.247
-684.295	-95.066	0.189	0.052
-683.281	-200.000	-0.021	-0.157
-682.266	80.052	-0.174	-0.191
-681.251	-200.000	-0.001	0.303
-680.237	283.424	0.029	0.053
-679.222	-37.810	0.176	-0.095
-678.208	-200.000	-0.021	0.132
-677.193	152.858	-0.102	0.142
-676.178	-182.303	0.057	-0.001
-675.164	258.136	0.210	0.368
-674.149	-200.000	-0.030	0.146
-673.135	800.000	-0.120	0.367
-672.120	313.266	-0.109	0.209
-671.105	-43.987	0.259	-0.133
-670.091	92.224	0.255	-0.293
-669.076	-200.000	-0.020	-0.142
-668.062	-200.000	-0.001	0.185
-667.047	800.000	-0.065	-0.188
-666.032	-79.606	-0.402	-0.138
-665.018	-103.338	0.266	-0.064
-664.003	9.946	-0.076	0.059
-662.989	-59.405	0.202	0.089
-661.974	212.539	-0.065	0.104
-660.959	-200.000	-0.026	-0.223
-659.945	-3.838	-0.324	-0.229
-658.930	-33.081	-0.145	-0.082
-657.916	-200.000	0.005	0.036
-656.901	-122.669	0.180	0.030
-655.886	-158.844	-0.292	-0.017
-654.872	800.000	0.017	0.059
-653.857	800.000	0.102	-0.318
-652.843	-92.070	-0.255	-0.073
-651.828	800.000	0.034	0.124
-650.814	182.452	0.230	0.345
-649.799	-122.907	-0.155	0.025
-648.784	56.515	-0.098	-0.097
-647.770	-200.000	0.024	-0.158
-646.755	56.627	-0.087	-0.086
-645.741	-183.279	-0.069	-0.001
-644.726	190.231	0.102	-0.156
-643.711	-200.000	0.007	0.247
-642.697	-2.556	0.166	-0.118
-641.682	-168.521	-0.119	-0.005
-640.668	-15.057	-0.075	0.049
-639.653	522.101	-0.086	-0.206
-638.638	-124.382	-0.149	0.024
-637.624	-11.983	0.065	0.044
-636.609	-130.161	0.206	0.029
-635.595	-164.921	-0.210	-0.010
-634.580	16.352	0.172	-0.138
-633.565	-200.000	-0.047	0.267
-632.551	-150.093	-0.240	0.019
-631.536	82.172	0.086	-0.095
-630.522	-53.459	0.146	0.068
-629.507	-35.956	0.181	-0.099
-628.492	-138.637	0.156	-0.017
-627.478	100.823	-0.167	-0.198
-626.463	-141.707	-0.256	0.026
-625.449	263.909	0.007	0.013
-624.434	-66.179	-0.127	-0.051
-623.419	-200.000	0.025	-0.263
-622.405	37.470	-0.249	0.225
-621.390	-79.768	0.134	-0.046
-620.376	-161.123	-0.066	0.004
-619.361	153.177	-0.155	0.215
-618.346	5.255	0.244	0.183
-617.332	800.000	0.027	0.098
-616.317	713.354	0.035	0.094
-615.303	-56.277	-0.537	-0.243
-614.288	196.282	0.106	0.164
-613.273	-200.000	0.006	-0.181
-612.259	25.123	0.067	-0.057
-611.244	800.000	0.061	-0.199
-610.230	-200.000	0.028	0.413
-609.215	-90.334	-0.118	-0.035
-608.201	-121.365	-0.154	0.026
-607.186	144.495	0.212	0.287
-606.171	-200.000	-0.131	-0.000
-605.157	74.708	-0.158	-0.169
-604.142	-200.000	-0.052	-0.394
-603.128	-44.593	0.268	-0.136
-602.113	388.784	-0.154	-0.323
-601.098	14.540	-0.159	-0.126
-600.084	-200.000	-0.015	0.201
-599.069	268.715	-0.126	-0.225
-598.055	7.125	0.352	0.267
-597.040	-126.306	0.141	-0.021
-596.025	29.232	0.329	0.284
-595.011	413.172	-0.020	-0.042
-593.996	-47.212	0.157	0.078
-592.982	163.689	-0.096	-0.138
-591.967	586.849	-0.145	0.363
-590.952	-53.692	0.346	-0.161
-589.938	11.071	-0.411	0.319
-588.923	-125.088	0.363	0.057
-587.909	-83.747	-0.472	0.153
-586.894	-136.517	-0.190	0.022
-585.879	-200.000	0.013	0.138
-584.865	-149.997	0.127	0.010
-583.850	166.157	-0.079	-0.113
-582.836	-80.341	-0.180	0.061
-581.821	-200.000	0.031	-0.255
-580.806	108.519	0.022	-0.026
-579.792	-104.231	0.138	0.032
-578.777	800.000	0.031	0.140
-577.763	-145.006	-0.037	-0.003
-576.748	-27.462	0.316	0.187
-575.733	67.369	-0.112	0.116
-574.719	185.960	0.101	-0.152
-573.704	-22.140	0.166	0.103
-572.690	-33.442	0.210	-0.118
-571.675	208.437	-0.192	0.305
-570.661	-154.617	0.362	-0.025
-569.646	-200.000	0.042	0.301
-568.631	800.000	0.002	0.008
-567.617	800.000	0.050	0.165
-566.602	197.082	-0.252	0.390
-565.588	280.332	-0.107	-0.194
-564.573	122.709	-0.146	-0.185
-563.558	106.941	-0.191	-0.231
-562.544	418.769	0.042	0.091
-561.529	124.856	0.108	0.138
-560.515	-90.975	0.423	0.123
-559.500	76.903	0.125	-0.135
-558.485	-200.000	-0.092	0.446
-557.471	-81.240	0.081	-0.027
-556.456	104.214	0.192	-0.229
-555.442	800.000	-0.036	-0.102
-554.427	459.920	-0.068	-0.155
-553.412	447.115	0.054	-0.121
-552.398	97.335	-0.168	0.196
-551.383	200.984	0.198	0.309
-550.369	40.128	-0.054	-0.049
-549.354	39.501	-0.104	0.094
-548.339	-7.751	-0.335	-0.230
-547.325	-28.303	-0.206	-0.121
-546.310	-200.000	0.005	0.141
-545.296	189.050	0.077	-0.117
-544.281	68.765	-0.282	0.293
-543.266	-139.667	0.202	0.022
-542.252	800.000	0.071	0.231
-541.237	-200.000	0.041	-0.211
-540.223	113.958	-0.091	0.112
-539.208	-50.941	0.284	0.135
-538.193	-131.338	0.050	0.007
-537.179	10.426	0.185	0.143
-536.164	800.000	-0.114	0.369
-535.150	-79.081	0.146	-0.050
-534.135	204.810	0.025	0.039
-533.121	43.532	0.107	-0.099
-532.106	-147.909	0.317	0.027
-531.091	-200.000	0.046	-0.339
-530.077	619.332	-0.093	0.236
-529.062	94.756	-0.216	-0.248
-528.048	-118.907	0.121	0.021
-527.033	-144.208	0.303	-0.029
-526.018	683.843	0.101	0.266
-525.004	333.698	0.181	0.355
-523.989	-93.492	-0.329	0.092
-522.975	54.715	-0.185	-0.181
-521.960	127.251	0.205	-0.264
-520.945	-200.000	0.011	-0.166
-519.931	-59.469	0.119	-0.052
-518.916	-46.909	-0.169	-0.083
-517.902	13.239	0.039	0.031
-516.887	355.629	0.186	0.376
-515.872	8.542	-0.117	-0.089
-514.858	800.000	0.039	-0.160
-513.843	800.000	-0.052	-0.215
-512.829	-94.254	0.316	0.088
-511.814	-200.000	0.024	-0.198
-510.799	-53.423	0.142	-0.066
-509.785	-85.146	0.025	-0.008
-508.770	-200.000	-0.068	-0.310
-507.756	178.091	-0.049	0.073
-506.741	-66.820	0.294	-0.118
-505.726	578.127	0.189	0.467
-504.712	511.430	0.070	-0.165
-503.697	3.331	-0.174	-0.128
-502.683	-72.762	0.147	-0.055
-501.668	541.217	-0.026	0.063
-500.653	-114.976	-0.149	-0.029
-499.639	379.443	0.075	0.155
-498.624	-94.145	0.220	0.061
-497.610	12.711	-0.123	0.096
-496.595	-200.000	0.010	-0.128
-495.581	126.957	-0.191	0.246
-494.566	-67.913	-0.276	0.109
-493.551	-200.000	-0.014	-0.246
-492.537	397.640	-0.156	-0.330
-491.522	334.072	-0.079	0.154
-490.508	-35.549	0.138	-0.076
-489.493	798.985	-0.046	-0.129
-488.478	774.412	0.134	0.371
-487.464	795.481	-0.028	0.077
-486.449	143.018	0.079	-0.107
-485.435	-200.000	-0.002	0.036
-484.420	-116.711	0.167	-0.031
-483.405	800.000	0.013	0.054
-482.391	-163.063	0.224	0.011
-481.376	75.658	0.115	-0.123
-480.362	289.130	-0.114	0.208
-479.347	7.304	0.406	-0.306
-478.332	268.298	-0.135	-0.240
-477.318	-116.243	0.190	0.036
-476.303	-106.556	-0.066	0.015
-475.289	124.888	0.148	-0.189
-474.274	156.472	0.218	-0.304
-473.259	458.902	-0.172	-0.387
-472.245	88.040	-0.206	-0.231
-471.230	-83.696	-0.067	0.022
-470.216	-53.065	-0.191	0.089
-469.201	313.689	0.070	-0.133
-468.186	109.873	-0.101	-0.122
-467.172	-116.585	-0.192	0.036
-466.157	-22.104	-0.236	-0.145
-465.143	2.302	-0.059	-0.043
-464.128	-181.757	-0.243	0.005
-463.113	172.126	-0.136	0.197
-462.099	-200.000	0.036	0.192
-461.084	-200.000	0.045	-0.601
-460.070	69.074	-0.200	0.207
-459.055	393.618	-0.050	0.104
-458.040	-100.444	-0.056	0.014
-457.026	-125.442	0.153	-0.024
-456.011	696.588	0.076	0.202
-454.997	800.000	-0.068	0.227
-453.982	-78.375	-0.353	0.122
-452.968	-25.573	-0.260	0.155
-451.953	103.521	-0.073	-0.087
-450.938	120.825	0.071	0.090
-449.924	29.857	-0.237	-0.204
-448.909	-157.666	-0.292	0.018
-447.895	51.280	-0.302	0.289
-446.880	-200.000	-0.042	-0.319
-445.865	800.000	0.085	-0.368
-444.851	8.915	-0.443	-0.338
-443.836	-200.000	-0.049	-0.403
-442.822	-200.000	0.033	-0.224
-441.807	800.000	-0.035	-0.108
-440.792	212.620	0.058	-0.093
-439.778	29.628	-0.168	0.145
-438.763	-72.578	-0.257	-0.096
-437.749	117.362	0.220	-0.273
-436.734	-51.334	-0.112	-0.053
-435.719	-132.469	-0.203	0.026
-434.705	289.454	-0.104	-0.191
-433.690	-10.463	0.138	0.092
-432.676	-200.000	0.041	0.198
-431.661	93.260	0.098	0.112
-430.646	-117.921	-0.499	0.090
-429.632	62.748	0.254	-0.256
-428.617	800.000	-0.078	-0.337
-427.603	-106.759	-0.285	-0.064
-426.588	261.599	-0.152	-0.265
-425.573	280.061	0.091	0.165
-424.559	800.000	-0.088	-0.356
-423.544	-200.000	0.009	0.334
-422.530	413.161	-0.064	0.137
-421.515	-107.903	0.312	-0.069
-420.500	-5.090	0.244	0.169
-419.486	-157.773	0.352	-0.021
-418.471	65.509	0.202	-0.207
-417.457	-72.369	-0.323	0.121
-416.442	68.155	0.072	-0.074
-415.428	503.915	0.171	-0.400
-414.413	5.111	-0.235	-0.175
-413.398	-32.002	0.059	-0.033
-412.384	-149.757	-0.042	-0.003
-411.369	-7.304	-0.065	-0.044
-410.355	800.000	0.010	-0.028
-409.340	-200.000	-0.025	-0.213
-408.325	-200.000	0.014	0.199
-407.311	57.043	-0.027	0.026
-406.296	-116.565	-0.206	-0.038
-405.282	375.120	-0.054	0.112
-404.267	800.000	-0.077	-0.258
-403.252	71.096	-0.198	-0.207
-402.238	461.916	-0.100	-0.224
-401.223	800.000	-0.065	-0.243
-400.209	-200.000	-0.046	0.209
-399.194	-40.175	-0.326	-0.171
-398.179	-81.308	-0.254	0.085
-397.165	-74.427	-0.351	-0.128
-396.150	-29.022	-0.233	-0.135
-395.136	-17.488	-0.245	-0.156
-394.121	148.579	0.292	0.397
-393.106	81.699	0.189	0.206
-392.092	-109.700	0.407	0.086
-391.077	-102.694	0.126	0.030
-390.063	152.220	-0.123	0.169
-389.048	39.214	0.217	-0.196
-388.033	-173.223	0.343	-0.011
-387.019	41.180	-0.068	0.062
-386.004	198.930	-0.049	0.076
-384.990	-200.000	0.006	-0.114
-383.975	115.301	-0.147	-0.181
-382.960	-83.760	-0.380	0.122
-381.946	-11.518	0.173	-0.115
-380.931	-200.000	-0.048	0.229
-379.917	35.468	-0.115	-0.102
-378.902	-200.000	-0.018	0.131
-377.888	-200.000	-0.049	0.430
-376.873	210.144	-0.146	0.231
-375.858	-200.000	0.020	0.162
-374.844	-87.314	0.136	-0.042
-373.829	-30.227	-0.156	0.089
-372.815	-200.000	0.047	0.394
-371.800	-120.177	-0.378	0.065
-370.785	325.756	0.058	0.111
-369.771	-200.000	-0.012	0.143
-368.756	301.665	0.150	0.278
-367.742	29.783	0.269	0.231
-366.727	244.241	0.096	0.162
-365.712	113.742	0.177	0.216
-364.698	461.645	0.081	-0.182
-363.683	-200.000	-0.041	-0.181
-362.669	-8.140	0.148	-0.101
-361.654	83.478	0.282	0.309
-360.639	360.766	-0.079	-0.160
-359.625	800.000	-0.139	-0.532
-358.610	55.372	0.233	0.227
-357.596	-200.000	0.026	-0.147
-356.581	7.686	-0.092	-0.069
-355.566	388.219	0.093	-0.193
-354.552	-70.467	0.265	0.101
-353.537	327.635	-0.051	-0.098
-352.523	-200.000	0.007	-0.049
-351.508	-153.345	-0.061	0.004
-350.493	-115.580	0.196	0.037
-349.479	73.045	-0.171	0.179
-348.464	-176.422	-0.274	-0.007
-347.450	800.000	0.086	0.296
-346.435	-200.000	0.087	0.405
-345.420	-200.000	0.005	0.022
-344.406	-49.221	-0.257	0.124
-343.391	-135.593	-0.298	0.036
-342.377	-200.000	-0.027	-0.368
-341.362	198.215	0.042	-0.064
-340.348	-200.000	-0.023	0.236
-339.333	562.188	-0.042	0.103
-338.318	-26.393	0.075	0.044
-337.304	-59.040	-0.066	0.029
-336.289	224.710	0.099	-0.161
-335.275	800.000	-0.058	0.217
-334.260	800.000	-0.069	0.262
-333.245	-200.000	-0.001	0.032
-332.231	-111.864	-0.180	0.037
-331.216	382.838	0.171	0.353
-330.202	-200.000	0.003	0.215
-329.187	-173.672	-0.191	0.006
-328.172	110.513	-0.134	0.162
-327.158	800.000	0.092	0.263
-326.143	-62.447	0.407	-0.170
-325.129	85.245	0.102	-0.113
-324.114	-200.000	-0.037	0.184
-323.099	-98.389	0.268	-0.069
-322.085	280.220	0.066	-0.119
-321.070	800.000	-0.047	-0.133
-320.056	73.677	0.063	0.067
-319.041	-186.208	0.307	-0.004
-318.026	300.121	0.157	0.290
-317.012	-200.000	-0.010	0.160
-315.997	-122.425	0.167	0.027
-314.983	-102.060	0.267	0.065
-313.968	-200.000	-0.003	0.018
-312.953	25.407	-0.129	-0.108
-311.939	50.370	-0.153	0.145
-310.924	-200.000	0.059	0.286
-309.910	-200.000	0.020	-0.241
-308.895	-142.718	-0.260	0.025
-307.880	-110.131	-0.107	0.022
-306.866	55.439	0.211	0.205
-305.851	100.534	-0.224	0.261
-304.837	37.510	-0.204	-0.182
-303.822	233.349	0.126	0.209
-302.807	8.668	0.049	0.037
-301.793	800.000	-0.054	-0.215
-300.778	-145.790	-0.350	-0.031
-299.764	-160.256	0.378	-0.020
-298.749	-1.765	0.302	0.213
-297.735	800.000	0.059	-0.244
-296.720	-200.000	0.006	-0.032
-295.705	116.752	0.179	0.221
-294.691	327.285	-0.098	-0.189
-293.676	-200.000	0.007	0.174
-292.662	800.000	0.081	-0.246
-291.647	-122.483	-0.157	-0.026
-290.632	800.000	-0.042	-0.131
-289.618	74.773	0.137	-0.144
-288.603	258.289	-0.112	-0.194
-287.589	-94.710	0.105	-0.028
-286.574	800.000	-0.111	0.342
-285.559	293.732	-0.101	-0.185
-284.545	800.000	-0.035	-0.115
-283.530	800.000	-0.038	-0.135
-282.516	-125.133	0.359	-0.055
-281.501	-86.895	-0.371	0.114
-280.486	382.690	-0.110	0.226
-279.472	83.840	-0.121	-0.132
-278.457	39.156	0.233	-0.209
-277.443	92.975	0.122	-0.138
-276.428	800.000	-0.037	0.129
-275.413	-35.362	0.337	0.184
-274.399	-9.514	-0.328	-0.220
-273.384	375.404	-0.208	0.426
-272.370	-130.885	0.125	0.017
-271.355	-76.020	-0.092	0.033
-270.340	-200.000	0.051	-0.235
-269.326	352.622	-0.096	-0.190
-268.311	-84.113	0.357	-0.114
-267.297	-142.765	-0.331	-0.032
-266.282	195.367	-0.118	0.180
-265.267	50.126	0.114	-0.108
-264.253	-1.342	0.113	-0.080
-263.238	800.000	0.043	-0.145
-262.224	-4.081	0.128	-0.089
-261.209	-41.021	-0.077	0.040
-260.195	800.000	-0.108	0.375
-259.180	-13.456	0.182	-0.119
-258.165	-156.894	-0.044	-0.003
-257.151	77.100	0.100	-0.107
-256.136	-200.000	-0.012	0.094
-255.122	-200.000	0.030	0.162
-254.107	152.665	-0.128	0.176
-253.092	-70.009	0.119	-0.045
-252.078	-109.421	0.136	-0.029
-251.063	3.285	0.266	0.194
-250.049	-200.000	-0.030	0.182
-249.034	142.054	0.015	0.020
-248.019	-200.000	0.069	-0.336
-247.005	1.964	0.350	0.253
-245.990	-117.993	-0.189	0.034
-244.976	-87.202	-0.347	0.106
-243.961	-200.000	-0.032	0.212
-242.946	-67.219	0.071	0.028
-241.932	-122.587	-0.083	-0.014
-240.917	800.000	0.083	-0.241
-239.903	800.000	0.033	-0.134
-238.888	-66.602	-0.282	-0.112
-237.873	195.794	-0.088	0.134
-236.859	-200.000	0.017	-0.330
-235.844	316.157	0.110	0.208
-234.830	115.234	0.125	0.152
-233.815	273.329	-0.074	0.132
-232.800	-77.299	-0.346	0.120
-231.786	-150.059	0.077	-0.006
-230.771	21.551	-0.114	0.093
-229.757	-47.590	-0.306	-0.149
-228.742	-200.000	0.049	0.228
-227.727	103.048	-0.139	0.163
-226.713	-27.403	0.079	0.046
-225.698	-200.000	-0.110	-0.493
-224.684	5.818	-0.277	-0.205
-223.669	453.832	-0.051	-0.113
-222.655	-118.131	-0.106	-0.019
-221.640	-200.000	0.069	0.365
-220.625	78.073	-0.065	0.070
-219.611	149.222	0.144	0.195
-218.596	-25.540	0.166	0.098
-217.582	22.671	0.134	0.109
-216.567	-111.216	0.200	-0.041
-215.552	-200.000	0.453	-0.001
-214.538	-26.871	-0.261	0.152
-213.523	15.767	0.148	0.117
-212.509	249.040	0.100	-0.169
-211.494	-200.000	0.007	0.033
-210.479	-101.538	-0.193	-0.047
-209.465	-146.035	0.226	0.020
-208.450	35.733	-0.237	-0.208
-207.436	-84.730	-0.245	-0.077
-206.421	-69.866	0.145	-0.055
-205.406	800.000	0.093	-0.288
-204.392	697.728	-0.122	0.320
-203.377	771.006	-0.063	0.172
-202.363	-3.895	-0.114	-0.079
-201.348	297.138	-0.026	-0.048
-200.333	-200.000	-0.003	-0.148
-199.319	-84.688	-0.141	-0.045
-198.304	302.901	0.050	-0.093
-197.290	-200.000	-0.018	-0.119
-196.275	70.882	0.208	-0.215
-195.260	-16.806	0.167	-0.106
-194.246	-43.640	-0.274	0.138
-193.231	800.000	0.129	0.443
-192.217	279.090	-0.111	0.198
-191.202	-57.653	0.537	-0.235
-190.187	132.580	0.176	-0.227
-189.173	264.566	0.086	0.151
-188.158	-200.000	-0.008	0.097
-187.144	-120.997	0.125	-0.021
-186.129	-117.766	-0.200	-0.036
-185.114	405.302	0.034	-0.071
-184.100	-38.907	0.166	0.087
-183.085	10.520	-0.150	0.115
-182.071	-149.417	0.084	0.007
-181.056	-200.000	0.054	-0.278
-180.042	-200.000	0.028	-0.216
-179.027	-200.000	-0.007	0.063
-178.012	280.407	0.121	-0.216
-176.998	-200.000	-0.002	0.190
-175.983	-103.014	0.174	-0.041
-174.969	480.886	0.058	-0.133
-173.954	-134.416	0.151	0.018
-172.939	-32.727	-0.036	0.020
-171.925	73.524	-0.216	-0.226
-170.910	800.000	0.111	-0.329
-169.896	-132.452	-0.193	0.025
-168.881	-200.000	0.007	-0.135
-167.866	-5.221	-0.145	-0.099
-166.852	800.000	-0.052	-0.200
-165.837	-6.260	0.131	-0.090
-164.823	800.000	-0.109	0.319
-163.808	57.305	0.091	0.089
-162.793	-43.380	0.018	-0.009
-161.779	95.711	0.165	-0.189
-160.764	-129.783	0.160	0.022
-159.750	82.283	-0.273	-0.296
-158.735	-50.866	-0.148	0.069
-157.720	-12.039	0.093	-0.061
-156.706	-101.319	0.209	0.051
-155.691	0.154	0.258	0.183
-154.677	-157.131	0.418	-0.025
-153.662	-93.915	0.157	-0.043
-152.647	800.000	0.036	-0.106
-151.633	246.514	-0.048	0.080
-150.618	291.289	-0.149	-0.270
-149.604	-14.070	0.057	-0.036
-148.589	-150.180	-0.042	0.003
-147.574	34.795	-0.033	0.029
-146.560	58.986	0.330	0.324
-145.545	-111.070	0.074	0.015
-144.531	-200.000	-0.007	0.189
-143.516	-2.617	0.301	0.210
-142.502	-32.194	-0.356	0.198
-141.487	577.809	0.107	0.262
-140.472	800.000	0.041	-0.158
-139.458	-30.713	-0.181	0.102
-138.443	-4.286	0.260	-0.179
-137.429	800.000	-0.077	0.244
-136.414	-200.000	-0.007	0.208
-135.399	119.087	-0.257	-0.317
-134.385	151.394	0.228	-0.310
-133.370	-53.085	-0.272	-0.125
-132.356	120.936	-0.051	-0.063
-131.341	800.000	-0.132	0.389
-130.326	436.653	0.202	0.439
-129.312	55.991	0.101	-0.098
-128.297	800.000	0.069	-0.192
-127.283	-55.318	0.059	0.027
-126.268	28.495	-0.158	0.133
-125.253	-115.719	0.405	-0.076
-124.239	-128.259	-0.262	-0.037
-123.224	158.454	-0.044	0.061
-122.210	126.489	0.189	0.238
-121.195	109.506	0.120	0.143
