DTS Sentinel unit serial number:	SN413079Multiplexer serial number:	ORYXHardware model number:	OX4-SRSoftware version number:	ORYX F/W v4.00 Oryx Data Collector v3.7.2.0data status	okinstallation	princeton_trtdifferential loss correction	single-endedforward channel	channel 4reverse channel	N/Adate	2019/09/13time	07:25:34forward acquisition time	60.00reverse acquisition time	0.00gamma	496.2192k internal	0.2322k external	0.2322temperature offset calibration	1.0202default loss term (dB/km)	0.3790temperature slope calibration	1.0000multiplexer offset coefficient	1.0000multiplexer slope coefficient	1.0000fibre end	0.00T internal ref (°C)	26.12T ext. ref 1 (°C)	4.19T ext. ref 2 (°C)	21.78length (m)	temperature (°C)	Stokes	anti-Stokes-747.200	-87.079	0.176	-0.054
-746.185	640.166	-0.122	0.315
-745.171	800.000	-0.077	0.238
-744.156	-200.000	-0.008	0.077
-743.142	764.284	-0.062	0.170
-742.127	92.941	0.072	-0.082
-741.112	170.134	0.159	-0.230
-740.098	169.716	-0.148	0.213
-739.083	-41.913	0.319	-0.165
-738.069	800.000	0.051	0.198
-737.054	-200.000	-0.004	-0.037
-736.039	310.662	-0.075	0.143
-735.025	800.000	-0.080	0.307
-734.010	-86.947	-0.162	-0.050
-732.996	-101.309	-0.032	-0.008
-731.981	-78.800	0.075	-0.026
-730.966	215.005	0.179	0.286
-729.952	146.482	-0.208	-0.282
-728.937	-200.000	0.004	-0.347
-727.923	-200.000	0.036	-0.218
-726.908	105.728	0.230	0.275
-725.894	-75.666	-0.497	0.178
-724.879	165.546	-0.051	0.073
-723.864	-6.710	-0.050	-0.034
-722.850	37.914	-0.031	-0.028
-721.835	261.509	0.094	-0.165
-720.821	108.553	-0.138	-0.166
-719.806	88.248	-0.135	-0.152
-718.791	-99.919	-0.122	-0.031
-717.777	170.221	-0.031	0.045
-716.762	18.624	-0.080	0.065
-715.748	653.664	-0.061	0.158
-714.733	254.800	-0.132	0.229
-713.718	-86.491	-0.366	0.113
-712.704	800.000	0.041	-0.139
-711.689	-74.898	-0.203	0.074
-710.675	156.949	0.165	0.230
-709.660	-52.732	-0.069	0.032
-708.645	-64.681	-0.203	0.083
-707.631	79.013	0.141	-0.152
-706.616	176.896	-0.340	-0.499
-705.602	191.580	0.245	-0.372
-704.587	800.000	-0.053	0.161
-703.572	-86.013	0.271	-0.084
-702.558	-124.610	0.078	-0.012
-701.543	-116.936	0.163	0.030
-700.529	-72.152	0.180	-0.068
-699.514	733.692	-0.036	0.097
-698.499	-119.691	0.181	0.032
-697.485	-4.552	-0.336	0.234
-696.470	10.203	0.252	-0.193
-695.456	38.605	-0.041	-0.037
-694.441	-81.573	-0.293	-0.097
-693.426	800.000	-0.070	0.222
-692.412	-200.000	0.024	0.148
-691.397	193.925	0.141	0.215
-690.383	414.923	0.016	-0.035
-689.368	40.480	0.149	0.136
-688.354	-200.000	-0.028	-0.126
-687.339	800.000	0.086	-0.286
-686.324	-113.202	-0.069	-0.014
-685.310	149.567	-0.143	0.195
-684.295	3.258	0.209	-0.154
-683.281	176.661	0.074	-0.108
-682.266	119.384	-0.172	0.214
-681.251	-200.000	0.016	0.230
-680.237	4.944	0.251	-0.186
-679.222	-200.000	0.020	0.098
-678.208	-200.000	-0.012	-0.150
-677.193	-200.000	-0.001	0.069
-676.178	-200.000	0.027	-0.496
-675.164	-114.307	-0.056	0.011
-674.149	182.723	0.171	0.254
-673.135	330.183	0.125	-0.242
-672.120	241.425	0.126	0.211
-671.105	-200.000	0.026	-0.192
-670.091	-99.672	0.359	-0.091
-669.076	-129.776	-0.021	-0.003
-668.062	-95.268	0.421	-0.114
-667.047	29.376	-0.139	0.119
-666.032	-122.325	0.198	-0.033
-665.018	-176.194	0.148	0.004
-664.003	274.048	-0.182	-0.325
-662.989	194.452	-0.075	0.115
-661.974	-130.656	0.171	0.023
-660.959	-200.000	0.060	0.321
-659.945	-9.914	-0.133	-0.089
-658.930	800.000	-0.050	0.155
-657.916	-38.212	-0.182	-0.097
-656.901	125.070	0.281	-0.356
-655.886	57.009	-0.163	-0.160
-654.872	179.424	0.094	-0.139
-653.857	-31.288	0.131	-0.074
-652.843	-16.080	-0.057	0.036
-651.828	94.642	-0.177	0.203
-650.814	183.500	0.137	-0.205
-649.799	-200.000	0.027	0.221
-648.784	67.928	-0.135	-0.139
-647.770	-12.194	0.089	0.059
-646.755	219.434	0.178	-0.286
-645.741	27.257	0.185	0.156
-644.726	604.247	0.115	0.288
-643.711	-72.436	-0.096	-0.036
-642.697	245.199	0.049	-0.082
-641.682	127.768	-0.145	-0.186
-640.668	25.835	0.112	-0.094
-639.653	-140.891	-0.433	-0.045
-638.638	-200.000	0.042	-0.292
-637.624	429.175	-0.053	0.115
-636.609	-200.000	0.002	0.099
-635.595	169.050	0.284	0.407
-634.580	610.185	-0.132	0.332
-633.565	408.986	0.075	0.159
-632.551	-200.000	-0.042	0.243
-631.536	-200.000	-0.025	-0.267
-630.522	79.437	-0.293	-0.316
-629.507	-112.879	-0.187	0.037
-628.492	258.698	-0.049	-0.085
-627.478	15.892	0.112	0.089
-626.463	121.715	-0.142	0.178
-625.449	54.716	0.077	0.074
-624.434	-138.147	-0.174	0.019
-623.419	37.561	0.236	-0.210
-622.405	800.000	-0.073	-0.231
-621.390	-90.566	-0.151	0.044
-620.376	-58.552	-0.240	0.105
-619.361	53.667	-0.227	-0.219
-618.346	-200.000	0.010	0.089
-617.332	33.642	-0.046	0.041
-616.317	-140.712	-0.260	0.027
-615.303	-200.000	-0.036	-0.270
-614.288	-130.440	0.187	0.025
-613.273	-46.542	0.160	-0.079
-612.259	108.217	-0.265	-0.318
-611.244	-93.033	-0.327	0.092
-610.230	-101.030	0.480	0.118
-609.215	420.735	0.076	-0.165
-608.201	-74.923	-0.112	0.041
-607.186	-25.467	-0.253	-0.150
-606.171	-76.890	0.194	-0.068
-605.157	-80.037	-0.111	-0.038
-604.142	324.213	0.211	-0.404
-603.128	56.672	0.077	0.076
-602.113	-200.000	-0.003	0.042
-601.098	712.537	-0.035	0.093
-600.084	8.970	-0.096	0.073
-599.069	324.299	0.054	0.103
-598.055	-94.374	0.259	-0.071
-597.040	165.995	-0.255	0.362
-596.025	607.353	0.104	-0.260
-595.011	-148.803	-0.194	0.016
-593.996	-44.768	-0.199	0.100
-592.982	800.000	0.125	-0.387
-591.967	-93.808	-0.235	0.065
-590.952	-90.413	0.276	-0.080
-589.938	-25.367	-0.125	0.074
-588.923	131.288	0.099	0.128
-587.909	720.399	0.146	0.389
-586.894	-3.913	-0.257	-0.179
-585.879	-200.000	-0.009	0.041
-584.865	-74.699	-0.132	0.048
-583.850	-69.251	0.339	0.131
-582.836	-20.184	-0.497	-0.308
-581.821	-24.545	-0.065	-0.039
-580.806	-121.726	-0.484	0.080
-579.792	-200.000	-0.019	-0.116
-578.777	-41.876	-0.305	-0.157
-577.763	59.282	0.024	0.024
-576.748	-157.375	-0.266	-0.016
-575.733	-104.890	0.477	-0.110
-574.719	62.157	-0.200	0.200
-573.704	-110.828	-0.203	-0.042
-572.690	333.074	0.063	-0.122
-571.675	-200.000	-0.053	0.300
-570.661	183.527	-0.093	0.138
-569.646	-110.421	-0.206	0.043
-568.631	-154.963	0.271	-0.018
-567.617	28.187	-0.284	0.241
-566.602	-67.643	-0.168	-0.066
-565.588	-200.000	-0.024	-0.110
-564.573	338.968	-0.170	-0.332
-563.558	-200.000	0.014	-0.129
-562.544	-62.145	0.127	-0.053
-561.529	146.609	-0.148	0.200
-560.515	663.289	0.047	0.120
-559.500	-5.493	0.067	0.046
-558.485	472.003	0.031	0.069
-557.471	51.718	-0.036	-0.034
-556.456	-81.974	-0.273	0.089
-555.442	-94.702	-0.059	0.016
-554.427	800.000	-0.042	0.124
-553.412	-63.379	0.142	0.059
-552.398	-26.643	0.208	0.122
-551.383	30.070	0.156	0.133
-550.369	-156.948	-0.100	0.006
-549.354	-18.201	0.149	0.093
-548.339	-151.081	-0.316	0.024
-547.325	800.000	-0.058	0.215
-546.310	102.960	0.160	-0.187
-545.296	800.000	-0.039	-0.124
-544.281	5.535	-0.335	-0.248
-543.266	-200.000	-0.022	0.124
-542.252	800.000	0.089	0.320
-541.237	-162.355	-0.130	-0.006
-540.223	-124.089	0.324	0.051
-539.208	-200.000	-0.006	-0.077
-538.193	-75.197	-0.037	-0.013
-537.179	-94.068	0.337	-0.093
-536.164	800.000	-0.067	0.276
-535.150	-73.177	0.355	0.130
-534.135	-115.726	-0.265	-0.050
-533.121	-200.000	-0.006	0.124
-532.106	-100.900	-0.325	-0.080
-531.091	-200.000	-0.008	0.240
-530.077	-95.758	-0.281	-0.075
-529.062	6.558	-0.159	0.119
-528.048	-63.845	0.069	-0.028
-527.033	-200.000	-0.004	-0.028
-526.018	40.198	-0.116	-0.104
-525.004	64.893	0.173	0.175
-523.989	-200.000	0.001	0.205
-522.975	-4.352	-0.061	-0.042
-521.960	-99.151	0.493	0.125
-520.945	164.287	-0.163	0.230
-519.931	-62.449	0.417	0.174
-518.916	436.187	-0.082	-0.178
-517.902	-200.000	-0.020	0.159
-516.887	800.000	-0.053	-0.152
-515.872	-88.590	0.202	-0.060
-514.858	800.000	0.062	-0.247
-513.843	-151.309	0.209	0.016
-512.829	-148.923	0.109	-0.009
-511.814	-107.934	-0.340	-0.074
-510.799	800.000	-0.070	0.206
-509.785	-71.628	0.099	0.037
-508.770	140.117	0.123	0.163
-507.756	800.000	0.086	0.259
-506.741	-175.981	0.165	-0.004
-505.726	57.910	-0.302	-0.296
-504.712	-200.000	-0.016	-0.185
-503.697	-104.586	-0.231	0.053
-502.683	-0.397	-0.241	0.172
-501.668	-185.448	0.354	0.005
-500.653	-27.886	-0.044	-0.026
-499.639	-200.000	0.056	-0.373
-498.624	423.236	-0.006	-0.013
-497.610	-139.816	0.156	-0.017
-496.595	297.334	0.103	0.189
-495.581	-200.000	0.004	0.191
-494.566	800.000	0.042	-0.162
-493.551	-77.222	-0.472	0.164
-492.537	-200.000	-0.006	-0.117
-491.522	152.988	0.115	0.157
-490.508	248.253	0.125	-0.212
-489.493	-1.685	0.201	-0.142
-488.478	800.000	-0.078	0.221
-487.464	-200.000	-0.019	0.321
-486.449	-20.531	0.251	0.154
-485.435	800.000	-0.061	0.179
-484.420	-115.523	0.014	0.003
-483.405	660.864	0.098	0.254
-482.391	800.000	-0.098	-0.281
-481.376	190.531	0.108	-0.163
-480.362	51.669	0.286	-0.272
-479.347	38.079	0.214	0.190
-478.332	-79.443	0.007	-0.002
-477.318	354.685	-0.052	-0.104
-476.303	647.469	0.098	0.252
-475.289	800.000	-0.151	-0.452
-474.274	-111.428	-0.468	0.095
-473.259	800.000	0.062	0.255
-472.245	-177.264	0.164	0.004
-471.230	58.543	-0.177	-0.173
-470.216	-47.642	-0.176	-0.085
-469.201	252.166	0.063	-0.108
-468.186	-200.000	-0.005	0.144
-467.172	-16.457	-0.430	0.272
-466.157	-99.604	-0.499	-0.125
-465.143	207.178	-0.133	0.208
-464.128	18.578	0.091	-0.073
-463.113	800.000	0.103	0.319
-462.099	-200.000	-0.023	-0.109
-461.084	480.841	0.056	0.126
-460.070	-17.937	0.235	0.147
-459.055	-80.549	0.176	0.059
-458.040	-56.985	-0.083	-0.037
-457.026	-30.932	-0.170	0.096
-456.011	-200.000	-0.072	0.388
-454.997	60.966	0.094	0.093
-453.982	-139.048	-0.286	-0.031
-452.968	30.512	0.200	0.170
-451.953	-138.911	0.078	0.009
-450.938	-41.014	0.460	0.237
-449.924	-172.373	-0.290	0.009
-448.909	296.602	0.091	0.167
-447.895	-17.556	0.293	-0.184
-446.880	-120.091	0.198	-0.034
-445.865	-67.456	0.414	-0.162
-444.851	375.587	-0.076	-0.155
-443.836	-72.934	-0.003	0.001
-442.822	-82.962	0.268	0.086
-441.807	-133.853	0.129	-0.016
-440.792	-200.000	0.030	0.175
-439.778	15.666	0.404	0.317
-438.763	-91.668	0.291	-0.083
-437.749	-51.151	-0.309	0.145
-436.734	-200.000	0.002	-0.243
-435.719	27.764	0.055	-0.047
-434.705	198.193	-0.176	-0.268
-433.690	-41.249	0.096	-0.050
-432.676	-62.897	-0.218	-0.090
-431.661	-200.000	0.022	-0.438
-430.646	-143.698	-0.060	0.006
-429.632	134.671	-0.010	0.013
-428.617	-51.335	-0.369	-0.172
-427.603	-173.840	-0.097	0.003
-426.588	-175.568	0.167	-0.005
-425.573	2.623	0.267	0.193
-424.559	-200.000	-0.035	-0.200
-423.544	-13.388	0.278	-0.180
-422.530	-84.948	0.232	-0.073
-421.515	-46.119	-0.363	-0.178
-420.500	-200.000	0.025	-0.111
-419.486	-190.337	0.416	-0.005
-418.471	121.106	-0.160	0.199
-417.457	104.524	0.097	0.114
-416.442	-200.000	-0.095	0.448
-415.428	44.235	-0.376	-0.344
-414.413	-159.406	-0.110	-0.006
-413.398	-73.845	-0.260	-0.094
-412.384	-66.424	0.394	-0.156
-411.369	567.314	0.036	-0.086
-410.355	-23.710	-0.118	0.071
-409.340	636.922	-0.049	0.125
-408.325	515.709	-0.096	0.224
-407.311	322.536	0.062	-0.117
-406.296	352.826	0.056	-0.111
-405.282	-110.455	-0.385	-0.080
-404.267	-21.245	0.136	0.083
-403.252	-137.901	0.089	-0.010
-402.238	232.054	-0.099	-0.163
-401.223	99.625	0.107	0.124
-400.209	169.039	0.141	-0.200
-399.194	534.647	0.059	0.140
-398.179	315.484	0.134	-0.252
-397.165	-28.142	-0.174	-0.100
-396.150	-62.459	0.320	0.133
-395.136	-129.634	0.247	-0.034
-394.121	29.269	-0.265	-0.224
-393.106	-84.406	-0.399	-0.126
-392.092	64.216	-0.076	0.076
-391.077	-200.000	-0.024	0.143
-390.063	-142.424	-0.191	0.019
-389.048	-200.000	-0.044	0.239
-388.033	-95.261	-0.128	0.034
-387.019	16.801	0.176	-0.139
-386.004	-93.742	0.101	0.028
-384.990	-200.000	-0.044	-0.316
-383.975	-200.000	-0.059	-0.458
-382.960	126.784	0.145	-0.183
-381.946	-200.000	-0.043	0.248
-380.931	113.792	0.180	-0.218
-379.917	-119.448	-0.167	0.029
-378.902	-0.084	0.100	-0.071
-377.888	-200.000	0.039	0.177
-376.873	-67.926	0.034	0.013
-375.858	221.720	0.178	-0.285
-374.844	-82.626	0.291	0.094
-373.829	800.000	-0.034	-0.132
-372.815	225.105	-0.126	-0.202
-371.800	-200.000	0.031	-0.215
-370.785	256.334	0.125	0.213
-369.771	-89.705	0.118	0.034
-368.756	-148.386	-0.128	0.010
-367.742	-200.000	0.001	-0.249
-366.727	224.877	0.124	0.200
-365.712	-71.136	0.227	-0.085
-364.698	-64.275	0.168	-0.068
-363.683	282.646	0.112	0.200
-362.669	-142.286	0.125	-0.012
-361.654	17.639	-0.170	0.134
-360.639	-0.475	0.301	0.212
-359.625	-116.513	-0.311	0.057
-358.610	-139.040	0.052	-0.006
-357.596	-200.000	0.014	0.209
-356.581	800.000	-0.049	0.139
-355.566	-59.816	0.060	0.026
-354.552	-132.030	0.068	0.009
-353.537	184.282	0.081	0.120
-352.523	20.352	-0.467	0.375
-351.508	800.000	0.049	-0.136
-350.493	-99.047	-0.102	-0.026
-349.479	287.402	0.145	-0.260
-348.464	-67.480	-0.182	0.071
-347.450	-152.411	0.422	-0.030
-346.435	29.638	0.277	-0.234
-345.420	-80.876	-0.286	0.094
-344.406	-200.000	0.022	-0.162
-343.391	192.480	-0.126	-0.189
-342.377	-200.000	-0.004	-0.068
-341.362	22.585	0.176	-0.144
-340.348	418.061	0.035	0.075
-339.333	-83.373	-0.138	0.044
-338.318	611.407	-0.122	-0.304
-337.304	-26.352	0.276	-0.161
-336.289	21.447	-0.300	-0.243
-335.275	-200.000	0.020	0.261
-334.260	-162.995	-0.230	-0.011
-333.245	-199.099	0.263	-0.001
-332.231	-200.000	-0.080	0.526
-331.216	-114.891	0.342	-0.065
-330.202	32.621	0.160	0.138
-329.187	-82.120	0.139	0.045
-328.172	45.799	-0.030	0.028
-327.158	322.921	-0.134	0.254
-326.143	-200.000	-0.017	0.206
-325.129	-61.841	-0.146	0.061
-324.114	-200.000	0.031	0.149
-323.099	82.978	-0.038	0.041
-322.085	-8.240	0.120	0.080
-321.070	-95.732	-0.235	-0.062
-320.056	-48.039	-0.104	-0.050
-319.041	113.899	0.126	-0.153
-318.026	136.405	0.244	-0.317
-317.012	-52.414	0.068	0.031
-315.997	800.000	0.007	0.021
-314.983	162.725	0.167	0.233
-313.968	800.000	0.090	-0.371
-312.953	-36.702	-0.288	0.154
-311.939	300.292	-0.067	-0.123
-310.924	800.000	-0.023	-0.071
-309.910	-97.759	-0.452	-0.116
-308.895	-35.929	-0.161	0.086
-307.880	119.075	-0.190	0.234
-306.866	151.317	0.099	-0.134
-305.851	-110.187	-0.073	-0.015
-304.837	320.200	-0.158	-0.299
-303.822	12.514	0.153	-0.117
-302.807	800.000	0.021	0.091
-301.793	-100.870	0.557	0.136
-300.778	-149.390	0.395	0.031
-299.764	-125.798	0.176	0.026
-298.749	-63.090	-0.186	-0.076
-297.735	2.233	-0.197	0.141
-296.720	-82.774	-0.070	-0.022
-295.705	800.000	0.052	-0.203
-294.691	-52.367	0.260	-0.120
-293.676	46.151	0.032	-0.030
-292.662	23.383	0.127	-0.104
-291.647	-19.038	-0.201	0.124
-290.632	-200.000	0.006	0.263
-289.618	800.000	0.089	-0.380
-288.603	-156.435	-0.410	-0.025
-287.589	136.991	-0.077	-0.100
-286.574	179.182	-0.209	-0.303
-285.559	-14.092	0.309	0.198
-284.545	546.606	-0.038	0.090
-283.530	-65.631	-0.166	0.066
-282.516	55.019	0.216	-0.207
-281.501	-15.667	-0.182	-0.115
-280.486	-27.976	0.123	0.071
-279.472	-24.672	0.301	0.177
-278.457	800.000	-0.134	-0.435
-277.443	-16.568	-0.284	-0.178
-276.428	800.000	0.033	0.131
-275.413	-56.646	0.397	0.175
-274.399	6.899	-0.226	0.167
-273.384	-129.759	0.139	0.019
-272.370	-59.824	-0.188	-0.080
-271.355	-99.080	-0.392	0.098
-270.340	26.740	-0.191	0.159
-269.326	-200.000	0.005	-0.227
-268.311	-37.281	0.079	-0.042
-267.297	141.780	0.020	-0.027
-266.282	627.560	-0.155	-0.388
-265.267	84.076	-0.068	-0.073
-264.253	-59.903	0.049	0.021
-263.238	179.702	-0.227	0.330
-262.224	-200.000	-0.023	0.378
-261.209	800.000	-0.072	0.245
-260.195	259.347	0.272	0.466
-259.180	-200.000	0.005	0.244
-258.165	115.916	0.446	0.541
-257.151	170.133	-0.140	0.198
-256.136	-133.767	0.357	0.044
-255.122	-200.000	-0.036	-0.256
-254.107	-64.144	-0.331	-0.134
-253.092	61.346	-0.150	-0.148
-252.078	-54.805	0.227	-0.102
-251.063	-131.721	0.204	-0.026
-250.049	-100.758	0.145	-0.035
-249.034	-53.835	-0.137	0.062
-248.019	241.059	0.046	-0.076
-247.005	55.064	0.076	0.073
-245.990	800.000	0.065	-0.191
-244.976	-200.000	0.016	0.223
-243.961	783.936	-0.068	-0.184
-242.946	9.080	0.283	-0.212
-241.932	-200.000	0.019	0.104
-240.917	3.442	-0.186	0.134
-239.903	574.574	-0.083	-0.201
-238.888	325.230	0.172	0.326
-237.873	759.291	-0.078	0.208
-236.859	332.153	-0.094	0.180
-235.844	-105.811	0.232	0.052
-234.830	145.838	-0.209	0.277
-233.815	800.000	0.016	-0.051
-232.800	-75.757	0.096	0.034
-231.786	-67.145	-0.297	0.116
-230.771	-41.134	0.130	0.066
-229.757	298.584	-0.047	-0.085
-228.742	-200.000	0.012	0.128
-227.727	-99.420	0.123	-0.031
-226.713	-34.106	-0.361	-0.197
-225.698	-171.193	-0.206	0.007
-224.684	111.538	0.208	-0.248
-223.669	195.874	0.164	-0.247
-222.655	652.087	-0.109	-0.277
-221.640	-94.506	0.122	0.033
-220.625	-157.074	0.148	0.009
-219.611	268.201	-0.046	0.080
-218.596	-200.000	0.004	-0.118
-217.582	-105.454	-0.100	-0.023
-216.567	-200.000	-0.058	0.372
-215.552	137.202	0.167	0.216
-214.538	-200.000	0.045	-0.232
-213.523	313.093	0.126	-0.235
-212.509	633.968	-0.146	-0.365
-211.494	-91.821	0.144	-0.040
-210.479	0.620	0.300	-0.213
-209.465	800.000	-0.016	-0.051
-208.450	-89.229	-0.229	-0.067
-207.436	31.769	0.252	0.215
-206.421	-160.823	0.135	-0.007
-205.406	711.217	0.060	-0.157
-204.392	131.910	0.050	0.064
-203.377	175.125	0.114	0.163
-202.363	-200.000	-0.008	-0.049
-201.348	-113.823	-0.096	-0.018
-200.333	144.277	0.074	0.097
-199.319	-13.275	0.107	0.069
-198.304	-26.646	-0.055	0.032
-197.290	-99.754	0.179	-0.044
-196.275	370.499	0.110	-0.220
-195.260	141.370	-0.087	0.114
-194.246	762.218	0.025	0.067
-193.231	-74.318	-0.155	0.055
-192.217	50.992	0.084	-0.079
-191.202	1.634	0.139	0.099
-190.187	-132.894	-0.139	0.018
-189.173	800.000	-0.066	0.202
-188.158	-97.432	-0.303	0.078
-187.144	202.063	0.151	-0.230
-186.129	146.376	-0.048	0.063
-185.114	-200.000	-0.062	-0.000
-184.100	-84.230	-0.265	-0.083
-183.085	46.573	-0.162	-0.149
-182.071	-54.479	-0.039	-0.017
-181.056	-200.000	0.006	-0.044
-180.042	-72.836	0.156	0.057
-179.027	212.951	0.105	-0.163
-178.012	27.582	-0.077	0.064
-176.998	343.132	0.098	-0.189
-175.983	-158.988	0.055	-0.003
-174.969	-0.224	-0.346	-0.243
-173.954	86.766	-0.173	-0.189
-172.939	-125.361	0.273	-0.041
-171.925	-11.141	0.037	0.024
-170.910	14.381	0.090	-0.069
-169.896	-52.473	0.174	0.080
-168.881	-143.363	-0.302	-0.029
-167.866	-200.000	0.048	0.212
-166.852	-69.094	0.218	-0.083
-165.837	-109.601	-0.385	0.080
-164.823	594.090	-0.037	0.090
-163.808	126.929	-0.054	-0.068
-162.793	800.000	-0.099	-0.277
-161.779	-200.000	-0.009	-0.333
-160.764	800.000	-0.030	-0.117
-159.750	172.919	0.131	0.186
-158.735	340.650	-0.081	0.156
-157.720	800.000	0.102	-0.281
-156.706	-12.363	0.038	0.025
-155.691	136.270	0.091	0.118
-154.677	800.000	0.086	0.343
-153.662	-200.000	0.027	-0.160
-152.647	11.367	0.271	-0.205
-151.633	800.000	0.021	-0.080
-150.618	-16.772	0.234	-0.146
-149.604	-200.000	0.001	-0.104
-148.589	175.744	0.210	0.301
-147.574	9.698	0.090	0.067
-146.560	800.000	0.129	0.498
-145.545	562.959	0.040	0.095
-144.531	-200.000	-0.019	0.213
-143.516	800.000	-0.053	0.175
-142.502	-131.690	-0.465	0.060
-141.487	800.000	-0.027	-0.097
-140.472	-160.872	-0.628	-0.033
-139.458	-200.000	0.053	-0.372
-138.443	-75.281	0.030	-0.011
-137.429	49.801	0.351	0.327
-136.414	94.885	0.117	-0.131
-135.399	800.000	-0.084	0.296
-134.385	-3.855	-0.164	0.112
-133.370	-200.000	0.015	0.085
-132.356	-53.670	-0.368	-0.166
-131.341	160.876	0.115	-0.158
-130.326	42.406	-0.111	-0.100
-129.312	393.854	-0.113	0.231
-128.297	-200.000	0.086	0.496
-127.283	67.037	-0.109	0.110
-126.268	13.675	0.266	0.204
-125.253	-124.256	-0.292	0.045
-124.239	216.613	0.223	-0.350
-123.224	-113.624	0.206	0.040
-122.210	-24.448	0.208	0.122
-121.195	94.899	0.062	0.070
-120.180	79.487	0.055	0.058
