DTS Sentinel unit serial number:	SN413079Multiplexer serial number:	ORYXHardware model number:	OX4-SRSoftware version number:	ORYX F/W v4.00 Oryx Data Collector v3.7.2.0data status	okinstallation	princeton_trtdifferential loss correction	single-endedforward channel	channel 4reverse channel	N/Adate	2019/09/13time	09:57:35forward acquisition time	60.00reverse acquisition time	0.00gamma	496.2192k internal	0.2310k external	0.2310temperature offset calibration	1.0191default loss term (dB/km)	0.3790temperature slope calibration	1.0000multiplexer offset coefficient	1.0000multiplexer slope coefficient	1.0000fibre end	0.00T internal ref (°C)	30.12T ext. ref 1 (°C)	4.47T ext. ref 2 (°C)	27.16length (m)	temperature (°C)	Stokes	anti-Stokes-747.200	800.000	0.047	0.135
-746.185	-75.300	-0.215	0.078
-745.171	-148.011	-0.488	-0.041
-744.156	-200.000	0.015	-0.202
-743.142	-103.726	0.155	0.037
-742.127	369.839	-0.159	0.327
-741.112	-200.000	-0.018	-0.172
-740.098	-200.000	0.040	-0.369
-739.083	-120.926	-0.425	0.073
-738.069	-200.000	0.025	0.117
-737.054	389.688	0.103	-0.218
-736.039	1.799	-0.192	-0.140
-735.025	-60.869	-0.058	-0.025
-734.010	-200.000	0.022	0.187
-732.996	-200.000	0.018	-0.150
-731.981	-124.326	-0.361	-0.057
-730.966	-62.839	-0.369	0.155
-729.952	-46.822	-0.144	-0.072
-728.937	-90.703	-0.279	0.082
-727.923	800.000	0.066	-0.231
-726.908	-60.865	-0.238	-0.102
-725.894	-200.000	0.036	0.161
-724.879	404.176	-0.053	0.114
-723.864	-142.970	0.334	0.033
-722.850	-49.953	0.185	0.089
-721.835	-79.042	-0.138	0.048
-720.821	217.406	-0.134	0.216
-719.806	-200.000	-0.007	0.258
-718.791	378.548	-0.108	0.223
-717.777	228.667	0.130	0.215
-716.762	-153.110	0.227	0.016
-715.748	114.463	0.038	0.047
-714.733	800.000	-0.046	-0.159
-713.718	252.789	0.087	-0.150
-712.704	-67.116	0.202	-0.081
-711.689	800.000	-0.074	0.244
-710.675	529.781	-0.025	0.059
-709.660	800.000	-0.048	0.159
-708.645	309.014	0.041	0.078
-707.631	86.730	0.111	0.125
-706.616	-3.567	0.110	-0.078
-705.602	497.606	0.179	0.417
-704.587	149.516	0.078	0.108
-703.572	117.090	-0.099	-0.123
-702.558	-52.240	0.155	-0.073
-701.543	-200.000	-0.006	0.105
-700.529	-31.960	0.292	-0.166
-699.514	58.853	0.279	0.278
-698.499	74.072	-0.201	-0.213
-697.485	43.890	0.185	-0.172
-696.470	-132.913	-0.353	-0.046
-695.456	-43.760	-0.072	-0.037
-694.441	-29.464	-0.094	-0.054
-693.426	-117.150	-0.053	-0.010
-692.412	-52.692	0.137	0.064
-691.397	5.333	0.063	0.047
-690.383	474.514	-0.095	-0.218
-689.368	-200.000	-0.088	-0.441
-688.354	503.664	-0.128	0.301
-687.339	504.681	0.130	0.305
-686.324	408.294	-0.063	0.135
-685.310	-85.444	0.204	0.065
-684.295	169.457	-0.190	-0.275
-683.281	-63.657	0.185	0.077
-682.266	-7.891	-0.215	-0.147
-681.251	73.972	0.201	-0.213
-680.237	-28.753	-0.253	0.148
-679.222	-19.619	0.088	0.055
-678.208	139.544	0.082	-0.109
-677.193	78.612	0.109	-0.118
-676.178	166.649	0.061	-0.088
-675.164	-185.068	0.068	0.001
-674.149	299.929	0.122	-0.227
-673.135	-10.909	0.169	-0.113
-672.120	-200.000	0.031	-0.181
-671.105	800.000	0.087	0.274
-670.091	-200.000	0.020	0.128
-669.076	57.750	0.271	0.268
-668.062	-49.718	-0.229	-0.110
-667.047	-89.162	0.324	0.097
-666.032	-95.475	0.195	0.053
-665.018	-163.211	-0.185	-0.009
-664.003	-57.299	0.158	0.070
-662.989	380.481	0.101	0.209
-661.974	-127.963	-0.425	-0.062
-660.959	-200.000	-0.036	-0.296
-659.945	800.000	0.079	-0.331
-658.930	358.634	0.032	0.064
-657.916	800.000	-0.079	0.233
-656.901	-70.514	-0.419	0.161
-655.886	-69.029	-0.445	0.174
-654.872	-8.054	0.190	-0.130
-653.857	25.708	-0.190	-0.160
-652.843	-200.000	-0.044	0.228
-651.828	-20.531	0.333	-0.207
-650.814	-169.168	-0.110	-0.004
-649.799	271.054	-0.057	-0.101
-648.784	266.063	-0.214	-0.377
-647.770	-200.000	-0.065	0.403
-646.755	174.946	-0.028	-0.041
-645.741	36.435	0.122	0.109
-644.726	-31.326	-0.109	-0.062
-643.711	-199.028	0.162	-0.001
-642.697	-200.000	0.008	0.085
-641.682	-127.526	0.271	0.040
-640.668	388.248	-0.074	-0.154
-639.653	-132.837	0.099	0.013
-638.638	800.000	0.021	-0.085
-637.624	48.011	-0.142	0.134
-636.609	-200.000	0.013	0.290
-635.595	-2.862	0.138	0.098
-634.580	52.242	0.181	0.174
-633.565	-40.054	-0.231	0.122
-632.551	158.670	-0.238	-0.334
-631.536	-65.180	0.211	0.086
-630.522	580.984	0.048	0.120
-629.507	-90.970	0.109	-0.032
-628.492	-28.193	-0.212	0.124
-627.478	647.564	0.071	0.182
-626.463	331.906	0.148	0.289
-625.449	-102.233	-0.139	-0.034
-624.434	-200.000	-0.004	0.258
-623.419	-105.361	0.286	0.066
-622.405	440.565	0.089	-0.197
-621.390	636.858	-0.062	-0.158
-620.376	73.225	0.136	0.144
-619.361	800.000	0.026	0.102
-618.346	42.970	-0.179	-0.165
-617.332	79.406	-0.100	-0.109
-616.317	-14.874	0.146	-0.095
-615.303	10.302	-0.156	-0.120
-614.288	-91.778	-0.169	-0.048
-613.273	800.000	-0.131	-0.410
-612.259	-101.860	0.405	-0.099
-611.244	-200.000	-0.001	0.065
-610.230	8.499	0.094	0.071
-609.215	-200.000	0.007	-0.181
-608.201	-16.960	0.158	-0.101
-607.186	431.227	-0.159	-0.349
-606.171	-48.250	-0.319	0.156
-605.157	182.026	-0.080	-0.120
-604.142	-200.000	0.002	-0.021
-603.128	-114.126	-0.417	-0.081
-602.113	264.865	0.081	0.142
-601.098	800.000	0.037	-0.144
-600.084	122.638	0.077	-0.098
-599.069	800.000	0.046	-0.131
-598.055	-77.286	-0.117	0.041
-597.040	452.537	-0.071	-0.159
-596.025	299.946	-0.086	0.160
-595.011	-152.058	0.256	0.019
-593.996	-100.158	0.342	0.086
-592.982	-46.517	0.232	-0.115
-591.967	181.741	-0.203	0.301
-590.952	-200.000	-0.018	0.187
-589.938	341.616	-0.115	-0.227
-588.923	396.530	-0.061	0.128
-587.909	220.361	0.084	0.135
-586.894	-93.981	-0.290	-0.080
-585.879	800.000	-0.092	0.296
-584.865	29.444	0.192	-0.164
-583.850	110.048	0.178	0.215
-582.836	64.331	0.131	0.133
-581.821	-113.417	-0.290	-0.057
-580.806	-23.457	-0.126	-0.076
-579.792	176.004	-0.194	0.284
-578.777	76.421	-0.138	0.148
-577.763	-18.834	0.443	-0.278
-576.748	-200.000	-0.011	0.183
-575.733	-200.000	-0.005	-0.101
-574.719	-57.699	-0.134	0.059
-573.704	748.945	-0.057	0.155
-572.690	20.137	-0.047	0.039
-571.675	-92.416	0.261	-0.074
-570.661	-75.660	-0.420	0.150
-569.646	2.256	-0.187	0.137
-568.631	149.368	0.015	0.020
-567.617	-40.489	-0.092	0.048
-566.602	249.218	0.121	0.207
-565.588	-200.000	0.104	0.000
-564.573	-68.973	0.206	0.080
-563.558	783.983	-0.051	0.141
-562.544	400.521	0.244	-0.516
-561.529	-200.000	0.077	0.000
-560.515	-200.000	0.069	-0.406
-559.500	-51.731	-0.220	-0.104
-558.485	800.000	0.010	0.043
-557.471	-42.063	0.226	0.117
-556.456	800.000	-0.057	-0.177
-555.442	-142.775	-0.298	-0.029
-554.427	-151.337	-0.237	-0.018
-553.412	-47.122	-0.247	-0.122
-552.398	33.662	-0.070	0.061
-551.383	-26.573	-0.387	-0.228
-550.369	-132.587	0.146	0.019
-549.354	665.852	0.119	-0.311
-548.339	-14.030	0.180	-0.117
-547.325	146.024	-0.060	-0.081
-546.310	-173.757	-0.341	-0.010
-545.296	510.231	-0.060	-0.141
-544.281	194.841	0.241	-0.369
-543.266	10.026	-0.120	-0.092
-542.252	126.163	0.168	-0.215
-541.237	800.000	-0.079	-0.257
-540.223	-76.593	0.084	-0.030
-539.208	-105.931	-0.375	0.085
-538.193	-113.801	0.134	-0.026
-537.179	19.160	0.152	-0.123
-536.164	-106.163	-0.167	-0.038
-535.150	-59.648	0.142	0.061
-534.135	38.666	0.102	0.092
-533.121	133.875	-0.062	-0.081
-532.106	-200.000	-0.052	0.345
-531.091	272.509	-0.125	0.222
-530.077	-7.734	0.104	0.071
-529.062	-56.562	-0.071	0.032
-528.048	124.897	0.245	0.311
-527.033	-76.915	-0.288	0.101
-526.018	56.844	-0.173	0.170
-525.004	346.142	-0.186	0.369
-523.989	82.786	0.104	-0.114
-522.975	470.884	-0.138	-0.313
-521.960	-162.075	-0.357	-0.018
-520.945	17.316	-0.059	0.047
-519.931	-200.000	0.000	0.171
-518.916	19.865	-0.243	-0.197
-517.902	800.000	-0.032	-0.105
-516.887	541.801	-0.080	-0.192
-515.872	-200.000	-0.003	-0.042
-514.858	-23.052	-0.312	0.189
-513.843	-200.000	-0.003	0.051
-512.829	-108.413	-0.093	0.020
-511.814	-103.005	-0.322	-0.077
-510.799	-80.394	-0.201	-0.068
-509.785	-99.006	-0.105	0.027
-508.770	-200.000	0.044	0.388
-507.756	-41.264	-0.160	0.083
-506.741	20.279	0.250	0.203
-505.726	-76.372	-0.256	-0.091
-504.712	467.060	-0.079	-0.179
-503.697	-46.897	-0.139	-0.068
-502.683	202.804	0.044	-0.069
-501.668	113.028	0.096	-0.117
-500.653	-51.536	0.279	0.131
-499.639	-62.326	0.285	0.119
-498.624	22.490	-0.169	0.139
-497.610	-26.312	0.282	0.166
-496.595	793.559	-0.063	-0.175
-495.581	-99.639	0.174	-0.044
-494.566	-144.800	-0.512	-0.047
-493.551	417.200	0.077	-0.166
-492.537	74.977	-0.147	0.156
-491.522	-89.897	-0.281	0.082
-490.508	-81.696	-0.102	-0.034
-489.493	213.729	-0.174	-0.276
-488.478	-139.018	0.196	0.021
-487.464	-112.177	0.295	-0.060
-486.449	-107.780	-0.254	-0.056
-485.435	-83.033	0.103	-0.033
-484.420	653.697	0.010	-0.026
-483.405	-120.194	-0.191	-0.033
-482.391	-69.479	0.275	0.106
-481.376	-53.962	0.149	0.068
-480.362	800.000	0.063	0.175
-479.347	-6.981	-0.066	0.045
-478.332	-135.182	0.321	-0.039
-477.318	16.001	-0.162	-0.128
-476.303	62.584	-0.050	-0.050
-475.289	800.000	-0.078	-0.292
-474.274	-200.000	-0.036	0.411
-473.259	-31.422	-0.105	-0.059
-472.245	-84.232	-0.306	0.098
-471.230	-8.874	0.366	-0.246
-470.216	-91.227	0.097	-0.028
-469.201	-104.337	-0.107	-0.025
-468.186	57.942	-0.090	0.088
-467.172	2.251	-0.121	-0.088
-466.157	95.006	0.089	-0.102
-465.143	7.493	0.203	0.152
-464.128	34.022	-0.240	0.210
-463.113	-112.033	0.352	0.071
-462.099	800.000	0.057	-0.179
-461.084	-200.000	0.099	-0.549
-460.070	373.983	-0.078	-0.159
-459.055	-84.849	0.238	-0.075
-458.040	-19.142	0.095	-0.059
-457.026	-115.430	-0.482	-0.091
-456.011	594.061	-0.060	-0.148
-454.997	-162.138	0.253	0.013
-453.982	-200.000	0.001	-0.070
-452.968	76.510	-0.202	0.215
-451.953	-68.948	-0.070	-0.027
-450.938	18.133	-0.340	-0.273
-449.924	-200.000	-0.001	-0.139
-448.909	-0.091	-0.205	-0.146
-447.895	277.022	0.097	0.174
-446.880	-134.057	0.076	0.009
-445.865	-58.780	0.198	0.086
-444.851	-21.520	0.250	0.153
-443.836	-119.004	0.128	-0.022
-442.822	546.620	-0.083	0.199
-441.807	425.321	0.029	-0.062
-440.792	576.900	-0.084	-0.205
-439.778	-78.953	-0.172	0.059
-438.763	598.353	0.113	-0.282
-437.749	43.716	-0.065	-0.059
-436.734	14.244	-0.140	-0.110
-435.719	800.000	-0.112	0.334
-434.705	3.624	0.090	-0.066
-433.690	800.000	-0.031	-0.086
-432.676	-76.989	-0.237	-0.083
-431.661	800.000	-0.023	0.066
-430.646	-6.209	0.145	0.099
-429.632	-200.000	-0.031	-0.254
-428.617	279.020	0.149	0.267
-427.603	800.000	0.063	-0.202
-426.588	-200.000	0.026	0.118
-425.573	251.615	-0.131	0.224
-424.559	139.903	0.178	0.236
-423.544	-200.000	0.045	0.317
-422.530	607.474	-0.052	-0.131
-421.515	-60.268	-0.433	-0.185
-420.500	-130.045	0.243	0.033
-419.486	-169.117	-0.116	0.004
-418.471	800.000	0.017	-0.055
-417.457	83.875	0.206	-0.225
-416.442	-69.809	-0.187	0.072
-415.428	145.848	-0.198	-0.266
-414.413	-72.650	-0.192	-0.071
-413.398	-200.000	-0.027	0.312
-412.384	800.000	0.096	0.333
-411.369	102.370	0.221	-0.259
-410.355	178.930	-0.112	-0.165
-409.340	-137.374	-0.139	0.016
-408.325	800.000	-0.022	0.063
-407.311	-88.787	0.132	-0.039
-406.296	800.000	-0.044	-0.123
-405.282	-200.000	-0.009	0.263
-404.267	-200.000	-0.029	0.308
-403.252	-119.037	-0.116	-0.020
-402.238	-4.562	-0.365	-0.253
-401.223	-91.305	0.114	0.033
-400.209	-42.677	0.349	0.178
-399.194	111.480	0.082	-0.099
-398.179	-93.115	0.402	0.112
-397.165	-200.000	0.170	-0.000
-396.150	-200.000	-0.012	0.072
-395.136	-33.003	0.392	0.218
-394.121	-200.000	-0.005	0.217
-393.106	796.921	-0.186	-0.515
-392.092	-88.308	0.125	0.038
-391.077	483.617	0.045	-0.102
-390.063	-200.000	-0.031	-0.172
-389.048	31.943	-0.116	-0.100
-388.033	-102.529	-0.223	0.053
-387.019	-187.199	0.269	-0.004
-386.004	168.788	-0.047	0.068
-384.990	-156.485	0.154	-0.010
-383.975	35.006	-0.229	0.201
-382.960	-40.896	-0.124	-0.064
-381.946	-0.483	0.229	0.162
-380.931	-200.000	0.022	0.104
-379.917	-200.000	-0.043	0.422
-378.902	110.267	0.143	-0.173
-377.888	48.474	0.161	0.151
-376.873	737.644	-0.058	-0.155
-375.858	571.902	0.155	0.378
-374.844	-15.939	0.345	-0.220
-373.829	-50.813	0.232	0.109
-372.815	-125.657	0.258	-0.039
-371.800	-200.000	-0.028	0.240
-370.785	-90.197	0.138	0.040
-369.771	-48.313	-0.222	-0.107
-368.756	-40.496	0.162	0.084
-367.742	162.779	0.092	-0.129
-366.727	-200.000	0.013	0.124
-365.712	295.079	-0.055	0.101
-364.698	-200.000	0.041	0.182
-363.683	308.963	0.183	-0.342
-362.669	800.000	-0.110	0.314
-361.654	-200.000	0.013	0.300
-360.639	-68.769	-0.076	0.030
-359.625	-126.011	-0.089	-0.013
-358.610	324.309	0.121	0.231
-357.596	-159.503	0.293	0.016
-356.581	-71.709	-0.266	0.099
-355.566	-200.000	-0.042	-0.261
-354.552	363.912	-0.142	0.286
-353.537	634.044	-0.027	-0.067
-352.523	113.723	0.165	0.200
-351.508	386.464	0.054	-0.112
-350.493	-18.023	-0.257	0.161
-349.479	-79.812	-0.226	-0.076
-348.464	87.149	0.080	-0.089
-347.450	-151.077	-0.024	-0.002
-346.435	-153.323	0.355	-0.025
-345.420	800.000	-0.068	0.275
-344.406	122.598	-0.209	-0.261
-343.391	-180.747	-0.407	-0.008
-342.377	-200.000	-0.021	-0.137
-341.362	-62.402	0.078	-0.032
-340.348	-15.639	0.128	-0.082
-339.333	800.000	-0.010	0.034
-338.318	-27.545	0.384	0.223
-337.304	-113.234	-0.328	0.064
-336.289	242.834	-0.031	0.051
-335.275	590.811	-0.022	0.054
-334.260	-200.000	0.013	-0.281
-333.245	-200.000	0.027	0.193
-332.231	401.009	0.200	0.420
-331.216	-128.844	-0.341	-0.048
-330.202	-200.000	0.001	0.113
-329.187	-68.819	-0.114	0.044
-328.172	-130.764	0.426	0.057
-327.158	-14.831	0.121	-0.078
-326.143	-24.935	0.226	-0.134
-325.129	112.805	-0.109	0.132
-324.114	-139.671	-0.272	0.029
-323.099	-8.635	-0.077	-0.051
-322.085	18.974	0.267	0.214
-321.070	-200.000	-0.002	-0.084
-320.056	800.000	0.115	-0.437
-319.041	137.939	-0.094	-0.123
-318.026	-119.428	0.243	0.042
-317.012	-111.850	0.308	-0.062
-315.997	-101.268	0.317	-0.077
-314.983	155.924	-0.075	-0.103
-313.968	-200.000	-0.004	-0.021
-312.953	298.664	0.099	0.183
-311.939	-43.957	0.099	-0.050
-310.924	-64.904	0.163	-0.066
-309.910	-76.417	-0.176	0.062
-308.895	-94.986	-0.085	0.023
-307.880	78.899	-0.151	0.162
-306.866	-60.117	-0.298	-0.127
-305.851	128.936	0.253	-0.322
-304.837	-48.282	0.110	-0.053
-303.822	800.000	-0.066	-0.232
-302.807	-200.000	-0.129	0.578
-301.793	139.951	0.241	-0.317
-300.778	-3.182	0.216	-0.150
-299.764	800.000	0.022	-0.065
-298.749	-28.667	0.242	-0.139
-297.735	-73.207	0.275	0.100
-296.720	389.272	0.057	-0.117
-295.705	137.427	0.248	0.323
-294.691	-104.668	-0.226	-0.052
-293.676	-65.936	-0.301	-0.120
-292.662	-91.476	-0.130	-0.037
-291.647	17.987	0.057	-0.045
-290.632	344.067	-0.249	0.486
-289.618	800.000	-0.050	-0.146
-288.603	-161.458	-0.208	0.011
-287.589	800.000	-0.071	0.263
-286.574	800.000	0.094	-0.347
-285.559	190.267	0.144	0.215
-284.545	-200.000	-0.000	0.064
-283.530	40.662	-0.057	0.051
-282.516	-158.340	-0.102	-0.006
-281.501	256.931	-0.239	0.409
-280.486	-200.000	0.045	-0.250
-279.472	130.848	0.111	-0.142
-278.457	-200.000	0.020	0.229
-277.443	716.125	0.167	-0.442
-276.428	291.130	-0.025	0.046
-275.413	-12.278	0.164	-0.107
-274.399	-53.160	0.221	-0.101
-273.384	-57.960	-0.285	0.124
-272.370	64.838	0.174	-0.175
-271.355	18.570	0.125	0.100
-270.340	198.594	-0.040	-0.060
-269.326	-200.000	0.001	0.281
-268.311	-26.121	-0.216	0.127
-267.297	409.972	-0.012	-0.026
-266.282	503.056	-0.079	-0.182
-265.267	328.560	0.097	-0.185
-264.253	-200.000	-0.014	0.112
-263.238	-165.903	0.422	-0.018
-262.224	-28.624	0.252	0.145
-261.209	39.271	-0.126	-0.112
-260.195	-200.000	0.048	0.339
-259.180	44.362	-0.440	-0.403
-258.165	-94.943	-0.290	0.078
-257.151	-200.000	-0.019	-0.282
-256.136	105.043	0.298	0.350
-255.122	-200.000	-0.022	0.146
-254.107	-52.540	-0.244	-0.113
-253.092	-75.617	-0.137	0.049
-252.078	800.000	-0.053	0.225
-251.063	800.000	-0.074	0.227
-250.049	-40.657	0.119	-0.061
-249.034	58.725	0.107	0.105
-248.019	-21.354	0.210	-0.128
-247.005	-200.000	0.028	-0.435
-245.990	-41.662	-0.061	-0.031
-244.976	-66.822	-0.225	0.089
-243.961	-0.108	0.023	0.016
-242.946	-40.184	0.251	0.130
-241.932	-182.886	-0.365	-0.007
-240.917	-77.300	-0.354	-0.123
-239.903	162.276	0.124	0.174
-238.888	-7.268	-0.328	-0.221
-237.873	181.006	-0.305	0.446
-236.859	-173.959	0.125	-0.004
-235.844	314.659	0.042	-0.079
-234.830	-200.000	0.027	0.170
-233.815	-45.485	-0.170	0.084
-232.800	-200.000	-0.045	-0.212
-231.786	129.393	-0.185	-0.235
-230.771	35.582	-0.285	0.249
-229.757	294.909	-0.032	0.058
-228.742	168.109	0.073	-0.103
-227.727	303.547	-0.083	0.153
-226.713	235.584	-0.068	-0.112
-225.698	276.151	0.173	0.305
-224.684	368.695	0.079	0.159
-223.669	-200.000	-0.011	-0.271
-222.655	-200.000	-0.034	0.291
-221.640	-40.229	0.221	-0.114
-220.625	27.310	-0.151	0.126
-219.611	-200.000	-0.077	-0.409
-218.596	15.798	0.392	-0.307
-217.582	-200.000	0.040	0.218
-216.567	-65.812	0.144	0.057
-215.552	-164.105	0.106	-0.005
-214.538	-200.000	-0.012	0.106
-213.523	-200.000	-0.019	0.210
-212.509	-145.855	-0.156	-0.014
-211.494	-200.000	-0.001	0.060
-210.479	800.000	0.080	0.249
-209.465	-119.594	0.219	-0.038
-208.450	-200.000	0.079	-0.358
-207.436	-200.000	-0.013	-0.153
-206.421	800.000	0.135	-0.555
-205.406	-65.027	0.113	0.045
-204.392	-176.933	-0.584	-0.015
-203.377	29.423	0.199	-0.168
-202.363	-111.454	-0.317	-0.064
-201.348	519.574	0.135	-0.315
-200.333	-105.933	0.325	-0.073
-199.319	148.586	-0.139	-0.186
-198.304	340.978	-0.045	-0.088
-197.290	-64.497	-0.048	0.019
-196.275	-200.000	-0.052	0.277
-195.260	-10.996	-0.257	-0.168
-194.246	800.000	0.143	0.438
-193.231	-114.247	-0.186	-0.036
-192.217	61.365	0.265	0.262
-191.202	-12.502	0.112	-0.072
-190.187	511.870	0.060	-0.139
-189.173	-59.299	0.385	-0.165
-188.158	10.983	-0.092	0.070
-187.144	-66.584	0.383	0.151
-186.129	-200.000	0.000	0.054
-185.114	800.000	0.095	-0.285
-184.100	77.969	-0.158	-0.168
-183.085	-200.000	0.010	0.100
-182.071	321.813	-0.101	0.190
-181.056	553.749	0.093	0.221
-180.042	84.561	-0.240	-0.261
-179.027	-71.667	-0.262	0.097
-178.012	-171.861	0.209	-0.007
-176.998	60.017	-0.155	-0.153
-175.983	-121.861	0.191	-0.031
-174.969	-200.000	-0.052	0.303
-173.954	-143.636	0.174	-0.016
-172.939	-95.800	0.087	0.023
-171.925	140.385	-0.062	0.081
-170.910	626.158	-0.135	-0.339
-169.896	-69.292	0.208	-0.079
-168.881	800.000	0.048	-0.150
-167.866	-11.755	0.241	-0.157
-166.852	250.060	0.085	0.144
-165.837	692.839	0.083	-0.217
-164.823	509.740	0.092	-0.213
-163.808	-180.018	-0.089	-0.002
-162.793	-200.000	-0.013	-0.077
-161.779	800.000	0.049	0.145
-160.764	160.195	0.112	-0.155
-159.750	-89.059	-0.047	-0.014
-158.735	-200.000	-0.031	0.251
-157.720	346.407	0.102	-0.199
-156.706	-173.341	0.339	-0.010
-155.691	-113.200	0.157	-0.031
-154.677	-200.000	0.002	0.096
-153.662	-19.144	0.047	0.029
-152.647	254.152	0.173	0.293
-151.633	94.192	-0.119	0.134
-150.618	80.489	0.096	-0.102
-149.604	-89.602	0.211	0.061
-148.589	-200.000	-0.030	-0.354
-147.574	800.000	-0.034	-0.144
-146.560	-200.000	0.033	0.154
-145.545	-42.734	-0.054	0.027
-144.531	341.796	-0.046	0.090
-143.516	-58.146	0.371	-0.160
-142.502	-85.533	0.161	0.050
-141.487	-33.405	-0.110	0.061
-140.472	-57.755	0.115	-0.050
-139.458	-200.000	0.043	-0.280
-138.443	-200.000	0.009	-0.059
-137.429	412.318	-0.120	0.253
-136.414	59.138	0.177	0.173
-135.399	-21.758	-0.070	0.042
-134.385	253.238	0.129	0.218
-133.370	-200.000	0.040	-0.270
-132.356	57.273	-0.231	0.224
-131.341	286.945	0.209	-0.375
-130.326	-113.749	0.246	-0.048
-129.312	-200.000	-0.027	-0.327
-128.297	389.552	-0.074	0.152
-127.283	-43.051	0.214	0.108
-126.268	-83.610	0.224	0.071
-125.253	61.952	-0.019	-0.018
-124.239	105.193	0.201	0.235
-123.224	189.328	0.110	-0.164
-122.210	-83.320	-0.299	0.095
