DTS Sentinel unit serial number:	SN413079Multiplexer serial number:	ORYXHardware model number:	OX4-SRSoftware version number:	ORYX F/W v4.00 Oryx Data Collector v3.7.2.0data status	okinstallation	princeton_trtdifferential loss correction	single-endedforward channel	channel 4reverse channel	N/Adate	2019/09/11time	15:15:11forward acquisition time	60.00reverse acquisition time	0.00gamma	496.2192k internal	0.2278k external	0.2278temperature offset calibration	1.0014default loss term (dB/km)	0.3790temperature slope calibration	1.0000multiplexer offset coefficient	1.0000multiplexer slope coefficient	1.0000fibre end	0.00T internal ref (°C)	42.95T ext. ref 1 (°C)	0.98T ext. ref 2 (°C)	36.43length (m)	temperature (°C)	Stokes	anti-Stokes-747.200	54.785	-0.173	0.172
-746.185	5.092	-0.148	0.112
-745.171	800.000	-0.093	-0.292
-744.156	636.999	0.114	0.299
-743.142	-200.000	-0.036	0.203
-742.127	604.281	0.123	0.316
-741.112	-118.370	0.427	0.078
-740.098	-168.380	0.204	-0.008
-739.083	-65.733	-0.288	-0.119
-738.069	-114.707	0.062	0.012
-737.054	-48.415	-0.384	0.190
-736.039	-122.876	-0.496	0.082
-735.025	-22.328	0.086	0.054
-734.010	-118.598	0.400	-0.073
-732.996	58.541	-0.381	0.385
-731.981	7.331	-0.323	-0.248
-730.966	800.000	-0.014	-0.042
-729.952	52.771	-0.128	0.126
-728.937	160.479	0.183	-0.263
-727.923	-6.050	0.083	0.058
-726.908	-3.820	-0.167	0.119
-725.894	5.301	-0.081	-0.061
-724.879	-10.357	-0.224	0.153
-723.864	-128.374	0.129	-0.019
-722.850	-27.170	0.060	0.036
-721.835	-157.731	-0.280	-0.017
-720.821	-29.982	0.306	0.179
-719.806	205.333	0.074	-0.119
-718.791	-200.000	0.020	0.148
-717.777	-200.000	-0.038	-0.216
-716.762	-200.000	-0.031	-0.307
-715.748	67.702	-0.093	-0.098
-714.733	-77.092	-0.413	-0.148
-713.718	292.251	0.038	-0.072
-712.704	-167.922	0.336	0.014
-711.689	-157.222	-0.120	-0.007
-710.675	129.515	0.121	0.158
-709.660	55.967	0.130	-0.130
-708.645	-153.586	0.243	0.017
-707.631	532.923	-0.106	-0.258
-706.616	-123.907	0.167	0.027
-705.602	262.091	-0.111	0.197
-704.587	171.239	-0.143	0.211
-703.572	800.000	0.027	0.093
-702.558	549.863	-0.193	-0.477
-701.543	-29.338	0.082	0.048
-700.529	-40.774	-0.171	-0.091
-699.514	-154.944	0.169	0.011
-698.499	-136.777	-0.425	0.050
-697.485	-68.398	-0.287	-0.115
-696.470	-154.203	0.337	-0.023
-695.456	-89.184	-0.315	-0.096
-694.441	-131.847	0.499	0.067
-693.426	-179.711	0.302	0.007
-692.412	-103.498	-0.259	0.063
-691.397	184.993	0.210	-0.321
-690.383	-200.000	0.036	-0.194
-689.368	298.672	-0.053	0.101
-688.354	-200.000	0.024	0.142
-687.339	-28.904	-0.322	0.190
-686.324	800.000	-0.042	0.148
-685.310	-200.000	-0.057	0.335
-684.295	-56.953	0.211	-0.096
-683.281	-200.000	0.032	-0.316
-682.266	-143.510	-0.301	-0.030
-681.251	-183.971	-0.064	0.001
-680.237	800.000	-0.153	-0.507
-679.222	-200.000	-0.044	0.328
-678.208	-200.000	-0.014	-0.113
-677.193	-103.619	-0.165	-0.040
-676.178	-79.796	-0.160	-0.055
-675.164	-200.000	0.012	-0.250
-674.149	228.300	0.064	0.108
-673.135	47.905	-0.254	0.244
-672.120	-125.530	0.191	-0.030
-671.105	-103.179	-0.283	-0.069
-670.091	-53.782	0.053	0.025
-669.076	0.992	-0.093	0.068
-668.062	800.000	0.062	0.184
-667.047	63.982	0.100	0.103
-666.032	-20.866	-0.219	0.138
-665.018	20.504	0.098	-0.081
-664.003	-77.113	0.302	0.108
-662.989	-200.000	0.017	0.107
-661.974	-130.179	0.251	-0.035
-660.959	-50.366	-0.360	0.175
-659.945	-115.816	0.404	0.078
-658.930	52.049	-0.225	-0.220
-657.916	297.468	-0.070	-0.132
-656.901	39.731	0.232	0.214
-655.886	535.416	-0.102	0.248
-654.872	-122.756	0.274	0.046
-653.857	-117.271	-0.105	0.020
-652.843	67.910	-0.201	0.211
-651.828	211.532	0.172	-0.278
-650.814	-58.863	-0.278	-0.123
-649.799	93.531	0.240	-0.279
-648.784	800.000	0.064	0.233
-647.770	403.316	-0.109	0.235
-646.755	-112.431	-0.098	0.020
-645.741	223.123	-0.133	-0.220
-644.726	46.041	-0.255	-0.242
-643.711	707.974	0.116	0.315
-642.697	-173.175	0.446	-0.014
-641.682	-200.000	0.032	0.315
-640.668	-75.648	0.402	-0.146
-639.653	-49.060	0.263	0.129
-638.638	271.954	0.027	0.049
-637.624	219.113	0.303	-0.497
-636.609	-29.628	-0.039	0.023
-635.595	800.000	-0.017	0.072
-634.580	800.000	-0.050	0.151
-633.565	-200.000	0.017	0.335
-632.551	-200.000	0.025	-0.118
-631.536	348.526	-0.038	0.077
-630.522	800.000	-0.106	-0.330
-629.507	800.000	-0.057	0.202
-628.492	-141.408	-0.189	0.020
-627.478	-34.670	0.307	0.172
-626.463	-95.591	-0.163	-0.045
-625.449	-168.495	-0.065	-0.003
-624.434	17.373	-0.197	-0.160
-623.419	-200.000	-0.007	-0.032
-622.405	800.000	-0.031	-0.091
-621.390	800.000	-0.073	0.322
-620.376	-14.062	-0.170	-0.112
-619.361	800.000	0.016	0.064
-618.346	4.752	-0.206	0.155
-617.332	110.540	0.071	-0.088
-616.317	13.456	-0.176	-0.140
-615.303	8.191	0.161	0.124
-614.288	-200.000	0.063	0.396
-613.273	446.917	-0.205	0.463
-612.259	-200.000	-0.013	-0.072
-611.244	-200.000	0.063	-0.297
-610.230	322.786	-0.096	-0.188
-609.215	143.345	0.222	-0.303
-608.201	-66.301	-0.055	-0.023
-607.186	-80.144	-0.196	-0.067
-606.171	-200.000	0.003	-0.168
-605.157	64.422	-0.090	-0.093
-604.142	16.609	0.094	-0.076
-603.128	-16.008	0.101	0.066
-602.113	-74.230	0.197	0.073
-601.098	-180.590	-0.398	0.008
-600.084	-149.482	-0.308	-0.025
-599.069	-200.000	-0.018	-0.395
-598.055	-200.000	0.075	0.337
-597.040	131.598	-0.106	0.139
-596.025	-82.794	-0.230	0.076
-595.011	800.000	-0.016	0.061
-593.996	1.986	-0.162	-0.120
-592.982	-76.569	-0.084	0.030
-591.967	667.271	-0.056	-0.149
-590.952	351.744	0.074	0.150
-589.938	-87.810	-0.293	-0.090
-588.923	-121.173	-0.065	0.011
-587.909	339.392	-0.148	-0.295
-586.894	-64.963	0.165	-0.068
-585.879	800.000	-0.080	0.274
-584.865	28.028	-0.218	0.188
-583.850	173.552	-0.123	-0.181
-582.836	-45.480	-0.056	0.029
-581.821	-137.304	-0.114	0.013
-580.806	11.068	-0.121	0.095
-579.792	-200.000	0.002	-0.180
-578.777	-93.167	0.192	0.055
-577.763	-67.456	-0.254	-0.102
-576.748	786.733	-0.012	0.033
-575.733	202.328	0.110	-0.173
-574.719	262.593	-0.119	0.211
-573.704	-20.118	-0.168	0.106
-572.690	-200.000	-0.016	-0.203
-571.675	444.558	0.059	-0.132
-570.661	-69.133	-0.330	0.130
-569.646	121.904	0.285	-0.363
-568.631	-57.135	0.239	0.108
-567.617	-200.000	-0.010	0.152
-566.602	-200.000	-0.018	-0.123
-565.588	44.112	-0.109	-0.102
-564.573	-84.114	-0.231	-0.075
-563.558	89.825	0.205	0.235
-562.544	-200.000	0.006	0.120
-561.529	-6.247	-0.285	-0.199
-560.515	88.585	0.117	-0.132
-559.500	-200.000	0.008	-0.086
-558.485	-88.567	0.285	-0.087
-557.471	-159.234	-0.092	-0.005
-556.456	348.017	0.066	0.133
-555.442	311.822	-0.076	0.146
-554.427	310.167	-0.076	-0.145
-553.412	-200.000	0.001	-0.438
-552.398	161.426	-0.227	-0.324
-551.383	236.663	-0.069	0.117
-550.369	140.712	0.244	-0.329
-549.354	-145.131	-0.106	-0.010
-548.339	-200.000	0.010	0.074
-547.325	325.605	-0.142	0.278
-546.310	-57.252	0.185	0.083
-545.296	-110.893	-0.042	-0.009
-544.281	-98.491	-0.053	-0.014
-543.266	-86.700	0.200	0.062
-542.252	90.472	-0.106	0.121
-541.237	503.687	0.109	-0.258
-540.223	-138.134	0.177	0.020
-539.208	-138.708	0.228	-0.025
-538.193	44.270	-0.148	-0.139
-537.179	519.523	0.046	0.110
-536.164	231.414	0.156	0.261
-535.150	107.941	-0.193	-0.235
-534.135	315.569	-0.040	-0.076
-533.121	-131.457	0.258	0.035
-532.106	-67.446	0.197	-0.079
-531.091	-109.830	0.217	-0.046
-530.077	-200.000	-0.011	0.163
-529.062	-106.999	0.162	-0.037
-528.048	800.000	-0.007	0.027
-527.033	227.865	0.108	0.180
-526.018	20.539	-0.318	0.263
-525.004	129.995	0.240	-0.314
-523.989	-114.906	-0.563	0.109
-522.975	-28.477	-0.120	-0.071
-521.960	297.896	-0.113	0.211
-520.945	21.924	0.192	-0.160
-519.931	-134.041	0.208	-0.026
-518.916	-197.794	-0.369	0.002
-517.902	-200.000	0.033	-0.164
-516.887	48.711	0.066	-0.063
-515.872	-103.960	0.212	0.051
-514.858	-200.000	-0.020	-0.286
-513.843	462.690	-0.037	0.083
-512.829	-200.000	-0.036	0.163
-511.814	-200.000	-0.012	-0.313
-510.799	17.159	-0.078	-0.063
-509.785	-116.048	-0.305	0.058
-508.770	800.000	0.093	0.308
-507.756	-39.868	-0.168	-0.090
-506.741	-200.000	0.056	0.339
-505.726	800.000	-0.111	0.372
-504.712	-135.959	-0.051	-0.006
-503.697	465.390	-0.068	0.156
-502.683	-143.507	-0.419	0.041
-501.668	298.712	-0.070	0.131
-500.653	435.534	-0.086	0.190
-499.639	-8.621	-0.180	0.123
-498.624	85.716	-0.128	0.144
-497.610	-11.909	-0.190	-0.127
-496.595	16.823	-0.134	0.108
-495.581	568.666	-0.158	-0.392
-494.566	649.993	-0.063	-0.165
-493.551	290.711	0.089	0.165
-492.537	-4.043	0.215	0.152
-491.522	-2.038	0.113	0.081
-490.508	7.971	0.060	0.046
-489.493	96.651	-0.243	0.283
-488.478	800.000	-0.084	-0.258
-487.464	-147.545	-0.363	0.031
-486.449	38.516	-0.221	0.201
-485.435	-200.000	0.024	0.133
-484.420	-65.486	0.134	0.055
-483.405	-82.817	0.076	-0.025
-482.391	-127.725	0.263	-0.039
-481.376	800.000	0.092	0.286
-480.362	99.902	-0.021	-0.024
-479.347	-34.613	0.143	0.080
-478.332	144.636	-0.229	0.311
-477.318	-33.852	-0.098	-0.055
-476.303	25.783	-0.185	-0.157
-475.289	-58.613	-0.045	-0.020
-474.274	-61.771	-0.123	-0.052
-473.259	-200.000	0.021	-0.201
-472.245	-16.883	-0.235	0.152
-471.230	-96.787	-0.160	0.043
-470.216	800.000	0.059	0.178
-469.201	-15.150	-0.154	0.100
-468.186	197.585	-0.133	-0.207
-467.172	-77.084	-0.108	0.038
-466.157	-136.659	-0.420	-0.049
-465.143	-200.000	0.005	-0.064
-464.128	-43.763	-0.175	-0.090
-463.113	178.090	0.187	-0.279
-462.099	101.725	0.149	-0.177
-461.084	-65.372	-0.168	-0.069
-460.070	-200.000	0.006	-0.092
-459.055	-136.751	-0.300	0.035
-458.040	126.668	-0.145	-0.187
-457.026	-200.000	-0.020	-0.410
-456.011	96.567	0.128	0.149
-454.997	-200.000	0.023	-0.173
-453.982	94.065	-0.221	0.255
-452.968	384.889	0.122	-0.256
-451.953	-200.000	-0.039	-0.304
-450.938	325.981	0.111	-0.217
-449.924	800.000	-0.067	-0.190
-448.909	800.000	-0.037	-0.140
-447.895	-18.340	0.162	0.103
-446.880	10.578	0.257	0.200
-445.865	-200.000	0.021	0.328
-444.851	-200.000	-0.009	-0.201
-443.836	85.770	-0.109	0.123
-442.822	18.472	0.183	0.149
-441.807	800.000	0.066	-0.205
-440.792	3.184	-0.237	-0.175
-439.778	257.017	0.029	-0.050
-438.763	201.852	-0.147	0.231
-437.749	-140.349	-0.391	-0.042
-436.734	-200.000	-0.009	-0.166
-435.719	800.000	0.095	0.286
-434.705	800.000	-0.110	-0.332
-433.690	800.000	-0.080	-0.292
-432.676	109.927	0.265	-0.324
-431.661	-71.705	0.195	-0.074
-430.646	-200.000	0.062	-0.593
-429.632	473.526	-0.057	0.131
-428.617	618.787	0.047	0.121
-427.603	722.822	-0.082	-0.223
-426.588	800.000	0.024	0.091
-425.573	65.909	0.137	-0.141
-424.559	-56.199	0.280	-0.126
-423.544	-200.000	-0.013	0.063
-422.530	-84.644	-0.332	-0.106
-421.515	23.958	-0.242	-0.203
-420.500	-32.197	0.107	0.061
-419.486	71.793	0.150	-0.159
-418.471	-95.196	-0.229	0.063
-417.457	-200.000	0.015	-0.094
-416.442	-21.134	-0.062	0.038
-415.428	-21.426	0.090	-0.056
-414.413	800.000	0.035	0.110
-413.398	484.849	-0.035	0.081
-412.384	-77.772	0.052	0.018
-411.369	58.759	0.231	-0.231
-410.355	351.154	0.120	-0.241
-409.340	143.940	0.095	-0.129
-408.325	-200.000	0.048	-0.282
-407.311	-26.396	-0.099	-0.059
-406.296	-21.371	-0.180	-0.112
-405.282	-95.089	-0.199	0.055
-404.267	93.139	-0.032	0.036
-403.252	27.862	0.176	-0.151
-402.238	-71.535	-0.142	-0.054
-401.223	-200.000	-0.027	0.142
-400.209	-182.356	-0.081	-0.002
-399.194	521.511	0.105	-0.251
-398.179	80.927	0.227	0.249
-397.165	-164.617	0.308	-0.014
-396.150	201.226	-0.156	-0.245
-395.136	113.990	0.153	-0.190
-394.121	800.000	0.084	0.295
-393.106	233.212	0.054	0.091
-392.092	-107.012	-0.293	-0.066
-391.077	91.256	0.103	-0.118
-390.063	-120.181	0.214	0.037
-389.048	-200.000	-0.015	-0.113
-388.033	236.749	0.126	-0.212
-387.019	800.000	0.077	0.245
-386.004	280.573	-0.091	-0.165
-384.990	6.266	-0.266	-0.201
-383.975	-140.284	-0.327	0.035
-382.960	-23.501	-0.161	-0.098
-381.946	-55.881	-0.516	0.234
-380.931	49.626	0.146	0.140
-379.917	-168.674	0.336	-0.013
-378.902	-103.463	-0.269	-0.064
-377.888	3.732	0.117	0.087
-376.873	775.106	0.126	0.349
-375.858	-138.203	0.119	0.013
-374.844	419.528	0.014	0.030
-373.829	518.790	-0.200	0.474
-372.815	54.804	-0.201	0.197
-371.800	-36.474	-0.167	0.091
-370.785	-104.453	-0.192	-0.045
-369.771	-200.000	-0.025	-0.328
-368.756	-170.883	0.156	-0.005
-367.742	-31.233	-0.189	-0.108
-366.727	-25.103	0.214	-0.129
-365.712	-200.000	-0.021	-0.247
-364.698	-200.000	0.002	-0.040
-363.683	-36.284	0.131	-0.072
-362.669	432.683	-0.105	-0.232
-361.654	174.326	-0.021	0.031
-360.639	66.144	0.173	0.179
-359.625	-42.645	-0.256	0.132
-358.610	-97.979	0.090	0.023
-357.596	194.412	-0.048	0.074
-356.581	147.001	-0.094	0.128
-355.566	800.000	-0.018	0.057
-354.552	79.410	-0.326	0.355
-353.537	176.842	0.120	-0.178
-352.523	-115.698	-0.277	-0.053
-351.508	455.742	-0.187	-0.421
-350.493	60.167	0.156	0.157
-349.479	-122.974	-0.142	-0.023
-348.464	-18.167	0.097	0.062
-347.450	140.530	-0.192	-0.258
-346.435	156.842	0.137	-0.191
-345.420	-87.531	-0.065	0.020
-344.406	76.607	0.100	0.108
-343.391	-10.539	0.263	-0.177
-342.377	800.000	0.051	0.147
-341.362	-27.119	-0.239	-0.141
-340.348	800.000	0.066	-0.190
-339.333	-57.781	0.254	0.112
-338.318	800.000	0.091	-0.389
-337.304	-94.958	0.296	0.081
-336.289	209.664	-0.152	0.242
-335.275	241.692	0.146	0.247
-334.260	-200.000	0.007	0.257
-333.245	33.745	0.065	-0.057
-332.231	-72.685	0.181	-0.067
-331.216	-132.105	-0.366	-0.048
-330.202	-200.000	-0.017	-0.086
-329.187	37.688	0.330	-0.297
-328.172	-25.970	-0.129	-0.077
-327.158	-162.080	0.193	-0.010
-326.143	-26.270	0.170	-0.101
-325.129	-19.695	0.177	0.111
-324.114	-165.862	0.151	0.007
-323.099	-200.000	-0.038	-0.276
-322.085	121.370	-0.056	0.071
-321.070	-89.584	-0.070	-0.021
-320.056	-200.000	0.032	-0.482
-319.041	90.558	0.170	-0.193
-318.026	1.306	0.190	-0.138
-317.012	275.553	0.022	0.040
-315.997	800.000	0.008	0.022
-314.983	69.004	-0.222	0.231
-313.968	62.775	-0.069	0.070
-312.953	52.307	-0.092	0.089
-311.939	461.195	0.045	-0.102
-310.924	-200.000	0.001	0.203
-309.910	800.000	-0.023	-0.096
-308.895	800.000	-0.128	0.543
-307.880	422.991	0.063	-0.137
-306.866	-160.833	0.337	0.018
-305.851	533.264	-0.026	0.062
-304.837	119.180	0.040	-0.050
-303.822	-27.813	0.087	0.051
-302.807	36.685	0.128	-0.115
-301.793	60.770	0.077	0.077
-300.778	-200.000	0.008	0.216
-299.764	800.000	0.081	0.281
-298.749	-200.000	0.003	-0.279
-297.735	70.588	0.225	-0.235
-296.720	-37.660	-0.150	0.081
-295.705	-89.451	0.424	-0.126
-294.691	-87.680	0.016	0.005
-293.676	-78.232	0.512	-0.178
-292.662	69.871	0.074	0.077
-291.647	-200.000	-0.034	0.491
-290.632	114.957	-0.217	0.267
-289.618	-200.000	-0.055	0.281
-288.603	-200.000	0.080	0.508
-287.589	-124.025	-0.090	-0.014
-286.574	-100.772	0.452	-0.113
-285.559	683.832	0.065	0.171
-284.545	-199.513	0.104	0.001
-283.530	-200.000	-0.002	0.123
-282.516	-145.285	-0.167	-0.015
-281.501	800.000	0.044	-0.130
-280.486	-200.000	0.011	0.293
-279.472	-116.975	0.052	-0.010
-278.457	277.575	0.035	-0.063
-277.443	-136.318	0.412	0.049
-276.428	-24.177	0.194	-0.117
-275.413	533.502	0.047	0.113
-274.399	78.561	0.064	0.069
-273.384	-24.481	-0.106	0.064
-272.370	284.633	-0.157	-0.286
-271.355	64.546	0.257	-0.262
-270.340	-135.903	0.325	0.039
-269.326	-80.484	-0.207	0.070
-268.311	-200.000	-0.047	-0.237
-267.297	398.994	0.130	0.274
-266.282	-200.000	-0.012	0.180
-265.267	183.758	0.157	0.235
-264.253	157.460	0.194	0.271
-263.238	518.736	-0.008	0.020
-262.224	671.105	0.139	-0.364
-261.209	138.140	-0.061	0.080
-260.195	64.763	0.108	-0.111
-259.180	800.000	-0.051	-0.205
-258.165	134.274	0.044	-0.058
-257.151	1.416	-0.191	0.139
-256.136	-39.891	-0.163	0.086
-255.122	-55.926	-0.127	0.057
-254.107	215.451	0.115	-0.185
-253.092	-200.000	-0.004	-0.230
-252.078	54.665	0.021	-0.021
-251.063	-200.000	-0.068	0.334
-250.049	800.000	-0.037	-0.163
-249.034	171.213	0.001	-0.001
-248.019	800.000	-0.091	0.298
-247.005	-200.000	0.037	0.353
-245.990	-129.526	0.201	0.028
-244.976	19.276	0.132	0.107
-243.961	240.229	0.135	0.228
-242.946	18.220	-0.104	0.084
-241.932	-33.839	0.367	0.204
-240.917	3.792	0.156	0.115
-239.903	800.000	-0.062	-0.185
-238.888	-108.395	-0.192	-0.042
-237.873	113.424	-0.088	0.108
-236.859	-88.125	0.067	0.020
-235.844	-167.952	0.132	-0.005
-234.830	488.206	-0.013	0.030
-233.815	611.147	0.008	-0.020
-232.800	295.687	-0.156	0.288
-231.786	286.777	0.106	0.193
-230.771	-45.520	-0.251	-0.125
-229.757	-14.497	-0.153	0.100
-228.742	400.336	0.120	0.253
-227.727	80.101	0.162	-0.176
-226.713	67.525	-0.073	0.075
-225.698	58.765	-0.162	0.161
-224.684	8.123	0.256	0.194
-223.669	306.188	0.088	-0.165
-222.655	195.895	0.045	0.068
-221.640	-200.000	0.006	0.187
-220.625	-45.810	0.262	0.131
-219.611	-51.376	0.128	0.060
-218.596	-104.210	-0.076	-0.018
-217.582	-108.135	0.252	0.055
-216.567	39.420	0.135	0.122
-215.552	-125.469	0.311	0.048
-214.538	84.759	-0.187	-0.206
-213.523	800.000	-0.067	0.208
-212.509	800.000	-0.012	-0.040
-211.494	96.150	-0.253	0.292
-210.479	256.364	0.108	-0.187
-209.465	-200.000	0.038	0.399
-208.450	-91.321	0.123	-0.035
-207.436	-200.000	-0.045	-0.305
-206.421	-200.000	-0.011	-0.062
-205.406	-35.188	0.272	0.150
-204.392	542.939	-0.165	0.396
-203.377	138.821	-0.147	-0.194
-202.363	53.835	0.358	-0.346
-201.348	-76.420	0.214	-0.076
-200.333	-142.236	-0.342	-0.034
-199.319	-65.811	0.299	0.121
-198.304	68.324	-0.069	-0.071
-197.290	-89.942	0.440	0.130
-196.275	27.345	0.204	-0.173
-195.260	-92.612	0.041	-0.012
-194.246	-200.000	-0.013	-0.234
-193.231	121.249	-0.215	-0.270
-192.217	800.000	0.074	-0.266
-191.202	240.744	-0.265	-0.445
-190.187	114.856	-0.050	0.061
-189.173	143.457	0.029	-0.039
-188.158	-59.699	0.045	0.020
-187.144	118.291	0.317	0.394
-186.129	147.617	0.268	0.363
-185.114	-72.473	0.159	-0.059
-184.100	58.261	-0.143	0.142
-183.085	610.216	0.019	0.047
-182.071	247.596	-0.039	0.067
-181.056	23.290	-0.159	0.132
-180.042	0.569	-0.188	0.136
-179.027	180.914	-0.074	-0.109
-178.012	-101.100	-0.326	-0.080
-176.998	-200.000	0.024	-0.125
-175.983	79.066	0.181	-0.195
-174.969	-46.578	-0.282	0.139
-173.954	-64.064	0.146	0.060
-172.939	763.532	-0.109	0.297
-171.925	59.713	0.307	0.306
-170.910	-200.000	0.017	0.083
-169.896	57.584	0.272	0.267
-168.881	40.627	-0.121	-0.110
-167.866	-93.193	-0.292	0.082
-166.852	624.982	-0.070	-0.178
-165.837	6.991	-0.024	-0.018
-164.823	-200.000	-0.003	0.097
-163.808	-200.000	0.027	-0.128
-162.793	800.000	-0.048	0.145
-161.779	-36.960	0.253	0.136
-160.764	800.000	-0.145	-0.583
-159.750	-86.609	-0.079	-0.024
-158.735	227.117	-0.174	-0.285
-157.720	-22.676	0.185	-0.113
-156.706	-112.575	0.180	-0.036
-155.691	-3.116	0.012	-0.008
-154.677	800.000	0.068	-0.250
-153.662	-37.908	0.168	0.090
-152.647	340.565	-0.088	0.173
-151.633	-200.000	-0.066	0.498
-150.618	-200.000	-0.004	0.304
-149.604	18.637	-0.150	0.121
-148.589	430.437	-0.060	0.130
-147.574	29.064	0.049	-0.041
-146.560	-104.345	-0.074	-0.017
-145.545	-200.000	-0.049	0.447
-144.531	232.336	0.275	0.455
-143.516	-200.000	0.078	0.350
-142.502	347.667	-0.067	0.132
-141.487	-67.402	0.213	-0.084
-140.472	-7.546	-0.151	-0.103
-139.458	-55.939	0.213	0.096
-138.443	800.000	0.058	0.211
-137.429	-200.000	0.032	0.262
-136.414	-143.893	-0.403	-0.038
-135.399	-45.331	-0.160	-0.080
-134.385	178.738	-0.013	0.020
-133.370	-200.000	0.041	0.246
-132.356	800.000	-0.036	-0.115
-131.341	800.000	0.058	0.225
-130.326	-86.845	0.237	0.073
-129.312	9.991	0.246	0.188
-128.297	7.793	0.376	-0.283
-127.283	-99.125	0.183	-0.046
-126.268	309.351	0.202	0.380
-125.253	-200.000	-0.023	0.118
-124.239	-141.703	0.085	0.009
-123.224	135.323	-0.082	-0.107
-122.210	-200.000	0.036	-0.200
-121.195	12.675	-0.437	-0.339
-120.180	-100.658	0.178	-0.044
