DTS Sentinel unit serial number:	SN413079Multiplexer serial number:	ORYXHardware model number:	OX4-SRSoftware version number:	ORYX F/W v4.00 Oryx Data Collector v3.7.2.0data status	okinstallation	princeton_trtdifferential loss correction	single-endedforward channel	channel 4reverse channel	N/Adate	2019/09/15time	07:53:34forward acquisition time	60.00reverse acquisition time	0.00gamma	496.2192k internal	0.2310k external	0.2310temperature offset calibration	1.0036default loss term (dB/km)	0.3790temperature slope calibration	1.0000multiplexer offset coefficient	1.0000multiplexer slope coefficient	1.0000fibre end	0.00T internal ref (°C)	30.69T ext. ref 1 (°C)	4.98T ext. ref 2 (°C)	26.01length (m)	temperature (°C)	Stokes	anti-Stokes-747.200	-61.814	-0.172	0.073
-746.185	63.047	-0.154	0.157
-745.171	-200.000	0.041	0.187
-744.156	17.124	0.068	0.055
-743.142	-146.111	0.177	-0.016
-742.127	800.000	0.113	0.366
-741.112	110.260	0.160	0.195
-740.098	-91.655	0.301	-0.087
-739.083	800.000	-0.101	-0.421
-738.069	800.000	-0.138	0.554
-737.054	135.229	0.087	0.115
-736.039	-2.770	-0.286	-0.203
-735.025	-15.610	-0.284	-0.184
-734.010	-45.002	-0.216	0.109
-732.996	-113.173	-0.286	0.057
-731.981	214.520	-0.243	0.390
-730.966	-200.000	0.011	-0.181
-729.952	-200.000	0.058	-0.284
-728.937	800.000	0.003	-0.011
-727.923	5.411	-0.127	-0.095
-726.908	-200.000	-0.012	-0.329
-725.894	800.000	-0.013	0.052
-724.879	-200.000	0.048	-0.407
-723.864	-200.000	-0.041	-0.247
-722.850	87.067	-0.143	0.160
-721.835	-144.058	0.088	0.008
-720.821	-149.275	-0.127	0.010
-719.806	740.251	0.058	-0.157
-718.791	-66.248	0.041	-0.017
-717.777	-95.957	0.226	0.061
-716.762	-56.003	-0.135	0.061
-715.748	800.000	-0.030	-0.124
-714.733	383.114	0.025	-0.051
-713.718	-85.186	-0.208	-0.066
-712.704	-95.432	-0.195	-0.053
-711.689	-155.408	0.308	-0.020
-710.675	-200.000	-0.039	0.178
-709.660	-104.560	0.189	0.044
-708.645	-200.000	0.001	-0.036
-707.631	455.402	0.132	0.298
-706.616	343.908	-0.103	0.204
-705.602	800.000	-0.048	-0.143
-704.587	23.153	0.151	-0.126
-703.572	-12.263	-0.109	0.072
-702.558	-55.109	-0.220	-0.100
-701.543	800.000	0.051	-0.155
-700.529	287.127	-0.044	-0.080
-699.514	49.481	-0.166	0.158
-698.499	-114.013	0.122	0.024
-697.485	332.214	-0.097	0.190
-696.470	-69.706	-0.237	0.092
-695.456	-86.717	0.285	0.088
-694.441	-51.793	0.209	-0.099
-693.426	89.889	0.063	-0.072
-692.412	-18.524	-0.148	-0.093
-691.397	271.996	-0.027	-0.048
-690.383	322.329	0.092	-0.178
-689.368	-105.703	0.170	-0.039
-688.354	-47.748	-0.360	0.177
-687.339	-200.000	0.033	0.147
-686.324	75.701	0.142	0.152
-685.310	-88.560	-0.394	-0.119
-684.295	136.557	-0.134	0.178
-683.281	278.682	-0.034	-0.062
-682.266	800.000	-0.081	0.253
-681.251	-53.742	-0.348	0.161
-680.237	98.222	-0.094	-0.109
-679.222	155.737	-0.181	0.252
-678.208	-172.880	-0.173	-0.005
-677.193	-106.843	0.195	-0.044
-676.178	86.975	0.263	-0.295
-675.164	5.173	0.240	0.179
-674.149	-92.949	0.130	-0.037
-673.135	-200.000	-0.004	0.072
-672.120	10.114	-0.095	0.073
-671.105	12.253	-0.342	-0.267
-670.091	-81.806	-0.170	0.057
-669.076	54.283	-0.107	0.104
-668.062	489.134	-0.174	-0.404
-667.047	134.836	0.388	-0.511
-666.032	650.610	0.071	-0.183
-665.018	-127.881	-0.156	0.023
-664.003	-200.000	-0.016	0.245
-662.989	-2.518	0.102	0.072
-661.974	-60.062	-0.186	0.081
-660.959	-200.000	-0.010	0.137
-659.945	21.375	0.266	0.219
-658.930	-42.014	-0.063	-0.033
-657.916	-155.067	-0.328	-0.022
-656.901	-65.786	0.114	-0.046
-655.886	-158.515	0.281	-0.016
-654.872	648.721	0.111	0.286
-653.857	134.180	-0.215	-0.281
-652.843	70.422	0.153	-0.160
-651.828	6.762	-0.184	0.138
-650.814	17.722	-0.072	-0.058
-649.799	13.062	0.146	-0.114
-648.784	800.000	-0.085	-0.258
-647.770	-99.896	0.097	-0.025
-646.755	-79.349	0.156	-0.053
-645.741	-190.040	0.213	0.002
-644.726	-44.136	0.130	0.066
-643.711	226.968	-0.227	-0.373
-642.697	17.659	0.063	-0.051
-641.682	-101.656	0.386	-0.095
-640.668	-70.270	-0.260	-0.100
-639.653	-200.000	-0.002	0.323
-638.638	116.361	-0.187	0.232
-637.624	20.013	0.063	-0.052
-636.609	-91.044	-0.170	-0.049
-635.595	67.853	0.050	0.052
-634.580	532.727	-0.031	0.075
-633.565	75.422	-0.394	0.420
-632.551	-50.382	-0.236	0.113
-631.536	-17.108	0.355	-0.226
-630.522	-27.677	0.188	0.111
-629.507	-109.446	0.117	0.025
-628.492	234.286	0.056	-0.093
-627.478	-80.389	-0.200	-0.068
-626.463	-200.000	-0.059	-0.415
-625.449	-129.539	-0.279	0.039
-624.434	87.530	0.104	0.117
-623.419	198.376	0.057	-0.088
-622.405	-147.879	-0.548	0.046
-621.390	-200.000	0.014	-0.079
-620.376	-167.120	-0.338	0.014
-619.361	-131.795	0.280	-0.037
-618.346	-131.820	-0.159	-0.021
-617.332	100.701	0.125	0.146
-616.317	-85.793	-0.141	-0.044
-615.303	-134.348	-0.065	0.008
-614.288	-153.032	0.376	-0.027
-613.273	800.000	-0.078	0.229
-612.259	-200.000	-0.004	0.244
-611.244	-130.228	-0.031	-0.004
-610.230	-200.000	-0.017	-0.194
-609.215	165.580	-0.026	-0.037
-608.201	38.409	-0.138	0.125
-607.186	-26.340	-0.067	0.040
-606.171	75.440	-0.194	-0.207
-605.157	-120.777	0.097	-0.017
-604.142	-78.472	-0.338	-0.117
-603.128	-48.230	0.286	0.140
-602.113	98.540	-0.166	-0.193
-601.098	-54.123	-0.089	0.041
-600.084	800.000	0.031	0.130
-599.069	-152.917	0.212	0.015
-598.055	293.152	-0.031	0.058
-597.040	181.086	-0.152	-0.225
-596.025	166.226	-0.221	-0.317
-595.011	88.402	-0.367	-0.412
-593.996	800.000	-0.032	-0.111
-592.982	-10.913	-0.225	0.150
-591.967	-183.182	-0.297	0.005
-590.952	-15.202	0.131	0.085
-589.938	800.000	0.089	-0.263
-588.923	-97.388	-0.284	0.075
-587.909	-37.788	-0.181	-0.097
-586.894	-200.000	0.011	-0.450
-585.879	142.693	0.099	-0.133
-584.865	-200.000	0.077	0.359
-583.850	-200.000	0.019	0.333
-582.836	-99.772	-0.133	0.034
-581.821	-85.101	0.131	-0.041
-580.806	-153.055	-0.253	0.018
-579.792	-200.000	-0.022	-0.208
-578.777	30.252	-0.060	0.052
-577.763	800.000	-0.087	-0.319
-576.748	-200.000	0.022	-0.210
-575.733	712.118	0.145	-0.386
-574.719	-126.874	0.161	0.024
-573.704	-163.996	-0.137	-0.006
-572.690	-95.103	0.105	0.029
-571.675	718.920	-0.007	0.018
-570.661	-200.000	0.013	0.140
-569.646	191.944	-0.045	-0.069
-568.631	263.870	-0.143	-0.250
-567.617	464.839	-0.082	0.184
-566.602	116.868	-0.094	-0.116
-565.588	17.617	-0.179	-0.144
-564.573	-102.785	-0.086	-0.021
-563.558	-44.166	0.108	-0.054
-562.544	-200.000	0.011	-0.051
-561.529	-60.279	-0.486	0.209
-560.515	-47.502	0.435	-0.213
-559.500	479.477	-0.113	-0.258
-558.485	-35.387	0.146	0.080
-557.471	619.491	-0.047	0.119
-556.456	-20.583	-0.300	0.186
-555.442	-32.109	-0.238	-0.134
-554.427	-148.824	0.188	-0.015
-553.412	800.000	-0.051	0.219
-552.398	-95.371	-0.248	-0.067
-551.383	-81.201	-0.098	0.033
-550.369	-200.000	0.005	0.472
-549.354	-33.636	-0.164	-0.091
-548.339	-60.805	-0.315	-0.134
-547.325	-117.675	-0.494	0.090
-546.310	-200.000	0.012	-0.121
-545.296	15.944	-0.185	0.147
-544.281	-200.000	-0.004	0.127
-543.266	379.830	-0.069	-0.143
-542.252	280.152	-0.023	-0.041
-541.237	-111.750	0.391	0.080
-540.223	-153.786	0.036	-0.002
-539.208	126.427	0.109	0.139
-538.193	-170.872	0.439	0.015
-537.179	-80.384	-0.165	0.055
-536.164	20.108	0.361	-0.294
-535.150	-200.000	-0.007	-0.053
-534.135	-99.785	0.162	-0.041
-533.121	800.000	0.025	-0.073
-532.106	-17.777	-0.243	0.154
-531.091	800.000	0.035	0.121
-530.077	-138.602	0.180	-0.020
-529.062	-158.494	0.198	0.012
-528.048	25.413	0.155	-0.130
-527.033	-154.347	0.259	-0.018
-526.018	-51.361	0.240	0.113
-525.004	2.997	0.128	0.093
-523.989	733.955	-0.117	0.316
-522.975	-200.000	0.017	0.301
-521.960	43.192	0.024	-0.022
-520.945	-122.882	0.121	-0.020
-519.931	-200.000	-0.018	-0.099
-518.916	-102.282	-0.201	0.049
-517.902	20.926	-0.176	0.143
-516.887	96.179	0.042	0.048
-515.872	-179.655	0.293	0.006
-514.858	37.312	0.165	-0.147
-513.843	-76.307	-0.334	-0.119
-512.829	30.102	0.054	0.046
-511.814	-107.803	0.231	0.051
-510.799	17.386	-0.050	0.040
-509.785	276.344	-0.031	-0.056
-508.770	-66.323	0.318	0.127
-507.756	9.441	-0.306	0.233
-506.741	-28.888	0.226	-0.131
-505.726	-98.373	-0.286	-0.074
-504.712	113.398	-0.160	0.195
-503.697	-11.217	-0.030	-0.020
-502.683	21.115	0.245	0.200
-501.668	4.818	0.165	0.122
-500.653	-109.602	0.490	-0.104
-499.639	310.185	-0.123	0.231
-498.624	194.036	0.115	0.176
-497.610	288.951	0.147	0.268
-496.595	86.076	-0.077	0.085
-495.581	130.935	-0.089	0.115
-494.566	136.191	-0.038	-0.050
-493.551	130.519	-0.062	-0.080
-492.537	23.839	-0.164	0.136
-491.522	-19.178	-0.160	-0.100
-490.508	-200.000	0.017	0.106
-489.493	-200.000	0.019	0.150
-488.478	-47.663	0.282	0.138
-487.464	-89.096	-0.183	0.054
-486.449	-19.961	0.124	0.077
-485.435	43.211	-0.147	-0.135
-484.420	65.407	0.250	0.254
-483.405	-200.000	-0.070	-0.400
-482.391	800.000	0.101	0.331
-481.376	17.035	0.166	0.133
-480.362	-52.552	-0.203	0.094
-479.347	-12.822	0.428	0.280
-478.332	-138.868	-0.157	0.017
-477.318	-200.000	0.004	0.100
-476.303	-200.000	0.002	-0.343
-475.289	-66.713	-0.181	-0.072
-474.274	57.958	-0.248	0.244
-473.259	-72.020	-0.332	0.124
-472.245	-66.769	-0.157	-0.063
-471.230	-200.000	-0.012	0.094
-470.216	102.429	-0.153	-0.180
-469.201	-47.918	-0.155	0.075
-468.186	482.562	0.153	-0.349
-467.172	-80.732	-0.181	-0.060
-466.157	-24.450	0.179	0.107
-465.143	-172.953	0.218	-0.007
-464.128	96.317	-0.077	-0.088
-463.113	25.867	-0.065	0.054
-462.099	-200.000	0.059	-0.366
-461.084	-200.000	0.002	-0.427
-460.070	800.000	-0.109	0.462
-459.055	-149.696	0.120	0.010
-458.040	-10.673	0.150	-0.099
-457.026	0.629	-0.178	0.128
-456.011	20.468	-0.316	0.257
-454.997	252.694	0.071	0.121
-453.982	7.163	-0.171	-0.128
-452.968	-200.000	-0.032	0.229
-451.953	423.044	-0.128	-0.276
-450.938	-200.000	0.010	0.140
-449.924	67.476	0.244	0.250
-448.909	-110.528	0.156	-0.032
-447.895	-56.936	0.243	0.108
-446.880	-200.000	-0.000	0.346
-445.865	57.160	-0.238	-0.233
-444.851	-22.529	0.160	-0.097
-443.836	-72.899	0.421	-0.155
-442.822	-200.000	0.013	0.065
-441.807	152.252	-0.045	-0.061
-440.792	-200.000	0.001	0.102
-439.778	86.795	-0.228	0.253
-438.763	55.602	0.155	0.151
-437.749	-200.000	0.067	0.368
-436.734	-157.895	0.144	-0.009
-435.719	18.942	-0.187	-0.151
-434.705	434.376	-0.095	-0.207
-433.690	800.000	0.012	-0.033
-432.676	-87.743	-0.349	-0.105
-431.661	37.401	0.166	-0.147
-430.646	-121.388	0.287	-0.048
-429.632	14.541	-0.110	0.086
-428.617	581.672	0.048	-0.117
-427.603	-13.904	0.112	-0.073
-426.588	256.336	0.125	0.215
-425.573	564.136	0.021	0.052
-424.559	-200.000	0.062	-0.332
-423.544	-1.644	0.227	0.161
-422.530	37.003	-0.340	0.302
-421.515	695.657	-0.122	-0.322
-420.500	201.910	-0.182	-0.282
-419.486	169.772	-0.052	0.074
-418.471	93.778	0.127	-0.145
-417.457	800.000	0.101	0.337
-416.442	-200.000	0.003	0.143
-415.428	88.078	-0.127	0.141
-414.413	148.469	0.169	0.228
-413.398	-104.810	-0.087	0.020
-412.384	-116.800	-0.089	-0.016
-411.369	-124.088	0.164	0.026
-410.355	25.234	0.321	-0.267
-409.340	149.905	-0.237	-0.322
-408.325	132.656	-0.053	-0.069
-407.311	99.253	0.106	0.123
-406.296	-16.212	0.231	0.147
-405.282	-4.234	-0.247	-0.171
-404.267	227.042	-0.009	-0.015
-403.252	-200.000	0.033	-0.247
-402.238	-200.000	-0.011	0.232
-401.223	-85.872	-0.178	0.055
-400.209	-179.729	-0.145	0.003
-399.194	-104.552	-0.046	0.011
-398.179	-200.000	0.004	-0.114
-397.165	-200.000	-0.005	0.077
-396.150	702.354	0.091	-0.239
-395.136	-9.054	-0.049	-0.033
-394.121	161.663	0.096	0.134
-393.106	800.000	0.028	0.117
-392.092	14.532	0.199	-0.156
-391.077	-77.335	-0.110	-0.038
-390.063	28.291	0.250	0.211
-389.048	171.812	-0.098	-0.142
-388.033	-200.000	0.001	0.049
-387.019	92.711	-0.068	0.077
-386.004	584.168	0.124	-0.306
-384.990	-24.009	0.078	-0.047
-383.975	-58.162	0.238	0.104
-382.960	791.738	0.070	0.193
-381.946	-42.604	-0.388	0.198
-380.931	-104.558	-0.143	-0.033
-379.917	6.136	-0.305	0.227
-378.902	-40.768	0.163	0.084
-377.888	-59.557	-0.055	0.023
-376.873	30.578	0.055	-0.047
-375.858	800.000	0.067	-0.203
-374.844	800.000	-0.048	-0.147
-373.829	-200.000	-0.044	-0.313
-372.815	-200.000	0.045	0.320
-371.800	-200.000	0.033	-0.330
-370.785	800.000	-0.133	0.401
-369.771	61.262	0.167	0.166
-368.756	458.761	0.087	0.193
-367.742	-102.172	-0.129	0.031
-366.727	800.000	0.076	0.269
-365.712	-200.000	0.006	0.032
-364.698	107.003	0.121	-0.143
-363.683	-200.000	-0.002	-0.068
-362.669	72.274	-0.055	0.057
-361.654	99.191	-0.069	-0.080
-360.639	800.000	0.141	0.490
-359.625	8.391	0.202	0.152
-358.610	224.454	0.183	-0.296
-357.596	297.082	0.186	-0.342
-356.581	494.672	-0.138	-0.317
-355.566	-135.988	0.180	-0.021
-354.552	422.432	0.108	-0.232
-353.537	-200.000	-0.032	-0.188
-352.523	-200.000	0.057	-0.340
-351.508	60.679	0.189	0.187
-350.493	53.529	-0.159	-0.153
-349.479	-70.155	0.331	-0.126
-348.464	-200.000	0.036	0.252
-347.450	-91.155	-0.131	0.038
-346.435	800.000	-0.086	0.294
-345.420	78.727	0.039	-0.041
-344.406	475.712	0.034	0.076
-343.391	-155.982	0.077	-0.005
-342.377	800.000	-0.045	0.155
-341.362	-25.424	-0.289	0.171
-340.348	-15.743	0.152	-0.097
-339.333	-200.000	0.016	-0.181
-338.318	-16.474	-0.054	-0.034
-337.304	-200.000	-0.027	-0.155
-336.289	-157.939	-0.086	-0.005
-335.275	800.000	-0.093	-0.352
-334.260	120.795	0.141	-0.175
-333.245	-42.859	-0.325	-0.165
-332.231	-38.283	0.204	-0.108
-331.216	265.646	-0.117	0.203
-330.202	203.271	0.169	0.261
-329.187	86.315	0.132	0.145
-328.172	1.344	-0.056	-0.040
-327.158	294.788	-0.132	-0.241
-326.143	800.000	0.009	-0.027
-325.129	-78.056	-0.275	0.095
-324.114	-172.540	0.208	-0.007
-323.099	193.427	-0.093	-0.140
-322.085	-68.514	-0.295	-0.114
-321.070	-200.000	-0.002	-0.038
-320.056	800.000	0.044	0.174
-319.041	-107.167	-0.313	0.069
-318.026	-31.973	-0.275	-0.154
-317.012	335.112	0.039	0.076
-315.997	-123.667	0.345	0.055
-314.983	-27.478	0.212	-0.123
-313.968	-148.454	0.268	0.022
-312.953	-151.879	-0.165	0.012
-311.939	-0.783	-0.309	0.218
-310.924	26.015	0.209	-0.174
-309.910	-32.685	0.214	0.119
-308.895	-200.000	-0.061	-0.000
-307.880	-68.298	0.093	-0.036
-306.866	-125.377	0.187	-0.028
-305.851	-46.890	-0.212	-0.103
-304.837	-12.093	-0.158	0.103
-303.822	-69.270	-0.359	-0.138
-302.807	-24.139	0.056	-0.033
-301.793	344.599	-0.028	-0.055
-300.778	800.000	-0.058	-0.187
-299.764	-200.000	0.008	0.308
-298.749	17.925	-0.055	-0.043
-297.735	-200.000	-0.030	0.231
-296.720	77.242	0.308	0.327
-295.705	171.883	0.065	-0.093
-294.691	-106.141	0.346	0.078
-293.676	335.093	0.009	0.018
-292.662	-36.385	0.298	0.160
-291.647	-135.771	0.273	0.032
-290.632	4.803	-0.201	0.148
-289.618	-69.284	0.333	-0.128
-288.603	279.293	-0.031	-0.055
-287.589	-130.574	-0.205	-0.028
-286.574	438.214	0.062	-0.135
-285.559	69.341	-0.148	-0.152
-284.545	800.000	-0.122	0.524
-283.530	-73.632	0.470	-0.171
-282.516	-140.058	-0.036	0.004
-281.501	800.000	-0.031	0.101
-280.486	297.850	-0.040	0.073
-279.472	-200.000	-0.036	-0.293
-278.457	-25.985	0.019	-0.011
-277.443	-192.052	-0.236	-0.002
-276.428	146.284	0.158	0.212
-275.413	192.367	-0.187	0.281
-274.399	-200.000	-0.007	-0.200
-273.384	192.191	0.149	0.225
-272.370	-200.000	0.045	-0.256
-271.355	-108.286	0.113	-0.024
-270.340	800.000	0.042	-0.115
-269.326	-13.906	0.048	0.031
-268.311	391.757	-0.154	-0.318
-267.297	345.995	-0.031	0.060
-266.282	-80.580	0.086	-0.029
-265.267	-200.000	-0.007	-0.134
-264.253	-133.977	-0.302	0.037
-263.238	104.334	-0.101	0.118
-262.224	-200.000	-0.003	0.251
-261.209	-45.251	0.280	0.139
-260.195	121.328	0.027	0.034
-259.180	-93.195	0.416	-0.115
-258.165	800.000	-0.048	0.194
-257.151	213.027	-0.110	0.173
-256.136	137.763	0.202	-0.263
-255.122	-64.103	0.298	0.121
-254.107	4.812	0.414	0.303
-253.092	-200.000	0.020	0.389
-252.078	-86.132	-0.289	-0.089
-251.063	-0.914	0.102	0.072
-250.049	-94.395	-0.217	-0.059
-249.034	-200.000	0.160	-0.000
-248.019	30.266	0.158	0.134
-247.005	-120.526	-0.167	-0.028
-245.990	105.361	-0.077	-0.091
-244.976	149.445	-0.220	-0.297
-243.961	-25.965	0.134	0.079
-242.946	-151.886	-0.232	-0.017
-241.932	-92.094	0.251	0.071
-240.917	-111.680	-0.163	-0.033
-239.903	-2.981	-0.319	-0.222
-238.888	-200.000	0.047	0.379
-237.873	-109.203	-0.537	-0.114
-236.859	800.000	-0.036	-0.156
-235.844	-100.158	-0.086	0.021
-234.830	45.701	-0.088	0.081
-233.815	-121.335	-0.290	0.048
-232.800	180.232	0.194	0.283
-231.786	189.634	-0.171	-0.255
-230.771	-126.437	0.365	0.054
-229.757	-200.000	-0.036	0.255
-228.742	-200.000	0.036	0.319
-227.727	-200.000	-0.010	-0.159
-226.713	-82.789	0.445	-0.143
-225.698	-67.776	0.403	0.157
-224.684	-200.000	0.039	-0.379
-223.669	273.862	0.060	-0.106
-222.655	-200.000	0.003	0.029
-221.640	-105.368	-0.380	0.086
-220.625	578.172	-0.055	-0.135
-219.611	-200.000	-0.041	-0.228
-218.596	-54.961	-0.239	-0.107
-217.582	-133.364	0.269	0.034
-216.567	-127.476	0.152	-0.022
-215.552	-97.434	0.120	-0.031
-214.538	716.752	0.059	-0.155
-213.523	35.056	-0.189	0.164
-212.509	-200.000	-0.004	-0.055
-211.494	405.008	0.027	0.057
-210.479	119.093	0.086	0.105
-209.465	32.094	0.308	-0.264
-208.450	12.549	0.367	0.282
-207.436	-200.000	0.042	0.189
-206.421	98.632	-0.115	-0.132
-205.406	-91.999	-0.162	-0.046
-204.392	192.755	0.116	0.175
-203.377	-200.000	0.011	0.192
-202.363	236.893	0.146	0.240
-201.348	-121.892	0.201	0.033
-200.333	-116.729	-0.362	-0.066
-199.319	-200.000	0.034	0.171
-198.304	800.000	-0.042	-0.131
-197.290	584.364	0.041	-0.099
-196.275	-121.752	0.414	-0.068
-195.260	-108.726	0.490	-0.104
-194.246	-15.919	0.274	0.173
-193.231	-200.000	-0.036	0.260
-192.217	470.332	-0.161	-0.360
-191.202	155.617	0.167	-0.229
-190.187	331.313	-0.169	-0.323
-189.173	462.498	-0.072	0.160
-188.158	158.620	-0.083	0.115
-187.144	800.000	-0.020	-0.054
-186.129	800.000	-0.004	0.014
-185.114	41.286	-0.385	0.346
-184.100	37.205	0.222	-0.195
-183.085	365.224	-0.153	0.306
-182.071	800.000	-0.035	0.111
-181.056	265.290	0.057	-0.098
-180.042	-84.942	0.123	0.038
-179.027	-31.604	0.046	-0.026
-178.012	-101.045	0.251	0.061
-176.998	-61.346	-0.393	0.164
-175.983	12.978	-0.277	-0.213
-174.969	-72.213	-0.174	-0.064
-173.954	-121.833	0.206	0.034
-172.939	250.664	0.035	-0.060
-171.925	-200.000	-0.023	-0.108
-170.910	-44.363	-0.267	0.133
-169.896	-15.532	0.149	-0.095
-168.881	763.442	-0.146	-0.395
-167.866	-200.000	0.003	-0.072
-166.852	-171.230	-0.094	0.003
-165.837	-54.717	0.027	-0.012
-164.823	-162.624	-0.245	-0.012
-163.808	-200.000	0.043	0.278
-162.793	800.000	0.017	-0.058
-161.779	-58.948	0.232	-0.099
-160.764	-81.890	-0.061	0.020
-159.750	81.522	0.257	-0.276
-158.735	800.000	0.067	-0.230
-157.720	425.540	-0.099	-0.213
-156.706	-27.670	0.231	0.133
-155.691	-21.396	-0.209	-0.126
-154.677	800.000	0.132	-0.460
-153.662	265.602	-0.238	-0.411
-152.647	-7.618	0.109	0.073
-151.633	-62.026	-0.216	-0.090
-150.618	117.977	0.186	0.228
-149.604	-200.000	0.038	-0.225
-148.589	-200.000	0.002	0.090
-147.574	76.243	0.216	-0.227
-146.560	-200.000	0.012	0.124
-145.545	-200.000	0.116	-0.609
-144.531	800.000	0.097	0.394
-143.516	-72.887	-0.036	-0.013
-142.502	97.349	0.180	-0.205
-141.487	-86.697	-0.305	0.093
-140.472	129.233	-0.080	-0.101
-139.458	-41.117	0.152	0.078
-138.443	-200.000	-0.022	0.144
-137.429	120.491	-0.059	-0.073
-136.414	800.000	0.039	0.166
-135.399	49.111	-0.302	0.281
-134.385	-86.938	0.554	-0.167
-133.370	800.000	-0.047	-0.201
-132.356	-24.393	0.182	-0.107
-131.341	100.489	-0.141	0.162
-130.326	-35.889	0.081	-0.043
-129.312	163.023	0.125	0.174
-128.297	185.878	-0.121	-0.178
-127.283	-114.912	-0.194	-0.037
-126.268	800.000	0.033	0.121
-125.253	-0.479	-0.059	0.041
-124.239	800.000	-0.061	0.210
-123.224	-200.000	0.037	0.301
-122.210	-16.097	-0.213	-0.134
-121.195	454.783	0.039	-0.085
