DTS Sentinel unit serial number:	SN413079Multiplexer serial number:	ORYXHardware model number:	OX4-SRSoftware version number:	ORYX F/W v4.00 Oryx Data Collector v3.7.2.0data status	okinstallation	princeton_trtdifferential loss correction	single-endedforward channel	channel 4reverse channel	N/Adate	2019/09/17time	17:01:34forward acquisition time	60.00reverse acquisition time	0.00gamma	496.2192k internal	0.2280k external	0.2280temperature offset calibration	0.9980default loss term (dB/km)	0.3790temperature slope calibration	1.0000multiplexer offset coefficient	1.0000multiplexer slope coefficient	1.0000fibre end	0.00T internal ref (°C)	42.56T ext. ref 1 (°C)	0.36T ext. ref 2 (°C)	39.10length (m)	temperature (°C)	Stokes	anti-Stokes-747.200	-69.965	0.036	0.014
-746.185	-121.158	-0.051	0.009
-745.171	46.903	-0.128	0.122
-744.156	-200.000	-0.001	0.170
-743.142	339.621	-0.040	0.080
-742.127	25.236	-0.322	0.275
-741.112	586.935	0.180	0.457
-740.098	-131.125	-0.319	0.044
-739.083	-100.997	-0.293	0.074
-738.069	29.961	0.191	0.167
-737.054	-61.994	0.116	0.050
-736.039	148.273	-0.179	-0.249
-735.025	-200.000	-0.006	0.354
-734.010	153.975	-0.058	-0.082
-732.996	-200.000	-0.020	-0.343
-731.981	-99.504	-0.341	-0.088
-730.966	205.632	0.056	-0.089
-729.952	-200.000	-0.006	-0.049
-728.937	0.674	-0.127	-0.094
-727.923	-39.868	-0.334	-0.179
-726.908	-93.055	-0.159	0.046
-725.894	354.797	0.088	0.180
-724.879	-146.929	-0.084	0.007
-723.864	-200.000	-0.001	-0.136
-722.850	382.780	-0.048	-0.102
-721.835	-98.921	-0.388	-0.101
-720.821	-54.674	0.287	-0.133
-719.806	800.000	0.010	-0.032
-718.791	228.515	-0.257	-0.431
-717.777	155.711	0.064	0.090
-716.762	-200.000	-0.007	-0.035
-715.748	-200.000	0.028	-0.267
-714.733	78.048	-0.162	-0.177
-713.718	-158.432	-0.183	-0.011
-712.704	800.000	0.020	0.059
-711.689	-85.620	0.276	-0.088
-710.675	-138.283	-0.286	0.032
-709.660	-200.000	0.021	-0.127
-708.645	392.716	0.098	-0.210
-707.631	-74.457	0.186	-0.069
-706.616	800.000	0.114	-0.411
-705.602	151.133	0.135	-0.189
-704.587	219.101	-0.071	0.116
-703.572	-128.071	-0.298	0.044
-702.558	-150.468	-0.252	-0.020
-701.543	408.454	-0.084	0.184
-700.529	-111.140	-0.057	0.012
-699.514	-48.972	0.229	-0.113
-698.499	-190.342	-0.314	-0.004
-697.485	69.930	-0.136	0.144
-696.470	216.504	-0.180	0.293
-695.456	-200.000	-0.007	-0.054
-694.441	332.426	-0.055	0.110
-693.426	-96.544	0.335	-0.091
-692.412	-200.000	-0.026	-0.199
-691.397	26.697	0.140	0.121
-690.383	58.192	0.337	0.340
-689.368	-200.000	-0.015	0.262
-688.354	21.128	-0.131	-0.109
-687.339	141.501	0.052	-0.071
-686.324	6.898	0.064	0.049
-685.310	770.576	0.060	0.168
-684.295	-91.719	-0.441	0.129
-683.281	-167.307	-0.364	-0.015
-682.266	-44.610	0.296	0.152
-681.251	17.523	0.067	0.055
-680.237	-200.000	-0.044	0.304
-679.222	-6.387	-0.245	0.171
-678.208	-200.000	-0.004	-0.237
-677.193	714.748	0.031	0.085
-676.178	119.495	-0.302	0.383
-675.164	88.157	0.128	0.145
-674.149	352.229	-0.139	-0.283
-673.135	-169.385	0.097	-0.004
-672.120	-42.990	-0.291	0.151
-671.105	282.086	-0.093	0.172
-670.091	-89.220	-0.197	0.060
-669.076	-53.044	0.225	0.106
-668.062	-142.411	0.082	0.008
-667.047	239.905	0.123	0.211
-666.032	800.000	0.022	-0.075
-665.018	179.724	0.204	0.307
-664.003	349.347	-0.122	0.247
-662.989	-98.719	0.277	-0.072
-661.974	-70.082	-0.275	-0.107
-660.959	118.029	0.195	0.246
-659.945	16.816	-0.150	0.122
-658.930	176.966	-0.100	0.149
-657.916	338.962	0.030	-0.059
-656.901	50.318	0.056	0.054
-655.886	800.000	0.046	-0.165
-654.872	781.633	0.099	-0.279
-653.857	358.587	0.162	-0.332
-652.843	-184.741	0.141	-0.002
-651.828	99.942	0.096	0.114
-650.814	73.377	-0.148	-0.159
-649.799	-13.283	0.149	0.099
-648.784	-200.000	0.038	-0.272
-647.770	-107.771	-0.274	0.061
-646.755	-35.474	0.309	0.172
-645.741	224.845	0.126	-0.209
-644.726	-121.593	0.100	0.017
-643.711	-200.000	-0.026	-0.339
-642.697	45.640	-0.054	0.051
-641.682	360.501	0.087	-0.179
-640.668	-56.338	0.058	-0.026
-639.653	392.640	-0.055	-0.116
-638.638	-181.249	-0.238	-0.005
-637.624	403.355	0.182	0.393
-636.609	-86.067	-0.053	-0.017
-635.595	-200.000	-0.034	-0.258
-634.580	224.301	-0.036	0.059
-633.565	-68.832	0.141	0.056
-632.551	800.000	-0.075	0.311
-631.536	83.269	0.358	0.400
-630.522	-34.112	-0.186	-0.105
-629.507	-42.446	-0.109	-0.057
-628.492	-160.361	0.111	0.006
-627.478	-177.218	-0.152	0.004
-626.463	800.000	-0.007	-0.022
-625.449	348.888	-0.101	-0.205
-624.434	152.179	-0.129	-0.181
-623.419	-170.900	-0.174	0.006
-622.405	168.492	-0.061	0.088
-621.390	-161.575	-0.318	-0.017
-620.376	-68.612	0.375	0.149
-619.361	219.383	-0.120	-0.196
-618.346	-200.000	-0.015	-0.199
-617.332	132.957	-0.136	-0.180
-616.317	135.282	-0.077	-0.103
-615.303	191.272	0.138	0.212
-614.288	-200.000	0.004	-0.280
-613.273	71.187	0.112	-0.119
-612.259	-21.202	-0.098	0.062
-611.244	21.806	-0.195	0.163
-610.230	-9.265	0.070	-0.048
-609.215	80.431	-0.083	-0.091
-608.201	-142.458	0.186	-0.019
-607.186	47.389	0.319	0.304
-606.171	-123.642	-0.035	-0.006
-605.157	-200.000	-0.034	0.344
-604.142	-52.640	-0.091	0.043
-603.128	-56.843	-0.090	-0.041
-602.113	-160.500	0.202	-0.011
-601.098	-10.494	0.086	0.058
-600.084	-170.187	-0.191	-0.007
-599.069	-1.895	-0.195	0.141
-598.055	-41.302	-0.174	0.092
-597.040	12.794	0.253	-0.200
-596.025	-20.361	-0.221	0.139
-595.011	-200.000	0.015	-0.149
-593.996	-30.414	0.357	-0.207
-592.982	95.256	0.096	-0.112
-591.967	84.952	-0.200	0.225
-590.952	800.000	-0.075	0.292
-589.938	57.129	-0.084	0.083
-588.923	-5.988	-0.157	0.110
-587.909	46.034	0.118	0.112
-586.894	-86.869	0.181	0.057
-585.879	-50.812	0.259	-0.125
-584.865	200.291	-0.033	-0.051
-583.850	-200.000	-0.025	-0.401
-582.836	-200.000	0.007	-0.064
-581.821	-200.000	-0.051	0.255
-580.806	-122.180	-0.214	0.036
-579.792	800.000	0.093	0.400
-578.777	-200.000	0.023	-0.121
-577.763	-3.684	-0.158	-0.112
-576.748	-112.223	-0.116	0.024
-575.733	-173.206	-0.263	0.008
-574.719	-200.000	0.002	-0.298
-573.704	104.067	0.060	0.072
-572.690	-68.206	-0.185	-0.073
-571.675	-83.966	-0.250	-0.081
-570.661	173.042	-0.008	-0.011
-569.646	37.587	-0.390	-0.353
-568.631	-117.772	-0.199	0.037
-567.617	-72.997	0.078	0.029
-566.602	-200.000	-0.011	0.113
-565.588	-91.511	-0.104	0.030
-564.573	-75.445	-0.194	0.071
-563.558	-200.000	0.047	0.222
-562.544	800.000	-0.075	0.246
-561.529	-200.000	0.018	-0.111
-560.515	90.742	-0.255	-0.292
-559.500	-112.664	-0.285	-0.058
-558.485	128.408	0.132	0.171
-557.471	800.000	0.018	0.052
-556.456	369.162	0.064	0.132
-555.442	546.491	-0.024	0.059
-554.427	432.535	-0.049	0.109
-553.412	206.657	-0.108	-0.172
-552.398	-200.000	0.007	0.062
-551.383	-200.000	-0.049	-0.456
-550.369	-152.682	0.124	-0.009
-549.354	-200.000	0.020	-0.137
-548.339	270.186	0.117	-0.209
-547.325	178.744	0.111	-0.166
-546.310	476.650	-0.097	0.224
-545.296	166.814	0.106	-0.153
-544.281	-67.405	-0.401	-0.161
-543.266	-114.425	0.183	0.036
-542.252	-200.000	0.039	0.233
-541.237	61.835	0.056	0.057
-540.223	-117.572	0.133	-0.025
-539.208	-142.951	-0.287	0.028
-538.193	-117.553	-0.266	0.049
-537.179	-5.498	0.253	0.177
-536.164	71.358	0.288	-0.305
-535.150	-55.087	0.157	-0.072
-534.135	-53.031	0.180	0.084
-533.121	-6.377	0.290	0.202
-532.106	-0.966	-0.190	0.137
-531.091	155.994	-0.040	0.056
-530.077	-153.771	-0.307	-0.021
-529.062	-121.094	-0.169	-0.029
-528.048	-38.815	0.232	-0.125
-527.033	7.169	-0.016	-0.012
-526.018	-27.144	0.151	-0.090
-525.004	127.491	0.145	-0.188
-523.989	30.233	0.138	-0.120
-522.975	324.525	0.065	0.127
-521.960	-200.000	0.002	-0.144
-520.945	176.918	0.094	0.139
-519.931	284.630	0.032	0.058
-518.916	-141.084	0.336	-0.035
-517.902	112.380	0.068	0.084
-516.887	130.375	-0.069	-0.090
-515.872	-112.214	0.337	-0.069
-514.858	202.633	0.097	-0.153
-513.843	-198.817	-0.153	-0.001
-512.829	-19.706	0.210	-0.132
-511.814	-74.554	0.358	0.131
-510.799	-200.000	0.035	0.373
-509.785	-169.064	0.149	0.006
-508.770	41.143	-0.115	0.106
-507.756	-180.741	0.130	0.003
-506.741	578.603	-0.066	-0.165
-505.726	82.777	-0.127	-0.140
-504.712	-6.091	-0.121	-0.084
-503.697	-25.583	0.165	-0.099
-502.683	-50.926	-0.239	-0.115
-501.668	-120.208	0.255	-0.044
-500.653	-116.097	0.125	-0.024
-499.639	500.642	0.067	0.157
-498.624	-161.842	0.064	0.003
-497.610	200.605	-0.037	0.058
-496.595	55.464	0.059	-0.058
-495.581	800.000	0.053	0.164
-494.566	0.753	0.160	-0.116
-493.551	-200.000	0.025	-0.210
-492.537	-74.457	0.235	0.086
-491.522	51.450	-0.225	-0.218
-490.508	10.521	-0.235	-0.182
-489.493	18.868	-0.206	-0.168
-488.478	443.718	-0.121	-0.270
-487.464	-59.743	0.154	-0.067
-486.449	-34.394	0.216	-0.120
-485.435	10.839	0.261	0.203
-484.420	-107.993	-0.111	0.025
-483.405	179.972	0.039	-0.058
-482.391	-54.828	-0.172	-0.079
-481.376	800.000	-0.091	-0.267
-480.362	90.232	-0.093	-0.105
-479.347	-128.548	-0.052	0.007
-478.332	-200.000	0.218	-0.001
-477.318	128.462	-0.098	0.127
-476.303	282.093	0.213	0.389
-475.289	321.202	0.066	-0.127
-474.274	-181.319	0.152	-0.003
-473.259	-155.569	0.278	0.018
-472.245	-183.871	-0.339	0.006
-471.230	18.553	0.230	-0.187
-470.216	-37.918	-0.195	0.106
-469.201	-120.035	-0.051	0.009
-468.186	164.871	0.210	-0.302
-467.172	-52.207	-0.256	-0.121
-466.157	800.000	0.071	0.221
-465.143	16.318	-0.229	0.184
-464.128	-92.552	0.361	-0.103
-463.113	-200.000	-0.015	0.139
-462.099	266.789	-0.081	0.144
-461.084	-112.110	-0.085	-0.017
-460.070	-18.487	0.222	-0.141
-459.055	-32.315	0.115	-0.065
-458.040	-60.343	0.133	0.058
-457.026	12.497	-0.185	0.146
-456.011	-200.000	0.010	-0.171
-454.997	-112.899	-0.523	-0.105
-453.982	137.390	-0.189	-0.252
-452.968	-200.000	-0.058	0.359
-451.953	-73.948	0.364	-0.134
-450.938	386.240	-0.023	0.048
-449.924	19.146	0.188	-0.153
-448.909	-200.000	-0.032	0.197
-447.895	-155.421	0.201	0.013
-446.880	800.000	0.057	0.250
-445.865	-200.000	0.014	0.103
-444.851	800.000	-0.029	0.090
-443.836	-200.000	0.040	-0.196
-442.822	39.053	0.167	-0.152
-441.807	-64.361	0.238	-0.098
-440.792	-200.000	-0.001	0.156
-439.778	800.000	-0.020	0.068
-438.763	140.633	-0.028	0.037
-437.749	7.315	-0.163	-0.124
-436.734	277.880	0.178	-0.322
-435.719	800.000	-0.083	-0.308
-434.705	188.697	0.125	-0.189
-433.690	-33.517	-0.071	-0.040
-432.676	-0.626	0.171	-0.123
-431.661	800.000	-0.012	-0.038
-430.646	-31.514	0.179	-0.103
-429.632	282.765	0.044	0.079
-428.617	-49.428	-0.207	-0.100
-427.603	24.630	-0.208	-0.175
-426.588	-80.355	0.075	-0.025
-425.573	202.696	0.183	0.286
-424.559	256.931	-0.065	-0.114
-423.544	-200.000	-0.034	-0.341
-422.530	-14.688	0.028	-0.018
-421.515	800.000	0.089	-0.327
-420.500	-200.000	0.007	0.207
-419.486	209.554	0.202	-0.321
-418.471	-128.664	-0.127	-0.018
-417.457	130.561	-0.071	-0.092
-416.442	25.714	-0.079	0.066
-415.428	-31.036	0.137	0.079
-414.413	-6.645	-0.128	0.088
-413.398	-40.932	0.240	0.126
-412.384	-33.917	-0.245	-0.137
-411.369	101.206	0.206	-0.244
-410.355	208.330	-0.165	0.262
-409.340	-197.940	-0.283	-0.002
-408.325	-114.043	0.263	0.052
-407.311	105.025	-0.194	0.233
-406.296	-7.901	-0.112	-0.077
-405.282	94.763	-0.218	0.252
-404.267	-150.426	-0.281	-0.022
-403.252	-200.000	-0.007	-0.272
-402.238	94.498	-0.231	-0.266
-401.223	29.541	0.031	0.027
-400.209	603.043	-0.053	-0.134
-399.194	-200.000	-0.019	-0.287
-398.179	800.000	-0.062	-0.267
-397.165	-200.000	-0.007	-0.167
-396.150	-87.554	0.333	-0.102
-395.136	295.323	-0.164	0.304
-394.121	2.502	0.319	-0.235
-393.106	38.743	-0.308	0.279
-392.092	-10.349	0.436	-0.293
-391.077	-46.357	-0.351	-0.175
-390.063	34.256	-0.084	-0.074
-389.048	311.735	-0.057	-0.108
-388.033	30.581	-0.037	0.032
-387.019	-102.665	-0.188	-0.045
-386.004	228.926	-0.067	-0.111
-384.990	-89.922	0.037	0.011
-383.975	345.901	0.030	0.059
-382.960	-200.000	0.048	-0.469
-381.946	-48.472	0.262	-0.128
-380.931	-4.107	0.337	0.237
-379.917	1.671	-0.207	0.151
-378.902	303.134	-0.111	0.209
-377.888	137.893	0.187	0.249
-376.873	314.749	0.164	0.313
-375.858	800.000	0.026	0.101
-374.844	-200.000	-0.034	0.387
-373.829	-60.805	0.450	-0.193
-372.815	31.967	0.157	-0.137
-371.800	-83.791	-0.154	0.050
-370.785	84.901	-0.093	0.103
-369.771	-115.301	-0.246	0.047
-368.756	68.447	0.141	0.146
-367.742	-80.815	0.278	0.094
-366.727	621.394	-0.093	-0.238
-365.712	156.972	-0.149	0.208
-364.698	547.672	0.069	-0.167
-363.683	-40.394	-0.301	-0.159
-362.669	800.000	-0.055	-0.172
-361.654	-200.000	0.271	0.001
-360.639	800.000	-0.068	-0.251
-359.625	143.488	-0.126	0.170
-358.610	-51.003	0.318	0.151
-357.596	-200.000	-0.018	0.224
-356.581	-9.672	0.121	0.082
-355.566	450.635	-0.059	-0.132
-354.552	800.000	-0.023	-0.067
-353.537	-70.318	0.237	-0.091
-352.523	800.000	-0.085	-0.354
-351.508	-39.415	-0.251	-0.133
-350.493	-51.584	-0.373	0.176
-349.479	745.441	-0.036	0.098
-348.464	77.583	-0.088	0.095
-347.450	-200.000	-0.016	0.342
-346.435	-200.000	0.015	-0.137
-345.420	-24.147	0.110	0.066
-344.406	-149.681	-0.066	0.005
-343.391	-200.000	0.075	0.430
-342.377	165.670	0.212	0.304
-341.362	-200.000	0.020	-0.422
-340.348	800.000	0.035	0.113
-339.333	-140.615	-0.159	-0.017
-338.318	-32.656	0.204	-0.115
-337.304	115.716	0.084	0.104
-336.289	125.253	0.149	-0.190
-335.275	-200.000	0.015	0.151
-334.260	-200.000	-0.008	-0.193
-333.245	-35.352	0.335	0.184
-332.231	779.438	-0.036	0.100
-331.216	-145.748	0.225	-0.020
-330.202	-53.359	0.111	-0.051
-329.187	327.761	-0.148	-0.288
-328.172	15.676	-0.232	-0.185
-327.158	288.755	-0.097	-0.178
-326.143	353.715	-0.060	-0.120
-325.129	269.912	-0.154	-0.273
-324.114	-128.937	0.141	0.020
-323.099	-16.952	0.163	0.104
-322.085	140.807	-0.047	0.063
-321.070	151.642	-0.078	0.107
-320.056	-117.007	0.107	-0.020
-319.041	-22.453	-0.226	-0.139
-318.026	-200.000	0.012	-0.255
-317.012	185.451	0.216	-0.325
-315.997	-0.627	-0.184	0.132
-314.983	-200.000	0.125	0.000
-313.968	245.288	-0.100	-0.169
-312.953	800.000	-0.057	-0.236
-311.939	800.000	-0.014	0.049
-310.924	195.087	0.124	-0.191
-309.910	628.168	-0.127	0.325
-308.895	-200.000	0.050	0.316
-307.880	305.107	0.051	0.096
-306.866	-133.417	0.193	0.024
-305.851	168.930	0.173	0.249
-304.837	800.000	0.025	0.104
-303.822	800.000	-0.087	0.261
-302.807	-39.149	-0.413	-0.220
-301.793	19.248	-0.188	0.152
-300.778	-49.754	0.365	0.176
-299.764	-29.653	-0.387	-0.223
-298.749	243.496	-0.054	-0.091
-297.735	-200.000	-0.025	-0.120
-296.720	-36.965	0.149	0.081
-295.705	781.917	-0.118	0.327
-294.691	-200.000	-0.012	0.114
-293.676	800.000	0.061	0.200
-292.662	-74.599	0.145	0.053
-291.647	46.397	0.273	-0.256
-290.632	-139.054	0.213	0.023
-289.618	15.666	-0.121	0.096
-288.603	273.061	0.061	-0.109
-287.589	-113.856	0.052	-0.010
-286.574	800.000	-0.112	0.391
-285.559	-24.436	0.382	0.230
-284.545	568.341	0.160	-0.394
-283.530	-0.935	0.335	-0.240
-282.516	365.989	-0.081	-0.166
-281.501	118.952	0.037	-0.046
-280.486	-126.578	0.146	-0.022
-279.472	567.696	-0.104	0.256
-278.457	238.189	-0.104	0.175
-277.443	-200.000	-0.058	0.310
-276.428	190.414	-0.346	0.525
-275.413	418.098	-0.077	0.166
-274.399	38.975	-0.041	0.037
-273.384	-104.073	-0.094	-0.022
-272.370	800.000	0.006	-0.019
-271.355	45.271	0.168	0.156
-270.340	-106.141	-0.050	-0.011
-269.326	-140.900	0.212	0.022
-268.311	453.478	-0.004	0.009
-267.297	-200.000	-0.025	-0.114
-266.282	91.058	-0.110	0.124
-265.267	439.540	-0.149	-0.329
-264.253	215.980	-0.164	-0.263
-263.238	-200.000	0.071	-0.336
-262.224	88.175	0.228	0.255
-261.209	-83.771	0.091	0.029
-260.195	169.228	-0.076	0.110
-259.180	-134.985	-0.165	0.020
-258.165	-200.000	0.007	-0.125
-257.151	688.875	0.052	0.138
-256.136	782.135	-0.062	0.172
-255.122	-200.000	-0.109	0.503
-254.107	-60.442	-0.289	-0.124
-253.092	-126.343	0.104	0.016
-252.078	-200.000	-0.024	0.403
-251.063	800.000	-0.143	0.411
-250.049	267.337	0.006	0.010
-249.034	760.204	-0.099	0.270
-248.019	238.796	-0.161	0.271
-247.005	390.939	-0.067	-0.141
-245.990	-59.978	-0.239	-0.103
-244.976	99.132	-0.209	-0.244
-243.961	-117.974	-0.238	0.043
-242.946	-200.000	-0.006	0.063
-241.932	411.323	0.080	0.171
-240.917	800.000	0.088	0.348
-239.903	85.761	0.125	-0.138
-238.888	-200.000	-0.030	0.210
-237.873	-118.574	-0.234	0.042
-236.859	-200.000	0.003	0.179
-235.844	-200.000	0.009	-0.399
-234.830	428.415	-0.065	-0.143
-233.815	504.232	-0.068	-0.158
-232.800	732.755	-0.036	-0.097
-231.786	132.205	-0.151	0.196
-230.771	54.664	0.234	-0.227
-229.757	162.690	-0.030	-0.043
-228.742	-94.629	-0.248	0.068
-227.727	535.380	0.163	-0.389
-226.713	-200.000	-0.074	0.331
-225.698	-156.207	0.238	-0.015
-224.684	672.771	0.024	0.063
-223.669	-84.607	0.389	0.124
-222.655	800.000	0.035	0.116
-221.640	-95.596	-0.066	-0.018
-220.625	-9.826	0.053	-0.036
-219.611	-200.000	-0.000	0.063
-218.596	-137.794	-0.221	0.025
-217.582	687.004	-0.086	-0.226
-216.567	119.246	0.116	0.145
-215.552	-69.513	0.235	-0.091
-214.538	800.000	-0.055	0.164
-213.523	-200.000	0.001	-0.327
-212.509	-73.305	-0.087	-0.032
-211.494	689.759	-0.028	-0.075
-210.479	-159.403	-0.256	0.014
-209.465	23.729	0.175	-0.145
-208.450	-200.000	-0.021	-0.121
-207.436	-77.507	0.471	0.165
-206.421	-111.521	0.102	-0.021
-205.406	214.868	0.129	-0.206
-204.392	274.596	0.064	0.115
-203.377	20.117	-0.220	0.179
-202.363	-126.881	-0.059	-0.009
-201.348	-31.817	0.226	0.128
-200.333	-200.000	0.020	-0.144
-199.319	-145.202	-0.370	-0.034
-198.304	-94.147	0.136	-0.038
-197.290	61.260	-0.095	0.095
-196.275	-39.526	-0.205	0.108
-195.260	-200.000	0.000	-0.063
-194.246	65.442	0.191	-0.195
-193.231	800.000	-0.088	0.350
-192.217	385.198	0.041	0.086
-191.202	629.225	0.043	0.110
-190.187	-200.000	-0.027	-0.130
-189.173	800.000	-0.102	0.343
-188.158	-1.662	-0.105	0.075
-187.144	37.221	-0.171	-0.152
-186.129	79.767	-0.063	0.068
-185.114	800.000	0.062	-0.173
-184.100	66.484	-0.197	-0.201
-183.085	-200.000	-0.028	-0.164
-182.071	668.869	-0.026	0.067
-181.056	-106.239	-0.162	0.037
-180.042	172.628	-0.162	-0.235
-179.027	-145.389	0.322	-0.029
-178.012	-200.000	0.014	0.111
-176.998	800.000	0.036	0.104
-175.983	43.446	-0.071	0.065
-174.969	-46.867	0.060	-0.030
-173.954	36.878	0.220	0.195
-172.939	-200.000	0.014	0.146
-171.925	15.350	-0.163	-0.128
-170.910	-176.768	0.097	-0.002
-169.896	-111.074	0.234	0.048
-168.881	-172.250	-0.323	0.010
-167.866	80.436	0.123	0.134
-166.852	-77.703	0.305	0.106
-165.837	82.357	-0.192	0.210
-164.823	540.805	-0.069	0.166
-163.808	-10.104	0.192	-0.128
-162.793	-200.000	-0.021	0.217
-161.779	800.000	0.050	0.183
-160.764	83.443	-0.090	-0.098
-159.750	-2.363	-0.272	-0.192
-158.735	230.083	-0.089	-0.146
-157.720	-123.626	0.236	0.038
-156.706	-200.000	-0.004	0.087
-155.691	800.000	0.072	0.216
-154.677	-22.104	-0.264	0.161
-153.662	289.622	-0.129	0.235
-152.647	-82.183	0.023	0.008
-151.633	247.187	-0.234	0.397
-150.618	126.009	0.028	0.036
-149.604	800.000	-0.043	0.143
-148.589	-36.999	0.187	-0.101
-147.574	800.000	0.090	0.278
-146.560	-57.425	-0.052	0.023
-145.545	491.940	0.037	0.086
-144.531	-111.900	0.292	0.059
-143.516	112.347	-0.095	-0.116
-142.502	-39.948	-0.491	0.258
-141.487	-190.487	-0.144	-0.002
-140.472	343.238	0.129	-0.253
-139.458	-72.499	-0.294	0.109
-138.443	696.441	-0.084	-0.220
-137.429	-130.761	0.390	-0.053
-136.414	-32.035	0.104	0.058
-135.399	9.508	0.399	-0.304
-134.385	-10.860	-0.169	0.112
-133.370	-89.669	-0.131	0.038
-132.356	-40.903	0.040	-0.021
-131.341	-172.782	0.291	-0.009
-130.326	167.880	0.127	-0.182
-129.312	-136.031	0.149	-0.018
-128.297	149.724	-0.212	-0.289
-127.283	126.768	-0.068	-0.086
-126.268	379.985	0.166	-0.342
-125.253	-128.393	0.105	0.015
-124.239	-36.485	0.355	-0.192
-123.224	-56.630	0.217	-0.097
-122.210	800.000	0.121	-0.352
-121.195	239.178	-0.026	0.043
