DTS Sentinel unit serial number:	SN413079Multiplexer serial number:	ORYXHardware model number:	OX4-SRSoftware version number:	ORYX F/W v4.00 Oryx Data Collector v3.7.2.0data status	okinstallation	princeton_trtdifferential loss correction	single-endedforward channel	channel 4reverse channel	N/Adate	2019/09/15time	09:53:35forward acquisition time	60.00reverse acquisition time	0.00gamma	496.2192k internal	0.2299k external	0.2299temperature offset calibration	1.0016default loss term (dB/km)	0.3790temperature slope calibration	1.0000multiplexer offset coefficient	1.0000multiplexer slope coefficient	1.0000fibre end	0.00T internal ref (°C)	34.06T ext. ref 1 (°C)	4.99T ext. ref 2 (°C)	29.85length (m)	temperature (°C)	Stokes	anti-Stokes-747.200	-200.000	0.022	0.183
-746.185	-25.013	0.282	0.170
-745.171	-79.884	-0.169	-0.058
-744.156	104.304	-0.013	0.016
-743.142	-200.000	0.011	-0.076
-742.127	-200.000	-0.034	-0.157
-741.112	-75.210	-0.158	-0.058
-740.098	156.735	0.102	0.143
-739.083	-108.881	0.350	0.076
-738.069	773.539	-0.074	0.206
-737.054	82.424	0.122	-0.135
-736.039	-132.630	-0.414	-0.054
-735.025	5.367	0.153	0.115
-734.010	-129.192	0.177	0.025
-732.996	-144.181	-0.391	-0.037
-731.981	-190.694	0.259	0.003
-730.966	-200.000	-0.152	0.000
-729.952	-12.485	-0.199	-0.132
-728.937	226.087	-0.052	-0.085
-727.923	26.145	0.171	0.146
-726.908	349.663	-0.171	0.345
-725.894	-128.703	-0.159	-0.023
-724.879	-113.046	-0.331	0.067
-723.864	352.856	0.043	-0.087
-722.850	-200.000	0.034	0.270
-721.835	298.672	0.075	-0.140
-720.821	-100.174	-0.059	-0.015
-719.806	-102.835	-0.237	-0.057
-718.791	11.761	0.231	-0.181
-717.777	4.115	0.084	0.062
-716.762	-60.540	-0.382	0.165
-715.748	-200.000	0.014	0.126
-714.733	143.657	0.045	-0.062
-713.718	-200.000	0.041	0.209
-712.704	-100.942	0.338	0.085
-711.689	-200.000	0.025	0.286
-710.675	-113.850	0.236	0.047
-709.660	182.367	-0.259	0.390
-708.645	-105.245	-0.166	-0.039
-707.631	-14.440	-0.303	-0.199
-706.616	-200.000	-0.082	-0.395
-705.602	-130.088	0.338	-0.047
-704.587	-114.816	-0.096	0.019
-703.572	-6.482	0.390	-0.271
-702.558	175.593	0.127	0.187
-701.543	-200.000	-0.019	-0.228
-700.529	10.546	0.111	0.086
-699.514	11.357	-0.187	-0.146
-698.499	-109.479	-0.426	-0.092
-697.485	42.461	0.263	-0.244
-696.470	-10.062	-0.106	0.072
-695.456	541.249	0.093	-0.225
-694.441	-200.000	0.003	-0.275
-693.426	254.528	0.153	0.266
-692.412	-109.443	0.083	-0.018
-691.397	-45.814	-0.223	-0.112
-690.383	58.745	-0.133	-0.133
-689.368	236.773	0.030	-0.050
-688.354	800.000	-0.015	-0.061
-687.339	-21.472	-0.187	0.116
-686.324	-95.461	-0.090	-0.025
-685.310	800.000	-0.043	-0.124
-684.295	-113.535	0.162	0.032
-683.281	-200.000	-0.018	0.082
-682.266	-38.564	-0.215	-0.116
-681.251	-200.000	-0.014	0.097
-680.237	800.000	-0.083	0.280
-679.222	-94.495	-0.134	0.037
-678.208	800.000	-0.057	0.226
-677.193	22.723	0.126	0.105
-676.178	38.329	0.100	-0.090
-675.164	-157.668	-0.252	0.015
-674.149	-106.620	0.188	-0.043
-673.135	154.193	0.162	-0.226
-672.120	-67.130	-0.175	-0.070
-671.105	-200.000	0.020	-0.289
-670.091	263.777	-0.079	-0.139
-669.076	800.000	0.035	0.120
-668.062	163.203	-0.291	0.416
-667.047	-5.569	-0.137	-0.096
-666.032	-200.000	0.023	-0.352
-665.018	-188.805	0.060	-0.001
-664.003	-200.000	0.045	-0.219
-662.989	391.671	0.128	0.270
-661.974	-101.644	-0.315	-0.078
-660.959	64.987	0.220	-0.227
-659.945	-200.000	-0.033	0.187
-658.930	677.195	-0.051	0.134
-657.916	-89.887	-0.295	0.088
-656.901	-200.000	-0.005	-0.033
-655.886	622.531	0.144	-0.369
-654.872	43.933	0.181	0.169
-653.857	-132.640	0.073	-0.010
-652.843	-200.000	0.001	0.192
-651.828	-93.728	0.186	0.052
-650.814	237.901	0.207	-0.349
-649.799	-200.000	-0.030	-0.272
-648.784	323.350	0.065	0.125
-647.770	-91.501	-0.065	-0.019
-646.755	50.757	-0.226	0.218
-645.741	-106.583	0.332	-0.075
-644.726	-200.000	-0.057	0.295
-643.711	-200.000	-0.001	0.219
-642.697	-200.000	0.051	0.267
-641.682	-200.000	0.012	-0.090
-640.668	-200.000	-0.017	0.182
-639.653	-200.000	-0.001	0.122
-638.638	117.796	-0.051	0.064
-637.624	-112.472	0.236	0.048
-636.609	-69.408	0.175	0.068
-635.595	127.378	0.269	-0.347
-634.580	800.000	-0.022	0.097
-633.565	-74.582	0.144	0.053
-632.551	63.793	0.154	-0.157
-631.536	-7.398	-0.170	-0.117
-630.522	-200.000	0.013	0.133
-629.507	-91.986	-0.465	0.134
-628.492	-126.264	0.316	0.048
-627.478	48.697	-0.425	-0.404
-626.463	635.656	-0.083	-0.213
-625.449	800.000	0.050	-0.150
-624.434	-147.175	-0.247	0.021
-623.419	153.193	0.146	-0.203
-622.405	143.398	-0.086	0.116
-621.390	-17.380	0.253	-0.162
-620.376	800.000	0.049	0.170
-619.361	-200.000	0.031	0.177
-618.346	-7.776	-0.084	-0.057
-617.332	96.321	-0.071	-0.083
-616.317	-200.000	0.022	-0.229
-615.303	-32.846	0.088	0.050
-614.288	-10.407	-0.281	0.189
-613.273	800.000	0.042	-0.150
-612.259	-193.418	0.303	0.003
-611.244	-46.609	0.330	-0.164
-610.230	-140.296	-0.308	-0.033
-609.215	-73.697	-0.299	0.110
-608.201	704.847	0.060	-0.162
-607.186	-114.754	0.249	-0.048
-606.171	800.000	0.082	0.358
-605.157	235.524	-0.137	-0.229
-604.142	96.997	-0.108	-0.126
-603.128	-55.539	0.167	0.076
-602.113	-173.858	-0.153	0.005
-601.098	-200.000	0.001	-0.136
-600.084	130.821	0.083	-0.109
-599.069	201.481	-0.032	-0.050
-598.055	6.130	0.184	0.138
-597.040	99.514	-0.167	0.196
-596.025	-200.000	0.002	0.134
-595.011	89.503	0.070	-0.079
-593.996	-64.693	0.336	-0.138
-592.982	-200.000	0.005	0.057
-591.967	519.878	-0.148	-0.352
-590.952	-7.480	-0.196	0.134
-589.938	-87.828	-0.115	0.035
-588.923	-24.694	0.326	0.196
-587.909	57.477	0.086	0.085
-586.894	-200.000	-0.026	-0.151
-585.879	800.000	-0.156	-0.600
-584.865	-95.220	0.178	-0.049
-583.850	-69.436	-0.211	0.082
-582.836	-48.123	0.183	0.090
-581.821	-86.641	-0.058	-0.018
-580.806	501.760	0.080	-0.188
-579.792	13.328	0.234	-0.184
-578.777	3.946	-0.089	-0.066
-577.763	-111.272	-0.442	0.092
-576.748	-16.380	-0.206	-0.132
-575.733	800.000	-0.053	0.167
-574.719	63.084	-0.044	-0.044
-573.704	354.351	-0.056	0.113
-572.690	800.000	0.014	0.058
-571.675	255.229	0.055	0.095
-570.661	297.574	0.176	0.328
-569.646	24.790	-0.273	-0.230
-568.631	117.688	0.072	0.089
-567.617	12.229	0.162	-0.127
-566.602	-200.000	-0.065	-0.305
-565.588	-137.596	-0.226	-0.026
-564.573	-67.587	0.121	-0.048
-563.558	388.977	0.028	0.058
-562.544	-19.450	0.270	-0.170
-561.529	-56.594	0.268	-0.120
-560.515	-200.000	-0.246	-0.001
-559.500	800.000	0.049	0.174
-558.485	-145.980	-0.090	-0.008
-557.471	-200.000	0.001	-0.211
-556.456	-8.038	0.038	0.026
-555.442	-51.245	0.285	0.135
-554.427	-33.613	0.104	-0.058
-553.412	-29.580	0.183	0.106
-552.398	800.000	0.049	0.182
-551.383	-200.000	-0.085	-0.437
-550.369	217.264	0.147	-0.238
-549.354	-136.400	-0.168	-0.020
-548.339	49.692	-0.141	-0.134
-547.325	3.696	-0.127	0.094
-546.310	-188.767	-0.137	-0.002
-545.296	-200.000	-0.000	-0.578
-544.281	142.636	0.157	-0.211
-543.266	20.928	-0.037	-0.030
-542.252	-54.178	0.348	0.160
-541.237	-86.178	0.261	-0.081
-540.223	32.175	-0.135	-0.118
-539.208	51.324	0.143	0.137
-538.193	350.825	0.063	-0.126
-537.179	-200.000	0.011	0.103
-536.164	-106.289	0.129	0.029
-535.150	-162.097	-0.219	-0.011
-534.135	-65.533	0.102	-0.041
-533.121	-26.246	-0.176	-0.105
-532.106	-119.036	0.256	0.045
-531.091	278.876	-0.089	0.162
-530.077	800.000	-0.040	-0.163
-529.062	-185.877	0.128	0.002
-528.048	-200.000	-0.020	0.157
-527.033	72.637	0.106	0.112
-526.018	-195.628	-0.029	-0.000
-525.004	-200.000	0.055	0.441
-523.989	15.921	-0.313	0.249
-522.975	-177.420	-0.490	0.012
-521.960	-27.079	0.197	0.116
-520.945	-7.758	0.421	-0.288
-519.931	-17.132	0.138	0.088
-518.916	153.988	-0.232	-0.322
-517.902	-64.628	0.119	0.049
-516.887	-200.000	-0.021	0.278
-515.872	121.021	0.059	0.074
-514.858	8.268	0.227	-0.173
-513.843	-200.000	0.027	-0.195
-512.829	128.569	-0.150	-0.194
-511.814	-200.000	-0.020	0.305
-510.799	118.288	-0.165	0.205
-509.785	-78.041	-0.206	-0.072
-508.770	-145.646	0.174	-0.016
-507.756	-200.000	-0.003	-0.030
-506.741	28.151	0.302	0.258
-505.726	-200.000	0.006	-0.099
-504.712	-200.000	0.007	0.094
-503.697	-135.124	-0.173	0.021
-502.683	-170.829	-0.086	-0.003
-501.668	132.915	-0.109	-0.143
-500.653	800.000	0.112	0.323
-499.639	-21.431	0.140	-0.086
-498.624	19.440	-0.110	0.089
-497.610	36.078	-0.130	-0.116
-496.595	-200.000	0.020	-0.141
-495.581	98.192	-0.196	-0.228
-494.566	-200.000	0.045	0.252
-493.551	-200.000	0.017	-0.413
-492.537	-200.000	-0.009	-0.165
-491.522	-200.000	-0.043	-0.205
-490.508	-200.000	0.005	0.058
-489.493	-23.510	0.330	0.200
-488.478	-69.309	-0.156	-0.060
-487.464	71.594	0.222	-0.233
-486.449	235.046	0.107	-0.178
-485.435	800.000	0.081	-0.237
-484.420	-125.201	0.116	-0.018
-483.405	-200.000	-0.011	-0.234
-482.391	800.000	0.036	-0.149
-481.376	103.534	0.256	-0.304
-480.362	-200.000	-0.019	0.278
-479.347	-11.009	-0.098	0.065
-478.332	-43.391	0.245	0.125
-477.318	-106.835	-0.192	0.043
-476.303	429.333	-0.091	0.199
-475.289	-170.982	0.033	0.001
-474.274	-45.858	0.174	-0.087
-473.259	-200.000	-0.032	0.477
-472.245	-153.313	-0.205	0.014
-471.230	-80.534	-0.276	0.093
-470.216	-81.080	0.120	-0.040
-469.201	31.223	-0.157	0.136
-468.186	484.911	0.051	-0.118
-467.172	12.408	-0.289	0.225
-466.157	-99.533	-0.450	0.114
-465.143	-3.204	-0.077	0.054
-464.128	-200.000	-0.011	-0.138
-463.113	-36.659	0.160	-0.087
-462.099	18.231	0.186	-0.150
-461.084	-134.891	-0.068	0.008
-460.070	727.330	0.089	0.241
-459.055	800.000	-0.092	0.263
-458.040	-10.861	-0.161	0.107
-457.026	-200.000	-0.057	0.269
-456.011	-72.546	0.094	0.035
-454.997	162.675	-0.093	0.132
-453.982	724.243	0.109	0.293
-452.968	-200.000	-0.004	0.164
-451.953	120.601	-0.081	0.101
-450.938	-200.000	-0.050	0.584
-449.924	236.547	-0.142	-0.238
-448.909	26.041	0.158	-0.133
-447.895	-33.491	-0.172	-0.096
-446.880	-86.419	0.288	-0.089
-445.865	427.149	0.132	-0.287
-444.851	93.494	0.182	-0.208
-443.836	61.368	0.152	-0.152
-442.822	-133.884	0.080	-0.010
-441.807	-69.989	-0.233	-0.089
-440.792	258.908	-0.167	-0.290
-439.778	-200.000	-0.022	-0.109
-438.763	-200.000	-0.067	0.536
-437.749	-196.308	-0.407	-0.003
-436.734	-110.301	-0.028	-0.006
-435.719	-136.733	0.162	-0.019
-434.705	-84.298	0.042	-0.013
-433.690	-90.252	0.230	-0.067
-432.676	183.401	-0.198	-0.295
-431.661	663.672	0.189	-0.492
-430.646	-19.825	0.166	-0.104
-429.632	-200.000	0.011	0.262
-428.617	-200.000	0.035	-0.347
-427.603	-200.000	-0.008	-0.479
-426.588	103.997	-0.182	0.216
-425.573	-64.165	0.200	-0.082
-424.559	-101.704	0.195	-0.048
-423.544	10.072	-0.252	0.193
-422.530	-200.000	-0.082	0.368
-421.515	-200.000	-0.016	0.092
-420.500	-34.309	-0.137	-0.076
-419.486	-122.411	-0.435	-0.071
-418.471	-110.042	0.171	0.036
-417.457	-200.000	0.033	0.321
-416.442	-43.191	-0.391	-0.199
-415.428	-141.037	-0.293	-0.030
-414.413	74.020	0.149	-0.157
-413.398	-39.160	0.052	0.028
-412.384	265.805	-0.082	-0.145
-411.369	245.324	-0.114	-0.193
-410.355	-90.387	-0.037	-0.011
-409.340	251.547	-0.145	-0.248
-408.325	-151.360	-0.215	-0.016
-407.311	-24.507	0.151	-0.091
-406.296	12.823	0.114	-0.089
-405.282	-26.089	-0.252	0.149
-404.267	-21.270	-0.382	-0.235
-403.252	13.457	0.040	-0.031
-402.238	-200.000	0.001	0.219
-401.223	-200.000	0.019	0.160
-400.209	-114.860	0.012	0.002
-399.194	-200.000	-0.035	0.160
-398.179	47.866	-0.304	0.286
-397.165	163.190	0.063	-0.088
-396.150	-200.000	0.002	-0.214
-395.136	-200.000	0.022	0.308
-394.121	-136.138	-0.343	-0.040
-393.106	-15.144	-0.263	0.170
-392.092	-178.998	0.200	0.005
-391.077	-146.655	0.386	0.034
-390.063	380.853	-0.207	0.427
-389.048	0.750	-0.313	-0.225
-388.033	52.665	-0.408	-0.392
-387.019	-38.311	-0.230	-0.122
-386.004	-86.599	0.252	-0.078
-384.990	800.000	-0.011	0.041
-383.975	200.899	-0.095	-0.147
-382.960	-45.207	0.338	-0.169
-381.946	68.508	-0.278	-0.287
-380.931	-51.428	-0.172	-0.081
-379.917	-42.342	-0.220	0.113
-378.902	-200.000	-0.011	0.352
-377.888	-87.118	-0.086	0.026
-376.873	-108.391	0.196	-0.043
-375.858	-70.640	-0.272	0.103
-374.844	-10.294	0.246	0.164
-373.829	-200.000	0.014	-0.182
-372.815	17.286	0.108	0.086
-371.800	-34.040	0.104	-0.058
-370.785	140.711	0.193	-0.257
-369.771	13.709	-0.171	-0.134
-368.756	11.256	0.190	-0.146
-367.742	111.661	-0.135	0.163
-366.727	-9.146	0.277	0.186
-365.712	30.512	0.066	-0.057
-364.698	800.000	0.038	-0.156
-363.683	-200.000	0.030	-0.176
-362.669	408.558	-0.138	-0.293
-361.654	303.516	-0.139	-0.260
-360.639	-58.213	-0.253	-0.111
-359.625	-200.000	0.021	0.142
-358.610	393.238	0.078	0.164
-357.596	-68.490	-0.187	-0.073
-356.581	-119.678	0.162	0.028
-355.566	-200.000	-0.012	-0.098
-354.552	-200.000	-0.023	-0.131
-353.537	-123.927	0.467	0.074
-352.523	-200.000	-0.022	0.110
-351.508	131.384	0.076	-0.098
-350.493	800.000	0.050	-0.182
-349.479	558.024	0.123	0.299
-348.464	568.106	0.058	-0.143
-347.450	-200.000	-0.048	-0.296
-346.435	-60.472	-0.139	-0.059
-345.420	365.454	-0.152	0.308
-344.406	-159.262	-0.089	-0.005
-343.391	-120.826	0.121	0.020
-342.377	250.101	0.036	-0.061
-341.362	-200.000	0.033	0.166
-340.348	91.297	0.159	-0.179
-339.333	-85.137	-0.296	-0.093
-338.318	379.508	0.058	-0.119
-337.304	267.001	-0.054	0.094
-336.289	5.642	-0.246	-0.183
-335.275	-114.578	0.407	0.078
-334.260	-200.000	0.029	0.293
-333.245	163.706	-0.099	-0.140
-332.231	403.219	-0.137	-0.290
-331.216	-2.812	0.120	0.084
-330.202	-98.945	0.066	-0.017
-329.187	-52.868	0.170	0.079
-328.172	-147.129	-0.073	-0.006
-327.158	203.691	0.085	0.132
-326.143	347.042	0.022	-0.044
-325.129	-200.000	-0.016	-0.105
-324.114	800.000	0.057	0.177
-323.099	57.792	-0.243	0.239
-322.085	15.528	-0.209	-0.165
-321.070	800.000	-0.056	-0.177
-320.056	-42.767	0.027	0.014
-319.041	-117.264	0.083	0.015
-318.026	800.000	-0.055	-0.238
-317.012	329.783	-0.035	-0.068
-315.997	-200.000	0.006	-0.098
-314.983	-35.582	-0.140	0.076
-313.968	660.264	0.053	-0.136
-312.953	-162.696	0.186	0.009
-311.939	43.974	0.043	0.039
-310.924	-140.877	0.311	-0.032
-309.910	148.320	0.033	0.044
-308.895	17.772	-0.457	-0.365
-307.880	-38.878	-0.213	0.113
-306.866	-200.000	0.014	0.300
-305.851	128.684	-0.038	-0.049
-304.837	151.962	0.125	-0.171
-303.822	150.462	0.102	0.139
-302.807	665.358	0.083	0.216
-301.793	-118.684	0.214	-0.038
-300.778	305.408	0.180	0.335
-299.764	-104.054	-0.305	-0.071
-298.749	-200.000	0.008	0.071
-297.735	-55.134	0.182	-0.082
-296.720	800.000	0.040	-0.175
-295.705	-200.000	-0.002	0.267
-294.691	330.369	0.186	0.360
-293.676	-182.256	0.437	-0.008
-292.662	-200.000	0.014	0.156
-291.647	800.000	-0.029	-0.089
-290.632	-200.000	-0.011	-0.146
-289.618	208.991	0.140	0.220
-288.603	-47.419	0.103	-0.050
-287.589	116.540	-0.063	0.077
-286.574	113.484	0.250	0.304
-285.559	-200.000	0.056	0.385
-284.545	800.000	-0.030	0.104
-283.530	81.569	-0.069	0.075
-282.516	254.883	-0.056	0.095
-281.501	-163.077	0.215	0.010
-280.486	-173.481	-0.228	-0.007
-279.472	-143.457	0.292	0.028
-278.457	-118.808	0.270	0.048
-277.443	-172.246	0.268	0.009
-276.428	306.201	-0.074	0.137
-275.413	-158.327	-0.132	0.008
-274.399	-32.494	-0.150	0.084
-273.384	311.059	-0.111	-0.208
-272.370	69.393	0.235	0.243
-271.355	184.271	0.108	0.160
-270.340	-111.306	0.451	0.092
-269.326	173.299	-0.091	-0.132
-268.311	800.000	-0.077	-0.216
-267.297	-200.000	-0.001	0.052
-266.282	-200.000	-0.045	-0.240
-265.267	13.340	-0.232	-0.180
-264.253	800.000	-0.028	-0.106
-263.238	442.631	0.104	-0.227
-262.224	191.450	-0.174	-0.263
-261.209	180.325	0.271	-0.398
-260.195	-123.247	0.189	-0.030
-259.180	-82.058	-0.278	0.091
-258.165	13.425	0.071	0.055
-257.151	142.036	0.082	0.109
-256.136	-110.507	0.282	-0.059
-255.122	-61.307	0.155	0.065
-254.107	-158.605	0.199	-0.011
-253.092	30.693	0.168	0.144
-252.078	81.959	-0.193	0.209
-251.063	219.073	-0.179	0.287
-250.049	-115.425	-0.273	-0.051
-249.034	-29.737	0.068	-0.039
-248.019	180.310	-0.092	0.136
-247.005	-6.939	0.239	-0.163
-245.990	394.126	-0.036	-0.075
-244.976	230.545	-0.193	0.315
-243.961	-111.556	0.192	-0.039
-242.946	275.801	-0.076	-0.135
-241.932	-106.462	-0.270	0.060
-240.917	800.000	-0.120	0.360
-239.903	138.849	0.034	0.045
-238.888	800.000	0.129	-0.432
-237.873	-105.276	-0.121	0.028
-236.859	569.106	0.033	-0.081
-235.844	16.920	0.201	0.159
-234.830	-200.000	0.003	0.269
-233.815	-200.000	-0.007	0.119
-232.800	-98.946	-0.106	-0.027
-231.786	38.373	0.075	-0.067
-230.771	-138.099	0.184	-0.020
-229.757	-141.985	-0.083	-0.008
-228.742	-92.647	-0.263	-0.074
-227.727	-103.203	-0.156	-0.037
-226.713	800.000	0.121	0.368
-225.698	-183.923	-0.217	0.004
-224.684	176.392	0.300	0.436
-223.669	-200.000	0.004	0.182
-222.655	800.000	0.098	0.285
-221.640	-148.989	-0.154	0.012
-220.625	-57.401	0.264	-0.116
-219.611	-200.000	-0.040	-0.253
-218.596	-128.606	-0.058	0.008
-217.582	193.067	0.085	0.128
-216.567	114.351	-0.241	0.294
-215.552	-200.000	-0.015	-0.186
-214.538	-200.000	-0.031	0.143
-213.523	-104.809	0.252	-0.058
-212.509	-93.089	-0.371	-0.103
-211.494	-25.117	-0.348	-0.206
-210.479	-200.000	0.013	-0.080
-209.465	-15.119	-0.143	0.092
-208.450	735.626	0.103	-0.276
-207.436	-142.062	0.159	0.016
-206.421	46.422	-0.103	0.095
-205.406	-200.000	-0.023	0.110
-204.392	-108.001	-0.014	0.003
-203.377	81.773	0.130	0.140
-202.363	178.725	-0.173	-0.253
-201.348	-200.000	-0.038	0.197
-200.333	-134.776	-0.069	-0.008
-199.319	800.000	0.021	-0.060
-198.304	79.457	-0.100	-0.107
-197.290	-131.588	0.196	0.026
-196.275	89.788	-0.123	0.137
-195.260	42.024	-0.314	0.284
-194.246	752.703	-0.086	0.233
-193.231	177.280	-0.140	-0.203
-192.217	75.276	0.085	0.090
-191.202	97.119	0.126	0.144
-190.187	-85.375	-0.149	-0.046
-189.173	243.844	-0.099	0.167
-188.158	415.334	0.156	-0.331
-187.144	-189.785	0.047	0.001
-186.129	-28.452	-0.307	-0.177
-185.114	-104.426	-0.032	0.008
-184.100	238.394	0.128	-0.212
-183.085	439.824	-0.036	0.078
-182.071	367.577	0.130	0.263
-181.056	-161.161	0.306	-0.016
-180.042	-200.000	0.000	-0.137
-179.027	-168.419	0.254	0.010
-178.012	106.848	0.216	0.256
-176.998	38.016	-0.170	0.151
-175.983	17.884	-0.178	0.141
-174.969	-35.028	-0.416	0.227
-173.954	-79.761	0.247	0.083
-172.939	-200.000	0.008	0.107
-171.925	-62.601	-0.247	0.102
-170.910	-200.000	0.011	0.095
-169.896	362.246	0.029	0.058
-168.881	-38.670	0.143	-0.075
-167.866	-37.310	0.243	0.129
-166.852	-200.000	0.010	-0.048
-165.837	103.287	0.166	-0.194
-164.823	-200.000	0.002	0.332
-163.808	-62.374	0.164	-0.068
-162.793	-85.496	0.267	-0.083
-161.779	379.702	-0.072	-0.148
-160.764	-59.575	-0.072	0.031
-159.750	-200.000	-0.016	-0.197
-158.735	800.000	0.035	0.128
-157.720	800.000	-0.037	-0.150
-156.706	-79.788	0.209	-0.070
-155.691	-154.086	-0.285	-0.019
-154.677	-40.407	-0.098	-0.051
-153.662	149.539	0.011	-0.015
-152.647	277.339	-0.070	0.124
-151.633	-200.000	-0.009	0.425
-150.618	106.570	-0.067	-0.079
-149.604	-128.425	0.167	-0.024
-148.589	328.340	-0.030	-0.058
-147.574	23.062	-0.169	-0.138
-146.560	289.030	-0.182	0.329
-145.545	-200.000	-0.045	0.274
-144.531	33.254	-0.032	0.028
-143.516	83.247	-0.119	-0.129
-142.502	-16.694	0.302	0.191
-141.487	-129.448	-0.118	0.016
-140.472	800.000	0.005	-0.016
-139.458	412.216	-0.072	-0.151
-138.443	33.366	0.234	-0.203
-137.429	-200.000	0.020	0.195
-136.414	-137.342	-0.228	-0.026
-135.399	-200.000	-0.016	-0.072
-134.385	-200.000	0.023	0.406
-133.370	800.000	-0.115	-0.359
-132.356	37.806	0.304	-0.269
-131.341	661.563	0.058	-0.149
-130.326	288.574	0.117	0.211
-129.312	-73.351	0.211	-0.077
-128.297	268.165	-0.072	0.126
-127.283	-200.000	-0.039	0.278
-126.268	800.000	0.024	-0.091
-125.253	-200.000	0.006	0.175
-124.239	-0.491	0.080	-0.057
-123.224	121.178	0.068	-0.084
