DTS Sentinel unit serial number:	SN413079Multiplexer serial number:	ORYXHardware model number:	OX4-SRSoftware version number:	ORYX F/W v4.00 Oryx Data Collector v3.7.2.0data status	okinstallation	princeton_trtdifferential loss correction	single-endedforward channel	channel 4reverse channel	N/Adate	2019/09/19time	14:41:35forward acquisition time	60.00reverse acquisition time	0.00gamma	496.2192k internal	0.2305k external	0.2305temperature offset calibration	1.0022default loss term (dB/km)	0.3790temperature slope calibration	1.0000multiplexer offset coefficient	1.0000multiplexer slope coefficient	1.0000fibre end	0.00T internal ref (°C)	32.55T ext. ref 1 (°C)	1.09T ext. ref 2 (°C)	29.59length (m)	temperature (°C)	Stokes	anti-Stokes-747.200	-16.452	-0.231	0.149
-746.185	-5.808	0.222	-0.155
-745.171	800.000	0.075	-0.269
-744.156	187.420	-0.179	0.272
-743.142	257.869	0.060	0.106
-742.127	288.490	-0.226	0.416
-741.112	-33.838	0.091	-0.051
-740.098	-102.209	-0.332	-0.081
-739.083	-139.323	-0.205	-0.022
-738.069	180.616	-0.197	0.294
-737.054	203.694	-0.109	0.172
-736.039	-131.834	-0.201	-0.027
-735.025	97.547	-0.277	0.323
-734.010	730.071	0.167	-0.453
-732.996	149.310	0.114	0.157
-731.981	-28.848	-0.289	-0.169
-730.966	9.664	-0.116	0.090
-729.952	226.249	-0.183	-0.302
-728.937	52.427	0.213	-0.207
-727.923	100.553	-0.131	-0.154
-726.908	180.748	-0.138	-0.206
-725.894	346.555	-0.049	-0.098
-724.879	-200.000	-0.041	-0.324
-723.864	-169.450	0.328	0.012
-722.850	-119.597	-0.115	-0.020
-721.835	800.000	-0.024	-0.105
-720.821	16.038	-0.215	-0.172
-719.806	141.263	-0.116	-0.156
-718.791	332.371	0.242	-0.476
-717.777	153.952	-0.254	-0.354
-716.762	12.549	-0.141	0.111
-715.748	35.938	-0.244	-0.218
-714.733	131.406	-0.110	-0.144
-713.718	-117.835	-0.137	-0.025
-712.704	-200.000	-0.057	-0.402
-711.689	103.853	0.114	0.136
-710.675	112.339	0.056	0.069
-709.660	202.694	-0.075	-0.118
-708.645	78.199	0.182	-0.198
-707.631	7.381	-0.078	0.059
-706.616	248.666	-0.062	-0.106
-705.602	70.210	-0.158	0.166
-704.587	7.545	-0.199	-0.151
-703.572	5.179	-0.066	0.050
-702.558	-115.180	0.194	0.037
-701.543	-200.000	0.003	0.185
-700.529	20.798	0.192	-0.158
-699.514	-34.703	-0.328	0.182
-698.499	800.000	-0.039	0.123
-697.485	-200.000	-0.027	-0.325
-696.470	737.376	0.012	0.032
-695.456	-77.639	-0.087	-0.031
-694.441	447.792	-0.209	-0.468
-693.426	-200.000	0.028	0.268
-692.412	-117.118	0.082	0.015
-691.397	-167.203	0.289	0.012
-690.383	-64.479	-0.367	-0.152
-689.368	-200.000	0.004	0.278
-688.354	71.307	-0.293	-0.309
-687.339	-164.873	-0.225	-0.010
-686.324	89.990	-0.258	0.293
-685.310	-200.000	0.002	0.217
-684.295	153.552	0.014	0.019
-683.281	82.237	-0.152	-0.167
-682.266	-38.370	0.192	0.103
-681.251	800.000	0.090	-0.292
-680.237	240.529	-0.133	0.224
-679.222	45.156	-0.130	-0.122
-678.208	-200.000	-0.016	-0.182
-677.193	-45.024	-0.142	0.072
-676.178	-34.852	-0.355	0.197
-675.164	-62.704	-0.366	-0.154
-674.149	211.154	0.073	-0.117
-673.135	-61.990	-0.215	0.091
-672.120	-200.000	-0.022	0.251
-671.105	753.755	0.108	-0.297
-670.091	800.000	0.094	-0.286
-669.076	265.013	0.156	-0.275
-668.062	-200.000	-0.043	-0.250
-667.047	1.076	0.047	-0.034
-666.032	-200.000	-0.018	-0.157
-665.018	-13.645	-0.101	-0.067
-664.003	-57.329	-0.065	-0.029
-662.989	-104.442	-0.128	-0.030
-661.974	131.448	0.058	0.075
-660.959	-104.017	-0.048	0.011
-659.945	-200.000	-0.001	-0.195
-658.930	101.993	0.290	-0.344
-657.916	444.488	0.102	-0.228
-656.901	-200.000	0.095	-0.517
-655.886	52.755	-0.107	0.104
-654.872	-147.410	-0.337	0.029
-653.857	-18.189	-0.232	-0.147
-652.843	-116.565	-0.304	0.057
-651.828	389.242	-0.215	-0.452
-650.814	-105.195	0.129	0.030
-649.799	-151.029	0.266	-0.020
-648.784	-13.192	-0.087	-0.057
-647.770	-168.794	-0.291	0.011
-646.755	-6.795	0.193	-0.133
-645.741	-200.000	0.036	0.194
-644.726	-52.926	-0.213	-0.099
-643.711	181.226	0.178	-0.266
-642.697	735.991	0.090	0.243
-641.682	341.678	0.155	-0.307
-640.668	-151.608	0.105	-0.008
-639.653	14.157	-0.205	0.162
-638.638	800.000	0.022	0.080
-637.624	-83.441	0.093	0.030
-636.609	-18.457	-0.009	0.006
-635.595	-200.000	0.035	-0.235
-634.580	-86.481	0.175	0.054
-633.565	-104.817	-0.061	0.014
-632.551	424.774	0.089	0.194
-631.536	800.000	-0.102	-0.369
-630.522	-152.471	-0.229	0.017
-629.507	14.614	-0.130	0.103
-628.492	60.435	-0.029	-0.029
-627.478	800.000	-0.076	0.218
-626.463	-88.620	-0.079	0.024
-625.449	-76.794	0.053	0.019
-624.434	-154.616	0.195	-0.013
-623.419	508.914	0.054	0.126
-622.405	-41.732	0.128	0.067
-621.390	800.000	0.105	-0.318
-620.376	-5.567	-0.007	0.005
-619.361	-200.000	0.102	0.640
-618.346	430.497	-0.084	-0.183
-617.332	-200.000	-0.022	-0.141
-616.317	-0.569	-0.216	-0.155
-615.303	-55.037	0.252	-0.115
-614.288	-93.535	-0.194	0.054
-613.273	-200.000	0.009	0.212
-612.259	166.759	0.157	0.225
-611.244	-122.121	-0.009	0.001
-610.230	800.000	0.114	-0.504
-609.215	54.419	-0.228	0.223
-608.201	163.761	-0.155	0.221
-607.186	-144.291	-0.220	0.021
-606.171	-22.709	-0.111	-0.068
-605.157	-41.843	-0.221	0.115
-604.142	800.000	-0.047	0.152
-603.128	-74.403	-0.254	-0.093
-602.113	-82.896	-0.379	-0.124
-601.098	105.638	-0.094	-0.112
-600.084	0.148	0.145	0.105
-599.069	660.196	-0.088	-0.229
-598.055	-6.927	0.106	0.073
-597.040	41.837	-0.022	-0.020
-596.025	800.000	-0.073	-0.318
-595.011	-103.796	-0.235	-0.056
-593.996	-48.247	0.216	0.105
-592.982	-200.000	-0.004	0.166
-591.967	99.533	0.046	0.054
-590.952	-84.820	0.171	0.054
-589.938	-200.000	0.015	0.112
-588.923	-130.747	-0.158	-0.022
-587.909	99.936	-0.137	0.160
-586.894	-132.241	0.323	-0.042
-585.879	203.398	-0.105	0.164
-584.865	-65.456	-0.119	0.048
-583.850	-132.930	0.006	-0.001
-582.836	800.000	0.042	-0.146
-581.821	800.000	-0.121	-0.477
-580.806	158.607	0.136	0.190
-579.792	-53.635	-0.210	0.097
-578.777	-59.501	-0.180	0.078
-577.763	-200.000	0.005	0.358
-576.748	-182.005	0.333	0.006
-575.733	6.497	0.490	-0.368
-574.719	-89.673	-0.179	-0.053
-573.704	-76.020	0.155	0.056
-572.690	-65.717	-0.279	-0.113
-571.675	-53.814	-0.170	0.078
-570.661	437.426	-0.061	0.135
-569.646	-200.000	0.011	0.248
-568.631	-110.047	-0.308	0.065
-567.617	284.569	-0.051	0.093
-566.602	-143.230	0.238	0.023
-565.588	-200.000	0.017	0.195
-564.573	-200.000	-0.040	-0.228
-563.558	800.000	0.099	0.302
-562.544	-174.299	0.416	0.012
-561.529	153.219	-0.088	0.122
-560.515	449.813	0.093	-0.208
-559.500	-142.890	0.168	0.016
-558.485	800.000	-0.030	0.092
-557.471	-130.379	0.010	0.001
-556.456	-71.269	0.282	0.107
-555.442	-200.000	0.009	0.428
-554.427	-200.000	-0.000	-0.023
-553.412	-15.186	0.242	0.157
-552.398	-90.079	-0.119	0.035
-551.383	-35.934	-0.226	-0.123
-550.369	-36.454	0.084	0.046
-549.354	-177.752	0.257	0.006
-548.339	185.000	0.086	-0.128
-547.325	-36.026	-0.222	-0.121
-546.310	-85.752	0.316	0.099
-545.296	-116.775	-0.191	-0.035
-544.281	-68.801	-0.054	-0.021
-543.266	87.576	0.227	0.254
-542.252	82.065	-0.094	0.103
-541.237	-188.094	-0.205	-0.003
-540.223	505.192	0.093	-0.218
-539.208	-200.000	-0.016	0.212
-538.193	-59.234	-0.179	-0.078
-537.179	800.000	-0.073	-0.260
-536.164	66.748	0.227	0.233
-535.150	-15.101	0.157	-0.102
-534.135	271.803	0.101	-0.180
-533.121	800.000	-0.013	-0.056
-532.106	800.000	-0.020	-0.071
-531.091	-30.120	0.049	-0.028
-530.077	-200.000	-0.007	-0.141
-529.062	-67.174	0.184	-0.073
-528.048	428.153	-0.081	0.177
-527.033	-200.000	-0.013	0.114
-526.018	48.665	-0.174	0.164
-525.004	39.196	-0.083	0.075
-523.989	182.307	-0.257	-0.382
-522.975	-200.000	0.015	0.255
-521.960	35.334	0.116	0.103
-520.945	800.000	-0.073	0.280
-519.931	-148.872	-0.226	-0.018
-518.916	-58.283	-0.284	0.125
-517.902	-200.000	-0.150	-0.763
-516.887	800.000	-0.145	-0.605
-515.872	-98.869	0.222	-0.057
-514.858	-200.000	0.053	-0.247
-513.843	-175.836	-0.446	0.012
-512.829	800.000	-0.087	-0.284
-511.814	-5.459	0.235	0.163
-510.799	-160.820	0.270	-0.014
-509.785	152.735	-0.177	-0.243
-508.770	-33.324	0.103	-0.058
-507.756	-175.075	0.249	-0.007
-506.741	172.550	0.114	-0.165
-505.726	-30.452	-0.083	0.047
-504.712	-75.049	-0.166	-0.060
-503.697	38.575	-0.093	-0.083
-502.683	800.000	0.012	-0.042
-501.668	106.726	-0.156	-0.186
-500.653	194.746	0.131	-0.201
-499.639	117.868	0.072	0.090
-498.624	156.688	0.121	-0.169
-497.610	798.606	0.142	-0.396
-496.595	74.720	-0.053	0.057
-495.581	175.583	0.184	0.269
-494.566	214.011	0.041	0.065
-493.551	-61.092	-0.089	0.038
-492.537	-200.000	-0.019	-0.168
-491.522	-147.320	0.135	0.012
-490.508	298.988	0.171	-0.316
-489.493	110.344	-0.166	0.201
-488.478	55.841	0.135	-0.132
-487.464	800.000	0.023	-0.079
-486.449	-79.495	-0.479	-0.163
-485.435	109.320	-0.152	-0.183
-484.420	-21.484	0.200	0.123
-483.405	-72.698	-0.281	0.104
-482.391	-147.980	-0.232	0.019
-481.376	28.776	-0.110	0.094
-480.362	800.000	0.039	-0.133
-479.347	-200.000	-0.042	-0.215
-478.332	90.754	-0.042	-0.048
-477.318	-2.190	0.119	-0.084
-476.303	-43.506	0.318	0.162
-475.289	-82.985	0.183	-0.059
-474.274	-91.589	0.185	0.053
-473.259	-145.798	-0.260	0.023
-472.245	-30.919	0.108	-0.061
-471.230	-27.275	0.402	0.236
-470.216	-84.891	-0.043	0.014
-469.201	-200.000	0.010	0.058
-468.186	-166.199	-0.222	-0.009
-467.172	-82.876	0.233	-0.076
-466.157	22.657	-0.270	-0.222
-465.143	-98.128	0.236	-0.061
-464.128	-200.000	0.010	-0.266
-463.113	-59.429	-0.235	0.102
-462.099	-144.911	-0.227	-0.021
-461.084	165.281	0.088	0.125
-460.070	759.392	-0.078	-0.214
-459.055	-21.802	-0.079	-0.049
-458.040	-158.220	-0.265	0.016
-457.026	51.683	-0.107	-0.103
-456.011	137.456	-0.059	-0.077
-454.997	-200.000	-0.276	-0.000
-453.982	-5.008	0.066	-0.046
-452.968	-18.512	-0.210	-0.132
-451.953	-200.000	-0.023	0.318
-450.938	217.907	0.189	0.304
-449.924	121.490	0.204	0.255
-448.909	-104.904	-0.246	-0.057
-447.895	-46.610	-0.038	-0.019
-446.880	-13.443	0.180	0.117
-445.865	800.000	-0.039	0.113
-444.851	-69.086	0.137	0.053
-443.836	3.317	0.151	-0.110
-442.822	800.000	-0.063	-0.228
-441.807	-16.291	-0.255	-0.163
-440.792	-138.680	0.132	-0.015
-439.778	-200.000	-0.053	0.262
-438.763	800.000	-0.104	0.309
-437.749	0.595	-0.167	0.120
-436.734	-139.495	-0.226	-0.024
-435.719	-38.447	0.141	0.075
-434.705	800.000	-0.088	0.308
-433.690	-200.000	-0.011	0.258
-432.676	-200.000	0.004	0.302
-431.661	-50.707	0.308	0.146
-430.646	70.985	-0.352	0.367
-429.632	74.802	0.065	0.068
-428.617	50.696	-0.068	0.064
-427.603	800.000	0.065	-0.211
-426.588	4.084	-0.311	-0.229
-425.573	679.307	-0.036	0.094
-424.559	-179.004	-0.158	-0.004
-423.544	-168.729	-0.360	0.014
-422.530	219.783	-0.194	-0.312
-421.515	-34.207	0.236	0.130
-420.500	-200.000	0.024	-0.166
-419.486	-200.000	0.020	0.342
-418.471	-108.193	0.391	0.085
-417.457	800.000	0.046	-0.174
-416.442	800.000	0.091	0.277
-415.428	27.715	-0.028	0.024
-414.413	253.500	-0.309	-0.531
-413.398	674.209	0.045	0.116
-412.384	-200.000	-0.009	-0.403
-411.369	-83.476	-0.348	0.112
-410.355	-63.397	-0.233	-0.096
-409.340	32.651	0.249	0.217
-408.325	800.000	0.048	-0.168
-407.311	-200.000	-0.053	0.527
-406.296	210.583	0.159	-0.251
-405.282	50.989	-0.178	-0.169
-404.267	104.505	0.179	0.212
-403.252	84.425	0.059	0.065
-402.238	101.297	0.033	0.039
-401.223	-106.522	0.079	-0.018
-400.209	4.774	-0.182	-0.134
-399.194	-103.944	-0.231	0.054
-398.179	-200.000	0.244	0.001
-397.165	-152.605	0.153	0.011
-396.150	800.000	-0.006	-0.017
-395.136	214.379	-0.069	-0.110
-394.121	-200.000	0.048	-0.496
-393.106	85.358	0.053	-0.058
-392.092	-200.000	0.011	0.053
-391.077	64.335	0.137	-0.138
-390.063	39.829	0.078	-0.070
-389.048	800.000	-0.061	-0.193
-388.033	-133.491	0.341	-0.043
-387.019	-200.000	0.022	0.120
-386.004	3.424	-0.357	0.261
-384.990	319.480	-0.056	0.107
-383.975	-83.736	0.272	0.087
-382.960	-200.000	0.009	0.106
-381.946	-79.528	-0.158	0.053
-380.931	-77.852	-0.159	-0.055
-379.917	90.776	-0.022	-0.024
-378.902	38.292	0.239	0.214
-377.888	291.995	-0.086	-0.157
-376.873	800.000	-0.101	-0.299
-375.858	413.093	0.030	-0.064
-374.844	-29.982	-0.385	-0.220
-373.829	640.389	-0.168	0.429
-372.815	-24.164	-0.079	-0.047
-371.800	664.632	-0.081	0.209
-370.785	11.549	0.198	0.153
-369.771	-136.703	-0.354	0.041
-368.756	-200.000	-0.055	-0.286
-367.742	390.261	-0.095	-0.197
-366.727	-200.000	0.009	-0.169
-365.712	-44.622	0.065	0.033
-364.698	621.791	-0.007	-0.019
-363.683	-29.054	-0.146	-0.084
-362.669	66.859	-0.311	0.317
-361.654	172.035	0.232	0.335
-360.639	-65.758	-0.163	0.066
-359.625	179.781	0.069	0.102
-358.610	172.552	-0.088	0.127
-357.596	-41.625	-0.406	0.209
-356.581	198.450	0.137	-0.211
-355.566	432.407	0.081	-0.176
-354.552	212.023	-0.114	-0.180
-353.537	60.639	-0.154	0.153
-352.523	43.104	0.204	0.187
-351.508	146.473	-0.128	0.172
-350.493	136.981	-0.100	0.130
-349.479	-77.330	-0.013	0.004
-348.464	194.156	-0.162	0.246
-347.450	-200.000	0.005	-0.075
-346.435	-200.000	0.001	-0.123
-345.420	101.169	0.087	0.101
-344.406	-38.907	-0.049	-0.026
-343.391	-200.000	0.000	0.004
-342.377	800.000	0.089	-0.329
-341.362	62.535	0.262	0.263
-340.348	-78.366	-0.151	-0.052
-339.333	145.710	0.172	-0.232
-338.318	152.917	-0.136	-0.186
-337.304	124.142	-0.096	0.121
-336.289	-17.173	0.042	-0.027
-335.275	800.000	-0.058	-0.193
-334.260	-132.376	0.301	-0.039
-333.245	-188.760	0.061	-0.001
-332.231	274.289	0.040	-0.070
-331.216	-139.348	0.115	-0.012
-330.202	-200.000	0.026	-0.249
-329.187	-200.000	0.014	-0.083
-328.172	402.624	-0.036	-0.075
-327.158	7.833	-0.244	-0.183
-326.143	498.658	0.066	-0.152
-325.129	-99.520	0.400	-0.101
-324.114	-135.282	0.125	-0.015
-323.099	110.464	0.096	0.116
-322.085	-23.502	-0.129	-0.077
-321.070	-200.000	-0.018	-0.080
-320.056	-2.538	0.078	-0.055
-319.041	-165.826	0.328	-0.014
-318.026	-25.948	-0.042	0.025
-317.012	726.564	0.063	-0.169
-315.997	244.561	0.179	0.301
-314.983	-135.752	-0.203	-0.024
-313.968	-147.217	0.113	-0.010
-312.953	-52.948	0.055	0.025
-311.939	-84.792	0.194	-0.061
-310.924	-155.400	0.142	-0.009
-309.910	117.415	0.152	0.187
-308.895	-200.000	-0.055	0.299
-307.880	800.000	0.037	-0.123
-306.866	-0.456	-0.109	0.078
-305.851	106.875	-0.029	0.035
-304.837	30.913	-0.209	0.179
-303.822	-133.326	0.236	0.030
-302.807	-0.083	0.008	-0.005
-301.793	-200.000	-0.017	-0.118
-300.778	-108.094	-0.290	-0.063
-299.764	-144.649	0.061	0.006
-298.749	106.386	0.267	-0.317
-297.735	573.434	0.068	-0.165
-296.720	20.936	-0.050	-0.041
-295.705	118.204	0.135	-0.167
-294.691	-145.570	0.527	-0.047
-293.676	800.000	0.022	0.068
-292.662	-59.091	0.185	0.080
-291.647	-200.000	-0.008	0.088
-290.632	297.122	-0.036	0.066
-289.618	144.786	0.074	-0.099
-288.603	357.691	-0.058	-0.116
-287.589	800.000	-0.034	0.113
-286.574	12.746	-0.105	0.081
-285.559	-125.065	-0.281	-0.043
-284.545	800.000	-0.020	-0.066
-283.530	641.860	-0.156	0.397
-282.516	-113.963	0.202	0.039
-281.501	228.829	0.323	0.526
-280.486	261.240	0.164	0.283
-279.472	-32.835	-0.101	-0.056
-278.457	-66.125	-0.254	-0.101
-277.443	57.577	0.214	0.209
-276.428	365.912	0.186	-0.375
-275.413	132.889	0.199	-0.257
-274.399	-200.000	0.008	0.048
-273.384	115.819	0.308	0.377
-272.370	-188.018	-0.104	-0.001
-271.355	518.959	-0.071	0.167
-270.340	-51.572	0.308	-0.144
-269.326	-116.978	-0.154	0.028
-268.311	-53.059	-0.107	-0.049
-267.297	-19.951	-0.182	-0.112
-266.282	-200.000	-0.031	0.151
-265.267	-80.189	0.295	0.099
-264.253	19.641	-0.157	0.126
-263.238	800.000	-0.023	-0.095
-262.224	19.538	0.150	-0.121
-261.209	-163.646	0.356	-0.017
-260.195	264.945	-0.052	-0.090
-259.180	-97.750	-0.343	0.089
-258.165	-200.000	0.042	-0.214
-257.151	42.141	-0.096	-0.087
-256.136	23.896	0.159	-0.131
-255.122	87.043	-0.223	0.246
-254.107	-200.000	0.000	-0.197
-253.092	425.119	-0.150	-0.323
-252.078	-54.912	0.115	0.052
-251.063	800.000	0.098	-0.350
-250.049	-26.946	-0.304	-0.177
-249.034	-191.771	0.330	-0.003
-248.019	188.577	-0.078	0.116
-247.005	103.555	0.115	-0.135
-245.990	-153.514	0.067	0.005
-244.976	189.236	-0.033	-0.050
-243.961	-91.293	-0.058	0.017
-242.946	-88.009	-0.088	0.026
-241.932	-25.039	-0.171	0.101
-240.917	-87.429	0.139	0.042
-239.903	-200.000	0.066	0.550
-238.888	176.903	0.125	-0.182
-237.873	-10.225	0.214	-0.142
-236.859	115.002	-0.152	-0.185
-235.844	128.016	-0.052	0.066
-234.830	1.272	0.229	0.164
-233.815	-148.749	0.086	0.007
-232.800	800.000	0.042	0.180
-231.786	800.000	-0.039	0.120
-230.771	-56.098	-0.051	-0.023
-229.757	-200.000	0.063	0.307
-228.742	800.000	0.055	-0.212
-227.727	-42.673	0.324	-0.165
-226.713	-97.726	-0.406	-0.105
-225.698	-165.308	0.199	0.009
-224.684	157.006	-0.192	-0.265
-223.669	-171.859	0.110	-0.004
-222.655	24.089	0.174	-0.144
-221.640	-200.000	0.017	0.216
-220.625	-65.469	-0.056	0.022
-219.611	225.044	0.174	-0.280
-218.596	22.686	0.209	-0.170
-217.582	-129.333	-0.273	0.038
-216.567	27.558	0.016	-0.013
-215.552	-103.671	0.270	0.063
-214.538	13.032	-0.017	0.013
-213.523	155.574	-0.071	0.098
-212.509	-42.827	0.279	0.141
-211.494	-200.000	-0.072	0.352
-210.479	-141.439	-0.130	0.013
-209.465	-54.763	-0.113	0.051
-208.450	257.307	-0.044	-0.076
-207.436	-200.000	-0.032	-0.240
-206.421	800.000	-0.110	-0.312
-205.406	-104.014	0.065	-0.015
-204.392	160.842	0.023	0.032
-203.377	3.564	-0.074	-0.054
-202.363	-200.000	-0.046	0.261
-201.348	-71.869	0.437	0.162
-200.333	169.539	0.064	-0.091
-199.319	448.701	0.040	0.088
-198.304	714.706	-0.060	-0.160
-197.290	-96.131	-0.387	-0.102
-196.275	65.682	-0.111	0.112
-195.260	-200.000	0.032	0.235
-194.246	-81.262	0.067	-0.022
-193.231	694.637	-0.065	-0.171
-192.217	532.086	0.143	0.336
-191.202	226.250	-0.131	0.212
-190.187	-129.654	-0.243	0.033
-189.173	800.000	-0.130	-0.364
-188.158	800.000	-0.006	0.020
-187.144	174.027	-0.185	0.266
-186.129	-54.472	-0.207	0.093
-185.114	-23.357	0.196	-0.117
-184.100	36.818	0.413	0.364
-183.085	-200.000	-0.069	0.380
-182.071	-98.643	-0.076	-0.019
-181.056	198.097	0.158	0.240
-180.042	-160.921	-0.167	0.009
-179.027	609.543	0.196	0.488
-178.012	38.004	-0.316	0.280
-176.998	-121.205	0.102	-0.017
-175.983	-200.000	0.004	-0.057
-174.969	-55.733	0.385	0.171
-173.954	81.074	0.156	-0.167
-172.939	-176.716	0.327	0.008
-171.925	-91.959	0.263	-0.074
-170.910	308.177	0.091	-0.170
-169.896	-64.958	-0.057	0.023
-168.881	-200.000	0.013	-0.075
-167.866	-200.000	-0.022	-0.118
-166.852	-168.456	0.132	0.005
-165.837	800.000	-0.014	0.044
-164.823	30.280	-0.123	-0.105
-163.808	-200.000	-0.000	0.172
-162.793	-101.086	-0.138	0.034
-161.779	-200.000	-0.053	-0.292
-160.764	64.223	-0.100	0.100
-159.750	-106.762	-0.283	-0.062
-158.735	800.000	-0.061	-0.212
-157.720	105.547	0.076	0.090
-156.706	-200.000	0.036	-0.199
-155.691	-55.967	-0.254	-0.112
-154.677	-57.939	-0.352	-0.153
-153.662	-65.951	0.121	0.048
-152.647	800.000	0.099	0.288
-151.633	7.521	0.241	-0.180
-150.618	-0.344	-0.179	-0.127
-149.604	-77.090	0.309	-0.107
-148.589	-60.493	-0.526	0.222
-147.574	-200.000	-0.038	0.339
-146.560	-111.598	-0.121	0.024
-145.545	800.000	0.051	0.188
-144.531	231.658	0.100	0.164
-143.516	-103.344	0.212	0.050
-142.502	167.079	0.192	0.271
-141.487	166.467	-0.077	0.108
-140.472	-161.984	-0.095	0.005
-139.458	-91.487	0.197	0.056
-138.443	-99.040	-0.138	-0.035
-137.429	27.351	0.278	0.232
-136.414	90.284	-0.138	-0.154
-135.399	-66.721	-0.284	0.112
-134.385	-200.000	-0.001	-0.109
-133.370	551.917	-0.132	-0.316
-132.356	-200.000	-0.042	-0.202
-131.341	152.763	-0.095	0.129
-130.326	-26.633	-0.018	0.011
-129.312	-68.006	-0.133	0.052
-128.297	-57.824	-0.247	-0.107
-127.283	-150.384	0.559	0.043
-126.268	29.269	0.130	0.110
-125.253	260.162	-0.198	-0.340
-124.239	-146.367	-0.200	-0.017
-123.224	191.665	-0.189	0.282
-122.210	281.864	0.100	-0.178
