DTS Sentinel unit serial number:	SN413079Multiplexer serial number:	ORYXHardware model number:	OX4-SRSoftware version number:	ORYX F/W v4.00 Oryx Data Collector v3.7.2.0data status	okinstallation	princeton_trtdifferential loss correction	single-endedforward channel	channel 4reverse channel	N/Adate	2019/09/13time	21:33:35forward acquisition time	60.00reverse acquisition time	0.00gamma	496.2192k internal	0.2319k external	0.2319temperature offset calibration	1.0129default loss term (dB/km)	0.3790temperature slope calibration	1.0000multiplexer offset coefficient	1.0000multiplexer slope coefficient	1.0000fibre end	0.00T internal ref (°C)	28.25T ext. ref 1 (°C)	3.10T ext. ref 2 (°C)	22.81length (m)	temperature (°C)	Stokes	anti-Stokes-747.200	235.566	0.080	0.134
-746.185	-106.450	0.190	0.043
-745.171	-108.272	-0.115	0.025
-744.156	114.827	0.320	0.395
-743.142	-123.882	-0.047	-0.007
-742.127	-74.151	-0.199	0.073
-741.112	164.729	0.118	0.168
-740.098	-200.000	0.128	0.611
-739.083	-20.181	-0.131	-0.082
-738.069	800.000	-0.076	-0.256
-737.054	-200.000	0.001	-0.082
-736.039	-95.731	-0.216	0.058
-735.025	800.000	-0.016	0.063
-734.010	-85.273	-0.231	-0.073
-732.996	-29.957	-0.204	-0.117
-731.981	800.000	0.052	0.173
-730.966	-56.799	-0.215	-0.096
-729.952	-17.006	-0.248	0.158
-728.937	-92.747	0.253	-0.072
-727.923	800.000	0.088	-0.263
-726.908	800.000	-0.056	-0.182
-725.894	37.793	-0.411	-0.369
-724.879	-200.000	-0.001	-0.116
-723.864	78.017	0.053	-0.058
-722.850	147.705	0.093	-0.127
-721.835	-99.074	0.328	0.084
-720.821	-169.558	-0.257	0.009
-719.806	147.768	-0.065	0.088
-718.791	-155.612	-0.219	-0.014
-717.777	144.987	-0.194	-0.262
-716.762	249.743	0.151	0.259
-715.748	-51.309	-0.060	-0.028
-714.733	-200.000	0.007	0.119
-713.718	16.648	0.164	0.131
-712.704	-19.862	0.175	-0.109
-711.689	64.406	-0.058	-0.059
-710.675	12.588	-0.126	-0.098
-709.660	173.425	-0.178	-0.259
-708.645	-51.849	0.059	-0.028
-707.631	-117.398	-0.271	-0.050
-706.616	-173.573	-0.152	-0.005
-705.602	335.362	-0.082	-0.160
-704.587	-78.153	-0.206	-0.071
-703.572	-80.835	-0.155	0.052
-702.558	800.000	-0.045	0.169
-701.543	-3.550	-0.344	0.241
-700.529	-200.000	0.006	-0.192
-699.514	-123.407	-0.380	0.061
-698.499	-17.390	0.139	0.088
-697.485	329.479	0.094	0.182
-696.470	-200.000	0.024	0.117
-695.456	-200.000	-0.041	-0.303
-694.441	-200.000	0.040	-0.180
-693.426	-0.211	0.199	-0.143
-692.412	-179.348	-0.153	-0.003
-691.397	-200.000	-0.046	-0.205
-690.383	-170.747	-0.077	-0.003
-689.368	356.952	0.088	0.177
-688.354	425.823	-0.208	0.451
-687.339	404.071	-0.089	0.188
-686.324	125.463	-0.077	-0.098
-685.310	-200.000	0.009	0.106
-684.295	-141.503	-0.025	0.003
-683.281	174.305	-0.035	-0.050
-682.266	717.747	0.075	-0.201
-681.251	582.282	0.052	-0.129
-680.237	-146.519	-0.157	0.014
-679.222	213.524	-0.100	0.159
-678.208	147.768	0.222	-0.301
-677.193	-85.996	-0.286	-0.089
-676.178	-49.377	-0.205	-0.099
-675.164	589.571	-0.075	0.188
-674.149	-200.000	0.029	-0.234
-673.135	-200.000	-0.016	-0.118
-672.120	-200.000	0.005	0.153
-671.105	-200.000	-0.012	-0.144
-670.091	43.457	0.028	-0.026
-669.076	8.599	-0.169	-0.129
-668.062	-153.257	-0.225	0.016
-667.047	28.363	-0.075	-0.064
-666.032	37.552	-0.121	-0.108
-665.018	-101.463	0.451	0.111
-664.003	-11.269	0.243	-0.161
-662.989	224.530	-0.142	-0.232
-661.974	-45.812	0.298	-0.148
-660.959	-200.000	-0.019	-0.211
-659.945	-11.956	0.050	-0.033
-658.930	433.808	-0.092	0.202
-657.916	40.411	0.144	-0.131
-656.901	800.000	-0.035	0.132
-655.886	-131.059	0.255	0.034
-654.872	-200.000	-0.100	0.572
-653.857	115.679	-0.077	-0.095
-652.843	-73.578	-0.119	-0.044
-651.828	369.963	0.057	-0.116
-650.814	-97.714	-0.364	-0.095
-649.799	286.970	-0.019	-0.034
-648.784	79.098	0.137	-0.147
-647.770	-200.000	-0.001	-0.136
-646.755	168.729	0.074	0.106
-645.741	-28.463	-0.258	-0.150
-644.726	-200.000	0.019	0.245
-643.711	800.000	0.061	0.230
-642.697	800.000	-0.056	-0.157
-641.682	-114.492	0.405	0.078
-640.668	-72.608	0.490	-0.182
-639.653	-200.000	0.019	-0.353
-638.638	-176.739	-0.115	-0.003
-637.624	-110.752	-0.214	0.044
-636.609	93.562	-0.161	0.184
-635.595	800.000	0.075	-0.299
-634.580	20.349	-0.135	-0.110
-633.565	800.000	0.046	0.168
-632.551	44.565	-0.215	-0.199
-631.536	-0.959	0.152	0.108
-630.522	800.000	-0.063	-0.259
-629.507	-67.447	0.210	-0.083
-628.492	-87.421	-0.236	0.072
-627.478	-49.061	0.249	-0.120
-626.463	800.000	0.063	-0.258
-625.449	-200.000	-0.015	-0.113
-624.434	57.363	0.242	-0.238
-623.419	800.000	0.036	-0.118
-622.405	-66.681	-0.180	0.072
-621.390	65.278	-0.124	0.126
-620.376	202.372	0.020	-0.031
-619.361	4.348	-0.181	0.133
-618.346	-45.060	0.398	-0.199
-617.332	-200.000	-0.049	-0.232
-616.317	-148.544	-0.276	-0.023
-615.303	800.000	0.067	-0.288
-614.288	110.182	-0.178	-0.216
-613.273	-16.579	0.029	-0.018
-612.259	373.206	-0.060	0.123
-611.244	800.000	0.018	-0.055
-610.230	-0.242	0.418	-0.299
-609.215	796.418	-0.047	-0.131
-608.201	106.628	0.052	-0.062
-607.186	-200.000	-0.047	0.326
-606.171	-36.838	-0.091	-0.049
-605.157	241.021	-0.032	0.054
-604.142	-61.655	-0.228	0.096
-603.128	37.140	-0.150	-0.134
-602.113	7.389	0.235	0.177
-601.098	650.499	-0.080	-0.206
-600.084	-81.802	0.467	-0.154
-599.069	-98.505	0.292	-0.075
-598.055	-46.740	-0.098	-0.048
-597.040	-47.307	0.250	-0.122
-596.025	30.819	-0.211	-0.181
-595.011	34.783	-0.113	-0.099
-593.996	-200.000	0.095	-0.466
-592.982	8.224	-0.195	0.147
-591.967	-80.214	-0.137	0.046
-590.952	-84.591	-0.114	-0.036
-589.938	-14.141	-0.328	0.213
-588.923	-3.751	-0.234	-0.163
-587.909	-50.279	0.081	-0.038
-586.894	344.596	0.148	0.292
-585.879	-104.101	-0.298	-0.070
-584.865	-68.952	0.156	-0.061
-583.850	-117.583	-0.069	0.012
-582.836	97.932	0.075	0.086
-581.821	85.270	0.213	0.235
-580.806	-200.000	-0.039	-0.194
-579.792	800.000	0.054	-0.150
-578.777	117.484	-0.138	-0.171
-577.763	-56.453	-0.217	0.097
-576.748	-200.000	-0.048	-0.360
-575.733	-200.000	-0.017	-0.093
-574.719	96.355	0.141	-0.162
-573.704	-125.720	0.219	-0.033
-572.690	-132.729	0.175	0.023
-571.675	7.033	-0.129	0.096
-570.661	209.934	0.157	-0.247
-569.646	103.604	-0.249	0.293
-568.631	-119.370	0.143	0.025
-567.617	-106.896	-0.438	0.098
-566.602	800.000	0.107	0.347
-565.588	-17.142	-0.266	0.168
-564.573	14.620	-0.058	-0.046
-563.558	800.000	0.022	0.090
-562.544	140.509	-0.097	-0.129
-561.529	-200.000	0.023	0.123
-560.515	115.112	0.081	-0.100
-559.500	-200.000	-0.001	0.164
-558.485	3.765	0.067	0.049
-557.471	-23.848	-0.299	0.180
-556.456	723.510	0.080	0.214
-555.442	-200.000	0.007	0.413
-554.427	800.000	-0.130	0.361
-553.412	86.372	0.237	-0.262
-552.398	800.000	-0.054	-0.160
-551.383	124.532	-0.101	0.127
-550.369	573.907	-0.180	-0.441
-549.354	-36.324	-0.265	0.143
-548.339	347.995	0.070	0.139
-547.325	627.476	0.054	0.137
-546.310	-200.000	-0.024	-0.524
-545.296	141.789	-0.184	-0.244
-544.281	-46.496	0.200	0.098
-543.266	-50.259	-0.070	-0.033
-542.252	28.301	0.228	0.193
-541.237	-200.000	-0.059	-0.306
-540.223	-200.000	0.004	-0.070
-539.208	615.927	-0.131	-0.331
-538.193	-149.535	0.176	-0.014
-537.179	-81.957	-0.178	-0.058
-536.164	-29.059	0.110	0.064
-535.150	285.607	0.058	-0.105
-534.135	-176.015	-0.262	0.007
-533.121	308.944	-0.071	0.133
-532.106	800.000	-0.086	0.254
-531.091	-52.523	-0.110	-0.051
-530.077	303.374	-0.041	0.076
-529.062	-93.472	0.047	0.013
-528.048	-167.816	-0.228	0.009
-527.033	11.773	-0.040	-0.031
-526.018	800.000	-0.046	-0.166
-525.004	-8.050	0.080	-0.054
-523.989	-64.964	0.229	0.093
-522.975	-182.162	0.032	-0.001
-521.960	-200.000	-0.036	0.160
-520.945	12.877	-0.165	0.128
-519.931	-125.070	0.246	0.038
-518.916	81.946	0.179	-0.195
-517.902	235.426	-0.145	0.240
-516.887	800.000	-0.018	0.073
-515.872	-70.068	-0.303	-0.115
-514.858	-68.037	0.227	0.089
-513.843	320.426	-0.029	-0.055
-512.829	-83.297	0.089	0.029
-511.814	-150.214	0.212	-0.016
-510.799	107.919	0.209	0.250
-509.785	252.652	-0.099	-0.169
-508.770	697.268	0.060	-0.157
-507.756	800.000	0.068	-0.210
-506.741	5.509	-0.266	-0.197
-505.726	406.336	0.202	-0.426
-504.712	-54.252	0.184	0.084
-503.697	-1.260	-0.147	0.104
-502.683	65.522	-0.051	0.051
-501.668	-21.735	0.292	-0.178
-500.653	-170.751	-0.219	-0.008
-499.639	351.969	-0.135	0.268
-498.624	42.560	0.260	0.237
-497.610	116.641	0.221	0.272
-496.595	-25.645	0.076	-0.045
-495.581	-200.000	-0.055	0.438
-494.566	-161.409	0.034	0.002
-493.551	-200.000	0.027	0.128
-492.537	-65.735	0.057	-0.023
-491.522	7.936	-0.022	-0.016
-490.508	83.169	0.031	0.034
-489.493	-156.539	0.341	-0.021
-488.478	-185.388	0.193	0.003
-487.464	-36.860	-0.360	0.193
-486.449	-78.126	0.142	-0.049
-485.435	800.000	-0.014	-0.054
-484.420	-200.000	-0.015	-0.097
-483.405	-59.805	0.310	0.133
-482.391	800.000	-0.066	-0.213
-481.376	-3.524	-0.192	-0.134
-480.362	542.523	-0.106	-0.252
-479.347	-200.000	0.007	-0.238
-478.332	14.793	0.199	0.156
-477.318	636.686	-0.040	-0.101
-476.303	338.317	0.096	0.188
-475.289	-200.000	-0.008	-0.204
-474.274	17.208	-0.194	-0.154
-473.259	398.486	-0.039	0.082
-472.245	205.560	-0.024	0.037
-471.230	-109.388	0.299	0.063
-470.216	-85.749	0.272	0.084
-469.201	292.943	0.136	0.248
-468.186	-83.015	-0.191	-0.062
-467.172	-155.503	0.322	-0.021
-466.157	-200.000	-0.024	-0.132
-465.143	75.256	0.202	-0.213
-464.128	-69.104	0.326	0.126
-463.113	-200.000	0.058	-0.315
-462.099	-80.794	0.312	-0.104
-461.084	-52.807	-0.380	-0.175
-460.070	384.738	-0.182	0.376
-459.055	-200.000	0.031	-0.136
-458.040	188.538	0.127	-0.190
-457.026	800.000	-0.049	-0.194
-456.011	-118.783	0.287	0.051
-454.997	177.133	-0.130	0.190
-453.982	-200.000	-0.032	-0.432
-452.968	757.589	-0.109	-0.295
-451.953	-150.379	-0.270	-0.021
-450.938	104.115	-0.254	0.298
-449.924	-93.285	-0.233	0.065
-448.909	-51.951	-0.222	0.103
-447.895	-25.014	-0.268	-0.159
-446.880	52.931	0.197	-0.189
-445.865	-138.563	0.093	-0.010
-444.851	716.992	0.049	0.131
-443.836	-7.879	-0.270	-0.182
-442.822	705.955	0.045	-0.118
-441.807	-53.723	0.143	0.065
-440.792	789.457	-0.073	-0.201
-439.778	-200.000	-0.000	0.379
-438.763	800.000	-0.112	0.339
-437.749	180.572	-0.097	-0.142
-436.734	-200.000	-0.035	-0.248
-435.719	-200.000	-0.026	-0.164
-434.705	22.364	-0.357	-0.292
-433.690	-200.000	-0.015	-0.069
-432.676	-72.307	-0.427	0.158
-431.661	-11.396	0.135	0.089
-430.646	-200.000	-0.053	0.592
-429.632	-43.197	-0.049	-0.025
-428.617	204.826	0.187	0.290
-427.603	-200.000	-0.004	0.240
-426.588	-200.000	0.001	-0.030
-425.573	107.877	-0.269	-0.320
-424.559	-68.917	-0.074	0.028
-423.544	34.031	0.234	0.204
-422.530	-100.671	-0.323	0.080
-421.515	-121.172	0.313	-0.052
-420.500	-200.000	0.008	-0.067
-419.486	-200.000	-0.019	0.107
-418.471	-1.372	0.212	0.149
-417.457	-10.608	0.129	-0.085
-416.442	-200.000	0.025	0.417
-415.428	422.545	0.043	0.093
-414.413	121.927	-0.184	0.229
-413.398	582.682	-0.121	-0.296
-412.384	64.018	0.071	-0.072
-411.369	166.635	0.196	-0.278
-410.355	-164.651	-0.250	-0.011
-409.340	-200.000	-0.032	-0.443
-408.325	129.269	0.209	-0.267
-407.311	-129.427	0.159	-0.022
-406.296	33.409	-0.232	0.201
-405.282	800.000	-0.060	0.210
-404.267	-200.000	0.037	0.167
-403.252	800.000	-0.056	0.167
-402.238	800.000	0.096	-0.299
-401.223	469.787	0.025	0.055
-400.209	15.504	-0.230	0.180
-399.194	59.683	0.153	-0.150
-398.179	5.528	-0.106	-0.078
-397.165	-83.097	-0.163	0.052
-396.150	-200.000	0.086	-0.397
-395.136	291.263	0.114	0.206
-394.121	60.004	0.104	-0.103
-393.106	-22.618	0.208	0.126
-392.092	-200.000	-0.022	-0.220
-391.077	286.319	0.053	-0.095
-390.063	-103.224	0.291	0.069
-389.048	71.639	-0.118	-0.122
-388.033	800.000	0.015	0.043
-387.019	580.037	-0.088	0.215
-386.004	591.219	-0.030	0.074
-384.990	-123.898	0.068	-0.011
-383.975	178.405	-0.059	-0.085
-382.960	-200.000	-0.065	-0.289
-381.946	-200.000	-0.020	-0.176
-380.931	250.078	-0.079	-0.134
-379.917	235.277	0.096	-0.157
-378.902	-102.237	0.096	0.023
-377.888	362.983	0.099	0.199
-376.873	800.000	-0.070	0.198
-375.858	-59.958	0.109	0.046
-374.844	-88.980	-0.237	-0.070
-373.829	-119.403	0.193	-0.034
-372.815	12.516	-0.228	-0.176
-371.800	250.353	-0.180	0.305
-370.785	-200.000	-0.074	0.393
-369.771	6.632	-0.195	0.145
-368.756	531.999	-0.086	0.204
-367.742	-71.103	-0.212	0.079
-366.727	800.000	0.106	0.328
-365.712	185.871	-0.038	-0.057
-364.698	201.918	-0.142	0.218
-363.683	-200.000	0.008	0.139
-362.669	-43.659	0.250	-0.126
-361.654	72.058	0.256	-0.265
-360.639	-12.862	0.074	0.048
-359.625	-56.196	0.165	0.073
-358.610	354.939	0.156	0.310
-357.596	800.000	0.042	0.169
-356.581	-200.000	-0.046	-0.454
-355.566	-14.136	0.428	-0.275
-354.552	487.366	-0.064	-0.147
-353.537	-77.843	0.070	-0.024
-352.523	-25.045	0.392	-0.232
-351.508	490.596	0.193	-0.441
-350.493	-200.000	0.030	-0.174
-349.479	-182.471	-0.162	-0.003
-348.464	-200.000	-0.031	-0.220
-347.450	-200.000	-0.418	0.002
-346.435	-11.614	-0.138	0.090
-345.420	57.356	0.224	-0.218
-344.406	-50.565	-0.177	-0.083
-343.391	-139.652	-0.067	0.007
-342.377	88.938	-0.266	-0.295
-341.362	-45.358	0.383	0.189
-340.348	-200.000	0.007	0.079
-339.333	-148.437	-0.086	-0.007
-338.318	26.426	0.171	-0.142
-337.304	252.731	0.158	-0.269
-336.289	-149.668	-0.159	0.012
-335.275	-118.892	0.095	-0.017
-334.260	88.796	0.138	-0.153
-333.245	16.379	-0.287	0.226
-332.231	-105.627	0.116	-0.026
-331.216	-200.000	-0.031	0.143
-330.202	726.851	-0.083	-0.222
-329.187	-176.093	0.373	-0.010
-328.172	142.979	-0.056	-0.074
-327.158	190.713	-0.182	0.272
-326.143	-150.533	-0.128	0.010
-325.129	87.991	-0.083	0.092
-324.114	800.000	0.054	0.219
-323.099	542.377	-0.107	0.253
-322.085	187.193	0.030	0.045
-321.070	-76.363	-0.133	-0.047
-320.056	-42.550	-0.260	0.132
-319.041	-200.000	-0.014	-0.263
-318.026	570.978	0.212	0.512
-317.012	-66.137	0.108	0.043
-315.997	-88.012	0.337	-0.101
-314.983	-200.000	0.010	0.183
-313.968	-29.291	0.144	-0.082
-312.953	-200.000	0.042	-0.204
-311.939	800.000	-0.065	0.225
-310.924	-146.722	-0.133	-0.011
-309.910	-71.474	0.112	-0.042
-308.895	-53.055	-0.141	-0.065
-307.880	433.332	-0.013	-0.028
-306.866	-200.000	0.004	-0.349
-305.851	254.610	0.198	-0.338
-304.837	92.818	0.124	0.139
-303.822	239.896	0.197	-0.326
-302.807	313.722	0.126	-0.235
-301.793	500.105	-0.229	-0.525
-300.778	241.958	-0.143	0.237
-299.764	431.569	0.071	0.154
-298.749	-200.000	0.004	0.102
-297.735	-200.000	0.007	0.056
-296.720	-14.972	-0.298	-0.190
-295.705	-54.755	0.250	0.112
-294.691	-200.000	-0.009	-0.382
-293.676	91.720	0.068	-0.076
-292.662	104.372	-0.204	0.238
-291.647	358.603	-0.102	0.202
-290.632	-200.000	-0.048	0.301
-289.618	-97.085	-0.205	0.053
-288.603	16.913	-0.203	0.160
-287.589	-129.449	0.245	0.034
-286.574	555.220	-0.061	-0.146
-285.559	174.309	0.037	-0.053
-284.545	-156.551	-0.190	-0.012
-283.530	-66.086	0.181	-0.072
-282.516	-78.430	0.203	-0.069
-281.501	800.000	0.053	0.177
-280.486	-200.000	-0.029	0.230
-279.472	-83.524	-0.323	0.103
-278.457	-200.000	0.019	0.253
-277.443	66.953	-0.075	-0.076
-276.428	-55.384	-0.240	-0.107
-275.413	172.361	-0.072	-0.103
-274.399	103.728	-0.238	-0.278
-273.384	-153.062	-0.325	-0.023
-272.370	116.863	-0.157	-0.192
-271.355	24.507	0.104	-0.086
-270.340	-45.694	-0.116	0.057
-269.326	71.865	-0.227	0.235
-268.311	12.350	0.116	-0.089
-267.297	760.775	-0.098	0.265
-266.282	180.118	-0.128	0.187
-265.267	-152.864	-0.213	-0.015
-264.253	216.549	0.038	-0.061
-263.238	626.406	-0.106	-0.264
-262.224	35.220	0.200	0.174
-261.209	352.784	0.177	0.348
-260.195	4.318	-0.104	0.076
-259.180	-200.000	-0.055	0.275
-258.165	800.000	-0.022	-0.082
-257.151	-35.121	0.465	0.251
-256.136	-90.946	-0.425	-0.121
-255.122	269.355	0.066	-0.115
-254.107	50.899	0.097	0.091
-253.092	-110.359	0.100	-0.021
-252.078	-200.000	0.015	0.387
-251.063	-200.000	-0.013	0.283
-250.049	57.058	0.154	-0.149
-249.034	800.000	0.106	-0.326
-248.019	800.000	0.029	-0.102
-247.005	-200.000	0.200	0.001
-245.990	-50.081	0.259	-0.122
-244.976	23.355	0.213	0.173
-243.961	-37.331	-0.082	-0.044
-242.946	-200.000	0.016	0.203
-241.932	150.779	-0.096	-0.129
-240.917	-172.153	-0.251	-0.008
-239.903	107.049	0.217	0.256
-238.888	43.292	0.008	-0.007
-237.873	-43.531	-0.388	0.194
-236.859	725.955	-0.054	-0.143
-235.844	-7.315	-0.089	-0.060
-234.830	17.224	-0.194	-0.153
-233.815	-80.084	-0.117	0.039
-232.800	261.449	-0.135	0.231
-231.786	-64.262	-0.076	0.031
-230.771	-200.000	-0.049	-0.432
-229.757	-43.382	0.185	0.093
-228.742	-57.531	-0.076	-0.033
-227.727	-48.613	0.116	-0.055
-226.713	-200.000	0.032	-0.164
-225.698	-174.210	0.210	0.006
-224.684	-128.911	0.174	-0.024
-223.669	-200.000	-0.036	0.274
-222.655	-118.984	-0.112	-0.019
-221.640	-164.771	0.183	-0.008
-220.625	242.860	0.061	0.102
-219.611	16.778	-0.356	0.279
-218.596	245.801	-0.035	0.058
-217.582	-167.892	-0.271	-0.011
-216.567	-87.455	-0.279	0.084
-215.552	171.459	-0.096	-0.136
-214.538	-200.000	-0.018	-0.166
-213.523	-183.682	0.332	0.006
-212.509	-110.778	0.363	0.074
-211.494	800.000	0.038	-0.104
-210.479	287.119	0.105	-0.188
-209.465	-143.075	0.355	0.034
-208.450	-42.393	-0.193	0.097
-207.436	-134.581	0.173	0.021
-206.421	18.088	0.094	0.075
-205.406	-80.597	-0.128	0.042
-204.392	800.000	0.073	0.298
-203.377	-200.000	0.015	0.335
-202.363	-72.824	0.261	0.095
-201.348	-139.697	-0.211	-0.022
-200.333	642.382	0.113	-0.285
-199.319	101.418	0.118	0.136
-198.304	-200.000	0.016	-0.434
-197.290	68.547	-0.243	-0.247
-196.275	800.000	0.017	0.068
-195.260	-200.000	0.007	0.068
-194.246	-94.112	-0.132	-0.036
-193.231	-139.279	-0.203	0.022
-192.217	-200.000	-0.009	0.563
-191.202	-163.878	-0.330	0.015
-190.187	-119.202	0.438	-0.076
-189.173	-84.804	0.128	0.040
-188.158	46.801	0.191	-0.176
-187.144	46.349	0.129	-0.119
-186.129	283.931	-0.024	0.043
-185.114	501.671	0.116	-0.265
-184.100	-199.072	-0.471	0.003
-183.085	216.223	0.245	0.385
-182.071	-200.000	0.037	0.311
-181.056	616.588	-0.015	0.038
-180.042	-200.000	0.005	0.221
-179.027	-12.766	0.164	-0.106
-178.012	-96.334	-0.015	-0.004
-176.998	633.283	0.086	0.214
-175.983	119.072	0.071	-0.087
-174.969	111.642	-0.107	-0.128
-173.954	-200.000	0.044	0.286
-172.939	-54.705	0.521	0.233
-171.925	-200.000	-0.019	-0.169
-170.910	56.606	0.477	0.459
-169.896	193.380	-0.114	0.171
-168.881	288.438	0.106	-0.189
-167.866	411.935	0.231	0.486
-166.852	43.934	-0.140	0.127
-165.837	-200.000	-0.008	0.091
-164.823	94.082	-0.051	0.057
-163.808	242.804	0.122	0.202
-162.793	-84.130	-0.108	-0.034
-161.779	-7.761	-0.034	0.022
-160.764	100.566	0.110	-0.126
-159.750	-200.000	-0.023	0.228
-158.735	-124.782	0.122	-0.019
-157.720	29.217	-0.081	-0.068
-156.706	45.042	-0.169	0.154
-155.691	69.809	-0.185	0.189
-154.677	20.037	-0.251	-0.200
-153.662	-11.508	-0.104	0.068
-152.647	686.772	-0.151	0.390
-151.633	800.000	-0.102	0.294
-150.618	-54.164	-0.554	0.249
-149.604	-135.824	-0.202	-0.024
-148.589	154.503	-0.144	-0.195
-147.574	257.010	0.026	0.044
-146.560	-200.000	0.014	0.192
-145.545	304.714	-0.116	0.212
-144.531	593.401	-0.109	-0.266
-143.516	-200.000	0.036	-0.222
-142.502	111.436	0.136	-0.162
-141.487	214.944	0.096	0.150
-140.472	210.315	-0.108	0.167
-139.458	800.000	-0.202	-0.568
-138.443	41.654	0.214	-0.192
-137.429	14.751	-0.064	0.050
-136.414	-22.045	0.353	-0.212
-135.399	-188.740	-0.073	0.001
-134.385	-200.000	-0.031	0.224
-133.370	-200.000	0.056	0.273
-132.356	-86.756	-0.104	-0.031
-131.341	-200.000	-0.001	0.165
-130.326	-200.000	-0.002	-0.142
-129.312	98.750	0.130	0.148
-128.297	-64.502	0.065	0.026
-127.283	202.159	-0.076	0.116
-126.268	633.911	0.107	-0.268
-125.253	86.431	-0.292	0.318
-124.239	-25.580	-0.198	0.115
-123.224	3.952	0.185	0.134
-122.210	57.260	-0.085	0.082
