DTS Sentinel unit serial number:	SN413079Multiplexer serial number:	ORYXHardware model number:	OX4-SRSoftware version number:	ORYX F/W v4.00 Oryx Data Collector v3.7.2.0data status	okinstallation	princeton_trtdifferential loss correction	single-endedforward channel	channel 4reverse channel	N/Adate	2019/09/17time	16:25:35forward acquisition time	60.00reverse acquisition time	0.00gamma	496.2192k internal	0.2284k external	0.2284temperature offset calibration	0.9982default loss term (dB/km)	0.3790temperature slope calibration	1.0000multiplexer offset coefficient	1.0000multiplexer slope coefficient	1.0000fibre end	0.00T internal ref (°C)	41.34T ext. ref 1 (°C)	0.37T ext. ref 2 (°C)	38.61length (m)	temperature (°C)	Stokes	anti-Stokes-747.200	131.188	-0.082	-0.108
-746.185	54.675	0.148	0.147
-745.171	8.081	0.249	-0.192
-744.156	44.793	0.079	0.075
-743.142	-19.008	-0.219	0.140
-742.127	-200.000	0.045	0.517
-741.112	92.298	0.056	0.065
-740.098	-78.082	-0.381	0.135
-739.083	1.038	0.172	0.127
-738.069	262.985	-0.242	0.431
-737.054	321.080	0.077	0.151
-736.039	-200.000	0.009	0.153
-735.025	-53.361	0.175	0.082
-734.010	-134.621	-0.427	-0.053
-732.996	-171.043	-0.457	0.016
-731.981	800.000	0.011	0.049
-730.966	-200.000	0.100	-0.452
-729.952	-122.297	-0.431	-0.072
-728.937	665.303	0.051	-0.135
-727.923	797.576	0.067	-0.189
-726.908	-75.761	-0.186	0.068
-725.894	260.496	-0.188	-0.333
-724.879	-117.456	-0.175	0.033
-723.864	-200.000	0.023	0.108
-722.850	79.785	-0.157	0.173
-721.835	-200.000	-0.002	-0.295
-720.821	800.000	0.058	-0.179
-719.806	-2.915	-0.095	0.068
-718.791	800.000	-0.041	-0.161
-717.777	-18.364	-0.187	-0.120
-716.762	-91.966	-0.122	0.036
-715.748	-200.000	0.005	-0.052
-714.733	-88.388	-0.165	0.051
-713.718	800.000	0.014	0.061
-712.704	248.999	0.098	0.170
-711.689	96.169	0.259	0.304
-710.675	-21.683	0.134	-0.083
-709.660	800.000	0.036	0.157
-708.645	800.000	0.077	0.261
-707.631	19.953	-0.254	-0.210
-706.616	173.553	0.088	0.130
-705.602	-35.778	-0.237	0.132
-704.587	5.579	-0.276	0.209
-703.572	-5.275	0.220	-0.155
-702.558	-58.037	-0.203	-0.091
-701.543	-145.813	0.158	0.014
-700.529	-106.622	0.250	-0.057
-699.514	95.629	-0.179	-0.209
-698.499	-200.000	0.010	-0.311
-697.485	201.503	-0.137	-0.216
-696.470	800.000	-0.095	-0.298
-695.456	225.517	-0.151	-0.251
-694.441	278.291	-0.189	0.345
-693.426	7.432	-0.098	-0.075
-692.412	-200.000	-0.029	0.355
-691.397	800.000	0.064	0.197
-690.383	-200.000	-0.017	-0.118
-689.368	800.000	0.012	-0.042
-688.354	455.261	0.094	-0.213
-687.339	-198.368	-0.428	-0.003
-686.324	-200.000	0.019	0.313
-685.310	15.727	-0.274	0.221
-684.295	800.000	-0.077	0.264
-683.281	-67.795	-0.321	0.129
-682.266	-52.692	-0.191	-0.090
-681.251	24.277	0.217	-0.184
-680.237	151.708	-0.087	-0.122
-679.222	-162.604	-0.291	0.015
-678.208	176.574	-0.103	-0.153
-677.193	152.665	-0.122	-0.171
-676.178	-200.000	-0.008	-0.170
-675.164	-116.136	0.529	-0.101
-674.149	-66.562	0.019	-0.008
-673.135	800.000	-0.056	0.201
-672.120	-16.395	0.340	-0.221
-671.105	137.331	0.225	0.302
-670.091	800.000	-0.024	-0.093
-669.076	141.566	-0.387	0.525
-668.062	-67.579	0.290	-0.116
-667.047	384.435	0.071	-0.150
-666.032	-52.370	-0.066	-0.031
-665.018	-200.000	0.001	-0.160
-664.003	-200.000	0.000	0.004
-662.989	42.819	0.145	-0.135
-661.974	437.346	-0.050	-0.111
-660.959	123.225	-0.120	-0.153
-659.945	-200.000	0.079	-0.601
-658.930	150.853	-0.194	0.269
-657.916	-6.129	-0.061	0.043
-656.901	800.000	-0.058	-0.241
-655.886	-8.585	-0.206	-0.142
-654.872	800.000	0.022	0.085
-653.857	219.303	0.070	-0.115
-652.843	-200.000	-0.006	0.077
-651.828	-12.032	0.065	-0.043
-650.814	-121.234	-0.203	0.035
-649.799	295.652	-0.090	-0.169
-648.784	347.801	-0.038	-0.076
-647.770	-21.825	-0.238	-0.148
-646.755	-78.375	0.513	0.180
-645.741	-48.728	0.217	0.106
-644.726	-148.710	0.068	0.006
-643.711	-143.787	-0.004	0.000
-642.697	-124.482	-0.186	-0.030
-641.682	487.628	-0.041	0.096
-640.668	330.300	0.041	-0.081
-639.653	316.096	0.110	0.212
-638.638	-78.870	0.483	0.168
-637.624	-149.497	0.552	0.045
-636.609	116.842	-0.194	0.244
-635.595	-200.000	-0.046	-0.322
-634.580	-116.886	0.114	0.021
-633.565	-61.195	0.150	-0.065
-632.551	146.191	-0.229	0.314
-631.536	127.983	0.148	-0.192
-630.522	-126.145	-0.314	-0.048
-629.507	125.642	-0.279	-0.360
-628.492	800.000	0.076	0.255
-627.478	4.939	-0.196	0.148
-626.463	-145.501	-0.100	-0.009
-625.449	76.734	0.144	-0.156
-624.434	800.000	-0.041	0.126
-623.419	271.618	-0.080	0.145
-622.405	74.702	0.248	0.267
-621.390	-97.638	-0.182	-0.048
-620.376	327.749	-0.165	-0.324
-619.361	-105.137	-0.158	-0.037
-618.346	-200.000	0.005	0.225
-617.332	-25.412	0.115	0.070
-616.317	39.743	0.170	0.156
-615.303	101.429	-0.118	0.140
-614.288	-165.028	-0.290	-0.013
-613.273	-200.000	-0.012	0.381
-612.259	-200.000	0.043	-0.348
-611.244	532.927	-0.116	-0.280
-610.230	-37.004	0.057	0.031
-609.215	130.462	0.169	-0.221
-608.201	11.330	-0.332	0.260
-607.186	240.282	-0.115	-0.196
-606.171	800.000	-0.060	-0.210
-605.157	87.294	0.108	0.122
-604.142	-14.875	-0.247	-0.162
-603.128	151.538	0.148	-0.205
-602.113	-86.428	0.245	-0.077
-601.098	-200.000	0.017	-0.150
-600.084	34.637	-0.116	0.104
-599.069	263.712	-0.029	0.051
-598.055	643.746	-0.022	-0.056
-597.040	-46.151	0.072	0.036
-596.025	434.087	-0.075	-0.166
-595.011	14.658	0.126	-0.101
-593.996	248.636	0.168	0.290
-592.982	187.006	-0.219	0.334
-591.967	-200.000	-0.033	0.180
-590.952	92.109	0.277	0.319
-589.938	-186.300	-0.271	0.004
-588.923	254.895	0.067	-0.117
-587.909	11.359	0.258	-0.201
-586.894	-19.207	-0.253	-0.160
-585.879	29.838	0.141	0.123
-584.865	-200.000	-0.018	-0.218
-583.850	113.715	0.181	0.225
-582.836	-200.000	0.057	-0.404
-581.821	-51.966	-0.201	-0.095
-580.806	113.620	-0.096	-0.119
-579.792	-160.440	-0.274	-0.015
-578.777	800.000	-0.033	-0.108
-577.763	18.521	-0.157	-0.128
-576.748	-8.686	0.168	0.115
-575.733	-13.864	-0.197	0.130
-574.719	-177.791	0.239	0.006
-573.704	-45.015	-0.216	-0.110
-572.690	800.000	-0.075	0.234
-571.675	346.551	-0.084	0.169
-570.661	173.667	0.107	0.158
-569.646	6.951	-0.317	-0.241
-568.631	134.473	0.150	0.199
-567.617	541.619	0.049	0.120
-566.602	252.165	-0.154	0.267
-565.588	-200.000	-0.003	0.396
-564.573	61.642	0.023	-0.023
-563.558	103.341	-0.176	-0.211
-562.544	-28.215	0.087	-0.051
-561.529	233.840	0.016	-0.027
-560.515	-200.000	0.014	-0.195
-559.500	22.441	0.243	0.203
-558.485	-75.009	-0.356	0.130
-557.471	453.384	0.138	-0.311
-556.456	-131.450	0.279	0.038
-555.442	800.000	-0.048	0.210
-554.427	38.636	-0.061	0.056
-553.412	-39.065	0.212	-0.114
-552.398	127.884	-0.179	0.232
-551.383	269.807	0.213	0.381
-550.369	127.927	0.105	-0.136
-549.354	729.348	0.094	0.255
-548.339	483.838	0.048	0.111
-547.325	2.516	-0.291	-0.215
-546.310	-200.000	-0.024	-0.211
-545.296	-143.228	0.114	-0.011
-544.281	-200.000	-0.013	0.237
-543.266	19.675	0.066	-0.054
-542.252	-63.410	-0.227	0.095
-541.237	518.591	0.053	0.127
-540.223	800.000	0.049	0.138
-539.208	800.000	0.080	-0.265
-538.193	15.036	-0.138	-0.110
-537.179	-143.624	-0.444	0.043
-536.164	800.000	0.046	-0.186
-535.150	-86.074	-0.148	-0.047
-534.135	120.883	-0.109	-0.138
-533.121	-54.568	0.291	0.134
-532.106	-10.497	-0.328	0.221
-531.091	-200.000	-0.014	0.166
-530.077	542.816	0.024	-0.059
-529.062	1.405	0.210	-0.154
-528.048	-200.000	0.050	0.250
-527.033	800.000	0.052	0.197
-526.018	-58.968	0.191	-0.084
-525.004	254.487	-0.136	-0.237
-523.989	12.875	-0.070	0.055
-522.975	549.361	0.026	-0.064
-521.960	800.000	-0.024	0.081
-520.945	-200.000	0.062	0.299
-519.931	-200.000	0.001	-0.230
-518.916	41.814	0.230	-0.213
-517.902	239.834	-0.257	-0.436
-516.887	-200.000	0.001	-0.429
-515.872	800.000	0.018	-0.061
-514.858	-183.659	-0.383	-0.007
-513.843	23.715	-0.319	-0.268
-512.829	13.861	-0.052	-0.041
-511.814	800.000	0.028	0.118
-510.799	-142.642	0.146	-0.015
-509.785	-200.000	0.003	-0.358
-508.770	-98.491	0.409	-0.107
-507.756	6.888	0.174	0.132
-506.741	-176.073	-0.088	-0.002
-505.726	207.802	0.145	-0.230
-504.712	-200.000	-0.099	0.465
-503.697	421.187	0.084	-0.183
-502.683	-66.512	-0.205	0.083
-501.668	-74.990	0.121	0.044
-500.653	68.666	0.104	-0.108
-499.639	144.575	0.194	0.264
-498.624	742.641	-0.162	0.443
-497.610	800.000	-0.073	0.212
-496.595	-81.379	-0.260	0.087
-495.581	-200.000	0.019	-0.153
-494.566	151.008	-0.157	-0.217
-493.551	-134.435	-0.132	-0.016
-492.537	-200.000	0.004	-0.080
-491.522	-200.000	0.026	0.210
-490.508	578.666	0.053	-0.132
-489.493	-200.000	0.020	-0.232
-488.478	-200.000	-0.010	-0.304
-487.464	347.150	-0.108	-0.216
-486.449	-90.530	0.236	-0.070
-485.435	-200.000	0.122	-0.001
-484.420	280.076	0.220	-0.400
-483.405	-200.000	0.024	0.253
-482.391	-200.000	0.025	0.144
-481.376	-189.166	0.374	-0.005
-480.362	-95.919	0.219	-0.059
-479.347	3.901	-0.120	-0.089
-478.332	-200.000	0.016	0.178
-477.318	58.592	-0.027	-0.027
-476.303	19.262	-0.157	0.128
-475.289	0.113	0.120	-0.087
-474.274	0.500	-0.145	-0.105
-473.259	117.134	0.072	-0.090
-472.245	800.000	0.034	-0.148
-471.230	-200.000	-0.007	0.160
-470.216	139.991	0.041	-0.054
-469.201	247.469	-0.166	-0.285
-468.186	800.000	-0.056	0.241
-467.172	800.000	-0.048	0.169
-466.157	-76.064	-0.181	0.065
-465.143	-22.677	-0.185	-0.114
-464.128	126.670	-0.178	-0.229
-463.113	27.950	-0.192	-0.165
-462.099	26.297	-0.185	-0.157
-461.084	800.000	-0.012	0.045
-460.070	-75.036	-0.144	0.052
-459.055	-200.000	-0.008	-0.241
-458.040	-20.296	0.206	-0.129
-457.026	71.346	-0.196	0.207
-456.011	207.390	-0.062	0.099
-454.997	-51.210	0.117	-0.056
-453.982	202.868	0.084	0.132
-452.968	-200.000	-0.003	0.042
-451.953	41.350	-0.242	-0.223
-450.938	420.848	0.132	0.287
-449.924	37.257	0.295	0.265
-448.909	-200.000	0.048	0.225
-447.895	125.062	0.206	-0.263
-446.880	-122.494	0.295	-0.049
-445.865	69.237	-0.171	0.179
-444.851	72.824	0.119	0.126
-443.836	-157.128	0.132	-0.008
-442.822	52.173	-0.025	0.024
-441.807	-113.146	-0.244	0.049
-440.792	-150.821	-0.093	0.007
-439.778	5.259	-0.245	-0.183
-438.763	132.761	0.074	0.097
-437.749	-200.000	-0.033	0.176
-436.734	-129.953	0.182	0.025
-435.719	-60.547	-0.101	0.043
-434.705	800.000	-0.050	0.206
-433.690	800.000	0.068	-0.197
-432.676	46.864	-0.299	-0.282
-431.661	191.601	-0.115	0.175
-430.646	133.727	-0.106	-0.139
-429.632	-200.000	0.020	0.122
-428.617	631.227	0.065	0.167
-427.603	223.384	0.102	-0.167
-426.588	115.751	0.100	-0.124
-425.573	800.000	0.103	0.303
-424.559	-39.928	-0.071	-0.037
-423.544	-118.840	-0.081	0.014
-422.530	184.356	0.071	-0.106
-421.515	126.318	0.011	0.015
-420.500	21.564	0.132	-0.109
-419.486	51.983	0.154	0.149
-418.471	-28.648	-0.204	-0.119
-417.457	800.000	-0.064	-0.199
-416.442	-38.221	0.197	0.106
-415.428	-181.187	-0.125	-0.003
-414.413	-69.460	-0.223	-0.087
-413.398	42.223	-0.268	-0.247
-412.384	277.755	0.011	0.020
-411.369	-32.285	-0.112	-0.064
-410.355	-200.000	-0.010	-0.130
-409.340	-176.649	0.131	-0.003
-408.325	517.577	-0.048	0.114
-407.311	126.540	-0.194	0.249
-406.296	31.690	0.153	-0.134
-405.282	-200.000	0.044	-0.217
-404.267	-200.000	0.055	-0.328
-403.252	-104.155	0.407	0.096
-402.238	83.827	0.245	0.271
-401.223	-174.899	0.198	-0.006
-400.209	153.688	0.261	0.362
-399.194	-106.343	0.123	0.028
-398.179	-200.000	-0.030	-0.138
-397.165	-73.803	0.189	0.069
-396.150	221.967	-0.090	0.147
-395.136	800.000	-0.113	-0.401
-394.121	137.622	-0.073	0.097
-393.106	-85.359	0.049	-0.016
-392.092	-164.308	-0.034	0.002
-391.077	800.000	-0.145	-0.423
-390.063	137.061	-0.087	0.115
-389.048	-158.538	-0.246	0.014
-388.033	-121.563	-0.138	-0.023
-387.019	353.405	0.122	0.244
-386.004	161.596	-0.048	-0.068
-384.990	-165.606	-0.294	0.013
-383.975	431.237	-0.045	0.099
-382.960	-47.142	0.223	0.110
-381.946	-30.274	0.294	0.169
-380.931	800.000	0.068	0.239
-379.917	-200.000	-0.002	0.184
-378.902	37.896	-0.016	-0.015
-377.888	-168.439	-0.434	-0.017
-376.873	96.013	-0.139	-0.161
-375.858	-200.000	0.036	0.210
-374.844	-86.118	-0.237	0.074
-373.829	-138.929	0.312	0.034
-372.815	223.866	0.156	-0.255
-371.800	-200.000	-0.043	-0.538
-370.785	296.921	0.154	0.285
-369.771	-103.070	-0.273	0.066
-368.756	-96.917	-0.182	-0.048
-367.742	-148.231	0.120	0.010
-366.727	-63.399	-0.194	0.081
-365.712	158.935	-0.165	-0.232
-364.698	12.925	0.083	-0.065
-363.683	459.288	-0.112	-0.251
-362.669	20.137	-0.024	0.020
-361.654	-1.819	-0.048	-0.034
-360.639	-132.265	0.261	0.034
-359.625	-200.000	0.038	0.320
-358.610	-200.000	-0.054	-0.263
-357.596	-200.000	0.073	-0.490
-356.581	800.000	0.023	0.083
-355.566	266.395	0.015	0.026
-354.552	-67.675	-0.342	0.135
-353.537	38.632	-0.065	0.058
-352.523	-118.842	0.291	0.052
-351.508	-62.896	-0.059	-0.025
-350.493	-119.202	0.120	0.021
-349.479	800.000	-0.035	0.108
-348.464	-32.486	0.248	-0.140
-347.450	-42.534	-0.444	-0.229
-346.435	-107.267	0.231	0.052
-345.420	30.761	0.062	-0.053
-344.406	-54.513	-0.143	0.065
-343.391	-33.326	-0.101	0.056
-342.377	155.686	0.039	-0.055
-341.362	27.338	-0.303	-0.257
-340.348	-200.000	-0.045	-0.262
-339.333	-138.227	0.043	-0.005
-338.318	42.863	0.118	-0.108
-337.304	-57.433	0.130	0.058
-336.289	-200.000	0.013	0.281
-335.275	-200.000	0.001	-0.045
-334.260	43.471	0.151	0.140
-333.245	800.000	0.126	0.490
-332.231	6.123	-0.148	0.111
-331.216	282.607	0.039	-0.071
-330.202	-102.669	-0.104	-0.025
-329.187	41.216	0.147	0.135
-328.172	-72.885	-0.228	-0.085
-327.158	800.000	0.052	-0.209
-326.143	-120.326	0.093	0.016
-325.129	-200.000	0.028	-0.268
-324.114	22.119	0.066	-0.055
-323.099	318.426	0.141	-0.270
-322.085	-6.696	0.077	0.053
-321.070	800.000	-0.033	-0.111
-320.056	-110.853	-0.114	0.024
-319.041	-93.688	-0.160	-0.045
-318.026	-118.863	0.188	-0.033
-317.012	-111.284	0.233	-0.048
-315.997	-155.731	0.314	-0.020
-314.983	45.677	-0.135	0.126
-313.968	-105.316	0.189	0.043
-312.953	-30.525	0.282	-0.162
-311.939	34.119	-0.031	-0.027
-310.924	70.254	0.032	-0.033
-309.910	-66.158	-0.164	-0.066
-308.895	31.592	-0.083	0.072
-307.880	-27.103	-0.335	-0.197
-306.866	-200.000	0.011	0.174
-305.851	-110.791	0.352	-0.073
-304.837	-200.000	-0.006	0.136
-303.822	-53.854	-0.103	0.047
-302.807	103.680	0.190	-0.225
-301.793	568.690	-0.176	0.431
-300.778	-69.585	-0.375	0.145
-299.764	-91.140	0.244	-0.071
-298.749	-76.777	-0.220	-0.078
-297.735	800.000	0.019	0.078
-296.720	-200.000	-0.001	0.299
-295.705	-81.238	0.145	-0.048
-294.691	-69.781	-0.093	-0.036
-293.676	-175.771	-0.121	0.003
-292.662	-129.529	0.473	0.066
-291.647	-77.092	0.018	-0.006
-290.632	-131.044	0.162	-0.022
-289.618	-78.920	-0.154	-0.053
-288.603	-14.825	-0.248	0.161
-287.589	27.263	-0.189	-0.160
-286.574	800.000	0.089	-0.266
-285.559	-149.614	0.177	0.014
-284.545	-134.983	-0.193	-0.024
-283.530	-131.736	0.243	0.032
-282.516	330.008	0.089	0.173
-281.501	-200.000	-0.073	0.479
-280.486	-2.753	0.249	0.176
-279.472	561.548	0.085	-0.208
-278.457	-200.000	-0.023	0.108
-277.443	800.000	-0.046	-0.131
-276.428	800.000	0.012	0.039
-275.413	-144.061	0.290	-0.027
-274.399	-69.851	0.320	0.123
-273.384	800.000	0.048	0.191
-272.370	121.290	-0.278	-0.349
-271.355	34.236	-0.054	0.047
-270.340	-105.585	-0.125	0.029
-269.326	197.346	-0.170	-0.262
-268.311	25.522	0.089	0.075
-267.297	450.216	-0.164	0.366
-266.282	-200.000	-0.007	0.523
-265.267	-14.059	-0.298	0.194
-264.253	-124.984	0.037	-0.006
-263.238	31.942	-0.212	-0.184
-262.224	48.429	-0.102	-0.096
-261.209	-200.000	-0.001	0.077
-260.195	254.586	-0.182	-0.314
-259.180	-16.575	0.067	-0.043
-258.165	-100.909	-0.432	0.107
-257.151	35.487	-0.104	-0.092
-256.136	-200.000	-0.008	0.241
-255.122	-200.000	-0.059	-0.452
-254.107	13.753	-0.193	0.151
-253.092	428.117	-0.129	0.281
-252.078	800.000	0.014	0.054
-251.063	68.462	0.224	-0.231
-250.049	-200.000	-0.020	-0.223
-249.034	293.947	0.147	0.271
-248.019	800.000	-0.035	-0.110
-247.005	17.032	0.087	0.069
-245.990	-200.000	0.048	0.365
-244.976	-128.924	-0.378	0.053
-243.961	-80.229	0.161	-0.054
-242.946	-130.846	0.168	0.023
-241.932	68.198	0.133	-0.138
-240.917	302.009	0.114	0.212
-239.903	38.903	-0.310	0.279
-238.888	-67.532	0.231	0.091
-237.873	-151.166	0.315	-0.024
-236.859	800.000	-0.079	-0.263
-235.844	-149.752	-0.123	-0.010
-234.830	-60.507	-0.128	-0.055
-233.815	-139.860	-0.159	-0.017
-232.800	119.263	0.071	-0.088
-231.786	27.870	-0.106	0.090
-230.771	-118.850	-0.218	-0.039
-229.757	-200.000	-0.003	0.203
-228.742	247.686	-0.015	0.026
-227.727	483.905	-0.131	-0.299
-226.713	800.000	0.078	-0.245
-225.698	87.356	0.057	-0.063
-224.684	-10.423	0.247	0.165
-223.669	800.000	0.102	0.298
-222.655	-200.000	-0.132	0.000
-221.640	-200.000	-0.031	0.450
-220.625	800.000	-0.053	-0.197
-219.611	-104.640	-0.072	-0.017
-218.596	-48.599	0.405	0.196
-217.582	622.041	0.163	0.414
-216.567	800.000	-0.098	-0.394
-215.552	-200.000	-0.002	0.144
-214.538	-200.000	0.016	-0.140
-213.523	141.153	0.194	0.259
-212.509	-23.497	-0.221	0.134
-211.494	-200.000	0.009	0.158
-210.479	330.910	0.144	0.279
-209.465	800.000	-0.021	-0.090
-208.450	99.565	0.134	-0.157
-207.436	-200.000	-0.034	-0.247
-206.421	-66.150	-0.040	0.016
-205.406	302.065	-0.082	0.152
-204.392	14.663	0.164	-0.129
-203.377	-200.000	0.074	0.389
-202.363	-120.594	0.203	-0.035
-201.348	304.961	0.014	-0.027
-200.333	1.949	0.205	-0.149
-199.319	14.720	0.114	0.089
-198.304	800.000	-0.039	-0.111
-197.290	-200.000	-0.006	0.282
-196.275	800.000	0.059	-0.223
-195.260	237.434	-0.041	0.068
-194.246	-68.459	-0.134	-0.052
-193.231	-148.559	0.151	-0.012
-192.217	-200.000	0.031	-0.310
-191.202	-101.930	-0.357	0.087
-190.187	-9.606	0.162	-0.109
-189.173	232.390	0.220	-0.362
-188.158	-144.054	0.233	-0.022
-187.144	-19.206	0.204	0.128
-186.129	800.000	0.072	0.201
-185.114	150.327	0.130	-0.177
-184.100	188.081	0.193	0.290
-183.085	-200.000	0.015	-0.155
-182.071	26.464	-0.289	-0.243
-181.056	49.831	0.056	-0.053
-180.042	-175.105	-0.085	-0.002
-179.027	51.453	-0.086	-0.082
-178.012	-16.448	-0.194	-0.123
-176.998	68.244	-0.141	0.145
-175.983	-159.276	-0.329	0.019
-174.969	800.000	0.147	-0.443
-173.954	-10.308	-0.152	0.101
-172.939	432.706	0.093	-0.202
-171.925	-200.000	0.093	0.470
-170.910	-90.835	0.126	-0.036
-169.896	-187.620	-0.257	0.003
-168.881	-101.995	-0.412	-0.100
-167.866	-200.000	0.030	-0.219
-166.852	13.081	0.156	-0.122
-165.837	-45.804	0.234	0.116
-164.823	-61.675	0.218	0.092
-163.808	396.912	-0.124	0.261
-162.793	63.365	0.216	-0.217
-161.779	479.252	0.107	-0.243
-160.764	57.123	-0.081	-0.080
-159.750	51.387	-0.118	0.113
-158.735	-200.000	-0.002	0.307
-157.720	-121.332	0.276	-0.046
-156.706	-152.052	0.231	0.017
-155.691	-6.538	-0.101	0.069
-154.677	53.896	-0.107	0.103
-153.662	800.000	0.127	-0.353
-152.647	-105.457	-0.195	-0.044
-151.633	-101.570	0.307	-0.075
-150.618	-26.477	-0.102	0.060
-149.604	-31.937	0.224	0.126
-148.589	-200.000	0.069	0.375
-147.574	-132.362	-0.321	-0.042
-146.560	-74.690	-0.212	-0.076
-145.545	762.149	0.016	0.043
-144.531	-120.427	-0.013	-0.002
-143.516	-136.365	0.083	-0.010
-142.502	111.450	-0.138	-0.166
-141.487	698.202	0.024	-0.064
-140.472	-107.419	0.087	0.019
-139.458	-200.000	0.004	0.107
-138.443	-200.000	0.027	-0.371
-137.429	164.603	-0.093	-0.132
-136.414	-162.179	0.276	-0.014
-135.399	-200.000	-0.020	0.198
-134.385	-117.769	0.467	-0.084
-133.370	-12.794	0.061	-0.040
-132.356	773.495	-0.019	-0.051
-131.341	-162.742	0.266	-0.013
-130.326	103.773	0.082	0.097
-129.312	471.217	-0.031	0.071
-128.297	-75.804	-0.238	-0.085
-127.283	7.095	0.137	-0.102
-126.268	-96.136	-0.225	0.060
-125.253	86.717	-0.068	-0.076
-124.239	65.387	0.034	0.035
-123.224	28.617	-0.052	0.044
-122.210	-107.755	-0.196	0.043
-121.195	227.421	0.019	0.030
