DTS Sentinel unit serial number:	SN413079Multiplexer serial number:	ORYXHardware model number:	OX4-SRSoftware version number:	ORYX F/W v4.00 Oryx Data Collector v3.7.2.0data status	okinstallation	princeton_trtdifferential loss correction	single-endedforward channel	channel 4reverse channel	N/Adate	2019/09/16time	01:33:35forward acquisition time	60.00reverse acquisition time	0.00gamma	496.2192k internal	0.2323k external	0.2323temperature offset calibration	0.9968default loss term (dB/km)	0.3790temperature slope calibration	1.0000multiplexer offset coefficient	1.0000multiplexer slope coefficient	1.0000fibre end	0.00T internal ref (°C)	27.31T ext. ref 1 (°C)	9.93T ext. ref 2 (°C)	22.12length (m)	temperature (°C)	Stokes	anti-Stokes-747.200	-131.008	0.230	-0.031
-746.185	-200.000	-0.028	0.240
-745.171	368.466	-0.070	-0.142
-744.156	153.560	0.345	0.477
-743.142	-200.000	-0.019	0.325
-742.127	800.000	-0.080	0.293
-741.112	800.000	-0.054	-0.237
-740.098	377.652	-0.285	0.589
-739.083	-200.000	0.025	-0.192
-738.069	-200.000	-0.054	0.253
-737.054	303.169	-0.165	0.308
-736.039	20.729	0.260	0.213
-735.025	-200.000	0.019	0.140
-734.010	-15.220	-0.270	-0.174
-732.996	-182.911	-0.237	-0.004
-731.981	47.162	-0.093	-0.087
-730.966	-2.227	0.243	-0.172
-729.952	103.184	-0.162	0.192
-728.937	-153.353	-0.110	0.008
-727.923	-53.323	0.330	0.153
-726.908	-90.822	-0.227	0.066
-725.894	-200.000	0.002	0.116
-724.879	-2.357	-0.281	0.199
-723.864	-58.929	-0.195	0.085
-722.850	800.000	-0.093	-0.310
-721.835	164.257	0.023	-0.032
-720.821	700.084	-0.082	-0.217
-719.806	37.075	-0.234	0.209
-718.791	-200.000	-0.038	-0.185
-717.777	-65.745	0.098	-0.040
-716.762	-147.406	-0.227	0.019
-715.748	-155.481	0.129	0.008
-714.733	356.102	0.098	0.196
-713.718	-130.720	-0.097	0.013
-712.704	38.983	0.136	-0.122
-711.689	-91.307	-0.242	-0.070
-710.675	96.044	-0.109	0.125
-709.660	-84.119	0.231	-0.074
-708.645	-24.795	-0.205	0.123
-707.631	-158.042	-0.298	-0.018
-706.616	398.882	-0.026	-0.056
-705.602	49.957	-0.141	0.134
-704.587	-200.000	0.024	-0.262
-703.572	55.103	0.401	-0.391
-702.558	-117.763	-0.153	-0.028
-701.543	123.790	-0.289	-0.366
-700.529	30.370	0.007	0.006
-699.514	127.926	0.189	0.242
-698.499	291.453	0.048	0.089
-697.485	-24.313	-0.287	0.173
-696.470	-200.000	-0.135	-0.000
-695.456	177.272	0.143	0.210
-694.441	-2.880	-0.061	0.043
-693.426	85.153	-0.191	-0.211
-692.412	91.800	-0.236	0.267
-691.397	449.068	0.119	-0.264
-690.383	-200.000	-0.011	-0.219
-689.368	-22.717	0.313	0.190
-688.354	-173.585	-0.255	-0.008
-687.339	90.031	-0.203	-0.229
-686.324	-77.487	-0.170	0.060
-685.310	-200.000	-0.020	-0.113
-684.295	109.680	0.173	-0.209
-683.281	-200.000	-0.036	0.216
-682.266	93.237	-0.173	0.197
-681.251	-200.000	0.065	0.503
-680.237	56.748	-0.311	0.306
-679.222	23.805	-0.122	-0.101
-678.208	23.179	-0.225	-0.186
-677.193	-141.633	-0.130	-0.013
-676.178	164.842	0.073	0.103
-675.164	-81.760	0.090	-0.030
-674.149	328.116	-0.150	-0.290
-673.135	-33.069	-0.249	0.139
-672.120	-200.000	0.001	0.089
-671.105	-200.000	-0.023	0.398
-670.091	800.000	-0.076	-0.220
-669.076	-200.000	0.000	-0.294
-668.062	97.767	-0.135	-0.156
-667.047	-58.029	0.152	-0.067
-666.032	-200.000	0.013	0.085
-665.018	38.803	-0.233	-0.210
-664.003	-162.363	0.077	0.004
-662.989	-31.834	-0.257	-0.145
-661.974	-200.000	-0.063	-0.328
-660.959	394.193	0.119	-0.249
-659.945	-200.000	-0.008	-0.096
-658.930	-200.000	0.004	-0.454
-657.916	181.763	-0.201	-0.298
-656.901	-200.000	-0.007	-0.200
-655.886	-7.976	-0.330	-0.224
-654.872	-200.000	0.049	0.242
-653.857	-86.712	-0.146	0.045
-652.843	-36.042	-0.145	0.079
-651.828	644.317	0.088	-0.227
-650.814	149.889	-0.122	-0.166
-649.799	-73.986	-0.075	0.027
-648.784	-200.000	-0.007	0.149
-647.770	-26.340	-0.197	-0.116
-646.755	625.476	-0.013	-0.034
-645.741	-2.351	-0.231	-0.163
-644.726	-200.000	0.020	-0.124
-643.711	-200.000	-0.002	0.120
-642.697	-200.000	-0.005	0.052
-641.682	170.589	-0.141	0.204
-640.668	-60.738	-0.299	-0.128
-639.653	-200.000	-0.025	0.164
-638.638	-109.853	-0.251	-0.053
-637.624	382.871	0.142	-0.294
-636.609	-154.659	-0.362	-0.024
-635.595	10.620	0.256	-0.197
-634.580	296.099	-0.131	0.242
-633.565	159.878	0.095	0.133
-632.551	204.774	-0.141	-0.220
-631.536	800.000	-0.061	0.178
-630.522	800.000	0.015	0.048
-629.507	18.204	-0.228	0.183
-628.492	374.906	0.066	0.135
-627.478	-45.877	0.329	-0.163
-626.463	148.226	-0.259	0.352
-625.449	99.759	0.155	0.181
-624.434	285.739	0.005	0.009
-623.419	206.429	-0.184	-0.288
-622.405	-109.018	-0.482	-0.103
-621.390	800.000	-0.022	-0.072
-620.376	-104.207	0.098	0.023
-619.361	-152.508	-0.224	-0.016
-618.346	347.552	0.045	-0.089
-617.332	192.739	0.205	-0.311
-616.317	-54.988	0.179	-0.081
-615.303	-200.000	0.028	0.446
-614.288	-200.000	0.066	-0.369
-613.273	-134.758	0.300	-0.037
-612.259	-3.027	0.167	0.117
-611.244	18.349	-0.245	-0.196
-610.230	800.000	-0.039	0.167
-609.215	-200.000	-0.019	-0.102
-608.201	488.015	-0.119	0.272
-607.186	445.016	0.058	-0.127
-606.171	35.502	-0.175	0.154
-605.157	-28.170	0.259	0.150
-604.142	-60.162	0.341	0.146
-603.128	-200.000	-0.074	-0.544
-602.113	-200.000	0.007	0.422
-601.098	-110.587	-0.316	0.066
-600.084	297.196	0.118	0.218
-599.069	-1.633	-0.184	-0.130
-598.055	179.523	0.118	-0.173
-597.040	-95.535	-0.351	0.094
-596.025	10.274	0.016	0.012
-595.011	-200.000	-0.002	-0.167
-593.996	-56.561	0.380	0.169
-592.982	4.943	0.206	0.153
-591.967	391.957	-0.155	-0.323
-590.952	244.245	-0.040	-0.068
-589.938	188.100	0.104	0.156
-588.923	-99.643	-0.299	-0.075
-587.909	96.264	0.077	0.088
-586.894	-66.937	-0.304	0.120
-585.879	-80.762	-0.145	0.048
-584.865	-35.888	0.133	-0.072
-583.850	49.220	0.093	0.087
-582.836	-3.260	0.107	-0.075
-581.821	-129.761	0.221	0.031
-580.806	274.260	-0.032	-0.057
-579.792	-4.657	0.133	0.092
-578.777	-108.438	-0.331	0.071
-577.763	98.918	0.231	0.268
-576.748	-200.000	-0.009	0.079
-575.733	-200.000	-0.010	0.141
-574.719	414.036	-0.066	-0.140
-573.704	-200.000	0.019	-0.118
-572.690	-82.234	0.271	0.089
-571.675	-200.000	-0.011	-0.125
-570.661	8.230	-0.054	0.041
-569.646	225.250	0.144	-0.235
-568.631	201.474	0.164	-0.253
-567.617	-200.000	0.010	-0.247
-566.602	-80.721	0.080	0.027
-565.588	188.939	-0.198	-0.297
-564.573	-52.405	-0.307	-0.142
-563.558	-200.000	-0.001	0.203
-562.544	-200.000	0.029	-0.304
-561.529	-145.481	-0.291	0.026
-560.515	-83.187	-0.379	0.122
-559.500	97.843	-0.056	-0.065
-558.485	800.000	-0.072	-0.228
-557.471	-200.000	0.010	-0.228
-556.456	514.146	0.048	-0.111
-555.442	-26.721	-0.107	-0.063
-554.427	-70.129	-0.374	-0.142
-553.412	385.810	0.101	-0.209
-552.398	-200.000	0.033	-0.567
-551.383	-52.648	0.057	0.026
-550.369	800.000	0.047	-0.178
-549.354	-129.094	-0.214	0.030
-548.339	-200.000	0.003	0.232
-547.325	141.537	-0.165	-0.219
-546.310	-200.000	0.008	0.453
-545.296	-100.060	-0.219	-0.055
-544.281	-200.000	0.010	0.280
-543.266	202.756	0.212	0.329
-542.252	379.118	0.194	-0.397
-541.237	-200.000	-0.007	0.057
-540.223	-161.745	-0.261	-0.013
-539.208	203.451	0.162	0.251
-538.193	-104.742	0.193	-0.045
-537.179	-129.619	-0.161	0.022
-536.164	-108.197	-0.081	-0.017
-535.150	228.818	0.130	-0.212
-534.135	-200.000	0.104	-0.509
-533.121	24.298	0.122	-0.101
-532.106	800.000	-0.061	-0.196
-531.091	447.865	0.184	-0.406
-530.077	-62.567	-0.049	0.020
-529.062	712.319	0.043	0.115
-528.048	20.225	-0.157	-0.127
-527.033	629.319	0.036	-0.092
-526.018	90.851	0.084	-0.095
-525.004	-200.000	-0.042	-0.571
-523.989	-200.000	0.005	0.447
-522.975	784.128	0.157	-0.430
-521.960	-90.949	0.086	-0.025
-520.945	-139.612	0.286	-0.031
-519.931	-60.272	-0.094	0.040
-518.916	800.000	-0.056	-0.159
-517.902	4.127	0.357	-0.261
-516.887	-110.118	-0.233	0.049
-515.872	522.409	0.051	0.120
-514.858	249.340	-0.226	0.383
-513.843	-200.000	0.025	0.292
-512.829	-174.098	-0.072	-0.002
-511.814	-146.773	-0.293	-0.025
-510.799	-89.455	-0.177	0.052
-509.785	-32.193	-0.314	-0.175
-508.770	-200.000	-0.023	0.166
-507.756	256.182	0.065	-0.112
-506.741	480.200	0.094	0.214
-505.726	81.225	-0.090	0.097
-504.712	177.131	0.076	0.111
-503.697	-38.320	-0.116	-0.062
-502.683	-76.056	0.152	-0.054
-501.668	800.000	0.065	0.198
-500.653	-200.000	0.024	-0.131
-499.639	-37.007	-0.236	-0.126
-498.624	-152.579	-0.091	0.006
-497.610	-200.000	0.013	-0.094
-496.595	196.268	-0.215	-0.327
-495.581	-5.864	0.132	0.090
-494.566	-71.202	-0.037	0.014
-493.551	-200.000	0.046	0.269
-492.537	-60.394	0.189	-0.080
-491.522	25.549	-0.075	-0.063
-490.508	113.463	-0.194	0.236
-489.493	-86.692	-0.145	0.044
-488.478	503.575	0.062	0.143
-487.464	259.771	-0.067	0.115
-486.449	-200.000	-0.036	-0.183
-485.435	-21.898	0.237	-0.144
-484.420	-28.608	-0.365	-0.210
-483.405	800.000	-0.028	-0.110
-482.391	-0.919	0.242	0.171
-481.376	800.000	-0.037	-0.145
-480.362	-66.185	0.233	0.093
-479.347	-25.308	0.351	-0.208
-478.332	6.230	-0.162	-0.120
-477.318	-43.472	0.119	-0.060
-476.303	372.110	0.122	0.248
-475.289	540.053	0.055	-0.130
-474.274	448.286	-0.022	-0.048
-473.259	112.535	-0.162	0.196
-472.245	800.000	0.079	0.334
-471.230	-47.795	0.282	0.136
-470.216	326.302	-0.249	0.476
-469.201	-86.019	-0.354	0.109
-468.186	-36.830	-0.085	0.046
-467.172	-200.000	0.008	-0.068
-466.157	800.000	-0.097	-0.317
-465.143	143.055	-0.046	-0.062
-464.128	398.008	-0.266	-0.555
-463.113	-41.074	0.296	-0.153
-462.099	377.294	-0.106	-0.216
-461.084	729.522	0.103	-0.275
-460.070	-13.399	0.226	0.146
-459.055	-200.000	0.049	0.261
-458.040	-62.291	-0.347	0.144
-457.026	-132.199	0.512	0.066
-456.011	50.956	-0.097	0.092
-454.997	-110.388	-0.216	-0.045
-453.982	99.829	-0.162	0.187
-452.968	800.000	-0.040	-0.157
-451.953	219.485	0.106	-0.169
-450.938	800.000	-0.027	0.087
-449.924	73.452	0.330	0.345
-448.909	138.863	-0.157	0.206
-447.895	224.190	-0.073	0.117
-446.880	-78.531	-0.084	0.029
-445.865	-35.622	-0.283	-0.153
-444.851	-200.000	0.038	0.213
-443.836	800.000	-0.059	0.172
-442.822	-104.529	0.375	-0.086
-441.807	-108.410	-0.200	0.043
-440.792	800.000	-0.014	-0.049
-439.778	-90.608	-0.112	0.032
-438.763	-19.547	0.208	-0.128
-437.749	75.237	0.174	0.183
-436.734	-200.000	0.028	-0.266
-435.719	-200.000	0.072	0.000
-434.705	-200.000	-0.021	-0.095
-433.690	800.000	0.024	0.083
-432.676	-142.178	-0.093	-0.009
-431.661	94.220	0.193	-0.219
-430.646	120.200	-0.191	0.237
-429.632	-138.877	-0.190	0.021
-428.617	585.998	-0.096	-0.236
-427.603	210.793	0.191	-0.300
-426.588	226.830	-0.130	0.210
-425.573	-71.094	0.193	-0.072
-424.559	800.000	-0.011	0.047
-423.544	338.488	-0.117	0.227
-422.530	246.048	0.058	0.097
-421.515	800.000	0.130	-0.397
-420.500	104.737	0.117	-0.137
-419.486	-200.000	0.035	0.325
-418.471	-200.000	0.015	0.181
-417.457	-200.000	-0.025	0.194
-416.442	-84.414	0.155	0.049
-415.428	-112.332	-0.260	0.052
-414.413	-42.542	-0.082	-0.041
-413.398	-200.000	0.029	-0.155
-412.384	-200.000	0.032	-0.177
-411.369	384.935	0.093	0.191
-410.355	-61.419	-0.086	-0.036
-409.340	-40.780	0.339	0.175
-408.325	-200.000	0.080	0.625
-407.311	-121.196	0.279	-0.047
-406.296	-38.688	0.170	-0.089
-405.282	56.595	0.222	0.216
-404.267	151.894	0.058	0.079
-403.252	227.154	0.131	0.212
-402.238	-200.000	0.010	0.154
-401.223	20.852	0.162	-0.131
-400.209	369.569	0.091	-0.185
-399.194	-7.641	-0.033	-0.022
-398.179	-0.637	0.104	0.073
-397.165	49.838	-0.048	-0.045
-396.150	-120.183	0.267	0.046
-395.136	406.234	-0.071	-0.149
-394.121	320.978	-0.075	-0.143
-393.106	-153.482	-0.090	0.006
-392.092	-200.000	-0.023	0.288
-391.077	32.133	-0.339	0.291
-390.063	70.596	0.073	0.075
-389.048	800.000	-0.049	0.205
-388.033	38.643	0.138	0.123
-387.019	73.119	0.158	-0.165
-386.004	-200.000	-0.006	-0.221
-384.990	-56.194	0.534	0.237
-383.975	-75.404	-0.098	-0.035
-382.960	800.000	0.021	-0.087
-381.946	258.239	-0.114	-0.196
-380.931	-22.582	-0.220	0.132
-379.917	61.034	0.436	-0.431
-378.902	111.204	0.112	-0.134
-377.888	578.742	-0.113	0.276
-376.873	-42.089	0.209	0.106
-375.858	220.190	-0.071	0.113
-374.844	34.948	-0.187	0.163
-373.829	-38.300	0.290	-0.153
-372.815	-124.973	0.061	0.009
-371.800	-200.000	0.054	0.380
-370.785	800.000	0.192	-0.537
-369.771	800.000	-0.022	0.066
-368.756	-35.606	0.076	-0.041
-367.742	39.599	-0.260	0.232
-366.727	800.000	-0.083	-0.259
-365.712	800.000	0.094	0.260
-364.698	298.052	-0.011	-0.020
-363.683	-60.220	-0.515	0.219
-362.669	-136.283	-0.222	0.026
-361.654	-79.183	-0.209	0.071
-360.639	-200.000	-0.031	0.318
-359.625	-45.157	-0.066	0.033
-358.610	-107.499	-0.142	0.031
-357.596	-19.428	0.159	0.098
-356.581	-6.595	-0.181	-0.122
-355.566	-32.708	0.269	-0.149
-354.552	393.454	-0.139	0.287
-353.537	31.341	0.234	0.200
-352.523	42.750	-0.092	0.083
-351.508	9.708	-0.411	-0.310
-350.493	211.742	0.017	-0.026
-349.479	-184.367	-0.246	0.004
-348.464	-69.878	-0.089	0.034
-347.450	-9.157	0.190	0.127
-346.435	339.769	0.157	0.305
-345.420	268.904	0.075	-0.132
-344.406	377.999	0.122	0.248
-343.391	-43.347	0.101	-0.051
-342.377	41.346	-0.224	0.201
-341.362	-65.728	-0.265	-0.105
-340.348	-200.000	0.000	-0.108
-339.333	-119.643	-0.173	0.030
-338.318	-77.545	0.185	0.064
-337.304	-200.000	-0.009	0.397
-336.289	158.049	-0.165	0.228
-335.275	431.257	-0.112	-0.241
-334.260	634.728	0.109	-0.276
-333.245	-200.000	0.005	0.119
-332.231	606.604	0.090	-0.224
-331.216	42.310	0.242	-0.219
-330.202	-200.000	-0.069	0.619
-329.187	120.546	-0.125	0.154
-328.172	-120.571	0.205	0.035
-327.158	-161.346	-0.182	0.009
-326.143	-92.708	-0.184	0.051
-325.129	343.433	-0.092	0.179
-324.114	19.489	-0.243	-0.194
-323.099	-169.143	0.217	-0.008
-322.085	447.533	0.179	0.392
-321.070	243.560	-0.025	-0.041
-320.056	66.546	-0.194	-0.196
-319.041	-45.634	-0.367	0.180
-318.026	-200.000	0.021	-0.170
-317.012	-200.000	-0.022	0.306
-315.997	68.907	-0.112	-0.114
-314.983	553.565	0.044	0.104
-313.968	-46.737	0.213	0.103
-312.953	-200.000	-0.015	-0.106
-311.939	-69.675	0.284	0.108
-310.924	-160.694	-0.214	0.011
-309.910	-145.785	0.094	-0.008
-308.895	-96.852	0.140	-0.037
-307.880	84.902	-0.227	-0.247
-306.866	242.877	0.183	0.304
-305.851	-200.000	-0.045	-0.218
-304.837	-9.694	-0.108	-0.071
-303.822	129.800	0.154	-0.196
-302.807	-54.378	0.082	0.037
-301.793	103.089	-0.215	-0.251
-300.778	-154.367	0.036	0.002
-299.764	7.598	0.448	-0.333
-298.749	291.822	-0.098	-0.178
-297.735	-200.000	0.011	-0.235
-296.720	-153.960	0.138	-0.009
-295.705	625.535	0.123	0.308
-294.691	-32.130	-0.272	-0.151
-293.676	236.286	-0.177	0.290
-292.662	195.283	0.090	0.135
-291.647	5.144	-0.254	-0.186
-290.632	-200.000	-0.049	-0.224
-289.618	-143.488	0.083	0.008
-288.603	-86.517	-0.188	0.057
-287.589	-117.932	-0.345	-0.061
-286.574	800.000	0.080	0.224
-285.559	-155.135	0.258	0.017
-284.545	717.342	-0.044	-0.116
-283.530	-200.000	-0.012	0.207
-282.516	800.000	0.128	-0.374
-281.501	-200.000	-0.013	-0.066
-280.486	207.276	-0.078	-0.121
-279.472	161.193	-0.093	0.129
-278.457	4.499	0.194	-0.141
-277.443	-48.139	-0.143	-0.069
-276.428	55.462	-0.222	0.213
-275.413	-25.023	0.284	0.167
-274.399	800.000	-0.102	0.398
-273.384	-41.336	-0.329	-0.168
-272.370	107.596	0.068	-0.080
-271.355	-200.000	-0.037	-0.180
-270.340	-76.957	-0.088	0.031
-269.326	-101.590	0.356	0.086
-268.311	800.000	-0.044	-0.190
-267.297	800.000	0.085	-0.244
-266.282	-162.473	0.257	-0.013
-265.267	-91.520	-0.084	0.024
-264.253	216.855	-0.075	-0.119
-263.238	800.000	0.056	-0.196
-262.224	48.280	-0.172	-0.160
-261.209	58.426	0.279	-0.271
-260.195	673.877	-0.052	0.133
-259.180	147.077	-0.077	0.103
-258.165	259.184	-0.176	0.301
-257.151	800.000	-0.098	0.347
-256.136	315.661	0.042	-0.079
-255.122	271.538	0.158	-0.276
-254.107	79.189	-0.129	-0.137
-253.092	283.761	-0.031	0.055
-252.078	-35.194	0.066	0.036
-251.063	-200.000	-0.012	-0.161
-250.049	-107.341	0.275	0.060
-249.034	-200.000	0.039	0.212
-248.019	-200.000	-0.039	0.298
-247.005	-129.848	0.059	-0.008
-245.990	411.856	0.119	0.250
-244.976	-157.575	0.185	-0.011
-243.961	-200.000	0.068	-0.604
-242.946	43.987	-0.099	-0.090
-241.932	-10.313	0.312	-0.205
-240.917	-99.657	0.238	0.059
-239.903	294.733	-0.071	0.128
-238.888	0.375	0.123	-0.087
-237.873	-200.000	-0.025	0.385
-236.859	486.079	0.030	-0.068
-235.844	24.974	0.222	-0.183
-234.830	422.669	0.039	0.084
-233.815	173.984	0.148	0.212
-232.800	229.240	0.065	0.105
-231.786	-86.947	-0.200	-0.060
-230.771	199.937	-0.068	0.103
-229.757	-175.373	0.268	0.007
-228.742	-200.000	-0.090	-0.523
-227.727	-1.161	-0.234	0.164
-226.713	800.000	0.083	0.235
-225.698	-195.332	0.300	-0.002
-224.684	-200.000	-0.039	-0.225
-223.669	-129.426	-0.101	-0.014
-222.655	-164.553	0.075	0.003
-221.640	-200.000	-0.016	-0.084
-220.625	-200.000	-0.000	-0.214
-219.611	193.430	-0.173	-0.259
-218.596	-200.000	-0.036	0.262
-217.582	17.515	-0.082	0.064
-216.567	-3.720	0.223	-0.153
-215.552	272.791	0.105	0.184
-214.538	-78.493	-0.324	0.110
-213.523	-200.000	-0.019	0.142
-212.509	-200.000	-0.010	0.110
-211.494	800.000	-0.075	-0.239
-210.479	-200.000	-0.026	-0.285
-209.465	-200.000	-0.001	-0.384
-208.450	-46.994	0.190	0.092
-207.436	800.000	0.091	0.249
-206.421	-28.146	-0.404	-0.231
-205.406	-200.000	-0.032	-0.155
-204.392	800.000	0.098	-0.339
-203.377	20.402	0.174	-0.139
-202.363	-200.000	-0.015	0.112
-201.348	800.000	-0.078	-0.272
-200.333	800.000	0.034	0.111
-199.319	-43.190	0.392	-0.196
-198.304	689.812	0.101	-0.262
-197.290	-200.000	-0.044	0.209
-196.275	800.000	0.034	-0.129
-195.260	-78.274	-0.074	0.025
-194.246	-200.000	-0.006	0.527
-193.231	-200.000	0.076	0.354
-192.217	-200.000	0.011	0.184
-191.202	-200.000	0.027	-0.128
-190.187	162.119	0.123	-0.171
-189.173	-123.974	0.317	-0.049
-188.158	-88.520	0.244	-0.072
-187.144	-200.000	0.021	0.097
-186.129	232.313	0.037	-0.060
-185.114	-150.299	0.206	0.016
-184.100	-70.222	0.242	0.091
-183.085	120.896	0.066	-0.081
-182.071	-0.164	0.094	0.066
-181.056	111.301	0.021	-0.025
-180.042	340.066	0.072	-0.138
-179.027	-79.380	-0.085	-0.028
-178.012	-200.000	-0.024	0.163
-176.998	-11.069	-0.440	0.287
-175.983	194.393	-0.095	0.142
-174.969	-95.425	0.132	-0.035
-173.954	-186.294	-0.137	-0.002
-172.939	190.765	0.129	0.191
-171.925	-45.081	-0.432	-0.212
-170.910	180.901	-0.047	-0.068
-169.896	30.877	-0.251	0.213
-168.881	-16.786	-0.166	-0.104
-167.866	-163.242	0.129	-0.006
-166.852	13.724	0.202	0.155
-165.837	427.464	-0.122	-0.259
-164.823	144.472	-0.204	0.269
-163.808	-200.000	-0.048	-0.247
-162.793	-53.904	0.121	0.055
-161.779	66.362	-0.108	-0.108
-160.764	800.000	-0.074	0.255
-159.750	800.000	-0.095	0.342
-158.735	110.061	0.318	0.376
-157.720	-24.313	-0.168	0.099
-156.706	-41.271	0.193	0.098
-155.691	143.271	0.073	0.095
-154.677	251.765	0.164	-0.275
-153.662	149.329	0.191	-0.255
-152.647	-200.000	-0.029	0.197
-151.633	161.846	0.161	-0.223
-150.618	-200.000	0.001	0.154
-149.604	146.893	0.023	-0.030
-148.589	316.276	0.054	0.101
-147.574	800.000	-0.122	-0.451
-146.560	82.073	0.103	0.110
-145.545	171.349	0.070	-0.098
-144.531	-146.715	0.260	-0.022
-143.516	129.923	0.233	0.294
-142.502	-30.953	-0.295	0.164
-141.487	800.000	-0.030	-0.091
-140.472	62.487	0.093	-0.092
-139.458	184.735	-0.026	0.037
-138.443	646.908	-0.070	0.175
-137.429	121.904	0.118	0.145
-136.414	-43.351	-0.167	0.083
-135.399	-47.491	0.167	0.080
-134.385	-27.811	-0.200	-0.114
-133.370	-200.000	-0.017	0.202
-132.356	-2.431	-0.240	-0.166
-131.341	-38.016	-0.020	-0.011
-130.326	-151.028	0.311	-0.023
-129.312	-41.776	0.317	0.160
-128.297	244.033	0.094	0.155
-127.283	76.710	0.070	0.073
-126.268	410.216	-0.054	-0.113
-125.253	-9.591	-0.023	-0.015
-124.239	-43.649	-0.508	0.253
-123.224	4.657	0.055	0.040
-122.210	-200.000	0.008	-0.168
