DTS Sentinel unit serial number:	SN413079Multiplexer serial number:	ORYXHardware model number:	OX4-SRSoftware version number:	ORYX F/W v4.00 Oryx Data Collector v3.7.2.0data status	okinstallation	princeton_trtdifferential loss correction	single-endedforward channel	channel 4reverse channel	N/Adate	2019/09/17time	13:05:34forward acquisition time	60.00reverse acquisition time	0.00gamma	496.2192k internal	0.2300k external	0.2300temperature offset calibration	0.9984default loss term (dB/km)	0.3790temperature slope calibration	1.0000multiplexer offset coefficient	1.0000multiplexer slope coefficient	1.0000fibre end	0.00T internal ref (°C)	33.56T ext. ref 1 (°C)	0.41T ext. ref 2 (°C)	31.54length (m)	temperature (°C)	Stokes	anti-Stokes-747.200	-81.297	-0.082	-0.028
-746.185	403.309	0.094	-0.202
-745.171	405.543	-0.101	0.217
-744.156	1.489	-0.026	0.019
-743.142	-99.961	-0.263	0.067
-742.127	-200.000	0.071	0.329
-741.112	202.126	0.251	0.394
-740.098	35.954	-0.198	0.177
-739.083	-42.023	-0.067	0.035
-738.069	-135.063	-0.296	-0.036
-737.054	-95.042	0.413	0.114
-736.039	-29.112	-0.310	-0.181
-735.025	-31.728	-0.042	0.024
-734.010	-75.742	-0.182	-0.066
-732.996	215.080	0.130	0.210
-731.981	19.284	-0.068	0.056
-730.966	-86.995	-0.204	-0.063
-729.952	207.013	-0.087	-0.138
-728.937	-31.527	-0.319	-0.183
-727.923	348.189	-0.172	-0.346
-726.908	-138.691	0.158	0.018
-725.894	-200.000	0.011	-0.064
-724.879	-132.463	0.130	0.017
-723.864	-178.260	-0.448	-0.011
-722.850	800.000	0.108	-0.356
-721.835	-65.553	0.168	0.069
-720.821	-100.889	-0.036	-0.009
-719.806	-200.000	-0.012	-0.205
-718.791	800.000	0.062	0.189
-717.777	175.036	-0.135	0.199
-716.762	-200.000	-0.021	0.112
-715.748	800.000	0.095	0.322
-714.733	13.689	-0.099	-0.078
-713.718	-80.152	0.318	-0.109
-712.704	-134.553	-0.105	-0.013
-711.689	-3.304	0.082	0.059
-710.675	16.456	0.125	-0.101
-709.660	-119.003	-0.216	-0.039
-708.645	-100.403	-0.179	0.045
-707.631	397.831	-0.134	-0.286
-706.616	1.120	-0.238	0.174
-705.602	122.534	0.043	-0.055
-704.587	20.859	0.020	0.017
-703.572	-28.148	0.249	0.147
-702.558	70.594	0.225	-0.237
-701.543	36.134	0.108	-0.096
-700.529	-165.182	0.091	0.004
-699.514	74.521	-0.031	-0.033
-698.499	-98.182	-0.196	-0.051
-697.485	-200.000	-0.048	-0.223
-696.470	328.934	0.090	-0.176
-695.456	-200.000	-0.066	-0.552
-694.441	329.391	-0.078	0.152
-693.426	4.479	-0.140	-0.105
-692.412	-10.603	-0.068	-0.046
-691.397	25.524	-0.180	0.152
-690.383	64.207	-0.288	0.294
-689.368	-86.566	-0.122	0.038
-688.354	-200.000	0.004	-0.144
-687.339	-185.713	0.284	-0.004
-686.324	-15.460	-0.029	0.019
-685.310	-103.125	-0.194	0.047
-684.295	-110.682	0.423	-0.089
-683.281	197.448	-0.136	0.211
-682.266	-200.000	0.023	0.208
-681.251	800.000	0.035	0.106
-680.237	365.858	-0.048	-0.097
-679.222	264.194	-0.172	0.305
-678.208	-200.000	0.016	0.183
-677.193	-200.000	-0.038	-0.264
-676.178	-10.483	-0.194	0.131
-675.164	261.128	-0.054	0.096
-674.149	-200.000	-0.073	0.485
-673.135	391.925	0.096	0.203
-672.120	67.338	0.047	-0.048
-671.105	479.669	0.058	0.135
-670.091	-200.000	0.019	0.112
-669.076	-21.692	-0.120	0.075
-668.062	-200.000	0.006	0.406
-667.047	59.341	-0.362	0.362
-666.032	223.424	-0.128	-0.210
-665.018	-111.453	-0.100	-0.021
-664.003	145.048	-0.119	-0.161
-662.989	64.280	0.210	0.215
-661.974	44.617	-0.288	-0.269
-660.959	-157.673	0.240	-0.015
-659.945	-200.000	0.002	0.270
-658.930	-134.271	0.231	0.029
-657.916	-45.317	0.118	-0.059
-656.901	186.630	0.116	-0.175
-655.886	-50.479	0.047	0.022
-654.872	363.789	-0.025	0.050
-653.857	-88.429	0.071	0.022
-652.843	24.676	0.192	0.162
-651.828	-58.206	0.172	-0.076
-650.814	-200.000	-0.033	0.148
-649.799	-122.896	0.154	-0.025
-648.784	800.000	0.075	0.271
-647.770	218.802	-0.091	0.148
-646.755	57.661	0.174	-0.173
-645.741	-94.816	-0.356	-0.098
-644.726	-76.841	-0.139	-0.050
-643.711	-41.384	0.311	-0.163
-642.697	-113.637	-0.347	0.069
-641.682	-80.079	-0.199	-0.068
-640.668	139.439	-0.083	-0.112
-639.653	-36.379	-0.085	-0.046
-638.638	-6.318	0.271	-0.188
-637.624	-41.360	0.100	-0.052
-636.609	800.000	-0.081	-0.349
-635.595	118.546	0.282	-0.354
-634.580	300.161	0.143	-0.268
-633.565	-43.626	-0.330	-0.169
-632.551	-141.637	-0.202	-0.021
-631.536	-90.231	-0.065	0.019
-630.522	-200.000	-0.014	-0.169
-629.507	-200.000	-0.009	0.076
-628.492	107.108	0.075	0.091
-627.478	17.352	0.155	-0.125
-626.463	127.234	-0.036	0.046
-625.449	-130.571	-0.261	0.036
-624.434	-200.000	0.000	0.120
-623.419	-53.283	0.137	0.064
-622.405	800.000	0.073	0.225
-621.390	-17.170	-0.099	-0.063
-620.376	304.463	0.186	-0.350
-619.361	-118.838	-0.149	-0.027
-618.346	-1.949	-0.122	-0.087
-617.332	-200.000	-0.036	0.183
-616.317	83.029	0.076	0.084
-615.303	-54.157	0.050	-0.023
-614.288	800.000	0.024	-0.102
-613.273	-200.000	0.027	-0.211
-612.259	-200.000	0.046	-0.280
-611.244	26.992	-0.325	-0.277
-610.230	-200.000	0.003	0.198
-609.215	-8.912	0.148	-0.100
-608.201	-200.000	0.014	-0.212
-607.186	-75.012	-0.083	-0.030
-606.171	-200.000	0.007	-0.249
-605.157	243.858	-0.037	0.063
-604.142	800.000	-0.077	-0.301
-603.128	-124.053	-0.105	0.017
-602.113	221.604	-0.115	-0.188
-601.098	-147.994	-0.171	-0.014
-600.084	-14.629	0.048	0.031
-599.069	191.225	0.215	0.329
-598.055	17.683	-0.122	0.098
-597.040	47.806	0.194	0.183
-596.025	-47.541	-0.103	0.051
-595.011	73.647	0.079	0.084
-593.996	102.759	-0.125	0.148
-592.982	-157.095	0.328	0.020
-591.967	-16.110	-0.066	-0.042
-590.952	-101.278	-0.191	-0.047
-589.938	800.000	-0.028	0.111
-588.923	-98.106	0.207	-0.054
-587.909	-58.598	0.218	-0.096
-586.894	-102.342	0.282	0.069
-585.879	-21.956	-0.095	0.059
-584.865	42.694	0.457	0.422
-583.850	-86.058	0.156	0.049
-582.836	-115.868	0.155	0.029
-581.821	23.572	-0.311	-0.259
-580.806	-200.000	0.011	0.151
-579.792	800.000	-0.014	0.052
-578.777	618.150	0.064	-0.163
-577.763	-6.940	0.017	-0.012
-576.748	-32.590	-0.175	-0.099
-575.733	197.616	0.207	0.320
-574.719	-148.332	0.305	-0.025
-573.704	38.668	0.143	-0.130
-572.690	-200.000	0.064	0.347
-571.675	289.385	0.147	-0.269
-570.661	-111.970	0.295	0.060
-569.646	-125.283	-0.199	-0.031
-568.631	11.988	-0.110	-0.086
-567.617	-83.173	-0.205	0.067
-566.602	-200.000	-0.019	0.138
-565.588	500.758	-0.090	0.210
-564.573	800.000	-0.114	-0.442
-563.558	-17.843	0.195	0.124
-562.544	106.927	-0.156	-0.187
-561.529	-142.153	-0.432	0.043
-560.515	-116.208	-0.250	-0.047
-559.500	-200.000	0.010	0.232
-558.485	-200.000	0.013	0.212
-557.471	-126.711	0.149	0.022
-556.456	-20.719	0.065	0.040
-555.442	33.109	-0.065	0.057
-554.427	-26.436	0.364	0.216
-553.412	-200.000	0.089	-0.499
-552.398	-86.120	-0.181	-0.057
-551.383	395.199	-0.124	-0.262
-550.369	21.716	-0.090	-0.074
-549.354	800.000	0.067	0.251
-548.339	-128.328	-0.045	0.006
-547.325	-138.535	0.361	0.040
-546.310	-121.984	0.090	0.015
-545.296	59.415	0.362	-0.361
-544.281	411.633	-0.149	0.320
-543.266	215.502	-0.098	-0.157
-542.252	29.699	0.198	0.171
-541.237	72.240	0.088	-0.093
-540.223	-30.995	-0.110	-0.063
-539.208	-200.000	-0.099	0.497
-538.193	800.000	-0.074	0.283
-537.179	-27.407	0.146	-0.086
-536.164	-5.261	0.068	0.047
-535.150	-89.728	0.127	0.038
-534.135	17.788	-0.165	0.133
-533.121	49.702	0.113	-0.108
-532.106	133.624	0.077	0.100
-531.091	-34.203	0.165	0.091
-530.077	-200.000	-0.003	0.233
-529.062	-200.000	0.001	-0.069
-528.048	458.598	0.034	0.077
-527.033	-105.705	-0.116	-0.027
-526.018	315.853	-0.149	0.284
-525.004	-200.000	-0.008	-0.069
-523.989	800.000	0.122	0.370
-522.975	-82.591	-0.191	-0.063
-521.960	-70.603	-0.249	-0.095
-520.945	-37.009	-0.179	-0.097
-519.931	-32.445	-0.156	0.088
-518.916	542.492	-0.034	0.083
-517.902	348.031	0.130	-0.259
-516.887	565.554	0.087	0.214
-515.872	-200.000	-0.011	0.115
-514.858	-13.367	0.061	0.040
-513.843	608.653	0.080	-0.201
-512.829	171.603	-0.045	-0.065
-511.814	-200.000	-0.002	-0.041
-510.799	6.742	-0.300	0.226
-509.785	-200.000	0.011	0.094
-508.770	297.577	-0.116	-0.216
-507.756	-40.355	0.275	-0.145
-506.741	-39.919	-0.113	-0.060
-505.726	-200.000	-0.014	-0.124
-504.712	643.156	-0.066	-0.171
-503.697	800.000	-0.024	0.080
-502.683	800.000	-0.023	-0.071
-501.668	40.521	0.064	0.058
-500.653	-15.516	0.147	-0.095
-499.639	46.516	-0.080	0.075
-498.624	-56.869	0.313	0.140
-497.610	-55.743	0.047	-0.021
-496.595	-132.467	0.151	0.020
-495.581	-36.010	0.174	0.095
-494.566	-58.963	-0.244	-0.107
-493.551	-134.907	0.325	-0.040
-492.537	-176.898	0.056	0.001
-491.522	22.220	-0.367	0.302
-490.508	106.920	0.155	0.186
-489.493	-7.825	-0.359	0.244
-488.478	38.211	-0.084	-0.076
-487.464	40.732	0.262	0.239
-486.449	-200.000	0.003	-0.127
-485.435	-161.984	0.145	0.007
-484.420	-117.857	0.239	0.043
-483.405	-200.000	-0.045	0.345
-482.391	-99.260	-0.117	-0.030
-481.376	-40.480	-0.282	-0.148
-480.362	-200.000	-0.026	-0.276
-479.347	-108.572	-0.208	0.045
-478.332	56.584	-0.197	0.194
-477.318	7.777	-0.232	0.175
-476.303	-93.681	-0.442	0.123
-475.289	25.664	-0.157	-0.132
-474.274	-75.250	-0.166	-0.060
-473.259	186.989	-0.074	0.111
-472.245	-200.000	0.033	0.201
-471.230	800.000	-0.030	0.126
-470.216	785.248	0.117	0.323
-469.201	-200.000	0.016	0.152
-468.186	-66.946	0.206	-0.082
-467.172	26.931	-0.110	-0.093
-466.157	800.000	0.016	0.048
-465.143	800.000	-0.111	-0.339
-464.128	-66.501	0.340	-0.136
-463.113	80.432	0.198	0.215
-462.099	-81.374	0.217	0.072
-461.084	-139.354	-0.175	0.019
-460.070	-115.570	-0.378	-0.072
-459.055	207.599	0.120	0.189
-458.040	1.465	-0.137	-0.099
-457.026	6.264	-0.136	-0.101
-456.011	-11.212	0.199	-0.132
-454.997	-200.000	-0.074	-0.364
-453.982	-200.000	-0.057	-0.295
-452.968	-1.821	0.066	0.047
-451.953	118.423	0.055	-0.069
-450.938	-200.000	-0.021	0.320
-449.924	-13.753	0.227	0.148
-448.909	-98.496	-0.393	-0.101
-447.895	-28.111	-0.146	0.085
-446.880	-145.195	0.193	0.018
-445.865	-14.109	0.092	0.060
-444.851	-89.279	-0.212	-0.063
-443.836	119.648	0.168	0.210
-442.822	-71.116	0.166	0.063
-441.807	59.251	-0.138	0.137
-440.792	-200.000	0.041	0.230
-439.778	-9.177	0.133	-0.090
-438.763	27.695	-0.124	-0.105
-437.749	-122.680	-0.412	0.067
-436.734	-44.345	-0.234	0.118
-435.719	-24.102	0.232	0.140
-434.705	-200.000	0.001	0.046
-433.690	-200.000	0.020	-0.125
-432.676	422.075	0.111	-0.240
-431.661	800.000	-0.060	-0.172
-430.646	-77.844	-0.402	-0.140
-429.632	-119.338	0.111	-0.019
-428.617	-200.000	0.002	0.063
-427.603	24.663	0.034	0.029
-426.588	46.716	0.107	0.100
-425.573	108.012	0.123	0.148
-424.559	-18.354	-0.093	-0.059
-423.544	93.743	0.123	0.141
-422.530	-200.000	0.034	0.255
-421.515	-91.050	0.153	0.044
-420.500	-63.378	0.195	-0.081
-419.486	-65.788	-0.337	0.136
-418.471	-14.304	-0.241	-0.156
-417.457	78.751	0.218	-0.235
-416.442	1.295	-0.097	0.070
-415.428	349.070	-0.136	0.271
-414.413	361.532	0.043	-0.087
-413.398	170.745	-0.128	0.185
-412.384	800.000	0.052	-0.164
-411.369	395.491	0.117	-0.246
-410.355	61.903	0.115	0.116
-409.340	-142.012	-0.372	-0.037
-408.325	-200.000	-0.034	-0.173
-407.311	-200.000	0.012	0.229
-406.296	-16.229	0.188	0.120
-405.282	310.351	-0.143	0.269
-404.267	800.000	0.019	-0.056
-403.252	86.459	-0.102	0.113
-402.238	-53.097	-0.099	0.046
-401.223	-182.217	0.258	0.005
-400.209	80.381	0.139	-0.150
-399.194	-3.190	0.192	0.135
-398.179	-139.596	0.391	-0.042
-397.165	800.000	0.072	0.220
-396.150	2.251	-0.068	-0.050
-395.136	417.990	0.047	-0.102
-394.121	-13.522	-0.302	-0.197
-393.106	16.921	0.347	0.277
-392.092	-110.018	0.134	0.028
-391.077	800.000	-0.028	-0.107
-390.063	44.627	-0.091	-0.084
-389.048	-175.005	0.141	0.004
-388.033	-44.121	0.169	0.085
-387.019	-200.000	-0.008	-0.199
-386.004	-200.000	0.059	-0.354
-384.990	449.485	-0.051	0.114
-383.975	35.332	0.114	-0.101
-382.960	5.278	-0.274	-0.203
-381.946	252.483	-0.180	0.309
-380.931	-200.000	0.005	0.049
-379.917	308.772	0.023	-0.042
-378.902	181.987	0.039	-0.057
-377.888	800.000	-0.034	0.146
-376.873	-105.328	0.130	-0.030
-375.858	-45.092	-0.127	0.064
-374.844	67.710	-0.256	0.263
-373.829	367.100	0.094	-0.191
-372.815	-200.000	0.046	-0.307
-371.800	-0.767	0.331	-0.236
-370.785	116.291	-0.226	-0.278
-369.771	800.000	-0.062	-0.203
-368.756	-200.000	0.009	0.297
-367.742	-147.190	-0.361	0.031
-366.727	13.067	-0.212	0.165
-365.712	427.145	-0.131	0.283
-364.698	-175.855	0.214	0.006
-363.683	-200.000	-0.029	-0.384
-362.669	-34.866	0.081	-0.045
-361.654	122.261	-0.276	0.347
-360.639	107.986	0.219	-0.263
-359.625	-164.493	0.286	-0.013
-358.610	-200.000	-0.031	-0.319
-357.596	-200.000	-0.017	-0.167
-356.581	316.302	-0.079	-0.150
-355.566	-87.487	0.397	0.121
-354.552	83.574	0.154	0.168
-353.537	748.395	-0.112	0.304
-352.523	-134.812	0.440	-0.054
-351.508	-169.675	0.109	0.004
-350.493	-109.107	-0.206	-0.044
-349.479	-73.878	0.055	0.020
-348.464	113.527	-0.153	0.187
-347.450	-179.475	-0.308	0.007
-346.435	612.893	-0.066	0.166
-345.420	32.487	-0.156	-0.135
-344.406	-23.491	0.201	-0.121
-343.391	800.000	0.078	-0.227
-342.377	800.000	-0.044	0.131
-341.362	-102.139	0.188	0.045
-340.348	-142.498	-0.463	0.046
-339.333	691.566	-0.066	0.173
-338.318	-46.739	0.186	-0.091
-337.304	338.355	-0.290	-0.567
-336.289	-200.000	-0.022	-0.132
-335.275	509.494	-0.123	0.288
-334.260	-105.158	0.470	-0.108
-333.245	294.713	-0.087	0.159
-332.231	-200.000	-0.007	-0.200
-331.216	-5.858	-0.047	0.032
-330.202	-122.541	-0.181	0.029
-329.187	298.425	-0.048	0.089
-328.172	189.342	0.200	0.301
-327.158	452.071	-0.105	0.232
-326.143	-34.386	-0.389	-0.214
-325.129	367.007	0.121	-0.246
-324.114	198.054	-0.105	-0.161
-323.099	-98.784	0.192	-0.049
-322.085	-200.000	-0.002	0.445
-321.070	-177.109	0.197	-0.005
-320.056	800.000	0.031	0.089
-319.041	36.990	-0.131	0.116
-318.026	-77.033	0.216	-0.075
-317.012	800.000	0.072	-0.264
-315.997	424.466	-0.010	0.023
-314.983	-11.521	-0.112	-0.074
-313.968	-78.772	-0.109	0.037
-312.953	-7.437	0.155	0.106
-311.939	479.710	-0.055	0.125
-310.924	-143.679	-0.119	-0.011
-309.910	545.418	-0.052	0.124
-308.895	116.566	0.308	0.379
-307.880	272.345	-0.074	0.130
-306.866	-200.000	-0.007	0.038
-305.851	-15.080	-0.279	-0.179
-304.837	-146.734	-0.178	-0.015
-303.822	-200.000	0.002	0.099
-302.807	-200.000	0.009	0.074
-301.793	-92.837	0.218	0.061
-300.778	63.104	0.179	-0.180
-299.764	-200.000	-0.013	0.187
-298.749	168.092	0.073	0.104
-297.735	-200.000	0.005	0.083
-296.720	-64.781	-0.316	0.128
-295.705	-94.980	-0.046	0.012
-294.691	-176.929	0.295	-0.007
-293.676	0.002	0.076	-0.054
-292.662	259.593	0.117	0.202
-291.647	-13.720	0.195	0.126
-290.632	800.000	0.019	0.064
-289.618	256.621	-0.170	0.293
-288.603	-200.000	-0.017	-0.206
-287.589	41.059	0.335	0.304
-286.574	731.666	-0.041	0.109
-285.559	549.419	0.125	-0.299
-284.545	-200.000	-0.009	-0.204
-283.530	-148.998	-0.305	0.025
-282.516	-200.000	0.047	0.433
-281.501	-29.531	-0.158	-0.090
-280.486	-75.783	0.229	0.081
-279.472	-78.246	-0.200	-0.069
-278.457	800.000	-0.057	-0.195
-277.443	-29.879	-0.196	0.112
-276.428	188.103	-0.101	-0.151
-275.413	269.506	-0.106	0.186
-274.399	-42.718	0.224	-0.114
-273.384	157.387	0.123	0.171
-272.370	88.909	0.076	-0.085
-271.355	800.000	0.121	-0.471
-270.340	232.768	0.069	-0.114
-269.326	262.867	0.044	-0.077
-268.311	-63.683	0.248	-0.102
-267.297	318.883	0.078	-0.148
-266.282	-68.318	-0.322	-0.125
-265.267	23.101	0.204	0.167
-264.253	-61.753	0.165	0.069
-263.238	-200.000	0.021	0.343
-262.224	525.284	-0.101	-0.237
-261.209	151.461	0.030	-0.041
-260.195	-49.292	-0.404	0.193
-259.180	-85.796	-0.121	0.038
-258.165	262.666	0.155	-0.269
-257.151	86.428	0.315	-0.348
-256.136	800.000	-0.106	-0.415
-255.122	19.105	-0.042	-0.033
-254.107	318.503	-0.058	0.111
-253.092	278.511	-0.062	0.111
-252.078	-138.214	0.041	0.005
-251.063	24.145	-0.128	-0.106
-250.049	205.645	0.071	0.110
-249.034	800.000	-0.047	0.187
-248.019	-200.000	-0.017	-0.121
-247.005	122.737	-0.072	-0.090
-245.990	-115.840	0.195	0.036
-244.976	-70.272	0.343	-0.130
-243.961	-39.731	-0.116	0.061
-242.946	-118.398	0.052	0.009
-241.932	116.586	-0.110	0.135
-240.917	424.651	-0.179	0.385
-239.903	105.381	-0.087	0.103
-238.888	-72.746	-0.033	0.012
-237.873	60.240	0.189	-0.187
-236.859	-200.000	0.010	-0.334
-235.844	800.000	0.018	0.069
-234.830	306.155	-0.040	-0.075
-233.815	215.348	-0.101	-0.160
-232.800	-73.603	-0.338	0.123
-231.786	-4.339	0.101	-0.070
-230.771	-37.427	0.208	0.111
-229.757	-128.681	-0.166	0.023
-228.742	-73.772	0.144	-0.052
-227.727	-48.471	0.196	0.094
-226.713	-97.128	-0.085	0.022
-225.698	-150.855	-0.205	0.016
-224.684	-79.883	-0.251	0.084
-223.669	127.665	-0.171	0.217
-222.655	183.833	-0.115	0.170
-221.640	800.000	-0.066	-0.285
-220.625	183.729	0.143	-0.211
-219.611	-184.375	-0.229	-0.004
-218.596	-3.309	0.429	0.299
-217.582	18.188	0.117	-0.093
-216.567	-138.689	-0.097	-0.011
-215.552	-131.322	-0.471	-0.062
-214.538	4.123	-0.135	-0.098
-213.523	-153.378	0.402	-0.028
-212.509	175.083	0.063	0.091
-211.494	48.503	-0.282	-0.264
-210.479	-140.467	-0.219	-0.023
-209.465	398.087	-0.101	0.210
-208.450	97.506	0.148	-0.170
-207.436	-5.226	-0.081	-0.056
-206.421	35.713	-0.131	-0.115
-205.406	800.000	-0.040	-0.152
-204.392	800.000	0.081	0.258
-203.377	286.767	-0.206	-0.371
-202.363	224.483	-0.224	0.361
-201.348	-200.000	0.000	0.070
-200.333	185.528	0.148	0.219
-199.319	-172.781	0.260	0.008
-198.304	-25.425	0.111	-0.066
-197.290	47.602	0.226	-0.211
-196.275	-112.717	0.236	-0.047
-195.260	-101.347	0.247	-0.060
-194.246	69.022	0.209	-0.214
-193.231	-170.202	-0.140	-0.005
-192.217	-82.881	0.108	0.035
-191.202	1.604	0.246	-0.177
-190.187	-28.811	0.169	0.097
-189.173	800.000	-0.006	-0.022
-188.158	-127.209	-0.345	-0.050
-187.144	-193.144	0.255	-0.002
-186.129	-21.365	-0.249	-0.152
-185.114	-136.201	0.079	-0.009
-184.100	-109.122	0.114	0.024
-183.085	321.616	0.087	-0.164
-182.071	-118.233	-0.447	-0.079
-181.056	451.983	-0.079	-0.174
-180.042	0.427	-0.107	-0.076
-179.027	-34.882	0.175	-0.095
-178.012	-200.000	0.015	-0.171
-176.998	505.085	-0.093	-0.216
-175.983	800.000	0.122	0.425
-174.969	-36.948	0.071	0.038
-173.954	0.069	0.327	-0.232
-172.939	359.511	0.057	0.113
-171.925	800.000	0.059	0.175
-170.910	503.058	0.097	-0.223
-169.896	39.277	-0.208	0.186
-168.881	133.297	0.096	-0.124
-167.866	78.429	-0.077	0.082
-166.852	23.905	-0.223	0.183
-165.837	274.749	-0.069	-0.122
-164.823	18.389	0.098	0.078
-163.808	-200.000	-0.015	0.137
-162.793	-105.994	-0.107	-0.024
-161.779	100.929	0.082	-0.095
-160.764	-200.000	-0.044	-0.263
-159.750	568.476	0.079	-0.192
-158.735	433.625	0.032	0.070
-157.720	560.829	-0.028	0.067
-156.706	273.179	0.027	-0.048
-155.691	-81.891	-0.416	0.136
-154.677	277.455	0.136	0.241
-153.662	284.955	0.131	-0.235
-152.647	447.234	0.188	0.412
-151.633	-200.000	0.007	-0.366
-150.618	-131.684	0.393	0.051
-149.604	186.793	-0.125	-0.186
-148.589	-136.253	0.018	-0.002
-147.574	258.673	-0.222	0.380
-146.560	-76.712	0.164	-0.057
-145.545	-200.000	0.077	0.414
-144.531	-130.484	0.285	-0.038
-143.516	23.840	0.172	-0.141
-142.502	359.503	-0.062	0.124
-141.487	174.448	-0.142	-0.205
-140.472	256.406	0.076	0.129
-139.458	-114.823	-0.152	-0.029
-138.443	-25.387	0.174	-0.103
-137.429	-32.670	-0.084	0.047
-136.414	55.054	0.100	0.097
-135.399	-200.000	0.040	0.346
-134.385	181.840	0.111	-0.163
-133.370	-88.956	0.136	0.040
-132.356	4.505	0.166	-0.121
-131.341	-59.760	-0.113	0.048
-130.326	67.892	0.255	0.260
-129.312	-72.996	-0.236	-0.086
-128.297	503.567	0.123	-0.283
-127.283	33.715	0.161	0.139
-126.268	-117.767	0.252	0.045
-125.253	482.198	0.067	-0.151
-124.239	339.180	0.115	0.224
-123.224	186.718	0.064	-0.094
-122.210	-200.000	0.026	0.218
-121.195	-200.000	-0.033	-0.172
-120.180	323.184	-0.041	0.078
