DTS Sentinel unit serial number:	SN413079Multiplexer serial number:	ORYXHardware model number:	OX4-SRSoftware version number:	ORYX F/W v4.00 Oryx Data Collector v3.7.2.0data status	okinstallation	princeton_trtdifferential loss correction	single-endedforward channel	channel 4reverse channel	N/Adate	2019/09/14time	11:49:35forward acquisition time	60.00reverse acquisition time	0.00gamma	496.2192k internal	0.2293k external	0.2293temperature offset calibration	1.0154default loss term (dB/km)	0.3790temperature slope calibration	1.0000multiplexer offset coefficient	1.0000multiplexer slope coefficient	1.0000fibre end	0.00T internal ref (°C)	37.06T ext. ref 1 (°C)	4.62T ext. ref 2 (°C)	34.07length (m)	temperature (°C)	Stokes	anti-Stokes-747.200	-200.000	0.002	-0.085
-746.185	-58.720	-0.117	0.052
-745.171	-122.426	0.277	0.046
-744.156	89.342	0.159	0.181
-743.142	-104.655	0.087	-0.021
-742.127	432.089	0.035	-0.078
-741.112	-175.371	-0.141	0.004
-740.098	800.000	-0.008	-0.024
-739.083	-131.991	0.157	-0.021
-738.069	5.561	-0.099	-0.075
-737.054	-144.242	-0.187	-0.018
-736.039	37.467	-0.210	-0.191
-735.025	-200.000	0.004	0.134
-734.010	-147.046	-0.270	0.024
-732.996	692.683	0.050	-0.134
-731.981	20.914	0.070	-0.058
-730.966	315.346	-0.128	0.247
-729.952	-73.656	0.277	0.103
-728.937	800.000	0.048	0.201
-727.923	800.000	-0.027	0.089
-726.908	-82.041	0.204	-0.068
-725.894	-5.336	-0.249	-0.175
-724.879	131.763	-0.105	-0.138
-723.864	271.175	0.056	-0.100
-722.850	337.983	-0.068	0.136
-721.835	-200.000	0.016	-0.184
-720.821	-177.710	0.381	0.009
-719.806	-200.000	-0.004	-0.029
-718.791	-99.473	-0.301	0.077
-717.777	-200.000	-0.002	-0.144
-716.762	-200.000	0.013	-0.309
-715.748	-200.000	-0.001	-0.099
-714.733	-200.000	-0.025	0.294
-713.718	-200.000	-0.029	0.174
-712.704	144.097	0.187	-0.255
-711.689	23.128	-0.142	-0.119
-710.675	-84.458	0.256	-0.082
-709.660	129.729	-0.010	-0.013
-708.645	-40.869	0.331	-0.175
-707.631	-70.804	-0.100	-0.038
-706.616	395.903	0.044	-0.094
-705.602	-76.384	0.147	0.053
-704.587	11.911	-0.157	0.124
-703.572	-29.746	0.162	-0.094
-702.558	10.787	0.127	-0.099
-701.543	65.570	-0.022	-0.022
-700.529	-26.176	-0.099	-0.060
-699.514	800.000	0.029	0.123
-698.499	179.621	-0.109	0.163
-697.485	546.567	-0.109	-0.266
-696.470	-200.000	-0.036	-0.272
-695.456	-130.550	0.311	-0.043
-694.441	-142.225	-0.040	0.004
-693.426	-70.342	-0.233	0.090
-692.412	800.000	0.113	0.367
-691.397	-62.488	-0.170	0.072
-690.383	286.970	0.145	0.268
-689.368	7.826	0.088	0.068
-688.354	26.484	0.109	-0.093
-687.339	-200.000	0.003	-0.201
-686.324	-123.689	-0.245	-0.040
-685.310	-24.799	0.249	0.151
-684.295	165.296	-0.172	0.248
-683.281	-116.579	-0.265	-0.050
-682.266	-56.240	-0.391	-0.177
-681.251	-16.949	0.299	0.193
-680.237	4.094	0.274	0.205
-679.222	-34.241	-0.152	-0.085
-678.208	-200.000	0.010	0.174
-677.193	-136.191	0.171	0.020
-676.178	-67.719	-0.216	0.086
-675.164	452.016	0.185	-0.416
-674.149	562.839	-0.072	-0.178
-673.135	-85.855	-0.220	0.070
-672.120	33.089	0.373	0.330
-671.105	359.540	0.039	-0.081
-670.091	1.863	-0.160	-0.118
-669.076	34.925	0.105	0.094
-668.062	87.220	0.049	0.056
-667.047	14.981	-0.048	-0.038
-666.032	147.236	-0.041	-0.056
-665.018	800.000	-0.102	0.381
-664.003	-74.737	-0.162	-0.059
-662.989	-127.278	-0.436	0.065
-661.974	-9.637	0.185	0.126
-660.959	-39.282	0.154	0.082
-659.945	-99.137	-0.086	-0.022
-658.930	156.537	0.115	0.162
-657.916	-136.530	0.512	-0.061
-656.901	90.040	-0.265	-0.302
-655.886	-200.000	0.049	-0.337
-654.872	147.660	-0.079	-0.108
-653.857	800.000	0.065	-0.221
-652.843	28.357	-0.197	-0.170
-651.828	-150.579	0.153	0.012
-650.814	199.432	-0.025	0.039
-649.799	676.180	0.031	0.081
-648.784	-200.000	-0.002	-0.076
-647.770	119.892	-0.142	0.179
-646.755	-19.228	0.156	0.099
-645.741	800.000	-0.015	-0.064
-644.726	800.000	0.072	0.236
-643.711	-123.294	-0.157	0.026
-642.697	-11.760	-0.207	0.139
-641.682	-79.108	0.257	-0.089
-640.668	-60.235	0.156	-0.068
-639.653	491.880	0.062	0.145
-638.638	-200.000	-0.001	0.024
-637.624	294.306	0.116	0.217
-636.609	16.788	-0.159	0.128
-635.595	63.647	-0.127	0.130
-634.580	702.026	-0.053	0.142
-633.565	289.389	-0.154	0.284
-632.551	-151.656	0.230	-0.017
-631.536	-152.399	-0.244	0.018
-630.522	14.709	-0.011	-0.009
-629.507	24.093	-0.136	-0.115
-628.492	800.000	-0.071	-0.277
-627.478	9.806	0.060	0.046
-626.463	-173.668	-0.217	-0.007
-625.449	-200.000	0.084	-0.406
-624.434	-200.000	0.018	-0.363
-623.419	136.466	0.075	0.100
-622.405	-200.000	0.006	0.148
-621.390	-110.577	0.382	-0.081
-620.376	-157.017	0.494	0.031
-619.361	136.024	0.130	-0.172
-618.346	-68.379	-0.078	-0.031
-617.332	183.935	0.084	0.127
-616.317	-140.795	0.310	-0.033
-615.303	-200.000	-0.008	-0.055
-614.288	-95.674	-0.271	0.074
-613.273	732.525	-0.080	0.219
-612.259	-150.948	0.157	0.012
-611.244	-114.621	0.152	-0.030
-610.230	0.600	-0.253	-0.184
-609.215	7.961	0.120	-0.092
-608.201	-200.000	0.000	-0.064
-607.186	-169.612	0.159	0.006
-606.171	-119.911	0.212	-0.037
-605.157	6.852	-0.166	0.126
-604.142	9.062	-0.391	-0.300
-603.128	-114.457	-0.283	0.055
-602.113	331.037	-0.093	0.183
-601.098	-52.408	-0.453	0.213
-600.084	800.000	0.062	-0.211
-599.069	800.000	0.072	-0.292
-598.055	293.531	0.166	0.308
-597.040	-200.000	-0.027	-0.493
-596.025	-200.000	0.007	-0.159
-595.011	-49.638	-0.024	-0.011
-593.996	-200.000	-0.038	0.255
-592.982	-13.330	-0.052	0.035
-591.967	-155.732	0.270	0.018
-590.952	133.271	0.080	-0.105
-589.938	-11.407	-0.109	-0.073
-588.923	800.000	-0.096	0.270
-587.909	-28.783	0.120	-0.070
-586.894	-200.000	-0.009	0.075
-585.879	239.916	0.185	-0.313
-584.865	-125.059	-0.361	-0.056
-583.850	-96.558	0.227	0.061
-582.836	-200.000	0.037	0.302
-581.821	-71.016	-0.061	-0.024
-580.806	-200.000	0.003	0.018
-579.792	-58.835	-0.252	0.111
-578.777	-200.000	-0.056	-0.306
-577.763	-46.396	-0.161	0.080
-576.748	267.076	-0.117	-0.208
-575.733	224.126	-0.089	-0.146
-574.719	-200.000	0.019	-0.147
-573.704	61.398	0.160	-0.162
-572.690	94.476	-0.122	-0.141
-571.675	-124.597	-0.227	-0.036
-570.661	-200.000	-0.015	0.222
-569.646	9.219	0.064	-0.049
-568.631	-200.000	-0.045	-0.355
-567.617	319.772	0.073	0.140
-566.602	-171.209	0.102	0.003
-565.588	-104.291	-0.161	-0.038
-564.573	282.695	-0.087	0.159
-563.558	299.248	-0.119	-0.222
-562.544	800.000	0.025	-0.093
-561.529	125.943	-0.170	-0.219
-560.515	-200.000	-0.025	-0.156
-559.500	429.944	-0.011	0.024
-558.485	-200.000	0.024	0.126
-557.471	-180.521	-0.265	0.006
-556.456	-112.882	-0.124	-0.025
-555.442	-59.997	-0.152	0.066
-554.427	-18.377	-0.231	0.146
-553.412	-158.958	-0.636	0.037
-552.398	-77.157	-0.089	0.032
-551.383	800.000	-0.063	-0.274
-550.369	-200.000	-0.019	0.164
-549.354	22.935	-0.423	0.352
-548.339	800.000	-0.045	-0.156
-547.325	-110.576	0.189	0.040
-546.310	74.515	-0.107	-0.114
-545.296	-200.000	0.006	0.284
-544.281	56.044	0.164	0.161
-543.266	800.000	0.053	0.166
-542.252	-56.464	0.063	-0.028
-541.237	664.569	0.110	-0.289
-540.223	800.000	-0.222	-0.635
-539.208	792.775	-0.038	0.106
-538.193	-8.856	-0.124	0.084
-537.179	-77.357	-0.222	0.078
-536.164	-200.000	0.032	-0.242
-535.150	13.981	0.153	0.121
-534.135	-75.478	-0.183	-0.066
-533.121	12.317	0.073	-0.057
-532.106	-155.957	0.263	-0.017
-531.091	136.335	-0.145	0.192
-530.077	437.145	0.192	0.424
-529.062	30.424	0.077	-0.066
-528.048	-78.614	0.128	0.044
-527.033	69.339	-0.058	-0.060
-526.018	471.061	-0.125	-0.284
-525.004	-143.742	-0.172	-0.017
-523.989	395.711	-0.177	-0.374
-522.975	-14.344	0.118	-0.077
-521.960	-185.244	-0.117	-0.002
-520.945	-184.475	-0.238	0.004
-519.931	-94.212	0.060	0.017
-518.916	-97.043	-0.338	-0.090
-517.902	-28.514	-0.190	-0.111
-516.887	236.384	0.204	-0.343
-515.872	-200.000	0.066	0.488
-514.858	129.353	-0.265	0.344
-513.843	-190.362	0.155	0.002
-512.829	-37.129	0.184	-0.100
-511.814	-139.991	0.070	0.007
-510.799	51.008	-0.118	0.114
-509.785	-200.000	-0.026	-0.116
-508.770	-11.177	0.190	-0.127
-507.756	38.523	0.212	-0.192
-506.741	-200.000	-0.010	0.249
-505.726	-200.000	0.005	0.044
-504.712	-200.000	-0.012	0.070
-503.697	-200.000	0.004	0.294
-502.683	-65.424	-0.180	-0.073
-501.668	-112.895	0.157	0.032
-500.653	-51.120	0.115	0.054
-499.639	-185.939	0.231	-0.003
-498.624	-92.690	0.148	0.042
-497.610	-200.000	-0.031	0.214
-496.595	31.232	-0.175	0.152
-495.581	-200.000	0.026	-0.129
-494.566	-200.000	0.006	0.234
-493.551	12.287	0.029	-0.022
-492.537	-86.188	-0.223	-0.070
-491.522	279.722	0.101	-0.183
-490.508	-56.469	0.267	-0.120
-489.493	-173.397	-0.128	-0.004
-488.478	800.000	0.045	0.156
-487.464	81.449	0.188	0.206
-486.449	2.767	-0.324	0.238
-485.435	-118.415	0.176	-0.032
-484.420	229.130	0.081	0.134
-483.405	-149.479	0.274	-0.022
-482.391	103.721	0.043	-0.051
-481.376	-85.762	0.092	-0.029
-480.362	71.922	-0.254	-0.267
-479.347	-200.000	0.001	0.135
-478.332	-137.571	-0.154	0.018
-477.318	-100.346	0.286	-0.072
-476.303	-200.000	0.088	0.426
-475.289	186.828	0.119	0.180
-474.274	621.458	0.102	-0.261
-473.259	-200.000	-0.008	0.123
-472.245	-200.000	0.026	0.261
-471.230	800.000	0.048	-0.137
-470.216	-33.426	0.215	-0.120
-469.201	-100.820	-0.063	0.016
-468.186	-63.963	-0.165	0.068
-467.172	-200.000	-0.000	-0.023
-466.157	-96.810	-0.122	0.032
-465.143	134.292	-0.130	-0.170
-464.128	-148.764	-0.332	-0.027
-463.113	-33.422	-0.414	0.232
-462.099	800.000	-0.034	0.124
-461.084	153.492	-0.268	-0.371
-460.070	-93.985	-0.087	0.024
-459.055	-139.004	-0.305	-0.033
-458.040	-200.000	-0.021	-0.128
-457.026	58.210	-0.183	-0.181
-456.011	247.297	-0.083	-0.142
-454.997	77.394	0.081	-0.087
-453.982	-107.651	-0.069	-0.015
-452.968	-68.383	-0.266	0.104
-451.953	-200.000	-0.033	0.281
-450.938	-68.717	0.047	-0.018
-449.924	-200.000	0.028	-0.185
-448.909	46.729	0.099	-0.093
-447.895	800.000	-0.065	-0.211
-446.880	-127.703	0.211	-0.031
-445.865	800.000	-0.038	-0.148
-444.851	-49.507	0.219	0.105
-443.836	160.767	-0.035	-0.049
-442.822	202.782	-0.136	-0.212
-441.807	-53.687	0.196	-0.091
-440.792	-142.296	0.109	-0.011
-439.778	-117.375	-0.148	-0.027
-438.763	-200.000	-0.031	-0.151
-437.749	162.968	0.086	-0.122
-436.734	33.360	-0.062	0.054
-435.719	33.722	-0.163	-0.143
-434.705	91.144	0.047	0.053
-433.690	-200.000	0.065	0.304
-432.676	46.825	-0.157	-0.148
-431.661	-200.000	-0.046	-0.378
-430.646	800.000	-0.051	-0.195
-429.632	-115.216	0.250	-0.048
-428.617	-153.950	-0.160	-0.011
-427.603	-200.000	-0.007	-0.323
-426.588	102.957	0.136	0.161
-425.573	-30.637	-0.244	-0.140
-424.559	-145.047	0.117	-0.011
-423.544	-170.425	-0.530	0.019
-422.530	-156.406	0.448	0.028
-421.515	-79.464	0.256	-0.087
-420.500	249.226	0.058	-0.099
-419.486	518.887	0.067	-0.159
-418.471	-65.238	0.086	-0.035
-417.457	-31.585	0.077	-0.044
-416.442	363.128	0.054	0.109
-415.428	800.000	0.092	0.337
-414.413	-2.254	-0.277	-0.197
-413.398	-124.763	-0.153	-0.024
-412.384	-20.948	0.172	-0.107
-411.369	-7.543	0.156	-0.106
-410.355	608.306	-0.032	0.080
-409.340	-57.617	0.430	0.190
-408.325	-109.379	-0.162	-0.035
-407.311	-200.000	0.077	-0.433
-406.296	131.831	0.253	0.329
-405.282	-153.267	0.176	-0.012
-404.267	104.508	0.149	0.177
-403.252	-200.000	0.052	0.461
-402.238	-200.000	0.032	-0.192
-401.223	-86.851	0.140	0.043
-400.209	64.851	-0.139	0.142
-399.194	800.000	0.038	0.137
-398.179	-200.000	0.046	0.244
-397.165	88.218	0.217	0.243
-396.150	-200.000	0.004	0.123
-395.136	56.867	-0.149	-0.146
-394.121	654.371	0.149	-0.385
-393.106	-100.646	-0.167	-0.042
-392.092	-80.660	-0.100	0.034
-391.077	-200.000	-0.003	-0.153
-390.063	330.956	0.010	-0.019
-389.048	158.882	0.030	-0.042
-388.033	-173.239	-0.378	0.012
-387.019	-72.365	-0.319	0.119
-386.004	25.795	0.232	0.195
-384.990	-49.230	-0.175	0.084
-383.975	-149.076	0.297	-0.024
-382.960	-78.935	0.238	-0.082
-381.946	299.703	-0.070	-0.129
-380.931	-56.126	-0.180	-0.081
-379.917	3.456	-0.106	-0.078
-378.902	-170.604	0.206	-0.007
-377.888	-80.691	-0.079	-0.026
-376.873	-113.398	0.389	-0.077
-375.858	-62.753	0.235	-0.098
-374.844	-9.441	0.182	0.123
-373.829	599.101	0.036	-0.090
-372.815	-200.000	0.033	0.216
-371.800	-200.000	-0.027	0.178
-370.785	-151.727	-0.225	0.017
-369.771	33.744	0.089	-0.078
-368.756	110.033	-0.120	0.145
-367.742	-200.000	-0.046	-0.208
-366.727	459.096	0.143	-0.320
-365.712	-139.124	-0.156	0.017
-364.698	373.266	0.023	0.046
-363.683	7.106	0.088	0.066
-362.669	-69.806	0.165	0.064
-361.654	38.341	-0.202	-0.182
-360.639	-98.880	0.258	0.066
-359.625	144.301	-0.042	0.056
-358.610	64.582	0.271	-0.275
-357.596	376.337	-0.078	0.160
-356.581	62.934	-0.087	-0.087
-355.566	55.971	0.103	-0.101
-354.552	503.234	-0.135	0.313
-353.537	-200.000	0.008	0.194
-352.523	224.248	0.059	-0.096
-351.508	134.504	0.260	-0.340
-350.493	776.759	-0.128	-0.351
-349.479	-88.720	-0.079	0.024
-348.464	-77.484	-0.152	0.053
-347.450	-200.000	-0.006	-0.053
-346.435	-197.175	-0.333	0.002
-345.420	-200.000	-0.015	0.246
-344.406	98.769	-0.118	0.137
-343.391	-72.377	0.166	-0.062
-342.377	168.755	-0.047	0.067
-341.362	800.000	0.023	0.079
-340.348	40.705	0.179	0.162
-339.333	-35.915	0.240	0.131
-338.318	-200.000	-0.027	-0.304
-337.304	-27.742	0.355	-0.207
-336.289	-200.000	-0.023	-0.163
-335.275	-200.000	-0.059	-0.300
-334.260	800.000	0.071	0.263
-333.245	-150.052	-0.243	0.019
-332.231	-155.627	-0.329	0.021
-331.216	582.612	0.125	0.310
-330.202	270.720	0.147	0.261
-329.187	92.987	-0.337	-0.384
-328.172	174.483	0.126	0.183
-327.158	-200.000	0.068	0.375
-326.143	-157.666	0.088	0.005
-325.129	-3.678	0.194	-0.136
-324.114	-200.000	0.011	0.132
-323.099	-134.323	0.196	-0.024
-322.085	-123.473	0.353	-0.057
-321.070	318.932	0.054	-0.102
-320.056	213.593	-0.072	-0.114
-319.041	-21.266	-0.299	0.184
-318.026	92.660	0.143	0.163
-317.012	-67.902	0.263	-0.103
-315.997	208.922	0.183	0.288
-314.983	-108.720	0.091	0.020
-313.968	-86.359	-0.363	0.112
-312.953	62.060	-0.082	0.082
-311.939	-103.892	-0.183	-0.043
-310.924	302.004	-0.108	-0.202
-309.910	-200.000	-0.008	-0.367
-308.895	-132.912	-0.123	-0.016
-307.880	-200.000	0.007	0.161
-306.866	228.535	0.088	0.144
-305.851	121.902	0.204	-0.256
-304.837	-200.000	0.035	0.184
-303.822	205.989	-0.136	0.212
-302.807	34.558	-0.061	0.054
-301.793	141.803	-0.052	0.069
-300.778	800.000	-0.018	-0.072
-299.764	-82.648	0.267	-0.087
-298.749	-103.848	-0.391	0.092
-297.735	-200.000	0.000	0.148
-296.720	-113.240	0.407	0.081
-295.705	-200.000	-0.007	-0.107
-294.691	-200.000	0.076	0.434
-293.676	171.687	0.157	-0.227
-292.662	-16.265	-0.277	0.177
-291.647	122.296	0.301	0.378
-290.632	800.000	-0.041	-0.162
-289.618	-74.350	-0.414	0.150
-288.603	-142.583	-0.162	-0.016
-287.589	18.175	-0.103	0.083
-286.574	131.030	-0.175	-0.225
-285.559	-133.163	-0.034	0.004
-284.545	-34.432	-0.188	-0.104
-283.530	-200.000	0.029	0.321
-282.516	-200.000	0.006	0.406
-281.501	296.935	0.114	-0.210
-280.486	176.906	-0.096	0.140
-279.472	-64.557	-0.152	0.062
-278.457	48.560	-0.198	-0.187
-277.443	19.963	-0.143	0.116
-276.428	-200.000	-0.048	0.287
-275.413	16.458	0.317	-0.251
-274.399	483.583	-0.075	0.172
-273.384	-91.862	-0.171	-0.049
-272.370	-200.000	-0.037	-0.211
-271.355	186.361	-0.182	-0.272
-270.340	-93.041	-0.245	0.069
-269.326	-200.000	-0.001	0.054
-268.311	769.101	0.030	-0.083
-267.297	75.380	0.050	0.053
-266.282	-35.749	-0.154	0.084
-265.267	-60.259	0.148	-0.063
-264.253	-66.447	-0.298	-0.119
-263.238	-81.320	0.134	0.044
-262.224	136.311	-0.176	0.231
-261.209	275.663	-0.171	-0.304
-260.195	85.467	0.179	0.197
-259.180	111.943	-0.133	0.161
-258.165	84.179	-0.244	0.268
-257.151	800.000	-0.095	-0.347
-256.136	62.638	0.069	0.070
-255.122	-200.000	-0.008	-0.140
-254.107	57.171	0.357	-0.350
-253.092	131.547	0.080	-0.104
-252.078	-61.601	-0.251	0.106
-251.063	37.125	-0.162	0.144
-250.049	-200.000	0.019	-0.087
-249.034	122.736	-0.112	0.141
-248.019	411.239	0.061	-0.130
-247.005	-99.445	0.411	-0.104
-245.990	-67.342	0.217	-0.086
-244.976	480.829	0.122	-0.278
-243.961	138.281	-0.026	0.034
-242.946	800.000	-0.024	0.086
-241.932	-200.000	-0.033	0.357
-240.917	191.553	0.237	0.358
-239.903	-33.268	-0.193	0.107
-238.888	-83.817	0.256	-0.082
-237.873	-75.588	0.187	0.067
-236.859	-133.888	0.472	-0.059
-235.844	-200.000	0.074	-0.494
-234.830	-72.551	-0.036	-0.013
-233.815	-1.132	0.324	0.229
-232.800	4.872	0.112	-0.082
-231.786	800.000	0.044	0.163
-230.771	-64.311	-0.214	0.087
-229.757	-190.483	0.322	0.003
-228.742	142.679	0.199	0.265
-227.727	800.000	0.018	0.066
-226.713	-200.000	0.006	0.047
-225.698	61.397	-0.192	0.191
-224.684	800.000	-0.075	-0.252
-223.669	800.000	0.020	-0.084
-222.655	6.553	0.086	0.064
-221.640	800.000	0.017	0.059
-220.625	174.340	-0.297	-0.430
-219.611	-24.930	0.282	0.168
-218.596	107.316	0.073	0.087
-217.582	229.234	-0.175	0.286
-216.567	689.327	0.067	0.175
-215.552	69.905	-0.126	-0.130
-214.538	800.000	-0.042	0.174
-213.523	706.528	0.047	-0.125
-212.509	372.944	0.176	-0.359
-211.494	176.155	0.165	-0.240
-210.479	-38.172	-0.378	0.201
-209.465	82.203	-0.186	0.203
-208.450	-200.000	-0.042	0.230
-207.436	800.000	0.074	0.250
-206.421	-11.416	0.267	0.176
-205.406	202.517	0.184	-0.284
-204.392	-200.000	0.011	-0.241
-203.377	-135.771	-0.180	0.021
-202.363	800.000	0.038	-0.164
-201.348	748.210	-0.120	-0.323
-200.333	800.000	-0.026	-0.085
-199.319	40.228	0.186	0.167
-198.304	284.138	0.107	-0.192
-197.290	604.351	-0.098	-0.244
-196.275	-31.175	0.141	-0.080
-195.260	800.000	0.035	0.123
-194.246	53.548	-0.079	0.076
-193.231	197.397	0.090	0.137
-192.217	800.000	0.016	0.071
-191.202	137.186	0.186	-0.244
-190.187	192.856	0.107	-0.162
-189.173	800.000	-0.052	-0.198
-188.158	82.031	0.086	0.093
-187.144	-200.000	0.016	0.073
-186.129	53.310	0.236	0.226
-185.114	-52.240	0.358	-0.166
-184.100	-41.656	0.130	-0.067
-183.085	100.425	0.099	-0.115
-182.071	11.222	0.201	-0.154
-181.056	112.227	0.245	0.297
-180.042	-200.000	0.007	0.140
-179.027	-200.000	0.009	0.049
-178.012	-172.348	-0.365	-0.012
-176.998	-127.076	-0.121	0.018
-175.983	-80.501	-0.144	0.048
-174.969	150.372	-0.141	-0.192
-173.954	-16.570	-0.298	0.189
-172.939	-73.807	0.093	-0.034
-171.925	73.203	0.251	-0.263
-170.910	-80.456	0.276	-0.092
-169.896	-156.554	0.092	-0.006
-168.881	67.988	-0.187	-0.192
-167.866	-200.000	0.027	0.294
-166.852	114.874	0.047	-0.058
-165.837	-110.119	-0.240	0.050
-164.823	-143.215	0.198	-0.019
-163.808	-200.000	-0.017	-0.105
-162.793	800.000	-0.098	0.275
-161.779	-200.000	-0.037	0.167
-160.764	759.729	0.032	0.088
-159.750	-134.454	0.263	0.032
-158.735	-70.523	-0.080	0.030
-157.720	-132.509	0.180	-0.023
-156.706	-200.000	0.008	0.084
-155.691	160.427	0.138	0.193
-154.677	-107.090	-0.151	-0.033
-153.662	-26.125	0.093	0.055
-152.647	10.659	-0.339	0.258
-151.633	-200.000	0.017	-0.222
-150.618	662.118	0.013	-0.034
-149.604	128.984	-0.065	0.083
-148.589	-52.973	0.390	-0.179
-147.574	800.000	-0.037	-0.143
-146.560	60.919	-0.231	0.229
-145.545	800.000	-0.029	-0.099
-144.531	-200.000	0.028	0.389
-143.516	-7.714	0.080	-0.054
-142.502	800.000	-0.103	0.341
-141.487	-86.898	0.283	-0.086
-140.472	-12.907	0.325	0.212
-139.458	-81.121	0.102	0.034
-138.443	-79.286	-0.236	0.080
-137.429	64.473	-0.199	-0.200
-136.414	800.000	0.154	-0.449
-135.399	-101.080	-0.158	-0.039
-134.385	-200.000	0.017	0.159
-133.370	-106.729	0.317	-0.070
-132.356	-200.000	-0.056	0.402
-131.341	229.015	-0.082	0.134
-130.326	-149.795	0.364	0.029
-129.312	40.614	0.207	0.187
-128.297	60.474	0.217	0.215
-127.283	-196.126	-0.437	-0.003
-126.268	-34.851	0.197	-0.108
-125.253	28.910	-0.191	-0.162
-124.239	-138.860	0.121	0.013
-123.224	-190.738	0.566	-0.006
-122.210	-174.044	0.469	0.014
-121.195	-109.233	0.133	-0.028
