DTS Sentinel unit serial number:	SN413079Multiplexer serial number:	ORYXHardware model number:	OX4-SRSoftware version number:	ORYX F/W v4.00 Oryx Data Collector v3.7.2.0data status	okinstallation	princeton_trtdifferential loss correction	single-endedforward channel	channel 4reverse channel	N/Adate	2019/09/13time	13:09:35forward acquisition time	60.00reverse acquisition time	0.00gamma	496.2192k internal	0.2296k external	0.2296temperature offset calibration	1.0210default loss term (dB/km)	0.3790temperature slope calibration	1.0000multiplexer offset coefficient	1.0000multiplexer slope coefficient	1.0000fibre end	0.00T internal ref (°C)	34.87T ext. ref 1 (°C)	4.56T ext. ref 2 (°C)	31.36length (m)	temperature (°C)	Stokes	anti-Stokes-747.200	-200.000	-0.011	-0.238
-746.185	-93.997	-0.233	0.065
-745.171	18.623	-0.099	-0.081
-744.156	-200.000	-0.032	-0.206
-743.142	-39.334	-0.367	0.197
-742.127	-176.607	-0.056	0.001
-741.112	800.000	-0.019	0.087
-740.098	15.201	-0.303	0.243
-739.083	-12.148	-0.198	-0.132
-738.069	-200.000	0.005	-0.030
-737.054	-200.000	-0.020	0.088
-736.039	132.226	-0.301	-0.396
-735.025	363.950	0.050	-0.102
-734.010	261.685	-0.091	-0.160
-732.996	-200.000	0.065	-0.335
-731.981	196.239	0.070	-0.108
-730.966	-66.008	-0.355	0.145
-729.952	-200.000	-0.005	0.163
-728.937	-156.773	-0.061	0.004
-727.923	-200.000	0.012	0.178
-726.908	38.030	-0.133	0.120
-725.894	-105.538	-0.395	0.091
-724.879	-200.000	0.018	-0.275
-723.864	-140.214	0.360	0.039
-722.850	800.000	-0.085	-0.304
-721.835	353.880	-0.028	0.057
-720.821	78.782	0.060	-0.065
-719.806	116.004	-0.379	0.473
-718.791	8.153	-0.191	-0.146
-717.777	-51.441	-0.095	0.045
-716.762	194.056	-0.119	-0.184
-715.748	-200.000	-0.020	0.181
-714.733	-140.721	-0.117	-0.012
-713.718	-200.000	0.001	-0.082
-712.704	-200.000	-0.046	0.248
-711.689	227.183	0.094	-0.156
-710.675	21.675	-0.173	0.143
-709.660	-42.850	0.075	-0.039
-708.645	800.000	-0.059	-0.212
-707.631	127.821	0.187	-0.243
-706.616	208.372	0.102	0.162
-705.602	-161.022	0.116	0.006
-704.587	320.803	-0.100	-0.194
-703.572	-20.078	-0.129	0.081
-702.558	179.642	0.048	-0.071
-701.543	-157.508	0.449	-0.027
-700.529	320.692	0.080	0.155
-699.514	-170.340	0.012	0.000
-698.499	3.167	0.174	-0.129
-697.485	301.141	-0.156	0.294
-696.470	800.000	0.034	0.121
-695.456	131.765	-0.166	0.218
-694.441	193.848	-0.175	0.271
-693.426	800.000	0.079	-0.236
-692.412	-138.854	0.217	-0.024
-691.397	-200.000	0.014	0.106
-690.383	-109.062	-0.024	0.005
-689.368	800.000	0.034	0.097
-688.354	27.856	-0.237	-0.203
-687.339	-54.273	-0.096	-0.045
-686.324	560.691	-0.085	0.208
-685.310	151.012	-0.097	-0.134
-684.295	205.068	-0.138	-0.218
-683.281	-149.152	0.136	0.011
-682.266	-61.258	0.367	0.158
-681.251	-106.173	0.049	0.011
-680.237	578.469	0.104	0.259
-679.222	-200.000	0.032	-0.153
-678.208	-179.515	0.158	0.004
-677.193	506.901	0.154	-0.365
-676.178	521.170	0.055	0.131
-675.164	160.157	0.041	-0.058
-674.149	28.137	-0.046	-0.040
-673.135	127.025	0.296	0.382
-672.120	-200.000	-0.001	0.269
-671.105	540.744	0.026	0.064
-670.091	-25.049	-0.398	0.240
-669.076	42.745	-0.058	-0.054
-668.062	800.000	0.022	0.069
-667.047	-162.106	0.256	-0.013
-666.032	-38.045	-0.271	0.146
-665.018	-200.000	0.032	-0.167
-664.003	-14.078	0.119	-0.079
-662.989	-200.000	0.001	0.099
-661.974	-200.000	-0.059	0.298
-660.959	-200.000	0.012	-0.094
-659.945	-200.000	-0.012	0.216
-658.930	11.782	0.179	0.140
-657.916	-175.606	0.247	0.007
-656.901	11.381	0.106	0.083
-655.886	292.643	-0.106	-0.196
-654.872	-200.000	0.006	-0.224
-653.857	78.514	0.101	-0.110
-652.843	7.402	0.141	0.107
-651.828	306.186	0.174	0.330
-650.814	165.263	-0.209	-0.300
-649.799	-114.654	-0.108	-0.021
-648.784	800.000	0.060	-0.263
-647.770	-104.147	-0.321	-0.076
-646.755	-165.364	-0.392	0.018
-645.741	-70.382	-0.393	0.152
-644.726	-162.054	-0.049	-0.003
-643.711	32.490	0.267	0.235
-642.697	45.871	0.249	-0.234
-641.682	131.107	-0.242	-0.316
-640.668	-200.000	0.002	-0.031
-639.653	-28.024	-0.231	0.136
-638.638	800.000	-0.024	0.092
-637.624	-130.363	-0.206	0.028
-636.609	28.301	-0.101	0.087
-635.595	-23.771	0.084	-0.051
-634.580	800.000	-0.009	-0.035
-633.565	434.455	-0.068	-0.150
-632.551	-148.282	-0.072	0.006
-631.536	800.000	-0.043	-0.134
-630.522	-50.485	-0.152	-0.073
-629.507	24.274	0.103	0.087
-628.492	-159.972	0.347	-0.019
-627.478	29.068	0.210	-0.181
-626.463	-97.891	-0.107	0.028
-625.449	-46.590	0.080	0.040
-624.434	0.711	-0.053	0.038
-623.419	-82.790	-0.292	-0.096
-622.405	-148.412	-0.110	0.009
-621.390	203.800	-0.110	-0.173
-620.376	-200.000	-0.007	-0.110
-619.361	30.507	-0.199	0.173
-618.346	-121.231	0.227	0.039
-617.332	-21.131	0.254	-0.158
-616.317	-72.454	-0.294	0.110
-615.303	467.625	0.043	0.097
-614.288	-67.359	0.302	-0.121
-613.273	197.185	0.101	0.157
-612.259	5.373	0.278	0.209
-611.244	110.112	0.143	0.175
-610.230	-101.053	0.343	0.085
-609.215	502.531	0.095	0.222
-608.201	-141.733	0.208	0.021
-607.186	-200.000	0.002	0.095
-606.171	368.986	-0.096	0.197
-605.157	-200.000	0.006	-0.034
-604.142	-200.000	-0.024	-0.222
-603.128	296.436	0.199	-0.371
-602.113	22.833	0.192	-0.160
-601.098	-200.000	0.059	0.290
-600.084	-47.742	0.044	-0.022
-599.069	153.636	-0.147	-0.204
-598.055	-200.000	-0.017	0.172
-597.040	800.000	0.051	0.207
-596.025	-98.739	0.064	0.017
-595.011	-149.629	-0.409	0.033
-593.996	73.822	-0.036	0.038
-592.982	248.022	0.066	-0.114
-591.967	-200.000	-0.001	-0.203
-590.952	-152.630	-0.080	-0.006
-589.938	255.081	0.079	-0.138
-588.923	-200.000	-0.033	-0.153
-587.909	-200.000	0.034	0.221
-586.894	-141.476	0.546	0.056
-585.879	-12.354	0.073	0.048
-584.865	166.084	-0.130	-0.186
-583.850	98.662	-0.212	-0.248
-582.836	-200.000	0.003	0.177
-581.821	209.034	0.013	-0.020
-580.806	800.000	-0.047	-0.162
-579.792	800.000	-0.074	-0.260
-578.777	-143.952	-0.195	0.019
-577.763	-27.946	-0.097	-0.057
-576.748	800.000	-0.059	-0.246
-575.733	-113.168	0.085	0.017
-574.719	100.635	0.228	0.268
-573.704	-121.455	-0.266	0.045
-572.690	-200.000	0.007	0.240
-571.675	800.000	0.023	-0.076
-570.661	382.512	-0.194	-0.405
-569.646	-108.303	0.115	-0.025
-568.631	-115.073	-0.213	0.041
-567.617	-106.285	0.341	-0.077
-566.602	-200.000	0.034	-0.171
-565.588	-200.000	0.018	-0.157
-564.573	800.000	0.044	-0.161
-563.558	-73.101	0.300	0.112
-562.544	-200.000	-0.055	0.392
-561.529	-159.475	0.052	0.003
-560.515	251.340	0.088	0.152
-559.500	-178.223	0.274	-0.007
-558.485	311.571	0.088	-0.167
-557.471	-120.911	-0.271	0.046
-556.456	136.026	-0.122	0.162
-555.442	-200.000	0.004	0.081
-554.427	1.052	0.101	-0.074
-553.412	201.533	0.037	0.058
-552.398	800.000	0.015	-0.063
-551.383	-200.000	-0.019	-0.278
-550.369	-200.000	-0.028	0.145
-549.354	43.120	-0.124	-0.114
-548.339	-78.745	0.232	-0.080
-547.325	-102.841	-0.326	-0.079
-546.310	-200.000	0.022	0.121
-545.296	129.669	-0.085	-0.110
-544.281	94.556	-0.093	-0.107
-543.266	-40.357	-0.272	-0.143
-542.252	-180.460	0.404	-0.008
-541.237	-63.949	0.268	0.111
-540.223	-41.110	-0.219	0.115
-539.208	-200.000	-0.028	0.205
-538.193	131.875	0.150	-0.195
-537.179	-76.841	0.329	0.117
-536.164	8.799	-0.454	-0.347
-535.150	436.212	0.069	0.152
-534.135	-150.626	0.111	0.009
-533.121	-200.000	0.026	0.120
-532.106	129.472	-0.125	0.162
-531.091	-200.000	-0.006	0.107
-530.077	-80.040	-0.117	0.040
-529.062	-36.053	0.210	0.115
-528.048	-117.703	-0.437	-0.080
-527.033	-17.247	-0.319	0.204
-526.018	58.705	-0.123	0.122
-525.004	-200.000	0.024	-0.193
-523.989	42.932	0.026	0.024
-522.975	21.964	-0.266	-0.220
-521.960	37.541	-0.153	-0.138
-520.945	-8.681	0.156	-0.106
-519.931	-35.814	-0.432	0.237
-518.916	-200.000	-0.021	-0.263
-517.902	253.300	0.102	-0.176
-516.887	18.374	0.337	0.272
-515.872	-200.000	-0.020	0.255
-514.858	-105.318	-0.273	-0.063
-513.843	115.497	0.123	0.152
-512.829	-1.245	-0.189	0.135
-511.814	316.475	-0.116	-0.221
-510.799	-92.015	-0.166	-0.048
-509.785	-36.193	-0.209	0.114
-508.770	-100.804	-0.141	-0.035
-507.756	-98.401	0.159	-0.041
-506.741	-185.837	0.168	-0.003
-505.726	367.600	-0.097	0.198
-504.712	77.049	-0.201	-0.216
-503.697	90.735	0.271	-0.308
-502.683	-75.575	0.228	0.082
-501.668	-200.000	0.016	-0.124
-500.653	284.453	0.116	0.210
-499.639	14.314	0.015	0.012
-498.624	31.212	0.103	-0.090
-497.610	348.131	-0.157	-0.314
-496.595	10.126	-0.084	-0.064
-495.581	303.979	0.090	-0.169
-494.566	59.665	0.135	0.134
-493.551	-60.542	-0.283	-0.122
-492.537	-200.000	0.061	-0.365
-491.522	-99.399	-0.227	-0.058
-490.508	-94.982	-0.249	-0.068
-489.493	304.371	0.250	0.470
-488.478	507.066	-0.055	-0.129
-487.464	-4.447	-0.160	-0.112
-486.449	-72.571	-0.144	-0.054
-485.435	660.786	-0.075	-0.195
-484.420	800.000	-0.067	0.208
-483.405	-137.365	-0.118	0.013
-482.391	-143.058	0.161	-0.016
-481.376	-94.634	0.063	0.017
-480.362	-69.401	0.253	-0.098
-479.347	-200.000	0.040	0.261
-478.332	-200.000	0.001	-0.273
-477.318	355.018	0.082	-0.166
-476.303	-175.458	-0.242	0.007
-475.289	-200.000	-0.012	-0.147
-474.274	-194.731	0.133	-0.001
-473.259	591.346	-0.041	0.103
-472.245	-121.013	-0.065	-0.011
-471.230	-9.682	0.260	0.175
-470.216	-200.000	0.079	-0.476
-469.201	-200.000	-0.029	0.328
-468.186	618.914	0.032	0.081
-467.172	162.391	-0.179	-0.253
-466.157	-200.000	0.013	-0.163
-465.143	62.564	-0.185	-0.186
-464.128	-200.000	0.004	-0.047
-463.113	476.675	0.171	-0.391
-462.099	-180.952	0.517	0.011
-461.084	800.000	-0.088	0.319
-460.070	-200.000	0.026	0.206
-459.055	-177.344	-0.106	0.003
-458.040	800.000	-0.110	0.334
-457.026	-200.000	0.024	0.213
-456.011	104.201	0.100	-0.119
-454.997	8.597	-0.155	-0.118
-453.982	-200.000	-0.023	0.111
-452.968	-42.946	0.131	0.067
-451.953	417.148	-0.166	0.358
-450.938	-68.259	-0.119	0.047
-449.924	-200.000	0.031	-0.228
-448.909	800.000	-0.061	-0.201
-447.895	-67.121	-0.139	0.055
-446.880	-37.708	0.390	-0.210
-445.865	-200.000	-0.045	-0.374
-444.851	-200.000	-0.014	-0.231
-443.836	-67.009	-0.285	-0.113
-442.822	-58.595	0.030	-0.013
-441.807	366.722	0.123	-0.251
-440.792	800.000	0.059	-0.230
-439.778	346.155	-0.179	0.355
-438.763	247.520	0.165	-0.282
-437.749	-18.852	0.209	0.131
-436.734	-9.022	-0.215	0.145
-435.719	21.752	-0.156	0.128
-434.705	-60.604	0.156	0.067
-433.690	405.939	0.085	0.182
-432.676	-38.003	0.363	-0.195
-431.661	800.000	0.093	0.268
-430.646	-121.325	0.246	0.041
-429.632	-183.912	0.341	-0.006
-428.617	-95.889	-0.304	0.082
-427.603	-190.874	-0.181	0.002
-426.588	39.624	-0.034	0.031
-425.573	62.019	-0.268	-0.269
-424.559	800.000	-0.097	0.305
-423.544	260.927	0.088	-0.154
-422.530	41.121	0.115	0.104
-421.515	123.858	0.105	-0.134
-420.500	-73.244	0.206	0.076
-419.486	35.360	-0.153	0.135
-418.471	632.236	0.126	-0.323
-417.457	-138.189	0.219	0.024
-416.442	-92.800	0.112	-0.031
-415.428	108.385	0.095	0.114
-414.413	-109.286	-0.122	0.026
-413.398	-166.596	0.280	-0.012
-412.384	-34.408	-0.101	0.056
-411.369	-76.248	0.249	-0.089
-410.355	-200.000	-0.024	0.297
-409.340	-19.088	-0.243	-0.152
-408.325	766.048	0.041	0.112
-407.311	-32.532	0.249	-0.140
-406.296	304.479	-0.073	0.136
-405.282	-200.000	-0.008	0.114
-404.267	800.000	-0.033	0.126
-403.252	-95.007	-0.309	-0.084
-402.238	209.140	-0.253	0.399
-401.223	-17.707	0.170	0.108
-400.209	800.000	-0.011	0.038
-399.194	800.000	-0.095	0.265
-398.179	543.823	0.037	0.089
-397.165	800.000	0.074	-0.211
-396.150	-124.175	0.440	0.069
-395.136	-200.000	-0.046	0.281
-394.121	-28.794	0.248	-0.144
-393.106	1.393	-0.111	0.081
-392.092	-135.733	0.518	-0.062
-391.077	800.000	-0.114	0.332
-390.063	-92.787	-0.269	-0.076
-389.048	325.023	0.031	0.059
-388.033	54.506	-0.133	0.129
-387.019	109.288	-0.175	-0.212
-386.004	39.994	0.197	-0.178
-384.990	-152.619	-0.161	0.012
-383.975	-119.058	-0.338	0.060
-382.960	-108.882	0.259	0.056
-381.946	398.334	0.034	-0.072
-380.931	-200.000	0.016	-0.127
-379.917	-94.536	0.102	-0.028
-378.902	257.510	0.123	0.214
-377.888	129.757	0.226	0.291
-376.873	800.000	0.087	0.342
-375.858	-200.000	0.023	-0.332
-374.844	800.000	0.073	0.268
-373.829	-31.027	-0.240	-0.136
-372.815	-200.000	0.025	-0.164
-371.800	17.825	-0.116	-0.093
-370.785	214.987	0.067	0.107
-369.771	-91.670	0.279	-0.080
-368.756	-200.000	-0.004	0.080
-367.742	278.182	-0.166	0.298
-366.727	-87.478	-0.139	0.042
-365.712	181.727	-0.066	-0.097
-364.698	-33.650	-0.249	0.138
-363.683	15.645	0.092	-0.073
-362.669	260.537	-0.150	-0.260
-361.654	800.000	-0.102	0.285
-360.639	-85.715	-0.089	0.028
-359.625	230.587	-0.111	0.183
-358.610	800.000	0.168	-0.468
-357.596	-200.000	-0.008	0.188
-356.581	56.746	-0.084	0.082
-355.566	-35.053	-0.097	0.053
-354.552	-200.000	-0.004	0.175
-353.537	-159.447	0.098	-0.006
-352.523	-200.000	-0.001	0.156
-351.508	-97.518	0.244	-0.064
-350.493	92.070	0.269	0.305
-349.479	800.000	0.135	0.523
-348.464	90.398	0.095	0.107
-347.450	486.165	0.048	0.111
-346.435	215.521	0.107	0.171
-345.420	252.544	-0.033	-0.057
-344.406	-200.000	-0.029	0.443
-343.391	800.000	-0.084	0.251
-342.377	-200.000	0.009	0.076
-341.362	-200.000	-0.043	-0.427
-340.348	-130.822	-0.252	-0.034
-339.333	-122.473	-0.241	-0.039
-338.318	-91.004	-0.178	0.051
-337.304	800.000	0.044	0.190
-336.289	117.961	0.036	-0.044
-335.275	800.000	-0.094	0.275
-334.260	-55.822	0.154	0.069
-333.245	-200.000	0.014	0.176
-332.231	-188.034	-0.242	-0.003
-331.216	800.000	-0.024	0.074
-330.202	-200.000	0.026	-0.388
-329.187	-128.105	-0.273	0.039
-328.172	-200.000	0.006	-0.469
-327.158	506.226	-0.067	-0.157
-326.143	183.897	0.132	0.196
-325.129	800.000	0.027	0.103
-324.114	-126.912	-0.104	-0.015
-323.099	-72.505	0.101	0.037
-322.085	-24.253	-0.183	-0.110
-321.070	765.238	-0.043	-0.118
-320.056	282.119	-0.095	-0.172
-319.041	-83.719	0.405	-0.130
-318.026	-6.920	0.176	-0.120
-317.012	-145.808	0.241	-0.022
-315.997	-120.388	-0.402	0.069
-314.983	-37.425	-0.095	0.051
-313.968	800.000	0.123	-0.399
-312.953	-26.642	0.070	0.041
-311.939	800.000	-0.046	0.172
-310.924	-106.722	-0.124	0.028
-309.910	-200.000	0.009	0.133
-308.895	-200.000	0.004	0.026
-307.880	-200.000	-0.020	0.090
-306.866	-159.040	0.487	0.028
-305.851	-158.613	0.205	0.012
-304.837	-42.745	-0.213	0.109
-303.822	-34.680	-0.176	-0.097
-302.807	-3.136	-0.356	-0.250
-301.793	459.117	-0.096	0.215
-300.778	617.191	-0.071	-0.179
-299.764	350.965	0.036	0.072
-298.749	2.663	0.147	-0.107
-297.735	1.215	0.266	0.192
-296.720	-200.000	0.015	-0.091
-295.705	2.725	0.172	-0.125
-294.691	-200.000	-0.005	-0.243
-293.676	-101.023	-0.397	0.098
-292.662	-132.094	-0.261	-0.034
-291.647	272.683	-0.013	-0.023
-290.632	-53.840	0.503	0.230
-289.618	-94.811	-0.191	0.052
-288.603	800.000	-0.026	0.097
-287.589	-103.597	-0.174	0.041
-286.574	-200.000	-0.025	0.448
-285.559	195.371	-0.078	-0.119
-284.545	785.936	-0.164	-0.450
-283.530	-154.445	-0.196	0.013
-282.516	-161.382	-0.163	0.008
-281.501	-99.159	-0.071	0.018
-280.486	-200.000	-0.079	0.449
-279.472	163.531	0.220	-0.311
-278.457	-138.281	0.210	0.023
-277.443	523.625	-0.073	-0.172
-276.428	-200.000	-0.010	-0.474
-275.413	-18.661	0.103	0.064
-274.399	68.024	0.122	0.125
-273.384	-44.621	-0.229	0.115
-272.370	800.000	0.025	0.098
-271.355	-38.835	0.094	0.050
-270.340	-72.335	0.140	-0.052
-269.326	-32.358	-0.408	-0.228
-268.311	-30.183	0.334	-0.190
-267.297	-80.043	0.171	-0.058
-266.282	-45.696	-0.113	0.056
-265.267	-56.458	0.029	0.013
-264.253	114.308	0.122	-0.149
-263.238	-127.542	-0.050	-0.007
-262.224	800.000	-0.032	-0.112
-261.209	10.515	-0.222	-0.170
-260.195	214.946	0.172	0.274
-259.180	-88.188	-0.143	0.043
-258.165	-59.505	-0.183	-0.079
-257.151	-200.000	0.509	-0.000
-256.136	33.544	-0.163	0.142
-255.122	88.253	0.079	0.088
-254.107	800.000	0.098	-0.278
-253.092	720.515	0.071	0.190
-252.078	335.882	-0.114	0.222
-251.063	87.886	0.100	-0.111
-250.049	-92.773	0.496	-0.139
-249.034	101.852	-0.148	-0.173
-248.019	-79.481	0.116	-0.039
-247.005	-52.602	0.151	0.070
-245.990	277.921	-0.302	0.540
-244.976	-146.959	-0.268	-0.023
-243.961	-52.820	-0.104	-0.048
-242.946	118.548	-0.032	-0.040
-241.932	-200.000	-0.043	-0.239
-240.917	117.015	-0.076	0.094
-239.903	318.294	0.075	0.143
-238.888	-200.000	-0.015	0.323
-237.873	-200.000	-0.039	0.295
-236.859	800.000	0.030	0.123
-235.844	432.476	-0.055	0.120
-234.830	196.846	0.117	-0.179
-233.815	691.192	-0.036	-0.093
-232.800	-72.935	-0.127	0.047
-231.786	-163.317	-0.230	-0.011
-230.771	94.770	0.217	0.247
-229.757	800.000	0.018	-0.050
-228.742	2.563	0.121	-0.088
-227.727	800.000	0.080	0.273
-226.713	-28.717	-0.316	0.182
-225.698	-139.777	0.147	-0.016
-224.684	-141.165	-0.488	-0.050
-223.669	-84.684	-0.501	-0.158
-222.655	-43.845	-0.067	0.034
-221.640	-38.245	-0.359	-0.191
-220.625	-200.000	-0.006	-0.442
-219.611	-200.000	0.017	-0.081
-218.596	-200.000	0.018	-0.382
-217.582	-128.815	0.268	-0.038
-216.567	-136.002	0.206	0.024
-215.552	-22.963	0.330	0.199
-214.538	444.725	0.073	-0.161
-213.523	-200.000	-0.005	0.141
-212.509	111.626	0.157	0.190
-211.494	159.011	0.115	0.159
-210.479	61.044	-0.159	-0.158
-209.465	-71.751	0.300	-0.112
-208.450	169.927	0.153	-0.219
-207.436	7.163	0.165	-0.123
-206.421	-84.809	-0.135	0.043
-205.406	133.669	-0.168	0.217
-204.392	136.349	0.174	0.227
-203.377	-135.816	-0.339	0.040
-202.363	-8.002	0.291	-0.196
-201.348	178.499	0.055	-0.080
-200.333	-113.314	-0.265	-0.052
-199.319	800.000	0.058	-0.168
-198.304	135.960	0.163	-0.212
-197.290	-200.000	-0.033	0.301
-196.275	769.493	-0.068	0.185
-195.260	144.213	0.280	0.374
-194.246	-128.509	-0.279	0.040
-193.231	-200.000	-0.004	0.057
-192.217	90.784	0.078	-0.088
-191.202	-105.930	0.180	0.041
-190.187	-1.357	-0.135	-0.095
-189.173	794.749	0.097	-0.268
-188.158	-200.000	0.034	-0.309
-187.144	153.280	0.034	-0.047
-186.129	-73.404	-0.199	0.073
-185.114	88.732	0.102	0.113
-184.100	-131.087	0.347	-0.046
-183.085	345.727	0.054	-0.106
-182.071	115.243	-0.268	0.327
-181.056	143.016	0.301	-0.400
-180.042	-200.000	0.051	0.504
-179.027	785.300	0.041	0.114
-178.012	-83.792	-0.089	0.028
-176.998	360.840	-0.092	0.184
-175.983	-55.106	-0.081	0.036
-174.969	693.125	0.067	-0.175
-173.954	800.000	0.051	0.149
-172.939	146.998	0.099	0.133
-171.925	-58.896	0.259	-0.112
-170.910	800.000	-0.046	0.148
-169.896	368.891	0.012	0.024
-168.881	168.553	0.151	-0.215
-167.866	-200.000	0.052	0.265
-166.852	-200.000	-0.062	-0.369
-165.837	48.952	0.139	-0.131
-164.823	-200.000	-0.009	-0.279
-163.808	369.848	-0.034	0.068
-162.793	-63.407	-0.155	-0.064
-161.779	-195.321	0.101	-0.001
-160.764	5.853	0.099	-0.073
-159.750	-200.000	0.059	-0.273
-158.735	800.000	0.053	-0.222
-157.720	3.914	-0.202	0.148
-156.706	-65.656	-0.242	-0.097
-155.691	-200.000	-0.011	0.241
-154.677	794.858	-0.026	-0.072
-153.662	87.907	0.173	0.191
-152.647	440.664	-0.080	-0.175
-151.633	-116.382	0.029	0.005
-150.618	-167.597	-0.333	-0.013
-149.604	-104.878	0.020	-0.005
-148.589	-200.000	0.046	-0.244
-147.574	112.397	0.267	-0.323
-146.560	-37.571	0.114	-0.061
-145.545	800.000	0.132	0.481
-144.531	-157.428	-0.218	-0.013
-143.516	229.693	0.140	0.229
-142.502	-88.445	-0.388	0.116
-141.487	224.304	-0.068	0.109
-140.472	259.615	-0.188	0.324
-139.458	191.497	-0.073	0.110
-138.443	240.408	-0.015	0.026
-137.429	-35.384	0.197	0.107
-136.414	-125.002	0.141	0.022
-135.399	-200.000	0.057	0.266
-134.385	-200.000	-0.041	0.375
-133.370	77.220	0.121	0.128
-132.356	-126.541	-0.240	-0.036
-131.341	32.429	0.223	0.192
-130.326	30.225	-0.260	0.221
-129.312	253.152	-0.027	-0.046
-128.297	-77.478	-0.236	-0.082
-127.283	20.262	0.178	0.144
-126.268	42.008	0.083	-0.075
-125.253	-99.372	0.208	-0.052
-124.239	-200.000	0.050	0.267
-123.224	800.000	0.101	-0.383
-122.210	592.155	0.057	-0.141
