DTS Sentinel unit serial number:	SN413079Multiplexer serial number:	ORYXHardware model number:	OX4-SRSoftware version number:	ORYX F/W v4.00 Oryx Data Collector v3.7.2.0data status	okinstallation	princeton_trtdifferential loss correction	single-endedforward channel	channel 4reverse channel	N/Adate	2019/09/15time	11:13:35forward acquisition time	60.00reverse acquisition time	0.00gamma	496.2192k internal	0.2298k external	0.2298temperature offset calibration	1.0014default loss term (dB/km)	0.3790temperature slope calibration	1.0000multiplexer offset coefficient	1.0000multiplexer slope coefficient	1.0000fibre end	0.00T internal ref (°C)	34.31T ext. ref 1 (°C)	5.03T ext. ref 2 (°C)	29.70length (m)	temperature (°C)	Stokes	anti-Stokes-747.200	232.311	-0.134	-0.225
-746.185	414.806	-0.090	0.195
-745.171	34.570	-0.251	-0.224
-744.156	-94.856	-0.401	-0.111
-743.142	-9.396	-0.248	0.169
-742.127	-104.773	-0.208	-0.049
-741.112	800.000	0.094	-0.273
-740.098	-200.000	-0.020	0.505
-739.083	-116.547	0.158	0.030
-738.069	-200.000	-0.009	0.065
-737.054	-76.943	-0.241	0.086
-736.039	-24.097	-0.375	-0.228
-735.025	444.999	-0.031	0.069
-734.010	-72.777	-0.429	-0.161
-732.996	256.005	-0.066	0.115
-731.981	214.887	0.075	0.121
-730.966	-190.863	-0.370	0.004
-729.952	-200.000	0.030	-0.149
-728.937	225.635	-0.238	-0.393
-727.923	800.000	0.044	0.180
-726.908	358.598	-0.025	-0.051
-725.894	449.591	0.040	0.090
-724.879	-140.895	-0.263	0.028
-723.864	-57.102	0.174	-0.078
-722.850	165.482	-0.118	0.170
-721.835	-177.733	-0.174	0.004
-720.821	-148.988	-0.262	0.021
-719.806	502.613	-0.113	0.267
-718.791	800.000	-0.036	0.107
-717.777	800.000	0.034	0.137
-716.762	-40.198	0.173	0.092
-715.748	183.188	-0.161	-0.242
-714.733	800.000	0.076	0.301
-713.718	25.075	0.256	-0.217
-712.704	60.128	0.250	-0.252
-711.689	115.069	0.076	0.095
-710.675	-28.286	0.133	-0.078
-709.660	-161.636	-0.071	0.004
-708.645	-56.350	-0.365	-0.165
-707.631	800.000	-0.085	0.240
-706.616	11.310	0.119	0.093
-705.602	-200.000	0.037	0.264
-704.587	255.780	-0.119	-0.207
-703.572	324.328	-0.211	-0.410
-702.558	0.493	-0.167	-0.122
-701.543	693.790	-0.090	-0.240
-700.529	-104.101	0.411	0.098
-699.514	543.215	-0.100	-0.244
-698.499	-200.000	0.013	-0.203
-697.485	-200.000	0.006	-0.119
-696.470	449.760	0.018	-0.042
-695.456	76.671	0.096	0.104
-694.441	83.619	-0.221	-0.246
-693.426	-200.000	-0.038	0.260
-692.412	-27.557	-0.271	0.160
-691.397	-177.799	-0.272	0.007
-690.383	263.763	0.253	-0.447
-689.368	-200.000	-0.002	0.154
-688.354	-200.000	-0.038	0.221
-687.339	-139.864	-0.201	-0.022
-686.324	177.235	-0.067	0.099
-685.310	-97.429	0.369	0.098
-684.295	213.716	0.112	-0.180
-683.281	800.000	0.023	0.090
-682.266	2.706	0.094	-0.070
-681.251	-63.330	0.124	-0.052
-680.237	138.098	0.025	0.034
-679.222	800.000	0.087	0.382
-678.208	-200.000	-0.013	-0.086
-677.193	-26.815	-0.068	0.040
-676.178	31.286	-0.239	-0.209
-675.164	-200.000	0.007	-0.167
-674.149	50.670	-0.108	0.104
-673.135	-200.000	0.036	0.182
-672.120	-169.362	0.143	-0.005
-671.105	-200.000	-0.072	-0.400
-670.091	-133.987	-0.281	-0.035
-669.076	-148.361	0.229	0.019
-668.062	-183.783	0.144	0.002
-667.047	431.852	0.051	-0.113
-666.032	800.000	0.024	0.094
-665.018	-94.738	-0.141	-0.039
-664.003	-64.009	0.030	0.012
-662.989	154.136	-0.187	0.262
-661.974	-54.602	-0.232	-0.107
-660.959	-116.822	-0.123	-0.023
-659.945	800.000	0.022	-0.085
-658.930	247.904	0.126	0.217
-657.916	-141.529	-0.248	-0.026
-656.901	800.000	0.062	0.217
-655.886	-200.000	-0.035	-0.158
-654.872	800.000	0.140	0.417
-653.857	-10.775	-0.116	0.078
-652.843	393.935	0.208	-0.441
-651.828	-42.831	0.280	-0.145
-650.814	240.669	-0.053	-0.090
-649.799	-200.000	-0.061	-0.384
-648.784	-21.601	-0.206	-0.128
-647.770	-28.535	0.024	-0.014
-646.755	222.489	-0.076	0.125
-645.741	51.225	-0.219	0.211
-644.726	-200.000	-0.206	0.001
-643.711	718.426	-0.171	-0.461
-642.697	-131.687	0.308	-0.041
-641.682	449.599	-0.080	-0.179
-640.668	-141.007	0.299	-0.031
-639.653	-13.588	-0.117	0.077
-638.638	-133.902	0.238	0.030
-637.624	-95.549	0.260	-0.071
-636.609	-200.000	0.016	-0.294
-635.595	16.864	0.143	-0.115
-634.580	-142.459	-0.435	0.043
-633.565	-200.000	-0.001	-0.178
-632.551	800.000	0.038	-0.127
-631.536	220.053	0.125	-0.204
-630.522	112.472	0.178	-0.219
-629.507	-200.000	-0.018	-0.127
-628.492	-56.487	0.207	-0.093
-627.478	-200.000	0.018	-0.443
-626.463	800.000	0.017	0.059
-625.449	132.499	0.261	0.342
-624.434	-108.172	-0.122	0.027
-623.419	800.000	0.046	-0.195
-622.405	800.000	0.059	0.178
-621.390	-105.158	-0.245	0.057
-620.376	-200.000	0.044	-0.293
-619.361	263.947	-0.091	0.161
-618.346	110.433	-0.059	0.072
-617.332	-139.352	-0.137	0.015
-616.317	-148.281	-0.340	-0.028
-615.303	21.855	0.157	-0.130
-614.288	-200.000	0.014	-0.373
-613.273	160.656	-0.261	0.370
-612.259	-200.000	-0.085	0.387
-611.244	800.000	-0.027	0.113
-610.230	-200.000	-0.418	0.000
-609.215	800.000	-0.071	-0.300
-608.201	-166.210	0.283	-0.012
-607.186	455.952	0.050	-0.113
-606.171	384.734	-0.099	-0.207
-605.157	-6.215	-0.137	-0.095
-604.142	800.000	0.060	0.208
-603.128	-39.937	-0.231	-0.122
-602.113	-142.740	-0.156	0.015
-601.098	-119.772	0.096	0.017
-600.084	250.113	0.017	0.030
-599.069	184.174	-0.068	0.102
-598.055	-79.609	0.164	0.056
-597.040	342.307	-0.072	0.144
-596.025	-0.676	-0.216	-0.156
-595.011	191.088	-0.157	-0.239
-593.996	130.150	0.097	0.126
-592.982	-139.655	-0.043	-0.005
-591.967	23.002	-0.283	0.236
-590.952	29.862	-0.142	0.123
-589.938	-188.757	-0.335	-0.004
-588.923	203.847	-0.159	0.250
-587.909	426.855	0.095	-0.207
-586.894	-144.582	0.206	0.019
-585.879	-200.000	0.008	0.265
-584.865	-137.408	0.095	0.011
-583.850	-61.088	0.052	0.022
-582.836	-90.008	0.027	-0.008
-581.821	98.952	-0.118	0.138
-580.806	800.000	-0.060	-0.197
-579.792	196.768	0.149	0.230
-578.777	428.931	-0.037	-0.082
-577.763	-200.000	0.019	0.124
-576.748	-200.000	-0.022	0.233
-575.733	10.295	-0.108	0.083
-574.719	-200.000	-0.026	-0.152
-573.704	471.379	-0.051	-0.115
-572.690	546.093	0.067	0.161
-571.675	-118.801	0.278	0.050
-570.661	11.697	0.108	0.084
-569.646	-99.926	0.207	0.052
-568.631	101.419	0.122	0.144
-567.617	-70.199	-0.160	0.062
-566.602	766.538	-0.045	0.123
-565.588	399.092	-0.020	-0.043
-564.573	94.976	0.034	0.039
-563.558	800.000	0.070	0.277
-562.544	26.472	-0.050	0.043
-561.529	626.901	0.133	0.339
-560.515	395.754	-0.004	0.009
-559.500	-71.762	0.264	-0.100
-558.485	59.343	0.171	0.171
-557.471	3.837	0.161	-0.119
-556.456	-121.427	-0.303	-0.051
-555.442	-200.000	-0.036	-0.375
-554.427	-200.000	0.010	-0.047
-553.412	-169.623	0.193	0.007
-552.398	-200.000	0.010	0.111
-551.383	-64.916	-0.167	0.069
-550.369	91.948	0.035	-0.040
-549.354	-113.932	0.106	0.021
-548.339	304.968	-0.048	-0.091
-547.325	14.708	0.067	-0.053
-546.310	-146.881	-0.041	0.004
-545.296	-200.000	0.003	-0.075
-544.281	800.000	0.040	-0.113
-543.266	-139.589	0.150	-0.016
-542.252	124.472	-0.161	0.205
-541.237	-59.752	0.280	-0.122
-540.223	775.198	0.034	0.094
-539.208	101.047	0.239	-0.281
-538.193	-95.563	0.230	0.062
-537.179	-129.251	-0.096	-0.014
-536.164	-200.000	-0.022	-0.143
-535.150	-200.000	0.039	-0.275
-534.135	-69.965	0.313	-0.121
-533.121	-125.053	-0.494	0.077
-532.106	215.761	0.164	0.263
-531.091	-127.741	-0.248	-0.036
-530.077	239.409	0.148	0.250
-529.062	17.555	-0.178	0.143
-528.048	-50.913	0.025	-0.012
-527.033	-11.587	0.294	0.195
-526.018	800.000	0.053	0.167
-525.004	-95.274	-0.145	0.040
-523.989	-51.500	0.313	-0.148
-522.975	402.120	0.135	0.286
-521.960	230.958	0.097	-0.161
-520.945	-119.700	-0.199	0.035
-519.931	19.021	-0.072	-0.058
-518.916	-3.432	0.244	-0.172
-517.902	57.846	0.248	-0.245
-516.887	31.656	-0.059	0.051
-515.872	-141.126	-0.164	-0.017
-514.858	-200.000	-0.000	-0.171
-513.843	140.090	-0.067	-0.089
-512.829	-36.477	-0.179	-0.097
-511.814	-200.000	-0.002	-0.288
-510.799	-200.000	0.002	-0.058
-509.785	52.152	-0.195	-0.188
-508.770	-8.557	0.211	-0.143
-507.756	210.808	-0.143	-0.228
-506.741	-75.833	0.394	-0.141
-505.726	-85.748	-0.409	-0.128
-504.712	76.196	0.211	-0.226
-503.697	37.098	-0.316	0.283
-502.683	-152.849	-0.081	-0.006
-501.668	-57.083	0.124	0.055
-500.653	31.665	-0.267	-0.233
-499.639	-99.512	-0.175	-0.045
-498.624	96.457	-0.089	-0.103
-497.610	-22.359	-0.070	-0.043
-496.595	-51.124	0.062	0.029
-495.581	50.320	0.305	0.291
-494.566	-198.427	-0.229	0.001
-493.551	-45.860	-0.171	-0.085
-492.537	-145.591	0.170	-0.015
-491.522	-37.076	0.261	-0.142
-490.508	-117.239	0.007	-0.001
-489.493	15.076	0.154	-0.122
-488.478	-85.570	0.302	-0.095
-487.464	-200.000	-0.005	0.068
-486.449	800.000	0.043	-0.171
-485.435	23.474	-0.193	-0.160
-484.420	-8.509	0.200	0.136
-483.405	207.717	-0.116	-0.183
-482.391	-200.000	-0.043	0.191
-481.376	-11.077	-0.088	0.059
-480.362	800.000	-0.094	0.271
-479.347	-200.000	0.025	0.245
-478.332	107.077	-0.080	-0.096
-477.318	-143.996	-0.370	0.035
-476.303	-58.427	-0.246	0.108
-475.289	-200.000	0.037	-0.180
-474.274	309.086	-0.096	-0.182
-473.259	-200.000	-0.028	0.133
-472.245	-47.866	0.342	-0.167
-471.230	-45.965	0.081	0.040
-470.216	52.415	-0.166	-0.160
-469.201	-87.680	-0.178	-0.054
-468.186	83.639	0.160	0.176
-467.172	-200.000	0.015	0.251
-466.157	-28.027	0.159	0.093
-465.143	-200.000	-0.029	-0.217
-464.128	81.875	0.202	0.221
-463.113	-46.684	0.178	0.088
-462.099	-85.993	0.364	-0.114
-461.084	10.540	-0.041	-0.032
-460.070	42.438	-0.278	-0.255
-459.055	-67.640	0.069	-0.027
-458.040	800.000	-0.040	-0.174
-457.026	44.336	0.091	0.084
-456.011	47.729	0.121	-0.114
-454.997	800.000	0.007	-0.023
-453.982	243.666	0.122	0.207
-452.968	-70.900	-0.102	-0.039
-451.953	-35.474	0.125	0.069
-450.938	-58.941	0.212	-0.092
-449.924	-200.000	0.002	-0.013
-448.909	-131.586	-0.161	-0.021
-447.895	61.893	-0.285	-0.287
-446.880	20.857	0.147	0.120
-445.865	-200.000	-0.049	0.398
-444.851	-119.561	-0.378	0.066
-443.836	-120.108	-0.073	-0.013
-442.822	-53.450	-0.281	-0.130
-441.807	-70.206	-0.053	0.020
-440.792	-200.000	-0.037	0.188
-439.778	77.124	-0.100	0.107
-438.763	-200.000	0.012	-0.054
-437.749	-6.654	-0.184	0.127
-436.734	-95.072	-0.181	-0.049
-435.719	-200.000	-0.030	0.198
-434.705	-98.058	-0.203	-0.053
-433.690	-93.135	0.257	-0.072
-432.676	-200.000	0.001	-0.170
-431.661	-138.497	0.336	-0.037
-430.646	800.000	-0.054	0.178
-429.632	86.634	-0.371	0.413
-428.617	-75.561	-0.167	-0.060
-427.603	42.511	0.281	0.258
-426.588	-160.721	0.200	-0.011
-425.573	614.591	-0.115	-0.290
-424.559	-200.000	-0.057	0.253
-423.544	-95.571	0.200	-0.054
-422.530	-200.000	-0.016	0.251
-421.515	-69.885	0.150	0.058
-420.500	229.489	0.082	0.135
-419.486	213.682	-0.196	-0.313
-418.471	236.639	-0.148	-0.247
-417.457	50.944	0.217	0.207
-416.442	-83.359	0.163	0.053
-415.428	800.000	0.067	-0.191
-414.413	644.597	0.061	-0.157
-413.398	246.875	-0.091	-0.155
-412.384	800.000	-0.169	-0.573
-411.369	-200.000	0.016	-0.159
-410.355	94.885	-0.202	0.231
-409.340	-120.913	0.094	0.016
-408.325	-79.866	0.270	-0.091
-407.311	-200.000	0.034	0.199
-406.296	11.005	0.316	0.244
-405.282	-26.010	-0.160	-0.095
-404.267	80.138	0.329	-0.357
-403.252	-70.327	0.057	-0.022
-402.238	-81.769	0.207	-0.068
-401.223	-40.319	-0.393	0.206
-400.209	-200.000	0.006	-0.214
-399.194	7.718	-0.133	0.100
-398.179	-200.000	-0.025	-0.272
-397.165	800.000	-0.010	0.039
-396.150	-56.318	-0.214	0.096
-395.136	-200.000	-0.013	0.213
-394.121	-200.000	-0.031	0.418
-393.106	101.970	0.176	0.206
-392.092	116.027	0.166	0.204
-391.077	-100.241	0.372	-0.093
-390.063	-91.704	-0.240	0.069
-389.048	-163.010	-0.261	0.013
-388.033	-98.448	-0.243	0.063
-387.019	-58.735	0.155	0.067
-386.004	-35.667	-0.106	0.058
-384.990	228.408	-0.100	0.164
-383.975	-121.268	0.246	0.041
-382.960	109.937	0.120	-0.145
-381.946	-6.233	0.138	-0.095
-380.931	252.596	-0.125	0.214
-379.917	215.940	-0.101	-0.161
-378.902	-13.879	0.339	0.220
-377.888	-120.287	-0.177	-0.030
-376.873	-96.742	-0.374	0.099
-375.858	-115.358	-0.154	0.029
-374.844	-137.231	0.286	0.033
-373.829	60.408	-0.129	0.129
-372.815	55.075	0.130	-0.126
-371.800	-90.485	-0.061	-0.018
-370.785	800.000	0.060	-0.244
-369.771	-42.851	-0.087	-0.044
-368.756	21.377	-0.161	0.131
-367.742	-3.004	-0.165	0.116
-366.727	-129.837	0.172	-0.024
-365.712	784.175	0.035	0.096
-364.698	-48.416	0.211	-0.102
-363.683	638.783	0.020	0.051
-362.669	118.233	0.079	-0.098
-361.654	188.406	0.148	0.223
-360.639	149.878	0.091	-0.124
-359.625	-92.266	-0.215	-0.061
-358.610	-114.871	-0.156	0.030
-357.596	-200.000	0.037	-0.193
-356.581	-198.696	-0.077	0.000
-355.566	277.257	0.079	0.141
-354.552	344.175	-0.149	0.294
-353.537	22.541	-0.121	0.099
-352.523	-200.000	-0.037	-0.234
-351.508	-200.000	-0.025	0.182
-350.493	800.000	-0.118	0.364
-349.479	-42.062	0.144	0.074
-348.464	-113.066	-0.406	0.081
-347.450	-200.000	-0.004	0.153
-346.435	-200.000	0.047	0.285
-345.420	-165.918	0.413	0.018
-344.406	-72.175	-0.200	0.075
-343.391	-4.737	0.106	-0.074
-342.377	-78.419	0.180	0.062
-341.362	447.589	-0.098	0.217
-340.348	-74.889	-0.271	0.098
-339.333	29.922	-0.250	-0.214
-338.318	-74.628	-0.072	0.026
-337.304	-13.040	0.197	-0.129
-336.289	2.854	-0.138	-0.101
-335.275	-200.000	-0.074	0.338
-334.260	155.151	-0.171	0.237
-333.245	-117.311	0.083	0.015
-332.231	18.374	0.085	0.068
-331.216	-62.080	0.315	0.132
-330.202	45.617	-0.143	0.133
-329.187	-200.000	-0.046	0.240
-328.172	73.958	0.153	0.162
-327.158	-200.000	-0.106	-0.493
-326.143	312.274	0.088	-0.165
-325.129	-24.598	-0.295	-0.176
-324.114	-26.376	0.233	0.137
-323.099	94.442	-0.203	0.231
-322.085	61.668	0.113	-0.113
-321.070	35.776	0.144	0.127
-320.056	-121.933	0.234	-0.039
-319.041	-156.363	0.229	-0.014
-318.026	800.000	0.054	-0.191
-317.012	218.763	-0.221	0.355
-315.997	800.000	0.059	0.230
-314.983	-73.668	-0.109	0.040
-313.968	800.000	0.066	-0.257
-312.953	-200.000	-0.009	0.092
-311.939	393.843	0.038	-0.080
-310.924	19.144	0.154	0.124
-309.910	-64.227	-0.324	0.133
-308.895	-161.328	-0.189	-0.010
-307.880	-132.776	0.114	0.015
-306.866	-23.070	-0.079	0.048
-305.851	-154.351	-0.125	0.008
-304.837	-148.317	0.251	0.021
-303.822	800.000	0.057	0.220
-302.807	-106.902	0.108	-0.024
-301.793	202.491	0.073	-0.112
-300.778	800.000	0.068	0.231
-299.764	-61.882	-0.176	-0.074
-298.749	483.374	-0.037	0.084
-297.735	172.964	-0.219	-0.317
-296.720	-66.661	0.268	-0.107
-295.705	-94.575	0.119	-0.032
-294.691	-126.627	-0.313	-0.047
-293.676	-15.683	-0.353	-0.226
-292.662	349.950	-0.064	0.128
-291.647	-135.143	-0.334	0.040
-290.632	-200.000	-0.004	-0.253
-289.618	689.543	0.029	0.076
-288.603	316.017	0.065	-0.123
-287.589	-87.524	0.062	0.019
-286.574	344.394	0.129	0.254
-285.559	-55.290	0.312	0.141
-284.545	-25.615	0.130	0.077
-283.530	-200.000	-0.032	-0.150
-282.516	-200.000	0.004	0.043
-281.501	-21.933	0.196	-0.119
-280.486	-23.484	0.286	-0.172
-279.472	-113.657	0.117	-0.023
-278.457	-200.000	-0.064	-0.501
-277.443	19.473	0.158	0.127
-276.428	-150.884	-0.079	-0.006
-275.413	-200.000	-0.014	0.065
-274.399	-34.456	0.212	-0.116
-273.384	63.261	0.143	0.143
-272.370	252.895	0.098	0.167
-271.355	-200.000	-0.011	-0.239
-270.340	158.835	0.039	0.055
-269.326	-200.000	0.036	0.251
-268.311	-143.092	0.286	0.028
-267.297	169.105	-0.076	0.108
-266.282	207.379	0.207	-0.323
-265.267	-59.608	0.189	0.081
-264.253	222.025	-0.229	0.369
-263.238	-64.085	0.109	0.044
-262.224	-17.036	-0.067	-0.042
-261.209	-87.675	0.136	-0.041
-260.195	-180.332	0.356	-0.007
-259.180	-108.762	0.092	-0.020
-258.165	-11.000	-0.145	0.096
-257.151	-200.000	0.050	-0.372
-256.136	107.761	0.107	-0.128
-255.122	227.521	0.097	-0.157
-254.107	800.000	0.052	-0.201
-253.092	272.813	-0.117	-0.206
-252.078	-139.037	0.358	0.039
-251.063	-65.175	-0.101	0.041
-250.049	72.467	-0.174	0.181
-249.034	800.000	-0.073	0.254
-248.019	256.682	-0.102	-0.176
-247.005	176.344	0.139	0.203
-245.990	-11.680	-0.153	-0.101
-244.976	-200.000	0.015	-0.115
-243.961	-200.000	-0.025	-0.388
-242.946	-200.000	0.039	-0.212
-241.932	23.823	0.048	-0.039
-240.917	4.812	-0.199	0.146
-239.903	-20.602	-0.184	-0.113
-238.888	-195.062	-0.391	-0.003
-237.873	57.581	-0.103	-0.101
-236.859	-116.581	0.276	0.051
-235.844	-136.226	0.168	0.020
-234.830	-111.745	0.336	0.068
-233.815	14.265	0.321	-0.251
-232.800	800.000	-0.028	-0.123
-231.786	166.992	0.063	-0.089
-230.771	-131.652	-0.229	-0.030
-229.757	-137.360	0.209	-0.024
-228.742	153.564	-0.122	0.168
-227.727	1.399	0.015	0.011
-226.713	-200.000	0.051	-0.383
-225.698	-200.000	0.014	-0.322
-224.684	-106.142	0.089	-0.020
-223.669	51.763	0.162	0.154
-222.655	-194.323	0.274	0.002
-221.640	115.391	-0.031	-0.037
-220.625	772.209	-0.145	-0.395
-219.611	133.354	0.136	0.176
-218.596	668.354	-0.104	0.269
-217.582	35.102	0.104	0.091
-216.567	-99.645	-0.108	-0.027
-215.552	-25.917	0.182	0.107
-214.538	-200.000	-0.017	0.156
-213.523	430.625	-0.128	0.277
-212.509	44.894	0.238	0.219
-211.494	-121.924	0.141	0.023
-210.479	63.387	0.089	-0.089
-209.465	-200.000	-0.009	0.302
-208.450	-200.000	0.008	0.201
-207.436	800.000	-0.057	0.240
-206.421	-134.758	0.330	-0.040
-205.406	-121.077	-0.299	-0.050
-204.392	384.314	0.096	0.197
-203.377	-117.524	0.223	-0.040
-202.363	-95.623	-0.223	-0.060
-201.348	37.675	-0.156	0.138
-200.333	110.050	-0.101	0.121
-199.319	564.764	-0.087	0.210
-198.304	-18.150	-0.107	-0.067
-197.290	-158.079	-0.223	-0.013
-196.275	-122.353	0.087	-0.014
-195.260	800.000	-0.118	-0.382
-194.246	-143.621	-0.084	-0.008
-193.231	-200.000	-0.030	0.202
-192.217	518.178	0.017	0.039
-191.202	-31.138	0.200	0.113
-190.187	54.374	-0.174	-0.167
-189.173	273.140	0.137	0.242
-188.158	-134.483	-0.171	-0.021
-187.144	580.901	0.069	0.170
-186.129	-200.000	0.001	0.023
-185.114	800.000	-0.069	-0.253
-184.100	-199.641	-0.171	0.001
-183.085	-156.722	-0.255	-0.016
-182.071	139.965	-0.262	0.345
-181.056	-200.000	0.002	0.123
-180.042	45.492	0.155	0.143
-179.027	-109.452	0.401	-0.085
-178.012	120.012	0.233	-0.289
-176.998	251.311	-0.166	0.281
-175.983	-49.387	-0.376	-0.179
-174.969	800.000	0.027	0.110
-173.954	-60.588	-0.289	0.123
-172.939	213.651	0.189	-0.298
-171.925	-200.000	0.007	0.122
-170.910	301.828	-0.002	-0.004
-169.896	800.000	-0.149	-0.416
-168.881	340.543	0.050	0.098
-167.866	-35.167	-0.256	0.139
-166.852	-123.301	0.215	-0.034
-165.837	-200.000	0.013	-0.106
-164.823	-32.977	-0.179	-0.099
-163.808	800.000	-0.157	-0.519
-162.793	-143.540	0.117	-0.011
-161.779	65.888	0.197	-0.199
-160.764	-133.821	0.087	0.011
-159.750	-145.154	-0.148	-0.013
-158.735	-149.464	0.063	0.005
-157.720	17.905	-0.302	0.240
-156.706	-164.769	-0.324	-0.015
-155.691	47.294	0.131	-0.121
-154.677	-37.274	-0.301	-0.160
-153.662	-200.000	-0.026	-0.195
-152.647	126.107	0.158	0.200
-151.633	96.701	-0.068	0.078
-150.618	10.414	0.383	0.291
-149.604	800.000	0.032	-0.126
-148.589	48.516	0.162	0.152
-147.574	-200.000	-0.008	0.240
-146.560	102.542	0.139	-0.162
-145.545	-75.664	0.229	0.081
-144.531	146.461	0.185	0.247
-143.516	-39.940	-0.133	-0.069
-142.502	14.367	0.261	0.203
-141.487	662.713	-0.082	0.210
-140.472	-23.150	-0.017	0.010
-139.458	800.000	-0.035	-0.113
-138.443	-200.000	-0.011	0.086
-137.429	-200.000	0.057	0.264
-136.414	-200.000	0.055	0.515
-135.399	13.432	0.034	-0.026
-134.385	-90.464	-0.310	0.089
-133.370	134.300	0.182	-0.235
-132.356	-14.514	0.213	-0.137
-131.341	800.000	-0.085	0.258
-130.326	322.484	0.199	0.378
-129.312	365.179	0.085	0.170
-128.297	800.000	-0.109	-0.305
-127.283	-200.000	0.037	0.221
-126.268	-53.304	0.281	0.128
-125.253	-155.888	-0.051	0.003
-124.239	-152.999	-0.342	-0.024
-123.224	800.000	-0.077	0.245
-122.210	800.000	0.033	-0.132
