DTS Sentinel unit serial number:	SN413079Multiplexer serial number:	ORYXHardware model number:	OX4-SRSoftware version number:	ORYX F/W v4.00 Oryx Data Collector v3.7.2.0data status	okinstallation	princeton_trtdifferential loss correction	single-endedforward channel	channel 4reverse channel	N/Adate	2019/09/16time	05:05:35forward acquisition time	60.00reverse acquisition time	0.00gamma	496.2192k internal	0.2321k external	0.2321temperature offset calibration	0.9981default loss term (dB/km)	0.3790temperature slope calibration	1.0000multiplexer offset coefficient	1.0000multiplexer slope coefficient	1.0000fibre end	0.00T internal ref (°C)	27.19T ext. ref 1 (°C)	11.02T ext. ref 2 (°C)	22.08length (m)	temperature (°C)	Stokes	anti-Stokes-747.200	0.539	0.038	-0.028
-746.185	595.181	-0.068	0.171
-745.171	-34.036	-0.081	0.045
-744.156	-26.415	0.393	0.233
-743.142	-27.187	0.154	-0.090
-742.127	-200.000	-0.009	-0.116
-741.112	-147.103	0.077	-0.007
-740.098	-108.010	-0.359	0.079
-739.083	20.659	-0.035	-0.029
-738.069	-36.356	-0.323	0.176
-737.054	-200.000	0.031	0.284
-736.039	-137.290	-0.354	0.041
-735.025	650.408	-0.080	-0.207
-734.010	-119.338	-0.116	0.020
-732.996	800.000	-0.058	-0.232
-731.981	-200.000	0.007	-0.306
-730.966	-118.638	-0.510	-0.091
-729.952	-137.970	-0.426	-0.048
-728.937	162.700	-0.140	0.198
-727.923	315.816	-0.086	0.164
-726.908	800.000	-0.058	-0.198
-725.894	-200.000	-0.029	-0.148
-724.879	-125.566	-0.218	0.033
-723.864	-63.334	-0.094	0.039
-722.850	-131.006	0.408	0.055
-721.835	-140.860	-0.131	0.014
-720.821	800.000	-0.083	-0.341
-719.806	70.005	-0.060	-0.063
-718.791	14.027	0.142	-0.111
-717.777	-126.063	-0.174	0.026
-716.762	373.475	0.042	-0.087
-715.748	-118.064	0.190	-0.034
-714.733	-101.978	-0.078	0.019
-713.718	18.242	-0.308	-0.248
-712.704	71.161	0.213	0.223
-711.689	277.706	-0.084	0.152
-710.675	-200.000	-0.069	-0.394
-709.660	180.412	-0.065	-0.096
-708.645	265.958	0.019	-0.034
-707.631	-59.355	-0.128	-0.056
-706.616	-77.481	-0.221	-0.077
-705.602	800.000	0.068	0.192
-704.587	-53.429	-0.107	-0.050
-703.572	-87.155	0.192	0.059
-702.558	-118.609	-0.171	-0.031
-701.543	-113.128	-0.299	-0.060
-700.529	358.714	-0.091	0.184
-699.514	755.105	-0.119	0.324
-698.499	-152.427	0.176	0.013
-697.485	32.260	0.073	0.064
-696.470	800.000	-0.068	-0.223
-695.456	800.000	-0.104	0.327
-694.441	-19.524	0.255	0.159
-693.426	120.485	0.088	-0.111
-692.412	-2.508	-0.122	0.086
-691.397	-115.029	0.225	-0.043
-690.383	-200.000	0.017	-0.204
-689.368	-111.775	-0.126	0.026
-688.354	66.696	-0.301	-0.309
-687.339	800.000	0.034	-0.131
-686.324	29.392	0.123	0.106
-685.310	52.743	-0.155	0.149
-684.295	665.243	-0.067	-0.174
-683.281	-149.288	-0.236	0.019
-682.266	6.384	0.216	0.162
-681.251	-103.474	0.138	0.033
-680.237	-145.426	-0.098	0.009
-679.222	-150.258	-0.272	0.021
-678.208	-98.464	0.092	0.024
-677.193	800.000	-0.082	-0.350
-676.178	697.151	0.118	0.314
-675.164	-200.000	-0.064	-0.337
-674.149	70.024	-0.106	0.111
-673.135	-77.000	-0.134	0.047
-672.120	-97.067	0.245	0.065
-671.105	-200.000	0.009	-0.042
-670.091	-128.963	0.218	-0.031
-669.076	90.670	-0.185	-0.209
-668.062	-200.000	-0.021	-0.329
-667.047	-172.809	0.265	0.008
-666.032	-73.452	-0.419	-0.154
-665.018	-73.740	-0.057	0.021
-664.003	-57.751	-0.190	0.084
-662.989	1.076	-0.153	0.110
-661.974	-62.910	-0.292	-0.122
-660.959	-109.101	-0.249	-0.053
-659.945	266.774	-0.101	0.177
-658.930	-58.065	-0.051	0.022
-657.916	84.489	0.099	-0.109
-656.901	64.625	0.281	-0.286
-655.886	-178.235	-0.356	0.008
-654.872	183.090	0.149	-0.222
-653.857	-91.420	0.249	-0.072
-652.843	555.714	-0.060	-0.145
-651.828	-99.065	0.061	-0.016
-650.814	125.051	0.270	0.343
-649.799	-68.774	-0.123	-0.048
-648.784	-1.650	-0.202	-0.144
-647.770	-136.673	-0.088	-0.010
-646.755	-200.000	0.011	0.077
-645.741	-200.000	0.021	0.132
-644.726	800.000	-0.030	0.109
-643.711	-107.641	0.405	-0.089
-642.697	128.147	0.022	-0.028
-641.682	-149.309	-0.196	0.016
-640.668	-129.866	-0.105	0.015
-639.653	97.052	-0.081	-0.093
-638.638	-200.000	0.004	0.080
-637.624	95.480	-0.116	0.133
-636.609	-119.621	-0.062	0.011
-635.595	103.794	0.212	-0.250
-634.580	76.182	0.161	-0.171
-633.565	-200.000	-0.016	-0.160
-632.551	593.726	0.201	-0.499
-631.536	46.775	-0.248	0.232
-630.522	217.670	0.102	0.163
-629.507	-3.763	-0.113	0.079
-628.492	-131.538	-0.163	0.022
-627.478	-200.000	-0.046	0.329
-626.463	253.002	-0.104	0.178
-625.449	286.800	-0.168	0.305
-624.434	-200.000	0.004	-0.118
-623.419	-200.000	-0.038	0.000
-622.405	-200.000	-0.008	0.101
-621.390	-161.025	-0.183	-0.010
-620.376	148.563	-0.131	-0.178
-619.361	-56.274	0.129	-0.058
-618.346	93.626	0.098	0.112
-617.332	84.933	-0.127	0.140
-616.317	-44.818	-0.216	0.108
-615.303	4.669	0.375	0.277
-614.288	-200.000	0.012	-0.360
-613.273	13.795	-0.135	0.106
-612.259	377.765	0.050	-0.102
-611.244	-119.894	-0.053	-0.009
-610.230	800.000	-0.067	-0.231
-609.215	-108.373	-0.152	0.033
-608.201	616.354	0.083	-0.209
-607.186	-169.706	-0.085	0.003
-606.171	-113.170	0.055	-0.011
-605.157	-200.000	0.018	-0.177
-604.142	654.597	-0.048	-0.123
-603.128	263.659	0.116	-0.203
-602.113	-200.000	0.003	-0.260
-601.098	-70.777	-0.128	-0.049
-600.084	-35.743	0.074	-0.040
-599.069	51.586	-0.043	-0.041
-598.055	-7.141	-0.206	-0.141
-597.040	-76.766	0.359	0.126
-596.025	139.966	0.036	0.047
-595.011	591.508	0.091	-0.226
-593.996	800.000	-0.077	0.249
-592.982	-85.982	-0.207	-0.064
-591.967	800.000	0.082	-0.300
-590.952	39.028	-0.249	-0.223
-589.938	-99.490	-0.466	0.118
-588.923	800.000	-0.044	0.162
-587.909	41.295	0.170	0.154
-586.894	143.616	-0.076	0.102
-585.879	-200.000	0.025	0.129
-584.865	209.101	0.040	-0.063
-583.850	-200.000	-0.015	0.174
-582.836	-200.000	-0.018	0.173
-581.821	273.385	0.102	0.180
-580.806	-57.807	0.095	-0.042
-579.792	3.709	-0.103	0.075
-578.777	-200.000	-0.023	-0.104
-577.763	751.484	-0.128	-0.348
-576.748	-108.964	0.070	-0.015
-575.733	477.683	-0.036	-0.081
-574.719	294.466	0.056	0.102
-573.704	-200.000	0.011	-0.072
-572.690	-81.670	0.383	-0.126
-571.675	20.605	-0.070	0.057
-570.661	-200.000	0.012	0.057
-569.646	243.312	0.166	-0.279
-568.631	-41.207	0.247	-0.128
-567.617	411.153	-0.104	-0.222
-566.602	-48.946	-0.217	-0.104
-565.588	-103.812	0.191	-0.045
-564.573	-200.000	-0.072	0.387
-563.558	-31.646	-0.098	-0.055
-562.544	-176.059	-0.140	-0.004
-561.529	6.896	-0.107	0.080
-560.515	666.363	-0.015	0.038
-559.500	348.417	0.129	-0.254
-558.485	-200.000	0.018	0.239
-557.471	14.423	-0.310	0.243
-556.456	-68.916	0.079	-0.031
-555.442	-98.096	0.258	0.067
-554.427	800.000	-0.069	0.204
-553.412	373.584	0.108	0.221
-552.398	250.054	0.073	0.125
-551.383	336.285	0.124	-0.242
-550.369	-22.265	-0.553	0.336
-549.354	-200.000	-0.053	0.279
-548.339	-113.893	-0.142	-0.028
-547.325	127.369	-0.126	-0.160
-546.310	349.428	0.111	-0.220
-545.296	-85.363	-0.035	0.011
-544.281	408.914	0.088	-0.188
-543.266	47.655	0.113	-0.106
-542.252	-200.000	-0.040	-0.179
-541.237	-64.508	0.099	-0.040
-540.223	72.252	-0.331	-0.345
-539.208	123.371	0.048	-0.061
-538.193	-0.278	0.061	0.043
-537.179	800.000	0.128	-0.383
-536.164	11.921	-0.207	-0.159
-535.150	4.755	0.160	-0.118
-534.135	-143.728	-0.309	0.029
-533.121	-12.682	0.023	0.015
-532.106	76.484	0.143	0.151
-531.091	-200.000	-0.016	-0.105
-530.077	217.640	0.117	0.187
-529.062	-97.746	-0.282	0.073
-528.048	-200.000	0.013	-0.284
-527.033	-124.585	-0.277	0.043
-526.018	800.000	-0.031	-0.087
-525.004	562.204	-0.048	-0.117
-523.989	87.150	0.298	-0.330
-522.975	481.484	-0.087	0.197
-521.960	-99.313	-0.232	0.059
-520.945	-118.370	-0.067	-0.012
-519.931	229.344	0.040	-0.065
-518.916	200.973	0.168	-0.258
-517.902	-200.000	0.026	0.297
-516.887	-24.745	-0.085	-0.050
-515.872	-116.765	-0.162	-0.030
-514.858	269.132	0.022	-0.039
-513.843	259.867	-0.199	0.345
-512.829	138.121	-0.155	0.203
-511.814	800.000	-0.042	-0.161
-510.799	441.955	-0.063	0.137
-509.785	-32.680	0.238	-0.133
-508.770	800.000	-0.075	-0.312
-507.756	557.688	-0.096	0.232
-506.741	-117.056	-0.313	0.057
-505.726	-21.799	0.102	0.062
-504.712	-135.211	-0.195	-0.023
-503.697	353.666	0.047	0.094
-502.683	40.773	0.165	-0.149
-501.668	800.000	0.058	0.161
-500.653	660.301	-0.150	0.388
-499.639	-20.794	-0.162	-0.099
-498.624	-200.000	0.014	-0.313
-497.610	-134.805	0.255	-0.031
-496.595	128.930	-0.103	0.131
-495.581	-104.282	-0.301	0.070
-494.566	-9.902	-0.267	0.178
-493.551	-200.000	-0.012	-0.098
-492.537	800.000	0.017	0.063
-491.522	-137.174	0.119	0.014
-490.508	-68.972	0.111	0.043
-489.493	-200.000	-0.037	-0.556
-488.478	800.000	-0.048	0.158
-487.464	23.768	-0.082	0.068
-486.449	75.491	-0.129	-0.137
-485.435	800.000	-0.076	0.288
-484.420	161.812	0.164	-0.230
-483.405	800.000	-0.192	-0.675
-482.391	-33.816	-0.208	-0.115
-481.376	111.591	0.074	0.089
-480.362	800.000	0.038	-0.122
-479.347	-200.000	-0.014	0.089
-478.332	-178.671	-0.400	-0.009
-477.318	205.681	0.198	-0.308
-476.303	-57.296	0.167	-0.073
-475.289	-73.134	0.150	0.055
-474.274	-200.000	-0.001	0.351
-473.259	-200.000	0.029	0.178
-472.245	-193.234	-0.167	-0.001
-471.230	-86.081	-0.361	0.111
-470.216	758.214	0.062	-0.167
-469.201	46.369	0.220	0.204
-468.186	-200.000	0.005	0.217
-467.172	342.115	-0.114	0.224
-466.157	62.870	-0.081	0.081
-465.143	86.650	-0.106	0.117
-464.128	220.594	0.342	-0.548
-463.113	99.873	0.081	0.093
-462.099	-169.793	-0.065	-0.002
-461.084	792.133	0.043	0.118
-460.070	-37.008	0.135	-0.072
-459.055	-100.784	0.022	0.005
-458.040	-56.004	-0.233	0.104
-457.026	-129.184	-0.067	0.009
-456.011	230.640	-0.116	0.190
-454.997	40.982	0.220	-0.198
-453.982	800.000	-0.067	-0.275
-452.968	356.172	0.071	-0.140
-451.953	52.543	0.243	0.231
-450.938	115.525	0.227	-0.278
-449.924	664.014	0.107	-0.277
-448.909	800.000	-0.086	-0.310
-447.895	27.642	0.113	-0.095
-446.880	11.904	0.230	-0.176
-445.865	-142.447	-0.108	-0.011
-444.851	-114.632	-0.400	-0.077
-443.836	183.932	0.325	-0.481
-442.822	115.572	0.197	0.241
-441.807	-10.444	0.331	0.219
-440.792	-16.482	-0.234	-0.148
-439.778	800.000	-0.020	0.080
-438.763	-151.062	-0.233	0.017
-437.749	-154.459	0.421	-0.028
-436.734	37.838	0.226	0.201
-435.719	25.156	-0.143	0.118
-434.705	-23.051	0.289	-0.174
-433.690	14.809	-0.226	0.177
-432.676	-200.000	-0.018	0.183
-431.661	-65.876	0.266	0.106
-430.646	-50.716	-0.345	-0.162
-429.632	566.404	-0.060	0.146
-428.617	-200.000	-0.096	-0.420
-427.603	90.877	-0.115	-0.128
-426.588	800.000	0.110	-0.329
-425.573	800.000	-0.027	-0.111
-424.559	-114.275	0.072	0.014
-423.544	214.628	-0.136	0.216
-422.530	428.162	0.172	0.371
-421.515	298.099	0.105	0.193
-420.500	-110.195	-0.272	-0.057
-419.486	-190.668	-0.265	0.003
-418.471	40.866	0.027	-0.024
-417.457	-137.801	0.086	0.010
-416.442	243.702	0.193	0.323
-415.428	-200.000	0.022	-0.148
-414.413	307.795	-0.108	-0.200
-413.398	-73.606	-0.293	0.106
-412.384	800.000	-0.053	0.162
-411.369	800.000	0.005	0.013
-410.355	800.000	-0.070	0.205
-409.340	800.000	-0.027	-0.102
-408.325	439.576	0.130	-0.283
-407.311	-136.908	0.220	-0.025
-406.296	-195.567	0.205	-0.001
-405.282	151.172	0.132	0.180
-404.267	-129.372	0.198	-0.027
-403.252	-65.022	0.025	-0.010
-402.238	-200.000	-0.047	0.306
-401.223	-200.000	-0.033	0.255
-400.209	-200.000	-0.012	-0.282
-399.194	-107.139	0.274	0.060
-398.179	178.964	-0.157	0.229
-397.165	-121.638	-0.156	0.026
-396.150	381.231	-0.019	-0.039
-395.136	260.848	-0.069	0.119
-394.121	800.000	0.053	0.180
-393.106	-16.753	0.259	-0.163
-392.092	-58.798	-0.269	0.116
-391.077	-63.750	0.092	0.038
-390.063	-200.000	-0.047	-0.206
-389.048	-173.277	0.327	0.010
-388.033	-101.936	0.217	0.052
-387.019	-66.331	-0.111	0.044
-386.004	488.656	0.025	-0.058
-384.990	800.000	-0.057	0.162
-383.975	-41.364	0.183	0.094
-382.960	-70.196	-0.177	0.067
-381.946	-143.427	0.178	-0.017
-380.931	39.130	0.128	-0.114
-379.917	-32.887	-0.217	0.120
-378.902	-130.363	0.287	-0.039
-377.888	718.365	0.197	-0.520
-376.873	-11.526	-0.307	-0.201
-375.858	237.180	-0.163	-0.269
-374.844	555.042	-0.046	0.111
-373.829	-1.104	-0.089	-0.063
-372.815	-2.812	-0.087	-0.060
-371.800	308.978	0.095	-0.176
-370.785	186.261	-0.056	-0.083
-369.771	-101.721	0.136	-0.033
-368.756	312.957	0.107	0.201
-367.742	-200.000	-0.018	0.209
-366.727	125.679	0.034	-0.043
-365.712	45.469	0.147	-0.135
-364.698	-200.000	0.010	-0.189
-363.683	191.614	0.199	0.299
-362.669	-73.082	-0.311	-0.114
-361.654	128.423	0.157	0.199
-360.639	-104.649	-0.132	-0.030
-359.625	-91.234	0.055	0.016
-358.610	-124.518	0.280	-0.043
-357.596	-81.323	-0.414	0.136
-356.581	588.428	-0.161	0.395
-355.566	60.128	-0.288	-0.284
-354.552	131.970	-0.173	-0.221
-353.537	-34.966	-0.098	0.053
-352.523	-200.000	0.019	0.419
-351.508	-200.000	0.034	0.159
-350.493	-200.000	0.018	-0.103
-349.479	15.711	0.246	0.193
-348.464	270.130	-0.169	-0.296
-347.450	149.758	0.068	0.091
-346.435	-46.155	0.090	-0.044
-345.420	-1.048	0.280	-0.197
-344.406	-47.781	-0.225	-0.108
-343.391	-80.066	-0.172	-0.057
-342.377	-143.793	0.281	0.026
-341.362	-200.000	-0.003	-0.103
-340.348	-26.707	-0.120	0.070
-339.333	800.000	-0.143	-0.474
-338.318	-15.515	-0.313	0.199
-337.304	-14.486	0.201	-0.129
-336.289	800.000	-0.029	-0.104
-335.275	9.718	-0.183	0.138
-334.260	800.000	-0.035	0.098
-333.245	-41.911	0.086	-0.044
-332.231	44.080	0.091	-0.083
-331.216	27.512	0.101	0.084
-330.202	-26.435	0.460	0.268
-329.187	-149.691	0.041	0.003
-328.172	-200.000	-0.003	-0.210
-327.158	800.000	0.086	-0.298
-326.143	1.790	-0.169	-0.121
-325.129	-200.000	0.015	0.074
-324.114	-128.453	-0.195	-0.028
-323.099	-127.375	0.234	0.034
-322.085	-78.558	0.063	-0.021
-321.070	-10.440	-0.185	0.122
-320.056	-200.000	-0.038	0.177
-319.041	-200.000	-0.001	0.644
-318.026	632.946	-0.174	0.439
-317.012	-163.963	-0.372	-0.017
-315.997	39.533	0.076	0.068
-314.983	-16.252	-0.295	0.186
-313.968	-200.000	0.005	0.119
-312.953	253.848	0.129	0.218
-311.939	222.975	0.143	0.229
-310.924	198.505	0.096	-0.146
-309.910	800.000	0.065	0.239
-308.895	114.909	-0.182	0.221
-307.880	-145.606	-0.123	0.011
-306.866	800.000	0.068	-0.266
-305.851	276.369	-0.014	-0.025
-304.837	15.053	-0.132	0.103
-303.822	800.000	0.071	-0.226
-302.807	800.000	0.029	0.123
-301.793	141.440	-0.079	0.103
-300.778	-200.000	0.017	0.087
-299.764	26.991	-0.074	0.062
-298.749	800.000	-0.005	-0.023
-297.735	800.000	0.109	0.347
-296.720	-103.493	0.177	-0.041
-295.705	57.248	0.211	0.205
-294.691	179.339	-0.111	-0.162
-293.676	152.708	-0.112	-0.152
-292.662	151.907	0.089	0.121
-291.647	420.548	0.107	0.227
-290.632	-200.000	-0.001	0.039
-289.618	-77.512	0.050	0.017
-288.603	-56.805	-0.342	-0.150
-287.589	-145.620	0.223	-0.020
-286.574	38.664	-0.046	0.040
-285.559	33.678	0.126	0.109
-284.545	-7.802	0.074	-0.049
-283.530	-145.373	-0.104	0.009
-282.516	184.810	0.112	-0.164
-281.501	-53.793	-0.105	-0.048
-280.486	-85.101	0.332	0.103
-279.472	67.732	0.249	0.252
-278.457	-66.309	0.262	-0.103
-277.443	-52.135	-0.270	0.124
-276.428	94.940	0.197	-0.223
-275.413	227.195	0.200	0.323
-274.399	34.868	0.081	-0.070
-273.384	100.459	0.276	0.318
-272.370	-111.309	0.245	-0.050
-271.355	45.363	0.084	0.077
-270.340	-200.000	-0.040	0.203
-269.326	82.702	-0.126	-0.135
-268.311	48.751	0.209	0.194
-267.297	-9.316	-0.243	0.161
-266.282	-200.000	-0.016	0.228
-265.267	86.601	-0.211	-0.231
-264.253	-0.608	-0.272	0.191
-263.238	229.308	0.040	-0.065
-262.224	435.569	0.037	0.079
-261.209	-33.924	0.149	-0.082
-260.195	-200.000	-0.031	0.177
-259.180	-138.248	-0.211	0.023
-258.165	-72.224	0.219	-0.081
-257.151	-200.000	0.018	0.108
-256.136	-5.274	0.076	0.052
-255.122	154.403	-0.042	0.058
-254.107	-200.000	-0.032	0.164
-253.092	-200.000	-0.026	0.266
-252.078	-159.664	0.071	-0.004
-251.063	291.281	-0.070	0.126
-250.049	-200.000	-0.007	0.080
-249.034	14.550	-0.199	-0.154
-248.019	-51.769	0.257	-0.119
-247.005	-200.000	-0.020	-0.226
-245.990	271.462	-0.029	0.050
-244.976	328.999	0.019	-0.037
-243.961	-88.221	-0.382	-0.113
-242.946	348.256	0.068	0.134
-241.932	150.197	0.170	-0.229
-240.917	-83.625	0.206	-0.065
-239.903	-37.711	0.207	-0.109
-238.888	515.835	0.150	-0.348
-237.873	-74.554	0.165	-0.059
-236.859	6.561	0.214	0.158
-235.844	34.611	-0.037	0.032
-234.830	800.000	-0.009	0.028
-233.815	180.099	-0.173	-0.252
-232.800	-63.004	0.344	0.141
-231.786	-21.668	-0.255	-0.154
-230.771	-129.851	0.234	0.032
-229.757	-200.000	0.039	0.226
-228.742	-200.000	-0.006	0.124
-227.727	-126.332	0.231	-0.034
-226.713	22.583	-0.091	0.073
-225.698	148.418	0.303	-0.406
-224.684	99.600	-0.178	-0.205
-223.669	-40.271	-0.171	-0.088
-222.655	-65.793	0.308	-0.122
-221.640	-200.000	0.032	-0.174
-220.625	-111.384	0.160	0.032
-219.611	259.898	0.022	-0.038
-218.596	84.337	0.032	0.035
-217.582	11.245	0.051	-0.038
-216.567	111.048	0.093	0.111
-215.552	800.000	0.054	0.225
-214.538	800.000	0.106	-0.435
-213.523	800.000	-0.075	-0.323
-212.509	-164.048	-0.265	0.012
-211.494	-81.225	0.359	0.117
-210.479	205.066	-0.141	0.217
-209.465	291.843	-0.195	-0.351
-208.450	-21.352	0.144	0.087
-207.436	397.667	-0.089	0.184
-206.421	339.605	-0.100	-0.194
-205.406	96.636	0.098	-0.111
-204.392	146.775	0.050	0.067
-203.377	-158.711	-0.329	-0.019
-202.363	-200.000	-0.007	-0.045
-201.348	-72.379	0.137	0.050
-200.333	-159.325	-0.142	0.008
-199.319	385.047	0.157	0.320
-198.304	-56.033	-0.282	0.124
-197.290	-24.998	-0.209	0.123
-196.275	-58.863	0.282	-0.120
-195.260	42.474	0.139	0.125
-194.246	-114.753	-0.221	0.042
-193.231	-200.000	0.015	-0.226
-192.217	-101.409	0.329	0.079
-191.202	-46.446	0.108	0.053
-190.187	70.420	-0.193	-0.197
-189.173	800.000	0.060	0.217
-188.158	396.352	0.022	-0.045
-187.144	-164.710	-0.113	0.005
-186.129	-139.639	0.221	0.023
-185.114	236.006	0.068	0.111
-184.100	-200.000	0.020	-0.104
-183.085	35.023	-0.166	0.144
-182.071	82.888	0.136	0.146
-181.056	13.186	0.094	0.072
-180.042	800.000	0.131	-0.488
-179.027	-32.481	0.064	0.035
-178.012	-200.000	0.069	0.320
-176.998	91.265	-0.063	-0.070
-175.983	127.536	-0.114	-0.143
-174.969	3.182	-0.181	0.130
-173.954	393.084	-0.125	0.256
-172.939	-200.000	-0.020	-0.372
-171.925	180.974	0.141	0.205
-170.910	-35.698	-0.343	-0.184
-169.896	110.221	0.101	-0.120
-168.881	-43.326	-0.091	0.045
-167.866	-15.515	0.194	0.122
-166.852	-118.347	0.323	0.057
-165.837	-200.000	0.002	-0.237
-164.823	94.332	-0.152	-0.170
-163.808	-50.191	0.177	-0.083
-162.793	-141.807	0.309	-0.031
-161.779	66.986	-0.140	-0.141
-160.764	435.036	-0.091	0.195
-159.750	83.497	0.151	0.162
-158.735	-200.000	-0.013	0.348
-157.720	-200.000	-0.036	-0.170
-156.706	-142.837	-0.196	-0.019
-155.691	-84.481	-0.042	-0.013
-154.677	-99.632	-0.043	0.011
-153.662	147.928	0.072	0.096
-152.647	232.732	-0.034	-0.055
-151.633	-84.605	-0.200	-0.062
-150.618	800.000	-0.057	-0.164
-149.604	-175.786	-0.246	-0.007
-148.589	373.141	0.200	-0.401
-147.574	-17.878	0.088	0.054
-146.560	-57.663	0.032	-0.014
-145.545	-9.966	-0.051	0.033
-144.531	77.463	-0.082	-0.086
-143.516	306.191	-0.157	-0.288
-142.502	141.120	0.098	0.128
-141.487	10.855	0.112	-0.084
-140.472	-200.000	0.065	0.301
-139.458	-54.964	0.095	-0.042
-138.443	279.681	0.128	0.225
-137.429	5.353	-0.219	-0.159
-136.414	109.513	0.077	-0.091
-135.399	800.000	0.072	-0.205
-134.385	-4.067	0.384	0.262
-133.370	45.475	-0.166	-0.152
-132.356	41.718	-0.073	0.065
-131.341	521.061	-0.046	-0.106
-130.326	-200.000	0.028	0.161
-129.312	261.977	0.087	0.148
-128.297	-105.962	-0.213	0.047
-127.283	-48.314	0.386	0.184
-126.268	48.692	-0.344	0.319
-125.253	800.000	-0.057	-0.158
-124.239	-200.000	0.025	-0.256
-123.224	-200.000	-0.033	0.159
-122.210	-86.867	-0.289	0.087
-121.195	92.511	0.102	-0.114
