DTS Sentinel unit serial number:	SN413079Multiplexer serial number:	ORYXHardware model number:	OX4-SRSoftware version number:	ORYX F/W v4.00 Oryx Data Collector v3.7.2.0data status	okinstallation	princeton_trtdifferential loss correction	single-endedforward channel	channel 4reverse channel	N/Adate	2019/09/14time	13:29:35forward acquisition time	60.00reverse acquisition time	0.00gamma	496.2192k internal	0.2292k external	0.2292temperature offset calibration	1.0155default loss term (dB/km)	0.3790temperature slope calibration	1.0000multiplexer offset coefficient	1.0000multiplexer slope coefficient	1.0000fibre end	0.00T internal ref (°C)	37.94T ext. ref 1 (°C)	4.92T ext. ref 2 (°C)	33.38length (m)	temperature (°C)	Stokes	anti-Stokes-747.200	-200.000	-0.002	0.137
-746.185	90.812	0.287	0.329
-745.171	109.748	-0.336	0.413
-744.156	137.683	0.130	0.174
-743.142	-200.000	0.031	-0.315
-742.127	-200.000	0.003	-0.079
-741.112	-62.259	0.122	0.052
-740.098	-115.095	0.085	-0.017
-739.083	-51.741	-0.110	0.052
-738.069	171.070	0.125	0.184
-737.054	79.527	-0.127	0.139
-736.039	-151.415	-0.319	0.024
-735.025	800.000	0.131	0.439
-734.010	170.925	-0.135	-0.199
-732.996	800.000	-0.034	-0.102
-731.981	-98.292	0.060	0.016
-730.966	136.605	0.242	0.323
-729.952	-92.346	-0.047	-0.013
-728.937	158.484	-0.215	0.306
-727.923	-65.630	0.138	0.057
-726.908	-101.757	-0.197	0.049
-725.894	74.023	0.106	0.114
-724.879	129.204	-0.191	0.250
-723.864	-200.000	-0.036	-0.243
-722.850	206.079	-0.165	0.263
-721.835	-200.000	-0.001	0.082
-720.821	776.604	-0.108	0.301
-719.806	-139.751	-0.361	-0.039
-718.791	269.480	0.100	-0.180
-717.777	629.177	0.153	-0.395
-716.762	800.000	0.043	0.170
-715.748	-108.115	0.193	-0.043
-714.733	-34.570	-0.361	-0.202
-713.718	93.684	0.194	-0.225
-712.704	-200.000	-0.008	-0.346
-711.689	-71.489	-0.095	0.036
-710.675	-200.000	-0.007	-0.349
-709.660	47.577	-0.135	-0.129
-708.645	-200.000	-0.024	-0.236
-707.631	20.772	-0.208	-0.172
-706.616	-20.241	-0.329	-0.207
-705.602	800.000	-0.049	0.212
-704.587	659.486	-0.039	0.103
-703.572	-127.568	-0.133	-0.020
-702.558	-200.000	-0.039	-0.294
-701.543	-176.924	0.210	-0.005
-700.529	-64.734	0.232	0.096
-699.514	-28.605	0.107	0.063
-698.499	54.903	0.120	0.118
-697.485	-99.195	-0.188	0.049
-696.470	147.963	0.144	-0.198
-695.456	-118.911	-0.133	0.024
-694.441	-169.881	0.182	-0.007
-693.426	800.000	0.046	-0.164
-692.412	185.086	-0.091	0.138
-691.397	48.896	0.243	0.233
-690.383	-36.016	-0.345	-0.191
-689.368	67.956	-0.121	-0.126
-688.354	506.984	0.127	0.300
-687.339	-57.402	-0.193	0.087
-686.324	-80.496	-0.042	-0.014
-685.310	-200.000	0.023	0.282
-684.295	-26.068	0.099	0.059
-683.281	115.089	0.148	-0.184
-682.266	800.000	-0.013	0.036
-681.251	-28.000	0.217	0.128
-680.237	-4.086	-0.126	-0.089
-679.222	-101.954	0.193	-0.048
-678.208	12.923	0.220	0.173
-677.193	-111.576	0.169	-0.035
-676.178	46.260	-0.151	-0.143
-675.164	1.200	-0.111	0.081
-674.149	34.692	-0.107	-0.096
-673.135	434.670	0.023	0.050
-672.120	1.558	0.205	0.151
-671.105	-45.668	-0.077	0.039
-670.091	-49.370	0.171	0.083
-669.076	-200.000	-0.032	0.186
-668.062	-200.000	-0.017	-0.153
-667.047	-200.000	0.053	-0.294
-666.032	-93.254	0.156	0.044
-665.018	-180.800	-0.261	0.005
-664.003	800.000	0.062	-0.181
-662.989	156.295	-0.126	0.178
-661.974	60.061	0.230	0.232
-660.959	494.925	0.107	-0.251
-659.945	-200.000	0.026	0.191
-658.930	-200.000	0.001	-0.228
-657.916	-200.000	0.023	-0.383
-656.901	309.816	-0.115	-0.220
-655.886	-28.201	-0.248	-0.146
-654.872	198.846	-0.095	0.148
-653.857	614.630	0.109	-0.279
-652.843	133.867	-0.238	-0.314
-651.828	-193.773	0.445	0.004
-650.814	-14.646	-0.227	-0.149
-649.799	-200.000	-0.054	0.281
-648.784	-98.921	-0.272	-0.070
-647.770	-168.162	0.307	0.012
-646.755	-114.003	0.353	0.070
-645.741	130.148	-0.229	-0.299
-644.726	-139.579	-0.066	0.007
-643.711	-200.000	-0.022	-0.233
-642.697	-41.594	0.194	0.102
-641.682	-17.684	-0.161	0.103
-640.668	-85.345	0.099	0.031
-639.653	115.243	0.209	0.261
-638.638	58.316	0.193	0.193
-637.624	502.026	0.061	-0.143
-636.609	139.218	0.076	0.102
-635.595	368.887	-0.073	0.151
-634.580	-200.000	0.044	-0.248
-633.565	77.400	-0.172	-0.187
-632.551	-86.474	-0.098	0.031
-631.536	239.658	0.051	-0.087
-630.522	-29.784	0.044	-0.025
-629.507	-153.496	-0.185	-0.013
-628.492	-84.169	0.148	0.048
-627.478	800.000	0.105	-0.352
-626.463	-200.000	-0.008	-0.285
-625.449	-6.084	-0.256	-0.178
-624.434	190.269	-0.175	-0.268
-623.419	246.911	-0.143	-0.246
-622.405	800.000	-0.055	0.157
-621.390	76.410	-0.097	0.104
-620.376	-122.782	0.220	-0.036
-619.361	-85.644	0.317	0.100
-618.346	-133.838	-0.361	-0.046
-617.332	-200.000	-0.013	0.070
-616.317	74.686	0.202	-0.216
-615.303	-101.105	-0.183	-0.046
-614.288	-52.718	-0.201	0.094
-613.273	-95.419	-0.326	-0.089
-612.259	-72.792	0.313	-0.117
-611.244	70.467	0.042	0.044
-610.230	92.438	0.291	-0.335
-609.215	176.500	0.238	0.352
-608.201	-108.301	-0.230	-0.051
-607.186	-85.762	-0.205	-0.065
-606.171	-7.338	0.140	0.097
-605.157	50.779	0.202	0.195
-604.142	-117.385	0.078	-0.014
-603.128	-200.000	0.019	0.341
-602.113	-75.506	0.115	-0.042
-601.098	-39.243	0.172	-0.092
-600.084	66.244	0.201	0.207
-599.069	-165.541	-0.291	0.013
-598.055	-200.000	-0.038	-0.214
-597.040	-64.682	0.252	-0.104
-596.025	-160.274	-0.325	-0.018
-595.011	649.956	-0.050	0.131
-593.996	180.137	-0.188	-0.281
-592.982	800.000	0.085	0.257
-591.967	107.195	0.292	-0.353
-590.952	-200.000	0.002	-0.249
-589.938	33.334	-0.133	-0.117
-588.923	-33.560	-0.138	-0.077
-587.909	41.845	-0.181	0.167
-586.894	199.234	-0.062	0.096
-585.879	-66.463	0.129	0.052
-584.865	75.486	0.078	0.084
-583.850	406.359	0.067	0.144
-582.836	794.817	0.178	0.499
-581.821	189.934	0.045	-0.068
-580.806	-124.238	-0.450	0.072
-579.792	42.601	-0.119	-0.110
-578.777	800.000	0.075	0.226
-577.763	-88.202	-0.133	0.041
-576.748	-164.306	-0.080	-0.004
-575.733	-31.680	-0.038	0.022
-574.719	127.145	-0.263	-0.339
-573.704	50.669	0.132	0.127
-572.690	-35.235	-0.177	0.098
-571.675	135.914	-0.141	-0.187
-570.661	-106.119	-0.227	0.052
-569.646	143.570	0.067	-0.091
-568.631	-106.363	0.107	-0.024
-567.617	-200.000	-0.014	-0.077
-566.602	-200.000	-0.006	-0.116
-565.588	-88.355	0.342	0.104
-564.573	36.174	-0.394	-0.353
-563.558	-53.927	0.181	0.084
-562.544	351.396	0.153	-0.308
-561.529	-200.000	-0.005	0.151
-560.515	-35.642	0.174	-0.096
-559.500	282.151	0.034	-0.062
-558.485	-65.244	-0.083	-0.034
-557.471	-17.784	-0.138	0.088
-556.456	-131.407	-0.220	-0.030
-555.442	130.451	-0.146	-0.190
-554.427	139.074	-0.187	-0.249
-553.412	129.043	0.053	0.068
-552.398	-53.098	-0.080	-0.038
-551.383	15.885	-0.048	-0.038
-550.369	-150.312	0.219	0.017
-549.354	48.472	-0.161	-0.153
-548.339	800.000	-0.030	0.104
-547.325	-50.583	0.088	-0.042
-546.310	-200.000	0.010	0.514
-545.296	261.868	-0.172	-0.302
-544.281	-58.473	-0.082	-0.036
-543.266	-59.920	-0.052	0.022
-542.252	-9.290	-0.134	0.091
-541.237	8.985	-0.268	-0.205
-540.223	-177.515	-0.269	-0.007
-539.208	685.825	-0.102	0.270
-538.193	800.000	0.087	0.317
-537.179	-163.690	-0.271	0.013
-536.164	-106.660	0.137	0.031
-535.150	-32.982	-0.221	0.124
-534.135	-79.495	0.277	-0.095
-533.121	229.085	0.013	-0.021
-532.106	-96.585	-0.116	-0.031
-531.091	113.581	0.145	-0.179
-530.077	32.076	-0.205	0.179
-529.062	-4.685	-0.363	-0.254
-528.048	800.000	0.077	-0.233
-527.033	42.054	0.340	0.313
-526.018	-200.000	0.011	0.188
-525.004	-186.370	0.045	-0.001
-523.989	-93.888	0.147	0.041
-522.975	78.730	-0.256	0.278
-521.960	191.486	-0.114	0.174
-520.945	3.972	0.109	0.081
-519.931	7.322	0.230	0.174
-518.916	-200.000	0.036	0.377
-517.902	800.000	0.056	0.191
-516.887	132.794	-0.044	0.057
-515.872	210.558	0.131	0.209
-514.858	-26.966	-0.150	0.089
-513.843	311.989	-0.091	-0.173
-512.829	800.000	-0.048	0.143
-511.814	-11.449	0.143	0.095
-510.799	81.981	-0.107	0.118
-509.785	122.029	0.252	0.319
-508.770	78.427	0.093	0.101
-507.756	-92.616	-0.164	-0.047
-506.741	94.542	-0.015	0.017
-505.726	-108.583	-0.331	-0.072
-504.712	800.000	-0.051	-0.184
-503.697	446.228	-0.184	0.410
-502.683	800.000	0.122	0.481
-501.668	-12.400	0.166	0.110
-500.653	636.591	-0.050	0.128
-499.639	-105.285	0.164	-0.038
-498.624	34.457	0.321	0.284
-497.610	-141.599	0.110	-0.011
-496.595	-200.000	0.064	-0.319
-495.581	-200.000	0.047	-0.229
-494.566	22.342	-0.155	-0.128
-493.551	-53.779	-0.246	0.114
-492.537	800.000	-0.057	0.163
-491.522	-200.000	0.029	0.224
-490.508	-18.693	0.162	0.102
-489.493	-37.358	0.410	0.222
-488.478	129.186	0.148	-0.191
-487.464	800.000	-0.063	-0.257
-486.449	386.149	-0.052	-0.110
-485.435	-14.782	0.184	0.120
-484.420	440.833	0.025	0.056
-483.405	134.964	-0.159	-0.209
-482.391	-200.000	0.014	-0.225
-481.376	-135.811	0.157	0.019
-480.362	268.046	-0.188	-0.334
-479.347	-88.886	0.125	-0.038
-478.332	13.937	0.049	-0.039
-477.318	-58.482	-0.437	0.192
-476.303	252.993	-0.228	-0.394
-475.289	-174.811	-0.056	0.002
-474.274	-138.739	-0.076	0.008
-473.259	-125.108	-0.140	0.022
-472.245	11.712	0.335	-0.261
-471.230	-144.034	0.399	-0.038
-470.216	27.867	-0.082	0.070
-469.201	-200.000	-0.367	0.001
-468.186	303.243	0.059	0.111
-467.172	31.922	-0.029	-0.025
-466.157	800.000	0.043	-0.144
-465.143	76.869	-0.109	-0.117
-464.128	73.625	-0.251	0.266
-463.113	782.245	-0.199	-0.551
-462.099	4.969	0.170	-0.127
-461.084	-200.000	0.074	0.405
-460.070	15.010	0.221	-0.175
-459.055	169.063	-0.268	0.386
-458.040	70.979	0.111	-0.116
-457.026	-200.000	0.011	0.059
-456.011	-72.102	-0.019	-0.007
-454.997	742.763	0.021	-0.058
-453.982	-114.803	-0.360	0.070
-452.968	800.000	-0.034	-0.147
-451.953	-87.621	-0.304	0.093
-450.938	-200.000	-0.042	0.246
-449.924	-200.000	-0.020	-0.165
-448.909	800.000	0.010	-0.043
-447.895	-200.000	-0.040	0.215
-446.880	-119.343	0.171	-0.030
-445.865	-200.000	-0.010	0.058
-444.851	-145.616	0.136	-0.012
-443.836	204.917	0.088	-0.138
-442.822	-101.210	0.268	0.066
-441.807	-26.167	-0.232	-0.138
-440.792	-124.005	0.422	-0.067
-439.778	-97.785	0.197	-0.052
-438.763	-185.462	0.095	0.001
-437.749	40.662	-0.174	-0.158
-436.734	57.706	-0.217	-0.214
-435.719	19.105	-0.076	0.061
-434.705	147.173	-0.224	-0.305
-433.690	81.840	0.278	0.305
-432.676	729.963	0.027	0.072
-431.661	136.921	-0.135	-0.179
-430.646	772.272	0.115	-0.316
-429.632	67.316	0.360	0.371
-428.617	-177.912	0.459	0.011
-427.603	11.813	-0.066	0.051
-426.588	-14.057	-0.353	0.230
-425.573	353.934	0.143	0.287
-424.559	81.479	0.330	0.360
-423.544	-149.784	0.221	0.018
-422.530	101.152	0.169	-0.199
-421.515	-200.000	0.004	-0.099
-420.500	-168.008	-0.349	-0.014
-419.486	-82.350	0.241	-0.079
-418.471	-3.949	-0.344	-0.241
-417.457	800.000	-0.053	0.204
-416.442	-200.000	-0.002	0.090
-415.428	-183.515	0.353	0.006
-414.413	-63.984	0.128	-0.053
-413.398	70.168	0.217	-0.226
-412.384	-200.000	0.007	0.125
-411.369	137.926	0.066	0.088
-410.355	-12.895	0.188	0.124
-409.340	-54.672	-0.196	-0.089
-408.325	-126.599	0.091	-0.014
-407.311	-200.000	0.006	-0.317
-406.296	-47.329	0.346	-0.170
-405.282	-200.000	-0.040	0.194
-404.267	800.000	-0.109	0.345
-403.252	17.326	-0.088	-0.070
-402.238	-39.130	-0.074	-0.039
-401.223	185.325	0.015	-0.023
-400.209	800.000	-0.010	-0.044
-399.194	10.991	0.102	0.079
-398.179	-61.513	0.183	0.078
-397.165	-200.000	0.034	0.288
-396.150	-105.688	0.308	0.070
-395.136	25.843	-0.193	0.163
-394.121	58.206	0.096	-0.095
-393.106	55.107	0.265	0.259
-392.092	522.563	0.102	-0.243
-391.077	-81.047	-0.214	0.071
-390.063	-200.000	-0.053	0.287
-389.048	-111.134	-0.158	-0.033
-388.033	-53.266	-0.205	0.095
-387.019	800.000	-0.115	0.353
-386.004	800.000	-0.046	-0.153
-384.990	199.807	0.103	0.160
-383.975	-75.391	-0.182	-0.066
-382.960	-103.428	-0.210	-0.050
-381.946	136.680	-0.133	-0.175
-380.931	-33.114	0.176	-0.098
-379.917	-128.357	0.220	-0.032
-378.902	-200.000	0.004	0.091
-377.888	-56.414	0.115	0.052
-376.873	800.000	0.076	0.237
-375.858	-40.855	0.132	-0.069
-374.844	107.160	0.026	-0.031
-373.829	103.817	0.206	-0.244
-372.815	647.941	-0.107	-0.275
-371.800	-200.000	-0.039	0.223
-370.785	-100.015	-0.229	-0.058
-369.771	-200.000	0.053	0.307
-368.756	-166.321	0.127	0.005
-367.742	-200.000	-0.031	-0.324
-366.727	800.000	0.046	0.134
-365.712	164.700	0.080	-0.114
-364.698	6.183	0.091	-0.068
-363.683	800.000	0.066	0.275
-362.669	65.818	0.210	-0.215
-361.654	-172.885	-0.029	-0.001
-360.639	-200.000	-0.022	0.206
-359.625	3.655	0.127	-0.094
-358.610	-200.000	-0.007	-0.327
-357.596	-200.000	0.048	-0.412
-356.581	22.780	0.149	-0.123
-355.566	-145.543	0.375	0.034
-354.552	67.246	0.087	0.089
-353.537	185.888	0.015	-0.022
-352.523	-200.000	-0.019	0.126
-351.508	-71.834	0.086	-0.032
-350.493	299.808	0.138	0.256
-349.479	-86.174	-0.186	-0.058
-348.464	-38.671	0.048	-0.026
-347.450	-38.645	0.159	0.084
-346.435	23.274	0.070	-0.058
-345.420	800.000	-0.029	-0.109
-344.406	-44.059	0.277	0.140
-343.391	-200.000	0.004	0.031
-342.377	51.961	0.152	0.146
-341.362	114.020	0.159	-0.194
-340.348	-96.218	0.290	-0.077
-339.333	-66.103	0.127	-0.051
-338.318	336.376	0.089	0.174
-337.304	800.000	-0.109	0.309
-336.289	-59.492	0.156	0.068
-335.275	-57.176	0.246	0.109
-334.260	-190.972	0.106	0.001
-333.245	-39.916	-0.066	-0.035
-332.231	391.932	-0.098	-0.205
-331.216	273.897	-0.027	-0.049
-330.202	-200.000	-0.081	0.554
-329.187	130.632	-0.081	-0.105
-328.172	307.841	0.070	0.132
-327.158	101.574	-0.099	-0.116
-326.143	19.943	0.222	0.180
-325.129	800.000	-0.105	-0.340
-324.114	113.363	-0.130	-0.159
-323.099	42.945	0.292	-0.268
-322.085	800.000	-0.085	0.323
-321.070	800.000	0.036	-0.115
-320.056	-200.000	0.005	0.054
-319.041	-26.706	0.089	-0.052
-318.026	-1.567	0.163	-0.115
-317.012	183.550	0.073	0.109
-315.997	12.462	0.165	-0.128
-314.983	312.246	0.224	0.423
-313.968	128.452	0.271	0.347
-312.953	46.979	0.115	-0.108
-311.939	800.000	0.075	0.221
-310.924	-142.814	-0.225	0.022
-309.910	352.777	0.158	0.315
-308.895	-79.084	-0.197	-0.067
-307.880	682.748	0.159	-0.416
-306.866	-200.000	-0.004	-0.054
-305.851	146.319	0.174	-0.235
-304.837	-82.985	0.244	0.079
-303.822	-89.547	-0.051	0.015
-302.807	581.623	0.109	0.268
-301.793	800.000	0.110	0.337
-300.778	96.172	0.037	0.042
-299.764	-125.569	-0.438	0.067
-298.749	128.746	0.185	-0.237
-297.735	800.000	0.036	-0.121
-296.720	117.098	-0.092	-0.114
-295.705	3.037	0.173	-0.127
-294.691	-69.500	0.090	0.035
-293.676	-200.000	0.011	-0.271
-292.662	-32.435	-0.110	-0.062
-291.647	256.155	-0.112	0.193
-290.632	800.000	-0.031	0.108
-289.618	-73.263	0.070	-0.026
-288.603	-129.413	0.167	-0.023
-287.589	-89.826	-0.284	-0.084
-286.574	-195.078	-0.118	-0.001
-285.559	677.104	-0.126	-0.328
-284.545	58.388	0.287	-0.283
-283.530	-28.242	-0.146	-0.085
-282.516	140.475	0.208	-0.276
-281.501	-200.000	0.009	-0.397
-280.486	-29.675	-0.390	-0.224
-279.472	-62.910	0.429	-0.179
-278.457	-71.305	0.353	0.133
-277.443	-200.000	-0.089	0.454
-276.428	-200.000	0.005	0.055
-275.413	736.510	0.044	0.119
-274.399	-84.709	-0.039	0.012
-273.384	63.279	-0.229	-0.231
-272.370	800.000	0.085	0.256
-271.355	-165.694	-0.237	-0.010
-270.340	771.637	0.140	0.384
-269.326	10.395	-0.173	0.132
-268.311	-200.000	0.051	-0.256
-267.297	-67.113	-0.092	0.036
-266.282	800.000	0.014	0.041
-265.267	-196.250	-0.139	0.001
-264.253	456.741	-0.058	0.130
-263.238	-200.000	-0.028	-0.209
-262.224	-200.000	-0.008	0.048
-261.209	-102.173	0.178	-0.043
-260.195	105.977	0.151	0.179
-259.180	138.115	-0.145	0.191
-258.165	800.000	-0.062	-0.192
-257.151	-18.095	0.067	0.042
-256.136	-31.253	-0.151	-0.086
-255.122	-200.000	0.023	-0.187
-254.107	176.446	0.106	-0.155
-253.092	-46.995	-0.239	-0.117
-252.078	-200.000	0.032	-0.145
-251.063	800.000	0.092	-0.335
-250.049	-57.519	-0.137	-0.060
-249.034	142.625	0.195	-0.260
-248.019	313.040	0.118	0.222
-247.005	-5.790	0.136	-0.093
-245.990	-200.000	-0.011	-0.226
-244.976	-46.714	-0.386	0.190
-243.961	258.231	0.133	-0.230
-242.946	-67.196	-0.165	0.065
-241.932	-135.020	0.250	0.030
-240.917	75.212	0.238	0.252
-239.903	452.976	0.043	0.094
-238.888	113.753	0.058	0.071
-237.873	-53.111	-0.114	-0.053
-236.859	128.891	0.053	-0.068
-235.844	-10.262	0.063	0.042
-234.830	19.484	-0.066	0.053
-233.815	-96.418	0.251	0.067
-232.800	26.133	0.094	0.078
-231.786	-29.342	-0.351	-0.202
-230.771	-12.421	0.063	0.042
-229.757	111.411	-0.125	-0.151
-228.742	-200.000	-0.085	0.393
-227.727	-200.000	-0.010	-0.090
-226.713	-24.895	-0.175	0.104
-225.698	-131.337	0.099	-0.013
-224.684	-200.000	-0.022	-0.271
-223.669	274.227	-0.129	0.229
-222.655	1.193	0.177	0.128
-221.640	-200.000	0.008	0.175
-220.625	1.431	-0.360	0.259
-219.611	203.811	0.102	0.158
-218.596	530.681	-0.092	-0.219
-217.582	1.769	-0.157	0.114
-216.567	-102.669	-0.072	-0.017
-215.552	-200.000	-0.269	-0.001
-214.538	64.884	-0.456	-0.462
-213.523	-200.000	-0.016	-0.179
-212.509	104.401	-0.205	0.242
-211.494	800.000	-0.079	-0.296
-210.479	67.898	0.126	-0.129
-209.465	-200.000	0.016	-0.277
-208.450	-127.364	0.285	0.042
-207.436	17.208	0.073	0.058
-206.421	-65.536	-0.329	-0.132
-205.406	-29.644	-0.273	-0.156
-204.392	126.945	-0.029	0.037
-203.377	397.712	0.101	-0.212
-202.363	-115.939	0.151	0.028
-201.348	-200.000	0.003	0.179
-200.333	39.605	0.132	0.119
-199.319	87.459	0.079	0.088
-198.304	800.000	-0.088	-0.282
-197.290	-24.409	0.369	0.220
-196.275	199.039	0.110	0.170
-195.260	-35.464	-0.341	0.186
-194.246	-200.000	0.081	0.000
-193.231	292.000	0.227	0.414
-192.217	-108.030	-0.236	0.051
-191.202	-200.000	0.011	-0.115
-190.187	-193.324	0.042	-0.000
-189.173	-81.591	-0.127	-0.042
-188.158	286.267	0.025	0.045
-187.144	-200.000	-0.003	0.080
-186.129	20.377	-0.139	0.113
-185.114	119.794	-0.064	0.080
-184.100	-85.582	-0.290	-0.090
-183.085	415.030	-0.137	-0.293
-182.071	-17.932	0.208	-0.131
-181.056	-200.000	-0.006	-0.033
-180.042	-20.378	-0.255	-0.157
-179.027	-143.681	-0.131	0.012
-178.012	-200.000	0.008	-0.195
-176.998	11.213	0.087	-0.067
-175.983	800.000	0.103	0.416
-174.969	51.538	-0.050	0.047
-173.954	-200.000	-0.004	0.140
-172.939	-85.955	-0.223	-0.069
-171.925	-200.000	-0.136	-0.000
-170.910	-200.000	-0.021	0.398
-169.896	-26.516	-0.156	0.092
-168.881	-86.039	0.069	-0.021
-167.866	705.363	0.094	-0.247
-166.852	-112.341	-0.499	0.100
-165.837	-8.245	-0.216	-0.145
-164.823	-200.000	-0.021	-0.255
-163.808	-105.402	-0.257	-0.058
-162.793	259.217	-0.094	0.163
-161.779	35.546	-0.093	-0.082
-160.764	98.696	-0.079	-0.091
-159.750	119.771	-0.054	0.067
-158.735	-151.019	-0.384	-0.029
-157.720	77.815	-0.057	-0.061
-156.706	-4.034	-0.201	-0.139
-155.691	-157.843	-0.079	0.005
-154.677	-167.337	-0.162	-0.007
-153.662	-105.689	0.028	-0.006
-152.647	800.000	-0.069	-0.199
-151.633	-32.002	0.151	-0.085
-150.618	-200.000	-0.049	-0.527
-149.604	257.542	0.039	-0.067
-148.589	30.354	-0.228	0.195
-147.574	355.666	-0.146	-0.290
-146.560	-147.695	-0.180	0.015
-145.545	-37.986	0.100	0.053
-144.531	167.489	-0.241	-0.342
-143.516	-194.753	-0.351	-0.003
-142.502	177.408	-0.147	0.214
-141.487	4.806	-0.079	-0.058
-140.472	231.236	0.063	0.102
-139.458	-19.072	0.151	0.094
-138.443	49.389	-0.031	0.029
-137.429	29.373	0.146	0.124
-136.414	281.483	-0.058	0.103
-135.399	800.000	-0.028	0.104
-134.385	800.000	-0.069	-0.254
-133.370	164.166	0.179	0.252
-132.356	-114.197	0.150	0.029
-131.341	-6.712	0.154	0.104
-130.326	254.770	-0.208	0.356
-129.312	-200.000	-0.020	-0.253
-128.297	143.239	0.137	-0.182
-127.283	-200.000	0.039	-0.215
-126.268	79.162	-0.186	0.200
-125.253	67.374	-0.376	-0.383
-124.239	-168.317	0.519	0.020
-123.224	-200.000	-0.003	-0.148
-122.210	16.559	0.138	0.109
-121.195	-122.112	0.172	0.028
-120.180	-1.413	0.062	-0.043
