DTS Sentinel unit serial number:	SN413079Multiplexer serial number:	ORYXHardware model number:	OX4-SRSoftware version number:	ORYX F/W v4.00 Oryx Data Collector v3.7.2.0data status	okinstallation	princeton_trtdifferential loss correction	single-endedforward channel	channel 4reverse channel	N/Adate	2019/09/11time	05:47:11forward acquisition time	60.00reverse acquisition time	0.00gamma	496.2192k internal	0.2316k external	0.2316temperature offset calibration	0.9946default loss term (dB/km)	0.3790temperature slope calibration	1.0000multiplexer offset coefficient	1.0000multiplexer slope coefficient	1.0000fibre end	0.00T internal ref (°C)	29.41T ext. ref 1 (°C)	-0.24T ext. ref 2 (°C)	23.51length (m)	temperature (°C)	Stokes	anti-Stokes-747.200	101.980	-0.208	0.245
-746.185	-200.000	0.033	0.205
-745.171	-14.386	0.318	0.207
-744.156	-81.864	0.032	-0.010
-743.142	105.489	-0.134	0.160
-742.127	-97.309	-0.197	0.052
-741.112	-28.501	0.414	-0.242
-740.098	-200.000	-0.044	0.470
-739.083	34.338	-0.119	-0.105
-738.069	-29.080	-0.155	0.090
-737.054	-117.529	-0.364	0.067
-736.039	-200.000	-0.033	-0.252
-735.025	201.588	0.150	-0.234
-734.010	96.906	0.140	-0.163
-732.996	234.052	0.077	-0.129
-731.981	-200.000	-0.034	-0.255
-730.966	-45.950	-0.309	0.154
-729.952	-87.858	-0.142	0.043
-728.937	131.306	0.032	0.042
-727.923	-132.244	0.146	-0.019
-726.908	-200.000	-0.014	0.123
-725.894	105.934	0.191	-0.229
-724.879	800.000	-0.118	-0.399
-723.864	800.000	0.060	-0.172
-722.850	-200.000	-0.043	-0.308
-721.835	-85.276	-0.169	0.053
-720.821	62.513	-0.141	-0.142
-719.806	-143.775	-0.213	0.020
-718.791	800.000	-0.083	-0.318
-717.777	-200.000	0.010	-0.429
-716.762	-200.000	0.015	-0.177
-715.748	-200.000	-0.008	-0.043
-714.733	-133.023	-0.172	0.022
-713.718	41.018	-0.131	-0.120
-712.704	800.000	0.046	-0.167
-711.689	177.116	0.009	-0.013
-710.675	800.000	0.055	-0.184
-709.660	800.000	0.007	-0.030
-708.645	234.768	-0.101	-0.169
-707.631	-200.000	0.023	-0.158
-706.616	800.000	0.041	-0.122
-705.602	92.727	0.120	0.137
-704.587	800.000	0.128	-0.364
-703.572	334.269	0.090	-0.176
-702.558	-95.017	-0.359	-0.098
-701.543	120.719	0.226	0.284
-700.529	401.843	-0.020	-0.043
-699.514	-185.313	-0.186	0.003
-698.499	-132.691	-0.184	0.024
-697.485	-200.000	-0.068	-0.349
-696.470	410.221	0.174	-0.373
-695.456	800.000	-0.057	-0.186
-694.441	-200.000	0.033	0.156
-693.426	146.968	0.102	-0.139
-692.412	-41.637	0.277	0.144
-691.397	363.940	-0.056	0.113
-690.383	67.361	0.106	-0.109
-689.368	-59.392	0.065	-0.028
-688.354	-62.013	-0.060	0.025
-687.339	800.000	-0.099	0.339
-686.324	31.872	-0.186	0.162
-685.310	-200.000	-0.036	-0.213
-684.295	-144.147	0.120	0.011
-683.281	44.939	-0.308	-0.287
-682.266	-200.000	0.004	0.205
-681.251	-72.891	0.136	0.051
-680.237	-200.000	0.012	0.178
-679.222	182.327	-0.139	0.207
-678.208	-72.821	0.320	-0.119
-677.193	-200.000	-0.131	0.001
-676.178	-89.002	-0.313	0.094
-675.164	146.528	0.064	0.087
-674.149	800.000	-0.044	0.191
-673.135	800.000	-0.022	0.088
-672.120	7.994	0.100	-0.076
-671.105	-200.000	0.002	-0.091
-670.091	-200.000	-0.055	-0.496
-669.076	120.391	0.113	0.141
-668.062	-92.712	0.464	0.131
-667.047	-25.930	0.156	-0.092
-666.032	800.000	0.020	0.082
-665.018	-82.753	0.065	0.021
-664.003	362.585	-0.133	0.270
-662.989	-71.020	0.341	-0.130
-661.974	-167.535	0.484	0.019
-660.959	470.713	-0.105	0.239
-659.945	-98.430	0.036	-0.009
-658.930	198.125	-0.160	0.247
-657.916	-140.232	-0.163	-0.017
-656.901	336.737	-0.040	0.079
-655.886	180.833	-0.050	-0.074
-654.872	-159.541	-0.131	-0.007
-653.857	100.848	0.059	0.069
-652.843	-119.098	0.189	-0.033
-651.828	-11.059	-0.221	-0.147
-650.814	166.229	-0.025	-0.036
-649.799	-17.852	-0.149	-0.095
-648.784	-134.590	-0.239	0.029
-647.770	-200.000	-0.022	-0.137
-646.755	-200.000	-0.023	0.233
-645.741	-139.645	0.177	-0.019
-644.726	360.808	-0.209	-0.423
-643.711	-143.686	0.192	-0.018
-642.697	-200.000	-0.028	0.374
-641.682	-74.641	0.198	-0.072
-640.668	451.602	0.048	0.106
-639.653	-88.186	-0.095	0.029
-638.638	32.111	-0.251	-0.219
-637.624	-131.775	0.030	-0.004
-636.609	-200.000	-0.039	-0.203
-635.595	-200.000	0.011	-0.348
-634.580	-200.000	0.039	-0.182
-633.565	-112.862	0.122	-0.024
-632.551	-184.813	-0.190	0.003
-631.536	-200.000	-0.007	0.051
-630.522	-80.557	-0.123	-0.041
-629.507	18.465	0.052	-0.042
-628.492	385.505	-0.047	-0.097
-627.478	157.473	0.056	0.078
-626.463	78.505	0.268	-0.288
-625.449	-200.000	-0.015	0.073
-624.434	-87.696	-0.083	0.025
-623.419	796.278	-0.057	0.158
-622.405	-55.126	0.257	0.117
-621.390	-200.000	0.019	0.089
-620.376	64.615	0.135	0.137
-619.361	-76.902	0.095	-0.033
-618.346	17.973	-0.199	0.160
-617.332	-95.494	-0.125	0.034
-616.317	-188.326	0.158	0.002
-615.303	800.000	-0.054	0.221
-614.288	-194.455	0.063	-0.001
-613.273	-200.000	0.018	0.194
-612.259	28.770	0.196	0.168
-611.244	258.855	0.135	0.235
-610.230	-56.933	0.340	-0.151
-609.215	277.129	-0.159	-0.284
-608.201	-130.069	0.107	-0.015
-607.186	800.000	0.062	0.216
-606.171	-69.924	-0.096	0.037
-605.157	-54.148	-0.305	-0.140
-604.142	-43.925	-0.213	-0.108
-603.128	-36.760	-0.239	-0.129
-602.113	-144.074	0.203	0.019
-601.098	800.000	-0.050	-0.157
-600.084	800.000	-0.106	-0.295
-599.069	-200.000	0.051	-0.276
-598.055	478.350	-0.030	-0.068
-597.040	800.000	0.035	-0.133
-596.025	-200.000	-0.013	0.199
-595.011	74.939	0.143	-0.151
-593.996	-200.000	0.001	-0.248
-592.982	497.490	-0.054	0.125
-591.967	172.387	-0.092	-0.134
-590.952	800.000	0.021	-0.088
-589.938	488.564	0.131	0.302
-588.923	-189.343	-0.208	-0.002
-587.909	-119.252	-0.150	0.026
-586.894	-200.000	0.033	-0.220
-585.879	65.414	-0.133	-0.136
-584.865	25.789	0.174	-0.146
-583.850	432.584	-0.048	-0.104
-582.836	340.324	0.040	-0.079
-581.821	77.548	-0.097	-0.104
-580.806	-64.840	0.164	-0.067
-579.792	-68.416	-0.080	-0.031
-578.777	-129.942	-0.249	0.034
-577.763	-98.706	0.107	0.028
-576.748	148.287	-0.095	0.130
-575.733	-48.077	-0.270	-0.131
-574.719	543.590	-0.052	-0.124
-573.704	-47.148	0.114	0.056
-572.690	-137.200	0.069	0.008
-571.675	-200.000	-0.019	0.383
-570.661	-32.314	-0.110	0.062
-569.646	-200.000	0.024	-0.272
-568.631	-200.000	-0.012	0.089
-567.617	-140.517	-0.203	-0.021
-566.602	-116.867	-0.487	-0.090
-565.588	1.908	0.160	-0.116
-564.573	-81.437	-0.474	-0.157
-563.558	26.400	0.288	0.242
-562.544	495.217	-0.042	-0.098
-561.529	0.072	0.147	0.105
-560.515	-120.171	-0.213	-0.037
-559.500	-200.000	0.055	0.300
-558.485	-181.777	-0.234	0.005
-557.471	-23.738	0.313	-0.189
-556.456	-165.939	0.360	-0.016
-555.442	205.545	0.090	0.140
-554.427	-200.000	-0.007	0.108
-553.412	16.698	0.117	-0.093
-552.398	294.329	-0.106	0.195
-551.383	-48.469	0.136	0.066
-550.369	-119.913	0.350	-0.060
-549.354	290.184	0.068	-0.123
-548.339	-106.095	-0.362	0.082
-547.325	53.790	0.275	0.266
-546.310	115.898	-0.173	-0.213
-545.296	-69.499	0.040	0.016
-544.281	267.291	0.068	-0.119
-543.266	-27.525	0.164	-0.096
-542.252	-44.787	-0.230	-0.115
-541.237	-46.982	-0.209	-0.103
-540.223	-200.000	0.035	-0.293
-539.208	-134.712	-0.366	-0.045
-538.193	-194.606	-0.139	0.001
-537.179	263.014	-0.152	0.266
-536.164	343.871	0.049	0.096
-535.150	-200.000	0.017	-0.377
-534.135	87.387	0.338	-0.376
-533.121	52.029	0.193	0.185
-532.106	-200.000	-0.032	0.216
-531.091	193.694	-0.195	0.296
-530.077	269.382	0.029	0.052
-529.062	277.364	0.085	-0.151
-528.048	448.044	-0.099	0.219
-527.033	433.484	-0.016	-0.034
-526.018	175.609	0.048	-0.070
-525.004	-115.209	-0.239	-0.045
-523.989	-75.353	0.235	-0.084
-522.975	-164.396	0.260	0.012
-521.960	396.687	0.087	0.182
-520.945	-179.552	-0.335	0.007
-519.931	98.909	0.087	0.101
-518.916	-200.000	-0.002	-0.067
-517.902	340.082	-0.105	-0.207
-516.887	97.268	-0.135	-0.156
-515.872	800.000	0.052	-0.148
-514.858	655.719	0.019	0.049
-513.843	127.018	0.167	-0.213
-512.829	326.940	-0.066	-0.127
-511.814	-94.639	0.173	-0.047
-510.799	251.240	-0.169	0.289
-509.785	-200.000	-0.002	-0.207
-508.770	-6.703	0.153	0.105
-507.756	-140.223	-0.102	-0.011
-506.741	-109.228	-0.259	0.055
-505.726	-90.248	0.204	-0.059
-504.712	-200.000	0.082	-0.371
-503.697	280.713	-0.056	-0.100
-502.683	-177.969	-0.642	0.015
-501.668	242.535	0.126	0.212
-500.653	37.866	0.090	-0.081
-499.639	11.229	-0.047	-0.036
-498.624	-137.012	-0.355	0.041
-497.610	-187.356	-0.158	0.002
-496.595	70.135	-0.111	0.115
-495.581	-200.000	-0.033	0.148
-494.566	-132.149	0.160	0.021
-493.551	336.576	-0.092	-0.179
-492.537	-16.038	-0.202	-0.129
-491.522	-200.000	0.011	0.124
-490.508	-85.238	-0.149	0.047
-489.493	-116.625	-0.131	-0.024
-488.478	114.622	-0.353	-0.431
-487.464	161.374	0.123	0.173
-486.449	-200.000	-0.028	-0.303
-485.435	-83.451	0.356	0.114
-484.420	-161.617	-0.333	-0.017
-483.405	800.000	0.175	-0.521
-482.391	280.873	0.061	0.109
-481.376	-140.384	0.247	0.026
-480.362	-200.000	0.066	-0.442
-479.347	-106.358	-0.252	0.057
-478.332	488.839	0.074	0.170
-477.318	74.916	0.280	-0.296
-476.303	361.185	-0.202	0.405
-475.289	-22.499	0.035	0.021
-474.274	-177.931	0.115	0.003
-473.259	800.000	-0.082	-0.256
-472.245	-32.994	-0.090	-0.050
-471.230	-71.910	0.178	-0.066
-470.216	800.000	-0.155	-0.470
-469.201	-200.000	0.007	0.120
-468.186	-200.000	-0.010	-0.281
-467.172	531.065	-0.020	-0.047
-466.157	-200.000	0.025	0.321
-465.143	35.409	0.221	-0.194
-464.128	800.000	-0.103	-0.314
-463.113	-161.844	0.220	-0.011
-462.099	271.199	0.177	-0.313
-461.084	800.000	-0.069	-0.200
-460.070	616.425	0.204	0.513
-459.055	-12.943	0.141	0.092
-458.040	-200.000	-0.021	0.296
-457.026	-21.688	-0.295	0.180
-456.011	800.000	0.027	0.080
-454.997	-200.000	0.037	-0.312
-453.982	355.294	-0.076	-0.151
-452.968	51.387	-0.202	0.192
-451.953	-86.732	0.128	0.039
-450.938	-15.650	-0.111	0.071
-449.924	73.714	-0.179	-0.188
-448.909	-56.909	-0.244	-0.108
-447.895	154.359	-0.200	-0.275
-446.880	88.227	-0.090	0.100
-445.865	62.396	-0.069	0.069
-444.851	-15.661	0.224	0.143
-443.836	-17.306	-0.109	-0.068
-442.822	-49.966	-0.421	-0.200
-441.807	343.531	0.033	-0.064
-440.792	7.688	-0.366	0.274
-439.778	-200.000	-0.016	0.138
-438.763	-71.127	0.231	-0.087
-437.749	-102.049	-0.212	-0.051
-436.734	244.333	-0.151	-0.254
-435.719	-84.654	-0.236	0.074
-434.705	133.706	0.138	0.179
-433.690	-200.000	-0.034	0.363
-432.676	230.337	0.100	0.163
-431.661	4.489	0.096	0.070
-430.646	87.945	-0.097	0.107
-429.632	315.459	-0.107	0.203
-428.617	10.178	-0.176	-0.134
-427.603	172.948	0.081	0.117
-426.588	139.535	0.129	-0.170
-425.573	496.579	-0.097	-0.224
-424.559	207.248	0.121	0.188
-423.544	-113.297	-0.149	0.029
-422.530	-25.312	-0.102	0.060
-421.515	-100.753	-0.071	-0.018
-420.500	-51.948	-0.321	0.149
-419.486	339.551	0.150	-0.292
-418.471	9.123	0.172	-0.130
-417.457	800.000	-0.081	0.295
-416.442	-157.542	-0.231	0.014
-415.428	800.000	0.052	0.166
-414.413	132.245	-0.294	-0.379
-413.398	163.267	-0.141	0.198
-412.384	-52.350	0.104	-0.048
-411.369	-157.010	0.008	-0.001
-410.355	-45.066	-0.207	0.103
-409.340	36.285	-0.118	0.104
-408.325	225.440	0.139	0.226
-407.311	-37.126	0.364	0.195
-406.296	-200.000	-0.012	0.186
-405.282	-100.069	0.221	0.055
-404.267	-46.284	-0.379	0.186
-403.252	-43.916	0.470	0.237
-402.238	170.478	-0.089	0.128
-401.223	-80.784	0.293	0.097
-400.209	279.253	-0.096	0.172
-399.194	-200.000	-0.032	-0.233
-398.179	381.218	0.081	0.166
-397.165	-145.823	0.203	0.018
-396.150	-200.000	-0.011	-0.120
-395.136	-76.305	-0.283	0.100
-394.121	-200.000	0.022	0.145
-393.106	-40.474	-0.190	0.099
-392.092	-200.000	0.016	0.315
-391.077	120.579	-0.130	0.161
-390.063	800.000	0.053	0.218
-389.048	-200.000	0.050	-0.284
-388.033	800.000	0.037	0.143
-387.019	-200.000	-0.006	0.232
-386.004	800.000	-0.056	-0.165
-384.990	168.266	0.100	-0.143
-383.975	-108.303	0.311	-0.067
-382.960	83.315	0.184	-0.200
-381.946	-200.000	0.012	0.313
-380.931	-200.000	0.028	-0.296
-379.917	-49.608	-0.421	-0.200
-378.902	-121.880	-0.315	0.052
-377.888	-200.000	0.039	0.359
-376.873	-89.673	-0.142	-0.041
-375.858	-31.602	-0.154	0.086
-374.844	119.618	0.131	-0.162
-373.829	-98.292	-0.155	0.040
-372.815	-191.215	0.238	-0.002
-371.800	800.000	-0.020	-0.071
-370.785	557.531	0.081	0.196
-369.771	-148.921	-0.214	0.017
-368.756	28.708	0.072	-0.061
-367.742	41.726	0.060	-0.054
-366.727	-21.783	-0.142	0.087
-365.712	7.657	0.204	0.152
-364.698	11.837	-0.214	0.164
-363.683	3.626	-0.073	0.053
-362.669	-157.477	0.211	-0.013
-361.654	-200.000	0.050	0.276
-360.639	-200.000	0.042	0.346
-359.625	-200.000	0.083	0.395
-358.610	-200.000	-0.046	0.202
-357.596	245.504	0.020	-0.033
-356.581	169.378	0.410	0.584
-355.566	-156.781	0.187	0.011
-354.552	-87.355	-0.098	-0.030
-353.537	352.355	-0.100	-0.198
-352.523	-83.393	0.296	0.095
-351.508	363.144	0.120	-0.241
-350.493	-20.200	0.252	0.155
-349.479	-142.050	-0.294	0.029
-348.464	-114.476	0.232	0.044
-347.450	-156.087	-0.333	-0.021
-346.435	-142.922	-0.344	-0.033
-345.420	23.786	0.182	-0.149
-344.406	281.700	-0.106	-0.190
-343.391	-200.000	0.026	0.330
-342.377	800.000	-0.016	-0.048
-341.362	40.779	0.100	0.090
-340.348	5.160	-0.250	0.184
-339.333	-200.000	-0.046	-0.335
-338.318	-24.684	0.154	0.092
-337.304	148.783	-0.155	-0.208
-336.289	-53.012	-0.141	-0.065
-335.275	-23.038	-0.325	0.195
-334.260	420.442	0.175	-0.374
-333.245	800.000	-0.031	-0.116
-332.231	199.279	-0.049	0.074
-331.216	-37.264	0.065	0.034
-330.202	-200.000	0.039	-0.175
-329.187	-117.191	0.203	0.037
-328.172	99.154	0.101	0.116
-327.158	277.825	0.048	-0.085
-326.143	800.000	0.102	-0.313
-325.129	101.961	0.224	-0.261
-324.114	4.959	-0.285	0.209
-323.099	99.106	0.070	-0.081
-322.085	-28.080	-0.156	-0.090
-321.070	-121.084	0.262	-0.044
-320.056	-77.824	0.102	0.035
-319.041	-200.000	-0.007	-0.047
-318.026	-116.742	-0.072	-0.013
-317.012	-153.242	-0.016	-0.001
-315.997	-200.000	0.006	-0.285
-314.983	-99.324	0.128	0.032
-313.968	10.737	0.024	-0.018
-312.953	-102.792	0.089	-0.021
-311.939	-200.000	-0.050	-0.297
-310.924	-55.262	-0.114	-0.051
-309.910	9.193	0.163	0.123
-308.895	236.428	-0.070	0.115
-307.880	-136.695	0.447	0.051
-306.866	-63.063	0.232	0.096
-305.851	-142.560	0.332	-0.032
-304.837	-200.000	0.019	0.171
-303.822	-200.000	-0.039	0.382
-302.807	382.494	-0.062	0.127
-301.793	94.910	0.124	-0.140
-300.778	800.000	0.097	-0.318
-299.764	43.779	0.184	0.168
-298.749	535.111	0.144	0.340
-297.735	755.328	-0.060	-0.163
-296.720	264.529	0.217	-0.376
-295.705	94.299	-0.181	-0.204
-294.691	-75.548	0.187	0.066
-293.676	-119.786	-0.145	0.025
-292.662	-200.000	-0.008	0.038
-291.647	-200.000	0.044	-0.200
-290.632	-74.692	0.237	-0.085
-289.618	375.420	0.095	-0.193
-288.603	207.571	-0.183	-0.284
-287.589	-200.000	-0.006	-0.226
-286.574	-185.308	-0.265	0.004
-285.559	-119.983	0.238	0.041
-284.545	-200.000	-0.012	-0.143
-283.530	-30.900	0.107	0.060
-282.516	692.694	-0.090	-0.234
-281.501	800.000	0.071	-0.255
-280.486	315.392	0.124	-0.233
-279.472	18.947	-0.175	-0.139
-278.457	-80.902	-0.320	-0.106
-277.443	53.418	0.163	0.156
-276.428	-200.000	0.018	0.302
-275.413	80.136	-0.168	0.179
-274.399	416.614	0.080	-0.170
-273.384	-95.613	0.161	0.043
-272.370	475.017	-0.190	0.426
-271.355	305.970	0.094	0.174
-270.340	-23.775	0.224	0.134
-269.326	800.000	0.020	0.071
-268.311	719.296	-0.069	-0.182
-267.297	800.000	0.017	0.049
-266.282	-143.742	-0.102	-0.010
-265.267	-104.154	-0.086	-0.020
-264.253	-119.547	0.130	0.022
-263.238	66.048	0.102	-0.103
-262.224	142.388	0.112	-0.147
-261.209	-71.644	-0.260	-0.096
-260.195	-75.794	0.280	0.099
-259.180	48.738	0.387	0.361
-258.165	-99.020	0.299	-0.075
-257.151	-146.283	0.430	0.037
-256.136	351.641	-0.132	-0.259
-255.122	800.000	-0.051	-0.208
-254.107	146.139	0.103	-0.137
-253.092	800.000	0.050	0.200
-252.078	-193.381	-0.130	-0.001
-251.063	-55.715	-0.153	-0.068
-250.049	-37.843	0.335	0.177
-249.034	129.081	0.135	0.171
-248.019	-151.196	0.186	0.014
-247.005	-133.424	-0.338	0.042
-245.990	71.300	-0.162	0.166
-244.976	-97.901	0.136	0.035
-243.961	28.475	-0.397	0.334
-242.946	167.383	0.152	-0.215
-241.932	40.041	0.150	0.134
-240.917	250.687	0.041	0.069
-239.903	369.760	0.082	-0.165
-238.888	-200.000	0.010	0.161
-237.873	-141.888	-0.126	-0.013
-236.859	-71.535	0.135	-0.050
-235.844	-136.472	0.114	-0.013
-234.830	-200.000	-0.029	-0.300
-233.815	18.010	0.205	-0.162
-232.800	800.000	-0.073	-0.226
-231.786	235.219	-0.017	0.027
-230.771	800.000	-0.071	-0.252
-229.757	-200.000	0.005	0.265
-228.742	170.749	-0.118	0.168
-227.727	92.488	-0.192	-0.215
-226.713	119.102	0.031	0.039
-225.698	-70.628	-0.062	-0.023
-224.684	-44.244	0.083	-0.041
-223.669	-175.855	0.255	-0.007
-222.655	37.690	0.164	-0.144
-221.640	-92.717	-0.274	0.076
-220.625	-71.650	-0.207	0.077
-219.611	-58.844	0.134	-0.058
-218.596	-200.000	0.053	0.260
-217.582	596.253	0.133	0.328
-216.567	-200.000	-0.090	0.435
-215.552	-200.000	-0.062	0.342
-214.538	-93.502	-0.241	0.066
-213.523	-200.000	0.025	-0.116
-212.509	137.324	-0.043	0.056
-211.494	-44.760	0.244	0.121
-210.479	800.000	0.022	0.067
-209.465	-5.884	0.253	0.172
-208.450	30.620	-0.107	0.091
-207.436	-200.000	-0.001	0.155
-206.421	-60.735	-0.134	0.056
-205.406	-93.391	-0.301	0.083
-204.392	800.000	0.078	0.217
-203.377	-200.000	-0.007	-0.472
-202.363	-39.880	0.085	-0.044
-201.348	800.000	-0.143	0.511
-200.333	-96.272	0.363	-0.095
-199.319	32.084	0.160	0.137
-198.304	-54.904	-0.278	0.124
-197.290	208.292	-0.061	-0.095
-196.275	-133.829	0.269	-0.033
-195.260	-200.000	0.012	-0.230
-194.246	402.663	0.026	-0.053
-193.231	675.146	-0.030	-0.076
-192.217	-49.132	0.182	-0.086
-191.202	-63.562	0.315	0.128
-190.187	-51.501	-0.258	-0.119
-189.173	38.611	0.220	0.195
-188.158	-23.750	0.343	-0.204
-187.144	-64.197	0.158	-0.064
-186.129	167.676	-0.084	0.118
-185.114	-200.000	-0.023	0.163
-184.100	34.786	-0.249	-0.215
-183.085	800.000	0.040	-0.164
-182.071	800.000	0.124	0.360
-181.056	800.000	-0.061	-0.226
-180.042	-158.418	0.024	-0.001
-179.027	177.535	0.282	0.407
-178.012	-26.922	0.121	-0.070
-176.998	399.073	-0.037	0.076
-175.983	-200.000	-0.048	-0.220
-174.969	-122.268	-0.502	0.081
-173.954	-53.109	-0.203	-0.092
-172.939	-200.000	-0.008	0.189
-171.925	-58.685	0.152	-0.065
-170.910	-200.000	-0.230	-0.001
-169.896	-23.817	-0.151	-0.089
-168.881	-45.625	-0.239	-0.117
-167.866	-173.354	0.387	-0.012
-166.852	-98.355	-0.091	-0.023
-165.837	125.196	-0.107	0.133
-164.823	15.629	-0.115	-0.089
-163.808	-200.000	-0.020	0.129
-162.793	304.812	0.114	0.210
-161.779	785.740	0.098	-0.266
-160.764	69.895	0.086	0.087
-159.750	166.488	-0.112	0.157
-158.735	-51.082	0.131	-0.061
-157.720	161.973	-0.240	-0.333
-156.706	800.000	-0.080	-0.222
-155.691	741.982	-0.199	0.529
-154.677	-54.567	0.448	-0.201
-153.662	114.142	0.149	-0.180
-152.647	800.000	0.093	0.353
-151.633	800.000	-0.011	0.040
-150.618	-58.205	-0.112	-0.048
-149.604	-200.000	0.013	0.129
-148.589	-118.393	0.266	0.047
-147.574	221.986	0.186	-0.296
-146.560	623.811	0.057	0.142
-145.545	-200.000	0.018	-0.095
-144.531	-200.000	0.034	-0.289
-143.516	68.216	0.190	0.192
-142.502	-80.031	0.162	-0.054
-141.487	524.818	-0.090	-0.210
-140.472	-10.755	0.254	0.166
-139.458	500.816	0.067	-0.153
-138.443	103.928	-0.149	-0.173
-137.429	-200.000	0.009	0.313
-136.414	-200.000	0.025	-0.222
-135.399	800.000	-0.021	-0.073
-134.385	319.616	-0.059	0.111
-133.370	153.074	-0.172	0.233
-132.356	-96.791	0.131	-0.034
-131.341	212.833	0.170	0.265
-130.326	55.690	-0.091	0.087
-129.312	-89.049	-0.065	-0.019
-128.297	800.000	0.060	-0.191
-127.283	8.315	-0.113	0.084
-126.268	-166.530	0.369	-0.015
-125.253	-88.459	-0.079	-0.023
-124.239	319.691	-0.078	-0.146
-123.224	168.296	0.103	-0.145
-122.210	304.902	0.090	0.166
