DTS Sentinel unit serial number:	SN413079Multiplexer serial number:	ORYXHardware model number:	OX4-SRSoftware version number:	ORYX F/W v4.00 Oryx Data Collector v3.7.2.0data status	okinstallation	princeton_trtdifferential loss correction	single-endedforward channel	channel 4reverse channel	N/Adate	2019/09/19time	14:13:34forward acquisition time	60.00reverse acquisition time	0.00gamma	496.2192k internal	0.2307k external	0.2307temperature offset calibration	1.0020default loss term (dB/km)	0.3790temperature slope calibration	1.0000multiplexer offset coefficient	1.0000multiplexer slope coefficient	1.0000fibre end	0.00T internal ref (°C)	31.59T ext. ref 1 (°C)	1.04T ext. ref 2 (°C)	28.80length (m)	temperature (°C)	Stokes	anti-Stokes-747.200	481.106	0.100	0.231
-746.185	-127.829	-0.366	0.054
-745.171	-103.425	0.328	0.079
-744.156	43.442	0.125	0.116
-743.142	134.113	-0.051	0.067
-742.127	-200.000	0.023	0.170
-741.112	-200.000	-0.008	0.087
-740.098	137.520	-0.458	0.610
-739.083	-145.313	0.213	0.020
-738.069	178.183	0.077	0.114
-737.054	49.029	-0.163	0.155
-736.039	-91.179	-0.289	-0.084
-735.025	2.458	0.331	0.244
-734.010	221.070	-0.099	-0.162
-732.996	273.292	-0.130	0.234
-731.981	-200.000	0.001	-0.392
-730.966	200.123	-0.106	-0.166
-729.952	-100.046	-0.131	-0.033
-728.937	7.572	0.110	-0.084
-727.923	-200.000	0.035	-0.356
-726.908	-79.375	-0.263	0.090
-725.894	203.874	-0.097	0.153
-724.879	-9.700	-0.104	-0.070
-723.864	25.970	0.131	0.111
-722.850	-196.107	-0.146	-0.001
-721.835	268.162	0.120	0.215
-720.821	-74.723	-0.126	-0.046
-719.806	412.884	-0.064	0.138
-718.791	-200.000	-0.015	0.172
-717.777	-23.316	-0.421	-0.257
-716.762	208.939	-0.033	-0.053
-715.748	-196.600	-0.220	0.001
-714.733	-154.519	-0.273	-0.019
-713.718	800.000	-0.098	0.304
-712.704	-200.000	0.020	-0.221
-711.689	800.000	0.076	-0.303
-710.675	800.000	-0.128	-0.437
-709.660	800.000	-0.102	-0.422
-708.645	-11.728	-0.280	-0.187
-707.631	-200.000	-0.006	-0.080
-706.616	-200.000	-0.034	-0.168
-705.602	-200.000	-0.013	-0.143
-704.587	-200.000	0.002	-0.241
-703.572	3.680	-0.030	-0.022
-702.558	-11.527	0.119	0.079
-701.543	-200.000	-0.016	-0.273
-700.529	800.000	0.073	0.236
-699.514	-200.000	-0.009	-0.125
-698.499	-181.549	-0.082	-0.002
-697.485	-200.000	0.028	-0.334
-696.470	800.000	0.034	-0.125
-695.456	229.327	0.052	0.086
-694.441	697.084	-0.071	-0.189
-693.426	-150.920	-0.062	-0.005
-692.412	800.000	-0.026	-0.076
-691.397	-200.000	0.045	0.250
-690.383	-65.010	0.469	-0.192
-689.368	-127.202	-0.291	0.043
-688.354	-200.000	0.037	0.203
-687.339	-35.488	-0.178	0.098
-686.324	-129.904	-0.151	0.021
-685.310	-60.148	0.393	0.170
-684.295	65.275	-0.162	-0.166
-683.281	-30.282	0.137	-0.079
-682.266	-200.000	0.022	0.105
-681.251	199.159	-0.215	0.335
-680.237	-38.850	-0.029	-0.015
-679.222	203.244	-0.180	-0.282
-678.208	-167.041	0.104	0.004
-677.193	-200.000	-0.002	-0.303
-676.178	-51.212	0.275	-0.131
-675.164	800.000	0.048	-0.186
-674.149	146.577	-0.166	0.226
-673.135	-109.995	0.124	-0.026
-672.120	-200.000	-0.045	-0.279
-671.105	180.390	-0.242	0.360
-670.091	-55.211	-0.214	0.098
-669.076	-146.247	-0.391	-0.035
-668.062	467.073	-0.047	0.107
-667.047	-200.000	-0.001	0.230
-666.032	800.000	0.018	-0.060
-665.018	-76.281	0.228	-0.082
-664.003	-73.502	-0.234	0.087
-662.989	80.646	0.046	-0.050
-661.974	-107.502	-0.361	-0.080
-660.959	-59.454	0.146	-0.063
-659.945	234.564	-0.235	0.393
-658.930	259.092	0.106	0.186
-657.916	1.750	0.080	-0.058
-656.901	154.113	0.112	0.156
-655.886	-158.414	-0.187	-0.011
-654.872	-200.000	0.000	-0.060
-653.857	75.836	-0.232	0.248
-652.843	-164.278	-0.092	-0.004
-651.828	-83.492	-0.130	0.042
-650.814	50.795	-0.340	0.326
-649.799	-76.262	-0.088	-0.031
-648.784	-25.615	0.325	0.194
-647.770	338.928	0.150	-0.296
-646.755	54.114	-0.195	0.190
-645.741	800.000	-0.102	0.296
-644.726	-98.442	0.284	0.074
-643.711	164.781	0.097	-0.139
-642.697	566.550	0.060	-0.147
-641.682	-26.162	-0.296	0.176
-640.668	-153.798	0.068	-0.005
-639.653	-200.000	-0.003	0.314
-638.638	55.865	-0.122	-0.120
-637.624	-120.959	0.129	0.022
-636.609	80.201	-0.171	0.187
-635.595	-122.595	0.172	0.028
-634.580	-124.318	-0.492	-0.078
-633.565	-71.390	-0.198	0.075
-632.551	-59.301	0.093	0.040
-631.536	-104.501	0.404	0.094
-630.522	-200.000	-0.030	-0.346
-629.507	-85.823	0.107	0.034
-628.492	13.483	-0.256	-0.201
-627.478	629.034	-0.072	0.183
-626.463	-200.000	0.024	-0.180
-625.449	1.428	-0.191	-0.139
-624.434	41.326	0.164	-0.150
-623.419	24.628	-0.048	-0.040
-622.405	91.149	0.085	0.096
-621.390	-200.000	-0.011	-0.059
-620.376	-30.573	-0.142	0.081
-619.361	-136.777	-0.167	-0.019
-618.346	79.165	0.203	-0.221
-617.332	-192.558	-0.253	0.002
-616.317	128.290	-0.088	0.113
-615.303	352.180	0.121	-0.242
-614.288	800.000	-0.104	-0.322
-613.273	24.878	0.252	0.212
-612.259	-42.543	-0.180	0.093
-611.244	272.561	-0.219	-0.392
-610.230	-117.604	-0.388	0.071
-609.215	131.714	0.127	0.166
-608.201	-153.792	-0.114	0.008
-607.186	-110.383	-0.019	0.004
-606.171	784.587	-0.128	-0.354
-605.157	38.478	-0.280	-0.252
-604.142	440.932	0.061	0.135
-603.128	-130.846	-0.577	0.078
-602.113	800.000	0.056	-0.175
-601.098	-154.851	0.224	-0.015
-600.084	7.070	0.102	0.077
-599.069	116.194	0.030	-0.037
-598.055	-30.971	0.236	-0.135
-597.040	-200.000	-0.011	0.100
-596.025	-200.000	0.005	0.321
-595.011	52.801	-0.247	-0.239
-593.996	109.096	0.194	-0.235
-592.982	-74.335	0.133	0.049
-591.967	800.000	-0.119	0.467
-590.952	-199.692	-0.287	-0.001
-589.938	800.000	-0.060	0.214
-588.923	-51.013	-0.234	0.111
-587.909	537.927	-0.191	-0.460
-586.894	-128.609	0.060	-0.009
-585.879	52.848	0.174	0.168
-584.865	589.943	-0.102	0.253
-583.850	800.000	-0.057	-0.204
-582.836	800.000	0.080	-0.243
-581.821	-131.253	-0.270	-0.036
-580.806	3.822	0.240	0.177
-579.792	-200.000	-0.002	-0.057
-578.777	717.528	-0.034	-0.091
-577.763	-176.242	0.113	0.003
-576.748	-200.000	-0.008	0.093
-575.733	354.370	0.126	0.253
-574.719	636.480	-0.061	0.157
-573.704	-73.644	0.218	0.080
-572.690	123.834	0.310	0.393
-571.675	192.959	0.309	0.472
-570.661	45.019	-0.219	-0.204
-569.646	-130.499	0.326	-0.044
-568.631	319.597	0.097	0.185
-567.617	247.477	0.099	-0.169
-566.602	28.949	-0.353	-0.303
-565.588	-62.944	-0.056	0.023
-564.573	164.224	0.128	-0.182
-563.558	73.467	-0.040	-0.042
-562.544	143.978	-0.044	0.059
-561.529	668.522	-0.108	0.282
-560.515	-52.581	-0.233	-0.109
-559.500	-62.489	0.297	-0.124
-558.485	800.000	0.021	-0.068
-557.471	-83.095	0.095	0.031
-556.456	86.511	-0.086	-0.095
-555.442	-54.323	-0.379	0.174
-554.427	-135.091	0.256	-0.031
-553.412	21.180	-0.110	0.090
-552.398	122.497	0.079	0.099
-551.383	-111.930	-0.288	-0.059
-550.369	-95.868	-0.233	-0.063
-549.354	84.455	0.196	0.217
-548.339	800.000	-0.057	-0.205
-547.325	-109.482	-0.291	0.062
-546.310	-200.000	0.028	0.146
-545.296	-175.637	-0.195	-0.005
-544.281	16.479	-0.316	-0.252
-543.266	140.038	0.012	-0.016
-542.252	-200.000	-0.031	0.161
-541.237	7.262	-0.140	0.105
-540.223	-200.000	0.018	-0.116
-539.208	83.662	0.185	0.203
-538.193	-200.000	-0.035	-0.173
-537.179	-63.260	0.245	-0.102
-536.164	-123.088	0.210	0.034
-535.150	-137.972	0.173	0.019
-534.135	504.199	-0.103	0.240
-533.121	201.225	0.096	0.149
-532.106	800.000	0.014	-0.048
-531.091	141.967	-0.143	-0.191
-530.077	18.925	-0.093	-0.075
-529.062	209.996	-0.096	0.152
-528.048	348.701	-0.044	0.088
-527.033	-88.714	-0.196	0.059
-526.018	-200.000	0.013	-0.526
-525.004	-24.579	-0.126	0.075
-523.989	45.919	0.153	-0.143
-522.975	-200.000	0.042	-0.466
-521.960	27.871	-0.083	0.071
-520.945	105.316	-0.067	-0.080
-519.931	-19.067	-0.286	0.179
-518.916	199.072	0.155	-0.239
-517.902	-128.003	-0.347	0.050
-516.887	114.246	0.096	-0.118
-515.872	-102.666	0.168	0.040
-514.858	-106.652	-0.193	0.043
-513.843	-200.000	-0.011	-0.363
-512.829	78.162	-0.192	0.206
-511.814	800.000	-0.080	0.329
-510.799	-103.678	-0.116	-0.027
-509.785	-68.930	0.190	-0.074
-508.770	73.648	-0.094	0.100
-507.756	262.944	-0.023	-0.041
-506.741	497.731	0.110	0.255
-505.726	-82.989	0.211	0.068
-504.712	-200.000	0.004	0.186
-503.697	-78.094	-0.127	0.044
-502.683	64.478	0.249	-0.253
-501.668	744.118	0.030	-0.082
-500.653	-58.318	0.300	-0.131
-499.639	109.504	-0.245	0.296
-498.624	-99.123	0.068	0.017
-497.610	422.225	0.059	0.127
-496.595	-51.242	0.285	0.135
-495.581	-200.000	0.009	-0.078
-494.566	-102.191	-0.238	-0.058
-493.551	-103.437	0.369	-0.087
-492.537	800.000	0.048	-0.199
-491.522	-200.000	-0.001	-0.068
-490.508	90.983	0.134	-0.151
-489.493	800.000	0.075	-0.221
-488.478	-200.000	0.045	-0.274
-487.464	-158.834	0.263	0.015
-486.449	-87.825	0.218	-0.066
-485.435	82.751	-0.302	0.330
-484.420	521.008	-0.025	-0.059
-483.405	593.532	0.068	0.170
-482.391	74.056	-0.237	-0.251
-481.376	256.230	-0.142	-0.245
-480.362	800.000	-0.069	0.204
-479.347	158.838	0.131	0.183
-478.332	-200.000	0.021	-0.140
-477.318	113.627	0.121	0.148
-476.303	114.672	-0.089	0.109
-475.289	-46.177	-0.138	-0.068
-474.274	-200.000	0.026	0.157
-473.259	-106.123	0.399	0.090
-472.245	-54.605	-0.147	-0.067
-471.230	-10.424	-0.170	-0.113
-470.216	-30.301	0.267	-0.152
-469.201	-140.868	0.648	0.067
-468.186	-114.605	0.245	0.047
-467.172	395.563	-0.109	-0.229
-466.157	800.000	-0.030	0.110
-465.143	-100.167	0.352	-0.088
-464.128	-112.988	0.509	0.101
-463.113	29.890	0.129	0.111
-462.099	-107.212	-0.153	0.034
-461.084	53.965	0.047	-0.045
-460.070	37.404	0.025	0.022
-459.055	-22.422	0.265	0.161
-458.040	-19.844	-0.187	-0.116
-457.026	-200.000	-0.062	-0.303
-456.011	-53.235	0.183	0.084
-454.997	-94.643	-0.196	0.054
-453.982	168.914	-0.059	-0.084
-452.968	281.195	-0.045	0.082
-451.953	44.075	-0.202	0.186
-450.938	-200.000	0.019	0.125
-449.924	-119.323	0.042	0.007
-448.909	138.135	-0.076	-0.100
-447.895	-97.760	0.224	-0.058
-446.880	480.374	-0.118	-0.268
-445.865	-200.000	0.014	0.112
-444.851	130.024	0.162	0.209
-443.836	4.066	0.075	0.055
-442.822	32.067	-0.057	-0.050
-441.807	800.000	-0.024	-0.080
-440.792	-200.000	0.026	0.216
-439.778	124.130	0.173	0.219
-438.763	30.772	-0.222	0.191
-437.749	507.429	-0.123	0.288
-436.734	324.145	-0.082	-0.158
-435.719	800.000	0.084	-0.352
-434.705	-175.748	-0.363	-0.010
-433.690	561.512	0.126	-0.306
-432.676	102.421	-0.218	0.256
-431.661	-200.000	0.014	0.270
-430.646	-14.142	-0.064	-0.042
-429.632	473.647	0.019	-0.042
-428.617	-14.753	-0.172	-0.111
-427.603	584.638	0.066	0.163
-426.588	39.311	-0.166	0.149
-425.573	-200.000	0.000	-0.488
-424.559	-6.525	-0.157	0.107
-423.544	-54.605	-0.241	0.110
-422.530	-83.105	-0.081	0.026
-421.515	-200.000	0.005	0.089
-420.500	800.000	0.024	-0.074
-419.486	800.000	-0.100	-0.292
-418.471	167.848	0.156	0.223
-417.457	-200.000	0.031	0.336
-416.442	-4.138	-0.065	0.045
-415.428	-200.000	0.003	0.032
-414.413	-200.000	-0.039	0.171
-413.398	800.000	-0.053	-0.163
-412.384	60.087	0.066	-0.065
-411.369	-10.807	0.161	0.107
-410.355	-84.241	-0.176	0.056
-409.340	40.418	0.187	-0.169
-408.325	-121.083	0.279	-0.047
-407.311	800.000	-0.067	0.219
-406.296	-200.000	-0.039	-0.202
-405.282	161.484	-0.253	0.355
-404.267	-85.642	0.334	-0.104
-403.252	800.000	-0.039	0.108
-402.238	800.000	0.079	0.288
-401.223	-16.033	-0.236	-0.150
-400.209	192.815	0.069	-0.105
-399.194	-200.000	-0.008	0.308
-398.179	204.760	0.109	-0.169
-397.165	85.061	0.154	0.169
-396.150	-8.822	-0.098	-0.066
-395.136	736.047	-0.169	0.455
-394.121	-78.182	0.268	0.093
-393.106	6.660	0.338	-0.252
-392.092	22.545	0.186	-0.152
-391.077	-48.019	-0.280	-0.136
-390.063	-60.769	0.318	0.135
-389.048	-67.063	-0.246	-0.097
-388.033	-200.000	-0.012	-0.368
-387.019	-200.000	0.030	0.312
-386.004	402.933	0.157	0.330
-384.990	71.832	-0.085	0.089
-383.975	-200.000	0.006	0.366
-382.960	-28.392	0.186	0.108
-381.946	-200.000	-0.012	-0.108
-380.931	43.040	0.214	0.196
-379.917	124.597	-0.219	-0.276
-378.902	-169.454	0.461	0.017
-377.888	800.000	0.094	-0.297
-376.873	86.538	0.113	-0.125
-375.858	-56.365	0.312	-0.139
-374.844	800.000	0.059	-0.203
-373.829	70.104	-0.194	-0.201
-372.815	-124.806	0.156	0.024
-371.800	-200.000	-0.049	0.254
-370.785	-200.000	-0.047	-0.265
-369.771	-147.607	-0.297	-0.025
-368.756	-200.000	0.041	-0.323
-367.742	51.219	-0.138	-0.131
-366.727	-106.901	-0.143	0.032
-365.712	134.046	-0.268	-0.348
-364.698	-93.910	-0.265	0.073
-363.683	66.414	-0.240	0.244
-362.669	91.267	0.133	-0.149
-361.654	259.304	-0.169	-0.292
-360.639	-200.000	-0.006	-0.052
-359.625	34.149	0.095	-0.083
-358.610	-2.975	0.194	0.136
-357.596	-14.212	0.064	-0.041
-356.581	-200.000	-0.011	-0.086
-355.566	-13.497	0.045	-0.029
-354.552	-200.000	-0.040	0.181
-353.537	-200.000	-0.034	-0.243
-352.523	-23.020	0.287	-0.173
-351.508	-78.809	-0.093	-0.032
-350.493	800.000	-0.068	0.201
-349.479	400.837	0.052	0.108
-348.464	538.928	0.086	0.205
-347.450	-25.908	0.235	-0.139
-346.435	51.015	-0.247	0.235
-345.420	-200.000	-0.058	0.255
-344.406	-127.457	0.323	-0.047
-343.391	-37.405	-0.151	0.081
-342.377	10.199	0.139	-0.106
-341.362	-200.000	0.006	0.072
-340.348	-114.876	0.231	-0.044
-339.333	-200.000	0.025	0.253
-338.318	-170.527	-0.035	0.001
-337.304	13.725	0.033	-0.026
-336.289	-200.000	-0.010	-0.239
-335.275	-37.341	0.059	0.032
-334.260	560.545	0.074	0.179
-333.245	-132.840	0.187	0.024
-332.231	-32.181	-0.283	-0.158
-331.216	281.504	-0.044	-0.078
-330.202	-119.849	-0.163	-0.028
-329.187	800.000	0.066	0.204
-328.172	-7.087	0.104	-0.070
-327.158	443.171	-0.107	-0.234
-326.143	160.517	0.181	-0.253
-325.129	-8.983	-0.195	0.131
-324.114	-81.229	-0.137	0.045
-323.099	-42.913	0.061	-0.031
-322.085	-4.415	-0.024	0.016
-321.070	-115.001	-0.272	0.052
-320.056	-126.924	0.328	0.048
-319.041	108.092	-0.125	-0.149
-318.026	268.269	-0.117	-0.204
-317.012	13.414	0.047	-0.037
-315.997	-79.072	-0.264	0.090
-314.983	800.000	0.069	0.195
-313.968	53.945	0.200	-0.193
-312.953	51.814	0.115	0.109
-311.939	-200.000	-0.052	0.360
-310.924	-200.000	-0.043	-0.202
-309.910	-62.044	-0.151	0.063
-308.895	-117.693	-0.066	0.012
-307.880	43.843	0.097	0.089
-306.866	-121.783	0.296	-0.049
-305.851	800.000	0.026	-0.111
-304.837	-132.539	0.435	0.056
-303.822	-39.761	0.120	-0.063
-302.807	64.541	0.110	0.111
-301.793	372.326	0.045	-0.091
-300.778	-4.565	0.023	-0.016
-299.764	-39.251	-0.318	0.167
-298.749	-100.318	-0.480	-0.119
-297.735	-21.613	0.229	0.140
-296.720	-110.369	-0.071	0.015
-295.705	-48.524	0.234	-0.112
-294.691	178.680	0.321	0.469
-293.676	380.500	0.125	0.255
-292.662	347.886	-0.131	-0.257
-291.647	278.871	0.140	-0.249
-290.632	179.542	0.094	0.138
-289.618	-92.536	0.299	-0.084
-288.603	22.945	0.316	0.259
-287.589	88.324	0.142	0.158
-286.574	-133.428	-0.193	0.024
-285.559	338.901	0.154	0.300
-284.545	-0.075	-0.296	0.210
-283.530	-158.416	-0.159	-0.009
-282.516	-69.356	-0.393	-0.151
-281.501	-41.194	0.435	-0.224
-280.486	-200.000	0.018	0.159
-279.472	-200.000	-0.028	0.384
-278.457	56.685	0.060	0.059
-277.443	-200.000	0.041	-0.353
-276.428	-200.000	-0.011	-0.109
-275.413	-139.111	-0.066	0.007
-274.399	499.860	0.101	-0.232
-273.384	-90.039	-0.250	0.073
-272.370	-9.905	-0.320	0.212
-271.355	-64.486	-0.075	0.030
-270.340	-101.932	-0.157	-0.038
-269.326	98.853	-0.077	0.089
-268.311	69.925	-0.272	0.280
-267.297	-200.000	-0.028	-0.154
-266.282	41.382	0.083	0.075
-265.267	-200.000	0.026	0.254
-264.253	-89.090	0.148	0.044
-263.238	800.000	-0.068	-0.196
-262.224	207.004	0.141	0.219
-261.209	-200.000	0.035	0.250
-260.195	-200.000	0.011	0.138
-259.180	800.000	-0.013	-0.041
-258.165	-33.202	0.109	-0.060
-257.151	-140.836	-0.146	0.015
-256.136	253.147	0.143	-0.244
-255.122	-47.895	-0.139	-0.067
-254.107	-33.052	0.052	0.029
-253.092	89.586	-0.040	-0.044
-252.078	32.360	-0.181	-0.156
-251.063	475.838	0.135	-0.304
-250.049	-103.185	0.030	0.007
-249.034	-6.492	0.068	-0.046
-248.019	100.826	0.110	-0.128
-247.005	800.000	-0.054	-0.180
-245.990	-102.590	0.152	0.036
-244.976	73.893	-0.056	-0.058
-243.961	-200.000	0.017	0.140
-242.946	-159.261	-0.212	-0.012
-241.932	-163.660	0.275	0.013
-240.917	41.677	-0.171	0.155
-239.903	-200.000	-0.067	-0.528
-238.888	-6.012	-0.198	-0.135
-237.873	9.189	0.232	-0.175
-236.859	-159.019	-0.210	0.012
-235.844	-114.812	0.338	0.064
-234.830	-61.125	-0.233	-0.098
-233.815	-200.000	-0.025	-0.207
-232.800	-100.877	0.111	-0.027
-231.786	3.050	-0.258	0.187
-230.771	800.000	0.054	-0.200
-229.757	-80.789	0.097	-0.032
-228.742	-108.008	-0.210	0.045
-227.727	735.895	0.072	-0.191
-226.713	-43.197	-0.354	-0.178
-225.698	-100.206	0.274	-0.068
-224.684	-22.541	-0.173	-0.104
-223.669	800.000	-0.047	-0.175
-222.655	-200.000	-0.004	0.131
-221.640	-30.113	0.165	-0.094
-220.625	-32.082	-0.120	0.067
-219.611	-200.000	-0.023	0.387
-218.596	-111.944	0.273	0.055
-217.582	10.434	-0.227	-0.172
-216.567	-200.000	-0.002	-0.325
-215.552	-200.000	-0.038	-0.165
-214.538	-22.378	-0.190	-0.114
-213.523	105.495	-0.361	0.425
-212.509	-66.222	-0.322	-0.128
-211.494	800.000	-0.024	0.100
-210.479	-200.000	-0.032	0.285
-209.465	131.996	0.149	-0.190
-208.450	273.603	0.010	0.018
-207.436	-64.564	-0.202	0.082
-206.421	-110.883	0.132	-0.027
-205.406	47.496	-0.214	-0.199
-204.392	71.129	0.259	-0.268
-203.377	-61.299	0.225	-0.094
-202.363	163.332	-0.080	0.112
-201.348	449.702	-0.101	0.223
-200.333	-110.550	0.267	-0.055
-199.319	-120.911	0.389	0.065
-198.304	-155.650	-0.306	-0.020
-197.290	-100.869	-0.154	-0.038
-196.275	431.608	0.136	-0.294
-195.260	-200.000	-0.010	0.106
-194.246	185.138	0.056	-0.082
-193.231	688.357	0.142	0.370
-192.217	76.537	0.102	0.107
-191.202	57.975	0.141	0.138
-190.187	-200.000	0.002	0.069
-189.173	-200.000	-0.020	-0.235
-188.158	101.854	-0.105	-0.122
-187.144	-48.604	-0.132	-0.063
-186.129	32.764	-0.087	0.075
-185.114	-200.000	-0.011	0.229
-184.100	745.041	0.022	-0.058
-183.085	38.248	-0.119	-0.105
-182.071	-49.307	-0.081	0.039
-181.056	109.091	0.113	-0.134
-180.042	35.644	0.073	-0.064
-179.027	-150.762	-0.137	-0.010
-178.012	393.620	-0.155	0.321
-176.998	426.855	0.194	-0.417
-175.983	-200.000	-0.001	-0.121
-174.969	-73.695	0.177	0.064
-173.954	143.829	-0.253	0.336
-172.939	-78.704	-0.186	0.063
-171.925	146.900	-0.105	-0.140
-170.910	800.000	-0.058	-0.192
-169.896	800.000	-0.013	0.047
-168.881	181.931	0.011	0.016
-167.866	673.535	-0.112	0.289
-166.852	3.361	0.263	0.190
-165.837	-22.779	-0.150	0.090
-164.823	121.013	-0.094	0.116
-163.808	800.000	0.024	-0.086
-162.793	327.026	0.070	-0.134
-161.779	-200.000	-0.013	0.309
-160.764	590.845	-0.115	0.283
-159.750	-200.000	-0.021	0.207
-158.735	-60.074	0.254	0.108
-157.720	-76.546	-0.208	-0.073
-156.706	73.473	0.321	-0.334
-155.691	-82.613	0.077	-0.025
-154.677	-195.373	0.220	-0.002
-153.662	800.000	-0.047	-0.174
-152.647	268.050	-0.075	0.131
-151.633	128.199	0.186	-0.235
-150.618	-0.862	0.127	-0.089
-149.604	-52.201	0.070	0.032
-148.589	-200.000	0.020	-0.168
-147.574	800.000	-0.036	0.119
-146.560	-197.740	0.392	-0.002
-145.545	-99.836	-0.229	0.057
-144.531	-148.768	0.188	0.015
-143.516	-83.181	-0.267	0.085
-142.502	-56.178	0.349	0.154
-141.487	-138.602	-0.154	0.017
-140.472	-200.000	0.012	0.181
-139.458	519.948	-0.038	0.088
-138.443	252.176	-0.072	-0.122
-137.429	-127.261	-0.025	-0.004
-136.414	-107.179	-0.358	0.078
-135.399	761.129	-0.010	0.026
-134.385	501.721	-0.073	-0.168
-133.370	-200.000	0.045	-0.256
-132.356	-88.950	-0.085	0.025
-131.341	-200.000	0.028	-0.134
-130.326	-104.490	-0.209	0.048
-129.312	202.148	0.075	-0.115
-128.297	172.252	-0.150	-0.214
-127.283	11.451	0.243	0.185
-126.268	800.000	-0.061	-0.195
-125.253	-63.202	0.109	0.045
-124.239	219.697	0.096	-0.153
-123.224	95.485	-0.124	0.141
-122.210	177.083	0.169	0.244
