DTS Sentinel unit serial number:	SN413079Multiplexer serial number:	ORYXHardware model number:	OX4-SRSoftware version number:	ORYX F/W v4.00 Oryx Data Collector v3.7.2.0data status	okinstallation	princeton_trtdifferential loss correction	single-endedforward channel	channel 4reverse channel	N/Adate	2019/09/12time	19:57:18forward acquisition time	15.00reverse acquisition time	0.00gamma	496.2192k internal	0.2310k external	0.2310temperature offset calibration	1.0165default loss term (dB/km)	0.3790temperature slope calibration	1.0000multiplexer offset coefficient	1.0000multiplexer slope coefficient	1.0000fibre end	0.00T internal ref (°C)	31.81T ext. ref 1 (°C)	3.48T ext. ref 2 (°C)	26.39length (m)	temperature (°C)	Stokes	anti-Stokes-747.200	-58.757	0.438	0.193
-746.185	-200.000	0.026	0.331
-745.171	-74.680	-0.335	-0.123
-744.156	800.000	-0.029	-0.098
-743.142	-128.953	-0.550	0.078
-742.127	-54.465	0.343	-0.158
-741.112	-158.614	0.573	-0.033
-740.098	5.868	0.180	0.135
-739.083	-91.923	-0.434	0.125
-738.069	0.795	-0.690	0.501
-737.054	-200.000	-0.147	-0.807
-736.039	21.972	-0.233	0.193
-735.025	-200.000	-0.089	1.185
-734.010	47.332	-0.166	-0.157
-732.996	49.496	-0.267	-0.255
-731.981	53.577	-0.271	0.264
-730.966	-109.019	-0.433	-0.094
-729.952	-200.000	-0.059	-0.343
-728.937	272.046	0.381	-0.682
-727.923	738.198	-0.067	-0.181
-726.908	-104.404	-0.040	-0.009
-725.894	289.914	0.180	0.332
-724.879	-200.000	0.076	-0.519
-723.864	-125.314	1.054	-0.163
-722.850	-12.166	-0.259	-0.172
-721.835	-200.000	-0.074	0.445
-720.821	168.915	0.363	0.525
-719.806	-54.573	0.477	-0.219
-718.791	84.430	-0.776	-0.861
-717.777	167.823	0.460	0.663
-716.762	135.503	0.096	-0.127
-715.748	-200.000	-0.092	-1.162
-714.733	-42.715	-1.003	0.517
-713.718	-123.156	0.574	0.093
-712.704	-53.008	-0.193	0.090
-711.689	474.009	0.203	-0.464
-710.675	-123.354	0.897	-0.145
-709.660	-141.772	-0.417	0.042
-708.645	-200.000	0.020	0.388
-707.631	194.440	-0.425	-0.654
-706.616	-125.000	0.420	0.066
-705.602	-9.229	-0.648	-0.439
-704.587	-154.040	-0.355	-0.024
-703.572	800.000	0.020	0.065
-702.558	65.348	-0.291	-0.299
-701.543	-200.000	0.049	-0.261
-700.529	-177.285	0.793	0.020
-699.514	-200.000	0.013	-0.441
-698.499	-121.845	-0.534	-0.089
-697.485	-96.397	0.779	0.209
-696.470	-40.065	-0.476	0.251
-695.456	-200.000	-0.011	-0.299
-694.441	-54.849	-0.495	0.227
-693.426	-128.190	0.584	-0.085
-692.412	-75.439	0.806	-0.291
-691.397	-118.101	-0.642	-0.116
-690.383	126.407	0.471	-0.604
-689.368	-108.306	0.328	0.072
-688.354	712.654	-0.382	1.025
-687.339	77.009	-0.667	-0.717
-686.324	-113.653	-0.427	0.084
-685.310	208.984	-0.182	0.289
-684.295	611.400	0.254	-0.645
-683.281	-74.304	-0.217	0.079
-682.266	769.022	-0.082	-0.226
-681.251	10.833	-0.633	-0.489
-680.237	148.191	0.388	0.531
-679.222	120.391	-0.503	-0.632
-678.208	-121.354	-0.317	-0.054
-677.193	-200.000	0.014	-0.559
-676.178	-177.783	0.561	-0.014
-675.164	800.000	0.110	-0.391
-674.149	633.250	-0.105	-0.270
-673.135	85.986	-0.626	-0.698
-672.120	240.829	0.093	-0.158
-671.105	684.267	-0.127	0.336
-670.091	219.586	0.328	0.531
-669.076	-37.040	0.223	0.121
-668.062	72.457	0.545	0.575
-667.047	-168.476	0.650	0.025
-666.032	467.616	0.057	-0.130
-665.018	-200.000	0.103	0.567
-664.003	800.000	0.233	-0.658
-662.989	-200.000	0.066	-0.941
-661.974	75.644	-0.488	-0.522
-660.959	118.783	0.384	0.480
-659.945	-200.000	0.174	0.796
-658.930	50.200	0.355	0.339
-657.916	-200.000	-0.015	-0.120
-656.901	165.029	-0.393	-0.562
-655.886	800.000	-0.072	-0.242
-654.872	22.022	-0.445	0.368
-653.857	-80.251	-0.447	0.151
-652.843	-111.210	-0.619	0.128
-651.828	575.214	0.305	0.753
-650.814	104.303	-0.227	-0.270
-649.799	-109.599	0.280	0.060
-648.784	40.207	-0.547	0.498
-647.770	150.935	0.124	0.170
-646.755	724.637	0.142	-0.382
-645.741	692.525	0.111	-0.294
-644.726	800.000	0.233	-0.756
-643.711	-100.487	-0.451	-0.113
-642.697	-36.243	0.699	0.381
-641.682	-163.456	0.657	0.032
-640.668	-68.320	-0.707	-0.278
-639.653	53.625	-0.300	-0.291
-638.638	-200.000	-0.009	-0.485
-637.624	-24.251	-0.350	0.211
-636.609	800.000	0.104	0.313
-635.595	95.601	0.786	-0.907
-634.580	54.960	0.541	-0.529
-633.565	113.298	0.228	0.279
-632.551	338.813	-0.343	0.676
-631.536	28.146	-0.442	-0.378
-630.522	13.562	0.204	0.160
-629.507	-200.000	-0.152	1.025
-628.492	658.741	-0.347	-0.903
-627.478	-200.000	-0.067	-0.457
-626.463	120.646	0.367	-0.462
-625.449	-200.000	0.039	0.540
-624.434	-91.748	-0.269	-0.077
-623.419	-200.000	0.031	-0.263
-622.405	-104.204	-0.910	0.214
-621.390	-1.639	-1.214	0.864
-620.376	-200.000	-0.020	-0.399
-619.361	231.208	-0.232	0.383
-618.346	492.336	-0.397	-0.919
-617.332	-107.766	-0.271	0.060
-616.317	-76.853	-0.524	-0.185
-615.303	-189.506	-0.217	0.003
-614.288	-17.996	0.487	0.308
-613.273	100.893	0.180	0.212
-612.259	-89.816	-0.766	-0.226
-611.244	-95.692	0.942	-0.254
-610.230	-92.088	-0.133	-0.038
-609.215	-104.893	-0.296	-0.069
-608.201	12.457	0.217	-0.169
-607.186	800.000	-0.123	-0.401
-606.171	-170.602	1.171	-0.041
-605.157	-200.000	0.319	0.000
-604.142	-200.000	0.001	-0.043
-603.128	-81.778	0.215	-0.071
-602.113	-109.024	0.744	-0.160
-601.098	-121.627	-0.469	-0.079
-600.084	-133.935	0.779	-0.098
-599.069	3.049	-0.295	-0.216
-598.055	162.084	0.291	-0.412
-597.040	-200.000	0.001	0.063
-596.025	-200.000	-0.047	-0.563
-595.011	0.858	-0.709	0.513
-593.996	-55.450	-0.576	0.261
-592.982	550.740	0.128	-0.311
-591.967	417.817	-0.221	-0.477
-590.952	493.127	-0.141	-0.326
-589.938	-200.000	-0.030	0.378
-588.923	-200.000	0.040	0.900
-587.909	162.472	-0.494	-0.700
-586.894	71.334	0.337	-0.353
-585.879	-27.037	-0.221	-0.130
-584.865	362.752	-0.180	-0.365
-583.850	800.000	-0.165	0.686
-582.836	-133.101	-0.561	0.072
-581.821	-73.496	0.440	-0.162
-580.806	221.322	0.224	-0.363
-579.792	168.041	-0.342	-0.491
-578.777	-130.828	0.773	0.105
-577.763	-150.279	-0.545	-0.042
-576.748	423.505	0.396	0.859
-575.733	280.785	0.363	0.656
-574.719	-125.340	0.284	-0.044
-573.704	-199.113	0.214	0.001
-572.690	135.153	0.419	-0.549
-571.675	304.935	-0.152	-0.285
-570.661	-80.300	-0.278	-0.094
-569.646	-187.610	-0.338	-0.005
-568.631	-125.437	-0.842	-0.129
-567.617	296.965	0.266	-0.493
-566.602	159.132	0.304	-0.426
-565.588	-14.313	0.425	-0.276
-564.573	800.000	0.193	0.650
-563.558	800.000	0.198	0.583
-562.544	-89.693	-0.280	0.083
-561.529	-80.015	-0.375	-0.127
-560.515	697.342	0.380	1.006
-559.500	800.000	0.044	-0.123
-558.485	118.860	0.609	0.759
-557.471	-200.000	0.034	0.470
-556.456	47.065	-0.496	-0.465
-555.442	244.787	0.166	0.281
-554.427	-18.971	-0.737	-0.462
-553.412	-200.000	0.043	-0.734
-552.398	-131.526	-0.696	0.092
-551.383	225.299	0.246	0.401
-550.369	-115.735	-0.659	0.124
-549.354	800.000	0.297	-0.846
-548.339	692.337	-0.245	-0.648
-547.325	-35.046	0.125	0.068
-546.310	-59.950	0.635	0.273
-545.296	-200.000	0.008	-0.042
-544.281	144.752	-0.478	0.643
-543.266	183.801	0.264	0.393
-542.252	800.000	0.174	0.639
-541.237	-7.552	-0.502	-0.342
-540.223	-110.361	-0.617	0.129
-539.208	-65.701	0.070	-0.028
-538.193	-43.071	0.288	-0.147
-537.179	34.683	0.269	-0.237
-536.164	181.340	-0.507	-0.752
-535.150	-81.636	-0.748	-0.247
-534.135	19.459	0.330	-0.267
-533.121	-200.000	-0.020	-0.385
-532.106	-148.760	0.385	0.031
-531.091	-64.886	-0.165	-0.067
-530.077	-200.000	0.118	-0.588
-529.062	77.669	-0.348	-0.373
-528.048	-95.738	0.494	-0.133
-527.033	-200.000	-0.036	0.459
-526.018	5.556	-0.351	0.261
-525.004	69.045	-0.396	0.410
-523.989	7.374	0.287	0.216
-522.975	9.048	0.283	0.215
-521.960	-200.000	-0.036	-0.880
-520.945	-196.659	-0.788	-0.005
-519.931	-126.652	0.241	0.036
-518.916	1.385	-0.117	-0.085
-517.902	-55.654	0.335	-0.151
-516.887	6.675	-0.277	0.208
-515.872	-137.531	-0.628	-0.071
-514.858	-90.981	-0.229	-0.066
-513.843	-200.000	0.091	-0.789
-512.829	47.549	-0.678	-0.636
-511.814	160.920	0.147	0.206
-510.799	-200.000	0.030	0.483
-509.785	349.647	-0.100	-0.199
-508.770	300.193	0.198	-0.367
-507.756	217.148	0.184	-0.295
-506.741	800.000	0.079	0.246
-505.726	660.685	0.104	0.270
-504.712	272.229	0.315	-0.560
-503.697	800.000	-0.135	-0.510
-502.683	-154.664	0.374	-0.025
-501.668	698.012	-0.133	0.352
-500.653	511.296	0.304	-0.712
-499.639	800.000	-0.140	0.410
-498.624	-107.279	0.557	-0.123
-497.610	-200.000	-0.120	-0.975
-496.595	-108.917	0.511	-0.110
-495.581	-55.701	0.396	-0.178
-494.566	800.000	0.099	-0.391
-493.551	-24.467	-0.429	0.257
-492.537	800.000	-0.097	0.361
-491.522	582.364	-0.203	0.500
-490.508	-147.200	-0.546	0.047
-489.493	-108.045	-0.436	0.095
-488.478	21.009	0.722	0.589
-487.464	115.207	-0.339	0.416
-486.449	-200.000	-0.031	-0.305
-485.435	-33.858	-0.423	-0.234
-484.420	91.982	0.528	0.597
-483.405	531.367	0.308	0.731
-482.391	800.000	0.208	-0.586
-481.376	250.933	-0.210	-0.358
-480.362	-170.182	0.299	-0.011
-479.347	152.050	0.187	0.257
-478.332	243.900	-0.309	0.522
-477.318	137.248	-0.241	0.316
-476.303	-143.850	-0.383	-0.036
-475.289	-200.000	-0.115	0.701
-474.274	212.416	0.273	-0.433
-473.259	188.274	0.119	0.179
-472.245	-200.000	0.089	-0.630
-471.230	644.436	-0.299	-0.767
-470.216	392.016	0.387	-0.808
-469.201	-170.008	0.341	0.012
-468.186	800.000	0.236	-0.745
-467.172	800.000	0.208	0.594
-466.157	641.237	-0.098	-0.250
-465.143	84.620	0.534	-0.588
-464.128	201.246	0.103	-0.159
-463.113	103.869	0.318	-0.375
-462.099	-200.000	-0.194	-0.001
-461.084	147.417	-0.488	-0.660
-460.070	-134.685	0.915	-0.112
-459.055	-8.794	-0.281	-0.189
-458.040	612.297	-0.120	0.303
-457.026	-35.095	-0.428	-0.234
-456.011	163.703	0.199	-0.282
-454.997	-108.141	-0.859	-0.187
-453.982	-98.689	0.614	-0.157
-452.968	-30.159	0.558	0.318
-451.953	-41.202	-0.529	-0.274
-450.938	-8.885	-0.320	0.215
-449.924	-87.041	0.124	-0.038
-448.909	800.000	0.161	0.635
-447.895	-156.376	0.329	-0.021
-446.880	63.717	-0.638	-0.644
-445.865	800.000	-0.162	0.528
-444.851	-45.858	-0.605	0.300
-443.836	-200.000	0.030	-0.195
-442.822	-51.215	0.700	-0.329
-441.807	-36.042	-0.253	0.137
-440.792	-17.420	-0.641	0.405
-439.778	148.365	0.079	-0.108
-438.763	-129.994	0.529	-0.073
-437.749	272.712	0.192	0.340
-436.734	186.602	0.273	-0.408
-435.719	-200.000	-0.090	0.672
-434.705	-45.592	0.720	-0.357
-433.690	-114.164	-0.858	0.166
-432.676	-40.325	0.220	0.115
-431.661	-200.000	-0.095	-0.641
-430.646	-118.747	0.274	0.048
-429.632	-119.502	-0.553	0.096
-428.617	-200.000	-0.085	-0.597
-427.603	-1.953	0.342	0.241
-426.588	557.767	0.231	-0.559
-425.573	41.780	-0.017	-0.016
-424.559	-47.495	0.591	0.288
-423.544	478.881	-0.313	-0.711
-422.530	48.571	-0.373	-0.351
-421.515	-121.663	0.805	-0.134
-420.500	-200.000	-0.081	0.420
-419.486	800.000	0.079	-0.219
-418.471	-200.000	-0.059	-0.465
-417.457	690.097	-0.189	0.497
-416.442	-95.051	0.482	-0.131
-415.428	-200.000	-0.081	-0.555
-414.413	-200.000	-0.173	0.774
-413.398	672.590	-0.177	0.460
-412.384	-108.441	0.528	0.114
-411.369	-200.000	-0.063	0.919
-410.355	-143.135	0.941	-0.091
-409.340	800.000	-0.017	-0.073
-408.325	547.223	-0.274	-0.656
-407.311	-106.655	0.297	-0.066
-406.296	325.041	0.067	0.128
-405.282	249.421	0.576	0.978
-404.267	264.861	0.109	-0.190
-403.252	-105.053	-0.700	-0.160
-402.238	242.312	0.435	0.729
-401.223	-119.504	0.447	-0.078
-400.209	337.039	-0.049	0.095
-399.194	70.436	0.363	-0.376
-398.179	706.831	0.091	-0.240
-397.165	91.827	0.132	0.148
-396.150	-200.000	0.029	-0.268
-395.136	270.788	-0.365	0.644
-394.121	-84.162	-0.478	-0.152
-393.106	477.116	-0.368	-0.833
-392.092	93.673	0.538	-0.611
-391.077	800.000	0.110	0.329
-390.063	-200.000	0.092	-0.413
-389.048	-91.558	-0.407	0.116
-388.033	-55.570	-0.715	-0.321
-387.019	0.447	0.453	-0.324
-386.004	-78.117	-0.179	-0.062
-384.990	282.331	0.224	0.403
-383.975	-90.857	0.966	-0.279
-382.960	-117.802	0.599	0.108
-381.946	724.239	0.119	-0.318
-380.931	156.811	-0.554	-0.767
-379.917	-180.102	-0.699	-0.015
-378.902	-62.116	-0.218	-0.091
-377.888	-49.820	-0.329	-0.156
-376.873	800.000	-0.126	-0.537
-375.858	-118.669	0.624	0.110
-374.844	213.680	-0.423	0.670
-373.829	-13.411	0.899	-0.584
-372.815	-122.186	-0.664	-0.109
-371.800	800.000	-0.201	-0.707
-370.785	285.009	-0.110	-0.198
-369.771	97.084	0.388	0.446
-368.756	2.973	-0.245	0.178
-367.742	-59.449	0.805	-0.346
-366.727	-26.650	0.162	-0.095
-365.712	800.000	0.197	-0.558
-364.698	800.000	-0.075	-0.210
-363.683	-0.804	-0.488	0.346
-362.669	800.000	-0.223	-0.634
-361.654	-200.000	-0.036	-0.404
-360.639	-94.099	1.017	-0.279
-359.625	-200.000	0.051	0.479
-358.610	-18.910	0.918	-0.571
-357.596	119.168	0.192	0.238
-356.581	-103.085	-0.656	0.155
-355.566	-160.031	1.106	-0.060
-354.552	207.963	-0.121	0.189
-353.537	244.543	-0.330	0.555
-352.523	-177.988	-0.395	-0.009
-351.508	-200.000	0.026	1.183
-350.493	-200.000	-0.177	0.837
-349.479	-174.175	-0.408	0.012
-348.464	319.340	0.134	-0.253
-347.450	800.000	0.216	-0.762
-346.435	-200.000	0.014	-0.091
-345.420	561.213	0.346	0.835
-344.406	-200.000	0.018	0.376
-343.391	800.000	-0.180	-0.536
-342.377	-200.000	-0.131	0.686
-341.362	800.000	0.409	1.178
-340.348	-200.000	-0.020	0.126
-339.333	-200.000	0.005	0.097
-338.318	-38.656	0.318	0.168
-337.304	213.946	0.180	0.284
-336.289	-200.000	-0.060	0.327
-335.275	-99.424	0.908	-0.229
-334.260	-200.000	0.060	1.059
-333.245	-19.864	0.353	-0.218
-332.231	-107.012	0.641	-0.142
-331.216	-103.468	0.572	-0.135
-330.202	2.640	0.365	0.264
-329.187	800.000	0.201	0.662
-328.172	800.000	-0.248	0.928
-327.158	-42.066	-0.607	-0.310
-326.143	-200.000	-0.098	-0.556
-325.129	114.466	-0.149	-0.181
-324.114	-200.000	-0.038	-0.303
-323.099	-96.110	-0.098	0.026
-322.085	-15.896	0.755	0.480
-321.070	-150.647	-0.463	0.035
-320.056	-29.521	-0.451	-0.258
-319.041	142.261	-0.567	-0.751
-318.026	180.621	-0.370	0.543
-317.012	-8.851	0.423	0.283
-315.997	-200.000	0.021	-0.163
-314.983	-200.000	0.073	1.112
-313.968	-161.370	-1.287	-0.066
-312.953	195.639	0.304	-0.461
-311.939	-17.269	0.155	0.098
-310.924	800.000	-0.105	-0.383
-309.910	-200.000	-0.006	0.188
-308.895	-9.224	-0.903	-0.603
-307.880	-115.700	0.459	-0.086
-306.866	78.101	-0.445	-0.474
-305.851	27.979	0.835	0.703
-304.837	190.553	-0.335	0.503
-303.822	437.969	0.075	0.163
-302.807	-112.843	0.337	-0.067
-301.793	56.881	-0.456	-0.443
-300.778	201.305	0.144	-0.221
-299.764	800.000	0.146	-0.500
-298.749	800.000	-0.164	0.483
-297.735	-200.000	-0.057	0.481
-296.720	-200.000	0.015	-0.654
-295.705	327.070	-0.291	0.557
-294.691	-66.326	-0.490	0.195
-293.676	114.820	0.189	-0.229
-292.662	-143.444	-0.849	-0.081
-291.647	276.252	0.193	0.343
-290.632	173.255	0.349	0.502
-289.618	-200.000	0.181	-1.065
-288.603	-24.692	-0.757	0.449
-287.589	51.690	-0.589	-0.558
-286.574	75.413	-0.609	-0.641
-285.559	-56.145	1.067	-0.474
-284.545	49.012	0.349	0.327
-283.530	163.426	0.223	0.313
-282.516	715.298	-0.117	0.308
-281.501	11.277	-0.480	0.367
-280.486	-22.685	0.362	0.218
-279.472	800.000	-0.318	1.248
-278.457	-111.748	0.930	-0.188
-277.443	-200.000	0.009	-0.977
-276.428	-200.000	0.018	0.458
-275.413	107.739	0.117	0.139
-274.399	800.000	-0.118	0.499
-273.384	344.811	0.338	-0.662
-272.370	-34.389	0.875	-0.478
-271.355	800.000	-0.178	0.677
-270.340	-68.292	-0.513	-0.199
-269.326	117.076	-0.383	0.469
-268.311	-15.865	-0.530	0.336
-267.297	66.966	-0.092	0.093
-266.282	-200.000	0.068	0.500
-265.267	-179.647	-0.115	0.002
-264.253	325.161	-0.326	0.621
-263.238	235.469	-0.391	-0.644
-262.224	-50.190	0.566	0.267
-261.209	-200.000	0.012	-0.055
-260.195	-106.837	-0.398	-0.088
-259.180	101.064	0.741	0.858
-258.165	127.491	-0.513	-0.649
-257.151	161.037	-0.185	-0.258
-256.136	-30.796	0.419	-0.236
-255.122	-18.136	-0.326	0.203
-254.107	-95.140	0.740	0.199
-253.092	-29.701	-0.853	-0.485
-252.078	-150.815	1.144	-0.086
-251.063	7.724	-0.283	0.211
-250.049	-163.141	-0.276	0.013
-249.034	302.728	-0.151	-0.278
-248.019	-108.814	-0.513	0.109
-247.005	146.454	0.185	0.247
-245.990	-54.103	0.407	-0.184
-244.976	147.488	-0.234	0.314
-243.961	448.056	-0.281	0.616
-242.946	174.494	-0.102	0.147
-241.932	-19.836	0.679	0.418
-240.917	541.540	0.218	0.516
-239.903	-200.000	0.038	0.457
-238.888	73.597	0.066	0.068
-237.873	-5.072	0.644	0.441
-236.859	217.988	-0.268	0.425
-235.844	67.983	0.074	-0.075
-234.830	-45.943	0.681	-0.335
-233.815	-85.521	-1.001	0.310
-232.800	-54.437	0.232	-0.105
-231.786	-200.000	-0.072	-0.452
-230.771	94.725	0.488	-0.552
-229.757	569.434	0.220	0.532
-228.742	-97.509	0.235	0.061
-227.727	103.481	-0.618	-0.722
-226.713	-50.426	-1.104	0.519
-225.698	-85.580	0.527	-0.163
-224.684	-200.000	0.004	0.118
-223.669	-137.763	-1.071	0.119
-222.655	35.625	0.264	-0.230
-221.640	49.631	0.426	0.399
-220.625	194.984	0.368	0.555
-219.611	168.864	0.377	-0.534
-218.596	-200.000	-0.197	1.146
-217.582	-170.949	-0.741	0.025
-216.567	23.698	0.773	-0.633
-215.552	136.281	-0.295	0.383
-214.538	-61.643	-0.553	0.231
-213.523	-89.805	-0.244	0.071
-212.509	260.120	0.108	-0.185
-211.494	40.356	-0.461	0.412
-210.479	-200.000	0.108	0.987
-209.465	48.527	0.088	0.082
-208.450	-12.058	0.087	0.057
-207.436	800.000	0.151	0.551
-206.421	486.414	-0.279	-0.632
-205.406	-11.045	-0.244	0.160
-204.392	-107.402	-0.468	-0.102
-203.377	36.716	0.358	0.315
-202.363	800.000	-0.294	0.854
-201.348	-200.000	-0.027	0.298
-200.333	-56.826	0.166	0.073
-199.319	800.000	-0.088	0.353
-198.304	-200.000	-0.011	0.286
-197.290	-169.923	-0.416	-0.015
-196.275	-114.181	0.350	-0.067
-195.260	0.298	-0.814	0.578
-194.246	800.000	-0.119	0.457
-193.231	-200.000	-0.027	0.204
-192.217	-16.261	0.154	0.097
-191.202	213.314	0.513	-0.806
-190.187	-200.000	-0.106	-0.535
-189.173	11.805	0.116	-0.088
-188.158	240.003	0.536	0.888
-187.144	-200.000	0.152	0.714
-186.129	-50.877	-0.903	0.421
-185.114	-13.492	0.442	-0.284
-184.100	149.551	-0.302	-0.406
-183.085	790.792	-0.100	0.272
-182.071	-2.570	1.322	0.920
-181.056	-200.000	0.023	-0.636
-180.042	340.159	-0.375	0.728
-179.027	378.315	0.151	0.306
-178.012	800.000	-0.090	0.337
-176.998	37.591	-0.424	-0.374
-175.983	423.695	-0.172	0.367
-174.969	-145.586	0.495	0.044
-173.954	800.000	0.184	0.552
-172.939	487.830	-0.386	-0.876
-171.925	-200.000	-0.031	-0.605
-170.910	-88.376	0.595	-0.177
-169.896	-200.000	0.140	-0.999
-168.881	471.257	-0.311	0.694
-167.866	-85.530	-0.832	0.257
-166.852	327.223	0.230	-0.438
-165.837	-200.000	-0.043	0.573
-164.823	-23.021	-0.836	0.500
-163.808	-19.993	-0.136	-0.084
-162.793	73.548	0.108	-0.112
-161.779	237.716	-0.128	-0.211
-160.764	800.000	0.265	-0.938
-159.750	-200.000	-0.003	0.165
-158.735	41.627	-0.265	-0.239
-157.720	-200.000	0.035	-0.556
-156.706	-200.000	0.045	-0.457
-155.691	-45.261	0.211	0.104
-154.677	-40.660	-0.552	0.284
-153.662	544.952	0.197	0.467
-152.647	-81.273	0.557	-0.182
-151.633	800.000	0.163	-0.545
-150.618	-200.000	-0.070	-0.410
-149.604	-200.000	0.136	-0.766
-148.589	-47.681	-0.265	0.128
-147.574	-138.912	1.108	-0.119
-146.560	-0.665	0.115	0.081
-145.545	-48.789	0.436	-0.208
-144.531	-115.144	-0.011	-0.002
-143.516	204.175	0.052	0.080
-142.502	196.947	0.418	0.633
-141.487	-200.000	0.135	-0.647
-140.472	46.521	-0.628	0.578
-139.458	26.590	0.362	0.300
-138.443	-149.435	1.021	-0.080
-137.429	134.845	0.297	-0.383
-136.414	-200.000	-0.095	-0.613
-135.399	800.000	-0.056	0.216
-134.385	108.169	0.639	-0.756
-133.370	-161.782	-1.055	0.053
-132.356	208.125	-0.197	0.305
-131.341	800.000	-0.099	0.320
-130.326	-200.000	0.007	0.251
-129.312	335.448	-0.200	-0.384
-128.297	-66.538	0.609	-0.240
-127.283	76.173	-0.294	0.309
-126.268	292.031	0.091	0.164
-125.253	136.472	-0.530	0.685
-124.239	-200.000	-0.049	-0.326
-123.224	800.000	-0.189	0.763
-122.210	-200.000	0.194	1.117
