DTS Sentinel unit serial number:	SN413079Multiplexer serial number:	ORYXHardware model number:	OX4-SRSoftware version number:	ORYX F/W v4.00 Oryx Data Collector v3.7.2.0data status	okinstallation	princeton_trtdifferential loss correction	single-endedforward channel	channel 4reverse channel	N/Adate	2019/09/15time	01:05:35forward acquisition time	60.00reverse acquisition time	0.00gamma	496.2192k internal	0.2307k external	0.2307temperature offset calibration	1.0036default loss term (dB/km)	0.3790temperature slope calibration	1.0000multiplexer offset coefficient	1.0000multiplexer slope coefficient	1.0000fibre end	0.00T internal ref (°C)	32.00T ext. ref 1 (°C)	4.53T ext. ref 2 (°C)	26.85length (m)	temperature (°C)	Stokes	anti-Stokes-747.200	-200.000	-0.012	-0.315
-746.185	618.690	-0.036	0.092
-745.171	800.000	0.049	0.180
-744.156	-101.768	-0.123	0.030
-743.142	-82.828	0.122	-0.040
-742.127	550.700	-0.141	0.344
-741.112	173.138	0.091	0.134
-740.098	-38.599	-0.373	0.201
-739.083	-200.000	0.098	-0.619
-738.069	-200.000	0.020	0.193
-737.054	-200.000	0.030	0.261
-736.039	18.825	-0.189	-0.154
-735.025	-110.117	-0.047	-0.010
-734.010	-200.000	0.011	0.213
-732.996	163.036	0.062	0.089
-731.981	-136.130	-0.178	-0.021
-730.966	89.516	0.131	0.148
-729.952	300.087	-0.159	-0.298
-728.937	376.437	-0.106	-0.221
-727.923	-136.111	0.386	-0.046
-726.908	570.953	0.030	-0.075
-725.894	-60.733	-0.226	0.097
-724.879	-176.731	0.093	-0.002
-723.864	1.217	-0.205	-0.150
-722.850	800.000	-0.024	0.097
-721.835	-143.869	0.241	-0.023
-720.821	-155.425	-0.270	0.018
-719.806	69.666	-0.221	-0.232
-718.791	391.494	-0.179	-0.378
-717.777	-93.551	0.222	-0.062
-716.762	-17.884	0.141	-0.090
-715.748	-200.000	-0.012	-0.064
-714.733	693.107	-0.045	0.119
-713.718	18.211	-0.198	-0.161
-712.704	50.616	0.071	0.068
-711.689	800.000	-0.040	0.161
-710.675	23.912	0.339	-0.284
-709.660	-44.240	-0.264	-0.134
-708.645	-58.167	0.420	-0.186
-707.631	-55.373	-0.188	-0.086
-706.616	-24.449	0.283	0.171
-705.602	139.875	-0.137	-0.183
-704.587	800.000	-0.010	0.039
-703.572	29.972	-0.029	-0.025
-702.558	-41.612	-0.143	-0.075
-701.543	-52.617	-0.094	-0.044
-700.529	293.389	0.050	0.093
-699.514	33.149	0.121	-0.107
-698.499	800.000	-0.096	-0.335
-697.485	112.910	0.047	-0.058
-696.470	76.890	0.171	0.185
-695.456	-167.481	-0.303	-0.012
-694.441	-6.414	0.330	-0.228
-693.426	800.000	-0.124	0.423
-692.412	-55.799	0.349	-0.158
-691.397	-35.959	0.128	-0.070
-690.383	-200.000	-0.009	-0.253
-689.368	100.079	-0.192	-0.225
-688.354	63.316	-0.106	0.108
-687.339	-200.000	-0.010	0.071
-686.324	-59.402	-0.184	-0.080
-685.310	-18.316	-0.106	-0.067
-684.295	-38.709	-0.159	-0.085
-683.281	-72.347	-0.145	-0.054
-682.266	-117.169	-0.166	0.031
-681.251	-200.000	-0.002	0.484
-680.237	162.102	-0.103	0.147
-679.222	-77.268	-0.127	-0.045
-678.208	-59.977	-0.118	0.051
-677.193	-13.239	0.163	0.107
-676.178	800.000	0.115	-0.455
-675.164	-136.659	0.341	0.040
-674.149	800.000	0.140	-0.481
-673.135	29.558	0.035	0.030
-672.120	47.917	0.158	-0.150
-671.105	154.908	0.109	-0.152
-670.091	-121.720	-0.183	0.031
-669.076	97.576	0.062	-0.072
-668.062	-30.908	-0.155	-0.089
-667.047	-85.832	0.291	-0.092
-666.032	-41.259	-0.020	0.011
-665.018	-63.790	-0.186	0.077
-664.003	148.598	-0.091	0.125
-662.989	711.417	-0.107	0.288
-661.974	-67.968	0.244	-0.096
-660.959	-172.251	-0.232	-0.008
-659.945	-200.000	-0.015	-0.089
-658.930	-200.000	0.038	-0.199
-657.916	146.814	0.200	0.273
-656.901	-200.000	0.013	0.072
-655.886	-47.259	-0.243	-0.120
-654.872	-35.126	0.181	0.100
-653.857	127.838	-0.080	0.103
-652.843	-85.965	-0.257	-0.080
-651.828	-183.208	-0.276	-0.005
-650.814	800.000	-0.017	-0.053
-649.799	-143.374	0.290	0.028
-648.784	99.485	-0.082	-0.096
-647.770	15.165	0.018	0.015
-646.755	50.129	0.190	-0.181
-645.741	-24.044	-0.024	-0.014
-644.726	-112.140	-0.282	0.057
-643.711	180.427	-0.084	0.125
-642.697	-12.550	0.036	-0.024
-641.682	-113.224	-0.195	0.039
-640.668	45.006	-0.192	0.179
-639.653	323.167	0.047	-0.090
-638.638	-21.078	-0.153	-0.095
-637.624	-50.464	0.097	0.046
-636.609	800.000	0.029	-0.114
-635.595	556.912	0.051	-0.124
-634.580	-200.000	0.039	-0.205
-633.565	-95.041	0.162	0.044
-632.551	-131.135	-0.245	0.033
-631.536	-73.283	0.279	-0.103
-630.522	135.831	-0.125	0.165
-629.507	153.814	-0.078	-0.109
-628.492	-28.758	0.142	0.083
-627.478	-73.607	-0.142	0.052
-626.463	-200.000	0.037	-0.255
-625.449	72.045	0.263	0.277
-624.434	-200.000	0.013	0.073
-623.419	58.672	0.379	0.376
-622.405	-87.673	-0.042	-0.013
-621.390	-171.861	0.067	0.002
-620.376	35.577	-0.130	-0.115
-619.361	11.698	-0.056	0.043
-618.346	-200.000	-0.007	0.049
-617.332	-200.000	-0.014	-0.126
-616.317	-200.000	-0.005	-0.044
-615.303	-68.675	0.216	-0.085
-614.288	-95.424	0.187	-0.051
-613.273	626.883	0.069	0.177
-612.259	-107.829	-0.377	0.083
-611.244	-71.856	0.188	0.071
-610.230	223.804	-0.134	-0.218
-609.215	83.343	-0.157	-0.173
-608.201	-13.705	0.109	0.072
-607.186	-200.000	-0.013	-0.146
-606.171	-59.956	-0.318	-0.137
-605.157	141.384	-0.072	-0.097
-604.142	-200.000	0.028	-0.148
-603.128	-5.632	-0.290	0.201
-602.113	53.059	0.249	-0.241
-601.098	-16.498	-0.208	-0.133
-600.084	303.600	-0.173	0.325
-599.069	-154.506	0.266	-0.018
-598.055	225.116	-0.117	-0.191
-597.040	213.065	-0.034	-0.054
-596.025	-74.369	-0.035	0.013
-595.011	-200.000	0.013	0.063
-593.996	-94.813	0.219	0.060
-592.982	-71.443	0.084	-0.032
-591.967	35.897	0.095	-0.084
-590.952	-25.260	0.310	0.185
-589.938	-62.140	0.279	-0.118
-588.923	225.597	0.084	0.137
-587.909	236.666	-0.178	0.298
-586.894	800.000	-0.101	-0.281
-585.879	-200.000	-0.008	-0.192
-584.865	-200.000	0.033	-0.243
-583.850	80.479	-0.210	0.229
-582.836	4.783	0.011	0.008
-581.821	-63.016	-0.238	-0.100
-580.806	-98.408	-0.413	0.107
-579.792	589.862	0.035	-0.086
-578.777	800.000	-0.096	0.269
-577.763	-73.683	0.252	-0.093
-576.748	-101.706	-0.045	0.011
-575.733	-170.737	-0.344	-0.012
-574.719	-44.498	0.284	-0.144
-573.704	-118.545	0.379	-0.068
-572.690	276.624	-0.256	-0.460
-571.675	596.406	0.048	0.120
-570.661	57.600	-0.339	0.335
-569.646	-174.993	-0.246	-0.007
-568.631	-113.443	0.037	-0.007
-567.617	88.930	-0.220	0.247
-566.602	-41.622	0.131	0.068
-565.588	-88.049	0.303	0.092
-564.573	-52.889	-0.330	0.153
-563.558	800.000	-0.004	0.011
-562.544	-110.463	-0.127	0.027
-561.529	147.564	0.116	0.158
-560.515	36.714	0.132	-0.118
-559.500	-108.904	0.151	0.033
-558.485	-200.000	-0.005	0.186
-557.471	58.088	0.078	-0.078
-556.456	250.725	0.107	0.184
-555.442	29.369	-0.170	-0.146
-554.427	10.370	0.147	-0.113
-553.412	573.782	0.081	-0.199
-552.398	-7.291	-0.269	-0.184
-551.383	-27.676	-0.084	0.049
-550.369	369.762	-0.059	-0.120
-549.354	-107.756	0.255	-0.056
-548.339	-0.735	0.090	-0.065
-547.325	-7.561	-0.076	0.052
-546.310	-117.979	-0.022	-0.004
-545.296	381.760	-0.102	-0.211
-544.281	-187.190	0.430	0.006
-543.266	-175.616	-0.445	-0.012
-542.252	144.174	0.164	0.220
-541.237	461.127	-0.044	-0.100
-540.223	59.956	0.257	-0.256
-539.208	346.712	0.056	-0.111
-538.193	97.599	0.066	0.076
-537.179	23.876	0.113	-0.094
-536.164	-160.546	0.174	-0.009
-535.150	83.062	-0.082	0.090
-534.135	576.100	0.141	0.347
-533.121	-45.533	0.276	-0.138
-532.106	-200.000	-0.015	0.140
-531.091	-22.354	0.130	-0.080
-530.077	-17.059	-0.239	-0.152
-529.062	-56.336	0.324	0.145
-528.048	-13.792	-0.211	-0.137
-527.033	-200.000	-0.033	0.166
-526.018	-169.231	-0.435	-0.016
-525.004	53.875	0.092	0.090
-523.989	-0.951	0.174	0.124
-522.975	95.476	0.095	0.109
-521.960	82.015	0.261	0.285
-520.945	-29.312	0.087	0.050
-519.931	-24.561	-0.369	-0.221
-518.916	132.645	0.317	-0.412
-517.902	-200.000	-0.032	-0.303
-516.887	510.691	0.085	0.200
-515.872	800.000	0.089	0.355
-514.858	800.000	-0.096	-0.317
-513.843	-150.714	0.597	0.046
-512.829	-7.116	0.090	0.062
-511.814	-9.308	-0.111	0.074
-510.799	-104.698	-0.063	0.015
-509.785	73.924	-0.182	-0.193
-508.770	-200.000	0.009	0.112
-507.756	-66.584	-0.246	0.098
-506.741	3.515	0.150	0.110
-505.726	763.261	0.064	0.175
-504.712	800.000	-0.057	-0.171
-503.697	63.484	0.187	0.189
-502.683	-200.000	-0.230	0.001
-501.668	642.713	0.021	-0.054
-500.653	406.477	0.204	0.434
-499.639	-148.703	-0.227	-0.019
-498.624	800.000	-0.137	0.412
-497.610	-67.098	-0.355	-0.141
-496.595	-200.000	0.017	0.190
-495.581	-78.406	-0.217	0.075
-494.566	-66.633	0.116	0.046
-493.551	800.000	0.068	0.268
-492.537	-156.173	0.170	-0.011
-491.522	8.282	-0.193	0.146
-490.508	257.920	-0.128	-0.221
-489.493	-200.000	-0.042	-0.221
-488.478	-121.272	-0.218	-0.037
-487.464	-94.062	0.117	-0.032
-486.449	-170.687	-0.402	0.014
-485.435	152.960	0.064	0.088
-484.420	-200.000	0.000	0.119
-483.405	-125.283	0.088	0.013
-482.391	197.527	0.138	0.213
-481.376	-167.389	0.249	0.010
-480.362	-189.706	0.183	0.002
-479.347	800.000	-0.074	-0.290
-478.332	26.512	-0.130	0.110
-477.318	422.067	0.113	0.243
-476.303	38.535	-0.146	0.131
-475.289	-24.801	-0.101	-0.060
-474.274	37.658	-0.077	-0.069
-473.259	-108.486	0.172	0.037
-472.245	-30.502	0.155	-0.088
-471.230	-200.000	-0.016	-0.211
-470.216	-40.022	0.171	0.090
-469.201	108.503	-0.101	0.121
-468.186	162.036	0.067	0.094
-467.172	96.960	-0.134	0.155
-466.157	-27.848	-0.390	0.227
-465.143	35.134	0.211	-0.186
-464.128	203.431	-0.218	-0.338
-463.113	114.807	-0.032	0.039
-462.099	800.000	0.031	0.127
-461.084	-61.761	0.101	0.042
-460.070	168.836	-0.145	-0.208
-459.055	-200.000	0.018	-0.122
-458.040	-12.409	-0.086	-0.056
-457.026	-135.382	0.378	-0.045
-456.011	-63.118	0.239	-0.099
-454.997	91.168	0.203	0.229
-453.982	11.592	0.216	0.167
-452.968	800.000	0.045	-0.160
-451.953	-200.000	0.015	0.209
-450.938	-131.115	0.033	-0.004
-449.924	-11.281	-0.202	0.133
-448.909	645.022	-0.113	0.289
-447.895	187.481	-0.199	0.298
-446.880	731.226	0.066	0.176
-445.865	14.555	-0.297	0.233
-444.851	-143.979	0.413	0.039
-443.836	252.992	-0.074	0.127
-442.822	-99.588	-0.183	0.046
-441.807	-45.205	-0.150	-0.075
-440.792	188.235	-0.076	-0.115
-439.778	246.129	-0.076	-0.128
-438.763	-10.292	0.119	-0.080
-437.749	43.351	0.226	-0.207
-436.734	124.809	-0.180	0.228
-435.719	47.072	-0.096	-0.090
-434.705	270.027	-0.048	0.084
-433.690	-31.301	0.096	-0.054
-432.676	144.921	-0.141	-0.189
-431.661	800.000	0.065	0.220
-430.646	-74.011	-0.463	0.169
-429.632	86.866	-0.078	0.086
-428.617	-5.136	0.140	0.097
-427.603	-165.050	-0.149	-0.007
-426.588	484.305	-0.086	-0.198
-425.573	57.990	0.102	0.100
-424.559	112.131	0.127	-0.154
-423.544	21.444	0.100	0.081
-422.530	195.631	0.096	0.147
-421.515	-200.000	-0.025	0.117
-420.500	295.584	0.048	0.088
-419.486	333.545	0.029	0.056
-418.471	-33.416	-0.221	0.123
-417.457	69.356	-0.198	0.205
-416.442	0.478	-0.115	0.082
-415.428	257.626	-0.141	-0.243
-414.413	256.861	-0.009	-0.015
-413.398	-67.018	0.184	0.073
-412.384	48.140	-0.093	0.088
-411.369	800.000	-0.076	-0.323
-410.355	60.086	-0.177	0.176
-409.340	800.000	-0.067	-0.197
-408.325	-35.306	0.188	0.103
-407.311	-1.673	-0.242	-0.171
-406.296	280.657	-0.168	-0.302
-405.282	-69.177	0.174	-0.067
-404.267	-200.000	0.009	0.167
-403.252	-200.000	-0.024	0.113
-402.238	11.049	0.027	-0.021
-401.223	-200.000	-0.032	0.344
-400.209	-200.000	-0.020	-0.146
-399.194	-53.039	0.391	-0.180
-398.179	-44.539	-0.202	0.101
-397.165	-200.000	-0.017	-0.237
-396.150	75.958	0.257	0.273
-395.136	-200.000	-0.015	0.202
-394.121	107.536	0.086	-0.102
-393.106	10.746	0.276	-0.211
-392.092	-48.837	0.066	0.032
-391.077	60.535	0.215	-0.214
-390.063	622.891	-0.064	-0.161
-389.048	-200.000	-0.060	0.323
-388.033	490.829	-0.093	-0.214
-387.019	42.626	0.098	-0.090
-386.004	-85.085	0.074	-0.023
-384.990	352.406	-0.042	-0.084
-383.975	105.607	0.107	-0.127
-382.960	-1.098	0.180	-0.128
-381.946	-27.315	-0.233	-0.136
-380.931	-74.588	-0.097	-0.035
-379.917	800.000	-0.108	-0.332
-378.902	303.990	0.055	0.102
-377.888	-200.000	-0.199	-0.000
-376.873	-200.000	-0.019	0.301
-375.858	-149.990	-0.359	-0.028
-374.844	-87.417	-0.068	-0.021
-373.829	49.921	0.067	0.063
-372.815	-72.741	0.127	-0.047
-371.800	668.304	0.019	0.049
-370.785	-51.502	0.135	-0.063
-369.771	53.025	0.189	-0.181
-368.756	122.664	-0.174	0.218
-367.742	-200.000	-0.020	0.359
-366.727	-28.012	-0.206	0.119
-365.712	97.503	0.139	0.160
-364.698	112.113	0.149	-0.180
-363.683	-3.708	0.238	-0.165
-362.669	-200.000	-0.025	0.208
-361.654	198.957	0.156	-0.240
-360.639	156.438	-0.104	0.144
-359.625	346.730	-0.009	-0.019
-358.610	-200.000	0.052	-0.399
-357.596	-117.836	-0.205	0.037
-356.581	-156.277	-0.237	0.015
-355.566	94.382	0.050	0.057
-354.552	-76.623	-0.323	-0.113
-353.537	-200.000	0.004	-0.047
-352.523	-12.558	0.225	-0.147
-351.508	-200.000	-0.063	-0.343
-350.493	246.307	-0.081	0.137
-349.479	118.963	-0.235	0.290
-348.464	-21.192	0.147	-0.090
-347.450	800.000	-0.056	-0.218
-346.435	-47.742	-0.079	-0.038
-345.420	-149.578	-0.159	0.013
-344.406	-77.763	0.144	0.050
-343.391	800.000	-0.097	0.307
-342.377	-19.978	-0.419	-0.259
-341.362	800.000	-0.096	0.392
-340.348	-130.473	0.279	0.038
-339.333	85.614	0.072	-0.080
-338.318	-77.048	0.219	0.076
-337.304	324.018	0.055	0.104
-336.289	234.078	-0.058	0.095
-335.275	-154.656	0.072	-0.005
-334.260	80.390	0.214	0.231
-333.245	-187.089	-0.203	0.003
-332.231	4.121	0.097	0.071
-331.216	-200.000	0.138	-0.682
-330.202	-101.293	-0.155	-0.038
-329.187	161.425	-0.141	-0.198
-328.172	-200.000	0.009	0.156
-327.158	96.456	0.144	-0.165
-326.143	535.426	0.188	0.447
-325.129	93.351	-0.131	0.148
-324.114	-12.071	-0.170	-0.111
-323.099	-200.000	-0.010	0.527
-322.085	160.538	0.104	-0.145
-321.070	320.207	0.145	0.276
-320.056	99.087	-0.234	-0.270
-319.041	-200.000	0.012	0.172
-318.026	478.210	0.091	-0.207
-317.012	23.529	0.213	-0.175
-315.997	-95.618	0.340	-0.091
-314.983	143.371	-0.031	-0.042
-313.968	-28.826	0.341	-0.196
-312.953	133.192	0.160	-0.206
-311.939	-200.000	0.004	-0.174
-310.924	-70.788	0.044	0.017
-309.910	-95.041	-0.186	0.050
-308.895	-85.498	0.058	0.018
-307.880	5.198	-0.302	-0.222
-306.866	113.886	-0.162	0.196
-305.851	-165.456	0.089	0.004
-304.837	-18.004	0.120	-0.075
-303.822	-200.000	0.013	0.082
-302.807	-22.745	0.098	0.059
-301.793	-151.523	0.302	-0.022
-300.778	-105.862	-0.334	-0.075
-299.764	-135.198	-0.184	-0.022
-298.749	382.469	-0.049	0.101
-297.735	-200.000	-0.040	-0.291
-296.720	-131.082	0.171	-0.023
-295.705	-200.000	0.097	-0.443
-294.691	9.327	0.247	-0.187
-293.676	-200.000	-0.041	0.241
-292.662	124.729	-0.167	-0.211
-291.647	-200.000	0.009	-0.280
-290.632	144.899	0.037	-0.050
-289.618	328.442	0.086	0.165
-288.603	-116.722	-0.533	-0.098
-287.589	-169.613	0.298	-0.011
-286.574	-125.829	-0.400	-0.060
-285.559	248.262	-0.210	-0.354
-284.545	47.293	0.139	-0.129
-283.530	-70.788	0.233	-0.088
-282.516	99.779	0.165	0.191
-281.501	-167.805	0.189	0.007
-280.486	391.422	-0.025	-0.051
-279.472	227.602	0.153	0.249
-278.457	800.000	-0.048	-0.176
-277.443	-54.076	-0.166	0.076
-276.428	-107.304	0.258	-0.057
-275.413	-63.180	0.251	-0.103
-274.399	800.000	0.104	-0.386
-273.384	430.523	0.008	0.017
-272.370	-200.000	-0.008	-0.130
-271.355	501.791	0.077	0.178
-270.340	-50.745	0.164	0.077
-269.326	60.044	-0.231	-0.228
-268.311	-200.000	-0.059	-0.323
-267.297	-110.978	-0.298	0.061
-266.282	-200.000	0.249	-0.001
-265.267	800.000	-0.062	-0.197
-264.253	189.971	0.110	0.165
-263.238	-90.948	-0.151	-0.043
-262.224	-90.734	0.351	-0.101
-261.209	-190.928	-0.295	-0.003
-260.195	144.021	-0.062	-0.083
-259.180	291.972	0.129	0.234
-258.165	800.000	0.034	0.106
-257.151	-100.667	-0.252	0.062
-256.136	-78.817	0.183	-0.062
-255.122	-91.538	0.111	-0.031
-254.107	-40.108	-0.169	-0.088
-253.092	17.208	0.172	0.136
-252.078	114.789	-0.046	-0.056
-251.063	71.904	-0.181	-0.188
-250.049	44.227	0.211	0.193
-249.034	129.186	-0.280	0.356
-248.019	42.365	0.125	0.113
-247.005	59.451	-0.069	0.068
-245.990	20.449	0.452	-0.364
-244.976	-147.264	0.114	0.010
-243.961	-102.594	-0.225	0.054
-242.946	-34.772	0.077	0.042
-241.932	-129.586	-0.268	-0.037
-240.917	342.693	0.108	0.211
-239.903	800.000	0.045	0.135
-238.888	-23.715	0.371	0.222
-237.873	-121.488	-0.238	-0.039
-236.859	-200.000	0.044	0.268
-235.844	-40.983	0.087	-0.045
-234.830	-181.527	0.358	-0.007
-233.815	-11.123	0.180	-0.118
-232.800	-200.000	-0.020	-0.098
-231.786	-200.000	0.025	0.288
-230.771	-107.412	0.331	0.072
-229.757	-114.915	-0.354	0.067
-228.742	-170.170	0.098	0.003
-227.727	-85.326	0.093	-0.029
-226.713	36.590	-0.158	0.139
-225.698	-24.657	-0.119	-0.071
-224.684	-31.568	0.191	0.107
-223.669	-79.584	0.136	0.046
-222.655	192.170	-0.142	-0.213
-221.640	471.672	-0.089	0.199
-220.625	800.000	-0.041	0.143
-219.611	-64.972	0.132	-0.053
-218.596	120.291	-0.142	-0.175
-217.582	-200.000	-0.051	-0.305
-216.567	-166.011	0.181	-0.008
-215.552	467.731	-0.088	0.197
-214.538	-122.607	0.187	0.030
-213.523	-170.046	0.151	-0.005
-212.509	367.856	0.053	-0.107
-211.494	53.079	-0.217	-0.207
-210.479	800.000	0.051	0.174
-209.465	-84.394	-0.203	-0.064
-208.450	-174.022	-0.161	-0.005
-207.436	-88.239	-0.104	-0.031
-206.421	307.579	0.139	0.257
-205.406	111.498	-0.139	0.166
-204.392	-94.457	0.158	0.043
-203.377	124.939	-0.038	-0.048
-202.363	-200.000	-0.006	0.173
-201.348	-163.683	0.045	-0.002
-200.333	-23.425	-0.193	0.115
-199.319	-144.721	0.292	-0.027
-198.304	-91.983	0.197	-0.056
-197.290	219.658	-0.142	0.226
-196.275	38.849	-0.335	0.298
-195.260	-200.000	0.025	0.240
-194.246	-195.987	0.089	0.001
-193.231	-200.000	-0.021	-0.154
-192.217	-111.677	-0.165	0.033
-191.202	800.000	-0.004	0.013
-190.187	-65.940	0.176	-0.070
-189.173	-144.846	-0.249	-0.023
-188.158	277.106	-0.175	-0.309
-187.144	-118.268	0.075	0.013
-186.129	-200.000	-0.032	0.206
-185.114	-41.976	0.040	0.021
-184.100	800.000	0.067	-0.227
-183.085	-11.724	0.216	-0.141
-182.071	492.530	-0.037	-0.084
-181.056	297.863	-0.033	0.060
-180.042	-200.000	0.024	-0.195
-179.027	-159.201	-0.348	-0.019
-178.012	-47.635	0.312	-0.151
-176.998	800.000	-0.069	0.230
-175.983	-182.736	-0.183	0.003
-174.969	797.216	-0.021	0.058
-173.954	-30.066	-0.087	0.049
-172.939	-26.193	-0.057	-0.033
-171.925	-200.000	0.020	0.390
-170.910	-35.431	0.292	-0.157
-169.896	-200.000	-0.013	-0.245
-168.881	-188.409	-0.260	0.003
-167.866	-107.876	-0.094	0.020
-166.852	-200.000	0.052	-0.343
-165.837	308.250	0.202	-0.375
-164.823	-200.000	0.111	0.503
-163.808	-200.000	-0.016	0.214
-162.793	800.000	-0.100	-0.374
-161.779	-55.611	-0.099	0.044
-160.764	6.569	-0.286	-0.211
-159.750	-200.000	-0.023	-0.203
-158.735	-104.533	0.098	0.023
-157.720	50.086	-0.173	-0.162
-156.706	394.489	0.082	0.169
-155.691	-100.717	-0.538	0.132
-154.677	-200.000	-0.008	0.128
-153.662	-66.567	0.169	-0.067
-152.647	-68.881	-0.168	-0.064
-151.633	141.070	0.021	0.028
-150.618	-183.883	-0.311	-0.005
-149.604	-200.000	0.006	-0.163
-148.589	384.754	-0.129	-0.265
-147.574	473.840	-0.006	-0.014
-146.560	-133.618	0.141	0.017
-145.545	800.000	-0.084	0.320
-144.531	-200.000	0.056	-0.266
-143.516	-200.000	0.056	-0.344
-142.502	-200.000	0.031	-0.179
-141.487	-200.000	-0.018	0.296
-140.472	-135.124	0.365	0.044
-139.458	-65.607	0.304	0.121
-138.443	32.650	0.237	0.203
-137.429	-200.000	-0.005	-0.108
-136.414	-59.197	0.326	0.139
-135.399	13.459	-0.030	0.023
-134.385	800.000	-0.062	0.219
-133.370	-162.729	0.149	-0.007
-132.356	411.936	-0.144	-0.305
-131.341	-200.000	-0.008	-0.366
-130.326	-0.777	-0.304	-0.214
-129.312	-78.032	0.165	-0.057
-128.297	-41.708	0.092	-0.047
-127.283	-109.987	0.276	-0.057
-126.268	644.911	0.089	0.225
-125.253	-24.404	0.385	-0.228
-124.239	47.142	0.190	0.175
-123.224	-135.987	-0.075	0.009
-122.210	125.783	0.182	-0.228
-121.195	800.000	0.095	-0.261
