DTS Sentinel unit serial number:	SN413079Multiplexer serial number:	ORYXHardware model number:	OX4-SRSoftware version number:	ORYX F/W v4.00 Oryx Data Collector v3.7.2.0data status	okinstallation	princeton_trtdifferential loss correction	single-endedforward channel	channel 4reverse channel	N/Adate	2019/09/12time	19:10:19forward acquisition time	15.00reverse acquisition time	0.00gamma	496.2192k internal	0.2309k external	0.2309temperature offset calibration	1.0141default loss term (dB/km)	0.3790temperature slope calibration	1.0000multiplexer offset coefficient	1.0000multiplexer slope coefficient	1.0000fibre end	0.00T internal ref (°C)	32.62T ext. ref 1 (°C)	3.18T ext. ref 2 (°C)	27.19length (m)	temperature (°C)	Stokes	anti-Stokes-747.200	-88.986	-1.143	0.344
-746.185	-97.022	-0.641	-0.170
-745.171	-91.847	-1.099	-0.317
-744.156	100.249	0.666	-0.786
-743.142	-71.588	0.420	0.160
-742.127	-46.958	-0.500	-0.248
-741.112	-126.718	1.206	-0.181
-740.098	-200.000	-0.032	-0.544
-739.083	-200.000	-0.173	-0.787
-738.069	18.267	-0.300	0.244
-737.054	-74.859	0.202	0.074
-736.039	800.000	-0.047	0.201
-735.025	98.902	0.531	0.622
-734.010	109.550	0.132	0.161
-732.996	-200.000	-0.037	0.555
-731.981	-30.878	0.319	-0.183
-730.966	764.387	-0.288	-0.796
-729.952	-32.580	-0.425	0.240
-728.937	800.000	0.193	-0.696
-727.923	-64.098	-1.040	-0.431
-726.908	800.000	0.247	-0.847
-725.894	74.224	-0.329	0.351
-724.879	-27.490	0.570	-0.337
-723.864	-110.173	0.258	-0.055
-722.850	-151.171	-0.769	0.059
-721.835	156.679	-0.397	-0.557
-720.821	800.000	0.237	-0.690
-719.806	306.720	-0.373	0.706
-718.791	344.258	-0.327	0.652
-717.777	276.818	-0.467	0.842
-716.762	156.796	0.306	0.430
-715.748	-78.758	-0.466	0.161
-714.733	-200.000	-0.109	0.836
-713.718	-181.794	-0.129	-0.003
-712.704	136.982	-0.358	-0.474
-711.689	-13.509	-0.405	-0.266
-710.675	-111.102	0.314	0.065
-709.660	-175.117	1.170	-0.033
-708.645	-200.000	0.169	-0.876
-707.631	800.000	-0.187	-0.669
-706.616	-9.423	0.060	0.040
-705.602	-67.319	0.413	0.165
-704.587	800.000	-0.338	0.950
-703.572	-200.000	0.040	0.282
-702.558	-33.202	0.715	0.402
-701.543	-58.034	-0.429	-0.190
-700.529	-200.000	-0.111	-0.721
-699.514	-61.104	0.327	0.140
-698.499	-70.389	0.510	0.196
-697.485	9.527	-0.646	0.496
-696.470	-58.933	0.301	-0.132
-695.456	280.576	0.669	-1.213
-694.441	340.829	-0.301	0.597
-693.426	362.287	0.249	0.507
-692.412	-170.116	0.187	0.007
-691.397	98.659	-0.237	-0.278
-690.383	-142.781	0.637	-0.063
-689.368	206.460	-0.266	-0.420
-688.354	800.000	0.182	-0.579
-687.339	-113.802	0.307	0.061
-686.324	-20.329	-0.354	0.221
-685.310	-193.889	-0.313	0.003
-684.295	41.264	0.809	0.742
-683.281	-200.000	0.067	-0.497
-682.266	5.591	0.244	0.183
-681.251	144.149	-0.279	0.378
-680.237	51.445	0.438	0.422
-679.222	800.000	-0.134	-0.494
-678.208	-172.391	-0.463	0.015
-677.193	-24.312	-0.746	-0.451
-676.178	-59.279	0.161	-0.070
-675.164	288.412	-0.177	0.324
-674.149	800.000	0.157	0.655
-673.135	-200.000	-0.087	0.922
-672.120	12.955	-0.472	-0.370
-671.105	-112.257	0.845	0.172
-670.091	-112.257	-0.247	0.050
-669.076	-200.000	-0.080	0.373
-668.062	-117.100	0.643	0.119
-667.047	-200.000	-0.056	0.513
-666.032	-191.312	0.500	0.005
-665.018	-96.346	-0.447	-0.120
-664.003	37.470	0.268	0.241
-662.989	-59.007	-0.533	-0.233
-661.974	-200.000	-0.018	-0.168
-660.959	374.884	0.123	-0.254
-659.945	326.897	-0.332	0.645
-658.930	527.382	0.171	-0.408
-657.916	19.005	0.432	-0.351
-656.901	9.731	-0.093	0.071
-655.886	55.788	-0.181	-0.178
-654.872	-104.987	-0.611	0.142
-653.857	189.930	-0.204	0.311
-652.843	-14.086	-0.078	-0.051
-651.828	53.463	-0.375	0.364
-650.814	-148.417	0.323	0.027
-649.799	-102.469	-0.822	0.199
-648.784	289.708	-0.265	0.486
-647.770	-129.466	-0.664	0.093
-646.755	752.020	0.245	0.670
-645.741	-45.481	-1.051	-0.527
-644.726	800.000	-0.122	0.470
-643.711	-200.000	-0.122	0.777
-642.697	333.945	-0.155	-0.303
-641.682	345.087	-0.271	0.539
-640.668	-200.000	0.141	0.859
-639.653	-28.233	-0.784	-0.458
-638.638	-142.139	-0.909	0.091
-637.624	-200.000	0.053	-0.646
-636.609	-200.000	-0.116	0.540
-635.595	-105.569	0.767	0.176
-634.580	147.100	0.457	0.623
-633.565	0.105	-0.322	0.232
-632.551	-200.000	-0.156	0.922
-631.536	-3.358	-0.251	-0.177
-630.522	-162.154	-1.007	-0.051
-629.507	800.000	-0.114	-0.384
-628.492	-200.000	-0.025	-0.491
-627.478	-105.770	-0.395	0.090
-626.463	-120.966	-0.526	-0.089
-625.449	-56.675	-1.043	-0.467
-624.434	123.093	0.126	-0.160
-623.419	147.018	-0.344	-0.468
-622.405	800.000	0.163	0.462
-621.390	-98.928	0.428	0.110
-620.376	-50.891	0.570	-0.271
-619.361	48.490	0.248	0.235
-618.346	99.069	-0.183	-0.213
-617.332	-179.717	0.868	0.019
-616.317	-200.000	-0.027	0.370
-615.303	-50.999	0.118	-0.056
-614.288	-200.000	-0.016	0.336
-613.273	-200.000	0.026	-0.215
-612.259	-53.133	0.954	-0.443
-611.244	39.070	-0.501	-0.453
-610.230	-61.310	-0.862	0.367
-609.215	-141.571	-0.115	0.012
-608.201	161.509	0.315	-0.446
-607.186	10.022	-0.423	0.325
-606.171	99.636	-0.156	-0.183
-605.157	-57.564	-0.223	0.099
-604.142	800.000	-0.258	0.749
-603.128	-121.440	-0.371	-0.062
-602.113	-36.243	0.311	-0.170
-601.098	-87.255	0.601	-0.184
-600.084	-62.222	-0.315	0.133
-599.069	264.596	0.091	0.160
-598.055	64.185	-0.607	-0.618
-597.040	104.278	0.185	0.220
-596.025	343.504	-0.223	0.441
-595.011	-200.000	0.075	-0.346
-593.996	203.935	-0.154	-0.241
-592.982	800.000	-0.148	0.510
-591.967	-43.313	0.336	-0.172
-590.952	178.797	0.174	-0.256
-589.938	514.979	-0.219	-0.515
-588.923	-200.000	-0.053	-0.236
-587.909	-158.217	-0.534	-0.032
-586.894	800.000	-0.153	0.428
-585.879	279.457	0.104	0.187
-584.865	-0.723	-0.689	0.493
-583.850	-16.066	0.726	-0.466
-582.836	-200.000	0.119	0.762
-581.821	-88.378	-0.596	0.180
-580.806	-36.468	0.510	0.277
-579.792	162.264	-0.145	0.205
-578.777	-137.364	0.359	-0.041
-577.763	-200.000	0.045	-0.970
-576.748	138.610	0.230	-0.304
-575.733	-84.225	0.713	-0.228
-574.719	173.506	-0.114	-0.166
-573.704	209.547	-0.297	-0.471
-572.690	174.384	0.469	-0.685
-571.675	-200.000	-0.642	-0.003
-570.661	99.743	0.095	0.111
-569.646	573.228	0.174	0.427
-568.631	-101.046	0.222	-0.055
-567.617	153.890	-0.146	-0.202
-566.602	-151.770	0.583	0.043
-565.588	768.940	0.180	0.493
-564.573	55.766	-0.813	0.795
-563.558	-65.322	-0.618	0.251
-562.544	-92.231	0.408	0.116
-561.529	-90.458	0.542	-0.158
-560.515	-43.001	0.107	0.055
-559.500	74.532	-0.288	0.305
-558.485	800.000	0.180	-0.627
-557.471	1.276	0.604	0.438
-556.456	132.939	0.015	0.020
-555.442	-141.978	-0.433	0.044
-554.427	-200.000	0.080	0.522
-553.412	206.919	-0.422	0.664
-552.398	-87.945	0.719	0.218
-551.383	8.372	0.840	0.637
-550.369	133.897	-0.149	-0.194
-549.354	104.996	0.558	-0.664
-548.339	42.684	0.123	-0.113
-547.325	-80.598	0.182	-0.061
-546.310	-52.547	-0.665	-0.310
-545.296	-39.922	0.793	-0.418
-544.281	27.218	0.732	0.620
-543.266	-98.398	-0.266	-0.069
-542.252	236.267	0.162	-0.270
-541.237	3.346	-0.330	-0.242
-540.223	-29.748	0.230	0.132
-539.208	-119.768	-0.405	0.070
-538.193	800.000	0.170	0.583
-537.179	-81.555	-0.584	-0.193
-536.164	-200.000	-0.076	-0.408
-535.150	-133.822	-0.036	0.005
-534.135	-200.000	-0.128	-1.630
-533.121	98.963	0.348	-0.405
-532.106	-88.091	-0.523	0.158
-531.091	-74.639	-0.475	0.172
-530.077	105.795	0.419	-0.499
-529.062	-34.665	-0.241	0.133
-528.048	114.002	-0.606	-0.743
-527.033	-71.135	-0.626	0.237
-526.018	-149.419	-1.127	0.090
-525.004	14.142	-0.319	-0.250
-523.989	800.000	0.462	1.302
-522.975	800.000	-0.051	-0.210
-521.960	-155.656	-0.512	0.033
-520.945	-200.000	0.002	0.184
-519.931	-200.000	-0.003	-0.167
-518.916	-137.767	-0.628	0.071
-517.902	-102.582	0.621	-0.149
-516.887	-1.875	0.915	-0.648
-515.872	208.064	0.300	-0.473
-514.858	222.282	-0.363	-0.588
-513.843	-125.483	0.346	0.053
-512.829	-104.836	-0.607	0.140
-511.814	-128.484	-0.292	-0.042
-510.799	-200.000	0.039	0.449
-509.785	-52.920	0.580	-0.269
-508.770	-80.457	-0.208	-0.070
-507.756	121.765	-0.146	0.183
-506.741	-102.282	-0.096	0.023
-505.726	-92.645	0.357	-0.101
-504.712	-138.524	-0.402	-0.044
-503.697	-128.717	-0.828	-0.118
-502.683	-121.272	0.483	-0.081
-501.668	187.063	0.313	0.470
-500.653	-26.735	-0.659	0.388
-499.639	-76.438	0.757	-0.268
-498.624	800.000	0.107	0.465
-497.610	-200.000	0.005	-0.936
-496.595	-30.280	0.374	-0.214
-495.581	308.414	0.240	-0.452
-494.566	-65.033	-0.136	0.055
-493.551	-200.000	0.165	0.829
-492.537	9.870	-0.265	0.203
-491.522	800.000	-0.054	0.227
-490.508	-126.336	0.819	-0.123
-489.493	-88.027	-1.375	-0.416
-488.478	-98.184	0.164	0.043
-487.464	-200.000	0.105	0.777
-486.449	-119.841	0.797	-0.138
-485.435	153.861	0.464	0.640
-484.420	342.203	0.140	-0.276
-483.405	800.000	-0.286	-1.208
-482.391	164.977	-0.306	0.434
-481.376	800.000	0.099	-0.396
-480.362	554.296	-0.116	-0.280
-479.347	-15.151	-0.296	-0.191
-478.332	136.537	-0.408	0.535
-477.318	-24.695	0.780	-0.467
-476.303	-200.000	-0.007	-0.123
-475.289	-102.134	0.641	0.155
-474.274	216.868	-0.176	-0.281
-473.259	-200.000	0.059	0.320
-472.245	-86.780	-0.364	0.112
-471.230	386.405	-0.298	0.619
-470.216	92.307	0.413	-0.468
-469.201	209.231	0.212	0.334
-468.186	-150.140	0.333	-0.026
-467.172	-40.714	-0.523	-0.272
-466.157	-99.871	-0.745	-0.187
-465.143	16.554	0.705	0.560
-464.128	-200.000	-0.003	0.325
-463.113	266.303	0.259	-0.454
-462.099	223.040	0.557	-0.902
-461.084	-30.405	0.917	0.523
-460.070	-200.000	0.001	0.433
-459.055	-90.998	0.621	-0.179
-458.040	-110.559	0.550	-0.114
-457.026	-126.347	-0.981	-0.147
-456.011	-200.000	-0.170	0.786
-454.997	800.000	0.217	0.682
-453.982	106.281	0.603	0.718
-452.968	45.431	-0.179	-0.166
-451.953	-156.553	-0.238	-0.015
-450.938	29.718	-0.613	-0.524
-449.924	-136.527	0.570	-0.066
-448.909	299.476	-0.332	0.614
-447.895	-11.292	-0.221	0.146
-446.880	-15.483	0.625	0.401
-445.865	-200.000	-0.003	0.165
-444.851	79.746	-0.362	0.391
-443.836	-200.000	0.020	-0.324
-442.822	232.708	-0.305	-0.504
-441.807	500.044	0.116	-0.269
-440.792	-25.761	-0.076	0.045
-439.778	-137.074	-0.153	0.018
-438.763	-82.766	0.813	-0.264
-437.749	1.863	0.419	0.303
-436.734	251.862	-0.379	-0.647
-435.719	-115.278	-0.538	-0.102
-434.705	-60.328	-0.180	0.077
-433.690	774.443	0.193	0.530
-432.676	-200.000	-0.044	-0.624
-431.661	-200.000	0.162	-0.924
-430.646	-91.969	-0.309	0.088
-429.632	652.070	-0.225	0.579
-428.617	800.000	0.132	0.486
-427.603	-200.000	-0.098	0.508
-426.588	760.279	0.112	-0.305
-425.573	-71.756	0.413	-0.155
-424.559	785.576	-0.153	-0.421
-423.544	352.581	-0.175	-0.348
-422.530	182.489	0.289	-0.427
-421.515	86.458	-0.298	0.330
-420.500	800.000	0.139	-0.467
-419.486	-54.212	0.654	-0.298
-418.471	608.866	-0.359	-0.900
-417.457	244.034	-0.189	-0.318
-416.442	800.000	0.108	0.304
-415.428	81.693	0.605	0.657
-414.413	154.177	-0.578	0.796
-413.398	-30.291	-0.455	-0.259
-412.384	-18.510	0.630	-0.394
-411.369	-76.691	0.490	0.172
-410.355	-140.465	-0.591	0.062
-409.340	483.845	-0.090	-0.206
-408.325	-55.218	-0.330	-0.149
-407.311	46.872	0.341	-0.318
-406.296	-172.520	-0.400	0.013
-405.282	177.373	0.533	-0.778
-404.267	-119.048	-1.000	0.176
-403.252	417.432	0.093	-0.200
-402.238	-125.387	0.408	-0.062
-401.223	-78.305	-0.223	-0.077
-400.209	-149.072	-0.477	-0.038
-399.194	442.289	0.410	-0.901
-398.179	-126.531	-0.284	0.042
-397.165	-61.166	-0.411	0.174
-396.150	-34.306	0.628	0.345
-395.136	177.975	0.330	0.482
-394.121	-159.069	-0.353	-0.020
-393.106	-200.000	0.007	0.109
-392.092	-31.142	0.162	-0.091
-391.077	-36.640	-0.826	0.445
-390.063	169.741	-0.274	0.393
-389.048	-125.978	0.961	0.145
-388.033	-80.819	0.520	0.173
-387.019	800.000	0.309	0.961
-386.004	411.127	0.211	0.449
-384.990	425.816	-0.148	-0.321
-383.975	-200.000	0.035	1.217
-382.960	800.000	-0.078	-0.263
-381.946	130.019	0.093	-0.119
-380.931	215.989	0.184	0.293
-379.917	-140.046	0.283	0.030
-378.902	-100.355	0.468	0.116
-377.888	-200.000	0.095	0.540
-376.873	799.743	-0.322	-0.889
-375.858	-174.202	-0.173	0.005
-374.844	-133.968	0.051	-0.006
-373.829	800.000	0.080	-0.242
-372.815	68.909	0.229	0.235
-371.800	301.263	-0.165	0.306
-370.785	-21.150	-0.634	0.389
-369.771	-147.531	0.618	0.052
-368.756	8.000	-0.612	-0.460
-367.742	-200.000	0.091	0.425
-366.727	22.163	-0.344	-0.281
-365.712	-102.399	0.782	-0.188
-364.698	-90.827	-0.130	0.037
-363.683	-53.736	1.107	0.506
-362.669	-109.512	-0.256	0.054
-361.654	95.222	0.344	-0.393
-360.639	-25.127	-0.385	0.229
-359.625	682.523	-0.140	-0.366
-358.610	28.332	-0.557	0.471
-357.596	800.000	-0.350	-0.982
-356.581	-80.712	0.758	-0.252
-355.566	84.421	-0.386	-0.422
-354.552	-200.000	-0.123	0.677
-353.537	12.064	-0.502	0.386
-352.523	39.124	0.849	0.760
-351.508	16.208	-0.194	0.153
-350.493	428.677	0.279	-0.604
-349.479	579.512	-0.238	0.584
-348.464	-81.359	0.365	0.120
-347.450	22.429	-0.609	-0.498
-346.435	153.565	0.388	0.532
-345.420	-178.533	0.243	0.006
-344.406	730.288	-0.116	-0.311
-343.391	151.350	0.299	-0.408
-342.377	37.482	0.272	0.241
-341.362	-171.860	-0.127	0.004
-340.348	-62.612	-0.334	-0.138
-339.333	800.000	-0.097	0.353
-338.318	378.250	0.041	-0.085
-337.304	-154.133	0.418	0.028
-336.289	419.666	-0.118	-0.254
-335.275	-50.608	0.337	-0.159
-334.260	-149.704	-0.633	-0.050
-333.245	69.532	-0.382	0.393
-332.231	-94.976	0.573	-0.155
-331.216	-65.116	0.522	0.210
-330.202	109.543	0.049	-0.059
-329.187	-200.000	0.119	-0.697
-328.172	-134.889	-1.150	-0.139
-327.158	209.997	0.453	0.711
-326.143	-89.791	-0.533	-0.156
-325.129	-65.086	-0.720	-0.290
-324.114	410.296	-0.288	0.609
-323.099	-56.220	0.314	-0.140
-322.085	-107.266	-0.423	-0.093
-321.070	-19.992	0.161	-0.100
-320.056	-100.741	0.717	-0.177
-319.041	145.150	0.358	0.479
-318.026	169.814	0.432	-0.617
-317.012	469.983	0.171	-0.384
-315.997	-49.326	0.306	-0.146
-314.983	-142.367	0.221	-0.022
-313.968	372.441	0.194	-0.395
-312.953	-52.287	-0.222	-0.103
-311.939	-101.913	0.221	-0.053
-310.924	-136.848	-0.872	0.100
-309.910	782.897	-0.120	-0.328
-308.895	52.852	-0.377	0.360
-307.880	125.648	-0.604	0.762
-306.866	67.455	-0.515	0.525
-305.851	-0.998	0.602	-0.425
-304.837	-158.428	-0.208	0.012
-303.822	29.828	-0.428	-0.364
-302.807	-100.910	0.328	-0.080
-301.793	27.203	0.232	-0.194
-300.778	-134.969	-0.923	-0.111
-299.764	800.000	0.091	-0.302
-298.749	-40.767	0.331	0.171
-297.735	-200.000	-0.032	0.501
-296.720	-200.000	0.024	-0.881
-295.705	-168.164	-0.089	0.003
-294.691	-133.737	-0.491	-0.061
-293.676	63.118	-0.423	0.423
-292.662	-200.000	-0.110	1.022
-291.647	-182.334	-0.506	-0.009
-290.632	742.459	-0.117	0.315
-289.618	-200.000	-0.098	-0.679
-288.603	272.882	-0.416	-0.734
-287.589	-49.839	0.320	0.152
-286.574	-167.602	0.297	0.012
-285.559	-1.322	-0.364	-0.256
-284.545	-200.000	-0.007	0.306
-283.530	85.179	0.175	-0.192
-282.516	416.298	-0.275	0.585
-281.501	-96.968	-0.322	0.084
-280.486	288.533	0.329	0.595
-279.472	2.638	0.692	0.501
-278.457	-71.609	-0.759	-0.283
-277.443	-21.302	-0.188	-0.114
-276.428	54.435	0.456	-0.438
-275.413	0.687	0.239	0.171
-274.399	-58.895	0.862	-0.372
-273.384	222.560	0.187	-0.301
-272.370	-200.000	0.055	-0.469
-271.355	800.000	0.005	-0.016
-270.340	58.106	-0.462	-0.451
-269.326	-135.818	0.653	0.077
-268.311	612.076	0.174	0.434
-267.297	-200.000	-0.163	-1.155
-266.282	114.774	-0.547	-0.665
-265.267	-51.001	-0.409	-0.192
-264.253	242.420	-0.187	0.312
-263.238	80.282	0.539	-0.578
-262.224	84.546	0.466	0.508
-261.209	-200.000	0.071	0.508
-260.195	-6.507	-0.362	-0.246
-259.180	604.306	-0.241	0.598
-258.165	-200.000	-0.129	0.733
-257.151	-200.000	-0.162	1.021
-256.136	-92.301	-0.422	-0.119
-255.122	-200.000	0.007	-1.554
-254.107	-200.000	-0.028	-0.356
-253.092	-200.000	-0.017	-0.361
-252.078	262.431	-0.290	-0.501
-251.063	107.950	0.132	0.157
-250.049	50.887	0.565	-0.533
-249.034	50.534	-0.523	0.493
-248.019	800.000	-0.193	0.571
-247.005	3.019	0.168	0.121
-245.990	-3.724	0.753	-0.521
-244.976	261.047	-0.198	0.341
-243.961	130.544	0.425	0.543
-242.946	-65.056	0.516	-0.207
-241.932	225.449	0.241	-0.389
-240.917	800.000	0.188	-0.654
-239.903	-122.328	0.770	-0.125
-238.888	247.522	0.221	0.372
-237.873	185.512	0.338	0.500
-236.859	800.000	-0.096	-0.267
-235.844	-200.000	0.071	-0.942
-234.830	-200.000	-0.055	0.364
-233.815	-110.618	0.750	-0.154
-232.800	133.744	0.574	0.740
-231.786	-158.835	-0.757	0.043
-230.771	-174.035	-0.272	0.008
-229.757	618.377	0.044	-0.111
-228.742	-134.982	0.555	0.067
-227.727	-200.000	0.095	-1.589
-226.713	19.531	0.376	-0.301
-225.698	347.120	-0.197	0.386
-224.684	509.000	0.423	-0.979
-223.669	-16.234	-0.201	-0.127
-222.655	60.345	0.434	-0.427
-221.640	-200.000	0.047	-0.269
-220.625	-164.427	1.067	0.048
-219.611	181.572	0.350	-0.513
-218.596	156.429	-0.398	0.547
-217.582	-1.113	-0.706	-0.497
-216.567	174.055	-0.221	-0.317
-215.552	-74.370	0.360	-0.129
-214.538	-13.350	-0.255	0.165
-213.523	-65.063	-0.908	0.365
-212.509	-21.238	-0.156	0.095
-211.494	-200.000	-0.066	0.425
-210.479	69.098	-0.185	0.189
-209.465	-21.846	0.767	-0.464
-208.450	-94.658	-0.008	0.002
-207.436	164.270	0.171	-0.240
-206.421	224.777	-0.204	0.328
-205.406	-33.190	-0.340	0.187
-204.392	57.415	0.213	-0.207
-203.377	157.261	0.513	0.706
-202.363	-200.000	0.058	-0.340
-201.348	8.271	0.242	0.181
-200.333	-122.007	-0.677	0.111
-199.319	175.181	0.257	0.370
-198.304	499.065	0.194	0.445
-197.290	38.652	0.891	-0.791
-196.275	296.442	-0.233	-0.424
-195.260	-200.000	0.119	-0.528
-194.246	-76.084	-0.425	-0.149
-193.231	79.747	-0.318	0.339
-192.217	-122.405	-0.114	0.018
-191.202	-200.000	0.020	-0.665
-190.187	-127.286	0.300	-0.044
-189.173	800.000	-0.134	-0.494
-188.158	-89.059	-0.352	0.104
-187.144	454.002	-0.586	1.291
-186.129	-46.838	-0.359	0.174
-185.114	43.243	0.258	0.234
-184.100	420.141	-0.056	0.118
-183.085	-200.000	-0.037	0.571
-182.071	-113.418	0.285	0.056
-181.056	800.000	-0.116	-0.365
-180.042	-200.000	0.008	0.173
-179.027	800.000	-0.416	1.142
-178.012	800.000	0.134	0.459
-176.998	62.470	-0.370	0.367
-175.983	800.000	-0.256	-0.864
-174.969	-200.000	-0.142	0.642
-173.954	-62.996	-0.374	0.154
-172.939	-200.000	0.288	-0.000
-171.925	41.585	0.852	-0.767
-170.910	586.899	0.304	0.744
-169.896	-24.894	-0.644	0.380
-168.881	798.300	-0.207	-0.566
-167.866	94.908	0.244	-0.275
-166.852	-94.407	-0.363	-0.098
-165.837	-14.473	-0.537	0.343
-164.823	194.798	0.472	0.712
-163.808	-93.431	0.413	-0.114
-162.793	-100.611	1.135	0.278
-161.779	800.000	-0.171	-0.503
-160.764	-106.269	0.554	-0.123
-159.750	-55.858	0.762	-0.338
-158.735	-101.339	-0.210	0.051
-157.720	-200.000	-0.079	0.760
-156.706	-139.534	-0.676	0.072
-155.691	-68.172	0.308	0.119
-154.677	-200.000	0.037	0.210
-153.662	67.888	0.284	-0.288
-152.647	72.195	0.111	0.114
-151.633	-88.233	0.499	-0.148
-150.618	-45.904	0.194	0.095
-149.604	97.599	-0.325	-0.371
-148.589	65.641	0.761	0.765
-147.574	800.000	-0.237	0.730
-146.560	472.096	-0.119	0.267
-145.545	325.374	0.254	0.482
-144.531	-200.000	-0.105	0.743
-143.516	800.000	0.265	-0.889
-142.502	-200.000	-0.041	0.232
-141.487	-11.051	-0.503	-0.329
-140.472	-64.775	0.304	0.122
-139.458	-172.888	0.604	0.019
-138.443	-60.315	-0.285	-0.120
-137.429	100.880	0.168	0.193
-136.414	101.519	0.329	-0.381
-135.399	-128.290	-0.320	-0.045
-134.385	6.005	0.270	0.198
-133.370	134.900	0.257	-0.332
-132.356	98.252	0.053	-0.061
-131.341	-155.593	0.452	0.029
-130.326	-7.714	-1.219	0.817
-129.312	-97.432	-0.433	0.112
-128.297	-200.000	-0.133	-0.694
-127.283	-149.194	-0.960	-0.076
-126.268	-83.392	-0.805	0.256
-125.253	-71.568	-0.096	-0.035
-124.239	-200.000	-0.024	-0.160
-123.224	-84.211	-0.081	0.025
-122.210	14.850	-0.308	-0.239
