DTS Sentinel unit serial number:	SN413079Multiplexer serial number:	ORYXHardware model number:	OX4-SRSoftware version number:	ORYX F/W v4.00 Oryx Data Collector v3.7.2.0data status	okinstallation	princeton_trtdifferential loss correction	single-endedforward channel	channel 4reverse channel	N/Adate	2019/09/13time	10:25:35forward acquisition time	60.00reverse acquisition time	0.00gamma	496.2192k internal	0.2306k external	0.2306temperature offset calibration	1.0193default loss term (dB/km)	0.3790temperature slope calibration	1.0000multiplexer offset coefficient	1.0000multiplexer slope coefficient	1.0000fibre end	0.00T internal ref (°C)	31.00T ext. ref 1 (°C)	4.53T ext. ref 2 (°C)	28.04length (m)	temperature (°C)	Stokes	anti-Stokes-747.200	-200.000	-0.042	-0.200
-746.185	-10.574	-0.283	0.191
-745.171	-38.833	0.212	-0.114
-744.156	-20.765	-0.126	0.079
-743.142	18.418	-0.291	-0.236
-742.127	-72.480	-0.363	-0.136
-741.112	-1.094	0.237	0.170
-740.098	377.278	-0.072	0.150
-739.083	202.330	-0.150	-0.236
-738.069	-200.000	0.039	-0.214
-737.054	-11.293	0.126	-0.084
-736.039	13.457	-0.251	-0.198
-735.025	731.548	-0.013	-0.036
-734.010	-122.678	0.238	-0.039
-732.996	122.401	0.096	0.121
-731.981	-54.366	-0.259	-0.119
-730.966	800.000	-0.084	-0.306
-729.952	15.032	0.104	0.083
-728.937	281.950	-0.043	0.078
-727.923	-46.331	-0.271	0.135
-726.908	-85.670	-0.200	-0.063
-725.894	800.000	-0.066	-0.194
-724.879	-200.000	-0.012	0.399
-723.864	-95.674	-0.191	0.052
-722.850	42.124	0.238	-0.220
-721.835	607.170	-0.178	-0.450
-720.821	-18.027	0.470	0.299
-719.806	58.847	0.074	-0.073
-718.791	20.685	-0.101	0.083
-717.777	-98.786	0.025	0.007
-716.762	-84.643	-0.338	0.108
-715.748	800.000	-0.175	-0.499
-714.733	641.231	0.063	0.163
-713.718	178.329	-0.178	0.264
-712.704	-101.349	0.270	0.067
-711.689	-18.392	0.230	0.146
-710.675	385.531	-0.115	-0.240
-709.660	-200.000	-0.055	0.439
-708.645	58.723	-0.025	-0.025
-707.631	747.317	-0.102	0.280
-706.616	-151.625	0.264	-0.020
-705.602	800.000	0.038	-0.157
-704.587	589.592	0.058	-0.145
-703.572	8.693	-0.295	-0.226
-702.558	54.987	-0.080	-0.079
-701.543	-100.579	0.157	0.039
-700.529	-200.000	0.012	-0.328
-699.514	-18.600	0.128	-0.081
-698.499	-81.806	-0.181	-0.060
-697.485	-88.878	-0.428	-0.129
-696.470	76.167	-0.247	-0.266
-695.456	-51.998	0.115	-0.054
-694.441	-200.000	-0.004	0.100
-693.426	-2.223	-0.163	-0.116
-692.412	800.000	0.091	-0.282
-691.397	23.992	0.125	0.105
-690.383	800.000	0.104	-0.407
-689.368	54.066	0.246	-0.240
-688.354	-17.895	0.144	0.092
-687.339	-200.000	0.062	-0.426
-686.324	-27.474	-0.203	-0.120
-685.310	-200.000	0.007	-0.120
-684.295	-28.188	-0.195	0.114
-683.281	-155.379	-0.217	0.014
-682.266	19.146	-0.138	0.112
-681.251	70.840	-0.151	0.158
-680.237	-6.099	0.137	-0.095
-679.222	350.898	-0.225	0.452
-678.208	-200.000	0.038	-0.225
-677.193	-35.224	-0.117	-0.065
-676.178	-72.007	0.121	0.046
-675.164	571.272	-0.085	0.209
-674.149	-200.000	0.019	0.176
-673.135	7.182	0.302	0.229
-672.120	29.720	0.089	0.077
-671.105	66.044	0.146	0.150
-670.091	-139.332	-0.378	-0.041
-669.076	50.776	0.050	0.048
-668.062	-200.000	-0.016	-0.157
-667.047	-200.000	0.007	-0.311
-666.032	485.834	0.110	-0.255
-665.018	-5.749	-0.225	0.156
-664.003	-78.029	0.389	0.136
-662.989	-15.325	-0.392	-0.254
-661.974	236.527	-0.231	-0.387
-660.959	16.024	-0.107	0.086
-659.945	36.629	0.235	-0.210
-658.930	620.442	0.037	0.095
-657.916	-200.000	-0.013	-0.236
-656.901	98.294	-0.188	0.219
-655.886	-20.661	0.274	0.171
-654.872	758.691	0.031	-0.086
-653.857	800.000	-0.013	0.056
-652.843	-110.044	0.223	0.047
-651.828	64.170	0.069	0.071
-650.814	-100.116	-0.171	0.043
-649.799	-6.600	-0.341	-0.235
-648.784	-200.000	0.010	-0.217
-647.770	-98.427	-0.114	-0.030
-646.755	-200.000	-0.031	0.248
-645.741	666.436	0.128	-0.335
-644.726	800.000	0.037	-0.155
-643.711	-200.000	-0.000	0.013
-642.697	-21.259	-0.101	0.062
-641.682	-116.056	-0.187	0.035
-640.668	-2.869	-0.261	-0.185
-639.653	-81.226	-0.446	-0.149
-638.638	-65.871	-0.089	0.036
-637.624	-93.924	-0.152	0.042
-636.609	-112.527	-0.314	-0.063
-635.595	800.000	-0.052	-0.209
-634.580	127.524	0.054	0.070
-633.565	25.947	-0.401	-0.339
-632.551	72.901	0.024	-0.026
-631.536	-157.040	0.097	-0.006
-630.522	800.000	-0.010	0.034
-629.507	46.637	-0.095	0.089
-628.492	-73.453	0.018	-0.007
-627.478	9.098	0.140	0.107
-626.463	77.573	0.087	0.094
-625.449	452.036	-0.046	0.103
-624.434	-83.102	0.128	0.042
-623.419	-200.000	0.026	-0.209
-622.405	5.912	-0.080	0.060
-621.390	-200.000	0.025	-0.162
-620.376	-200.000	-0.018	-0.092
-619.361	800.000	-0.062	-0.209
-618.346	-171.575	-0.350	0.012
-617.332	-133.184	-0.159	-0.020
-616.317	-58.627	-0.146	-0.064
-615.303	-28.102	-0.041	-0.024
-614.288	-200.000	-0.060	0.342
-613.273	800.000	0.050	-0.215
-612.259	-100.295	-0.055	0.014
-611.244	313.378	-0.131	0.250
-610.230	608.562	0.187	-0.473
-609.215	-68.833	0.410	0.160
-608.201	427.252	0.045	-0.097
-607.186	106.879	0.187	-0.225
-606.171	-112.157	-0.053	0.011
-605.157	-133.821	0.260	0.033
-604.142	-99.073	-0.113	-0.029
-603.128	14.272	-0.159	-0.125
-602.113	34.772	-0.052	0.046
-601.098	-109.940	-0.262	-0.056
-600.084	-34.218	-0.061	-0.034
-599.069	800.000	-0.051	-0.164
-598.055	-123.266	0.105	0.017
-597.040	115.895	0.075	0.092
-596.025	266.011	0.093	-0.164
-595.011	-113.754	-0.298	0.059
-593.996	-200.000	0.061	0.281
-592.982	22.431	-0.122	-0.101
-591.967	565.650	0.026	-0.063
-590.952	210.786	0.082	-0.130
-589.938	-35.622	0.203	0.111
-588.923	800.000	-0.081	0.327
-587.909	-101.921	0.063	-0.015
-586.894	-49.827	-0.213	-0.102
-585.879	800.000	-0.030	-0.114
-584.865	-48.962	-0.263	-0.128
-583.850	71.423	0.212	-0.223
-582.836	203.801	0.048	-0.076
-581.821	-200.000	-0.026	-0.130
-580.806	11.327	0.188	-0.145
-579.792	309.145	-0.156	0.294
-578.777	143.745	0.101	-0.136
-577.763	800.000	-0.057	0.208
-576.748	119.972	-0.061	0.077
-575.733	262.431	0.133	0.233
-574.719	-129.679	-0.174	0.024
-573.704	-130.578	0.295	0.040
-572.690	46.328	0.086	-0.081
-571.675	-97.366	0.322	0.085
-570.661	166.933	0.090	0.129
-569.646	-7.816	0.017	0.012
-568.631	219.721	-0.185	0.299
-567.617	-63.058	-0.274	0.114
-566.602	47.160	-0.048	-0.045
-565.588	208.396	-0.053	0.084
-564.573	-11.853	-0.040	-0.026
-563.558	-58.119	-0.075	-0.033
-562.544	137.581	-0.209	0.277
-561.529	-200.000	-0.020	-0.126
-560.515	-91.174	0.293	0.085
-559.500	122.047	-0.066	-0.084
-558.485	4.624	-0.089	-0.066
-557.471	-200.000	0.004	0.067
-556.456	-90.548	-0.224	0.065
-555.442	-121.061	0.201	0.034
-554.427	191.569	-0.130	-0.197
-553.412	141.919	-0.210	-0.281
-552.398	74.254	0.136	0.144
-551.383	251.551	0.128	0.220
-550.369	-92.476	0.092	0.026
-549.354	-200.000	-0.020	-0.104
-548.339	-106.460	-0.118	0.027
-547.325	214.547	0.111	-0.177
-546.310	-126.926	0.181	0.027
-545.296	-43.072	-0.300	-0.154
-544.281	800.000	0.065	0.208
-543.266	70.438	-0.026	0.027
-542.252	-200.000	0.000	-0.057
-541.237	727.641	0.088	-0.236
-540.223	-200.000	-0.021	0.240
-539.208	-200.000	0.017	0.086
-538.193	76.314	0.193	0.206
-537.179	-200.000	0.012	-0.111
-536.164	-125.945	0.331	-0.050
-535.150	92.480	-0.113	0.128
-534.135	18.329	0.196	0.158
-533.121	71.496	-0.130	0.136
-532.106	-55.597	0.262	-0.118
-531.091	-23.350	-0.094	-0.057
-530.077	280.851	-0.088	-0.159
-529.062	279.600	0.131	-0.236
-528.048	89.906	0.167	0.188
-527.033	-200.000	0.001	0.183
-526.018	-200.000	-0.008	0.064
-525.004	129.746	-0.217	0.279
-523.989	-200.000	0.026	-0.224
-522.975	42.715	0.203	-0.186
-521.960	800.000	-0.077	-0.244
-520.945	800.000	-0.011	0.039
-519.931	-56.717	-0.338	-0.151
-518.916	-163.116	0.091	-0.004
-517.902	800.000	0.090	-0.275
-516.887	203.093	0.103	-0.161
-515.872	-68.082	0.094	0.037
-514.858	366.782	-0.057	0.115
-513.843	-200.000	-0.000	0.029
-512.829	-200.000	0.028	-0.147
-511.814	201.040	0.054	-0.084
-510.799	-200.000	0.088	-0.458
-509.785	-140.660	-0.241	-0.025
-508.770	178.547	-0.179	0.264
-507.756	121.071	0.418	0.524
-506.741	-9.725	-0.210	-0.141
-505.726	752.106	0.069	-0.189
-504.712	149.108	-0.285	0.389
-503.697	-78.657	0.163	-0.056
-502.683	152.668	-0.266	-0.367
-501.668	1.915	0.079	0.058
-500.653	-88.039	0.088	-0.027
-499.639	-18.918	-0.255	0.160
-498.624	218.698	-0.249	-0.400
-497.610	324.967	0.095	0.183
-496.595	-11.531	0.152	-0.101
-495.581	-169.969	-0.151	0.005
-494.566	-10.499	-0.303	-0.202
-493.551	800.000	0.140	-0.544
-492.537	-25.044	0.139	-0.083
-491.522	142.060	-0.290	-0.388
-490.508	-200.000	0.016	-0.086
-489.493	26.667	-0.170	-0.143
-488.478	-84.245	0.082	-0.026
-487.464	-200.000	-0.003	0.036
-486.449	237.917	-0.058	-0.097
-485.435	-178.147	-0.278	0.007
-484.420	-200.000	-0.021	0.251
-483.405	43.210	-0.195	0.179
-482.391	173.721	-0.120	0.174
-481.376	284.334	-0.043	0.078
-480.362	800.000	0.060	-0.208
-479.347	-163.920	0.147	-0.007
-478.332	-156.925	-0.130	0.008
-477.318	88.718	0.192	0.215
-476.303	171.405	-0.193	0.279
-475.289	-59.208	-0.193	0.084
-474.274	84.278	-0.138	0.152
-473.259	-200.000	-0.016	-0.115
-472.245	-81.784	0.397	0.131
-471.230	161.216	0.085	-0.120
-470.216	55.089	-0.143	-0.139
-469.201	77.249	0.047	-0.051
-468.186	-200.000	-0.014	0.260
-467.172	20.090	0.144	0.117
-466.157	314.301	-0.082	-0.155
-465.143	-81.266	-0.197	0.065
-464.128	115.437	-0.214	-0.264
-463.113	94.196	-0.201	0.229
-462.099	-57.062	-0.283	0.126
-461.084	11.200	0.151	-0.116
-460.070	346.381	0.055	0.108
-459.055	-142.433	-0.425	0.042
-458.040	-17.946	-0.155	-0.098
-457.026	100.496	-0.143	-0.167
-456.011	-40.576	0.216	0.113
-454.997	8.138	-0.222	-0.168
-453.982	5.218	0.321	0.238
-452.968	-162.975	0.072	0.003
-451.953	103.917	0.205	0.242
-450.938	170.131	-0.150	0.216
-449.924	-200.000	0.033	0.190
-448.909	-200.000	-0.037	-0.184
-447.895	324.694	-0.090	0.173
-446.880	104.333	-0.256	0.302
-445.865	-21.440	0.174	-0.107
-444.851	-195.428	-0.188	-0.001
-443.836	540.372	0.015	0.035
-442.822	800.000	-0.077	0.262
-441.807	-150.033	0.133	-0.010
-440.792	-36.989	0.510	0.275
-439.778	388.074	0.191	0.397
-438.763	-200.000	0.030	0.237
-437.749	-135.139	-0.158	-0.019
-436.734	800.000	0.104	-0.418
-435.719	1.489	-0.107	-0.077
-434.705	-190.824	0.120	0.001
-433.690	205.746	0.051	-0.079
-432.676	724.608	0.144	0.386
-431.661	135.756	-0.056	-0.073
-430.646	-153.096	0.100	-0.007
-429.632	307.527	-0.066	-0.123
-428.617	-107.673	0.182	-0.040
-427.603	800.000	0.057	-0.241
-426.588	-48.446	0.192	0.093
-425.573	-128.143	0.129	0.019
-424.559	770.838	0.052	0.142
-423.544	67.743	0.048	0.049
-422.530	-86.731	-0.139	0.043
-421.515	169.748	-0.341	-0.489
-420.500	-74.038	-0.207	0.075
-419.486	-200.000	-0.075	0.452
-418.471	800.000	-0.057	0.194
-417.457	210.965	-0.223	0.352
-416.442	800.000	0.080	0.342
-415.428	-200.000	0.030	-0.321
-414.413	-47.973	0.480	-0.233
-413.398	-92.101	0.407	-0.115
-412.384	152.353	0.251	-0.344
-411.369	-170.641	-0.111	-0.004
-410.355	-165.296	-0.552	-0.024
-409.340	-200.000	0.016	0.167
-408.325	118.053	-0.084	0.104
-407.311	-17.124	-0.251	0.159
-406.296	-6.386	0.268	0.183
-405.282	-123.193	-0.197	0.032
-404.267	-1.277	0.118	-0.084
-403.252	-200.000	0.019	0.109
-402.238	163.596	0.136	0.192
-401.223	800.000	-0.064	-0.233
-400.209	136.124	0.093	-0.122
-399.194	243.545	-0.095	0.161
-398.179	66.574	0.097	0.099
-397.165	-20.932	0.048	0.030
-396.150	-124.546	0.437	0.068
-395.136	-81.148	-0.142	-0.047
-394.121	-58.718	0.135	-0.059
-393.106	314.690	-0.190	-0.360
-392.092	-1.868	-0.316	-0.223
-391.077	159.742	-0.082	-0.115
-390.063	-103.062	-0.176	0.042
-389.048	17.684	0.277	0.221
-388.033	-123.695	0.262	-0.042
-387.019	-123.814	-0.057	0.009
-386.004	3.907	0.242	-0.178
-384.990	-101.475	0.292	0.071
-383.975	-109.342	-0.048	-0.010
-382.960	177.383	0.198	-0.289
-381.946	-68.668	0.038	-0.015
-380.931	800.000	-0.027	0.106
-379.917	193.097	0.109	-0.166
-378.902	367.332	-0.089	-0.181
-377.888	-98.878	0.452	-0.115
-376.873	-135.524	-0.265	-0.032
-375.858	228.220	0.052	0.084
-374.844	-68.194	0.402	0.157
-373.829	340.892	-0.071	0.138
-372.815	-46.320	0.219	0.108
-371.800	-146.740	0.122	-0.011
-370.785	-37.141	-0.050	0.027
-369.771	-187.761	0.174	-0.002
-368.756	-200.000	-0.018	0.091
-367.742	800.000	0.066	0.193
-366.727	251.991	0.065	-0.112
-365.712	-22.849	-0.440	0.266
-364.698	-166.071	0.240	-0.010
-363.683	22.486	-0.120	0.099
-362.669	-200.000	0.040	-0.195
-361.654	-200.000	-0.004	0.218
-360.639	69.937	0.197	0.203
-359.625	-103.742	0.177	-0.042
-358.610	-22.221	-0.058	-0.035
-357.596	-77.776	0.258	0.089
-356.581	-200.000	-0.003	-0.031
-355.566	-200.000	0.013	-0.119
-354.552	800.000	0.064	-0.232
-353.537	-200.000	0.020	0.092
-352.523	-78.017	-0.326	0.112
-351.508	17.473	-0.208	-0.166
-350.493	-59.795	-0.087	0.037
-349.479	-99.076	0.141	0.036
-348.464	97.128	-0.255	0.292
-347.450	67.512	-0.182	-0.186
-346.435	180.363	0.235	0.345
-345.420	-117.960	0.206	0.037
-344.406	-102.060	0.146	0.035
-343.391	-37.288	-0.204	-0.109
-342.377	24.294	-0.091	0.076
-341.362	-20.487	-0.276	0.170
-340.348	-55.347	-0.036	-0.016
-339.333	-87.244	-0.011	-0.003
-338.318	-91.936	0.282	0.080
-337.304	-26.147	0.100	-0.059
-336.289	274.130	-0.122	0.216
-335.275	-124.466	-0.136	0.021
-334.260	-123.175	0.047	-0.008
-333.245	159.876	0.172	0.240
-332.231	-60.774	0.202	-0.085
-331.216	-60.457	0.278	-0.118
-330.202	134.475	0.146	0.189
-329.187	-104.347	0.161	-0.037
-328.172	-200.000	-0.005	0.150
-327.158	457.964	-0.103	-0.229
-326.143	-179.168	-0.019	-0.000
-325.129	-54.364	-0.250	0.114
-324.114	-200.000	0.034	0.165
-323.099	-176.801	-0.324	0.008
-322.085	261.246	-0.167	-0.289
-321.070	-200.000	-0.009	0.261
-320.056	22.924	0.043	0.035
-319.041	-200.000	-0.019	0.196
-318.026	-117.080	-0.261	0.048
-317.012	74.790	0.214	0.225
-315.997	-200.000	-0.021	0.244
-314.983	-89.395	0.133	0.039
-313.968	123.338	0.254	-0.318
-312.953	394.773	0.032	0.066
-311.939	-25.068	0.193	-0.114
-310.924	-200.000	0.002	0.250
-309.910	247.117	-0.053	-0.089
-308.895	-27.250	0.037	0.021
-307.880	-200.000	0.001	0.224
-306.866	-75.928	-0.282	-0.100
-305.851	-159.799	-0.046	-0.003
-304.837	800.000	-0.049	-0.157
-303.822	53.228	-0.301	-0.288
-302.807	148.370	-0.087	-0.118
-301.793	84.459	-0.018	-0.020
-300.778	-200.000	-0.032	0.238
-299.764	101.715	-0.112	-0.131
-298.749	336.054	-0.040	-0.077
-297.735	-200.000	-0.004	-0.344
-296.720	-76.548	0.248	0.087
-295.705	-102.386	-0.085	-0.020
-294.691	-200.000	0.027	-0.247
-293.676	35.067	-0.290	-0.254
-292.662	-200.000	-0.020	-0.098
-291.647	312.230	-0.114	-0.213
-290.632	-81.875	-0.064	0.021
-289.618	-145.879	0.281	0.025
-288.603	800.000	0.040	-0.111
-287.589	-200.000	-0.032	0.174
-286.574	-200.000	-0.027	-0.132
-285.559	-108.700	-0.146	0.031
-284.545	-200.000	-0.017	0.119
-283.530	-127.913	-0.208	0.030
-282.516	512.558	-0.147	0.342
-281.501	-86.911	0.107	-0.033
-280.486	-65.016	-0.397	-0.160
-279.472	-124.496	-0.154	-0.024
-278.457	-156.007	0.491	0.031
-277.443	-69.527	-0.124	-0.047
-276.428	222.959	-0.063	0.102
-275.413	-167.328	-0.136	-0.005
-274.399	-200.000	0.004	0.157
-273.384	-93.504	-0.058	-0.016
-272.370	-123.371	-0.078	-0.012
-271.355	-156.415	-0.076	0.005
-270.340	800.000	0.101	-0.297
-269.326	-113.474	0.389	-0.076
-268.311	56.304	-0.115	0.112
-267.297	-200.000	0.017	0.183
-266.282	364.947	-0.087	-0.175
-265.267	159.144	0.195	0.271
-264.253	703.427	-0.087	0.229
-263.238	-200.000	0.001	-0.025
-262.224	46.241	-0.234	-0.216
-261.209	160.590	-0.112	-0.156
-260.195	109.139	0.077	-0.092
-259.180	-200.000	0.050	0.237
-258.165	774.362	-0.048	-0.131
-257.151	-89.937	0.151	0.044
-256.136	391.625	-0.081	-0.168
-255.122	-51.055	0.178	0.083
-254.107	-143.667	0.245	0.023
-253.092	-93.292	-0.313	0.087
-252.078	612.060	0.038	-0.096
-251.063	109.567	0.155	-0.185
-250.049	188.393	-0.159	-0.237
-249.034	800.000	0.040	0.124
-248.019	147.234	-0.161	0.217
-247.005	-26.753	-0.256	0.149
-245.990	-83.974	0.346	0.110
-244.976	286.634	-0.133	0.239
-243.961	-144.584	0.078	0.007
-242.946	119.386	0.076	-0.094
-241.932	-200.000	-0.011	0.208
-240.917	-123.691	-0.302	0.048
-239.903	-13.094	0.113	-0.074
-238.888	-103.068	0.241	0.057
-237.873	800.000	-0.039	0.141
-236.859	-22.519	-0.213	-0.128
-235.844	195.269	0.088	0.134
-234.830	330.225	0.138	0.265
-233.815	-200.000	-0.032	0.184
-232.800	417.733	0.091	0.195
-231.786	-143.190	0.135	-0.013
-230.771	-114.619	-0.134	-0.026
-229.757	-200.000	0.007	-0.155
-228.742	800.000	-0.050	0.200
-227.727	-200.000	0.025	-0.402
-226.713	404.230	-0.110	0.232
-225.698	33.262	-0.178	-0.154
-224.684	82.831	-0.233	-0.253
-223.669	166.601	-0.097	0.136
-222.655	-170.654	-0.090	-0.003
-221.640	-200.000	0.012	-0.078
-220.625	-185.304	0.377	0.006
-219.611	-99.065	0.249	-0.063
-218.596	800.000	0.093	-0.393
-217.582	39.662	0.178	-0.159
-216.567	800.000	0.070	0.304
-215.552	224.737	0.226	0.364
-214.538	800.000	0.068	-0.211
-213.523	379.381	-0.040	-0.081
-212.509	-64.094	0.178	-0.073
-211.494	-200.000	0.012	0.104
-210.479	109.225	0.270	-0.322
-209.465	361.284	0.083	-0.167
-208.450	800.000	-0.047	0.139
-207.436	-200.000	0.002	0.194
-206.421	18.441	0.061	0.048
-205.406	104.923	-0.162	0.190
-204.392	-35.853	0.081	0.044
-203.377	-119.056	0.182	0.032
-202.363	-17.023	-0.235	-0.148
-201.348	-200.000	0.023	0.219
-200.333	539.302	-0.113	0.269
-199.319	-31.127	0.294	-0.165
-198.304	-200.000	-0.009	0.154
-197.290	-65.498	-0.099	-0.040
-196.275	20.194	0.345	-0.277
-195.260	283.700	-0.051	0.092
-194.246	-200.000	0.050	-0.314
-193.231	800.000	-0.042	0.169
-192.217	-169.573	-0.372	-0.013
-191.202	800.000	0.014	0.051
-190.187	-152.377	0.437	-0.031
-189.173	-44.039	-0.228	-0.114
-188.158	-200.000	0.017	-0.189
-187.144	-61.720	-0.283	-0.118
-186.129	99.593	0.190	-0.219
-185.114	-200.000	-0.011	-0.319
-184.100	268.000	0.140	-0.245
-183.085	-52.473	-0.145	-0.067
-182.071	48.170	0.352	0.328
-181.056	347.695	0.097	0.190
-180.042	-108.016	-0.104	0.022
-179.027	221.878	-0.072	-0.115
-178.012	246.634	-0.057	-0.095
-176.998	-70.244	0.071	-0.027
-175.983	-200.000	-0.000	-0.186
-174.969	220.616	0.076	-0.122
-173.954	-200.000	-0.018	0.281
-172.939	-200.000	-0.019	0.143
-171.925	-70.394	0.364	-0.137
-170.910	800.000	0.114	-0.407
-169.896	646.213	0.081	0.205
-168.881	-106.992	-0.262	0.058
-167.866	101.540	0.083	-0.097
-166.852	800.000	-0.045	-0.140
-165.837	-69.777	0.274	-0.104
-164.823	-9.136	0.201	-0.133
-163.808	-64.820	0.080	-0.032
-162.793	99.139	0.378	0.434
-161.779	100.605	0.073	-0.085
-160.764	800.000	-0.016	-0.065
-159.750	-200.000	0.026	0.193
-158.735	-62.476	0.147	0.061
-157.720	64.689	-0.030	0.030
-156.706	-45.263	-0.290	-0.143
-155.691	-8.582	-0.123	0.082
-154.677	79.744	-0.136	0.145
-153.662	-55.700	0.110	0.049
-152.647	-93.009	0.304	-0.084
-151.633	35.168	0.081	0.070
-150.618	-109.705	0.104	-0.022
-149.604	248.761	-0.291	0.490
-148.589	-0.433	0.161	0.113
-147.574	8.908	-0.200	-0.150
-146.560	52.467	-0.191	0.181
-145.545	-110.858	0.225	-0.046
-144.531	-200.000	-0.002	-0.046
-143.516	563.941	-0.037	0.089
-142.502	55.207	-0.313	-0.301
-141.487	-200.000	0.015	-0.289
-140.472	207.638	-0.077	-0.119
-139.458	-71.679	0.227	0.084
-138.443	-105.372	-0.287	-0.065
-137.429	-135.384	-0.111	0.013
-136.414	-200.000	0.047	0.207
-135.399	179.893	0.134	0.195
-134.385	-56.684	0.179	-0.079
-133.370	-200.000	0.011	0.055
-132.356	800.000	0.053	-0.150
-131.341	258.853	-0.206	0.353
-130.326	-75.940	-0.123	0.043
-129.312	141.838	0.074	0.097
-128.297	189.201	0.082	-0.121
-127.283	311.235	0.039	0.073
-126.268	-81.292	-0.232	0.076
-125.253	-147.502	0.165	0.014
-124.239	-116.433	-0.331	0.061
-123.224	-36.272	0.145	-0.078
-122.210	-102.945	0.151	-0.036
