DTS Sentinel unit serial number:	SN413079Multiplexer serial number:	ORYXHardware model number:	OX4-SRSoftware version number:	ORYX F/W v4.00 Oryx Data Collector v3.7.2.0data status	okinstallation	princeton_trtdifferential loss correction	single-endedforward channel	channel 4reverse channel	N/Adate	2019/09/16time	03:33:35forward acquisition time	60.00reverse acquisition time	0.00gamma	496.2192k internal	0.2320k external	0.2320temperature offset calibration	0.9975default loss term (dB/km)	0.3790temperature slope calibration	1.0000multiplexer offset coefficient	1.0000multiplexer slope coefficient	1.0000fibre end	0.00T internal ref (°C)	27.64T ext. ref 1 (°C)	10.58T ext. ref 2 (°C)	21.65length (m)	temperature (°C)	Stokes	anti-Stokes-747.200	-59.284	0.119	-0.052
-746.185	-200.000	-0.007	0.320
-745.171	117.193	0.043	0.053
-744.156	102.845	-0.203	0.241
-743.142	-91.200	-0.184	0.053
-742.127	58.305	-0.141	0.140
-741.112	96.534	0.108	0.125
-740.098	-60.055	-0.180	0.078
-739.083	-130.750	-0.208	0.028
-738.069	-200.000	-0.017	0.366
-737.054	-103.785	0.151	0.036
-736.039	87.279	-0.249	-0.279
-735.025	-78.169	0.445	-0.155
-734.010	-76.371	-0.301	-0.107
-732.996	-200.000	0.014	-0.084
-731.981	206.416	-0.131	-0.206
-730.966	-161.872	0.157	0.008
-729.952	-200.000	-0.006	0.104
-728.937	49.383	-0.112	-0.107
-727.923	558.168	-0.161	-0.392
-726.908	103.291	-0.202	0.240
-725.894	800.000	0.061	0.209
-724.879	634.526	-0.069	0.176
-723.864	103.163	-0.316	-0.374
-722.850	94.553	0.121	-0.139
-721.835	194.269	0.103	0.157
-720.821	656.037	0.086	0.223
-719.806	-200.000	-0.039	-0.321
-718.791	-35.783	-0.062	0.034
-717.777	-42.350	-0.248	0.128
-716.762	-84.725	0.131	0.042
-715.748	22.282	-0.182	-0.150
-714.733	-66.529	-0.011	-0.004
-713.718	-33.517	-0.158	0.088
-712.704	173.396	-0.069	0.101
-711.689	-102.257	-0.209	-0.051
-710.675	13.515	0.440	-0.345
-709.660	-125.229	-0.359	0.056
-708.645	-176.388	-0.162	-0.004
-707.631	150.286	0.053	0.073
-706.616	-58.646	0.135	-0.059
-705.602	800.000	-0.022	0.074
-704.587	-150.249	-0.163	-0.013
-703.572	800.000	-0.047	-0.189
-702.558	603.660	0.024	-0.060
-701.543	-200.000	0.023	0.190
-700.529	-5.493	-0.170	0.118
-699.514	-50.745	0.074	0.035
-698.499	169.358	-0.132	0.190
-697.485	-34.886	-0.339	0.187
-696.470	800.000	0.053	0.158
-695.456	-121.002	-0.264	0.045
-694.441	-18.410	0.041	-0.026
-693.426	215.674	-0.098	0.157
-692.412	475.166	-0.159	-0.363
-691.397	-2.333	0.443	0.314
-690.383	46.960	0.074	0.069
-689.368	-12.676	-0.300	-0.197
-688.354	-200.000	-0.006	-0.055
-687.339	-57.846	0.098	-0.043
-686.324	-200.000	0.051	-0.441
-685.310	-200.000	0.007	-0.176
-684.295	-21.894	-0.060	-0.037
-683.281	800.000	-0.111	-0.351
-682.266	22.678	-0.260	-0.215
-681.251	126.236	-0.260	-0.332
-680.237	275.742	0.022	0.040
-679.222	290.196	0.290	-0.531
-678.208	-129.958	0.419	-0.058
-677.193	-121.202	0.143	-0.024
-676.178	9.151	0.430	0.328
-675.164	-72.635	-0.204	-0.076
-674.149	-200.000	0.009	-0.418
-673.135	-200.000	0.030	0.200
-672.120	53.271	-0.179	0.172
-671.105	-15.694	-0.131	-0.084
-670.091	-53.504	0.175	0.081
-669.076	-78.004	-0.135	-0.047
-668.062	156.072	0.027	0.038
-667.047	-161.469	0.165	-0.009
-666.032	-78.098	0.084	0.029
-665.018	101.952	-0.069	-0.081
-664.003	76.019	-0.146	0.156
-662.989	371.938	-0.109	0.224
-661.974	80.976	-0.237	0.258
-660.959	-200.000	0.035	-0.211
-659.945	-200.000	0.016	0.079
-658.930	-140.320	-0.184	-0.019
-657.916	139.982	-0.055	0.073
-656.901	-167.936	0.164	-0.006
-655.886	-109.802	-0.047	-0.010
-654.872	241.627	-0.076	0.128
-653.857	-200.000	-0.021	-0.217
-652.843	303.509	0.166	0.310
-651.828	194.352	0.260	-0.397
-650.814	129.096	0.175	-0.225
-649.799	38.837	0.336	-0.303
-648.784	37.312	0.123	-0.110
-647.770	95.569	0.115	0.132
-646.755	-60.393	-0.128	-0.055
-645.741	-96.587	0.273	-0.073
-644.726	800.000	0.039	-0.161
-643.711	-78.881	0.273	0.094
-642.697	-150.519	-0.159	-0.012
-641.682	118.417	-0.117	0.145
-640.668	649.843	-0.084	-0.216
-639.653	156.677	-0.164	0.228
-638.638	91.920	0.071	-0.081
-637.624	324.104	0.047	0.090
-636.609	702.488	0.080	0.211
-635.595	127.255	0.134	0.171
-634.580	250.973	-0.044	-0.076
-633.565	800.000	-0.032	0.116
-632.551	-159.737	-0.137	0.008
-631.536	-55.066	-0.147	-0.067
-630.522	800.000	0.110	-0.451
-629.507	-61.207	0.400	-0.170
-628.492	84.718	-0.232	-0.256
-627.478	153.541	-0.124	0.171
-626.463	800.000	-0.040	0.149
-625.449	-70.011	-0.384	-0.147
-624.434	-19.792	-0.159	-0.099
-623.419	-144.369	0.172	0.016
-622.405	-75.584	0.139	-0.050
-621.390	-186.841	-0.109	0.002
-620.376	378.850	0.156	-0.320
-619.361	156.101	0.120	0.167
-618.346	618.818	-0.048	-0.121
-617.332	-63.539	0.028	0.012
-616.317	71.518	-0.122	0.127
-615.303	206.928	-0.144	0.226
-614.288	-200.000	0.008	-0.058
-613.273	-200.000	-0.020	-0.139
-612.259	412.335	0.123	0.262
-611.244	-0.742	-0.157	-0.112
-610.230	-200.000	-0.016	-0.199
-609.215	208.431	-0.145	0.228
-608.201	800.000	0.101	0.288
-607.186	-76.839	0.278	-0.098
-606.171	642.305	0.118	0.304
-605.157	122.699	-0.136	-0.171
-604.142	-140.151	-0.373	-0.039
-603.128	-200.000	-0.029	0.213
-602.113	352.745	0.131	-0.262
-601.098	-48.243	-0.072	0.035
-600.084	197.921	-0.073	-0.112
-599.069	800.000	0.024	-0.076
-598.055	-103.392	0.176	0.042
-597.040	21.076	0.079	-0.065
-596.025	-200.000	-0.037	0.229
-595.011	-108.653	-0.131	-0.028
-593.996	-96.423	0.131	0.035
-592.982	47.776	-0.072	0.067
-591.967	463.079	-0.133	-0.298
-590.952	-200.000	0.009	-0.196
-589.938	-200.000	0.022	-0.258
-588.923	-120.533	0.368	-0.063
-587.909	301.572	0.197	-0.365
-586.894	-200.000	-0.007	-0.071
-585.879	-61.955	-0.085	-0.036
-584.865	-40.142	0.226	-0.118
-583.850	800.000	-0.079	0.235
-582.836	40.629	-0.100	-0.090
-581.821	-136.608	-0.097	0.011
-580.806	69.224	-0.255	0.263
-579.792	-72.400	-0.262	0.098
-578.777	25.255	-0.090	0.075
-577.763	260.982	-0.231	-0.402
-576.748	-200.000	-0.074	0.461
-575.733	-157.634	0.076	-0.005
-574.719	-31.182	0.060	-0.034
-573.704	74.152	-0.194	-0.204
-572.690	-53.290	0.359	-0.165
-571.675	-41.059	-0.170	0.088
-570.661	55.563	0.185	-0.180
-569.646	614.547	-0.137	-0.346
-568.631	800.000	-0.023	0.066
-567.617	800.000	0.066	-0.235
-566.602	770.345	0.122	0.333
-565.588	20.349	0.138	-0.112
-564.573	800.000	-0.057	-0.210
-563.558	800.000	-0.051	0.197
-562.544	31.839	0.196	-0.170
-561.529	34.920	0.127	0.112
-560.515	-134.428	-0.327	-0.040
-559.500	-138.949	0.089	-0.010
-558.485	800.000	0.069	0.262
-557.471	-90.592	0.248	0.072
-556.456	-200.000	-0.023	-0.144
-555.442	-111.146	-0.176	0.036
-554.427	-108.988	0.170	-0.036
-553.412	84.578	-0.083	0.091
-552.398	125.775	-0.139	0.176
-551.383	-194.940	-0.417	-0.003
-550.369	315.040	-0.156	0.294
-549.354	36.572	0.069	-0.061
-548.339	-95.510	0.159	-0.043
-547.325	-200.000	-0.004	0.154
-546.310	-200.000	0.031	-0.233
-545.296	166.888	-0.088	-0.126
-544.281	776.347	0.091	0.249
-543.266	-194.525	0.285	0.002
-542.252	147.908	-0.139	0.189
-541.237	167.996	-0.183	-0.261
-540.223	-200.000	0.011	-0.335
-539.208	-20.877	-0.133	0.082
-538.193	351.908	-0.096	-0.191
-537.179	251.807	0.096	0.164
-536.164	156.030	-0.095	0.132
-535.150	-197.773	-0.309	-0.002
-534.135	800.000	-0.074	0.219
-533.121	-37.983	0.343	0.183
-532.106	-200.000	-0.055	-0.472
-531.091	2.800	-0.102	-0.074
-530.077	42.261	-0.165	0.150
-529.062	-68.036	0.110	-0.043
-528.048	-139.820	-0.122	-0.013
-527.033	800.000	-0.015	-0.050
-526.018	241.996	0.102	0.170
-525.004	262.442	0.058	-0.100
-523.989	156.543	-0.058	-0.081
-522.975	-65.194	0.254	-0.103
-521.960	-200.000	0.003	-0.050
-520.945	-67.704	-0.173	0.068
-519.931	-12.851	-0.032	-0.021
-518.916	-158.752	-0.195	0.011
-517.902	-200.000	0.005	0.136
-516.887	167.550	-0.238	-0.339
-515.872	-139.015	0.191	-0.021
-514.858	-33.202	-0.500	-0.278
-513.843	-200.000	-0.034	-0.210
-512.829	35.432	-0.183	-0.161
-511.814	218.429	-0.136	0.218
-510.799	-200.000	-0.044	0.536
-509.785	128.046	-0.129	0.164
-508.770	-96.562	-0.307	-0.081
-507.756	800.000	-0.010	-0.033
-506.741	-95.048	0.273	0.074
-505.726	-79.927	0.048	-0.016
-504.712	2.202	-0.056	0.041
-503.697	-69.016	-0.240	-0.093
-502.683	288.695	0.153	0.277
-501.668	153.384	0.119	-0.164
-500.653	340.378	0.158	-0.309
-499.639	-200.000	0.031	-0.240
-498.624	-200.000	0.005	-0.103
-497.610	180.883	-0.183	0.270
-496.595	-200.000	0.070	0.335
-495.581	268.271	-0.125	0.218
-494.566	-77.004	-0.169	-0.059
-493.551	-177.370	-0.197	-0.005
-492.537	800.000	-0.024	-0.090
-491.522	-200.000	-0.005	0.042
-490.508	54.149	0.160	-0.155
-489.493	-200.000	0.018	-0.110
-488.478	137.407	-0.078	0.102
-487.464	-82.134	0.370	0.121
-486.449	36.144	-0.122	0.107
-485.435	75.506	0.041	-0.044
-484.420	-122.069	0.120	0.020
-483.405	800.000	0.063	0.217
-482.391	-14.191	0.097	-0.063
-481.376	7.720	-0.215	-0.161
-480.362	360.585	-0.263	0.528
-479.347	800.000	-0.094	-0.318
-478.332	19.841	0.196	-0.158
-477.318	-38.621	0.272	-0.144
-476.303	156.663	-0.174	-0.240
-475.289	-102.500	-0.107	0.026
-474.274	-163.399	0.287	0.014
-473.259	21.465	0.072	-0.058
-472.245	800.000	0.057	0.167
-471.230	-71.018	-0.347	-0.131
-470.216	-152.290	-0.013	0.001
-469.201	-200.000	-0.015	0.207
-468.186	716.385	-0.094	-0.250
-467.172	800.000	0.064	0.279
-466.157	-200.000	-0.047	-0.272
-465.143	-38.815	0.436	-0.230
-464.128	42.235	0.191	-0.174
-463.113	146.280	0.034	0.046
-462.099	-200.000	0.009	0.105
-461.084	-200.000	0.016	0.266
-460.070	-200.000	-0.032	0.321
-459.055	440.500	-0.117	0.255
-458.040	-143.240	-0.096	0.009
-457.026	711.286	-0.038	-0.101
-456.011	-200.000	0.004	0.041
-454.997	549.373	0.109	0.261
-453.982	-200.000	0.019	0.107
-452.968	800.000	0.036	0.140
-451.953	800.000	0.028	-0.093
-450.938	63.915	0.266	-0.267
-449.924	-39.593	-0.353	-0.185
-448.909	250.003	0.136	0.230
-447.895	-200.000	-0.001	0.147
-446.880	205.407	0.070	0.109
-445.865	-200.000	0.040	0.454
-444.851	-200.000	0.046	-0.312
-443.836	-128.784	0.193	-0.027
-442.822	-71.991	-0.181	-0.067
-441.807	10.544	0.229	-0.175
-440.792	-200.000	0.019	-0.297
-439.778	-200.000	-0.028	0.156
-438.763	-200.000	-0.037	-0.492
-437.749	138.568	0.089	0.117
-436.734	244.666	-0.143	-0.240
-435.719	146.515	-0.052	-0.070
-434.705	-44.680	-0.029	0.014
-433.690	29.878	0.162	0.138
-432.676	300.268	0.102	0.188
-431.661	353.416	0.149	0.296
-430.646	-101.375	-0.108	0.026
-429.632	-63.850	0.311	0.127
-428.617	72.922	0.188	-0.196
-427.603	584.596	-0.059	0.145
-426.588	-74.938	-0.189	-0.068
-425.573	800.000	-0.021	0.074
-424.559	-37.251	0.099	-0.053
-423.544	800.000	0.020	-0.064
-422.530	87.899	-0.035	0.039
-421.515	221.514	0.104	-0.167
-420.500	-98.388	-0.272	0.069
-419.486	-59.032	0.310	-0.134
-418.471	79.066	-0.093	-0.100
-417.457	8.227	0.072	0.054
-416.442	-200.000	-0.016	-0.153
-415.428	-200.000	0.044	0.263
-414.413	12.252	-0.191	-0.147
-413.398	-123.136	0.114	-0.018
-412.384	182.947	0.143	0.210
-411.369	14.101	-0.121	0.094
-410.355	240.728	-0.158	-0.263
-409.340	-72.050	-0.071	0.026
-408.325	81.627	-0.309	0.334
-407.311	-200.000	-0.010	-0.228
-406.296	52.419	0.126	0.120
-405.282	-53.313	0.046	-0.021
-404.267	800.000	-0.041	0.139
-403.252	-130.771	0.109	-0.015
-402.238	-102.556	0.161	-0.038
-401.223	28.759	-0.033	0.028
-400.209	-127.459	0.267	0.039
-399.194	-9.217	-0.175	0.117
-398.179	67.376	-0.295	-0.300
-397.165	-31.901	0.336	0.188
-396.150	-108.360	-0.408	0.088
-395.136	670.621	0.126	-0.326
-394.121	-89.460	0.201	-0.059
-393.106	-153.528	-0.448	0.031
-392.092	-28.814	-0.137	0.079
-391.077	276.707	0.145	-0.258
-390.063	-200.000	-0.033	-0.269
-389.048	65.810	-0.348	-0.351
-388.033	-200.000	-0.041	0.190
-387.019	50.427	0.174	0.164
-386.004	800.000	-0.088	-0.353
-384.990	467.785	0.125	-0.279
-383.975	-67.974	0.274	0.107
-382.960	-146.395	0.242	0.021
-381.946	800.000	0.007	0.025
-380.931	1.730	0.105	0.076
-379.917	-57.781	-0.162	0.071
-378.902	-13.968	-0.184	-0.119
-377.888	-21.263	0.173	0.105
-376.873	-79.370	0.068	-0.023
-375.858	-7.265	0.078	0.053
-374.844	-8.940	-0.049	0.033
-373.829	152.322	0.220	-0.300
-372.815	22.348	0.028	0.023
-371.800	-93.646	-0.062	0.017
-370.785	-113.211	0.165	-0.032
-369.771	-200.000	-0.028	-0.143
-368.756	-150.332	0.331	0.025
-367.742	99.357	-0.064	-0.074
-366.727	800.000	-0.049	0.138
-365.712	-50.575	0.244	-0.114
-364.698	30.655	0.212	-0.181
-363.683	-18.070	0.106	-0.066
-362.669	800.000	0.080	-0.273
-361.654	-76.141	-0.024	-0.009
-360.639	-18.710	0.120	-0.074
-359.625	70.940	0.325	-0.335
-358.610	-79.410	-0.117	-0.039
-357.596	-200.000	0.024	0.113
-356.581	133.044	0.233	0.300
-355.566	-200.000	-0.011	-0.157
-354.552	1.501	0.229	-0.164
-353.537	-125.892	-0.280	-0.042
-352.523	126.229	0.259	-0.326
-351.508	-105.588	0.271	-0.061
-350.493	-132.729	-0.250	-0.032
-349.479	-163.454	0.358	0.017
-348.464	-200.000	0.004	-0.062
-347.450	78.350	0.135	0.143
-346.435	440.021	-0.095	0.207
-345.420	-200.000	-0.019	-0.108
-344.406	79.271	-0.144	-0.154
-343.391	183.564	0.131	0.193
-342.377	-50.367	0.104	0.049
-341.362	-103.154	0.139	0.033
-340.348	227.627	-0.125	-0.203
-339.333	-200.000	0.027	0.493
-338.318	24.142	0.197	0.162
-337.304	122.872	0.079	0.098
-336.289	-200.000	0.012	0.313
-335.275	-200.000	-0.015	0.325
-334.260	492.585	0.198	0.453
-333.245	800.000	-0.093	-0.319
-332.231	-200.000	-0.008	-0.078
-331.216	-132.205	-0.227	0.029
-330.202	22.085	-0.167	0.135
-329.187	-106.808	-0.158	0.035
-328.172	-142.888	0.208	-0.020
-327.158	800.000	-0.067	0.212
-326.143	44.256	0.283	0.258
-325.129	604.102	-0.015	-0.037
-324.114	241.302	-0.213	0.354
-323.099	40.120	0.131	0.117
-322.085	-200.000	-0.012	0.131
-321.070	181.123	-0.196	-0.286
-320.056	791.887	0.106	-0.289
-319.041	-200.000	0.010	-0.062
-318.026	800.000	-0.050	-0.180
-317.012	-63.621	-0.053	-0.022
-315.997	0.981	-0.207	0.148
-314.983	-31.657	0.151	0.084
-313.968	-98.500	0.068	0.017
-312.953	-191.625	-0.289	0.003
-311.939	-172.012	-0.095	-0.003
-310.924	-200.000	-0.035	0.453
-309.910	-72.791	-0.157	0.057
-308.895	800.000	0.121	0.384
-307.880	364.037	-0.115	0.231
-306.866	-174.843	-0.401	-0.011
-305.851	131.867	-0.080	-0.103
-304.837	454.430	-0.043	0.094
-303.822	-31.877	-0.031	-0.017
-302.807	-66.886	0.112	0.044
-301.793	492.627	-0.105	0.239
-300.778	653.540	-0.044	-0.112
-299.764	-200.000	-0.006	-0.209
-298.749	-200.000	-0.064	-0.545
-297.735	241.751	0.140	-0.232
-296.720	-200.000	-0.011	-0.190
-295.705	-20.620	-0.245	0.150
-294.691	13.093	0.249	-0.192
-293.676	69.327	-0.252	0.258
-292.662	-45.393	-0.139	-0.069
-291.647	45.551	0.194	-0.178
-290.632	-200.000	0.051	-0.291
-289.618	89.522	-0.205	0.227
-288.603	-21.440	0.149	0.091
-287.589	-200.000	-0.010	0.346
-286.574	461.808	0.133	0.295
-285.559	19.407	0.266	0.212
-284.545	67.093	0.212	0.214
-283.530	-22.175	-0.069	-0.042
-282.516	-200.000	0.040	-0.187
-281.501	214.772	-0.052	0.083
-280.486	-56.074	0.145	0.064
-279.472	66.305	-0.101	0.101
-278.457	800.000	-0.048	-0.186
-277.443	-90.255	0.077	0.022
-276.428	-135.636	0.245	-0.029
-275.413	-88.885	-0.267	-0.079
-274.399	-43.302	0.192	0.097
-273.384	36.340	0.150	-0.131
-272.370	24.085	-0.025	-0.020
-271.355	772.962	0.042	-0.115
-270.340	669.770	-0.058	0.149
-269.326	-116.365	0.042	-0.008
-268.311	56.472	-0.150	-0.145
-267.297	-200.000	-0.070	0.320
-266.282	800.000	-0.118	0.413
-265.267	-181.170	-0.155	-0.003
-264.253	-200.000	-0.047	0.358
-263.238	-200.000	-0.032	0.279
-262.224	55.479	-0.219	-0.211
-261.209	800.000	0.044	0.193
-260.195	-92.074	-0.155	-0.043
-259.180	400.270	0.107	0.223
-258.165	-123.922	0.376	0.059
-257.151	-200.000	-0.011	0.256
-256.136	54.558	0.255	-0.244
-255.122	-147.674	-0.239	0.020
-254.107	584.927	-0.099	-0.241
-253.092	-200.000	-0.032	0.247
-252.078	-22.184	0.134	0.081
-251.063	-50.905	-0.144	-0.067
-250.049	800.000	-0.052	-0.224
-249.034	-8.557	-0.187	-0.125
-248.019	-200.000	0.040	-0.269
-247.005	-91.577	0.214	0.060
-245.990	534.380	0.065	0.154
-244.976	800.000	0.091	-0.283
-243.961	50.728	-0.108	-0.101
-242.946	146.853	0.153	0.204
-241.932	256.527	-0.134	-0.228
-240.917	-47.179	0.027	-0.013
-239.903	-86.403	-0.151	0.046
-238.888	800.000	0.057	-0.210
-237.873	-73.145	0.171	0.062
-236.859	-200.000	-0.012	0.212
-235.844	445.174	-0.017	0.037
-234.830	-42.086	0.092	-0.047
-233.815	693.895	0.079	-0.206
-232.800	-125.443	0.128	0.019
-231.786	13.039	-0.189	0.145
-230.771	77.228	-0.105	0.110
-229.757	-77.861	0.158	-0.054
-228.742	-200.000	-0.010	0.442
-227.727	-36.228	-0.359	0.192
-226.713	-40.324	-0.146	0.075
-225.698	-79.216	0.054	0.018
-224.684	-52.664	-0.325	-0.149
-223.669	-42.230	0.139	0.070
-222.655	-97.656	0.364	0.094
-221.640	-88.074	-0.077	0.023
-220.625	-200.000	-0.009	0.110
-219.611	-66.499	0.205	-0.081
-218.596	-67.869	0.099	0.038
-217.582	-83.116	-0.038	0.012
-216.567	27.743	-0.265	0.221
-215.552	59.898	-0.175	0.171
-214.538	800.000	0.007	0.022
-213.523	352.308	-0.098	-0.192
-212.509	410.847	0.104	-0.219
-211.494	149.265	0.268	0.359
-210.479	-200.000	0.051	0.283
-209.465	-200.000	0.073	0.324
-208.450	195.704	0.197	-0.297
-207.436	318.247	-0.305	-0.572
-206.421	246.041	-0.081	-0.135
-205.406	23.261	0.357	0.290
-204.392	230.050	0.164	-0.266
-203.377	83.848	-0.061	0.066
-202.363	-200.000	0.034	0.290
-201.348	800.000	0.054	0.154
-200.333	-105.226	0.186	-0.042
-199.319	173.802	0.093	0.133
-198.304	-70.320	0.394	0.148
-197.290	800.000	-0.035	0.130
-196.275	-54.906	0.096	-0.043
-195.260	225.388	0.208	-0.334
-194.246	-84.197	0.272	0.085
-193.231	241.532	0.103	-0.170
-192.217	38.727	0.119	-0.105
-191.202	800.000	-0.040	-0.126
-190.187	-7.725	0.055	-0.037
-189.173	-200.000	0.046	0.285
-188.158	-200.000	-0.002	0.077
-187.144	202.298	-0.132	0.202
-186.129	-139.961	-0.224	-0.023
-185.114	-33.994	0.106	-0.058
-184.100	-131.214	0.081	-0.011
-183.085	47.090	-0.085	-0.078
-182.071	71.318	-0.170	-0.174
-181.056	-114.872	0.223	-0.042
-180.042	18.666	-0.092	-0.073
-179.027	-70.072	-0.148	0.056
-178.012	-156.133	0.032	0.002
-176.998	-200.000	0.026	0.280
-175.983	344.121	-0.128	-0.249
-174.969	-200.000	-0.050	-0.257
-173.954	234.078	-0.132	0.215
-172.939	800.000	0.047	0.127
-171.925	-200.000	-0.089	-0.553
-170.910	-92.819	-0.278	-0.077
-169.896	228.249	-0.036	-0.057
-168.881	93.380	-0.113	0.126
-167.866	147.801	-0.074	-0.099
-166.852	-111.454	-0.463	0.093
-165.837	570.329	-0.024	-0.059
-164.823	-200.000	-0.028	-0.391
-163.808	800.000	0.121	-0.388
-162.793	-200.000	-0.043	-0.381
-161.779	-200.000	-0.009	-0.121
-160.764	-200.000	-0.001	0.080
-159.750	-53.615	0.129	0.058
-158.735	-127.332	-0.296	0.043
-157.720	242.929	-0.152	0.252
-156.706	-151.338	-0.281	-0.021
-155.691	371.884	-0.055	0.111
-154.677	800.000	-0.038	-0.121
-153.662	-14.593	-0.156	0.099
-152.647	-200.000	0.071	0.348
-151.633	-89.582	-0.236	-0.068
-150.618	800.000	-0.061	-0.182
-149.604	-39.565	-0.253	0.131
-148.589	146.650	0.122	0.162
-147.574	128.496	-0.102	0.129
-146.560	-14.122	-0.280	0.178
-145.545	44.364	-0.102	0.093
-144.531	16.028	0.222	0.173
-143.516	406.294	-0.041	0.085
-142.502	46.816	-0.117	0.107
-141.487	-107.092	0.152	-0.033
-140.472	484.013	0.096	0.215
-139.458	144.840	-0.120	0.158
-138.443	-27.355	0.390	-0.224
-137.429	-200.000	0.026	-0.170
-136.414	-93.290	-0.081	-0.022
-135.399	-200.000	0.053	0.422
-134.385	-112.019	0.526	-0.105
-133.370	-137.528	-0.127	-0.014
-132.356	679.033	-0.118	-0.302
-131.341	37.141	-0.226	0.198
-130.326	-79.174	-0.209	-0.070
-129.312	-115.951	-0.079	-0.014
-128.297	509.167	0.068	0.156
-127.283	-200.000	0.094	0.423
-126.268	77.174	0.237	0.249
-125.253	800.000	-0.072	-0.211
-124.239	321.667	-0.093	0.175
-123.224	-153.602	0.269	0.018
-122.210	96.790	0.141	-0.159
