DTS Sentinel unit serial number:	SN413079Multiplexer serial number:	ORYXHardware model number:	OX4-SRSoftware version number:	ORYX F/W v4.00 Oryx Data Collector v3.7.2.0data status	okinstallation	princeton_trtdifferential loss correction	single-endedforward channel	channel 4reverse channel	N/Adate	2019/09/13time	11:09:35forward acquisition time	60.00reverse acquisition time	0.00gamma	496.2192k internal	0.2303k external	0.2303temperature offset calibration	1.0195default loss term (dB/km)	0.3790temperature slope calibration	1.0000multiplexer offset coefficient	1.0000multiplexer slope coefficient	1.0000fibre end	0.00T internal ref (°C)	32.06T ext. ref 1 (°C)	4.68T ext. ref 2 (°C)	29.59length (m)	temperature (°C)	Stokes	anti-Stokes-747.200	159.753	0.055	-0.078
-746.185	-23.093	0.090	0.055
-745.171	353.012	0.135	-0.272
-744.156	800.000	-0.049	0.147
-743.142	-200.000	0.001	-0.200
-742.127	308.213	0.150	0.285
-741.112	206.067	-0.067	-0.107
-740.098	34.491	-0.351	-0.312
-739.083	37.473	0.115	-0.104
-738.069	-200.000	-0.032	0.364
-737.054	295.508	0.142	0.264
-736.039	-32.346	-0.314	-0.179
-735.025	203.584	0.106	0.167
-734.010	-8.146	0.025	0.017
-732.996	-130.921	-0.521	-0.071
-731.981	-79.678	0.121	-0.042
-730.966	66.057	-0.082	0.085
-729.952	-61.250	-0.060	0.026
-728.937	-200.000	-0.019	-0.099
-727.923	342.425	-0.180	-0.358
-726.908	-200.000	0.035	-0.159
-725.894	-200.000	-0.059	-0.356
-724.879	-161.178	-0.141	0.007
-723.864	-62.681	-0.164	-0.069
-722.850	42.673	-0.181	0.168
-721.835	64.803	0.177	-0.182
-720.821	-89.126	-0.151	-0.045
-719.806	-175.772	-0.204	0.006
-718.791	112.305	-0.082	0.101
-717.777	-200.000	-0.096	-0.000
-716.762	-164.111	0.108	0.005
-715.748	-200.000	-0.019	-0.197
-714.733	-55.119	0.093	0.043
-713.718	-112.351	0.145	0.030
-712.704	-200.000	0.083	-0.503
-711.689	-200.000	-0.043	0.237
-710.675	800.000	-0.077	-0.307
-709.660	-127.088	0.262	-0.039
-708.645	800.000	0.038	0.163
-707.631	150.697	-0.042	0.058
-706.616	-200.000	-0.023	-0.151
-705.602	-200.000	-0.017	-0.256
-704.587	-23.466	-0.139	-0.085
-703.572	800.000	-0.074	-0.216
-702.558	-53.795	-0.339	-0.158
-701.543	-200.000	-0.059	-0.271
-700.529	-93.849	0.079	-0.022
-699.514	-14.456	-0.072	-0.047
-698.499	800.000	0.124	-0.367
-697.485	-200.000	-0.006	-0.261
-696.470	22.439	0.209	-0.174
-695.456	-200.000	-0.047	-0.279
-694.441	-48.554	-0.134	-0.066
-693.426	-122.385	0.172	-0.029
-692.412	-200.000	-0.044	-0.209
-691.397	-188.946	0.282	-0.003
-690.383	-104.457	-0.241	-0.057
-689.368	-200.000	0.028	-0.289
-688.354	-38.958	-0.229	0.122
-687.339	-200.000	-0.020	0.239
-686.324	-100.923	-0.179	0.045
-685.310	-200.000	-0.013	-0.120
-684.295	65.686	-0.187	0.193
-683.281	-200.000	-0.003	0.128
-682.266	108.818	-0.125	-0.151
-681.251	800.000	-0.104	0.432
-680.237	-200.000	-0.026	-0.249
-679.222	3.071	-0.205	-0.151
-678.208	162.236	-0.142	0.203
-677.193	138.100	-0.143	-0.190
-676.178	43.292	-0.119	0.110
-675.164	-162.800	0.169	-0.008
-674.149	-41.860	-0.153	-0.080
-673.135	-200.000	0.015	-0.082
-672.120	-45.371	-0.070	0.035
-671.105	149.727	0.040	-0.055
-670.091	-136.241	-0.434	-0.052
-669.076	229.116	0.290	-0.480
-668.062	696.408	-0.047	-0.126
-667.047	-78.040	0.178	-0.062
-666.032	50.700	0.047	-0.045
-665.018	395.993	0.091	-0.193
-664.003	-25.731	-0.382	0.229
-662.989	-200.000	0.033	-0.150
-661.974	800.000	0.058	0.171
-660.959	-140.343	-0.208	0.022
-659.945	276.789	0.014	-0.025
-658.930	476.853	0.012	0.027
-657.916	-59.344	0.236	0.103
-656.901	800.000	0.119	-0.334
-655.886	291.330	-0.149	-0.274
-654.872	-6.541	-0.272	-0.188
-653.857	-200.000	-0.030	-0.169
-652.843	-116.176	0.149	-0.028
-651.828	-200.000	0.030	0.235
-650.814	-97.639	0.191	-0.050
-649.799	-68.943	-0.039	0.015
-648.784	-192.306	-0.284	-0.003
-647.770	-11.970	0.306	0.203
-646.755	-149.207	-0.429	0.035
-645.741	153.846	0.144	-0.200
-644.726	-105.658	-0.142	0.033
-643.711	286.432	-0.174	0.319
-642.697	-68.830	-0.242	-0.095
-641.682	-53.019	0.161	-0.075
-640.668	262.746	-0.082	-0.145
-639.653	800.000	-0.046	-0.139
-638.638	9.619	0.167	0.129
-637.624	-125.543	0.081	-0.013
-636.609	-28.585	-0.074	0.043
-635.595	17.007	0.308	0.247
-634.580	187.734	-0.051	-0.077
-633.565	-200.000	-0.024	-0.302
-632.551	-78.731	0.111	0.038
-631.536	222.433	0.140	0.228
-630.522	81.817	0.143	0.157
-629.507	-88.425	-0.111	0.034
-628.492	-1.191	0.321	0.230
-627.478	277.650	0.107	0.192
-626.463	89.526	0.175	-0.198
-625.449	-110.373	-0.226	-0.048
-624.434	37.291	0.221	-0.199
-623.419	800.000	0.053	0.163
-622.405	800.000	0.059	0.218
-621.390	-112.617	-0.216	-0.044
-620.376	-106.231	-0.225	-0.051
-619.361	-200.000	-0.001	-0.096
-618.346	800.000	0.039	0.123
-617.332	-106.773	0.292	-0.066
-616.317	-47.386	0.174	-0.086
-615.303	402.901	-0.086	-0.183
-614.288	-58.359	-0.274	-0.121
-613.273	-24.275	-0.175	0.106
-612.259	37.036	0.067	-0.060
-611.244	-145.829	-0.213	-0.019
-610.230	-148.553	-0.278	-0.023
-609.215	-5.734	-0.225	-0.156
-608.201	-40.059	0.085	0.045
-607.186	800.000	0.080	-0.289
-606.171	2.025	-0.268	-0.196
-605.157	75.096	0.137	0.146
-604.142	-200.000	-0.004	-0.061
-603.128	280.051	-0.043	-0.079
-602.113	800.000	-0.046	-0.162
-601.098	-76.637	0.378	-0.134
-600.084	749.923	0.092	-0.251
-599.069	-73.721	0.194	-0.072
-598.055	-114.270	0.406	-0.079
-597.040	181.974	-0.170	-0.253
-596.025	249.692	0.195	-0.334
-595.011	351.559	0.132	0.265
-593.996	-23.995	0.160	-0.097
-592.982	48.104	0.079	-0.075
-591.967	421.423	-0.050	-0.108
-590.952	-200.000	0.006	-0.140
-589.938	-200.000	-0.009	0.256
-588.923	-21.918	0.311	0.191
-587.909	-200.000	-0.018	-0.238
-586.894	248.656	0.039	0.066
-585.879	-167.038	-0.135	0.006
-584.865	426.118	-0.031	0.068
-583.850	247.929	0.104	-0.178
-582.836	57.738	-0.141	-0.140
-581.821	189.672	0.215	0.326
-580.806	-160.333	-0.189	-0.010
-579.792	101.430	-0.192	-0.226
-578.777	-102.079	-0.166	0.040
-577.763	-50.639	-0.170	-0.081
-576.748	353.123	-0.079	0.159
-575.733	-80.488	-0.062	-0.021
-574.719	-11.311	-0.090	-0.060
-573.704	-200.000	-0.009	-0.062
-572.690	-140.389	-0.144	0.015
-571.675	-171.929	0.159	-0.005
-570.661	338.457	-0.178	-0.351
-569.646	-30.582	-0.112	0.064
-568.631	338.084	0.137	-0.269
-567.617	331.127	0.040	-0.078
-566.602	-134.713	-0.157	0.019
-565.588	-40.775	-0.249	0.130
-564.573	83.145	-0.090	0.099
-563.558	-104.386	0.179	-0.042
-562.544	152.294	-0.065	-0.090
-561.529	800.000	-0.032	0.126
-560.515	137.418	-0.126	-0.167
-559.500	-73.307	-0.163	0.060
-558.485	-90.776	-0.224	0.065
-557.471	-81.405	-0.265	0.088
-556.456	61.458	-0.166	0.167
-555.442	-200.000	0.011	0.092
-554.427	105.926	0.132	0.157
-553.412	477.464	0.088	0.201
-552.398	-102.974	-0.058	-0.014
-551.383	-200.000	0.013	-0.210
-550.369	-200.000	0.014	0.125
-549.354	276.124	-0.131	-0.235
-548.339	-103.757	0.156	0.037
-547.325	285.666	0.080	0.147
-546.310	-87.236	-0.217	0.067
-545.296	54.509	0.094	0.091
-544.281	-154.016	-0.348	-0.024
-543.266	800.000	-0.032	-0.130
-542.252	-59.675	-0.175	0.076
-541.237	222.835	0.020	-0.033
-540.223	454.950	-0.067	0.151
-539.208	143.674	-0.156	-0.210
-538.193	329.296	0.118	0.229
-537.179	-200.000	0.009	0.261
-536.164	-200.000	0.018	0.090
-535.150	-111.797	0.290	-0.059
-534.135	-50.736	-0.039	-0.019
-533.121	-94.069	-0.145	0.040
-532.106	47.492	-0.228	-0.215
-531.091	800.000	-0.060	0.200
-530.077	-200.000	0.005	0.345
-529.062	652.818	-0.077	0.199
-528.048	-200.000	-0.000	-0.196
-527.033	199.660	-0.196	-0.304
-526.018	297.783	-0.238	0.442
-525.004	760.351	-0.088	0.242
-523.989	-71.228	0.423	0.160
-522.975	-200.000	0.025	0.166
-521.960	-45.453	-0.236	0.118
-520.945	394.899	-0.102	0.215
-519.931	21.064	-0.127	-0.104
-518.916	150.563	-0.185	-0.254
-517.902	-41.265	-0.188	-0.098
-516.887	-200.000	-0.035	-0.322
-515.872	-200.000	-0.001	0.196
-514.858	-82.940	-0.083	-0.027
-513.843	162.701	-0.104	-0.148
-512.829	59.106	0.282	-0.280
-511.814	-200.000	-0.035	0.193
-510.799	92.888	-0.164	-0.187
-509.785	393.831	-0.115	0.242
-508.770	311.531	0.169	-0.320
-507.756	38.154	0.174	-0.156
-506.741	-200.000	-0.003	0.063
-505.726	-95.083	0.301	-0.082
-504.712	-200.000	-0.022	-0.124
-503.697	384.280	0.094	-0.195
-502.683	221.728	-0.198	0.321
-501.668	255.868	0.087	-0.151
-500.653	-58.000	0.166	0.073
-499.639	224.968	-0.169	-0.276
-498.624	-200.000	0.061	0.277
-497.610	63.350	0.199	-0.202
-496.595	-200.000	0.023	-0.116
-495.581	-75.865	-0.090	-0.032
-494.566	199.974	-0.126	-0.196
-493.551	-65.915	-0.101	0.041
-492.537	437.456	0.072	-0.158
-491.522	800.000	0.128	0.470
-490.508	97.363	-0.256	0.296
-489.493	-52.045	-0.229	0.107
-488.478	80.009	-0.172	-0.186
-487.464	-200.000	-0.049	0.272
-486.449	287.822	0.017	0.031
-485.435	-200.000	0.003	0.159
-484.420	82.215	0.150	0.164
-483.405	-54.815	0.065	0.029
-482.391	562.475	0.142	-0.348
-481.376	111.427	0.309	-0.376
-480.362	-50.405	0.084	-0.040
-479.347	388.755	0.173	-0.361
-478.332	-200.000	-0.023	0.137
-477.318	800.000	-0.047	0.160
-476.303	374.935	0.111	-0.228
-475.289	366.904	-0.023	-0.047
-474.274	202.833	0.081	0.126
-473.259	173.155	-0.050	0.072
-472.245	86.174	0.113	-0.125
-471.230	86.190	-0.394	-0.438
-470.216	38.329	-0.304	-0.273
-469.201	-25.068	-0.110	-0.065
-468.186	-47.378	-0.350	0.171
-467.172	8.083	-0.077	-0.058
-466.157	800.000	-0.046	0.201
-465.143	-6.352	-0.232	0.159
-464.128	-200.000	0.007	-0.100
-463.113	-200.000	0.007	-0.109
-462.099	-163.013	-0.321	0.016
-461.084	-0.304	-0.446	-0.319
-460.070	37.708	-0.213	-0.191
-459.055	256.165	0.148	-0.256
-458.040	-111.927	-0.253	-0.051
-457.026	-51.495	0.299	0.141
-456.011	-11.527	0.166	-0.110
-454.997	17.073	0.099	0.079
-453.982	33.672	0.224	-0.196
-452.968	39.321	-0.152	-0.137
-451.953	-101.000	0.110	0.027
-450.938	-120.148	-0.077	-0.013
-449.924	-140.950	0.074	0.008
-448.909	167.505	-0.064	-0.092
-447.895	586.448	0.023	-0.057
-446.880	2.627	0.298	0.218
-445.865	16.596	0.142	0.113
-444.851	70.338	0.131	0.136
-443.836	-161.858	0.068	0.003
-442.822	-124.813	-0.072	-0.011
-441.807	800.000	-0.059	0.225
-440.792	-104.920	0.411	-0.095
-439.778	-200.000	0.051	0.321
-438.763	-200.000	-0.029	0.383
-437.749	70.561	0.118	0.123
-436.734	-65.881	-0.107	0.043
-435.719	247.090	-0.133	0.225
-434.705	-200.000	0.006	-0.048
-433.690	-16.176	0.066	0.042
-432.676	3.054	0.193	0.141
-431.661	-148.325	0.289	-0.024
-430.646	-187.161	0.166	0.002
-429.632	175.715	0.086	-0.126
-428.617	-29.212	-0.137	0.079
-427.603	-61.557	0.294	0.124
-426.588	-123.553	0.399	-0.064
-425.573	16.537	-0.088	-0.070
-424.559	-105.815	-0.118	0.027
-423.544	800.000	0.074	0.214
-422.530	351.758	-0.108	-0.215
-421.515	-135.260	-0.119	0.014
-420.500	571.054	-0.062	0.151
-419.486	-52.671	0.143	-0.066
-418.471	138.268	0.290	-0.382
-417.457	800.000	0.087	-0.293
-416.442	92.020	-0.076	-0.086
-415.428	-72.052	0.103	-0.039
-414.413	11.889	0.157	0.121
-413.398	387.877	0.027	-0.056
-412.384	47.056	-0.238	-0.222
-411.369	-37.142	0.389	-0.209
-410.355	105.331	-0.082	0.097
-409.340	-95.962	-0.072	0.019
-408.325	800.000	-0.081	-0.284
-407.311	800.000	-0.029	-0.100
-406.296	-29.131	-0.153	0.088
-405.282	-200.000	-0.054	0.311
-404.267	-130.935	-0.050	-0.007
-403.252	14.040	-0.092	0.072
-402.238	299.276	-0.063	0.117
-401.223	-200.000	-0.024	-0.250
-400.209	-113.378	0.138	0.027
-399.194	-71.586	0.189	-0.071
-398.179	-200.000	-0.004	0.048
-397.165	-200.000	-0.031	-0.394
-396.150	-200.000	0.002	0.150
-395.136	800.000	-0.047	0.171
-394.121	131.897	-0.084	0.109
-393.106	391.884	-0.175	-0.365
-392.092	-200.000	-0.004	0.041
-391.077	435.369	-0.075	0.164
-390.063	-106.028	-0.196	-0.044
-389.048	-37.216	-0.214	-0.115
-388.033	-107.800	0.162	-0.035
-387.019	93.712	-0.160	-0.183
-386.004	-13.789	0.065	0.042
-384.990	466.789	-0.065	0.147
-383.975	-200.000	-0.000	0.373
-382.960	163.210	-0.085	0.120
-381.946	-46.822	-0.271	-0.133
-380.931	32.496	0.145	-0.126
-379.917	26.891	0.035	0.030
-378.902	-95.639	0.238	-0.064
-377.888	43.114	0.178	-0.163
-376.873	-168.433	-0.064	0.002
-375.858	800.000	-0.093	0.395
-374.844	-29.464	0.056	0.032
-373.829	-26.345	-0.248	0.146
-372.815	12.286	-0.101	-0.078
-371.800	344.533	-0.146	-0.288
-370.785	-176.043	0.310	0.008
-369.771	-1.575	-0.226	0.160
-368.756	142.749	0.118	-0.157
-367.742	800.000	-0.115	-0.360
-366.727	-83.345	-0.079	0.026
-365.712	143.807	-0.282	-0.377
-364.698	-36.236	0.096	-0.052
-363.683	-200.000	0.044	0.224
-362.669	194.157	-0.108	0.165
-361.654	-112.942	-0.130	0.026
-360.639	-40.289	-0.242	-0.126
-359.625	281.896	0.033	-0.060
-358.610	-179.821	-0.135	0.003
-357.596	123.360	-0.080	-0.101
-356.581	-89.641	0.142	0.042
-355.566	188.308	-0.099	-0.148
-354.552	800.000	0.010	0.039
-353.537	1.478	-0.123	-0.089
-352.523	173.897	-0.181	-0.262
-351.508	43.688	-0.063	0.058
-350.493	800.000	0.057	0.204
-349.479	-200.000	0.025	-0.328
-348.464	327.699	0.218	0.420
-347.450	-78.672	-0.245	0.084
-346.435	-200.000	-0.010	-0.163
-345.420	-200.000	0.028	-0.223
-344.406	361.099	0.119	0.239
-343.391	-200.000	0.001	0.177
-342.377	44.309	0.073	0.068
-341.362	2.837	0.167	-0.121
-340.348	-58.156	-0.210	0.092
-339.333	-45.420	-0.282	-0.140
-338.318	800.000	0.036	0.134
-337.304	-103.620	0.396	-0.093
-336.289	-40.884	-0.166	-0.086
-335.275	-62.730	0.096	-0.040
-334.260	67.307	0.142	0.145
-333.245	-200.000	0.038	0.271
-332.231	53.526	-0.033	-0.032
-331.216	-101.714	0.140	-0.034
-330.202	778.430	-0.042	0.116
-329.187	-145.350	0.124	-0.011
-328.172	66.262	0.138	0.141
-327.158	-42.294	-0.219	0.112
-326.143	-79.831	-0.075	0.025
-325.129	1.749	-0.225	0.163
-324.114	800.000	0.029	0.107
-323.099	409.968	0.147	0.313
-322.085	800.000	-0.062	-0.263
-321.070	257.961	0.131	0.226
-320.056	-71.425	0.059	-0.022
-319.041	34.146	0.100	-0.087
-318.026	-200.000	0.036	0.395
-317.012	800.000	0.040	0.146
-315.997	270.607	0.051	-0.090
-314.983	-120.258	0.091	-0.016
-313.968	-18.433	0.306	0.191
-312.953	81.577	0.152	0.165
-311.939	-127.187	0.185	-0.027
-310.924	-149.159	0.324	0.026
-309.910	78.514	-0.075	-0.080
-308.895	33.878	0.267	0.233
-307.880	320.716	0.097	-0.184
-306.866	287.963	-0.081	0.147
-305.851	373.764	-0.132	-0.269
-304.837	-200.000	0.081	0.373
-303.822	-200.000	-0.059	0.297
-302.807	800.000	0.062	0.251
-301.793	-200.000	0.013	-0.171
-300.778	21.576	0.198	-0.162
-299.764	-200.000	0.028	0.300
-298.749	-120.612	-0.158	-0.027
-297.735	-125.026	-0.225	0.035
-296.720	-159.136	0.405	0.023
-295.705	21.574	-0.070	0.057
-294.691	-200.000	0.007	-0.052
-293.676	-200.000	0.035	-0.193
-292.662	800.000	0.013	-0.049
-291.647	124.040	-0.137	-0.172
-290.632	69.211	0.080	-0.082
-289.618	465.726	-0.096	-0.215
-288.603	800.000	-0.028	0.094
-287.589	-200.000	0.012	0.068
-286.574	800.000	-0.056	0.236
-285.559	-31.431	-0.085	0.048
-284.545	-60.103	0.283	-0.121
-283.530	800.000	-0.154	0.500
-282.516	-134.452	-0.039	-0.005
-281.501	-135.535	-0.152	-0.018
-280.486	-37.799	0.207	0.110
-279.472	-90.763	0.190	0.055
-278.457	-104.633	0.154	-0.036
-277.443	-200.000	0.055	0.293
-276.428	709.927	0.012	-0.032
-275.413	-105.509	0.246	-0.056
-274.399	-26.816	0.280	0.163
-273.384	16.665	-0.129	0.102
-272.370	35.420	0.201	0.177
-271.355	133.363	-0.334	0.431
-270.340	560.551	-0.080	-0.193
-269.326	38.448	-0.110	-0.098
-268.311	-54.816	-0.200	0.090
-267.297	-20.762	-0.147	0.090
-266.282	51.478	0.261	-0.248
-265.267	83.704	0.135	0.148
-264.253	-200.000	-0.001	-0.045
-263.238	800.000	-0.092	0.318
-262.224	21.280	0.048	0.039
-261.209	105.514	-0.157	-0.185
-260.195	123.213	-0.121	-0.152
-259.180	-105.013	0.431	-0.099
-258.165	-10.129	0.087	-0.057
-257.151	364.674	0.086	0.173
-256.136	106.217	-0.104	-0.124
-255.122	556.163	-0.074	0.178
-254.107	44.675	0.260	0.239
-253.092	800.000	0.033	-0.108
-252.078	-81.150	-0.135	-0.045
-251.063	54.331	-0.041	0.039
-250.049	621.661	0.051	-0.127
-249.034	800.000	-0.101	-0.319
-248.019	-17.141	0.064	0.041
-247.005	-10.408	-0.192	0.127
-245.990	-200.000	-0.026	-0.140
-244.976	-88.380	0.196	-0.059
-243.961	249.175	-0.047	0.079
-242.946	-92.385	0.363	-0.102
-241.932	278.451	-0.060	-0.106
-240.917	287.291	0.072	-0.130
-239.903	-200.000	0.064	-0.293
-238.888	-0.161	0.105	-0.074
-237.873	70.730	0.153	-0.158
-236.859	16.718	0.123	-0.097
-235.844	1.272	-0.358	-0.257
-234.830	-111.896	0.054	0.011
-233.815	-30.374	0.242	0.137
-232.800	624.667	0.040	0.100
-231.786	-200.000	0.007	-0.059
-230.771	-200.000	0.010	0.125
-229.757	328.199	-0.133	-0.255
-228.742	58.979	-0.052	0.052
-227.727	42.232	0.170	0.154
-226.713	-7.401	-0.282	-0.191
-225.698	-9.730	-0.195	0.130
-224.684	14.844	-0.138	0.107
-223.669	-200.000	-0.017	-0.227
-222.655	-200.000	-0.009	0.320
-221.640	5.114	-0.332	0.244
-220.625	664.104	0.093	-0.240
-219.611	566.664	0.074	-0.179
-218.596	-200.000	-0.011	-0.264
-217.582	708.660	-0.051	0.134
-216.567	279.961	0.017	-0.030
-215.552	14.813	0.141	-0.110
-214.538	312.263	0.124	-0.233
-213.523	5.152	0.085	-0.062
-212.509	-121.924	-0.149	0.025
-211.494	454.965	0.162	-0.358
-210.479	-14.057	0.035	0.023
-209.465	-75.929	0.239	0.084
-208.450	800.000	0.077	0.249
-207.436	-159.176	0.289	0.016
-206.421	-1.584	-0.152	0.107
-205.406	-200.000	-0.030	0.170
-204.392	800.000	-0.081	-0.334
-203.377	11.364	0.045	-0.034
-202.363	-200.000	0.032	0.302
-201.348	53.007	-0.174	0.166
-200.333	10.968	0.244	0.186
-199.319	-200.000	-0.042	-0.388
-198.304	-134.312	0.296	-0.036
-197.290	-26.084	-0.256	-0.150
-196.275	-200.000	-0.020	-0.161
-195.260	13.279	-0.151	-0.117
-194.246	800.000	0.054	0.151
-193.231	279.424	-0.080	-0.142
-192.217	73.853	-0.097	0.101
-191.202	-96.551	-0.095	0.025
-190.187	553.134	-0.022	-0.053
-189.173	-200.000	0.004	-0.212
-188.158	-200.000	-0.020	-0.159
-187.144	-200.000	0.005	-0.106
-186.129	142.505	-0.097	0.128
-185.114	-200.000	0.033	0.259
-184.100	-48.238	-0.198	-0.095
-183.085	570.127	-0.099	0.239
-182.071	104.072	-0.267	0.313
-181.056	11.109	0.231	0.176
-180.042	800.000	0.043	0.144
-179.027	-46.139	-0.239	0.117
-178.012	-200.000	0.016	0.254
-176.998	-200.000	-0.007	0.249
-175.983	177.965	0.158	-0.230
-174.969	-200.000	-0.021	-0.139
-173.954	285.692	-0.040	-0.071
-172.939	800.000	-0.090	0.265
-171.925	-66.371	0.105	0.041
-170.910	319.057	-0.137	-0.259
-169.896	-11.223	0.066	-0.043
-168.881	-91.036	0.450	-0.129
-167.866	800.000	-0.048	0.187
-166.852	-50.723	0.261	0.122
-165.837	-163.568	0.206	0.010
-164.823	800.000	-0.072	-0.206
-163.808	-103.612	0.362	-0.085
-162.793	462.884	0.114	0.253
-161.779	-25.250	-0.093	0.055
-160.764	262.440	-0.215	0.371
-159.750	362.766	0.094	-0.188
-158.735	-200.000	0.031	-0.137
-157.720	-55.517	0.182	-0.081
-156.706	-200.000	0.011	0.218
-155.691	800.000	-0.075	0.236
-154.677	-185.263	-0.189	-0.003
-153.662	-82.151	0.083	-0.027
-152.647	528.996	0.141	-0.331
-151.633	-28.275	-0.075	0.043
-150.618	800.000	0.198	0.584
-149.604	194.330	-0.249	-0.375
-148.589	-81.739	-0.218	0.071
-147.574	-200.000	-0.032	-0.199
-146.560	-200.000	-0.036	0.194
-145.545	568.013	0.165	-0.400
-144.531	-131.650	-0.185	-0.024
-143.516	328.924	-0.187	-0.357
-142.502	-200.000	-0.003	0.116
-141.487	-35.008	0.440	-0.239
-140.472	131.385	0.140	0.179
-139.458	-200.000	0.019	0.247
-138.443	42.361	-0.082	0.074
-137.429	-114.701	0.179	0.034
-136.414	203.315	-0.110	-0.169
-135.399	-86.190	-0.080	0.025
-134.385	177.999	-0.082	-0.119
-133.370	-200.000	-0.008	0.308
-132.356	-76.324	0.220	0.077
-131.341	-21.014	0.247	0.151
-130.326	64.318	0.155	0.155
-129.312	-200.000	0.027	-0.469
-128.297	603.842	0.007	0.018
-127.283	0.165	0.134	-0.095
-126.268	-93.353	0.106	-0.029
-125.253	-159.934	-0.440	0.024
-124.239	-7.981	-0.204	0.137
-123.224	-200.000	-0.004	-0.382
-122.210	55.506	-0.109	-0.105
