DTS Sentinel unit serial number:	SN413079Multiplexer serial number:	ORYXHardware model number:	OX4-SRSoftware version number:	ORYX F/W v4.00 Oryx Data Collector v3.7.2.0data status	okinstallation	princeton_trtdifferential loss correction	single-endedforward channel	channel 4reverse channel	N/Adate	2019/09/18time	06:49:34forward acquisition time	60.00reverse acquisition time	0.00gamma	496.2192k internal	0.2333k external	0.2333temperature offset calibration	0.9998default loss term (dB/km)	0.3790temperature slope calibration	1.0000multiplexer offset coefficient	1.0000multiplexer slope coefficient	1.0000fibre end	0.00T internal ref (°C)	23.25T ext. ref 1 (°C)	0.19T ext. ref 2 (°C)	17.00length (m)	temperature (°C)	Stokes	anti-Stokes-747.200	279.248	0.062	0.112
-746.185	191.798	-0.154	0.233
-745.171	-34.574	-0.173	0.095
-744.156	477.095	0.047	0.106
-743.142	-200.000	0.023	0.148
-742.127	-142.396	-0.349	-0.035
-741.112	-200.000	0.016	0.150
-740.098	-74.074	-0.507	-0.185
-739.083	261.997	0.020	-0.035
-738.069	-40.122	0.141	0.074
-737.054	30.616	-0.181	0.156
-736.039	66.505	-0.056	-0.058
-735.025	656.726	0.023	0.060
-734.010	61.304	0.043	-0.043
-732.996	-45.613	0.368	0.183
-731.981	800.000	-0.050	-0.142
-730.966	284.476	0.053	-0.096
-729.952	401.730	-0.068	-0.143
-728.937	38.395	0.125	-0.112
-727.923	-29.803	-0.036	0.020
-726.908	800.000	-0.064	-0.240
-725.894	-200.000	-0.018	0.121
-724.879	800.000	-0.011	-0.048
-723.864	-6.569	0.051	-0.035
-722.850	-69.561	-0.108	0.041
-721.835	-80.398	-0.254	0.085
-720.821	800.000	-0.122	-0.366
-719.806	10.862	-0.050	-0.038
-718.791	200.252	0.042	0.065
-717.777	-42.220	0.236	-0.121
-716.762	402.914	0.094	-0.199
-715.748	190.417	0.154	-0.232
-714.733	172.455	-0.098	0.141
-713.718	-108.718	-0.576	-0.124
-712.704	14.427	-0.268	-0.210
-711.689	350.737	-0.126	-0.251
-710.675	195.652	0.056	0.086
-709.660	293.806	-0.128	-0.235
-708.645	800.000	-0.070	0.205
-707.631	-35.358	0.431	-0.235
-706.616	182.160	-0.091	0.135
-705.602	-200.000	0.031	0.237
-704.587	-200.000	-0.000	-0.030
-703.572	-58.976	-0.142	-0.061
-702.558	-41.163	0.162	0.084
-701.543	-141.089	0.094	0.010
-700.529	486.102	0.044	-0.100
-699.514	236.966	-0.124	-0.206
-698.499	-155.835	-0.215	-0.014
-697.485	-200.000	0.020	0.129
-696.470	170.235	-0.079	-0.113
-695.456	549.806	-0.094	-0.226
-694.441	-186.642	-0.325	0.005
-693.426	286.295	-0.033	0.059
-692.412	40.204	-0.226	-0.204
-691.397	9.369	0.436	0.331
-690.383	800.000	-0.037	-0.104
-689.368	-200.000	-0.069	0.352
-688.354	-38.474	0.176	-0.094
-687.339	188.819	-0.033	0.049
-686.324	800.000	-0.035	-0.124
-685.310	-107.346	-0.226	0.050
-684.295	-65.477	-0.159	-0.064
-683.281	437.428	-0.043	-0.093
-682.266	-32.077	-0.198	0.111
-681.251	-28.145	-0.277	-0.161
-680.237	-200.000	0.002	0.278
-679.222	69.128	-0.110	0.114
-678.208	118.213	0.137	0.170
-677.193	43.261	-0.075	0.069
-676.178	800.000	0.057	-0.196
-675.164	-134.855	-0.182	-0.022
-674.149	-200.000	-0.030	-0.144
-673.135	-160.258	0.049	-0.003
-672.120	-200.000	-0.051	-0.335
-671.105	-49.941	0.166	-0.079
-670.091	-200.000	-0.219	0.001
-669.076	-147.196	0.428	-0.037
-668.062	147.414	0.170	-0.230
-667.047	-68.559	0.283	-0.110
-666.032	-178.997	-0.229	-0.005
-665.018	-59.349	0.380	-0.164
-664.003	-200.000	0.048	-0.249
-662.989	779.039	0.112	0.308
-661.974	-200.000	0.058	0.435
-660.959	800.000	-0.031	0.126
-659.945	-17.040	0.215	0.136
-658.930	244.755	-0.197	0.332
-657.916	-25.956	0.279	0.165
-656.901	-100.481	-0.323	0.080
-655.886	416.787	0.093	-0.200
-654.872	-39.648	-0.232	-0.122
-653.857	-0.051	0.291	-0.208
-652.843	-81.401	-0.254	-0.084
-651.828	113.673	0.139	-0.170
-650.814	251.446	-0.097	0.166
-649.799	346.617	0.085	-0.167
-648.784	-200.000	0.018	0.167
-647.770	-147.192	-0.071	-0.006
-646.755	239.170	-0.065	-0.108
-645.741	-58.173	-0.272	-0.119
-644.726	-98.281	-0.247	0.063
-643.711	381.160	0.079	0.163
-642.697	800.000	-0.137	-0.428
-641.682	-152.888	-0.230	-0.016
-640.668	-96.168	0.055	0.015
-639.653	-200.000	-0.045	0.249
-638.638	-19.605	-0.249	0.154
-637.624	800.000	0.083	-0.356
-636.609	339.434	-0.022	-0.044
-635.595	63.694	-0.121	0.122
-634.580	28.517	0.116	0.098
-633.565	353.788	0.115	0.229
-632.551	-200.000	-0.073	0.522
-631.536	-165.323	-0.381	0.017
-630.522	-200.000	-0.013	-0.099
-629.507	-140.990	-0.137	0.014
-628.492	-200.000	0.001	0.305
-627.478	84.288	-0.271	0.296
-626.463	-22.191	0.165	0.100
-625.449	-200.000	-0.031	-0.176
-624.434	210.592	0.077	0.120
-623.419	-42.036	0.252	-0.129
-622.405	361.661	-0.057	-0.114
-621.390	-101.440	-0.458	-0.112
-620.376	616.029	-0.141	-0.354
-619.361	-200.000	0.021	-0.232
-618.346	381.043	-0.104	0.213
-617.332	132.287	-0.063	-0.082
-616.317	-176.645	-0.138	0.004
-615.303	-5.527	-0.134	-0.092
-614.288	797.363	0.044	-0.122
-613.273	-115.750	0.218	0.041
-612.259	591.830	0.116	-0.286
-611.244	261.910	-0.132	0.229
-610.230	-168.127	0.084	-0.003
-609.215	-117.253	-0.447	-0.081
-608.201	-0.442	-0.301	0.214
-607.186	-158.920	-0.450	-0.026
-606.171	270.549	-0.027	0.048
-605.157	-200.000	0.043	0.258
-604.142	-46.098	-0.128	-0.063
-603.128	800.000	0.024	0.098
-602.113	361.526	0.097	-0.194
-601.098	106.331	0.115	-0.136
-600.084	-200.000	0.049	0.221
-599.069	-25.556	-0.159	0.094
-598.055	246.019	-0.089	0.149
-597.040	3.236	-0.130	-0.095
-596.025	-200.000	0.011	-0.132
-595.011	-22.708	0.400	0.242
-593.996	800.000	-0.027	-0.113
-592.982	45.391	-0.064	-0.059
-591.967	242.010	0.175	-0.293
-590.952	-3.478	0.151	-0.105
-589.938	208.958	0.056	-0.088
-588.923	800.000	0.063	0.180
-587.909	-68.398	-0.313	0.122
-586.894	-60.889	-0.208	0.088
-585.879	24.740	-0.224	-0.185
-584.865	-14.206	-0.267	-0.172
-583.850	-83.175	0.203	-0.065
-582.836	538.728	-0.065	0.154
-581.821	-28.880	0.344	0.197
-580.806	-91.527	0.032	-0.009
-579.792	800.000	0.085	-0.245
-578.777	-83.633	0.078	0.025
-577.763	-134.674	0.279	-0.034
-576.748	32.898	0.140	0.121
-575.733	-200.000	-0.041	0.245
-574.719	-200.000	0.055	0.316
-573.704	-25.322	0.048	0.028
-572.690	278.426	0.167	0.297
-571.675	-108.368	0.271	0.058
-570.661	-200.000	0.013	-0.060
-569.646	326.809	0.031	0.059
-568.631	-105.614	-0.127	-0.029
-567.617	75.992	0.109	-0.116
-566.602	-59.023	0.359	-0.155
-565.588	-200.000	0.060	0.319
-564.573	-22.242	-0.219	-0.132
-563.558	-34.690	0.207	-0.113
-562.544	-200.000	0.029	-0.232
-561.529	-130.727	-0.399	-0.054
-560.515	27.864	0.202	0.170
-559.500	-129.934	-0.134	0.018
-558.485	-200.000	-0.007	-0.050
-557.471	-68.390	0.124	-0.048
-556.456	419.652	-0.019	-0.042
-555.442	-155.891	-0.261	-0.017
-554.427	142.930	-0.057	-0.076
-553.412	-6.738	-0.208	0.141
-552.398	82.972	0.165	0.179
-551.383	616.271	-0.096	0.241
-550.369	8.453	0.122	0.092
-549.354	-16.286	0.152	0.096
-548.339	-43.740	-0.088	-0.044
-547.325	651.547	0.056	0.144
-546.310	75.513	-0.068	0.072
-545.296	800.000	-0.093	0.305
-544.281	566.959	0.135	-0.328
-543.266	-108.266	0.197	-0.043
-542.252	-200.000	-0.001	0.053
-541.237	327.278	0.143	0.273
-540.223	23.551	-0.169	-0.139
-539.208	-120.007	0.216	0.037
-538.193	-94.893	-0.332	-0.090
-537.179	-88.742	-0.278	-0.082
-536.164	-41.284	0.142	-0.073
-535.150	157.243	-0.215	0.297
-534.135	-85.154	-0.169	-0.053
-533.121	-200.000	-0.012	-0.164
-532.106	-200.000	-0.043	-0.257
-531.091	-11.323	0.097	-0.064
-530.077	5.188	0.111	0.082
-529.062	-200.000	0.011	0.052
-528.048	93.925	0.145	0.164
-527.033	-7.835	0.117	-0.079
-526.018	333.991	-0.105	-0.203
-525.004	332.387	0.075	0.144
-523.989	800.000	-0.080	-0.240
-522.975	86.692	0.192	0.211
-521.960	-56.077	-0.119	-0.053
-520.945	-63.749	-0.129	-0.053
-519.931	410.956	0.121	0.256
-518.916	227.386	-0.086	0.139
-517.902	183.857	0.095	0.141
-516.887	95.514	0.099	-0.113
-515.872	-124.172	-0.326	-0.051
-514.858	-64.890	-0.241	0.097
-513.843	800.000	0.069	-0.221
-512.829	13.844	-0.148	0.115
-511.814	104.461	0.137	0.161
-510.799	-104.673	-0.181	-0.042
-509.785	-87.359	-0.174	0.053
-508.770	800.000	-0.042	-0.129
-507.756	-141.331	-0.255	0.026
-506.741	409.212	-0.086	0.181
-505.726	59.417	0.167	0.164
-504.712	88.703	0.162	-0.179
-503.697	107.882	0.168	0.200
-502.683	382.458	0.137	0.281
-501.668	182.064	0.196	-0.288
-500.653	800.000	0.069	-0.229
-499.639	515.178	-0.102	-0.237
-498.624	53.178	0.195	0.186
-497.610	241.312	-0.153	0.255
-496.595	-163.453	-0.241	0.011
-495.581	-200.000	0.011	-0.082
-494.566	25.522	0.277	-0.229
-493.551	-200.000	-0.008	0.340
-492.537	72.718	0.338	0.351
-491.522	228.883	0.283	0.459
-490.508	45.079	-0.168	-0.154
-489.493	-101.466	-0.215	-0.052
-488.478	542.463	0.086	0.204
-487.464	800.000	-0.043	0.158
-486.449	-102.268	-0.464	-0.111
-485.435	-46.437	-0.177	-0.087
-484.420	-200.000	-0.021	0.309
-483.405	191.708	-0.175	0.263
-482.391	-58.458	0.324	0.140
-481.376	312.239	-0.218	-0.407
-480.362	68.558	-0.123	0.125
-479.347	-200.000	-0.013	-0.087
-478.332	124.044	0.166	-0.207
-477.318	228.458	-0.046	0.074
-476.303	-200.000	0.002	0.140
-475.289	-200.000	-0.021	-0.114
-474.274	-149.018	0.361	-0.029
-473.259	-200.000	-0.023	-0.240
-472.245	-94.861	0.346	0.093
-471.230	151.276	-0.089	-0.121
-470.216	800.000	-0.078	-0.237
-469.201	54.149	0.138	-0.132
-468.186	282.901	-0.066	0.118
-467.172	-115.478	-0.344	0.064
-466.157	-58.670	0.111	-0.048
-465.143	-31.227	0.214	0.120
-464.128	-200.000	-0.010	0.090
-463.113	-80.938	0.181	0.060
-462.099	-12.618	0.161	0.104
-461.084	-11.801	0.108	-0.071
-460.070	-135.250	0.297	0.035
-459.055	-59.414	0.248	0.106
-458.040	-200.000	-0.080	0.364
-457.026	-200.000	0.020	-0.199
-456.011	93.167	0.047	0.053
-454.997	-38.290	-0.182	0.096
-453.982	-120.628	0.161	-0.027
-452.968	-149.948	-0.153	0.012
-451.953	304.929	0.142	-0.261
-450.938	276.713	-0.109	-0.192
-449.924	-94.722	0.133	-0.036
-448.909	-177.977	0.257	0.006
-447.895	-51.165	-0.197	0.092
-446.880	-50.740	0.297	-0.139
-445.865	391.516	0.260	0.537
-444.851	-116.874	-0.464	-0.084
-443.836	-22.667	0.098	-0.059
-442.822	311.451	-0.087	0.161
-441.807	357.322	0.115	0.228
-440.792	-26.123	-0.204	-0.119
-439.778	-117.165	0.113	-0.020
-438.763	-200.000	0.060	-0.346
-437.749	11.380	-0.318	-0.242
-436.734	-200.000	-0.007	-0.299
-435.719	-22.379	0.179	-0.108
-434.705	800.000	0.094	0.266
-433.690	800.000	0.038	-0.126
-432.676	3.824	0.087	-0.063
-431.661	528.801	0.054	0.127
-430.646	-119.965	0.407	-0.069
-429.632	263.287	0.138	0.239
-428.617	404.102	0.025	-0.053
-427.603	-200.000	0.085	-0.423
-426.588	-13.643	-0.135	0.087
-425.573	-116.514	-0.465	0.085
-424.559	188.128	-0.068	-0.101
-423.544	-200.000	-0.044	-0.220
-422.530	258.474	-0.227	-0.389
-421.515	-91.393	0.088	0.025
-420.500	-166.454	-0.238	-0.010
-419.486	182.927	0.028	-0.041
-418.471	102.100	-0.347	0.403
-417.457	53.697	-0.237	0.226
-416.442	-138.296	-0.155	-0.017
-415.428	286.294	-0.042	0.075
-414.413	-200.000	-0.055	0.000
-413.398	-51.720	-0.216	0.100
-412.384	800.000	-0.079	0.248
-411.369	186.160	-0.123	-0.182
-410.355	-132.904	0.395	-0.050
-409.340	34.424	0.021	-0.019
-408.325	-131.441	0.371	-0.049
-407.311	80.215	0.117	-0.125
-406.296	-35.779	-0.169	0.091
-405.282	-84.762	-0.158	-0.049
-404.267	-200.000	0.030	0.268
-403.252	255.502	-0.138	-0.235
-402.238	-165.325	0.339	-0.015
-401.223	770.436	-0.069	0.187
-400.209	-200.000	0.003	0.283
-399.194	-20.689	0.225	0.137
-398.179	-35.226	0.123	0.067
-397.165	-187.816	-0.149	-0.002
-396.150	-155.668	0.117	0.007
-395.136	-200.000	0.014	-0.328
-394.121	800.000	0.071	0.228
-393.106	51.098	-0.157	0.148
-392.092	78.512	0.229	0.242
-391.077	-94.308	0.307	-0.083
-390.063	-164.455	0.200	0.009
-389.048	-43.456	-0.159	0.080
-388.033	-77.417	0.139	-0.048
-387.019	-27.123	0.131	0.076
-386.004	-97.459	-0.090	-0.023
-384.990	-95.420	0.337	-0.090
-383.975	800.000	0.005	-0.022
-382.960	353.394	-0.025	0.049
-381.946	231.073	-0.142	0.230
-380.931	76.017	0.093	0.097
-379.917	-1.759	0.161	0.113
-378.902	-200.000	-0.003	0.327
-377.888	32.515	0.136	-0.117
-376.873	-110.980	0.387	0.079
-375.858	-106.084	-0.039	0.009
-374.844	-200.000	-0.042	-0.300
-373.829	-200.000	0.004	-0.201
-372.815	-47.405	-0.185	-0.089
-371.800	-116.870	0.026	-0.005
-370.785	-96.828	-0.253	-0.066
-369.771	-200.000	-0.045	0.319
-368.756	-60.633	0.183	0.077
-367.742	-200.000	-0.028	0.216
-366.727	-7.236	-0.081	0.054
-365.712	-200.000	0.045	0.424
-364.698	-61.451	-0.015	0.006
-363.683	99.889	0.223	-0.256
-362.669	-19.657	-0.212	-0.130
-361.654	-100.245	0.369	-0.091
-360.639	81.317	-0.194	0.207
-359.625	23.405	-0.059	0.048
-358.610	800.000	-0.065	0.231
-357.596	-118.026	-0.171	0.030
-356.581	-138.082	0.274	0.030
-355.566	163.396	-0.059	-0.082
-354.552	-94.301	-0.205	-0.055
-353.537	-200.000	0.003	-0.241
-352.523	-71.986	-0.183	-0.067
-351.508	-135.184	0.192	0.023
-350.493	35.572	0.125	-0.109
-349.479	119.147	-0.091	-0.111
-348.464	-161.961	-0.175	-0.009
-347.450	90.497	-0.137	-0.152
-346.435	-63.558	-0.104	-0.042
-345.420	167.154	0.354	-0.497
-344.406	800.000	0.053	0.153
-343.391	-37.579	-0.209	-0.110
-342.377	-200.000	0.029	-0.284
-341.362	45.039	0.184	0.168
-340.348	-200.000	0.002	-0.218
-339.333	113.329	0.163	-0.196
-338.318	95.999	0.299	-0.338
-337.304	-73.028	0.092	0.033
-336.289	281.837	0.072	-0.127
-335.275	800.000	0.072	0.255
-334.260	800.000	-0.110	-0.436
-333.245	211.695	-0.156	-0.243
-332.231	610.408	-0.012	-0.028
-331.216	-51.328	-0.124	-0.057
-330.202	151.892	-0.144	0.194
-329.187	-44.836	0.406	0.200
-328.172	-91.371	-0.153	-0.043
-327.158	26.078	0.244	0.201
-326.143	-104.301	-0.105	-0.024
-325.129	515.346	0.057	-0.132
-324.114	-200.000	-0.033	0.324
-323.099	-184.944	0.226	-0.004
-322.085	-86.391	0.366	0.111
-321.070	-200.000	0.029	0.217
-320.056	306.019	0.055	0.102
-319.041	-40.024	-0.267	0.138
-318.026	149.921	0.210	0.282
-317.012	-115.425	0.433	-0.081
-315.997	-3.956	-0.341	-0.234
-314.983	-163.592	-0.086	0.004
-313.968	683.080	0.046	-0.120
-312.953	-92.987	0.095	0.026
-311.939	-200.000	0.012	-0.258
-310.924	6.278	0.226	-0.166
-309.910	497.754	-0.130	0.296
-308.895	138.344	-0.163	-0.211
-307.880	800.000	0.116	-0.321
-306.866	-200.000	0.016	-0.291
-305.851	156.721	-0.170	-0.233
-304.837	86.727	-0.240	-0.262
-303.822	355.301	0.092	-0.180
-302.807	-63.517	-0.136	0.055
-301.793	-200.000	0.014	-0.159
-300.778	556.097	-0.076	0.180
-299.764	-67.541	0.070	0.027
-298.749	-159.316	-0.088	-0.005
-297.735	800.000	0.110	-0.394
-296.720	-44.572	-0.119	-0.059
-295.705	25.214	0.143	0.118
-294.691	-200.000	0.001	0.174
-293.676	-200.000	-0.081	-0.426
-292.662	344.416	0.148	-0.287
-291.647	574.656	0.110	0.265
-290.632	-53.386	0.429	-0.194
-289.618	-200.000	0.022	0.223
-288.603	-200.000	0.015	0.087
-287.589	-0.281	-0.103	0.072
-286.574	74.732	0.188	-0.196
-285.559	529.122	-0.050	-0.117
-284.545	-28.630	-0.265	0.151
-283.530	75.642	-0.025	-0.026
-282.516	63.012	-0.061	-0.061
-281.501	-151.521	-0.285	0.021
-280.486	-153.888	-0.187	0.013
-279.472	-200.000	0.003	0.316
-278.457	57.175	0.193	-0.186
-277.443	191.649	0.072	-0.107
-276.428	-96.303	-0.208	-0.055
-275.413	-200.000	0.031	0.145
-274.399	800.000	0.022	0.087
-273.384	800.000	0.114	-0.316
-272.370	-57.935	-0.265	-0.114
-271.355	-102.537	-0.232	-0.055
-270.340	-200.000	-0.025	-0.127
-269.326	-200.000	0.017	-0.178
-268.311	800.000	0.124	-0.364
-267.297	47.352	0.152	0.140
-266.282	-200.000	-0.019	0.182
-265.267	-200.000	0.033	0.226
-264.253	-200.000	-0.042	0.330
-263.238	-69.424	-0.143	0.054
-262.224	-6.196	-0.086	-0.058
-261.209	-76.380	-0.143	-0.050
-260.195	68.542	-0.046	0.046
-259.180	800.000	0.036	0.103
-258.165	-21.570	-0.216	-0.130
-257.151	25.196	-0.220	0.180
-256.136	800.000	0.070	0.203
-255.122	-78.959	-0.152	-0.051
-254.107	88.895	0.133	0.146
-253.092	144.684	0.197	-0.260
-252.078	0.951	0.471	0.333
-251.063	-123.704	-0.284	0.044
-250.049	-25.011	0.205	0.120
-249.034	420.841	0.195	-0.412
-248.019	43.242	0.116	0.104
-247.005	800.000	-0.066	-0.235
-245.990	-187.562	0.078	-0.001
-244.976	-45.355	0.168	-0.082
-243.961	-197.821	-0.046	-0.000
-242.946	-200.000	0.012	0.079
-241.932	169.631	0.107	-0.151
-240.917	-101.003	0.090	0.022
-239.903	303.593	0.059	0.109
-238.888	-66.983	0.131	-0.051
-237.873	88.033	-0.154	-0.169
-236.859	-38.670	-0.138	0.072
-235.844	-69.819	-0.254	-0.096
-234.830	683.834	0.130	0.334
-233.815	169.333	-0.231	-0.325
-232.800	211.459	-0.258	-0.401
-231.786	210.543	0.021	0.032
-230.771	-16.874	-0.266	0.166
-229.757	-5.087	-0.312	0.211
-228.742	-100.913	0.164	0.040
-227.727	-103.476	0.172	-0.040
-226.713	800.000	0.043	0.139
-225.698	-200.000	-0.048	-0.209
-224.684	268.049	-0.100	-0.173
-223.669	315.067	-0.136	0.252
-222.655	117.017	-0.101	-0.122
-221.640	-60.581	-0.091	0.038
-220.625	-200.000	-0.008	0.338
-219.611	-95.661	0.315	0.083
-218.596	-97.773	-0.242	0.062
-217.582	-200.000	0.038	0.270
-216.567	-149.285	0.026	0.002
-215.552	251.196	0.132	0.220
-214.538	-80.363	0.214	0.071
-213.523	-47.358	0.208	-0.100
-212.509	118.298	0.021	-0.025
-211.494	161.268	-0.090	0.124
-210.479	800.000	0.032	0.133
-209.465	-54.223	0.183	-0.082
-208.450	-30.526	0.185	0.103
-207.436	6.977	0.251	-0.184
-206.421	-160.729	-0.210	-0.011
-205.406	-139.320	-0.063	0.007
-204.392	-114.670	0.222	0.042
-203.377	69.989	-0.044	0.044
-202.363	44.421	-0.154	-0.139
-201.348	134.955	-0.126	0.162
-200.333	39.370	0.101	-0.089
-199.319	-200.000	0.026	-0.240
-198.304	109.218	-0.279	-0.329
-197.290	-79.728	0.174	-0.058
-196.275	-58.017	-0.478	-0.205
-195.260	608.323	0.082	-0.202
-194.246	-64.752	0.232	0.092
-193.231	-71.518	-0.432	0.159
-192.217	-200.000	0.008	0.084
-191.202	-200.000	-0.030	0.147
-190.187	-2.277	0.023	0.016
-189.173	44.666	-0.515	0.466
-188.158	-200.000	0.051	0.302
-187.144	-200.000	0.010	-0.275
-186.129	34.507	0.092	0.079
-185.114	-76.022	-0.208	0.072
-184.100	800.000	-0.079	0.314
-183.085	-22.615	-0.143	-0.085
-182.071	-11.023	0.112	-0.073
-181.056	-36.698	0.230	0.121
-180.042	-170.611	-0.079	-0.003
-179.027	-19.159	0.066	-0.040
-178.012	-102.451	0.262	0.062
-176.998	-111.766	0.280	-0.056
-175.983	470.293	0.078	0.173
-174.969	38.424	0.200	-0.175
-173.954	-96.905	0.092	-0.024
-172.939	-157.936	0.199	0.012
-171.925	-102.713	0.169	-0.040
-170.910	-18.916	0.345	0.211
-169.896	1.967	-0.086	-0.061
-168.881	-191.431	-0.092	0.001
-167.866	57.255	0.342	-0.328
-166.852	331.115	-0.176	0.334
-165.837	-150.749	-0.508	0.038
-164.823	153.248	-0.183	-0.247
-163.808	286.707	-0.198	-0.352
-162.793	130.639	0.016	0.020
-161.779	-200.000	-0.010	-0.183
-160.764	-200.000	-0.026	-0.178
-159.750	-200.000	-0.080	-0.345
-158.735	143.367	-0.104	-0.135
-157.720	-200.000	0.020	-0.292
-156.706	-120.485	0.310	0.052
-155.691	800.000	0.027	-0.094
-154.677	-94.568	-0.121	-0.032
-153.662	-95.804	-0.075	0.020
-152.647	508.843	0.048	-0.108
-151.633	-200.000	-0.019	-0.112
-150.618	-60.459	0.158	-0.066
-149.604	601.253	-0.108	-0.264
-148.589	-200.000	0.001	0.172
-147.574	220.546	0.079	0.125
-146.560	59.774	-0.153	0.149
-145.545	-16.155	0.214	0.134
-144.531	-91.580	-0.591	-0.165
-143.516	800.000	0.057	0.160
-142.502	-91.643	-0.487	-0.136
-141.487	-76.873	0.173	0.059
-140.472	431.043	0.168	-0.358
-139.458	-158.464	0.130	0.007
-138.443	498.655	0.051	0.115
-137.429	-200.000	0.028	-0.204
-136.414	-200.000	0.032	0.171
-135.399	800.000	0.081	0.268
-134.385	-30.796	-0.018	-0.010
-133.370	418.335	0.082	0.173
-132.356	800.000	0.070	0.201
-131.341	-112.029	0.333	-0.066
-130.326	800.000	-0.049	-0.150
-129.312	183.341	0.084	0.122
-128.297	800.000	0.062	-0.197
-127.283	-200.000	0.039	0.600
-126.268	-1.812	0.256	0.177
-125.253	50.201	-0.148	0.137
-124.239	800.000	-0.076	0.225
-123.224	800.000	-0.036	0.139
-122.210	-200.000	0.003	0.110
-121.195	-200.000	0.035	0.303
