DTS Sentinel unit serial number:	SN413079Multiplexer serial number:	ORYXHardware model number:	OX4-SRSoftware version number:	ORYX F/W v4.00 Oryx Data Collector v3.7.2.0data status	okinstallation	princeton_trtdifferential loss correction	single-endedforward channel	channel 4reverse channel	N/Adate	2019/09/19time	08:53:35forward acquisition time	60.00reverse acquisition time	0.00gamma	496.2192k internal	0.2339k external	0.2339temperature offset calibration	1.0018default loss term (dB/km)	0.3790temperature slope calibration	1.0000multiplexer offset coefficient	1.0000multiplexer slope coefficient	1.0000fibre end	0.00T internal ref (°C)	21.27T ext. ref 1 (°C)	0.58T ext. ref 2 (°C)	17.08length (m)	temperature (°C)	Stokes	anti-Stokes-747.200	484.332	0.015	-0.034
-746.185	9.788	0.201	0.153
-745.171	188.689	0.097	0.146
-744.156	-200.000	0.052	0.301
-743.142	203.472	-0.094	0.146
-742.127	116.772	-0.036	-0.045
-741.112	-137.905	-0.188	0.021
-740.098	-14.993	0.242	0.155
-739.083	-77.169	0.109	0.038
-738.069	281.502	-0.095	0.171
-737.054	536.578	-0.115	-0.274
-736.039	343.553	-0.139	-0.273
-735.025	129.932	0.325	0.416
-734.010	5.437	-0.164	-0.121
-732.996	-23.085	-0.363	-0.220
-731.981	-200.000	-0.011	0.153
-730.966	-200.000	-0.061	0.383
-729.952	-200.000	0.021	0.567
-728.937	-43.801	-0.349	-0.176
-727.923	800.000	0.014	-0.041
-726.908	9.980	-0.135	0.103
-725.894	-200.000	-0.027	0.121
-724.879	570.878	0.081	-0.198
-723.864	-200.000	-0.002	-0.154
-722.850	130.269	-0.145	-0.186
-721.835	-130.945	-0.220	-0.030
-720.821	598.560	-0.067	0.167
-719.806	800.000	-0.068	-0.268
-718.791	-81.283	0.173	-0.057
-717.777	-124.506	0.190	0.030
-716.762	11.310	-0.365	-0.280
-715.748	-64.641	-0.229	0.093
-714.733	139.711	-0.195	0.258
-713.718	-86.492	-0.317	0.098
-712.704	-83.385	0.387	0.124
-711.689	-200.000	0.011	-0.224
-710.675	85.508	0.179	0.197
-709.660	82.020	0.171	0.186
-708.645	-39.913	-0.140	0.073
-707.631	-116.283	0.029	0.005
-706.616	-80.843	0.249	-0.083
-705.602	106.637	-0.181	-0.215
-704.587	-30.472	-0.150	0.085
-703.572	-80.935	-0.121	0.040
-702.558	191.429	-0.145	0.219
-701.543	160.599	-0.321	0.449
-700.529	-180.548	0.152	0.003
-699.514	415.611	-0.085	0.181
-698.499	-97.389	0.127	-0.033
-697.485	674.738	0.003	-0.008
-696.470	-200.000	-0.023	0.213
-695.456	-96.034	-0.165	0.044
-694.441	-35.974	0.135	0.073
-693.426	190.045	-0.129	-0.193
-692.412	-98.536	0.162	-0.042
-691.397	-200.000	-0.013	-0.170
-690.383	-200.000	0.064	-0.456
-689.368	-200.000	0.010	0.064
-688.354	667.826	0.170	-0.440
-687.339	214.665	-0.122	-0.193
-686.324	63.433	0.071	-0.071
-685.310	-117.907	0.207	-0.037
-684.295	35.073	0.175	0.154
-683.281	-132.025	0.230	0.030
-682.266	12.012	-0.163	0.126
-681.251	-200.000	-0.005	0.149
-680.237	146.748	0.089	-0.120
-679.222	-2.824	0.070	0.049
-678.208	18.205	-0.209	-0.167
-677.193	-76.918	0.158	-0.055
-676.178	135.328	-0.108	-0.141
-675.164	7.403	-0.158	0.118
-674.149	628.685	0.098	0.247
-673.135	337.829	0.103	0.200
-672.120	91.232	-0.099	0.111
-671.105	-114.375	0.115	0.022
-670.091	51.796	-0.164	-0.156
-669.076	-95.180	-0.203	0.055
-668.062	800.000	0.041	0.127
-667.047	-200.000	-0.011	0.053
-666.032	236.757	-0.084	0.139
-665.018	219.213	-0.100	-0.160
-664.003	10.422	0.262	0.200
-662.989	800.000	-0.109	-0.365
-661.974	79.927	-0.068	0.073
-660.959	-200.000	0.016	0.142
-659.945	-50.080	-0.255	-0.121
-658.930	-76.371	0.275	-0.097
-657.916	155.035	-0.146	-0.200
-656.901	116.758	-0.241	-0.295
-655.886	-200.000	0.021	0.137
-654.872	680.029	-0.027	-0.070
-653.857	-119.238	-0.453	-0.079
-652.843	476.169	0.019	0.043
-651.828	63.816	0.108	0.108
-650.814	-148.775	-0.147	-0.012
-649.799	800.000	0.045	-0.155
-648.784	-66.231	-0.079	0.032
-647.770	-46.717	0.256	0.125
-646.755	-200.000	0.003	-0.127
-645.741	36.925	-0.070	-0.062
-644.726	-200.000	-0.093	0.000
-643.711	800.000	0.077	0.214
-642.697	-53.778	0.261	-0.119
-641.682	15.122	0.096	0.075
-640.668	-102.727	-0.047	-0.011
-639.653	17.233	-0.104	0.083
-638.638	-51.996	-0.118	0.055
-637.624	800.000	-0.111	-0.442
-636.609	-200.000	0.012	-0.094
-635.595	140.052	0.049	-0.065
-634.580	-75.522	-0.217	0.077
-633.565	-19.314	-0.133	0.083
-632.551	-14.491	-0.058	-0.037
-631.536	-200.000	0.001	-0.243
-630.522	593.556	0.068	-0.168
-629.507	-200.000	-0.057	-0.317
-628.492	88.464	0.168	-0.186
-627.478	-44.459	0.285	-0.142
-626.463	-59.685	-0.210	-0.090
-625.449	-12.831	-0.247	-0.161
-624.434	-200.000	-0.040	0.218
-623.419	11.486	0.275	-0.210
-622.405	26.862	-0.232	-0.194
-621.390	533.161	-0.147	0.349
-620.376	-28.067	0.028	0.016
-619.361	295.955	0.153	0.281
-618.346	-12.423	-0.099	-0.065
-617.332	102.085	0.122	-0.142
-616.317	-79.936	-0.065	-0.022
-615.303	-154.868	-0.297	-0.020
-614.288	-43.690	0.301	0.152
-613.273	800.000	-0.027	-0.098
-612.259	282.157	0.074	0.133
-611.244	-97.603	-0.285	-0.074
-610.230	-97.237	-0.387	-0.101
-609.215	283.528	-0.173	0.310
-608.201	271.167	-0.130	0.228
-607.186	-162.619	-0.136	-0.007
-606.171	800.000	0.027	0.091
-605.157	80.005	-0.108	-0.116
-604.142	-200.000	0.028	-0.172
-603.128	-200.000	0.057	-0.256
-602.113	122.397	-0.178	0.222
-601.098	117.422	0.042	0.051
-600.084	186.023	0.042	-0.062
-599.069	-16.612	0.159	0.100
-598.055	-78.412	0.135	0.046
-597.040	800.000	0.094	-0.260
-596.025	800.000	0.112	-0.468
-595.011	-200.000	0.054	-0.314
-593.996	-53.761	0.180	0.082
-592.982	-146.573	-0.049	-0.004
-591.967	77.114	0.107	-0.113
-590.952	25.365	0.166	0.138
-589.938	-6.217	-0.149	-0.101
-588.923	-28.768	-0.038	-0.022
-587.909	51.629	0.041	0.039
-586.894	-200.000	0.034	0.169
-585.879	-95.421	-0.139	0.037
-584.865	3.202	-0.142	-0.103
-583.850	265.275	0.204	-0.355
-582.836	52.341	-0.143	-0.136
-581.821	343.535	0.110	0.215
-580.806	800.000	0.039	-0.110
-579.792	1.038	-0.302	0.216
-578.777	-200.000	0.045	0.224
-577.763	800.000	0.050	-0.143
-576.748	-108.691	-0.235	-0.050
-575.733	-107.476	0.067	-0.015
-574.719	136.623	-0.038	0.049
-573.704	178.590	-0.126	-0.183
-572.690	-200.000	0.011	-0.195
-571.675	800.000	0.053	0.216
-570.661	-86.765	0.398	0.121
-569.646	-119.655	0.387	0.067
-568.631	26.555	-0.104	0.087
-567.617	800.000	0.023	-0.075
-566.602	800.000	-0.038	0.166
-565.588	128.172	-0.137	0.174
-564.573	266.107	0.034	0.059
-563.558	294.545	0.188	-0.342
-562.544	-59.782	-0.270	0.115
-561.529	-144.865	0.239	0.022
-560.515	560.096	0.084	0.202
-559.500	-47.137	0.233	-0.113
-558.485	718.878	-0.129	0.342
-557.471	-133.913	-0.333	-0.041
-556.456	-180.959	0.450	-0.009
-555.442	-87.230	0.257	0.078
-554.427	-200.000	0.002	0.114
-553.412	-153.945	0.230	-0.016
-552.398	800.000	-0.101	0.296
-551.383	237.055	-0.134	-0.222
-550.369	800.000	0.056	0.176
-549.354	-64.315	-0.331	-0.134
-548.339	800.000	0.118	-0.332
-547.325	-98.956	0.424	-0.107
-546.310	-92.424	-0.360	0.101
-545.296	33.191	-0.125	0.108
-544.281	338.300	0.125	-0.242
-543.266	12.945	0.373	0.287
-542.252	268.264	-0.343	-0.598
-541.237	188.633	0.205	-0.305
-540.223	-200.000	0.020	-0.185
-539.208	800.000	-0.030	-0.115
-538.193	100.058	-0.065	-0.075
-537.179	99.274	-0.047	-0.054
-536.164	408.056	-0.120	-0.253
-535.150	-20.754	0.242	-0.148
-534.135	-55.802	0.151	-0.067
-533.121	0.914	-0.083	0.059
-532.106	-200.000	-0.042	0.221
-531.091	-200.000	-0.019	0.116
-530.077	800.000	-0.081	0.279
-529.062	-149.427	-0.479	0.038
-528.048	-128.960	-0.270	-0.038
-527.033	-200.000	-0.006	0.087
-526.018	800.000	0.130	-0.373
-525.004	78.665	0.216	0.230
-523.989	-200.000	-0.001	0.060
-522.975	800.000	-0.127	-0.395
-521.960	-200.000	0.018	0.162
-520.945	3.630	-0.163	-0.118
-519.931	-52.568	0.266	0.122
-518.916	800.000	-0.057	0.172
-517.902	-44.519	0.072	0.036
-516.887	-200.000	0.001	-0.173
-515.872	-200.000	-0.041	0.300
-514.858	-136.082	0.427	0.050
-513.843	-72.970	0.110	-0.040
-512.829	270.315	0.116	0.202
-511.814	128.158	0.302	0.383
-510.799	136.220	0.080	0.104
-509.785	359.276	0.106	-0.210
-508.770	-149.415	0.084	0.007
-507.756	-79.409	-0.397	-0.134
-506.741	-200.000	-0.027	0.361
-505.726	-83.246	0.083	0.026
-504.712	68.480	0.232	0.237
-503.697	105.961	-0.163	0.192
-502.683	214.373	0.136	0.214
-501.668	3.136	0.037	-0.027
-500.653	-28.515	0.178	-0.102
-499.639	-138.254	-0.411	-0.045
-498.624	-53.252	0.189	0.086
-497.610	-200.000	-0.006	-0.253
-496.595	121.775	0.204	-0.253
-495.581	-74.450	-0.143	0.051
-494.566	-128.329	-0.243	0.034
-493.551	-171.770	-0.246	0.008
-492.537	800.000	0.073	0.202
-491.522	-200.000	-0.007	-0.216
-490.508	-6.828	0.148	-0.100
-489.493	-158.560	0.228	-0.013
-488.478	-63.505	0.486	-0.198
-487.464	339.533	-0.103	-0.199
-486.449	288.555	-0.095	0.171
-485.435	-158.191	0.067	0.004
-484.420	55.826	0.160	-0.154
-483.405	133.167	0.101	-0.130
-482.391	-65.381	-0.176	-0.070
-481.376	68.946	0.318	-0.325
-480.362	17.264	-0.410	0.323
-479.347	43.672	0.193	-0.175
-478.332	-33.362	-0.315	0.173
-477.318	177.823	0.183	0.265
-476.303	-84.254	0.154	-0.049
-475.289	272.183	0.117	-0.204
-474.274	800.000	0.109	-0.373
-473.259	-81.835	0.261	0.085
-472.245	208.139	0.078	0.122
-471.230	-81.906	0.468	-0.152
-470.216	-200.000	0.018	-0.078
-469.201	13.372	-0.322	0.248
-468.186	-200.000	-0.048	-0.237
-467.172	80.598	0.257	-0.274
-466.157	24.784	-0.146	0.120
-465.143	-100.661	-0.285	0.070
-464.128	-98.741	-0.269	-0.068
-463.113	117.810	0.211	-0.258
-462.099	-45.295	-0.219	0.108
-461.084	-200.000	-0.040	-0.254
-460.070	261.083	-0.063	0.109
-459.055	-25.226	0.291	-0.171
-458.040	-155.537	0.023	0.001
-457.026	132.254	-0.119	-0.152
-456.011	-146.164	-0.188	0.016
-454.997	251.475	0.086	0.145
-453.982	-200.000	0.009	0.104
-452.968	-49.760	-0.181	0.085
-451.953	-62.827	0.134	0.055
-450.938	-200.000	0.002	0.035
-449.924	-136.548	-0.196	-0.023
-448.909	242.392	-0.084	0.139
-447.895	194.127	0.140	-0.211
-446.880	204.867	0.163	-0.251
-445.865	24.348	-0.154	0.126
-444.851	800.000	0.016	0.060
-443.836	-2.641	0.335	-0.232
-442.822	216.505	-0.078	0.123
-441.807	-120.531	0.384	0.065
-440.792	-75.451	-0.134	-0.047
-439.778	336.915	-0.085	-0.163
-438.763	800.000	-0.068	-0.223
-437.749	-200.000	-0.008	-0.105
-436.734	-108.925	-0.216	0.046
-435.719	800.000	-0.043	-0.174
-434.705	-200.000	-0.003	0.256
-433.690	35.744	0.189	-0.165
-432.676	169.834	0.218	0.309
-431.661	103.635	0.137	-0.159
-430.646	97.038	-0.164	-0.186
-429.632	183.376	0.115	-0.168
-428.617	800.000	-0.092	0.318
-427.603	-103.316	-0.272	0.064
-426.588	800.000	-0.015	-0.063
-425.573	-200.000	-0.039	0.370
-424.559	468.954	-0.067	0.148
-423.544	-52.271	0.356	0.164
-422.530	7.034	-0.233	0.172
-421.515	-75.341	-0.166	0.059
-420.500	-200.000	-0.040	-0.476
-419.486	-25.656	-0.230	-0.135
-418.471	6.242	0.054	-0.040
-417.457	-98.047	-0.063	0.016
-416.442	-27.878	0.322	0.185
-415.428	659.575	-0.064	-0.163
-414.413	226.516	0.185	0.298
-413.398	-23.889	-0.195	0.116
-412.384	-83.406	-0.067	0.021
-411.369	259.225	0.077	0.131
-410.355	20.872	-0.200	0.161
-409.340	-200.000	0.062	-0.294
-408.325	93.486	0.063	0.070
-407.311	-135.675	0.140	0.016
-406.296	234.633	0.273	-0.446
-405.282	313.202	-0.272	0.506
-404.267	294.735	0.193	0.349
-403.252	244.779	-0.116	0.194
-402.238	159.971	-0.005	-0.006
-401.223	351.358	-0.060	-0.118
-400.209	-200.000	-0.048	-0.214
-399.194	-10.999	-0.130	-0.085
-398.179	-200.000	-0.013	-0.206
-397.165	-86.265	-0.168	0.051
-396.150	800.000	-0.042	-0.167
-395.136	329.360	0.078	-0.149
-394.121	-200.000	-0.016	0.278
-393.106	800.000	-0.084	0.241
-392.092	-11.033	0.128	0.083
-391.077	60.401	-0.098	-0.096
-390.063	800.000	-0.121	0.370
-389.048	-200.000	-0.038	0.178
-388.033	173.523	0.116	-0.166
-387.019	42.843	0.175	0.158
-386.004	-59.059	-0.157	0.067
-384.990	95.121	-0.264	0.297
-383.975	-63.190	-0.171	-0.070
-382.960	79.114	0.189	-0.200
-381.946	-200.000	0.007	-0.092
-380.931	43.552	-0.348	0.314
-379.917	-78.906	0.223	-0.075
-378.902	-64.592	0.139	-0.056
-377.888	800.000	0.025	-0.094
-376.873	-36.654	-0.157	0.084
-375.858	-112.925	0.285	-0.056
-374.844	223.722	0.155	-0.247
-373.829	68.618	-0.208	0.211
-372.815	182.529	-0.136	-0.199
-371.800	-26.814	0.207	0.120
-370.785	28.323	0.127	0.106
-369.771	194.102	-0.100	0.149
-368.756	136.240	-0.142	-0.183
-367.742	-200.000	-0.012	-0.104
-366.727	800.000	0.110	0.390
-365.712	440.158	-0.156	0.336
-364.698	-200.000	-0.030	-0.238
-363.683	-100.341	-0.166	-0.041
-362.669	-118.211	-0.229	-0.040
-361.654	-77.896	-0.291	0.099
-360.639	-42.011	0.167	0.085
-359.625	-200.000	-0.022	0.132
-358.610	147.270	-0.133	-0.177
-357.596	121.227	0.183	-0.225
-356.581	800.000	-0.048	-0.194
-355.566	-164.056	0.116	-0.005
-354.552	-84.803	0.254	-0.079
-353.537	-16.635	0.183	0.115
-352.523	-96.019	-0.201	0.053
-351.508	261.065	0.181	0.309
-350.493	-200.000	-0.020	0.289
-349.479	230.717	0.084	0.136
-348.464	100.332	-0.141	0.162
-347.450	-75.749	-0.400	0.140
-346.435	-200.000	-0.018	-0.567
-345.420	-110.169	-0.253	0.052
-344.406	-200.000	0.037	0.270
-343.391	109.728	-0.034	-0.040
-342.377	-118.424	-0.190	-0.033
-341.362	45.740	0.182	-0.166
-340.348	74.471	0.061	0.063
-339.333	-178.876	0.098	-0.002
-338.318	-200.000	0.037	-0.213
-337.304	-175.047	0.184	0.005
-336.289	800.000	-0.064	0.193
-335.275	-78.028	-0.551	-0.187
-334.260	-67.576	-0.143	0.055
-333.245	50.741	0.179	0.167
-332.231	-1.156	-0.160	-0.112
-331.216	-59.676	0.190	-0.081
-330.202	-18.838	-0.160	0.099
-329.187	800.000	0.044	-0.166
-328.172	-125.350	-0.227	0.034
-327.158	38.107	0.180	0.158
-326.143	157.806	0.049	0.067
-325.129	183.216	0.025	-0.036
-324.114	-81.150	0.324	-0.106
-323.099	-14.395	0.174	0.111
-322.085	289.911	-0.091	-0.163
-321.070	-200.000	0.041	-0.312
-320.056	-118.828	0.198	0.034
-319.041	-184.747	0.067	0.001
-318.026	46.671	-0.099	0.091
-317.012	-200.000	0.021	0.115
-315.997	800.000	-0.038	0.104
-314.983	-200.000	0.003	0.162
-313.968	371.919	-0.121	0.243
-312.953	-89.633	-0.351	-0.102
-311.939	-200.000	-0.009	-0.127
-310.924	30.904	-0.090	-0.076
-309.910	-200.000	-0.018	0.241
-308.895	-10.229	-0.167	0.109
-307.880	-49.436	0.337	0.159
-306.866	-68.134	-0.146	0.056
-305.851	-137.565	-0.079	-0.009
-304.837	-36.912	0.190	-0.100
-303.822	386.866	-0.090	-0.183
-302.807	-66.397	0.303	-0.119
-301.793	800.000	0.053	-0.206
-300.778	-48.209	-0.380	0.181
-299.764	709.194	-0.071	0.184
-298.749	393.184	-0.083	-0.170
-297.735	61.772	0.179	-0.176
-296.720	233.027	-0.185	-0.300
-295.705	258.753	0.037	0.063
-294.691	-109.882	0.283	-0.059
-293.676	-15.514	0.110	0.069
-292.662	447.820	0.105	0.228
-291.647	-72.701	0.087	0.031
-290.632	-200.000	-0.007	-0.062
-289.618	-52.941	0.290	0.132
-288.603	-76.664	0.237	0.082
-287.589	312.901	0.121	-0.224
-286.574	157.598	-0.093	-0.127
-285.559	-1.155	0.280	-0.195
-284.545	-17.947	0.225	0.139
-283.530	-96.604	0.165	-0.043
-282.516	-39.463	-0.191	0.099
-281.501	-103.122	-0.287	0.067
-280.486	-1.544	0.365	0.253
-279.472	338.171	0.115	0.221
-278.457	254.539	-0.105	0.177
-277.443	-200.000	0.070	0.364
-276.428	258.684	0.091	-0.154
-275.413	1.536	0.308	0.218
-274.399	-142.349	-0.299	-0.029
-273.384	-14.130	-0.190	-0.121
-272.370	76.071	0.075	0.078
-271.355	-1.169	0.357	-0.248
-270.340	-200.000	-0.004	0.041
-269.326	-86.137	0.435	-0.132
-268.311	64.361	0.200	-0.198
-267.297	174.448	-0.164	0.234
-266.282	52.699	-0.234	-0.220
-265.267	12.154	-0.110	0.083
-264.253	19.196	0.042	0.033
-263.238	604.837	-0.037	0.090
-262.224	-113.635	-0.144	-0.028
-261.209	-200.000	0.028	0.125
-260.195	-200.000	0.021	-0.477
-259.180	800.000	-0.053	-0.150
-258.165	198.111	0.155	-0.233
-257.151	20.797	0.187	-0.149
-256.136	158.423	0.198	0.270
-255.122	-146.519	-0.184	-0.016
-254.107	-160.511	-0.116	0.006
-253.092	-200.000	-0.009	-0.126
-252.078	3.027	-0.126	-0.090
-251.063	293.426	0.091	0.164
-250.049	-93.517	-0.341	-0.093
-249.034	800.000	-0.036	-0.133
-248.019	800.000	-0.133	-0.373
-247.005	-57.389	-0.227	0.098
-245.990	217.120	-0.072	0.113
-244.976	-83.474	-0.158	-0.050
-243.961	-200.000	-0.008	-0.159
-242.946	-0.409	0.249	0.174
-241.932	-40.679	-0.159	0.081
-240.917	16.691	-0.075	-0.058
-239.903	677.450	0.084	0.215
-238.888	-77.024	-0.098	-0.034
-237.873	-129.353	-0.223	-0.031
-236.859	-200.000	-0.127	0.637
-235.844	39.663	0.333	-0.294
-234.830	-137.576	-0.337	0.037
-233.815	-200.000	-0.064	0.378
-232.800	-200.000	0.050	-0.423
-231.786	-55.975	0.111	-0.049
-230.771	-71.990	0.157	-0.057
-229.757	800.000	0.062	-0.206
-228.742	-200.000	-0.031	0.182
-227.727	-122.846	-0.084	0.013
-226.713	692.282	-0.067	-0.173
-225.698	298.889	0.078	-0.141
-224.684	84.695	-0.090	-0.097
-223.669	-117.833	-0.057	0.010
-222.655	73.067	0.215	0.221
-221.640	624.939	-0.149	0.369
-220.625	-200.000	0.000	-0.217
-219.611	268.227	-0.054	0.094
-218.596	21.439	-0.403	-0.322
-217.582	-19.028	-0.260	0.159
-216.567	-11.104	-0.249	-0.161
-215.552	67.077	0.124	0.124
-214.538	-87.281	-0.254	-0.076
-213.523	91.608	0.189	0.209
-212.509	-3.433	-0.169	0.116
-211.494	-138.152	0.224	-0.024
-210.479	361.314	-0.127	-0.251
-209.465	193.632	0.056	-0.084
-208.450	-26.314	0.042	-0.024
-207.436	206.329	-0.160	0.245
-206.421	-64.477	0.203	-0.081
-205.406	-59.686	-0.377	0.159
-204.392	210.195	-0.121	-0.186
-203.377	-200.000	-0.017	0.086
-202.363	-139.623	0.225	-0.024
-201.348	91.997	0.024	0.027
-200.333	104.140	0.074	-0.085
-199.319	-32.812	-0.126	0.069
-198.304	-32.242	0.277	0.152
-197.290	150.895	0.109	-0.145
-196.275	-48.833	-0.187	0.088
-195.260	-22.885	0.320	-0.190
-194.246	-83.940	0.115	0.036
-193.231	138.380	-0.111	0.143
-192.217	-32.066	-0.099	0.055
-191.202	-200.000	-0.005	-0.075
-190.187	62.728	0.230	0.226
-189.173	-146.221	-0.247	-0.021
-188.158	-3.879	-0.307	0.209
-187.144	-200.000	-0.013	0.267
-186.129	117.153	0.070	-0.084
-185.114	-118.023	-0.091	0.016
-184.100	-149.542	-0.321	-0.025
-183.085	-200.000	0.028	-0.267
-182.071	60.012	0.075	0.073
-181.056	-6.430	-0.190	0.127
-180.042	474.107	0.116	0.256
-179.027	-200.000	0.000	0.059
-178.012	51.194	0.138	0.129
-176.998	704.468	0.060	0.154
-175.983	76.750	-0.063	-0.065
-174.969	84.345	0.138	-0.148
-173.954	-113.736	-0.145	-0.028
-172.939	-200.000	0.090	0.390
-171.925	-66.674	-0.145	0.056
-170.910	800.000	-0.097	-0.347
-169.896	24.700	-0.296	0.241
-168.881	-200.000	0.002	0.066
-167.866	-153.220	-0.119	-0.008
-166.852	-175.662	0.107	0.003
-165.837	-31.023	0.326	-0.180
-164.823	-200.000	0.032	0.197
-163.808	210.213	0.105	-0.162
-162.793	-13.376	0.054	-0.034
-161.779	-110.866	-0.060	-0.012
-160.764	259.217	-0.212	-0.359
-159.750	-141.376	0.350	0.035
-158.735	-200.000	0.051	0.229
-157.720	-41.370	-0.126	-0.064
-156.706	-51.227	0.090	0.041
-155.691	-195.067	-0.236	0.002
-154.677	163.006	0.096	0.132
-153.662	-167.269	-0.018	0.001
-152.647	176.030	0.160	0.228
-151.633	-105.286	0.141	0.031
-150.618	-42.513	0.101	0.050
-149.604	94.486	0.150	0.167
-148.589	-50.770	-0.133	0.061
-147.574	395.097	0.049	0.100
-146.560	23.245	0.159	-0.128
-145.545	-200.000	-0.005	0.116
-144.531	-61.562	0.233	0.096
-143.516	6.750	0.161	0.118
-142.502	125.883	-0.164	0.203
-141.487	-55.085	-0.054	-0.024
-140.472	78.827	0.344	0.361
-139.458	-53.864	-0.355	-0.159
-138.443	-191.024	0.104	0.001
-137.429	800.000	0.062	0.238
-136.414	800.000	-0.068	-0.212
-135.399	-129.567	-0.282	0.038
-134.385	171.178	0.144	-0.203
-133.370	-147.774	-0.545	-0.045
-132.356	800.000	-0.089	0.367
-131.341	109.424	0.123	0.144
-130.326	800.000	-0.076	0.254
-129.312	429.021	0.097	-0.206
-128.297	129.751	0.065	-0.082
-127.283	66.060	0.212	-0.210
-126.268	-166.963	0.318	-0.013
-125.253	800.000	-0.005	0.020
-124.239	-95.827	0.208	0.054
-123.224	-98.753	0.145	-0.036
-122.210	800.000	-0.014	-0.040
-121.195	-200.000	0.011	0.230
-120.180	-200.000	0.053	0.472
