DTS Sentinel unit serial number:	SN413079Multiplexer serial number:	ORYXHardware model number:	OX4-SRSoftware version number:	ORYX F/W v4.00 Oryx Data Collector v3.7.2.0data status	okinstallation	princeton_trtdifferential loss correction	single-endedforward channel	channel 4reverse channel	N/Adate	2019/09/13time	08:05:35forward acquisition time	60.00reverse acquisition time	0.00gamma	496.2192k internal	0.2319k external	0.2319temperature offset calibration	1.0199default loss term (dB/km)	0.3790temperature slope calibration	1.0000multiplexer offset coefficient	1.0000multiplexer slope coefficient	1.0000fibre end	0.00T internal ref (°C)	26.94T ext. ref 1 (°C)	4.26T ext. ref 2 (°C)	23.22length (m)	temperature (°C)	Stokes	anti-Stokes-747.200	-123.150	-0.124	0.020
-746.185	-155.779	-0.261	-0.017
-745.171	304.301	0.250	-0.470
-744.156	-84.180	0.378	0.121
-743.142	-27.632	-0.298	-0.175
-742.127	-101.742	-0.490	-0.120
-741.112	679.508	0.035	0.093
-740.098	-73.263	0.017	-0.006
-739.083	-22.037	-0.109	-0.067
-738.069	-104.631	-0.212	0.049
-737.054	196.895	-0.013	0.020
-736.039	800.000	-0.081	-0.277
-735.025	800.000	0.003	0.011
-734.010	800.000	-0.135	-0.461
-732.996	800.000	-0.113	0.397
-731.981	148.162	-0.026	0.035
-730.966	-200.000	-0.005	-0.048
-729.952	-40.165	0.116	0.061
-728.937	418.470	-0.028	-0.060
-727.923	148.078	0.150	-0.205
-726.908	257.344	-0.312	0.542
-725.894	267.076	0.097	-0.171
-724.879	135.667	0.203	0.267
-723.864	-200.000	0.027	-0.231
-722.850	800.000	-0.033	0.117
-721.835	-34.633	-0.070	0.039
-720.821	-88.395	-0.304	-0.092
-719.806	-200.000	-0.031	-0.259
-718.791	-51.372	0.162	-0.077
-717.777	-16.221	0.196	0.126
-716.762	-14.615	0.202	-0.131
-715.748	-200.000	0.065	0.410
-714.733	-98.114	0.258	-0.067
-713.718	-28.391	-0.134	0.078
-712.704	-40.762	-0.363	-0.190
-711.689	-57.302	0.140	-0.062
-710.675	37.890	-0.055	0.049
-709.660	1.024	-0.249	0.181
-708.645	110.579	-0.127	0.155
-707.631	-40.443	-0.092	0.049
-706.616	16.083	-0.068	-0.054
-705.602	-46.071	0.182	0.090
-704.587	-67.740	-0.375	-0.148
-703.572	232.159	0.154	0.255
-702.558	28.089	0.258	-0.220
-701.543	-187.454	0.163	-0.002
-700.529	-76.576	-0.051	0.018
-699.514	268.508	-0.068	-0.121
-698.499	-35.188	0.186	0.102
-697.485	28.166	0.201	0.171
-696.470	800.000	-0.145	-0.431
-695.456	-200.000	-0.269	-0.001
-694.441	-62.705	-0.217	-0.091
-693.426	-200.000	-0.007	-0.250
-692.412	800.000	-0.079	0.327
-691.397	-200.000	-0.077	-0.484
-690.383	602.728	-0.036	-0.091
-689.368	800.000	0.031	0.085
-688.354	-6.693	-0.114	-0.078
-687.339	800.000	-0.089	-0.276
-686.324	-83.325	0.067	0.022
-685.310	-182.708	0.082	0.002
-684.295	158.900	-0.206	-0.289
-683.281	152.570	-0.277	-0.382
-682.266	327.933	0.082	-0.159
-681.251	293.820	0.210	0.387
-680.237	168.404	0.117	-0.168
-679.222	-58.918	-0.296	-0.129
-678.208	-95.068	0.205	-0.056
-677.193	337.987	0.114	0.224
-676.178	500.506	0.079	-0.183
-675.164	-140.006	0.193	-0.021
-674.149	-200.000	0.054	0.338
-673.135	800.000	0.063	0.208
-672.120	263.961	-0.134	-0.235
-671.105	-132.925	-0.405	0.052
-670.091	-116.898	-0.231	0.043
-669.076	-84.208	0.136	0.043
-668.062	-86.886	-0.364	0.112
-667.047	-200.000	0.004	0.062
-666.032	-40.060	0.261	0.137
-665.018	-200.000	0.030	0.182
-664.003	602.041	-0.096	0.240
-662.989	-88.037	-0.123	-0.037
-661.974	-92.388	-0.358	-0.102
-660.959	800.000	0.099	0.312
-659.945	-29.305	0.126	0.073
-658.930	-154.180	0.113	0.008
-657.916	41.181	-0.104	0.095
-656.901	134.449	-0.038	-0.050
-655.886	624.545	0.160	0.406
-654.872	36.645	0.043	0.038
-653.857	800.000	-0.083	-0.267
-652.843	800.000	0.056	-0.221
-651.828	800.000	0.017	0.074
-650.814	31.297	0.343	-0.297
-649.799	-139.727	-0.132	0.014
-648.784	-122.873	0.198	-0.032
-647.770	82.438	0.140	0.153
-646.755	3.715	0.082	-0.061
-645.741	356.362	0.077	-0.155
-644.726	-200.000	-0.050	0.403
-643.711	-13.487	-0.051	0.033
-642.697	125.562	0.296	-0.377
-641.682	257.423	0.163	-0.283
-640.668	154.787	0.131	0.182
-639.653	800.000	0.066	-0.225
-638.638	800.000	0.068	-0.233
-637.624	-24.316	0.233	-0.140
-636.609	-72.378	0.310	0.116
-635.595	-88.265	-0.452	-0.136
-634.580	-200.000	-0.006	0.160
-633.565	-114.254	0.180	0.035
-632.551	244.220	0.053	0.090
-631.536	-148.347	0.209	-0.017
-630.522	103.819	-0.225	-0.266
-629.507	300.378	0.053	-0.099
-628.492	318.335	-0.063	0.121
-627.478	-187.756	0.020	-0.000
-626.463	800.000	-0.056	0.173
-625.449	-23.148	0.131	-0.079
-624.434	324.805	-0.096	-0.184
-623.419	800.000	0.028	-0.106
-622.405	14.887	0.233	-0.183
-621.390	64.911	-0.182	0.185
-620.376	122.237	0.192	0.241
-619.361	-200.000	-0.014	0.064
-618.346	-80.097	-0.308	-0.104
-617.332	55.925	-0.056	-0.055
-616.317	-63.253	0.164	-0.068
-615.303	72.102	0.126	0.132
-614.288	-200.000	-0.004	0.096
-613.273	-49.479	0.205	0.098
-612.259	-200.000	-0.017	0.204
-611.244	35.882	-0.044	-0.039
-610.230	-123.208	0.478	0.077
-609.215	-39.562	0.069	0.036
-608.201	-119.751	-0.255	-0.044
-607.186	284.475	-0.138	-0.250
-606.171	-133.856	-0.167	0.021
-605.157	-83.675	-0.291	-0.093
-604.142	-200.000	-0.054	-0.248
-603.128	-45.975	-0.181	-0.090
-602.113	-110.794	0.307	-0.064
-601.098	-102.074	-0.459	-0.111
-600.084	-149.699	-0.236	0.019
-599.069	-81.516	0.260	0.086
-598.055	800.000	0.101	0.417
-597.040	800.000	0.066	-0.208
-596.025	-100.546	0.296	-0.074
-595.011	-200.000	-0.001	0.152
-593.996	225.475	-0.041	-0.067
-592.982	-3.962	-0.053	0.037
-591.967	92.983	-0.166	-0.188
-590.952	-166.804	0.162	0.007
-589.938	-200.000	-0.029	-0.317
-588.923	-191.436	-0.376	-0.004
-587.909	-200.000	-0.032	0.518
-586.894	-116.194	0.216	0.040
-585.879	-200.000	0.041	-0.324
-584.865	-76.287	0.225	0.080
-583.850	210.840	0.121	-0.192
-582.836	-13.402	-0.268	0.175
-581.821	-200.000	0.059	0.327
-580.806	-10.738	0.138	0.091
-579.792	-139.338	-0.408	0.044
-578.777	-17.010	-0.275	0.175
-577.763	-176.349	0.063	0.002
-576.748	-104.812	0.427	0.099
-575.733	-105.446	-0.215	-0.049
-574.719	800.000	0.025	-0.103
-573.704	-41.627	0.225	-0.116
-572.690	-200.000	0.002	0.117
-571.675	351.242	0.103	-0.206
-570.661	32.714	-0.203	0.176
-569.646	-62.706	-0.135	-0.056
-568.631	-132.213	-0.237	-0.031
-567.617	779.005	-0.056	0.154
-566.602	19.060	-0.160	0.129
-565.588	-200.000	0.027	-0.272
-564.573	-151.658	0.398	-0.029
-563.558	-92.588	0.181	0.051
-562.544	-72.939	-0.130	-0.048
-561.529	800.000	0.052	-0.170
-560.515	-142.102	0.111	-0.011
-559.500	-200.000	0.008	-0.319
-558.485	-200.000	-0.043	0.194
-557.471	-5.361	0.234	0.161
-556.456	800.000	-0.063	0.191
-555.442	23.764	-0.044	-0.037
-554.427	-130.163	0.241	0.033
-553.412	254.842	0.071	0.123
-552.398	-42.744	0.251	-0.128
-551.383	-149.829	0.311	0.024
-550.369	-197.712	0.296	0.002
-549.354	316.246	-0.121	-0.229
-548.339	-110.634	-0.125	-0.026
-547.325	800.000	0.074	-0.230
-546.310	-200.000	0.052	0.318
-545.296	247.462	0.037	0.063
-544.281	-21.064	-0.043	0.027
-543.266	357.174	-0.118	0.237
-542.252	-200.000	-0.018	0.535
-541.237	800.000	0.026	-0.110
-540.223	800.000	0.071	0.294
-539.208	-200.000	-0.041	0.314
-538.193	-135.839	-0.203	0.024
-537.179	-200.000	0.035	0.173
-536.164	800.000	0.070	0.229
-535.150	800.000	0.046	-0.164
-534.135	-42.173	0.081	-0.041
-533.121	42.148	-0.242	-0.220
-532.106	-47.796	0.144	-0.070
-531.091	-200.000	0.018	0.088
-530.077	100.622	-0.138	-0.161
-529.062	-114.111	0.161	0.031
-528.048	-184.363	-0.458	-0.008
-527.033	296.882	0.144	-0.265
-526.018	-200.000	-0.032	-0.218
-525.004	160.153	0.060	0.085
-523.989	-200.000	-0.017	-0.216
-522.975	100.442	-0.337	-0.393
-521.960	107.665	0.143	-0.171
-520.945	18.277	0.086	0.069
-519.931	-19.552	-0.214	-0.133
-518.916	-10.371	0.055	-0.037
-517.902	-99.796	-0.041	0.010
-516.887	-66.890	-0.169	0.067
-515.872	28.464	-0.082	-0.069
-514.858	-89.258	0.412	-0.122
-513.843	800.000	0.089	-0.299
-512.829	-4.689	0.067	0.046
-511.814	800.000	-0.160	-0.540
-510.799	-55.656	-0.160	0.072
-509.785	-7.080	0.107	0.073
-508.770	-52.848	0.168	0.078
-507.756	-141.246	0.496	-0.051
-506.741	96.477	-0.248	-0.285
-505.726	-72.270	0.435	0.161
-504.712	-30.931	0.234	0.132
-503.697	787.291	-0.091	-0.251
-502.683	-200.000	-0.004	-0.141
-501.668	-200.000	0.038	0.173
-500.653	-134.798	0.292	0.035
-499.639	-87.052	-0.055	0.017
-498.624	-86.244	-0.164	0.051
-497.610	57.827	0.176	0.172
-496.595	135.244	-0.298	-0.389
-495.581	-10.875	-0.134	0.089
-494.566	-37.580	-0.243	0.130
-493.551	188.373	-0.143	0.215
-492.537	-200.000	-0.025	0.200
-491.522	397.000	-0.076	0.159
-490.508	-107.871	-0.182	-0.040
-489.493	-116.718	-0.155	0.028
-488.478	-76.211	0.091	0.032
-487.464	-129.989	0.021	-0.003
-486.449	180.667	0.034	-0.050
-485.435	-90.188	0.282	0.082
-484.420	-24.802	0.056	0.033
-483.405	-135.087	0.228	-0.028
-482.391	-154.528	-0.355	0.024
-481.376	151.023	0.061	0.082
-480.362	136.890	-0.053	0.069
-479.347	-103.467	-0.051	0.012
-478.332	62.602	0.250	0.251
-477.318	88.520	-0.261	-0.290
-476.303	-200.000	-0.032	0.264
-475.289	-112.240	-0.082	0.016
-474.274	231.250	0.210	-0.344
-473.259	-47.403	-0.070	0.034
-472.245	14.355	0.300	-0.234
-471.230	-140.187	-0.113	0.012
-470.216	-102.473	-0.194	0.047
-469.201	424.257	0.032	-0.069
-468.186	423.651	-0.108	-0.232
-467.172	23.309	-0.212	0.174
-466.157	-200.000	-0.002	0.206
-465.143	229.327	-0.045	-0.073
-464.128	-17.269	0.237	-0.150
-463.113	245.513	0.085	-0.143
-462.099	800.000	-0.051	0.221
-461.084	-89.726	-0.069	-0.020
-460.070	166.314	-0.171	0.243
-459.055	-1.760	-0.277	0.195
-458.040	-15.983	0.146	0.093
-457.026	-57.753	0.165	0.072
-456.011	800.000	0.099	0.280
-454.997	800.000	0.057	0.168
-453.982	187.708	0.050	-0.075
-452.968	800.000	-0.019	-0.062
-451.953	-114.523	-0.432	-0.083
-450.938	80.243	0.207	-0.222
-449.924	-81.829	-0.369	0.121
-448.909	-88.327	-0.156	-0.047
-447.895	-142.596	-0.280	0.027
-446.880	-154.227	-0.051	0.003
-445.865	8.754	0.343	0.258
-444.851	-48.489	0.062	-0.030
-443.836	125.535	0.042	-0.054
-442.822	-37.515	-0.313	-0.167
-441.807	-67.193	-0.217	-0.085
-440.792	800.000	0.011	0.031
-439.778	-200.000	0.003	0.034
-438.763	215.988	-0.114	-0.182
-437.749	800.000	0.079	0.226
-436.734	69.388	0.122	0.126
-435.719	-172.068	0.170	0.006
-434.705	110.763	-0.186	-0.224
-433.690	241.690	-0.097	0.163
-432.676	-168.965	0.183	0.007
-431.661	762.973	0.085	-0.232
-430.646	23.675	0.096	0.079
-429.632	22.507	0.112	0.091
-428.617	-39.990	0.234	-0.122
-427.603	-33.768	-0.316	0.174
-426.588	-28.443	0.125	-0.072
-425.573	42.776	-0.460	0.419
-424.559	800.000	-0.134	-0.426
-423.544	120.981	0.217	-0.269
-422.530	-76.135	0.308	-0.109
-421.515	405.428	-0.031	0.066
-420.500	-53.253	0.162	-0.074
-419.486	-62.157	0.333	-0.139
-418.471	332.330	0.122	0.235
-417.457	-57.978	-0.159	-0.069
-416.442	-10.950	-0.033	0.022
-415.428	50.919	0.127	-0.121
-414.413	4.992	0.214	-0.157
-413.398	-55.655	0.057	-0.026
-412.384	800.000	-0.046	0.164
-411.369	-24.372	0.216	0.129
-410.355	-30.399	0.150	0.085
-409.340	278.317	0.225	0.401
-408.325	227.298	-0.058	0.094
-407.311	-200.000	0.001	-0.115
-406.296	269.683	-0.115	0.201
-405.282	416.548	-0.045	0.095
-404.267	-176.025	-0.214	0.006
-403.252	272.714	-0.168	0.297
-402.238	-2.058	0.060	0.042
-401.223	689.791	-0.046	-0.120
-400.209	23.653	0.028	-0.023
-399.194	-101.655	-0.261	0.063
-398.179	215.343	0.104	0.164
-397.165	42.949	-0.067	-0.061
-396.150	66.407	-0.156	-0.159
-395.136	108.025	0.043	-0.051
-394.121	302.865	-0.126	-0.233
-393.106	92.197	0.045	-0.051
-392.092	-68.258	0.216	-0.084
-391.077	-82.746	-0.177	0.057
-390.063	-106.257	-0.283	0.063
-389.048	-154.506	-0.197	-0.013
-388.033	-74.984	-0.131	-0.047
-387.019	-100.991	0.216	0.053
-386.004	800.000	0.028	-0.090
-384.990	-170.165	0.353	0.012
-383.975	397.205	-0.109	-0.226
-382.960	71.734	-0.140	0.145
-381.946	-136.657	-0.128	-0.015
-380.931	800.000	-0.178	0.521
-379.917	707.220	0.101	-0.267
-378.902	-27.608	0.212	0.123
-377.888	617.430	-0.065	0.163
-376.873	21.326	0.190	-0.154
-375.858	-200.000	0.054	-0.239
-374.844	-141.222	0.384	0.039
-373.829	90.894	0.251	0.281
-372.815	800.000	0.071	-0.268
-371.800	-37.568	0.110	0.059
-370.785	-120.611	-0.362	-0.061
-369.771	348.757	-0.080	-0.157
-368.756	181.896	0.197	-0.289
-367.742	8.849	-0.213	0.160
-366.727	239.836	-0.121	0.201
-365.712	499.430	-0.093	-0.214
-364.698	219.561	-0.119	0.190
-363.683	41.077	0.160	-0.144
-362.669	177.000	-0.198	-0.288
-361.654	87.361	-0.090	0.100
-360.639	-55.759	-0.151	-0.067
-359.625	-75.963	0.269	-0.095
-358.610	163.735	-0.311	-0.436
-357.596	-34.549	0.130	-0.071
-356.581	-142.426	-0.007	-0.001
-355.566	514.200	0.106	0.247
-354.552	89.399	0.212	0.235
-353.537	-200.000	0.066	-0.288
-352.523	-131.686	0.118	-0.015
-351.508	-106.668	0.406	0.090
-350.493	-200.000	-0.054	0.259
-349.479	13.746	-0.107	0.083
-348.464	-71.628	-0.498	-0.185
-347.450	363.707	-0.078	-0.157
-346.435	39.874	-0.269	-0.240
-345.420	237.712	0.230	0.380
-344.406	129.285	0.129	0.164
-343.391	237.109	0.168	-0.278
-342.377	-179.192	-0.128	0.003
-341.362	734.917	0.050	0.134
-340.348	-80.147	0.279	-0.093
-339.333	-113.227	-0.364	-0.071
-338.318	-4.353	-0.104	0.072
-337.304	1.574	-0.035	0.025
-336.289	-200.000	0.002	0.210
-335.275	21.297	-0.270	0.219
-334.260	-200.000	-0.056	-0.351
-333.245	-200.000	-0.017	-0.100
-332.231	-82.599	-0.157	-0.051
-331.216	-134.014	0.161	-0.020
-330.202	800.000	-0.066	0.233
-329.187	-160.189	-0.217	-0.012
-328.172	-52.752	-0.337	0.155
-327.158	-70.249	0.144	0.054
-326.143	-79.338	0.328	-0.111
-325.129	766.075	-0.074	-0.199
-324.114	-117.346	-0.532	0.096
-323.099	800.000	-0.033	-0.119
-322.085	800.000	0.063	0.226
-321.070	-200.000	0.009	0.279
-320.056	-200.000	-0.016	-0.100
-319.041	-200.000	0.010	-0.135
-318.026	654.945	-0.110	0.280
-317.012	800.000	0.059	-0.206
-315.997	-61.419	0.100	0.042
-314.983	-200.000	-0.011	0.124
-313.968	-200.000	0.049	0.344
-312.953	-102.547	-0.246	0.058
-311.939	-200.000	-0.002	0.243
-310.924	33.270	0.093	0.081
-309.910	-114.368	-0.162	0.031
-308.895	-132.725	0.356	0.045
-307.880	-10.382	0.123	0.081
-306.866	213.415	-0.106	0.166
-305.851	291.004	-0.077	0.139
-304.837	2.428	0.267	-0.192
-303.822	-65.420	-0.212	-0.085
-302.807	-200.000	0.042	0.220
-301.793	-87.142	0.112	0.034
-300.778	-82.818	-0.359	0.115
-299.764	-183.498	-0.206	-0.004
-298.749	17.514	0.375	-0.296
-297.735	-18.043	0.128	-0.080
-296.720	346.003	0.093	0.182
-295.705	438.116	-0.026	0.056
-294.691	800.000	-0.069	0.237
-293.676	208.232	-0.088	-0.136
-292.662	-9.345	0.283	-0.188
-291.647	-103.176	0.343	0.081
-290.632	406.958	-0.145	0.305
-289.618	-200.000	0.006	0.267
-288.603	800.000	-0.060	0.256
-287.589	800.000	0.087	-0.268
-286.574	-68.191	-0.138	-0.053
-285.559	185.507	0.171	-0.253
-284.545	-18.120	-0.231	-0.144
-283.530	-80.711	0.190	0.063
-282.516	-94.111	-0.159	0.043
-281.501	85.818	-0.064	0.070
-280.486	-80.920	0.111	0.036
-279.472	-200.000	0.014	0.184
-278.457	-58.761	-0.193	-0.083
-277.443	-200.000	-0.001	-0.192
-276.428	20.133	0.066	0.053
-275.413	800.000	-0.139	-0.418
-274.399	145.607	-0.162	0.216
-273.384	-39.307	0.297	0.155
-272.370	16.549	0.147	-0.115
-271.355	800.000	0.064	-0.184
-270.340	342.454	0.120	0.233
-269.326	54.566	-0.047	-0.045
-268.311	113.522	0.194	0.234
-267.297	760.828	0.004	0.010
-266.282	-200.000	0.005	0.155
-265.267	-112.396	0.290	-0.058
-264.253	63.546	0.112	-0.112
-263.238	-152.632	-0.255	-0.018
-262.224	420.911	0.127	-0.271
-261.209	800.000	0.135	0.453
-260.195	74.853	-0.201	0.210
-259.180	-38.352	0.260	-0.137
-258.165	-58.279	-0.064	0.027
-257.151	551.272	0.116	0.276
-256.136	800.000	-0.054	-0.156
-255.122	517.932	0.129	-0.299
-254.107	-200.000	-0.010	0.263
-253.092	643.496	0.117	0.295
-252.078	-200.000	0.041	-0.245
-251.063	126.467	0.064	-0.081
-250.049	-70.715	0.027	0.010
-249.034	-178.573	-0.193	-0.004
-248.019	-82.442	0.088	0.028
-247.005	-127.399	-0.343	0.050
-245.990	-144.350	0.373	0.034
-244.976	55.752	0.234	0.225
-243.961	34.389	-0.315	0.273
-242.946	405.480	0.070	-0.146
-241.932	280.332	-0.109	-0.193
-240.917	-158.400	0.103	0.006
-239.903	118.966	-0.152	0.187
-238.888	-156.648	-0.119	0.007
-237.873	-23.309	-0.234	0.140
-236.859	0.762	-0.270	0.192
-235.844	-120.797	0.125	-0.021
-234.830	-44.332	0.129	0.064
-233.815	-106.253	-0.519	-0.115
-232.800	800.000	0.005	-0.016
-231.786	-200.000	-0.037	-0.300
-230.771	185.613	-0.234	-0.344
-229.757	-123.471	0.159	-0.025
-228.742	-200.000	0.026	0.128
-227.727	696.968	0.061	-0.160
-226.713	800.000	0.025	-0.091
-225.698	110.963	-0.019	-0.023
-224.684	-200.000	-0.002	0.046
-223.669	-106.378	-0.397	0.088
-222.655	279.309	-0.071	-0.126
-221.640	361.146	-0.157	0.311
-220.625	-71.585	0.274	0.102
-219.611	-144.313	-0.186	-0.017
-218.596	99.243	0.195	-0.224
-217.582	800.000	0.105	0.390
-216.567	800.000	-0.151	0.450
-215.552	108.214	-0.061	0.073
-214.538	2.740	0.264	0.190
-213.523	-88.383	-0.176	0.052
-212.509	-200.000	0.010	-0.143
-211.494	104.385	0.078	-0.091
-210.479	152.391	-0.137	-0.186
-209.465	800.000	-0.167	0.461
-208.450	800.000	-0.050	-0.147
-207.436	651.369	0.083	-0.211
-206.421	560.109	-0.086	-0.206
-205.406	-136.285	-0.334	-0.039
-204.392	2.095	0.064	0.046
-203.377	524.762	0.012	0.029
-202.363	219.031	-0.030	-0.047
-201.348	-117.996	0.153	-0.027
-200.333	-89.544	-0.226	0.066
-199.319	431.315	-0.040	0.085
-198.304	-55.461	-0.094	0.042
-197.290	104.409	-0.082	0.095
-196.275	-86.834	0.283	-0.086
-195.260	-109.432	-0.255	-0.053
-194.246	-200.000	-0.037	-0.312
-193.231	-130.367	0.084	-0.011
-192.217	128.390	0.153	-0.193
-191.202	-14.479	0.070	0.045
-190.187	-120.738	-0.198	-0.033
-189.173	61.385	0.133	0.131
-188.158	85.619	-0.236	0.256
-187.144	-68.709	0.415	0.159
-186.129	362.580	0.041	-0.082
-185.114	-128.972	0.100	0.014
-184.100	50.219	-0.170	-0.159
-183.085	594.232	0.089	-0.219
-182.071	-200.000	-0.053	-0.284
-181.056	-68.362	0.066	0.025
-180.042	800.000	-0.043	-0.162
-179.027	-103.950	0.197	0.046
-178.012	-200.000	0.030	-0.321
-176.998	14.828	-0.525	-0.407
-175.983	183.572	-0.047	0.069
-174.969	408.265	0.099	-0.207
-173.954	64.758	0.354	-0.354
-172.939	186.842	0.188	-0.277
-171.925	16.938	0.276	0.216
-170.910	-112.756	-0.099	0.019
-169.896	478.090	-0.112	0.252
-168.881	800.000	0.038	0.152
-167.866	-145.164	-0.345	-0.031
-166.852	-42.386	-0.465	0.235
-165.837	-135.069	-0.166	0.020
-164.823	-200.000	0.041	-0.238
-163.808	63.283	-0.149	-0.148
-162.793	793.038	-0.139	-0.378
-161.779	-200.000	-0.024	-0.148
-160.764	792.214	0.050	-0.136
-159.750	-200.000	0.000	-0.327
-158.735	758.088	-0.027	0.073
-157.720	800.000	0.059	-0.223
-156.706	-57.137	0.247	0.108
-155.691	-67.211	0.157	0.061
-154.677	33.003	-0.025	0.022
-153.662	-11.142	-0.135	0.088
-152.647	19.892	0.228	-0.182
-151.633	-200.000	0.023	0.358
-150.618	-111.786	0.348	-0.070
-149.604	-0.644	-0.183	0.128
-148.589	89.481	-0.168	-0.185
-147.574	800.000	0.053	0.149
-146.560	91.706	0.127	0.142
-145.545	-41.894	0.324	-0.164
-144.531	-82.521	-0.367	0.118
-143.516	-200.000	-0.004	0.248
-142.502	-200.000	0.042	-0.237
-141.487	-51.977	0.157	-0.072
-140.472	-80.222	-0.195	-0.065
-139.458	-200.000	0.030	0.229
-138.443	61.312	-0.205	-0.202
-137.429	-76.601	-0.137	-0.048
-136.414	51.357	0.358	0.336
-135.399	-157.174	0.269	-0.016
-134.385	-200.000	0.045	-0.208
-133.370	800.000	-0.072	-0.198
-132.356	-200.000	0.057	-0.283
-131.341	-0.493	0.041	0.029
-130.326	800.000	0.047	0.181
-129.312	161.097	-0.222	0.307
-128.297	-200.000	-0.001	-0.180
-127.283	342.068	0.064	0.123
-126.268	800.000	-0.082	0.289
-125.253	55.397	0.032	0.030
-124.239	-89.237	-0.263	-0.077
-123.224	159.363	0.308	0.424
-122.210	800.000	0.015	-0.057
-121.195	-101.931	0.252	0.060
