DTS Sentinel unit serial number:	SN413079Multiplexer serial number:	ORYXHardware model number:	OX4-SRSoftware version number:	ORYX F/W v4.00 Oryx Data Collector v3.7.2.0data status	okinstallation	princeton_trtdifferential loss correction	single-endedforward channel	channel 4reverse channel	N/Adate	2019/09/13time	06:21:35forward acquisition time	60.00reverse acquisition time	0.00gamma	496.2192k internal	0.2324k external	0.2324temperature offset calibration	1.0198default loss term (dB/km)	0.3790temperature slope calibration	1.0000multiplexer offset coefficient	1.0000multiplexer slope coefficient	1.0000fibre end	0.00T internal ref (°C)	26.12T ext. ref 1 (°C)	4.09T ext. ref 2 (°C)	20.81length (m)	temperature (°C)	Stokes	anti-Stokes-747.200	374.451	-0.048	0.099
-746.185	162.062	-0.092	0.129
-745.171	170.186	0.169	0.244
-744.156	-200.000	0.003	0.552
-743.142	736.095	-0.015	0.039
-742.127	234.823	0.075	0.125
-741.112	48.055	0.035	0.033
-740.098	800.000	0.089	0.276
-739.083	800.000	0.019	-0.085
-738.069	-49.491	-0.345	-0.166
-737.054	402.828	-0.033	0.070
-736.039	-121.930	-0.755	-0.125
-735.025	-200.000	0.007	-0.051
-734.010	71.591	-0.273	-0.286
-732.996	-200.000	-0.047	-0.392
-731.981	-200.000	0.041	-0.412
-730.966	-98.113	-0.440	-0.114
-729.952	72.526	-0.371	0.391
-728.937	-153.867	0.227	0.016
-727.923	-51.785	-0.201	0.094
-726.908	98.000	-0.056	0.066
-725.894	-200.000	-0.005	-0.183
-724.879	-14.194	-0.196	-0.128
-723.864	-98.202	0.103	-0.027
-722.850	-109.089	-0.181	0.039
-721.835	278.844	0.137	-0.246
-720.821	127.113	-0.223	-0.285
-719.806	-85.275	-0.288	-0.091
-718.791	-57.616	-0.244	-0.108
-717.777	-200.000	0.016	-0.410
-716.762	367.118	-0.054	-0.110
-715.748	-4.159	0.086	-0.060
-714.733	14.139	-0.118	-0.093
-713.718	255.775	0.207	-0.358
-712.704	-200.000	0.065	-0.312
-711.689	-200.000	-0.028	-0.139
-710.675	333.589	-0.148	0.288
-709.660	17.954	0.222	-0.178
-708.645	51.958	0.075	0.072
-707.631	-122.920	0.333	0.054
-706.616	-140.066	0.281	-0.030
-705.602	407.245	0.103	-0.219
-704.587	-6.300	-0.133	0.092
-703.572	289.967	0.174	0.319
-702.558	-93.894	-0.366	-0.102
-701.543	-56.249	-0.105	0.047
-700.529	-22.111	-0.117	-0.072
-699.514	-31.655	0.062	0.035
-698.499	13.465	-0.248	-0.194
-697.485	-64.433	0.052	0.021
-696.470	-41.331	0.117	0.061
-695.456	-122.897	-0.081	0.013
-694.441	213.724	-0.169	0.270
-693.426	19.599	-0.297	-0.241
-692.412	-27.257	0.098	0.058
-691.397	-200.000	0.005	0.198
-690.383	128.715	-0.175	-0.225
-689.368	-149.736	0.155	-0.012
-688.354	-84.038	0.131	0.042
-687.339	-133.257	0.025	-0.003
-686.324	-30.436	0.229	0.131
-685.310	-200.000	0.018	-0.153
-684.295	-72.092	-0.217	-0.081
-683.281	485.098	0.153	-0.352
-682.266	-153.033	0.097	0.007
-681.251	-200.000	-0.025	-0.153
-680.237	76.718	0.082	0.087
-679.222	88.894	-0.182	-0.204
-678.208	-76.617	0.053	-0.019
-677.193	274.988	0.155	-0.276
-676.178	-21.817	0.139	0.085
-675.164	18.844	0.157	-0.127
-674.149	69.762	-0.209	0.217
-673.135	94.074	-0.104	0.119
-672.120	-200.000	0.035	-0.191
-671.105	251.103	0.106	0.181
-670.091	251.637	0.065	0.111
-669.076	146.971	0.421	-0.570
-668.062	-200.000	-0.023	-0.171
-667.047	-143.504	-0.291	-0.028
-666.032	-178.577	0.194	-0.005
-665.018	-66.622	-0.150	-0.060
-664.003	58.819	-0.035	0.035
-662.989	-3.744	0.338	-0.236
-661.974	-67.520	-0.104	-0.041
-660.959	-64.327	-0.246	-0.101
-659.945	-189.133	0.129	-0.002
-658.930	-18.686	0.213	0.134
-657.916	25.806	-0.158	-0.132
-656.901	182.345	0.062	0.092
-655.886	-59.380	0.135	-0.059
-654.872	800.000	-0.014	0.050
-653.857	-166.814	0.006	0.000
-652.843	-149.075	-0.127	0.010
-651.828	-55.218	-0.362	0.164
-650.814	-200.000	-0.156	-0.001
-649.799	800.000	0.046	-0.202
-648.784	-159.756	0.149	-0.008
-647.770	-19.604	-0.258	-0.161
-646.755	629.238	0.058	0.148
-645.741	-117.530	0.304	-0.055
-644.726	-103.835	-0.121	0.029
-643.711	-123.212	-0.185	-0.030
-642.697	23.767	0.095	-0.079
-641.682	46.719	-0.320	0.299
-640.668	21.271	-0.124	-0.102
-639.653	453.688	0.051	-0.113
-638.638	180.133	-0.176	-0.259
-637.624	-200.000	-0.001	-0.011
-636.609	-200.000	-0.037	0.374
-635.595	-200.000	-0.018	0.101
-634.580	469.926	-0.024	-0.054
-633.565	-146.201	-0.293	0.026
-632.551	-200.000	0.031	0.214
-631.536	-57.515	-0.223	-0.098
-630.522	-79.867	-0.109	-0.037
-629.507	-177.976	-0.362	0.009
-628.492	113.963	0.258	0.315
-627.478	-121.474	0.087	0.015
-626.463	800.000	0.046	0.202
-625.449	-200.000	-0.043	-0.265
-624.434	-200.000	-0.029	-0.285
-623.419	212.215	0.124	0.196
-622.405	178.965	-0.160	0.234
-621.390	800.000	-0.128	-0.356
-620.376	180.577	-0.130	-0.191
-619.361	292.617	-0.169	-0.309
-618.346	-200.000	0.022	0.237
-617.332	29.342	0.265	0.227
-616.317	-86.882	-0.122	0.038
-615.303	46.911	0.117	0.109
-614.288	-55.327	0.110	0.050
-613.273	168.229	0.082	0.117
-612.259	44.126	0.030	-0.028
-611.244	646.265	0.029	-0.074
-610.230	-200.000	-0.007	-0.186
-609.215	800.000	-0.050	-0.197
-608.201	-70.233	0.202	-0.077
-607.186	295.305	0.084	-0.154
-606.171	-200.000	-0.009	-0.264
-605.157	-200.000	-0.011	0.168
-604.142	540.172	-0.124	0.297
-603.128	800.000	-0.063	-0.191
-602.113	310.241	0.073	0.138
-601.098	-162.784	-0.210	-0.010
-600.084	124.439	-0.227	-0.286
-599.069	-200.000	-0.015	-0.114
-598.055	-162.539	-0.094	0.005
-597.040	44.176	0.136	-0.125
-596.025	-43.315	-0.110	0.056
-595.011	-200.000	0.017	-0.232
-593.996	-100.332	-0.216	0.054
-592.982	59.418	0.221	0.219
-591.967	-200.000	0.052	-0.371
-590.952	89.232	-0.163	-0.183
-589.938	64.729	-0.169	-0.171
-588.923	5.419	-0.199	-0.148
-587.909	50.071	0.211	0.200
-586.894	79.310	0.148	-0.159
-585.879	1.544	0.154	0.111
-584.865	-185.716	-0.232	0.003
-583.850	-200.000	0.010	0.210
-582.836	-13.384	-0.339	0.220
-581.821	97.544	-0.125	0.144
-580.806	-2.859	0.093	-0.065
-579.792	-16.619	0.438	-0.278
-578.777	26.353	0.302	0.253
-577.763	-101.550	-0.221	0.054
-576.748	152.572	0.125	-0.171
-575.733	764.613	-0.157	-0.427
-574.719	641.879	-0.101	0.259
-573.704	-140.907	-0.116	-0.012
-572.690	-8.754	-0.074	-0.050
-571.675	-182.740	-0.110	0.002
-570.661	-200.000	-0.004	-0.071
-569.646	71.819	-0.118	0.123
-568.631	-200.000	-0.019	-0.100
-567.617	-107.286	-0.145	-0.032
-566.602	-86.973	0.203	-0.062
-565.588	800.000	-0.030	-0.127
-564.573	26.440	0.090	-0.076
-563.558	66.047	0.103	-0.105
-562.544	-200.000	0.001	-0.088
-561.529	-132.002	0.086	0.011
-560.515	-143.778	0.079	-0.007
-559.500	-72.252	0.384	0.143
-558.485	-129.772	0.256	0.035
-557.471	-114.418	-0.104	-0.020
-556.456	800.000	-0.063	0.217
-555.442	152.685	-0.071	-0.098
-554.427	16.627	-0.312	0.247
-553.412	-96.627	-0.264	0.070
-552.398	-200.000	0.001	0.113
-551.383	-76.871	0.129	0.045
-550.369	3.032	-0.170	0.124
-549.354	44.105	0.075	-0.069
-548.339	6.230	-0.302	0.224
-547.325	-131.191	0.159	-0.021
-546.310	563.498	-0.037	0.089
-545.296	-131.692	0.346	0.046
-544.281	474.109	-0.054	0.122
-543.266	800.000	-0.074	-0.230
-542.252	110.854	0.333	-0.401
-541.237	263.004	0.037	0.065
-540.223	-145.027	-0.413	0.038
-539.208	440.443	0.126	-0.276
-538.193	-59.331	0.067	-0.029
-537.179	157.870	-0.120	0.166
-536.164	148.090	-0.133	-0.179
-535.150	-167.144	0.155	-0.006
-534.135	628.897	-0.155	0.392
-533.121	127.002	0.116	0.148
-532.106	375.786	-0.078	0.159
-531.091	-45.671	-0.223	-0.110
-530.077	228.320	-0.093	0.151
-529.062	-200.000	0.019	0.164
-528.048	-200.000	-0.026	0.136
-527.033	131.418	-0.251	-0.323
-526.018	800.000	0.071	-0.199
-525.004	800.000	-0.142	-0.424
-523.989	-117.952	0.121	-0.022
-522.975	201.824	-0.059	-0.091
-521.960	-32.961	-0.057	0.032
-520.945	-200.000	-0.025	-0.211
-519.931	-200.000	0.020	0.183
-518.916	8.141	-0.123	0.093
-517.902	10.045	-0.308	0.234
-516.887	-98.712	-0.036	-0.009
-515.872	-83.750	0.312	0.100
-514.858	-51.198	0.395	-0.185
-513.843	-94.531	0.399	0.109
-512.829	-37.819	0.051	0.027
-511.814	-3.324	-0.252	0.176
-510.799	-200.000	-0.043	0.317
-509.785	-40.220	0.061	-0.032
-508.770	-106.165	0.114	-0.026
-507.756	-34.267	-0.276	-0.151
-506.741	92.668	0.084	0.094
-505.726	-186.543	-0.088	-0.001
-504.712	-200.000	-0.058	0.311
-503.697	501.053	-0.153	0.354
-502.683	-200.000	-0.010	-0.338
-501.668	166.474	-0.139	0.197
-500.653	248.542	-0.116	0.197
-499.639	-200.000	-0.038	0.323
-498.624	-88.691	0.248	0.074
-497.610	60.091	0.170	0.168
-496.595	21.341	-0.025	0.021
-495.581	55.750	0.064	-0.062
-494.566	16.943	0.065	-0.051
-493.551	-79.830	0.407	0.137
-492.537	-200.000	0.019	-0.273
-491.522	181.103	-0.035	0.051
-490.508	598.124	-0.034	0.085
-489.493	-112.421	0.317	-0.063
-488.478	18.141	-0.041	-0.033
-487.464	800.000	0.012	-0.032
-486.449	79.719	0.044	0.047
-485.435	364.607	0.074	-0.150
-484.420	617.097	-0.055	0.139
-483.405	-200.000	0.053	0.292
-482.391	-120.838	-0.044	0.007
-481.376	-15.586	0.111	0.071
-480.362	641.014	-0.130	0.331
-479.347	-79.911	0.169	-0.057
-478.332	-19.691	0.218	-0.135
-477.318	-190.979	-0.178	0.002
-476.303	234.803	-0.017	-0.027
-475.289	174.650	-0.168	-0.243
-474.274	800.000	0.028	-0.100
-473.259	50.141	-0.187	-0.177
-472.245	25.475	0.208	-0.173
-471.230	-24.023	0.217	-0.130
-470.216	53.106	-0.125	-0.120
-469.201	165.066	0.246	0.347
-468.186	34.218	0.109	0.095
-467.172	-60.085	-0.186	0.079
-466.157	-133.935	0.341	0.042
-465.143	121.963	-0.296	-0.369
-464.128	-60.826	0.119	-0.050
-463.113	-93.228	0.208	0.058
-462.099	-7.286	0.216	0.146
-461.084	-200.000	0.056	-0.260
-460.070	-200.000	0.010	0.158
-459.055	-67.268	0.147	-0.058
-458.040	-200.000	-0.016	-0.082
-457.026	111.287	0.170	0.205
-456.011	360.131	-0.104	0.207
-454.997	332.051	0.106	-0.204
-453.982	-200.000	0.072	-0.324
-452.968	42.650	-0.245	-0.223
-451.953	-63.606	-0.149	0.061
-450.938	-69.466	-0.095	0.036
-449.924	-200.000	0.014	0.117
-448.909	39.949	0.246	0.221
-447.895	-112.666	0.225	-0.045
-446.880	-140.685	-0.404	0.042
-445.865	11.155	-0.297	-0.227
-444.851	69.096	-0.123	0.126
-443.836	-64.377	-0.340	-0.138
-442.822	-154.163	0.383	-0.026
-441.807	1.162	0.129	-0.092
-440.792	529.417	-0.174	-0.410
-439.778	-163.645	0.234	0.011
-438.763	-200.000	0.054	-0.460
-437.749	-72.157	-0.172	0.063
-436.734	-99.581	-0.284	-0.071
-435.719	170.529	-0.093	0.133
-434.705	280.812	-0.035	-0.062
-433.690	-57.300	-0.226	-0.099
-432.676	477.790	0.074	-0.168
-431.661	-200.000	0.038	-0.274
-430.646	109.463	0.227	-0.271
-429.632	119.259	0.238	0.294
-428.617	800.000	-0.070	0.254
-427.603	-21.604	0.057	-0.035
-426.588	-139.885	0.349	0.037
-425.573	-200.000	-0.016	-0.207
-424.559	71.136	-0.142	0.147
-423.544	-74.739	-0.067	0.024
-422.530	73.077	-0.054	0.057
-421.515	91.634	-0.076	0.085
-420.500	65.249	0.140	-0.141
-419.486	-22.531	0.076	-0.046
-418.471	26.098	-0.133	-0.111
-417.457	-60.917	-0.145	0.061
-416.442	800.000	0.119	0.357
-415.428	-200.000	-0.002	0.109
-414.413	140.986	-0.080	-0.106
-413.398	-200.000	-0.020	-0.260
-412.384	514.138	0.067	0.157
-411.369	-61.149	-0.248	0.104
-410.355	-124.762	0.074	0.011
-409.340	800.000	0.083	-0.279
-408.325	163.107	0.083	0.117
-407.311	-200.000	0.013	0.065
-406.296	47.769	-0.061	0.056
-405.282	-200.000	0.017	0.249
-404.267	95.733	0.219	-0.249
-403.252	40.591	0.273	0.245
-402.238	-200.000	-0.040	0.222
-401.223	-24.031	0.178	0.106
-400.209	-99.038	0.088	-0.022
-399.194	-30.507	-0.070	0.040
-398.179	115.288	0.091	-0.111
-397.165	-100.832	-0.343	0.084
-396.150	276.436	-0.058	0.103
-395.136	-200.000	-0.002	-0.156
-394.121	-72.930	-0.341	0.125
-393.106	800.000	0.031	-0.087
-392.092	-73.794	0.023	-0.008
-391.077	3.017	-0.126	-0.091
-390.063	-17.713	-0.041	0.026
-389.048	435.951	-0.101	-0.219
-388.033	-12.121	-0.224	-0.146
-387.019	-94.092	0.431	-0.118
-386.004	-84.345	-0.334	-0.105
-384.990	-96.384	0.156	0.041
-383.975	-145.662	-0.321	0.029
-382.960	651.454	0.131	0.333
-381.946	145.039	0.161	-0.214
-380.931	607.373	0.073	0.182
-379.917	800.000	-0.012	0.042
-378.902	-200.000	-0.020	0.104
-377.888	123.868	-0.104	-0.130
-376.873	18.628	-0.247	0.197
-375.858	403.572	0.069	0.144
-374.844	725.458	-0.073	-0.194
-373.829	133.909	0.190	-0.245
-372.815	-156.008	0.236	-0.015
-371.800	-28.257	0.220	-0.126
-370.785	800.000	0.108	0.349
-369.771	800.000	-0.078	0.221
-368.756	4.413	-0.099	-0.072
-367.742	-200.000	0.005	-0.023
-366.727	-200.000	-0.041	-0.181
-365.712	101.563	0.184	0.213
-364.698	-200.000	-0.009	0.128
-363.683	-164.915	0.051	-0.002
-362.669	22.085	-0.293	-0.238
-361.654	116.498	-0.153	-0.186
-360.639	-118.690	0.087	0.015
-359.625	-128.635	0.131	0.018
-358.610	800.000	-0.033	-0.096
-357.596	-86.100	0.162	0.050
-356.581	346.887	-0.057	0.111
-355.566	-55.376	-0.102	0.046
-354.552	-101.684	-0.240	-0.058
-353.537	-171.164	0.081	-0.003
-352.523	-4.942	-0.211	-0.144
-351.508	406.726	0.080	-0.168
-350.493	1.050	-0.017	-0.012
-349.479	-200.000	-0.040	-0.189
-348.464	161.766	0.077	0.107
-347.450	98.547	-0.042	0.048
-346.435	-200.000	-0.019	0.175
-345.420	-200.000	-0.075	-0.348
-344.406	5.210	0.066	0.048
-343.391	78.471	0.231	0.246
-342.377	-183.688	0.327	0.006
-341.362	800.000	-0.049	0.181
-340.348	204.326	0.024	-0.038
-339.333	800.000	-0.070	0.199
-338.318	506.195	0.031	-0.071
-337.304	174.147	0.159	-0.228
-336.289	800.000	-0.051	-0.146
-335.275	31.535	-0.086	0.073
-334.260	47.358	0.184	-0.170
-333.245	510.419	0.069	0.160
-332.231	161.581	0.232	0.322
-331.216	43.547	0.115	0.105
-330.202	-151.678	0.096	-0.007
-329.187	-200.000	0.010	-0.181
-328.172	-200.000	-0.011	-0.163
-327.158	-167.479	-0.080	-0.003
-326.143	21.295	0.167	0.134
-325.129	172.247	-0.170	0.243
-324.114	21.446	0.026	0.021
-323.099	794.404	-0.052	0.141
-322.085	-81.869	-0.334	-0.108
-321.070	-94.269	-0.119	0.032
-320.056	-79.757	-0.247	-0.082
-319.041	336.583	0.103	0.199
-318.026	-133.228	0.345	-0.043
-317.012	-200.000	-0.065	0.318
-315.997	-78.263	0.314	0.107
-314.983	800.000	-0.026	0.081
-313.968	73.882	0.270	0.281
-312.953	-153.778	0.066	-0.005
-311.939	-200.000	-0.047	-0.307
-310.924	-200.000	-0.002	-0.041
-309.910	10.900	0.118	0.089
-308.895	375.932	-0.042	-0.086
-307.880	800.000	-0.096	-0.332
-306.866	-200.000	0.041	-0.353
-305.851	-94.877	-0.208	-0.056
-304.837	-200.000	-0.018	-0.436
-303.822	576.712	0.023	-0.055
-302.807	44.414	0.129	0.118
-301.793	10.889	-0.090	-0.069
-300.778	40.753	-0.124	-0.111
-299.764	19.368	0.128	0.102
-298.749	237.625	0.056	-0.092
-297.735	8.632	-0.381	-0.285
-296.720	37.832	0.258	0.227
-295.705	800.000	0.100	0.304
-294.691	190.019	-0.240	-0.357
-293.676	-106.720	-0.265	-0.058
-292.662	-200.000	0.065	-0.386
-291.647	-112.137	-0.011	0.002
-290.632	800.000	0.185	0.527
-289.618	-200.000	-0.039	-0.325
-288.603	-200.000	-0.003	-0.181
-287.589	8.172	-0.267	-0.199
-286.574	-184.374	0.460	-0.007
-285.559	800.000	0.113	-0.414
-284.545	76.134	0.208	-0.218
-283.530	-87.883	0.093	-0.028
-282.516	-140.773	-0.046	-0.005
-281.501	-200.000	-0.047	-0.410
-280.486	-111.493	0.174	-0.035
-279.472	193.487	0.094	0.140
-278.457	-159.552	0.109	0.006
-277.443	318.215	0.141	0.264
-276.428	499.848	-0.122	-0.279
-275.413	800.000	-0.027	-0.115
-274.399	800.000	0.119	0.332
-273.384	2.954	0.172	-0.124
-272.370	-1.635	0.301	0.210
-271.355	266.548	0.149	0.258
-270.340	-93.168	0.299	-0.082
-269.326	800.000	0.045	0.177
-268.311	510.563	0.099	0.229
-267.297	-200.000	0.025	0.237
-266.282	-200.000	-0.029	-0.199
-265.267	-70.636	-0.368	0.138
-264.253	303.319	-0.048	0.087
-263.238	41.585	-0.091	-0.081
-262.224	-75.361	0.141	0.050
-261.209	-67.219	-0.151	0.059
-260.195	-18.825	-0.239	0.147
-259.180	-107.880	-0.089	0.019
-258.165	-129.695	-0.216	0.029
-257.151	800.000	0.085	0.269
-256.136	676.567	0.106	0.273
-255.122	800.000	-0.080	-0.248
-254.107	-71.280	0.159	-0.059
-253.092	-200.000	0.011	0.118
-252.078	107.894	0.225	-0.266
-251.063	-120.837	-0.387	0.065
-250.049	-200.000	0.046	0.363
-249.034	64.387	-0.057	0.057
-248.019	84.776	0.115	-0.125
-247.005	39.515	-0.341	0.302
-245.990	749.210	-0.048	0.127
-244.976	800.000	0.117	0.391
-243.961	110.576	-0.112	0.133
-242.946	61.178	-0.249	0.244
-241.932	800.000	-0.050	0.151
-240.917	-80.431	-0.313	-0.104
-239.903	-200.000	-0.019	-0.243
-238.888	-77.805	0.160	-0.055
-237.873	685.183	0.081	-0.208
-236.859	-37.915	0.050	-0.026
-235.844	-89.043	-0.151	0.044
-234.830	-35.684	0.108	0.058
-233.815	-197.422	-0.274	-0.002
-232.800	85.894	0.180	0.196
-231.786	-131.721	0.048	-0.006
-230.771	-200.000	-0.223	-0.001
-229.757	152.438	-0.301	-0.407
-228.742	458.289	-0.038	0.083
-227.727	-85.012	-0.339	-0.105
-226.713	-76.574	0.251	-0.087
-225.698	43.306	-0.044	-0.040
-224.684	-63.030	0.140	0.057
-223.669	-83.132	0.484	0.154
-222.655	-171.990	-0.215	-0.007
-221.640	185.810	0.058	0.086
-220.625	-56.179	-0.311	0.137
-219.611	-200.000	0.032	0.149
-218.596	-109.309	0.314	0.066
-217.582	-60.751	-0.063	0.026
-216.567	211.787	-0.145	-0.227
-215.552	0.614	-0.121	-0.086
-214.538	74.314	0.220	0.229
-213.523	-46.769	-0.292	0.141
-212.509	335.476	0.163	-0.312
-211.494	800.000	-0.098	-0.423
-210.479	-12.401	-0.192	-0.124
-209.465	163.077	0.245	-0.340
-208.450	-98.873	0.107	-0.027
-207.436	800.000	-0.095	-0.261
-206.421	-67.650	-0.162	-0.063
-205.406	-183.141	0.122	-0.002
-204.392	172.714	0.005	0.007
-203.377	-149.799	0.102	0.008
-202.363	171.250	-0.063	0.090
-201.348	34.055	-0.137	-0.118
-200.333	520.837	-0.153	-0.355
-199.319	800.000	-0.134	0.452
-198.304	-200.000	-0.002	0.129
-197.290	-31.337	0.152	0.084
-196.275	35.392	-0.096	-0.083
-195.260	-22.968	-0.072	-0.043
-194.246	131.662	-0.239	0.304
-193.231	168.254	0.194	-0.272
-192.217	59.620	-0.105	0.102
-191.202	-64.041	0.103	0.042
-190.187	-71.853	0.368	0.135
-189.173	-200.000	0.040	0.390
-188.158	-200.000	-0.011	0.107
-187.144	167.331	-0.149	0.210
-186.129	-200.000	0.024	0.323
-185.114	255.454	0.076	0.129
-184.100	-74.990	0.070	-0.025
-183.085	-17.642	0.373	-0.231
-182.071	-40.315	0.225	-0.116
-181.056	134.565	-0.226	0.290
-180.042	299.329	-0.103	-0.188
-179.027	-200.000	0.046	0.217
-178.012	59.606	0.081	0.079
-176.998	47.485	-0.165	0.152
-175.983	35.619	-0.148	-0.129
-174.969	-200.000	0.020	0.235
-173.954	-96.668	-0.251	-0.065
-172.939	42.799	-0.181	0.163
-171.925	-78.144	0.135	-0.046
-170.910	377.826	0.150	-0.304
-169.896	800.000	0.041	0.138
-168.881	-3.974	-0.342	-0.234
-167.866	-2.155	0.130	-0.090
-166.852	-60.803	0.236	0.099
-165.837	-200.000	-0.028	0.162
-164.823	-200.000	-0.005	-0.089
-163.808	-113.990	0.295	-0.057
-162.793	-56.444	-0.237	-0.104
-161.779	19.433	0.136	0.108
-160.764	-102.567	0.090	0.021
-159.750	147.258	-0.124	-0.164
-158.735	-200.000	0.028	0.126
-157.720	-176.482	0.358	-0.009
-156.706	-152.775	-0.181	0.013
-155.691	-58.579	0.108	0.046
-154.677	-25.884	0.153	-0.089
-153.662	629.066	-0.101	0.252
-152.647	-200.000	-0.006	-0.151
-151.633	800.000	0.043	-0.183
-150.618	-200.000	0.017	0.146
-149.604	201.972	-0.239	0.363
-148.589	-88.709	-0.145	0.042
-147.574	70.813	0.138	0.141
-146.560	48.228	0.173	0.160
-145.545	-200.000	0.002	-0.143
-144.531	-116.593	0.056	-0.010
-143.516	323.257	0.038	-0.072
-142.502	-8.146	0.147	0.097
-141.487	-143.171	0.057	0.005
-140.472	290.754	-0.043	-0.077
-139.458	-133.477	-0.059	0.007
-138.443	46.244	0.095	-0.087
-137.429	800.000	0.038	-0.122
-136.414	-200.000	0.003	0.110
-135.399	6.818	0.263	0.193
-134.385	-45.330	0.227	-0.111
-133.370	37.103	-0.172	0.150
-132.356	-134.157	-0.249	-0.030
-131.341	317.658	0.143	0.267
-130.326	-173.269	0.323	-0.010
-129.312	-9.991	0.063	-0.041
-128.297	349.963	0.173	0.337
-127.283	-138.712	-0.290	0.031
-126.268	-115.320	0.141	0.026
-125.253	800.000	0.084	0.286
-124.239	-200.000	0.061	0.337
-123.224	579.889	0.128	0.308
-122.210	800.000	0.010	-0.030
-121.195	160.663	-0.240	0.330
-120.180	599.359	0.046	0.112
