DTS Sentinel unit serial number:	SN413079Multiplexer serial number:	ORYXHardware model number:	OX4-SRSoftware version number:	ORYX F/W v4.00 Oryx Data Collector v3.7.2.0data status	okinstallation	princeton_trtdifferential loss correction	single-endedforward channel	channel 4reverse channel	N/Adate	2019/09/14time	01:53:35forward acquisition time	60.00reverse acquisition time	0.00gamma	496.2192k internal	0.2323k external	0.2323temperature offset calibration	1.0131default loss term (dB/km)	0.3790temperature slope calibration	1.0000multiplexer offset coefficient	1.0000multiplexer slope coefficient	1.0000fibre end	0.00T internal ref (°C)	26.44T ext. ref 1 (°C)	3.21T ext. ref 2 (°C)	21.52length (m)	temperature (°C)	Stokes	anti-Stokes-747.200	100.587	0.132	-0.154
-746.185	375.914	0.057	0.118
-745.171	-105.421	-0.229	0.053
-744.156	-200.000	0.050	0.285
-743.142	96.975	0.139	0.161
-742.127	180.253	0.125	-0.184
-741.112	-88.321	-0.217	-0.066
-740.098	681.276	-0.094	0.246
-739.083	-200.000	0.037	0.000
-738.069	-68.111	-0.241	-0.095
-737.054	5.537	0.286	-0.213
-736.039	37.647	-0.411	0.368
-735.025	-75.101	-0.114	-0.041
-734.010	494.727	-0.135	-0.313
-732.996	-200.000	-0.001	-0.297
-731.981	96.351	0.067	-0.078
-730.966	-133.524	-0.314	-0.040
-729.952	-70.110	-0.556	-0.214
-728.937	276.224	-0.164	-0.295
-727.923	-101.936	0.110	-0.027
-726.908	46.190	-0.319	-0.299
-725.894	-115.353	-0.175	-0.033
-724.879	-125.587	-0.193	0.030
-723.864	-73.665	-0.215	0.079
-722.850	142.999	0.119	0.159
-721.835	800.000	0.150	0.452
-720.821	328.487	-0.068	-0.131
-719.806	-200.000	0.073	0.390
-718.791	800.000	0.027	0.097
-717.777	-200.000	-0.034	0.313
-716.762	800.000	0.016	0.053
-715.748	-60.396	-0.323	-0.139
-714.733	-91.210	-0.156	-0.045
-713.718	-53.001	0.068	0.032
-712.704	-200.000	-0.006	-0.256
-711.689	-154.895	0.037	0.002
-710.675	-200.000	-0.059	-0.309
-709.660	-36.707	0.114	-0.062
-708.645	-77.244	0.178	0.063
-707.631	8.476	0.107	-0.081
-706.616	-49.556	-0.190	-0.091
-705.602	-140.590	0.232	-0.024
-704.587	-137.401	-0.169	-0.019
-703.572	-200.000	0.009	-0.163
-702.558	-85.452	-0.126	0.040
-701.543	-58.180	0.088	-0.039
-700.529	800.000	-0.057	0.253
-699.514	133.338	0.265	-0.346
-698.499	-173.872	-0.122	-0.004
-697.485	277.617	0.093	-0.167
-696.470	-98.798	0.229	0.059
-695.456	-49.051	-0.024	0.012
-694.441	105.394	0.195	-0.232
-693.426	412.056	0.127	-0.273
-692.412	47.920	-0.084	-0.079
-691.397	-195.768	0.155	0.001
-690.383	-200.000	0.018	0.258
-689.368	-17.747	0.299	-0.189
-688.354	326.166	0.082	-0.157
-687.339	-200.000	0.011	-0.339
-686.324	-8.602	-0.216	-0.146
-685.310	545.753	-0.044	-0.105
-684.295	257.811	-0.064	0.111
-683.281	-200.000	0.032	0.336
-682.266	62.978	-0.154	-0.156
-681.251	-165.563	-0.106	-0.005
-680.237	-7.138	0.118	-0.080
-679.222	800.000	0.053	-0.181
-678.208	134.773	0.088	-0.115
-677.193	161.766	-0.235	0.332
-676.178	627.412	0.015	0.038
-675.164	15.314	0.246	-0.194
-674.149	311.877	-0.109	-0.207
-673.135	-1.349	0.166	0.118
-672.120	107.421	-0.118	0.142
-671.105	-12.833	0.159	0.104
-670.091	-200.000	0.050	0.488
-669.076	200.095	-0.139	-0.215
-668.062	-200.000	0.003	-0.429
-667.047	-60.056	-0.421	0.181
-666.032	288.808	0.102	0.186
-665.018	121.284	-0.105	-0.131
-664.003	-153.183	0.375	0.026
-662.989	95.978	-0.016	-0.019
-661.974	800.000	-0.096	-0.397
-660.959	-113.071	0.292	0.058
-659.945	-200.000	-0.015	-0.284
-658.930	43.795	0.088	0.081
-657.916	296.776	0.235	-0.433
-656.901	800.000	0.065	0.195
-655.886	21.301	0.064	0.052
-654.872	680.978	-0.050	0.132
-653.857	800.000	0.096	0.274
-652.843	172.072	-0.121	-0.175
-651.828	-200.000	-0.020	-0.320
-650.814	-98.142	0.188	-0.049
-649.799	557.492	-0.042	-0.102
-648.784	800.000	0.039	-0.141
-647.770	107.711	-0.106	0.127
-646.755	-200.000	-0.013	-0.172
-645.741	109.250	-0.213	-0.257
-644.726	124.086	-0.174	-0.220
-643.711	-200.000	-0.008	0.146
-642.697	-24.596	0.241	0.144
-641.682	-58.339	0.096	-0.042
-640.668	-92.924	0.075	0.021
-639.653	366.874	0.045	-0.092
-638.638	38.840	-0.212	0.190
-637.624	-189.366	0.069	0.001
-636.609	339.442	-0.058	-0.113
-635.595	715.733	0.010	-0.027
-634.580	-200.000	-0.019	-0.143
-633.565	-200.000	-0.030	0.174
-632.551	84.381	-0.264	-0.290
-631.536	115.359	-0.191	0.234
-630.522	800.000	0.089	0.252
-629.507	31.883	0.175	-0.152
-628.492	-29.757	0.134	-0.077
-627.478	-113.024	0.319	-0.063
-626.463	158.063	0.062	0.086
-625.449	-75.898	-0.171	0.061
-624.434	-200.000	-0.002	-0.102
-623.419	-172.218	-0.379	-0.012
-622.405	300.698	-0.062	0.114
-621.390	-88.591	0.379	0.113
-620.376	66.748	0.183	-0.187
-619.361	209.168	-0.144	0.226
-618.346	-200.000	0.011	0.103
-617.332	163.812	0.121	-0.172
-616.317	-200.000	0.002	-0.147
-615.303	-200.000	-0.026	-0.334
-614.288	-32.922	-0.174	0.097
-613.273	-31.333	0.277	-0.157
-612.259	-11.152	0.196	0.130
-611.244	103.485	0.156	0.184
-610.230	-200.000	-0.021	0.158
-609.215	-171.982	-0.189	0.006
-608.201	800.000	0.042	0.137
-607.186	-84.249	-0.210	-0.067
-606.171	800.000	0.062	0.178
-605.157	800.000	0.021	-0.083
-604.142	88.936	-0.228	0.255
-603.128	664.735	0.089	0.231
-602.113	-123.803	-0.110	-0.017
-601.098	82.015	-0.158	0.172
-600.084	-200.000	0.068	0.356
-599.069	-44.171	-0.276	-0.139
-598.055	-200.000	-0.013	0.302
-597.040	-115.830	0.168	-0.031
-596.025	-200.000	-0.029	-0.286
-595.011	-200.000	-0.054	-0.286
-593.996	-200.000	0.004	-0.273
-592.982	-153.099	-0.308	-0.022
-591.967	-64.235	-0.225	-0.092
-590.952	-200.000	0.075	-0.349
-589.938	114.956	-0.112	0.138
-588.923	403.312	-0.153	-0.323
-587.909	-93.873	-0.258	-0.071
-586.894	-100.027	0.495	-0.124
-585.879	80.994	0.006	-0.006
-584.865	0.723	-0.364	-0.262
-583.850	-77.342	0.099	-0.035
-582.836	-95.183	-0.219	-0.059
-581.821	-46.339	-0.275	-0.136
-580.806	-200.000	-0.028	-0.228
-579.792	303.323	0.095	0.178
-578.777	-76.932	-0.212	0.074
-577.763	219.785	0.218	0.350
-576.748	-76.287	0.386	0.136
-575.733	576.273	-0.030	-0.074
-574.719	732.079	-0.072	0.193
-573.704	-98.055	0.142	0.037
-572.690	-200.000	0.007	0.337
-571.675	-113.606	-0.065	-0.013
-570.661	-30.206	0.214	0.122
-569.646	173.607	0.083	-0.120
-568.631	-100.616	0.334	0.083
-567.617	800.000	-0.073	-0.259
-566.602	800.000	0.050	0.187
-565.588	323.875	0.170	0.326
-564.573	800.000	-0.031	0.088
-563.558	352.355	0.095	-0.188
-562.544	-47.172	-0.029	-0.014
-561.529	320.055	0.087	-0.166
-560.515	-91.734	0.057	0.016
-559.500	-43.757	0.214	-0.108
-558.485	800.000	-0.082	-0.291
-557.471	50.624	0.231	-0.219
-556.456	255.161	-0.169	-0.290
-555.442	-58.842	0.387	0.168
-554.427	127.233	-0.049	0.062
-553.412	-200.000	0.007	0.258
-552.398	-78.432	0.203	-0.070
-551.383	105.239	-0.220	-0.261
-550.369	744.804	0.053	0.143
-549.354	-200.000	0.011	0.312
-548.339	746.006	0.112	-0.302
-547.325	134.624	0.160	0.207
-546.310	-25.985	0.155	0.092
-545.296	7.598	0.319	0.239
-544.281	-200.000	-0.055	-0.451
-543.266	240.838	0.038	0.064
-542.252	-200.000	0.021	0.288
-541.237	-198.586	-0.120	0.001
-540.223	243.354	0.136	0.228
-539.208	-149.399	0.284	0.023
-538.193	-125.873	0.015	0.002
-537.179	180.880	0.111	-0.163
-536.164	-139.968	0.240	0.025
-535.150	-65.273	-0.271	0.109
-534.135	800.000	0.060	-0.176
-533.121	800.000	-0.028	-0.103
-532.106	-200.000	-0.017	-0.441
-531.091	-56.657	0.317	-0.140
-530.077	-88.165	0.271	-0.081
-529.062	-200.000	0.011	-0.147
-528.048	134.127	0.125	0.162
-527.033	-177.604	0.088	-0.002
-526.018	-28.749	-0.114	0.065
-525.004	-200.000	0.026	0.140
-523.989	-200.000	0.039	0.230
-522.975	-200.000	0.005	-0.349
-521.960	800.000	-0.077	0.260
-520.945	-50.890	-0.151	-0.071
-519.931	55.530	0.107	0.104
-518.916	65.988	-0.272	-0.276
-517.902	-200.000	0.049	-0.257
-516.887	136.967	0.159	-0.208
-515.872	-35.967	-0.168	-0.091
-514.858	-38.452	-0.051	0.027
-513.843	-37.810	0.069	0.037
-512.829	187.003	-0.142	0.211
-511.814	241.270	-0.109	-0.183
-510.799	-33.947	-0.140	0.077
-509.785	279.474	-0.072	0.129
-508.770	800.000	0.033	0.123
-507.756	0.210	0.039	-0.028
-506.741	-25.987	-0.208	0.122
-505.726	-200.000	0.002	-0.085
-504.712	-200.000	-0.065	-0.421
-503.697	-200.000	-0.018	0.099
-502.683	-200.000	0.035	0.282
-501.668	319.347	0.134	0.254
-500.653	8.886	0.219	-0.165
-499.639	57.210	-0.074	-0.072
-498.624	-36.468	0.209	-0.112
-497.610	480.223	0.130	-0.296
-496.595	-43.078	0.095	0.048
-495.581	375.852	-0.106	-0.216
-494.566	607.144	0.068	0.169
-493.551	-143.168	-0.333	-0.032
-492.537	-200.000	0.041	-0.306
-491.522	-50.838	0.238	-0.112
-490.508	-7.613	-0.279	0.188
-489.493	-55.223	-0.168	-0.076
-488.478	-200.000	0.011	-0.084
-487.464	-161.389	-0.162	0.008
-486.449	5.268	0.156	0.115
-485.435	194.201	-0.058	-0.088
-484.420	243.583	-0.068	0.114
-483.405	-200.000	-0.062	0.304
-482.391	489.259	-0.017	-0.040
-481.376	49.741	-0.215	-0.202
-480.362	-139.570	0.356	-0.038
-479.347	800.000	0.029	-0.120
-478.332	800.000	0.017	-0.062
-477.318	397.879	0.100	-0.209
-476.303	135.204	-0.062	0.081
-475.289	129.329	0.035	-0.044
-474.274	679.821	-0.056	-0.147
-473.259	-135.500	-0.338	0.040
-472.245	70.646	-0.076	-0.079
-471.230	-41.618	-0.294	-0.151
-470.216	-118.936	0.058	0.010
-469.201	-195.707	0.195	-0.001
-468.186	-200.000	0.017	0.120
-467.172	-66.698	0.075	0.030
-466.157	143.503	-0.088	0.117
-465.143	179.852	0.096	-0.141
-464.128	-55.400	-0.225	-0.101
-463.113	7.061	-0.147	0.109
-462.099	102.034	-0.050	-0.059
-461.084	800.000	0.064	0.179
-460.070	-94.148	0.106	-0.029
-459.055	-200.000	-0.048	0.218
-458.040	-124.343	0.128	0.020
-457.026	508.996	0.092	0.214
-456.011	-13.900	-0.203	-0.131
-454.997	-200.000	0.051	0.438
-453.982	441.969	0.153	0.335
-452.968	800.000	0.021	0.072
-451.953	44.710	0.201	-0.185
-450.938	183.592	0.047	0.069
-449.924	200.106	-0.215	0.329
-448.909	722.274	-0.072	0.190
-447.895	13.004	-0.228	-0.176
-446.880	71.276	-0.109	0.112
-445.865	-200.000	-0.015	-0.271
-444.851	229.072	-0.223	0.363
-443.836	-102.816	-0.346	0.082
-442.822	-200.000	-0.024	-0.115
-441.807	89.560	-0.069	0.077
-440.792	-200.000	0.082	0.409
-439.778	-200.000	-0.048	-0.264
-438.763	-19.990	-0.198	-0.122
-437.749	-73.700	0.193	-0.070
-436.734	-123.589	-0.328	0.052
-435.719	139.539	0.117	-0.153
-434.705	-200.000	-0.035	-0.295
-433.690	82.461	-0.056	-0.061
-432.676	89.526	-0.151	0.168
-431.661	2.872	-0.104	0.076
-430.646	-65.146	0.129	-0.052
-429.632	146.664	0.061	-0.081
-428.617	-90.287	0.146	-0.042
-427.603	-7.566	0.162	0.109
-426.588	136.425	-0.119	0.155
-425.573	118.950	0.032	-0.039
-424.559	115.540	0.150	0.183
-423.544	800.000	0.013	-0.050
-422.530	166.307	-0.176	0.249
-421.515	-200.000	-0.016	-0.185
-420.500	179.534	-0.222	-0.324
-419.486	93.179	0.115	-0.130
-418.471	-200.000	0.016	-0.282
-417.457	-200.000	-0.046	-0.262
-416.442	-112.405	-0.342	0.068
-415.428	43.571	-0.073	-0.067
-414.413	-61.112	-0.118	-0.050
-413.398	23.212	-0.155	-0.127
-412.384	-30.774	-0.098	0.055
-411.369	800.000	0.019	0.062
-410.355	233.802	-0.161	-0.264
-409.340	-200.000	-0.003	-0.146
-408.325	-90.150	0.305	-0.088
-407.311	266.322	0.118	-0.206
-406.296	-31.895	-0.039	0.022
-405.282	-49.420	0.097	-0.046
-404.267	-200.000	0.025	-0.218
-403.252	-55.575	0.228	0.102
-402.238	800.000	0.058	-0.253
-401.223	6.995	0.031	0.023
-400.209	277.738	0.016	0.029
-399.194	-50.461	0.200	-0.094
-398.179	241.767	0.226	0.377
-397.165	79.756	0.235	-0.252
-396.150	597.919	-0.063	-0.156
-395.136	144.603	0.066	-0.087
-394.121	104.164	-0.026	-0.030
-393.106	-8.065	0.174	-0.117
-392.092	114.334	0.024	-0.029
-391.077	-137.400	-0.114	-0.013
-390.063	239.784	0.049	-0.082
-389.048	667.450	0.100	-0.257
-388.033	-126.947	0.103	-0.015
-387.019	-78.645	0.233	-0.079
-386.004	58.415	0.247	0.241
-384.990	-46.245	0.171	-0.084
-383.975	64.420	0.257	-0.258
-382.960	176.248	-0.205	-0.296
-381.946	237.658	0.277	-0.458
-380.931	-135.246	0.285	-0.034
-379.917	-141.880	-0.111	0.011
-378.902	16.738	0.307	-0.242
-377.888	265.682	-0.076	0.131
-376.873	40.005	0.280	-0.251
-375.858	-188.253	0.229	-0.003
-374.844	-35.196	-0.162	-0.088
-373.829	119.539	0.035	0.043
-372.815	117.912	-0.222	0.273
-371.800	286.383	0.125	-0.224
-370.785	-103.099	0.086	-0.020
-369.771	626.460	0.053	0.133
-368.756	-56.744	-0.159	-0.070
-367.742	800.000	0.151	-0.418
-366.727	87.640	-0.181	0.199
-365.712	19.648	-0.074	-0.060
-364.698	150.734	-0.137	0.185
-363.683	218.435	0.121	-0.192
-362.669	-17.309	-0.111	0.069
-361.654	140.860	-0.160	-0.210
-360.639	-57.328	0.169	-0.074
-359.625	1.038	0.348	-0.249
-358.610	-25.054	-0.411	0.243
-357.596	52.427	-0.008	0.008
-356.581	-101.487	0.175	-0.042
-355.566	-5.601	0.303	0.207
-354.552	-200.000	-0.028	-0.176
-353.537	-200.000	0.001	0.144
-352.523	-86.465	0.106	-0.032
-351.508	-100.753	-0.227	0.056
-350.493	-200.000	-0.028	0.171
-349.479	-57.951	-0.096	-0.042
-348.464	200.269	-0.073	0.112
-347.450	9.264	0.158	0.119
-346.435	-121.335	-0.225	0.037
-345.420	-125.956	-0.175	0.026
-344.406	-200.000	-0.017	0.179
-343.391	800.000	-0.125	0.347
-342.377	91.622	0.124	0.139
-341.362	92.653	0.161	0.181
-340.348	105.252	-0.045	0.053
-339.333	-200.000	-0.010	0.140
-338.318	544.754	0.114	0.270
-337.304	-100.799	0.349	-0.085
-336.289	-200.000	0.028	-0.337
-335.275	403.062	-0.125	-0.262
-334.260	395.161	-0.252	-0.522
-333.245	-77.375	0.168	0.058
-332.231	-97.586	0.274	-0.071
-331.216	576.040	0.083	-0.202
-330.202	-21.542	-0.131	-0.080
-329.187	-122.564	-0.151	-0.024
-328.172	205.186	0.089	-0.137
-327.158	6.189	-0.193	0.142
-326.143	-200.000	0.049	0.365
-325.129	-16.289	0.298	0.188
-324.114	800.000	-0.035	0.126
-323.099	62.313	0.075	0.074
-322.085	-185.106	-0.149	0.002
-321.070	61.915	0.209	-0.207
-320.056	-121.431	-0.376	-0.062
-319.041	21.113	-0.082	-0.066
-318.026	-48.784	-0.126	0.060
-317.012	237.460	0.044	-0.073
-315.997	-40.790	0.309	-0.159
-314.983	105.953	-0.169	0.199
-313.968	50.225	-0.224	0.210
-312.953	-122.370	-0.322	-0.052
-311.939	-151.446	-0.280	0.021
-310.924	9.117	0.275	-0.206
-309.910	800.000	0.083	0.234
-308.895	-101.844	0.335	-0.081
-307.880	-4.201	-0.064	0.044
-306.866	800.000	-0.029	0.107
-305.851	-200.000	0.003	0.071
-304.837	-81.046	-0.051	-0.017
-303.822	12.133	0.245	-0.187
-302.807	-108.231	0.204	0.044
-301.793	222.884	0.207	0.331
-300.778	22.504	-0.270	0.219
-299.764	-200.000	-0.014	0.099
-298.749	97.428	-0.104	-0.119
-297.735	-200.000	0.018	-0.228
-296.720	123.943	0.169	0.211
-295.705	-56.820	-0.318	-0.140
-294.691	-200.000	-0.015	-0.070
-293.676	-200.000	0.004	0.337
-292.662	469.958	0.166	0.371
-291.647	800.000	0.077	-0.252
-290.632	-194.331	-0.323	-0.003
-289.618	-125.784	-0.231	0.035
-288.603	-200.000	0.048	0.288
-287.589	6.487	0.309	0.228
-286.574	322.490	0.181	-0.342
-285.559	-200.000	-0.010	0.199
-284.545	111.343	-0.141	-0.168
-283.530	-174.099	0.145	-0.004
-282.516	43.430	-0.193	0.175
-281.501	800.000	-0.041	-0.141
-280.486	-100.805	-0.079	-0.019
-279.472	-143.819	-0.235	-0.022
-278.457	-200.000	-0.023	-0.450
-277.443	-200.000	-0.027	0.361
-276.428	-36.084	-0.039	-0.021
-275.413	-48.929	0.093	-0.044
-274.399	15.782	-0.079	-0.061
-273.384	194.367	0.037	-0.055
-272.370	-5.160	0.075	0.051
-271.355	-200.000	-0.054	0.256
-270.340	-155.988	0.293	-0.018
-269.326	-104.776	-0.080	0.018
-268.311	-61.791	-0.220	0.091
-267.297	-137.294	0.275	0.031
-266.282	-117.715	-0.079	0.014
-265.267	-8.386	-0.234	0.156
-264.253	-21.484	-0.244	-0.148
-263.238	28.668	-0.134	-0.112
-262.224	-87.164	-0.340	0.102
-261.209	-200.000	0.032	0.230
-260.195	-110.221	0.229	-0.047
-259.180	38.709	-0.008	0.007
-258.165	136.158	0.123	-0.159
-257.151	-74.294	-0.162	-0.058
-256.136	-200.000	0.002	-0.241
-255.122	-116.584	0.144	0.026
-254.107	-14.900	-0.170	0.108
-253.092	-200.000	-0.009	-0.221
-252.078	73.159	-0.273	0.283
-251.063	-120.621	-0.123	0.021
-250.049	-77.961	-0.180	-0.062
-249.034	55.451	0.164	-0.158
-248.019	-200.000	-0.001	-0.034
-247.005	133.782	-0.085	-0.109
-245.990	102.487	0.255	0.295
-244.976	332.189	0.117	0.224
-243.961	22.217	0.221	0.179
-242.946	439.427	0.057	0.123
-241.932	67.541	-0.185	-0.187
-240.917	-10.913	-0.532	-0.348
-239.903	-4.733	-0.206	0.141
-238.888	263.482	0.121	0.208
-237.873	664.173	-0.075	0.192
-236.859	335.440	0.023	0.045
-235.844	46.964	0.185	0.171
-234.830	444.040	0.049	0.106
-233.815	-37.764	0.125	0.066
-232.800	50.191	0.334	0.312
-231.786	-200.000	0.012	0.309
-230.771	426.723	0.071	0.151
-229.757	263.865	0.138	0.237
-228.742	127.738	-0.172	0.216
-227.727	-107.962	-0.240	0.052
-226.713	500.971	-0.049	-0.111
-225.698	-200.000	0.017	-0.271
-224.684	800.000	-0.106	0.336
-223.669	-113.823	-0.354	-0.068
-222.655	-71.026	-0.091	0.034
-221.640	207.184	0.072	-0.111
-220.625	-74.540	-0.103	-0.037
-219.611	176.943	0.255	0.368
-218.596	-117.388	0.279	0.050
-217.582	86.607	0.245	0.267
-216.567	-200.000	0.020	0.124
-215.552	-200.000	0.090	0.459
-214.538	-154.216	-0.447	0.030
-213.523	800.000	-0.029	0.084
-212.509	-41.296	-0.280	0.143
-211.494	54.912	0.241	-0.230
-210.479	143.530	-0.277	-0.365
-209.465	-200.000	0.009	0.118
-208.450	-102.929	0.034	0.008
-207.436	-55.235	0.287	-0.128
-206.421	64.035	-0.123	0.122
-205.406	441.160	-0.012	0.025
-204.392	163.493	-0.076	0.105
-203.377	3.994	-0.220	0.159
-202.363	-104.468	-0.223	0.051
-201.348	126.354	0.333	0.416
-200.333	-75.845	-0.214	0.075
-199.319	-172.416	0.167	0.005
-198.304	-200.000	-0.007	-0.390
-197.290	-200.000	0.082	0.382
-196.275	553.330	0.078	0.186
-195.260	-91.812	-0.275	0.077
-194.246	-50.746	0.493	-0.229
-193.231	800.000	0.037	-0.116
-192.217	-191.005	-0.224	0.002
-191.202	-68.465	-0.219	0.084
-190.187	-80.359	-0.222	0.073
-189.173	-200.000	-0.012	-0.251
-188.158	-37.800	0.181	0.095
-187.144	517.325	-0.066	-0.152
-186.129	-99.082	0.153	0.038
-185.114	-109.494	-0.457	-0.095
-184.100	-8.913	-0.183	0.121
-183.085	-56.670	-0.120	0.053
-182.071	-200.000	0.036	0.176
-181.056	473.690	-0.122	0.271
-180.042	-200.000	0.011	-0.081
-179.027	-97.432	0.065	0.017
-178.012	-106.696	-0.108	-0.024
-176.998	-68.609	0.276	-0.105
-175.983	-200.000	-0.050	-0.253
-174.969	800.000	-0.007	0.018
-173.954	41.707	0.197	0.176
-172.939	-33.515	0.241	0.131
-171.925	800.000	0.084	0.254
-170.910	186.785	-0.152	-0.224
-169.896	209.102	0.024	0.037
-168.881	-15.064	0.151	-0.096
-167.866	346.515	0.098	-0.190
-166.852	-143.963	-0.293	0.027
-165.837	290.514	-0.056	0.101
-164.823	-100.642	0.264	-0.064
-163.808	68.711	-0.063	0.064
-162.793	-50.882	-0.209	-0.097
-161.779	525.522	-0.084	0.195
-160.764	-88.255	-0.203	-0.060
-159.750	-200.000	0.034	-0.223
-158.735	130.688	-0.017	-0.021
-157.720	8.510	0.212	0.157
-156.706	-103.078	0.148	-0.035
-155.691	64.388	0.069	-0.069
-154.677	-124.979	-0.251	0.038
-153.662	540.744	0.105	-0.248
-152.647	716.947	0.145	-0.380
-151.633	-139.489	-0.148	0.016
-150.618	-169.166	0.302	-0.011
-149.604	-113.127	0.572	-0.111
-148.589	-128.508	-0.290	-0.041
-147.574	490.535	0.131	-0.295
-146.560	-23.893	-0.355	0.210
-145.545	137.262	0.078	-0.101
-144.531	249.240	0.084	-0.141
-143.516	-107.523	0.199	0.043
-142.502	-200.000	-0.008	0.066
-141.487	-2.349	-0.131	-0.091
-140.472	287.691	-0.217	0.387
-139.458	291.709	0.032	0.058
-138.443	-92.930	0.417	-0.115
-137.429	-151.339	0.281	-0.021
-136.414	66.086	0.143	0.143
-135.399	133.776	-0.114	0.145
-134.385	-121.155	-0.086	-0.014
-133.370	33.470	0.349	0.299
-132.356	135.032	0.101	-0.129
-131.341	-32.074	0.094	-0.052
-130.326	133.095	-0.215	0.273
-129.312	-200.000	0.015	-0.147
-128.297	-33.065	-0.033	0.018
-127.283	-92.649	0.365	0.101
-126.268	800.000	-0.028	-0.118
-125.253	148.326	0.157	0.208
-124.239	547.363	-0.011	0.027
-123.224	416.619	0.049	-0.103
-122.210	-62.692	0.048	0.020
-121.195	-73.459	-0.212	0.076
