DTS Sentinel unit serial number:	SN413079Multiplexer serial number:	ORYXHardware model number:	OX4-SRSoftware version number:	ORYX F/W v4.00 Oryx Data Collector v3.7.2.0data status	okinstallation	princeton_trtdifferential loss correction	single-endedforward channel	channel 4reverse channel	N/Adate	2019/09/13time	18:53:34forward acquisition time	60.00reverse acquisition time	0.00gamma	496.2192k internal	0.2309k external	0.2309temperature offset calibration	1.0176default loss term (dB/km)	0.3790temperature slope calibration	1.0000multiplexer offset coefficient	1.0000multiplexer slope coefficient	1.0000fibre end	0.00T internal ref (°C)	32.25T ext. ref 1 (°C)	4.01T ext. ref 2 (°C)	25.54length (m)	temperature (°C)	Stokes	anti-Stokes-747.200	-13.819	0.278	0.183
-746.185	-21.364	-0.055	0.034
-745.171	69.934	-0.057	-0.060
-744.156	-200.000	0.005	0.195
-743.142	-166.992	0.230	-0.010
-742.127	800.000	0.016	0.068
-741.112	28.009	-0.155	-0.133
-740.098	41.532	-0.175	-0.161
-739.083	398.710	0.040	0.086
-738.069	29.248	0.130	0.112
-737.054	-200.000	0.011	-0.287
-736.039	-2.438	-0.032	-0.023
-735.025	-83.673	0.101	0.033
-734.010	800.000	-0.011	0.040
-732.996	681.344	0.079	-0.208
-731.981	-74.250	-0.040	0.015
-730.966	-108.527	-0.146	-0.032
-729.952	89.665	0.176	0.199
-728.937	-67.754	0.260	0.103
-727.923	-200.000	-0.018	-0.199
-726.908	800.000	0.081	-0.291
-725.894	-105.772	-0.423	-0.097
-724.879	800.000	-0.086	-0.272
-723.864	211.526	-0.094	0.150
-722.850	-24.176	-0.137	-0.083
-721.835	128.148	-0.045	-0.058
-720.821	136.025	-0.274	-0.362
-719.806	-44.298	0.149	0.076
-718.791	-141.203	-0.396	0.041
-717.777	66.133	-0.289	0.298
-716.762	70.142	0.119	-0.125
-715.748	-200.000	-0.033	-0.408
-714.733	45.443	-0.256	-0.240
-713.718	289.671	-0.117	0.215
-712.704	-173.674	0.105	-0.003
-711.689	200.580	0.175	-0.274
-710.675	-200.000	0.005	0.090
-709.660	-116.407	0.030	-0.006
-708.645	-136.433	0.222	-0.026
-707.631	-52.176	-0.240	-0.113
-706.616	-200.000	-0.034	-0.413
-705.602	-69.682	0.092	0.036
-704.587	-86.042	0.195	-0.061
-703.572	472.864	0.101	0.231
-702.558	-200.000	0.007	-0.386
-701.543	-101.296	-0.528	-0.131
-700.529	43.069	-0.096	-0.089
-699.514	40.324	0.135	-0.124
-698.499	-82.003	-0.181	0.060
-697.485	-200.000	-0.045	-0.476
-696.470	-36.035	-0.253	-0.139
-695.456	-7.438	0.161	-0.111
-694.441	5.035	0.259	0.193
-693.426	-58.216	0.192	0.085
-692.412	-68.375	-0.057	0.022
-691.397	-24.998	0.128	-0.077
-690.383	65.858	-0.243	-0.249
-689.368	61.330	0.141	-0.142
-688.354	744.310	-0.102	0.278
-687.339	271.870	-0.142	-0.255
-686.324	-200.000	-0.001	0.156
-685.310	642.974	0.083	0.215
-684.295	-110.960	-0.456	-0.095
-683.281	-143.284	0.053	0.005
-682.266	-97.443	-0.217	-0.057
-681.251	558.972	-0.080	-0.195
-680.237	-200.000	0.049	0.368
-679.222	-67.078	-0.242	0.097
-678.208	121.211	0.240	-0.303
-677.193	-200.000	0.009	-0.250
-676.178	542.642	0.027	0.065
-675.164	800.000	0.069	0.261
-674.149	-200.000	-0.012	-0.061
-673.135	800.000	0.034	0.110
-672.120	-179.636	-0.138	-0.003
-671.105	-200.000	0.030	-0.187
-670.091	422.670	-0.140	-0.304
-669.076	54.339	0.204	-0.199
-668.062	109.229	0.138	-0.168
-667.047	753.788	-0.099	0.271
-666.032	598.680	-0.033	-0.082
-665.018	107.400	-0.074	-0.089
-664.003	202.720	0.116	-0.182
-662.989	-62.849	-0.164	0.069
-661.974	62.771	-0.189	-0.192
-660.959	-143.404	-0.501	-0.049
-659.945	-0.697	-0.307	0.221
-658.930	-59.834	-0.037	0.016
-657.916	800.000	0.045	0.170
-656.901	69.787	-0.125	0.130
-655.886	-131.178	-0.423	0.057
-654.872	-126.003	0.129	0.020
-653.857	-22.705	0.070	0.043
-652.843	-187.528	-0.129	0.002
-651.828	28.199	-0.350	-0.299
-650.814	-200.000	0.040	-0.352
-649.799	39.485	-0.206	-0.187
-648.784	223.864	0.031	0.050
-647.770	-200.000	-0.009	0.054
-646.755	-64.410	-0.232	-0.095
-645.741	800.000	-0.174	0.501
-644.726	-200.000	-0.063	-0.308
-643.711	420.423	0.157	0.341
-642.697	-67.600	-0.150	0.060
-641.682	-63.539	-0.293	0.122
-640.668	800.000	-0.101	0.282
-639.653	215.199	-0.051	0.082
-638.638	-17.767	-0.148	0.094
-637.624	303.491	0.125	-0.235
-636.609	-125.285	0.319	0.049
-635.595	164.781	-0.083	0.119
-634.580	-50.554	-0.108	-0.051
-633.565	219.211	0.079	-0.128
-632.551	-163.096	0.181	0.009
-631.536	-200.000	-0.034	-0.326
-630.522	-200.000	-0.012	-0.275
-629.507	361.163	-0.054	0.109
-628.492	-113.122	0.021	0.004
-627.478	-67.787	0.395	-0.156
-626.463	-79.615	0.246	0.084
-625.449	-104.166	0.428	-0.101
-624.434	-36.472	-0.138	0.075
-623.419	-49.692	0.125	-0.060
-622.405	496.530	-0.026	0.061
-621.390	232.115	0.107	-0.177
-620.376	113.625	-0.130	-0.159
-619.361	486.615	0.148	0.342
-618.346	453.468	-0.011	0.024
-617.332	-105.409	-0.399	-0.092
-616.317	-139.462	-0.100	-0.011
-615.303	62.635	0.361	0.364
-614.288	378.228	0.023	0.048
-613.273	100.653	0.344	0.404
-612.259	-71.379	-0.133	0.051
-611.244	-180.698	-0.011	0.000
-610.230	3.395	-0.157	0.116
-609.215	57.860	0.060	0.060
-608.201	-43.305	-0.202	0.103
-607.186	800.000	0.033	0.131
-606.171	-32.230	-0.250	-0.141
-605.157	10.715	0.358	-0.276
-604.142	800.000	-0.062	-0.234
-603.128	102.642	0.168	0.199
-602.113	159.430	-0.180	0.254
-601.098	-200.000	-0.064	-0.536
-600.084	-200.000	0.022	-0.142
-599.069	-119.245	0.236	0.042
-598.055	-200.000	0.048	0.276
-597.040	112.611	-0.101	-0.123
-596.025	800.000	-0.005	0.020
-595.011	-200.000	-0.028	0.393
-593.996	63.442	0.097	0.099
-592.982	734.309	0.108	-0.291
-591.967	-121.754	-0.360	0.060
-590.952	-76.521	-0.386	-0.137
-589.938	129.908	0.085	0.109
-588.923	-38.473	-0.170	-0.091
-587.909	41.368	0.151	0.138
-586.894	442.171	0.063	-0.140
-585.879	-41.559	0.339	0.176
-584.865	41.019	-0.165	0.151
-583.850	-156.225	-0.224	0.014
-582.836	800.000	-0.029	0.100
-581.821	-109.636	-0.219	0.047
-580.806	-64.606	-0.148	0.061
-579.792	-45.844	0.028	0.014
-578.777	-56.651	-0.429	-0.192
-577.763	-10.636	0.215	-0.144
-576.748	-150.773	0.078	0.006
-575.733	-78.594	-0.190	0.065
-574.719	-81.001	-0.073	-0.024
-573.704	-50.564	-0.127	0.060
-572.690	296.320	0.180	0.334
-571.675	238.706	-0.095	-0.160
-570.661	-15.298	0.125	-0.081
-569.646	-93.323	-0.129	0.036
-568.631	-200.000	0.008	-0.079
-567.617	-69.175	-0.135	0.053
-566.602	225.496	0.226	-0.369
-565.588	99.000	0.148	-0.173
-564.573	75.829	-0.182	-0.194
-563.558	0.473	0.066	-0.048
-562.544	-200.000	0.027	0.152
-561.529	283.419	-0.094	-0.171
-560.515	208.970	0.142	-0.224
-559.500	6.032	-0.186	0.139
-558.485	-26.087	-0.042	0.025
-557.471	19.684	0.357	-0.289
-556.456	-117.717	-0.448	-0.081
-555.442	563.582	-0.056	-0.138
-554.427	106.586	-0.220	0.263
-553.412	44.931	0.123	0.114
-552.398	-200.000	0.006	-0.037
-551.383	-14.854	-0.122	0.079
-550.369	-36.271	-0.352	-0.191
-549.354	174.724	-0.058	-0.085
-548.339	723.189	-0.068	-0.183
-547.325	-88.109	-0.174	-0.053
-546.310	-45.536	-0.289	0.144
-545.296	-92.265	0.323	0.092
-544.281	342.968	0.198	-0.390
-543.266	102.098	-0.202	-0.238
-542.252	-200.000	0.053	0.240
-541.237	68.767	0.301	-0.311
-540.223	-138.726	0.419	-0.046
-539.208	-92.652	-0.259	0.073
-538.193	55.882	0.292	-0.285
-537.179	-96.305	-0.086	-0.023
-536.164	347.111	0.098	0.194
-535.150	47.872	-0.109	0.102
-534.135	258.678	0.075	-0.130
-533.121	-200.000	-0.046	0.355
-532.106	-52.475	-0.083	-0.039
-531.091	-96.242	0.210	-0.056
-530.077	800.000	0.098	0.343
-529.062	-86.341	-0.598	-0.185
-528.048	-200.000	0.018	0.133
-527.033	800.000	0.070	0.281
-526.018	-117.726	-0.384	0.070
-525.004	58.154	0.095	0.094
-523.989	375.872	-0.107	-0.221
-522.975	143.717	-0.019	0.026
-521.960	-83.237	-0.189	0.061
-520.945	-94.431	-0.272	-0.075
-519.931	-52.957	-0.288	-0.133
-518.916	-15.379	-0.243	-0.156
-517.902	-200.000	0.035	-0.281
-516.887	-40.587	-0.253	-0.132
-515.872	-125.179	-0.351	0.054
-514.858	-75.643	0.127	-0.046
-513.843	800.000	0.041	0.170
-512.829	-200.000	0.027	-0.237
-511.814	-200.000	0.001	0.094
-510.799	-8.251	0.138	-0.093
-509.785	17.790	-0.360	0.288
-508.770	-44.878	-0.154	0.077
-507.756	330.580	-0.168	-0.326
-506.741	-161.564	-0.064	-0.003
-505.726	-200.000	0.034	0.239
-504.712	324.192	-0.064	-0.122
-503.697	231.011	0.106	-0.175
-502.683	30.092	0.070	-0.060
-501.668	55.707	0.272	0.265
-500.653	-54.449	0.169	-0.077
-499.639	64.711	0.180	-0.183
-498.624	-163.435	-0.348	-0.017
-497.610	-159.268	0.059	-0.003
-496.595	-47.946	0.240	0.117
-495.581	41.164	0.143	-0.130
-494.566	9.028	-0.106	-0.080
-493.551	-200.000	0.038	0.200
-492.537	-200.000	0.331	0.000
-491.522	-121.793	-0.237	-0.039
-490.508	-169.708	0.227	0.008
-489.493	-115.153	-0.192	-0.037
-488.478	-145.155	0.139	0.013
-487.464	-125.745	-0.284	-0.043
-486.449	199.460	-0.108	-0.167
-485.435	-147.354	0.243	0.021
-484.420	357.751	-0.040	0.081
-483.405	-90.732	-0.275	-0.080
-482.391	23.922	-0.084	0.070
-481.376	-61.101	-0.307	0.130
-480.362	-200.000	-0.028	-0.211
-479.347	-56.136	-0.252	0.113
-478.332	-0.345	-0.091	-0.065
-477.318	-21.762	-0.236	0.144
-476.303	-95.933	-0.168	0.045
-475.289	99.474	-0.041	0.048
-474.274	766.517	-0.114	-0.312
-473.259	-200.000	-0.012	0.170
-472.245	-72.413	-0.364	-0.136
-471.230	-4.869	-0.098	0.068
-470.216	-91.892	-0.096	-0.027
-469.201	-15.156	0.196	-0.126
-468.186	-32.960	0.296	-0.165
-467.172	83.067	-0.218	0.239
-466.157	-16.689	0.147	-0.094
-465.143	-200.000	-0.040	0.230
-464.128	201.138	-0.093	-0.144
-463.113	-22.494	0.193	0.117
-462.099	40.945	-0.182	0.165
-461.084	11.982	0.192	-0.148
-460.070	800.000	-0.006	-0.021
-459.055	-149.078	0.256	0.021
-458.040	217.905	-0.310	-0.497
-457.026	76.587	-0.256	0.273
-456.011	1.866	0.155	-0.113
-454.997	-200.000	-0.018	-0.203
-453.982	23.928	-0.303	0.251
-452.968	95.288	-0.167	-0.191
-451.953	387.729	-0.130	-0.269
-450.938	-168.247	-0.387	-0.015
-449.924	21.301	0.178	0.145
-448.909	-42.464	-0.523	-0.268
-447.895	204.770	-0.024	0.037
-446.880	97.182	-0.044	-0.051
-445.865	800.000	-0.078	-0.221
-444.851	-99.325	0.142	-0.036
-443.836	-200.000	0.019	0.231
-442.822	213.457	0.080	0.127
-441.807	800.000	0.066	-0.223
-440.792	47.689	-0.207	0.194
-439.778	97.104	-0.184	0.211
-438.763	186.445	0.143	0.213
-437.749	152.420	-0.162	0.222
-436.734	-113.145	-0.236	-0.047
-435.719	-141.376	0.354	-0.036
-434.705	-100.046	-0.061	0.015
-433.690	-163.851	-0.296	0.014
-432.676	-10.601	-0.033	-0.022
-431.661	800.000	-0.081	-0.275
-430.646	250.648	-0.153	0.261
-429.632	269.669	-0.107	0.188
-428.617	-139.854	0.086	-0.009
-427.603	264.982	-0.040	0.070
-426.588	136.133	0.347	0.454
-425.573	-106.645	0.322	-0.072
-424.559	56.783	-0.145	-0.142
-423.544	-200.000	-0.065	-0.331
-422.530	290.513	-0.280	-0.511
-421.515	-75.672	0.265	-0.094
-420.500	-91.778	0.409	0.117
-419.486	66.259	-0.086	0.087
-418.471	135.352	0.164	-0.214
-417.457	42.422	-0.260	0.237
-416.442	-68.389	-0.317	-0.124
-415.428	341.000	0.054	-0.105
-414.413	-183.011	-0.045	-0.001
-413.398	-200.000	0.009	-0.048
-412.384	188.489	0.179	-0.269
-411.369	-90.424	0.186	0.054
-410.355	-200.000	-0.006	-0.216
-409.340	-85.694	-0.128	-0.040
-408.325	-49.896	-0.102	-0.048
-407.311	-112.133	0.145	0.029
-406.296	-200.000	-0.002	0.216
-405.282	-200.000	0.032	-0.283
-404.267	-44.614	0.251	0.126
-403.252	-200.000	0.015	-0.402
-402.238	-200.000	0.078	-0.372
-401.223	-50.533	-0.254	0.120
-400.209	-200.000	0.303	0.001
-399.194	514.056	-0.107	0.250
-398.179	-153.939	0.049	-0.003
-397.165	64.025	-0.154	-0.155
-396.150	-14.514	-0.250	0.161
-395.136	109.317	0.122	0.147
-394.121	800.000	0.103	0.292
-393.106	46.216	-0.158	0.147
-392.092	-173.060	0.046	0.001
-391.077	22.706	-0.084	0.069
-390.063	-144.569	-0.238	0.022
-389.048	-200.000	-0.056	0.245
-388.033	-28.900	0.129	0.074
-387.019	625.399	0.102	0.258
-386.004	-12.523	0.143	-0.094
-384.990	-22.976	0.388	0.234
-383.975	-182.514	0.084	-0.002
-382.960	-164.604	0.246	-0.011
-381.946	-200.000	0.065	0.374
-380.931	-200.000	0.014	-0.191
-379.917	14.558	-0.184	0.144
-378.902	-73.190	0.287	-0.105
-377.888	-76.849	0.304	0.107
-376.873	17.324	0.246	0.196
-375.858	-56.419	0.449	-0.200
-374.844	-200.000	-0.026	0.118
-373.829	-200.000	0.050	-0.236
-372.815	-200.000	-0.025	-0.155
-371.800	-195.735	0.399	-0.003
-370.785	135.650	-0.138	-0.179
-369.771	-200.000	-0.014	-0.070
-368.756	-200.000	0.038	0.218
-367.742	-158.856	-0.235	-0.013
-366.727	160.404	-0.075	0.104
-365.712	-23.891	-0.284	-0.170
-364.698	-19.054	0.222	0.138
-363.683	27.026	-0.155	0.130
-362.669	295.322	0.100	0.183
-361.654	99.857	-0.165	0.191
-360.639	745.997	-0.109	-0.294
-359.625	-200.000	-0.024	-0.188
-358.610	678.813	0.113	0.294
-357.596	-200.000	-0.007	0.100
-356.581	-200.000	0.009	0.249
-355.566	-6.858	0.176	-0.120
-354.552	-183.176	-0.199	0.004
-353.537	800.000	0.018	0.056
-352.523	37.126	-0.068	-0.061
-351.508	563.298	0.047	0.113
-350.493	-200.000	0.007	-0.211
-349.479	-47.274	0.048	-0.023
-348.464	800.000	-0.059	0.238
-347.450	-200.000	0.026	0.210
-346.435	211.746	0.075	-0.119
-345.420	-140.134	0.249	0.026
-344.406	-95.057	-0.026	-0.007
-343.391	-75.644	-0.396	0.141
-342.377	166.072	0.352	-0.499
-341.362	-200.000	-0.037	-0.277
-340.348	-200.000	-0.009	0.185
-339.333	-43.535	-0.081	0.041
-338.318	800.000	0.022	-0.095
-337.304	-48.489	-0.292	-0.141
-336.289	-62.937	-0.094	-0.039
-335.275	-200.000	-0.026	0.137
-334.260	-120.274	0.237	0.040
-333.245	-89.245	0.200	0.059
-332.231	27.341	0.117	0.098
-331.216	-200.000	0.040	-0.308
-330.202	-146.065	0.234	-0.021
-329.187	498.216	0.117	-0.268
-328.172	-200.000	-0.010	0.247
-327.158	53.883	0.074	-0.071
-326.143	-133.183	0.227	-0.029
-325.129	-101.889	0.342	0.083
-324.114	-7.189	-0.095	0.064
-323.099	-200.000	0.016	-0.135
-322.085	800.000	0.121	-0.365
-321.070	339.814	0.115	-0.224
-320.056	-51.169	-0.171	0.080
-319.041	-50.563	0.366	0.173
-318.026	-85.755	0.251	0.078
-317.012	-200.000	-0.019	0.110
-315.997	-200.000	-0.016	0.159
-314.983	101.290	0.297	-0.346
-313.968	-31.041	-0.132	-0.074
-312.953	97.534	0.033	0.037
-311.939	425.712	-0.033	-0.070
-310.924	22.662	-0.181	-0.148
-309.910	311.310	-0.030	0.057
-308.895	-76.656	-0.223	-0.078
-307.880	621.146	0.107	-0.270
-306.866	-131.569	-0.213	0.028
-305.851	-174.680	-0.127	-0.004
-304.837	76.194	-0.103	0.109
-303.822	-200.000	0.027	0.206
-302.807	-200.000	-0.021	0.177
-301.793	-87.090	0.078	-0.024
-300.778	-200.000	0.002	0.226
-299.764	-32.586	-0.319	0.178
-298.749	-29.462	-0.163	0.093
-297.735	-0.261	0.069	0.049
-296.720	-200.000	0.068	0.435
-295.705	-135.346	0.066	-0.008
-294.691	-195.147	-0.146	-0.001
-293.676	-1.940	0.263	0.184
-292.662	-167.131	0.254	0.010
-291.647	127.364	-0.123	0.156
-290.632	800.000	-0.031	-0.090
-289.618	-65.477	-0.141	-0.057
-288.603	334.506	-0.016	0.031
-287.589	-126.384	-0.108	-0.016
-286.574	-149.150	-0.221	-0.018
-285.559	-102.516	0.209	-0.050
-284.545	165.876	0.140	-0.198
-283.530	-68.619	0.187	-0.072
-282.516	-137.807	0.215	-0.024
-281.501	-168.000	-0.159	0.006
-280.486	162.746	0.224	-0.314
-279.472	17.991	-0.127	0.101
-278.457	-26.442	-0.257	0.150
-277.443	197.180	-0.185	0.282
-276.428	-189.157	0.369	0.004
-275.413	-200.000	0.002	-0.037
-274.399	800.000	-0.074	0.257
-273.384	9.046	0.059	-0.044
-272.370	-109.575	0.199	0.042
-271.355	-200.000	-0.016	-0.295
-270.340	52.265	0.111	0.105
-269.326	-96.945	0.204	-0.053
-268.311	676.010	-0.035	0.090
-267.297	350.177	-0.123	0.243
-266.282	-137.265	-0.309	0.035
-265.267	800.000	-0.052	-0.168
-264.253	29.840	-0.083	-0.071
-263.238	-154.024	0.077	-0.005
-262.224	-104.713	-0.153	0.035
-261.209	244.580	0.104	0.175
-260.195	800.000	0.018	0.062
-259.180	-200.000	-0.025	-0.243
-258.165	732.598	0.091	0.243
-257.151	-90.073	0.114	-0.033
-256.136	333.559	0.118	-0.228
-255.122	-43.512	0.033	0.016
-254.107	-156.685	-0.107	-0.007
-253.092	800.000	0.085	-0.285
-252.078	149.121	0.132	-0.177
-251.063	-200.000	0.054	-0.412
-250.049	772.151	0.146	-0.395
-249.034	-47.133	-0.230	0.112
-248.019	112.164	-0.182	0.220
-247.005	120.204	0.081	0.100
-245.990	13.346	0.115	-0.089
-244.976	630.228	-0.101	0.254
-243.961	171.812	0.059	0.085
-242.946	648.558	-0.020	-0.051
-241.932	-200.000	-0.008	0.187
-240.917	184.504	-0.075	0.111
-239.903	506.778	0.068	0.156
-238.888	417.470	0.072	0.152
-237.873	204.791	0.219	0.339
-236.859	153.997	0.072	0.098
-235.844	49.340	0.158	0.148
-234.830	-77.960	0.382	-0.131
-233.815	800.000	-0.060	-0.220
-232.800	-200.000	-0.046	0.414
-231.786	800.000	-0.111	-0.343
-230.771	-75.825	0.190	0.067
-229.757	-32.348	-0.169	-0.094
-228.742	360.807	-0.149	-0.297
-227.727	-200.000	-0.046	0.296
-226.713	-61.758	0.261	0.109
-225.698	800.000	0.101	-0.303
-224.684	63.935	-0.058	-0.058
-223.669	800.000	-0.082	-0.340
-222.655	70.302	-0.103	0.106
-221.640	272.984	-0.043	-0.075
-220.625	-29.255	-0.112	0.064
-219.611	147.517	0.197	-0.264
-218.596	800.000	-0.030	-0.119
-217.582	310.462	-0.119	0.221
-216.567	272.863	-0.073	-0.128
-215.552	-130.659	-0.275	-0.037
-214.538	800.000	-0.080	0.242
-213.523	101.775	0.214	0.248
-212.509	5.411	-0.160	0.117
-211.494	-171.508	0.338	-0.011
-210.479	800.000	0.035	-0.101
-209.465	-200.000	-0.008	0.294
-208.450	-99.791	0.200	0.050
-207.436	-200.000	-0.035	-0.211
-206.421	800.000	0.120	-0.420
-205.406	800.000	-0.005	0.020
-204.392	112.032	0.117	0.141
-203.377	-200.000	-0.001	-0.045
-202.363	183.930	0.070	-0.103
-201.348	537.758	-0.066	-0.155
-200.333	65.265	0.174	0.175
-199.319	-200.000	0.034	0.150
-198.304	-98.019	-0.183	0.047
-197.290	375.953	0.028	0.057
-196.275	800.000	0.095	0.277
-195.260	-57.614	0.404	0.176
-194.246	-19.995	-0.077	-0.047
-193.231	-200.000	0.002	0.085
-192.217	-149.249	-0.071	-0.006
-191.202	-200.000	0.014	-0.157
-190.187	485.571	0.093	0.210
-189.173	351.260	-0.185	0.363
-188.158	2.880	0.212	0.153
-187.144	416.253	0.111	0.236
-186.129	381.502	0.075	0.152
-185.114	202.177	0.049	0.075
-184.100	520.315	-0.107	-0.249
-183.085	337.516	-0.128	0.247
-182.071	800.000	0.080	0.323
-181.056	-81.417	-0.161	-0.053
-180.042	-33.009	0.257	-0.142
-179.027	-200.000	0.049	-0.587
-178.012	-200.000	0.044	0.207
-176.998	-130.151	-0.220	-0.030
-175.983	76.213	0.062	0.065
-174.969	-175.591	0.301	0.008
-173.954	21.641	-0.272	-0.220
-172.939	800.000	-0.105	-0.407
-171.925	-186.639	-0.293	0.004
-170.910	-200.000	0.046	0.239
-169.896	-89.754	0.432	-0.126
-168.881	-28.446	0.303	0.174
-167.866	6.399	0.200	-0.148
-166.852	-200.000	0.008	-0.402
-165.837	-126.522	-0.171	-0.025
-164.823	800.000	0.040	-0.158
-163.808	-34.961	0.192	0.104
-162.793	-120.436	-0.336	0.057
-161.779	-91.763	0.185	0.052
-160.764	-33.724	-0.393	-0.215
-159.750	-189.029	0.202	-0.002
-158.735	-21.647	0.245	0.148
-157.720	87.613	0.198	-0.218
-156.706	800.000	-0.086	-0.246
-155.691	-200.000	0.015	0.070
-154.677	348.884	0.082	0.160
-153.662	-68.338	0.345	0.133
-152.647	-101.615	0.416	-0.100
-151.633	252.250	-0.071	0.120
-150.618	-25.413	0.335	0.196
-149.604	-107.673	-0.062	-0.014
-148.589	70.723	0.143	-0.147
-147.574	-74.717	0.092	-0.033
-146.560	663.687	-0.055	-0.142
-145.545	-93.694	-0.174	-0.048
-144.531	252.055	0.153	0.258
-143.516	-190.824	-0.194	0.002
-142.502	294.531	0.017	0.031
-141.487	-71.890	-0.172	0.063
-140.472	-53.847	0.088	-0.040
-139.458	-200.000	0.046	-0.217
-138.443	-200.000	0.009	0.087
-137.429	-46.739	-0.215	-0.104
-136.414	-200.000	0.021	-0.282
-135.399	30.316	-0.083	-0.070
-134.385	-200.000	-0.041	0.238
-133.370	-136.113	-0.310	-0.036
-132.356	-200.000	0.013	0.158
-131.341	-200.000	0.029	0.152
-130.326	406.967	-0.059	-0.123
-129.312	13.570	0.234	0.180
-128.297	54.563	-0.328	0.313
-127.283	-200.000	-0.017	0.399
-126.268	800.000	-0.070	0.228
-125.253	7.785	-0.149	0.111
-124.239	-85.758	0.262	-0.081
-123.224	800.000	0.093	0.368
-122.210	800.000	-0.036	-0.110
