DTS Sentinel unit serial number:	SN413079Multiplexer serial number:	ORYXHardware model number:	OX4-SRSoftware version number:	ORYX F/W v4.00 Oryx Data Collector v3.7.2.0data status	okinstallation	princeton_trtdifferential loss correction	single-endedforward channel	channel 4reverse channel	N/Adate	2019/09/12time	18:45:18forward acquisition time	15.00reverse acquisition time	0.00gamma	496.2192k internal	0.2307k external	0.2307temperature offset calibration	1.0135default loss term (dB/km)	0.3790temperature slope calibration	1.0000multiplexer offset coefficient	1.0000multiplexer slope coefficient	1.0000fibre end	0.00T internal ref (°C)	33.00T ext. ref 1 (°C)	2.96T ext. ref 2 (°C)	27.50length (m)	temperature (°C)	Stokes	anti-Stokes-747.200	553.218	-0.221	0.539
-746.185	-52.244	-0.207	-0.098
-745.171	-132.499	-1.040	0.136
-744.156	-70.613	-0.227	0.087
-743.142	-200.000	-0.001	0.106
-742.127	484.532	-0.294	0.681
-741.112	-132.313	0.746	0.098
-740.098	-200.000	-0.022	-0.370
-739.083	-200.000	-0.056	-0.293
-738.069	-200.000	-0.035	0.415
-737.054	108.472	-0.269	-0.326
-736.039	-195.568	-0.060	0.000
-735.025	-200.000	0.013	-0.628
-734.010	-200.000	0.144	0.744
-732.996	-113.314	-0.575	0.115
-731.981	-132.829	-0.416	-0.054
-730.966	29.402	0.856	-0.740
-729.952	-200.000	-0.024	0.577
-728.937	-91.339	0.415	-0.121
-727.923	-84.805	-0.765	-0.244
-726.908	142.746	0.440	0.595
-725.894	503.831	-0.322	-0.757
-724.879	-200.000	-0.109	0.533
-723.864	-145.741	-0.387	-0.035
-722.850	-38.454	-0.774	-0.416
-721.835	-200.000	-0.115	0.569
-720.821	-40.981	0.219	0.115
-719.806	139.046	0.394	0.526
-718.791	4.325	-0.260	-0.193
-717.777	387.304	0.211	-0.442
-716.762	21.747	-0.738	-0.610
-715.748	-15.860	-0.264	-0.171
-714.733	362.192	-0.143	-0.291
-713.718	-200.000	-0.215	-1.228
-712.704	58.780	-0.262	-0.262
-711.689	-123.110	0.160	-0.026
-710.675	22.113	0.288	-0.239
-709.660	13.857	-0.347	0.274
-708.645	332.373	-0.171	0.335
-707.631	789.881	0.125	0.350
-706.616	324.349	0.022	0.043
-705.602	134.020	-0.373	0.491
-704.587	399.668	-0.363	-0.773
-703.572	-73.290	0.391	-0.145
-702.558	-185.174	0.753	-0.012
-701.543	467.401	0.397	-0.903
-700.529	6.802	0.102	-0.077
-699.514	-162.575	1.339	-0.067
-698.499	179.848	0.402	-0.599
-697.485	24.283	-0.274	0.230
-696.470	109.108	0.537	0.652
-695.456	800.000	0.221	0.621
-694.441	34.490	0.594	-0.526
-693.426	12.688	-0.189	-0.148
-692.412	113.485	-0.458	0.564
-691.397	444.701	0.269	0.599
-690.383	800.000	-0.173	0.750
-689.368	199.689	0.379	0.590
-688.354	-55.519	-0.561	0.255
-687.339	-200.000	0.067	0.513
-686.324	-48.153	0.418	0.205
-685.310	-131.212	-0.551	0.074
-684.295	524.962	0.422	1.008
-683.281	-117.475	-0.580	-0.106
-682.266	142.219	0.194	-0.262
-681.251	-200.000	0.078	-0.425
-680.237	656.964	0.238	0.621
-679.222	-102.574	-0.714	-0.173
-678.208	35.238	0.601	-0.535
-677.193	-200.000	-0.032	0.203
-676.178	323.062	-0.346	0.670
-675.164	-142.641	-0.646	-0.064
-674.149	-12.264	0.232	-0.154
-673.135	-119.532	0.453	-0.080
-672.120	-8.271	-0.530	0.362
-671.105	-27.534	0.864	-0.509
-670.091	-53.443	0.659	0.306
-669.076	-127.260	0.956	0.142
-668.062	-135.053	-1.007	0.123
-667.047	-113.208	0.187	-0.037
-666.032	-20.338	0.505	0.315
-665.018	-24.765	0.020	-0.012
-664.003	187.604	0.154	-0.234
-662.989	800.000	0.145	-0.509
-661.974	59.293	0.249	0.249
-660.959	-145.888	0.409	0.037
-659.945	-57.759	0.386	0.171
-658.930	-200.000	-0.006	0.740
-657.916	-84.973	-0.726	-0.231
-656.901	-96.994	0.518	0.138
-655.886	-101.367	0.598	-0.148
-654.872	172.893	0.123	-0.179
-653.857	-200.000	-0.071	-0.524
-652.843	119.619	0.194	-0.244
-651.828	-200.000	0.009	-0.164
-650.814	-136.910	-0.677	0.079
-649.799	800.000	0.279	0.899
-648.784	-97.401	-0.793	0.209
-647.770	259.656	-0.304	0.532
-646.755	800.000	-0.344	1.005
-645.741	-200.000	-0.021	0.563
-644.726	-187.340	0.513	0.007
-643.711	27.586	-0.485	-0.414
-642.697	30.464	0.621	-0.538
-641.682	800.000	-0.354	-1.298
-640.668	-54.415	-0.645	-0.296
-639.653	800.000	-0.243	-0.682
-638.638	309.114	-0.393	-0.743
-637.624	285.023	-0.315	-0.575
-636.609	-95.502	1.005	-0.273
-635.595	351.940	0.090	0.181
-634.580	-43.775	-0.590	0.301
-633.565	203.083	-0.018	0.029
-632.551	57.592	-0.377	0.373
-631.536	-23.491	0.693	0.421
-630.522	-200.000	0.050	0.381
-629.507	638.358	0.299	-0.770
-628.492	-123.484	0.263	-0.042
-627.478	-47.682	0.085	0.041
-626.463	-78.370	0.641	0.222
-625.449	-200.000	0.025	0.596
-624.434	-92.665	-0.259	-0.073
-623.419	651.150	0.127	0.330
-622.405	-200.000	0.062	0.563
-621.390	1.264	0.521	0.379
-620.376	420.496	0.254	0.550
-619.361	-200.000	-0.100	-0.586
-618.346	-200.000	-0.012	0.069
-617.332	-200.000	-0.012	0.257
-616.317	266.398	-0.203	-0.359
-615.303	32.571	0.407	-0.356
-614.288	-200.000	0.087	0.840
-613.273	28.516	0.231	-0.198
-612.259	-68.903	0.371	0.145
-611.244	-200.000	-0.028	-0.138
-610.230	-200.000	-0.002	-0.280
-609.215	800.000	0.154	-0.558
-608.201	536.537	-0.164	-0.394
-607.186	235.415	-0.231	-0.385
-606.171	88.373	0.293	-0.329
-605.157	-86.342	0.282	-0.088
-604.142	19.595	-0.448	0.365
-603.128	497.413	-0.129	-0.300
-602.113	800.000	0.042	0.169
-601.098	-200.000	0.071	-0.372
-600.084	245.697	-0.495	0.842
-599.069	-31.188	-0.911	0.519
-598.055	-18.317	0.547	-0.346
-597.040	-55.810	-0.721	-0.326
-596.025	33.757	-0.336	-0.296
-595.011	-37.076	-0.206	-0.112
-593.996	245.036	0.172	0.292
-592.982	800.000	-0.071	-0.264
-591.967	-101.742	-0.895	0.219
-590.952	-79.230	-0.049	0.017
-589.938	57.953	0.395	-0.391
-588.923	-117.279	0.809	0.149
-587.909	176.328	0.052	0.076
-586.894	-10.677	0.328	-0.220
-585.879	-59.015	-0.463	-0.202
-584.865	-11.349	-0.205	0.136
-583.850	-128.166	0.838	-0.121
-582.836	17.306	-0.516	0.414
-581.821	-15.682	0.335	-0.216
-580.806	-152.476	0.953	-0.069
-579.792	-200.000	-0.030	-0.194
-578.777	-138.233	-0.322	-0.036
-577.763	-200.000	0.050	0.600
-576.748	800.000	0.119	0.451
-575.733	-200.000	0.057	0.387
-574.719	-147.653	-0.574	0.049
-573.704	162.237	0.228	0.323
-572.690	-200.000	0.035	0.486
-571.675	-200.000	-0.079	-0.428
-570.661	767.475	-0.288	-0.792
-569.646	-74.742	-0.326	-0.118
-568.631	-41.364	-0.614	-0.319
-567.617	800.000	0.204	-0.727
-566.602	-78.467	-0.835	0.289
-565.588	-63.348	-0.240	-0.100
-564.573	-200.000	-0.070	0.987
-563.558	-133.449	-0.427	-0.054
-562.544	712.845	-0.100	0.268
-561.529	348.581	-0.246	-0.491
-560.515	-30.633	0.230	0.131
-559.500	-137.300	0.126	0.014
-558.485	-181.378	0.572	-0.011
-557.471	800.000	0.141	-0.471
-556.456	-120.638	-0.809	0.138
-555.442	-33.921	0.371	-0.206
-554.427	-23.728	0.249	0.151
-553.412	-65.803	-0.607	0.245
-552.398	-45.985	0.262	-0.130
-551.383	-200.000	0.085	1.049
-550.369	-200.000	0.070	-0.316
-549.354	800.000	-0.301	0.936
-548.339	145.042	-0.356	-0.481
-547.325	-128.876	0.881	0.125
-546.310	-188.161	-0.268	0.003
-545.296	156.677	-0.169	-0.235
-544.281	377.112	0.210	-0.434
-543.266	800.000	-0.115	0.394
-542.252	800.000	0.028	0.090
-541.237	60.918	-0.331	-0.331
-540.223	366.124	0.182	-0.371
-539.208	800.000	0.305	1.144
-538.193	257.063	0.567	0.983
-537.179	508.507	0.265	-0.621
-536.164	-200.000	-0.014	-0.671
-535.150	800.000	0.084	-0.237
-534.135	196.460	-0.272	0.418
-533.121	128.117	-0.128	0.165
-532.106	31.012	-0.249	-0.215
-531.091	-132.524	-0.665	-0.086
-530.077	-8.607	-0.202	-0.137
-529.062	800.000	-0.144	0.534
-528.048	190.916	-0.178	0.271
-527.033	-123.633	-0.614	0.098
-526.018	18.528	-0.244	0.196
-525.004	34.690	0.205	-0.181
-523.989	-200.000	0.095	-0.477
-522.975	316.500	-0.184	0.350
-521.960	-98.749	-0.316	-0.081
-520.945	-200.000	-0.014	0.134
-519.931	-200.000	-0.125	0.696
-518.916	-200.000	0.088	0.906
-517.902	-200.000	0.009	-0.074
-516.887	-171.464	0.166	0.006
-515.872	-142.311	0.325	0.032
-514.858	77.129	0.315	0.337
-513.843	-153.142	-0.713	-0.050
-512.829	-121.043	-0.419	-0.071
-511.814	405.482	0.189	-0.401
-510.799	-145.924	0.372	-0.033
-509.785	-105.097	-0.210	-0.048
-508.770	243.806	0.287	-0.485
-507.756	700.494	-0.217	0.576
-506.741	-145.557	-0.856	-0.077
-505.726	-20.649	-0.942	0.583
-504.712	-200.000	-0.193	-1.262
-503.697	129.096	0.336	0.432
-502.683	33.025	-0.392	0.342
-501.668	699.130	0.092	0.244
-500.653	281.634	0.055	0.099
-499.639	91.268	-0.164	0.185
-498.624	800.000	0.111	0.330
-497.610	-93.347	-0.563	0.157
-496.595	-45.444	0.138	0.069
-495.581	217.031	-0.175	0.281
-494.566	-103.289	0.077	-0.018
-493.551	157.210	-0.216	0.302
-492.537	-200.000	0.025	0.571
-491.522	49.138	-0.487	-0.461
-490.508	5.895	-0.200	-0.149
-489.493	21.966	-0.010	-0.008
-488.478	-12.944	-0.592	-0.388
-487.464	78.796	0.308	0.332
-486.449	-33.444	0.219	-0.122
-485.435	-46.102	-0.387	-0.192
-484.420	148.144	-0.356	-0.484
-483.405	-200.000	-0.079	-1.368
-482.391	16.536	0.823	0.655
-481.376	114.331	-0.546	-0.669
-480.362	-200.000	0.005	-1.009
-479.347	-200.000	0.106	-0.482
-478.332	156.699	-0.359	0.500
-477.318	118.205	0.328	-0.407
-476.303	-200.000	-0.037	-0.441
-475.289	-34.840	-0.413	0.227
-474.274	-19.944	-0.279	0.174
-473.259	-20.124	0.946	0.587
-472.245	278.500	0.132	-0.236
-471.230	-1.051	-0.677	-0.482
-470.216	-70.136	0.442	-0.169
-469.201	548.473	-0.267	-0.643
-468.186	20.239	0.438	0.356
-467.172	-60.211	0.129	0.055
-466.157	-144.136	-0.769	-0.072
-465.143	215.302	-0.322	0.514
-464.128	800.000	-0.200	0.670
-463.113	175.453	-0.524	-0.764
-462.099	-153.878	0.290	-0.020
-461.084	263.009	-0.235	0.410
-460.070	-57.968	1.046	-0.459
-459.055	-86.777	0.504	0.155
-458.040	29.983	0.137	0.118
-457.026	-200.000	-0.023	-0.116
-456.011	189.699	0.261	0.394
-454.997	-12.209	0.466	-0.307
-453.982	105.897	-0.231	-0.275
-452.968	-16.918	0.402	0.255
-451.953	-200.000	-0.059	-1.299
-450.938	-71.059	-0.214	-0.081
-449.924	183.306	-0.165	0.244
-448.909	38.595	0.155	-0.139
-447.895	-160.150	-0.557	0.030
-446.880	21.756	0.531	-0.434
-445.865	173.332	-0.109	0.159
-444.851	-14.972	-0.788	-0.508
-443.836	-33.388	-0.510	0.284
-442.822	-63.731	-0.258	-0.106
-441.807	800.000	0.045	0.194
-440.792	24.745	-0.117	-0.097
-439.778	27.336	0.345	-0.291
-438.763	1.101	-0.890	-0.642
-437.749	-36.543	0.261	-0.141
-436.734	17.690	-0.251	0.201
-435.719	-117.244	-0.247	-0.045
-434.705	-200.000	-0.036	-0.419
-433.690	-200.000	-0.004	0.122
-432.676	74.387	-0.111	0.117
-431.661	640.812	-0.045	-0.114
-430.646	-200.000	0.057	-0.557
-429.632	491.896	-0.069	0.158
-428.617	193.245	0.275	0.418
-427.603	629.662	-0.378	0.960
-426.588	51.707	0.320	0.306
-425.573	-200.000	-0.024	-0.613
-424.559	-200.000	-0.005	-0.094
-423.544	-82.992	0.533	0.173
-422.530	-111.220	0.754	-0.155
-421.515	-200.000	0.033	-1.125
-420.500	98.415	-0.474	-0.549
-419.486	-200.000	0.011	0.232
-418.471	145.870	0.783	1.054
-417.457	246.096	-0.249	0.422
-416.442	-23.966	-0.765	-0.459
-415.428	-34.583	-0.728	0.400
-414.413	800.000	-0.070	0.225
-413.398	-145.133	-0.444	0.040
-412.384	-155.314	0.670	0.044
-411.369	-142.861	0.535	0.052
-410.355	-200.000	0.075	0.424
-409.340	-134.591	-1.025	-0.125
-408.325	338.912	-0.309	0.604
-407.311	-200.000	-0.005	-0.346
-406.296	-200.000	0.009	-0.264
-405.282	-200.000	0.014	0.136
-404.267	-20.157	0.171	0.106
-403.252	99.973	-0.330	0.384
-402.238	35.312	-0.181	-0.160
-401.223	68.183	-0.542	0.557
-400.209	-30.971	-0.666	-0.378
-399.194	-55.477	0.115	-0.052
-398.179	31.690	0.284	0.245
-397.165	49.412	0.365	0.345
-396.150	285.330	-0.325	-0.587
-395.136	-21.386	0.724	-0.444
-394.121	-62.531	0.613	0.256
-393.106	-62.070	-0.552	-0.231
-392.092	-200.000	-0.027	0.696
-391.077	-15.712	0.307	0.196
-390.063	0.631	-0.595	-0.427
-389.048	-41.296	0.677	0.350
-388.033	1.513	0.260	-0.188
-387.019	-200.000	0.051	-0.250
-386.004	111.190	-0.200	-0.242
-384.990	-37.089	-0.190	0.102
-383.975	0.341	-0.428	-0.306
-382.960	-200.000	-0.002	-0.123
-381.946	539.954	0.263	-0.626
-380.931	-174.200	0.408	-0.012
-379.917	-2.554	0.150	-0.105
-378.902	-151.214	0.262	-0.020
-377.888	-139.828	0.298	-0.032
-376.873	57.955	0.688	-0.675
-375.858	-112.056	0.572	0.115
-374.844	1.833	-0.399	-0.289
-373.829	28.275	0.446	-0.377
-372.815	-39.403	0.582	-0.306
-371.800	-176.292	0.464	-0.012
-370.785	76.021	0.246	0.261
-369.771	-125.698	-0.279	0.042
-368.756	-40.894	0.396	0.205
-367.742	159.803	0.447	0.624
-366.727	-29.242	0.212	0.122
-365.712	-139.480	0.295	0.032
-364.698	-200.000	-0.005	0.208
-363.683	-146.568	-0.102	0.009
-362.669	-44.997	-0.236	-0.118
-361.654	-112.473	0.364	0.073
-360.639	-31.538	-0.498	-0.280
-359.625	-117.225	-0.324	-0.059
-358.610	-63.604	1.016	0.418
-357.596	-200.000	-0.022	-0.970
-356.581	166.314	0.358	-0.508
-355.566	-200.000	0.071	-0.515
-354.552	-98.743	0.853	-0.217
-353.537	-52.649	-0.348	-0.161
-352.523	-163.351	-0.521	0.025
-351.508	-48.939	-0.391	-0.187
-350.493	64.484	-0.264	0.267
-349.479	514.143	-0.326	-0.761
-348.464	139.981	0.065	0.086
-347.450	91.862	-0.284	-0.320
-346.435	-56.806	0.436	-0.193
-345.420	-30.405	-0.585	0.332
-344.406	-123.972	-0.270	0.043
-343.391	408.074	-0.261	0.552
-342.377	175.570	0.273	-0.397
-341.362	46.835	0.445	0.414
-340.348	367.234	-0.295	0.597
-339.333	168.385	0.268	0.382
-338.318	147.209	-0.290	0.391
-337.304	-200.000	0.028	0.668
-336.289	146.023	-0.497	-0.667
-335.275	272.059	0.452	0.798
-334.260	11.459	0.583	-0.447
-333.245	626.887	-0.311	0.786
-332.231	240.481	0.226	-0.378
-331.216	411.120	-0.118	-0.251
-330.202	98.131	-0.434	-0.500
-329.187	-200.000	0.155	0.745
-328.172	286.440	-0.284	-0.514
-327.158	-162.948	0.564	-0.027
-326.143	-119.967	0.681	0.117
-325.129	-27.683	-0.494	0.287
-324.114	-18.102	-0.326	-0.204
-323.099	-84.572	0.833	0.263
-322.085	-200.000	0.004	-0.100
-321.070	299.447	0.246	0.453
-320.056	-107.067	0.654	0.145
-319.041	800.000	-0.074	0.314
-318.026	-80.703	-0.702	-0.234
-317.012	-200.000	-0.115	0.718
-315.997	45.226	-0.217	0.200
-314.983	-116.385	-0.831	-0.154
-313.968	-200.000	0.063	-0.399
-312.953	-57.593	0.606	0.265
-311.939	-55.625	0.247	-0.111
-310.924	21.983	-0.408	-0.333
-309.910	258.632	-0.142	-0.245
-308.895	609.370	-0.057	0.143
-307.880	-200.000	0.182	0.867
-306.866	24.289	0.717	0.592
-305.851	-158.080	0.413	0.024
-304.837	299.131	0.374	0.689
-303.822	2.464	-0.578	0.418
-302.807	-87.315	-0.300	-0.091
-301.793	800.000	-0.138	0.575
-300.778	-200.000	-0.050	0.648
-299.764	-102.865	-0.150	0.036
-298.749	800.000	0.102	0.406
-297.735	582.547	-0.228	0.559
-296.720	668.702	0.210	-0.542
-295.705	-64.193	-0.153	-0.062
-294.691	-39.193	-0.159	0.083
-293.676	443.364	0.288	-0.631
-292.662	74.513	0.558	0.586
-291.647	-200.000	-0.037	0.548
-290.632	67.552	0.310	0.316
-289.618	-76.018	-0.339	-0.120
-288.603	-50.355	0.833	-0.393
-287.589	-82.420	-0.119	-0.039
-286.574	800.000	0.092	0.266
-285.559	-135.366	-0.392	-0.047
-284.545	156.434	-0.225	-0.311
-283.530	-21.694	0.730	-0.444
-282.516	-6.539	-0.788	-0.536
-281.501	135.169	0.109	-0.142
-280.486	-200.000	0.034	-0.274
-279.472	-85.544	0.562	0.175
-278.457	71.495	0.655	-0.680
-277.443	-144.514	-0.069	0.006
-276.428	-25.654	0.356	0.210
-275.413	800.000	-0.126	-0.397
-274.399	-94.066	0.467	0.128
-273.384	-64.879	0.447	0.181
-272.370	-200.000	-0.037	0.324
-271.355	157.947	0.474	0.657
-270.340	-86.206	-0.222	-0.068
-269.326	111.604	-0.248	-0.298
-268.311	-200.000	0.013	0.912
-267.297	766.861	-0.176	0.477
-266.282	196.057	-0.680	-1.033
-265.267	-42.307	-0.293	-0.150
-264.253	-97.732	0.297	-0.077
-263.238	-138.448	0.352	-0.039
-262.224	-87.192	-0.541	-0.164
-261.209	-109.001	0.105	0.022
-260.195	-14.674	0.576	0.369
-259.180	-83.868	-0.925	-0.294
-258.165	180.071	0.444	-0.650
-257.151	64.605	0.351	0.353
-256.136	311.330	-0.046	-0.087
-255.122	-20.588	-0.668	-0.410
-254.107	675.578	0.174	0.450
-253.092	197.073	0.328	0.499
-252.078	-200.000	-0.009	-0.172
-251.063	-44.639	-0.660	-0.329
-250.049	-200.000	-0.063	-0.458
-249.034	-89.891	1.181	-0.344
-248.019	-107.682	-0.160	-0.035
-247.005	79.713	1.032	1.105
-245.990	800.000	-0.259	0.869
-244.976	-49.766	-0.220	0.104
-243.961	-40.156	0.443	0.230
-242.946	116.354	0.074	-0.090
-241.932	-39.715	0.260	0.136
-240.917	179.924	-0.179	0.261
-239.903	-102.713	0.542	-0.129
-238.888	7.197	0.468	0.348
-237.873	-108.646	0.981	0.210
-236.859	-200.000	0.059	-0.514
-235.844	-200.000	0.059	0.749
-234.830	214.014	0.396	-0.625
-233.815	-200.000	0.120	-0.797
-232.800	80.017	-0.160	-0.171
-231.786	800.000	0.059	0.212
-230.771	-69.078	0.624	0.239
-229.757	-200.000	0.017	-0.365
-228.742	70.083	0.650	0.668
-227.727	-200.000	0.009	-0.778
-226.713	-8.313	0.135	-0.091
-225.698	-101.470	0.223	-0.054
-224.684	-20.661	-0.437	-0.267
-223.669	613.104	0.162	-0.404
-222.655	-117.775	-0.486	-0.087
-221.640	-200.000	-0.169	0.917
-220.625	88.467	0.468	0.519
-219.611	-128.225	-0.271	-0.038
-218.596	-14.847	-0.365	0.233
-217.582	-161.616	0.663	-0.034
-216.567	-66.360	-0.743	0.294
-215.552	-179.172	0.471	0.010
-214.538	-6.286	-0.577	0.392
-213.523	-11.784	0.235	-0.154
-212.509	132.041	-0.527	-0.676
-211.494	-7.261	-0.040	0.027
-210.479	-200.000	-0.004	-0.321
-209.465	800.000	-0.136	0.459
-208.450	34.857	-0.531	0.463
-207.436	-200.000	-0.058	-0.466
-206.421	-8.067	-0.801	-0.537
-205.406	-131.906	-0.430	-0.056
-204.392	-70.405	0.435	-0.164
-203.377	173.866	-0.143	-0.206
-202.363	-2.699	-1.062	-0.739
-201.348	-200.000	0.124	-0.592
-200.333	-178.065	0.650	0.015
-199.319	800.000	0.053	0.226
-198.304	-3.059	-0.319	0.222
-197.290	28.102	0.012	-0.010
-196.275	-121.113	0.327	0.055
-195.260	-200.000	-0.005	0.484
-194.246	-61.402	-0.237	-0.099
-193.231	-140.668	0.702	0.072
-192.217	192.163	0.482	-0.724
-191.202	129.108	-0.217	-0.276
-190.187	106.776	-0.301	0.355
-189.173	-42.288	-0.336	-0.171
-188.158	334.985	0.580	1.118
-187.144	-200.000	-0.037	-0.191
-186.129	516.776	0.200	-0.465
-185.114	123.174	0.347	-0.433
-184.100	68.590	-0.807	-0.823
-183.085	455.765	0.330	0.728
-182.071	9.101	0.324	0.243
-181.056	-52.765	-0.527	0.242
-180.042	231.437	0.092	-0.151
-179.027	113.059	-0.741	-0.894
-178.012	-122.491	0.386	0.062
-176.998	800.000	-0.103	-0.313
-175.983	-165.553	0.170	-0.007
-174.969	-200.000	-0.013	-0.228
-173.954	-0.355	0.608	-0.430
-172.939	-200.000	-0.034	0.829
-171.925	83.619	0.413	0.448
-170.910	779.243	0.465	1.263
-169.896	800.000	-0.366	-1.134
-168.881	495.361	-0.157	-0.358
-167.866	270.152	-0.333	0.582
-166.852	-52.906	0.285	0.131
-165.837	48.587	-0.295	-0.275
-164.823	-41.191	-0.110	-0.056
-163.808	-151.044	0.896	-0.067
-162.793	98.017	-0.491	-0.562
-161.779	-61.511	-0.915	-0.382
-160.764	-101.134	0.788	-0.192
-159.750	199.146	-0.300	-0.457
-158.735	60.566	0.205	-0.202
-157.720	-200.000	-0.061	0.367
-156.706	-200.000	-0.089	0.623
-155.691	-103.372	0.055	-0.013
-154.677	-192.154	-0.421	0.004
-153.662	-155.540	0.424	-0.027
-152.647	212.235	0.232	0.364
-151.633	800.000	0.148	-0.523
-150.618	103.379	-0.119	-0.138
-149.604	63.049	0.088	-0.087
-148.589	-4.343	0.200	-0.137
-147.574	-76.457	0.763	-0.266
-146.560	-80.800	-0.256	-0.084
-145.545	41.571	0.657	0.591
-144.531	-26.956	0.254	0.147
-143.516	-81.244	0.802	-0.263
-142.502	506.043	0.172	-0.395
-141.487	-48.775	0.184	-0.088
-140.472	-5.015	-0.457	-0.313
-139.458	315.644	0.477	-0.893
-138.443	-114.399	0.464	0.089
-137.429	271.576	-0.360	0.631
-136.414	-200.000	0.044	-0.481
-135.399	800.000	-0.100	-0.393
-134.385	97.085	-0.434	-0.494
-133.370	254.377	0.233	-0.395
-132.356	6.705	0.343	-0.253
-131.341	800.000	0.168	-0.529
-130.326	-200.000	0.006	-0.155
-129.312	-121.507	0.127	0.021
-128.297	-156.040	0.450	-0.028
-127.283	267.224	0.144	-0.251
-126.268	-100.929	-0.690	-0.168
-125.253	734.825	-0.231	0.615
-124.239	-93.926	-0.223	0.061
-123.224	800.000	-0.149	0.632
-122.210	-121.997	0.385	-0.063
