DTS Sentinel unit serial number:	SN413079Multiplexer serial number:	ORYXHardware model number:	OX4-SRSoftware version number:	ORYX F/W v4.00 Oryx Data Collector v3.7.2.0data status	okinstallation	princeton_trtdifferential loss correction	single-endedforward channel	channel 4reverse channel	N/Adate	2019/09/12time	19:47:19forward acquisition time	15.00reverse acquisition time	0.00gamma	496.2192k internal	0.2311k external	0.2311temperature offset calibration	1.0144default loss term (dB/km)	0.3790temperature slope calibration	1.0000multiplexer offset coefficient	1.0000multiplexer slope coefficient	1.0000fibre end	0.00T internal ref (°C)	32.00T ext. ref 1 (°C)	3.37T ext. ref 2 (°C)	26.53length (m)	temperature (°C)	Stokes	anti-Stokes-747.200	800.000	-0.109	0.469
-746.185	-200.000	0.037	0.612
-745.171	222.082	0.292	-0.477
-744.156	800.000	-0.141	-0.622
-743.142	-200.000	-0.130	-0.646
-742.127	279.292	0.117	-0.212
-741.112	-131.651	0.712	-0.095
-740.098	-200.000	0.097	0.467
-739.083	474.523	0.050	0.115
-738.069	61.431	0.536	0.541
-737.054	94.584	0.081	-0.093
-736.039	35.712	-0.265	0.237
-735.025	-49.296	0.660	-0.320
-734.010	-96.248	0.481	-0.129
-732.996	-200.000	-0.015	0.615
-731.981	-136.991	-0.566	-0.066
-730.966	-200.000	0.204	1.023
-729.952	187.292	0.403	-0.610
-728.937	481.753	-0.311	-0.717
-727.923	727.493	-0.249	0.675
-726.908	-59.303	-0.492	0.215
-725.894	-74.224	-0.274	-0.101
-724.879	-24.647	0.859	0.518
-723.864	223.402	0.163	-0.267
-722.850	177.977	-0.174	0.257
-721.835	-11.463	-0.286	-0.191
-720.821	651.392	0.308	-0.801
-719.806	301.127	-0.210	0.393
-718.791	171.805	-0.459	-0.668
-717.777	-200.000	-0.135	-0.703
-716.762	-200.000	0.537	0.002
-715.748	-10.693	0.443	-0.297
-714.733	140.149	0.115	0.153
-713.718	70.658	-0.607	0.637
-712.704	418.294	0.109	0.236
-711.689	-92.710	0.621	-0.176
-710.675	-200.000	0.061	-0.345
-709.660	-89.689	-0.474	-0.141
-708.645	-147.499	0.333	-0.029
-707.631	-74.451	-0.948	-0.346
-706.616	-115.611	-0.771	0.147
-705.602	260.032	0.219	0.384
-704.587	-200.000	0.025	0.466
-703.572	-85.379	-0.466	-0.147
-702.558	80.795	0.351	-0.384
-701.543	-114.989	-1.101	-0.212
-700.529	-83.926	-0.311	0.100
-699.514	53.619	-0.683	-0.664
-698.499	-172.551	-0.631	0.020
-697.485	279.149	-0.473	0.856
-696.470	30.579	-0.422	0.366
-695.456	-200.000	0.004	-0.966
-694.441	114.367	0.311	0.384
-693.426	-56.835	-0.234	-0.105
-692.412	737.431	-0.215	-0.584
-691.397	-20.549	-1.243	0.774
-690.383	-200.000	-0.082	0.733
-689.368	-82.834	-0.358	0.117
-688.354	-182.603	-0.762	0.014
-687.339	-200.000	-0.027	-0.199
-686.324	-79.457	-0.688	0.236
-685.310	73.539	0.164	0.174
-684.295	-58.685	-0.986	0.433
-683.281	-108.419	-0.462	-0.101
-682.266	-87.897	0.844	-0.257
-681.251	328.650	-0.170	-0.330
-680.237	55.339	0.373	-0.365
-679.222	34.707	0.444	-0.393
-678.208	-200.000	0.042	0.267
-677.193	-200.000	0.058	-0.689
-676.178	36.870	0.359	0.321
-675.164	134.363	-0.248	-0.326
-674.149	8.620	-0.066	-0.051
-673.135	-200.000	0.027	-0.162
-672.120	356.186	0.304	0.614
-671.105	-200.000	-0.042	-0.211
-670.091	22.863	-0.276	0.229
-669.076	17.355	-0.178	0.143
-668.062	-14.318	-0.247	-0.161
-667.047	53.268	-0.387	-0.375
-666.032	800.000	-0.111	0.439
-665.018	42.162	0.224	0.206
-664.003	349.309	0.205	-0.409
-662.989	230.983	0.342	-0.566
-661.974	-200.000	-0.061	-0.382
-660.959	-162.153	0.444	0.023
-659.945	-65.573	-0.363	0.147
-658.930	224.423	-0.240	0.393
-657.916	215.861	0.403	0.648
-656.901	-51.579	0.471	0.222
-655.886	-61.620	-0.896	-0.380
-654.872	-200.000	-0.018	-0.471
-653.857	-34.044	-0.647	-0.360
-652.843	218.036	0.335	-0.540
-651.828	-200.000	0.064	-0.298
-650.814	-200.000	-0.033	-0.430
-649.799	37.101	-0.090	-0.081
-648.784	136.048	0.437	-0.576
-647.770	800.000	0.171	-0.707
-646.755	-114.110	0.489	0.096
-645.741	-93.533	-0.702	-0.196
-644.726	-58.620	-0.422	-0.185
-643.711	60.027	0.516	-0.516
-642.697	800.000	-0.018	0.050
-641.682	228.582	0.244	0.403
-640.668	800.000	-0.173	0.616
-639.653	9.484	-0.117	0.089
-638.638	74.451	-0.373	-0.396
-637.624	-200.000	0.015	0.489
-636.609	-156.719	0.867	0.054
-635.595	800.000	0.079	0.316
-634.580	-71.438	0.774	0.293
-633.565	-200.000	-0.119	-0.631
-632.551	-119.169	-0.446	-0.079
-631.536	800.000	-0.191	0.648
-630.522	800.000	-0.102	-0.323
-629.507	-200.000	0.018	-0.380
-628.492	-200.000	0.077	-0.468
-627.478	169.125	0.267	-0.384
-626.463	-145.884	0.424	-0.038
-625.449	179.438	-0.602	0.891
-624.434	-2.052	0.954	0.677
-623.419	-91.491	0.600	0.173
-622.405	-200.000	0.068	0.505
-621.390	-85.260	0.500	-0.158
-620.376	-200.000	0.004	-0.319
-619.361	-17.458	0.527	-0.335
-618.346	-200.000	-0.098	0.643
-617.332	800.000	-0.211	0.757
-616.317	152.594	0.329	-0.455
-615.303	-66.157	-0.375	-0.151
-614.288	-82.138	0.431	0.142
-613.273	-200.000	0.025	0.456
-612.259	-42.516	-0.477	0.246
-611.244	800.000	-0.070	0.296
-610.230	11.689	-0.251	-0.194
-609.215	-174.420	-0.576	-0.017
-608.201	-49.534	-0.328	-0.158
-607.186	-68.330	0.321	0.126
-606.171	219.954	-0.116	-0.188
-605.157	60.219	-0.339	-0.339
-604.142	800.000	0.069	-0.238
-603.128	-32.906	-0.527	-0.296
-602.113	177.098	-0.075	-0.110
-601.098	22.562	-0.264	-0.218
-600.084	306.432	-0.186	-0.349
-599.069	-200.000	0.068	-0.326
-598.055	-171.878	-0.431	0.014
-597.040	554.464	-0.235	-0.571
-596.025	30.534	-0.529	-0.456
-595.011	-18.233	-0.364	0.230
-593.996	638.816	-0.174	-0.448
-592.982	-150.911	1.047	-0.080
-591.967	-200.000	-0.041	-0.435
-590.952	-52.105	-0.375	-0.176
-589.938	-185.962	-0.356	0.005
-588.923	-200.000	-0.024	-0.223
-587.909	43.304	0.164	0.151
-586.894	-76.890	0.516	0.182
-585.879	-25.392	0.632	-0.377
-584.865	-139.158	0.198	-0.022
-583.850	-130.950	0.246	0.033
-582.836	-200.000	-0.098	-0.471
-581.821	140.174	-0.156	-0.208
-580.806	-131.056	-0.296	-0.040
-579.792	800.000	-0.162	-0.478
-578.777	21.333	-0.652	0.534
-577.763	800.000	-0.152	0.581
-576.748	-43.270	-0.188	0.096
-575.733	-43.014	-1.013	-0.518
-574.719	-164.859	-0.513	0.023
-573.704	134.626	-0.400	-0.524
-572.690	800.000	-0.266	0.745
-571.675	7.349	0.235	-0.177
-570.661	25.248	0.631	-0.529
-569.646	-57.577	0.310	0.137
-568.631	-79.793	-0.237	-0.080
-567.617	-25.926	0.836	0.497
-566.602	-124.964	-0.306	-0.047
-565.588	-37.853	-0.257	0.138
-564.573	136.578	-0.202	0.266
-563.558	-200.000	-0.024	-0.242
-562.544	178.442	0.275	-0.405
-561.529	344.878	-0.306	-0.606
-560.515	800.000	-0.164	0.526
-559.500	-200.000	0.026	-0.493
-558.485	-200.000	-0.002	0.138
-557.471	78.027	-0.154	-0.165
-556.456	-200.000	-0.034	-0.176
-555.442	534.002	0.136	-0.325
-554.427	227.272	0.068	-0.112
-553.412	-59.015	-0.214	0.093
-552.398	-134.642	0.381	0.047
-551.383	239.772	0.713	-1.197
-550.369	-62.950	-0.534	-0.222
-549.354	-11.475	0.290	-0.193
-548.339	-113.357	0.555	0.110
-547.325	274.388	-0.152	0.271
-546.310	-199.824	0.592	0.003
-545.296	173.149	-0.248	0.360
-544.281	-200.000	0.008	0.191
-543.266	-35.290	-0.429	-0.235
-542.252	162.473	-0.236	0.333
-541.237	800.000	-0.114	0.354
-540.223	-200.000	-0.005	0.228
-539.208	-12.227	-0.388	0.255
-538.193	168.104	0.295	0.422
-537.179	224.934	0.194	0.316
-536.164	27.126	-0.661	0.559
-535.150	-57.776	0.980	0.432
-534.135	-135.973	0.596	-0.071
-533.121	-181.714	-0.755	0.015
-532.106	-200.000	0.198	1.430
-531.091	-81.007	0.937	0.312
-530.077	-116.873	0.910	0.168
-529.062	128.013	0.510	0.652
-528.048	173.259	0.748	1.085
-527.033	162.341	0.305	0.430
-526.018	137.475	0.284	-0.374
-525.004	298.395	-0.372	-0.689
-523.989	-200.000	-0.028	-0.618
-522.975	-85.828	-0.522	0.163
-521.960	4.975	0.295	-0.218
-520.945	618.123	0.366	-0.925
-519.931	-200.000	0.033	-1.071
-518.916	67.664	0.551	-0.567
-517.902	-200.000	0.024	-1.372
-516.887	100.777	-0.219	0.256
-515.872	-200.000	-0.039	-0.328
-514.858	-124.968	-0.475	0.074
-513.843	-30.785	0.568	0.323
-512.829	-50.007	-0.229	-0.109
-511.814	800.000	0.132	-0.513
-510.799	95.500	-0.261	0.300
-509.785	-72.575	-0.672	-0.249
-508.770	-200.000	0.018	1.065
-507.756	800.000	-0.053	-0.228
-506.741	149.968	-0.421	0.575
-505.726	-62.101	0.828	0.347
-504.712	-200.000	-0.084	0.561
-503.697	-100.200	-0.551	-0.138
-502.683	800.000	0.149	0.501
-501.668	-106.550	0.087	0.019
-500.653	-200.000	0.037	-0.662
-499.639	33.653	-0.667	0.583
-498.624	-146.705	0.532	0.046
-497.610	85.224	0.420	-0.463
-496.595	104.662	0.094	0.112
-495.581	-88.282	0.428	-0.129
-494.566	800.000	-0.223	-0.969
-493.551	800.000	-0.011	-0.042
-492.537	65.227	0.420	-0.427
-491.522	-31.082	0.381	0.216
-490.508	478.548	-0.371	0.844
-489.493	800.000	-0.124	-0.363
-488.478	56.210	0.463	0.452
-487.464	-200.000	0.062	-0.762
-486.449	54.777	0.429	-0.416
-485.435	336.055	-0.214	0.417
-484.420	150.226	-0.480	0.654
-483.405	355.914	0.250	0.499
-482.391	195.848	-0.376	0.575
-481.376	800.000	-0.387	-1.188
-480.362	-101.638	0.708	0.173
-479.347	-153.433	0.296	-0.021
-478.332	-98.671	-0.271	0.069
-477.318	-200.000	-0.030	-0.879
-476.303	-141.491	-0.536	-0.054
-475.289	362.611	0.262	0.528
-474.274	300.462	0.536	0.992
-473.259	-6.252	-0.635	0.436
-472.245	-200.000	0.074	-1.957
-471.230	91.296	-0.320	0.361
-470.216	1.844	0.802	0.581
-469.201	800.000	0.185	-0.746
-468.186	-30.810	0.581	-0.330
-467.172	366.932	0.283	-0.574
-466.157	-96.275	-0.339	-0.090
-465.143	800.000	0.266	0.983
-464.128	471.266	0.211	-0.478
-463.113	-200.000	0.010	-0.374
-462.099	118.323	-0.269	-0.333
-461.084	800.000	0.245	0.753
-460.070	-124.274	-0.467	0.073
-459.055	-200.000	-0.013	0.682
-458.040	58.727	0.608	0.600
-457.026	-84.028	0.453	0.144
-456.011	-200.000	0.012	0.385
-454.997	-0.977	-0.721	0.512
-453.982	800.000	-0.078	-0.243
-452.968	-200.000	0.043	0.432
-451.953	322.075	-0.031	0.060
-450.938	-66.042	-1.246	0.499
-449.924	800.000	-0.306	0.931
-448.909	14.415	0.550	0.431
-447.895	800.000	-0.028	0.106
-446.880	-25.545	-0.623	0.369
-445.865	-51.464	0.242	-0.113
-444.851	31.872	0.597	0.516
-443.836	103.289	-0.092	-0.109
-442.822	800.000	-0.173	0.594
-441.807	-145.377	-0.480	-0.043
-440.792	23.313	-0.398	-0.328
-439.778	176.299	0.222	0.324
-438.763	38.487	0.833	0.745
-437.749	31.379	0.452	0.389
-436.734	396.694	-0.269	0.563
-435.719	67.279	0.298	-0.304
-434.705	-123.356	0.394	0.063
-433.690	-118.930	-0.679	0.120
-432.676	-200.000	0.008	-0.171
-431.661	111.855	-0.242	0.293
-430.646	285.912	-0.071	0.129
-429.632	-92.582	-0.579	-0.163
-428.617	116.046	0.352	0.432
-427.603	-90.846	-0.261	-0.075
-426.588	-200.000	0.087	0.399
-425.573	800.000	0.314	1.138
-424.559	-12.221	0.146	-0.096
-423.544	-200.000	-0.025	-0.732
-422.530	-148.171	-0.363	-0.030
-421.515	-179.747	0.477	-0.010
-420.500	-171.652	-0.336	0.011
-419.486	128.259	0.341	-0.436
-418.471	-200.000	0.074	0.715
-417.457	2.476	-1.117	-0.811
-416.442	-95.890	-0.778	0.208
-415.428	-92.061	-0.258	-0.073
-414.413	-60.796	0.078	0.033
-413.398	-24.072	-0.641	-0.384
-412.384	7.756	0.508	0.381
-411.369	800.000	-0.244	0.830
-410.355	-28.423	0.221	0.128
-409.340	4.708	-0.120	-0.088
-408.325	-112.099	0.889	-0.179
-407.311	339.172	-0.122	0.238
-406.296	-37.991	0.176	0.094
-405.282	-135.069	0.494	0.060
-404.267	0.084	0.341	-0.243
-403.252	-38.438	0.207	0.110
-402.238	349.633	0.151	0.300
-401.223	-102.768	-0.696	0.166
-400.209	800.000	0.099	0.338
-399.194	5.601	0.770	0.570
-398.179	-118.315	-0.499	-0.089
-397.165	-105.479	0.419	0.095
-396.150	-200.000	0.026	-0.904
-395.136	-60.737	0.314	0.133
-394.121	379.914	0.308	-0.632
-393.106	-145.177	0.732	-0.066
-392.092	800.000	0.130	-0.488
-391.077	-157.975	0.515	0.030
-390.063	-200.000	0.066	0.398
-389.048	87.124	-0.309	0.342
-388.033	106.240	-0.549	-0.652
-387.019	304.581	0.070	0.129
-386.004	-123.881	-1.334	0.211
-384.990	-63.648	0.874	0.359
-383.975	-99.514	-0.343	-0.086
-382.960	800.000	-0.108	0.330
-381.946	-200.000	0.079	-0.491
-380.931	-200.000	0.088	-0.594
-379.917	783.924	-0.118	0.324
-378.902	-111.627	-0.777	-0.158
-377.888	-200.000	-0.128	0.621
-376.873	-172.523	-0.256	0.008
-375.858	-126.759	-0.309	0.046
-374.844	215.575	-0.186	0.296
-373.829	-200.000	-0.015	0.449
-372.815	-36.160	-0.171	0.092
-371.800	-134.087	-0.511	-0.063
-370.785	-200.000	0.179	0.838
-369.771	-200.000	0.024	-0.765
-368.756	-33.112	0.305	0.169
-367.742	-200.000	-0.151	-0.854
-366.727	800.000	-0.124	-0.516
-365.712	335.965	-0.187	0.364
-364.698	635.908	-0.195	0.496
-363.683	-28.303	0.561	-0.324
-362.669	-200.000	-0.090	-0.743
-361.654	-200.000	-0.025	-0.352
-360.639	4.924	-0.067	0.049
-359.625	262.729	-0.212	-0.368
-358.610	-164.354	-0.557	0.026
-357.596	-116.487	0.226	0.042
-356.581	-200.000	0.034	-0.716
-355.566	-57.334	-0.597	0.262
-354.552	-96.046	1.089	0.290
-353.537	88.021	-0.423	-0.469
-352.523	-200.000	0.019	-0.894
-351.508	382.041	0.100	-0.205
-350.493	-200.000	-0.056	-0.545
-349.479	-200.000	-0.014	0.266
-348.464	800.000	0.288	0.874
-347.450	43.890	-0.621	-0.569
-346.435	53.245	0.930	-0.891
-345.420	-14.245	-0.751	-0.484
-344.406	102.576	0.210	0.245
-343.391	74.896	-0.687	0.723
-342.377	454.231	0.226	-0.501
-341.362	-33.855	-0.299	0.164
-340.348	-200.000	0.071	0.500
-339.333	-200.000	0.041	-0.424
-338.318	266.805	-0.504	0.881
-337.304	-200.000	-0.095	-0.524
-336.289	-113.940	-0.164	-0.032
-335.275	-52.564	-0.691	0.319
-334.260	13.307	0.663	-0.513
-333.245	-92.161	0.749	0.211
-332.231	-193.171	-0.676	0.006
-331.216	163.094	-0.430	-0.604
-330.202	-200.000	0.038	0.444
-329.187	800.000	0.333	0.974
-328.172	271.888	0.183	-0.323
-327.158	800.000	0.323	-1.053
-326.143	63.449	0.381	0.382
-325.129	-200.000	-0.044	1.200
-324.114	-200.000	-0.057	-0.486
-323.099	34.722	0.291	0.254
-322.085	-200.000	-0.058	0.322
-321.070	-200.000	0.019	0.452
-320.056	-200.000	0.083	0.374
-319.041	-200.000	-0.035	-0.692
-318.026	-59.439	-0.428	0.184
-317.012	-56.220	0.760	0.338
-315.997	104.310	-0.439	0.516
-314.983	-13.074	-0.447	-0.290
-313.968	179.315	0.344	0.502
-312.953	-55.291	0.353	0.158
-311.939	800.000	0.125	0.502
-310.924	125.306	0.279	-0.352
-309.910	-10.650	0.424	-0.280
-308.895	-200.000	0.134	-0.872
-307.880	158.354	-0.448	-0.620
-306.866	-171.295	1.233	0.041
-305.851	-113.803	-0.291	0.057
-304.837	-64.570	0.754	0.305
-303.822	392.397	0.153	-0.318
-302.807	-151.562	-0.582	0.043
-301.793	75.690	-0.329	-0.347
-300.778	-200.000	0.252	-1.672
-299.764	-38.168	0.583	-0.309
-298.749	-47.864	0.434	0.210
-297.735	-120.740	-0.452	0.076
-296.720	-89.169	-0.614	0.181
-295.705	92.551	-0.309	0.348
-294.691	-200.000	0.193	-1.165
-293.676	-200.000	0.028	-0.456
-292.662	76.621	0.422	0.446
-291.647	800.000	0.039	0.131
-290.632	-100.233	0.662	0.164
-289.618	278.054	-0.236	-0.420
-288.603	-153.608	0.575	-0.040
-287.589	58.649	0.663	0.649
-286.574	156.002	-0.328	0.451
-285.559	-8.492	0.415	0.278
-284.545	-53.006	-0.133	0.061
-283.530	30.475	0.455	-0.388
-282.516	-157.330	-0.595	-0.036
-281.501	-104.214	0.651	0.151
-280.486	28.104	-0.344	-0.290
-279.472	-128.276	-0.244	0.035
-278.457	-44.555	-0.758	0.378
-277.443	535.649	-0.122	0.290
-276.428	-200.000	0.028	0.195
-275.413	54.118	0.307	-0.295
-274.399	800.000	-0.291	1.045
-273.384	251.417	0.476	-0.808
-272.370	41.747	0.213	-0.192
-271.355	104.397	0.662	-0.777
-270.340	-35.051	0.493	-0.268
-269.326	-200.000	-0.007	0.553
-268.311	-113.721	0.258	-0.050
-267.297	204.445	0.461	-0.713
-266.282	138.441	0.405	-0.530
-265.267	144.207	0.129	0.172
-264.253	3.244	-0.331	-0.240
-263.238	18.882	0.261	-0.208
-262.224	-30.553	0.947	-0.535
-261.209	75.558	-0.049	-0.052
-260.195	456.273	-0.180	0.397
-259.180	-31.060	0.547	0.307
-258.165	-200.000	0.015	0.443
-257.151	-200.000	0.050	-1.092
-256.136	-1.798	-0.301	-0.211
-255.122	-8.259	-0.353	-0.237
-254.107	-200.000	-0.098	0.591
-253.092	-200.000	-0.144	-0.837
-252.078	-85.959	-0.079	0.024
-251.063	-200.000	-0.028	-0.962
-250.049	-200.000	-0.070	-0.486
-249.034	158.941	0.200	0.276
-248.019	800.000	-0.167	-0.696
-247.005	121.747	-0.596	0.740
-245.990	672.979	0.307	0.793
-244.976	122.682	-0.321	-0.400
-243.961	18.137	0.592	-0.470
-242.946	-153.199	-0.250	0.017
-241.932	129.072	0.420	-0.533
-240.917	-200.000	-0.016	0.156
-239.903	800.000	-0.033	0.094
-238.888	-200.000	-0.124	1.152
-237.873	-44.775	-0.390	-0.194
-236.859	-85.025	0.553	0.173
-235.844	54.703	0.324	0.311
-234.830	-200.000	-0.149	0.704
-233.815	160.022	0.159	-0.221
-232.800	473.164	0.420	0.941
-231.786	470.869	0.117	0.261
-230.771	-80.718	-0.241	0.080
-229.757	-61.290	-0.489	0.205
-228.742	-93.581	-0.719	-0.198
-227.727	768.076	0.159	-0.431
-226.713	-88.722	-0.522	-0.154
-225.698	-174.273	-0.377	-0.011
-224.684	273.417	0.345	0.606
-223.669	154.152	-0.097	0.133
-222.655	28.310	0.229	-0.193
-221.640	-200.000	-0.064	0.359
-220.625	242.901	-0.264	-0.439
-219.611	-200.000	-0.156	-0.724
-218.596	-87.993	0.373	-0.111
-217.582	800.000	0.279	0.939
-216.567	479.676	0.163	-0.368
-215.552	-48.927	0.247	-0.118
-214.538	-16.241	0.726	0.459
-213.523	-110.383	-0.631	0.130
-212.509	99.462	-0.300	0.345
-211.494	-65.324	0.071	-0.028
-210.479	-108.964	0.127	-0.027
-209.465	-153.634	-0.390	0.027
-208.450	-3.037	-0.972	0.674
-207.436	-200.000	-0.106	-0.789
-206.421	-107.600	-0.695	-0.151
-205.406	171.868	0.280	-0.399
-204.392	415.958	0.155	0.328
-203.377	-2.869	0.223	0.155
-202.363	-200.000	-0.152	-0.787
-201.348	-116.590	0.377	-0.069
-200.333	22.638	0.491	0.400
-199.319	-177.135	0.340	-0.008
-198.304	-200.000	0.022	-0.155
-197.290	-22.018	0.478	0.289
-196.275	800.000	0.278	-0.951
-195.260	-172.688	0.206	-0.006
-194.246	363.706	-0.057	0.114
-193.231	-144.235	-0.890	-0.083
-192.217	154.758	-0.084	0.114
-191.202	52.645	-0.290	0.276
-190.187	-105.107	-0.801	0.182
-189.173	-133.148	0.731	-0.092
-188.158	800.000	-0.266	-0.759
-187.144	-0.942	-0.371	-0.261
-186.129	1.078	-0.333	0.238
-185.114	-3.090	-0.319	0.221
-184.100	74.393	-0.278	-0.291
-183.085	800.000	0.172	-0.553
-182.071	-41.725	-0.240	0.122
-181.056	800.000	-0.138	0.501
-180.042	800.000	-0.109	0.436
-179.027	-70.736	-0.656	0.246
-178.012	800.000	-0.329	1.034
-176.998	-125.525	-0.152	-0.023
-175.983	-27.143	-0.505	-0.292
-174.969	-200.000	-0.040	-0.697
-173.954	278.402	-0.449	-0.795
-172.939	800.000	0.195	0.708
-171.925	-135.954	-0.311	-0.036
-170.910	195.942	0.400	-0.604
-169.896	571.361	-0.102	0.247
-168.881	-170.758	-0.711	0.024
-167.866	-53.708	-0.545	-0.247
-166.852	-200.000	-0.016	0.093
-165.837	475.107	-0.264	0.593
-164.823	484.731	0.139	-0.315
-163.808	800.000	-0.094	-0.313
-162.793	442.383	0.249	0.542
-161.779	18.843	-0.633	-0.503
-160.764	-100.068	-0.638	-0.158
-159.750	-170.911	-0.393	-0.013
-158.735	-123.856	0.912	0.143
-157.720	-23.265	0.462	0.276
-156.706	-68.593	-1.057	0.406
-155.691	558.780	-0.164	-0.393
-154.677	173.451	-0.476	-0.681
-153.662	-127.694	0.243	-0.035
-152.647	50.210	0.407	0.381
-151.633	-200.000	-0.170	0.828
-150.618	-200.000	-0.120	0.529
-149.604	51.479	0.212	-0.200
-148.589	-131.301	0.416	-0.055
-147.574	-71.705	0.542	0.201
-146.560	-0.110	0.503	0.355
-145.545	800.000	0.186	-0.603
-144.531	-200.000	-0.083	0.526
-143.516	-200.000	-0.036	0.278
-142.502	83.196	0.300	0.324
-141.487	-0.817	-0.454	-0.319
-140.472	-71.449	0.276	-0.102
-139.458	800.000	0.191	-0.769
-138.443	52.099	0.332	0.313
-137.429	-200.000	0.082	-0.940
-136.414	-25.482	-0.692	-0.406
-135.399	30.915	0.173	0.147
-134.385	97.915	-0.559	-0.638
-133.370	-18.502	-0.112	0.070
-132.356	-200.000	-0.081	0.384
-131.341	-200.000	-0.166	0.774
-130.326	-1.953	0.545	0.380
-129.312	800.000	-0.260	-0.952
-128.297	-41.396	0.686	0.350
-127.283	-4.496	-0.531	0.363
-126.268	-72.236	1.668	-0.613
-125.253	-101.870	-0.213	-0.051
-124.239	-200.000	0.140	-0.666
-123.224	414.405	-0.076	-0.160
-122.210	-46.946	-0.720	-0.349
