DTS Sentinel unit serial number:	SN413079Multiplexer serial number:	ORYXHardware model number:	OX4-SRSoftware version number:	ORYX F/W v4.00 Oryx Data Collector v3.7.2.0data status	okinstallation	princeton_trtdifferential loss correction	single-endedforward channel	channel 4reverse channel	N/Adate	2019/09/12time	18:28:19forward acquisition time	15.00reverse acquisition time	0.00gamma	496.2192k internal	0.2308k external	0.2308temperature offset calibration	1.0130default loss term (dB/km)	0.3790temperature slope calibration	1.0000multiplexer offset coefficient	1.0000multiplexer slope coefficient	1.0000fibre end	0.00T internal ref (°C)	33.31T ext. ref 1 (°C)	2.93T ext. ref 2 (°C)	27.90length (m)	temperature (°C)	Stokes	anti-Stokes-747.200	-200.000	-0.158	-0.721
-746.185	-45.201	0.518	-0.261
-745.171	-57.337	0.881	-0.394
-744.156	800.000	-0.061	-0.199
-743.142	-48.013	0.349	0.171
-742.127	-109.323	-0.397	-0.086
-741.112	79.210	-0.220	-0.240
-740.098	122.225	-0.322	0.408
-739.083	330.272	0.441	0.864
-738.069	-200.000	0.101	0.530
-737.054	-124.007	0.584	-0.093
-736.039	-105.481	-0.519	-0.120
-735.025	5.388	0.139	-0.104
-734.010	51.831	-0.524	-0.506
-732.996	156.472	-0.277	-0.389
-731.981	-16.333	0.629	0.406
-730.966	28.972	0.244	-0.210
-729.952	-185.705	1.211	0.018
-728.937	88.180	0.210	-0.237
-727.923	10.381	-0.087	-0.067
-726.908	-16.064	-0.568	0.367
-725.894	800.000	0.131	-0.458
-724.879	-5.398	0.102	-0.071
-723.864	-140.016	-0.478	-0.051
-722.850	-48.650	-0.507	-0.247
-721.835	-64.432	0.905	0.373
-720.821	781.905	-0.300	-0.834
-719.806	40.266	0.332	-0.303
-718.791	-78.297	-0.360	-0.125
-717.777	45.082	0.634	0.593
-716.762	24.302	-0.300	-0.252
-715.748	-73.361	-1.097	-0.407
-714.733	147.560	0.502	-0.686
-713.718	800.000	0.098	0.292
-712.704	-200.000	0.064	0.563
-711.689	800.000	0.111	-0.386
-710.675	165.035	0.126	-0.181
-709.660	-11.087	-0.326	-0.219
-708.645	365.293	0.208	-0.426
-707.631	800.000	0.287	-1.138
-706.616	20.440	0.542	-0.445
-705.602	-94.091	-0.708	0.197
-704.587	55.104	-0.138	0.136
-703.572	-200.000	-0.012	-0.172
-702.558	-2.717	-0.290	0.206
-701.543	-69.676	0.735	0.285
-700.529	116.884	0.508	0.633
-699.514	756.007	0.082	0.224
-698.499	-132.497	0.469	0.061
-697.485	138.531	-0.359	0.478
-696.470	18.302	-0.692	0.561
-695.456	800.000	-0.060	0.189
-694.441	-146.206	-0.691	0.062
-693.426	297.189	0.331	-0.616
-692.412	273.072	-0.252	-0.451
-691.397	62.323	-0.130	-0.131
-690.383	-24.937	-0.248	-0.149
-689.368	-200.000	0.010	-0.167
-688.354	-200.000	0.034	-0.651
-687.339	74.197	-0.490	0.522
-686.324	-200.000	0.068	-0.409
-685.310	587.355	-0.493	-1.230
-684.295	800.000	0.009	0.034
-683.281	635.723	-0.287	-0.739
-682.266	-53.562	-0.606	-0.281
-681.251	-72.514	-0.081	0.030
-680.237	800.000	0.152	-0.476
-679.222	181.464	-0.626	0.933
-678.208	-66.050	0.397	0.161
-677.193	-200.000	0.066	-0.595
-676.178	-200.000	0.064	-0.781
-675.164	798.766	0.139	0.389
-674.149	316.212	-0.172	-0.329
-673.135	-200.000	-0.011	0.463
-672.120	-57.848	0.845	-0.375
-671.105	26.488	0.276	0.234
-670.091	115.248	-0.224	-0.277
-669.076	-19.428	0.540	-0.339
-668.062	102.387	0.364	-0.431
-667.047	-74.621	0.141	-0.052
-666.032	400.906	-0.267	-0.568
-665.018	-10.756	0.442	0.296
-664.003	37.940	0.070	-0.063
-662.989	33.517	0.712	-0.626
-661.974	276.622	0.207	-0.373
-660.959	134.441	-0.175	0.230
-659.945	-38.978	0.650	-0.347
-658.930	-200.000	-0.011	-0.225
-657.916	-200.000	0.022	-0.510
-656.901	-57.898	-0.590	-0.261
-655.886	-49.272	-0.497	0.240
-654.872	167.553	-0.309	0.445
-653.857	-99.143	0.586	0.150
-652.843	800.000	-0.051	-0.156
-651.828	-200.000	-0.067	0.629
-650.814	-200.000	0.012	0.094
-649.799	11.870	0.145	0.113
-648.784	107.695	-0.401	0.484
-647.770	261.314	-0.404	0.709
-646.755	-155.856	-0.483	-0.031
-645.741	-200.000	0.361	0.000
-644.726	250.183	0.172	-0.295
-643.711	800.000	0.057	-0.218
-642.697	800.000	-0.268	1.062
-641.682	-79.107	0.296	0.102
-640.668	-200.000	-0.086	-0.400
-639.653	-200.000	-0.083	-0.624
-638.638	800.000	-0.077	-0.246
-637.624	35.221	0.645	0.572
-636.609	129.566	-0.591	0.764
-635.595	-200.000	0.116	0.776
-634.580	786.176	0.155	0.431
-633.565	-83.703	-0.540	0.175
-632.551	-200.000	-0.069	0.417
-631.536	-22.094	0.092	0.056
-630.522	800.000	0.113	0.398
-629.507	-44.567	-0.614	-0.311
-628.492	-138.905	0.086	0.009
-627.478	-157.227	-0.293	-0.018
-626.463	122.978	0.118	0.150
-625.449	183.713	0.325	0.486
-624.434	-141.514	0.564	-0.058
-623.419	-200.000	-0.022	-0.512
-622.405	55.128	0.733	-0.716
-621.390	-200.000	0.045	0.681
-620.376	-179.015	-0.950	0.022
-619.361	-137.142	0.849	0.098
-618.346	-18.877	-0.739	-0.465
-617.332	-148.866	0.819	-0.067
-616.317	65.287	-0.279	-0.285
-615.303	800.000	0.044	-0.162
-614.288	103.115	-0.058	-0.069
-613.273	283.988	-0.128	0.233
-612.259	-169.674	0.615	0.023
-611.244	143.835	-0.125	-0.168
-610.230	-28.096	0.343	-0.200
-609.215	800.000	-0.245	-0.848
-608.201	162.975	-0.691	-0.981
-607.186	-106.495	0.529	0.119
-606.171	-119.836	-0.476	0.083
-605.157	-114.752	-0.490	-0.095
-604.142	39.298	0.362	-0.328
-603.128	-2.771	-0.521	-0.368
-602.113	800.000	0.070	-0.263
-601.098	770.636	-0.112	0.308
-600.084	-193.476	0.193	-0.002
-599.069	742.085	-0.290	0.788
-598.055	-126.858	0.596	0.089
-597.040	800.000	-0.163	0.616
-596.025	800.000	0.218	-0.623
-595.011	-27.925	-0.278	0.163
-593.996	800.000	0.212	0.693
-592.982	-106.740	0.400	0.090
-591.967	-200.000	0.037	-0.319
-590.952	800.000	0.161	0.456
-589.938	-79.101	-0.374	-0.128
-588.923	-123.702	0.693	-0.111
-587.909	144.611	0.212	-0.286
-586.894	-43.494	0.441	-0.225
-585.879	181.672	0.374	-0.555
-584.865	-200.000	-0.135	-0.712
-583.850	-200.000	-0.066	0.296
-582.836	-54.996	0.523	-0.238
-581.821	-200.000	0.035	0.997
-580.806	734.384	0.443	-1.198
-579.792	33.371	0.700	-0.614
-578.777	94.379	-0.091	-0.104
-577.763	-126.322	0.362	-0.055
-576.748	-200.000	0.053	-0.267
-575.733	5.046	0.195	-0.145
-574.719	800.000	-0.199	0.662
-573.704	-91.040	-0.603	-0.175
-572.690	-132.404	0.360	-0.047
-571.675	333.394	-0.261	0.510
-570.661	-200.000	0.010	-1.080
-569.646	-127.006	0.567	0.084
-568.631	76.824	-0.606	0.650
-567.617	318.919	0.164	-0.313
-566.602	-120.996	0.381	-0.065
-565.588	-200.000	0.090	-1.264
-564.573	-76.617	0.546	0.193
-563.558	-200.000	-0.107	0.605
-562.544	125.036	-0.382	-0.486
-561.529	77.045	0.166	-0.178
-560.515	-157.080	-0.176	0.011
-559.500	358.576	0.272	-0.547
-558.485	-5.122	0.825	-0.572
-557.471	-42.697	0.343	0.176
-556.456	51.979	-0.519	-0.499
-555.442	309.990	-0.172	0.324
-554.427	-200.000	-0.033	1.026
-553.412	-39.769	0.558	-0.294
-552.398	282.500	-0.431	-0.780
-551.383	543.289	-0.181	0.436
-550.369	141.968	-0.333	-0.445
-549.354	-59.844	-0.563	0.243
-548.339	162.116	-0.726	-1.027
-547.325	-200.000	-0.026	-0.497
-546.310	-136.879	0.466	-0.054
-545.296	92.666	0.181	-0.206
-544.281	99.136	0.284	0.330
-543.266	-200.000	-0.012	0.063
-542.252	800.000	0.286	-0.914
-541.237	262.913	-0.337	-0.591
-540.223	-18.225	-0.684	0.431
-539.208	-58.944	-0.821	0.358
-538.193	-179.535	-0.811	-0.018
-537.179	-8.098	0.288	0.196
-536.164	431.745	0.139	-0.304
-535.150	460.462	-0.248	-0.557
-534.135	143.259	-0.191	0.256
-533.121	371.026	0.189	0.387
-532.106	237.765	-0.167	-0.279
-531.091	-165.387	-0.294	-0.013
-530.077	-49.254	0.137	0.066
-529.062	72.371	0.384	-0.403
-528.048	147.932	-0.062	0.084
-527.033	-30.748	-0.147	0.084
-526.018	3.483	0.648	-0.476
-525.004	-99.168	-0.343	0.087
-523.989	-62.334	-0.961	-0.403
-522.975	-10.450	0.534	0.356
-521.960	-200.000	0.034	-0.287
-520.945	800.000	0.244	-0.891
-519.931	-126.229	-0.528	-0.080
-518.916	800.000	0.283	0.845
-517.902	800.000	0.169	0.705
-516.887	28.315	-0.513	-0.437
-515.872	800.000	0.170	0.551
-514.858	83.084	0.581	0.637
-513.843	606.577	-0.349	-0.876
-512.829	-21.221	-0.672	-0.414
-511.814	55.475	0.349	-0.340
-510.799	-200.000	-0.059	-0.897
-509.785	41.138	-0.241	0.220
-508.770	-51.467	-0.556	-0.262
-507.756	95.116	0.449	-0.515
-506.741	-67.241	1.008	-0.400
-505.726	-112.059	-0.328	-0.067
-504.712	-2.655	0.505	-0.356
-503.697	-2.348	-0.326	0.230
-502.683	-84.935	-1.013	0.320
-501.668	243.631	-0.119	0.201
-500.653	-93.634	-0.162	0.045
-499.639	232.474	-0.060	0.100
-498.624	285.011	0.209	-0.380
-497.610	-171.408	0.659	0.022
-496.595	258.406	0.078	0.136
-495.581	-195.963	0.560	0.004
-494.566	-200.000	-0.035	0.422
-493.551	-8.925	-0.095	-0.064
-492.537	-200.000	-0.160	0.812
-491.522	800.000	-0.035	0.119
-490.508	12.131	-0.550	0.426
-489.493	416.364	-0.366	0.785
-488.478	271.366	-0.063	-0.112
-487.464	-200.000	0.074	0.437
-486.449	-33.575	0.732	0.407
-485.435	70.453	-0.379	-0.394
-484.420	29.265	-0.517	0.442
-483.405	63.299	-0.286	0.289
-482.391	-200.000	-0.453	0.000
-481.376	-18.916	0.124	-0.078
-480.362	-152.783	0.518	0.037
-479.347	-10.387	0.483	0.322
-478.332	-35.194	0.618	-0.338
-477.318	-200.000	0.004	0.104
-476.303	-132.348	0.639	0.083
-475.289	432.421	0.076	0.165
-474.274	-200.000	0.041	0.552
-473.259	-144.730	0.741	-0.069
-472.245	800.000	0.175	0.553
-471.230	-162.323	-0.399	-0.020
-470.216	-115.634	1.117	-0.211
-469.201	242.788	0.202	0.339
-468.186	-20.721	0.321	-0.198
-467.172	-151.528	-0.983	-0.073
-466.157	172.785	-0.021	-0.030
-465.143	345.719	0.321	0.634
-464.128	-152.512	0.058	0.004
-463.113	-52.434	-0.272	0.126
-462.099	189.746	-0.492	-0.742
-461.084	145.381	-0.259	-0.348
-460.070	-66.707	0.457	0.182
-459.055	-27.296	0.506	0.296
-458.040	800.000	0.054	-0.168
-457.026	303.813	0.435	0.811
-456.011	418.552	-0.279	-0.600
-454.997	4.098	-0.230	0.169
-453.982	397.950	-0.248	0.522
-452.968	-200.000	0.008	-0.212
-451.953	-20.461	0.591	-0.365
-450.938	800.000	0.238	-0.961
-449.924	-172.288	0.101	-0.003
-448.909	-42.042	-0.543	-0.279
-447.895	413.861	-0.123	-0.263
-446.880	-30.096	-0.373	-0.213
-445.865	800.000	-0.100	-0.371
-444.851	1.645	-0.358	0.259
-443.836	-152.843	-1.095	-0.078
-442.822	800.000	0.259	-0.767
-441.807	125.251	-0.118	-0.149
-440.792	-89.089	-0.497	-0.147
-439.778	28.657	-0.640	-0.544
-438.763	-38.857	0.642	0.340
-437.749	354.327	-0.099	0.197
-436.734	87.969	-0.251	-0.279
-435.719	108.576	-0.524	0.628
-434.705	-200.000	0.018	0.202
-433.690	800.000	-0.183	-0.532
-432.676	-200.000	-0.113	0.508
-431.661	90.242	0.361	-0.405
-430.646	293.472	-0.085	0.155
-429.632	-186.635	0.663	-0.009
-428.617	-59.798	0.964	0.414
-427.603	73.424	-0.218	0.229
-426.588	-200.000	-0.058	-0.717
-425.573	-200.000	0.218	0.996
-424.559	15.538	-0.392	-0.309
-423.544	-200.000	-0.044	-0.550
-422.530	-45.457	-0.404	0.201
-421.515	-49.004	-0.348	0.167
-420.500	-159.299	0.615	0.035
-419.486	-3.244	-0.280	0.195
-418.471	-82.627	0.531	0.173
-417.457	481.923	0.154	0.352
-416.442	-88.964	-0.345	-0.103
-415.428	498.013	0.142	0.327
-414.413	800.000	-0.148	0.566
-413.398	-74.076	0.769	0.280
-412.384	114.222	-0.861	1.051
-411.369	153.357	0.472	0.648
-410.355	-152.782	-0.484	0.034
-409.340	800.000	-0.171	-0.572
-408.325	800.000	0.240	0.737
-407.311	374.845	-0.098	-0.200
-406.296	99.354	-0.083	0.096
-405.282	-200.000	-0.052	0.496
-404.267	-200.000	-0.103	-0.614
-403.252	-141.688	0.277	-0.028
-402.238	41.359	-0.353	-0.320
-401.223	800.000	0.123	-0.343
-400.209	-94.179	0.200	0.055
-399.194	-63.759	-0.552	-0.227
-398.179	-200.000	0.079	0.391
-397.165	-118.506	-0.092	-0.016
-396.150	478.176	0.353	0.801
-395.136	58.730	0.265	0.261
-394.121	-50.513	0.530	0.251
-393.106	48.775	0.339	-0.319
-392.092	794.539	0.161	-0.444
-391.077	800.000	0.107	-0.362
-390.063	486.421	-0.138	0.317
-389.048	800.000	-0.141	0.411
-388.033	-26.733	0.324	0.190
-387.019	206.725	0.094	-0.147
-386.004	233.498	0.158	-0.261
-384.990	800.000	0.196	-0.639
-383.975	281.843	-0.203	0.365
-382.960	255.733	-0.278	0.479
-381.946	800.000	0.272	1.019
-380.931	-200.000	-0.024	0.584
-379.917	-145.590	0.274	0.025
-378.902	26.606	0.434	0.364
-377.888	93.664	0.353	0.401
-376.873	-200.000	-0.168	-0.879
-375.858	-51.397	0.520	0.244
-374.844	-200.000	-0.004	0.420
-373.829	-200.000	-0.097	0.870
-372.815	-138.761	-0.878	0.096
-371.800	128.309	-0.107	-0.137
-370.785	-57.208	-1.043	0.460
-369.771	702.566	0.204	-0.537
-368.756	-136.404	-0.696	-0.081
-367.742	224.712	0.655	1.061
-366.727	539.942	0.416	-0.992
-365.712	-134.097	-0.107	0.013
-364.698	-110.059	0.750	-0.157
-363.683	743.781	-0.257	-0.692
-362.669	-25.286	0.523	0.310
-361.654	-104.546	-0.689	-0.159
-360.639	-200.000	-0.053	-0.510
-359.625	-24.506	0.250	0.149
-358.610	49.474	-0.422	-0.398
-357.596	112.532	-0.089	-0.108
-356.581	-200.000	0.107	0.770
-355.566	117.049	0.520	-0.640
-354.552	-200.000	0.028	-0.850
-353.537	-79.857	-0.753	0.253
-352.523	800.000	0.421	1.273
-351.508	800.000	-0.047	-0.173
-350.493	-200.000	-0.037	-0.606
-349.479	445.872	0.104	0.230
-348.464	-19.170	-0.256	-0.159
-347.450	-79.399	-0.574	-0.194
-346.435	-93.910	0.286	-0.079
-345.420	-72.109	1.134	-0.421
-344.406	59.265	-0.226	0.223
-343.391	423.862	-0.126	0.272
-342.377	372.351	-0.432	0.879
-341.362	-110.802	-0.564	-0.116
-340.348	313.342	-0.431	0.811
-339.333	-200.000	-0.097	0.730
-338.318	43.399	0.549	-0.502
-337.304	-4.980	0.473	0.326
-336.289	-29.906	-0.295	0.168
-335.275	26.638	0.929	-0.778
-334.260	43.803	0.592	-0.542
-333.245	800.000	-0.110	-0.391
-332.231	-182.890	0.531	-0.010
-331.216	134.682	-0.288	-0.374
-330.202	142.700	0.243	-0.323
-329.187	-4.227	0.560	0.388
-328.172	-71.613	-0.908	0.339
-327.158	-200.000	0.026	0.432
-326.143	-98.528	-0.109	-0.028
-325.129	-26.767	-0.365	0.213
-324.114	-168.549	0.385	-0.015
-323.099	800.000	-0.251	0.778
-322.085	29.080	0.804	0.682
-321.070	-200.000	0.050	0.389
-320.056	800.000	0.279	-0.789
-319.041	-66.643	0.487	-0.193
-318.026	410.088	0.088	-0.186
-317.012	370.070	-0.227	-0.460
-315.997	428.126	0.324	-0.698
-314.983	588.310	0.336	0.827
-313.968	-106.346	-0.370	-0.083
-312.953	316.967	-0.377	-0.713
-311.939	800.000	-0.137	-0.408
-310.924	-200.000	0.079	-0.899
-309.910	354.887	0.163	-0.323
-308.895	543.888	0.196	-0.468
-307.880	-200.000	-0.005	0.575
-306.866	-35.223	-0.360	0.196
-305.851	-104.314	-0.934	0.216
-304.837	800.000	-0.048	-0.195
-303.822	-125.687	-0.488	-0.074
-302.807	-2.373	0.199	0.140
-301.793	-65.324	-0.224	-0.090
-300.778	415.471	0.197	-0.420
-299.764	632.709	0.286	-0.723
-298.749	-155.919	0.604	-0.038
-297.735	147.166	0.464	-0.623
-296.720	800.000	0.205	0.629
-295.705	800.000	-0.082	-0.259
-294.691	-200.000	0.195	-1.092
-293.676	-132.906	0.512	0.065
-292.662	66.580	0.601	0.610
-291.647	123.250	-0.562	0.703
-290.632	-132.296	0.538	0.069
-289.618	684.396	0.189	-0.493
-288.603	585.077	0.210	-0.515
-287.589	209.424	-0.260	-0.407
-286.574	-158.485	-0.168	-0.010
-285.559	-58.565	0.813	0.352
-284.545	112.796	-0.443	0.535
-283.530	213.428	0.102	-0.160
-282.516	800.000	-0.250	0.707
-281.501	-1.862	0.074	0.052
-280.486	-7.319	-0.374	-0.253
-279.472	-65.583	-0.296	-0.119
-278.457	-161.424	-1.468	0.076
-277.443	-58.782	-0.431	-0.186
-276.428	-79.941	0.054	-0.018
-275.413	-200.000	-0.059	0.477
-274.399	-200.000	0.018	-0.155
-273.384	-92.256	-0.661	0.186
-272.370	21.169	0.259	-0.210
-271.355	111.769	-0.363	-0.437
-270.340	-200.000	-0.025	-0.762
-269.326	-53.577	0.693	0.316
-268.311	-200.000	-0.019	-0.635
-267.297	715.823	0.011	0.030
-266.282	-200.000	0.015	-0.168
-265.267	-200.000	-0.048	1.363
-264.253	-69.672	-0.492	0.188
-263.238	-200.000	-0.040	0.310
-262.224	-89.642	0.787	0.230
-261.209	-154.471	0.438	0.029
-260.195	-137.654	-0.422	0.047
-259.180	-200.000	-0.059	-0.578
-258.165	-200.000	0.199	0.905
-257.151	6.823	0.505	0.375
-256.136	-177.747	-0.426	-0.010
-255.122	232.692	-0.092	-0.151
-254.107	-200.000	-0.091	-0.668
-253.092	800.000	-0.100	-0.397
-252.078	132.415	-0.399	0.513
-251.063	-57.451	-0.455	0.199
-250.049	447.045	-0.279	-0.613
-249.034	-200.000	-0.028	-0.154
-248.019	-97.505	0.383	-0.099
-247.005	96.888	0.423	0.483
-245.990	400.249	0.099	-0.206
-244.976	-80.204	-0.295	-0.099
-243.961	-116.644	-0.889	-0.163
-242.946	0.610	1.005	-0.716
-241.932	-170.524	-0.996	-0.035
-240.917	-200.000	0.041	0.209
-239.903	-200.000	-0.050	0.727
-238.888	244.391	0.405	0.678
-237.873	-126.020	-0.475	-0.071
-236.859	-22.256	-0.590	0.356
-235.844	92.722	-0.200	-0.225
-234.830	-56.889	0.251	-0.111
-233.815	-177.240	-0.583	0.014
-232.800	-47.829	0.742	-0.358
-231.786	-27.218	-0.497	-0.289
-230.771	-200.000	-0.157	0.915
-229.757	286.348	0.522	0.938
-228.742	-125.775	0.524	0.079
-227.727	800.000	0.056	0.174
-226.713	-200.000	0.054	-0.625
-225.698	-99.619	-0.109	-0.027
-224.684	-101.766	-0.970	0.234
-223.669	9.164	0.114	-0.086
-222.655	131.852	0.338	0.433
-221.640	42.226	0.068	0.062
-220.625	800.000	-0.265	0.892
-219.611	-74.660	0.730	-0.261
-218.596	-8.197	0.362	-0.243
-217.582	800.000	0.338	1.035
-216.567	-127.343	0.464	0.067
-215.552	35.308	0.688	0.601
-214.538	-200.000	0.003	-1.230
-213.523	800.000	-0.157	-0.582
-212.509	800.000	0.136	-0.587
-211.494	-200.000	0.007	-0.449
-210.479	-15.164	0.232	-0.148
-209.465	-200.000	-0.189	0.000
-208.450	-144.758	0.514	0.047
-207.436	35.483	0.493	0.431
-206.421	-33.482	0.498	-0.274
-205.406	-103.541	0.201	-0.047
-204.392	-38.851	-0.601	0.315
-203.377	241.215	0.291	-0.484
-202.363	-200.000	-0.184	1.183
-201.348	-200.000	-0.025	-0.147
-200.333	62.458	-0.993	-0.987
-199.319	55.698	-0.808	-0.779
-198.304	129.499	-0.513	-0.652
-197.290	800.000	-0.038	-0.128
-196.275	-145.039	-0.860	0.078
-195.260	-200.000	-0.011	0.221
-194.246	800.000	-0.044	-0.183
-193.231	-128.508	0.407	-0.057
-192.217	116.555	-0.654	0.798
-191.202	800.000	-0.213	-0.831
-190.187	-200.000	0.203	1.290
-189.173	-200.000	0.057	-0.733
-188.158	695.686	-0.219	-0.571
-187.144	-65.757	0.463	-0.184
-186.129	-200.000	0.433	-0.001
-185.114	164.483	-0.346	-0.485
-184.100	261.120	0.336	0.579
-183.085	20.314	0.458	0.368
-182.071	552.457	-0.223	0.533
-181.056	-78.528	0.756	0.257
-180.042	-7.793	-0.545	0.366
-179.027	800.000	-0.130	0.485
-178.012	-62.930	-0.314	-0.129
-176.998	-68.897	0.277	-0.106
-175.983	-16.559	0.489	0.308
-174.969	298.733	0.211	0.385
-173.954	77.646	-0.398	0.421
-172.939	556.978	-0.171	-0.410
-171.925	-78.007	0.137	0.047
-170.910	800.000	-0.104	0.433
-169.896	-160.395	-0.781	-0.042
-168.881	-90.601	-0.683	0.196
-167.866	-200.000	0.021	0.505
-166.852	-144.687	-0.161	0.015
-165.837	800.000	0.165	-0.543
-164.823	-200.000	0.050	0.509
-163.808	-27.449	-0.525	0.303
-162.793	541.922	-0.519	-1.228
-161.779	297.609	-0.058	0.106
-160.764	355.942	-0.257	-0.509
-159.750	105.696	0.419	-0.492
-158.735	-75.970	-0.405	-0.142
-157.720	56.985	-0.364	0.353
-156.706	-200.000	-0.063	-0.777
-155.691	87.547	0.043	0.048
-154.677	800.000	0.216	0.751
-153.662	-118.367	-0.482	-0.085
-152.647	154.276	0.145	0.198
-151.633	-150.245	0.431	0.033
-150.618	666.962	0.288	0.739
-149.604	-44.581	-0.492	-0.244
-148.589	404.455	0.337	0.706
-147.574	-200.000	0.059	-0.362
-146.560	-200.000	0.010	-0.555
-145.545	40.933	0.363	0.326
-144.531	-149.208	-0.188	-0.015
-143.516	-42.037	0.832	-0.423
-142.502	-103.789	0.612	0.142
-141.487	-7.886	-0.685	0.459
-140.472	-200.000	0.115	1.107
-139.458	-200.000	-0.127	-0.728
-138.443	21.142	0.220	-0.177
-137.429	-200.000	0.095	0.584
-136.414	653.792	-0.056	-0.143
-135.399	183.456	-0.057	-0.083
-134.385	-162.373	0.420	0.021
-133.370	18.504	0.365	-0.290
-132.356	-54.660	0.168	0.075
-131.341	-93.257	0.873	0.241
-130.326	68.701	-0.891	0.907
-129.312	-200.000	-0.018	-0.253
-128.297	-24.691	0.363	-0.214
-127.283	-180.624	-0.060	0.001
-126.268	-20.363	-0.298	0.182
-125.253	-111.686	0.504	0.101
-124.239	-200.000	-0.128	1.108
-123.224	-27.951	-0.069	0.040
-122.210	561.979	-0.090	0.217
