DTS Sentinel unit serial number:	SN413079Multiplexer serial number:	ORYXHardware model number:	OX4-SRSoftware version number:	ORYX F/W v4.00 Oryx Data Collector v3.7.2.0data status	okinstallation	princeton_trtdifferential loss correction	single-endedforward channel	channel 4reverse channel	N/Adate	2019/09/14time	23:01:35forward acquisition time	60.00reverse acquisition time	0.00gamma	496.2192k internal	0.2306k external	0.2306temperature offset calibration	1.0059default loss term (dB/km)	0.3790temperature slope calibration	1.0000multiplexer offset coefficient	1.0000multiplexer slope coefficient	1.0000fibre end	0.00T internal ref (°C)	32.44T ext. ref 1 (°C)	4.69T ext. ref 2 (°C)	27.45length (m)	temperature (°C)	Stokes	anti-Stokes-747.200	359.916	-0.127	0.259
-746.185	87.511	-0.311	0.350
-745.171	232.119	0.183	0.306
-744.156	-134.360	-0.134	0.017
-743.142	-32.569	0.019	0.011
-742.127	-200.000	0.089	0.397
-741.112	431.717	-0.096	-0.212
-740.098	-200.000	-0.084	0.434
-739.083	-13.395	-0.329	-0.217
-738.069	800.000	-0.085	0.351
-737.054	-55.617	0.233	-0.106
-736.039	-28.765	-0.242	-0.142
-735.025	36.888	0.134	-0.120
-734.010	275.085	-0.072	0.130
-732.996	286.773	-0.118	-0.216
-731.981	-70.857	-0.220	-0.084
-730.966	-200.000	-0.004	-0.124
-729.952	800.000	0.086	-0.244
-728.937	7.544	-0.277	-0.210
-727.923	-142.766	0.185	0.018
-726.908	2.657	0.256	-0.189
-725.894	-1.924	0.179	0.128
-724.879	-54.420	0.031	-0.014
-723.864	104.608	0.046	-0.055
-722.850	-103.624	0.355	-0.085
-721.835	-76.736	0.187	-0.066
-720.821	346.490	-0.205	-0.409
-719.806	-200.000	0.038	-0.199
-718.791	-116.835	-0.363	0.068
-717.777	-48.160	-0.219	-0.107
-716.762	45.902	-0.121	-0.113
-715.748	94.900	-0.159	0.184
-714.733	-29.985	-0.164	-0.095
-713.718	-73.454	-0.184	-0.068
-712.704	-99.928	0.251	0.064
-711.689	-107.592	0.473	0.105
-710.675	-127.194	-0.237	-0.035
-709.660	12.113	-0.094	0.073
-708.645	55.520	-0.175	0.172
-707.631	800.000	-0.044	-0.125
-706.616	-57.754	0.085	-0.038
-705.602	-200.000	0.052	-0.355
-704.587	-36.433	0.144	-0.079
-703.572	-60.261	-0.191	0.083
-702.558	447.770	-0.109	0.244
-701.543	242.594	-0.128	0.217
-700.529	-22.832	0.090	-0.055
-699.514	-149.495	-0.241	0.019
-698.499	281.889	-0.133	-0.243
-697.485	-37.984	-0.357	-0.193
-696.470	-136.919	-0.205	0.024
-695.456	90.178	-0.120	-0.136
-694.441	-200.000	-0.127	-0.617
-693.426	378.474	0.113	-0.235
-692.412	118.727	-0.054	0.067
-691.397	-71.538	-0.256	0.097
-690.383	-111.944	-0.312	-0.064
-689.368	-200.000	-0.003	0.089
-688.354	-173.095	0.265	0.008
-687.339	99.771	-0.195	-0.230
-686.324	198.231	0.120	0.186
-685.310	-154.699	-0.351	0.024
-684.295	-200.000	-0.013	-0.086
-683.281	-64.035	-0.045	-0.018
-682.266	-62.558	0.240	-0.101
-681.251	599.452	0.088	0.222
-680.237	-31.183	0.175	0.100
-679.222	-121.529	0.232	0.039
-678.208	-68.163	0.040	0.016
-677.193	-200.000	0.020	0.266
-676.178	397.997	-0.046	-0.099
-675.164	588.138	0.094	-0.236
-674.149	302.409	-0.033	-0.063
-673.135	-200.000	-0.042	0.326
-672.120	638.436	-0.058	0.149
-671.105	800.000	-0.101	-0.296
-670.091	-135.663	-0.372	-0.045
-669.076	175.889	-0.196	0.288
-668.062	-114.299	-0.393	-0.077
-667.047	164.904	0.189	0.271
-666.032	-116.760	-0.256	0.048
-665.018	-200.000	-0.018	-0.169
-664.003	66.894	0.139	0.143
-662.989	44.071	0.064	0.059
-661.974	273.307	-0.199	-0.356
-660.959	-103.920	-0.029	0.007
-659.945	353.181	0.232	0.467
-658.930	-121.755	0.067	0.011
-657.916	140.405	0.249	-0.333
-656.901	177.032	0.121	-0.179
-655.886	-86.156	-0.142	-0.044
-654.872	-200.000	0.016	0.287
-653.857	32.814	0.137	0.120
-652.843	105.868	0.029	0.035
-651.828	714.032	-0.047	0.126
-650.814	-176.972	0.311	-0.008
-649.799	-55.185	-0.122	0.056
-648.784	-41.198	-0.307	-0.161
-647.770	386.078	0.071	-0.149
-646.755	-200.000	0.168	0.000
-645.741	-200.000	-0.007	-0.163
-644.726	712.393	-0.081	0.217
-643.711	-200.000	0.001	-0.095
-642.697	302.477	-0.127	-0.239
-641.682	800.000	0.046	-0.156
-640.668	166.208	0.192	-0.276
-639.653	-126.269	0.060	-0.009
-638.638	-74.653	-0.199	-0.072
-637.624	-200.000	-0.010	-0.304
-636.609	-142.853	-0.337	-0.033
-635.595	338.614	-0.055	0.109
-634.580	62.536	0.168	-0.170
-633.565	431.720	-0.052	-0.114
-632.551	-126.060	-0.315	-0.048
-631.536	-200.000	-0.015	-0.213
-630.522	638.764	-0.041	-0.105
-629.507	-27.688	-0.214	-0.126
-628.492	32.235	0.131	0.114
-627.478	-60.454	0.154	0.066
-626.463	-200.000	0.038	-0.189
-625.449	311.446	0.175	-0.333
-624.434	-200.000	-0.020	0.128
-623.419	-200.000	-0.007	-0.064
-622.405	-200.000	-0.068	0.304
-621.390	-55.536	0.115	0.052
-620.376	-80.446	0.098	0.033
-619.361	-5.725	0.093	-0.065
-618.346	-32.764	-0.152	0.085
-617.332	43.295	-0.430	-0.398
-616.317	-193.344	-0.193	0.002
-615.303	-55.539	-0.098	0.045
-614.288	-143.629	-0.299	0.029
-613.273	-31.729	-0.161	0.092
-612.259	117.884	-0.052	-0.065
-611.244	-88.604	-0.209	-0.063
-610.230	-101.192	-0.227	0.056
-609.215	-200.000	-0.004	-0.220
-608.201	154.592	-0.063	0.088
-607.186	-200.000	-0.022	-0.397
-606.171	21.083	-0.132	-0.108
-605.157	-105.281	-0.310	-0.072
-604.142	-55.596	0.093	-0.042
-603.128	-151.250	-0.307	0.023
-602.113	444.596	0.030	0.067
-601.098	-105.932	0.420	0.096
-600.084	-10.901	-0.095	0.064
-599.069	335.789	0.139	0.273
-598.055	-3.834	0.236	0.166
-597.040	-14.041	-0.405	-0.264
-596.025	15.273	0.226	-0.180
-595.011	800.000	-0.103	-0.376
-593.996	800.000	0.072	-0.248
-592.982	-37.518	-0.147	0.080
-591.967	800.000	-0.070	0.203
-590.952	-92.744	0.353	0.100
-589.938	451.071	0.085	-0.189
-588.923	521.304	-0.039	0.093
-587.909	-26.283	-0.234	0.139
-586.894	74.239	-0.028	0.030
-585.879	-34.224	0.224	0.124
-584.865	-142.784	-0.245	0.024
-583.850	-200.000	0.029	0.408
-582.836	-74.115	0.187	-0.068
-581.821	234.520	-0.061	0.102
-580.806	-200.000	-0.010	-0.163
-579.792	-164.403	-0.166	0.008
-578.777	59.470	-0.108	-0.107
-577.763	21.843	0.083	0.068
-576.748	-200.000	0.007	-0.150
-575.733	302.200	0.028	-0.053
-574.719	44.332	-0.203	-0.188
-573.704	-57.146	0.260	-0.116
-572.690	220.157	-0.044	0.071
-571.675	65.695	0.268	0.274
-570.661	701.552	-0.115	-0.307
-569.646	31.255	-0.161	-0.140
-568.631	316.871	0.114	-0.218
-567.617	199.880	-0.157	-0.243
-566.602	-31.827	0.120	-0.068
-565.588	-146.599	-0.293	-0.026
-564.573	-20.178	-0.306	0.191
-563.558	-8.635	0.228	-0.155
-562.544	-94.383	-0.163	-0.045
-561.529	-36.750	-0.144	-0.078
-560.515	-178.444	-0.150	0.004
-559.500	800.000	0.055	-0.234
-558.485	494.643	0.182	-0.422
-557.471	-67.908	-0.276	0.109
-556.456	380.767	0.067	0.140
-555.442	-43.682	-0.170	0.087
-554.427	66.775	-0.025	0.026
-553.412	179.196	0.095	-0.140
-552.398	-20.007	-0.380	0.237
-551.383	-49.428	0.079	-0.038
-550.369	-2.417	0.190	0.134
-549.354	87.727	0.151	0.169
-548.339	-63.317	0.166	-0.069
-547.325	800.000	-0.082	0.268
-546.310	-72.568	0.261	-0.097
-545.296	106.460	0.090	0.107
-544.281	-200.000	0.044	0.233
-543.266	-102.595	-0.056	-0.013
-542.252	800.000	0.095	0.277
-541.237	-133.712	0.062	-0.008
-540.223	-135.228	-0.249	-0.030
-539.208	800.000	-0.025	0.072
-538.193	-200.000	0.010	-0.064
-537.179	800.000	-0.015	0.050
-536.164	800.000	0.036	-0.150
-535.150	-76.547	0.306	-0.108
-534.135	66.830	-0.075	0.077
-533.121	800.000	0.024	0.094
-532.106	205.249	-0.185	-0.290
-531.091	-73.896	-0.211	-0.077
-530.077	800.000	0.041	0.160
-529.062	-200.000	-0.028	-0.127
-528.048	-200.000	0.039	-0.272
-527.033	-136.258	-0.240	0.028
-526.018	526.458	0.120	-0.284
-525.004	158.865	0.054	-0.076
-523.989	214.461	-0.073	0.117
-522.975	-172.682	-0.157	0.005
-521.960	253.063	-0.055	-0.094
-520.945	20.672	0.183	-0.149
-519.931	47.953	-0.063	-0.060
-518.916	800.000	-0.012	-0.046
-517.902	489.393	0.106	0.245
-516.887	-200.000	0.033	-0.461
-515.872	-68.711	0.198	-0.077
-514.858	-200.000	0.001	-0.041
-513.843	125.265	0.134	-0.170
-512.829	-25.037	-0.158	0.094
-511.814	-115.992	0.234	0.044
-510.799	26.128	-0.240	0.202
-509.785	-96.117	0.062	0.017
-508.770	-5.860	0.077	0.053
-507.756	267.497	-0.106	0.187
-506.741	265.263	0.120	0.210
-505.726	101.522	0.216	0.253
-504.712	780.712	0.026	0.072
-503.697	-95.871	-0.310	0.083
-502.683	45.272	-0.155	-0.144
-501.668	427.271	0.081	0.175
-500.653	279.073	0.087	0.157
-499.639	21.205	0.293	0.240
-498.624	34.578	-0.339	0.299
-497.610	79.148	-0.118	-0.128
-496.595	-200.000	-0.079	-0.428
-495.581	47.515	-0.160	0.150
-494.566	-70.983	-0.338	-0.128
-493.551	800.000	0.010	0.035
-492.537	252.583	0.104	0.179
-491.522	-19.950	0.352	-0.219
-490.508	-200.000	0.014	-0.081
-489.493	36.124	0.142	-0.126
-488.478	32.491	0.173	0.151
-487.464	188.731	0.047	-0.071
-486.449	36.032	-0.220	0.195
-485.435	800.000	-0.176	-0.518
-484.420	-75.204	0.196	-0.071
-483.405	-12.558	-0.015	0.010
-482.391	-200.000	0.009	-0.148
-481.376	-200.000	-0.014	-0.164
-480.362	-92.085	-0.448	0.127
-479.347	-60.952	-0.210	0.089
-478.332	14.276	0.203	0.159
-477.318	-200.000	0.093	0.416
-476.303	-200.000	-0.039	0.323
-475.289	-65.043	0.380	0.154
-474.274	-200.000	-0.032	-0.185
-473.259	-200.000	0.023	-0.352
-472.245	-88.176	-0.156	-0.047
-471.230	-72.640	0.246	-0.091
-470.216	800.000	0.016	-0.061
-469.201	123.009	-0.052	-0.066
-468.186	444.647	-0.116	0.257
-467.172	28.407	0.055	-0.047
-466.157	-159.808	0.350	0.019
-465.143	-46.619	-0.193	0.095
-464.128	-68.712	-0.193	0.075
-463.113	43.464	-0.338	-0.311
-462.099	273.844	-0.137	0.245
-461.084	137.552	0.133	0.176
-460.070	-80.928	0.167	-0.056
-459.055	-45.392	0.047	0.024
-458.040	-175.914	-0.213	-0.006
-457.026	-200.000	0.069	-0.364
-456.011	265.422	-0.088	0.155
-454.997	-200.000	-0.060	-0.428
-453.982	178.149	-0.161	0.236
-452.968	-200.000	0.058	-0.390
-451.953	-88.921	0.152	-0.045
-450.938	-195.385	-0.073	0.001
-449.924	-70.529	-0.128	-0.049
-448.909	23.051	0.270	-0.223
-447.895	213.435	-0.130	-0.206
-446.880	-146.657	0.287	0.025
-445.865	-200.000	-0.068	0.439
-444.851	-58.039	0.113	-0.050
-443.836	496.593	0.048	-0.111
-442.822	73.953	-0.324	-0.342
-441.807	-113.038	0.435	-0.086
-440.792	360.919	0.101	0.204
-439.778	38.254	0.058	0.052
-438.763	149.307	-0.135	-0.184
-437.749	-82.948	0.089	-0.029
-436.734	654.975	0.041	0.105
-435.719	-200.000	-0.021	0.136
-434.705	39.284	-0.196	0.176
-433.690	-86.358	-0.165	0.051
-432.676	-74.738	-0.251	0.091
-431.661	113.359	0.019	0.023
-430.646	-29.152	0.400	0.230
-429.632	-200.000	0.012	-0.357
-428.617	-156.037	-0.316	-0.020
-427.603	59.959	-0.197	0.195
-426.588	800.000	0.091	0.318
-425.573	141.636	-0.094	0.125
-424.559	322.492	-0.099	0.189
-423.544	218.989	0.302	0.485
-422.530	80.017	0.329	-0.355
-421.515	-200.000	0.000	-0.536
-420.500	-152.147	0.470	0.034
-419.486	53.648	-0.310	-0.299
-418.471	-56.155	-0.232	-0.104
-417.457	-42.626	-0.208	0.106
-416.442	500.590	-0.009	-0.021
-415.428	800.000	0.135	0.391
-414.413	50.540	0.011	-0.010
-413.398	199.496	-0.057	-0.089
-412.384	75.086	-0.149	0.158
-411.369	277.970	0.177	-0.316
-410.355	-82.436	0.090	-0.029
-409.340	-47.536	-0.142	-0.069
-408.325	-200.000	0.045	0.308
-407.311	-200.000	-0.016	-0.133
-406.296	24.751	-0.030	-0.025
-405.282	800.000	0.048	-0.170
-404.267	-200.000	0.024	-0.107
-403.252	800.000	-0.075	-0.219
-402.238	800.000	0.052	0.220
-401.223	211.361	-0.112	0.177
-400.209	145.080	0.215	0.289
-399.194	103.716	0.150	0.177
-398.179	-1.979	0.141	0.100
-397.165	-68.629	-0.105	-0.041
-396.150	183.720	0.041	0.061
-395.136	15.932	0.230	-0.182
-394.121	-5.362	-0.171	0.118
-393.106	800.000	0.087	-0.327
-392.092	-200.000	0.039	0.192
-391.077	-117.284	-0.061	-0.011
-390.063	-45.275	0.219	-0.109
-389.048	-34.354	0.251	0.138
-388.033	800.000	0.048	0.151
-387.019	793.556	-0.051	-0.139
-386.004	39.209	-0.117	-0.105
-384.990	237.120	-0.076	0.127
-383.975	142.214	0.106	-0.141
-382.960	800.000	-0.035	0.129
-381.946	536.813	0.039	0.092
-380.931	800.000	0.042	-0.117
-379.917	-9.446	0.215	0.144
-378.902	-39.550	-0.214	0.112
-377.888	231.027	0.094	0.154
-376.873	57.676	0.131	0.128
-375.858	219.310	0.330	0.529
-374.844	-42.904	0.059	-0.030
-373.829	-200.000	0.066	0.321
-372.815	159.657	0.129	-0.180
-371.800	123.301	0.009	0.011
-370.785	24.686	0.220	-0.183
-369.771	-200.000	-0.001	0.140
-368.756	-83.185	0.252	0.081
-367.742	20.274	-0.107	-0.087
-366.727	-95.819	-0.183	0.049
-365.712	-127.072	-0.131	0.019
-364.698	-51.715	0.042	0.020
-363.683	-200.000	0.024	0.243
-362.669	-10.452	0.274	0.182
-361.654	22.862	-0.077	-0.063
-360.639	370.716	-0.172	-0.349
-359.625	-22.070	-0.284	0.173
-358.610	-78.098	-0.048	-0.016
-357.596	60.531	-0.091	-0.091
-356.581	-200.000	-0.022	-0.136
-355.566	18.138	0.221	0.177
-354.552	-200.000	-0.018	-0.193
-353.537	-64.291	0.358	-0.146
-352.523	294.214	-0.185	-0.339
-351.508	92.438	-0.054	-0.061
-350.493	-160.218	-0.092	0.005
-349.479	800.000	-0.114	0.318
-348.464	55.476	0.314	-0.304
-347.450	17.776	-0.148	0.118
-346.435	-174.563	-0.314	-0.009
-345.420	-81.335	0.161	-0.053
-344.406	-200.000	-0.002	-0.232
-343.391	800.000	0.082	-0.281
-342.377	-200.000	-0.017	-0.098
-341.362	-95.291	-0.124	-0.033
-340.348	-200.000	-0.019	-0.213
-339.333	132.564	0.090	-0.116
-338.318	95.918	0.264	0.302
-337.304	69.392	-0.096	0.099
-336.289	-111.059	0.064	-0.013
-335.275	-56.406	0.250	0.111
-334.260	-31.810	-0.272	-0.153
-333.245	318.179	0.104	0.197
-332.231	403.507	-0.124	0.260
-331.216	800.000	-0.050	0.164
-330.202	-200.000	-0.025	-0.137
-329.187	13.111	0.046	0.035
-328.172	4.905	0.108	0.079
-327.158	-4.401	-0.312	-0.216
-326.143	-123.184	0.264	-0.042
-325.129	286.253	0.064	0.115
-324.114	-25.288	0.324	0.192
-323.099	34.992	0.165	-0.145
-322.085	282.903	0.111	-0.200
-321.070	-115.097	-0.036	-0.007
-320.056	82.657	0.266	-0.289
-319.041	553.236	-0.093	0.225
-318.026	-200.000	-0.030	0.266
-317.012	17.813	-0.285	0.227
-315.997	89.968	-0.286	0.320
-314.983	-200.000	-0.004	-0.076
-313.968	158.392	0.071	-0.099
-312.953	-200.000	0.039	0.181
-311.939	-133.135	-0.313	0.040
-310.924	-23.806	0.240	0.144
-309.910	-177.051	-0.086	0.002
-308.895	157.368	0.101	-0.140
-307.880	76.910	-0.279	-0.296
-306.866	106.813	0.367	0.436
-305.851	43.653	0.157	0.144
-304.837	-200.000	0.033	-0.173
-303.822	-140.878	-0.295	-0.030
-302.807	-148.227	-0.253	0.021
-301.793	-74.087	0.291	0.105
-300.778	32.663	-0.297	-0.257
-299.764	66.080	-0.165	-0.167
-298.749	363.790	0.128	0.257
-297.735	576.435	0.085	-0.207
-296.720	-82.057	-0.378	0.123
-295.705	414.475	0.132	0.280
-294.691	-200.000	0.032	0.244
-293.676	74.772	0.099	-0.104
-292.662	-192.703	-0.221	0.002
-291.647	224.187	-0.101	0.163
-290.632	-200.000	-0.003	0.348
-289.618	694.691	-0.194	-0.509
-288.603	658.350	-0.020	0.053
-287.589	212.450	0.069	0.109
-286.574	79.875	-0.283	0.304
-285.559	-137.638	0.122	0.014
-284.545	-71.597	0.061	-0.023
-283.530	546.219	0.127	0.303
-282.516	-149.314	-0.187	-0.015
-281.501	-103.653	0.330	0.077
-280.486	800.000	-0.004	0.013
-279.472	-167.429	0.372	-0.015
-278.457	78.525	0.245	0.262
-277.443	174.477	0.028	-0.041
-276.428	-15.210	0.188	0.120
-275.413	-52.874	-0.159	-0.073
-274.399	-87.938	-0.231	0.069
-273.384	403.516	-0.058	0.122
-272.370	25.234	0.100	-0.083
-271.355	-200.000	0.010	0.121
-270.340	800.000	0.048	-0.176
-269.326	-113.151	-0.084	-0.017
-268.311	200.223	-0.129	-0.198
-267.297	-80.444	0.044	0.015
-266.282	-170.139	0.150	0.005
-265.267	160.267	0.090	0.126
-264.253	-200.000	0.006	-0.099
-263.238	-82.986	0.157	-0.050
-262.224	109.240	-0.102	-0.121
-261.209	800.000	0.019	-0.065
-260.195	-114.281	0.180	0.035
-259.180	-200.000	0.103	0.479
-258.165	11.740	-0.211	0.162
-257.151	800.000	-0.125	0.368
-256.136	-200.000	0.035	0.187
-255.122	239.786	0.066	-0.109
-254.107	-39.889	-0.161	-0.084
-253.092	-61.366	-0.259	0.109
-252.078	-124.422	0.122	0.019
-251.063	-165.794	-0.071	-0.003
-250.049	89.092	0.114	-0.126
-249.034	486.596	0.085	0.193
-248.019	800.000	-0.064	0.204
-247.005	132.641	0.103	0.132
-245.990	132.253	0.130	0.168
-244.976	-82.417	0.400	-0.130
-243.961	65.192	-0.082	0.083
-242.946	370.298	-0.034	-0.068
-241.932	800.000	0.121	0.481
-240.917	-92.036	0.099	-0.028
-239.903	566.669	-0.086	0.207
-238.888	188.941	-0.076	0.114
-237.873	-124.438	0.188	-0.029
-236.859	-28.391	0.268	0.154
-235.844	-147.055	-0.133	0.011
-234.830	195.951	-0.151	-0.229
-233.815	-79.736	0.172	-0.058
-232.800	49.582	0.093	-0.087
-231.786	-90.490	-0.263	-0.076
-230.771	432.350	-0.131	0.283
-229.757	476.427	0.168	-0.378
-228.742	-104.781	-0.490	0.112
-227.727	-135.834	-0.242	0.028
-226.713	-200.000	0.013	-0.317
-225.698	21.131	-0.303	-0.245
-224.684	69.133	0.017	0.017
-223.669	-66.741	-0.075	0.030
-222.655	261.003	0.181	-0.313
-221.640	-150.814	-0.464	-0.035
-220.625	-113.148	0.298	-0.059
-219.611	11.248	0.272	-0.208
-218.596	-200.000	-0.058	-0.383
-217.582	-200.000	0.029	-0.319
-216.567	-124.946	0.251	-0.039
-215.552	474.456	-0.104	-0.234
-214.538	800.000	0.050	0.180
-213.523	202.455	-0.083	0.127
-212.509	-152.227	0.127	-0.009
-211.494	168.548	-0.039	-0.055
-210.479	4.339	0.251	-0.183
-209.465	-200.000	0.025	0.163
-208.450	-61.970	0.239	-0.099
-207.436	-200.000	0.001	-0.348
-206.421	-200.000	0.034	-0.210
-205.406	-16.345	-0.184	0.117
-204.392	707.324	0.031	-0.081
-203.377	754.414	0.110	-0.295
-202.363	18.650	0.116	-0.093
-201.348	-51.054	0.225	-0.105
-200.333	140.734	0.212	-0.279
-199.319	-200.000	0.095	0.584
-198.304	-200.000	-0.026	0.232
-197.290	-87.273	0.137	-0.041
-196.275	800.000	-0.030	-0.106
-195.260	-38.415	0.191	0.101
-194.246	496.853	0.026	0.059
-193.231	-128.620	0.284	0.040
-192.217	288.552	0.136	-0.245
-191.202	-200.000	-0.044	-0.332
-190.187	-165.235	-0.154	-0.007
-189.173	126.749	-0.097	-0.123
-188.158	800.000	0.123	-0.525
-187.144	75.743	-0.098	-0.103
-186.129	121.510	-0.169	0.209
-185.114	-100.839	0.118	0.029
-184.100	73.743	-0.028	-0.029
-183.085	-200.000	0.011	-0.241
-182.071	-118.188	-0.119	-0.021
-181.056	-77.071	-0.212	-0.074
-180.042	-200.000	0.027	0.291
-179.027	177.676	0.016	-0.023
-178.012	185.153	0.073	-0.108
-176.998	-16.271	-0.112	-0.071
-175.983	800.000	-0.048	0.177
-174.969	-81.520	-0.267	0.087
-173.954	532.732	0.158	0.373
-172.939	-116.122	0.397	-0.073
-171.925	800.000	-0.022	-0.068
-170.910	11.370	0.098	0.075
-169.896	800.000	0.101	0.433
-168.881	-200.000	0.040	0.392
-167.866	61.593	-0.185	0.183
-166.852	3.299	-0.089	0.064
-165.837	208.858	0.161	-0.251
-164.823	800.000	-0.054	-0.219
-163.808	-200.000	-0.037	0.261
-162.793	361.210	-0.035	-0.070
-161.779	-200.000	0.033	-0.272
-160.764	-200.000	-0.022	0.392
-159.750	286.339	0.145	0.259
-158.735	8.413	0.324	0.242
-157.720	-8.491	-0.366	0.245
-156.706	-200.000	-0.016	-0.315
-155.691	-200.000	0.014	0.081
-154.677	8.345	-0.213	0.159
-153.662	800.000	0.099	0.365
-152.647	800.000	-0.159	0.464
-151.633	424.878	0.038	-0.082
-150.618	194.351	-0.128	-0.193
-149.604	-200.000	-0.030	0.238
-148.589	15.558	0.118	-0.092
-147.574	800.000	-0.037	0.159
-146.560	562.085	-0.109	-0.263
-145.545	35.660	-0.348	0.304
-144.531	-57.747	0.308	0.134
-143.516	421.641	-0.105	0.223
-142.502	288.352	-0.047	-0.085
-141.487	291.669	0.116	0.210
-140.472	8.587	0.045	0.034
-139.458	-184.089	0.237	-0.004
-138.443	-7.997	0.119	0.080
-137.429	-200.000	-0.021	0.182
-136.414	2.961	0.070	-0.051
-135.399	-37.726	0.247	0.131
-134.385	-72.835	-0.197	0.072
-133.370	-200.000	0.027	-0.132
-132.356	367.736	-0.174	0.350
-131.341	-200.000	-0.010	-0.107
-130.326	663.368	0.033	0.084
-129.312	-3.830	0.067	-0.047
-128.297	-178.921	-0.313	-0.007
-127.283	-24.056	-0.275	-0.163
-126.268	314.742	0.053	-0.098
-125.253	12.628	-0.183	0.140
-124.239	97.103	-0.105	0.120
-123.224	-200.000	-0.004	-0.091
-122.210	-197.996	0.369	0.002
-121.195	138.698	0.177	0.231
