DTS Sentinel unit serial number:	SN413079Multiplexer serial number:	ORYXHardware model number:	OX4-SRSoftware version number:	ORYX F/W v4.00 Oryx Data Collector v3.7.2.0data status	okinstallation	princeton_trtdifferential loss correction	single-endedforward channel	channel 4reverse channel	N/Adate	2019/09/18time	04:01:35forward acquisition time	60.00reverse acquisition time	0.00gamma	496.2192k internal	0.2332k external	0.2332temperature offset calibration	0.9994default loss term (dB/km)	0.3790temperature slope calibration	1.0000multiplexer offset coefficient	1.0000multiplexer slope coefficient	1.0000fibre end	0.00T internal ref (°C)	23.19T ext. ref 1 (°C)	0.17T ext. ref 2 (°C)	18.08length (m)	temperature (°C)	Stokes	anti-Stokes-747.200	-54.600	0.176	0.080
-746.185	-200.000	-0.028	0.142
-745.171	-102.771	0.249	0.060
-744.156	356.521	-0.020	0.039
-743.142	-59.227	-0.322	0.139
-742.127	-39.550	-0.078	0.041
-741.112	-200.000	-0.021	-0.160
-740.098	800.000	0.023	0.068
-739.083	-200.000	0.007	-0.167
-738.069	-80.825	0.132	0.044
-737.054	800.000	0.141	0.496
-736.039	-200.000	0.002	-0.177
-735.025	-84.879	0.301	0.095
-734.010	-96.894	-0.089	-0.024
-732.996	32.247	0.170	-0.148
-731.981	800.000	-0.043	0.148
-730.966	-200.000	-0.073	-0.434
-729.952	-130.409	0.299	-0.041
-728.937	64.937	-0.342	-0.347
-727.923	800.000	-0.036	0.112
-726.908	143.451	0.176	-0.236
-725.894	-200.000	0.014	-0.126
-724.879	-200.000	0.067	-0.460
-723.864	800.000	0.025	0.100
-722.850	-33.390	0.023	-0.013
-721.835	277.027	0.080	-0.143
-720.821	112.257	-0.325	-0.395
-719.806	-111.764	0.257	-0.052
-718.791	83.042	0.260	-0.284
-717.777	-100.853	-0.248	0.061
-716.762	-200.000	0.029	-0.162
-715.748	800.000	-0.050	0.155
-714.733	-200.000	0.044	0.211
-713.718	33.072	-0.115	0.100
-712.704	-122.566	-0.108	-0.018
-711.689	-161.284	0.291	0.015
-710.675	314.489	-0.062	0.118
-709.660	-200.000	0.019	-0.320
-708.645	82.971	0.163	-0.178
-707.631	800.000	-0.111	-0.332
-706.616	-200.000	0.014	-0.251
-705.602	-73.822	0.169	-0.062
-704.587	-97.605	-0.121	-0.032
-703.572	87.982	0.156	-0.173
-702.558	-200.000	0.020	-0.109
-701.543	44.450	-0.209	0.192
-700.529	399.666	-0.145	-0.305
-699.514	-200.000	-0.009	0.208
-698.499	19.365	-0.200	0.161
-697.485	-62.027	-0.023	0.010
-696.470	133.395	-0.057	-0.074
-695.456	-81.195	-0.216	0.072
-694.441	337.235	0.139	0.271
-693.426	598.718	-0.074	0.185
-692.412	-4.166	0.212	-0.148
-691.397	13.784	-0.075	-0.059
-690.383	169.411	-0.305	-0.437
-689.368	-200.000	-0.033	0.282
-688.354	-192.969	-0.303	0.003
-687.339	257.001	-0.078	0.135
-686.324	-110.918	0.143	0.029
-685.310	170.590	-0.165	0.237
-684.295	800.000	-0.062	0.236
-683.281	-200.000	-0.001	0.161
-682.266	-140.014	-0.155	0.016
-681.251	800.000	0.059	-0.194
-680.237	39.291	-0.073	-0.066
-679.222	-80.929	-0.097	-0.032
-678.208	-41.785	-0.047	-0.024
-677.193	-3.584	-0.125	0.087
-676.178	-200.000	-0.008	-0.049
-675.164	800.000	0.062	-0.234
-674.149	143.148	-0.135	-0.180
-673.135	800.000	-0.010	0.042
-672.120	74.089	0.221	-0.232
-671.105	154.988	-0.156	0.215
-670.091	-136.623	-0.291	-0.034
-669.076	207.702	-0.213	-0.334
-668.062	63.965	0.326	-0.329
-667.047	121.670	0.059	-0.074
-666.032	-154.706	0.208	0.014
-665.018	-74.245	-0.091	-0.033
-664.003	-47.631	-0.266	-0.129
-662.989	-169.923	-0.167	0.006
-661.974	129.203	0.092	0.118
-660.959	-200.000	0.007	0.032
-659.945	-113.007	-0.179	-0.036
-658.930	285.339	-0.053	-0.096
-657.916	78.503	-0.053	0.057
-656.901	-60.959	0.230	0.097
-655.886	-200.000	-0.004	-0.103
-654.872	238.215	0.191	0.318
-653.857	-181.556	0.126	-0.002
-652.843	-200.000	-0.018	0.197
-651.828	78.478	-0.192	-0.206
-650.814	800.000	-0.048	0.211
-649.799	800.000	-0.014	-0.047
-648.784	277.750	-0.080	-0.142
-647.770	189.985	-0.142	-0.214
-646.755	368.206	0.055	-0.112
-645.741	-188.050	-0.281	0.004
-644.726	85.415	-0.169	-0.186
-643.711	-16.893	-0.117	-0.074
-642.697	298.737	0.130	-0.240
-641.682	-200.000	0.014	-0.132
-640.668	-79.181	-0.207	-0.070
-639.653	-200.000	0.003	-0.047
-638.638	-149.545	-0.140	-0.011
-637.624	-200.000	-0.029	0.153
-636.609	-200.000	-0.024	-0.142
-635.595	-136.360	0.342	0.040
-634.580	199.716	0.124	-0.191
-633.565	221.469	0.067	-0.108
-632.551	34.120	0.074	0.064
-631.536	-200.000	-0.026	-0.230
-630.522	228.345	0.147	0.240
-629.507	315.203	-0.117	0.221
-628.492	800.000	0.051	0.162
-627.478	-91.524	0.031	0.009
-626.463	-200.000	0.065	0.300
-625.449	-76.369	-0.108	0.038
-624.434	51.784	0.110	-0.104
-623.419	233.378	0.080	-0.132
-622.405	111.634	-0.263	0.317
-621.390	-34.200	0.114	0.063
-620.376	-69.452	0.191	-0.073
-619.361	0.692	0.235	-0.168
-618.346	-200.000	0.035	-0.279
-617.332	472.167	0.052	-0.116
-616.317	800.000	-0.048	-0.137
-615.303	-60.253	0.193	0.082
-614.288	-35.362	0.221	0.120
-613.273	800.000	-0.047	0.178
-612.259	63.383	-0.039	0.039
-611.244	-42.798	0.302	-0.154
-610.230	-200.000	0.003	-0.248
-609.215	208.628	0.084	-0.131
-608.201	-121.991	0.168	-0.028
-607.186	800.000	-0.035	-0.148
-606.171	51.781	-0.124	0.118
-605.157	-200.000	-0.020	0.206
-604.142	-200.000	0.041	-0.260
-603.128	185.105	-0.045	-0.066
-602.113	-77.029	-0.410	-0.143
-601.098	154.630	0.197	-0.271
-600.084	-161.555	0.190	-0.010
-599.069	-200.000	0.017	-0.438
-598.055	-120.136	0.274	0.047
-597.040	259.877	-0.139	-0.240
-596.025	45.899	-0.103	0.096
-595.011	68.583	-0.235	-0.241
-593.996	-200.000	0.002	-0.178
-592.982	-200.000	-0.001	-0.032
-591.967	146.662	-0.055	0.074
-590.952	-145.183	0.346	-0.031
-589.938	-200.000	0.051	-0.339
-588.923	-200.000	0.019	0.251
-587.909	-70.503	-0.371	-0.140
-586.894	800.000	0.118	-0.447
-585.879	-31.237	-0.078	0.044
-584.865	-118.991	0.108	-0.019
-583.850	26.469	-0.243	-0.203
-582.836	12.621	-0.386	0.297
-581.821	156.856	-0.102	-0.141
-580.806	-200.000	0.037	-0.231
-579.792	203.823	0.139	-0.215
-578.777	-200.000	0.023	-0.315
-577.763	-144.817	-0.263	0.024
-576.748	-0.945	-0.142	0.100
-575.733	-128.114	0.125	-0.018
-574.719	150.239	-0.290	0.394
-573.704	-22.923	-0.164	0.099
-572.690	-200.000	-0.023	0.175
-571.675	-63.397	-0.362	0.149
-570.661	-35.050	0.053	0.029
-569.646	136.282	-0.275	0.358
-568.631	-53.705	-0.081	-0.037
-567.617	90.774	0.367	-0.410
-566.602	-0.832	-0.214	-0.151
-565.588	-96.068	0.255	-0.068
-564.573	41.644	0.160	-0.145
-563.558	155.298	0.034	0.047
-562.544	-66.955	-0.196	-0.077
-561.529	-110.789	-0.301	0.062
-560.515	11.630	-0.216	0.166
-559.500	282.327	0.157	0.281
-558.485	-52.195	-0.097	0.045
-557.471	167.847	-0.338	-0.480
-556.456	62.574	0.261	0.260
-555.442	4.131	-0.266	0.194
-554.427	179.608	-0.181	-0.265
-553.412	207.033	-0.204	-0.317
-552.398	357.156	0.124	-0.247
-551.383	106.860	0.161	0.191
-550.369	-33.333	0.113	-0.063
-549.354	34.655	-0.156	-0.136
-548.339	277.554	-0.148	-0.263
-547.325	-142.170	-0.140	-0.014
-546.310	-60.010	0.098	-0.042
-545.296	-106.561	-0.102	0.023
-544.281	-55.364	0.231	-0.104
-543.266	132.424	-0.102	0.131
-542.252	19.575	0.018	0.014
-541.237	800.000	-0.085	-0.355
-540.223	-200.000	-0.019	-0.109
-539.208	-42.650	0.095	0.048
-538.193	-64.916	-0.307	0.124
-537.179	21.158	0.168	-0.136
-536.164	-38.900	-0.291	-0.153
-535.150	-103.591	0.299	-0.070
-534.135	-123.706	-0.166	0.026
-533.121	158.027	-0.042	-0.059
-532.106	-35.965	0.182	-0.098
-531.091	116.708	-0.062	-0.076
-530.077	590.410	0.018	-0.044
-529.062	-10.505	0.201	-0.133
-528.048	75.649	-0.229	-0.241
-527.033	28.012	-0.241	0.203
-526.018	-165.037	-0.303	0.013
-525.004	52.948	-0.258	-0.246
-523.989	800.000	-0.026	-0.078
-522.975	-170.506	-0.142	0.005
-521.960	-47.008	0.024	0.012
-520.945	36.879	-0.136	-0.120
-519.931	800.000	-0.019	-0.061
-518.916	-57.240	0.120	-0.053
-517.902	-200.000	0.002	-0.403
-516.887	-3.124	-0.226	-0.157
-515.872	337.073	0.094	0.182
-514.858	-200.000	0.081	-0.000
-513.843	-114.007	-0.308	-0.059
-512.829	36.245	-0.123	0.108
-511.814	-0.576	-0.153	0.108
-510.799	101.063	-0.133	-0.154
-509.785	-200.000	-0.031	0.266
-508.770	198.958	-0.179	-0.274
-507.756	-12.894	0.046	-0.030
-506.741	140.224	-0.073	0.096
-505.726	159.449	-0.072	-0.099
-504.712	-44.454	-0.168	-0.084
-503.697	-40.842	0.169	0.087
-502.683	-151.311	-0.160	0.012
-501.668	364.073	-0.109	-0.218
-500.653	-99.115	-0.251	0.063
-499.639	-200.000	0.012	0.144
-498.624	500.199	-0.142	-0.327
-497.610	82.566	-0.382	-0.414
-496.595	542.812	-0.082	-0.196
-495.581	118.580	-0.163	0.200
-494.566	-53.092	0.200	0.092
-493.551	-114.146	-0.107	0.021
-492.537	-113.660	0.212	0.041
-491.522	782.700	0.121	-0.331
-490.508	41.948	0.165	-0.149
-489.493	800.000	0.126	0.348
-488.478	800.000	0.069	0.191
-487.464	-200.000	-0.046	-0.233
-486.449	800.000	0.118	0.334
-485.435	800.000	0.037	0.112
-484.420	800.000	0.047	-0.169
-483.405	-200.000	0.055	0.371
-482.391	800.000	0.047	-0.154
-481.376	-119.717	-0.247	0.042
-480.362	455.458	0.073	-0.160
-479.347	-63.484	0.130	0.053
-478.332	-200.000	-0.002	0.066
-477.318	-200.000	0.027	0.180
-476.303	-200.000	-0.005	0.307
-475.289	800.000	0.050	-0.137
-474.274	-74.370	-0.180	0.065
-473.259	-200.000	0.010	-0.134
-472.245	800.000	-0.083	-0.236
-471.230	-188.090	0.354	0.005
-470.216	-156.174	-0.061	-0.004
-469.201	-29.012	0.243	0.139
-468.186	-200.000	-0.033	-0.234
-467.172	-63.626	-0.091	0.037
-466.157	-87.407	0.192	-0.058
-465.143	89.102	0.130	0.144
-464.128	-67.246	-0.097	-0.038
-463.113	800.000	0.032	-0.121
-462.099	-200.000	-0.004	-0.140
-461.084	-152.311	-0.313	0.022
-460.070	263.965	0.089	0.153
-459.055	-60.282	-0.271	0.115
-458.040	-200.000	0.030	0.208
-457.026	16.400	0.286	-0.225
-456.011	-200.000	-0.031	0.234
-454.997	15.506	0.257	-0.201
-453.982	-200.000	-0.066	0.427
-452.968	64.531	-0.167	-0.167
-451.953	800.000	0.077	-0.225
-450.938	-200.000	0.011	-0.068
-449.924	-200.000	-0.009	0.044
-448.909	-15.522	-0.110	0.070
-447.895	-26.130	-0.173	0.101
-446.880	48.822	-0.268	-0.250
-445.865	800.000	0.095	-0.292
-444.851	-200.000	-0.043	-0.324
-443.836	69.246	-0.171	0.175
-442.822	19.711	0.089	0.071
-441.807	800.000	-0.026	-0.091
-440.792	-137.423	0.324	0.036
-439.778	-200.000	0.009	-0.107
-438.763	-14.062	-0.093	0.060
-437.749	-96.485	0.360	-0.094
-436.734	13.596	0.140	0.108
-435.719	800.000	0.076	0.314
-434.705	-56.939	-0.160	-0.070
-433.690	9.394	0.016	-0.012
-432.676	559.312	0.048	-0.115
-431.661	-79.724	-0.126	0.042
-430.646	68.145	-0.151	0.154
-429.632	-76.732	0.092	-0.032
-428.617	-69.691	0.398	-0.151
-427.603	-98.601	0.234	0.059
-426.588	36.683	-0.160	0.141
-425.573	25.263	0.206	0.170
-424.559	-26.360	0.118	-0.069
-423.544	513.175	-0.075	-0.173
-422.530	10.795	-0.402	0.305
-421.515	-200.000	-0.008	-0.061
-420.500	-125.709	-0.063	-0.009
-419.486	-29.488	-0.082	-0.047
-418.471	6.472	0.316	0.233
-417.457	211.151	0.181	0.283
-416.442	-200.000	0.038	-0.258
-415.428	-0.070	0.214	-0.152
-414.413	-200.000	0.027	-0.172
-413.398	-83.916	-0.264	-0.084
-412.384	-115.329	-0.255	-0.048
-411.369	-200.000	0.015	0.258
-410.355	-172.857	-0.123	-0.004
-409.340	76.458	0.287	0.302
-408.325	-116.740	-0.316	0.058
-407.311	-7.428	-0.047	-0.032
-406.296	-16.033	0.314	0.198
-405.282	-17.895	0.394	-0.245
-404.267	348.805	-0.198	0.387
-403.252	800.000	0.041	0.126
-402.238	88.698	0.084	-0.092
-401.223	146.400	-0.105	0.140
-400.209	-123.757	-0.146	0.023
-399.194	328.783	-0.163	-0.310
-398.179	-55.906	-0.368	-0.163
-397.165	-200.000	-0.010	0.150
-396.150	-200.000	0.008	0.317
-395.136	800.000	0.081	0.278
-394.121	16.406	0.129	0.101
-393.106	-49.832	0.154	0.073
-392.092	497.868	-0.035	0.080
-391.077	-77.378	0.133	0.046
-390.063	-200.000	-0.008	-0.069
-389.048	211.471	-0.104	0.162
-388.033	33.012	0.228	0.196
-387.019	-200.000	0.098	-0.449
-386.004	158.914	-0.150	-0.207
-384.990	259.081	-0.102	0.175
-383.975	-31.254	0.097	-0.054
-382.960	-54.794	0.081	0.036
-381.946	357.505	0.074	-0.145
-380.931	-171.481	0.209	0.007
-379.917	-59.578	-0.340	0.145
-378.902	-200.000	0.053	0.287
-377.888	800.000	0.061	0.255
-376.873	-200.000	0.048	0.270
-375.858	48.397	0.227	-0.211
-374.844	-57.962	0.101	-0.044
-373.829	48.557	0.208	-0.193
-372.815	-200.000	-0.014	-0.415
-371.800	-40.265	-0.166	-0.085
-370.785	-89.128	0.166	-0.049
-369.771	-45.352	-0.190	0.093
-368.756	-85.079	-0.143	-0.044
-367.742	266.115	0.058	-0.101
-366.727	197.695	-0.119	-0.180
-365.712	393.414	0.171	0.352
-364.698	72.568	0.166	0.172
-363.683	94.229	0.151	0.170
-362.669	289.410	0.079	-0.142
-361.654	352.352	-0.038	-0.074
-360.639	119.374	-0.058	0.071
-359.625	456.653	0.145	-0.319
-358.610	-42.078	-0.173	0.088
-357.596	337.870	0.199	0.384
-356.581	3.918	-0.159	0.115
-355.566	-31.193	0.356	0.199
-354.552	800.000	-0.144	0.435
-353.537	-2.466	0.094	0.065
-352.523	-200.000	0.045	0.331
-351.508	22.172	0.231	0.187
-350.493	800.000	-0.018	0.075
-349.479	800.000	-0.051	-0.198
-348.464	-200.000	0.006	0.366
-347.450	800.000	-0.010	0.038
-346.435	32.841	-0.123	0.105
-345.420	84.044	0.091	0.099
-344.406	184.382	0.041	0.060
-343.391	75.224	-0.181	-0.188
-342.377	300.352	0.137	-0.251
-341.362	-200.000	0.022	-0.168
-340.348	-96.698	-0.025	-0.007
-339.333	344.672	0.193	0.374
-338.318	-200.000	-0.044	-0.443
-337.304	-192.356	-0.070	0.001
-336.289	110.417	0.051	0.061
-335.275	-200.000	0.003	0.224
-334.260	-113.890	0.139	0.027
-333.245	100.095	-0.106	0.122
-332.231	-200.000	0.021	0.281
-331.216	347.893	-0.142	0.277
-330.202	44.400	0.347	-0.315
-329.187	-94.925	0.235	-0.063
-328.172	-174.377	0.194	0.006
-327.158	114.596	0.082	0.099
-326.143	800.000	-0.084	-0.245
-325.129	-200.000	0.007	0.203
-324.114	36.091	0.103	0.090
-323.099	-3.867	-0.191	-0.131
-322.085	98.059	-0.162	0.185
-321.070	-104.548	0.221	0.051
-320.056	-103.534	0.091	-0.021
-319.041	209.172	0.055	-0.086
-318.026	-130.624	0.163	0.022
-317.012	23.875	0.227	0.185
-315.997	601.778	0.096	0.237
-314.983	-4.170	-0.166	0.114
-313.968	-200.000	0.001	0.204
-312.953	800.000	-0.078	-0.235
-311.939	-37.444	-0.173	-0.091
-310.924	-200.000	-0.029	0.442
-309.910	-200.000	-0.039	0.185
-308.895	32.606	0.106	0.091
-307.880	-200.000	-0.033	-0.158
-306.866	214.166	0.131	-0.205
-305.851	-5.262	0.114	0.077
-304.837	-91.744	-0.361	-0.101
-303.822	-200.000	0.009	0.199
-302.807	555.228	0.133	0.316
-301.793	800.000	-0.041	0.148
-300.778	269.712	-0.094	0.164
-299.764	153.146	-0.105	-0.142
-298.749	-137.293	-0.322	0.036
-297.735	160.823	0.075	0.104
-296.720	83.314	-0.403	-0.434
-295.705	-200.000	-0.018	0.100
-294.691	-124.495	0.220	0.034
-293.676	39.812	0.192	0.170
-292.662	-130.713	-0.098	0.013
-291.647	15.625	0.062	0.048
-290.632	661.135	0.047	0.121
-289.618	-200.000	0.019	0.195
-288.603	-200.000	0.112	0.504
-287.589	-89.768	0.067	0.019
-286.574	-200.000	-0.040	-0.328
-285.559	-144.313	0.076	0.007
-284.545	76.282	0.136	0.142
-283.530	-200.000	-0.017	-0.192
-282.516	-121.665	0.534	-0.087
-281.501	800.000	0.055	0.237
-280.486	236.462	0.201	0.329
-279.472	-173.643	0.033	-0.001
-278.457	-124.291	-0.212	-0.033
-277.443	-169.253	-0.132	0.005
-276.428	106.751	-0.083	-0.098
-275.413	-200.000	0.010	0.121
-274.399	-166.931	0.123	-0.005
-273.384	-128.077	0.276	-0.039
-272.370	-178.594	0.244	0.006
-271.355	169.121	0.077	-0.108
-270.340	800.000	-0.075	0.265
-269.326	-89.408	0.293	0.085
-268.311	32.562	0.176	0.150
-267.297	17.970	0.127	0.100
-266.282	-85.126	-0.145	0.045
-265.267	-55.665	-0.336	-0.149
-264.253	800.000	0.109	0.302
-263.238	67.343	0.161	0.162
-262.224	-32.687	0.049	0.027
-261.209	-128.651	-0.068	-0.009
-260.195	-200.000	0.055	0.372
-259.180	-125.443	-0.257	-0.039
-258.165	98.078	-0.300	0.340
-257.151	25.390	-0.121	0.099
-256.136	-200.000	0.004	0.124
-255.122	330.358	0.117	-0.222
-254.107	237.212	0.034	0.055
-253.092	-118.809	0.248	-0.043
-252.078	-32.185	0.210	0.116
-251.063	-136.111	-0.151	0.017
-250.049	800.000	-0.069	-0.296
-249.034	-110.877	-0.108	0.022
-248.019	441.894	-0.201	0.433
-247.005	-161.856	0.429	-0.021
-245.990	-75.827	0.043	0.015
-244.976	71.962	-0.047	-0.048
-243.961	-200.000	-0.008	0.226
-242.946	-30.611	0.273	-0.153
-241.932	1.705	0.145	-0.103
-240.917	-112.691	-0.229	0.045
-239.903	-139.299	0.174	0.018
-238.888	-43.069	-0.155	-0.077
-237.873	240.329	-0.120	0.197
-236.859	-33.868	-0.194	-0.106
-235.844	-42.295	0.183	0.092
-234.830	57.472	-0.266	0.257
-233.815	-82.097	0.128	0.041
-232.800	-200.000	-0.051	0.297
-231.786	-104.449	0.188	0.043
-230.771	64.798	0.182	0.181
-229.757	-38.452	0.149	-0.078
-228.742	-79.058	0.156	0.052
-227.727	-93.983	0.200	-0.054
-226.713	-200.000	0.025	0.320
-225.698	800.000	0.015	0.051
-224.684	-200.000	-0.027	-0.337
-223.669	-200.000	0.006	0.108
-222.655	218.511	-0.094	-0.149
-221.640	624.090	-0.138	-0.344
-220.625	-200.000	0.051	-0.464
-219.611	109.326	-0.048	-0.056
-218.596	-101.403	0.331	-0.080
-217.582	154.212	0.093	-0.126
-216.567	90.065	0.129	-0.142
-215.552	-107.133	-0.333	0.072
-214.538	86.558	0.193	0.210
-213.523	-76.073	-0.300	0.105
-212.509	108.945	-0.200	-0.235
-211.494	-14.484	-0.176	-0.112
-210.479	-166.098	0.271	0.011
-209.465	41.177	0.139	-0.123
-208.450	88.887	-0.081	-0.089
-207.436	-200.000	0.058	-0.320
-206.421	-120.415	-0.134	-0.022
-205.406	234.305	0.022	-0.035
-204.392	-63.802	0.264	-0.107
-203.377	-200.000	-0.008	0.123
-202.363	-131.767	-0.101	-0.013
-201.348	-200.000	-0.060	-0.306
-200.333	99.753	0.264	0.301
-199.319	699.458	-0.053	-0.138
-198.304	668.580	0.119	0.303
-197.290	800.000	0.102	-0.365
-196.275	240.155	-0.210	0.344
-195.260	-200.000	0.001	-0.067
-194.246	603.745	0.018	0.045
-193.231	526.376	-0.128	-0.297
-192.217	-86.242	-0.407	0.123
-191.202	-200.000	-0.016	0.299
-190.187	-34.020	-0.269	0.146
-189.173	800.000	-0.036	-0.136
-188.158	-200.000	0.001	0.018
-187.144	48.251	-0.190	0.175
-186.129	120.173	0.273	-0.333
-185.114	-161.236	0.123	0.006
-184.100	-200.000	0.004	0.188
-183.085	-41.673	-0.151	0.076
-182.071	51.053	0.127	0.119
-181.056	-200.000	0.001	0.174
-180.042	233.237	0.126	0.203
-179.027	-158.295	0.120	0.007
-178.012	-135.254	0.196	-0.023
-176.998	84.124	0.185	-0.199
-175.983	79.517	-0.302	0.319
-174.969	-200.000	0.009	-0.140
-173.954	800.000	0.056	0.172
-172.939	800.000	-0.045	0.171
-171.925	-16.484	-0.175	0.109
-170.910	-41.636	0.121	0.061
-169.896	-160.498	-0.373	0.020
-168.881	-200.000	-0.028	-0.129
-167.866	-23.538	-0.108	0.064
-166.852	-182.064	0.171	0.003
-165.837	-111.686	-0.128	0.026
-164.823	418.656	-0.134	-0.282
-163.808	175.585	-0.219	-0.312
-162.793	-135.265	-0.271	0.032
-161.779	65.256	0.151	-0.150
-160.764	-168.152	-0.383	-0.015
-159.750	283.599	0.172	-0.303
-158.735	-115.459	0.343	0.063
-157.720	99.049	-0.312	-0.355
-156.706	-79.167	-0.075	0.025
-155.691	-200.000	-0.013	0.102
-154.677	-193.150	0.212	0.002
-153.662	100.942	0.079	-0.090
-152.647	-81.994	0.174	0.056
-151.633	-19.236	0.243	-0.148
-150.618	106.133	-0.208	0.242
-149.604	153.788	-0.163	0.220
-148.589	372.094	0.091	-0.181
-147.574	194.474	-0.078	0.116
-146.560	-82.404	-0.276	-0.088
-145.545	-60.668	0.107	-0.045
-144.531	-28.932	0.233	-0.131
-143.516	141.010	-0.187	0.243
-142.502	272.266	-0.220	-0.381
-141.487	112.502	0.093	0.111
-140.472	383.151	-0.104	0.210
-139.458	-121.513	0.247	0.040
-138.443	343.799	0.119	-0.230
-137.429	-200.000	0.003	-0.102
-136.414	-167.071	0.024	-0.001
-135.399	380.111	0.027	-0.054
-134.385	800.000	0.077	-0.210
-133.370	-200.000	-0.032	0.155
-132.356	42.818	-0.311	0.278
-131.341	630.750	0.107	0.265
-130.326	722.773	-0.120	0.313
-129.312	800.000	0.087	-0.368
-128.297	-63.000	0.186	0.075
-127.283	-36.018	0.188	0.100
-126.268	8.147	0.505	0.373
-125.253	-104.074	-0.345	0.079
-124.239	185.752	0.211	0.307
-123.224	-166.216	-0.192	-0.008
-122.210	-62.176	-0.289	0.118
-121.195	-57.943	0.175	0.075
