DTS Sentinel unit serial number:	SN413079Multiplexer serial number:	ORYXHardware model number:	OX4-SRSoftware version number:	ORYX F/W v4.00 Oryx Data Collector v3.7.2.0data status	okinstallation	princeton_trtdifferential loss correction	single-endedforward channel	channel 4reverse channel	N/Adate	2019/09/11time	16:11:11forward acquisition time	60.00reverse acquisition time	0.00gamma	496.2192k internal	0.2276k external	0.2276temperature offset calibration	1.0013default loss term (dB/km)	0.3790temperature slope calibration	1.0000multiplexer offset coefficient	1.0000multiplexer slope coefficient	1.0000fibre end	0.00T internal ref (°C)	43.27T ext. ref 1 (°C)	1.03T ext. ref 2 (°C)	39.37length (m)	temperature (°C)	Stokes	anti-Stokes-747.200	-185.000	0.171	0.003
-746.185	-85.539	0.207	-0.066
-745.171	-144.685	0.515	0.049
-744.156	-167.827	-0.318	0.013
-743.142	-200.000	-0.008	-0.146
-742.127	311.690	0.132	0.256
-741.112	8.891	0.136	0.106
-740.098	709.684	0.148	0.403
-739.083	-90.739	0.140	-0.042
-738.069	-200.000	-0.009	-0.068
-737.054	-87.706	0.024	0.008
-736.039	-138.771	-0.255	0.029
-735.025	363.567	0.147	0.305
-734.010	-122.072	0.292	-0.049
-732.996	203.403	-0.088	0.141
-731.981	-36.003	-0.061	0.034
-730.966	-78.393	0.112	0.040
-729.952	167.887	-0.160	-0.234
-728.937	91.429	0.166	-0.192
-727.923	-75.320	-0.278	-0.102
-726.908	-200.000	0.027	0.245
-725.894	294.092	-0.019	-0.036
-724.879	55.060	-0.038	0.037
-723.864	-200.000	-0.010	-0.051
-722.850	89.494	0.216	0.248
-721.835	-42.800	0.243	0.127
-720.821	168.697	-0.189	0.278
-719.806	-69.473	-0.250	0.099
-718.791	-39.356	-0.042	-0.023
-717.777	129.924	0.065	-0.085
-716.762	-42.761	-0.159	0.083
-715.748	-68.954	-0.365	0.145
-714.733	172.587	-0.148	-0.219
-713.718	-138.734	-0.252	0.028
-712.704	110.203	-0.082	-0.101
-711.689	555.754	0.165	-0.410
-710.675	-149.564	-0.277	-0.023
-709.660	800.000	-0.065	-0.190
-708.645	125.480	-0.276	-0.359
-707.631	-200.000	-0.035	0.170
-706.616	-10.283	-0.257	0.176
-705.602	10.773	-0.203	0.159
-704.587	466.887	-0.003	0.006
-703.572	46.257	-0.027	0.026
-702.558	-155.392	0.155	0.010
-701.543	46.437	-0.177	0.169
-700.529	364.004	0.107	-0.222
-699.514	-79.833	0.344	-0.119
-698.499	-127.637	-0.151	-0.022
-697.485	-200.000	0.051	-0.311
-696.470	4.189	-0.223	-0.168
-695.456	-53.907	0.088	0.041
-694.441	-92.338	0.042	-0.012
-693.426	299.676	0.069	0.131
-692.412	-115.614	0.232	-0.045
-691.397	409.216	-0.081	-0.177
-690.383	37.114	-0.220	-0.200
-689.368	-93.205	-0.304	-0.087
-688.354	205.935	0.064	-0.102
-687.339	15.597	0.138	-0.111
-686.324	-200.000	-0.053	-0.372
-685.310	-55.684	0.283	-0.130
-684.295	215.344	-0.071	0.116
-683.281	21.775	-0.042	-0.035
-682.266	-25.929	-0.159	-0.096
-681.251	-72.989	-0.192	-0.072
-680.237	-111.787	-0.157	-0.033
-679.222	104.727	0.163	-0.197
-678.208	800.000	-0.025	-0.100
-677.193	-77.953	0.131	-0.047
-676.178	-135.883	-0.135	0.016
-675.164	-200.000	0.017	0.136
-674.149	210.802	0.196	-0.317
-673.135	-200.000	0.034	-0.240
-672.120	6.491	-0.177	-0.135
-671.105	203.094	0.153	0.243
-670.091	-165.567	0.224	0.010
-669.076	34.385	0.295	0.265
-668.062	-47.126	-0.209	0.105
-667.047	360.979	0.044	0.090
-666.032	-41.086	0.093	0.049
-665.018	-119.615	0.031	-0.005
-664.003	-98.403	-0.214	0.056
-662.989	800.000	-0.079	-0.258
-661.974	-4.442	-0.137	-0.098
-660.959	800.000	0.013	0.051
-659.945	800.000	-0.094	0.331
-658.930	800.000	-0.068	0.295
-657.916	-3.262	-0.101	-0.073
-656.901	414.975	-0.140	0.306
-655.886	-193.450	0.095	0.001
-654.872	-164.235	0.106	-0.005
-653.857	71.212	0.140	0.149
-652.843	-94.669	-0.242	0.067
-651.828	-200.000	-0.015	0.202
-650.814	377.864	-0.012	0.025
-649.799	68.157	-0.151	-0.159
-648.784	47.256	-0.218	0.209
-647.770	-137.084	-0.268	-0.031
-646.755	-200.000	-0.013	0.068
-645.741	459.946	-0.036	-0.083
-644.726	160.420	-0.028	0.040
-643.711	-54.849	-0.104	0.048
-642.697	-130.319	-0.229	-0.032
-641.682	-86.729	0.328	0.103
-640.668	-107.947	-0.110	0.025
-639.653	-116.395	0.306	0.058
-638.638	-108.611	0.164	-0.036
-637.624	71.775	0.228	-0.243
-636.609	-200.000	-0.002	-0.021
-635.595	44.632	0.169	0.160
-634.580	78.847	0.097	-0.107
-633.565	800.000	-0.064	0.244
-632.551	584.409	0.089	0.224
-631.536	92.513	0.060	0.069
-630.522	-59.101	-0.211	0.093
-629.507	102.068	0.107	0.128
-628.492	-30.842	-0.377	0.218
-627.478	247.124	0.098	-0.169
-626.463	800.000	-0.043	-0.143
-625.449	-156.604	0.196	-0.012
-624.434	800.000	0.018	-0.075
-623.419	-118.705	0.295	-0.053
-622.405	423.161	0.058	-0.128
-621.390	-195.604	-0.264	-0.002
-620.376	-56.502	0.361	-0.164
-619.361	-22.472	-0.152	-0.094
-618.346	-200.000	0.015	-0.242
-617.332	-153.539	0.315	0.022
-616.317	-165.005	0.072	0.003
-615.303	-23.781	0.036	-0.022
-614.288	715.846	0.064	0.175
-613.273	-105.377	0.148	0.034
-612.259	-91.978	0.289	-0.084
-611.244	-34.977	0.090	0.050
-610.230	734.541	-0.111	0.305
-609.215	112.371	0.272	-0.338
-608.201	800.000	0.147	0.437
-607.186	-200.000	0.017	0.205
-606.171	800.000	0.078	-0.227
-605.157	-108.752	-0.118	-0.026
-604.142	-6.799	-0.056	0.039
-603.128	89.848	-0.218	0.249
-602.113	-24.740	-0.200	0.122
-601.098	-54.707	-0.426	0.197
-600.084	-200.000	-0.021	-0.141
-599.069	-52.447	0.121	-0.058
-598.055	35.171	0.165	-0.148
-597.040	800.000	-0.041	0.156
-596.025	199.373	-0.142	-0.223
-595.011	800.000	0.093	0.297
-593.996	307.249	-0.123	0.235
-592.982	-200.000	0.019	-0.105
-591.967	496.899	-0.112	0.263
-590.952	800.000	0.094	-0.411
-589.938	-79.250	-0.253	0.088
-588.923	-110.314	-0.170	0.036
-587.909	-33.251	-0.171	-0.097
-586.894	-24.011	0.057	0.035
-585.879	-53.494	0.024	0.011
-584.865	-45.186	-0.137	-0.070
-583.850	36.033	0.122	0.110
-582.836	89.799	0.049	-0.056
-581.821	-73.207	0.395	0.148
-580.806	25.161	-0.297	-0.252
-579.792	-200.000	0.031	-0.179
-578.777	-15.262	-0.170	0.112
-577.763	349.145	-0.083	0.167
-576.748	-71.223	0.247	0.095
-575.733	648.274	0.102	0.267
-574.719	-34.651	0.239	0.134
-573.704	-76.899	-0.195	-0.070
-572.690	397.410	-0.037	0.079
-571.675	526.646	-0.005	-0.013
-570.661	-199.991	0.067	-0.000
-569.646	182.106	-0.041	0.061
-568.631	19.473	0.069	0.057
-567.617	-200.000	-0.024	0.287
-566.602	5.420	-0.065	-0.049
-565.588	800.000	-0.122	-0.515
-564.573	-200.000	-0.024	0.116
-563.558	-128.688	-0.133	-0.019
-562.544	380.165	-0.037	-0.077
-561.529	-65.381	-0.216	0.089
-560.515	153.804	-0.152	-0.213
-559.500	-22.046	-0.313	0.195
-558.485	85.588	0.195	-0.219
-557.471	-34.831	0.163	0.091
-556.456	204.401	0.164	0.260
-555.442	-104.356	0.249	-0.059
-554.427	-46.684	-0.223	0.112
-553.412	-200.000	-0.041	-0.360
-552.398	-74.380	-0.088	0.033
-551.383	-35.218	-0.209	-0.116
-550.369	800.000	-0.038	-0.116
-549.354	-200.000	0.011	-0.053
-548.339	-100.965	-0.360	0.090
-547.325	163.556	0.181	-0.260
-546.310	800.000	-0.006	0.021
-545.296	198.402	-0.100	0.157
-544.281	68.218	0.067	-0.070
-543.266	-145.053	0.141	-0.013
-542.252	-45.315	-0.211	0.107
-541.237	-37.665	-0.335	-0.182
-540.223	-200.000	-0.057	-0.452
-539.208	238.592	-0.137	0.233
-538.193	57.955	0.040	-0.040
-537.179	279.449	-0.109	-0.198
-536.164	308.129	-0.165	-0.314
-535.150	3.571	0.220	0.164
-534.135	25.868	0.327	0.279
-533.121	749.817	-0.049	0.134
-532.106	-200.000	-0.056	-0.256
-531.091	245.942	-0.189	-0.326
-530.077	-22.219	-0.284	-0.176
-529.062	-9.296	-0.074	-0.051
-528.048	702.867	0.071	-0.191
-527.033	305.001	0.101	0.192
-526.018	-92.111	0.242	-0.070
-525.004	221.582	0.125	0.205
-523.989	46.817	0.104	0.099
-522.975	365.454	0.104	-0.214
-521.960	324.025	0.112	0.218
-520.945	-200.000	0.012	-0.101
-519.931	-36.776	0.275	0.151
-518.916	-200.000	-0.027	-0.225
-517.902	-124.592	-0.012	-0.002
-516.887	-123.161	-0.242	0.040
-515.872	22.013	-0.275	-0.229
-514.858	-26.984	-0.353	-0.210
-513.843	800.000	0.060	-0.183
-512.829	191.244	0.091	0.140
-511.814	-62.319	-0.352	0.150
-510.799	10.524	-0.228	-0.177
-509.785	-89.382	-0.227	-0.068
-508.770	-96.072	-0.267	0.072
-507.756	689.900	0.091	0.244
-506.741	48.326	-0.085	0.082
-505.726	419.191	0.071	-0.156
-504.712	-200.000	-0.003	0.122
-503.697	38.311	-0.156	0.142
-502.683	90.099	0.167	-0.191
-501.668	-200.000	0.039	0.293
-500.653	54.915	0.182	-0.179
-499.639	36.131	0.219	0.197
-498.624	50.964	0.148	0.143
-497.610	208.063	0.235	-0.375
-496.595	-147.796	-0.137	-0.012
-495.581	71.431	0.048	-0.051
-494.566	-200.000	-0.007	-0.175
-493.551	41.758	-0.220	0.204
-492.537	-200.000	-0.002	0.130
-491.522	551.950	-0.025	0.060
-490.508	629.457	0.067	-0.173
-489.493	-200.000	0.022	-0.143
-488.478	405.471	-0.044	-0.094
-487.464	18.141	0.098	0.080
-486.449	-162.852	-0.158	0.008
-485.435	-200.000	0.037	0.204
-484.420	-105.710	-0.236	-0.055
-483.405	-174.135	0.207	0.006
-482.391	800.000	-0.120	0.391
-481.376	24.534	-0.067	-0.057
-480.362	-54.552	0.127	-0.059
-479.347	15.144	-0.164	0.131
-478.332	75.047	0.233	-0.250
-477.318	-109.715	0.112	0.024
-476.303	-0.261	0.025	-0.018
-475.289	99.599	-0.140	-0.165
-474.274	-200.000	-0.048	-0.231
-473.259	-109.811	-0.368	0.079
-472.245	272.147	-0.158	-0.284
-471.230	647.761	-0.091	0.236
-470.216	-200.000	0.022	0.280
-469.201	-182.525	-0.386	0.007
-468.186	-200.000	-0.035	-0.389
-467.172	-130.527	-0.183	0.025
-466.157	-107.427	0.256	-0.057
-465.143	153.437	0.244	-0.341
-464.128	-200.000	-0.046	0.222
-463.113	70.591	0.060	-0.064
-462.099	640.037	0.114	0.297
-461.084	186.388	0.175	-0.266
-460.070	46.665	-0.212	0.200
-459.055	800.000	-0.082	-0.272
-458.040	108.321	-0.051	-0.062
-457.026	-82.419	-0.135	-0.045
-456.011	697.321	-0.164	-0.439
-454.997	63.238	0.163	0.167
-453.982	-17.257	-0.321	0.206
-452.968	-142.338	-0.381	-0.038
-451.953	449.368	-0.077	0.173
-450.938	800.000	-0.077	0.270
-449.924	-147.579	-0.183	-0.016
-448.909	800.000	0.011	0.047
-447.895	209.291	0.222	0.355
-446.880	112.230	0.128	-0.158
-445.865	238.443	-0.103	0.174
-444.851	-200.000	0.018	-0.124
-443.836	352.561	-0.166	0.335
-442.822	-200.000	0.040	0.183
-441.807	15.819	-0.205	-0.164
-440.792	800.000	-0.045	-0.194
-439.778	54.667	0.163	-0.160
-438.763	-102.265	-0.232	-0.057
-437.749	-200.000	-0.051	0.247
-436.734	-109.625	-0.056	0.012
-435.719	-71.679	-0.252	0.096
-434.705	19.240	-0.132	0.108
-433.690	800.000	-0.013	0.051
-432.676	-200.000	0.038	0.251
-431.661	-200.000	-0.023	-0.364
-430.646	75.678	-0.140	-0.150
-429.632	-200.000	0.006	0.067
-428.617	800.000	-0.134	0.431
-427.603	800.000	-0.112	-0.328
-426.588	-39.236	0.043	0.023
-425.573	164.615	0.171	0.245
-424.559	-200.000	-0.008	-0.193
-423.544	-150.461	0.249	0.019
-422.530	67.413	0.242	-0.251
-421.515	83.259	-0.172	0.190
-420.500	98.905	-0.123	0.144
-419.486	57.359	-0.064	-0.063
-418.471	-42.490	-0.157	-0.081
-417.457	-10.118	-0.102	0.069
-416.442	562.357	-0.049	0.121
-415.428	-200.000	0.046	-0.420
-414.413	27.037	-0.395	-0.338
-413.398	173.318	0.108	0.159
-412.384	75.486	0.226	0.242
-411.369	-97.488	-0.125	-0.033
-410.355	574.699	0.170	-0.422
-409.340	-200.000	-0.009	-0.299
-408.325	800.000	-0.107	-0.304
-407.311	38.076	-0.076	-0.069
-406.296	266.901	-0.108	0.192
-405.282	666.875	0.108	-0.284
-404.267	-200.000	0.010	0.125
-403.252	800.000	-0.066	-0.216
-402.238	470.457	0.067	-0.153
-401.223	-71.058	-0.157	-0.060
-400.209	77.015	-0.174	-0.188
-399.194	-154.411	-0.236	-0.016
-398.179	-107.084	-0.050	-0.011
-397.165	481.866	-0.022	0.051
-396.150	694.771	-0.081	0.216
-395.136	434.699	0.163	0.361
-394.121	-104.057	0.041	-0.010
-393.106	56.757	-0.271	0.268
-392.092	133.422	-0.096	0.126
-391.077	21.593	-0.251	0.207
-390.063	-144.387	0.067	0.006
-389.048	141.451	-0.232	-0.312
-388.033	-200.000	-0.039	-0.199
-387.019	-85.551	-0.208	-0.066
-386.004	-200.000	0.009	-0.079
-384.990	277.733	0.041	-0.074
-383.975	332.990	0.113	0.221
-382.960	-99.371	0.306	-0.079
-381.946	37.456	-0.110	-0.099
-380.931	-104.083	-0.251	-0.059
-379.917	-128.104	-0.058	-0.008
-378.902	800.000	0.033	-0.144
-377.888	-200.000	0.006	-0.187
-376.873	-200.000	-0.049	0.278
-375.858	86.807	0.054	-0.061
-374.844	477.217	-0.062	0.143
-373.829	-159.384	0.083	0.005
-372.815	-55.706	-0.168	0.076
-371.800	16.905	-0.093	-0.075
-370.785	656.298	-0.031	0.080
-369.771	-200.000	-0.013	-0.358
-368.756	-200.000	0.024	-0.164
-367.742	84.036	-0.095	-0.106
-366.727	-102.041	0.208	0.051
-365.712	-116.249	-0.130	-0.024
-364.698	-200.000	0.061	0.368
-363.683	-21.165	0.050	0.031
-362.669	-133.276	0.194	0.025
-361.654	-200.000	0.031	0.166
-360.639	-118.476	0.141	0.025
-359.625	800.000	0.006	-0.022
-358.610	-88.690	0.278	-0.084
-357.596	-200.000	0.042	0.303
-356.581	-28.020	-0.022	0.013
-355.566	117.152	0.110	0.137
-354.552	150.643	0.194	0.268
-353.537	-100.993	0.275	-0.069
-352.523	-8.649	-0.153	-0.104
-351.508	1.373	0.202	-0.147
-350.493	704.584	0.011	-0.030
-349.479	-21.171	0.147	0.091
-348.464	-116.806	0.498	-0.093
-347.450	228.432	0.143	-0.237
-346.435	-32.376	-0.119	-0.067
-345.420	-43.368	-0.093	0.048
-344.406	-145.963	0.295	0.027
-343.391	172.957	-0.092	-0.134
-342.377	112.525	0.182	-0.224
-341.362	13.991	0.230	-0.182
-340.348	-47.219	0.220	-0.109
-339.333	800.000	0.031	-0.135
-338.318	800.000	-0.042	-0.149
-337.304	-86.928	-0.027	0.008
-336.289	66.865	0.169	-0.175
-335.275	-104.310	-0.298	0.070
-334.260	-200.000	0.042	0.225
-333.245	-33.947	-0.105	0.058
-332.231	-146.255	-0.243	0.022
-331.216	-72.574	0.480	-0.180
-330.202	176.108	0.083	0.123
-329.187	-134.162	-0.346	-0.043
-328.172	-188.590	-0.305	-0.004
-327.158	117.972	0.125	-0.156
-326.143	159.923	-0.108	0.153
-325.129	-200.000	-0.023	0.145
-324.114	800.000	-0.020	0.059
-323.099	-133.045	0.215	-0.028
-322.085	-165.930	-0.383	0.017
-321.070	24.412	-0.088	0.074
-320.056	160.345	0.161	0.228
-319.041	-33.649	0.318	0.178
-318.026	800.000	-0.051	-0.183
-317.012	-200.000	-0.055	0.285
-315.997	578.274	-0.065	0.160
-314.983	-200.000	-0.004	0.191
-313.968	563.003	-0.047	0.115
-312.953	73.119	-0.086	-0.091
-311.939	72.510	0.307	0.325
-310.924	-119.828	0.261	0.046
-309.910	379.908	-0.152	-0.315
-308.895	52.218	0.085	0.082
-307.880	800.000	-0.071	-0.211
-306.866	-67.286	-0.299	-0.119
-305.851	73.423	0.256	-0.271
-304.837	190.380	0.113	-0.172
-303.822	-124.007	-0.262	0.042
-302.807	-85.234	-0.064	0.020
-301.793	-54.664	0.183	-0.084
-300.778	-70.227	0.106	-0.041
-299.764	404.089	-0.102	-0.218
-298.749	-200.000	0.005	0.412
-297.735	-113.732	0.127	-0.025
-296.720	-200.000	-0.047	0.000
-295.705	-52.507	0.257	0.120
-294.691	98.487	0.102	-0.119
-293.676	40.574	0.131	-0.120
-292.662	-200.000	-0.054	-0.457
-291.647	-200.000	0.060	-0.270
-290.632	90.048	-0.069	0.079
-289.618	-111.798	-0.239	0.049
-288.603	531.264	-0.194	0.464
-287.589	-200.000	0.018	-0.205
-286.574	-200.000	-0.094	0.438
-285.559	-22.654	0.021	0.013
-284.545	-55.857	-0.463	-0.209
-283.530	-109.574	0.144	-0.031
-282.516	135.738	0.161	-0.212
-281.501	800.000	0.053	0.204
-280.486	789.374	0.080	0.222
-279.472	-88.880	-0.216	0.065
-278.457	233.056	-0.069	-0.114
-277.443	24.672	-0.160	-0.134
-276.428	-157.469	0.305	-0.019
-275.413	-156.264	0.217	-0.014
-274.399	-95.737	-0.067	0.018
-273.384	-200.000	0.026	0.222
-272.370	437.348	0.113	0.249
-271.355	-200.000	-0.014	-0.213
-270.340	-142.776	0.217	-0.021
-269.326	-61.467	0.206	0.088
-268.311	3.722	0.355	0.262
-267.297	-111.226	-0.146	0.030
-266.282	-87.682	0.181	0.055
-265.267	800.000	0.081	0.313
-264.253	-35.433	0.350	0.192
-263.238	61.125	0.058	0.058
-262.224	-76.804	-0.136	-0.048
-261.209	308.467	0.142	-0.268
-260.195	241.661	-0.114	0.193
-259.180	-49.188	0.148	0.071
-258.165	74.704	-0.165	-0.175
-257.151	-200.000	0.001	0.235
-256.136	10.431	0.192	-0.148
-255.122	120.769	-0.132	0.166
-254.107	54.665	-0.403	-0.393
-253.092	-133.558	0.400	0.051
-252.078	-63.828	-0.102	-0.042
-251.063	-104.756	0.108	0.025
-250.049	-60.812	0.207	0.088
-249.034	6.559	0.338	-0.254
-248.019	800.000	0.044	0.153
-247.005	40.593	-0.157	-0.143
-245.990	35.627	0.195	0.173
-244.976	-200.000	-0.053	-0.252
-243.961	-163.151	-0.345	-0.017
-242.946	-200.000	0.074	-0.384
-241.932	800.000	0.024	0.091
-240.917	223.323	0.174	0.284
-239.903	-200.000	0.013	0.178
-238.888	-200.000	0.008	0.141
-237.873	391.957	-0.151	0.318
-236.859	371.105	-0.140	0.288
-235.844	37.324	-0.114	-0.102
-234.830	800.000	0.032	0.098
-233.815	-45.403	-0.103	0.052
-232.800	-61.517	0.073	0.031
-231.786	-9.207	-0.034	-0.023
-230.771	118.292	0.208	-0.259
-229.757	129.326	0.245	-0.317
-228.742	181.439	-0.078	-0.117
-227.727	588.794	-0.060	-0.149
-226.713	-28.636	0.203	-0.118
-225.698	39.328	0.216	0.195
-224.684	-200.000	0.052	0.339
-223.669	-65.127	-0.075	0.030
-222.655	441.898	0.066	-0.146
-221.640	-74.884	-0.163	-0.059
-220.625	228.147	-0.088	0.144
-219.611	22.406	-0.273	0.225
-218.596	-11.974	0.368	0.244
-217.582	-57.966	0.070	0.031
-216.567	254.371	-0.230	0.397
-215.552	39.131	-0.071	0.064
-214.538	82.645	0.170	0.186
-213.523	-200.000	-0.031	0.228
-212.509	-60.711	-0.052	-0.022
-211.494	235.853	0.020	0.034
-210.479	82.022	0.290	-0.317
-209.465	357.944	-0.099	0.199
-208.450	71.158	0.041	0.042
-207.436	-72.408	0.120	-0.045
-206.421	-200.000	0.150	0.000
-205.406	279.449	0.060	-0.107
-204.392	-110.483	0.103	0.022
-203.377	160.529	0.174	-0.245
-202.363	-200.000	-0.039	-0.173
-201.348	800.000	0.132	-0.557
-200.333	-200.000	-0.038	0.217
-199.319	800.000	-0.097	0.385
-198.304	-117.831	0.243	0.044
-197.290	60.473	0.188	0.188
-196.275	-200.000	0.000	-0.045
-195.260	-59.120	0.082	-0.035
-194.246	-200.000	-0.019	0.386
-193.231	136.063	-0.055	0.072
-192.217	-48.711	-0.080	-0.039
-191.202	136.790	0.164	0.216
-190.187	-37.679	0.134	-0.072
-189.173	78.080	0.257	0.276
-188.158	-123.119	-0.070	0.011
-187.144	-200.000	-0.009	0.151
-186.129	376.931	0.195	0.401
-185.114	-41.482	-0.006	0.003
-184.100	410.427	-0.160	-0.341
-183.085	-145.097	-0.130	-0.012
-182.071	-64.287	-0.327	-0.134
-181.056	18.282	-0.138	-0.111
-180.042	-19.328	-0.147	0.092
-179.027	-200.000	-0.018	-0.346
-178.012	-200.000	-0.081	-0.749
-176.998	466.755	0.049	-0.111
-175.983	190.999	-0.097	0.147
-174.969	672.959	0.071	-0.186
-173.954	3.380	0.244	-0.179
-172.939	-200.000	-0.007	0.063
-171.925	485.757	0.135	0.310
-170.910	-122.833	0.274	-0.045
-169.896	7.918	0.141	-0.107
-168.881	800.000	-0.059	-0.184
-167.866	73.930	-0.297	-0.314
-166.852	-104.650	-0.183	-0.043
-165.837	-193.705	0.240	-0.002
-164.823	153.798	0.224	0.309
-163.808	-54.521	0.217	0.099
-162.793	47.272	-0.189	-0.177
-161.779	-102.049	0.165	0.040
-160.764	79.794	0.040	-0.043
-159.750	-25.692	-0.142	-0.084
-158.735	158.497	0.049	0.068
-157.720	69.665	0.150	-0.156
-156.706	-22.072	0.083	-0.051
-155.691	157.558	0.008	-0.011
-154.677	155.850	-0.164	-0.228
-153.662	167.630	0.090	0.129
-152.647	800.000	-0.082	0.289
-151.633	141.449	0.155	0.207
-150.618	-0.021	0.078	-0.056
-149.604	284.745	0.048	0.087
-148.589	177.933	0.226	-0.331
-147.574	-140.598	0.264	0.028
-146.560	122.103	-0.117	-0.147
-145.545	117.477	-0.041	-0.050
-144.531	-65.063	0.410	-0.167
-143.516	800.000	-0.058	0.165
-142.502	-200.000	-0.005	0.248
-141.487	800.000	-0.044	-0.180
-140.472	73.128	0.126	0.133
-139.458	715.715	0.045	-0.120
-138.443	-8.548	0.088	-0.059
-137.429	238.593	-0.177	-0.295
-136.414	-200.000	-0.062	0.377
-135.399	-106.546	-0.186	0.042
-134.385	274.803	0.203	-0.361
-133.370	800.000	-0.050	0.198
-132.356	76.782	-0.026	0.027
-131.341	574.391	0.052	-0.127
-130.326	-19.896	0.108	-0.067
-129.312	58.616	0.093	-0.092
-128.297	-169.967	-0.306	-0.011
-127.283	-90.550	-0.339	-0.099
-126.268	503.574	-0.077	-0.180
-125.253	-139.408	0.113	0.012
-124.239	-200.000	-0.038	-0.231
-123.224	4.863	-0.077	0.057
-122.210	138.640	-0.325	-0.430
-121.195	-200.000	0.039	0.274
