DTS Sentinel unit serial number:	SN413079Multiplexer serial number:	ORYXHardware model number:	OX4-SRSoftware version number:	ORYX F/W v4.00 Oryx Data Collector v3.7.2.0data status	okinstallation	princeton_trtdifferential loss correction	single-endedforward channel	channel 4reverse channel	N/Adate	2019/09/15time	14:09:35forward acquisition time	60.00reverse acquisition time	0.00gamma	496.2192k internal	0.2288k external	0.2288temperature offset calibration	0.9993default loss term (dB/km)	0.3790temperature slope calibration	1.0000multiplexer offset coefficient	1.0000multiplexer slope coefficient	1.0000fibre end	0.00T internal ref (°C)	38.72T ext. ref 1 (°C)	4.95T ext. ref 2 (°C)	36.01length (m)	temperature (°C)	Stokes	anti-Stokes-747.200	-200.000	0.006	-0.235
-746.185	24.553	0.210	0.178
-745.171	-130.892	0.239	-0.033
-744.156	-62.675	0.035	-0.015
-743.142	-118.910	0.066	0.012
-742.127	554.302	-0.150	0.370
-741.112	-200.000	-0.040	0.281
-740.098	195.242	0.090	0.140
-739.083	-75.804	-0.289	-0.105
-738.069	-200.000	0.023	0.289
-737.054	151.353	0.057	0.079
-736.039	78.761	-0.186	-0.204
-735.025	-200.000	0.063	0.336
-734.010	74.278	0.029	-0.032
-732.996	477.295	0.112	-0.260
-731.981	-35.113	0.057	-0.032
-730.966	-99.314	-0.115	-0.030
-729.952	13.005	-0.297	-0.236
-728.937	-136.652	-0.305	0.036
-727.923	377.337	-0.052	-0.110
-726.908	-76.579	0.196	0.071
-725.894	-99.366	-0.256	-0.066
-724.879	800.000	-0.063	-0.278
-723.864	101.819	0.056	0.067
-722.850	-64.048	-0.351	-0.147
-721.835	-200.000	0.005	0.265
-720.821	253.717	0.056	0.099
-719.806	-103.582	-0.062	-0.015
-718.791	800.000	0.009	0.027
-717.777	56.563	-0.090	0.089
-716.762	263.656	-0.143	0.254
-715.748	-165.841	0.416	-0.018
-714.733	51.844	0.095	-0.092
-713.718	-80.434	-0.309	-0.106
-712.704	132.847	-0.116	-0.154
-711.689	150.037	0.180	-0.250
-710.675	35.728	0.125	-0.112
-709.660	-98.897	0.446	-0.116
-708.645	12.708	-0.237	0.187
-707.631	800.000	0.058	0.231
-706.616	-38.412	0.176	-0.095
-705.602	800.000	-0.107	-0.316
-704.587	-200.000	-0.030	0.243
-703.572	-116.164	-0.196	0.037
-702.558	322.854	-0.042	-0.083
-701.543	589.191	-0.054	-0.135
-700.529	18.274	-0.384	0.313
-699.514	-200.000	-0.059	-0.317
-698.499	-200.000	-0.042	-0.310
-697.485	-105.000	0.254	-0.060
-696.470	196.822	-0.142	-0.222
-695.456	455.950	-0.219	0.496
-694.441	179.370	0.188	0.281
-693.426	-200.000	-0.031	-0.190
-692.412	199.761	-0.113	-0.178
-691.397	-57.514	0.207	0.093
-690.383	-128.864	0.046	-0.007
-689.368	-63.254	-0.182	0.077
-688.354	342.990	0.035	-0.071
-687.339	99.951	-0.209	-0.248
-686.324	78.466	-0.139	-0.152
-685.310	-1.710	0.086	-0.062
-684.295	483.835	0.217	0.504
-683.281	-67.115	-0.189	0.076
-682.266	163.348	-0.059	0.085
-681.251	20.467	-0.171	0.141
-680.237	474.906	-0.053	0.121
-679.222	305.009	0.121	-0.230
-678.208	213.312	0.155	0.251
-677.193	-200.000	-0.033	0.659
-676.178	-200.000	0.024	0.127
-675.164	-32.469	-0.287	-0.164
-674.149	34.075	-0.204	-0.182
-673.135	45.396	-0.439	0.415
-672.120	351.333	-0.213	0.431
-671.105	414.763	0.017	0.036
-670.091	230.877	0.050	0.084
-669.076	-74.433	0.118	0.043
-668.062	-200.000	-0.006	-0.044
-667.047	219.146	0.040	-0.066
-666.032	36.422	-0.294	-0.265
-665.018	-133.616	-0.147	0.019
-664.003	-200.000	0.002	-0.134
-662.989	-200.000	0.042	0.238
-661.974	800.000	-0.081	-0.270
-660.959	-62.459	-0.124	-0.053
-659.945	360.278	0.130	0.266
-658.930	-100.631	-0.084	-0.021
-657.916	-36.347	0.131	-0.072
-656.901	648.138	0.035	0.090
-655.886	-85.220	-0.185	-0.059
-654.872	309.033	-0.111	-0.212
-653.857	-95.319	0.210	0.058
-652.843	-200.000	-0.291	0.000
-651.828	-148.707	0.168	-0.014
-650.814	-200.000	0.048	-0.221
-649.799	25.592	-0.181	-0.154
-648.784	-120.125	0.057	0.010
-647.770	104.504	0.138	0.166
-646.755	-74.720	0.125	-0.046
-645.741	62.050	-0.171	0.174
-644.726	800.000	0.041	0.137
-643.711	800.000	0.047	0.197
-642.697	278.747	-0.050	-0.090
-641.682	156.696	-0.213	-0.300
-640.668	-70.920	0.083	0.032
-639.653	-200.000	-0.010	0.141
-638.638	-38.430	-0.215	0.116
-637.624	125.670	0.027	0.034
-636.609	654.410	-0.050	-0.132
-635.595	-90.224	-0.188	0.056
-634.580	161.387	-0.102	0.146
-633.565	33.976	0.171	-0.152
-632.551	-51.388	-0.281	-0.134
-631.536	-200.000	-0.010	-0.421
-630.522	120.469	-0.132	-0.167
-629.507	27.735	0.321	0.276
-628.492	3.415	0.073	0.055
-627.478	92.564	-0.265	0.305
-626.463	-3.463	0.288	-0.205
-625.449	-91.119	-0.177	-0.052
-624.434	-200.000	0.002	-0.009
-623.419	418.741	-0.126	0.275
-622.405	155.177	-0.035	-0.049
-621.390	308.430	0.084	0.160
-620.376	800.000	0.102	0.354
-619.361	-152.433	0.093	-0.007
-618.346	71.408	0.219	0.232
-617.332	800.000	0.048	-0.164
-616.317	800.000	-0.081	0.317
-615.303	-46.964	0.190	-0.095
-614.288	800.000	0.025	-0.104
-613.273	2.529	-0.234	0.173
-612.259	800.000	0.040	-0.169
-611.244	-28.799	0.118	-0.069
-610.230	-55.710	-0.081	-0.037
-609.215	47.157	0.120	-0.114
-608.201	405.935	0.067	-0.145
-607.186	613.239	0.100	0.254
-606.171	800.000	0.074	-0.261
-605.157	-200.000	0.071	0.374
-604.142	-200.000	-0.036	0.178
-603.128	701.457	-0.149	-0.401
-602.113	800.000	-0.077	-0.317
-601.098	-77.036	-0.314	0.112
-600.084	160.845	-0.052	0.074
-599.069	236.036	0.019	-0.033
-598.055	-200.000	0.017	0.187
-597.040	-53.703	-0.404	0.188
-596.025	-125.411	-0.135	-0.021
-595.011	800.000	0.052	0.148
-593.996	800.000	0.081	0.292
-592.982	32.847	-0.169	0.149
-591.967	83.855	-0.278	0.310
-590.952	800.000	0.012	-0.047
-589.938	135.428	0.164	0.218
-588.923	-200.000	0.013	-0.123
-587.909	800.000	0.082	-0.235
-586.894	-200.000	0.029	-0.341
-585.879	800.000	0.026	-0.074
-584.865	51.452	-0.033	-0.032
-583.850	256.289	0.057	0.099
-582.836	-8.046	0.256	0.176
-581.821	21.074	0.114	0.095
-580.806	213.463	0.218	0.352
-579.792	442.420	0.074	-0.166
-578.777	-59.861	-0.175	0.076
-577.763	-33.376	0.160	-0.090
-576.748	-32.673	-0.198	-0.112
-575.733	133.263	-0.047	0.062
-574.719	800.000	-0.029	0.088
-573.704	122.144	-0.098	-0.124
-572.690	584.262	0.176	0.440
-571.675	-200.000	-0.022	-0.316
-570.661	-87.022	-0.190	0.059
-569.646	261.689	-0.059	-0.104
-568.631	34.126	0.193	-0.171
-567.617	-102.454	-0.534	0.130
-566.602	-65.010	0.247	-0.101
-565.588	-200.000	-0.019	0.258
-564.573	800.000	-0.106	-0.307
-563.558	28.553	-0.093	-0.080
-562.544	-68.844	0.159	-0.063
-561.529	-127.468	-0.150	0.022
-560.515	-200.000	0.023	0.234
-559.500	328.206	-0.159	-0.311
-558.485	-158.137	0.298	-0.018
-557.471	-50.699	-0.535	0.256
-556.456	84.622	-0.310	0.345
-555.442	188.768	0.183	0.279
-554.427	0.899	-0.088	-0.064
-553.412	-200.000	-0.031	-0.216
-552.398	-200.000	0.049	-0.229
-551.383	-26.111	0.192	-0.115
-550.369	800.000	0.050	0.175
-549.354	800.000	0.045	-0.194
-548.339	-160.625	0.498	-0.027
-547.325	292.146	0.078	-0.144
-546.310	268.092	-0.251	-0.447
-545.296	-200.000	-0.004	-0.108
-544.281	190.060	-0.278	0.424
-543.266	-99.137	0.434	0.112
-542.252	-6.110	-0.221	-0.153
-541.237	-113.393	0.318	0.063
-540.223	-200.000	-0.036	0.258
-539.208	61.609	0.246	-0.249
-538.193	-200.000	0.074	-0.364
-537.179	123.325	-0.189	-0.242
-536.164	-200.000	-0.052	-0.507
-535.150	-173.684	0.242	0.007
-534.135	800.000	0.033	0.105
-533.121	-200.000	-0.023	0.249
-532.106	83.021	-0.049	-0.054
-531.091	774.999	-0.068	-0.190
-530.077	-115.504	0.304	-0.058
-529.062	91.281	-0.240	0.274
-528.048	438.430	-0.056	-0.124
-527.033	54.285	-0.329	-0.322
-526.018	-11.946	-0.237	-0.158
-525.004	-112.208	-0.124	0.025
-523.989	-118.546	-0.243	-0.044
-522.975	-71.497	0.120	-0.046
-521.960	-200.000	0.019	-0.303
-520.945	-59.404	-0.116	-0.051
-519.931	13.842	0.203	0.160
-518.916	-74.662	-0.152	-0.055
-517.902	800.000	0.049	-0.143
-516.887	-15.417	-0.211	-0.137
-515.872	-20.920	0.196	0.122
-514.858	-200.000	-0.004	-0.400
-513.843	-170.097	-0.242	-0.009
-512.829	726.934	-0.094	-0.255
-511.814	-170.097	0.284	0.010
-510.799	673.516	0.076	-0.201
-509.785	125.580	-0.051	0.065
-508.770	18.688	-0.116	-0.094
-507.756	17.417	0.191	-0.154
-506.741	-6.816	-0.189	-0.131
-505.726	-103.427	0.245	0.059
-504.712	-32.365	-0.321	-0.182
-503.697	356.803	0.090	-0.182
-502.683	-158.570	-0.217	-0.013
-501.668	-123.014	0.289	0.047
-500.653	800.000	0.051	0.214
-499.639	375.111	-0.147	0.305
-498.624	800.000	-0.067	0.239
-497.610	69.586	-0.135	-0.142
-496.595	-200.000	-0.058	0.416
-495.581	-200.000	-0.027	0.238
-494.566	-93.204	0.155	-0.044
-493.551	-59.397	-0.167	0.073
-492.537	800.000	-0.031	-0.093
-491.522	-200.000	0.001	-0.174
-490.508	88.661	0.213	0.240
-489.493	-100.810	-0.143	0.036
-488.478	-80.700	-0.114	-0.038
-487.464	-17.995	0.226	-0.143
-486.449	-177.935	-0.211	0.005
-485.435	357.493	0.185	-0.374
-484.420	188.730	-0.047	0.072
-483.405	-108.686	-0.269	-0.058
-482.391	-86.983	-0.248	0.077
-481.376	-200.000	0.016	0.180
-480.362	-89.353	-0.177	-0.053
-479.347	212.840	0.152	0.243
-478.332	800.000	-0.085	-0.310
-477.318	111.887	-0.055	0.067
-476.303	-38.527	-0.154	-0.082
-475.289	-88.958	-0.405	-0.122
-474.274	-73.896	0.287	0.106
-473.259	-151.851	0.245	-0.018
-472.245	-37.550	-0.051	-0.028
-471.230	800.000	0.057	-0.190
-470.216	800.000	-0.095	-0.385
-469.201	-200.000	0.018	-0.093
-468.186	-200.000	0.051	-0.283
-467.172	-200.000	-0.013	-0.184
-466.157	800.000	-0.109	-0.355
-465.143	193.155	0.155	0.237
-464.128	120.166	0.241	-0.303
-463.113	266.752	0.075	-0.133
-462.099	-200.000	-0.049	0.280
-461.084	800.000	-0.074	-0.248
-460.070	800.000	-0.017	0.070
-459.055	-200.000	0.017	-0.185
-458.040	-60.088	0.343	-0.148
-457.026	-200.000	-0.025	0.359
-456.011	-95.527	0.170	0.046
-454.997	-178.734	0.289	0.007
-453.982	-151.340	-0.252	0.019
-452.968	-47.787	0.193	0.095
-451.953	-200.000	0.010	-0.272
-450.938	381.372	-0.030	0.062
-449.924	17.400	0.290	0.233
-448.909	330.174	0.064	-0.125
-447.895	38.969	0.165	0.149
-446.880	-76.300	0.283	0.101
-445.865	-143.102	-0.336	-0.033
-444.851	-27.576	0.140	0.082
-443.836	540.329	-0.093	0.224
-442.822	62.170	-0.070	0.071
-441.807	800.000	-0.110	-0.442
-440.792	-94.523	0.285	-0.079
-439.778	-31.372	0.156	0.089
-438.763	-200.000	0.027	0.286
-437.749	17.209	-0.095	0.077
-436.734	-84.217	0.193	0.062
-435.719	418.741	-0.123	-0.266
-434.705	124.705	-0.187	0.238
-433.690	-38.071	0.327	-0.176
-432.676	-129.850	-0.224	-0.031
-431.661	376.686	0.111	-0.230
-430.646	-200.000	-0.029	-0.233
-429.632	587.338	0.088	0.218
-428.617	-70.621	0.143	0.055
-427.603	800.000	-0.104	-0.331
-426.588	-16.625	-0.188	0.120
-425.573	-156.124	0.159	0.010
-424.559	-135.750	-0.283	-0.034
-423.544	-78.091	-0.267	0.093
-422.530	-200.000	0.051	-0.394
-421.515	-200.000	0.051	-0.274
-420.500	97.113	0.245	-0.285
-419.486	-200.000	0.023	0.107
-418.471	-69.483	0.113	-0.044
-417.457	-51.358	0.163	-0.077
-416.442	-34.993	-0.200	-0.111
-415.428	1.872	-0.212	-0.155
-414.413	-200.000	-0.015	-0.174
-413.398	800.000	0.035	0.101
-412.384	263.832	0.079	-0.138
-411.369	800.000	0.033	0.117
-410.355	-119.902	-0.119	-0.021
-409.340	-200.000	-0.016	0.459
-408.325	74.841	-0.168	-0.179
-407.311	58.863	-0.062	-0.062
-406.296	92.478	0.124	-0.141
-405.282	6.515	-0.296	0.222
-404.267	-21.954	0.178	-0.110
-403.252	-99.818	0.171	-0.043
-402.238	-1.377	0.079	-0.056
-401.223	-81.580	0.207	0.069
-400.209	-89.920	0.121	0.036
-399.194	10.780	-0.201	0.155
-398.179	800.000	-0.027	0.107
-397.165	-29.480	0.220	0.127
-396.150	-127.832	-0.061	-0.009
-395.136	-200.000	-0.004	-0.066
-394.121	367.109	0.135	-0.276
-393.106	-84.253	0.232	0.074
-392.092	-149.835	-0.274	0.022
-391.077	-200.000	-0.044	-0.287
-390.063	-131.543	-0.151	-0.020
-389.048	309.047	0.032	0.061
-388.033	15.496	-0.200	0.159
-387.019	-175.639	0.242	0.007
-386.004	-200.000	-0.030	-0.271
-384.990	-57.027	0.327	-0.146
-383.975	291.251	-0.076	-0.139
-382.960	216.162	-0.154	-0.248
-381.946	-200.000	0.035	-0.235
-380.931	-200.000	-0.010	0.123
-379.917	74.074	-0.190	-0.202
-378.902	800.000	-0.042	-0.164
-377.888	-194.054	-0.055	0.000
-376.873	800.000	-0.096	0.282
-375.858	161.662	0.068	-0.096
-374.844	-100.270	-0.315	0.079
-373.829	-84.850	0.064	-0.020
-372.815	144.650	0.042	0.057
-371.800	135.833	0.221	0.291
-370.785	39.184	0.015	-0.014
-369.771	800.000	0.041	0.134
-368.756	155.546	0.046	0.063
-367.742	-26.219	-0.453	-0.269
-366.727	420.602	-0.203	-0.438
-365.712	-106.392	0.073	0.016
-364.698	378.796	-0.059	-0.123
-363.683	-27.744	-0.233	0.137
-362.669	-93.234	-0.131	-0.037
-361.654	-200.000	-0.003	0.106
-360.639	800.000	0.048	0.194
-359.625	-20.498	0.144	0.090
-358.610	-39.083	-0.201	0.107
-357.596	-42.378	0.212	-0.109
-356.581	-139.557	0.202	-0.022
-355.566	43.854	0.014	-0.013
-354.552	-30.513	-0.284	0.163
-353.537	-160.011	0.318	-0.017
-352.523	-123.373	0.187	-0.030
-351.508	-116.354	-0.235	-0.044
-350.493	147.610	0.089	-0.121
-349.479	-200.000	0.006	-0.272
-348.464	-37.867	0.076	-0.041
-347.450	62.560	-0.238	0.240
-346.435	68.263	0.036	0.037
-345.420	800.000	-0.006	0.021
-344.406	-200.000	-0.029	-0.160
-343.391	215.369	-0.110	-0.177
-342.377	-200.000	0.005	0.253
-341.362	-105.402	-0.157	-0.036
-340.348	224.817	0.099	-0.161
-339.333	-70.464	0.393	0.150
-338.318	26.511	-0.097	0.082
-337.304	-150.237	0.282	0.022
-336.289	800.000	-0.058	0.182
-335.275	800.000	0.127	-0.379
-334.260	800.000	0.055	-0.189
-333.245	456.920	0.100	0.224
-332.231	800.000	0.045	-0.154
-331.216	259.679	0.204	-0.356
-330.202	-200.000	-0.019	-0.166
-329.187	-72.760	-0.043	0.016
-328.172	73.010	-0.208	0.219
-327.158	-200.000	0.018	0.114
-326.143	281.288	-0.117	0.211
-325.129	800.000	0.113	0.367
-324.114	-63.641	0.185	-0.077
-323.099	-50.681	0.384	0.183
-322.085	-87.994	0.358	-0.109
-321.070	800.000	0.028	0.095
-320.056	-91.438	0.277	0.080
-319.041	47.640	-0.165	-0.156
-318.026	349.502	0.069	0.138
-317.012	151.724	0.171	0.236
-315.997	159.707	-0.058	0.081
-314.983	-120.127	-0.255	-0.044
-313.968	-44.978	-0.158	-0.079
-312.953	-73.465	-0.107	0.039
-311.939	-65.297	0.040	-0.016
-310.924	-200.000	0.020	-0.278
-309.910	335.233	-0.122	-0.238
-308.895	-200.000	0.052	-0.307
-307.880	353.694	-0.135	-0.269
-306.866	-2.952	0.172	-0.121
-305.851	148.779	-0.015	-0.020
-304.837	800.000	0.031	0.119
-303.822	-200.000	-0.024	0.113
-302.807	242.001	-0.125	-0.211
-301.793	-200.000	0.008	-0.339
-300.778	-101.833	-0.236	-0.057
-299.764	120.385	-0.111	0.139
-298.749	311.104	-0.093	0.175
-297.735	0.385	0.108	-0.078
-296.720	-200.000	0.033	0.169
-295.705	-41.663	0.118	0.061
-294.691	-72.051	-0.265	0.099
-293.676	-19.986	-0.058	0.036
-292.662	-200.000	0.041	0.584
-291.647	5.558	0.111	-0.083
-290.632	-130.211	-0.164	0.022
-289.618	-44.995	0.092	0.046
-288.603	-65.119	0.168	0.068
-287.589	310.002	-0.073	-0.138
-286.574	800.000	-0.004	0.015
-285.559	445.616	0.073	0.161
-284.545	111.226	0.089	-0.108
-283.530	665.346	0.068	0.176
-282.516	45.438	-0.063	0.058
-281.501	325.681	-0.077	-0.147
-280.486	-101.049	0.171	0.042
-279.472	242.724	-0.136	-0.229
-278.457	-200.000	-0.008	0.095
-277.443	-200.000	-0.002	0.218
-276.428	227.808	-0.094	-0.154
-275.413	94.547	0.135	0.155
-274.399	-200.000	-0.014	0.177
-273.384	239.472	0.114	-0.192
-272.370	-129.252	-0.305	-0.043
-271.355	800.000	0.119	-0.361
-270.340	206.523	-0.212	0.332
-269.326	-143.314	0.339	-0.033
-268.311	7.935	-0.045	0.034
-267.297	-200.000	-0.046	0.312
-266.282	-9.482	-0.131	-0.088
-265.267	145.824	-0.066	0.089
-264.253	-51.592	0.091	-0.043
-263.238	800.000	-0.006	-0.028
-262.224	621.828	0.081	0.204
-261.209	131.580	0.064	0.083
-260.195	632.691	0.119	-0.304
-259.180	-46.308	0.046	-0.023
-258.165	110.488	0.179	-0.216
-257.151	-76.687	0.226	-0.080
-256.136	261.164	-0.081	-0.142
-255.122	-141.643	0.040	-0.004
-254.107	800.000	0.026	0.110
-253.092	800.000	0.065	0.231
-252.078	-87.127	-0.225	0.069
-251.063	800.000	0.049	0.195
-250.049	11.172	-0.172	-0.132
-249.034	19.127	-0.105	0.084
-248.019	112.116	-0.083	0.101
-247.005	50.985	-0.096	0.091
-245.990	-57.108	-0.219	-0.097
-244.976	171.285	0.236	0.340
-243.961	-15.721	0.157	0.101
-242.946	487.429	0.068	0.155
-241.932	-2.154	-0.178	-0.125
-240.917	309.401	-0.242	0.455
-239.903	1.747	-0.199	0.144
-238.888	-104.426	0.206	-0.048
-237.873	48.748	0.023	0.022
-236.859	800.000	0.046	-0.140
-235.844	147.669	-0.173	0.234
-234.830	-124.235	-0.129	-0.020
-233.815	86.538	-0.218	-0.241
-232.800	-200.000	-0.019	-0.237
-231.786	267.775	-0.101	-0.178
-230.771	42.661	-0.067	0.061
-229.757	-18.085	0.202	0.127
-228.742	74.035	0.137	0.144
-227.727	-200.000	-0.442	-0.001
-226.713	-87.892	-0.314	-0.095
-225.698	-200.000	-0.002	-0.088
-224.684	800.000	-0.058	0.164
-223.669	13.393	0.179	0.140
-222.655	-114.621	0.128	0.025
-221.640	-102.478	-0.160	-0.038
-220.625	-46.153	-0.186	0.092
-219.611	-200.000	0.049	-0.290
-218.596	-125.511	0.075	-0.011
-217.582	-200.000	0.022	0.291
-216.567	-29.640	-0.159	-0.091
-215.552	-200.000	0.035	0.284
-214.538	18.037	0.219	-0.175
-213.523	16.527	-0.115	0.091
-212.509	-71.191	-0.097	-0.037
-211.494	747.524	-0.015	-0.041
-210.479	50.653	-0.356	0.338
-209.465	1.912	0.215	0.156
-208.450	-155.240	0.121	0.008
-207.436	-94.394	0.126	0.034
-206.421	160.207	-0.042	0.058
-205.406	91.737	0.040	-0.045
-204.392	19.154	0.245	-0.197
-203.377	-91.445	-0.103	-0.030
-202.363	457.849	0.044	0.097
-201.348	-73.512	-0.190	-0.070
-200.333	-95.747	0.403	0.108
-199.319	-30.887	0.197	-0.111
-198.304	800.000	0.052	-0.202
-197.290	-200.000	-0.000	0.256
-196.275	774.780	-0.080	0.220
-195.260	-200.000	-0.044	0.303
-194.246	109.921	-0.196	0.236
-193.231	14.761	-0.127	0.100
-192.217	-200.000	-0.018	0.143
-191.202	-200.000	0.081	0.516
-190.187	-134.984	0.186	-0.022
-189.173	-200.000	-0.027	0.275
-188.158	-27.568	0.449	0.262
-187.144	43.991	0.102	-0.093
-186.129	39.268	-0.095	-0.085
-185.114	-25.214	0.191	0.114
-184.100	485.857	-0.075	0.172
-183.085	-200.000	0.000	-0.325
-182.071	18.239	-0.048	0.039
-181.056	-0.641	0.233	-0.166
-180.042	800.000	0.073	0.320
-179.027	800.000	0.040	0.125
-178.012	-200.000	-0.006	0.106
-176.998	62.114	0.075	0.075
-175.983	56.984	-0.152	0.148
-174.969	-200.000	0.005	-0.189
-173.954	-200.000	-0.017	-0.177
-172.939	-34.450	0.305	0.167
-171.925	1.873	-0.317	0.229
-170.910	0.797	0.198	-0.142
-169.896	60.044	0.220	0.218
-168.881	-86.388	0.058	-0.018
-167.866	16.213	-0.224	0.177
-166.852	44.225	-0.246	0.226
-165.837	-55.995	0.382	-0.171
-164.823	-15.677	0.069	-0.044
-163.808	62.444	0.171	0.171
-162.793	-200.000	0.001	0.090
-161.779	-109.721	0.072	0.015
-160.764	524.260	0.051	0.120
-159.750	504.229	0.076	-0.176
-158.735	186.369	-0.048	0.072
-157.720	-200.000	-0.047	0.245
-156.706	-72.323	-0.084	0.031
-155.691	171.764	0.049	-0.070
-154.677	800.000	-0.047	-0.183
-153.662	-200.000	0.006	0.102
-152.647	800.000	-0.074	-0.293
-151.633	411.874	-0.039	-0.082
-150.618	-77.393	0.114	-0.040
-149.604	-103.237	0.425	0.101
-148.589	-147.224	-0.080	-0.007
-147.574	7.115	-0.121	-0.090
-146.560	-89.760	0.277	-0.081
-145.545	315.222	-0.158	-0.298
-144.531	99.631	0.089	0.104
-143.516	-18.429	0.136	0.085
-142.502	314.004	0.139	0.262
-141.487	25.127	-0.069	-0.057
-140.472	800.000	0.040	0.125
-139.458	622.457	-0.072	-0.181
-138.443	-200.000	-0.038	0.272
-137.429	-200.000	0.019	0.306
-136.414	-80.148	0.063	-0.021
-135.399	-200.000	-0.001	-0.254
-134.385	-102.248	-0.206	0.049
-133.370	-200.000	-0.024	0.207
-132.356	-79.269	0.352	0.119
-131.341	-44.566	0.152	0.076
-130.326	800.000	-0.083	0.265
-129.312	120.482	0.212	-0.264
-128.297	-9.457	-0.165	0.110
-127.283	800.000	0.053	0.183
-126.268	-200.000	-0.019	-0.114
-125.253	251.338	-0.117	-0.200
-124.239	800.000	0.073	-0.218
-123.224	800.000	-0.139	0.414
-122.210	16.772	0.233	0.184
-121.195	710.220	0.022	-0.059
