DTS Sentinel unit serial number:	SN413079Multiplexer serial number:	ORYXHardware model number:	OX4-SRSoftware version number:	ORYX F/W v4.00 Oryx Data Collector v3.7.2.0data status	okinstallation	princeton_trtdifferential loss correction	single-endedforward channel	channel 4reverse channel	N/Adate	2019/09/13time	08:01:35forward acquisition time	60.00reverse acquisition time	0.00gamma	496.2192k internal	0.2319k external	0.2319temperature offset calibration	1.0196default loss term (dB/km)	0.3790temperature slope calibration	1.0000multiplexer offset coefficient	1.0000multiplexer slope coefficient	1.0000fibre end	0.00T internal ref (°C)	26.87T ext. ref 1 (°C)	4.24T ext. ref 2 (°C)	23.13length (m)	temperature (°C)	Stokes	anti-Stokes-747.200	169.489	-0.164	0.237
-746.185	-46.479	-0.282	0.140
-745.171	171.424	-0.238	-0.346
-744.156	-109.196	0.133	-0.029
-743.142	332.852	-0.121	0.237
-742.127	316.391	-0.148	0.283
-741.112	-156.500	0.622	-0.039
-740.098	794.295	-0.090	0.252
-739.083	-107.815	0.353	-0.078
-738.069	-136.558	-0.090	-0.011
-737.054	800.000	0.090	0.351
-736.039	800.000	0.066	0.196
-735.025	-200.000	0.013	0.276
-734.010	-159.002	-0.231	-0.013
-732.996	-189.393	0.090	-0.001
-731.981	581.335	-0.133	-0.328
-730.966	153.492	-0.157	0.217
-729.952	-200.000	-0.004	0.041
-728.937	-80.119	-0.280	0.095
-727.923	39.475	0.089	-0.081
-726.908	-200.000	0.038	-0.312
-725.894	4.209	0.124	-0.092
-724.879	800.000	0.082	-0.231
-723.864	130.771	-0.163	-0.212
-722.850	97.927	-0.091	-0.105
-721.835	-200.000	-0.103	-0.463
-720.821	-200.000	0.026	-0.149
-719.806	800.000	0.118	-0.448
-718.791	-200.000	-0.054	-0.332
-717.777	26.597	-0.080	0.068
-716.762	800.000	-0.042	-0.181
-715.748	-200.000	-0.037	-0.178
-714.733	-49.227	0.179	0.086
-713.718	-200.000	-0.056	-0.297
-712.704	800.000	-0.089	-0.345
-711.689	348.162	0.028	0.056
-710.675	800.000	0.063	0.264
-709.660	-200.000	-0.019	0.087
-708.645	201.302	0.089	-0.139
-707.631	-43.319	-0.119	0.061
-706.616	-200.000	0.042	-0.265
-705.602	-97.709	0.158	-0.041
-704.587	407.821	-0.052	-0.112
-703.572	-200.000	-0.010	0.048
-702.558	-37.132	-0.021	-0.012
-701.543	800.000	0.049	-0.183
-700.529	754.435	-0.118	-0.323
-699.514	-22.930	-0.069	0.042
-698.499	-105.240	0.221	0.051
-697.485	-115.177	-0.160	-0.031
-696.470	-200.000	0.025	0.343
-695.456	-11.872	0.264	0.175
-694.441	335.683	0.184	-0.361
-693.426	-57.999	-0.235	-0.104
-692.412	519.041	0.142	0.335
-691.397	-41.410	-0.250	0.130
-690.383	49.250	-0.049	0.047
-689.368	-187.462	-0.117	0.002
-688.354	132.883	-0.154	0.201
-687.339	-18.478	0.163	0.102
-686.324	754.907	-0.119	-0.324
-685.310	-12.211	0.063	0.042
-684.295	-143.801	0.078	-0.007
-683.281	-200.000	-0.005	0.071
-682.266	159.627	0.152	-0.214
-681.251	-84.983	0.097	-0.031
-680.237	800.000	-0.100	-0.373
-679.222	-69.027	0.340	-0.132
-678.208	143.843	0.100	0.134
-677.193	556.928	0.040	-0.097
-676.178	-200.000	-0.003	-0.034
-675.164	214.969	-0.208	0.332
-674.149	-122.925	-0.100	0.016
-673.135	485.572	-0.089	-0.205
-672.120	61.916	0.191	0.192
-671.105	-75.224	0.180	0.065
-670.091	-4.787	0.135	0.094
-669.076	144.695	0.092	-0.124
-668.062	177.018	0.079	-0.115
-667.047	28.401	-0.158	-0.135
-666.032	-85.249	-0.095	-0.030
-665.018	67.435	-0.282	-0.290
-664.003	709.714	-0.080	0.213
-662.989	-200.000	-0.044	-0.269
-661.974	-95.802	-0.206	0.055
-660.959	-200.000	0.012	-0.337
-659.945	-82.460	0.055	-0.018
-658.930	-45.971	0.153	0.076
-657.916	-200.000	-0.023	-0.120
-656.901	-76.466	0.306	0.108
-655.886	100.382	0.070	-0.082
-654.872	800.000	0.083	-0.308
-653.857	132.958	0.313	0.408
-652.843	480.976	0.086	-0.197
-651.828	-200.000	0.019	0.279
-650.814	-84.807	0.081	-0.026
-649.799	-54.245	-0.310	-0.142
-648.784	394.883	0.039	0.082
-647.770	800.000	0.046	0.135
-646.755	-0.393	0.211	-0.151
-645.741	-101.915	-0.225	-0.055
-644.726	800.000	0.056	-0.184
-643.711	-95.325	0.150	0.041
-642.697	-80.583	-0.227	-0.076
-641.682	-171.565	-0.170	-0.006
-640.668	-200.000	-0.031	-0.280
-639.653	58.200	-0.261	-0.258
-638.638	58.610	0.168	0.166
-637.624	-101.612	-0.134	0.033
-636.609	242.542	-0.055	-0.093
-635.595	13.786	0.182	0.142
-634.580	-200.000	-0.007	-0.108
-633.565	800.000	-0.032	0.097
-632.551	-200.000	-0.006	-0.085
-631.536	-58.244	-0.474	-0.208
-630.522	235.680	0.065	-0.109
-629.507	800.000	-0.051	-0.206
-628.492	-179.666	0.274	-0.006
-627.478	-125.964	-0.078	0.012
-626.463	-200.000	-0.013	0.119
-625.449	800.000	-0.061	0.204
-624.434	-107.701	-0.302	0.066
-623.419	54.281	-0.143	0.139
-622.405	226.061	-0.139	0.226
-621.390	-22.109	0.140	-0.086
-620.376	-200.000	-0.004	0.183
-619.361	74.377	-0.256	-0.271
-618.346	-99.456	-0.160	-0.041
-617.332	156.446	-0.126	-0.175
-616.317	800.000	0.066	-0.286
-615.303	800.000	-0.074	-0.268
-614.288	-121.584	-0.016	0.003
-613.273	69.903	0.113	-0.117
-612.259	-200.000	-0.038	-0.297
-611.244	428.917	-0.023	-0.050
-610.230	-139.410	0.251	-0.027
-609.215	115.467	0.117	0.143
-608.201	142.237	0.199	0.265
-607.186	-93.692	0.159	-0.044
-606.171	490.909	-0.024	0.055
-605.157	-37.301	0.237	-0.127
-604.142	8.551	0.100	0.076
-603.128	16.642	0.184	0.147
-602.113	-76.949	-0.088	0.031
-601.098	-200.000	0.032	0.239
-600.084	-32.329	-0.288	0.162
-599.069	80.533	0.232	0.251
-598.055	800.000	0.044	-0.170
-597.040	21.016	-0.037	-0.030
-596.025	559.170	0.174	0.422
-595.011	43.915	0.074	-0.068
-593.996	-108.293	0.294	-0.064
-592.982	288.920	0.072	0.132
-591.967	800.000	-0.027	-0.116
-590.952	800.000	0.032	0.107
-589.938	-200.000	0.017	0.113
-588.923	101.455	-0.139	0.163
-587.909	208.667	-0.020	0.032
-586.894	800.000	-0.110	0.376
-585.879	152.804	-0.136	0.187
-584.865	800.000	0.149	0.451
-583.850	-52.823	0.178	-0.082
-582.836	-45.270	-0.178	-0.089
-581.821	-200.000	-0.004	0.083
-580.806	281.105	-0.154	0.278
-579.792	-113.794	-0.295	0.058
-578.777	31.403	-0.304	-0.263
-577.763	-28.825	0.162	0.094
-576.748	782.608	-0.055	0.150
-575.733	-129.421	-0.223	0.031
-574.719	112.620	0.100	-0.122
-573.704	0.439	0.022	-0.016
-572.690	-200.000	0.013	0.203
-571.675	800.000	0.075	-0.269
-570.661	210.993	-0.129	-0.204
-569.646	-119.942	0.146	0.025
-568.631	139.746	0.093	0.123
-567.617	477.678	0.054	-0.122
-566.602	-200.000	-0.005	0.035
-565.588	-85.176	0.170	-0.053
-564.573	-109.463	-0.160	0.034
-563.558	800.000	0.031	0.092
-562.544	166.077	0.096	-0.137
-561.529	-7.433	0.175	-0.119
-560.515	46.029	-0.143	0.133
-559.500	-200.000	-0.018	-0.216
-558.485	17.018	-0.122	-0.097
-557.471	-78.677	-0.196	0.067
-556.456	10.130	-0.148	-0.113
-555.442	131.826	0.101	0.130
-554.427	45.746	-0.143	-0.133
-553.412	-102.921	-0.242	-0.058
-552.398	-200.000	-0.002	-0.249
-551.383	-117.985	0.464	-0.083
-550.369	412.600	-0.118	-0.251
-549.354	800.000	0.027	-0.096
-548.339	71.324	-0.227	-0.236
-547.325	142.686	0.142	-0.190
-546.310	-200.000	0.030	0.178
-545.296	80.670	-0.079	-0.085
-544.281	335.282	0.047	-0.092
-543.266	800.000	-0.009	0.032
-542.252	-42.529	0.322	-0.164
-541.237	-142.909	-0.239	0.023
-540.223	1.500	0.382	-0.276
-539.208	302.277	-0.066	0.122
-538.193	-200.000	-0.012	0.355
-537.179	-104.262	0.057	0.013
-536.164	-165.305	-0.016	0.001
-535.150	10.279	0.087	0.067
-534.135	-200.000	0.013	-0.120
-533.121	-67.369	0.102	0.040
-532.106	-68.172	0.192	-0.075
-531.091	-143.106	0.274	0.026
-530.077	-200.000	0.022	0.361
-529.062	-70.206	-0.104	-0.039
-528.048	282.645	0.182	-0.327
-527.033	-39.219	0.164	0.086
-526.018	-200.000	0.092	0.000
-525.004	-62.598	-0.318	-0.132
-523.989	98.445	-0.163	-0.189
-522.975	800.000	-0.038	0.150
-521.960	43.427	-0.124	0.114
-520.945	-76.843	0.136	-0.048
-519.931	-45.035	0.050	0.025
-518.916	-200.000	0.003	0.119
-517.902	48.187	0.219	-0.206
-516.887	287.205	0.056	-0.101
-515.872	-200.000	-0.021	-0.306
-514.858	-35.292	0.442	-0.241
-513.843	53.751	0.266	-0.256
-512.829	-200.000	-0.049	0.217
-511.814	-6.284	0.289	0.198
-510.799	343.154	-0.064	0.127
-509.785	70.477	-0.125	-0.129
-508.770	75.028	0.054	-0.057
-507.756	800.000	-0.083	0.282
-506.741	205.698	-0.068	0.106
-505.726	-18.740	-0.203	-0.127
-504.712	46.633	0.067	0.062
-503.697	-200.000	0.028	-0.205
-502.683	15.224	-0.221	-0.174
-501.668	-146.418	0.229	-0.020
-500.653	95.793	0.255	0.292
-499.639	-28.295	0.121	0.070
-498.624	-101.194	-0.179	0.044
-497.610	35.435	-0.180	0.158
-496.595	-160.331	0.422	0.023
-495.581	309.848	0.015	-0.027
-494.566	800.000	0.092	-0.377
-493.551	-200.000	-0.041	-0.289
-492.537	-24.532	0.340	0.203
-491.522	-74.529	0.169	0.061
-490.508	-7.263	-0.318	-0.216
-489.493	-73.021	-0.276	0.102
-488.478	-149.420	-0.162	0.013
-487.464	-163.054	0.264	-0.013
-486.449	13.375	0.163	-0.127
-485.435	-192.008	-0.202	-0.002
-484.420	-180.493	0.196	-0.004
-483.405	111.437	-0.135	0.162
-482.391	293.304	0.130	-0.238
-481.376	-115.579	0.161	0.030
-480.362	-129.672	0.229	-0.032
-479.347	-91.083	0.062	-0.018
-478.332	-82.112	0.045	0.015
-477.318	-85.600	-0.279	-0.087
-476.303	-76.342	-0.309	-0.109
-475.289	713.352	0.117	-0.309
-474.274	80.755	0.136	0.147
-473.259	800.000	-0.061	-0.169
-472.245	89.305	-0.317	-0.353
-471.230	232.543	0.216	0.355
-470.216	-71.008	-0.421	-0.159
-469.201	167.331	0.093	0.133
-468.186	-14.225	0.108	0.070
-467.172	-19.765	0.066	-0.041
-466.157	-15.040	-0.278	0.178
-465.143	71.660	0.129	0.134
-464.128	-143.150	0.290	0.028
-463.113	-36.798	-0.244	0.131
-462.099	800.000	0.038	0.122
-461.084	-200.000	-0.001	0.099
-460.070	-52.438	0.270	-0.125
-459.055	785.606	-0.104	0.287
-458.040	-200.000	-0.014	0.099
-457.026	-54.605	0.221	0.100
-456.011	463.625	-0.080	-0.179
-454.997	748.183	-0.050	-0.134
-453.982	163.433	0.114	-0.161
-452.968	-200.000	-0.123	-0.584
-451.953	-2.881	0.168	-0.117
-450.938	-38.240	0.137	0.073
-449.924	51.521	-0.085	-0.081
-448.909	-200.000	0.054	0.263
-447.895	-153.174	0.264	0.018
-446.880	661.415	0.142	0.365
-445.865	-200.000	0.002	-0.266
-444.851	12.115	-0.172	0.132
-443.836	295.509	0.187	-0.342
-442.822	800.000	0.039	0.163
-441.807	292.083	-0.043	0.078
-440.792	-64.736	0.272	-0.110
-439.778	-29.817	0.205	-0.117
-438.763	141.991	0.180	-0.238
-437.749	-200.000	-0.010	-0.176
-436.734	395.602	-0.113	-0.236
-435.719	5.377	-0.194	0.143
-434.705	-98.951	0.250	-0.063
-433.690	800.000	0.009	0.031
-432.676	-41.970	0.108	-0.055
-431.661	-56.732	0.329	-0.146
-430.646	6.717	-0.501	-0.373
-429.632	-31.885	-0.046	-0.026
-428.617	-123.593	0.127	0.020
-427.603	-122.587	0.257	0.042
-426.588	-200.000	0.020	0.242
-425.573	109.765	-0.103	0.123
-424.559	-200.000	-0.012	-0.173
-423.544	249.007	0.137	0.232
-422.530	26.866	-0.086	0.072
-421.515	800.000	0.060	0.189
-420.500	-112.739	-0.165	-0.033
-419.486	-49.062	-0.249	-0.119
-418.471	-50.669	-0.036	-0.017
-417.457	-193.762	-0.416	0.004
-416.442	131.769	0.045	0.057
-415.428	800.000	-0.026	-0.080
-414.413	-147.874	-0.101	0.008
-413.398	800.000	-0.085	-0.257
-412.384	-4.221	0.167	0.115
-411.369	-99.374	-0.379	0.095
-410.355	186.558	0.068	-0.101
-409.340	800.000	-0.063	0.175
-408.325	-200.000	0.041	-0.333
-407.311	133.412	-0.209	0.269
-406.296	800.000	0.093	0.288
-405.282	646.975	-0.108	-0.275
-404.267	-161.904	0.273	-0.014
-403.252	800.000	-0.041	-0.178
-402.238	-65.040	-0.309	0.125
-401.223	40.355	-0.032	0.029
-400.209	-109.774	-0.162	0.034
-399.194	289.909	0.027	-0.050
-398.179	-200.000	0.051	0.542
-397.165	-7.013	-0.252	0.170
-396.150	78.726	-0.190	0.203
-395.136	-10.641	-0.306	-0.202
-394.121	-109.344	-0.048	-0.010
-393.106	-200.000	-0.004	-0.045
-392.092	1.459	0.236	-0.169
-391.077	-59.865	-0.212	-0.090
-390.063	-123.389	0.260	-0.041
-389.048	-46.864	-0.305	0.149
-388.033	800.000	-0.018	0.076
-387.019	-121.131	-0.134	0.022
-386.004	31.659	-0.266	0.228
-384.990	-160.757	-0.209	0.011
-383.975	104.353	0.129	-0.151
-382.960	629.096	-0.072	-0.180
-381.946	-130.765	0.073	-0.010
-380.931	-84.646	-0.111	-0.035
-379.917	306.240	0.090	0.167
-378.902	-200.000	0.022	-0.098
-377.888	-200.000	-0.051	0.247
-376.873	800.000	-0.094	0.387
-375.858	144.231	0.116	0.155
-374.844	800.000	-0.009	-0.035
-373.829	-60.963	-0.242	-0.102
-372.815	-25.742	0.111	-0.065
-371.800	800.000	-0.022	-0.085
-370.785	-200.000	-0.017	0.114
-369.771	-60.072	0.226	-0.096
-368.756	-44.007	-0.214	0.107
-367.742	268.796	0.126	0.221
-366.727	800.000	-0.080	-0.242
-365.712	300.553	0.059	-0.109
-364.698	171.743	0.255	-0.366
-363.683	-200.000	0.002	-0.157
-362.669	81.954	0.057	0.061
-361.654	-57.955	-0.150	0.065
-360.639	-200.000	-0.002	0.039
-359.625	-200.000	-0.007	0.060
-358.610	-145.916	-0.182	0.016
-357.596	800.000	-0.028	0.078
-356.581	-200.000	0.013	-0.088
-355.566	-50.822	-0.290	-0.136
-354.552	-4.059	0.152	0.105
-353.537	288.877	-0.075	-0.135
-352.523	-145.753	-0.130	0.012
-351.508	-173.307	0.058	0.002
-350.493	-59.467	0.314	0.135
-349.479	-156.723	0.089	0.005
-348.464	-200.000	-0.004	0.116
-347.450	12.295	-0.103	-0.079
-346.435	800.000	0.115	0.359
-345.420	-200.000	0.036	0.296
-344.406	800.000	-0.103	0.354
-343.391	800.000	-0.026	-0.099
-342.377	800.000	0.116	-0.338
-341.362	-33.298	0.184	-0.102
-340.348	-102.030	0.263	0.063
-339.333	-200.000	0.032	0.152
-338.318	57.103	-0.047	0.045
-337.304	-50.675	-0.098	-0.046
-336.289	-30.314	-0.136	-0.077
-335.275	-10.505	0.229	-0.151
-334.260	-14.374	0.487	-0.312
-333.245	-124.635	-0.201	0.031
-332.231	-27.484	-0.225	-0.130
-331.216	-175.883	-0.233	0.006
-330.202	443.121	0.108	0.236
-329.187	-82.617	0.454	0.146
-328.172	-28.052	0.096	-0.055
-327.158	800.000	0.135	0.413
-326.143	-4.468	0.256	0.176
-325.129	-115.296	-0.029	0.005
-324.114	291.958	0.148	-0.268
-323.099	151.450	0.247	0.334
-322.085	-44.721	-0.119	0.059
-321.070	-200.000	-0.006	-0.044
-320.056	34.018	-0.082	0.071
-319.041	310.274	-0.218	0.405
-318.026	-89.693	-0.190	0.055
-317.012	176.745	0.222	0.321
-315.997	-20.421	0.343	-0.210
-314.983	-73.505	0.107	0.039
-313.968	-36.103	-0.330	0.177
-312.953	9.191	0.068	-0.051
-311.939	800.000	-0.008	-0.032
-310.924	-172.818	-0.348	0.011
-309.910	278.341	-0.177	0.314
-308.895	531.622	0.118	0.279
-307.880	800.000	0.038	0.123
-306.866	-200.000	0.026	-0.121
-305.851	-124.015	0.221	0.034
-304.837	-200.000	-0.034	0.181
-303.822	50.483	0.170	0.159
-302.807	0.003	-0.086	0.061
-301.793	60.220	-0.072	0.071
-300.778	70.858	-0.127	0.130
-299.764	800.000	-0.020	-0.081
-298.749	28.107	-0.076	-0.064
-297.735	-113.564	-0.274	-0.053
-296.720	385.275	0.069	0.142
-295.705	167.760	-0.285	0.403
-294.691	-200.000	0.003	0.244
-293.676	84.911	-0.073	0.079
-292.662	-20.293	-0.326	-0.199
-291.647	-200.000	-0.091	0.418
-290.632	63.435	0.300	0.299
-289.618	-26.811	-0.238	0.138
-288.603	-200.000	-0.006	-0.109
-287.589	296.447	-0.039	0.071
-286.574	-200.000	0.018	0.231
-285.559	153.531	-0.154	-0.209
-284.545	-200.000	0.014	-0.273
-283.530	-25.043	-0.203	-0.120
-282.516	157.814	-0.109	-0.151
-281.501	318.289	-0.085	0.159
-280.486	-116.557	0.351	0.064
-279.472	-50.298	0.410	0.193
-278.457	-47.399	-0.453	-0.219
-277.443	-20.616	0.281	0.171
-276.428	-82.040	0.318	0.103
-275.413	-200.000	-0.010	0.064
-274.399	-8.315	-0.406	0.272
-273.384	-200.000	0.055	-0.449
-272.370	-151.449	-0.169	-0.012
-271.355	-200.000	0.064	-0.391
-270.340	-94.223	-0.234	-0.064
-269.326	-200.000	0.021	0.120
-268.311	800.000	0.051	-0.211
-267.297	-27.757	-0.295	-0.170
-266.282	-5.843	-0.096	-0.066
-265.267	72.403	0.045	0.047
-264.253	108.103	0.135	0.159
-263.238	68.147	-0.328	0.333
-262.224	42.497	0.190	-0.171
-261.209	110.170	0.044	0.053
-260.195	756.523	0.049	0.132
-259.180	-116.544	0.103	-0.019
-258.165	652.686	-0.097	-0.247
-257.151	-59.259	-0.157	-0.067
-256.136	800.000	-0.065	-0.222
-255.122	-114.243	-0.039	-0.007
-254.107	98.699	0.159	-0.182
-253.092	79.779	0.098	0.105
-252.078	-200.000	0.038	-0.236
-251.063	-200.000	0.001	-0.020
-250.049	21.916	0.152	0.123
-249.034	2.793	-0.187	0.135
-248.019	-159.483	-0.180	-0.010
-247.005	-161.682	-0.292	0.015
-245.990	78.580	0.134	0.142
-244.976	138.190	0.163	0.212
-243.961	-90.744	0.225	-0.064
-242.946	106.121	0.041	0.048
-241.932	13.415	-0.040	-0.031
-240.917	-144.858	-0.206	-0.019
-239.903	800.000	-0.060	0.253
-238.888	686.005	-0.026	0.068
-237.873	18.446	-0.150	-0.119
-236.859	-148.352	0.296	0.024
-235.844	423.948	0.037	0.079
-234.830	-119.352	-0.226	-0.039
-233.815	-200.000	-0.012	-0.084
-232.800	-48.565	-0.256	-0.122
-231.786	-56.475	-0.272	0.120
-230.771	75.196	-0.268	0.280
-229.757	-98.947	0.263	-0.066
-228.742	800.000	0.067	0.199
-227.727	-200.000	-0.034	0.239
-226.713	-85.387	0.157	-0.049
-225.698	-48.452	0.356	0.170
-224.684	-200.000	-0.009	-0.198
-223.669	-108.170	-0.135	0.029
-222.655	765.002	0.194	-0.523
-221.640	-149.412	-0.108	-0.008
-220.625	82.714	-0.280	0.301
-219.611	-200.000	0.014	-0.198
-218.596	28.080	-0.371	-0.310
-217.582	49.359	0.194	-0.181
-216.567	251.238	0.124	0.208
-215.552	58.632	-0.090	-0.088
-214.538	-114.414	0.081	0.015
-213.523	233.105	0.144	-0.234
-212.509	146.379	-0.022	-0.029
-211.494	469.038	-0.095	-0.212
-210.479	-48.204	0.373	-0.178
-209.465	-29.298	-0.022	-0.012
-208.450	-127.199	-0.302	-0.044
-207.436	52.737	-0.227	0.215
-206.421	105.756	-0.037	-0.043
-205.406	-200.000	-0.008	-0.041
-204.392	-182.247	-0.356	-0.007
-203.377	467.656	0.077	-0.171
-202.363	-200.000	0.015	0.163
-201.348	86.533	0.177	-0.193
-200.333	800.000	-0.009	0.035
-199.319	-200.000	-0.005	0.153
-198.304	-10.544	0.534	0.350
-197.290	5.910	-0.098	-0.072
-196.275	-200.000	-0.017	-0.112
-195.260	363.266	-0.169	0.336
-194.246	326.843	0.106	0.201
-193.231	127.355	0.227	-0.285
-192.217	-130.795	-0.359	-0.048
-191.202	-140.683	0.411	0.042
-190.187	-32.365	0.134	0.074
-189.173	-22.266	0.111	0.066
-188.158	-92.576	0.560	-0.155
-187.144	3.932	-0.388	-0.281
-186.129	800.000	0.122	-0.429
-185.114	300.989	0.026	0.047
-184.100	64.241	-0.122	0.122
-183.085	-200.000	0.019	-0.463
-182.071	-200.000	-0.052	-0.280
-181.056	-112.711	-0.069	-0.014
-180.042	800.000	0.056	-0.172
-179.027	-176.656	0.332	0.008
-178.012	155.406	0.067	-0.091
-176.998	-98.263	-0.298	0.076
-175.983	-200.000	0.074	-0.331
-174.969	-33.797	-0.190	-0.104
-173.954	498.888	0.049	0.112
-172.939	18.816	0.146	-0.116
-171.925	800.000	0.021	-0.069
-170.910	-79.699	-0.107	-0.036
-169.896	-200.000	0.049	0.271
-168.881	-111.055	-0.085	-0.017
-167.866	-44.669	-0.162	0.080
-166.852	-200.000	-0.017	0.085
-165.837	2.533	0.199	0.143
-164.823	44.755	0.130	0.119
-163.808	800.000	0.084	0.261
-162.793	136.821	-0.193	-0.249
-161.779	-39.538	0.231	-0.120
-160.764	-109.639	0.224	0.047
-159.750	-41.853	-0.220	0.112
-158.735	-200.000	0.035	-0.197
-157.720	-7.210	0.119	0.080
-156.706	65.554	0.096	0.096
-155.691	221.995	-0.063	0.099
-154.677	-200.000	-0.033	-0.314
-153.662	756.992	0.035	0.092
-152.647	-7.417	-0.118	0.079
-151.633	-77.931	-0.040	-0.014
-150.618	-59.137	-0.280	-0.119
-149.604	396.269	0.153	-0.315
-148.589	213.697	-0.068	0.107
-147.574	694.927	-0.046	-0.118
-146.560	44.719	0.097	0.088
-145.545	-200.000	-0.010	0.074
-144.531	-180.424	-0.165	0.003
-143.516	-68.678	0.229	-0.088
-142.502	-115.375	0.356	0.066
-141.487	-200.000	0.012	-0.091
-140.472	-200.000	-0.011	0.233
-139.458	141.014	-0.195	0.254
-138.443	398.466	-0.085	-0.177
-137.429	31.296	-0.176	-0.149
-136.414	-200.000	0.087	-0.404
-135.399	202.690	0.186	-0.283
-134.385	-130.920	0.517	-0.068
-133.370	494.365	0.100	0.227
-132.356	-54.295	0.173	-0.078
-131.341	-104.902	0.112	0.025
-130.326	-200.000	-0.006	-0.243
-129.312	261.009	0.256	0.438
-128.297	57.219	-0.170	0.163
-127.283	104.012	-0.284	0.330
-126.268	-44.686	-0.211	0.104
-125.253	466.875	0.074	0.164
-124.239	184.556	0.202	0.296
-123.224	-157.825	-0.241	-0.014
-122.210	326.852	0.088	-0.167
-121.195	-102.424	0.092	-0.022
