DTS Sentinel unit serial number:	SN413079Multiplexer serial number:	ORYXHardware model number:	OX4-SRSoftware version number:	ORYX F/W v4.00 Oryx Data Collector v3.7.2.0data status	okinstallation	princeton_trtdifferential loss correction	single-endedforward channel	channel 4reverse channel	N/Adate	2019/09/19time	11:33:34forward acquisition time	60.00reverse acquisition time	0.00gamma	496.2192k internal	0.2326k external	0.2326temperature offset calibration	1.0020default loss term (dB/km)	0.3790temperature slope calibration	1.0000multiplexer offset coefficient	1.0000multiplexer slope coefficient	1.0000fibre end	0.00T internal ref (°C)	25.47T ext. ref 1 (°C)	0.80T ext. ref 2 (°C)	21.21length (m)	temperature (°C)	Stokes	anti-Stokes-747.200	-113.385	0.183	0.036
-746.185	-200.000	-0.019	0.342
-745.171	252.089	-0.123	-0.211
-744.156	197.424	0.039	0.060
-743.142	800.000	-0.067	0.241
-742.127	24.959	-0.222	0.186
-741.112	93.942	-0.121	0.138
-740.098	-57.257	-0.096	0.043
-739.083	63.932	-0.170	-0.172
-738.069	-200.000	-0.044	0.326
-737.054	-200.000	-0.039	0.173
-736.039	14.676	-0.230	-0.181
-735.025	-145.837	0.375	0.034
-734.010	522.592	-0.036	-0.085
-732.996	-52.260	-0.229	0.107
-731.981	-200.000	-0.038	0.178
-730.966	-200.000	0.008	-0.086
-729.952	39.428	-0.213	-0.192
-728.937	217.022	-0.036	-0.058
-727.923	76.060	-0.059	-0.063
-726.908	642.939	0.079	-0.202
-725.894	-194.215	0.154	-0.001
-724.879	-183.053	-0.320	0.006
-723.864	-200.000	0.074	0.451
-722.850	34.412	0.155	-0.137
-721.835	112.176	0.095	0.116
-720.821	800.000	0.012	0.046
-719.806	-78.741	-0.138	0.048
-718.791	-54.977	0.121	0.055
-717.777	-15.004	0.103	-0.066
-716.762	-115.058	0.228	-0.044
-715.748	800.000	0.071	-0.229
-714.733	6.260	0.129	-0.096
-713.718	494.176	0.015	-0.036
-712.704	86.545	-0.155	0.172
-711.689	-32.466	-0.078	0.044
-710.675	-200.000	-0.034	-0.306
-709.660	186.678	0.216	0.324
-708.645	-200.000	-0.006	0.275
-707.631	-97.360	0.281	-0.074
-706.616	74.172	0.236	0.250
-705.602	-200.000	-0.055	0.352
-704.587	30.769	0.134	0.116
-703.572	-40.601	0.153	0.080
-702.558	53.826	-0.117	0.113
-701.543	-200.000	0.055	0.278
-700.529	-200.000	-0.026	0.342
-699.514	580.299	0.084	-0.207
-698.499	-116.729	-0.133	-0.025
-697.485	800.000	-0.057	0.223
-696.470	-51.623	0.122	0.057
-695.456	-105.262	0.205	0.047
-694.441	-141.870	-0.188	0.019
-693.426	-17.149	-0.078	-0.050
-692.412	84.001	-0.127	-0.139
-691.397	-49.915	-0.244	-0.117
-690.383	-143.271	-0.606	-0.059
-689.368	-101.958	0.343	0.083
-688.354	-60.552	-0.045	0.019
-687.339	220.423	0.182	-0.294
-686.324	800.000	-0.029	-0.094
-685.310	5.110	-0.331	-0.245
-684.295	56.353	0.141	-0.138
-683.281	800.000	-0.046	0.177
-682.266	-200.000	-0.029	0.271
-681.251	35.853	0.127	-0.112
-680.237	-200.000	0.008	-0.259
-679.222	77.253	-0.027	0.029
-678.208	-11.268	-0.124	0.082
-677.193	24.880	0.222	0.185
-676.178	-109.706	-0.221	0.047
-675.164	-61.883	0.141	0.060
-674.149	-151.452	0.439	-0.033
-673.135	36.262	0.115	-0.102
-672.120	-142.743	-0.380	0.037
-671.105	-40.399	-0.092	0.048
-670.091	-166.534	-0.271	0.011
-669.076	-21.432	-0.088	0.054
-668.062	-200.000	0.009	-0.261
-667.047	-81.976	0.228	0.075
-666.032	800.000	-0.064	0.250
-665.018	-33.184	0.027	-0.015
-664.003	800.000	-0.052	0.181
-662.989	-59.769	0.343	-0.148
-661.974	-165.863	-0.255	-0.011
-660.959	-200.000	-0.017	-0.122
-659.945	-106.728	-0.169	-0.038
-658.930	-200.000	0.003	-0.214
-657.916	-182.803	0.092	-0.002
-656.901	32.860	0.174	0.152
-655.886	-158.829	-0.306	-0.018
-654.872	-80.508	0.072	-0.024
-653.857	-32.696	0.184	-0.103
-652.843	-71.822	0.010	0.004
-651.828	52.125	-0.176	-0.169
-650.814	-28.887	0.374	-0.216
-649.799	641.218	0.071	-0.182
-648.784	224.644	0.167	-0.271
-647.770	243.946	-0.136	-0.229
-646.755	52.437	0.060	0.057
-645.741	191.311	-0.040	0.060
-644.726	345.591	-0.139	-0.274
-643.711	423.845	0.061	-0.131
-642.697	-200.000	-0.011	0.126
-641.682	-145.802	-0.146	-0.013
-640.668	-68.877	-0.297	0.115
-639.653	-57.762	-0.309	0.136
-638.638	154.025	-0.168	0.231
-637.624	10.293	-0.178	0.136
-636.609	-131.375	0.306	-0.041
-635.595	580.231	0.185	-0.455
-634.580	-127.877	-0.343	0.050
-633.565	7.132	0.303	-0.227
-632.551	800.000	-0.079	-0.229
-631.536	-200.000	0.020	0.289
-630.522	-79.434	0.321	0.109
-629.507	519.577	-0.132	0.310
-628.492	116.301	0.104	0.128
-627.478	-4.701	-0.176	-0.122
-626.463	-200.000	-0.003	-0.100
-625.449	649.659	-0.076	-0.195
-624.434	800.000	0.079	-0.319
-623.419	-200.000	-0.034	-0.376
-622.405	-38.105	0.134	0.071
-621.390	-168.379	-0.095	0.004
-620.376	-200.000	0.021	0.333
-619.361	240.303	-0.065	0.108
-618.346	205.576	-0.248	-0.386
-617.332	47.030	0.199	-0.185
-616.317	28.420	-0.094	0.080
-615.303	-110.104	-0.083	-0.017
-614.288	800.000	0.054	-0.210
-613.273	-65.435	-0.194	0.078
-612.259	-74.011	-0.411	-0.149
-611.244	789.199	-0.143	0.394
-610.230	-200.000	0.043	0.402
-609.215	-200.000	0.002	0.039
-608.201	800.000	-0.075	-0.266
-607.186	-40.459	0.257	0.134
-606.171	800.000	0.044	0.173
-605.157	-119.937	0.239	0.041
-604.142	-65.442	0.340	-0.137
-603.128	139.835	0.244	-0.322
-602.113	-200.000	0.040	-0.301
-601.098	123.279	-0.115	-0.145
-600.084	-89.231	0.034	0.010
-599.069	69.739	-0.040	0.042
-598.055	-200.000	-0.032	-0.236
-597.040	49.253	-0.116	0.110
-596.025	-122.863	-0.356	-0.058
-595.011	249.703	-0.179	-0.304
-593.996	61.722	-0.120	-0.119
-592.982	-52.195	0.137	-0.064
-591.967	37.621	-0.158	0.141
-590.952	-85.394	-0.121	-0.038
-589.938	800.000	0.100	-0.360
-588.923	391.484	-0.097	0.202
-587.909	800.000	-0.064	-0.214
-586.894	-35.094	0.265	0.144
-585.879	-132.323	0.078	-0.010
-584.865	-84.014	0.096	-0.030
-583.850	34.986	0.250	-0.219
-582.836	4.168	0.156	-0.115
-581.821	148.422	0.120	-0.163
-580.806	145.087	-0.086	-0.115
-579.792	431.506	0.052	-0.114
-578.777	432.838	0.048	-0.105
-577.763	344.620	0.086	0.170
-576.748	-200.000	-0.025	-0.112
-575.733	-154.649	-0.179	-0.012
-574.719	800.000	-0.043	-0.155
-573.704	-200.000	0.054	0.355
-572.690	136.055	0.297	0.388
-571.675	800.000	-0.050	-0.153
-570.661	43.921	-0.097	0.089
-569.646	-18.761	-0.019	0.012
-568.631	-200.000	0.053	-0.273
-567.617	-174.738	-0.081	0.002
-566.602	40.803	-0.125	-0.113
-565.588	455.672	0.105	-0.233
-564.573	399.373	0.070	-0.147
-563.558	202.435	0.154	0.238
-562.544	-200.000	0.003	-0.179
-561.529	-114.899	0.050	0.010
-560.515	324.540	-0.108	0.206
-559.500	-74.965	0.135	0.048
-558.485	3.252	0.130	-0.095
-557.471	-60.640	-0.257	-0.109
-556.456	800.000	-0.065	0.207
-555.442	800.000	0.037	0.105
-554.427	-41.292	0.241	0.124
-553.412	4.015	-0.089	0.065
-552.398	272.677	0.144	-0.255
-551.383	-200.000	-0.034	-0.186
-550.369	-200.000	-0.014	-0.137
-549.354	442.497	0.107	0.234
-548.339	-58.509	-0.137	0.060
-547.325	169.766	0.036	0.052
-546.310	-200.000	0.358	0.000
-545.296	237.418	0.063	0.105
-544.281	164.484	0.132	-0.186
-543.266	-200.000	0.002	-0.145
-542.252	21.605	0.043	-0.035
-541.237	291.360	0.103	0.187
-540.223	-44.476	0.021	-0.011
-539.208	257.168	0.023	0.039
-538.193	-200.000	-0.006	0.170
-537.179	184.858	0.068	-0.100
-536.164	-7.208	-0.313	0.213
-535.150	49.144	0.011	0.011
-534.135	-200.000	-0.006	-0.131
-533.121	153.692	-0.230	0.315
-532.106	26.421	-0.176	-0.147
-531.091	800.000	0.134	-0.460
-530.077	800.000	0.058	0.187
-529.062	-200.000	-0.017	-0.178
-528.048	800.000	0.075	0.280
-527.033	-21.383	0.256	-0.156
-526.018	203.318	0.110	0.171
-525.004	-138.177	0.505	-0.056
-523.989	107.981	0.142	0.169
-522.975	152.468	-0.168	0.229
-521.960	268.993	-0.089	0.157
-520.945	-200.000	0.011	0.115
-519.931	16.646	0.357	0.282
-518.916	27.693	0.070	0.059
-517.902	-120.769	0.236	0.040
-516.887	638.474	-0.101	0.256
-515.872	377.284	0.035	0.071
-514.858	-82.557	0.143	0.046
-513.843	800.000	0.093	-0.272
-512.829	800.000	0.026	0.083
-511.814	-200.000	0.014	-0.322
-510.799	534.595	0.074	0.175
-509.785	-55.590	0.442	0.198
-508.770	140.493	-0.191	0.252
-507.756	-200.000	0.017	-0.355
-506.741	-113.401	0.181	-0.036
-505.726	-170.505	0.173	0.006
-504.712	316.783	0.059	-0.111
-503.697	47.744	-0.055	0.051
-502.683	-17.180	-0.170	-0.107
-501.668	-1.500	0.102	-0.072
-500.653	-200.000	0.004	-0.030
-499.639	59.983	-0.286	-0.282
-498.624	-58.865	0.115	-0.050
-497.610	295.491	-0.073	-0.134
-496.595	102.697	-0.025	0.029
-495.581	-200.000	0.005	-0.221
-494.566	90.520	0.180	0.201
-493.551	-33.486	-0.385	-0.213
-492.537	119.179	-0.190	-0.235
-491.522	800.000	-0.035	-0.128
-490.508	-38.318	0.051	-0.027
-489.493	50.024	0.018	-0.017
-488.478	-95.407	-0.358	-0.096
-487.464	-200.000	0.028	-0.269
-486.449	-145.615	-0.094	0.008
-485.435	-72.538	0.069	0.026
-484.420	-187.628	0.028	-0.000
-483.405	-42.688	-0.150	-0.076
-482.391	175.245	0.108	-0.156
-481.376	15.976	0.398	-0.313
-480.362	72.862	-0.121	0.126
-479.347	558.653	0.082	0.198
-478.332	-6.044	0.185	-0.126
-477.318	160.358	0.099	-0.138
-476.303	-118.261	0.334	0.059
-475.289	-79.638	-0.186	-0.063
-474.274	-77.683	-0.262	0.090
-473.259	516.280	0.143	0.333
-472.245	-67.787	-0.171	0.067
-471.230	364.848	0.118	0.237
-470.216	333.608	0.113	-0.218
-469.201	-45.093	0.056	-0.028
-468.186	-200.000	-0.013	0.175
-467.172	800.000	-0.067	-0.243
-466.157	800.000	-0.130	-0.385
-465.143	-82.180	-0.156	-0.051
-464.128	800.000	0.048	-0.149
-463.113	247.073	-0.196	-0.330
-462.099	306.015	-0.014	0.026
-461.084	-181.035	-0.187	-0.004
-460.070	-24.426	0.146	0.087
-459.055	718.997	-0.107	-0.283
-458.040	800.000	0.036	0.124
-457.026	141.377	-0.164	-0.217
-456.011	-200.000	-0.010	0.341
-454.997	-193.168	0.281	0.002
-453.982	647.238	-0.023	-0.060
-452.968	800.000	-0.020	-0.079
-451.953	29.101	-0.086	0.073
-450.938	-4.834	-0.310	-0.213
-449.924	-109.285	-0.198	0.042
-448.909	20.423	0.300	-0.242
-447.895	-200.000	-0.006	0.227
-446.880	179.895	0.204	-0.297
-445.865	-157.580	0.426	-0.025
-444.851	12.016	-0.191	0.146
-443.836	-200.000	-0.035	0.181
-442.822	-47.131	-0.171	-0.083
-441.807	-200.000	0.276	0.000
-440.792	-18.229	-0.203	0.127
-439.778	800.000	-0.044	-0.177
-438.763	205.454	-0.162	-0.251
-437.749	-98.497	0.209	-0.053
-436.734	125.765	-0.101	-0.127
-435.719	574.292	-0.079	0.193
-434.705	800.000	0.013	-0.042
-433.690	736.310	-0.039	-0.105
-432.676	123.695	0.185	-0.232
-431.661	-90.088	-0.423	-0.123
-430.646	-200.000	0.027	0.399
-429.632	84.461	-0.164	0.179
-428.617	800.000	-0.143	-0.415
-427.603	-7.998	0.062	0.042
-426.588	329.390	0.140	0.269
-425.573	800.000	0.049	0.168
-424.559	-79.435	-0.093	0.031
-423.544	800.000	-0.083	0.258
-422.530	714.076	0.060	-0.157
-421.515	-106.392	-0.211	-0.047
-420.500	68.072	-0.055	0.056
-419.486	800.000	0.058	0.250
-418.471	0.038	-0.017	0.012
-417.457	124.666	0.066	-0.083
-416.442	-200.000	-0.001	0.131
-415.428	800.000	0.024	-0.073
-414.413	-116.245	-0.424	0.078
-413.398	697.327	0.061	-0.160
-412.384	211.434	-0.169	-0.265
-411.369	124.847	-0.252	0.315
-410.355	-149.293	0.415	-0.033
-409.340	-50.351	-0.287	0.135
-408.325	-31.316	-0.285	0.159
-407.311	231.551	0.140	-0.229
-406.296	138.688	0.082	-0.108
-405.282	294.829	0.109	-0.198
-404.267	83.901	-0.057	0.062
-403.252	-49.233	0.070	0.033
-402.238	189.334	0.007	0.010
-401.223	-89.378	0.405	-0.119
-400.209	-200.000	0.023	0.168
-399.194	800.000	-0.089	0.270
-398.179	-200.000	-0.002	-0.138
-397.165	-200.000	0.051	-0.240
-396.150	783.549	0.121	0.331
-395.136	-200.000	0.038	-0.211
-394.121	257.053	-0.055	-0.094
-393.106	55.549	-0.131	-0.126
-392.092	-78.268	0.219	0.075
-391.077	-6.039	0.413	-0.281
-390.063	-110.188	-0.295	-0.061
-389.048	800.000	-0.037	-0.133
-388.033	182.543	0.146	-0.215
-387.019	5.923	-0.345	0.254
-386.004	-132.802	0.065	-0.008
-384.990	25.126	-0.113	0.094
-383.975	-200.000	-0.001	0.298
-382.960	-24.610	0.255	-0.151
-381.946	-44.687	0.272	0.135
-380.931	595.699	0.069	0.170
-379.917	540.691	-0.019	0.044
-378.902	72.843	0.048	0.050
-377.888	800.000	0.032	0.124
-376.873	268.460	-0.148	0.258
-375.858	-200.000	0.038	0.209
-374.844	800.000	-0.154	-0.523
-373.829	2.270	0.152	-0.109
-372.815	-18.426	-0.223	0.138
-371.800	6.938	-0.136	-0.101
-370.785	-91.161	-0.132	0.038
-369.771	-200.000	0.029	-0.304
-368.756	196.247	0.028	0.042
-367.742	-23.107	0.192	-0.115
-366.727	232.547	-0.173	-0.283
-365.712	-200.000	-0.065	0.426
-364.698	152.389	0.115	0.156
-363.683	76.503	0.041	-0.044
-362.669	307.204	-0.130	0.241
-361.654	110.520	0.215	0.256
-360.639	-102.877	-0.208	-0.049
-359.625	-200.000	-0.001	-0.172
-358.610	329.039	-0.107	-0.204
-357.596	800.000	-0.202	-0.681
-356.581	800.000	-0.009	-0.036
-355.566	-32.468	-0.354	0.196
-354.552	296.707	0.126	-0.230
-353.537	323.794	0.109	0.207
-352.523	567.950	-0.134	0.322
-351.508	-107.660	0.313	0.068
-350.493	227.433	0.054	0.087
-349.479	-52.597	-0.154	-0.071
-348.464	72.906	0.237	-0.246
-347.450	800.000	-0.013	0.048
-346.435	-85.900	-0.252	-0.077
-345.420	47.317	0.264	0.244
-344.406	-27.316	-0.259	-0.149
-343.391	-8.394	-0.101	0.068
-342.377	150.656	-0.059	-0.080
-341.362	800.000	0.053	0.218
-340.348	50.533	-0.098	-0.092
-339.333	-14.751	0.078	-0.050
-338.318	-15.701	-0.207	-0.131
-337.304	170.512	0.050	-0.070
-336.289	99.994	0.101	0.116
-335.275	-108.303	0.215	-0.046
-334.260	800.000	0.029	-0.089
-333.245	-85.278	0.297	-0.092
-332.231	90.958	0.179	-0.199
-331.216	34.282	-0.189	-0.164
-330.202	-200.000	-0.031	-0.270
-329.187	-100.036	0.179	0.044
-328.172	-105.919	-0.165	0.037
-327.158	43.861	0.125	0.113
-326.143	800.000	-0.075	0.298
-325.129	36.165	-0.241	-0.211
-324.114	522.148	0.106	0.248
-323.099	-200.000	0.027	-0.304
-322.085	-24.320	-0.428	-0.253
-321.070	-152.730	-0.613	0.043
-320.056	96.909	0.194	-0.221
-319.041	-120.813	-0.109	0.018
-318.026	-200.000	-0.048	0.277
-317.012	-200.000	-0.031	0.136
-315.997	-52.730	-0.127	0.058
-314.983	-200.000	-0.020	0.226
-313.968	-140.006	-0.215	-0.022
-312.953	243.926	-0.062	-0.104
-311.939	-67.993	0.326	-0.126
-310.924	-136.815	0.061	0.007
-309.910	391.239	0.067	-0.138
-308.895	72.668	-0.149	-0.154
-307.880	-38.169	-0.178	0.094
-306.866	4.226	-0.289	0.210
-305.851	-155.566	0.168	-0.011
-304.837	-30.781	-0.215	0.120
-303.822	-200.000	0.003	-0.021
-302.807	-200.000	0.014	-0.177
-301.793	76.601	0.100	0.105
-300.778	-200.000	0.019	-0.382
-299.764	-89.855	-0.102	0.029
-298.749	-101.860	-0.049	0.012
-297.735	-200.000	0.016	-0.083
-296.720	-1.550	0.282	0.197
-295.705	595.776	-0.082	0.200
-294.691	82.238	0.196	-0.211
-293.676	311.752	-0.051	0.094
-292.662	-200.000	0.007	-0.046
-291.647	796.919	-0.029	-0.080
-290.632	-200.000	0.003	-0.232
-289.618	158.622	-0.272	0.374
-288.603	-200.000	-0.008	0.152
-287.589	221.893	0.106	-0.169
-286.574	122.305	-0.171	0.212
-285.559	4.490	-0.411	-0.298
-284.545	-56.425	-0.162	0.071
-283.530	46.422	0.260	0.239
-282.516	214.747	0.131	0.206
-281.501	-42.607	-0.052	0.026
-280.486	186.961	-0.108	-0.160
-279.472	205.904	-0.091	-0.140
-278.457	17.435	0.387	0.304
-277.443	554.226	-0.105	-0.249
-276.428	108.714	0.091	-0.108
-275.413	-33.672	0.259	0.141
-274.399	761.242	-0.054	0.146
-273.384	22.724	0.205	0.166
-272.370	187.565	0.223	-0.330
-271.355	158.678	-0.064	0.088
-270.340	394.248	-0.058	0.120
-269.326	-126.146	-0.149	-0.022
-268.311	55.826	-0.182	-0.174
-267.297	39.174	0.181	-0.160
-266.282	205.724	0.226	-0.348
-265.267	24.882	0.054	-0.044
-264.253	-200.000	-0.025	-0.132
-263.238	765.725	0.041	0.110
-262.224	-200.000	-0.058	0.317
-261.209	-33.127	-0.117	0.064
-260.195	95.902	-0.354	0.400
-259.180	138.674	-0.166	-0.215
-258.165	753.085	0.203	0.543
-257.151	-93.876	0.161	0.044
-256.136	354.081	-0.107	-0.209
-255.122	115.665	0.036	0.044
-254.107	-200.000	0.002	0.015
-253.092	-200.000	0.044	-0.440
-252.078	193.940	-0.182	0.273
-251.063	-100.775	-0.041	0.010
-250.049	800.000	-0.057	0.223
-249.034	81.445	-0.176	-0.188
-248.019	289.372	0.314	0.564
-247.005	0.454	0.292	0.206
-245.990	79.273	-0.103	-0.109
-244.976	190.076	-0.062	0.092
-243.961	-35.056	-0.411	0.221
-242.946	-18.253	-0.203	0.125
-241.932	-65.744	0.107	0.042
-240.917	58.875	-0.183	-0.178
-239.903	-200.000	0.004	-0.288
-238.888	-98.484	-0.246	-0.062
-237.873	-200.000	-0.041	0.402
-236.859	-200.000	-0.034	0.192
-235.844	-13.967	0.116	0.074
-234.830	17.812	-0.133	-0.105
-233.815	124.375	0.217	-0.270
-232.800	800.000	0.047	-0.192
-231.786	800.000	0.039	0.122
-230.771	490.738	0.102	-0.230
-229.757	-41.307	-0.158	-0.080
-228.742	-127.689	0.145	0.021
-227.727	-138.513	-0.266	0.029
-226.713	-27.682	0.120	0.069
-225.698	85.949	-0.295	0.321
-224.684	37.670	0.253	0.222
-223.669	-90.132	-0.030	0.009
-222.655	-145.567	0.305	0.027
-221.640	153.896	0.099	0.134
-220.625	-93.166	-0.392	0.108
-219.611	800.000	0.014	-0.057
-218.596	-198.346	-0.117	0.001
-217.582	268.202	-0.189	0.328
-216.567	-200.000	-0.006	0.083
-215.552	-40.043	0.114	-0.059
-214.538	35.445	0.256	0.222
-213.523	-200.000	0.004	-0.137
-212.509	-106.314	0.055	0.012
-211.494	-78.293	0.041	0.014
-210.479	-74.981	-0.143	0.051
-209.465	800.000	0.007	-0.023
-208.450	-109.763	-0.282	0.059
-207.436	317.078	-0.072	0.134
-206.421	85.704	0.242	0.262
-205.406	-3.297	-0.299	0.206
-204.392	248.302	-0.109	0.182
-203.377	298.536	-0.044	-0.080
-202.363	49.654	0.219	-0.204
-201.348	-137.725	0.249	-0.028
-200.333	-23.713	0.099	0.059
-199.319	-112.264	-0.438	-0.087
-198.304	22.398	0.119	0.096
-197.290	-116.075	-0.116	-0.021
-196.275	327.348	-0.063	-0.119
-195.260	482.524	0.125	0.280
-194.246	-200.000	0.024	-0.142
-193.231	105.404	0.191	0.223
-192.217	66.059	0.147	0.148
-191.202	-200.000	-0.007	0.328
-190.187	-104.364	0.307	0.070
-189.173	511.117	0.124	0.284
-188.158	182.720	0.030	-0.044
-187.144	158.336	-0.203	0.278
-186.129	44.084	0.133	0.120
-185.114	242.885	0.085	0.140
-184.100	800.000	0.051	-0.215
-183.085	-101.851	-0.226	-0.054
-182.071	543.819	0.183	0.431
-181.056	14.749	0.221	-0.171
-180.042	74.145	-0.189	0.196
-179.027	164.594	-0.039	0.054
-178.012	28.531	-0.218	0.182
-176.998	-132.775	0.221	0.028
-175.983	800.000	-0.051	0.187
-174.969	30.188	0.152	0.128
-173.954	118.876	-0.091	0.111
-172.939	-42.861	0.153	0.077
-171.925	81.173	0.072	0.076
-170.910	-157.007	0.071	0.004
-169.896	-64.062	0.166	-0.067
-168.881	-117.795	0.226	0.040
-167.866	94.168	0.138	0.154
-166.852	-200.000	0.051	-0.293
-165.837	75.344	0.249	-0.259
-164.823	800.000	0.062	0.253
-163.808	14.850	-0.307	0.237
-162.793	15.313	-0.065	0.051
-161.779	29.870	0.461	0.387
-160.764	-200.000	-0.042	-0.271
-159.750	800.000	0.076	-0.217
-158.735	-200.000	0.060	-0.299
-157.720	-106.852	0.132	0.029
-156.706	167.342	-0.174	0.244
-155.691	62.754	-0.026	0.025
-154.677	-11.524	-0.151	0.098
-153.662	95.415	0.076	-0.086
-152.647	800.000	-0.050	0.155
-151.633	-26.722	-0.178	-0.102
-150.618	277.903	0.215	-0.378
-149.604	41.709	-0.055	-0.049
-148.589	-60.038	-0.357	0.150
-147.574	-200.000	-0.060	0.459
-146.560	-200.000	-0.014	-0.070
-145.545	167.779	-0.091	0.128
-144.531	-200.000	-0.017	-0.093
-143.516	-200.000	-0.009	0.167
-142.502	103.764	0.041	-0.048
-141.487	-110.775	0.220	-0.045
-140.472	-182.244	0.143	0.003
-139.458	-200.000	-0.018	-0.361
-138.443	-200.000	0.069	0.499
-137.429	154.126	0.399	0.539
-136.414	800.000	-0.118	-0.483
-135.399	-147.316	-0.114	0.010
-134.385	-200.000	0.100	0.451
-133.370	800.000	0.069	0.223
-132.356	-200.000	-0.050	-0.228
-131.341	800.000	0.044	-0.125
-130.326	240.306	0.150	0.246
-129.312	438.921	-0.069	0.149
-128.297	-200.000	0.066	0.403
-127.283	-153.464	-0.333	0.023
-126.268	-113.048	-0.256	-0.050
-125.253	86.769	0.047	0.051
-124.239	21.514	0.037	-0.029
-123.224	800.000	0.099	-0.306
-122.210	63.862	0.092	0.091
-121.195	53.559	0.244	-0.230
-120.180	141.766	0.059	-0.077
-119.166	-17.784	0.419	0.259
