DTS Sentinel unit serial number:	SN413079Multiplexer serial number:	ORYXHardware model number:	OX4-SRSoftware version number:	ORYX F/W v4.00 Oryx Data Collector v3.7.2.0data status	okinstallation	princeton_trtdifferential loss correction	single-endedforward channel	channel 4reverse channel	N/Adate	2019/09/18time	07:21:34forward acquisition time	60.00reverse acquisition time	0.00gamma	496.2192k internal	0.2333k external	0.2333temperature offset calibration	1.0000default loss term (dB/km)	0.3790temperature slope calibration	1.0000multiplexer offset coefficient	1.0000multiplexer slope coefficient	1.0000fibre end	0.00T internal ref (°C)	23.19T ext. ref 1 (°C)	0.19T ext. ref 2 (°C)	17.53length (m)	temperature (°C)	Stokes	anti-Stokes-747.200	15.441	0.130	0.102
-746.185	207.175	-0.040	0.063
-745.171	99.060	0.153	0.178
-744.156	129.599	-0.105	0.135
-743.142	359.857	0.032	0.064
-742.127	800.000	-0.051	-0.156
-741.112	-200.000	-0.000	0.146
-740.098	-200.000	0.046	0.424
-739.083	-151.062	-0.120	0.009
-738.069	333.638	0.075	0.146
-737.054	798.262	-0.081	0.224
-736.039	-76.773	0.437	-0.154
-735.025	-200.000	-0.019	0.147
-734.010	159.090	-0.318	-0.444
-732.996	-148.574	0.158	0.013
-731.981	-195.443	0.315	-0.002
-730.966	-165.348	-0.160	-0.007
-729.952	-200.000	0.043	0.232
-728.937	4.971	0.074	-0.055
-727.923	800.000	-0.044	0.130
-726.908	-200.000	-0.045	0.233
-725.894	-200.000	-0.005	-0.417
-724.879	402.846	-0.059	0.125
-723.864	-39.023	0.382	-0.202
-722.850	324.321	-0.149	-0.285
-721.835	-43.859	-0.062	-0.032
-720.821	-114.696	0.156	-0.030
-719.806	746.433	0.032	-0.087
-718.791	-125.053	-0.277	0.043
-717.777	-147.101	0.429	-0.037
-716.762	202.917	0.127	0.198
-715.748	404.650	-0.122	-0.259
-714.733	800.000	0.095	-0.281
-713.718	800.000	-0.131	-0.415
-712.704	800.000	0.108	0.342
-711.689	57.687	-0.231	-0.227
-710.675	-118.196	0.232	-0.041
-709.660	301.663	-0.099	0.184
-708.645	-155.356	-0.161	-0.010
-707.631	213.304	0.104	0.166
-706.616	57.947	-0.235	-0.231
-705.602	98.714	0.045	-0.053
-704.587	-125.377	0.265	0.041
-703.572	65.225	0.103	-0.105
-702.558	102.476	-0.101	-0.118
-701.543	409.965	-0.086	0.182
-700.529	800.000	-0.113	-0.346
-699.514	204.178	0.205	-0.318
-698.499	-105.796	-0.222	-0.050
-697.485	684.654	-0.154	0.403
-696.470	-99.257	0.148	-0.038
-695.456	-200.000	-0.048	0.424
-694.441	-200.000	0.010	0.076
-693.426	-200.000	0.008	-0.374
-692.412	163.029	-0.092	0.129
-691.397	154.517	-0.051	-0.070
-690.383	21.399	-0.122	0.100
-689.368	218.331	-0.141	-0.226
-688.354	285.858	-0.170	-0.308
-687.339	22.966	-0.150	-0.123
-686.324	-38.180	0.131	-0.070
-685.310	800.000	-0.037	-0.144
-684.295	800.000	0.104	0.310
-683.281	-44.359	0.128	0.065
-682.266	-200.000	0.033	0.185
-681.251	67.459	0.148	0.152
-680.237	-200.000	-0.019	-0.089
-679.222	800.000	-0.040	0.164
-678.208	-58.112	0.307	0.134
-677.193	-46.572	0.315	-0.155
-676.178	39.977	0.197	-0.178
-675.164	57.100	-0.051	0.050
-674.149	1.983	0.065	-0.047
-673.135	-65.083	0.106	0.043
-672.120	-200.000	-0.079	-0.465
-671.105	-200.000	-0.013	-0.144
-670.091	225.329	0.065	-0.105
-669.076	800.000	-0.064	0.246
-668.062	-167.844	-0.029	-0.001
-667.047	-43.852	0.167	0.084
-666.032	240.823	0.089	0.148
-665.018	-107.092	0.338	0.075
-664.003	-134.308	-0.120	-0.015
-662.989	393.426	-0.136	-0.284
-661.974	310.603	-0.141	0.265
-660.959	-157.872	-0.244	-0.014
-659.945	584.687	-0.198	-0.489
-658.930	-63.974	-0.124	-0.051
-657.916	800.000	0.051	-0.156
-656.901	24.731	-0.164	0.136
-655.886	-44.108	-0.076	0.038
-654.872	720.485	-0.135	-0.360
-653.857	-200.000	0.016	0.316
-652.843	257.504	0.030	0.052
-651.828	27.297	-0.191	-0.161
-650.814	-200.000	-0.013	-0.255
-649.799	-124.790	-0.180	-0.028
-648.784	169.672	0.083	0.120
-647.770	3.204	0.045	-0.033
-646.755	250.257	-0.132	0.225
-645.741	-89.196	0.112	0.033
-644.726	800.000	-0.087	-0.306
-643.711	463.730	-0.113	-0.253
-642.697	-200.000	0.023	-0.210
-641.682	-200.000	-0.027	0.153
-640.668	-154.950	-0.128	-0.008
-639.653	-200.000	0.001	0.141
-638.638	-154.530	-0.118	0.008
-637.624	-135.073	0.422	0.051
-636.609	61.648	0.245	-0.244
-635.595	359.070	-0.142	-0.285
-634.580	-19.140	0.032	0.020
-633.565	-85.919	-0.266	0.082
-632.551	118.573	0.144	-0.177
-631.536	-5.202	-0.128	-0.088
-630.522	-141.320	-0.307	-0.031
-629.507	294.666	0.012	0.022
-628.492	158.986	0.059	0.082
-627.478	-200.000	-0.013	-0.419
-626.463	-6.297	-0.077	-0.053
-625.449	261.413	0.071	-0.123
-624.434	501.699	0.053	-0.122
-623.419	292.810	-0.178	-0.325
-622.405	-200.000	-0.011	0.095
-621.390	-133.882	-0.066	0.008
-620.376	-38.470	-0.014	-0.008
-619.361	-100.527	-0.385	-0.095
-618.346	-73.557	-0.282	-0.103
-617.332	-123.575	0.334	-0.053
-616.317	209.142	-0.119	0.186
-615.303	-123.863	-0.135	-0.021
-614.288	-100.168	0.143	-0.036
-613.273	-200.000	0.010	0.047
-612.259	106.050	0.122	0.145
-611.244	220.687	-0.027	-0.044
-610.230	93.585	-0.090	0.102
-609.215	-200.000	-0.053	-0.307
-608.201	268.229	0.188	-0.329
-607.186	-79.468	0.056	-0.019
-606.171	151.562	0.157	-0.214
-605.157	359.960	0.083	-0.166
-604.142	800.000	-0.044	-0.122
-603.128	-86.087	-0.359	0.111
-602.113	-147.951	-0.255	0.021
-601.098	57.779	-0.129	-0.126
-600.084	-105.845	0.397	0.090
-599.069	194.327	-0.194	0.294
-598.055	216.560	-0.057	-0.091
-597.040	-169.655	-0.072	-0.003
-596.025	167.374	0.109	-0.155
-595.011	578.517	0.128	-0.313
-593.996	800.000	-0.057	-0.174
-592.982	-123.926	0.143	-0.022
-591.967	-55.939	-0.475	0.212
-590.952	-200.000	-0.208	-0.000
-589.938	67.912	0.156	-0.160
-588.923	-109.566	0.301	-0.064
-587.909	776.236	-0.130	-0.355
-586.894	744.418	0.112	0.300
-585.879	-118.366	-0.052	0.009
-584.865	-59.791	0.255	0.109
-583.850	253.360	-0.062	0.106
-582.836	-200.000	0.009	-0.188
-581.821	102.442	0.247	0.288
-580.806	-27.073	-0.429	-0.250
-579.792	230.991	0.035	-0.058
-578.777	260.797	0.109	-0.189
-577.763	-149.459	-0.202	-0.016
-576.748	406.086	-0.021	-0.045
-575.733	-33.553	-0.223	-0.123
-574.719	60.539	0.151	-0.150
-573.704	113.105	-0.143	0.174
-572.690	-80.883	0.365	-0.121
-571.675	-200.000	0.071	-0.408
-570.661	2.996	0.362	-0.263
-569.646	-5.557	0.056	-0.038
-568.631	-187.890	-0.281	-0.004
-567.617	800.000	-0.078	-0.291
-566.602	-0.983	0.311	0.220
-565.588	-200.000	0.005	-0.091
-564.573	-100.901	0.055	0.014
-563.558	-73.561	-0.031	-0.011
-562.544	479.791	-0.158	-0.357
-561.529	-129.218	0.259	0.036
-560.515	800.000	0.111	0.400
-559.500	-4.070	0.115	-0.080
-558.485	-31.921	0.174	-0.097
-557.471	-120.197	-0.112	-0.019
-556.456	-51.347	0.171	-0.080
-555.442	800.000	-0.050	0.157
-554.427	54.073	0.055	-0.053
-553.412	-55.917	0.122	0.054
-552.398	215.954	0.189	-0.299
-551.383	800.000	0.095	-0.262
-550.369	-62.113	-0.223	0.093
-549.354	7.946	-0.098	0.073
-548.339	-72.769	0.090	-0.033
-547.325	-83.228	-0.399	-0.128
-546.310	-124.541	0.363	0.056
-545.296	221.010	-0.120	0.192
-544.281	213.355	-0.113	0.179
-543.266	-0.562	-0.120	0.085
-542.252	2.555	-0.176	-0.127
-541.237	182.282	-0.157	0.231
-540.223	-200.000	0.024	0.213
-539.208	4.155	-0.321	-0.234
-538.193	571.803	-0.142	-0.344
-537.179	-3.333	-0.423	-0.294
-536.164	515.057	0.100	-0.232
-535.150	-122.419	0.405	-0.066
-534.135	323.990	-0.143	0.272
-533.121	-200.000	-0.021	-0.142
-532.106	8.369	-0.280	-0.210
-531.091	-200.000	-0.030	0.152
-530.077	-200.000	-0.005	0.131
-529.062	800.000	-0.072	-0.270
-528.048	-64.413	-0.199	0.081
-527.033	-200.000	0.016	0.294
-526.018	-78.245	-0.303	-0.104
-525.004	-44.329	0.109	0.054
-523.989	43.870	0.047	-0.043
-522.975	-200.000	-0.026	-0.255
-521.960	-48.290	-0.148	-0.071
-520.945	262.961	0.198	-0.343
-519.931	-200.000	0.029	-0.388
-518.916	184.892	-0.105	0.156
-517.902	4.952	-0.305	0.224
-516.887	-127.001	0.411	0.060
-515.872	152.372	0.032	0.043
-514.858	-200.000	0.028	-0.150
-513.843	258.881	-0.033	-0.057
-512.829	117.905	-0.114	-0.140
-511.814	-20.231	0.167	-0.102
-510.799	-200.000	-0.006	-0.037
-509.785	-88.738	-0.095	0.028
-508.770	-85.228	0.208	0.065
-507.756	-200.000	-0.050	-0.448
-506.741	800.000	-0.100	0.297
-505.726	-200.000	-0.002	0.129
-504.712	800.000	0.052	0.213
-503.697	800.000	0.078	0.260
-502.683	190.425	0.068	0.102
-501.668	-132.877	0.150	0.019
-500.653	-37.753	0.065	-0.034
-499.639	783.425	-0.071	-0.194
-498.624	-122.075	0.291	-0.048
-497.610	-200.000	-0.083	-0.395
-496.595	-113.675	0.216	-0.042
-495.581	-200.000	0.013	0.212
-494.566	800.000	0.035	0.144
-493.551	-40.158	0.260	0.135
-492.537	-200.000	0.025	-0.304
-491.522	-71.987	0.234	0.087
-490.508	-178.044	0.080	-0.002
-489.493	56.697	0.197	0.191
-488.478	800.000	-0.074	0.292
-487.464	800.000	-0.067	-0.186
-486.449	53.774	-0.196	-0.187
-485.435	0.494	0.074	-0.053
-484.420	4.281	0.305	-0.222
-483.405	-14.953	-0.396	0.253
-482.391	800.000	-0.086	0.317
-481.376	158.892	0.033	-0.046
-480.362	-120.996	-0.172	0.029
-479.347	469.081	-0.133	-0.297
-478.332	187.225	0.196	-0.291
-477.318	100.530	-0.136	0.157
-476.303	800.000	0.049	0.214
-475.289	-200.000	-0.026	0.284
-474.274	-56.027	-0.163	0.072
-473.259	102.493	-0.130	0.152
-472.245	16.198	0.076	0.060
-471.230	82.587	0.107	-0.116
-470.216	800.000	-0.073	0.203
-469.201	-200.000	0.027	0.277
-468.186	98.318	0.248	-0.284
-467.172	59.319	-0.140	-0.137
-466.157	172.230	0.090	-0.128
-465.143	-21.445	0.191	0.116
-464.128	88.884	0.053	0.058
-463.113	-200.000	0.001	0.120
-462.099	192.504	0.157	0.236
-461.084	49.713	-0.276	0.259
-460.070	-155.519	-0.187	-0.012
-459.055	800.000	0.026	0.111
-458.040	241.695	0.289	0.480
-457.026	173.805	-0.082	0.117
-456.011	134.204	0.156	0.201
-454.997	-76.823	0.270	0.094
-453.982	246.369	0.081	0.136
-452.968	-200.000	-0.013	0.263
-451.953	-131.540	0.200	-0.026
-450.938	800.000	0.019	0.068
-449.924	26.590	-0.329	0.274
-448.909	-1.400	0.079	-0.056
-447.895	29.545	-0.038	0.032
-446.880	62.670	-0.243	0.241
-445.865	217.861	-0.148	-0.234
-444.851	225.339	0.125	-0.200
-443.836	-12.717	0.058	-0.038
-442.822	-136.261	-0.333	-0.039
-441.807	-95.758	-0.192	0.051
-440.792	674.914	0.284	0.734
-439.778	-18.820	-0.218	-0.135
-438.763	153.841	0.058	0.079
-437.749	651.592	0.184	0.467
-436.734	800.000	0.090	0.280
-435.719	-69.863	-0.162	0.061
-434.705	-56.586	-0.321	0.141
-433.690	-200.000	-0.000	0.006
-432.676	800.000	-0.056	0.168
-431.661	-200.000	0.007	0.066
-430.646	409.203	0.132	-0.277
-429.632	216.646	-0.190	-0.301
-428.617	85.069	-0.231	-0.252
-427.603	-115.302	0.422	-0.079
-426.588	-157.080	-0.491	0.030
-425.573	202.088	-0.080	-0.122
-424.559	-53.563	0.362	0.164
-423.544	-9.357	-0.163	-0.108
-422.530	-200.000	-0.035	-0.171
-421.515	-59.831	0.213	-0.091
-420.500	800.000	0.034	-0.139
-419.486	440.131	-0.042	-0.091
-418.471	-94.882	0.227	0.061
-417.457	-59.387	-0.047	0.020
-416.442	-64.465	-0.084	-0.034
-415.428	-51.829	-0.079	-0.036
-414.413	-200.000	-0.065	0.454
-413.398	-200.000	-0.032	-0.140
-412.384	368.692	0.050	0.100
-411.369	176.094	0.068	0.098
-410.355	-53.725	-0.093	0.042
-409.340	620.042	0.149	0.371
-408.325	-112.660	-0.208	-0.041
-407.311	-200.000	0.007	-0.069
-406.296	-131.694	0.164	0.021
-405.282	50.556	-0.167	-0.157
-404.267	-0.969	0.109	-0.077
-403.252	-31.591	-0.195	0.109
-402.238	800.000	-0.063	0.185
-401.223	-200.000	0.022	-0.131
-400.209	-171.129	0.444	-0.015
-399.194	-92.763	-0.034	0.009
-398.179	-71.214	-0.205	-0.076
-397.165	-200.000	0.007	-0.268
-396.150	-187.706	0.163	0.002
-395.136	204.280	-0.096	-0.147
-394.121	200.319	-0.209	-0.319
-393.106	432.208	0.058	0.124
-392.092	-200.000	-0.032	-0.402
-391.077	-26.235	-0.296	0.173
-390.063	461.768	0.159	-0.352
-389.048	-119.126	0.194	-0.034
-388.033	-68.629	-0.121	0.046
-387.019	369.419	0.117	0.235
-386.004	-103.192	-0.364	0.085
-384.990	191.301	0.083	0.124
-383.975	56.082	0.277	0.266
-382.960	-8.675	0.067	0.045
-381.946	-60.314	0.024	0.010
-380.931	410.618	0.060	-0.126
-379.917	202.528	0.125	0.192
-378.902	-200.000	0.010	-0.073
-377.888	627.526	0.082	-0.205
-376.873	-4.595	-0.196	-0.134
-375.858	277.183	0.120	0.211
-374.844	-200.000	0.055	0.270
-373.829	-104.890	0.423	0.096
-372.815	-35.947	-0.075	-0.040
-371.800	-200.000	-0.039	0.174
-370.785	51.650	-0.223	0.210
-369.771	800.000	0.048	0.132
-368.756	-126.971	0.213	0.031
-367.742	-200.000	0.020	-0.166
-366.727	-80.140	-0.184	0.061
-365.712	-83.079	0.082	-0.026
-364.698	-200.000	-0.021	0.130
-363.683	11.128	0.106	-0.080
-362.669	-200.000	0.019	0.098
-361.654	60.079	0.091	-0.089
-360.639	800.000	0.045	0.130
-359.625	38.761	-0.156	-0.138
-358.610	800.000	-0.056	0.155
-357.596	-200.000	-0.027	-0.159
-356.581	-189.382	0.386	0.004
-355.566	-55.936	-0.154	0.068
-354.552	-17.656	-0.141	0.088
-353.537	465.137	0.064	0.142
-352.523	152.239	-0.130	0.175
-351.508	264.913	0.118	0.203
-350.493	183.396	-0.238	-0.349
-349.479	-200.000	-0.008	-0.124
-348.464	-86.071	0.218	0.067
-347.450	-74.949	0.282	0.100
-346.435	-135.512	-0.169	-0.020
-345.420	401.567	-0.169	0.351
-344.406	-200.000	0.023	-0.136
-343.391	800.000	-0.011	-0.044
-342.377	-200.000	0.022	0.130
-341.362	213.478	0.073	0.114
-340.348	369.614	0.172	0.344
-339.333	-5.576	0.154	-0.104
-338.318	-68.252	-0.232	-0.089
-337.304	-200.000	0.008	-0.192
-336.289	-141.862	0.205	-0.020
-335.275	-200.000	-0.020	-0.273
-334.260	78.400	0.162	-0.172
-333.245	42.175	0.192	-0.172
-332.231	-126.402	0.116	-0.017
-331.216	-108.235	-0.222	-0.048
-330.202	-90.818	-0.032	0.009
-329.187	-54.147	-0.298	0.134
-328.172	-200.000	0.035	-0.178
-327.158	-75.535	-0.196	0.069
-326.143	-200.000	-0.033	0.293
-325.129	800.000	0.011	0.041
-324.114	477.701	0.016	-0.035
-323.099	-37.262	0.016	0.009
-322.085	-200.000	0.066	0.295
-321.070	800.000	0.051	0.186
-320.056	51.132	-0.145	0.136
-319.041	-100.594	-0.111	0.027
-318.026	800.000	0.029	0.104
-317.012	-200.000	-0.430	0.001
-315.997	100.941	0.121	0.139
-314.983	38.034	-0.193	0.170
-313.968	-180.223	0.137	0.003
-312.953	-61.725	0.068	0.028
-311.939	267.624	-0.033	-0.058
-310.924	-120.320	-0.199	0.034
-309.910	-9.131	0.207	-0.137
-308.895	437.115	-0.190	-0.409
-307.880	-144.913	0.300	0.027
-306.866	171.627	-0.024	-0.035
-305.851	800.000	0.096	0.273
-304.837	122.418	-0.098	-0.121
-303.822	-32.805	0.159	0.087
-302.807	-147.413	-0.129	-0.011
-301.793	-30.704	-0.243	-0.136
-300.778	-200.000	0.000	-0.359
-299.764	72.512	-0.102	-0.105
-298.749	-104.272	-0.178	-0.041
-297.735	-95.434	0.339	-0.090
-296.720	-88.770	0.163	-0.048
-295.705	-3.400	-0.225	-0.155
-294.691	196.071	-0.151	-0.227
-293.676	-121.522	-0.128	0.021
-292.662	1.995	-0.138	-0.098
-291.647	52.822	0.033	-0.032
-290.632	-131.260	0.118	0.015
-289.618	-51.870	0.345	-0.159
-288.603	-115.073	0.051	0.010
-287.589	321.367	0.108	0.202
-286.574	-200.000	0.011	-0.112
-285.559	-200.000	0.001	0.162
-284.545	-200.000	0.002	-0.289
-283.530	800.000	-0.093	0.267
-282.516	-64.896	-0.107	0.043
-281.501	-68.377	-0.390	-0.150
-280.486	215.591	0.104	-0.163
-279.472	96.233	0.298	0.337
-278.457	-136.434	0.175	-0.020
-277.443	-46.964	-0.089	-0.043
-276.428	800.000	-0.031	-0.118
-275.413	-125.553	0.176	-0.026
-274.399	63.307	-0.160	-0.159
-273.384	-116.228	-0.126	0.023
-272.370	-109.453	-0.073	-0.015
-271.355	-200.000	-0.022	-0.223
-270.340	-153.836	-0.275	0.019
-269.326	-44.757	0.196	-0.096
-268.311	456.887	0.239	0.525
-267.297	-20.849	-0.239	0.145
-266.282	175.074	0.141	0.202
-265.267	800.000	0.071	-0.210
-264.253	800.000	-0.030	0.102
-263.238	-36.974	-0.189	0.100
-262.224	-9.130	0.106	-0.070
-261.209	38.195	0.325	-0.285
-260.195	-143.992	0.287	-0.027
-259.180	-4.044	-0.331	-0.226
-258.165	791.210	-0.061	-0.165
-257.151	-21.441	-0.085	0.051
-256.136	99.757	0.081	-0.093
-255.122	-32.738	0.049	-0.027
-254.107	-156.226	-0.355	-0.022
-253.092	800.000	0.027	0.086
-252.078	-200.000	0.022	0.112
-251.063	-78.345	0.171	0.058
-250.049	450.538	-0.059	0.128
-249.034	800.000	0.071	-0.303
-248.019	7.341	-0.143	0.105
-247.005	-10.658	0.148	-0.096
-245.990	223.444	0.053	0.085
-244.976	86.497	-0.223	0.243
-243.961	-29.949	0.272	0.153
-242.946	-80.557	-0.232	-0.076
-241.932	-69.276	0.175	-0.066
-240.917	-200.000	-0.017	0.177
-239.903	-200.000	0.045	0.411
-238.888	-200.000	-0.068	0.380
-237.873	487.782	-0.121	-0.272
-236.859	-200.000	-0.040	-0.250
-235.844	-87.046	0.303	0.091
-234.830	84.939	0.114	0.124
-233.815	-66.117	-0.086	-0.034
-232.800	84.294	0.310	-0.334
-231.786	-105.408	0.330	-0.074
-230.771	-91.950	0.063	-0.018
-229.757	-151.571	-0.235	-0.017
-228.742	-43.246	0.045	-0.022
-227.727	-200.000	-0.016	0.133
-226.713	183.401	-0.241	0.350
-225.698	-83.447	-0.273	0.086
-224.684	2.381	-0.111	-0.079
-223.669	78.175	-0.140	0.148
-222.655	-119.292	0.176	0.030
-221.640	320.471	0.154	0.288
-220.625	273.237	0.241	-0.419
-219.611	106.598	-0.120	0.141
-218.596	-200.000	-0.009	0.205
-217.582	-2.308	-0.124	0.086
-216.567	-5.063	-0.153	0.104
-215.552	-200.000	-0.054	0.281
-214.538	195.743	0.212	0.318
-213.523	-50.376	-0.098	0.045
-212.509	-90.131	-0.204	0.058
-211.494	-200.000	0.051	0.241
-210.479	800.000	-0.127	0.385
-209.465	787.763	0.100	-0.269
-208.450	370.850	0.124	-0.248
-207.436	-200.000	-0.011	-0.090
-206.421	337.472	0.047	0.090
-205.406	88.270	0.221	0.242
-204.392	800.000	-0.020	-0.073
-203.377	206.466	-0.074	0.114
-202.363	550.673	-0.061	0.144
-201.348	-133.799	0.134	-0.016
-200.333	405.970	-0.140	-0.292
-199.319	309.546	-0.142	0.262
-198.304	11.857	0.216	-0.163
-197.290	-99.921	0.108	-0.027
-196.275	4.947	-0.104	-0.075
-195.260	90.055	0.202	0.222
-194.246	2.204	-0.102	0.073
-193.231	800.000	-0.120	-0.378
-192.217	171.938	0.133	0.188
-191.202	-200.000	0.052	-0.373
-190.187	-153.493	-0.180	-0.012
-189.173	-80.845	0.361	0.118
-188.158	160.067	0.080	-0.109
-187.144	261.371	0.153	0.261
-186.129	-122.967	-0.218	-0.035
-185.114	-89.179	-0.131	0.038
-184.100	-104.826	-0.234	0.053
-183.085	800.000	-0.042	0.147
-182.071	75.986	-0.221	0.230
-181.056	800.000	0.078	0.245
-180.042	205.281	-0.059	-0.091
-179.027	75.591	0.173	-0.179
-178.012	-200.000	0.012	-0.414
-176.998	-192.244	0.342	-0.003
-175.983	-100.968	0.057	0.014
-174.969	243.848	0.076	-0.126
-173.954	415.526	0.040	-0.085
-172.939	134.445	0.100	-0.127
-171.925	-34.884	0.099	-0.053
-170.910	-147.044	-0.268	0.023
-169.896	800.000	0.061	-0.209
-168.881	-128.340	0.349	-0.049
-167.866	271.834	0.065	0.113
-166.852	-128.977	-0.161	0.022
-165.837	101.404	-0.140	0.161
-164.823	-50.574	0.159	0.074
-163.808	-196.662	-0.153	-0.001
-162.793	-200.000	0.020	0.216
-161.779	-59.395	-0.056	0.024
-160.764	-11.090	-0.020	-0.013
-159.750	-97.858	0.186	-0.047
-158.735	258.130	-0.063	-0.107
-157.720	216.151	0.198	0.310
-156.706	-78.106	0.221	0.075
-155.691	60.850	-0.161	0.157
-154.677	127.201	-0.106	-0.133
-153.662	800.000	-0.064	-0.222
-152.647	800.000	-0.004	-0.013
-151.633	495.966	0.027	-0.060
-150.618	458.463	-0.052	0.113
-149.604	-75.610	0.225	-0.079
-148.589	62.611	0.181	0.178
-147.574	-136.707	-0.234	-0.026
-146.560	-147.144	0.031	0.003
-145.545	-109.521	-0.170	0.035
-144.531	-144.129	-0.285	-0.026
-143.516	-23.851	0.098	0.058
-142.502	5.088	-0.183	0.133
-141.487	40.132	0.125	-0.110
-140.472	-200.000	0.009	0.055
-139.458	-83.610	-0.066	0.021
-138.443	-29.913	-0.451	-0.252
-137.429	-200.000	0.001	-0.122
-136.414	-98.737	-0.263	-0.066
-135.399	45.093	0.181	0.163
-134.385	-50.030	-0.157	-0.073
-133.370	76.785	0.053	0.055
-132.356	-44.775	0.300	-0.147
-131.341	-120.569	-0.140	0.023
-130.326	-33.880	0.174	0.094
-129.312	574.290	0.105	0.251
-128.297	550.065	-0.160	0.377
-127.283	333.066	-0.208	0.394
-126.268	-44.895	-0.234	-0.115
-125.253	306.910	-0.141	0.258
-124.239	-182.086	0.213	-0.004
-123.224	-159.278	0.255	-0.014
-122.210	800.000	-0.037	0.146
-121.195	201.118	0.191	0.289
