DTS Sentinel unit serial number:	SN413079Multiplexer serial number:	ORYXHardware model number:	OX4-SRSoftware version number:	ORYX F/W v4.00 Oryx Data Collector v3.7.2.0data status	okinstallation	princeton_trtdifferential loss correction	single-endedforward channel	channel 4reverse channel	N/Adate	2019/09/13time	13:21:34forward acquisition time	60.00reverse acquisition time	0.00gamma	496.2192k internal	0.2296k external	0.2296temperature offset calibration	1.0208default loss term (dB/km)	0.3790temperature slope calibration	1.0000multiplexer offset coefficient	1.0000multiplexer slope coefficient	1.0000fibre end	0.00T internal ref (°C)	34.98T ext. ref 1 (°C)	4.57T ext. ref 2 (°C)	31.30length (m)	temperature (°C)	Stokes	anti-Stokes-747.200	-45.038	0.334	0.170
-746.185	-160.193	-0.226	0.013
-745.171	-27.085	-0.216	-0.129
-744.156	269.125	0.168	0.302
-743.142	-24.509	-0.320	0.195
-742.127	-118.735	-0.359	-0.065
-741.112	-200.000	-0.064	-0.321
-740.098	800.000	0.145	0.518
-739.083	800.000	0.096	0.295
-738.069	800.000	-0.050	0.170
-737.054	7.666	-0.080	-0.061
-736.039	-143.422	-0.512	-0.050
-735.025	800.000	0.054	0.209
-734.010	-86.784	-0.357	-0.111
-732.996	-182.442	-0.141	0.003
-731.981	252.330	0.103	0.179
-730.966	126.012	-0.212	0.273
-729.952	212.333	-0.222	-0.357
-728.937	-91.570	-0.134	-0.039
-727.923	163.222	-0.109	0.157
-726.908	800.000	-0.100	0.446
-725.894	364.106	-0.136	-0.279
-724.879	-140.993	-0.284	0.030
-723.864	-20.945	0.201	-0.125
-722.850	34.231	-0.117	0.104
-721.835	800.000	-0.103	0.334
-720.821	419.104	0.067	-0.146
-719.806	-11.889	-0.212	-0.142
-718.791	-17.201	-0.286	0.184
-717.777	-95.689	-0.207	0.057
-716.762	800.000	-0.094	0.376
-715.748	487.561	0.047	0.109
-714.733	-34.460	-0.206	-0.115
-713.718	-61.331	-0.304	-0.131
-712.704	486.585	0.134	0.311
-711.689	583.015	0.038	0.094
-710.675	-200.000	0.023	-0.201
-709.660	-170.944	-0.088	0.003
-708.645	232.313	0.072	-0.121
-707.631	235.968	-0.071	-0.120
-706.616	334.966	-0.142	-0.281
-705.602	-168.523	-0.105	0.004
-704.587	800.000	0.081	-0.339
-703.572	-200.000	0.025	-0.114
-702.558	-191.222	0.381	0.004
-701.543	234.593	0.167	0.280
-700.529	509.646	-0.044	-0.105
-699.514	267.844	-0.120	-0.215
-698.499	-139.248	-0.207	-0.023
-697.485	-45.818	0.324	-0.163
-696.470	-68.141	-0.240	-0.095
-695.456	-200.000	0.076	0.359
-694.441	-38.728	0.149	0.080
-693.426	800.000	0.063	-0.232
-692.412	-200.000	0.017	0.186
-691.397	-23.164	0.135	0.083
-690.383	276.965	0.119	0.215
-689.368	-200.000	-0.040	-0.392
-688.354	-200.000	0.043	-0.309
-687.339	7.885	-0.159	-0.121
-686.324	143.387	-0.057	-0.078
-685.310	800.000	-0.083	0.308
-684.295	-79.272	-0.216	0.075
-683.281	-10.226	-0.137	0.092
-682.266	-200.000	-0.101	-0.525
-681.251	800.000	0.041	-0.168
-680.237	-164.507	0.304	-0.014
-679.222	97.303	-0.098	-0.115
-678.208	-200.000	0.023	0.133
-677.193	-150.282	0.007	0.001
-676.178	-8.238	0.157	-0.108
-675.164	-48.334	0.103	0.050
-674.149	-65.619	0.310	0.127
-673.135	-43.476	-0.305	-0.157
-672.120	232.896	-0.094	-0.157
-671.105	296.151	0.067	0.125
-670.091	147.979	-0.155	0.214
-669.076	113.538	0.098	-0.121
-668.062	581.607	0.112	0.280
-667.047	-97.426	0.249	0.066
-666.032	-200.000	-0.052	0.322
-665.018	143.916	-0.072	0.098
-664.003	-200.000	-0.097	-0.482
-662.989	109.218	0.035	0.043
-661.974	265.367	0.251	-0.446
-660.959	800.000	-0.038	-0.122
-659.945	-36.996	-0.221	-0.121
-658.930	-196.180	0.156	-0.001
-657.916	46.701	0.050	0.048
-656.901	-66.735	-0.327	-0.132
-655.886	-1.205	-0.374	-0.269
-654.872	-89.533	0.344	-0.103
-653.857	-72.710	-0.377	-0.141
-652.843	219.420	0.204	0.332
-651.828	168.323	0.109	-0.158
-650.814	14.740	0.213	0.170
-649.799	-200.000	0.001	0.008
-648.784	800.000	-0.079	-0.258
-647.770	-200.000	0.010	0.162
-646.755	657.756	-0.033	0.088
-645.741	-107.891	0.163	0.036
-644.726	-95.227	-0.198	-0.054
-643.711	276.200	0.107	-0.194
-642.697	-200.000	0.050	-0.295
-641.682	-200.000	-0.022	0.120
-640.668	-200.000	-0.012	-0.216
-639.653	103.633	-0.170	0.203
-638.638	76.151	0.095	0.102
-637.624	297.035	0.173	-0.323
-636.609	174.805	-0.097	0.143
-635.595	429.127	0.072	0.159
-634.580	-122.040	-0.155	0.026
-633.565	315.834	-0.067	0.129
-632.551	669.771	-0.049	-0.129
-631.536	-29.079	0.407	-0.237
-630.522	-102.177	-0.212	0.052
-629.507	-113.729	-0.105	-0.021
-628.492	-200.000	0.001	0.020
-627.478	-200.000	0.037	-0.183
-626.463	-13.421	-0.318	0.210
-625.449	800.000	0.081	-0.253
-624.434	800.000	0.041	0.130
-623.419	-61.464	-0.391	-0.167
-622.405	-80.405	-0.269	-0.091
-621.390	71.540	0.039	-0.041
-620.376	-3.620	0.299	-0.212
-619.361	65.893	-0.103	-0.106
-618.346	193.140	-0.110	-0.169
-617.332	800.000	-0.079	-0.256
-616.317	62.927	0.044	0.045
-615.303	800.000	0.125	-0.368
-614.288	10.830	-0.083	0.064
-613.273	800.000	-0.084	0.288
-612.259	88.714	-0.065	0.073
-611.244	-200.000	-0.015	-0.157
-610.230	-28.173	-0.121	0.071
-609.215	444.782	-0.215	-0.480
-608.201	-63.203	-0.119	0.050
-607.186	261.994	0.155	-0.274
-606.171	-111.407	0.425	0.088
-605.157	80.752	-0.440	-0.483
-604.142	-70.856	-0.163	-0.063
-603.128	-29.682	0.164	0.095
-602.113	-126.366	0.161	-0.024
-601.098	14.276	-0.151	-0.119
-600.084	71.314	0.145	0.153
-599.069	-200.000	0.004	0.037
-598.055	91.239	0.062	-0.071
-597.040	-200.000	0.030	-0.144
-596.025	800.000	0.068	0.201
-595.011	144.073	-0.221	0.300
-593.996	-55.148	-0.279	-0.127
-592.982	155.876	0.175	0.245
-591.967	-170.000	0.268	0.010
-590.952	66.144	-0.222	0.228
-589.938	39.426	-0.183	-0.166
-588.923	-200.000	-0.023	0.420
-587.909	198.888	-0.126	-0.196
-586.894	-200.000	0.019	0.290
-585.879	-102.633	0.263	0.064
-584.865	-50.381	-0.269	0.129
-583.850	36.173	0.306	0.274
-582.836	-114.894	0.166	-0.032
-581.821	45.337	-0.290	0.272
-580.806	725.686	-0.032	-0.087
-579.792	-140.909	-0.170	0.018
-578.777	117.266	-0.160	-0.200
-577.763	331.661	0.160	0.314
-576.748	-132.033	-0.164	-0.022
-575.733	-42.986	0.141	-0.072
-574.719	405.989	0.090	-0.193
-573.704	-27.279	-0.062	-0.037
-572.690	31.789	-0.409	0.358
-571.675	-112.210	-0.105	0.021
-570.661	-30.461	-0.233	-0.134
-569.646	-123.853	-0.309	0.049
-568.631	-200.000	0.010	-0.089
-567.617	-127.095	0.189	-0.028
-566.602	-68.886	-0.171	-0.067
-565.588	309.972	-0.162	-0.307
-564.573	569.484	-0.084	0.208
-563.558	-200.000	-0.036	-0.267
-562.544	-200.000	0.030	-0.249
-561.529	2.043	0.294	0.215
-560.515	-200.000	-0.052	-0.276
-559.500	800.000	-0.033	-0.139
-558.485	-85.377	0.204	-0.064
-557.471	-200.000	-0.116	0.000
-556.456	800.000	0.177	0.523
-555.442	78.041	-0.141	-0.152
-554.427	-105.473	-0.226	-0.052
-553.412	221.740	0.252	-0.410
-552.398	-14.721	0.160	-0.104
-551.383	247.003	-0.119	-0.203
-550.369	-93.437	0.242	-0.068
-549.354	-200.000	0.093	-0.414
-548.339	490.647	-0.140	-0.324
-547.325	492.319	-0.054	0.125
-546.310	1.718	-0.327	0.239
-545.296	-200.000	-0.352	-0.001
-544.281	-59.536	-0.132	-0.058
-543.266	97.652	-0.117	-0.137
-542.252	27.604	-0.107	-0.091
-541.237	140.184	0.024	-0.032
-540.223	-200.000	0.005	0.288
-539.208	-200.000	-0.001	-0.192
-538.193	-33.093	0.039	0.022
-537.179	-19.313	-0.060	-0.038
-536.164	-93.188	0.372	0.105
-535.150	286.299	0.131	-0.240
-534.135	62.281	-0.249	0.252
-533.121	115.766	-0.340	0.422
-532.106	-122.275	-0.188	0.031
-531.091	243.471	-0.095	0.161
-530.077	-7.436	0.189	0.130
-529.062	117.667	-0.196	0.245
-528.048	376.514	0.265	0.548
-527.033	-61.647	0.131	-0.056
-526.018	125.980	0.169	0.216
-525.004	-57.455	-0.061	-0.027
-523.989	-33.868	-0.194	-0.108
-522.975	-103.373	0.137	-0.033
-521.960	-44.713	-0.121	0.061
-520.945	-200.000	-0.011	-0.612
-519.931	220.327	0.076	0.123
-518.916	-117.735	-0.106	0.019
-517.902	800.000	-0.034	-0.125
-516.887	-200.000	0.018	-0.238
-515.872	-200.000	0.195	-0.001
-514.858	260.799	0.123	-0.216
-513.843	-160.634	0.398	0.021
-512.829	222.071	-0.179	-0.292
-511.814	18.605	-0.464	0.375
-510.799	177.410	-0.096	0.142
-509.785	-179.742	0.081	0.002
-508.770	-120.608	0.196	-0.034
-507.756	194.694	0.152	0.234
-506.741	-12.164	0.133	0.088
-505.726	-28.810	-0.070	-0.041
-504.712	-15.881	-0.125	-0.081
-503.697	800.000	-0.040	0.155
-502.683	128.812	-0.045	0.058
-501.668	-112.336	-0.154	0.031
-500.653	348.926	-0.039	0.078
-499.639	20.421	-0.053	-0.043
-498.624	6.804	-0.047	0.035
-497.610	800.000	-0.031	-0.090
-496.595	82.848	0.043	-0.047
-495.581	-200.000	-0.018	0.100
-494.566	-24.352	-0.308	0.186
-493.551	-19.141	0.060	0.037
-492.537	800.000	0.089	0.375
-491.522	12.910	-0.152	-0.119
-490.508	445.318	0.075	0.167
-489.493	-31.838	0.126	0.072
-488.478	800.000	-0.054	-0.153
-487.464	-116.117	0.106	0.020
-486.449	-61.158	-0.185	-0.079
-485.435	-74.256	0.235	-0.086
-484.420	95.529	0.189	0.218
-483.405	111.220	-0.061	-0.075
-482.391	-88.346	0.120	0.036
-481.376	192.784	-0.180	0.274
-480.362	-67.981	0.070	0.028
-479.347	249.222	-0.007	0.012
-478.332	10.024	-0.107	0.082
-477.318	-200.000	0.001	-0.031
-476.303	-87.964	0.009	-0.003
-475.289	38.996	-0.061	-0.055
-474.274	-31.001	-0.207	0.118
-473.259	766.250	0.082	-0.225
-472.245	-53.019	-0.281	-0.131
-471.230	191.953	0.046	-0.071
-470.216	-5.170	0.047	0.032
-469.201	62.763	0.184	-0.186
-468.186	-116.410	0.243	-0.045
-467.172	-9.755	0.179	-0.121
-466.157	-200.000	-0.027	0.121
-465.143	22.185	0.156	0.129
-464.128	-200.000	0.024	-0.151
-463.113	86.904	0.252	-0.282
-462.099	71.875	-0.125	0.131
-461.084	-200.000	0.020	0.095
-460.070	-46.423	0.298	0.148
-459.055	-105.524	-0.260	0.060
-458.040	-15.645	-0.184	0.119
-457.026	-81.297	0.153	-0.051
-456.011	-16.327	0.364	-0.233
-454.997	114.310	-0.088	0.108
-453.982	-61.250	0.262	0.112
-452.968	192.688	0.103	0.158
-451.953	-152.795	0.189	-0.014
-450.938	-95.558	-0.289	-0.078
-449.924	86.828	-0.148	-0.165
-448.909	800.000	-0.114	-0.455
-447.895	-116.359	0.470	0.088
-446.880	26.291	0.295	-0.249
-445.865	-200.000	-0.028	-0.210
-444.851	32.335	-0.294	0.256
-443.836	-129.691	-0.242	-0.034
-442.822	-12.970	-0.128	-0.084
-441.807	185.647	-0.079	0.118
-440.792	266.680	-0.013	-0.022
-439.778	262.977	0.102	-0.179
-438.763	88.512	-0.026	0.029
-437.749	217.125	-0.095	-0.152
-436.734	-53.807	0.173	-0.080
-435.719	114.006	-0.118	-0.144
-434.705	-35.494	-0.187	-0.102
-433.690	-200.000	-0.052	0.400
-432.676	121.918	-0.056	0.071
-431.661	50.049	-0.007	-0.007
-430.646	-101.236	0.075	0.019
-429.632	104.872	0.174	0.207
-428.617	-49.298	0.149	0.072
-427.603	-200.000	-0.024	-0.197
-426.588	800.000	0.080	0.243
-425.573	23.167	0.145	-0.120
-424.559	-200.000	-0.027	0.254
-423.544	204.476	-0.124	-0.194
-422.530	-200.000	0.006	-0.089
-421.515	-200.000	0.027	0.179
-420.500	88.623	0.073	-0.082
-419.486	800.000	0.034	0.107
-418.471	-52.432	-0.349	-0.163
-417.457	209.791	-0.042	0.066
-416.442	-80.954	-0.256	0.086
-415.428	-4.376	-0.092	0.064
-414.413	495.993	0.173	0.402
-413.398	-137.978	0.186	-0.021
-412.384	-125.711	0.158	-0.024
-411.369	60.491	-0.250	-0.250
-410.355	-200.000	0.018	-0.335
-409.340	-180.583	0.211	0.004
-408.325	-57.046	-0.212	-0.094
-407.311	-200.000	0.092	0.000
-406.296	163.778	0.062	0.088
-405.282	774.708	0.031	0.086
-404.267	78.515	-0.209	-0.226
-403.252	-1.859	-0.073	0.052
-402.238	-200.000	0.001	-0.387
-401.223	-48.531	-0.126	0.061
-400.209	190.182	0.076	-0.115
-399.194	800.000	-0.034	-0.122
-398.179	268.144	-0.137	0.242
-397.165	-7.640	0.187	0.127
-396.150	-107.161	-0.320	0.071
-395.136	-174.662	0.355	0.010
-394.121	-53.673	-0.087	-0.040
-393.106	120.330	-0.237	0.296
-392.092	-37.897	-0.030	-0.016
-391.077	-170.833	-0.273	0.009
-390.063	-96.586	-0.075	-0.020
-389.048	-16.162	0.163	0.104
-388.033	-200.000	-0.181	-0.000
-387.019	-100.252	0.219	0.055
-386.004	229.357	-0.124	0.204
-384.990	420.688	-0.153	0.330
-383.975	237.062	0.116	0.193
-382.960	-200.000	-0.011	-0.231
-381.946	291.620	0.071	0.130
-380.931	-45.787	-0.341	0.170
-379.917	85.004	0.119	-0.131
-378.902	-73.266	-0.174	-0.064
-377.888	-37.994	-0.253	-0.135
-376.873	52.704	-0.127	0.122
-375.858	-200.000	-0.086	0.385
-374.844	-200.000	-0.009	0.210
-373.829	-52.666	-0.151	-0.070
-372.815	-137.483	-0.332	0.038
-371.800	-200.000	-0.056	-0.304
-370.785	364.453	-0.058	0.118
-369.771	-200.000	-0.028	0.130
-368.756	-1.252	0.069	0.049
-367.742	-200.000	-0.036	-0.344
-366.727	65.367	-0.271	0.276
-365.712	-10.937	0.253	-0.168
-364.698	800.000	0.141	-0.561
-363.683	-200.000	0.002	0.089
-362.669	-200.000	0.027	-0.444
-361.654	800.000	0.087	0.360
-360.639	17.947	-0.139	0.111
-359.625	-200.000	-0.040	-0.350
-358.610	145.662	0.114	0.154
-357.596	800.000	0.051	0.187
-356.581	340.955	0.083	-0.163
-355.566	50.775	0.191	0.182
-354.552	37.545	-0.116	-0.104
-353.537	264.353	-0.071	-0.123
-352.523	-77.908	0.108	0.038
-351.508	800.000	-0.014	0.052
-350.493	67.816	-0.139	0.143
-349.479	26.301	-0.133	-0.111
-348.464	-41.462	-0.207	0.107
-347.450	91.234	-0.056	-0.063
-346.435	60.089	-0.163	-0.163
-345.420	-200.000	-0.002	0.023
-344.406	-200.000	-0.004	0.119
-343.391	-175.760	-0.187	-0.005
-342.377	-200.000	0.048	0.289
-341.362	-48.691	0.261	0.126
-340.348	-111.629	-0.080	0.016
-339.333	-98.576	0.379	-0.097
-338.318	11.138	-0.178	0.137
-337.304	81.289	-0.083	-0.090
-336.289	-200.000	0.039	0.198
-335.275	-58.365	0.305	-0.133
-334.260	-48.679	0.046	-0.022
-333.245	169.662	0.141	0.202
-332.231	-100.223	-0.369	-0.092
-331.216	341.475	-0.047	-0.093
-330.202	78.416	0.343	0.369
-329.187	-80.383	-0.281	-0.094
-328.172	173.268	-0.101	-0.147
-327.158	-19.553	0.346	-0.215
-326.143	294.013	0.141	-0.260
-325.129	431.587	0.040	-0.088
-324.114	318.681	-0.025	-0.047
-323.099	316.561	0.137	0.260
-322.085	560.582	0.115	-0.279
-321.070	-58.223	-0.134	0.059
-320.056	800.000	-0.018	-0.051
-319.041	234.613	-0.046	-0.076
-318.026	-53.303	0.131	-0.061
-317.012	800.000	0.050	-0.187
-315.997	-56.185	-0.282	-0.126
-314.983	42.245	-0.059	0.054
-313.968	201.998	-0.240	-0.372
-312.953	-200.000	-0.005	-0.196
-311.939	325.124	-0.031	0.060
-310.924	-200.000	-0.008	0.071
-309.910	-104.444	0.023	0.005
-308.895	179.531	-0.194	-0.286
-307.880	-200.000	0.053	0.307
-306.866	635.249	0.038	-0.098
-305.851	-200.000	-0.036	-0.161
-304.837	-148.736	0.265	0.022
-303.822	604.880	-0.086	0.214
-302.807	-80.659	-0.126	0.042
-301.793	122.512	0.303	-0.380
-300.778	80.713	-0.198	-0.215
-299.764	800.000	0.101	0.340
-298.749	-106.234	0.248	-0.056
-297.735	12.435	-0.192	-0.148
-296.720	198.104	0.180	-0.277
-295.705	-55.929	-0.354	0.159
-294.691	800.000	0.035	0.126
-293.676	398.778	-0.139	0.291
-292.662	800.000	0.075	-0.238
-291.647	-200.000	-0.011	0.347
-290.632	-16.738	-0.099	-0.063
-289.618	-128.920	-0.231	0.033
-288.603	59.370	0.218	-0.216
-287.589	-161.314	0.380	-0.020
-286.574	81.470	-0.174	0.189
-285.559	49.123	0.226	0.213
-284.545	60.282	-0.073	-0.072
-283.530	217.865	0.151	0.242
-282.516	373.236	0.114	0.232
-281.501	800.000	-0.110	0.334
-280.486	-200.000	-0.002	-0.160
-279.472	-56.593	-0.280	0.125
-278.457	253.383	0.110	-0.188
-277.443	-51.354	0.128	0.060
-276.428	16.212	0.301	-0.238
-275.413	754.796	-0.016	0.042
-274.399	44.296	0.171	0.158
-273.384	-200.000	0.001	-0.188
-272.370	-200.000	-0.042	-0.194
-271.355	267.667	-0.043	0.075
-270.340	-200.000	-0.061	0.407
-269.326	52.569	0.087	0.084
-268.311	-200.000	0.015	0.164
-267.297	-180.204	-0.320	0.007
-266.282	54.710	0.129	0.125
-265.267	489.977	0.081	0.186
-264.253	-2.172	0.247	-0.174
-263.238	19.633	-0.203	-0.164
-262.224	282.357	-0.073	0.131
-261.209	89.315	0.187	-0.209
-260.195	-145.044	-0.080	-0.007
-259.180	31.466	0.204	0.176
-258.165	774.403	0.053	-0.144
-257.151	60.838	0.280	-0.278
-256.136	-169.382	0.186	-0.007
-255.122	-50.812	0.375	-0.177
-254.107	-47.354	-0.161	-0.078
-253.092	-69.860	-0.108	-0.041
-252.078	-200.000	0.049	0.452
-251.063	61.739	-0.223	0.222
-250.049	-125.800	0.393	0.059
-249.034	-30.860	0.382	0.217
-248.019	-200.000	-0.077	0.393
-247.005	154.524	0.027	0.037
-245.990	56.856	0.065	0.063
-244.976	-200.000	-0.002	0.032
-243.961	-60.510	-0.160	-0.068
-242.946	138.102	0.238	-0.313
-241.932	-200.000	-0.032	0.186
-240.917	-122.829	0.200	0.032
-239.903	-140.022	0.198	0.021
-238.888	-200.000	0.019	0.305
-237.873	-200.000	0.001	-0.067
-236.859	-200.000	-0.017	0.103
-235.844	9.146	-0.249	-0.188
-234.830	-200.000	0.063	-0.277
-233.815	-55.330	-0.326	0.146
-232.800	800.000	-0.076	0.266
-231.786	-65.092	-0.096	0.039
-230.771	-200.000	0.029	0.338
-229.757	-200.000	-0.011	-0.135
-228.742	-56.656	0.057	-0.025
-227.727	-54.626	0.200	-0.091
-226.713	38.714	0.368	0.329
-225.698	-31.278	-0.085	0.048
-224.684	-49.633	0.171	0.081
-223.669	-200.000	0.040	0.360
-222.655	-64.467	0.175	-0.071
-221.640	66.525	0.156	-0.158
-220.625	663.115	0.158	-0.407
-219.611	-108.222	0.097	-0.021
-218.596	-200.000	-0.026	-0.240
-217.582	-120.656	0.202	-0.034
-216.567	-92.073	0.303	-0.086
-215.552	160.504	0.157	0.220
-214.538	7.863	-0.139	0.104
-213.523	101.245	-0.191	-0.222
-212.509	120.413	-0.177	-0.220
-211.494	-30.390	-0.066	0.037
-210.479	-200.000	0.061	-0.283
-209.465	-141.847	0.173	0.017
-208.450	183.525	-0.192	-0.284
-207.436	26.707	0.214	0.180
-206.421	-52.672	-0.329	0.152
-205.406	445.381	0.065	0.144
-204.392	-200.000	-0.046	-0.214
-203.377	-63.507	-0.219	0.090
-202.363	-145.877	0.490	-0.043
-201.348	124.838	-0.088	-0.111
-200.333	253.157	-0.107	-0.183
-199.319	183.657	-0.120	0.178
-198.304	227.686	-0.036	0.058
-197.290	-188.436	0.011	0.000
-196.275	-169.421	-0.172	-0.006
-195.260	-200.000	0.018	0.338
-194.246	800.000	-0.050	0.191
-193.231	-146.810	0.364	-0.031
-192.217	-200.000	-0.029	0.230
-191.202	-8.954	0.250	-0.168
-190.187	-78.386	0.072	-0.025
-189.173	800.000	-0.115	-0.366
-188.158	-95.006	0.074	-0.020
-187.144	-113.324	0.115	-0.023
-186.129	52.974	0.177	-0.169
-185.114	800.000	0.005	0.014
-184.100	135.643	-0.207	0.269
-183.085	-3.875	-0.156	-0.108
-182.071	-21.223	0.319	-0.195
-181.056	93.397	0.150	-0.170
-180.042	320.960	0.116	-0.220
-179.027	-123.145	-0.150	-0.024
-178.012	78.610	0.187	-0.199
-176.998	-200.000	-0.006	0.251
-175.983	0.541	0.219	-0.156
-174.969	-200.000	-0.020	0.139
-173.954	800.000	0.082	0.248
-172.939	488.076	-0.057	0.129
-171.925	-85.423	-0.302	0.094
-170.910	800.000	0.038	0.148
-169.896	-139.858	0.474	0.050
-168.881	9.101	0.320	0.241
-167.866	12.818	0.289	0.223
-166.852	75.034	-0.100	-0.105
-165.837	-42.626	0.291	-0.148
-164.823	-79.471	0.079	-0.027
-163.808	800.000	0.059	0.195
-162.793	90.503	-0.188	0.211
-161.779	-25.361	0.161	0.095
-160.764	-31.540	-0.124	-0.070
-159.750	15.974	-0.067	-0.053
-158.735	342.218	-0.068	0.133
-157.720	-200.000	-0.025	-0.347
-156.706	378.460	-0.058	-0.118
-155.691	20.255	-0.119	0.096
-154.677	67.057	-0.138	0.140
-153.662	-27.848	-0.153	0.089
-152.647	-121.509	0.187	0.031
-151.633	800.000	-0.070	-0.268
-150.618	-200.000	0.020	0.140
-149.604	-200.000	-0.025	0.156
-148.589	800.000	0.044	-0.180
-147.574	800.000	0.163	0.512
-146.560	-200.000	0.026	-0.129
-145.545	66.396	0.137	0.139
-144.531	-30.683	0.072	0.041
-143.516	-118.262	-0.246	0.044
-142.502	800.000	0.073	-0.229
-141.487	800.000	-0.050	-0.158
-140.472	-200.000	-0.004	-0.125
-139.458	-200.000	-0.014	-0.289
-138.443	-39.873	-0.051	-0.027
-137.429	800.000	-0.104	-0.314
-136.414	800.000	-0.036	-0.135
-135.399	-130.195	-0.354	0.048
-134.385	-35.465	-0.068	-0.037
-133.370	800.000	0.038	-0.139
-132.356	349.178	0.173	0.341
-131.341	605.812	-0.067	0.166
-130.326	-132.383	-0.188	0.024
-129.312	-79.203	0.185	-0.063
-128.297	274.725	0.220	0.390
-127.283	-200.000	-0.052	0.512
-126.268	-12.749	-0.093	0.061
-125.253	129.929	0.116	-0.147
-124.239	-22.190	0.127	0.077
-123.224	101.431	-0.081	0.095
-122.210	476.433	0.038	-0.086
-121.195	800.000	-0.060	0.165
