DTS Sentinel unit serial number:	SN413079Multiplexer serial number:	ORYXHardware model number:	OX4-SRSoftware version number:	ORYX F/W v4.00 Oryx Data Collector v3.7.2.0data status	okinstallation	princeton_trtdifferential loss correction	single-endedforward channel	channel 4reverse channel	N/Adate	2019/09/15time	04:41:34forward acquisition time	60.00reverse acquisition time	0.00gamma	496.2192k internal	0.2311k external	0.2311temperature offset calibration	1.0035default loss term (dB/km)	0.3790temperature slope calibration	1.0000multiplexer offset coefficient	1.0000multiplexer slope coefficient	1.0000fibre end	0.00T internal ref (°C)	30.81T ext. ref 1 (°C)	4.72T ext. ref 2 (°C)	25.35length (m)	temperature (°C)	Stokes	anti-Stokes-747.200	-200.000	-0.038	0.186
-746.185	46.105	0.028	-0.026
-745.171	-22.505	0.251	-0.154
-744.156	79.066	-0.187	0.203
-743.142	59.433	-0.172	0.172
-742.127	-30.519	0.040	-0.023
-741.112	43.558	-0.217	-0.202
-740.098	122.641	0.077	-0.098
-739.083	-200.000	0.014	-0.138
-738.069	800.000	0.108	0.375
-737.054	-50.777	-0.081	0.039
-736.039	-12.662	-0.216	-0.143
-735.025	-94.752	-0.148	-0.041
-734.010	800.000	-0.067	0.293
-732.996	-192.621	-0.156	0.001
-731.981	650.145	0.073	-0.191
-730.966	-200.000	-0.048	-0.255
-729.952	-19.422	0.095	0.060
-728.937	-29.656	0.271	-0.157
-727.923	-63.467	-0.200	-0.084
-726.908	-200.000	0.019	-0.105
-725.894	-73.189	-0.232	-0.086
-724.879	-20.614	0.227	-0.142
-723.864	-200.000	-0.056	-0.404
-722.850	800.000	-0.095	-0.309
-721.835	372.407	0.212	-0.436
-720.821	158.508	-0.077	-0.108
-719.806	800.000	-0.075	-0.333
-718.791	-66.029	0.091	-0.037
-717.777	-176.954	0.420	0.011
-716.762	800.000	0.056	-0.194
-715.748	-120.214	-0.243	0.042
-714.733	209.841	-0.039	-0.062
-713.718	-84.864	-0.122	-0.039
-712.704	485.877	-0.116	-0.269
-711.689	-19.759	0.072	0.045
-710.675	224.951	-0.090	-0.148
-709.660	-29.015	-0.093	0.054
-708.645	342.127	-0.126	-0.249
-707.631	89.194	-0.056	-0.064
-706.616	88.813	0.180	-0.203
-705.602	-61.733	0.216	-0.092
-704.587	204.104	-0.034	-0.053
-703.572	-200.000	0.014	-0.202
-702.558	148.692	0.135	-0.185
-701.543	-101.942	0.118	-0.029
-700.529	800.000	0.083	-0.238
-699.514	6.707	-0.167	-0.126
-698.499	167.341	0.126	-0.181
-697.485	-42.821	-0.591	0.304
-696.470	94.532	-0.026	0.030
-695.456	285.780	-0.201	0.367
-694.441	36.273	0.075	-0.067
-693.426	-59.453	-0.201	-0.088
-692.412	-14.932	0.209	0.136
-691.397	206.001	-0.064	0.100
-690.383	300.710	-0.127	0.237
-689.368	-186.705	0.109	0.002
-688.354	2.216	0.293	-0.215
-687.339	-23.408	-0.279	0.170
-686.324	-119.955	-0.306	-0.053
-685.310	193.074	0.137	0.209
-684.295	-37.707	0.240	0.130
-683.281	800.000	0.134	-0.441
-682.266	-87.853	0.343	-0.105
-681.251	-17.870	0.009	-0.006
-680.237	709.837	0.084	0.226
-679.222	710.796	0.067	-0.180
-678.208	100.422	0.268	-0.315
-677.193	212.149	-0.104	-0.166
-676.178	-189.214	0.196	0.002
-675.164	-200.000	-0.005	-0.476
-674.149	216.928	0.114	-0.184
-673.135	-200.000	0.018	-0.262
-672.120	-140.286	0.401	0.043
-671.105	-200.000	0.052	-0.304
-670.091	11.751	-0.055	-0.042
-669.076	81.994	0.012	0.013
-668.062	39.981	-0.246	0.223
-667.047	800.000	-0.140	-0.490
-666.032	124.807	-0.129	-0.164
-665.018	90.057	-0.141	0.160
-664.003	256.331	-0.051	-0.088
-662.989	-28.829	-0.065	-0.038
-661.974	302.062	0.098	0.183
-660.959	258.708	0.152	0.265
-659.945	-144.239	0.240	-0.023
-658.930	-104.361	-0.153	0.036
-657.916	-168.505	-0.137	0.005
-656.901	135.824	0.168	0.221
-655.886	0.164	-0.141	0.102
-654.872	65.997	-0.036	-0.037
-653.857	-200.000	0.022	0.103
-652.843	800.000	-0.045	0.139
-651.828	-28.228	0.049	-0.029
-650.814	-48.628	0.414	0.201
-649.799	-25.915	0.251	-0.150
-648.784	-200.000	0.033	-0.322
-647.770	367.507	-0.144	0.294
-646.755	-200.000	-0.003	-0.089
-645.741	413.284	0.120	-0.259
-644.726	475.141	-0.135	-0.308
-643.711	800.000	-0.060	-0.167
-642.697	363.084	0.065	-0.133
-641.682	-200.000	0.008	-0.147
-640.668	-200.000	-0.035	-0.179
-639.653	-200.000	-0.027	0.225
-638.638	514.402	-0.068	0.161
-637.624	-200.000	0.015	0.261
-636.609	-171.225	-0.246	0.008
-635.595	-31.237	-0.087	-0.050
-634.580	-74.592	-0.096	-0.035
-633.565	-61.408	0.061	0.026
-632.551	-200.000	-0.020	0.129
-631.536	4.681	-0.157	0.117
-630.522	-200.000	0.011	0.175
-629.507	-14.634	0.222	-0.144
-628.492	-54.244	0.163	0.075
-627.478	122.788	-0.294	0.372
-626.463	-63.565	-0.090	-0.037
-625.449	74.191	0.081	-0.086
-624.434	-200.000	-0.034	0.202
-623.419	-182.972	0.179	0.003
-622.405	202.919	-0.069	0.108
-621.390	800.000	0.096	0.324
-620.376	-200.000	-0.010	-0.344
-619.361	-138.568	-0.314	0.035
-618.346	132.364	0.193	-0.251
-617.332	-200.000	-0.010	-0.125
-616.317	-17.722	0.116	-0.074
-615.303	-38.898	-0.106	-0.056
-614.288	142.828	-0.015	-0.021
-613.273	-115.582	-0.253	0.048
-612.259	116.239	-0.113	-0.139
-611.244	-159.014	0.114	0.007
-610.230	84.553	-0.054	0.060
-609.215	800.000	-0.120	-0.419
-608.201	-200.000	-0.029	-0.461
-607.186	-115.224	0.395	-0.075
-606.171	127.316	-0.219	-0.281
-605.157	-134.326	0.288	0.036
-604.142	639.153	-0.098	0.251
-603.128	4.406	-0.314	0.233
-602.113	-49.632	-0.076	-0.037
-601.098	-200.000	0.037	-0.293
-600.084	-83.352	-0.333	0.108
-599.069	-117.646	0.487	0.089
-598.055	-81.910	-0.289	0.095
-597.040	-200.000	-0.017	-0.141
-596.025	-109.989	0.110	-0.023
-595.011	-55.481	-0.243	-0.110
-593.996	144.210	0.161	-0.217
-592.982	800.000	-0.073	-0.248
-591.967	92.619	0.216	0.246
-590.952	-9.855	0.254	-0.170
-589.938	-1.894	0.111	-0.079
-588.923	-200.000	0.090	-0.455
-587.909	55.508	-0.249	-0.243
-586.894	-180.414	0.197	0.004
-585.879	-156.547	0.384	-0.024
-584.865	149.820	-0.040	-0.055
-583.850	-66.661	0.398	0.159
-582.836	67.910	0.158	0.163
-581.821	41.146	0.274	-0.250
-580.806	-15.838	-0.283	0.182
-579.792	257.677	0.150	0.261
-578.777	-50.544	0.319	-0.152
-577.763	-112.080	0.217	-0.044
-576.748	-69.811	0.250	0.096
-575.733	-64.350	0.111	-0.045
-574.719	57.941	-0.191	0.189
-573.704	-94.488	0.085	0.023
-572.690	-200.000	0.064	-0.291
-571.675	-123.929	-0.218	0.035
-570.661	458.057	-0.214	0.481
-569.646	800.000	-0.191	0.575
-568.631	-200.000	0.036	0.165
-567.617	800.000	-0.008	-0.034
-566.602	-45.530	0.200	-0.100
-565.588	-3.551	0.165	0.116
-564.573	3.282	-0.259	-0.190
-563.558	33.709	-0.180	0.158
-562.544	800.000	0.013	-0.047
-561.529	-133.149	0.118	-0.015
-560.515	-44.797	0.022	0.011
-559.500	-77.971	0.148	0.052
-558.485	-200.000	-0.014	0.274
-557.471	562.695	-0.006	0.015
-556.456	58.778	-0.185	-0.184
-555.442	800.000	0.038	0.130
-554.427	37.725	-0.094	0.084
-553.412	-183.894	-0.213	0.004
-552.398	228.018	0.077	-0.127
-551.383	-136.245	0.128	0.015
-550.369	-40.551	-0.020	-0.010
-549.354	-116.783	-0.174	0.032
-548.339	267.576	-0.056	-0.100
-547.325	49.542	-0.086	0.081
-546.310	9.151	0.029	0.022
-545.296	187.924	-0.147	-0.222
-544.281	-3.130	-0.125	0.088
-543.266	45.003	0.118	-0.109
-542.252	-136.956	0.579	-0.067
-541.237	-77.181	0.126	0.044
-540.223	-32.776	0.262	-0.147
-539.208	28.511	0.099	0.085
-538.193	763.986	-0.132	0.360
-537.179	215.702	-0.153	0.245
-536.164	103.473	0.090	-0.106
-535.150	-11.583	-0.393	-0.260
-534.135	74.767	-0.096	0.102
-533.121	104.336	0.074	-0.088
-532.106	91.296	-0.117	0.132
-531.091	-200.000	-0.016	0.169
-530.077	-21.680	-0.177	-0.109
-529.062	800.000	0.043	-0.156
-528.048	800.000	0.118	0.335
-527.033	800.000	-0.071	-0.226
-526.018	62.512	-0.171	0.172
-525.004	629.916	-0.140	0.355
-523.989	-109.495	-0.231	-0.049
-522.975	-53.687	0.230	-0.106
-521.960	94.631	0.200	-0.228
-520.945	-30.205	0.033	0.019
-519.931	-27.878	-0.359	-0.209
-518.916	-149.605	0.131	0.010
-517.902	-200.000	0.003	0.093
-516.887	-63.486	0.392	-0.162
-515.872	-107.863	0.116	-0.026
-514.858	215.816	-0.084	0.134
-513.843	-96.314	0.067	-0.018
-512.829	-200.000	0.035	0.191
-511.814	-200.000	-0.051	0.368
-510.799	-200.000	0.066	-0.364
-509.785	-200.000	-0.036	-0.335
-508.770	202.476	0.054	-0.084
-507.756	-143.326	0.331	-0.032
-506.741	800.000	0.034	-0.104
-505.726	51.944	0.242	-0.232
-504.712	-95.178	0.189	-0.051
-503.697	-200.000	-0.037	-0.277
-502.683	-88.087	-0.017	0.005
-501.668	-34.141	-0.126	0.070
-500.653	-173.937	0.348	-0.010
-499.639	800.000	0.082	0.241
-498.624	-159.294	0.324	0.018
-497.610	-31.038	-0.240	-0.136
-496.595	715.969	-0.007	-0.018
-495.581	21.441	0.043	-0.035
-494.566	-131.730	0.337	0.044
-493.551	-173.530	-0.337	0.010
-492.537	-200.000	0.019	0.094
-491.522	-49.665	0.266	0.127
-490.508	-200.000	0.016	-0.099
-489.493	-200.000	-0.036	-0.216
-488.478	-62.911	-0.090	0.037
-487.464	-32.341	-0.078	0.044
-486.449	800.000	-0.051	-0.180
-485.435	-15.662	-0.233	0.149
-484.420	103.584	-0.249	0.294
-483.405	800.000	-0.103	-0.358
-482.391	0.270	0.147	0.106
-481.376	-200.000	0.009	-0.130
-480.362	800.000	-0.009	-0.038
-479.347	645.322	0.114	0.293
-478.332	5.413	-0.195	0.144
-477.318	239.981	-0.067	0.112
-476.303	-108.402	-0.304	0.066
-475.289	142.985	0.039	0.052
-474.274	-110.519	-0.117	-0.024
-473.259	193.722	-0.121	-0.184
-472.245	-93.281	-0.207	0.058
-471.230	-81.162	0.195	0.065
-470.216	424.552	0.037	0.079
-469.201	60.336	-0.196	-0.195
-468.186	84.083	-0.159	-0.175
-467.172	-200.000	0.032	-0.215
-466.157	-72.562	-0.205	-0.076
-465.143	-125.650	0.165	0.025
-464.128	800.000	-0.050	0.181
-463.113	-200.000	-0.003	0.264
-462.099	-99.213	-0.156	-0.040
-461.084	111.044	0.037	-0.045
-460.070	-137.123	-0.325	-0.037
-459.055	-33.577	-0.172	-0.095
-458.040	52.249	0.220	-0.211
-457.026	18.923	0.150	0.121
-456.011	57.461	-0.028	-0.027
-454.997	360.023	0.051	0.103
-453.982	439.478	-0.108	0.237
-452.968	-76.067	-0.209	0.074
-451.953	748.477	-0.084	0.227
-450.938	-76.442	0.354	-0.125
-449.924	7.015	0.246	0.184
-448.909	35.987	0.149	0.131
-447.895	800.000	-0.040	0.174
-446.880	72.012	0.064	-0.067
-445.865	71.638	0.065	-0.068
-444.851	-189.886	-0.116	0.001
-443.836	300.736	0.210	0.390
-442.822	621.213	0.104	0.263
-441.807	94.937	-0.030	0.034
-440.792	428.540	-0.082	-0.178
-439.778	25.440	0.152	-0.127
-438.763	800.000	-0.016	-0.066
-437.749	-200.000	0.029	0.376
-436.734	-29.596	-0.162	-0.093
-435.719	-62.188	-0.043	-0.018
-434.705	-38.807	-0.170	-0.090
-433.690	264.177	0.127	-0.222
-432.676	-200.000	-0.107	-0.498
-431.661	-109.712	-0.059	0.013
-430.646	23.164	0.188	0.155
-429.632	-153.864	-0.282	-0.019
-428.617	110.832	-0.082	-0.099
-427.603	-67.811	0.160	-0.063
-426.588	-90.065	-0.397	0.116
-425.573	56.245	0.059	0.058
-424.559	-200.000	0.038	-0.283
-423.544	90.330	0.114	0.128
-422.530	-55.751	0.171	0.076
-421.515	-54.358	-0.475	-0.216
-420.500	316.560	0.040	-0.075
-419.486	-200.000	0.031	-0.247
-418.471	46.305	0.161	-0.149
-417.457	-200.000	-0.024	0.123
-416.442	800.000	0.089	0.291
-415.428	-11.114	0.055	0.037
-414.413	222.856	-0.059	-0.095
-413.398	-30.969	0.120	0.068
-412.384	-111.771	0.226	-0.046
-411.369	-200.000	-0.007	0.153
-410.355	174.584	-0.101	0.147
-409.340	800.000	-0.064	0.189
-408.325	-37.229	-0.164	0.088
-407.311	677.331	-0.092	-0.239
-406.296	-183.191	-0.463	-0.008
-405.282	-200.000	-0.012	0.213
-404.267	-200.000	0.021	0.152
-403.252	37.569	-0.287	0.255
-402.238	800.000	0.099	-0.356
-401.223	800.000	-0.049	0.151
-400.209	85.134	0.111	-0.122
-399.194	285.548	-0.116	0.209
-398.179	325.179	-0.100	-0.191
-397.165	167.723	-0.055	0.079
-396.150	-72.910	-0.379	0.139
-395.136	-200.000	0.001	-0.215
-394.121	632.074	0.039	-0.098
-393.106	-50.832	-0.105	-0.049
-392.092	683.103	0.068	-0.177
-391.077	292.226	0.126	0.230
-390.063	198.727	-0.058	-0.089
-389.048	6.206	0.069	0.051
-388.033	800.000	-0.040	-0.151
-387.019	117.435	-0.188	-0.231
-386.004	315.539	-0.068	-0.128
-384.990	-65.217	0.184	-0.074
-383.975	-200.000	0.023	0.165
-382.960	364.559	0.060	-0.121
-381.946	800.000	0.072	-0.218
-380.931	39.076	-0.012	0.011
-379.917	-146.302	-0.426	-0.037
-378.902	-200.000	-0.014	-0.229
-377.888	800.000	0.053	0.228
-376.873	441.296	0.112	-0.246
-375.858	281.808	0.114	0.204
-374.844	244.628	0.041	-0.069
-373.829	32.867	0.273	0.237
-372.815	-29.843	-0.170	-0.097
-371.800	-35.307	0.124	-0.068
-370.785	54.302	-0.185	-0.178
-369.771	-120.210	0.110	-0.019
-368.756	-7.702	-0.293	0.198
-367.742	214.441	-0.194	0.308
-366.727	37.532	-0.286	0.254
-365.712	-65.945	-0.328	0.131
-364.698	339.533	0.265	0.517
-363.683	152.225	0.098	-0.134
-362.669	75.186	-0.101	0.107
-361.654	-104.521	0.302	-0.070
-360.639	113.130	-0.163	0.198
-359.625	-128.747	-0.153	-0.022
-358.610	800.000	-0.134	-0.411
-357.596	41.635	-0.177	0.160
-356.581	-200.000	0.059	0.403
-355.566	-200.000	-0.046	0.222
-354.552	-200.000	-0.036	0.496
-353.537	16.421	0.168	0.133
-352.523	-200.000	0.043	-0.221
-351.508	17.408	-0.163	0.129
-350.493	-63.603	0.009	-0.004
-349.479	-175.244	-0.204	0.006
-348.464	-200.000	0.032	-0.211
-347.450	-63.916	0.153	0.063
-346.435	101.846	-0.171	0.200
-345.420	-145.121	0.253	0.023
-344.406	-200.000	-0.011	-0.278
-343.391	178.507	-0.197	0.287
-342.377	510.089	-0.080	-0.185
-341.362	-143.689	0.311	-0.030
-340.348	-153.230	-0.196	0.014
-339.333	128.710	-0.132	-0.168
-338.318	-130.468	-0.124	0.017
-337.304	-99.740	-0.243	-0.061
-336.289	-91.593	-0.470	0.134
-335.275	381.553	0.161	0.329
-334.260	-143.022	-0.277	0.027
-333.245	91.108	-0.171	-0.192
-332.231	443.921	0.154	0.337
-331.216	46.638	-0.164	-0.152
-330.202	800.000	-0.032	0.115
-329.187	85.342	-0.106	-0.116
-328.172	97.289	-0.091	-0.105
-327.158	94.604	0.174	0.198
-326.143	483.518	-0.045	-0.103
-325.129	800.000	0.064	0.270
-324.114	23.203	0.150	-0.123
-323.099	-49.737	-0.082	-0.039
-322.085	-200.000	-0.025	0.192
-321.070	-200.000	-0.014	-0.221
-320.056	-157.722	-0.500	-0.030
-319.041	-100.128	0.245	-0.061
-318.026	800.000	0.021	0.067
-317.012	20.959	-0.219	0.177
-315.997	800.000	0.016	0.049
-314.983	569.264	-0.079	-0.192
-313.968	243.830	-0.100	0.167
-312.953	-4.407	-0.057	0.039
-311.939	79.487	-0.172	-0.184
-310.924	36.110	0.174	0.153
-309.910	13.302	0.051	-0.040
-308.895	141.181	0.127	-0.168
-307.880	-200.000	0.028	-0.333
-306.866	103.712	0.116	-0.137
-305.851	-200.000	0.013	0.059
-304.837	-122.444	0.396	-0.064
-303.822	-200.000	0.000	-0.101
-302.807	19.473	0.118	0.094
-301.793	-110.968	-0.076	0.016
-300.778	-8.798	-0.127	0.085
-299.764	-200.000	0.004	-0.146
-298.749	-128.003	0.257	-0.037
-297.735	13.023	0.226	0.175
-296.720	-121.026	0.067	0.011
-295.705	-200.000	-0.021	0.267
-294.691	54.334	0.196	0.188
-293.676	5.708	-0.112	0.083
-292.662	-200.000	0.016	-0.167
-291.647	94.087	-0.140	-0.158
-290.632	299.753	-0.170	-0.313
-289.618	485.769	-0.053	-0.120
-288.603	84.432	0.132	-0.144
-287.589	-153.416	-0.136	-0.009
-286.574	303.542	-0.060	-0.110
-285.559	433.203	0.097	-0.210
-284.545	597.302	0.077	-0.189
-283.530	-200.000	0.002	0.052
-282.516	89.047	-0.126	0.140
-281.501	169.167	0.045	0.064
-280.486	-76.429	-0.089	-0.031
-279.472	-110.976	-0.134	0.027
-278.457	-200.000	-0.005	-0.213
-277.443	187.753	0.177	-0.263
-276.428	-116.413	0.300	0.055
-275.413	-145.624	0.292	0.026
-274.399	160.571	0.077	0.107
-273.384	-33.195	-0.215	-0.119
-272.370	143.540	-0.121	-0.160
-271.355	73.158	-0.265	-0.276
-270.340	-64.813	-0.287	-0.116
-269.326	90.113	0.135	-0.150
-268.311	376.239	-0.113	-0.231
-267.297	-106.818	0.423	-0.094
-266.282	800.000	-0.048	-0.196
-265.267	-200.000	-0.002	0.044
-264.253	800.000	0.025	0.085
-263.238	-111.504	0.223	0.045
-262.224	151.822	0.147	0.200
-261.209	-164.299	0.514	-0.023
-260.195	-65.681	-0.149	-0.060
-259.180	800.000	0.129	0.393
-258.165	39.622	-0.149	0.133
-257.151	-122.772	-0.230	0.037
-256.136	1.403	-0.314	0.225
-255.122	498.922	-0.147	-0.338
-254.107	359.365	0.099	-0.197
-253.092	-189.079	0.192	0.002
-252.078	-96.914	-0.242	-0.063
-251.063	-37.998	-0.114	0.061
-250.049	-200.000	0.001	0.371
-249.034	-97.218	0.365	0.095
-248.019	24.204	-0.119	0.098
-247.005	800.000	0.082	-0.242
-245.990	159.654	-0.130	-0.181
-244.976	-200.000	-0.060	-0.286
-243.961	-75.137	0.211	-0.075
-242.946	-120.532	0.186	0.031
-241.932	228.253	0.074	-0.120
-240.917	800.000	0.052	0.177
-239.903	800.000	-0.073	0.251
-238.888	-128.106	0.379	-0.054
-237.873	402.436	-0.259	0.542
-236.859	327.239	0.094	0.180
-235.844	-42.646	-0.487	0.247
-234.830	36.078	0.148	0.130
-233.815	77.324	-0.104	-0.110
-232.800	800.000	-0.050	0.156
-231.786	-48.563	0.324	-0.155
-230.771	-200.000	-0.060	-0.320
-229.757	-200.000	0.003	0.257
-228.742	173.677	0.089	-0.127
-227.727	-6.169	-0.222	0.151
-226.713	-200.000	-0.050	-0.511
-225.698	72.488	0.075	0.078
-224.684	117.347	-0.205	0.250
-223.669	800.000	0.077	-0.233
-222.655	-143.081	-0.018	-0.002
-221.640	338.338	-0.049	-0.095
-220.625	-200.000	-0.062	0.326
-219.611	188.156	0.154	0.228
-218.596	-37.162	0.150	-0.080
-217.582	-46.883	0.019	-0.009
-216.567	131.514	0.100	-0.128
-215.552	-98.402	-0.152	0.039
-214.538	800.000	0.061	-0.210
-213.523	-161.601	0.207	-0.011
-212.509	-115.456	0.265	-0.050
-211.494	-200.000	-0.071	0.470
-210.479	-36.333	0.200	0.107
-209.465	-132.691	-0.198	0.025
-208.450	-24.276	0.073	-0.044
-207.436	800.000	-0.054	-0.227
-206.421	-57.820	0.067	0.029
-205.406	-167.332	0.336	0.013
-204.392	25.495	-0.091	-0.076
-203.377	-13.689	-0.293	-0.188
-202.363	800.000	-0.128	0.385
-201.348	177.929	0.215	0.312
-200.333	564.466	0.091	-0.220
-199.319	596.618	0.041	-0.100
-198.304	41.642	0.106	-0.095
-197.290	-43.524	-0.137	-0.069
-196.275	513.882	-0.233	0.539
-195.260	-143.539	-0.316	0.030
-194.246	-15.393	-0.161	-0.102
-193.231	81.277	0.135	-0.145
-192.217	676.476	0.179	0.462
-191.202	229.117	-0.040	-0.065
-190.187	-75.418	-0.181	-0.064
-189.173	316.583	0.140	0.264
-188.158	-38.348	0.272	-0.143
-187.144	123.497	-0.109	-0.135
-186.129	-42.856	-0.206	-0.104
-185.114	800.000	-0.072	0.250
-184.100	54.898	0.080	-0.077
-183.085	-147.323	-0.125	0.011
-182.071	-164.157	-0.079	-0.004
-181.056	-133.120	0.352	-0.044
-180.042	492.792	0.137	-0.312
-179.027	800.000	-0.048	-0.158
-178.012	800.000	0.055	-0.231
-176.998	-200.000	-0.001	-0.346
-175.983	-14.205	0.191	0.122
-174.969	-50.167	-0.132	0.062
-173.954	-126.525	-0.242	0.036
-172.939	352.635	0.108	0.213
-171.925	55.379	-0.195	0.187
-170.910	800.000	-0.077	0.304
-169.896	104.991	-0.081	0.095
-168.881	382.793	-0.114	-0.233
-167.866	-20.073	0.162	0.099
-166.852	249.735	-0.054	-0.091
-165.837	800.000	-0.057	-0.232
-164.823	-18.036	0.248	0.154
-163.808	75.371	-0.161	0.168
-162.793	-83.482	0.259	-0.082
-161.779	-77.299	0.154	-0.053
-160.764	-36.926	0.192	-0.102
-159.750	26.670	0.226	0.187
-158.735	101.069	0.157	0.182
-157.720	385.726	0.137	-0.281
-156.706	32.304	0.321	0.275
-155.691	-117.778	0.362	0.065
-154.677	-2.530	0.175	-0.121
-153.662	-6.314	0.105	-0.071
-152.647	63.045	0.161	0.160
-151.633	-200.000	-0.001	-0.271
-150.618	-200.000	-0.004	0.067
-149.604	-46.964	0.413	0.200
-148.589	139.102	0.100	-0.131
-147.574	-200.000	-0.049	-0.271
-146.560	800.000	0.054	-0.185
-145.545	722.801	0.138	-0.365
-144.531	-119.870	0.180	-0.031
-143.516	-200.000	-0.001	-0.017
-142.502	-118.563	0.390	0.068
-141.487	223.493	0.067	0.107
-140.472	95.162	-0.250	0.283
-139.458	-156.313	-0.132	0.008
-138.443	28.456	-0.184	0.154
-137.429	-140.505	0.319	-0.033
-136.414	-132.226	0.233	-0.030
-135.399	-69.893	-0.195	0.074
-134.385	218.695	0.080	0.127
-133.370	577.573	0.129	-0.313
-132.356	640.086	0.059	-0.148
-131.341	201.352	-0.187	-0.285
-130.326	-128.927	-0.150	-0.021
-129.312	800.000	0.106	0.373
-128.297	-200.000	-0.035	0.321
-127.283	14.054	0.136	0.105
-126.268	-200.000	-0.066	0.293
-125.253	-200.000	-0.015	-0.122
-124.239	14.731	-0.041	-0.032
-123.224	-33.120	-0.240	0.132
-122.210	-200.000	0.010	-0.128
-121.195	-200.000	-0.042	-0.308
