DTS Sentinel unit serial number:	SN413079Multiplexer serial number:	ORYXHardware model number:	OX4-SRSoftware version number:	ORYX F/W v4.00 Oryx Data Collector v3.7.2.0data status	okinstallation	princeton_trtdifferential loss correction	single-endedforward channel	channel 4reverse channel	N/Adate	2019/09/19time	02:49:34forward acquisition time	60.00reverse acquisition time	0.00gamma	496.2192k internal	0.2340k external	0.2340temperature offset calibration	1.0027default loss term (dB/km)	0.3790temperature slope calibration	1.0000multiplexer offset coefficient	1.0000multiplexer slope coefficient	1.0000fibre end	0.00T internal ref (°C)	20.89T ext. ref 1 (°C)	0.66T ext. ref 2 (°C)	14.70length (m)	temperature (°C)	Stokes	anti-Stokes-747.200	800.000	-0.014	0.054
-746.185	800.000	0.016	-0.046
-745.171	35.643	0.068	0.060
-744.156	-67.559	-0.342	0.134
-743.142	39.933	-0.364	0.328
-742.127	365.396	-0.203	0.410
-741.112	27.769	-0.227	0.192
-740.098	223.855	0.174	0.281
-739.083	-200.000	-0.069	0.349
-738.069	-200.000	-0.052	0.330
-737.054	35.145	-0.139	-0.122
-736.039	800.000	-0.046	-0.188
-735.025	-124.969	0.515	0.080
-734.010	24.837	-0.385	-0.320
-732.996	-145.274	-0.619	-0.056
-731.981	800.000	-0.089	0.283
-730.966	35.423	-0.417	-0.367
-729.952	-71.498	0.275	0.103
-728.937	54.793	0.096	-0.093
-727.923	-64.131	-0.057	0.023
-726.908	448.077	0.063	-0.140
-725.894	229.222	0.183	0.299
-724.879	-67.891	0.182	0.071
-723.864	-56.339	0.061	-0.027
-722.850	432.183	-0.051	0.110
-721.835	-200.000	-0.020	-0.150
-720.821	67.897	0.244	0.250
-719.806	800.000	-0.090	-0.312
-718.791	1.620	-0.138	-0.099
-717.777	-200.000	-0.058	-0.265
-716.762	-105.097	-0.233	-0.053
-715.748	124.689	-0.254	-0.321
-714.733	85.312	0.046	-0.050
-713.718	42.625	-0.253	-0.230
-712.704	-200.000	-0.015	-0.277
-711.689	-12.932	-0.378	-0.246
-710.675	89.728	-0.056	-0.063
-709.660	136.078	-0.188	-0.245
-708.645	800.000	-0.150	-0.577
-707.631	53.536	0.225	-0.216
-706.616	800.000	0.055	-0.164
-705.602	-145.871	0.365	-0.032
-704.587	774.504	0.070	-0.191
-703.572	800.000	-0.106	-0.372
-702.558	-160.806	0.203	-0.011
-701.543	-76.298	0.231	0.082
-700.529	-42.532	-0.143	-0.073
-699.514	-165.663	-0.059	0.003
-698.499	385.558	-0.211	-0.435
-697.485	-101.744	0.138	-0.033
-696.470	73.003	-0.158	-0.165
-695.456	14.392	-0.118	0.092
-694.441	152.105	-0.124	0.169
-693.426	-70.273	-0.233	0.089
-692.412	-80.770	0.127	-0.042
-691.397	-17.873	-0.200	-0.126
-690.383	-158.164	-0.201	-0.012
-689.368	10.283	-0.276	0.210
-688.354	55.422	0.096	0.093
-687.339	-20.504	0.182	0.112
-686.324	-19.929	-0.221	-0.136
-685.310	646.103	0.060	0.153
-684.295	-160.305	-0.155	-0.008
-683.281	-12.775	-0.092	0.060
-682.266	-200.000	0.001	-0.493
-681.251	-121.600	-0.186	-0.031
-680.237	-103.733	-0.414	0.097
-679.222	-200.000	-0.027	0.122
-678.208	-124.737	-0.303	0.047
-677.193	800.000	0.132	0.397
-676.178	-58.876	-0.151	0.065
-675.164	-85.963	-0.093	-0.029
-674.149	134.093	-0.060	-0.077
-673.135	-148.926	0.214	0.017
-672.120	205.108	-0.195	-0.303
-671.105	-184.665	-0.160	0.003
-670.091	-78.572	0.153	-0.052
-669.076	370.958	-0.038	-0.078
-668.062	104.530	0.246	-0.290
-667.047	195.971	-0.152	0.231
-666.032	800.000	-0.093	0.353
-665.018	-200.000	-0.009	-0.102
-664.003	-200.000	-0.006	0.059
-662.989	-43.960	-0.281	0.141
-661.974	-87.260	-0.469	0.142
-660.959	107.232	-0.139	-0.165
-659.945	87.749	-0.256	-0.283
-658.930	70.896	-0.089	0.092
-657.916	68.300	0.227	0.233
-656.901	85.778	-0.085	-0.093
-655.886	800.000	-0.048	0.172
-654.872	-190.965	0.450	-0.005
-653.857	800.000	-0.027	0.117
-652.843	694.162	0.155	-0.405
-651.828	800.000	0.022	0.065
-650.814	27.638	0.186	-0.157
-649.799	-200.000	0.065	0.306
-648.784	800.000	0.062	0.252
-647.770	81.827	-0.154	0.166
-646.755	-200.000	0.128	-0.001
-645.741	-200.000	0.003	0.236
-644.726	24.740	-0.271	0.224
-643.711	-107.284	0.239	-0.053
-642.697	290.244	-0.157	0.285
-641.682	800.000	-0.087	0.297
-640.668	-50.460	0.225	0.106
-639.653	-200.000	-0.050	-0.243
-638.638	800.000	0.037	-0.125
-637.624	29.389	-0.079	-0.067
-636.609	-150.751	0.018	0.001
-635.595	555.299	0.079	0.189
-634.580	-81.777	0.368	0.121
-633.565	10.186	0.046	0.035
-632.551	-60.305	0.490	0.208
-631.536	255.218	-0.061	-0.104
-630.522	-135.164	-0.349	0.042
-629.507	50.315	-0.048	0.045
-628.492	162.509	-0.208	-0.291
-627.478	141.723	0.253	0.334
-626.463	593.913	0.045	0.111
-625.449	139.333	-0.109	-0.143
-624.434	-96.506	-0.309	-0.081
-623.419	-96.869	-0.216	0.057
-622.405	102.134	0.131	0.153
-621.390	57.966	0.428	0.418
-620.376	-134.856	-0.390	0.047
-619.361	651.266	-0.035	0.090
-618.346	-82.090	0.285	-0.093
-617.332	187.681	0.169	0.252
-616.317	-200.000	0.010	0.081
-615.303	148.709	0.078	-0.105
-614.288	-200.000	0.038	0.262
-613.273	-170.901	-0.189	-0.006
-612.259	58.106	-0.160	-0.156
-611.244	800.000	0.072	0.261
-610.230	146.084	0.279	-0.374
-609.215	520.177	-0.082	-0.192
-608.201	-163.028	-0.216	0.010
-607.186	800.000	0.016	-0.067
-606.171	-39.027	-0.402	0.211
-605.157	-200.000	-0.034	-0.298
-604.142	-126.110	0.054	-0.008
-603.128	346.316	0.067	-0.132
-602.113	-182.209	0.284	-0.005
-601.098	-49.211	0.187	0.089
-600.084	94.061	0.097	0.110
-599.069	-200.000	-0.005	-0.165
-598.055	233.629	-0.052	-0.086
-597.040	200.102	-0.225	0.344
-596.025	-200.000	0.017	0.106
-595.011	363.050	0.092	-0.185
-593.996	55.745	0.257	-0.249
-592.982	3.640	-0.150	-0.109
-591.967	537.309	0.083	0.196
-590.952	-200.000	0.020	-0.152
-589.938	-83.841	-0.123	-0.039
-588.923	-153.191	-0.411	-0.029
-587.909	2.442	-0.109	-0.079
-586.894	-156.154	0.525	-0.033
-585.879	-168.271	-0.460	0.018
-584.865	-44.755	-0.384	-0.191
-583.850	-104.864	-0.121	0.028
-582.836	82.905	0.184	0.199
-581.821	22.549	-0.150	-0.122
-580.806	189.946	0.210	-0.314
-579.792	-200.000	0.018	-0.336
-578.777	-130.648	-0.177	-0.024
-577.763	-200.000	-0.020	0.137
-576.748	-167.273	0.661	0.027
-575.733	-200.000	-0.015	0.133
-574.719	20.306	0.321	0.258
-573.704	800.000	0.069	-0.288
-572.690	-200.000	-0.027	-0.249
-571.675	37.813	0.007	0.006
-570.661	372.513	0.142	-0.288
-569.646	-62.890	0.194	0.080
-568.631	-200.000	-0.012	-0.102
-567.617	485.505	-0.123	-0.280
-566.602	69.506	-0.174	-0.179
-565.588	239.287	0.221	0.366
-564.573	800.000	-0.055	-0.186
-563.558	2.970	0.235	-0.170
-562.544	-39.517	0.179	-0.093
-561.529	109.683	-0.055	-0.065
-560.515	27.360	0.340	-0.284
-559.500	-103.330	-0.289	0.068
-558.485	47.739	0.179	-0.166
-557.471	-110.218	0.261	-0.054
-556.456	-200.000	0.026	0.152
-555.442	-31.798	-0.211	-0.118
-554.427	-43.575	-0.136	0.068
-553.412	203.251	0.276	-0.425
-552.398	132.393	0.167	-0.214
-551.383	322.039	-0.012	-0.024
-550.369	-143.771	0.147	-0.014
-549.354	-200.000	0.037	0.269
-548.339	-121.029	0.029	-0.005
-547.325	690.692	0.031	-0.081
-546.310	111.797	0.222	-0.267
-545.296	800.000	-0.023	0.075
-544.281	407.880	-0.131	0.276
-543.266	-108.492	-0.319	0.068
-542.252	800.000	-0.017	0.055
-541.237	800.000	-0.046	-0.158
-540.223	-56.861	0.275	-0.121
-539.208	-200.000	-0.016	-0.135
-538.193	-154.864	0.139	0.009
-537.179	-28.218	-0.283	0.163
-536.164	-200.000	0.007	-0.111
-535.150	210.011	0.107	-0.168
-534.135	-200.000	-0.010	0.062
-533.121	-105.605	-0.381	0.086
-532.106	156.319	-0.050	-0.069
-531.091	800.000	0.058	0.190
-530.077	84.259	-0.252	-0.274
-529.062	565.414	0.028	-0.068
-528.048	-148.964	-0.169	0.014
-527.033	-52.974	0.331	-0.151
-526.018	-151.961	0.125	0.009
-525.004	-133.560	0.121	0.015
-523.989	222.680	-0.148	0.236
-522.975	-47.435	0.206	-0.100
-521.960	33.230	0.160	0.138
-520.945	47.064	-0.279	-0.258
-519.931	800.000	-0.058	-0.181
-518.916	404.953	-0.043	0.091
-517.902	-200.000	-0.029	0.300
-516.887	25.854	0.109	-0.090
-515.872	-144.747	0.246	0.022
-514.858	-200.000	-0.022	0.388
-513.843	46.872	0.325	0.300
-512.829	100.896	0.067	-0.077
-511.814	-200.000	0.013	-0.197
-510.799	550.619	-0.061	-0.146
-509.785	66.911	-0.121	0.122
-508.770	-200.000	-0.041	-0.199
-507.756	659.846	-0.142	0.362
-506.741	-92.595	0.185	0.052
-505.726	800.000	0.035	-0.152
-504.712	-198.008	0.168	-0.001
-503.697	260.443	0.092	0.157
-502.683	66.299	-0.310	-0.313
-501.668	-200.000	-0.033	0.273
-500.653	-200.000	-0.054	0.266
-499.639	-123.877	-0.174	0.027
-498.624	124.236	-0.110	0.137
-497.610	-30.465	-0.200	0.112
-496.595	29.301	-0.217	-0.183
-495.581	-107.572	-0.553	0.120
-494.566	-200.000	0.005	-0.126
-493.551	39.376	-0.129	0.115
-492.537	-200.000	0.024	-0.263
-491.522	-200.000	-0.019	-0.239
-490.508	-9.170	-0.260	0.173
-489.493	-141.737	-0.307	-0.031
-488.478	118.766	-0.094	0.115
-487.464	800.000	0.061	0.189
-486.449	315.705	-0.207	-0.387
-485.435	-35.641	-0.099	-0.053
-484.420	-73.416	0.384	0.139
-483.405	343.742	-0.152	-0.296
-482.391	-139.221	0.182	0.019
-481.376	66.270	-0.146	-0.147
-480.362	-20.234	0.136	0.083
-479.347	-200.000	-0.020	0.088
-478.332	120.129	-0.115	-0.142
-477.318	48.824	-0.299	0.279
-476.303	156.506	0.304	-0.417
-475.289	-84.142	-0.151	0.048
-474.274	258.858	-0.071	-0.121
-473.259	231.259	-0.130	0.212
-472.245	296.471	-0.059	0.108
-471.230	-64.709	0.291	0.117
-470.216	800.000	-0.125	-0.359
-469.201	469.575	0.108	-0.241
-468.186	-172.095	0.133	-0.004
-467.172	-182.121	-0.345	0.006
-466.157	236.385	0.020	0.033
-465.143	41.529	-0.481	0.432
-464.128	-33.630	0.278	-0.152
-463.113	800.000	-0.098	-0.320
-462.099	-70.457	-0.105	0.039
-461.084	-103.383	0.192	-0.045
-460.070	-73.933	-0.327	-0.118
-459.055	-55.060	-0.108	0.048
-458.040	-10.758	-0.158	0.104
-457.026	-200.000	0.030	-0.148
-456.011	-99.736	-0.221	-0.055
-454.997	58.574	0.163	-0.159
-453.982	424.957	0.076	-0.162
-452.968	-200.000	-0.029	0.197
-451.953	-57.773	-0.223	0.097
-450.938	-59.336	0.083	-0.035
-449.924	-200.000	0.041	0.235
-448.909	-110.273	0.227	-0.047
-447.895	73.232	0.146	-0.151
-446.880	252.396	0.105	0.177
-445.865	90.891	-0.040	0.045
-444.851	52.967	0.111	0.105
-443.836	-126.776	-0.005	0.001
-442.822	101.170	-0.279	-0.322
-441.807	800.000	-0.020	-0.069
-440.792	-13.971	-0.308	-0.197
-439.778	-131.550	-0.148	-0.019
-438.763	-200.000	0.000	-0.061
-437.749	-81.593	0.281	-0.092
-436.734	-42.010	-0.195	0.099
-435.719	131.680	0.219	-0.279
-434.705	242.583	-0.036	0.060
-433.690	-5.469	0.077	0.052
-432.676	800.000	0.046	-0.143
-431.661	-150.744	-0.207	0.016
-430.646	-200.000	-0.011	-0.107
-429.632	-200.000	0.049	-0.231
-428.617	-148.978	-0.027	-0.002
-427.603	249.509	0.082	-0.138
-426.588	-29.059	-0.029	-0.016
-425.573	-27.538	0.173	-0.099
-424.559	129.415	-0.169	0.214
-423.544	-200.000	-0.051	0.239
-422.530	124.426	0.072	-0.090
-421.515	-158.763	0.074	0.004
-420.500	-42.184	-0.199	-0.101
-419.486	-89.973	0.115	-0.033
-418.471	-200.000	0.003	0.241
-417.457	524.954	-0.119	-0.277
-416.442	508.834	-0.105	-0.242
-415.428	-169.838	0.555	0.020
-414.413	167.978	-0.124	0.175
-413.398	160.397	-0.073	-0.101
-412.384	83.402	0.169	0.182
-411.369	-59.742	-0.463	0.196
-410.355	-200.000	-0.031	-0.213
-409.340	-89.959	-0.327	0.094
-408.325	-64.429	-0.363	0.146
-407.311	-200.000	0.075	-0.427
-406.296	-91.693	0.139	-0.039
-405.282	-130.384	-0.183	-0.025
-404.267	-69.833	0.414	-0.156
-403.252	196.264	-0.089	-0.134
-402.238	-200.000	-0.061	0.294
-401.223	17.207	0.232	-0.182
-400.209	-82.142	0.101	0.033
-399.194	-154.850	-0.087	0.006
-398.179	-36.821	-0.165	0.088
-397.165	-200.000	-0.019	0.237
-396.150	800.000	-0.089	0.256
-395.136	31.573	0.213	0.182
-394.121	-119.532	-0.402	-0.069
-393.106	-65.066	0.064	0.026
-392.092	139.840	0.128	0.167
-391.077	-98.144	0.418	0.106
-390.063	-200.000	0.013	-0.232
-389.048	-200.000	-0.007	-0.119
-388.033	28.264	0.111	-0.093
-387.019	-130.124	0.300	-0.040
-386.004	-7.671	-0.078	0.052
-384.990	800.000	-0.139	-0.457
-383.975	-133.252	0.531	0.066
-382.960	8.202	0.021	-0.016
-381.946	800.000	-0.066	0.186
-380.931	-200.000	0.000	-0.022
-379.917	-76.245	-0.304	-0.106
-378.902	-200.000	0.034	0.516
-377.888	135.305	0.076	0.098
-376.873	-27.746	-0.121	-0.070
-375.858	-200.000	-0.033	0.211
-374.844	-84.909	0.127	-0.040
-373.829	-42.858	0.139	0.070
-372.815	-169.420	-0.306	-0.011
-371.800	800.000	0.042	-0.154
-370.785	206.128	-0.095	0.145
-369.771	-30.550	-0.386	0.216
-368.756	-36.225	0.252	-0.135
-367.742	-127.952	-0.141	0.020
-366.727	-106.011	-0.201	0.045
-365.712	-150.566	0.231	-0.017
-364.698	29.862	-0.297	-0.250
-363.683	-50.070	0.017	0.008
-362.669	80.839	-0.213	0.227
-361.654	800.000	-0.075	-0.254
-360.639	-27.941	0.114	-0.065
-359.625	-84.276	-0.139	0.043
-358.610	82.763	-0.051	-0.055
-357.596	-125.227	0.082	-0.012
-356.581	-154.684	-0.195	0.013
-355.566	-200.000	-0.067	-0.458
-354.552	682.686	-0.117	0.300
-353.537	791.046	0.052	0.142
-352.523	-34.230	0.211	0.114
-351.508	-38.515	-0.152	0.079
-350.493	-64.732	0.351	0.141
-349.479	800.000	0.091	-0.250
-348.464	-31.149	0.422	0.235
-347.450	-200.000	-0.051	0.377
-346.435	85.363	0.149	-0.161
-345.420	-142.391	-0.403	0.039
-344.406	-64.484	0.230	0.092
-343.391	-200.000	-0.025	-0.497
-342.377	800.000	-0.132	0.465
-341.362	-15.932	0.204	-0.128
-340.348	-143.627	0.211	0.020
-339.333	-200.000	-0.002	0.101
-338.318	-91.373	-0.187	0.053
-337.304	-46.567	-0.152	0.074
-336.289	4.008	0.265	-0.191
-335.275	43.958	0.262	-0.237
-334.260	-200.000	0.005	-0.022
-333.245	800.000	-0.091	-0.261
-332.231	147.421	-0.064	0.085
-331.216	800.000	0.137	0.508
-330.202	32.013	0.175	0.148
-329.187	58.746	0.315	-0.305
-328.172	-200.000	0.004	-0.195
-327.158	800.000	-0.065	-0.221
-326.143	800.000	-0.039	0.137
-325.129	-200.000	0.008	0.315
-324.114	800.000	-0.012	-0.045
-323.099	-37.891	-0.143	0.075
-322.085	-157.312	-0.333	-0.020
-321.070	-74.665	0.192	0.068
-320.056	11.384	-0.254	-0.192
-319.041	-7.465	0.190	0.127
-318.026	15.975	-0.228	0.177
-317.012	-145.458	0.046	-0.004
-315.997	15.319	0.217	0.168
-314.983	-108.009	0.243	0.052
-313.968	188.604	-0.063	0.093
-312.953	-23.693	-0.107	-0.063
-311.939	-65.716	-0.468	-0.185
-310.924	68.083	-0.128	-0.129
-309.910	156.700	0.077	-0.106
-308.895	-75.918	-0.473	0.165
-307.880	-62.119	-0.089	0.037
-306.866	34.030	-0.127	0.109
-305.851	-34.187	-0.090	-0.049
-304.837	414.948	0.130	0.273
-303.822	491.951	0.057	-0.129
-302.807	-82.991	0.104	0.033
-301.793	-9.923	-0.272	0.178
-300.778	-200.000	-0.044	-0.280
-299.764	215.704	-0.048	-0.075
-298.749	166.056	0.195	0.272
-297.735	0.643	-0.068	0.048
-296.720	493.421	-0.094	-0.213
-295.705	-65.713	0.262	-0.103
-294.691	91.321	-0.186	0.206
-293.676	800.000	-0.039	0.125
-292.662	-80.504	-0.168	0.055
-291.647	402.467	-0.100	0.207
-290.632	-111.876	0.149	-0.030
-289.618	-78.550	0.127	-0.043
-288.603	-200.000	-0.072	-0.329
-287.589	-187.271	-0.303	0.004
-286.574	213.043	-0.116	0.180
-285.559	800.000	-0.097	0.366
-284.545	-156.830	-0.165	-0.010
-283.530	-151.600	-0.355	0.026
-282.516	800.000	-0.072	-0.217
-281.501	54.940	-0.328	0.312
-280.486	-200.000	0.287	-0.000
-279.472	26.843	-0.208	-0.172
-278.457	-64.286	-0.299	0.120
-277.443	-109.475	0.132	-0.027
-276.428	-29.721	-0.222	0.125
-275.413	-200.000	0.011	0.388
-274.399	-200.000	0.022	0.466
-273.384	166.878	-0.261	0.365
-272.370	-31.734	0.372	-0.206
-271.355	-200.000	-0.002	-0.157
-270.340	-200.000	-0.007	-0.256
-269.326	698.950	-0.062	-0.161
-268.311	-200.000	-0.016	-0.145
-267.297	55.333	-0.135	-0.128
-266.282	-19.787	0.240	-0.146
-265.267	41.437	0.230	0.205
-264.253	344.201	-0.148	-0.286
-263.238	126.058	0.131	-0.163
-262.224	-139.083	0.197	-0.021
-261.209	-64.612	0.314	0.125
-260.195	-58.758	-0.320	0.136
-259.180	268.551	0.116	0.201
-258.165	-134.958	0.141	0.017
-257.151	800.000	-0.077	-0.289
-256.136	527.222	-0.038	-0.088
-255.122	-200.000	-0.070	0.305
-254.107	87.781	0.225	-0.245
-253.092	-94.097	0.409	-0.110
-252.078	23.368	-0.387	0.313
-251.063	-108.013	-0.431	-0.092
-250.049	208.914	0.111	-0.171
-249.034	-76.304	-0.196	-0.068
-248.019	-5.746	0.053	-0.036
-247.005	-101.688	0.075	0.018
-245.990	-26.556	0.227	0.131
-244.976	-27.326	0.318	-0.182
-243.961	87.222	-0.190	-0.207
-242.946	121.447	-0.076	0.093
-241.932	-133.070	0.048	0.006
-240.917	-200.000	0.025	-0.318
-239.903	147.366	0.182	0.241
-238.888	800.000	0.039	-0.143
-237.873	-200.000	-0.002	0.108
-236.859	-104.713	0.102	0.023
-235.844	-200.000	0.017	0.092
-234.830	23.130	-0.173	0.139
-233.815	-200.000	0.006	0.269
-232.800	-63.103	0.404	0.164
-231.786	-127.023	-0.029	0.004
-230.771	-200.000	0.059	-0.337
-229.757	16.568	0.166	0.129
-228.742	-40.137	0.275	0.141
-227.727	-77.463	0.269	-0.092
-226.713	-72.086	0.149	-0.055
-225.698	-69.599	0.417	-0.157
-224.684	-101.684	0.367	-0.087
-223.669	-59.219	-0.267	-0.113
-222.655	-200.000	-0.021	-0.123
-221.640	73.083	0.063	0.064
-220.625	-184.843	-0.231	0.004
-219.611	43.875	0.098	-0.088
-218.596	800.000	0.092	0.301
-217.582	322.168	-0.202	-0.378
-216.567	30.072	0.174	-0.145
-215.552	190.897	0.137	0.203
-214.538	800.000	0.057	0.194
-213.523	532.031	0.266	-0.618
-212.509	800.000	-0.050	0.141
-211.494	41.441	-0.115	0.102
-210.479	288.228	-0.131	0.232
-209.465	-51.884	-0.295	-0.135
-208.450	-55.879	0.328	0.144
-207.436	132.484	0.086	-0.109
-206.421	-88.793	-0.292	-0.085
-205.406	90.315	0.063	-0.069
-204.392	-122.766	0.399	-0.063
-203.377	121.942	0.240	-0.294
-202.363	-14.779	0.007	-0.005
-201.348	-131.814	0.065	0.008
-200.333	-120.690	-0.286	-0.048
-199.319	-200.000	-0.007	-0.075
-198.304	-200.000	0.001	0.046
-197.290	-33.002	-0.189	0.103
-196.275	-21.408	0.162	-0.097
-195.260	373.302	0.096	0.191
-194.246	-125.647	0.347	-0.052
-193.231	49.979	0.099	0.092
-192.217	800.000	-0.031	0.112
-191.202	-4.807	0.115	0.078
-190.187	96.671	0.174	-0.195
-189.173	5.033	-0.187	-0.135
-188.158	60.579	0.147	-0.143
-187.144	-16.134	0.120	-0.075
-186.129	616.208	0.061	0.151
-185.114	-52.578	0.020	-0.009
-184.100	48.740	0.247	0.227
-183.085	-200.000	0.014	-0.105
-182.071	47.241	0.236	-0.215
-181.056	-200.000	-0.014	-0.238
-180.042	475.408	0.069	0.153
-179.027	-22.521	0.140	0.083
-178.012	-200.000	0.036	-0.293
-176.998	-200.000	-0.012	0.080
-175.983	38.923	-0.260	0.227
-174.969	-46.241	-0.578	-0.279
-173.954	168.472	-0.210	0.293
-172.939	-28.934	-0.181	0.102
-171.925	-1.985	0.166	0.114
-170.910	65.339	-0.058	-0.058
-169.896	-24.047	-0.390	0.228
-168.881	-200.000	0.042	-0.186
-167.866	-184.761	0.277	0.004
-166.852	-200.000	-0.094	0.466
-165.837	-200.000	0.007	-0.206
-164.823	-161.721	0.346	-0.017
-163.808	104.851	0.144	-0.166
-162.793	800.000	-0.088	0.326
-161.779	-200.000	0.083	0.421
-160.764	-200.000	-0.006	0.306
-159.750	-52.643	-0.257	-0.116
-158.735	-34.573	0.431	-0.231
-157.720	79.494	-0.281	0.295
-156.706	144.319	0.098	-0.129
-155.691	478.037	-0.103	-0.228
-154.677	370.373	0.049	0.098
-153.662	800.000	-0.115	0.356
-152.647	800.000	0.041	0.113
-151.633	262.498	-0.116	-0.197
-150.618	368.796	0.039	0.076
-149.604	6.139	-0.062	0.045
-148.589	-133.686	0.266	0.033
-147.574	-115.166	0.208	0.039
-146.560	-90.418	0.319	0.091
-145.545	386.097	0.057	-0.115
-144.531	800.000	-0.109	-0.437
-143.516	414.882	0.145	-0.303
-142.502	329.007	-0.094	0.176
-141.487	526.056	0.027	0.062
-140.472	127.932	0.105	0.131
-139.458	-93.908	-0.508	0.137
-138.443	65.418	-0.165	-0.163
-137.429	31.214	0.127	0.106
-136.414	538.826	-0.106	0.248
-135.399	383.626	0.101	-0.204
-134.385	-29.533	0.159	0.089
-133.370	-200.000	-0.011	-0.273
-132.356	-200.000	0.039	-0.173
-131.341	89.311	0.104	0.113
-130.326	114.931	-0.082	-0.097
-129.312	-117.807	0.136	-0.024
-128.297	-200.000	-0.011	0.385
-127.283	-101.910	0.331	-0.078
-126.268	-200.000	0.011	0.186
-125.253	284.076	0.135	0.238
-124.239	-76.725	-0.049	0.017
-123.224	113.808	-0.103	0.123
-122.210	78.530	0.057	-0.059
