DTS Sentinel unit serial number:	SN413079Multiplexer serial number:	ORYXHardware model number:	OX4-SRSoftware version number:	ORYX F/W v4.00 Oryx Data Collector v3.7.2.0data status	okinstallation	princeton_trtdifferential loss correction	single-endedforward channel	channel 4reverse channel	N/Adate	2019/09/11time	00:39:11forward acquisition time	60.00reverse acquisition time	0.00gamma	496.2192k internal	0.2317k external	0.2317temperature offset calibration	0.9949default loss term (dB/km)	0.3790temperature slope calibration	1.0000multiplexer offset coefficient	1.0000multiplexer slope coefficient	1.0000fibre end	0.00T internal ref (°C)	29.19T ext. ref 1 (°C)	-0.31T ext. ref 2 (°C)	22.99length (m)	temperature (°C)	Stokes	anti-Stokes-747.200	-121.174	-0.338	-0.057
-746.185	-187.680	0.315	0.004
-745.171	-120.683	0.360	-0.062
-744.156	-158.854	-0.428	-0.025
-743.142	-178.660	0.057	0.001
-742.127	143.114	0.115	0.155
-741.112	-120.012	-0.223	-0.039
-740.098	316.576	0.077	-0.147
-739.083	-105.889	0.079	0.018
-738.069	-200.000	0.011	-0.209
-737.054	118.465	-0.124	-0.154
-736.039	533.729	-0.038	-0.092
-735.025	-200.000	0.010	-0.274
-734.010	-5.820	-0.048	-0.034
-732.996	-112.901	-0.486	0.097
-731.981	-165.595	0.127	-0.006
-730.966	93.303	-0.108	0.124
-729.952	-73.671	-0.132	-0.049
-728.937	603.488	-0.055	-0.140
-727.923	-200.000	-0.030	0.203
-726.908	-200.000	-0.046	0.356
-725.894	-27.274	0.397	-0.234
-724.879	30.790	-0.353	0.306
-723.864	216.590	0.185	-0.297
-722.850	25.259	-0.053	-0.045
-721.835	-200.000	0.004	0.173
-720.821	-200.000	0.006	-0.063
-719.806	-200.000	-0.030	0.293
-718.791	-45.081	-0.281	-0.142
-717.777	800.000	0.118	0.363
-716.762	196.914	0.116	-0.179
-715.748	-27.417	-0.098	0.058
-714.733	5.158	0.101	0.075
-713.718	-105.282	-0.081	0.019
-712.704	-58.787	-0.174	0.076
-711.689	223.477	-0.150	-0.244
-710.675	800.000	-0.071	-0.229
-709.660	142.006	-0.142	0.190
-708.645	36.390	0.156	0.139
-707.631	71.627	-0.125	0.131
-706.616	85.106	0.184	-0.204
-705.602	66.414	-0.171	-0.176
-704.587	-85.937	0.250	0.078
-703.572	800.000	-0.075	0.293
-702.558	-67.787	-0.115	-0.045
-701.543	-121.611	-0.455	-0.076
-700.529	209.579	0.095	0.151
-699.514	-106.028	0.117	0.027
-698.499	13.854	-0.150	0.118
-697.485	-177.890	0.462	0.011
-696.470	-153.710	-0.090	-0.006
-695.456	100.547	-0.141	0.166
-694.441	38.121	-0.224	0.201
-693.426	68.879	-0.234	-0.243
-692.412	168.926	0.211	-0.304
-691.397	800.000	0.083	0.330
-690.383	70.148	-0.264	-0.275
-689.368	-200.000	-0.047	-0.297
-688.354	-109.022	-0.231	-0.050
-687.339	-34.134	0.184	0.102
-686.324	-119.900	0.375	0.065
-685.310	-117.762	0.287	-0.052
-684.295	135.417	0.076	-0.099
-683.281	47.964	-0.044	0.041
-682.266	443.823	0.111	0.245
-681.251	-49.831	-0.103	0.049
-680.237	-200.000	0.010	-0.216
-679.222	27.897	-0.148	0.126
-678.208	-200.000	-0.004	0.076
-677.193	-41.011	0.203	0.106
-676.178	-200.000	0.052	0.329
-675.164	131.687	-0.023	-0.030
-674.149	-200.000	-0.061	-0.423
-673.135	-36.643	0.113	-0.061
-672.120	-200.000	0.006	0.205
-671.105	-120.446	-0.243	-0.042
-670.091	162.872	-0.020	0.029
-669.076	-42.788	0.067	0.034
-668.062	199.585	-0.072	0.112
-667.047	800.000	-0.035	0.118
-666.032	88.541	-0.098	-0.110
-665.018	-21.792	-0.109	-0.067
-664.003	-137.060	-0.140	-0.016
-662.989	-35.697	-0.273	0.150
-661.974	-39.305	-0.217	-0.115
-660.959	18.615	0.123	0.100
-659.945	-131.733	-0.046	-0.006
-658.930	-179.998	0.155	0.003
-657.916	-144.831	0.348	-0.032
-656.901	-200.000	-0.054	-0.285
-655.886	33.270	0.181	0.158
-654.872	800.000	-0.098	-0.375
-653.857	-88.807	-0.072	0.022
-652.843	-200.000	0.041	-0.290
-651.828	63.219	0.138	-0.140
-650.814	-29.379	-0.167	-0.096
-649.799	100.452	-0.228	-0.267
-648.784	-151.781	-0.295	-0.022
-647.770	142.606	0.077	-0.104
-646.755	-33.952	-0.137	0.076
-645.741	-43.601	-0.219	-0.111
-644.726	13.858	0.181	-0.142
-643.711	-200.000	-0.008	-0.172
-642.697	357.693	0.164	-0.330
-641.682	800.000	0.031	-0.102
-640.668	117.014	-0.131	-0.163
-639.653	-200.000	-0.088	0.393
-638.638	-1.433	-0.212	0.151
-637.624	800.000	0.084	-0.277
-636.609	-169.352	0.182	-0.007
-635.595	129.255	-0.109	0.141
-634.580	-149.563	-0.150	0.012
-633.565	-200.000	-0.038	-0.306
-632.551	-200.000	-0.010	-0.087
-631.536	-200.000	-0.031	-0.165
-630.522	-42.484	0.371	-0.191
-629.507	-200.000	0.017	0.093
-628.492	233.376	-0.150	-0.249
-627.478	-14.055	-0.106	0.069
-626.463	87.489	-0.119	-0.133
-625.449	194.537	-0.129	0.197
-624.434	-9.730	0.300	-0.201
-623.419	800.000	-0.043	-0.155
-622.405	165.035	-0.142	-0.202
-621.390	-19.343	0.137	-0.085
-620.376	-113.803	-0.091	0.018
-619.361	-91.439	0.127	-0.037
-618.346	175.748	-0.142	-0.208
-617.332	-114.809	0.288	-0.055
-616.317	-138.923	0.299	-0.033
-615.303	23.987	0.158	-0.132
-614.288	-117.666	0.094	-0.017
-613.273	108.586	0.097	-0.116
-612.259	540.753	-0.022	0.053
-611.244	-172.786	-0.373	-0.012
-610.230	95.062	0.087	-0.100
-609.215	350.718	0.046	-0.091
-608.201	-44.397	-0.249	-0.126
-607.186	-200.000	0.042	0.247
-606.171	314.281	-0.101	0.191
-605.157	-200.000	-0.028	-0.135
-604.142	-200.000	-0.002	0.026
-603.128	800.000	-0.078	0.238
-602.113	-48.418	-0.250	-0.121
-601.098	-200.000	0.001	-0.312
-600.084	226.846	-0.093	-0.152
-599.069	-200.000	0.036	-0.162
-598.055	131.502	0.058	-0.075
-597.040	-200.000	0.056	0.284
-596.025	52.562	-0.198	0.190
-595.011	4.335	-0.045	0.033
-593.996	201.908	0.178	-0.276
-592.982	549.461	-0.216	-0.521
-591.967	-177.078	0.168	-0.004
-590.952	280.077	0.165	0.297
-589.938	-110.445	-0.454	0.095
-588.923	-75.626	-0.092	-0.033
-587.909	-128.634	0.105	-0.015
-586.894	800.000	-0.032	0.138
-585.879	800.000	0.085	-0.355
-584.865	-68.839	0.373	-0.145
-583.850	-149.825	0.414	0.033
-582.836	194.488	0.123	0.188
-581.821	-115.207	-0.261	-0.050
-580.806	800.000	0.037	-0.122
-579.792	-200.000	0.000	-0.154
-578.777	137.465	-0.000	0.000
-577.763	-200.000	0.019	0.180
-576.748	800.000	-0.031	0.093
-575.733	-200.000	0.015	0.459
-574.719	89.748	-0.164	0.184
-573.704	-3.702	0.261	0.182
-572.690	183.033	-0.111	-0.165
-571.675	107.294	-0.048	0.057
-570.661	226.032	0.038	-0.062
-569.646	43.474	0.023	0.021
-568.631	-200.000	0.018	-0.205
-567.617	-43.903	0.049	0.025
-566.602	19.304	-0.154	0.125
-565.588	245.736	0.287	0.486
-564.573	-20.147	-0.132	-0.082
-563.558	800.000	-0.065	-0.286
-562.544	675.307	0.050	0.131
-561.529	90.340	-0.137	-0.155
-560.515	-29.357	-0.344	0.198
-559.500	-56.350	-0.100	0.045
-558.485	65.890	-0.169	-0.172
-557.471	137.758	0.129	-0.170
-556.456	-147.381	-0.077	-0.007
-555.442	-114.461	0.284	-0.055
-554.427	570.936	0.084	-0.204
-553.412	-164.914	0.466	0.021
-552.398	-9.403	-0.364	0.244
-551.383	-135.391	-0.231	0.028
-550.369	289.504	-0.086	0.156
-549.354	800.000	-0.065	-0.215
-548.339	42.623	0.064	-0.058
-547.325	185.549	0.143	-0.213
-546.310	-200.000	-0.007	0.348
-545.296	-103.476	0.219	-0.052
-544.281	-123.165	0.328	-0.053
-543.266	-93.318	-0.195	0.054
-542.252	-105.227	0.212	0.049
-541.237	221.588	-0.125	-0.201
-540.223	-104.564	-0.249	-0.058
-539.208	75.655	-0.123	0.130
-538.193	800.000	-0.052	-0.147
-537.179	225.150	-0.200	-0.325
-536.164	159.048	-0.159	0.222
-535.150	800.000	0.038	0.163
-534.135	222.004	0.018	-0.029
-533.121	-33.308	-0.343	0.190
-532.106	-200.000	0.012	-0.175
-531.091	-69.368	-0.020	0.008
-530.077	197.688	-0.030	-0.046
-529.062	-200.000	0.001	-0.066
-528.048	-146.144	-0.268	-0.024
-527.033	27.138	0.167	0.141
-526.018	47.794	0.307	0.287
-525.004	-104.344	-0.193	0.045
-523.989	54.731	0.172	0.167
-522.975	8.606	-0.291	-0.220
-521.960	-200.000	-0.061	-0.291
-520.945	-98.090	0.442	-0.114
-519.931	-94.569	-0.208	-0.057
-518.916	47.736	-0.188	-0.176
-517.902	-68.018	0.216	0.085
-516.887	800.000	-0.077	-0.234
-515.872	-200.000	-0.018	-0.150
-514.858	-200.000	-0.044	0.328
-513.843	265.986	-0.122	-0.213
-512.829	-141.746	-0.148	0.015
-511.814	217.201	0.102	-0.163
-510.799	84.315	-0.111	0.121
-509.785	217.726	0.186	0.298
-508.770	50.834	0.410	0.390
-507.756	-139.360	0.296	-0.032
-506.741	-64.821	-0.271	-0.110
-505.726	-31.233	-0.123	-0.069
-504.712	106.808	0.171	-0.203
-503.697	800.000	-0.050	-0.166
-502.683	428.866	-0.087	0.189
-501.668	-200.000	0.004	0.132
-500.653	-200.000	-0.016	-0.176
-499.639	-40.732	-0.128	0.066
-498.624	-92.152	-0.206	-0.058
-497.610	25.350	-0.288	-0.240
-496.595	129.347	0.328	0.420
-495.581	43.417	0.127	-0.116
-494.566	-87.548	0.193	0.058
-493.551	-37.651	-0.149	0.080
-492.537	-200.000	-0.034	0.184
-491.522	-2.727	-0.127	0.089
-490.508	566.574	0.030	0.073
-489.493	-200.000	0.019	0.499
-488.478	19.718	0.248	0.200
-487.464	80.457	0.056	0.061
-486.449	-118.609	0.175	-0.031
-485.435	-164.047	-0.166	0.008
-484.420	800.000	0.038	0.155
-483.405	800.000	0.035	0.128
-482.391	800.000	-0.074	-0.303
-481.376	53.845	-0.113	0.108
-480.362	-75.901	0.085	-0.030
-479.347	178.968	-0.158	-0.232
-478.332	113.144	0.231	0.281
-477.318	309.313	0.033	0.062
-476.303	800.000	0.053	-0.155
-475.289	183.127	0.067	0.099
-474.274	-159.269	0.244	0.014
-473.259	76.920	0.282	-0.300
-472.245	91.839	-0.216	0.244
-471.230	-88.254	0.214	0.064
-470.216	34.679	-0.144	0.126
-469.201	-14.791	-0.148	0.095
-468.186	800.000	0.087	0.243
-467.172	25.102	-0.264	-0.219
-466.157	767.373	-0.021	-0.056
-465.143	-200.000	-0.023	-0.234
-464.128	-77.751	-0.038	-0.013
-463.113	-66.729	0.176	0.070
-462.099	-200.000	0.052	0.340
-461.084	217.455	0.236	0.377
-460.070	9.330	-0.245	-0.185
-459.055	-128.994	0.433	0.061
-458.040	210.388	-0.161	0.254
-457.026	-11.028	-0.178	0.118
-456.011	60.958	0.099	-0.098
-454.997	334.236	-0.058	-0.113
-453.982	-149.362	-0.014	0.001
-452.968	-200.000	0.001	-0.063
-451.953	144.872	-0.049	-0.065
-450.938	110.214	0.182	0.219
-449.924	-10.008	-0.066	0.044
-448.909	-200.000	-0.029	-0.180
-447.895	-128.733	0.174	-0.025
-446.880	-200.000	-0.075	-0.429
-445.865	641.035	-0.116	-0.295
-444.851	800.000	0.083	-0.255
-443.836	-9.864	-0.138	-0.092
-442.822	-97.670	0.257	-0.067
-441.807	-92.971	0.215	-0.060
-440.792	-200.000	0.057	0.267
-439.778	-200.000	0.035	0.544
-438.763	647.853	0.102	0.260
-437.749	800.000	0.066	-0.225
-436.734	99.540	-0.133	0.154
-435.719	60.444	0.190	-0.188
-434.705	-0.328	-0.163	0.116
-433.690	800.000	0.081	-0.306
-432.676	71.832	0.153	-0.159
-431.661	-200.000	0.010	-0.286
-430.646	770.014	-0.032	-0.089
-429.632	800.000	-0.039	-0.152
-428.617	52.119	0.154	0.147
-427.603	-186.955	0.143	0.002
-426.588	800.000	0.035	-0.137
-425.573	-112.107	-0.243	0.049
-424.559	687.574	-0.107	0.279
-423.544	246.625	0.073	0.123
-422.530	-200.000	-0.054	0.243
-421.515	-57.221	-0.031	0.014
-420.500	231.949	-0.088	0.144
-419.486	-200.000	0.031	0.203
-418.471	163.085	-0.096	0.135
-417.457	3.868	0.270	0.197
-416.442	136.057	-0.106	-0.138
-415.428	-166.588	0.115	0.005
-414.413	136.626	-0.270	-0.353
-413.398	70.157	0.063	-0.065
-412.384	-49.801	-0.189	0.090
-411.369	-5.144	-0.181	0.124
-410.355	-106.815	0.370	-0.082
-409.340	-42.049	-0.111	-0.057
-408.325	-28.575	0.132	-0.076
-407.311	77.307	0.411	-0.437
-406.296	222.562	0.160	-0.257
-405.282	800.000	0.069	-0.198
-404.267	-200.000	-0.031	-0.211
-403.252	-158.029	0.220	0.013
-402.238	-56.428	-0.218	0.097
-401.223	-10.875	-0.333	-0.220
-400.209	-39.463	-0.084	0.044
-399.194	-100.171	-0.212	-0.053
-398.179	77.114	0.092	-0.098
-397.165	-133.939	-0.417	0.052
-396.150	-200.000	0.029	-0.166
-395.136	-57.016	-0.096	-0.042
-394.121	-117.079	0.147	0.027
-393.106	-60.292	0.208	-0.088
-392.092	240.376	0.128	-0.212
-391.077	-48.882	0.390	-0.187
-390.063	36.139	-0.169	-0.148
-389.048	760.131	-0.043	-0.117
-388.033	18.137	0.171	-0.136
-387.019	45.277	0.092	-0.085
-386.004	47.465	-0.144	-0.134
-384.990	713.481	0.181	0.478
-383.975	158.034	-0.094	0.130
-382.960	-200.000	-0.002	-0.070
-381.946	223.708	-0.137	-0.221
-380.931	471.562	-0.123	0.276
-379.917	37.002	0.203	0.179
-378.902	82.514	0.109	0.118
-377.888	-14.419	0.146	-0.094
-376.873	398.732	0.162	-0.338
-375.858	317.580	0.096	0.181
-374.844	-200.000	-0.001	0.086
-373.829	-107.212	0.210	-0.046
-372.815	800.000	-0.023	-0.080
-371.800	-46.973	0.276	0.134
-370.785	-22.943	0.052	-0.031
-369.771	-200.000	-0.004	-0.044
-368.756	6.118	0.087	-0.065
-367.742	-200.000	0.108	-0.485
-366.727	1.197	-0.214	-0.153
-365.712	-97.900	0.252	-0.065
-364.698	-33.728	0.174	0.096
-363.683	-69.150	0.246	0.094
-362.669	-82.233	-0.169	0.055
-361.654	34.772	-0.042	-0.037
-360.639	206.368	-0.083	-0.129
-359.625	-148.364	-0.217	-0.018
-358.610	204.100	0.225	-0.347
-357.596	133.111	0.182	-0.234
-356.581	-200.000	-0.032	-0.167
-355.566	-37.859	-0.450	-0.239
-354.552	575.295	-0.209	0.510
-353.537	-35.542	-0.176	-0.095
-352.523	233.886	0.030	-0.050
-351.508	800.000	-0.074	-0.311
-350.493	-83.896	0.316	0.100
-349.479	-200.000	0.012	-0.116
-348.464	-193.351	-0.044	-0.000
-347.450	773.800	-0.091	-0.246
-346.435	-99.559	-0.196	0.049
-345.420	-117.581	-0.054	-0.010
-344.406	-115.384	0.077	-0.014
-343.391	-200.000	0.024	-0.262
-342.377	418.189	0.148	-0.316
-341.362	-19.235	-0.393	0.243
-340.348	-83.839	-0.249	0.079
-339.333	182.904	-0.150	0.221
-338.318	62.751	0.294	0.293
-337.304	32.106	-0.032	0.027
-336.289	800.000	-0.062	-0.212
-335.275	46.068	0.216	0.199
-334.260	-200.000	-0.010	0.199
-333.245	-115.149	-0.154	-0.029
-332.231	-31.209	-0.021	-0.012
-331.216	-132.439	0.383	-0.049
-330.202	-192.292	-0.085	0.001
-329.187	-18.847	-0.072	0.045
-328.172	800.000	0.025	0.095
-327.158	-200.000	0.001	-0.154
-326.143	-200.000	-0.031	-0.184
-325.129	-106.241	-0.427	0.095
-324.114	540.213	0.050	0.119
-323.099	111.444	0.149	-0.179
-322.085	-92.811	0.041	-0.011
-321.070	-200.000	-0.022	0.224
-320.056	113.935	-0.041	-0.050
-319.041	-69.578	-0.131	0.050
-318.026	-200.000	-0.060	-0.310
-317.012	-200.000	0.028	0.408
-315.997	348.481	-0.059	-0.115
-314.983	113.468	-0.061	-0.074
-313.968	-200.000	0.009	-0.146
-312.953	-200.000	0.015	0.212
-311.939	-53.143	-0.404	0.185
-310.924	-200.000	-0.004	-0.120
-309.910	339.169	-0.202	0.392
-308.895	271.037	-0.098	0.173
-307.880	11.533	-0.055	-0.042
-306.866	-43.773	0.242	0.122
-305.851	155.168	-0.130	0.178
-304.837	800.000	-0.060	-0.260
-303.822	-60.103	-0.020	-0.009
-302.807	571.253	0.074	0.179
-301.793	-62.076	-0.363	0.151
-300.778	-200.000	-0.010	0.350
-299.764	591.068	-0.086	-0.211
-298.749	47.677	-0.257	-0.239
-297.735	800.000	0.078	-0.239
-296.720	800.000	-0.044	-0.181
-295.705	109.580	0.027	-0.032
-294.691	-200.000	-0.031	0.192
-293.676	-200.000	-0.003	-0.192
-292.662	800.000	0.042	0.179
-291.647	-200.000	0.004	-0.026
-290.632	800.000	0.083	0.276
-289.618	222.591	-0.089	0.142
-288.603	-118.945	-0.117	-0.020
-287.589	800.000	0.067	0.279
-286.574	-93.374	-0.531	0.146
-285.559	96.910	-0.008	0.009
-284.545	34.370	-0.093	-0.081
-283.530	144.035	-0.168	-0.223
-282.516	-115.323	0.173	0.032
-281.501	-66.093	0.166	0.066
-280.486	-67.047	-0.338	0.133
-279.472	-80.566	0.145	-0.048
-278.457	346.540	-0.230	0.450
-277.443	-38.247	0.331	0.174
-276.428	46.497	0.234	0.216
-275.413	-52.936	-0.218	-0.100
-274.399	-19.713	-0.285	0.175
-273.384	256.943	-0.080	0.137
-272.370	100.608	0.102	-0.118
-271.355	-84.736	-0.094	-0.029
-270.340	118.468	0.066	-0.080
-269.326	21.853	0.195	0.158
-268.311	-200.000	-0.095	0.483
-267.297	800.000	0.050	0.212
-266.282	800.000	-0.083	0.244
-265.267	653.610	0.041	0.104
-264.253	115.847	0.118	-0.143
-263.238	562.776	0.083	-0.200
-262.224	-60.109	0.194	-0.082
-261.209	-169.269	-0.103	-0.004
-260.195	48.903	-0.082	0.076
-259.180	-31.438	-0.298	-0.167
-258.165	-171.915	0.188	-0.006
-257.151	800.000	-0.081	0.321
-256.136	205.599	-0.029	0.045
-255.122	-200.000	0.074	-0.466
-254.107	150.645	-0.095	-0.129
-253.092	-200.000	0.017	0.370
-252.078	-200.000	0.011	-0.138
-251.063	41.879	-0.071	0.064
-250.049	190.048	-0.020	-0.031
-249.034	-73.443	-0.159	0.058
-248.019	-16.253	0.113	-0.071
-247.005	-98.977	-0.128	0.032
-245.990	366.605	0.020	0.040
-244.976	-28.608	-0.216	-0.123
-243.961	52.765	0.098	0.093
-242.946	557.443	0.083	0.199
-241.932	57.618	0.129	-0.125
-240.917	-174.519	0.113	-0.003
-239.903	23.547	0.072	0.059
-238.888	626.193	0.121	-0.303
-237.873	800.000	-0.095	0.306
-236.859	-200.000	0.013	0.357
-235.844	-200.000	-0.012	0.285
-234.830	-34.953	-0.150	0.081
-233.815	-6.814	-0.343	-0.231
-232.800	360.382	-0.128	-0.255
-231.786	-35.103	0.141	-0.076
-230.771	-200.000	-0.011	0.173
-229.757	-17.829	-0.090	0.056
-228.742	-4.661	-0.299	0.205
-227.727	440.890	-0.051	0.111
-226.713	-200.000	-0.049	-0.231
-225.698	-83.190	0.464	0.148
-224.684	800.000	-0.017	0.057
-223.669	-49.665	0.214	0.101
-222.655	800.000	-0.070	0.243
-221.640	53.220	-0.179	-0.170
-220.625	68.721	0.127	0.129
-219.611	95.859	-0.260	-0.295
-218.596	-106.413	0.236	-0.052
-217.582	-200.000	-0.002	0.054
-216.567	56.843	0.134	0.129
-215.552	181.165	-0.028	0.040
-214.538	800.000	0.026	0.088
-213.523	-58.004	0.144	-0.062
-212.509	386.161	-0.036	0.074
-211.494	-103.438	0.079	-0.019
-210.479	-186.938	-0.360	0.005
-209.465	79.995	0.201	0.214
-208.450	-94.892	-0.161	0.043
-207.436	0.418	0.091	0.064
-206.421	-70.685	-0.066	0.025
-205.406	-103.438	0.222	-0.052
-204.392	-200.000	0.021	-0.101
-203.377	-93.207	0.154	-0.043
-202.363	676.685	-0.043	0.110
-201.348	-42.265	0.461	0.233
-200.333	49.131	0.316	0.295
-199.319	95.577	-0.154	0.174
-198.304	-81.704	0.373	0.121
-197.290	-52.713	0.318	0.146
-196.275	-200.000	-0.011	0.353
-195.260	660.123	-0.079	0.201
-194.246	-129.534	-0.214	-0.029
-193.231	-62.477	-0.181	0.075
-192.217	694.170	-0.038	-0.099
-191.202	-200.000	-0.022	-0.379
-190.187	800.000	-0.038	0.153
-189.173	314.418	0.165	0.308
-188.158	553.139	0.162	-0.387
-187.144	185.448	0.126	-0.185
-186.129	42.766	0.195	0.176
-185.114	-85.483	-0.133	-0.041
-184.100	-41.937	0.166	0.084
-183.085	387.025	-0.062	0.127
-182.071	-200.000	-0.013	-0.081
-181.056	-74.022	0.147	-0.053
-180.042	192.630	0.190	-0.285
-179.027	-45.869	0.138	-0.067
-178.012	48.234	0.065	-0.061
-176.998	-92.691	0.512	-0.142
-175.983	63.502	-0.083	0.083
-174.969	29.687	-0.340	-0.286
-173.954	-97.954	0.257	0.066
-172.939	93.645	-0.102	-0.115
-171.925	800.000	0.015	-0.054
-170.910	76.334	0.050	-0.052
-169.896	-166.544	-0.052	0.002
-168.881	-102.837	-0.171	-0.040
-167.866	48.803	-0.095	0.088
-166.852	-52.286	0.025	0.011
-165.837	800.000	-0.082	-0.253
-164.823	-200.000	0.063	0.295
-163.808	-200.000	0.025	-0.285
-162.793	-94.903	-0.211	0.057
-161.779	-137.362	-0.055	0.006
-160.764	-97.195	-0.132	-0.034
-159.750	800.000	-0.127	0.428
-158.735	-39.990	0.194	-0.100
-157.720	198.462	0.118	-0.179
-156.706	-200.000	0.032	0.399
-155.691	130.029	0.278	0.352
-154.677	-25.887	0.206	-0.120
-153.662	-128.779	-0.497	0.069
-152.647	-200.000	-0.024	-0.269
-151.633	800.000	0.077	0.260
-150.618	-79.801	0.429	-0.143
-149.604	-114.635	0.241	0.046
-148.589	60.908	0.180	-0.176
-147.574	469.748	0.108	-0.239
-146.560	800.000	-0.040	0.132
-145.545	95.329	0.315	0.355
-144.531	-152.368	0.329	0.023
-143.516	53.277	0.095	0.090
-142.502	-50.675	0.231	0.108
-141.487	-85.489	0.353	0.109
-140.472	110.001	0.252	0.299
-139.458	72.674	0.325	-0.335
-138.443	195.242	-0.335	-0.503
-137.429	800.000	0.095	0.329
-136.414	0.322	0.224	0.158
-135.399	-65.737	0.338	-0.134
-134.385	-200.000	0.007	0.127
-133.370	79.406	-0.156	0.166
-132.356	-200.000	0.023	0.337
-131.341	148.334	0.229	0.306
-130.326	72.282	0.046	-0.048
-129.312	-200.000	-0.009	-0.197
-128.297	-200.000	0.032	0.282
-127.283	-200.000	-0.028	0.247
-126.268	-93.308	0.319	0.087
-125.253	-200.000	-0.036	0.171
-124.239	-75.178	0.166	-0.059
-123.224	-200.000	0.005	-0.141
-122.210	800.000	-0.089	0.373
