DTS Sentinel unit serial number:	SN413079Multiplexer serial number:	ORYXHardware model number:	OX4-SRSoftware version number:	ORYX F/W v4.00 Oryx Data Collector v3.7.2.0data status	okinstallation	princeton_trtdifferential loss correction	single-endedforward channel	channel 4reverse channel	N/Adate	2019/09/13time	20:45:35forward acquisition time	60.00reverse acquisition time	0.00gamma	496.2192k internal	0.2319k external	0.2319temperature offset calibration	1.0132default loss term (dB/km)	0.3790temperature slope calibration	1.0000multiplexer offset coefficient	1.0000multiplexer slope coefficient	1.0000fibre end	0.00T internal ref (°C)	28.84T ext. ref 1 (°C)	3.19T ext. ref 2 (°C)	23.49length (m)	temperature (°C)	Stokes	anti-Stokes-747.200	19.400	0.227	0.184
-746.185	-19.639	0.059	0.037
-745.171	-117.551	0.184	-0.034
-744.156	577.968	-0.031	0.076
-743.142	-200.000	-0.007	-0.113
-742.127	-24.640	-0.306	0.184
-741.112	-111.960	0.371	-0.076
-740.098	-200.000	0.053	0.512
-739.083	122.830	0.105	0.133
-738.069	164.336	-0.164	0.234
-737.054	728.883	0.048	0.131
-736.039	-200.000	-0.006	0.128
-735.025	746.575	-0.064	0.175
-734.010	-55.618	-0.231	0.105
-732.996	43.470	-0.190	-0.176
-731.981	-200.000	-0.032	0.389
-730.966	5.456	0.197	0.147
-729.952	50.697	-0.284	-0.272
-728.937	-101.162	0.147	0.036
-727.923	348.071	-0.161	-0.320
-726.908	-200.000	0.043	-0.246
-725.894	135.771	-0.038	-0.050
-724.879	800.000	0.043	-0.122
-723.864	-34.640	0.103	-0.057
-722.850	-99.378	-0.287	-0.073
-721.835	-76.212	-0.213	0.076
-720.821	-200.000	-0.012	-0.184
-719.806	637.224	0.143	-0.368
-718.791	57.016	-0.083	0.082
-717.777	153.825	0.036	0.050
-716.762	229.472	-0.131	0.216
-715.748	-65.338	-0.310	-0.126
-714.733	800.000	-0.056	-0.174
-713.718	67.033	0.099	0.102
-712.704	800.000	0.035	0.105
-711.689	-139.247	0.408	-0.044
-710.675	-115.880	-0.323	0.061
-709.660	-141.619	0.147	0.015
-708.645	411.411	-0.114	-0.244
-707.631	-200.000	0.018	0.254
-706.616	-160.853	-0.314	0.017
-705.602	-97.531	0.070	0.018
-704.587	-2.266	-0.234	0.166
-703.572	576.807	0.040	0.098
-702.558	99.776	0.064	-0.075
-701.543	-200.000	-0.019	-0.094
-700.529	77.122	0.099	-0.107
-699.514	43.349	0.189	-0.175
-698.499	-200.000	0.053	-0.246
-697.485	-80.688	-0.246	-0.083
-696.470	-200.000	0.118	-0.563
-695.456	-147.009	0.087	-0.008
-694.441	91.449	0.017	0.019
-693.426	191.730	0.028	0.043
-692.412	-15.817	0.236	-0.152
-691.397	-200.000	0.084	-0.377
-690.383	-200.000	-0.022	-0.110
-689.368	176.087	0.258	-0.378
-688.354	-2.429	-0.038	0.027
-687.339	50.269	0.191	-0.182
-686.324	-97.637	-0.139	-0.036
-685.310	800.000	0.054	-0.173
-684.295	-161.183	0.084	0.004
-683.281	-119.862	0.275	-0.048
-682.266	800.000	-0.085	-0.359
-681.251	239.697	-0.092	0.154
-680.237	133.744	-0.162	0.211
-679.222	121.646	0.072	-0.091
-678.208	67.505	-0.171	-0.176
-677.193	-79.425	0.259	-0.088
-676.178	19.842	-0.149	-0.121
-675.164	-93.240	-0.441	-0.124
-674.149	-84.587	0.207	-0.066
-673.135	800.000	0.098	-0.279
-672.120	-97.610	-0.315	0.082
-671.105	-39.351	-0.048	0.025
-670.091	128.426	-0.192	-0.246
-669.076	-130.405	0.079	-0.011
-668.062	23.975	0.072	0.060
-667.047	-114.832	0.252	-0.048
-666.032	800.000	0.022	0.071
-665.018	-83.864	-0.116	-0.037
-664.003	-63.286	-0.174	0.072
-662.989	-200.000	0.027	-0.322
-661.974	-22.780	-0.099	-0.060
-660.959	132.986	-0.173	-0.226
-659.945	800.000	0.056	0.175
-658.930	-200.000	-0.039	-0.203
-657.916	-200.000	0.027	0.130
-656.901	-41.393	-0.189	-0.098
-655.886	584.407	-0.163	-0.403
-654.872	800.000	0.080	-0.232
-653.857	168.417	-0.132	-0.190
-652.843	-47.154	-0.151	0.074
-651.828	-2.205	0.312	-0.221
-650.814	-55.246	0.242	0.109
-649.799	800.000	-0.059	0.206
-648.784	182.173	-0.212	-0.315
-647.770	0.090	0.128	0.092
-646.755	95.559	0.186	-0.213
-645.741	-23.007	-0.063	-0.039
-644.726	-41.262	-0.188	0.098
-643.711	28.171	0.072	-0.062
-642.697	528.672	0.107	-0.255
-641.682	-46.201	-0.199	-0.099
-640.668	71.503	0.089	0.093
-639.653	-93.341	-0.215	-0.060
-638.638	-200.000	-0.020	0.189
-637.624	800.000	-0.141	0.405
-636.609	-128.146	0.152	-0.022
-635.595	-200.000	-0.004	-0.246
-634.580	-98.700	-0.244	-0.063
-633.565	222.513	-0.146	-0.236
-632.551	-0.480	-0.225	0.161
-631.536	289.002	-0.075	0.137
-630.522	-51.369	-0.010	-0.005
-629.507	16.752	-0.114	0.091
-628.492	-38.448	0.328	0.175
-627.478	-99.977	0.339	-0.085
-626.463	-52.711	-0.193	0.090
-625.449	-200.000	-0.014	0.084
-624.434	-200.000	0.010	-0.134
-623.419	-200.000	-0.048	-0.287
-622.405	6.419	-0.204	0.152
-621.390	-156.879	-0.067	-0.004
-620.376	-105.976	-0.211	-0.048
-619.361	65.401	0.041	-0.042
-618.346	137.081	0.120	0.158
-617.332	34.989	0.134	-0.118
-616.317	800.000	0.064	-0.252
-615.303	-31.037	0.185	-0.105
-614.288	-200.000	0.021	-0.092
-613.273	325.717	-0.161	-0.309
-612.259	205.041	0.017	0.026
-611.244	119.593	0.146	-0.181
-610.230	-39.911	0.114	-0.060
-609.215	-200.000	-0.008	-0.038
-608.201	-87.184	-0.103	-0.032
-607.186	-190.190	-0.265	0.003
-606.171	-73.434	-0.107	0.039
-605.157	-200.000	-0.009	-0.125
-604.142	420.150	-0.068	0.146
-603.128	800.000	-0.062	0.176
-602.113	436.550	-0.164	0.359
-601.098	-200.000	0.000	0.085
-600.084	-200.000	-0.003	0.104
-599.069	795.023	-0.040	-0.111
-598.055	175.779	-0.202	0.295
-597.040	-23.620	0.035	0.021
-596.025	-77.836	0.084	-0.029
-595.011	-7.949	-0.079	-0.054
-593.996	-93.164	-0.303	-0.085
-592.982	7.517	-0.309	0.233
-591.967	-25.735	-0.166	0.098
-590.952	347.341	-0.087	0.172
-589.938	-90.655	-0.098	0.028
-588.923	-200.000	-0.005	-0.253
-587.909	320.163	-0.042	0.081
-586.894	-88.934	0.187	0.056
-585.879	367.535	0.062	-0.126
-584.865	-40.622	-0.090	-0.047
-583.850	-53.660	0.255	0.117
-582.836	83.350	-0.185	0.203
-581.821	-90.036	-0.337	-0.099
-580.806	-200.000	-0.099	-0.569
-579.792	-59.953	0.319	-0.137
-578.777	80.065	-0.081	-0.087
-577.763	160.577	0.243	-0.340
-576.748	-131.018	-0.318	-0.043
-575.733	-14.748	-0.258	-0.167
-574.719	31.920	-0.284	0.246
-573.704	-34.973	-0.104	-0.057
-572.690	-68.220	-0.187	0.073
-571.675	-200.000	-0.041	-0.300
-570.661	140.279	-0.082	-0.109
-569.646	-200.000	-0.050	-0.304
-568.631	800.000	-0.049	-0.157
-567.617	-200.000	-0.008	-0.170
-566.602	95.638	-0.186	-0.213
-565.588	-200.000	0.026	-0.178
-564.573	-164.972	-0.320	0.014
-563.558	30.587	-0.246	0.211
-562.544	-127.287	0.060	0.009
-561.529	-1.084	0.036	0.026
-560.515	78.630	0.082	0.088
-559.500	73.428	-0.090	-0.095
-558.485	21.213	-0.074	-0.060
-557.471	-200.000	0.009	0.277
-556.456	65.575	0.201	0.205
-555.442	-200.000	-0.056	-0.434
-554.427	-118.842	-0.206	0.036
-553.412	-161.865	0.152	0.008
-552.398	439.896	0.041	-0.089
-551.383	-43.040	-0.337	-0.171
-550.369	800.000	0.067	0.225
-549.354	-135.639	0.181	0.022
-548.339	-134.303	-0.251	0.031
-547.325	-113.074	-0.078	-0.015
-546.310	-44.585	0.250	0.125
-545.296	4.363	-0.188	0.138
-544.281	-80.857	0.407	-0.135
-543.266	-115.534	-0.126	0.024
-542.252	-200.000	0.079	0.424
-541.237	-200.000	0.001	0.084
-540.223	-63.849	0.043	-0.018
-539.208	-36.993	-0.199	-0.107
-538.193	694.154	-0.053	0.140
-537.179	-60.488	0.322	0.137
-536.164	-52.435	-0.203	-0.094
-535.150	286.634	-0.065	-0.118
-534.135	-106.093	-0.317	0.071
-533.121	14.594	-0.118	-0.092
-532.106	-97.621	0.436	-0.113
-531.091	-69.507	0.229	-0.088
-530.077	88.120	0.115	0.128
-529.062	252.322	-0.184	-0.314
-528.048	800.000	-0.087	-0.332
-527.033	195.064	-0.047	0.071
-526.018	-160.348	0.104	-0.006
-525.004	1.885	0.086	-0.062
-523.989	247.603	-0.200	-0.339
-522.975	353.176	0.061	-0.122
-521.960	-200.000	-0.013	0.214
-520.945	-200.000	-0.010	0.212
-519.931	27.413	0.136	-0.115
-518.916	-153.094	-0.080	0.006
-517.902	-200.000	0.034	0.464
-516.887	133.914	0.094	0.122
-515.872	800.000	0.054	-0.207
-514.858	-122.199	-0.061	0.010
-513.843	51.074	0.106	0.100
-512.829	6.546	-0.262	-0.195
-511.814	-161.032	-0.291	-0.015
-510.799	-26.107	-0.170	0.100
-509.785	32.875	0.191	0.166
-508.770	-106.036	-0.160	-0.036
-507.756	769.522	-0.031	0.086
-506.741	9.950	0.059	-0.045
-505.726	146.936	0.185	-0.249
-504.712	-93.216	0.322	-0.090
-503.697	-100.609	-0.343	-0.085
-502.683	-192.149	-0.390	0.004
-501.668	-134.772	0.247	-0.030
-500.653	-9.561	0.258	0.172
-499.639	-107.815	0.354	0.077
-498.624	-71.547	0.223	0.083
-497.610	4.818	0.064	0.047
-496.595	-137.174	0.318	0.036
-495.581	-15.448	-0.115	-0.074
-494.566	160.276	-0.045	-0.063
-493.551	185.856	-0.148	0.221
-492.537	66.870	0.224	-0.228
-491.522	800.000	0.096	-0.296
-490.508	793.504	0.135	0.373
-489.493	-69.113	-0.279	-0.107
-488.478	186.978	-0.085	-0.127
-487.464	393.818	-0.119	0.248
-486.449	-118.880	0.367	0.065
-485.435	800.000	0.083	-0.249
-484.420	-11.119	-0.135	-0.089
-483.405	-200.000	0.009	0.068
-482.391	-200.000	0.006	0.101
-481.376	241.112	0.103	-0.172
-480.362	382.261	0.107	-0.221
-479.347	-47.370	-0.182	0.088
-478.332	-82.350	-0.156	-0.051
-477.318	-38.087	-0.130	-0.069
-476.303	166.841	0.017	-0.025
-475.289	-111.625	-0.253	0.051
-474.274	195.516	-0.027	-0.041
-473.259	-62.743	-0.216	-0.090
-472.245	-200.000	-0.077	-0.532
-471.230	-145.280	0.242	-0.022
-470.216	-37.461	0.124	0.066
-469.201	-94.358	0.374	-0.102
-468.186	-192.285	0.325	-0.003
-467.172	134.505	0.215	-0.279
-466.157	51.468	-0.030	-0.028
-465.143	-119.260	-0.161	0.028
-464.128	205.435	-0.111	-0.172
-463.113	13.800	-0.214	-0.166
-462.099	-30.585	0.243	0.138
-461.084	-200.000	-0.084	0.455
-460.070	-114.602	0.260	-0.050
-459.055	60.190	-0.253	-0.250
-458.040	-200.000	-0.066	-0.419
-457.026	-112.123	0.301	0.061
-456.011	800.000	0.027	-0.089
-454.997	413.780	-0.054	-0.115
-453.982	-123.493	-0.402	0.064
-452.968	-200.000	0.069	-0.369
-451.953	-83.934	-0.115	0.036
-450.938	-111.390	0.217	0.044
-449.924	86.265	0.187	0.207
-448.909	192.006	-0.145	-0.219
-447.895	800.000	0.045	0.132
-446.880	-52.875	-0.229	-0.106
-445.865	140.285	-0.109	0.144
-444.851	-159.410	0.250	-0.014
-443.836	16.679	-0.104	0.082
-442.822	-200.000	-0.001	0.284
-441.807	-142.871	0.100	0.010
-440.792	255.123	0.131	0.224
-439.778	-106.725	0.197	-0.044
-438.763	-200.000	-0.040	0.217
-437.749	-88.584	-0.180	-0.053
-436.734	49.054	-0.102	-0.096
-435.719	509.601	-0.038	0.087
-434.705	800.000	-0.065	-0.196
-433.690	-200.000	0.076	0.363
-432.676	-11.334	0.096	-0.063
-431.661	-50.665	-0.195	-0.092
-430.646	250.450	0.172	0.292
-429.632	139.663	-0.063	0.082
-428.617	49.524	0.175	-0.164
-427.603	-200.000	0.068	0.301
-426.588	800.000	-0.061	-0.206
-425.573	18.567	0.202	0.162
-424.559	-94.610	-0.266	0.072
-423.544	-106.873	-0.271	0.060
-422.530	-55.017	-0.311	0.140
-421.515	-0.722	0.241	0.171
-420.500	-14.363	0.119	0.076
-419.486	-200.000	-0.051	-0.326
-418.471	-128.413	0.228	-0.032
-417.457	-122.325	-0.268	0.044
-416.442	-92.549	0.062	0.017
-415.428	800.000	-0.006	0.022
-414.413	-65.304	-0.295	0.119
-413.398	-31.435	-0.157	-0.088
-412.384	131.848	0.184	-0.237
-411.369	-200.000	-0.009	0.263
-410.355	800.000	-0.022	0.087
-409.340	800.000	-0.058	0.163
-408.325	214.782	-0.161	-0.254
-407.311	-69.789	-0.169	-0.064
-406.296	-52.401	0.115	0.053
-405.282	24.601	0.163	0.135
-404.267	-15.879	0.179	0.114
-403.252	151.544	0.046	-0.062
-402.238	-200.000	0.004	0.040
-401.223	-136.461	-0.131	0.015
-400.209	-200.000	-0.017	-0.342
-399.194	-12.423	0.343	0.224
-398.179	-200.000	0.016	-0.104
-397.165	-200.000	0.033	-0.207
-396.150	61.774	0.265	-0.263
-395.136	-200.000	-0.020	-0.302
-394.121	800.000	-0.070	-0.218
-393.106	-200.000	-0.024	-0.199
-392.092	-153.740	-0.140	0.010
-391.077	-133.206	0.023	0.003
-390.063	56.272	-0.112	-0.108
-389.048	-21.607	-0.167	0.101
-388.033	405.245	-0.035	-0.075
-387.019	1.889	0.132	0.095
-386.004	-200.000	-0.044	0.209
-384.990	-200.000	-0.005	-0.161
-383.975	588.085	-0.156	0.383
-382.960	-59.415	-0.277	-0.119
-381.946	-125.861	0.029	0.004
-380.931	107.475	0.212	-0.252
-379.917	-200.000	0.014	0.093
-378.902	-200.000	0.007	0.089
-377.888	-157.110	-0.130	-0.008
-376.873	45.160	0.088	-0.080
-375.858	269.994	0.212	-0.371
-374.844	110.366	0.110	-0.132
-373.829	277.316	-0.063	0.112
-372.815	800.000	-0.067	0.255
-371.800	-66.073	-0.313	-0.124
-370.785	-112.572	-0.249	0.050
-369.771	-58.653	-0.223	0.096
-368.756	672.116	-0.095	-0.244
-367.742	-200.000	0.091	0.442
-366.727	-132.576	0.315	0.040
-365.712	125.738	-0.008	0.011
-364.698	115.209	0.173	0.211
-363.683	-200.000	-0.016	0.306
-362.669	252.025	-0.151	-0.257
-361.654	-200.000	0.059	-0.309
-360.639	-55.546	-0.123	-0.055
-359.625	-117.075	-0.058	-0.011
-358.610	25.648	-0.209	0.174
-357.596	-62.893	-0.315	0.130
-356.581	-50.875	0.206	-0.096
-355.566	-66.992	-0.263	-0.103
-354.552	191.459	-0.088	0.132
-353.537	-200.000	0.019	-0.190
-352.523	262.415	0.109	0.188
-351.508	-28.354	-0.275	-0.158
-350.493	-46.021	0.384	-0.189
-349.479	-123.650	-0.013	-0.002
-348.464	164.385	0.042	0.060
-347.450	42.067	0.031	-0.028
-346.435	282.326	0.061	0.109
-345.420	-179.276	0.215	-0.005
-344.406	-52.922	0.238	-0.109
-343.391	800.000	-0.130	0.377
-342.377	7.805	0.099	-0.074
-341.362	116.105	0.106	0.129
-340.348	800.000	-0.073	-0.221
-339.333	-100.681	-0.177	-0.044
-338.318	-200.000	0.017	-0.175
-337.304	800.000	-0.050	0.175
-336.289	488.213	-0.079	-0.181
-335.275	-112.085	-0.279	-0.056
-334.260	-58.798	0.110	-0.048
-333.245	-72.015	0.415	0.154
-332.231	800.000	0.050	-0.200
-331.216	-1.671	-0.103	-0.072
-330.202	6.831	-0.045	-0.033
-329.187	-159.270	0.313	-0.018
-328.172	585.359	-0.124	0.303
-327.158	10.986	0.105	0.080
-326.143	476.263	0.157	-0.353
-325.129	15.683	0.173	-0.135
-324.114	764.580	-0.140	0.378
-323.099	88.302	-0.168	-0.186
-322.085	-200.000	-0.047	-0.331
-321.070	-200.000	0.043	-0.214
-320.056	-26.985	-0.057	0.033
-319.041	-125.134	-0.331	0.051
-318.026	-109.371	0.071	0.015
-317.012	470.390	0.065	0.146
-315.997	-119.451	0.332	-0.057
-314.983	-108.526	0.120	-0.026
-313.968	210.125	0.103	-0.161
-312.953	-109.489	-0.213	-0.045
-311.939	312.764	-0.051	0.095
-310.924	-193.132	0.217	0.002
-309.910	-97.351	0.149	-0.039
-308.895	-105.818	0.385	-0.086
-307.880	-120.141	-0.069	0.012
-306.866	-12.072	-0.115	0.075
-305.851	-57.645	0.089	0.039
-304.837	28.101	-0.229	-0.192
-303.822	76.615	0.153	-0.161
-302.807	-104.825	-0.119	-0.027
-301.793	83.961	-0.122	0.133
-300.778	-200.000	-0.039	0.378
-299.764	-73.737	0.451	-0.163
-298.749	343.047	0.134	0.262
-297.735	-200.000	-0.028	-0.148
-296.720	236.418	0.129	-0.212
-295.705	498.394	-0.112	0.255
-294.691	-74.857	-0.109	0.039
-293.676	63.555	-0.024	0.023
-292.662	800.000	0.057	0.193
-291.647	800.000	-0.083	-0.256
-290.632	29.513	-0.132	0.112
-289.618	-128.265	-0.156	0.022
-288.603	436.179	0.134	0.291
-287.589	367.372	0.181	0.363
-286.574	-141.605	-0.153	-0.015
-285.559	800.000	-0.027	-0.112
-284.545	-147.117	-0.171	0.015
-283.530	623.377	0.010	-0.024
-282.516	-200.000	0.001	-0.147
-281.501	175.271	0.120	0.173
-280.486	-200.000	-0.003	-0.064
-279.472	-57.696	0.192	-0.083
-278.457	-200.000	0.008	0.160
-277.443	-78.685	-0.048	-0.016
-276.428	-49.973	-0.254	-0.120
-275.413	158.234	0.119	0.164
-274.399	-200.000	0.003	0.312
-273.384	-200.000	-0.038	-0.232
-272.370	-200.000	0.055	0.334
-271.355	-190.164	0.172	-0.002
-270.340	-88.925	0.249	-0.073
-269.326	199.787	-0.120	0.182
-268.311	-83.107	0.100	-0.032
-267.297	-200.000	-0.015	-0.067
-266.282	488.990	0.081	-0.183
-265.267	703.107	0.022	0.057
-264.253	3.299	-0.290	-0.210
-263.238	-200.000	-0.041	0.301
-262.224	-100.362	-0.190	0.047
-261.209	84.328	0.126	0.137
-260.195	-186.863	-0.322	-0.004
-259.180	-11.218	-0.177	0.116
-258.165	-200.000	0.005	-0.164
-257.151	-81.753	0.174	0.057
-256.136	-9.098	0.318	0.211
-255.122	98.640	-0.041	0.046
-254.107	-35.811	0.170	-0.092
-253.092	127.269	-0.067	0.084
-252.078	-200.000	0.008	0.109
-251.063	43.852	-0.259	0.236
-250.049	151.553	0.133	-0.180
-249.034	535.431	-0.037	-0.086
-248.019	-78.178	0.031	0.011
-247.005	290.116	0.093	0.168
-245.990	-44.197	0.230	0.115
-244.976	324.299	-0.146	-0.276
-243.961	800.000	0.076	0.301
-242.946	-78.091	-0.218	0.075
-241.932	441.453	0.109	0.236
-240.917	-108.619	-0.136	0.029
-239.903	-8.858	0.098	-0.065
-238.888	95.108	-0.242	0.273
-237.873	290.676	0.122	0.219
-236.859	-83.350	0.133	0.042
-235.844	92.959	0.220	-0.247
-234.830	409.871	-0.083	0.175
-233.815	-163.500	0.066	-0.003
-232.800	-1.968	-0.381	-0.265
-231.786	629.457	-0.083	-0.208
-230.771	487.289	-0.064	0.144
-229.757	264.757	-0.160	-0.277
-228.742	-143.395	-0.300	-0.028
-227.727	82.285	-0.141	0.151
-226.713	22.924	-0.213	0.173
-225.698	-191.799	0.273	0.003
-224.684	-43.059	0.167	0.084
-223.669	-160.385	-0.097	0.005
-222.655	800.000	0.100	0.276
-221.640	-200.000	0.067	0.000
-220.625	21.991	0.236	-0.191
-219.611	800.000	-0.070	0.201
-218.596	662.195	-0.162	0.415
-217.582	118.307	0.037	0.046
-216.567	191.162	0.041	-0.061
-215.552	128.934	0.225	0.284
-214.538	39.224	-0.346	0.307
-213.523	7.468	-0.065	-0.048
-212.509	205.115	-0.144	0.221
-211.494	800.000	0.040	-0.171
-210.479	-82.296	0.096	-0.031
-209.465	-82.749	0.089	0.028
-208.450	-140.095	-0.164	0.017
-207.436	-200.000	-0.240	0.000
-206.421	-200.000	0.012	0.115
-205.406	-50.317	0.272	-0.127
-204.392	-43.811	0.175	0.087
-203.377	64.298	0.106	-0.106
-202.363	-80.495	0.257	0.085
-201.348	201.008	0.152	0.231
-200.333	-29.077	0.148	-0.084
-199.319	-52.757	0.339	-0.155
-198.304	-55.782	-0.218	-0.097
-197.290	-200.000	-0.003	0.146
-196.275	184.660	-0.121	0.177
-195.260	26.408	0.141	-0.117
-194.246	-200.000	0.021	-0.380
-193.231	-141.454	0.189	-0.019
-192.217	-200.000	0.012	0.126
-191.202	-106.786	0.117	0.026
-190.187	437.783	-0.078	0.168
-189.173	31.297	0.119	0.101
-188.158	270.328	0.100	-0.174
-187.144	490.247	-0.036	-0.082
-186.129	278.084	0.060	-0.105
-185.114	-23.669	0.232	0.138
-184.100	515.490	0.029	-0.067
-183.085	-144.278	0.161	-0.015
-182.071	273.549	0.140	-0.246
-181.056	145.135	0.074	0.098
-180.042	60.605	-0.143	-0.140
-179.027	-200.000	-0.030	0.193
-178.012	115.492	-0.090	0.108
-176.998	102.714	0.108	-0.125
-175.983	317.703	0.162	-0.304
-174.969	-57.406	0.354	-0.154
-173.954	-175.510	-0.078	0.002
-172.939	32.697	-0.104	0.089
-171.925	-105.729	0.258	-0.058
-170.910	-200.000	-0.020	-0.200
-169.896	0.828	0.377	0.267
-168.881	-200.000	-0.061	0.328
-167.866	-82.963	-0.242	-0.077
-166.852	393.451	-0.062	0.128
-165.837	296.590	0.218	0.396
-164.823	-146.792	0.344	-0.029
-163.808	800.000	0.099	0.411
-162.793	407.207	-0.105	-0.220
-161.779	-139.416	0.144	-0.015
-160.764	219.669	0.104	0.165
-159.750	-194.753	0.196	0.002
-158.735	4.511	-0.236	-0.171
-157.720	-119.041	0.146	-0.025
-156.706	311.592	0.083	0.154
-155.691	214.140	0.055	0.086
-154.677	740.848	0.168	0.446
-153.662	800.000	-0.068	-0.278
-152.647	13.024	0.198	-0.151
-151.633	-72.393	0.119	0.044
-150.618	116.693	-0.150	-0.182
-149.604	264.974	0.136	-0.234
-148.589	-200.000	-0.044	0.341
-147.574	-89.610	-0.065	-0.019
-146.560	800.000	-0.033	-0.098
-145.545	800.000	0.052	-0.201
-144.531	-67.077	0.465	0.181
-143.516	-36.891	0.150	0.080
-142.502	-32.950	0.448	0.246
-141.487	85.500	-0.339	-0.368
-140.472	-41.821	0.166	-0.084
-139.458	98.584	0.063	-0.072
-138.443	93.962	0.165	-0.185
-137.429	800.000	-0.058	-0.183
-136.414	89.573	-0.093	0.102
-135.399	-102.465	0.207	0.049
-134.385	-31.015	-0.451	0.252
-133.370	-200.000	0.005	0.131
-132.356	-164.115	-0.061	0.003
-131.341	-180.652	-0.382	0.008
-130.326	215.686	0.165	-0.259
-129.312	-107.011	-0.374	0.082
-128.297	228.812	0.079	0.127
-127.283	243.007	0.134	0.222
-126.268	-71.500	0.159	-0.059
-125.253	489.002	-0.011	-0.024
-124.239	506.173	-0.072	-0.165
-123.224	105.988	-0.149	0.174
-122.210	800.000	0.117	-0.368
