DTS Sentinel unit serial number:	SN413079Multiplexer serial number:	ORYXHardware model number:	OX4-SRSoftware version number:	ORYX F/W v4.00 Oryx Data Collector v3.7.2.0data status	okinstallation	princeton_trtdifferential loss correction	single-endedforward channel	channel 4reverse channel	N/Adate	2019/09/18time	06:21:35forward acquisition time	60.00reverse acquisition time	0.00gamma	496.2192k internal	0.2333k external	0.2333temperature offset calibration	0.9994default loss term (dB/km)	0.3790temperature slope calibration	1.0000multiplexer offset coefficient	1.0000multiplexer slope coefficient	1.0000fibre end	0.00T internal ref (°C)	23.25T ext. ref 1 (°C)	0.19T ext. ref 2 (°C)	17.79length (m)	temperature (°C)	Stokes	anti-Stokes-747.200	-157.991	0.206	-0.012
-746.185	800.000	-0.028	-0.081
-745.171	-200.000	0.020	0.189
-744.156	-61.707	-0.443	0.187
-743.142	710.194	0.112	0.298
-742.127	-60.940	0.356	0.151
-741.112	8.697	0.112	0.085
-740.098	800.000	0.190	0.611
-739.083	-120.089	0.129	0.022
-738.069	16.218	-0.033	-0.026
-737.054	-118.543	-0.247	-0.044
-736.039	94.872	-0.233	0.267
-735.025	-59.558	0.284	0.123
-734.010	-25.293	-0.342	-0.203
-732.996	-200.000	0.062	-0.293
-731.981	37.723	-0.229	-0.205
-730.966	800.000	0.051	-0.159
-729.952	-200.000	-0.023	-0.259
-728.937	-200.000	0.000	0.077
-727.923	800.000	-0.032	-0.131
-726.908	127.813	-0.131	-0.168
-725.894	-134.432	-0.283	-0.035
-724.879	800.000	-0.026	-0.115
-723.864	266.836	-0.092	-0.161
-722.850	157.951	-0.108	-0.150
-721.835	-100.878	-0.102	0.025
-720.821	-71.856	-0.247	-0.093
-719.806	143.448	0.147	-0.197
-718.791	220.820	-0.040	0.064
-717.777	100.965	-0.087	0.101
-716.762	-200.000	-0.091	0.469
-715.748	-95.106	-0.404	0.110
-714.733	213.396	-0.203	-0.323
-713.718	205.989	-0.042	-0.065
-712.704	-82.762	0.256	-0.083
-711.689	49.787	-0.134	-0.127
-710.675	-14.108	-0.064	-0.041
-709.660	25.390	-0.238	0.199
-708.645	-200.000	-0.032	0.144
-707.631	125.836	-0.028	0.035
-706.616	98.613	-0.232	-0.269
-705.602	-147.197	-0.417	-0.036
-704.587	-110.360	0.064	-0.013
-703.572	-200.000	0.042	-0.386
-702.558	381.322	-0.230	-0.474
-701.543	-108.287	-0.225	-0.049
-700.529	12.737	-0.128	0.099
-699.514	800.000	-0.037	0.120
-698.499	-91.736	-0.268	-0.077
-697.485	-200.000	0.007	0.279
-696.470	-9.401	-0.139	-0.093
-695.456	-84.280	-0.046	0.015
-694.441	247.145	0.056	-0.095
-693.426	363.002	-0.092	0.186
-692.412	290.715	-0.088	-0.160
-691.397	-102.428	-0.194	-0.047
-690.383	-174.820	0.317	0.009
-689.368	-109.884	-0.026	0.006
-688.354	275.490	-0.145	0.257
-687.339	-200.000	0.012	-0.307
-686.324	127.381	-0.109	0.139
-685.310	800.000	0.048	0.186
-684.295	-48.921	0.397	-0.191
-683.281	800.000	0.137	0.390
-682.266	-200.000	-0.006	-0.119
-681.251	-124.345	0.149	-0.023
-680.237	97.935	-0.170	0.196
-679.222	92.968	-0.265	0.301
-678.208	-200.000	0.002	0.134
-677.193	-43.171	0.298	0.152
-676.178	622.566	-0.034	0.086
-675.164	-37.770	-0.192	-0.102
-674.149	-6.410	-0.098	0.067
-673.135	73.502	0.025	-0.026
-672.120	164.292	-0.180	0.254
-671.105	96.308	0.240	-0.276
-670.091	-200.000	-0.019	-0.156
-669.076	177.847	-0.145	-0.212
-668.062	21.653	0.147	0.120
-667.047	-94.535	-0.173	-0.047
-666.032	800.000	-0.035	0.106
-665.018	800.000	0.054	0.216
-664.003	-102.935	-0.430	0.102
-662.989	160.333	-0.120	0.167
-661.974	262.448	0.132	0.230
-660.959	-58.220	-0.288	0.126
-659.945	21.155	-0.140	-0.114
-658.930	162.093	-0.124	-0.174
-657.916	-120.780	0.133	-0.022
-656.901	172.370	0.144	0.208
-655.886	-200.000	-0.088	-0.493
-654.872	412.697	-0.183	-0.389
-653.857	800.000	0.048	-0.170
-652.843	-58.729	-0.311	-0.135
-651.828	-64.188	-0.313	0.128
-650.814	-35.738	0.058	0.031
-649.799	-106.872	-0.355	0.079
-648.784	62.918	-0.200	-0.201
-647.770	-200.000	-0.041	-0.235
-646.755	-65.809	-0.299	0.120
-645.741	300.945	0.100	0.184
-644.726	79.133	-0.186	-0.200
-643.711	-36.052	-0.244	-0.132
-642.697	40.125	0.232	-0.209
-641.682	55.159	-0.071	-0.069
-640.668	-123.452	-0.211	0.034
-639.653	182.109	-0.186	-0.275
-638.638	10.225	-0.036	-0.027
-637.624	413.022	0.139	0.295
-636.609	-123.257	0.239	0.038
-635.595	-30.833	-0.227	-0.128
-634.580	800.000	0.115	-0.329
-633.565	-200.000	-0.052	0.460
-632.551	412.918	-0.122	0.260
-631.536	152.561	0.069	0.095
-630.522	-62.440	0.137	0.057
-629.507	-57.622	0.127	-0.056
-628.492	246.819	0.165	0.279
-627.478	46.537	-0.266	-0.247
-626.463	-177.999	0.234	-0.006
-625.449	-200.000	-0.039	-0.257
-624.434	-187.723	0.083	0.001
-623.419	56.210	0.180	0.175
-622.405	-200.000	0.030	0.309
-621.390	168.971	-0.217	0.310
-620.376	101.524	-0.023	-0.027
-619.361	156.768	0.133	0.184
-618.346	57.972	-0.192	-0.188
-617.332	-200.000	-0.018	0.251
-616.317	-127.359	0.308	-0.045
-615.303	-20.973	-0.096	0.059
-614.288	-200.000	0.014	0.245
-613.273	-25.610	-0.213	0.126
-612.259	269.524	-0.216	0.379
-611.244	800.000	-0.108	-0.422
-610.230	-200.000	-0.016	-0.071
-609.215	-47.228	-0.193	0.094
-608.201	147.254	-0.338	-0.455
-607.186	308.328	0.107	-0.201
-606.171	55.377	0.258	0.250
-605.157	-67.845	-0.173	-0.068
-604.142	-200.000	0.048	-0.319
-603.128	10.289	-0.084	0.064
-602.113	179.800	-0.208	0.305
-601.098	92.835	-0.141	-0.159
-600.084	460.143	-0.124	0.276
-599.069	-200.000	0.024	-0.267
-598.055	131.386	-0.111	0.143
-597.040	-43.640	0.307	-0.155
-596.025	-27.809	-0.358	-0.208
-595.011	-20.987	-0.175	0.107
-593.996	-92.225	0.560	0.158
-592.982	165.037	-0.040	-0.056
-591.967	-39.370	-0.182	0.096
-590.952	98.000	-0.058	-0.067
-589.938	484.415	0.124	0.283
-588.923	-13.529	0.113	-0.073
-587.909	-200.000	-0.016	0.108
-586.894	42.360	-0.158	-0.143
-585.879	-31.477	-0.190	0.107
-584.865	-119.372	0.198	0.034
-583.850	-200.000	0.001	0.187
-582.836	-68.590	0.150	0.058
-581.821	57.824	-0.121	-0.118
-580.806	-64.080	0.051	-0.021
-579.792	242.003	0.085	0.143
-578.777	393.200	-0.073	-0.152
-577.763	-166.722	-0.192	0.008
-576.748	-118.646	-0.296	0.052
-575.733	116.039	0.060	-0.073
-574.719	-90.411	-0.297	-0.086
-573.704	-65.692	0.282	-0.113
-572.690	545.928	0.104	-0.249
-571.675	800.000	0.044	-0.150
-570.661	-200.000	0.105	-0.595
-569.646	723.306	-0.133	-0.353
-568.631	-72.742	0.350	0.129
-567.617	-40.256	0.120	-0.062
-566.602	-200.000	0.024	-0.190
-565.588	-106.518	-0.191	-0.042
-564.573	-81.592	0.293	0.096
-563.558	-7.323	-0.093	0.063
-562.544	298.032	0.030	0.055
-561.529	-130.638	-0.211	0.028
-560.515	-11.944	-0.249	-0.163
-559.500	-90.863	-0.020	-0.006
-558.485	21.696	0.067	0.055
-557.471	-200.000	-0.023	-0.178
-556.456	800.000	0.176	0.521
-555.442	-48.108	0.082	0.039
-554.427	294.776	-0.072	0.132
-553.412	7.377	-0.193	0.144
-552.398	-200.000	-0.006	0.233
-551.383	61.805	0.044	-0.043
-550.369	-45.338	0.494	-0.245
-549.354	208.334	0.076	0.119
-548.339	-18.223	-0.283	-0.177
-547.325	-44.680	0.229	-0.114
-546.310	112.531	-0.172	-0.207
-545.296	18.945	0.276	-0.221
-544.281	661.638	0.040	-0.102
-543.266	187.559	-0.177	-0.264
-542.252	-137.017	0.484	0.055
-541.237	-79.694	-0.152	-0.051
-540.223	0.132	-0.098	0.069
-539.208	-33.180	0.436	0.241
-538.193	-200.000	-0.019	-0.622
-537.179	-24.943	-0.306	-0.181
-536.164	102.022	0.270	-0.315
-535.150	33.538	0.115	-0.100
-534.135	756.124	-0.128	0.345
-533.121	-200.000	-0.016	0.279
-532.106	-109.723	-0.255	-0.054
-531.091	433.211	0.058	-0.127
-530.077	170.603	-0.107	0.152
-529.062	-124.641	0.059	-0.009
-528.048	579.304	-0.064	-0.156
-527.033	476.886	0.158	-0.357
-526.018	404.369	-0.134	0.282
-525.004	75.266	-0.283	0.298
-523.989	34.586	-0.289	-0.252
-522.975	-72.505	0.392	0.144
-521.960	253.541	-0.022	-0.037
-520.945	-135.578	0.101	0.012
-519.931	-93.486	0.038	-0.010
-518.916	-200.000	-0.028	-0.147
-517.902	-200.000	0.005	-0.182
-516.887	-26.192	-0.238	-0.139
-515.872	184.365	-0.132	0.195
-514.858	-79.313	-0.070	-0.024
-513.843	69.213	0.095	-0.098
-512.829	371.568	-0.086	-0.174
-511.814	14.381	-0.197	0.153
-510.799	-35.783	-0.273	-0.147
-509.785	-200.000	-0.026	-0.251
-508.770	418.183	0.071	-0.150
-507.756	-200.000	0.049	0.221
-506.741	-33.181	-0.134	0.074
-505.726	-21.902	0.226	-0.137
-504.712	800.000	0.066	0.258
-503.697	32.752	-0.172	-0.148
-502.683	36.489	-0.298	-0.262
-501.668	-158.876	0.260	0.015
-500.653	-67.457	-0.095	0.037
-499.639	10.912	-0.127	0.096
-498.624	800.000	-0.060	-0.227
-497.610	-51.520	0.162	0.075
-496.595	-93.088	0.268	-0.074
-495.581	286.009	-0.108	-0.194
-494.566	19.755	-0.188	0.151
-493.551	-135.465	-0.098	-0.012
-492.537	-200.000	0.026	0.125
-491.522	266.612	0.193	-0.336
-490.508	800.000	-0.076	0.266
-489.493	800.000	-0.028	0.093
-488.478	145.740	-0.061	0.082
-487.464	-51.412	-0.388	0.180
-486.449	-28.548	-0.194	0.111
-485.435	-29.343	0.156	-0.089
-484.420	-159.671	-0.292	0.016
-483.405	49.052	0.205	-0.192
-482.391	-116.728	0.356	0.065
-481.376	-85.524	0.248	-0.077
-480.362	-200.000	-0.090	-0.488
-479.347	-200.000	0.008	-0.392
-478.332	-200.000	-0.037	-0.272
-477.318	94.817	0.086	-0.098
-476.303	-200.000	-0.034	-0.237
-475.289	19.526	0.220	-0.176
-474.274	-122.178	0.312	-0.051
-473.259	379.038	0.130	0.265
-472.245	324.235	0.072	0.136
-471.230	756.848	-0.049	-0.131
-470.216	-143.971	-0.055	-0.005
-469.201	100.550	-0.300	0.347
-468.186	-61.003	-0.224	-0.094
-467.172	800.000	0.160	-0.633
-466.157	79.334	-0.026	-0.028
-465.143	53.964	0.304	0.291
-464.128	-111.857	0.077	-0.016
-463.113	5.944	0.137	0.101
-462.099	-130.271	0.317	0.043
-461.084	-50.716	-0.039	-0.018
-460.070	691.155	-0.082	0.214
-459.055	71.338	-0.096	-0.099
-458.040	-34.074	-0.217	0.119
-457.026	180.231	-0.250	0.365
-456.011	-200.000	-0.047	-0.327
-454.997	106.730	0.042	0.050
-453.982	-69.353	0.210	0.080
-452.968	-10.809	-0.145	0.095
-451.953	32.530	0.222	0.191
-450.938	-121.111	0.279	-0.046
-449.924	-107.649	-0.162	0.035
-448.909	-117.192	-0.155	-0.028
-447.895	800.000	0.038	-0.131
-446.880	-80.066	0.245	0.082
-445.865	-188.273	-0.523	0.007
-444.851	800.000	0.065	0.276
-443.836	4.556	-0.270	-0.197
-442.822	-87.919	0.158	-0.047
-441.807	-129.753	0.123	-0.017
-440.792	114.143	0.098	0.118
-439.778	-177.999	0.223	-0.005
-438.763	8.604	0.018	0.014
-437.749	-67.915	0.131	-0.051
-436.734	79.885	0.162	0.173
-435.719	39.149	-0.347	0.309
-434.705	-5.440	-0.164	0.112
-433.690	314.181	-0.127	-0.237
-432.676	127.507	0.162	-0.205
-431.661	-200.000	0.021	-0.217
-430.646	-28.343	-0.116	0.067
-429.632	800.000	-0.052	0.195
-428.617	-58.559	-0.222	0.096
-427.603	-65.536	0.454	0.181
-426.588	23.129	-0.116	0.094
-425.573	800.000	0.070	-0.194
-424.559	292.765	-0.078	0.142
-423.544	453.791	-0.107	-0.236
-422.530	-137.850	0.297	0.033
-421.515	183.823	0.070	0.103
-420.500	420.247	0.016	-0.034
-419.486	281.386	0.196	-0.348
-418.471	0.527	-0.181	-0.128
-417.457	400.024	-0.004	0.008
-416.442	177.182	0.076	-0.110
-415.428	107.439	0.228	-0.269
-414.413	181.484	0.015	-0.022
-413.398	-41.569	-0.236	0.120
-412.384	-186.660	-0.269	-0.004
-411.369	800.000	0.094	0.293
-410.355	119.784	0.173	-0.212
-409.340	-62.860	-0.243	-0.100
-408.325	-63.343	0.293	-0.120
-407.311	99.654	0.095	-0.109
-406.296	-200.000	-0.011	0.231
-405.282	-200.000	0.054	-0.361
-404.267	-153.128	0.082	-0.006
-403.252	-200.000	0.068	-0.438
-402.238	-125.357	-0.240	0.036
-401.223	-11.701	-0.111	-0.072
-400.209	800.000	-0.049	0.134
-399.194	12.885	-0.190	0.146
-398.179	115.410	-0.189	0.229
-397.165	99.891	-0.355	0.408
-396.150	-120.276	0.473	-0.080
-395.136	353.528	-0.139	-0.274
-394.121	-101.778	-0.208	-0.050
-393.106	585.519	0.186	0.455
-392.092	800.000	0.065	0.280
-391.077	-29.550	0.279	0.158
-390.063	-15.246	0.110	-0.070
-389.048	334.248	-0.039	-0.074
-388.033	459.401	-0.052	-0.114
-387.019	194.825	0.115	0.174
-386.004	-74.812	0.258	0.092
-384.990	-153.406	-0.204	-0.014
-383.975	-200.000	0.053	0.412
-382.960	-65.047	0.122	-0.049
-381.946	75.377	-0.073	-0.076
-380.931	800.000	0.040	-0.146
-379.917	440.381	0.141	-0.305
-378.902	24.537	0.074	-0.061
-377.888	-33.551	-0.176	-0.097
-376.873	-200.000	0.058	-0.266
-375.858	-122.344	0.468	0.076
-374.844	1.802	0.112	-0.080
-373.829	196.044	-0.150	0.226
-372.815	-112.325	-0.296	-0.059
-371.800	195.667	-0.115	-0.174
-370.785	-200.000	-0.005	-0.152
-369.771	45.703	-0.143	0.131
-368.756	-200.000	0.184	0.000
-367.742	267.327	-0.096	-0.166
-366.727	44.040	-0.133	0.121
-365.712	-192.224	-0.432	-0.004
-364.698	-105.050	0.158	0.036
-363.683	436.474	-0.140	0.303
-362.669	-200.000	0.045	-0.218
-361.654	-28.738	0.266	0.152
-360.639	-20.784	-0.139	-0.084
-359.625	134.421	-0.169	0.217
-358.610	800.000	0.098	-0.299
-357.596	-116.836	-0.313	-0.057
-356.581	219.125	-0.168	0.266
-355.566	-41.853	0.183	-0.093
-354.552	-7.802	-0.166	-0.111
-353.537	92.876	-0.167	0.187
-352.523	-25.736	0.239	0.140
-351.508	88.486	0.191	0.210
-350.493	-161.015	-0.119	-0.006
-349.479	209.984	0.128	-0.199
-348.464	46.440	-0.075	0.069
-347.450	276.166	0.246	-0.433
-346.435	-40.755	-0.301	-0.155
-345.420	-76.816	0.312	-0.108
-344.406	676.832	0.142	0.365
-343.391	-146.114	-0.225	-0.020
-342.377	-129.508	0.204	0.028
-341.362	-85.462	-0.291	0.090
-340.348	-57.814	0.071	0.031
-339.333	-127.150	0.274	-0.040
-338.318	-98.877	0.126	0.032
-337.304	-105.036	-0.265	-0.060
-336.289	603.837	0.101	-0.248
-335.275	-79.387	-0.522	0.175
-334.260	-179.909	0.039	-0.001
-333.245	-200.000	-0.023	-0.128
-332.231	270.059	0.044	0.076
-331.216	198.992	-0.126	-0.190
-330.202	-127.904	0.231	0.033
-329.187	-200.000	-0.002	0.191
-328.172	115.931	0.073	-0.088
-327.158	-200.000	0.009	-0.079
-326.143	563.215	-0.071	-0.170
-325.129	800.000	0.045	0.125
-324.114	-83.623	0.139	0.044
-323.099	-200.000	0.043	-0.229
-322.085	-200.000	0.017	0.257
-321.070	144.866	0.053	0.071
-320.056	480.270	-0.048	0.107
-319.041	-21.201	-0.134	-0.081
-318.026	134.062	-0.087	-0.112
-317.012	123.350	-0.179	0.221
-315.997	21.193	0.268	-0.215
-314.983	560.520	0.135	0.324
-313.968	98.475	-0.065	0.074
-312.953	-100.418	0.248	-0.061
-311.939	-173.983	0.379	0.011
-310.924	-200.000	-0.040	0.258
-309.910	800.000	0.129	-0.367
-308.895	-121.205	-0.272	0.045
-307.880	97.186	0.171	0.194
-306.866	-118.122	-0.582	-0.103
-305.851	708.895	-0.039	0.103
-304.837	12.952	0.072	0.055
-303.822	-89.170	0.162	-0.047
-302.807	34.238	-0.046	0.040
-301.793	-87.899	-0.085	-0.025
-300.778	-160.027	-0.109	0.006
-299.764	-33.769	0.176	-0.096
-298.749	36.274	0.106	0.092
-297.735	-63.125	-0.242	0.099
-296.720	-2.957	0.193	-0.133
-295.705	-24.794	-0.343	0.201
-294.691	69.809	-0.218	-0.222
-293.676	-200.000	0.027	-0.188
-292.662	-87.015	0.119	-0.036
-291.647	6.530	-0.191	-0.140
-290.632	-200.000	0.061	-0.412
-289.618	-200.000	0.085	0.482
-288.603	134.695	0.036	-0.046
-287.589	-200.000	-0.006	0.311
-286.574	-14.352	-0.225	0.143
-285.559	594.129	0.179	0.438
-284.545	-101.253	0.259	-0.062
-283.530	-200.000	0.020	-0.239
-282.516	339.035	0.106	0.204
-281.501	359.499	0.048	-0.095
-280.486	305.780	-0.134	-0.246
-279.472	-104.979	-0.077	0.017
-278.457	-117.121	-0.206	-0.037
-277.443	-137.489	-0.305	0.034
-276.428	60.407	-0.139	-0.136
-275.413	-200.000	-0.002	0.180
-274.399	-117.238	-0.296	-0.053
-273.384	-54.528	0.320	-0.143
-272.370	-200.000	-0.074	0.353
-271.355	-107.656	-0.150	-0.032
-270.340	147.633	-0.112	0.149
-269.326	-104.055	0.423	-0.097
-268.311	461.418	-0.130	0.286
-267.297	25.842	-0.188	-0.155
-266.282	-148.387	0.376	-0.030
-265.267	43.182	-0.204	0.184
-264.253	-143.990	0.466	-0.043
-263.238	50.381	0.106	0.099
-262.224	-100.312	0.150	-0.037
-261.209	52.581	0.170	-0.160
-260.195	276.618	0.082	0.145
-259.180	305.700	0.054	-0.099
-258.165	93.036	0.215	0.240
-257.151	-34.471	0.249	-0.135
-256.136	-200.000	0.038	0.168
-255.122	-146.442	-0.578	-0.050
-254.107	-115.172	0.313	-0.058
-253.092	-22.544	-0.159	0.095
-252.078	-23.804	0.158	-0.093
-251.063	-6.930	-0.066	0.044
-250.049	145.594	-0.063	0.083
-249.034	54.708	-0.255	0.242
-248.019	6.731	0.280	0.206
-247.005	33.123	-0.142	0.121
-245.990	-59.063	0.023	0.010
-244.976	658.352	0.063	0.160
-243.961	29.368	0.143	-0.120
-242.946	233.812	0.116	0.188
-241.932	-58.950	0.203	-0.087
-240.917	-74.896	0.187	0.066
-239.903	800.000	0.046	0.156
-238.888	800.000	0.113	-0.427
-237.873	-107.409	-0.077	-0.017
-236.859	800.000	0.088	-0.256
-235.844	-200.000	0.012	0.222
-234.830	-144.444	0.237	0.022
-233.815	-1.343	0.022	0.015
-232.800	-179.056	0.285	-0.006
-231.786	-200.000	-0.050	-0.398
-230.771	-38.753	0.129	-0.067
-229.757	-67.505	0.167	-0.064
-228.742	-200.000	0.005	0.190
-227.727	4.971	-0.150	0.108
-226.713	5.570	0.017	0.013
-225.698	61.073	-0.145	0.142
-224.684	800.000	0.104	0.388
-223.669	-200.000	0.050	0.283
-222.655	800.000	-0.030	-0.090
-221.640	183.247	0.202	-0.295
-220.625	36.011	0.047	-0.040
-219.611	115.643	0.107	-0.128
-218.596	-106.759	0.231	-0.051
-217.582	-200.000	-0.050	-0.294
-216.567	62.617	0.289	-0.285
-215.552	59.751	0.143	0.139
-214.538	166.664	0.215	0.300
-213.523	-106.934	-0.369	-0.080
-212.509	44.452	-0.246	-0.223
-211.494	-200.000	-0.046	-0.371
-210.479	-200.000	-0.023	0.481
-209.465	546.373	0.110	0.259
-208.450	-200.000	0.037	-0.253
-207.436	-42.407	0.049	-0.025
-206.421	-112.585	0.105	0.021
-205.406	190.685	0.151	-0.224
-204.392	-120.766	-0.351	-0.058
-203.377	-200.000	-0.066	0.320
-202.363	-200.000	0.008	0.585
-201.348	78.406	-0.163	0.171
-200.333	-5.985	-0.099	-0.067
-199.319	18.587	-0.200	-0.158
-198.304	214.331	0.131	0.204
-197.290	53.216	-0.136	0.128
-196.275	-200.000	-0.002	-0.163
-195.260	443.782	0.166	0.359
-194.246	-200.000	0.013	-0.056
-193.231	302.257	-0.052	-0.095
-192.217	207.129	0.083	0.127
-191.202	-200.000	0.069	0.332
-190.187	88.429	0.186	0.204
-189.173	-101.241	0.285	0.069
-188.158	794.874	-0.109	0.296
-187.144	-200.000	0.027	0.230
-186.129	-36.760	-0.146	0.077
-185.114	29.620	0.029	0.024
-184.100	-59.983	-0.288	0.121
-183.085	800.000	-0.141	0.408
-182.071	-66.640	-0.270	-0.105
-181.056	800.000	0.028	-0.077
-180.042	267.232	-0.066	0.114
-179.027	-200.000	0.002	0.079
-178.012	56.906	0.232	0.222
-176.998	-30.504	0.075	-0.042
-175.983	-99.966	0.130	0.032
-174.969	243.506	0.083	0.138
-173.954	-37.533	-0.046	0.024
-172.939	-200.000	0.010	0.128
-171.925	274.323	0.014	0.025
-170.910	747.387	0.148	-0.391
-169.896	-99.643	-0.119	-0.029
-168.881	-12.801	-0.229	-0.147
-167.866	800.000	0.018	-0.074
-166.852	181.947	-0.121	-0.176
-165.837	227.558	0.054	-0.086
-164.823	-123.848	0.232	-0.036
-163.808	-200.000	-0.035	0.176
-162.793	-200.000	0.001	-0.069
-161.779	800.000	-0.046	-0.153
-160.764	170.672	-0.203	-0.285
-159.750	-200.000	0.009	0.161
-158.735	-200.000	0.009	0.053
-157.720	698.675	0.151	-0.391
-156.706	800.000	0.039	-0.149
-155.691	-128.274	-0.234	0.033
-154.677	256.762	-0.189	0.319
-153.662	73.523	-0.116	0.119
-152.647	-103.529	0.333	0.077
-151.633	-7.701	-0.106	-0.070
-150.618	51.385	0.179	0.167
-149.604	-200.000	-0.029	0.321
-148.589	-200.000	0.007	0.067
-147.574	-64.760	-0.122	0.049
-146.560	86.965	-0.184	0.200
-145.545	-77.608	-0.150	-0.051
-144.531	-131.200	-0.264	-0.034
-143.516	768.184	0.022	0.059
-142.502	-200.000	0.026	-0.378
-141.487	-72.493	-0.028	0.010
-140.472	-46.122	0.070	-0.034
-139.458	-84.676	0.073	-0.023
-138.443	-110.252	0.280	0.057
-137.429	204.364	0.146	0.222
-136.414	353.759	-0.050	-0.098
-135.399	-18.019	-0.048	0.030
-134.385	394.774	-0.026	0.053
-133.370	497.045	0.255	0.576
-132.356	-104.767	0.217	0.049
-131.341	-186.035	-0.129	-0.002
-130.326	114.971	-0.156	-0.186
-129.312	800.000	-0.013	-0.050
-128.297	-56.624	0.142	-0.062
-127.283	163.466	0.106	0.146
-126.268	-13.466	-0.057	0.036
-125.253	35.645	-0.195	0.168
-124.239	-75.071	0.171	-0.060
-123.224	-42.934	-0.194	-0.097
-122.210	-200.000	0.020	0.254
-121.195	387.088	-0.200	-0.406
