DTS Sentinel unit serial number:	SN413079Multiplexer serial number:	ORYXHardware model number:	OX4-SRSoftware version number:	ORYX F/W v4.00 Oryx Data Collector v3.7.2.0data status	okinstallation	princeton_trtdifferential loss correction	single-endedforward channel	channel 4reverse channel	N/Adate	2019/09/14time	13:17:35forward acquisition time	60.00reverse acquisition time	0.00gamma	496.2192k internal	0.2293k external	0.2293temperature offset calibration	1.0155default loss term (dB/km)	0.3790temperature slope calibration	1.0000multiplexer offset coefficient	1.0000multiplexer slope coefficient	1.0000fibre end	0.00T internal ref (°C)	37.98T ext. ref 1 (°C)	4.92T ext. ref 2 (°C)	33.62length (m)	temperature (°C)	Stokes	anti-Stokes-747.200	800.000	-0.042	-0.161
-746.185	-155.152	0.164	-0.011
-745.171	-200.000	0.042	-0.193
-744.156	342.500	-0.153	0.307
-743.142	-200.000	0.013	0.142
-742.127	-114.119	-0.054	-0.011
-741.112	454.451	-0.062	-0.141
-740.098	-43.906	-0.099	-0.051
-739.083	-34.887	-0.276	-0.154
-738.069	-71.976	0.353	0.134
-737.054	248.502	-0.093	0.161
-736.039	-79.227	-0.424	-0.147
-735.025	-60.845	0.397	0.172
-734.010	177.316	-0.230	0.343
-732.996	369.702	-0.089	-0.185
-731.981	5.243	-0.255	-0.192
-730.966	800.000	-0.049	0.181
-729.952	-119.946	-0.308	0.054
-728.937	100.826	-0.121	0.144
-727.923	189.470	-0.112	0.171
-726.908	82.326	0.075	-0.083
-725.894	-34.719	-0.065	-0.036
-724.879	-117.824	-0.166	0.030
-723.864	-69.041	0.152	-0.060
-722.850	-57.816	-0.286	0.128
-721.835	-200.000	0.046	-0.485
-720.821	-154.495	-0.233	-0.016
-719.806	-123.242	-0.321	0.052
-718.791	-62.179	-0.142	-0.060
-717.777	76.109	0.241	-0.261
-716.762	-200.000	-0.020	-0.277
-715.748	-200.000	-0.029	-0.135
-714.733	-20.432	-0.370	0.232
-713.718	-82.507	-0.165	-0.055
-712.704	-94.153	-0.268	0.075
-711.689	-200.000	0.029	0.160
-710.675	30.476	0.158	-0.138
-709.660	9.013	-0.043	-0.033
-708.645	372.426	-0.051	-0.105
-707.631	-27.711	-0.251	0.149
-706.616	-200.000	0.001	0.121
-705.602	-53.602	0.298	0.139
-704.587	-41.545	-0.152	-0.080
-703.572	54.997	-0.147	0.145
-702.558	-65.717	-0.101	-0.041
-701.543	-176.494	-0.213	-0.006
-700.529	156.295	0.023	-0.032
-699.514	251.568	0.140	-0.244
-698.499	12.572	-0.270	-0.212
-697.485	37.804	-0.162	-0.147
-696.470	-73.627	-0.356	-0.132
-695.456	-200.000	-0.051	-0.300
-694.441	1.824	-0.278	0.205
-693.426	64.862	0.112	0.116
-692.412	247.686	-0.067	-0.115
-691.397	-200.000	-0.020	-0.218
-690.383	800.000	-0.005	-0.021
-689.368	10.789	-0.293	-0.228
-688.354	800.000	-0.065	0.276
-687.339	-84.317	0.298	0.096
-686.324	-87.100	0.200	0.062
-685.310	172.875	-0.068	-0.099
-684.295	78.112	-0.043	0.047
-683.281	44.534	-0.128	-0.120
-682.266	59.361	-0.148	-0.149
-681.251	-141.411	0.161	0.017
-680.237	-200.000	-0.003	0.131
-679.222	-200.000	-0.012	-0.062
-678.208	-146.036	-0.175	0.016
-677.193	800.000	-0.029	0.093
-676.178	-168.001	-0.192	0.008
-675.164	-35.830	0.092	0.051
-674.149	800.000	0.021	-0.071
-673.135	15.372	0.056	-0.045
-672.120	21.846	-0.085	0.070
-671.105	-107.342	-0.435	0.098
-670.091	81.794	-0.154	-0.170
-669.076	5.883	-0.201	-0.152
-668.062	76.309	-0.110	-0.119
-667.047	-200.000	0.013	-0.178
-666.032	-200.000	0.076	-0.416
-665.018	-96.127	0.330	-0.090
-664.003	-54.402	-0.049	-0.023
-662.989	-200.000	0.027	0.140
-661.974	800.000	-0.047	-0.208
-660.959	-63.466	-0.287	-0.120
-659.945	327.044	0.145	0.283
-658.930	-174.890	-0.118	-0.003
-657.916	-50.643	0.365	-0.175
-656.901	344.690	0.039	-0.077
-655.886	116.680	-0.084	0.105
-654.872	-138.138	0.080	0.009
-653.857	-99.480	-0.462	-0.119
-652.843	16.599	-0.042	-0.034
-651.828	-59.397	-0.135	0.059
-650.814	-200.000	-0.020	0.352
-649.799	7.377	-0.202	0.154
-648.784	233.436	-0.198	-0.332
-647.770	6.692	-0.146	0.111
-646.755	2.316	-0.202	0.149
-645.741	-90.291	0.256	-0.076
-644.726	-31.493	-0.098	-0.056
-643.711	11.253	-0.146	0.114
-642.697	-200.000	0.020	0.141
-641.682	-107.426	-0.245	0.055
-640.668	-191.077	-0.153	-0.002
-639.653	569.814	-0.019	0.048
-638.638	266.946	-0.069	-0.123
-637.624	-60.282	-0.082	-0.035
-636.609	72.148	-0.243	0.258
-635.595	14.428	-0.151	0.120
-634.580	762.580	-0.089	-0.246
-633.565	163.210	-0.109	-0.156
-632.551	458.991	0.124	-0.281
-631.536	14.629	0.088	0.070
-630.522	-107.294	0.329	0.074
-629.507	-139.470	-0.222	-0.024
-628.492	-200.000	0.049	0.475
-627.478	-75.583	-0.047	-0.017
-626.463	-200.000	-0.009	0.130
-625.449	-34.300	-0.059	-0.033
-624.434	-73.461	-0.431	0.160
-623.419	-200.000	0.002	0.021
-622.405	4.021	0.162	-0.121
-621.390	211.948	-0.116	0.187
-620.376	-200.000	0.044	-0.209
-619.361	-200.000	-0.028	-0.230
-618.346	490.089	0.120	0.279
-617.332	-196.274	0.054	0.000
-616.317	-139.212	-0.394	0.043
-615.303	-70.104	-0.172	-0.066
-614.288	-185.690	-0.202	-0.003
-613.273	386.885	-0.120	-0.253
-612.259	61.161	-0.103	-0.104
-611.244	175.604	-0.070	-0.103
-610.230	800.000	0.073	0.231
-609.215	232.847	-0.102	-0.171
-608.201	-110.036	-0.219	-0.047
-607.186	22.128	-0.097	-0.080
-606.171	-200.000	0.020	-0.317
-605.157	800.000	-0.016	-0.053
-604.142	-67.081	0.137	-0.055
-603.128	91.646	-0.117	-0.134
-602.113	-200.000	-0.028	0.133
-601.098	542.499	-0.058	-0.142
-600.084	-50.927	0.133	0.064
-599.069	173.274	0.127	0.186
-598.055	-105.950	-0.310	0.071
-597.040	-85.860	0.368	0.116
-596.025	100.337	-0.157	-0.186
-595.011	-139.444	0.119	-0.013
-593.996	62.868	0.232	-0.237
-592.982	256.813	-0.220	0.385
-591.967	800.000	0.055	0.179
-590.952	-110.042	-0.068	0.014
-589.938	-200.000	-0.010	0.082
-588.923	5.921	-0.132	-0.099
-587.909	-200.000	-0.011	0.089
-586.894	-75.378	-0.042	0.015
-585.879	125.000	0.146	0.187
-584.865	-200.000	-0.004	-0.044
-583.850	800.000	-0.040	0.156
-582.836	501.567	0.090	0.212
-581.821	-41.093	0.237	-0.124
-580.806	800.000	0.099	-0.370
-579.792	-106.824	-0.128	-0.029
-578.777	-55.441	-0.188	-0.086
-577.763	-188.351	-0.233	0.003
-576.748	-200.000	-0.072	0.350
-575.733	-11.455	-0.170	-0.114
-574.719	-200.000	0.064	-0.378
-573.704	13.057	-0.105	0.083
-572.690	-73.836	0.172	0.064
-571.675	-200.000	-0.057	0.352
-570.661	800.000	-0.119	0.414
-569.646	-200.000	-0.030	-0.254
-568.631	-52.909	0.190	-0.089
-567.617	-200.000	-0.020	-0.282
-566.602	-200.000	-0.015	-0.079
-565.588	497.717	-0.096	-0.224
-564.573	-200.000	0.006	-0.369
-563.558	58.430	-0.110	-0.110
-562.544	-63.447	-0.205	0.086
-561.529	-158.781	0.275	-0.016
-560.515	-108.435	0.031	0.007
-559.500	-149.011	0.578	-0.047
-558.485	-200.000	-0.012	-0.189
-557.471	80.222	-0.323	-0.353
-556.456	47.265	-0.099	0.094
-555.442	-106.404	0.223	0.051
-554.427	343.821	0.100	0.198
-553.412	-200.000	-0.026	-0.283
-552.398	-46.528	-0.066	0.033
-551.383	-130.024	-0.178	0.025
-550.369	136.270	0.186	0.247
-549.354	96.084	0.145	-0.168
-548.339	-104.055	0.268	-0.063
-547.325	-95.297	-0.128	-0.035
-546.310	573.776	0.030	-0.073
-545.296	41.683	-0.163	0.150
-544.281	226.731	0.111	0.183
-543.266	-200.000	0.010	0.146
-542.252	-123.630	0.165	0.027
-541.237	-110.798	-0.090	-0.019
-540.223	5.741	-0.140	-0.105
-539.208	-200.000	0.073	-0.362
-538.193	-200.000	0.013	-0.073
-537.179	-200.000	0.074	-0.000
-536.164	800.000	-0.102	0.370
-535.150	111.166	-0.148	-0.180
-534.135	800.000	0.054	-0.181
-533.121	-200.000	0.018	-0.192
-532.106	321.283	0.135	-0.261
-531.091	-119.760	0.174	-0.030
-530.077	330.342	0.122	-0.239
-529.062	-200.000	-0.052	-0.280
-528.048	326.775	0.098	-0.191
-527.033	-200.000	-0.004	0.076
-526.018	85.468	-0.130	0.144
-525.004	800.000	0.045	-0.127
-523.989	50.196	0.137	-0.132
-522.975	-76.780	0.268	0.095
-521.960	17.503	-0.277	-0.223
-520.945	-34.091	0.230	-0.128
-519.931	271.005	0.037	-0.067
-518.916	127.359	0.012	0.015
-517.902	99.457	0.196	0.230
-516.887	74.343	-0.122	0.130
-515.872	221.433	0.234	-0.382
-514.858	-200.000	0.023	0.177
-513.843	456.514	-0.079	-0.178
-512.829	114.383	0.091	0.113
-511.814	37.046	-0.126	0.113
-510.799	-17.554	0.238	0.152
-509.785	609.877	0.133	0.338
-508.770	-44.720	-0.178	-0.090
-507.756	99.577	0.069	-0.081
-506.741	-111.327	-0.146	-0.030
-505.726	-35.309	-0.122	0.067
-504.712	-58.994	0.494	-0.216
-503.697	157.443	0.142	-0.199
-502.683	-146.725	-0.284	0.025
-501.668	222.684	-0.141	-0.231
-500.653	473.180	-0.190	-0.434
-499.639	800.000	0.063	0.209
-498.624	-200.000	0.063	-0.306
-497.610	-141.021	-0.279	-0.029
-496.595	0.266	0.298	-0.215
-495.581	316.057	-0.093	-0.179
-494.566	-154.888	-0.060	-0.004
-493.551	-200.000	0.039	-0.331
-492.537	253.051	0.134	-0.231
-491.522	-87.064	0.136	0.042
-490.508	-73.610	-0.215	0.079
-489.493	800.000	0.024	-0.105
-488.478	-108.559	0.270	0.059
-487.464	-4.201	0.251	0.176
-486.449	-45.013	0.229	-0.115
-485.435	800.000	-0.088	0.299
-484.420	-143.110	-0.262	-0.026
-483.405	39.545	0.117	-0.106
-482.391	-200.000	-0.094	0.473
-481.376	60.736	-0.331	0.332
-480.362	-200.000	0.088	-0.400
-479.347	577.575	-0.068	-0.169
-478.332	-200.000	0.009	-0.123
-477.318	400.519	0.136	-0.289
-476.303	326.993	-0.114	-0.222
-475.289	25.161	-0.077	-0.064
-474.274	-94.698	-0.082	-0.023
-473.259	-121.128	-0.579	-0.098
-472.245	-104.168	-0.239	-0.056
-471.230	-102.549	0.354	-0.086
-470.216	-200.000	-0.032	0.253
-469.201	-104.339	0.151	-0.035
-468.186	152.387	0.179	0.247
-467.172	66.498	0.048	0.049
-466.157	-26.540	-0.224	-0.133
-465.143	63.433	-0.074	-0.075
-464.128	-104.180	0.234	0.055
-463.113	43.082	-0.144	-0.133
-462.099	282.218	-0.023	-0.041
-461.084	176.170	0.048	0.070
-460.070	-148.624	0.216	0.018
-459.055	-41.811	-0.472	0.245
-458.040	-50.974	-0.356	-0.169
-457.026	71.918	0.215	-0.226
-456.011	214.872	-0.044	-0.070
-454.997	-154.069	0.141	-0.010
-453.982	577.978	0.104	0.256
-452.968	189.824	-0.041	0.063
-451.953	-200.000	-0.075	-0.384
-450.938	12.371	-0.106	-0.082
-449.924	2.955	-0.114	-0.084
-448.909	-70.915	-0.129	-0.049
-447.895	-144.358	0.211	-0.020
-446.880	800.000	-0.061	0.211
-445.865	-14.561	0.240	0.156
-444.851	-49.583	-0.184	-0.089
-443.836	633.142	-0.066	0.169
-442.822	-107.384	0.221	0.049
-441.807	-77.338	0.171	-0.060
-440.792	800.000	-0.033	-0.104
-439.778	800.000	-0.044	0.156
-438.763	-200.000	-0.063	-0.470
-437.749	800.000	-0.051	0.217
-436.734	136.998	-0.123	0.163
-435.719	-41.799	0.179	-0.093
-434.705	254.562	0.089	0.154
-433.690	-87.291	-0.182	-0.056
-432.676	303.001	-0.064	0.119
-431.661	800.000	-0.036	-0.156
-430.646	-11.689	-0.153	0.102
-429.632	-30.151	-0.158	-0.091
-428.617	-74.151	-0.251	0.092
-427.603	-200.000	0.007	-0.084
-426.588	110.203	0.082	-0.100
-425.573	53.189	0.179	0.173
-424.559	-73.812	0.028	-0.010
-423.544	171.460	-0.106	-0.154
-422.530	800.000	0.035	-0.150
-421.515	-116.537	0.320	-0.060
-420.500	305.054	0.069	-0.129
-419.486	304.350	-0.100	-0.188
-418.471	-169.858	0.145	-0.005
-417.457	-130.695	-0.351	-0.048
-416.442	800.000	0.099	0.291
-415.428	800.000	-0.108	-0.329
-414.413	-127.538	-0.144	-0.021
-413.398	-121.437	0.237	-0.040
-412.384	-117.246	-0.212	0.039
-411.369	-200.000	0.005	0.119
-410.355	-4.435	-0.085	0.059
-409.340	433.042	-0.153	0.335
-408.325	107.488	-0.145	-0.174
-407.311	-145.803	-0.188	-0.017
-406.296	-200.000	0.023	-0.135
-405.282	357.862	0.112	0.226
-404.267	249.254	-0.014	-0.024
-403.252	-36.333	-0.168	-0.092
-402.238	800.000	0.046	-0.169
-401.223	-200.000	0.002	-0.084
-400.209	-4.798	0.166	0.116
-399.194	435.314	-0.042	0.093
-398.179	-131.890	-0.242	0.032
-397.165	-64.300	0.274	0.113
-396.150	-57.608	-0.051	-0.023
-395.136	-6.212	-0.240	0.166
-394.121	497.369	-0.134	-0.311
-393.106	181.507	-0.097	-0.144
-392.092	282.205	-0.158	-0.286
-391.077	800.000	0.074	0.247
-390.063	-11.548	0.197	0.131
-389.048	-119.810	-0.156	0.027
-388.033	77.506	0.163	0.175
-387.019	-115.011	-0.219	0.042
-386.004	800.000	-0.023	-0.078
-384.990	210.989	-0.053	0.084
-383.975	23.298	0.209	-0.173
-382.960	405.728	-0.087	0.186
-381.946	-128.940	0.275	0.039
-380.931	0.226	-0.208	-0.150
-379.917	-200.000	-0.021	-0.214
-378.902	800.000	0.009	-0.027
-377.888	435.986	-0.078	0.172
-376.873	-60.355	0.102	-0.044
-375.858	151.592	-0.103	0.141
-374.844	10.675	-0.071	0.054
-373.829	118.872	0.118	0.147
-372.815	-130.537	0.207	0.028
-371.800	106.809	-0.195	-0.234
-370.785	-180.277	0.378	-0.008
-369.771	800.000	0.034	-0.105
-368.756	-93.457	0.104	0.029
-367.742	-27.627	0.405	-0.237
-366.727	-200.000	-0.039	0.208
-365.712	5.338	-0.209	0.155
-364.698	184.179	-0.120	-0.179
-363.683	105.084	0.379	-0.451
-362.669	-84.269	-0.347	-0.111
-361.654	20.231	-0.047	-0.038
-360.639	800.000	0.085	0.353
-359.625	110.264	-0.235	0.284
-358.610	44.346	0.077	0.071
-357.596	384.301	0.068	0.142
-356.581	-146.007	0.171	0.015
-355.566	465.274	0.151	0.341
-354.552	-58.969	-0.389	0.169
-353.537	-20.127	0.102	0.063
-352.523	-200.000	-0.023	0.182
-351.508	800.000	0.043	0.151
-350.493	-98.469	-0.073	0.019
-349.479	-154.549	0.396	0.027
-348.464	133.153	-0.045	0.058
-347.450	-16.747	-0.163	0.104
-346.435	-200.000	0.047	0.349
-345.420	-200.000	-0.049	0.231
-344.406	-200.000	0.012	0.059
-343.391	416.511	-0.092	0.198
-342.377	800.000	0.114	-0.372
-341.362	-122.926	-0.164	-0.027
-340.348	403.252	0.122	-0.259
-339.333	-99.471	0.321	0.081
-338.318	-79.230	-0.073	0.025
-337.304	286.110	0.102	-0.186
-336.289	254.531	0.096	0.165
-335.275	58.482	0.197	0.195
-334.260	171.562	0.056	0.081
-333.245	-116.581	0.174	0.032
-332.231	-25.502	0.125	0.075
-331.216	-136.485	-0.290	0.034
-330.202	72.595	0.172	0.181
-329.187	-200.000	-0.029	0.346
-328.172	-200.000	-0.047	0.255
-327.158	-168.188	0.230	-0.009
-326.143	-83.399	0.247	-0.080
-325.129	-181.515	0.254	0.005
-324.114	197.446	-0.144	-0.221
-323.099	257.010	0.228	0.394
-322.085	800.000	0.009	0.041
-321.070	-107.265	-0.203	0.045
-320.056	116.386	-0.214	0.264
-319.041	-98.177	-0.212	0.055
-318.026	-177.094	-0.229	-0.006
-317.012	466.114	0.085	0.192
-315.997	59.910	-0.242	0.241
-314.983	-200.000	0.086	0.442
-313.968	197.176	0.177	-0.271
-312.953	-96.404	0.245	-0.065
-311.939	-146.862	0.327	-0.028
-310.924	302.044	0.150	0.278
-309.910	17.660	-0.092	0.074
-308.895	-10.668	0.308	0.205
-307.880	152.735	-0.081	-0.111
-306.866	316.246	-0.211	0.402
-305.851	-200.000	-0.029	0.189
-304.837	-16.672	0.248	0.158
-303.822	146.328	-0.107	0.144
-302.807	-91.278	0.172	0.050
-301.793	-200.000	-0.003	-0.220
-300.778	151.537	-0.044	0.061
-299.764	155.908	0.059	0.082
-298.749	-34.162	-0.142	0.078
-297.735	-200.000	-0.004	-0.022
-296.720	-131.199	-0.146	0.020
-295.705	800.000	0.076	-0.264
-294.691	-121.410	0.211	-0.035
-293.676	-64.026	0.142	0.058
-292.662	-200.000	0.000	0.181
-291.647	-100.477	0.261	0.065
-290.632	242.710	0.077	-0.130
-289.618	-126.976	-0.132	0.019
-288.603	81.440	0.224	-0.244
-287.589	800.000	-0.064	-0.201
-286.574	125.145	-0.132	0.167
-285.559	-1.684	0.423	-0.300
-284.545	-200.000	0.045	-0.324
-283.530	473.234	0.108	-0.245
-282.516	-42.489	0.205	0.105
-281.501	308.030	0.120	-0.226
-280.486	48.197	-0.077	-0.073
-279.472	-14.362	0.400	0.259
-278.457	-60.822	0.103	0.044
-277.443	35.464	-0.098	0.086
-276.428	82.953	-0.270	-0.295
-275.413	223.537	-0.148	0.240
-274.399	-173.340	0.124	0.004
-273.384	-8.338	-0.223	-0.151
-272.370	10.888	-0.115	-0.089
-271.355	-200.000	-0.034	0.152
-270.340	800.000	0.085	-0.242
-269.326	178.464	0.163	0.239
-268.311	461.691	-0.049	-0.109
-267.297	-49.387	0.055	0.026
-266.282	129.372	-0.228	-0.292
-265.267	-13.120	0.259	0.169
-264.253	-47.686	0.225	0.110
-263.238	48.034	0.146	0.137
-262.224	369.733	0.128	-0.261
-261.209	335.696	-0.181	0.353
-260.195	-200.000	-0.021	0.212
-259.180	138.084	-0.190	0.250
-258.165	-30.085	-0.297	0.170
-257.151	-200.000	-0.035	-0.292
-256.136	251.553	-0.014	0.024
-255.122	68.851	-0.167	-0.172
-254.107	-31.584	-0.095	-0.054
-253.092	318.775	-0.102	0.194
-252.078	253.134	-0.122	-0.209
-251.063	334.369	0.161	-0.312
-250.049	180.016	0.054	-0.079
-249.034	-102.970	0.161	0.038
-248.019	-33.345	-0.283	0.157
-247.005	-200.000	-0.007	0.309
-245.990	200.301	0.091	0.141
-244.976	-200.000	0.031	0.166
-243.961	-106.369	-0.158	0.036
-242.946	-32.165	0.185	0.103
-241.932	800.000	-0.027	-0.111
-240.917	-84.945	-0.268	-0.084
-239.903	-28.001	0.136	-0.079
-238.888	513.651	-0.087	-0.204
-237.873	19.790	0.157	0.127
-236.859	-0.539	0.065	0.046
-235.844	-92.346	0.335	0.095
-234.830	800.000	-0.006	-0.021
-233.815	45.190	0.283	-0.262
-232.800	162.555	0.168	-0.236
-231.786	167.817	0.154	-0.219
-230.771	-113.825	0.220	0.043
-229.757	170.403	0.132	0.189
-228.742	-100.694	-0.355	0.088
-227.727	131.374	0.324	0.417
-226.713	63.699	0.170	-0.171
-225.698	-200.000	-0.034	-0.302
-224.684	800.000	-0.151	-0.469
-223.669	800.000	0.123	-0.440
-222.655	800.000	0.102	-0.401
-221.640	-200.000	-0.000	-0.039
-220.625	-200.000	-0.006	-0.050
-219.611	-47.601	-0.305	-0.149
-218.596	146.291	-0.062	0.084
-217.582	-169.749	-0.182	-0.007
-216.567	-83.615	0.093	0.030
-215.552	11.407	0.138	0.106
-214.538	-118.786	-0.097	-0.017
-213.523	13.817	0.100	0.078
-212.509	-139.424	-0.206	0.022
-211.494	-55.389	0.325	-0.146
-210.479	-33.444	-0.151	0.084
-209.465	22.355	-0.220	0.180
-208.450	7.414	0.024	-0.018
-207.436	-50.735	-0.111	0.052
-206.421	-200.000	-0.072	0.480
-205.406	-132.145	-0.160	-0.021
-204.392	789.565	0.090	0.247
-203.377	319.378	0.149	0.284
-202.363	-200.000	-0.029	0.142
-201.348	800.000	-0.074	0.313
-200.333	118.959	0.389	0.482
-199.319	114.416	0.068	0.083
-198.304	103.688	0.126	0.148
-197.290	800.000	0.024	0.087
-196.275	-200.000	-0.053	0.321
-195.260	-196.655	-0.209	-0.001
-194.246	-126.964	0.106	0.016
-193.231	-133.963	-0.073	-0.009
-192.217	163.696	-0.131	0.184
-191.202	36.362	0.199	-0.175
-190.187	69.499	-0.156	-0.161
-189.173	-200.000	0.024	0.306
-188.158	-21.926	-0.082	0.050
-187.144	160.320	-0.098	-0.137
-186.129	118.851	0.221	-0.273
-185.114	17.920	-0.248	-0.198
-184.100	800.000	0.013	-0.045
-183.085	375.151	0.073	-0.150
-182.071	-129.439	0.442	0.061
-181.056	-137.290	-0.401	0.046
-180.042	-200.000	0.020	0.112
-179.027	800.000	-0.064	0.214
-178.012	-38.389	-0.115	0.061
-176.998	-200.000	0.005	0.079
-175.983	-79.008	0.088	0.030
-174.969	-113.106	-0.310	0.061
-173.954	-200.000	-0.000	0.105
-172.939	-15.222	0.063	0.041
-171.925	126.800	-0.090	-0.114
-170.910	143.365	-0.025	-0.033
-169.896	-131.708	0.190	-0.025
-168.881	-18.267	-0.137	0.086
-167.866	492.724	0.102	-0.233
-166.852	626.162	-0.064	-0.161
-165.837	30.746	-0.059	-0.051
-164.823	152.737	-0.034	-0.047
-163.808	-98.666	0.239	0.061
-162.793	-200.000	-0.047	-0.227
-161.779	-200.000	-0.038	-0.319
-160.764	800.000	0.016	0.051
-159.750	482.658	-0.044	0.101
-158.735	-21.373	0.068	0.041
-157.720	-67.751	0.288	-0.113
-156.706	486.166	-0.081	-0.184
-155.691	-200.000	0.033	0.164
-154.677	29.547	0.163	0.139
-153.662	-163.267	-0.375	0.018
-152.647	29.605	0.113	-0.096
-151.633	22.507	-0.177	0.145
-150.618	-200.000	0.004	-0.137
-149.604	-200.000	-0.036	-0.208
-148.589	29.496	0.055	0.047
-147.574	197.230	-0.215	-0.327
-146.560	313.879	0.093	-0.176
-145.545	-19.014	0.233	-0.145
-144.531	-7.418	0.248	-0.168
-143.516	167.758	-0.035	-0.049
-142.502	800.000	0.104	0.351
-141.487	33.484	0.127	-0.110
-140.472	-200.000	-0.006	-0.407
-139.458	95.272	-0.100	-0.114
-138.443	-47.318	0.066	0.032
-137.429	800.000	-0.039	0.173
-136.414	-81.459	0.318	0.105
-135.399	-183.676	-0.294	-0.005
-134.385	-29.190	0.258	0.148
-133.370	-77.509	-0.163	-0.056
-132.356	-30.041	-0.206	0.117
-131.341	240.513	-0.130	0.216
-130.326	271.081	-0.190	0.335
-129.312	800.000	0.044	-0.179
-128.297	800.000	0.049	0.161
-127.283	3.893	-0.174	-0.127
-126.268	-117.742	-0.247	-0.044
-125.253	-200.000	-0.014	-0.102
-124.239	-92.160	0.067	-0.019
-123.224	-114.717	-0.479	-0.091
