DTS Sentinel unit serial number:	SN413079Multiplexer serial number:	ORYXHardware model number:	OX4-SRSoftware version number:	ORYX F/W v4.00 Oryx Data Collector v3.7.2.0data status	okinstallation	princeton_trtdifferential loss correction	single-endedforward channel	channel 4reverse channel	N/Adate	2019/09/19time	15:25:34forward acquisition time	60.00reverse acquisition time	0.00gamma	496.2192k internal	0.2302k external	0.2302temperature offset calibration	1.0027default loss term (dB/km)	0.3790temperature slope calibration	1.0000multiplexer offset coefficient	1.0000multiplexer slope coefficient	1.0000fibre end	0.00T internal ref (°C)	33.91T ext. ref 1 (°C)	1.14T ext. ref 2 (°C)	30.68length (m)	temperature (°C)	Stokes	anti-Stokes-747.200	152.920	-0.169	-0.235
-746.185	1.078	-0.105	0.076
-745.171	-200.000	-0.008	0.139
-744.156	-75.741	-0.355	0.129
-743.142	800.000	0.142	0.548
-742.127	-40.510	-0.155	0.082
-741.112	15.608	0.053	-0.042
-740.098	89.161	-0.019	0.022
-739.083	-150.284	-0.254	0.020
-738.069	800.000	-0.030	0.100
-737.054	-157.527	0.177	0.011
-736.039	-74.796	-0.145	0.053
-735.025	15.552	0.162	0.129
-734.010	-200.000	-0.012	0.111
-732.996	-81.293	-0.532	-0.179
-731.981	197.379	-0.115	-0.179
-730.966	118.041	-0.053	0.067
-729.952	324.888	-0.016	-0.031
-728.937	-28.419	-0.339	0.199
-727.923	-120.081	0.116	0.020
-726.908	-157.927	-0.125	0.008
-725.894	-122.784	0.147	0.024
-724.879	111.500	-0.198	-0.243
-723.864	-200.000	-0.013	-0.311
-722.850	-200.000	-0.038	-0.239
-721.835	-122.569	-0.479	-0.079
-720.821	-55.634	-0.131	0.060
-719.806	746.722	-0.047	0.129
-718.791	13.500	-0.110	0.087
-717.777	-200.000	-0.007	0.054
-716.762	114.680	0.136	0.168
-715.748	-187.488	0.095	-0.001
-714.733	56.301	0.143	0.141
-713.718	-20.580	-0.232	-0.145
-712.704	7.473	-0.065	-0.049
-711.689	-6.588	-0.213	0.148
-710.675	-47.916	-0.145	-0.072
-709.660	800.000	-0.126	-0.385
-708.645	-200.000	-0.011	-0.057
-707.631	5.208	0.173	0.130
-706.616	-160.390	0.312	-0.017
-705.602	-92.914	-0.064	-0.018
-704.587	274.041	0.138	-0.248
-703.572	22.752	-0.291	0.242
-702.558	15.216	-0.128	0.102
-701.543	800.000	-0.052	0.184
-700.529	-103.326	-0.070	-0.017
-699.514	-200.000	0.027	-0.293
-698.499	270.537	0.121	-0.217
-697.485	-66.886	-0.227	-0.091
-696.470	163.583	-0.196	-0.280
-695.456	-42.260	-0.251	-0.131
-694.441	397.170	0.069	-0.147
-693.426	-77.875	0.377	0.132
-692.412	-68.130	-0.085	0.033
-691.397	423.148	-0.099	-0.217
-690.383	-5.469	-0.238	0.166
-689.368	-130.422	0.052	-0.007
-688.354	800.000	0.121	0.459
-687.339	-200.000	-0.036	-0.179
-686.324	31.619	-0.091	0.080
-685.310	260.265	0.198	-0.347
-684.295	-88.619	-0.173	-0.052
-683.281	-200.000	-0.012	0.281
-682.266	-16.170	0.189	-0.122
-681.251	-82.925	0.031	0.010
-680.237	-200.000	0.032	0.308
-679.222	-36.568	-0.283	-0.155
-678.208	-128.633	0.274	-0.039
-677.193	-94.464	-0.486	0.135
-676.178	349.533	-0.089	-0.179
-675.164	149.521	0.158	-0.217
-674.149	-194.814	0.380	-0.003
-673.135	431.744	-0.072	-0.158
-672.120	434.996	-0.112	0.248
-671.105	-200.000	0.012	-0.112
-670.091	-59.158	-0.095	0.042
-669.076	-78.607	0.107	-0.037
-668.062	23.875	0.050	0.042
-667.047	23.358	-0.165	0.138
-666.032	319.321	-0.069	0.133
-665.018	332.840	0.098	0.192
-664.003	-169.930	-0.166	0.006
-662.989	-47.701	0.223	0.110
-661.974	7.322	0.475	-0.360
-660.959	92.774	-0.260	-0.299
-659.945	131.418	-0.084	0.110
-658.930	-152.438	-0.196	-0.014
-657.916	-200.000	0.067	0.301
-656.901	800.000	-0.069	0.263
-655.886	261.669	-0.192	-0.339
-654.872	91.325	0.084	-0.095
-653.857	-51.448	-0.352	0.167
-652.843	-79.734	0.128	0.044
-651.828	141.241	0.239	-0.321
-650.814	297.453	-0.236	0.440
-649.799	11.243	-0.059	0.046
-648.784	-43.696	0.371	-0.190
-647.770	-44.324	0.402	0.204
-646.755	-200.000	0.060	-0.384
-645.741	342.327	0.067	-0.134
-644.726	255.770	0.107	0.186
-643.711	-62.467	-0.201	0.085
-642.697	-46.052	-0.228	0.114
-641.682	-200.000	-0.041	-0.274
-640.668	800.000	-0.036	0.116
-639.653	-200.000	0.037	-0.276
-638.638	762.352	0.061	-0.167
-637.624	-127.830	-0.128	0.019
-636.609	-72.690	-0.079	-0.030
-635.595	-171.717	-0.337	0.011
-634.580	-200.000	0.022	0.316
-633.565	-96.987	0.324	-0.086
-632.551	-200.000	-0.050	-0.238
-631.536	462.098	0.082	-0.187
-630.522	441.903	-0.061	-0.136
-629.507	-100.041	-0.215	0.054
-628.492	-200.000	0.016	-0.162
-627.478	-30.473	-0.109	0.063
-626.463	800.000	-0.095	0.270
-625.449	681.542	-0.116	0.307
-624.434	-200.000	0.007	-0.039
-623.419	64.088	-0.122	0.125
-622.405	561.733	0.101	0.249
-621.390	-22.957	-0.187	0.114
-620.376	62.451	-0.177	0.179
-619.361	800.000	0.035	0.129
-618.346	800.000	0.023	0.080
-617.332	-85.403	-0.010	0.003
-616.317	111.429	0.060	-0.074
-615.303	-158.112	0.170	-0.010
-614.288	-180.841	-0.067	0.001
-613.273	-102.064	0.073	0.018
-612.259	549.660	0.070	0.170
-611.244	-111.351	-0.590	0.122
-610.230	-27.286	0.238	0.141
-609.215	25.529	-0.110	-0.092
-608.201	346.474	-0.080	0.159
-607.186	-78.742	-0.089	-0.031
-606.171	-41.134	0.210	-0.110
-605.157	-122.482	0.235	-0.039
-604.142	-134.984	-0.266	-0.033
-603.128	-46.961	-0.190	-0.094
-602.113	50.525	0.128	-0.123
-601.098	-121.099	-0.273	-0.046
-600.084	110.728	0.102	-0.125
-599.069	43.286	0.073	0.067
-598.055	-116.258	-0.308	0.058
-597.040	-64.642	-0.034	-0.014
-596.025	-200.000	-0.391	0.000
-595.011	358.736	-0.124	-0.251
-593.996	262.007	-0.099	0.173
-592.982	-121.949	-0.168	-0.028
-591.967	-200.000	0.026	0.163
-590.952	800.000	-0.089	0.388
-589.938	-200.000	-0.017	-0.163
-588.923	40.079	-0.349	-0.318
-587.909	396.135	-0.108	-0.228
-586.894	518.733	0.069	-0.163
-585.879	-128.171	0.370	0.054
-584.865	-166.871	-0.323	0.013
-583.850	-132.102	-0.210	0.028
-582.836	24.871	-0.052	-0.044
-581.821	-18.155	0.252	0.160
-580.806	-146.450	0.383	-0.034
-579.792	-86.214	0.150	0.047
-578.777	22.023	0.181	0.150
-577.763	130.195	-0.126	-0.163
-576.748	451.425	0.041	-0.092
-575.733	-164.722	0.080	-0.004
-574.719	-55.416	-0.120	0.055
-573.704	-7.135	-0.185	-0.127
-572.690	-200.000	0.046	-0.241
-571.675	-200.000	-0.057	-0.416
-570.661	-77.900	0.198	0.069
-569.646	27.900	0.076	0.065
-568.631	248.648	-0.051	-0.087
-567.617	61.951	0.140	-0.141
-566.602	-200.000	-0.042	-0.201
-565.588	800.000	0.065	0.250
-564.573	168.889	-0.154	0.223
-563.558	-143.580	-0.264	-0.025
-562.544	-31.126	-0.203	0.116
-561.529	-200.000	-0.044	0.196
-560.515	265.819	0.334	-0.590
-559.500	-104.303	-0.182	0.043
-558.485	22.264	-0.334	0.276
-557.471	-90.719	-0.492	0.144
-556.456	-60.357	-0.303	0.131
-555.442	-3.140	-0.191	0.135
-554.427	-200.000	-0.022	-0.197
-553.412	-27.489	-0.186	-0.109
-552.398	800.000	0.044	0.181
-551.383	10.945	-0.202	0.156
-550.369	343.880	-0.030	-0.060
-549.354	-90.075	0.091	-0.027
-548.339	57.683	-0.224	-0.221
-547.325	-200.000	0.015	-0.141
-546.310	-4.406	-0.117	-0.082
-545.296	-70.440	-0.395	0.151
-544.281	-28.551	0.020	0.012
-543.266	160.986	-0.120	0.169
-542.252	-200.000	-0.015	0.185
-541.237	-146.437	0.273	0.024
-540.223	295.999	-0.123	0.228
-539.208	91.314	-0.118	-0.134
-538.193	800.000	-0.056	0.167
-537.179	-140.005	-0.043	-0.005
-536.164	-200.000	0.048	-0.349
-535.150	-200.000	-0.006	-0.376
-534.135	-102.896	0.269	-0.065
-533.121	-65.398	0.159	-0.065
-532.106	568.127	0.039	0.095
-531.091	-137.716	-0.173	0.020
-530.077	-100.392	-0.292	-0.073
-529.062	-105.374	-0.166	0.038
-528.048	-200.000	-0.040	0.431
-527.033	135.034	-0.250	0.328
-526.018	310.908	-0.165	-0.312
-525.004	-77.600	0.031	0.011
-523.989	215.495	0.038	-0.061
-522.975	331.454	0.066	-0.129
-521.960	138.158	0.067	0.089
-520.945	-75.587	-0.173	0.062
-519.931	-42.480	0.139	-0.072
-518.916	-200.000	-0.021	-0.188
-517.902	94.863	-0.160	0.184
-516.887	-158.091	0.184	-0.011
-515.872	-200.000	-0.045	0.223
-514.858	295.139	0.153	-0.282
-513.843	-45.844	-0.084	-0.042
-512.829	-151.993	-0.420	-0.031
-511.814	800.000	-0.010	-0.038
-510.799	41.849	-0.182	0.167
-509.785	186.838	0.270	-0.406
-508.770	-200.000	0.040	-0.266
-507.756	-200.000	-0.029	0.585
-506.741	-200.000	-0.015	0.081
-505.726	-144.406	0.191	0.018
-504.712	-17.781	0.194	0.123
-503.697	-125.801	-0.032	0.005
-502.683	-200.000	-0.057	0.294
-501.668	-21.803	0.166	0.102
-500.653	399.776	0.052	0.110
-499.639	-78.236	0.214	-0.074
-498.624	190.304	-0.102	-0.155
-497.610	-197.587	0.448	0.003
-496.595	-200.000	0.002	-0.125
-495.581	-200.000	0.026	-0.446
-494.566	-119.434	0.352	0.062
-493.551	65.985	-0.268	0.274
-492.537	9.655	-0.186	-0.142
-491.522	492.297	-0.193	-0.446
-490.508	-98.804	0.106	-0.027
-489.493	-24.455	0.222	0.134
-488.478	-110.906	-0.225	0.047
-487.464	-69.815	-0.111	-0.043
-486.449	-49.909	-0.264	-0.126
-485.435	-90.062	0.424	-0.125
-484.420	488.434	0.130	0.300
-483.405	54.422	-0.193	-0.188
-482.391	-115.538	-0.200	0.038
-481.376	-192.984	0.757	-0.007
-480.362	703.521	-0.071	-0.188
-479.347	-8.611	0.186	0.126
-478.332	800.000	-0.070	0.298
-477.318	125.548	-0.065	-0.083
-476.303	-30.481	-0.308	0.176
-475.289	-98.758	0.234	0.060
-474.274	-100.356	0.291	0.073
-473.259	-77.480	-0.322	-0.113
-472.245	-60.607	0.075	-0.032
-471.230	121.050	0.101	0.127
-470.216	800.000	-0.075	-0.286
-469.201	656.405	0.121	-0.313
-468.186	781.900	0.132	-0.365
-467.172	331.051	0.089	-0.173
-466.157	233.319	0.058	-0.096
-465.143	-118.903	-0.305	0.054
-464.128	-107.478	-0.231	-0.051
-463.113	-136.278	-0.172	-0.020
-462.099	800.000	0.027	0.103
-461.084	111.576	-0.127	0.154
-460.070	800.000	0.072	-0.246
-459.055	-154.600	-0.128	0.009
-458.040	31.036	-0.256	-0.221
-457.026	-157.933	0.112	0.007
-456.011	-34.596	0.091	0.050
-454.997	-24.729	-0.211	-0.127
-453.982	186.702	-0.110	-0.164
-452.968	609.110	-0.131	0.331
-451.953	-50.601	-0.075	-0.036
-450.938	800.000	-0.073	-0.209
-449.924	403.182	-0.043	-0.090
-448.909	-123.572	-0.302	-0.048
-447.895	-117.528	-0.358	-0.065
-446.880	-120.400	0.268	0.046
-445.865	-200.000	-0.006	-0.254
-444.851	800.000	-0.043	0.149
-443.836	-151.489	-0.038	0.003
-442.822	-38.719	-0.166	-0.088
-441.807	-83.042	-0.306	0.099
-440.792	51.790	-0.109	-0.105
-439.778	-51.984	-0.249	0.116
-438.763	212.571	0.166	-0.264
-437.749	-200.000	0.035	-0.229
-436.734	800.000	0.008	-0.026
-435.719	-74.611	0.332	0.120
-434.705	-16.511	0.293	-0.187
-433.690	613.411	0.123	-0.309
-432.676	-200.000	0.023	-0.155
-431.661	-114.770	-0.382	-0.073
-430.646	526.169	0.115	0.272
-429.632	-200.000	-0.013	0.351
-428.617	-88.819	0.139	0.041
-427.603	800.000	-0.035	-0.134
-426.588	57.096	0.311	0.305
-425.573	-28.280	0.268	-0.156
-424.559	-0.308	0.278	0.199
-423.544	175.217	-0.109	0.159
-422.530	-200.000	0.004	0.125
-421.515	-58.213	-0.153	0.067
-420.500	126.505	0.151	0.193
-419.486	800.000	0.068	-0.209
-418.471	20.538	-0.178	-0.145
-417.457	19.433	-0.068	0.055
-416.442	664.546	-0.057	0.147
-415.428	-100.309	0.439	0.110
-414.413	-158.910	-0.380	0.022
-413.398	60.640	0.129	-0.129
-412.384	-200.000	-0.015	-0.193
-411.369	30.842	0.278	-0.240
-410.355	74.599	0.198	0.210
-409.340	-77.402	0.141	0.049
-408.325	-22.440	0.083	0.051
-407.311	-122.450	0.341	-0.056
-406.296	-171.092	0.288	-0.010
-405.282	-98.796	-0.256	-0.066
-404.267	-80.419	0.044	0.015
-403.252	-76.694	0.371	-0.131
-402.238	-15.369	0.306	-0.197
-401.223	7.063	0.150	-0.112
-400.209	-200.000	0.016	-0.217
-399.194	-200.000	0.026	0.270
-398.179	287.559	-0.086	0.156
-397.165	-29.429	0.232	0.134
-396.150	-91.572	0.192	-0.055
-395.136	-96.262	0.459	0.122
-394.121	-13.632	-0.044	-0.029
-393.106	598.250	0.113	-0.281
-392.092	-31.461	-0.379	-0.214
-391.077	-200.000	0.014	0.112
-390.063	-103.583	-0.252	0.059
-389.048	397.384	-0.018	-0.038
-388.033	20.837	-0.061	0.050
-387.019	80.762	-0.242	0.262
-386.004	-58.330	0.121	-0.053
-384.990	-86.015	0.184	0.057
-383.975	96.569	-0.124	-0.142
-382.960	8.752	0.049	-0.037
-381.946	-45.749	0.104	0.051
-380.931	-20.919	0.042	-0.026
-379.917	142.588	0.115	-0.154
-378.902	-135.810	0.254	-0.030
-377.888	-53.602	0.251	-0.115
-376.873	-91.972	-0.113	0.032
-375.858	112.453	0.032	0.039
-374.844	399.714	0.096	-0.201
-373.829	591.115	0.114	0.283
-372.815	-200.000	0.010	0.138
-371.800	-76.898	0.107	-0.038
-370.785	-101.577	0.257	0.063
-369.771	800.000	-0.029	0.106
-368.756	-61.500	-0.267	0.113
-367.742	3.984	-0.352	-0.259
-366.727	-100.820	-0.070	0.017
-365.712	664.068	0.064	0.165
-364.698	6.604	0.164	0.122
-363.683	-9.363	-0.145	0.097
-362.669	277.230	-0.023	-0.040
-361.654	85.948	-0.234	-0.259
-360.639	-18.048	0.078	-0.049
-359.625	148.011	0.049	0.066
-358.610	2.372	0.033	0.024
-357.596	486.741	-0.045	-0.104
-356.581	800.000	0.011	-0.036
-355.566	437.921	0.065	0.142
-354.552	-49.014	0.272	-0.131
-353.537	148.877	-0.086	-0.116
-352.523	-168.395	0.205	0.008
-351.508	-99.257	0.125	-0.032
-350.493	-136.507	-0.171	0.020
-349.479	-156.957	0.448	0.028
-348.464	-200.000	0.063	-0.353
-347.450	344.837	-0.029	0.058
-346.435	377.520	-0.131	0.269
-345.420	54.472	0.405	0.391
-344.406	99.626	-0.137	0.160
-343.391	99.807	-0.147	-0.170
-342.377	-200.000	0.035	-0.163
-341.362	162.882	0.037	-0.053
-340.348	800.000	-0.058	0.225
-339.333	-7.021	0.157	0.107
-338.318	-30.516	-0.197	-0.112
-337.304	122.041	-0.062	-0.078
-336.289	-49.842	-0.094	0.045
-335.275	97.394	0.121	0.139
-334.260	-200.000	-0.003	-0.165
-333.245	-141.843	-0.020	-0.002
-332.231	-200.000	0.051	0.298
-331.216	7.877	-0.120	0.090
-330.202	-149.325	0.400	0.032
-329.187	407.007	0.096	0.203
-328.172	-25.399	-0.211	0.125
-327.158	151.552	0.116	-0.158
-326.143	-44.101	-0.280	0.141
-325.129	-200.000	0.034	0.179
-324.114	39.717	0.207	0.186
-323.099	-43.983	-0.107	0.054
-322.085	192.260	-0.104	0.158
-321.070	-134.539	0.161	0.020
-320.056	63.468	-0.179	-0.180
-319.041	-92.051	0.341	0.097
-318.026	-143.921	0.419	-0.040
-317.012	-139.281	0.031	-0.003
-315.997	-200.000	0.007	-0.052
-314.983	800.000	0.073	-0.216
-313.968	800.000	0.102	-0.308
-312.953	-191.822	0.185	-0.002
-311.939	-22.896	-0.148	0.089
-310.924	-54.295	0.160	0.073
-309.910	800.000	-0.111	0.312
-308.895	21.115	0.269	0.218
-307.880	-130.439	0.258	-0.035
-306.866	329.507	-0.123	-0.237
-305.851	-138.350	-0.085	-0.009
-304.837	248.640	0.092	-0.157
-303.822	800.000	0.043	0.145
-302.807	-141.606	0.332	0.033
-301.793	-108.122	-0.217	-0.047
-300.778	210.973	-0.137	0.215
-299.764	-78.143	0.109	-0.037
-298.749	-193.298	-0.182	0.002
-297.735	800.000	0.011	0.048
-296.720	204.400	-0.118	-0.184
-295.705	-200.000	-0.007	-0.125
-294.691	-99.163	0.178	0.045
-293.676	-87.347	-0.156	-0.047
-292.662	-200.000	0.026	0.144
-291.647	-155.325	0.258	0.017
-290.632	-172.637	-0.244	0.008
-289.618	785.067	-0.035	-0.096
-288.603	-27.150	0.517	-0.302
-287.589	55.310	0.075	0.073
-286.574	240.301	-0.158	0.264
-285.559	-34.683	0.127	0.069
-284.545	271.251	0.205	0.361
-283.530	-60.499	0.313	0.133
-282.516	151.568	0.152	0.207
-281.501	-200.000	0.060	-0.347
-280.486	74.949	0.092	0.097
-279.472	74.385	0.115	0.120
-278.457	24.562	-0.139	-0.115
-277.443	346.589	-0.067	0.132
-276.428	-55.268	-0.201	0.090
-275.413	-59.809	-0.134	-0.057
-274.399	-200.000	0.045	0.367
-273.384	7.889	0.159	0.119
-272.370	800.000	0.110	-0.380
-271.355	43.484	0.010	-0.009
-270.340	668.063	-0.057	-0.147
-269.326	-88.190	-0.173	-0.052
-268.311	-70.031	0.155	0.059
-267.297	-43.654	0.068	-0.034
-266.282	-71.878	-0.100	-0.037
-265.267	-200.000	0.021	0.108
-264.253	-5.941	-0.179	-0.123
-263.238	109.907	0.141	0.169
-262.224	-71.116	0.265	0.100
-261.209	152.034	-0.145	0.198
-260.195	800.000	0.040	0.159
-259.180	329.971	0.144	-0.277
-258.165	-83.598	0.282	0.090
-257.151	-63.614	-0.279	0.114
-256.136	444.281	-0.027	0.059
-255.122	-200.000	-0.004	-0.250
-254.107	-118.596	-0.327	0.058
-253.092	-200.000	0.039	-0.184
-252.078	-94.108	0.178	-0.049
-251.063	-19.456	-0.145	0.090
-250.049	-123.081	-0.266	-0.043
-249.034	-119.622	0.153	0.026
-248.019	800.000	-0.052	-0.170
-247.005	96.801	0.165	0.189
-245.990	-200.000	-0.004	-0.085
-244.976	-151.366	-0.154	0.011
-243.961	20.620	-0.263	-0.212
-242.946	288.377	0.102	0.185
-241.932	800.000	-0.153	-0.632
-240.917	-200.000	0.004	0.067
-239.903	585.921	-0.073	-0.179
-238.888	188.670	-0.175	0.261
-237.873	-116.675	0.313	-0.057
-236.859	54.853	0.095	-0.091
-235.844	-120.779	-0.299	0.050
-234.830	-200.000	0.005	0.124
-233.815	28.927	-0.239	-0.202
-232.800	-167.209	0.115	0.005
-231.786	-119.158	-0.081	0.014
-230.771	504.199	-0.032	-0.073
-229.757	3.927	0.134	-0.097
-228.742	153.368	-0.259	-0.354
-227.727	-200.000	0.032	0.150
-226.713	51.165	-0.269	-0.255
-225.698	723.521	0.060	0.159
-224.684	-149.528	0.329	0.026
-223.669	800.000	-0.019	0.055
-222.655	34.115	-0.173	-0.150
-221.640	181.450	0.200	-0.294
-220.625	-101.860	0.103	-0.025
-219.611	11.436	-0.118	-0.091
-218.596	-36.679	-0.178	-0.095
-217.582	-135.975	-0.086	0.010
-216.567	-23.704	0.064	0.038
-215.552	-98.534	-0.088	0.023
-214.538	-88.364	0.324	0.097
-213.523	34.816	0.085	0.074
-212.509	706.157	-0.111	0.292
-211.494	-2.400	-0.210	0.147
-210.479	-25.875	-0.186	-0.109
-209.465	-130.739	0.087	0.012
-208.450	800.000	0.065	0.193
-207.436	-200.000	-0.023	0.197
-206.421	-200.000	-0.005	-0.104
-205.406	-200.000	-0.330	-0.000
-204.392	7.533	-0.321	-0.240
-203.377	-119.166	0.255	-0.044
-202.363	33.694	0.201	-0.175
-201.348	-200.000	-0.003	-0.158
-200.333	-65.891	-0.193	-0.077
-199.319	-200.000	0.010	-0.173
-198.304	27.504	-0.028	0.023
-197.290	79.482	0.071	0.076
-196.275	-97.931	0.131	-0.034
-195.260	-82.404	0.294	-0.095
-194.246	-120.640	0.233	0.039
-193.231	26.133	-0.335	0.279
-192.217	800.000	0.117	0.423
-191.202	218.435	-0.112	-0.178
-190.187	29.440	-0.054	0.046
-189.173	-200.000	-0.003	0.102
-188.158	-2.515	0.070	0.049
-187.144	-27.186	0.073	0.043
-186.129	-34.073	-0.224	0.123
-185.114	-26.919	-0.074	0.043
-184.100	182.703	-0.153	-0.226
-183.085	178.855	-0.105	0.153
-182.071	-120.945	0.115	-0.019
-181.056	-98.624	0.258	-0.066
-180.042	-168.296	0.284	-0.011
-179.027	-148.691	-0.199	0.016
-178.012	-53.510	-0.166	-0.076
-176.998	35.534	-0.291	0.255
-175.983	-90.490	0.274	0.079
-174.969	800.000	-0.090	0.312
-173.954	-10.732	-0.081	-0.054
-172.939	-25.672	0.029	0.017
-171.925	-29.879	0.197	0.112
-170.910	548.919	-0.129	0.308
-169.896	-121.993	-0.234	-0.038
-168.881	800.000	0.053	-0.205
-167.866	-179.988	0.242	-0.005
-166.852	-200.000	-0.016	-0.114
-165.837	-107.830	0.275	-0.060
-164.823	-200.000	0.001	0.094
-163.808	-200.000	-0.035	0.180
-162.793	-200.000	-0.210	0.000
-161.779	-200.000	-0.002	-0.035
-160.764	-86.851	-0.230	0.070
-159.750	146.137	0.040	0.054
-158.735	-67.189	-0.173	0.068
-157.720	-200.000	-0.011	0.079
-156.706	-74.918	0.343	0.123
-155.691	211.817	0.065	0.103
-154.677	800.000	0.095	-0.343
-153.662	20.325	0.087	0.070
-152.647	-200.000	0.002	0.310
-151.633	389.606	-0.021	0.043
-150.618	92.670	0.108	0.122
-149.604	-40.217	0.162	-0.084
-148.589	-141.102	-0.086	-0.009
-147.574	-47.634	0.083	0.040
-146.560	800.000	-0.089	0.345
-145.545	800.000	0.040	0.169
-144.531	-200.000	-0.005	-0.027
-143.516	284.500	-0.077	-0.139
-142.502	-117.524	-0.248	-0.045
-141.487	549.265	-0.140	-0.333
-140.472	62.138	-0.138	-0.137
-139.458	-200.000	-0.004	0.022
-138.443	75.176	0.156	-0.164
-137.429	85.672	-0.164	0.179
-136.414	-140.292	-0.178	-0.019
-135.399	-123.434	-0.285	-0.045
-134.385	800.000	-0.020	0.083
-133.370	98.617	0.145	0.166
-132.356	66.437	0.177	0.179
-131.341	382.742	-0.135	0.276
-130.326	33.106	0.067	0.058
-129.312	1.132	0.162	0.116
-128.297	143.267	-0.145	0.193
-127.283	18.692	-0.258	-0.206
-126.268	262.836	-0.088	-0.152
-125.253	-67.294	0.196	-0.077
-124.239	-200.000	0.040	-0.337
-123.224	-200.000	-0.050	0.387
-122.210	-117.381	-0.327	0.059
-121.195	381.510	0.030	0.062
