DTS Sentinel unit serial number:	SN413079Multiplexer serial number:	ORYXHardware model number:	OX4-SRSoftware version number:	ORYX F/W v4.00 Oryx Data Collector v3.7.2.0data status	okinstallation	princeton_trtdifferential loss correction	single-endedforward channel	channel 4reverse channel	N/Adate	2019/09/15time	21:29:35forward acquisition time	60.00reverse acquisition time	0.00gamma	496.2192k internal	0.2318k external	0.2318temperature offset calibration	0.9943default loss term (dB/km)	0.3790temperature slope calibration	1.0000multiplexer offset coefficient	1.0000multiplexer slope coefficient	1.0000fibre end	0.00T internal ref (°C)	30.75T ext. ref 1 (°C)	8.29T ext. ref 2 (°C)	23.72length (m)	temperature (°C)	Stokes	anti-Stokes-747.200	-200.000	0.019	-0.147
-746.185	-200.000	-0.047	0.304
-745.171	102.276	0.078	0.092
-744.156	800.000	-0.123	0.386
-743.142	-3.532	-0.056	0.039
-742.127	-200.000	-0.055	0.570
-741.112	-183.827	0.211	-0.004
-740.098	800.000	0.032	0.136
-739.083	-118.320	-0.045	-0.008
-738.069	85.063	-0.105	0.116
-737.054	-144.427	-0.323	-0.030
-736.039	686.627	-0.038	-0.101
-735.025	30.049	0.293	0.253
-734.010	86.543	-0.146	0.163
-732.996	-200.000	-0.023	-0.114
-731.981	-61.652	-0.228	0.097
-730.966	-62.539	0.418	0.176
-729.952	-86.098	-0.425	0.133
-728.937	-72.622	-0.264	-0.098
-727.923	-200.000	-0.061	-0.330
-726.908	800.000	-0.127	-0.557
-725.894	-41.317	0.428	-0.223
-724.879	456.241	-0.052	0.116
-723.864	-200.000	-0.003	0.294
-722.850	434.881	-0.156	-0.343
-721.835	800.000	0.027	0.106
-720.821	-44.477	0.134	-0.068
-719.806	-7.496	-0.283	-0.194
-718.791	800.000	-0.091	-0.272
-717.777	800.000	-0.059	-0.212
-716.762	586.479	0.064	0.160
-715.748	800.000	-0.044	0.142
-714.733	-200.000	-0.040	0.284
-713.718	800.000	0.044	0.172
-712.704	-200.000	-0.028	-0.354
-711.689	587.597	0.061	-0.152
-710.675	75.452	-0.217	0.231
-709.660	-26.419	-0.333	0.197
-708.645	-161.337	0.126	-0.007
-707.631	-40.879	-0.134	0.070
-706.616	40.668	-0.260	-0.237
-705.602	618.471	-0.035	-0.088
-704.587	156.992	0.122	-0.171
-703.572	-200.000	-0.043	-0.245
-702.558	661.236	-0.037	-0.095
-701.543	-129.576	-0.319	-0.045
-700.529	-200.000	0.004	-0.062
-699.514	-95.338	-0.390	0.106
-698.499	-22.811	0.072	0.044
-697.485	-200.000	-0.029	0.232
-696.470	800.000	-0.144	-0.575
-695.456	-200.000	0.003	-0.174
-694.441	81.006	-0.220	0.239
-693.426	-111.768	-0.169	-0.035
-692.412	-200.000	-0.034	-0.448
-691.397	-171.358	0.150	0.005
-690.383	-51.184	-0.115	0.055
-689.368	52.495	0.062	0.060
-688.354	225.354	0.188	-0.307
-687.339	-21.230	-0.301	0.186
-686.324	-176.342	0.296	-0.008
-685.310	-22.189	0.085	0.052
-684.295	-107.636	-0.092	-0.020
-683.281	266.740	0.198	-0.350
-682.266	-200.000	-0.000	-0.121
-681.251	99.738	-0.141	0.165
-680.237	-30.016	0.132	-0.076
-679.222	-200.000	0.006	-0.316
-678.208	7.800	0.306	-0.231
-677.193	-138.807	-0.101	0.011
-676.178	199.769	-0.169	-0.262
-675.164	325.306	-0.005	0.010
-674.149	-128.357	0.148	0.021
-673.135	174.457	-0.067	-0.098
-672.120	-66.902	-0.157	-0.063
-671.105	-200.000	-0.048	0.240
-670.091	800.000	-0.016	-0.047
-669.076	800.000	0.065	0.235
-668.062	800.000	0.119	-0.454
-667.047	-134.606	0.297	-0.037
-666.032	88.809	-0.267	0.300
-665.018	800.000	-0.085	0.305
-664.003	84.569	0.167	-0.184
-662.989	-167.296	0.171	-0.007
-661.974	109.225	0.349	0.421
-660.959	149.321	-0.205	0.280
-659.945	-113.677	0.271	-0.053
-658.930	-92.875	0.052	0.015
-657.916	-9.438	-0.194	0.131
-656.901	-200.000	0.038	-0.293
-655.886	118.792	0.248	-0.309
-654.872	-200.000	0.058	0.302
-653.857	166.966	-0.073	0.105
-652.843	-200.000	-0.044	0.201
-651.828	-173.795	-0.146	-0.004
-650.814	-200.000	0.002	0.058
-649.799	80.219	-0.130	-0.141
-648.784	375.287	0.061	0.125
-647.770	-110.992	0.399	-0.083
-646.755	-72.743	0.065	0.024
-645.741	-200.000	-0.016	-0.148
-644.726	-68.613	0.459	0.179
-643.711	123.302	-0.173	0.219
-642.697	-119.446	-0.275	0.048
-641.682	247.461	0.287	0.488
-640.668	800.000	-0.053	-0.211
-639.653	-53.215	0.306	0.141
-638.638	-106.321	0.457	-0.103
-637.624	309.685	0.093	-0.175
-636.609	-200.000	0.011	-0.498
-635.595	800.000	0.042	0.137
-634.580	-125.549	0.192	0.029
-633.565	-33.262	0.220	0.123
-632.551	-200.000	-0.048	0.237
-631.536	129.897	-0.077	-0.099
-630.522	246.357	0.179	0.304
-629.507	-62.973	-0.026	-0.011
-628.492	96.555	-0.231	-0.266
-627.478	-121.619	0.152	0.025
-626.463	-200.000	-0.158	-0.001
-625.449	800.000	-0.046	0.189
-624.434	298.706	-0.124	0.230
-623.419	22.429	-0.148	-0.122
-622.405	386.098	0.186	0.387
-621.390	-200.000	0.002	0.186
-620.376	682.605	0.296	-0.776
-619.361	-200.000	0.014	-0.134
-618.346	-39.784	-0.336	0.177
-617.332	-193.915	-0.343	-0.003
-616.317	659.257	0.050	0.130
-615.303	659.406	-0.148	-0.383
-614.288	-17.411	0.217	-0.137
-613.273	499.755	-0.091	-0.211
-612.259	-200.000	0.077	-0.492
-611.244	800.000	-0.044	0.130
-610.230	800.000	0.016	-0.048
-609.215	234.846	-0.152	-0.253
-608.201	570.888	-0.088	0.215
-607.186	-200.000	-0.001	0.065
-606.171	2.623	-0.100	-0.073
-605.157	91.072	-0.167	0.189
-604.142	-73.701	0.123	-0.045
-603.128	-17.280	0.262	0.166
-602.113	-200.000	-0.020	-0.129
-601.098	800.000	0.082	-0.304
-600.084	-45.007	-0.112	0.056
-599.069	-200.000	-0.017	-0.097
-598.055	-40.067	-0.313	-0.164
-597.040	9.671	-0.251	-0.191
-596.025	800.000	0.022	-0.091
-595.011	180.275	0.177	0.262
-593.996	663.696	0.099	-0.258
-592.982	-84.807	0.184	0.058
-591.967	-200.000	0.024	-0.197
-590.952	-151.725	-0.225	-0.017
-589.938	-38.313	-0.201	-0.107
-588.923	95.367	0.079	-0.091
-587.909	462.832	-0.042	0.094
-586.894	350.912	-0.196	0.389
-585.879	800.000	0.073	-0.277
-584.865	-12.331	0.119	-0.078
-583.850	16.102	-0.305	-0.241
-582.836	32.521	-0.159	-0.138
-581.821	-98.355	-0.122	-0.032
-580.806	148.914	0.142	-0.193
-579.792	215.938	0.226	-0.362
-578.777	-200.000	0.021	-0.281
-577.763	23.095	0.083	-0.068
-576.748	13.065	-0.104	-0.081
-575.733	-200.000	0.067	0.326
-574.719	73.993	-0.094	-0.099
-573.704	-5.374	-0.122	-0.084
-572.690	-40.358	0.296	-0.155
-571.675	115.379	-0.123	-0.152
-570.661	318.974	-0.016	0.030
-569.646	-142.959	-0.293	-0.029
-568.631	-10.865	0.113	0.075
-567.617	725.911	-0.117	0.313
-566.602	40.406	-0.237	0.215
-565.588	-37.376	0.174	-0.094
-564.573	4.878	0.142	-0.105
-563.558	-200.000	-0.021	0.219
-562.544	-200.000	-0.012	-0.203
-561.529	-200.000	-0.008	-0.232
-560.515	800.000	0.109	0.308
-559.500	703.355	0.067	0.178
-558.485	175.179	-0.186	0.270
-557.471	-118.149	0.165	0.030
-556.456	85.102	-0.123	0.136
-555.442	-200.000	-0.016	-0.111
-554.427	800.000	-0.065	-0.241
-553.412	206.708	-0.129	-0.202
-552.398	800.000	0.036	-0.117
-551.383	-176.137	-0.085	0.002
-550.369	-194.050	-0.242	0.002
-549.354	-175.477	0.351	-0.010
-548.339	356.977	0.129	0.258
-547.325	800.000	0.036	-0.137
-546.310	-200.000	-0.012	-0.113
-545.296	-1.234	-0.253	-0.179
-544.281	-200.000	-0.009	0.449
-543.266	-39.793	-0.319	0.167
-542.252	55.473	-0.144	0.140
-541.237	-45.625	-0.250	0.124
-540.223	13.116	0.343	-0.267
-539.208	-146.058	-0.097	0.009
-538.193	-34.144	-0.367	-0.203
-537.179	-58.296	-0.060	0.026
-536.164	-120.074	-0.257	0.044
-535.150	282.600	0.070	0.125
-534.135	414.517	0.176	0.376
-533.121	-101.947	-0.259	0.063
-532.106	-32.611	-0.494	-0.276
-531.091	-200.000	0.007	0.157
-530.077	-200.000	0.000	0.050
-529.062	800.000	0.034	0.109
-528.048	-30.391	0.149	-0.085
-527.033	-80.133	0.189	0.063
-526.018	-158.463	0.392	0.023
-525.004	-200.000	-0.043	0.350
-523.989	-71.850	-0.059	0.022
-522.975	-84.684	0.084	-0.027
-521.960	800.000	0.056	-0.160
-520.945	-147.092	0.062	0.005
-519.931	75.329	-0.101	0.107
-518.916	296.853	-0.012	-0.022
-517.902	-186.611	0.277	0.004
-516.887	182.046	-0.190	0.280
-515.872	-200.000	-0.070	0.321
-514.858	-133.145	-0.097	0.012
-513.843	525.238	-0.056	0.133
-512.829	-105.340	-0.254	0.058
-511.814	-97.086	0.193	-0.051
-510.799	54.660	0.163	0.158
-509.785	-200.000	-0.018	0.186
-508.770	-56.725	0.178	0.079
-507.756	-84.714	0.172	0.054
-506.741	800.000	-0.123	-0.353
-505.726	455.477	0.042	-0.094
-504.712	-85.464	-0.234	0.073
-503.697	800.000	-0.096	0.270
-502.683	-200.000	-0.013	-0.182
-501.668	800.000	-0.042	-0.151
-500.653	-200.000	-0.004	-0.030
-499.639	-92.923	0.104	0.029
-498.624	59.542	0.129	0.128
-497.610	196.421	-0.085	-0.130
-496.595	-185.334	-0.210	-0.003
-495.581	-72.192	-0.136	-0.050
-494.566	70.649	0.215	-0.222
-493.551	-92.347	-0.280	-0.079
-492.537	-200.000	0.006	-0.241
-491.522	-63.272	0.067	-0.027
-490.508	477.066	-0.249	0.565
-489.493	39.151	-0.195	-0.175
-488.478	-50.897	0.121	-0.057
-487.464	-61.915	0.175	-0.073
-486.449	142.981	0.074	0.098
-485.435	-31.353	-0.018	0.010
-484.420	-163.545	-0.459	-0.022
-483.405	-200.000	0.033	-0.270
-482.391	28.276	-0.038	0.032
-481.376	800.000	-0.045	-0.186
-480.362	348.346	-0.095	-0.187
-479.347	-200.000	0.020	-0.112
-478.332	158.165	-0.251	0.349
-477.318	-41.416	-0.176	0.091
-476.303	372.732	-0.140	0.285
-475.289	106.458	0.216	0.257
-474.274	-200.000	-0.034	-0.249
-473.259	-12.858	-0.422	0.275
-472.245	104.273	0.187	0.220
-471.230	-156.691	0.188	-0.012
-470.216	800.000	0.015	0.059
-469.201	-120.261	-0.194	-0.033
-468.186	-175.102	0.230	0.006
-467.172	0.344	0.157	-0.112
-466.157	-59.539	0.192	0.083
-465.143	12.633	0.157	0.121
-464.128	-52.767	-0.030	0.014
-463.113	-107.176	-0.017	0.004
-462.099	-70.380	-0.189	-0.072
-461.084	-30.781	-0.123	-0.070
-460.070	-108.937	-0.173	-0.037
-459.055	-65.880	-0.226	-0.090
-458.040	-97.983	-0.105	0.027
-457.026	-109.615	-0.111	0.023
-456.011	-5.504	-0.185	-0.127
-454.997	147.027	-0.107	0.143
-453.982	-97.708	-0.411	-0.106
-452.968	-82.654	0.255	-0.083
-451.953	293.098	0.088	0.160
-450.938	-111.374	-0.459	0.094
-449.924	289.333	0.108	0.196
-448.909	-200.000	-0.029	0.339
-447.895	-52.949	0.323	-0.149
-446.880	-200.000	-0.014	-0.161
-445.865	601.948	-0.066	-0.164
-444.851	-88.819	0.152	0.045
-443.836	-111.992	-0.181	0.036
-442.822	116.509	-0.099	0.122
-441.807	-40.942	-0.166	0.086
-440.792	-200.000	0.003	-0.186
-439.778	599.796	0.156	-0.386
-438.763	-60.822	0.126	0.053
-437.749	-155.697	0.171	-0.011
-436.734	800.000	-0.119	-0.335
-435.719	-200.000	-0.008	0.042
-434.705	-20.591	0.118	-0.072
-433.690	218.915	-0.179	0.287
-432.676	330.111	0.161	0.310
-431.661	-54.671	-0.337	-0.152
-430.646	-118.952	0.254	-0.045
-429.632	-88.132	-0.289	0.087
-428.617	-166.241	-0.111	0.005
-427.603	800.000	0.061	0.200
-426.588	4.383	0.030	-0.022
-425.573	293.418	0.097	0.177
-424.559	-52.794	-0.257	-0.118
-423.544	105.095	-0.078	0.092
-422.530	800.000	0.151	0.438
-421.515	800.000	0.034	0.102
-420.500	-123.109	0.260	-0.042
-419.486	-200.000	0.003	0.048
-418.471	266.726	-0.177	-0.309
-417.457	-45.617	-0.231	-0.114
-416.442	465.260	0.142	0.318
-415.428	276.907	-0.162	-0.288
-414.413	-162.220	0.019	-0.001
-413.398	-200.000	0.021	-0.095
-412.384	355.363	0.121	-0.240
-411.369	-15.560	0.184	0.117
-410.355	-45.791	0.211	-0.104
-409.340	-30.872	0.221	-0.125
-408.325	176.802	-0.291	0.423
-407.311	89.730	-0.174	0.194
-406.296	-104.921	-0.291	-0.067
-405.282	36.166	0.167	0.147
-404.267	-156.089	0.302	-0.019
-403.252	-163.643	-0.192	0.009
-402.238	-141.437	-0.376	-0.038
-401.223	20.634	0.061	0.049
-400.209	154.049	0.177	0.242
-399.194	-200.000	0.011	0.066
-398.179	66.980	0.105	-0.107
-397.165	-200.000	0.042	-0.522
-396.150	249.157	0.051	-0.087
-395.136	-200.000	0.019	-0.619
-394.121	94.389	-0.176	-0.199
-393.106	-39.034	-0.181	-0.095
-392.092	-91.393	0.120	0.034
-391.077	-200.000	-0.028	0.564
-390.063	303.924	0.048	-0.088
-389.048	162.217	-0.073	-0.102
-388.033	-75.128	0.064	0.023
-387.019	665.009	-0.103	0.267
-386.004	20.793	-0.043	-0.035
-384.990	140.686	0.120	0.158
-383.975	-138.864	0.188	0.020
-382.960	-175.162	-0.198	-0.005
-381.946	-20.407	0.221	0.135
-380.931	-61.492	-0.273	-0.114
-379.917	500.516	-0.038	0.087
-378.902	-200.000	-0.080	-0.419
-377.888	-200.000	-0.001	-0.080
-376.873	105.353	0.329	-0.387
-375.858	12.986	0.195	0.151
-374.844	-200.000	-0.010	0.283
-373.829	87.300	-0.150	0.166
-372.815	-82.514	0.270	0.087
-371.800	-47.168	0.158	0.077
-370.785	190.189	-0.085	-0.127
-369.771	-183.031	-0.179	-0.003
-368.756	217.786	0.111	-0.176
-367.742	428.376	0.141	-0.304
-366.727	-20.570	0.114	0.070
-365.712	432.457	-0.084	0.181
-364.698	26.770	-0.039	-0.032
-363.683	-120.221	0.231	0.039
-362.669	-123.040	-0.188	0.030
-361.654	-70.962	-0.191	-0.072
-360.639	-200.000	0.006	0.188
-359.625	-200.000	0.009	-0.079
-358.610	-97.121	-0.120	-0.031
-357.596	-200.000	-0.033	0.442
-356.581	-19.899	-0.202	-0.125
-355.566	28.749	-0.068	-0.057
-354.552	-176.082	-0.129	-0.003
-353.537	31.046	0.276	-0.236
-352.523	175.422	0.171	0.247
-351.508	-200.000	-0.029	-0.215
-350.493	-200.000	-0.019	-0.226
-349.479	-115.199	0.146	0.028
-348.464	-136.883	-0.140	0.016
-347.450	-24.693	0.056	0.033
-346.435	800.000	0.094	0.311
-345.420	458.968	-0.042	-0.092
-344.406	20.836	-0.183	-0.148
-343.391	-118.572	0.382	0.067
-342.377	-200.000	0.019	-0.191
-341.362	297.188	0.112	0.204
-340.348	-12.672	-0.229	-0.149
-339.333	-19.582	-0.214	-0.132
-338.318	-17.062	0.263	-0.165
-337.304	21.328	-0.081	0.066
-336.289	-200.000	-0.011	-0.183
-335.275	-5.987	-0.064	-0.043
-334.260	-77.724	0.209	0.072
-333.245	-142.142	0.163	0.016
-332.231	800.000	-0.046	-0.195
-331.216	20.468	-0.081	-0.065
-330.202	-43.537	-0.331	-0.166
-329.187	47.927	-0.092	-0.086
-328.172	-133.244	0.124	0.016
-327.158	-200.000	-0.009	0.178
-326.143	626.428	0.029	0.074
-325.129	85.074	-0.193	0.211
-324.114	-16.559	0.180	0.114
-323.099	223.272	0.110	-0.177
-322.085	265.665	-0.188	0.326
-321.070	14.492	-0.180	-0.140
-320.056	137.488	-0.124	0.162
-319.041	-169.499	0.100	0.004
-318.026	-120.225	-0.070	-0.012
-317.012	800.000	-0.071	-0.221
-315.997	800.000	0.091	-0.375
-314.983	-200.000	0.008	0.053
-313.968	-134.471	0.106	-0.013
-312.953	-160.035	0.258	-0.014
-311.939	59.407	0.355	-0.348
-310.924	-63.332	-0.302	0.124
-309.910	800.000	-0.070	0.259
-308.895	265.893	-0.173	-0.300
-307.880	228.513	0.020	-0.033
-306.866	800.000	0.042	-0.178
-305.851	125.123	-0.086	-0.108
-304.837	-200.000	-0.008	-0.059
-303.822	-49.033	-0.176	0.084
-302.807	11.119	0.052	-0.039
-301.793	800.000	-0.020	-0.061
-300.778	800.000	0.061	-0.263
-299.764	-200.000	0.013	0.158
-298.749	89.438	0.237	0.263
-297.735	-34.235	0.147	-0.080
-296.720	-137.821	0.053	-0.006
-295.705	-4.859	0.221	-0.151
-294.691	-41.969	0.250	-0.127
-293.676	-200.000	0.042	0.298
-292.662	-57.721	0.157	-0.069
-291.647	213.117	0.049	-0.076
-290.632	235.324	-0.161	-0.264
-289.618	-55.792	0.185	0.082
-288.603	181.261	-0.187	0.273
-287.589	44.111	0.269	-0.245
-286.574	756.467	-0.074	0.199
-285.559	800.000	0.032	0.136
-284.545	344.462	0.051	0.099
-283.530	-200.000	-0.018	0.398
-282.516	-117.153	-0.243	0.044
-281.501	254.413	0.133	0.226
-280.486	-56.286	-0.260	-0.115
-279.472	-84.141	-0.025	-0.008
-278.457	23.603	0.079	0.064
-277.443	-200.000	0.125	0.590
-276.428	-47.157	-0.037	0.018
-275.413	-64.978	-0.161	0.065
-274.399	-127.660	-0.358	-0.052
-273.384	-17.535	-0.120	0.075
-272.370	213.235	0.165	-0.259
-271.355	-51.738	0.200	0.093
-270.340	46.599	0.104	0.096
-269.326	-80.871	-0.016	-0.005
-268.311	-116.921	0.299	0.054
-267.297	-105.053	0.262	0.059
-266.282	257.391	0.014	0.023
-265.267	-137.878	0.233	-0.026
-264.253	-17.053	-0.112	-0.070
-263.238	17.126	-0.116	0.091
-262.224	-106.766	-0.248	-0.055
-261.209	800.000	-0.126	0.366
-260.195	379.870	0.101	0.206
-259.180	-130.328	-0.489	-0.066
-258.165	-88.969	0.069	0.020
-257.151	439.401	0.111	-0.241
-256.136	-200.000	0.057	-0.328
-255.122	18.854	0.122	0.097
-254.107	-200.000	-0.018	-0.227
-253.092	44.613	0.168	0.154
-252.078	-70.050	-0.345	0.131
-251.063	-200.000	-0.001	-0.096
-250.049	161.667	0.135	0.188
-249.034	134.402	0.080	-0.103
-248.019	-106.489	0.099	-0.022
-247.005	800.000	-0.074	0.277
-245.990	-59.373	-0.243	-0.104
-244.976	197.686	-0.159	-0.242
-243.961	-101.407	0.246	0.060
-242.946	800.000	0.137	0.465
-241.932	563.679	0.106	0.254
-240.917	46.857	0.176	-0.163
-239.903	-70.357	-0.188	0.071
-238.888	-105.523	-0.207	-0.047
-237.873	13.055	0.061	0.047
-236.859	31.464	0.163	0.139
-235.844	645.113	0.070	-0.178
-234.830	-62.451	0.406	0.168
-233.815	-17.065	0.085	0.053
-232.800	-200.000	-0.006	0.111
-231.786	-109.477	0.281	0.059
-230.771	-3.943	0.070	-0.048
-229.757	-200.000	-0.022	-0.296
-228.742	800.000	0.023	0.090
-227.727	-200.000	0.002	0.351
-226.713	-200.000	-0.029	0.198
-225.698	-4.040	-0.173	-0.119
-224.684	-200.000	-0.036	0.216
-223.669	-134.099	-0.175	0.021
-222.655	-175.960	0.202	-0.005
-221.640	-57.046	-0.187	-0.082
-220.625	108.403	0.124	-0.147
-219.611	-200.000	0.036	0.182
-218.596	-132.329	0.414	-0.053
-217.582	-154.368	0.246	0.016
-216.567	-123.671	-0.106	0.017
-215.552	-64.590	0.465	-0.187
-214.538	-172.681	-0.176	-0.005
-213.523	23.027	-0.085	-0.069
-212.509	762.438	-0.060	-0.161
-211.494	-200.000	-0.022	0.146
-210.479	73.527	0.120	-0.124
-209.465	-162.133	0.255	0.013
-208.450	-58.826	-0.057	-0.025
-207.436	-200.000	-0.027	0.258
-206.421	75.578	-0.170	0.178
-205.406	-106.120	-0.016	0.003
-204.392	29.780	0.275	0.232
-203.377	761.296	-0.097	-0.261
-202.363	319.532	0.052	0.098
-201.348	5.930	0.324	0.238
-200.333	-200.000	0.012	0.093
-199.319	-86.058	-0.212	0.065
-198.304	-39.257	0.309	-0.161
-197.290	-114.379	0.105	-0.020
-196.275	800.000	-0.060	0.196
-195.260	-96.206	0.338	-0.089
-194.246	-200.000	0.006	0.184
-193.231	347.909	0.065	0.127
-192.217	182.786	0.229	0.334
-191.202	-162.150	-0.345	0.017
-190.187	-143.534	-0.159	0.015
-189.173	800.000	-0.037	0.120
-188.158	-155.730	-0.184	-0.012
-187.144	-166.336	-0.211	-0.009
-186.129	-153.417	0.306	-0.021
-185.114	98.124	0.220	0.251
-184.100	800.000	0.058	-0.207
-183.085	-200.000	-0.026	-0.206
-182.071	74.060	0.163	0.169
-181.056	-75.110	-0.242	-0.086
-180.042	800.000	0.105	-0.349
-179.027	451.198	-0.083	0.182
-178.012	-200.000	-0.034	-0.190
-176.998	433.732	-0.059	0.128
-175.983	-29.756	0.147	-0.083
-174.969	399.777	-0.119	-0.247
-173.954	800.000	0.040	-0.123
-172.939	63.212	-0.153	-0.152
-171.925	6.098	-0.157	-0.115
-170.910	149.326	0.149	-0.199
-169.896	-135.583	0.106	0.012
-168.881	-200.000	-0.007	-0.242
-167.866	-106.558	0.392	0.086
-166.852	-63.973	-0.160	-0.065
-165.837	-200.000	0.063	-0.312
-164.823	593.410	-0.068	0.165
-163.808	-159.795	-0.149	-0.008
-162.793	-200.000	-0.033	0.275
-161.779	-90.397	-0.130	-0.037
-160.764	235.274	-0.151	-0.246
-159.750	90.120	-0.183	-0.203
-158.735	-200.000	-0.004	0.251
-157.720	-200.000	-0.001	-0.011
-156.706	159.779	0.037	-0.052
-155.691	-104.576	-0.166	-0.038
-154.677	-102.897	0.243	-0.057
-153.662	72.614	0.059	-0.061
-152.647	800.000	-0.054	-0.205
-151.633	-37.844	0.404	-0.212
-150.618	-200.000	0.096	-0.567
-149.604	24.703	-0.079	-0.064
-148.589	-200.000	-0.001	-0.172
-147.574	-161.673	-0.228	-0.012
-146.560	-121.313	-0.095	0.016
-145.545	88.809	-0.102	0.112
-144.531	74.337	-0.064	0.067
-143.516	-200.000	-0.010	-0.066
-142.502	800.000	0.079	0.230
-141.487	172.923	0.174	-0.247
-140.472	460.803	0.134	0.296
-139.458	381.353	-0.130	0.263
-138.443	-37.041	0.030	0.016
-137.429	800.000	0.092	-0.356
-136.414	-94.892	0.199	0.053
-135.399	63.957	0.166	0.165
-134.385	229.948	-0.195	0.315
-133.370	-140.960	-0.182	-0.019
-132.356	27.198	0.316	-0.262
-131.341	-200.000	0.010	-0.146
-130.326	800.000	0.054	-0.204
-129.312	155.248	0.120	-0.163
-128.297	514.594	0.056	-0.130
-127.283	-72.459	0.131	-0.048
-126.268	-133.802	0.401	-0.049
-125.253	33.298	-0.042	0.036
-124.239	-19.380	0.291	0.178
-123.224	149.639	-0.012	0.017
