DTS Sentinel unit serial number:	SN413079Multiplexer serial number:	ORYXHardware model number:	OX4-SRSoftware version number:	ORYX F/W v4.00 Oryx Data Collector v3.7.2.0data status	okinstallation	princeton_trtdifferential loss correction	single-endedforward channel	channel 4reverse channel	N/Adate	2019/09/12time	12:55:11forward acquisition time	60.00reverse acquisition time	0.00gamma	496.2192k internal	0.2287k external	0.2287temperature offset calibration	1.0071default loss term (dB/km)	0.3790temperature slope calibration	1.0000multiplexer offset coefficient	1.0000multiplexer slope coefficient	1.0000fibre end	0.00T internal ref (°C)	40.80T ext. ref 1 (°C)	2.01T ext. ref 2 (°C)	37.22length (m)	temperature (°C)	Stokes	anti-Stokes-747.200	-117.961	0.061	0.011
-746.185	-200.000	0.035	0.482
-745.171	-200.000	-0.092	0.743
-744.156	213.327	0.109	0.177
-743.142	63.693	-0.147	-0.151
-742.127	-4.636	0.153	-0.109
-741.112	-140.551	-0.175	-0.019
-740.098	-49.791	0.234	0.114
-739.083	81.001	-0.162	-0.179
-738.069	-24.806	0.120	0.073
-737.054	-200.000	-0.026	0.279
-736.039	800.000	-0.017	0.075
-735.025	157.103	0.098	0.139
-734.010	800.000	-0.032	0.121
-732.996	110.618	-0.275	-0.339
-731.981	256.734	-0.113	-0.199
-730.966	-75.086	-0.279	-0.102
-729.952	-200.000	0.009	-0.183
-728.937	-200.000	0.009	-0.053
-727.923	-73.772	-0.307	0.115
-726.908	-114.493	-0.158	-0.031
-725.894	668.942	-0.021	-0.056
-724.879	-102.595	-0.038	0.009
-723.864	30.019	0.155	0.136
-722.850	628.488	-0.158	-0.409
-721.835	190.143	-0.057	-0.087
-720.821	-9.558	0.019	0.013
-719.806	-160.365	-0.339	-0.019
-718.791	26.679	0.168	0.144
-717.777	157.466	0.044	-0.063
-716.762	-173.516	0.194	0.006
-715.748	228.209	-0.140	0.233
-714.733	-105.213	0.280	0.065
-713.718	-146.167	-0.123	0.011
-712.704	-22.489	-0.212	-0.132
-711.689	57.136	-0.039	0.039
-710.675	-3.890	0.178	0.127
-709.660	-200.000	0.004	-0.022
-708.645	146.129	0.097	0.134
-707.631	49.022	0.170	-0.163
-706.616	-163.122	0.187	0.009
-705.602	17.036	0.286	-0.232
-704.587	-13.544	-0.148	0.098
-703.572	800.000	0.052	-0.188
-702.558	126.712	-0.090	-0.117
-701.543	-116.561	-0.451	-0.085
-700.529	-102.553	0.459	0.112
-699.514	127.129	0.249	-0.324
-698.499	81.511	-0.158	0.175
-697.485	102.535	0.038	0.045
-696.470	-26.137	-0.102	-0.061
-695.456	679.360	-0.096	-0.256
-694.441	-169.756	0.142	0.005
-693.426	-120.304	0.145	-0.025
-692.412	-51.024	-0.209	-0.100
-691.397	64.221	0.035	-0.036
-690.383	-94.675	-0.263	0.073
-689.368	-38.325	0.293	-0.159
-688.354	485.800	-0.072	-0.167
-687.339	-200.000	-0.018	-0.128
-686.324	-17.645	-0.284	-0.183
-685.310	91.576	0.261	-0.300
-684.295	-117.635	-0.154	-0.028
-683.281	48.186	0.184	0.177
-682.266	-50.042	-0.272	0.132
-681.251	205.220	0.120	0.190
-680.237	-200.000	0.028	-0.155
-679.222	91.025	-0.097	0.111
-678.208	-58.254	-0.115	-0.051
-677.193	-136.109	0.178	-0.021
-676.178	71.188	-0.307	-0.326
-675.164	92.056	0.071	0.082
-674.149	552.986	0.101	0.248
-673.135	-200.000	0.068	0.330
-672.120	-200.000	0.219	-0.000
-671.105	-11.606	-0.311	-0.209
-670.091	410.722	0.086	-0.188
-669.076	-195.294	-0.118	0.001
-668.062	227.210	0.040	-0.066
-667.047	247.012	0.059	0.101
-666.032	310.321	0.049	0.094
-665.018	159.832	0.048	-0.068
-664.003	246.319	0.161	-0.277
-662.989	133.543	0.133	-0.175
-661.974	433.002	0.068	0.150
-660.959	359.957	-0.119	-0.244
-659.945	31.317	0.131	-0.115
-658.930	28.609	0.182	0.157
-657.916	-93.269	-0.095	0.027
-656.901	273.141	-0.133	-0.240
-655.886	44.152	0.166	-0.155
-654.872	-67.611	-0.284	-0.114
-653.857	1.741	0.033	-0.024
-652.843	51.684	0.198	0.193
-651.828	68.689	0.235	0.247
-650.814	99.635	-0.116	-0.138
-649.799	-200.000	-0.043	0.563
-648.784	7.589	0.084	-0.065
-647.770	800.000	0.045	0.127
-646.755	41.520	-0.231	0.213
-645.741	73.441	0.078	-0.084
-644.726	800.000	0.017	0.049
-643.711	-51.924	0.281	-0.134
-642.697	-126.186	0.199	0.030
-641.682	800.000	-0.028	-0.099
-640.668	-154.108	-0.100	-0.007
-639.653	-44.855	0.162	-0.082
-638.638	191.537	0.188	-0.290
-637.624	233.185	0.066	0.110
-636.609	288.134	-0.006	0.012
-635.595	209.359	-0.094	-0.150
-634.580	-12.639	0.090	0.060
-633.565	-102.053	-0.372	-0.092
-632.551	-200.000	-0.035	-0.162
-631.536	62.115	-0.104	0.106
-630.522	-26.906	-0.112	0.067
-629.507	-200.000	-0.073	0.441
-628.492	-200.000	-0.000	0.016
-627.478	-200.000	-0.020	-0.188
-626.463	-32.864	0.208	-0.118
-625.449	-47.527	0.068	-0.034
-624.434	266.438	0.097	0.173
-623.419	289.336	-0.104	-0.192
-622.405	800.000	0.089	0.298
-621.390	0.647	-0.139	0.101
-620.376	46.123	-0.138	0.131
-619.361	300.199	0.067	-0.127
-618.346	15.443	0.179	0.144
-617.332	-146.601	0.164	0.015
-616.317	800.000	-0.052	-0.176
-615.303	-200.000	0.021	0.116
-614.288	351.007	-0.087	0.176
-613.273	-19.527	-0.255	-0.161
-612.259	-107.976	-0.441	0.098
-611.244	-200.000	0.017	-0.157
-610.230	91.951	-0.252	-0.289
-609.215	-101.432	-0.261	0.065
-608.201	800.000	0.035	-0.140
-607.186	161.471	-0.108	0.154
-606.171	401.904	0.154	0.330
-605.157	-26.883	0.392	0.234
-604.142	-34.318	0.174	-0.097
-603.128	580.669	-0.024	-0.061
-602.113	396.881	0.107	-0.229
-601.098	-89.654	0.099	-0.030
-600.084	-3.270	0.247	-0.175
-599.069	-161.775	0.169	0.009
-598.055	-74.736	-0.089	-0.033
-597.040	-133.856	-0.225	0.029
-596.025	-111.185	-0.148	-0.031
-595.011	-200.000	0.026	0.254
-593.996	107.885	-0.156	-0.190
-592.982	19.524	0.266	0.218
-591.967	-175.290	0.264	0.007
-590.952	186.276	-0.158	-0.240
-589.938	112.581	0.277	0.342
-588.923	-28.324	-0.214	-0.126
-587.909	-200.000	-0.000	-0.197
-586.894	183.873	-0.078	-0.117
-585.879	-102.535	-0.046	-0.011
-584.865	-24.379	0.273	-0.166
-583.850	3.368	-0.060	0.045
-582.836	18.794	0.201	-0.164
-581.821	40.790	-0.169	0.155
-580.806	-139.064	0.292	0.032
-579.792	-200.000	-0.013	0.284
-578.777	-200.000	0.053	-0.272
-577.763	-37.245	0.446	0.243
-576.748	4.519	-0.053	-0.040
-575.733	-82.194	-0.311	-0.103
-574.719	-200.000	-0.012	-0.246
-573.704	-200.000	0.008	-0.115
-572.690	-200.000	0.015	-0.094
-571.675	-43.181	0.277	-0.143
-570.661	-185.584	-0.186	0.003
-569.646	800.000	-0.021	0.065
-568.631	-35.618	-0.159	0.088
-567.617	21.116	-0.081	0.067
-566.602	-179.215	-0.211	-0.005
-565.588	9.801	-0.035	-0.027
-564.573	-123.376	-0.483	-0.079
-563.558	-200.000	0.032	-0.212
-562.544	-65.725	0.238	0.097
-561.529	-114.466	0.170	0.033
-560.515	-61.414	0.095	0.041
-559.500	800.000	-0.040	0.164
-558.485	800.000	0.012	0.047
-557.471	19.341	-0.091	0.074
-556.456	-147.039	0.447	0.039
-555.442	700.006	0.132	0.353
-554.427	616.412	0.060	0.154
-553.412	261.867	-0.106	0.187
-552.398	-46.073	0.020	0.010
-551.383	-136.687	0.229	-0.027
-550.369	-200.000	0.217	0.001
-549.354	282.620	0.018	-0.033
-548.339	518.594	0.019	-0.045
-547.325	-138.184	-0.309	-0.035
-546.310	-128.978	0.049	-0.007
-545.296	-48.939	-0.177	-0.087
-544.281	169.967	0.039	0.057
-543.266	-58.491	-0.292	0.129
-542.252	800.000	0.059	-0.178
-541.237	-200.000	0.007	0.192
-540.223	-64.257	0.236	0.098
-539.208	175.619	-0.253	-0.373
-538.193	-1.733	0.123	0.088
-537.179	-13.886	-0.104	-0.068
-536.164	-69.040	-0.046	-0.018
-535.150	-56.618	-0.276	-0.124
-534.135	51.292	0.315	-0.305
-533.121	-93.802	-0.079	-0.022
-532.106	128.488	-0.138	-0.178
-531.091	-69.195	-0.178	0.070
-530.077	-142.064	-0.269	-0.027
-529.062	-150.613	-0.082	0.006
-528.048	-30.143	0.086	0.050
-527.033	800.000	-0.077	-0.245
-526.018	-66.500	-0.311	0.126
-525.004	-200.000	0.021	-0.120
-523.989	-96.894	0.132	0.035
-522.975	-64.925	0.244	-0.100
-521.960	-27.251	0.142	0.084
-520.945	404.268	0.152	-0.326
-519.931	-71.372	-0.096	0.037
-518.916	-200.000	-0.020	-0.185
-517.902	-200.000	0.006	-0.118
-516.887	30.340	-0.330	0.286
-515.872	-63.603	0.309	0.129
-514.858	111.092	-0.195	0.239
-513.843	-113.183	0.230	0.046
-512.829	41.442	0.174	0.160
-511.814	46.591	-0.117	-0.111
-510.799	-200.000	-0.013	0.302
-509.785	-200.000	0.020	-0.351
-508.770	-126.640	-0.179	-0.027
-507.756	-18.988	0.122	-0.077
-506.741	198.545	-0.026	0.040
-505.726	450.969	-0.172	-0.386
-504.712	-141.124	-0.173	0.018
-503.697	-200.000	0.030	0.147
-502.683	14.519	-0.115	-0.091
-501.668	-3.477	0.210	0.148
-500.653	-76.258	-0.155	0.055
-499.639	-151.778	-0.370	0.028
-498.624	136.241	-0.119	0.158
-497.610	-45.471	-0.162	0.082
-496.595	-200.000	0.012	0.283
-495.581	345.704	0.150	-0.300
-494.566	3.874	-0.135	-0.100
-493.551	667.695	0.113	-0.297
-492.537	-94.468	0.168	-0.047
-491.522	-157.304	-0.249	-0.015
-490.508	530.820	0.107	-0.256
-489.493	-28.129	-0.170	0.100
-488.478	102.250	0.040	0.047
-487.464	-200.000	0.007	0.316
-486.449	-200.000	0.015	0.178
-485.435	214.736	-0.124	0.200
-484.420	-136.932	0.405	0.047
-483.405	-149.126	-0.236	0.019
-482.391	102.585	0.135	-0.161
-481.376	161.153	-0.064	-0.091
-480.362	183.164	-0.105	0.157
-479.347	-72.134	0.521	-0.196
-478.332	305.261	-0.155	-0.293
-477.318	-25.231	-0.267	0.160
-476.303	-65.751	-0.448	-0.182
-475.289	-200.000	0.012	-0.443
-474.274	-43.586	-0.149	-0.076
-473.259	800.000	0.064	0.237
-472.245	-24.781	-0.135	-0.082
-471.230	36.797	-0.283	-0.254
-470.216	-48.968	0.082	0.040
-469.201	104.592	0.121	0.145
-468.186	49.537	0.088	0.084
-467.172	425.543	-0.077	0.168
-466.157	800.000	-0.033	0.141
-465.143	800.000	0.124	-0.351
-464.128	20.054	0.046	-0.038
-463.113	529.280	0.104	-0.250
-462.099	47.848	-0.079	0.075
-461.084	-200.000	-0.015	0.318
-460.070	-62.364	-0.322	0.136
-459.055	-6.808	0.181	-0.125
-458.040	-85.113	-0.164	-0.052
-457.026	265.355	0.032	0.056
-456.011	-200.000	0.071	0.336
-454.997	216.159	-0.035	0.057
-453.982	285.429	0.183	0.334
-452.968	-101.848	0.194	-0.048
-451.953	208.930	-0.162	0.257
-450.938	800.000	0.041	-0.170
-449.924	-57.796	0.172	-0.077
-448.909	-80.721	0.220	-0.074
-447.895	-52.138	0.228	0.108
-446.880	-77.661	0.334	-0.117
-445.865	-123.006	0.139	-0.023
-444.851	150.530	-0.077	0.107
-443.836	-23.689	0.098	0.060
-442.822	-200.000	0.016	-0.078
-441.807	-53.354	-0.245	-0.114
-440.792	-200.000	-0.008	-0.071
-439.778	-172.260	-0.382	0.012
-438.763	-179.698	0.171	-0.004
-437.749	-71.542	-0.076	0.029
-436.734	598.634	0.159	-0.399
-435.719	402.753	-0.130	0.277
-434.705	121.016	-0.164	-0.207
-433.690	113.935	0.090	0.111
-432.676	800.000	-0.039	-0.172
-431.661	-136.933	0.224	-0.026
-430.646	-111.033	0.405	-0.084
-429.632	-200.000	-0.037	-0.194
-428.617	45.908	0.186	0.174
-427.603	-33.879	-0.338	0.189
-426.588	-142.193	0.215	0.022
-425.573	27.457	0.136	0.116
-424.559	172.323	-0.079	0.116
-423.544	37.529	-0.158	-0.142
-422.530	-39.362	-0.123	-0.066
-421.515	-200.000	0.046	0.334
-420.500	717.150	0.059	-0.158
-419.486	123.677	0.172	0.218
-418.471	-120.228	0.208	-0.036
-417.457	153.645	-0.073	-0.101
-416.442	-73.301	-0.120	-0.045
-415.428	113.147	-0.159	-0.195
-414.413	-200.000	-0.012	-0.524
-413.398	585.800	-0.160	-0.400
-412.384	800.000	-0.013	0.038
-411.369	-173.739	-0.216	0.007
-410.355	-200.000	0.014	-0.306
-409.340	-200.000	-0.009	-0.064
-408.325	-82.501	-0.214	0.070
-407.311	25.937	0.320	-0.270
-406.296	-92.147	-0.068	0.020
-405.282	-191.557	0.012	-0.000
-404.267	6.590	-0.154	-0.116
-403.252	335.799	-0.046	0.091
-402.238	525.463	-0.035	-0.082
-401.223	-88.771	-0.058	-0.018
-400.209	131.117	0.216	0.281
-399.194	-183.266	-0.084	0.001
-398.179	-105.317	-0.054	-0.012
-397.165	203.621	0.152	-0.238
-396.150	-116.685	-0.258	0.048
-395.136	230.766	-0.142	0.235
-394.121	-200.000	-0.010	0.117
-393.106	-200.000	-0.028	0.168
-392.092	-153.148	-0.379	-0.027
-391.077	168.069	0.020	-0.029
-390.063	136.914	0.164	0.217
-389.048	-125.097	0.069	0.011
-388.033	-66.389	-0.357	-0.143
-387.019	800.000	0.105	-0.356
-386.004	98.616	0.149	-0.174
-384.990	-95.436	0.101	0.027
-383.975	587.512	-0.109	0.272
-382.960	67.038	-0.110	0.113
-381.946	-14.558	0.195	-0.127
-380.931	-200.000	-0.048	-0.273
-379.917	-139.919	0.336	-0.036
-378.902	-200.000	0.001	-0.027
-377.888	-200.000	0.036	0.176
-376.873	-74.397	0.213	0.078
-375.858	19.228	-0.221	0.179
-374.844	475.416	0.158	-0.360
-373.829	105.340	0.065	-0.078
-372.815	119.983	0.080	-0.101
-371.800	143.605	0.148	-0.199
-370.785	-153.657	-0.132	0.009
-369.771	-127.755	0.378	0.055
-368.756	-200.000	0.006	-0.163
-367.742	-3.065	0.138	-0.097
-366.727	-3.360	0.156	-0.110
-365.712	-42.768	-0.222	0.114
-364.698	695.676	0.025	-0.066
-363.683	-18.321	-0.096	0.061
-362.669	304.164	0.051	-0.096
-361.654	-20.392	-0.118	-0.074
-360.639	158.770	-0.135	0.190
-359.625	-140.958	0.072	-0.007
-358.610	-84.625	-0.243	-0.078
-357.596	800.000	0.129	-0.398
-356.581	800.000	-0.056	0.162
-355.566	-200.000	0.001	0.214
-354.552	-134.653	-0.030	0.004
-353.537	-135.632	0.340	0.041
-352.523	-200.000	0.010	-0.081
-351.508	606.805	0.116	-0.293
-350.493	-200.000	-0.002	0.363
-349.479	361.012	0.120	-0.242
-348.464	-78.032	-0.260	-0.091
-347.450	102.638	-0.401	-0.474
-346.435	-102.421	-0.392	-0.095
-345.420	53.985	0.218	0.212
-344.406	-157.757	0.238	-0.014
-343.391	-105.278	-0.062	-0.014
-342.377	511.088	0.044	0.103
-341.362	33.396	0.133	0.116
-340.348	2.591	0.143	0.105
-339.333	183.806	-0.251	0.375
-338.318	370.393	0.079	-0.161
-337.304	-200.000	0.005	-0.121
-336.289	-129.356	0.252	0.035
-335.275	191.361	0.020	0.030
-334.260	-110.495	0.246	-0.051
-333.245	-31.134	-0.093	0.053
-332.231	421.575	-0.088	-0.190
-331.216	235.291	0.182	0.304
-330.202	733.807	-0.045	-0.120
-329.187	287.763	-0.037	0.067
-328.172	-58.427	-0.136	0.059
-327.158	-81.755	-0.257	-0.085
-326.143	-200.000	0.004	-0.421
-325.129	-200.000	-0.019	-0.244
-324.114	297.190	-0.106	-0.196
-323.099	269.424	0.109	0.194
-322.085	800.000	-0.031	0.129
-321.070	63.619	-0.138	0.140
-320.056	136.073	0.101	0.133
-319.041	-37.297	-0.280	0.151
-318.026	800.000	0.054	-0.156
-317.012	455.154	-0.080	0.178
-315.997	-156.933	0.281	-0.017
-314.983	112.142	0.080	0.098
-313.968	16.689	-0.228	0.182
-312.953	252.409	-0.088	-0.152
-311.939	-83.816	-0.193	-0.062
-310.924	-40.574	0.217	-0.113
-309.910	-103.180	0.304	0.072
-308.895	-43.351	0.233	-0.119
-307.880	-86.921	0.174	-0.054
-306.866	-135.946	-0.145	0.017
-305.851	211.927	-0.202	0.321
-304.837	327.819	-0.068	0.132
-303.822	-142.830	0.254	0.025
-302.807	800.000	0.028	0.092
-301.793	481.749	0.092	-0.209
-300.778	167.612	-0.263	-0.377
-299.764	-8.116	-0.187	0.127
-298.749	-200.000	0.006	0.102
-297.735	-200.000	0.007	-0.172
-296.720	4.487	0.048	0.035
-295.705	26.557	0.148	0.125
-294.691	-200.000	0.018	-0.128
-293.676	-161.882	-0.115	-0.006
-292.662	-2.606	0.277	0.195
-291.647	800.000	-0.091	0.370
-290.632	89.311	0.142	-0.160
-289.618	59.707	0.169	0.168
-288.603	-8.999	0.198	0.134
-287.589	89.709	0.154	0.174
-286.574	101.041	0.259	0.303
-285.559	800.000	0.096	-0.294
-284.545	-35.188	0.195	-0.107
-283.530	-48.893	0.246	-0.119
-282.516	-128.789	-0.262	0.037
-281.501	-162.131	0.250	-0.013
-280.486	-200.000	-0.048	0.374
-279.472	-35.076	0.129	-0.071
-278.457	352.889	0.113	-0.225
-277.443	29.308	-0.240	-0.206
-276.428	17.088	-0.094	0.075
-275.413	-200.000	-0.003	0.060
-274.399	89.844	0.171	0.193
-273.384	800.000	0.010	0.044
-272.370	-200.000	0.064	0.333
-271.355	188.830	-0.186	0.281
-270.340	-110.045	-0.098	-0.021
-269.326	613.309	-0.095	0.239
-268.311	-200.000	-0.025	0.159
-267.297	27.752	0.133	0.113
-266.282	-23.487	-0.237	-0.144
-265.267	-200.000	-0.009	0.043
-264.253	-64.971	-0.125	-0.051
-263.238	47.846	-0.031	-0.029
-262.224	-69.732	-0.274	-0.105
-261.209	-104.601	0.260	-0.060
-260.195	436.868	0.019	0.043
-259.180	800.000	-0.067	-0.248
-258.165	229.310	0.140	0.230
-257.151	-164.271	-0.376	-0.017
-256.136	86.265	0.015	0.016
-255.122	-142.930	0.198	0.019
-254.107	-6.325	-0.436	-0.299
-253.092	525.208	0.084	0.200
-252.078	-3.902	0.180	0.126
-251.063	186.274	0.042	0.063
-250.049	-47.126	0.140	-0.069
-249.034	-131.443	0.320	-0.043
-248.019	-200.000	-0.013	-0.169
-247.005	428.269	-0.107	0.233
-245.990	-123.477	-0.376	-0.060
-244.976	800.000	0.091	0.288
-243.961	800.000	-0.049	0.194
-242.946	731.794	0.092	-0.247
-241.932	-12.323	-0.239	-0.157
-240.917	175.167	-0.055	-0.081
-239.903	-45.339	0.042	0.021
-238.888	-160.315	-0.177	0.010
-237.873	800.000	0.050	0.203
-236.859	23.477	-0.199	-0.165
-235.844	80.287	-0.197	0.214
-234.830	-200.000	0.074	0.390
-233.815	266.539	-0.181	-0.318
-232.800	251.465	-0.161	-0.276
-231.786	-137.147	-0.154	0.018
-230.771	-163.264	0.068	0.003
-229.757	-101.995	-0.190	0.046
-228.742	-200.000	0.045	-0.252
-227.727	-200.000	0.020	0.217
-226.713	284.497	-0.044	0.080
-225.698	-97.329	0.094	-0.025
-224.684	37.782	-0.145	-0.130
-223.669	646.386	-0.169	0.433
-222.655	-5.667	0.120	0.082
-221.640	800.000	-0.125	-0.402
-220.625	-146.548	0.020	-0.002
-219.611	800.000	-0.011	-0.034
-218.596	-136.242	0.207	0.024
-217.582	-1.321	-0.120	0.085
-216.567	36.795	-0.190	-0.169
-215.552	-8.463	-0.282	0.190
-214.538	85.284	0.259	0.286
-213.523	114.274	-0.154	0.189
-212.509	-46.992	0.204	-0.100
-211.494	-133.317	0.213	0.027
-210.479	98.007	0.136	0.158
-209.465	800.000	0.058	0.211
-208.450	-200.000	-0.025	-0.233
-207.436	-77.236	-0.429	-0.150
-206.421	328.078	-0.065	0.125
-205.406	-10.085	0.248	-0.165
-204.392	-200.000	0.005	-0.184
-203.377	27.854	0.157	-0.132
-202.363	-58.476	0.056	0.024
-201.348	-200.000	0.035	-0.227
-200.333	-176.514	-0.073	-0.002
-199.319	-200.000	0.029	-0.159
-198.304	251.772	0.193	-0.330
-197.290	92.783	0.157	-0.177
-196.275	-200.000	-0.025	-0.132
-195.260	-12.282	0.168	0.110
-194.246	-85.555	0.092	0.029
-193.231	437.646	-0.013	-0.029
-192.217	-200.000	-0.005	-0.134
-191.202	800.000	-0.087	0.369
-190.187	-9.506	0.344	0.230
-189.173	299.440	0.152	0.281
-188.158	800.000	0.052	-0.192
-187.144	175.523	-0.203	0.295
-186.129	29.345	-0.019	0.016
-185.114	-200.000	0.009	-0.207
-184.100	37.169	-0.062	-0.055
-183.085	-75.238	-0.156	0.056
-182.071	-111.076	0.295	0.061
-181.056	79.984	-0.041	0.045
-180.042	199.049	-0.088	0.135
-179.027	737.199	-0.074	0.198
-178.012	-171.973	-0.189	-0.006
-176.998	175.357	0.137	0.200
-175.983	-200.000	0.084	-0.389
-174.969	-49.901	0.258	0.123
-173.954	5.795	0.187	0.139
-172.939	-95.838	0.295	-0.079
-171.925	113.450	-0.081	0.099
-170.910	-68.107	0.379	0.148
-169.896	188.114	0.099	0.148
-168.881	-53.662	-0.288	0.132
-167.866	25.129	-0.265	-0.220
-166.852	56.821	-0.304	-0.297
-165.837	16.106	0.099	-0.078
-164.823	246.664	-0.193	0.327
-163.808	257.787	-0.143	-0.247
-162.793	262.702	-0.202	0.351
-161.779	299.618	0.033	-0.061
-160.764	363.703	-0.092	-0.185
-159.750	216.167	-0.145	0.230
-158.735	82.903	-0.107	0.116
-157.720	-200.000	-0.004	0.058
-156.706	-121.069	-0.329	0.055
-155.691	-163.432	0.288	0.014
-154.677	-67.022	0.215	0.085
-153.662	800.000	-0.030	0.087
-152.647	800.000	-0.050	0.149
-151.633	126.424	0.224	-0.284
-150.618	-38.325	-0.100	0.053
-149.604	-123.499	-0.312	-0.050
-148.589	-33.515	0.134	0.074
-147.574	63.670	0.122	-0.122
-146.560	150.837	0.054	-0.074
-145.545	800.000	-0.062	-0.214
-144.531	-58.276	-0.390	-0.170
-143.516	-64.549	0.282	-0.115
-142.502	-130.566	-0.304	-0.041
-141.487	50.274	0.231	-0.219
-140.472	-103.699	-0.292	-0.068
-139.458	-99.747	-0.314	0.079
-138.443	-200.000	-0.010	-0.224
-137.429	-143.643	-0.048	0.005
-136.414	-72.211	-0.361	0.134
-135.399	800.000	-0.049	-0.146
-134.385	484.864	0.061	-0.139
-133.370	141.513	-0.335	-0.445
-132.356	-179.094	0.207	-0.005
-131.341	-26.459	-0.247	0.145
-130.326	-37.329	0.144	-0.077
-129.312	-184.747	0.174	-0.003
-128.297	6.937	0.348	0.260
-127.283	-82.796	0.164	0.053
-126.268	147.834	-0.167	0.225
-125.253	-40.473	-0.182	-0.095
-124.239	339.544	-0.041	0.079
-123.224	157.555	-0.038	-0.053
-122.210	60.049	0.181	0.179
-121.195	95.858	0.138	-0.158
