DTS Sentinel unit serial number:	SN413079Multiplexer serial number:	ORYXHardware model number:	OX4-SRSoftware version number:	ORYX F/W v4.00 Oryx Data Collector v3.7.2.0data status	okinstallation	princeton_trtdifferential loss correction	single-endedforward channel	channel 4reverse channel	N/Adate	2019/09/13time	03:33:35forward acquisition time	60.00reverse acquisition time	0.00gamma	496.2192k internal	0.2320k external	0.2320temperature offset calibration	1.0197default loss term (dB/km)	0.3790temperature slope calibration	1.0000multiplexer offset coefficient	1.0000multiplexer slope coefficient	1.0000fibre end	0.00T internal ref (°C)	27.30T ext. ref 1 (°C)	4.09T ext. ref 2 (°C)	21.69length (m)	temperature (°C)	Stokes	anti-Stokes-747.200	-200.000	-0.061	0.290
-746.185	-200.000	0.027	-0.147
-745.171	-70.137	0.462	-0.178
-744.156	-114.411	-0.126	-0.025
-743.142	11.318	0.127	0.098
-742.127	109.318	-0.121	0.146
-741.112	-84.562	-0.108	-0.035
-740.098	316.194	0.100	0.191
-739.083	-74.049	-0.082	0.030
-738.069	-114.890	-0.259	-0.050
-737.054	-200.000	0.027	0.254
-736.039	177.385	-0.092	-0.136
-735.025	-138.080	-0.414	0.047
-734.010	102.289	-0.176	-0.208
-732.996	-151.742	-0.283	0.021
-731.981	265.099	0.207	-0.365
-730.966	-96.246	-0.192	0.051
-729.952	340.580	0.126	-0.248
-728.937	-21.743	-0.178	0.109
-727.923	57.682	-0.192	0.190
-726.908	219.215	-0.217	-0.351
-725.894	54.776	-0.165	-0.160
-724.879	72.225	0.136	-0.143
-723.864	-72.519	0.346	0.129
-722.850	27.899	-0.230	-0.196
-721.835	-149.683	0.219	0.017
-720.821	45.021	-0.205	-0.191
-719.806	-96.459	-0.637	0.170
-718.791	-200.000	0.010	0.253
-717.777	-200.000	-0.001	0.080
-716.762	-1.238	-0.443	-0.316
-715.748	-200.000	0.004	-0.116
-714.733	-8.245	-0.146	-0.099
-713.718	60.079	0.128	0.128
-712.704	-69.581	0.142	-0.055
-711.689	219.456	0.208	-0.336
-710.675	-67.083	-0.379	-0.151
-709.660	-7.128	-0.287	0.197
-708.645	92.548	0.125	-0.142
-707.631	-97.789	-0.148	0.039
-706.616	-85.095	0.326	-0.103
-705.602	-200.000	0.009	0.243
-704.587	188.804	0.156	0.236
-703.572	-122.234	-0.130	-0.022
-702.558	-93.330	0.184	-0.052
-701.543	-132.752	0.370	-0.048
-700.529	-46.610	-0.068	-0.034
-699.514	646.157	0.113	0.292
-698.499	-158.580	0.140	0.008
-697.485	265.541	-0.299	-0.526
-696.470	8.859	0.377	-0.287
-695.456	-136.340	-0.177	-0.021
-694.441	800.000	0.073	0.240
-693.426	774.931	0.037	-0.103
-692.412	-200.000	-0.020	0.182
-691.397	800.000	-0.068	0.193
-690.383	-200.000	0.022	-0.164
-689.368	15.862	-0.095	0.075
-688.354	-73.216	-0.064	0.024
-687.339	-56.912	0.527	-0.235
-686.324	-200.000	-0.020	-0.092
-685.310	-60.408	0.246	-0.106
-684.295	103.744	0.100	0.119
-683.281	-73.579	0.126	-0.046
-682.266	-65.537	0.249	0.101
-681.251	231.102	-0.144	-0.238
-680.237	-82.259	0.197	-0.065
-679.222	-200.000	0.013	0.210
-678.208	-97.938	-0.330	-0.086
-677.193	-53.304	-0.347	-0.160
-676.178	52.357	-0.122	-0.117
-675.164	62.363	-0.050	-0.050
-674.149	-129.372	0.328	-0.046
-673.135	-141.663	-0.133	-0.014
-672.120	77.025	0.125	-0.134
-671.105	162.385	0.205	0.290
-670.091	32.058	-0.125	0.109
-669.076	-200.000	-0.016	0.278
-668.062	800.000	0.049	-0.196
-667.047	-145.609	-0.305	0.028
-666.032	-36.758	-0.121	0.065
-665.018	-75.409	0.332	-0.119
-664.003	800.000	0.049	-0.163
-662.989	-49.102	0.131	-0.063
-661.974	-128.363	-0.259	-0.037
-660.959	-200.000	-0.003	-0.209
-659.945	-200.000	-0.010	-0.208
-658.930	-200.000	0.019	0.282
-657.916	800.000	-0.104	0.382
-656.901	-7.210	0.224	0.153
-655.886	234.772	-0.224	0.373
-654.872	-153.063	0.425	-0.030
-653.857	-174.496	-0.068	-0.002
-652.843	173.265	0.103	-0.150
-651.828	28.461	-0.071	-0.061
-650.814	-22.254	0.158	-0.097
-649.799	-89.126	-0.081	-0.024
-648.784	800.000	-0.028	-0.098
-647.770	-59.248	0.178	0.077
-646.755	-175.306	-0.210	-0.006
-645.741	-80.462	-0.293	0.098
-644.726	-9.656	-0.053	-0.036
-643.711	-145.718	-0.359	0.032
-642.697	275.082	0.089	-0.159
-641.682	677.738	-0.026	-0.068
-640.668	5.123	-0.103	-0.077
-639.653	-175.891	-0.286	0.008
-638.638	709.113	0.137	-0.365
-637.624	-200.000	-0.012	-0.315
-636.609	-200.000	0.062	0.292
-635.595	-123.140	-0.225	0.036
-634.580	69.322	0.054	-0.056
-633.565	82.272	-0.101	-0.111
-632.551	-47.917	0.262	0.128
-631.536	-136.618	-0.131	-0.015
-630.522	-2.348	-0.228	0.161
-629.507	503.501	0.032	0.075
-628.492	-172.008	-0.148	0.005
-627.478	-200.000	0.046	0.367
-626.463	614.197	-0.065	-0.164
-625.449	113.751	0.154	-0.188
-624.434	-42.243	0.143	-0.074
-623.419	158.311	-0.187	-0.261
-622.405	-200.000	0.050	-0.315
-621.390	402.829	0.111	-0.235
-620.376	-200.000	-0.001	0.311
-619.361	800.000	0.100	-0.419
-618.346	-200.000	0.067	-0.323
-617.332	-40.226	-0.220	0.115
-616.317	107.591	-0.143	-0.172
-615.303	151.230	-0.062	0.084
-614.288	800.000	0.087	-0.282
-613.273	-200.000	0.010	-0.354
-612.259	-200.000	0.011	0.050
-611.244	-24.630	0.037	0.022
-610.230	555.559	0.049	-0.119
-609.215	460.061	0.067	-0.151
-608.201	800.000	-0.008	0.034
-607.186	-132.554	-0.286	-0.037
-606.171	-164.968	-0.072	0.003
-605.157	-138.188	0.208	0.023
-604.142	-105.221	-0.034	-0.008
-603.128	-200.000	0.000	-0.159
-602.113	-95.427	-0.033	0.009
-601.098	708.691	0.040	-0.107
-600.084	253.929	-0.117	-0.201
-599.069	-200.000	0.001	-0.092
-598.055	-200.000	0.034	-0.491
-597.040	92.160	0.167	-0.189
-596.025	-39.160	-0.447	-0.236
-595.011	228.416	-0.149	0.244
-593.996	-91.345	-0.195	-0.056
-592.982	800.000	-0.031	0.088
-591.967	-179.064	-0.293	0.007
-590.952	18.797	0.074	0.059
-589.938	-200.000	-0.036	0.198
-588.923	47.928	0.331	0.311
-587.909	203.391	0.099	-0.155
-586.894	52.585	0.110	-0.106
-585.879	-200.000	-0.033	-0.326
-584.865	325.501	-0.168	-0.323
-583.850	-54.696	0.236	0.107
-582.836	50.426	0.188	0.178
-581.821	-30.548	0.119	-0.068
-580.806	399.835	0.090	-0.189
-579.792	-200.000	0.192	0.001
-578.777	63.594	-0.121	-0.122
-577.763	-109.580	0.291	0.062
-576.748	-200.000	-0.023	-0.279
-575.733	56.191	0.157	-0.153
-574.719	-141.201	0.300	-0.031
-573.704	-131.541	0.154	0.020
-572.690	-17.955	-0.263	-0.166
-571.675	800.000	0.025	-0.072
-570.661	800.000	0.082	-0.285
-569.646	-200.000	0.010	-0.073
-568.631	-200.000	0.009	-0.258
-567.617	91.217	-0.054	-0.061
-566.602	184.583	0.009	-0.013
-565.588	67.284	-0.081	-0.083
-564.573	-172.784	-0.335	0.010
-563.558	46.138	0.182	-0.169
-562.544	-112.146	0.361	0.073
-561.529	483.524	0.048	-0.110
-560.515	-76.411	0.101	0.036
-559.500	800.000	0.059	-0.173
-558.485	-200.000	-0.035	-0.276
-557.471	94.468	-0.242	-0.276
-556.456	-200.000	-0.019	0.196
-555.442	292.587	-0.100	0.184
-554.427	-139.804	0.117	-0.012
-553.412	800.000	-0.058	0.166
-552.398	-6.846	0.162	0.111
-551.383	-194.888	0.408	-0.003
-550.369	397.795	0.187	0.392
-549.354	143.033	0.125	-0.167
-548.339	52.505	-0.145	-0.139
-547.325	-35.503	-0.113	-0.062
-546.310	-200.000	-0.042	-0.326
-545.296	1.687	-0.079	0.057
-544.281	-0.123	-0.227	0.162
-543.266	-200.000	0.000	-0.010
-542.252	-93.605	0.118	-0.033
-541.237	266.611	-0.123	-0.216
-540.223	245.521	-0.145	0.245
-539.208	800.000	0.101	-0.286
-538.193	-200.000	0.055	-0.301
-537.179	-38.169	0.027	-0.014
-536.164	-99.090	0.342	0.087
-535.150	526.033	0.100	0.236
-534.135	-200.000	0.063	0.548
-533.121	100.145	-0.118	-0.138
-532.106	-98.587	-0.068	0.017
-531.091	-200.000	0.045	0.261
-530.077	248.841	-0.109	-0.185
-529.062	800.000	-0.083	-0.280
-528.048	245.432	-0.101	0.170
-527.033	-0.500	-0.284	-0.202
-526.018	-25.689	0.216	-0.128
-525.004	-200.000	-0.016	0.516
-523.989	1.053	0.119	-0.086
-522.975	-131.254	-0.073	-0.010
-521.960	107.934	0.103	0.124
-520.945	-89.880	-0.033	-0.010
-519.931	703.163	0.106	0.279
-518.916	-200.000	-0.016	0.168
-517.902	-200.000	-0.001	0.183
-516.887	113.074	0.035	-0.043
-515.872	492.563	-0.066	-0.151
-514.858	356.487	-0.126	-0.252
-513.843	-13.877	0.087	-0.056
-512.829	-200.000	-0.015	0.369
-511.814	-128.808	-0.480	0.068
-510.799	800.000	0.007	0.030
-509.785	-200.000	-0.045	0.312
-508.770	-143.450	0.114	-0.011
-507.756	30.424	-0.176	0.150
-506.741	-200.000	-0.016	-0.090
-505.726	530.637	0.094	-0.224
-504.712	-6.206	-0.497	0.340
-503.697	-200.000	0.009	-0.185
-502.683	373.458	0.119	-0.242
-501.668	-138.309	-0.286	0.032
-500.653	2.668	0.076	-0.055
-499.639	70.170	0.394	-0.407
-498.624	-200.000	0.022	0.112
-497.610	-106.798	-0.374	0.083
-496.595	-69.169	0.056	0.022
-495.581	-200.000	-0.013	-0.069
-494.566	-98.261	0.360	0.092
-493.551	-200.000	0.006	0.135
-492.537	-14.038	0.321	0.207
-491.522	-116.027	-0.143	0.027
-490.508	-200.000	-0.051	-0.380
-489.493	79.543	-0.072	-0.077
-488.478	800.000	-0.070	0.245
-487.464	-18.748	0.064	-0.040
-486.449	152.510	0.039	-0.053
-485.435	-2.955	-0.145	-0.102
-484.420	800.000	0.037	0.162
-483.405	176.279	-0.050	0.072
-482.391	39.390	0.195	0.175
-481.376	703.813	0.063	-0.165
-480.362	263.169	-0.189	-0.328
-479.347	800.000	-0.030	0.122
-478.332	97.685	0.195	0.224
-477.318	350.760	0.099	-0.197
-476.303	-200.000	-0.027	-0.290
-475.289	126.205	0.004	0.005
-474.274	-158.324	-0.243	-0.014
-473.259	-67.881	0.270	0.106
-472.245	-28.525	0.120	-0.069
-471.230	-200.000	-0.063	0.349
-470.216	-95.224	0.182	-0.049
-469.201	-34.006	0.082	0.045
-468.186	80.903	0.156	-0.168
-467.172	800.000	-0.015	0.048
-466.157	-200.000	-0.033	0.225
-465.143	242.668	0.029	0.048
-464.128	579.302	0.127	-0.311
-463.113	-138.062	-0.462	0.051
-462.099	-88.384	0.079	0.024
-461.084	-200.000	-0.016	-0.198
-460.070	-99.284	0.070	0.018
-459.055	95.720	-0.127	-0.145
-458.040	800.000	-0.035	-0.153
-457.026	800.000	-0.093	-0.344
-456.011	-200.000	0.005	-0.113
-454.997	180.573	0.044	0.065
-453.982	-95.361	0.192	0.052
-452.968	50.059	-0.042	-0.039
-451.953	-200.000	-0.063	0.473
-450.938	355.646	0.074	0.147
-449.924	60.287	0.046	0.045
-448.909	800.000	0.074	0.234
-447.895	749.219	-0.038	-0.102
-446.880	66.540	-0.209	-0.212
-445.865	-32.134	0.062	-0.035
-444.851	-160.940	-0.357	0.019
-443.836	-175.595	0.119	0.003
-442.822	69.843	0.120	0.124
-441.807	-200.000	-0.016	0.124
-440.792	-82.646	0.080	0.026
-439.778	-188.092	0.043	0.001
-438.763	-80.851	0.132	0.044
-437.749	-69.047	0.377	-0.145
-436.734	245.134	0.118	0.199
-435.719	81.446	-0.365	0.394
-434.705	120.219	-0.180	0.223
-433.690	-122.708	-0.069	0.011
-432.676	211.220	0.057	-0.089
-431.661	-42.190	0.120	0.061
-430.646	-76.853	-0.216	0.075
-429.632	-21.341	-0.129	-0.079
-428.617	-27.725	-0.173	0.100
-427.603	1.727	-0.223	0.160
-426.588	543.365	0.140	0.333
-425.573	63.582	0.128	-0.128
-424.559	-200.000	0.056	-0.294
-423.544	-200.000	-0.003	-0.127
-422.530	88.448	0.042	-0.047
-421.515	-17.013	-0.154	-0.097
-420.500	-89.492	0.159	0.047
-419.486	-37.223	0.162	0.086
-418.471	-21.041	-0.269	0.164
-417.457	-87.519	0.136	0.041
-416.442	800.000	0.032	-0.094
-415.428	42.950	-0.100	0.091
-414.413	32.885	-0.086	-0.075
-413.398	595.568	-0.128	0.316
-412.384	48.530	0.149	0.140
-411.369	-200.000	0.050	0.271
-410.355	-193.096	-0.047	0.000
-409.340	-47.468	-0.194	0.094
-408.325	198.488	-0.079	-0.121
-407.311	-117.399	-0.371	0.067
-406.296	-94.211	-0.403	0.110
-405.282	-86.379	-0.149	0.046
-404.267	-59.678	-0.051	-0.022
-403.252	-200.000	-0.020	0.101
-402.238	-39.656	0.263	-0.137
-401.223	-200.000	0.036	-0.347
-400.209	-144.520	-0.255	0.024
-399.194	345.509	0.119	-0.233
-398.179	218.057	0.167	-0.266
-397.165	24.959	0.060	0.049
-396.150	-79.521	0.235	0.079
-395.136	-200.000	0.012	0.184
-394.121	199.316	0.048	0.073
-393.106	-200.000	-0.003	-0.172
-392.092	-200.000	-0.027	0.164
-391.077	720.751	-0.048	0.128
-390.063	80.922	-0.232	-0.250
-389.048	-154.264	0.200	0.013
-388.033	-200.000	0.015	-0.241
-387.019	-200.000	-0.084	-0.416
-386.004	140.913	-0.137	-0.180
-384.990	-41.632	-0.224	0.115
-383.975	14.317	-0.211	0.164
-382.960	-47.056	-0.309	0.150
-381.946	336.994	0.075	-0.145
-380.931	-200.000	-0.032	0.368
-379.917	45.472	-0.143	-0.132
-378.902	122.809	-0.200	0.249
-377.888	-136.524	-0.230	-0.027
-376.873	-14.926	-0.190	-0.121
-375.858	-89.223	0.335	-0.098
-374.844	-124.678	0.172	-0.027
-373.829	752.758	-0.049	-0.133
-372.815	-200.000	-0.025	-0.112
-371.800	-45.768	0.065	-0.032
-370.785	177.668	-0.190	-0.276
-369.771	-200.000	0.016	0.117
-368.756	-200.000	-0.007	-0.472
-367.742	-42.755	0.184	0.093
-366.727	-96.615	-0.105	0.028
-365.712	-115.423	-0.232	0.044
-364.698	800.000	-0.069	-0.229
-363.683	250.084	0.050	0.084
-362.669	-83.091	-0.129	0.041
-361.654	800.000	0.040	0.159
-360.639	-136.577	-0.151	-0.017
-359.625	222.192	0.114	-0.183
-358.610	122.366	0.115	-0.143
-357.596	-200.000	0.037	0.234
-356.581	-56.896	0.093	-0.041
-355.566	800.000	-0.144	0.566
-354.552	507.518	-0.071	-0.164
-353.537	-200.000	-0.044	0.297
-352.523	-50.028	0.076	0.036
-351.508	-200.000	0.005	0.058
-350.493	-200.000	0.021	0.178
-349.479	-86.278	-0.147	-0.045
-348.464	70.431	-0.032	-0.033
-347.450	-35.273	-0.071	-0.039
-346.435	-145.595	0.184	0.016
-345.420	46.729	-0.331	-0.306
-344.406	422.654	-0.186	-0.398
-343.391	15.514	-0.381	-0.298
-342.377	-85.510	0.171	-0.053
-341.362	28.059	-0.168	-0.141
-340.348	779.083	-0.050	0.135
-339.333	-146.017	0.431	-0.038
-338.318	687.137	-0.100	0.261
-337.304	155.637	0.067	-0.092
-336.289	800.000	0.048	-0.154
-335.275	-152.101	-0.269	-0.019
-334.260	264.959	-0.056	0.097
-333.245	41.796	0.229	0.207
-332.231	-53.099	-0.171	-0.078
-331.216	-200.000	-0.034	-0.241
-330.202	-83.476	0.138	-0.044
-329.187	-200.000	-0.080	0.391
-328.172	-76.223	0.113	-0.039
-327.158	51.749	0.213	-0.201
-326.143	-200.000	-0.023	-0.435
-325.129	109.980	-0.290	0.346
-324.114	-149.863	-0.058	0.005
-323.099	23.698	0.110	0.090
-322.085	439.865	-0.073	-0.159
-321.070	-149.900	0.383	0.030
-320.056	-86.010	-0.313	0.096
-319.041	44.958	0.090	0.083
-318.026	-60.352	0.259	0.110
-317.012	-200.000	0.041	0.321
-315.997	-200.000	0.055	0.259
-314.983	512.602	0.070	-0.163
-313.968	102.469	0.154	0.180
-312.953	-137.302	0.197	-0.022
-311.939	-76.952	-0.462	0.160
-310.924	321.196	-0.217	0.411
-309.910	-79.627	0.262	0.088
-308.895	-160.043	0.350	0.019
-307.880	-6.782	-0.156	0.106
-306.866	-200.000	-0.035	0.222
-305.851	28.859	0.078	0.066
-304.837	-193.488	-0.083	0.001
-303.822	-94.439	-0.087	-0.023
-302.807	-49.862	-0.216	-0.102
-301.793	800.000	0.049	0.171
-300.778	239.654	-0.138	0.228
-299.764	199.123	-0.206	-0.314
-298.749	-71.841	-0.262	-0.097
-297.735	-200.000	0.005	-0.109
-296.720	-132.495	-0.190	-0.024
-295.705	-134.146	0.323	-0.040
-294.691	-200.000	0.004	0.184
-293.676	78.323	0.056	-0.060
-292.662	800.000	0.019	-0.078
-291.647	87.800	-0.092	0.101
-290.632	-95.557	0.202	-0.054
-289.618	789.902	0.158	0.430
-288.603	-54.853	-0.242	0.108
-287.589	-200.000	0.036	0.191
-286.574	399.841	0.135	0.281
-285.559	-200.000	-0.030	-0.206
-284.545	800.000	0.036	0.119
-283.530	800.000	0.030	0.107
-282.516	165.243	0.192	-0.269
-281.501	137.696	-0.126	-0.164
-280.486	-117.825	0.064	-0.011
-279.472	-39.380	-0.134	-0.070
-278.457	166.700	0.157	-0.221
-277.443	-200.000	0.008	0.258
-276.428	32.740	0.064	0.055
-275.413	-172.148	-0.173	-0.006
-274.399	-109.966	0.292	-0.061
-273.384	-119.974	0.195	0.033
-272.370	-17.006	-0.030	0.018
-271.355	-139.837	0.215	-0.023
-270.340	96.055	-0.137	-0.155
-269.326	-200.000	0.019	0.110
-268.311	-106.178	0.192	-0.043
-267.297	-59.614	0.180	0.076
-266.282	-65.401	0.061	-0.024
-265.267	800.000	0.047	0.199
-264.253	-132.022	-0.085	0.011
-263.238	-57.278	0.147	0.064
-262.224	207.192	0.162	-0.251
-261.209	-72.784	-0.418	-0.153
-260.195	-4.990	-0.184	-0.126
-259.180	-200.000	0.015	0.305
-258.165	-36.409	0.145	-0.077
-257.151	-200.000	0.038	0.231
-256.136	124.039	0.143	-0.179
-255.122	144.115	-0.095	0.126
-254.107	496.861	0.095	0.216
-253.092	245.271	-0.184	0.308
-252.078	79.090	0.139	0.148
-251.063	302.566	-0.174	0.320
-250.049	-200.000	-0.026	-0.124
-249.034	-23.010	-0.143	0.086
-248.019	89.814	-0.061	-0.067
-247.005	-96.253	-0.166	0.044
-245.990	15.332	-0.129	0.100
-244.976	-126.379	0.231	-0.034
-243.961	192.331	-0.286	0.428
-242.946	297.404	-0.113	0.205
-241.932	-165.923	0.461	-0.020
-240.917	129.492	-0.079	0.100
-239.903	345.548	-0.152	-0.296
-238.888	0.685	0.216	0.153
-237.873	-53.502	-0.076	0.035
-236.859	-35.061	-0.230	-0.124
-235.844	-48.051	0.411	0.197
-234.830	-200.000	-0.043	0.497
-233.815	-111.601	0.115	0.023
-232.800	-133.585	-0.089	-0.011
-231.786	-79.965	-0.054	-0.018
-230.771	58.060	0.050	-0.048
-229.757	27.028	0.215	0.179
-228.742	-13.562	0.153	0.098
-227.727	87.768	0.185	-0.203
-226.713	-200.000	0.031	-0.140
-225.698	87.943	0.197	-0.216
-224.684	-64.245	0.138	-0.056
-223.669	-200.000	-0.033	0.277
-222.655	800.000	-0.050	0.142
-221.640	789.677	-0.027	-0.073
-220.625	-90.459	-0.365	0.105
-219.611	-143.446	-0.227	-0.022
-218.596	-50.977	-0.224	-0.104
-217.582	-200.000	-0.009	0.202
-216.567	-200.000	0.026	0.127
-215.552	176.302	0.055	-0.079
-214.538	208.961	0.027	-0.042
-213.523	13.820	-0.085	0.065
-212.509	-200.000	0.095	0.511
-211.494	217.141	-0.175	-0.277
-210.479	170.835	0.088	-0.125
-209.465	-54.714	-0.110	0.049
-208.450	-200.000	-0.036	-0.275
-207.436	404.576	0.196	-0.409
-206.421	-200.000	-0.026	-0.152
-205.406	800.000	0.106	0.299
-204.392	-69.263	0.045	-0.017
-203.377	-30.646	0.169	-0.095
-202.363	127.821	0.075	0.095
-201.348	135.607	-0.155	-0.200
-200.333	446.498	0.150	0.328
-199.319	-88.215	0.330	0.098
-198.304	6.531	0.132	-0.097
-197.290	52.810	0.089	0.084
-196.275	-38.324	-0.402	0.211
-195.260	-200.000	0.040	0.238
-194.246	-190.536	0.227	-0.002
-193.231	-41.446	0.318	-0.162
-192.217	-49.099	0.283	-0.134
-191.202	-200.000	0.028	-0.202
-190.187	186.848	0.155	-0.229
-189.173	-38.011	0.094	-0.050
-188.158	-200.000	-0.010	0.218
-187.144	800.000	0.098	0.359
-186.129	156.803	-0.192	-0.262
-185.114	800.000	0.069	-0.223
-184.100	-25.355	0.087	-0.051
-183.085	-200.000	-0.044	-0.233
-182.071	-200.000	-0.014	-0.097
-181.056	62.796	0.202	0.200
-180.042	-200.000	0.054	-0.269
-179.027	739.387	-0.087	0.232
-178.012	266.849	-0.176	0.304
-176.998	-200.000	-0.076	-0.329
-175.983	10.181	-0.097	-0.073
-174.969	-4.330	-0.094	0.064
-173.954	65.642	0.225	0.225
-172.939	-67.879	-0.211	0.081
-171.925	-68.063	0.375	-0.145
-170.910	60.678	0.216	0.212
-169.896	-106.766	0.051	-0.011
-168.881	-166.051	-0.056	0.002
-167.866	204.962	-0.047	-0.072
-166.852	211.344	0.048	0.074
-165.837	800.000	0.035	0.139
-164.823	94.251	-0.057	-0.064
-163.808	-200.000	0.079	-0.435
-162.793	800.000	-0.135	0.449
-161.779	800.000	0.043	0.167
-160.764	-16.639	-0.127	0.079
-159.750	-104.359	0.216	0.049
-158.735	-58.827	0.094	0.040
-157.720	-28.041	0.476	0.272
-156.706	-93.041	0.261	-0.072
-155.691	143.284	-0.150	0.198
-154.677	110.053	-0.123	0.146
-153.662	152.880	0.094	-0.127
-152.647	-76.465	0.126	-0.044
-151.633	-200.000	0.014	0.068
-150.618	-44.457	-0.220	0.109
-149.604	131.746	-0.182	-0.231
-148.589	30.960	-0.170	0.144
-147.574	72.062	-0.222	-0.228
-146.560	227.201	0.127	0.205
-145.545	-99.990	0.205	0.050
-144.531	143.336	-0.069	-0.091
-143.516	41.141	-0.198	-0.177
-142.502	564.104	0.050	0.119
-141.487	257.267	-0.079	0.134
-140.472	102.284	0.062	0.072
-139.458	-200.000	0.001	-0.010
-138.443	-158.073	-0.242	0.014
-137.429	-200.000	-0.025	-0.199
-136.414	-84.025	-0.204	-0.064
-135.399	136.485	0.106	0.137
-134.385	44.134	0.091	0.083
-133.370	21.133	0.320	0.256
-132.356	-200.000	0.029	0.255
-131.341	-112.557	0.234	0.046
-130.326	-139.601	0.294	0.031
-129.312	800.000	-0.029	0.112
-128.297	-58.655	0.304	-0.130
-127.283	-200.000	0.028	-0.335
-126.268	-38.221	0.184	0.096
-125.253	253.058	-0.067	0.113
-124.239	370.158	0.044	0.088
-123.224	-30.075	0.347	0.195
-122.210	26.579	-0.133	0.110
-121.195	-200.000	-0.025	-0.250
