DTS Sentinel unit serial number:	SN413079Multiplexer serial number:	ORYXHardware model number:	OX4-SRSoftware version number:	ORYX F/W v4.00 Oryx Data Collector v3.7.2.0data status	okinstallation	princeton_trtdifferential loss correction	single-endedforward channel	channel 4reverse channel	N/Adate	2019/09/14time	02:49:35forward acquisition time	60.00reverse acquisition time	0.00gamma	496.2192k internal	0.2323k external	0.2323temperature offset calibration	1.0130default loss term (dB/km)	0.3790temperature slope calibration	1.0000multiplexer offset coefficient	1.0000multiplexer slope coefficient	1.0000fibre end	0.00T internal ref (°C)	26.56T ext. ref 1 (°C)	3.24T ext. ref 2 (°C)	21.58length (m)	temperature (°C)	Stokes	anti-Stokes-747.200	-200.000	-0.001	0.151
-746.185	21.543	-0.291	0.239
-745.171	384.741	0.142	-0.295
-744.156	-58.341	-0.124	-0.054
-743.142	800.000	-0.063	0.189
-742.127	800.000	-0.143	0.468
-741.112	108.232	0.162	-0.195
-740.098	-4.497	-0.131	-0.091
-739.083	47.150	0.151	-0.142
-738.069	800.000	-0.040	-0.172
-737.054	-21.576	0.186	0.115
-736.039	71.098	0.126	-0.132
-735.025	-134.075	-0.234	-0.029
-734.010	-147.949	-0.150	0.013
-732.996	-92.554	0.205	-0.058
-731.981	-74.210	0.199	-0.073
-730.966	-155.620	-0.193	0.013
-729.952	95.892	-0.235	-0.270
-728.937	-29.595	-0.148	-0.085
-727.923	-81.955	-0.316	-0.104
-726.908	607.462	-0.091	-0.229
-725.894	-140.763	-0.074	-0.008
-724.879	258.139	0.131	0.228
-723.864	-46.302	-0.160	-0.079
-722.850	-55.180	-0.240	0.109
-721.835	-27.604	0.194	0.114
-720.821	-181.388	0.288	-0.006
-719.806	-200.000	0.017	0.216
-718.791	-96.745	-0.178	0.047
-717.777	131.921	0.135	0.175
-716.762	800.000	-0.103	-0.318
-715.748	294.196	-0.051	-0.094
-714.733	38.056	-0.172	-0.154
-713.718	161.913	0.173	-0.245
-712.704	-58.692	-0.094	-0.041
-711.689	-28.609	0.095	0.055
-710.675	118.738	-0.088	0.109
-709.660	-91.481	0.300	0.086
-708.645	68.538	-0.247	-0.255
-707.631	-30.427	-0.269	-0.154
-706.616	191.259	0.180	-0.273
-705.602	6.383	0.026	-0.019
-704.587	-17.036	-0.186	0.118
-703.572	-154.165	0.161	-0.011
-702.558	173.289	-0.130	0.190
-701.543	800.000	0.079	-0.266
-700.529	473.574	0.040	-0.090
-699.514	-200.000	-0.031	0.206
-698.499	-200.000	-0.001	0.193
-697.485	-200.000	0.004	0.062
-696.470	-31.332	-0.102	0.058
-695.456	6.894	0.240	-0.180
-694.441	-84.038	0.229	0.073
-693.426	800.000	-0.065	0.280
-692.412	-20.148	0.183	-0.114
-691.397	-200.000	-0.018	-0.353
-690.383	-200.000	0.021	-0.442
-689.368	800.000	0.056	0.196
-688.354	129.349	0.021	0.026
-687.339	-51.594	-0.043	-0.020
-686.324	652.870	-0.025	-0.065
-685.310	9.988	0.102	0.078
-684.295	-181.619	-0.163	0.003
-683.281	271.125	-0.193	-0.343
-682.266	-200.000	-0.022	0.324
-681.251	-36.235	-0.069	-0.038
-680.237	79.053	0.088	0.095
-679.222	-64.037	-0.306	0.126
-678.208	157.583	-0.289	0.403
-677.193	143.245	0.182	0.244
-676.178	-110.406	0.279	-0.058
-675.164	800.000	-0.100	0.370
-674.149	-177.893	0.274	-0.007
-673.135	-28.343	0.168	-0.098
-672.120	31.700	0.121	0.105
-671.105	-100.024	-0.258	-0.065
-670.091	-108.615	-0.157	0.034
-669.076	53.350	0.127	0.122
-668.062	-102.289	-0.240	0.058
-667.047	83.332	0.027	0.029
-666.032	-149.687	0.188	0.015
-665.018	-200.000	-0.083	0.412
-664.003	-42.595	-0.220	-0.113
-662.989	-96.662	0.223	-0.059
-661.974	186.446	0.108	-0.162
-660.959	-200.000	-0.067	-0.500
-659.945	33.336	0.255	-0.223
-658.930	-87.558	-0.154	-0.047
-657.916	800.000	0.052	-0.160
-656.901	-200.000	-0.026	-0.278
-655.886	-142.327	0.290	-0.029
-654.872	-200.000	0.009	0.227
-653.857	515.339	-0.065	-0.152
-652.843	50.088	-0.138	-0.131
-651.828	-158.526	-0.343	0.020
-650.814	-42.097	0.061	0.031
-649.799	-126.394	-0.237	0.036
-648.784	490.931	-0.092	-0.212
-647.770	69.977	-0.144	0.150
-646.755	48.141	-0.132	0.125
-645.741	-30.321	0.275	-0.157
-644.726	304.235	0.121	-0.226
-643.711	-200.000	0.013	-0.063
-642.697	558.172	-0.093	-0.225
-641.682	-105.085	0.330	-0.076
-640.668	-147.131	-0.423	0.036
-639.653	3.779	0.166	0.122
-638.638	-67.017	-0.114	0.045
-637.624	189.702	0.112	0.169
-636.609	800.000	0.050	-0.157
-635.595	800.000	-0.040	-0.120
-634.580	109.284	-0.185	-0.222
-633.565	-200.000	-0.002	0.010
-632.551	-32.536	-0.172	-0.096
-631.536	56.100	-0.005	0.005
-630.522	1.025	0.100	0.072
-629.507	-105.786	-0.212	0.048
-628.492	538.975	-0.075	-0.179
-627.478	172.271	-0.161	-0.232
-626.463	-176.648	0.082	-0.002
-625.449	800.000	-0.108	-0.330
-624.434	227.994	0.189	-0.309
-623.419	402.493	-0.093	-0.196
-622.405	-12.134	0.175	-0.115
-621.390	-58.625	-0.442	-0.193
-620.376	-24.740	-0.254	0.151
-619.361	-200.000	-0.038	0.216
-618.346	-24.024	0.310	-0.186
-617.332	41.131	-0.260	-0.236
-616.317	147.465	-0.104	-0.141
-615.303	63.827	0.057	0.058
-614.288	20.257	-0.335	-0.272
-613.273	-3.343	-0.378	-0.265
-612.259	32.661	-0.049	0.043
-611.244	-34.301	0.083	0.046
-610.230	424.813	0.071	-0.154
-609.215	-20.347	0.332	-0.206
-608.201	-200.000	0.002	0.247
-607.186	800.000	-0.052	0.173
-606.171	77.607	-0.207	0.222
-605.157	575.423	-0.138	-0.337
-604.142	-200.000	0.228	-0.000
-603.128	342.966	-0.064	-0.125
-602.113	-200.000	-0.024	-0.226
-601.098	377.802	-0.094	0.193
-600.084	66.586	-0.106	0.108
-599.069	554.311	-0.050	0.121
-598.055	-200.000	0.150	0.000
-597.040	-200.000	-0.022	-0.429
-596.025	-127.151	-0.328	-0.048
-595.011	-157.538	-0.240	-0.014
-593.996	-126.820	0.262	0.039
-592.982	174.554	-0.057	0.083
-591.967	323.663	-0.084	-0.161
-590.952	35.391	0.099	-0.087
-589.938	-57.947	0.153	0.067
-588.923	-130.497	0.137	-0.019
-587.909	-43.403	-0.445	0.226
-586.894	-200.000	-0.141	0.000
-585.879	-114.639	0.216	-0.041
-584.865	-200.000	0.025	-0.182
-583.850	-200.000	-0.031	0.199
-582.836	-112.797	-0.179	0.036
-581.821	68.237	-0.119	0.122
-580.806	-97.787	-0.103	-0.027
-579.792	-81.303	-0.281	-0.093
-578.777	-45.293	0.149	0.074
-577.763	51.994	0.076	0.073
-576.748	475.966	0.143	-0.325
-575.733	356.729	0.063	0.125
-574.719	-12.810	-0.201	-0.132
-573.704	800.000	0.080	-0.263
-572.690	558.382	0.040	0.096
-571.675	800.000	0.115	0.474
-570.661	146.949	-0.154	0.208
-569.646	166.312	0.045	0.064
-568.631	-82.725	0.142	-0.046
-567.617	50.907	0.260	0.247
-566.602	-74.089	-0.091	-0.033
-565.588	-130.916	-0.170	-0.023
-564.573	-200.000	-0.022	0.281
-563.558	-72.824	-0.303	-0.112
-562.544	-30.840	0.269	0.152
-561.529	-176.461	-0.092	-0.002
-560.515	-84.840	-0.219	-0.069
-559.500	-200.000	0.302	-0.000
-558.485	-200.000	-0.045	-0.226
-557.471	-200.000	-0.035	-0.158
-556.456	-49.495	0.203	-0.097
-555.442	108.024	0.034	0.040
-554.427	800.000	-0.091	-0.281
-553.412	182.382	-0.109	-0.160
-552.398	119.655	0.153	0.190
-551.383	-185.215	-0.180	0.003
-550.369	124.912	0.154	-0.194
-549.354	-200.000	-0.030	0.191
-548.339	-200.000	0.075	-0.360
-547.325	313.040	0.219	-0.413
-546.310	-121.440	-0.407	-0.068
-545.296	-200.000	0.011	-0.298
-544.281	224.271	-0.253	-0.410
-543.266	-200.000	-0.058	0.289
-542.252	-135.399	0.307	-0.037
-541.237	198.451	0.065	-0.099
-540.223	236.572	0.121	-0.201
-539.208	-119.160	0.254	0.044
-538.193	800.000	-0.060	-0.185
-537.179	800.000	-0.047	0.187
-536.164	800.000	-0.065	0.218
-535.150	800.000	-0.066	0.186
-534.135	308.548	-0.076	-0.142
-533.121	800.000	0.135	-0.543
-532.106	151.643	-0.188	-0.256
-531.091	-200.000	0.028	0.200
-530.077	-143.469	-0.109	0.010
-529.062	-200.000	0.025	-0.123
-528.048	-200.000	0.017	0.157
-527.033	-101.533	-0.328	0.080
-526.018	114.010	0.199	0.242
-525.004	57.327	0.110	0.108
-523.989	154.339	-0.112	0.154
-522.975	170.020	0.250	-0.358
-521.960	-62.897	-0.351	-0.145
-520.945	-91.888	-0.280	-0.079
-519.931	-200.000	-0.036	0.320
-518.916	-75.445	0.236	-0.084
-517.902	10.989	-0.165	-0.126
-516.887	98.897	-0.083	0.096
-515.872	267.889	-0.084	-0.147
-514.858	380.601	-0.156	-0.321
-513.843	-55.563	0.092	0.041
-512.829	-200.000	0.020	0.215
-511.814	-200.000	0.062	-0.274
-510.799	538.390	0.196	-0.465
-509.785	392.990	0.320	-0.667
-508.770	223.696	0.216	-0.349
-507.756	-130.094	-0.183	-0.025
-506.741	-21.654	-0.234	0.142
-505.726	-35.718	-0.271	0.147
-504.712	86.644	0.016	0.018
-503.697	-0.688	0.132	-0.094
-502.683	-200.000	-0.014	-0.070
-501.668	-16.726	-0.222	0.141
-500.653	-174.039	-0.208	-0.006
-499.639	-200.000	-0.047	-0.252
-498.624	-81.068	-0.193	0.064
-497.610	-191.210	-0.036	0.000
-496.595	-28.000	0.385	0.223
-495.581	-165.603	0.220	-0.010
-494.566	-153.863	-0.117	-0.008
-493.551	-48.441	0.128	0.062
-492.537	259.925	-0.058	0.101
-491.522	-200.000	-0.004	-0.128
-490.508	-12.995	-0.066	-0.043
-489.493	-200.000	0.057	0.260
-488.478	-160.912	0.338	0.018
-487.464	800.000	-0.047	-0.151
-486.449	-65.334	0.390	-0.157
-485.435	-61.962	-0.185	-0.077
-484.420	17.480	0.099	0.079
-483.405	800.000	0.046	-0.146
-482.391	-200.000	-0.031	0.290
-481.376	-135.307	-0.169	-0.020
-480.362	115.513	0.217	-0.265
-479.347	20.162	0.126	-0.102
-478.332	16.054	0.049	0.039
-477.318	800.000	-0.065	0.195
-476.303	-25.137	-0.133	-0.079
-475.289	800.000	0.039	-0.159
-474.274	-11.055	-0.290	0.191
-473.259	-52.293	-0.127	0.059
-472.245	800.000	-0.005	-0.015
-471.230	21.438	0.147	0.120
-470.216	668.791	0.048	-0.123
-469.201	800.000	0.117	-0.367
-468.186	-57.245	-0.386	0.170
-467.172	-14.287	-0.078	0.050
-466.157	103.009	-0.200	0.234
-465.143	-5.718	-0.077	-0.053
-464.128	-36.866	0.210	-0.112
-463.113	-200.000	0.008	-0.256
-462.099	139.722	-0.121	-0.159
-461.084	502.003	0.089	-0.205
-460.070	361.644	-0.142	0.284
-459.055	316.598	-0.185	0.349
-458.040	393.413	0.038	-0.079
-457.026	-123.015	-0.095	-0.015
-456.011	81.916	-0.293	0.317
-454.997	113.656	0.275	0.334
-453.982	187.977	-0.219	-0.327
-452.968	18.132	0.349	0.278
-451.953	126.873	0.100	0.127
-450.938	-200.000	-0.016	-0.169
-449.924	-200.000	0.053	0.350
-448.909	-200.000	0.041	0.187
-447.895	22.244	0.241	0.196
-446.880	-200.000	-0.024	-0.176
-445.865	1.039	-0.197	0.141
-444.851	481.539	0.067	-0.153
-443.836	800.000	0.044	-0.187
-442.822	107.004	0.138	0.164
-441.807	-200.000	0.004	0.125
-440.792	-200.000	-0.024	-0.168
-439.778	-53.725	0.294	0.134
-438.763	-6.689	0.032	-0.022
-437.749	165.771	0.029	-0.041
-436.734	-162.389	0.061	0.003
-435.719	-16.656	0.257	0.162
-434.705	800.000	-0.010	0.034
-433.690	-200.000	-0.023	-0.146
-432.676	-200.000	-0.003	0.354
-431.661	-125.348	0.058	-0.009
-430.646	-103.547	0.123	0.029
-429.632	10.517	-0.341	0.259
-428.617	132.999	0.077	0.099
-427.603	-37.678	-0.387	-0.206
-426.588	249.818	0.060	-0.101
-425.573	-24.480	0.080	-0.048
-424.559	266.886	0.040	0.071
-423.544	-198.604	0.506	-0.003
-422.530	207.429	0.067	-0.105
-421.515	590.719	-0.046	-0.113
-420.500	-200.000	-0.068	0.405
-419.486	-69.598	-0.089	0.034
-418.471	410.931	-0.151	-0.320
-417.457	-81.729	0.141	0.046
-416.442	800.000	0.032	0.093
-415.428	-200.000	-0.010	-0.303
-414.413	-200.000	0.010	-0.084
-413.398	800.000	-0.027	-0.102
-412.384	515.730	0.185	-0.430
-411.369	-101.164	-0.313	0.076
-410.355	-112.421	0.390	0.078
-409.340	-200.000	-0.024	0.156
-408.325	163.918	0.075	-0.105
-407.311	-106.159	-0.199	-0.045
-406.296	-200.000	-0.024	0.124
-405.282	-183.651	-0.149	-0.003
-404.267	-200.000	0.071	0.377
-403.252	-30.567	0.239	0.135
-402.238	-152.684	-0.302	0.021
-401.223	800.000	-0.087	-0.300
-400.209	-35.056	-0.193	-0.105
-399.194	800.000	-0.012	0.051
-398.179	572.459	0.153	0.371
-397.165	108.198	-0.056	0.067
-396.150	107.168	0.134	0.159
-395.136	-8.790	0.089	0.059
-394.121	451.867	-0.112	-0.246
-393.106	800.000	0.056	0.163
-392.092	-138.109	-0.073	0.008
-391.077	149.527	0.144	-0.194
-390.063	303.417	0.134	-0.247
-389.048	-137.528	-0.249	0.028
-388.033	-138.483	0.257	-0.028
-387.019	556.646	-0.058	0.139
-386.004	47.742	-0.128	0.119
-384.990	234.053	0.081	-0.133
-383.975	-36.440	-0.230	0.123
-382.960	-153.637	0.201	0.014
-381.946	800.000	0.052	0.157
-380.931	40.404	-0.200	-0.179
-379.917	-87.825	-0.230	0.069
-378.902	-44.335	0.199	-0.099
-377.888	-44.054	0.188	0.094
-376.873	-16.666	0.268	-0.169
-375.858	-85.974	0.177	-0.055
-374.844	-118.492	0.263	-0.046
-373.829	-68.059	-0.254	-0.099
-372.815	-129.412	0.191	-0.026
-371.800	163.392	0.216	-0.302
-370.785	-164.044	0.222	-0.010
-369.771	-150.283	0.184	0.014
-368.756	-200.000	0.010	-0.182
-367.742	-42.134	-0.146	0.074
-366.727	-200.000	0.013	-0.072
-365.712	-141.610	-0.088	-0.009
-364.698	-84.312	0.089	-0.028
-363.683	-48.636	-0.229	-0.110
-362.669	-58.976	-0.228	0.098
-361.654	-200.000	-0.011	-0.226
-360.639	-19.732	-0.230	-0.141
-359.625	-38.907	0.198	0.104
-358.610	10.670	-0.110	-0.083
-357.596	-66.573	-0.139	0.055
-356.581	663.719	-0.055	-0.142
-355.566	781.519	-0.094	-0.256
-354.552	99.559	-0.112	-0.128
-353.537	-109.851	-0.282	0.059
-352.523	-17.387	0.189	0.118
-351.508	800.000	0.120	0.378
-350.493	580.849	-0.131	-0.319
-349.479	-109.770	0.154	0.032
-348.464	800.000	-0.086	0.238
-347.450	-112.373	0.301	0.060
-346.435	-41.873	-0.406	-0.207
-345.420	-169.015	-0.130	-0.005
-344.406	-117.166	0.274	-0.050
-343.391	411.015	0.015	0.032
-342.377	800.000	-0.027	0.103
-341.362	-177.876	0.047	0.001
-340.348	-200.000	-0.020	0.125
-339.333	28.997	0.309	-0.261
-338.318	-200.000	-0.021	0.137
-337.304	33.469	-0.221	0.191
-336.289	-39.670	0.103	-0.054
-335.275	148.676	0.159	0.214
-334.260	-114.649	-0.274	-0.052
-333.245	800.000	-0.064	0.233
-332.231	-82.256	-0.266	-0.086
-331.216	-147.122	0.151	0.013
-330.202	800.000	-0.093	-0.281
-329.187	615.869	-0.087	0.217
-328.172	-148.592	-0.402	0.033
-327.158	800.000	0.094	-0.371
-326.143	175.728	-0.197	-0.283
-325.129	-82.968	0.058	0.019
-324.114	324.676	0.168	0.319
-323.099	550.217	0.143	0.340
-322.085	217.246	0.247	0.392
-321.070	-132.213	0.280	-0.036
-320.056	-114.549	-0.082	0.016
-319.041	14.542	0.150	0.117
-318.026	16.881	0.322	0.253
-317.012	-93.040	0.271	-0.075
-315.997	-56.462	-0.210	0.093
-314.983	-200.000	0.032	0.200
-313.968	-86.231	0.250	0.076
-312.953	-26.204	-0.135	0.079
-311.939	-152.922	0.359	0.025
-310.924	-56.572	-0.197	-0.087
-309.910	-30.123	0.035	0.020
-308.895	276.438	-0.224	0.396
-307.880	-11.583	0.262	-0.171
-306.866	-97.235	0.127	0.033
-305.851	62.797	0.226	-0.224
-304.837	95.224	0.067	-0.075
-303.822	516.603	-0.055	0.129
-302.807	-175.717	0.053	-0.001
-301.793	-91.031	0.199	-0.057
-300.778	-131.120	0.177	0.023
-299.764	-53.880	0.026	0.012
-298.749	800.000	-0.079	-0.252
-297.735	-73.974	0.035	-0.013
-296.720	362.813	-0.088	0.175
-295.705	-138.091	0.194	-0.021
-294.691	122.528	-0.203	0.252
-293.676	-9.377	0.106	-0.070
-292.662	-53.809	-0.247	-0.112
-291.647	17.898	0.201	-0.159
-290.632	94.996	0.114	0.129
-289.618	-42.373	-0.072	0.037
-288.603	-12.036	-0.149	-0.097
-287.589	-199.636	0.063	-0.000
-286.574	111.703	-0.107	0.128
-285.559	155.986	-0.087	0.119
-284.545	248.958	0.105	-0.176
-283.530	73.825	-0.060	0.063
-282.516	231.869	0.117	0.191
-281.501	-200.000	0.003	0.122
-280.486	-47.676	-0.159	-0.076
-279.472	323.043	0.080	0.152
-278.457	-146.629	0.056	-0.005
-277.443	360.832	0.053	-0.106
-276.428	-1.941	-0.287	0.200
-275.413	125.376	0.150	0.187
-274.399	-34.036	0.231	-0.126
-273.384	-30.929	0.034	0.019
-272.370	-106.895	0.198	-0.043
-271.355	124.866	0.248	0.309
-270.340	-200.000	-0.013	-0.192
-269.326	800.000	0.065	-0.227
-268.311	597.368	0.125	0.308
-267.297	47.903	-0.133	-0.123
-266.282	800.000	0.024	0.066
-265.267	588.676	-0.096	0.235
-264.253	-42.655	-0.308	0.156
-263.238	-200.000	0.039	-0.281
-262.224	86.215	0.140	-0.153
-261.209	171.451	0.188	-0.267
-260.195	-12.753	-0.200	-0.129
-259.180	-200.000	-0.048	0.498
-258.165	10.854	0.183	0.139
-257.151	-200.000	0.010	-0.085
-256.136	247.656	0.126	0.211
-255.122	36.070	0.171	0.149
-254.107	-29.314	-0.071	-0.040
-253.092	-200.000	-0.040	0.312
-252.078	377.946	-0.165	0.334
-251.063	-200.000	0.001	0.152
-250.049	800.000	-0.115	0.318
-249.034	-161.544	0.297	0.015
-248.019	-108.152	0.143	-0.031
-247.005	-200.000	0.053	-0.444
-245.990	-200.000	0.004	0.352
-244.976	-8.333	-0.255	-0.170
-243.961	-32.234	-0.132	-0.073
-242.946	-83.098	-0.017	-0.006
-241.932	-101.879	-0.180	-0.043
-240.917	27.089	0.159	-0.132
-239.903	81.773	-0.070	0.075
-238.888	-32.423	0.110	0.061
-237.873	-78.520	0.175	-0.059
-236.859	-39.875	0.227	0.117
-235.844	800.000	-0.048	-0.205
-234.830	-67.008	-0.202	0.079
-233.815	227.364	0.074	0.119
-232.800	-42.952	-0.185	0.093
-231.786	42.802	0.090	-0.081
-230.771	-72.612	-0.350	-0.128
-229.757	2.357	0.258	-0.185
-228.742	-62.229	-0.173	0.071
-227.727	-173.737	0.093	-0.003
-226.713	800.000	0.081	-0.229
-225.698	-102.057	0.048	0.011
-224.684	181.896	-0.144	0.210
-223.669	377.946	-0.062	0.125
-222.655	-38.672	0.361	0.189
-221.640	3.023	0.133	-0.096
-220.625	-69.102	-0.518	-0.197
-219.611	-109.950	-0.481	0.100
-218.596	236.013	-0.120	-0.196
-217.582	33.635	-0.096	-0.083
-216.567	-71.295	-0.501	0.186
-215.552	63.006	-0.140	0.138
-214.538	-146.156	0.162	-0.014
-213.523	397.930	0.050	-0.102
-212.509	-158.911	0.087	0.005
-211.494	800.000	-0.075	0.226
-210.479	-179.208	-0.188	0.004
-209.465	-200.000	0.006	0.185
-208.450	-103.702	-0.175	0.041
-207.436	217.339	-0.049	0.077
-206.421	552.570	0.041	-0.097
-205.406	124.144	0.161	0.200
-204.392	326.939	0.068	0.129
-203.377	59.147	-0.160	0.156
-202.363	761.882	0.098	0.264
-201.348	-200.000	-0.032	-0.227
-200.333	-7.490	-0.347	0.232
-199.319	17.148	-0.192	-0.150
-198.304	-114.566	0.117	0.022
-197.290	-200.000	0.038	-0.320
-196.275	78.075	0.333	0.351
-195.260	-200.000	0.028	0.423
-194.246	-200.000	0.013	0.137
-193.231	402.269	0.039	0.080
-192.217	-200.000	0.020	0.268
-191.202	800.000	0.096	0.385
-190.187	-200.000	-0.031	0.189
-189.173	25.685	0.082	-0.068
-188.158	-118.642	0.245	-0.043
-187.144	-66.521	0.290	0.114
-186.129	-41.778	-0.281	-0.142
-185.114	-200.000	0.000	0.135
-184.100	800.000	0.053	-0.199
-183.085	222.306	0.089	0.141
-182.071	20.772	0.106	-0.085
-181.056	592.965	-0.032	0.079
-180.042	800.000	0.143	0.404
-179.027	71.510	-0.041	-0.042
-178.012	800.000	0.053	-0.201
-176.998	-16.916	0.185	-0.115
-175.983	-131.976	-0.139	0.018
-174.969	-7.707	0.069	0.046
-173.954	-28.362	0.030	0.017
-172.939	-175.860	0.352	-0.009
-171.925	-4.588	0.227	0.155
-170.910	42.846	-0.153	0.137
-169.896	-200.000	-0.017	-0.093
-168.881	53.146	-0.024	-0.023
-167.866	-132.854	-0.126	0.016
-166.852	419.072	-0.147	-0.311
-165.837	111.463	0.160	0.190
-164.823	800.000	0.031	-0.110
-163.808	-38.149	-0.182	0.095
-162.793	-98.686	0.425	0.107
-161.779	-28.347	-0.190	0.108
-160.764	-64.138	0.220	0.089
-159.750	-200.000	-0.047	-0.208
-158.735	108.694	0.096	0.113
-157.720	-108.643	0.196	-0.042
-156.706	-200.000	-0.038	-0.218
-155.691	234.741	-0.067	0.109
-154.677	-200.000	0.009	0.063
-153.662	59.144	0.149	0.144
-152.647	-8.649	-0.367	0.243
-151.633	41.053	0.167	-0.149
-150.618	356.034	0.186	0.366
-149.604	-88.699	0.217	0.064
-148.589	-167.408	-0.425	-0.017
-147.574	-72.342	0.368	0.135
-146.560	-200.000	0.038	-0.213
-145.545	198.790	0.062	-0.093
-144.531	-118.850	0.217	0.038
-143.516	-16.474	0.240	0.150
-142.502	19.075	-0.256	0.202
-141.487	-182.250	0.136	0.003
-140.472	53.201	0.162	-0.153
-139.458	800.000	-0.025	-0.103
-138.443	-100.656	-0.137	0.033
-137.429	-46.627	0.120	0.058
-136.414	99.852	-0.083	0.095
-135.399	-200.000	0.035	-0.231
-134.385	74.271	0.152	0.158
-133.370	-200.000	0.024	-0.350
-132.356	148.134	-0.103	0.137
-131.341	75.448	-0.347	0.361
-130.326	-116.854	0.231	0.042
-129.312	494.934	0.047	-0.107
-128.297	-200.000	-0.040	0.188
-127.283	-200.000	-0.031	-0.214
-126.268	-200.000	-0.030	0.456
-125.253	-200.000	0.047	0.220
-124.239	-34.361	0.203	-0.110
-123.224	-200.000	0.030	0.242
-122.210	-123.078	-0.095	-0.015
