DTS Sentinel unit serial number:	SN413079Multiplexer serial number:	ORYXHardware model number:	OX4-SRSoftware version number:	ORYX F/W v4.00 Oryx Data Collector v3.7.2.0data status	okinstallation	princeton_trtdifferential loss correction	single-endedforward channel	channel 4reverse channel	N/Adate	2019/09/14time	11:09:34forward acquisition time	60.00reverse acquisition time	0.00gamma	496.2192k internal	0.2294k external	0.2294temperature offset calibration	1.0150default loss term (dB/km)	0.3790temperature slope calibration	1.0000multiplexer offset coefficient	1.0000multiplexer slope coefficient	1.0000fibre end	0.00T internal ref (°C)	36.37T ext. ref 1 (°C)	4.44T ext. ref 2 (°C)	34.11length (m)	temperature (°C)	Stokes	anti-Stokes-747.200	-34.375	0.280	-0.157
-746.185	-72.517	0.385	0.146
-745.171	-200.000	0.027	0.280
-744.156	-78.708	0.190	-0.066
-743.142	-200.000	0.027	-0.214
-742.127	-48.454	-0.228	-0.112
-741.112	-127.188	0.229	0.034
-740.098	67.669	0.202	-0.211
-739.083	102.461	-0.104	-0.124
-738.069	79.662	-0.265	0.291
-737.054	-200.000	0.057	0.481
-736.039	-30.898	0.210	-0.121
-735.025	-102.378	0.053	0.013
-734.010	17.753	-0.248	-0.202
-732.996	-101.306	0.237	0.059
-731.981	-200.000	-0.004	-0.180
-730.966	-200.000	0.036	0.339
-729.952	-23.243	-0.277	-0.170
-728.937	87.554	0.226	-0.256
-727.923	268.902	-0.291	-0.522
-726.908	157.700	0.082	0.117
-725.894	-189.089	-0.121	-0.001
-724.879	800.000	0.066	0.191
-723.864	7.675	-0.166	0.127
-722.850	37.821	-0.132	-0.120
-721.835	-108.300	-0.142	0.031
-720.821	34.743	-0.352	-0.314
-719.806	-51.958	0.075	-0.035
-718.791	51.367	-0.301	0.292
-717.777	-110.720	-0.128	0.027
-716.762	126.666	-0.206	-0.267
-715.748	35.805	0.121	0.109
-714.733	-89.961	-0.496	0.148
-713.718	-200.000	-0.022	0.113
-712.704	-20.200	-0.209	0.131
-711.689	129.466	0.126	0.165
-710.675	-77.884	0.203	0.071
-709.660	10.344	-0.078	-0.061
-708.645	-31.351	-0.271	0.156
-707.631	-200.000	-0.011	-0.116
-706.616	-0.978	-0.056	0.040
-705.602	36.727	0.285	-0.257
-704.587	-127.362	-0.213	-0.032
-703.572	0.038	-0.124	0.090
-702.558	-200.000	0.053	-0.352
-701.543	-200.000	0.040	-0.199
-700.529	221.900	-0.253	-0.415
-699.514	-151.676	0.071	0.005
-698.499	206.995	-0.163	0.259
-697.485	-115.584	-0.140	-0.027
-696.470	5.552	-0.294	0.222
-695.456	195.978	-0.173	-0.269
-694.441	106.858	0.168	-0.203
-693.426	184.580	-0.147	0.222
-692.412	1.047	0.108	0.079
-691.397	-200.000	-0.024	-0.259
-690.383	243.877	-0.096	-0.165
-689.368	477.184	-0.059	0.136
-688.354	508.417	0.034	0.082
-687.339	-56.495	-0.212	0.096
-686.324	172.162	-0.143	-0.210
-685.310	-200.000	0.063	0.315
-684.295	537.523	-0.121	-0.293
-683.281	210.770	-0.148	-0.237
-682.266	-138.006	-0.011	-0.001
-681.251	-200.000	0.238	0.000
-680.237	-149.407	0.181	-0.015
-679.222	52.525	-0.186	0.182
-678.208	119.277	-0.059	0.075
-677.193	131.746	-0.193	0.254
-676.178	-81.347	0.068	-0.023
-675.164	-97.834	-0.254	-0.067
-674.149	-38.135	0.380	-0.206
-673.135	-53.675	-0.312	-0.145
-672.120	57.758	0.086	-0.086
-671.105	295.138	0.072	-0.135
-670.091	-200.000	-0.002	0.238
-669.076	-200.000	0.026	0.191
-668.062	-22.681	0.154	0.095
-667.047	800.000	0.125	0.483
-666.032	-22.161	-0.037	0.023
-665.018	-115.055	-0.272	0.053
-664.003	777.212	-0.044	-0.122
-662.989	85.597	0.061	0.069
-661.974	-139.578	0.090	-0.010
-660.959	-200.000	-0.005	-0.217
-659.945	-91.606	0.358	-0.104
-658.930	46.422	-0.083	-0.079
-657.916	800.000	0.072	0.299
-656.901	-88.060	0.038	0.012
-655.886	800.000	-0.086	-0.292
-654.872	16.943	-0.298	0.241
-653.857	69.864	0.220	-0.231
-652.843	800.000	-0.043	0.144
-651.828	-21.335	-0.107	0.066
-650.814	352.230	-0.143	0.288
-649.799	800.000	-0.091	-0.333
-648.784	800.000	0.073	-0.209
-647.770	-38.717	-0.209	0.112
-646.755	-200.000	0.009	-0.060
-645.741	89.665	-0.290	0.329
-644.726	-200.000	-0.036	-0.202
-643.711	-158.320	0.327	-0.019
-642.697	-139.507	-0.231	0.025
-641.682	-161.113	-0.278	-0.015
-640.668	163.984	-0.104	-0.149
-639.653	66.061	0.191	0.197
-638.638	27.204	-0.297	-0.254
-637.624	-148.294	0.478	0.040
-636.609	-200.000	-0.004	0.225
-635.595	-63.486	-0.120	0.050
-634.580	-59.936	0.229	-0.100
-633.565	-49.968	-0.040	-0.020
-632.551	-200.000	-0.002	0.127
-631.536	-68.018	-0.205	0.081
-630.522	15.181	0.236	0.189
-629.507	544.952	0.079	-0.193
-628.492	38.676	0.030	0.027
-627.478	161.721	-0.039	-0.056
-626.463	-142.042	0.303	0.031
-625.449	-200.000	-0.003	0.016
-624.434	-121.874	-0.207	-0.035
-623.419	360.220	0.120	-0.245
-622.405	-106.578	0.031	0.007
-621.390	-32.723	0.100	0.057
-620.376	700.181	-0.137	-0.367
-619.361	-200.000	0.011	0.053
-618.346	765.075	-0.049	0.136
-617.332	232.918	-0.076	0.127
-616.317	377.996	-0.028	-0.059
-615.303	-46.232	-0.101	0.051
-614.288	-47.968	0.258	-0.127
-613.273	-38.375	-0.173	-0.093
-612.259	109.733	-0.188	0.230
-611.244	-109.075	0.272	0.059
-610.230	-60.159	0.127	0.055
-609.215	-124.113	0.042	-0.007
-608.201	468.973	-0.014	0.033
-607.186	337.420	-0.149	-0.294
-606.171	36.130	0.060	-0.054
-605.157	722.058	0.161	-0.435
-604.142	162.524	-0.152	-0.217
-603.128	800.000	-0.109	-0.464
-602.113	367.127	-0.049	-0.101
-601.098	-200.000	-0.020	0.113
-600.084	-54.901	-0.086	0.039
-599.069	3.407	0.119	-0.088
-598.055	-92.345	-0.461	-0.132
-597.040	800.000	-0.061	0.240
-596.025	-57.011	-0.170	0.076
-595.011	-18.936	0.245	-0.155
-593.996	68.582	-0.053	-0.055
-592.982	351.005	-0.087	0.175
-591.967	-0.834	0.160	0.115
-590.952	36.607	-0.181	-0.162
-589.938	-176.533	-0.040	0.001
-588.923	101.973	0.393	-0.467
-587.909	-200.000	0.043	-0.340
-586.894	-58.470	-0.031	0.014
-585.879	140.658	0.033	-0.045
-584.865	-86.255	0.203	0.063
-583.850	133.528	-0.016	-0.021
-582.836	6.637	0.079	-0.060
-581.821	-61.108	0.108	0.046
-580.806	104.660	-0.152	0.182
-579.792	-200.000	0.002	-0.019
-578.777	-20.131	0.329	-0.206
-577.763	-54.174	0.153	0.071
-576.748	-200.000	0.036	-0.208
-575.733	-19.797	-0.162	-0.102
-574.719	-200.000	0.015	-0.115
-573.704	136.655	-0.158	-0.209
-572.690	-48.416	0.308	-0.151
-571.675	-200.000	-0.023	-0.148
-570.661	506.334	-0.073	0.171
-569.646	607.134	0.161	0.407
-568.631	54.429	-0.213	-0.208
-567.617	-101.669	-0.295	-0.073
-566.602	-200.000	0.030	0.279
-565.588	800.000	-0.048	-0.172
-564.573	49.368	-0.066	-0.063
-563.558	205.771	-0.039	0.062
-562.544	800.000	-0.120	-0.343
-561.529	95.261	-0.155	0.180
-560.515	617.976	0.159	-0.405
-559.500	-42.391	-0.207	0.107
-558.485	800.000	-0.038	-0.142
-557.471	800.000	-0.076	0.213
-556.456	-30.813	0.209	0.120
-555.442	-21.569	0.158	-0.098
-554.427	-200.000	0.026	-0.266
-553.412	438.518	-0.050	-0.111
-552.398	27.299	0.137	0.117
-551.383	-90.161	-0.334	-0.099
-550.369	-117.085	0.201	-0.037
-549.354	-167.401	0.182	-0.007
-548.339	99.880	0.117	0.138
-547.325	-35.090	-0.312	-0.173
-546.310	-200.000	-0.015	0.100
-545.296	64.304	-0.179	-0.183
-544.281	-67.582	0.133	0.053
-543.266	84.592	0.187	0.208
-542.252	-200.000	0.031	0.363
-541.237	-141.668	-0.118	-0.012
-540.223	520.950	0.060	0.143
-539.208	-200.000	0.001	0.130
-538.193	-85.141	-0.253	-0.080
-537.179	800.000	0.084	0.304
-536.164	-200.000	-0.003	0.087
-535.150	-39.474	-0.080	0.043
-534.135	-75.898	0.137	0.049
-533.121	11.490	-0.192	-0.149
-532.106	127.065	-0.104	0.134
-531.091	800.000	-0.088	-0.265
-530.077	604.109	-0.104	-0.264
-529.062	-123.888	-0.054	-0.009
-528.048	372.193	0.207	0.426
-527.033	800.000	-0.139	0.399
-526.018	-200.000	-0.012	0.244
-525.004	-164.372	-0.121	0.006
-523.989	-200.000	-0.013	-0.344
-522.975	117.048	0.026	0.032
-521.960	-196.360	-0.348	0.002
-520.945	-200.000	0.022	0.178
-519.931	-59.700	0.117	-0.051
-518.916	11.358	0.159	0.124
-517.902	-200.000	0.016	0.364
-516.887	259.922	0.015	0.027
-515.872	131.932	-0.138	0.180
-514.858	544.745	0.024	-0.059
-513.843	-200.000	-0.006	-0.045
-512.829	-63.566	-0.124	0.052
-511.814	-22.340	-0.047	0.029
-510.799	318.201	0.161	-0.309
-509.785	-48.285	-0.445	0.218
-508.770	-100.942	-0.247	-0.062
-507.756	501.803	-0.078	-0.182
-506.741	257.971	-0.258	-0.450
-505.726	143.348	0.087	0.118
-504.712	511.008	-0.042	0.099
-503.697	474.328	-0.094	0.216
-502.683	-47.487	0.351	0.173
-501.668	142.946	-0.153	0.206
-500.653	-53.501	0.342	-0.158
-499.639	-77.992	-0.211	-0.074
-498.624	-11.428	-0.114	-0.076
-497.610	-37.621	-0.305	0.165
-496.595	-109.360	0.024	-0.005
-495.581	-36.109	-0.493	-0.270
-494.566	139.109	-0.114	-0.151
-493.551	-52.231	-0.239	-0.112
-492.537	-200.000	-0.022	-0.172
-491.522	-76.951	0.149	0.053
-490.508	-5.446	-0.227	0.158
-489.493	-4.381	-0.252	-0.176
-488.478	-39.865	-0.285	-0.150
-487.464	402.099	-0.063	0.133
-486.449	377.014	0.091	0.188
-485.435	800.000	0.054	0.153
-484.420	171.714	0.123	-0.179
-483.405	-82.667	0.323	0.106
-482.391	800.000	-0.015	-0.065
-481.376	-40.811	-0.283	0.148
-480.362	-95.863	0.321	0.087
-479.347	252.922	-0.059	0.102
-478.332	607.591	0.036	-0.091
-477.318	-109.631	0.327	0.070
-476.303	10.632	0.218	0.168
-475.289	-15.138	0.109	-0.071
-474.274	-30.522	0.090	0.052
-473.259	-126.819	-0.133	-0.020
-472.245	-200.000	-0.017	0.298
-471.230	-200.000	-0.016	0.106
-470.216	31.991	-0.078	-0.068
-469.201	800.000	0.120	-0.441
-468.186	94.357	-0.155	0.178
-467.172	-200.000	-0.022	-0.121
-466.157	800.000	0.071	-0.209
-465.143	800.000	0.012	-0.047
-464.128	-67.142	0.297	-0.118
-463.113	-79.884	-0.173	-0.059
-462.099	-112.031	0.079	-0.016
-461.084	-200.000	0.042	0.263
-460.070	310.274	-0.141	0.266
-459.055	3.382	-0.119	0.088
-458.040	321.137	-0.018	-0.035
-457.026	78.967	-0.186	0.201
-456.011	428.213	0.045	0.098
-454.997	-166.882	-0.217	-0.009
-453.982	-81.803	0.221	0.073
-452.968	-104.270	0.294	-0.069
-451.953	-121.791	-0.014	0.002
-450.938	407.373	0.180	-0.384
-449.924	-200.000	-0.026	-0.367
-448.909	800.000	-0.090	0.292
-447.895	-200.000	-0.012	-0.426
-446.880	-82.352	0.310	-0.102
-445.865	-115.917	-0.263	-0.050
-444.851	351.231	-0.065	-0.130
-443.836	-130.902	0.140	-0.019
-442.822	-200.000	0.002	-0.157
-441.807	327.781	-0.048	0.092
-440.792	-200.000	0.000	0.028
-439.778	-63.021	0.127	-0.053
-438.763	-113.676	-0.130	0.026
-437.749	-122.201	-0.281	-0.047
-436.734	-73.374	-0.173	0.064
-435.719	164.283	-0.047	-0.067
-434.705	-200.000	0.019	0.296
-433.690	-31.132	0.254	0.145
-432.676	800.000	-0.090	0.346
-431.661	-12.017	-0.376	0.249
-430.646	315.498	0.152	0.289
-429.632	-45.851	0.256	0.127
-428.617	-188.729	-0.123	0.002
-427.603	36.057	0.245	0.218
-426.588	-200.000	0.065	0.464
-425.573	800.000	0.034	0.134
-424.559	390.091	0.156	-0.328
-423.544	800.000	0.116	0.442
-422.530	-98.535	-0.420	0.108
-421.515	-106.073	-0.122	0.028
-420.500	800.000	-0.028	0.089
-419.486	800.000	-0.056	0.201
-418.471	174.862	-0.057	-0.084
-417.457	800.000	0.069	0.237
-416.442	-200.000	-0.051	-0.261
-415.428	176.906	-0.202	0.296
-414.413	269.931	-0.084	-0.150
-413.398	-161.302	-0.198	0.010
-412.384	-200.000	-0.001	0.227
-411.369	243.514	-0.089	-0.151
-410.355	-200.000	-0.014	-0.096
-409.340	-43.635	0.179	0.091
-408.325	-79.630	-0.184	-0.063
-407.311	-200.000	-0.024	-0.165
-406.296	-200.000	-0.059	-0.279
-405.282	-104.674	-0.084	-0.020
-404.267	630.655	0.109	-0.277
-403.252	-121.369	0.229	-0.039
-402.238	154.701	-0.051	-0.071
-401.223	-144.272	0.150	-0.014
-400.209	-141.081	0.039	0.004
-399.194	-158.217	0.040	0.002
-398.179	20.855	-0.306	0.250
-397.165	-118.818	-0.351	0.062
-396.150	-91.753	-0.116	0.033
-395.136	66.439	-0.037	-0.038
-394.121	-32.550	-0.264	-0.148
-393.106	65.731	0.160	-0.164
-392.092	-62.984	0.191	-0.079
-391.077	104.508	0.095	0.113
-390.063	-85.275	-0.204	0.064
-389.048	800.000	-0.048	-0.144
-388.033	-67.950	0.366	-0.144
-387.019	-109.649	0.159	0.034
-386.004	211.618	0.090	-0.144
-384.990	-123.847	-0.052	0.008
-383.975	-75.073	0.009	-0.003
-382.960	800.000	-0.029	0.100
-381.946	-200.000	-0.049	-0.441
-380.931	-129.743	0.085	0.012
-379.917	320.635	-0.080	-0.154
-378.902	-33.077	-0.230	-0.129
-377.888	-3.479	-0.298	-0.209
-376.873	800.000	0.071	-0.293
-375.858	-36.617	-0.026	-0.014
-374.844	2.866	-0.095	-0.070
-373.829	-98.214	0.145	0.038
-372.815	626.500	-0.039	0.099
-371.800	-120.812	-0.148	0.025
-370.785	97.623	0.238	0.275
-369.771	-134.141	0.147	0.018
-368.756	7.052	0.060	0.045
-367.742	-57.099	0.303	-0.135
-366.727	-101.309	0.221	-0.054
-365.712	-93.294	0.327	0.091
-364.698	-138.508	0.240	0.027
-363.683	-4.551	0.286	0.199
-362.669	177.895	-0.102	0.150
-361.654	-118.601	-0.165	-0.029
-360.639	-200.000	-0.039	0.257
-359.625	-69.221	-0.304	0.118
-358.610	-200.000	0.001	0.187
-357.596	116.695	0.084	0.104
-356.581	-68.216	-0.244	0.096
-355.566	800.000	0.021	-0.077
-354.552	226.863	-0.064	-0.104
-353.537	-200.000	0.045	-0.328
-352.523	110.807	-0.054	-0.066
-351.508	-52.930	0.223	0.103
-350.493	-161.037	-0.079	-0.004
-349.479	800.000	-0.059	-0.166
-348.464	-123.005	0.152	-0.025
-347.450	148.587	-0.034	0.047
-346.435	16.641	-0.217	-0.173
-345.420	-50.499	0.375	0.178
-344.406	-70.945	0.248	0.094
-343.391	-71.396	0.105	0.039
-342.377	-103.994	0.224	0.052
-341.362	144.452	-0.104	0.139
-340.348	52.416	-0.071	0.068
-339.333	-121.307	-0.107	-0.018
-338.318	187.779	-0.070	0.106
-337.304	-200.000	0.023	0.265
-336.289	-124.690	0.305	-0.048
-335.275	-200.000	0.007	-0.063
-334.260	-69.789	-0.432	0.166
-333.245	-20.240	-0.024	0.015
-332.231	227.163	-0.052	0.085
-331.216	-60.780	0.119	-0.051
-330.202	-74.811	0.211	-0.076
-329.187	-200.000	-0.008	0.145
-328.172	-116.369	-0.191	-0.036
-327.158	9.151	0.082	0.062
-326.143	-27.725	0.284	-0.166
-325.129	-129.179	0.139	-0.020
-324.114	-200.000	0.011	-0.393
-323.099	-192.461	0.115	0.001
-322.085	-73.592	0.299	-0.110
-321.070	-200.000	-0.027	-0.134
-320.056	-93.782	-0.177	0.049
-319.041	23.277	0.202	-0.167
-318.026	-130.992	0.157	-0.021
-317.012	431.402	-0.052	0.113
-315.997	7.152	0.029	0.021
-314.983	-139.891	-0.325	0.035
-313.968	-200.000	0.075	-0.362
-312.953	-71.610	-0.118	0.044
-311.939	-200.000	-0.012	0.245
-310.924	-8.116	-0.081	-0.055
-309.910	-6.163	-0.353	0.242
-308.895	800.000	0.127	0.366
-307.880	201.510	-0.128	-0.198
-306.866	474.056	-0.231	-0.525
-305.851	-35.389	-0.061	0.033
-304.837	-41.254	0.277	0.144
-303.822	-104.527	-0.197	0.046
-302.807	-70.842	0.086	0.033
-301.793	-200.000	-0.054	0.253
-300.778	-186.584	-0.304	0.004
-299.764	-119.878	-0.084	0.015
-298.749	81.916	-0.075	-0.082
-297.735	-185.754	0.266	-0.004
-296.720	-200.000	-0.001	-0.119
-295.705	83.374	-0.010	0.011
-294.691	-200.000	-0.018	0.376
-293.676	-200.000	0.010	0.241
-292.662	-123.051	-0.104	0.017
-291.647	-200.000	0.007	-0.054
-290.632	-165.389	0.215	-0.009
-289.618	137.184	0.219	0.288
-288.603	42.791	-0.032	-0.029
-287.589	-200.000	-0.007	-0.048
-286.574	800.000	-0.154	0.447
-285.559	-46.270	0.236	0.117
-284.545	800.000	0.040	-0.140
-283.530	-87.091	0.333	-0.102
-282.516	800.000	-0.059	0.251
-281.501	64.538	-0.075	0.076
-280.486	-200.000	0.004	-0.074
-279.472	182.954	0.176	0.260
-278.457	-41.783	-0.052	-0.027
-277.443	548.548	-0.050	0.120
-276.428	74.466	-0.098	0.103
-275.413	-100.961	0.236	0.058
-274.399	-129.180	0.148	-0.021
-273.384	-200.000	-0.006	-0.271
-272.370	-6.795	-0.174	-0.119
-271.355	-131.223	0.225	-0.030
-270.340	800.000	0.057	-0.204
-269.326	-163.902	-0.187	-0.009
-268.311	-152.557	0.345	0.025
-267.297	4.946	0.397	0.293
-266.282	-3.514	-0.138	0.097
-265.267	-200.000	0.247	-0.001
-264.253	-86.702	-0.245	-0.075
-263.238	727.381	-0.075	-0.200
-262.224	261.859	-0.152	0.265
-261.209	-154.581	0.022	0.001
-260.195	25.883	0.041	-0.034
-259.180	294.723	-0.024	0.044
-258.165	-110.636	-0.181	-0.038
-257.151	369.314	0.056	-0.113
-256.136	-72.865	0.008	0.003
-255.122	38.830	-0.087	-0.078
-254.107	57.421	0.036	0.035
-253.092	-88.986	-0.143	0.042
-252.078	-200.000	0.047	0.302
-251.063	-78.129	0.180	0.062
-250.049	-79.375	0.185	-0.063
-249.034	21.921	-0.055	0.045
-248.019	86.010	0.180	0.199
-247.005	228.686	-0.034	0.055
-245.990	-104.978	0.370	0.085
-244.976	800.000	0.087	-0.297
-243.961	21.075	-0.217	0.176
-242.946	-112.369	0.345	0.069
-241.932	-24.373	0.027	-0.016
-240.917	-200.000	-0.043	-0.269
-239.903	75.898	0.100	-0.106
-238.888	-200.000	0.033	-0.292
-237.873	124.931	0.059	-0.075
-236.859	-91.367	0.086	0.025
-235.844	577.832	0.110	0.269
-234.830	121.378	-0.082	0.103
-233.815	137.550	0.091	0.119
-232.800	520.356	0.028	-0.065
-231.786	-145.616	-0.133	0.012
-230.771	-175.761	-0.457	0.012
-229.757	102.125	-0.143	-0.168
-228.742	-15.617	-0.061	-0.039
-227.727	-200.000	-0.017	-0.311
-226.713	-200.000	-0.048	-0.229
-225.698	-200.000	-0.029	-0.220
-224.684	-90.282	0.021	0.006
-223.669	800.000	0.016	0.051
-222.655	-109.035	0.112	-0.024
-221.640	-200.000	-0.002	0.013
-220.625	-111.372	0.237	0.048
-219.611	44.790	0.184	0.169
-218.596	800.000	0.029	0.122
-217.582	102.513	0.096	-0.113
-216.567	-20.475	0.279	0.172
-215.552	-200.000	-0.039	-0.235
-214.538	51.370	-0.188	-0.178
-213.523	360.743	0.031	-0.062
-212.509	800.000	-0.084	0.297
-211.494	25.571	-0.178	0.148
-210.479	115.041	-0.145	0.177
-209.465	-24.739	0.315	-0.188
-208.450	-200.000	-0.008	-0.087
-207.436	466.508	-0.115	-0.259
-206.421	480.832	0.149	0.338
-205.406	396.320	-0.185	-0.387
-204.392	741.005	0.113	-0.303
-203.377	800.000	-0.084	0.343
-202.363	-102.013	-0.208	0.050
-201.348	143.048	-0.114	0.152
-200.333	-24.498	-0.136	0.081
-199.319	800.000	0.036	-0.104
-198.304	351.037	-0.081	-0.160
-197.290	-190.467	0.146	-0.002
-196.275	-34.105	0.084	0.046
-195.260	-89.615	-0.065	-0.019
-194.246	800.000	0.047	0.187
-193.231	227.845	0.153	0.248
-192.217	278.215	-0.026	-0.046
-191.202	23.729	0.089	-0.073
-190.187	-7.150	0.116	-0.079
-189.173	177.919	0.159	0.232
-188.158	-200.000	-0.026	0.143
-187.144	266.087	-0.084	0.148
-186.129	-17.711	0.188	-0.118
-185.114	-93.190	0.223	-0.062
-184.100	-200.000	0.001	-0.036
-183.085	127.776	0.022	0.029
-182.071	-45.471	0.266	-0.132
-181.056	-75.362	-0.123	0.044
-180.042	-50.703	0.350	-0.165
-179.027	800.000	0.086	-0.257
-178.012	395.907	-0.153	0.320
-176.998	-165.898	0.143	0.006
-175.983	-200.000	0.040	-0.221
-174.969	733.147	0.116	-0.310
-173.954	-2.922	-0.173	0.121
-172.939	92.105	-0.272	0.306
-171.925	381.635	0.121	-0.248
-170.910	50.154	-0.085	-0.080
-169.896	-11.046	0.218	0.144
-168.881	-200.000	0.010	0.104
-167.866	25.956	-0.173	-0.144
-166.852	800.000	0.091	-0.273
-165.837	-79.594	-0.185	0.063
-164.823	-135.308	-0.199	-0.024
-163.808	-24.840	-0.172	-0.102
-162.793	52.766	0.153	0.146
-161.779	800.000	0.088	-0.322
-160.764	-149.229	0.287	-0.023
-159.750	800.000	-0.032	0.099
-158.735	800.000	0.111	0.432
-157.720	-72.028	-0.308	0.114
-156.706	579.970	0.018	0.044
-155.691	800.000	-0.061	-0.232
-154.677	-75.134	-0.100	-0.036
-153.662	424.036	0.153	0.328
-152.647	-177.514	0.150	-0.004
-151.633	15.583	-0.292	-0.229
-150.618	-28.265	0.342	-0.197
-149.604	331.751	0.193	0.372
-148.589	189.680	0.271	0.406
-147.574	650.129	-0.003	0.007
-146.560	0.838	0.179	0.128
-145.545	-80.491	-0.166	-0.055
-144.531	13.000	0.046	0.036
-143.516	-149.139	-0.263	0.021
-142.502	229.156	-0.048	0.078
-141.487	298.880	-0.199	0.366
-140.472	334.035	-0.185	-0.357
-139.458	439.130	-0.118	-0.257
-138.443	172.793	-0.109	0.156
-137.429	-157.907	0.110	0.007
-136.414	-12.946	-0.213	-0.138
-135.399	181.049	-0.107	-0.157
-134.385	-200.000	-0.016	-0.105
-133.370	-117.149	0.426	-0.078
-132.356	-200.000	-0.006	0.218
-131.341	-51.631	-0.235	0.109
-130.326	129.543	0.094	0.119
-129.312	-200.000	-0.015	0.228
-128.297	219.174	0.170	0.272
-127.283	800.000	-0.057	0.188
-126.268	800.000	-0.087	0.272
-125.253	21.685	-0.122	0.099
-124.239	272.511	0.041	0.071
-123.224	-200.000	0.017	0.151
-122.210	350.461	0.029	0.057
