DTS Sentinel unit serial number:	SN413079Multiplexer serial number:	ORYXHardware model number:	OX4-SRSoftware version number:	ORYX F/W v4.00 Oryx Data Collector v3.7.2.0data status	okinstallation	princeton_trtdifferential loss correction	single-endedforward channel	channel 4reverse channel	N/Adate	2019/09/18time	06:09:35forward acquisition time	60.00reverse acquisition time	0.00gamma	496.2192k internal	0.2332k external	0.2332temperature offset calibration	1.0001default loss term (dB/km)	0.3790temperature slope calibration	1.0000multiplexer offset coefficient	1.0000multiplexer slope coefficient	1.0000fibre end	0.00T internal ref (°C)	23.19T ext. ref 1 (°C)	0.19T ext. ref 2 (°C)	17.72length (m)	temperature (°C)	Stokes	anti-Stokes-747.200	-185.396	-0.082	0.001
-746.185	-200.000	0.006	0.194
-745.171	-200.000	0.011	0.103
-744.156	-200.000	0.011	0.408
-743.142	-96.756	0.124	-0.033
-742.127	-80.411	-0.532	-0.179
-741.112	800.000	-0.038	0.111
-740.098	-20.897	-0.228	0.140
-739.083	143.093	-0.221	0.295
-738.069	-35.006	-0.323	0.177
-737.054	-128.718	0.285	-0.040
-736.039	-117.173	-0.276	0.050
-735.025	37.585	0.169	-0.151
-734.010	-90.781	-0.092	-0.027
-732.996	-153.334	-0.143	-0.010
-731.981	-48.570	0.141	0.068
-730.966	-200.000	0.002	0.094
-729.952	-184.317	-0.121	-0.002
-728.937	301.606	-0.089	0.166
-727.923	800.000	-0.089	0.265
-726.908	40.479	-0.180	0.163
-725.894	426.558	-0.066	0.144
-724.879	101.487	-0.211	0.248
-723.864	22.427	-0.298	-0.245
-722.850	-87.686	-0.156	0.047
-721.835	-38.379	-0.322	0.171
-720.821	-135.346	-0.118	0.014
-719.806	-200.000	-0.031	0.391
-718.791	-100.760	-0.130	-0.032
-717.777	-200.000	0.018	0.182
-716.762	-139.223	0.098	0.011
-715.748	-172.291	-0.187	0.006
-714.733	308.525	0.207	0.388
-713.718	-128.673	0.195	0.028
-712.704	-200.000	-0.005	-0.056
-711.689	25.912	-0.198	0.166
-710.675	-137.535	-0.145	-0.016
-709.660	-108.610	-0.302	-0.065
-708.645	-200.000	-0.007	-0.073
-707.631	-77.760	0.241	-0.084
-706.616	52.285	0.056	0.054
-705.602	-121.908	-0.592	-0.098
-704.587	-200.000	-0.002	0.132
-703.572	-92.007	0.184	0.052
-702.558	-73.841	-0.288	0.105
-701.543	27.765	-0.112	0.095
-700.529	37.722	-0.137	0.122
-699.514	10.288	0.104	0.080
-698.499	-18.045	-0.090	0.057
-697.485	453.194	0.211	0.469
-696.470	-70.155	0.166	0.063
-695.456	405.279	0.051	-0.108
-694.441	-68.779	-0.221	0.086
-693.426	-65.183	0.243	-0.098
-692.412	-200.000	0.033	0.248
-691.397	7.631	0.215	-0.161
-690.383	729.014	-0.089	-0.238
-689.368	11.866	-0.292	0.225
-688.354	-128.209	0.096	0.014
-687.339	-200.000	0.033	-0.354
-686.324	-99.021	-0.212	-0.054
-685.310	318.202	0.146	-0.278
-684.295	-200.000	0.006	0.330
-683.281	94.652	0.195	0.222
-682.266	393.782	0.086	-0.179
-681.251	-146.680	-0.397	-0.034
-680.237	800.000	0.057	-0.234
-679.222	88.672	0.055	-0.061
-678.208	68.163	0.050	-0.051
-677.193	-200.000	-0.030	0.137
-676.178	186.979	0.285	0.426
-675.164	-37.490	0.071	0.038
-674.149	264.327	-0.065	-0.113
-673.135	170.213	-0.050	0.072
-672.120	211.487	0.038	-0.061
-671.105	-16.806	-0.235	-0.149
-670.091	800.000	-0.116	0.359
-669.076	-139.031	0.279	0.030
-668.062	-113.339	-0.488	-0.096
-667.047	-139.420	-0.279	-0.030
-666.032	-52.390	0.053	-0.024
-665.018	-160.208	-0.315	-0.017
-664.003	800.000	-0.012	0.037
-662.989	111.923	-0.102	0.124
-661.974	416.797	-0.026	-0.055
-660.959	800.000	-0.034	-0.097
-659.945	-200.000	0.019	-0.294
-658.930	800.000	0.053	-0.222
-657.916	-200.000	-0.007	0.056
-656.901	-144.048	0.133	-0.013
-655.886	166.053	-0.196	0.278
-654.872	-137.830	0.125	0.014
-653.857	800.000	0.040	-0.163
-652.843	-110.970	-0.087	0.018
-651.828	-161.992	-0.309	0.016
-650.814	139.817	0.109	-0.143
-649.799	20.955	0.024	0.019
-648.784	-64.431	-0.178	-0.073
-647.770	-14.200	-0.372	-0.240
-646.755	91.453	0.193	-0.217
-645.741	-52.358	0.069	0.032
-644.726	-23.697	0.365	0.219
-643.711	-11.507	-0.068	-0.045
-642.697	-32.022	-0.036	-0.020
-641.682	-125.605	-0.257	-0.039
-640.668	162.669	-0.086	-0.121
-639.653	-200.000	0.025	0.211
-638.638	-11.138	-0.176	0.116
-637.624	438.952	0.059	-0.128
-636.609	193.211	-0.068	0.102
-635.595	800.000	-0.036	0.101
-634.580	-46.134	-0.385	-0.190
-633.565	-23.998	0.254	-0.152
-632.551	-86.991	0.473	0.144
-631.536	111.150	-0.163	-0.197
-630.522	-43.412	-0.280	0.142
-629.507	-200.000	0.079	-0.397
-628.492	-200.000	-0.007	0.122
-627.478	4.338	-0.091	-0.067
-626.463	800.000	0.052	-0.152
-625.449	-38.504	0.176	0.093
-624.434	-106.389	0.220	0.049
-623.419	-200.000	-0.029	-0.342
-622.405	751.904	-0.112	-0.303
-621.390	614.562	-0.104	0.261
-620.376	-55.998	0.437	0.195
-619.361	174.616	-0.089	0.129
-618.346	-97.573	0.071	0.018
-617.332	-10.223	-0.099	-0.065
-616.317	-63.286	0.082	0.034
-615.303	49.272	0.032	0.030
-614.288	326.029	0.231	-0.443
-613.273	137.760	0.127	-0.166
-612.259	61.879	-0.190	-0.190
-611.244	674.417	0.164	0.427
-610.230	-29.723	0.028	0.016
-609.215	-135.677	0.118	-0.014
-608.201	-108.255	0.146	0.032
-607.186	55.935	-0.231	-0.224
-606.171	12.441	-0.222	-0.171
-605.157	-116.643	0.176	-0.032
-604.142	91.754	-0.210	-0.236
-603.128	800.000	0.058	0.230
-602.113	109.760	0.134	0.161
-601.098	170.720	0.012	0.018
-600.084	-61.395	0.286	-0.120
-599.069	298.442	-0.084	-0.154
-598.055	-200.000	-0.017	0.258
-597.040	-200.000	0.062	-0.416
-596.025	-200.000	-0.009	0.076
-595.011	-16.475	0.198	0.126
-593.996	-161.165	0.197	-0.010
-592.982	-86.563	-0.317	0.097
-591.967	-200.000	-0.005	0.259
-590.952	115.168	0.249	-0.304
-589.938	-200.000	-0.003	0.078
-588.923	351.001	0.110	0.218
-587.909	43.829	-0.222	0.204
-586.894	-200.000	0.037	-0.235
-585.879	514.598	-0.131	-0.305
-584.865	79.504	-0.295	-0.316
-583.850	-153.119	-0.341	-0.024
-582.836	-107.148	0.246	0.054
-581.821	-38.504	-0.137	-0.072
-580.806	57.670	0.311	0.303
-579.792	-167.142	-0.068	0.003
-578.777	-120.952	0.248	0.042
-577.763	800.000	-0.129	0.403
-576.748	293.555	-0.108	0.196
-575.733	757.611	0.024	-0.066
-574.719	671.706	0.011	-0.028
-573.704	26.899	0.129	0.108
-572.690	-31.167	0.034	0.019
-571.675	116.342	-0.250	0.306
-570.661	-21.685	0.011	-0.007
-569.646	-64.448	0.136	-0.055
-568.631	36.101	0.140	0.123
-567.617	409.220	0.080	-0.169
-566.602	-85.079	-0.210	-0.066
-565.588	-113.887	-0.103	0.020
-564.573	135.332	0.029	-0.037
-563.558	26.788	-0.251	0.210
-562.544	-48.015	0.223	-0.108
-561.529	-97.073	-0.211	-0.055
-560.515	-92.769	-0.097	-0.027
-559.500	-77.704	-0.428	-0.148
-558.485	323.102	0.068	0.130
-557.471	-54.631	0.205	-0.093
-556.456	184.268	0.101	-0.149
-555.442	2.542	-0.086	-0.062
-554.427	-123.965	-0.179	-0.028
-553.412	59.250	-0.192	-0.189
-552.398	800.000	0.072	0.233
-551.383	-88.765	0.269	-0.080
-550.369	-61.138	0.234	0.099
-549.354	-133.199	-0.238	-0.030
-548.339	548.499	-0.177	-0.422
-547.325	-121.904	0.212	0.035
-546.310	-200.000	0.033	-0.217
-545.296	-69.737	0.174	-0.066
-544.281	-122.495	-0.161	0.026
-543.266	800.000	-0.088	0.256
-542.252	76.058	0.128	0.135
-541.237	203.885	0.186	-0.287
-540.223	-200.000	-0.001	0.230
-539.208	-62.164	0.060	0.025
-538.193	84.255	-0.077	0.084
-537.179	-200.000	0.024	0.387
-536.164	-93.565	0.308	0.085
-535.150	297.610	-0.117	-0.214
-534.135	-22.008	0.140	0.085
-533.121	800.000	-0.027	0.107
-532.106	176.446	0.069	0.100
-531.091	800.000	0.029	-0.114
-530.077	-68.572	0.299	-0.115
-529.062	800.000	0.112	-0.353
-528.048	315.705	-0.071	-0.134
-527.033	188.179	-0.023	0.034
-526.018	286.472	0.239	0.431
-525.004	144.010	0.121	-0.161
-523.989	-118.073	-0.233	-0.042
-522.975	17.379	0.237	-0.188
-521.960	-31.764	0.207	-0.116
-520.945	-200.000	0.059	0.270
-519.931	29.725	-0.112	0.095
-518.916	109.108	-0.071	0.085
-517.902	800.000	0.095	0.289
-516.887	-62.039	0.102	0.043
-515.872	800.000	-0.065	-0.207
-514.858	194.902	0.142	-0.216
-513.843	11.842	-0.118	-0.091
-512.829	10.091	0.088	-0.067
-511.814	800.000	-0.049	-0.197
-510.799	-200.000	0.012	-0.139
-509.785	800.000	-0.031	-0.134
-508.770	-123.636	0.118	-0.019
-507.756	-47.377	-0.248	-0.120
-506.741	-200.000	0.028	-0.159
-505.726	40.366	-0.130	-0.116
-504.712	-17.734	-0.158	-0.099
-503.697	16.768	0.049	-0.039
-502.683	-71.031	-0.269	-0.101
-501.668	86.589	0.276	-0.303
-500.653	-58.079	-0.246	-0.107
-499.639	139.315	0.110	-0.144
-498.624	-62.667	-0.169	0.070
-497.610	800.000	0.110	-0.360
-496.595	-11.063	0.201	0.132
-495.581	10.503	0.166	0.126
-494.566	28.165	0.318	0.267
-493.551	343.590	0.177	-0.345
-492.537	-74.519	-0.101	-0.036
-491.522	800.000	-0.059	-0.220
-490.508	441.112	-0.086	0.188
-489.493	239.554	0.140	-0.233
-488.478	-70.531	-0.191	0.072
-487.464	237.970	-0.139	-0.229
-486.449	-200.000	-0.070	-0.316
-485.435	-150.690	-0.077	-0.006
-484.420	-171.352	0.372	0.012
-483.405	-25.792	0.323	-0.190
-482.391	-200.000	-0.017	-0.107
-481.376	-75.840	-0.086	0.030
-480.362	-66.662	-0.137	-0.054
-479.347	345.501	-0.089	0.175
-478.332	137.104	-0.187	0.244
-477.318	-148.773	0.253	-0.020
-476.303	-78.055	-0.173	-0.059
-475.289	-53.677	0.086	0.039
-474.274	-24.316	-0.209	-0.124
-473.259	-104.838	0.048	-0.011
-472.245	-69.243	-0.213	-0.081
-471.230	242.612	0.114	0.190
-470.216	181.418	-0.230	-0.337
-469.201	548.633	-0.068	0.162
-468.186	-135.771	0.178	-0.021
-467.172	-143.249	-0.235	-0.022
-466.157	2.244	-0.201	-0.144
-465.143	-8.701	-0.129	0.086
-464.128	-62.982	0.117	-0.048
-463.113	800.000	0.024	-0.098
-462.099	-4.765	0.174	0.119
-461.084	339.203	0.169	-0.327
-460.070	-59.438	-0.178	-0.076
-459.055	277.810	-0.059	0.104
-458.040	-21.702	0.111	-0.067
-457.026	-58.364	0.182	-0.079
-456.011	92.879	-0.312	0.350
-454.997	56.240	-0.175	0.169
-453.982	24.246	0.214	-0.175
-452.968	800.000	0.064	-0.263
-451.953	-92.015	0.246	-0.069
-450.938	-200.000	0.014	0.247
-449.924	800.000	-0.050	-0.194
-448.909	-48.863	-0.161	0.077
-447.895	-179.939	0.261	-0.006
-446.880	444.888	-0.123	-0.268
-445.865	479.572	-0.102	-0.229
-444.851	-200.000	-0.020	-0.150
-443.836	327.389	-0.135	-0.257
-442.822	62.288	-0.153	-0.152
-441.807	-200.000	-0.003	0.030
-440.792	-127.420	0.241	-0.035
-439.778	-200.000	0.044	0.347
-438.763	-124.282	-0.493	0.077
-437.749	264.508	-0.133	-0.230
-436.734	800.000	-0.047	-0.138
-435.719	-119.406	-0.239	0.041
-434.705	-63.248	-0.296	0.121
-433.690	21.851	-0.154	-0.125
-432.676	-200.000	0.071	0.427
-431.661	-57.274	-0.301	-0.132
-430.646	16.638	-0.080	0.063
-429.632	-57.442	0.154	-0.067
-428.617	438.835	-0.158	-0.343
-427.603	-190.956	-0.120	-0.001
-426.588	-105.191	-0.033	-0.007
-425.573	653.234	0.143	-0.364
-424.559	-2.081	0.073	-0.051
-423.544	-200.000	0.019	-0.144
-422.530	124.666	-0.213	-0.267
-421.515	-110.306	0.193	-0.040
-420.500	750.327	0.073	-0.194
-419.486	-200.000	-0.007	0.047
-418.471	24.372	-0.080	-0.065
-417.457	800.000	0.046	-0.176
-416.442	-54.890	-0.156	-0.070
-415.428	800.000	0.064	-0.178
-414.413	800.000	-0.086	-0.326
-413.398	-11.357	-0.095	0.062
-412.384	-200.000	-0.007	0.123
-411.369	-12.312	-0.107	0.069
-410.355	800.000	0.052	-0.145
-409.340	29.685	-0.223	-0.188
-408.325	-43.228	-0.070	-0.035
-407.311	26.307	0.244	-0.203
-406.296	175.921	-0.127	0.183
-405.282	175.061	0.116	0.167
-404.267	148.630	0.127	-0.171
-403.252	-144.512	0.295	0.027
-402.238	800.000	-0.079	0.233
-401.223	74.808	-0.057	-0.059
-400.209	249.041	0.035	-0.060
-399.194	-158.762	0.176	0.010
-398.179	-110.633	-0.050	-0.010
-397.165	-23.553	-0.025	-0.015
-396.150	-107.780	-0.096	0.021
-395.136	800.000	0.076	-0.223
-394.121	-38.698	-0.127	-0.066
-393.106	-104.757	-0.356	0.081
-392.092	-165.211	-0.195	0.009
-391.077	800.000	-0.073	0.208
-390.063	793.389	0.095	0.258
-389.048	-23.900	0.157	-0.093
-388.033	41.787	0.078	0.070
-387.019	800.000	0.016	0.056
-386.004	261.865	-0.165	0.284
-384.990	471.365	-0.098	0.218
-383.975	800.000	0.087	-0.275
-382.960	39.512	0.101	0.090
-381.946	-71.876	0.091	-0.034
-380.931	-172.748	0.208	0.006
-379.917	-200.000	0.061	-0.351
-378.902	95.905	-0.126	0.142
-377.888	-200.000	0.052	0.273
-376.873	-14.947	0.340	-0.216
-375.858	384.611	0.068	0.139
-374.844	126.679	0.075	-0.094
-373.829	-103.934	0.230	-0.053
-372.815	39.976	0.221	0.197
-371.800	-99.921	0.147	-0.036
-370.785	800.000	-0.025	0.091
-369.771	61.692	0.144	0.142
-368.756	-122.227	0.452	-0.073
-367.742	510.056	-0.053	0.122
-366.727	-23.216	-0.226	-0.135
-365.712	800.000	-0.060	0.180
-364.698	-144.146	-0.342	0.032
-363.683	514.129	0.095	0.220
-362.669	13.310	-0.308	-0.237
-361.654	389.823	0.049	-0.100
-360.639	-41.871	-0.256	-0.130
-359.625	-110.133	-0.264	0.055
-358.610	800.000	-0.158	0.506
-357.596	800.000	-0.029	0.079
-356.581	-61.476	0.041	-0.017
-355.566	407.899	0.100	-0.209
-354.552	-200.000	0.079	0.418
-353.537	-102.781	0.200	0.047
-352.523	83.471	-0.017	-0.018
-351.508	-200.000	-0.021	-0.288
-350.493	-100.077	0.240	-0.059
-349.479	800.000	-0.094	-0.323
-348.464	800.000	0.035	-0.126
-347.450	800.000	0.098	0.267
-346.435	372.491	-0.034	-0.068
-345.420	-11.410	0.189	-0.123
-344.406	49.585	-0.158	0.147
-343.391	-89.348	0.174	0.051
-342.377	-132.537	-0.279	-0.036
-341.362	94.766	0.160	-0.180
-340.348	800.000	-0.054	-0.227
-339.333	98.824	-0.152	-0.173
-338.318	-130.380	0.014	-0.002
-337.304	-200.000	-0.001	-0.054
-336.289	-126.630	-0.142	-0.021
-335.275	-93.802	-0.248	-0.068
-334.260	-39.856	0.207	-0.107
-333.245	-200.000	0.020	-0.128
-332.231	-200.000	-0.082	0.408
-331.216	-142.995	0.199	0.019
-330.202	800.000	0.064	-0.242
-329.187	-200.000	-0.007	0.339
-328.172	-68.487	-0.287	0.110
-327.158	53.806	-0.216	0.205
-326.143	80.171	0.136	0.144
-325.129	-200.000	0.056	-0.284
-324.114	-42.814	0.217	-0.109
-323.099	-4.025	-0.047	0.032
-322.085	800.000	0.048	0.163
-321.070	-65.436	0.352	-0.140
-320.056	800.000	0.080	0.343
-319.041	264.622	-0.115	0.199
-318.026	-90.740	0.090	-0.026
-317.012	-62.621	-0.129	0.053
-315.997	-11.785	-0.133	0.086
-314.983	-6.704	0.229	-0.154
-313.968	800.000	0.078	-0.293
-312.953	2.296	0.324	-0.232
-311.939	-200.000	-0.021	-0.100
-310.924	-108.957	0.300	0.063
-309.910	-83.428	0.343	-0.109
-308.895	800.000	0.039	0.126
-307.880	800.000	0.038	0.149
-306.866	-119.940	-0.127	0.022
-305.851	-120.661	0.070	0.012
-304.837	171.886	-0.070	-0.099
-303.822	-200.000	-0.060	0.352
-302.807	174.734	-0.103	-0.148
-301.793	800.000	0.050	-0.204
-300.778	-174.548	0.255	-0.007
-299.764	192.306	0.172	0.256
-298.749	-153.841	0.043	0.003
-297.735	218.416	-0.044	-0.070
-296.720	-200.000	-0.245	0.000
-295.705	800.000	-0.021	0.081
-294.691	236.951	-0.242	0.396
-293.676	-27.592	0.195	0.112
-292.662	-74.547	-0.116	-0.041
-291.647	-200.000	0.007	0.173
-290.632	-78.875	0.195	-0.066
-289.618	-17.766	-0.119	-0.074
-288.603	574.459	-0.042	0.102
-287.589	42.634	0.227	0.204
-286.574	-200.000	0.025	0.268
-285.559	-116.151	-0.229	-0.042
-284.545	800.000	-0.064	-0.199
-283.530	800.000	-0.031	0.124
-282.516	249.177	0.078	-0.131
-281.501	800.000	0.025	0.091
-280.486	-135.194	0.233	0.028
-279.472	473.732	0.059	0.131
-278.457	25.621	-0.229	-0.189
-277.443	330.282	0.090	-0.171
-276.428	471.348	0.038	0.084
-275.413	-61.665	0.173	-0.072
-274.399	-88.715	-0.265	-0.078
-273.384	-138.749	0.244	-0.026
-272.370	-90.544	-0.304	0.087
-271.355	55.541	-0.235	0.225
-270.340	-142.743	0.517	-0.050
-269.326	-63.380	-0.149	0.060
-268.311	223.837	-0.117	-0.187
-267.297	-1.652	0.131	0.091
-266.282	-200.000	-0.005	-0.111
-265.267	-200.000	0.004	0.062
-264.253	21.848	-0.244	0.196
-263.238	-0.272	-0.301	0.211
-262.224	-149.733	-0.274	0.021
-261.209	107.196	-0.061	0.072
-260.195	-4.652	-0.547	-0.373
-259.180	800.000	-0.036	0.108
-258.165	800.000	0.051	0.179
-257.151	800.000	0.053	-0.163
-256.136	42.154	-0.070	0.063
-255.122	301.679	-0.055	0.100
-254.107	69.535	-0.064	0.065
-253.092	-200.000	-0.017	0.199
-252.078	18.776	0.030	0.023
-251.063	247.090	-0.125	0.208
-250.049	96.402	0.222	-0.251
-249.034	93.730	0.095	-0.107
-248.019	-126.705	-0.137	-0.020
-247.005	53.914	-0.159	0.151
-245.990	-121.123	-0.151	-0.025
-244.976	-40.163	0.257	0.132
-243.961	-163.177	-0.142	0.007
-242.946	800.000	0.002	-0.006
-241.932	129.238	0.347	0.437
-240.917	-200.000	-0.018	-0.276
-239.903	-18.302	0.158	-0.097
-238.888	671.638	-0.023	-0.058
-237.873	-55.640	-0.152	0.067
-236.859	-46.131	0.168	-0.082
-235.844	-35.540	0.220	0.118
-234.830	-166.014	0.182	0.008
-233.815	346.282	-0.065	-0.126
-232.800	36.575	-0.158	-0.137
-231.786	119.311	-0.166	-0.203
-230.771	800.000	-0.005	0.021
-229.757	-200.000	-0.002	0.299
-228.742	-42.749	-0.210	-0.105
-227.727	271.808	-0.202	0.351
-226.713	138.090	0.099	-0.128
-225.698	-200.000	-0.020	0.196
-224.684	62.940	-0.284	0.280
-223.669	-93.764	-0.051	0.014
-222.655	42.110	0.134	0.120
-221.640	-56.524	0.185	0.081
-220.625	223.676	0.209	-0.333
-219.611	205.021	-0.071	-0.108
-218.596	-101.906	-0.318	0.076
-217.582	630.279	0.121	0.303
-216.567	160.225	-0.187	0.257
-215.552	-177.770	0.184	0.004
-214.538	378.894	0.162	0.326
-213.523	201.132	0.054	0.082
-212.509	-82.599	0.221	0.071
-211.494	-10.491	-0.339	0.221
-210.479	800.000	0.066	-0.253
-209.465	70.677	-0.215	0.219
-208.450	11.161	-0.238	0.179
-207.436	-70.932	0.401	-0.149
-206.421	22.694	-0.165	-0.133
-205.406	-200.000	0.023	0.145
-204.392	103.017	0.342	-0.395
-203.377	230.191	-0.172	0.277
-202.363	123.473	0.107	0.132
-201.348	-200.000	-0.018	0.096
-200.333	-100.803	0.184	-0.045
-199.319	205.243	-0.110	0.169
-198.304	-113.965	0.137	-0.026
-197.290	22.397	0.154	0.124
-196.275	73.306	0.133	0.137
-195.260	-14.236	0.138	0.087
-194.246	70.706	0.156	-0.159
-193.231	-173.527	0.088	-0.003
-192.217	-200.000	-0.026	0.186
-191.202	-122.873	-0.311	0.049
-190.187	175.812	-0.250	0.357
-189.173	-200.000	-0.036	0.279
-188.158	342.277	-0.070	0.135
-187.144	-7.879	0.125	0.083
-186.129	-200.000	-0.034	0.325
-185.114	91.180	-0.169	0.186
-184.100	275.597	-0.051	0.089
-183.085	-88.376	0.222	-0.065
-182.071	236.217	0.164	-0.267
-181.056	-123.128	0.074	-0.012
-180.042	-39.114	0.228	-0.118
-179.027	-103.231	-0.366	0.085
-178.012	46.136	-0.142	-0.129
-176.998	-84.767	-0.207	0.064
-175.983	-11.890	0.212	0.137
-174.969	68.726	-0.045	-0.045
-173.954	-79.638	0.248	0.082
-172.939	227.817	-0.199	-0.319
-171.925	-147.513	-0.137	0.011
-170.910	540.816	-0.040	0.095
-169.896	164.356	0.070	0.097
-168.881	7.470	0.216	0.159
-167.866	-78.222	-0.414	0.140
-166.852	202.940	0.224	0.341
-165.837	-33.613	0.060	0.032
-164.823	234.237	-0.085	-0.137
-163.808	113.363	0.104	-0.124
-162.793	800.000	-0.168	0.558
-161.779	66.081	-0.121	-0.121
-160.764	154.522	-0.152	0.205
-159.750	-29.335	0.205	-0.115
-158.735	-195.721	0.136	-0.001
-157.720	468.309	0.051	0.112
-156.706	119.009	0.147	0.178
-155.691	25.925	-0.089	0.073
-154.677	-78.630	-0.092	-0.031
-153.662	-45.070	-0.198	-0.097
-152.647	0.177	0.088	0.061
-151.633	313.699	-0.054	0.100
-150.618	800.000	0.072	0.311
-149.604	-200.000	-0.080	-0.386
-148.589	0.538	-0.089	-0.062
-147.574	-12.780	0.237	0.151
-146.560	800.000	0.029	-0.083
-145.545	-54.628	0.271	0.121
-144.531	164.620	0.023	0.033
-143.516	509.212	0.117	-0.267
-142.502	-200.000	-0.020	-0.349
-141.487	33.665	0.251	-0.215
-140.472	347.166	0.082	-0.158
-139.458	-121.833	-0.122	-0.020
-138.443	196.408	0.132	-0.197
-137.429	-81.701	-0.043	0.014
-136.414	-200.000	-0.034	-0.231
-135.399	57.974	0.209	-0.201
-134.385	157.687	0.072	0.097
-133.370	94.456	0.269	-0.300
-132.356	-51.782	0.244	0.112
-131.341	-52.691	-0.085	-0.038
-130.326	800.000	-0.060	-0.181
-129.312	23.468	-0.113	-0.091
-128.297	-85.499	0.220	0.067
-127.283	76.035	0.168	0.175
-126.268	-80.521	-0.163	0.053
-125.253	-3.285	-0.242	0.166
-124.239	-200.000	0.023	-0.115
-123.224	104.959	-0.056	-0.064
-122.210	-52.489	-0.068	0.031
-121.195	-128.365	-0.162	-0.023
