DTS Sentinel unit serial number:	SN413079Multiplexer serial number:	ORYXHardware model number:	OX4-SRSoftware version number:	ORYX F/W v4.00 Oryx Data Collector v3.7.2.0data status	okinstallation	princeton_trtdifferential loss correction	single-endedforward channel	channel 4reverse channel	N/Adate	2019/09/12time	18:25:19forward acquisition time	15.00reverse acquisition time	0.00gamma	496.2192k internal	0.2306k external	0.2306temperature offset calibration	1.0133default loss term (dB/km)	0.3790temperature slope calibration	1.0000multiplexer offset coefficient	1.0000multiplexer slope coefficient	1.0000fibre end	0.00T internal ref (°C)	33.31T ext. ref 1 (°C)	2.96T ext. ref 2 (°C)	27.99length (m)	temperature (°C)	Stokes	anti-Stokes-747.200	-200.000	-0.054	-0.470
-746.185	392.842	0.280	-0.593
-745.171	-200.000	0.001	-0.605
-744.156	170.484	-0.457	0.666
-743.142	-200.000	-0.052	-1.092
-742.127	-69.122	-0.346	0.136
-741.112	-200.000	0.019	-0.301
-740.098	-41.298	0.843	-0.442
-739.083	-200.000	-0.052	-0.588
-738.069	197.174	-0.504	0.782
-737.054	-52.500	0.393	0.185
-736.039	-200.000	-0.207	-1.315
-735.025	-200.000	-0.019	-0.334
-734.010	-74.189	-0.600	-0.221
-732.996	-14.703	-0.453	0.296
-731.981	-90.980	0.807	-0.236
-730.966	-200.000	-0.004	0.256
-729.952	-200.000	0.039	0.609
-728.937	170.105	0.302	0.439
-727.923	-137.535	-0.349	-0.040
-726.908	-200.000	0.018	-0.133
-725.894	800.000	0.147	-0.459
-724.879	9.322	0.305	-0.235
-723.864	-103.035	-0.522	-0.126
-722.850	-200.000	-0.035	-0.265
-721.835	293.727	-0.311	0.577
-720.821	-160.780	0.697	-0.038
-719.806	210.782	-0.019	0.031
-718.791	358.108	0.260	-0.527
-717.777	22.492	0.358	-0.297
-716.762	-200.000	0.133	-0.603
-715.748	800.000	-0.123	-0.388
-714.733	250.369	0.235	0.405
-713.718	64.998	0.473	0.486
-712.704	-48.934	-0.803	-0.391
-711.689	-13.602	0.398	-0.262
-710.675	-42.585	0.524	-0.271
-709.660	-200.000	0.045	0.334
-708.645	372.986	0.374	0.771
-707.631	-95.380	-0.547	-0.149
-706.616	-123.400	-0.633	-0.102
-705.602	-200.000	0.071	0.693
-704.587	137.202	-0.315	-0.418
-703.572	-2.873	0.555	-0.394
-702.558	-200.000	-0.108	0.795
-701.543	53.985	0.348	-0.340
-700.529	228.284	0.186	0.308
-699.514	800.000	0.107	-0.323
-698.499	86.454	-0.417	-0.467
-697.485	-200.000	0.115	-0.526
-696.470	-200.000	0.001	0.146
-695.456	-200.000	-0.025	-0.698
-694.441	-200.000	-0.048	0.315
-693.426	800.000	-0.240	0.825
-692.412	23.686	-0.956	0.799
-691.397	-27.348	-0.148	-0.087
-690.383	125.877	0.239	-0.307
-689.368	-31.057	0.438	-0.251
-688.354	800.000	-0.015	0.052
-687.339	-30.750	0.094	-0.054
-686.324	800.000	-0.207	-0.688
-685.310	26.205	0.676	0.573
-684.295	115.113	0.297	-0.368
-683.281	-200.000	-0.049	1.219
-682.266	267.706	-0.172	-0.305
-681.251	188.357	-0.279	-0.424
-680.237	-121.958	1.165	-0.194
-679.222	-156.974	-0.681	-0.042
-678.208	-48.229	-0.720	-0.353
-677.193	-42.102	0.539	0.280
-676.178	89.239	-0.282	-0.319
-675.164	-14.012	-0.442	0.289
-674.149	-52.461	-0.299	0.140
-673.135	97.385	-0.478	0.557
-672.120	46.639	-0.234	-0.220
-671.105	-200.000	-0.021	0.373
-670.091	317.617	-0.678	1.301
-669.076	-126.070	0.409	0.062
-668.062	29.360	0.169	0.146
-667.047	-200.000	0.023	0.223
-666.032	-118.468	-0.170	-0.031
-665.018	-200.000	-0.017	-0.194
-664.003	-200.000	0.080	0.354
-662.989	-141.623	-0.636	-0.065
-661.974	800.000	0.229	-0.912
-660.959	-67.250	-0.635	0.253
-659.945	-200.000	-0.051	-0.652
-658.930	-59.808	-0.253	0.110
-657.916	800.000	-0.131	-0.542
-656.901	-200.000	-0.075	0.978
-655.886	800.000	0.067	-0.263
-654.872	-32.248	-0.460	0.260
-653.857	800.000	0.181	0.729
-652.843	800.000	-0.057	0.191
-651.828	-0.200	0.279	-0.201
-650.814	800.000	-0.217	-0.835
-649.799	724.216	-0.061	-0.166
-648.784	-92.138	-0.642	-0.184
-647.770	-106.647	-0.638	0.144
-646.755	224.897	-0.569	-0.932
-645.741	8.102	-0.550	0.418
-644.726	-125.876	-0.118	0.018
-643.711	9.700	-0.508	0.390
-642.697	-138.119	0.280	0.031
-641.682	-149.684	-0.540	-0.043
-640.668	-200.000	-0.072	-0.569
-639.653	264.609	0.230	0.406
-638.638	0.152	0.291	-0.210
-637.624	-200.000	-0.003	0.037
-636.609	-104.785	0.411	-0.096
-635.595	800.000	-0.204	-0.673
-634.580	-200.000	0.039	0.419
-633.565	605.878	-0.162	-0.410
-632.551	-115.148	-0.770	-0.148
-631.536	106.753	-0.106	0.128
-630.522	-200.000	-0.003	0.040
-629.507	303.876	-0.330	-0.619
-628.492	-200.000	-0.083	0.459
-627.478	-58.349	0.353	-0.155
-626.463	-52.445	0.681	-0.319
-625.449	-15.112	-0.234	0.152
-624.434	241.373	-0.382	0.646
-623.419	369.211	0.370	0.757
-622.405	-127.440	0.755	0.111
-621.390	50.482	-0.210	0.201
-620.376	-6.326	-0.636	0.439
-619.361	387.972	0.326	-0.682
-618.346	-200.000	-0.039	-0.486
-617.332	-99.595	-0.597	0.152
-616.317	617.758	-0.149	-0.380
-615.303	334.781	0.165	0.323
-614.288	800.000	-0.140	0.584
-613.273	571.179	0.270	0.666
-612.259	-84.929	-0.238	-0.076
-611.244	-94.844	1.301	0.357
-610.230	332.086	-0.147	-0.288
-609.215	231.587	0.683	-1.133
-608.201	20.627	-0.200	-0.164
-607.186	38.636	-0.167	0.151
-606.171	-51.867	0.509	-0.239
-605.157	102.084	0.341	0.403
-604.142	-186.290	0.326	0.005
-603.128	324.354	0.285	0.551
-602.113	-167.695	0.477	0.019
-601.098	396.192	-0.536	-1.132
-600.084	-125.148	-0.393	-0.061
-599.069	138.894	-0.714	0.949
-598.055	-46.786	0.233	-0.115
-597.040	181.602	0.278	0.414
-596.025	-175.386	-0.405	0.011
-595.011	467.271	-0.234	-0.530
-593.996	-200.000	-0.009	0.519
-592.982	-54.494	-0.814	-0.373
-591.967	-85.896	0.401	0.126
-590.952	-125.318	-0.451	0.070
-589.938	-33.215	-0.487	0.273
-588.923	800.000	0.205	-0.628
-587.909	69.865	-0.298	-0.311
-586.894	-200.000	0.020	-0.268
-585.879	45.069	0.593	0.552
-584.865	-8.012	-0.223	0.152
-583.850	33.198	0.314	0.276
-582.836	-24.070	0.648	0.392
-581.821	98.926	0.116	0.136
-580.806	-101.017	-0.368	0.091
-579.792	-30.780	-1.045	-0.598
-578.777	113.450	-0.704	-0.864
-577.763	-122.930	0.793	-0.129
-576.748	-200.000	-0.012	0.372
-575.733	-200.000	-0.062	-0.451
-574.719	-89.609	-0.859	0.255
-573.704	-102.456	-0.289	0.070
-572.690	409.182	0.087	0.185
-571.675	-133.358	-0.933	-0.119
-570.661	-97.879	-0.057	-0.015
-569.646	800.000	-0.098	-0.288
-568.631	399.398	-0.074	0.157
-567.617	134.541	0.857	-1.124
-566.602	-112.104	-0.202	-0.041
-565.588	-155.647	0.431	-0.028
-564.573	220.104	0.310	0.502
-563.558	-200.000	-0.035	0.244
-562.544	73.781	0.395	0.418
-561.529	-126.544	0.587	0.088
-560.515	-7.075	0.431	0.295
-559.500	81.978	-0.126	-0.138
-558.485	-200.000	0.033	0.761
-557.471	-21.828	0.814	-0.500
-556.456	-200.000	-0.003	0.563
-555.442	313.298	-0.163	-0.310
-554.427	-59.512	0.954	-0.414
-553.412	115.199	-0.491	-0.606
-552.398	-157.843	-0.477	0.029
-551.383	800.000	0.155	0.620
-550.369	157.613	-0.254	0.355
-549.354	-200.000	0.039	0.491
-548.339	800.000	-0.118	0.403
-547.325	-74.181	0.910	-0.332
-546.310	-18.536	-0.169	-0.107
-545.296	-200.000	-0.076	-0.445
-544.281	172.278	0.139	-0.202
-543.266	-13.016	-0.556	-0.365
-542.252	-86.014	0.812	-0.253
-541.237	800.000	0.105	0.411
-540.223	-200.000	-0.034	-0.277
-539.208	-50.982	0.365	-0.173
-538.193	93.903	-0.322	-0.369
-537.179	195.674	0.297	0.456
-536.164	133.679	-0.198	0.258
-535.150	-200.000	0.072	0.774
-534.135	-152.461	0.741	0.054
-533.121	595.994	-0.162	-0.405
-532.106	-200.000	-0.537	0.001
-531.091	-200.000	0.012	0.633
-530.077	407.348	-0.182	0.388
-529.062	129.534	-0.550	-0.709
-528.048	146.166	0.383	-0.518
-527.033	-18.864	-0.600	-0.377
-526.018	347.959	0.288	0.573
-525.004	-144.503	-0.184	-0.017
-523.989	-113.835	-0.499	-0.098
-522.975	196.661	-0.307	0.472
-521.960	517.262	-0.211	-0.498
-520.945	-14.298	-0.284	-0.185
-519.931	36.129	0.948	0.842
-518.916	-136.201	0.616	0.073
-517.902	-200.000	0.044	0.499
-516.887	-24.967	-0.545	-0.326
-515.872	41.935	-0.504	0.461
-514.858	265.543	-0.487	-0.856
-513.843	-200.000	-0.021	0.408
-512.829	-83.172	0.683	-0.222
-511.814	-145.400	-0.471	0.043
-510.799	-181.401	-0.338	-0.007
-509.785	86.076	0.211	0.234
-508.770	-200.000	0.165	-0.807
-507.756	-200.000	-0.013	0.085
-506.741	-98.771	0.277	0.071
-505.726	-32.047	0.929	-0.524
-504.712	-182.281	-0.503	0.009
-503.697	800.000	0.111	0.336
-502.683	-84.897	0.612	-0.194
-501.668	308.291	0.139	0.262
-500.653	-20.279	0.398	0.247
-499.639	189.670	-0.201	-0.304
-498.624	-85.986	0.305	0.095
-497.610	-89.643	0.167	0.049
-496.595	312.598	0.218	-0.413
-495.581	-115.486	-0.252	-0.048
-494.566	800.000	0.069	-0.220
-493.551	116.640	-0.379	0.468
-492.537	418.237	0.288	-0.621
-491.522	-110.756	0.579	-0.120
-490.508	112.681	0.442	0.540
-489.493	-85.776	0.560	0.175
-488.478	-65.087	0.409	-0.166
-487.464	-44.204	-0.290	-0.147
-486.449	-200.000	-0.176	0.960
-485.435	38.763	0.430	0.386
-484.420	-78.781	-0.369	0.127
-483.405	-101.840	-0.574	-0.140
-482.391	375.948	-0.273	0.561
-481.376	-14.037	0.160	-0.104
-480.362	13.230	-0.140	-0.109
-479.347	69.499	0.827	-0.857
-478.332	-200.000	0.076	-0.562
-477.318	425.410	0.137	-0.298
-476.303	81.902	-0.375	0.409
-475.289	-74.900	0.884	0.319
-474.274	-86.943	-0.656	-0.202
-473.259	183.854	0.217	0.323
-472.245	-157.944	0.166	0.010
-471.230	-200.000	-0.056	-0.263
-470.216	286.025	0.137	0.249
-469.201	-65.168	0.369	-0.150
-468.186	-57.998	0.362	-0.159
-467.172	21.627	-0.669	-0.548
-466.157	-200.000	0.168	1.006
-465.143	-200.000	-0.173	0.865
-464.128	-36.562	-0.244	0.132
-463.113	74.693	-0.452	-0.479
-462.099	-13.035	0.366	0.239
-461.084	49.519	0.224	-0.212
-460.070	-108.822	0.793	-0.171
-459.055	5.183	0.300	0.222
-458.040	-160.647	-0.099	0.005
-457.026	-127.141	-0.149	-0.022
-456.011	-59.475	0.630	-0.272
-454.997	800.000	-0.108	-0.416
-453.982	-200.000	0.052	0.305
-452.968	355.677	-0.543	-1.088
-451.953	-18.208	-0.914	0.575
-450.938	566.902	0.197	0.482
-449.924	800.000	-0.107	-0.392
-448.909	-96.264	0.211	-0.056
-447.895	-93.427	0.273	-0.076
-446.880	74.244	-0.396	-0.418
-445.865	-14.408	0.624	0.404
-444.851	281.200	0.250	0.449
-443.836	75.019	-0.279	-0.295
-442.822	-200.000	-0.065	-0.536
-441.807	309.723	0.047	0.089
-440.792	289.024	-0.249	-0.454
-439.778	-131.449	-0.521	0.069
-438.763	-155.148	0.410	-0.027
-437.749	31.250	-0.331	-0.286
-436.734	-200.000	-0.049	-0.369
-435.719	80.097	-0.285	0.308
-434.705	37.540	0.416	0.371
-433.690	-45.311	0.626	0.312
-432.676	-55.952	-0.098	-0.044
-431.661	-200.000	0.097	0.794
-430.646	238.692	0.235	0.392
-429.632	165.738	-0.173	0.246
-428.617	55.957	0.351	-0.342
-427.603	308.740	0.198	-0.371
-426.588	-29.234	-0.204	-0.117
-425.573	27.904	0.235	0.199
-424.559	453.853	0.231	-0.513
-423.544	19.096	-0.529	0.426
-422.530	-132.297	-0.536	0.070
-421.515	-104.469	0.676	-0.157
-420.500	800.000	-0.064	0.242
-419.486	800.000	0.171	-0.611
-418.471	211.034	-0.345	-0.545
-417.457	-143.627	-0.714	0.068
-416.442	-200.000	0.009	-0.321
-415.428	-200.000	-0.028	-0.499
-414.413	737.782	0.238	-0.640
-413.398	92.065	-0.144	0.163
-412.384	214.638	0.319	-0.507
-411.369	-200.000	-0.042	0.731
-410.355	-111.546	0.731	-0.149
-409.340	397.927	0.228	0.479
-408.325	130.522	0.542	-0.697
-407.311	-200.000	-0.034	-0.351
-406.296	-200.000	-0.155	-0.805
-405.282	800.000	-0.084	-0.259
-404.267	548.391	0.310	-0.746
-403.252	-41.374	-0.672	0.347
-402.238	25.835	0.267	0.223
-401.223	70.942	0.827	-0.860
-400.209	4.950	0.779	0.575
-399.194	-111.876	-0.495	0.100
-398.179	-172.810	-0.564	0.018
-397.165	221.446	0.321	-0.517
-396.150	52.081	0.245	0.234
-395.136	-99.440	0.411	0.104
-394.121	270.059	0.191	0.337
-393.106	800.000	-0.247	-0.760
-392.092	-200.000	0.004	-0.063
-391.077	475.423	-0.239	-0.542
-390.063	86.810	-0.380	-0.421
-389.048	263.061	0.044	0.076
-388.033	202.222	-0.041	-0.063
-387.019	-200.000	0.037	0.256
-386.004	138.049	0.328	-0.431
-384.990	-3.593	-0.408	-0.284
-383.975	70.684	-0.385	-0.400
-382.960	-89.381	0.723	0.214
-381.946	-52.013	0.296	0.138
-380.931	-45.894	0.413	-0.204
-379.917	89.106	0.102	-0.114
-378.902	800.000	0.082	0.289
-377.888	150.436	0.255	-0.347
-376.873	-18.666	0.379	0.237
-375.858	-200.000	-0.009	0.445
-374.844	146.917	0.278	-0.375
-373.829	48.781	-0.315	-0.296
-372.815	-30.045	-0.637	-0.363
-371.800	-191.433	0.501	0.005
-370.785	-77.401	-0.411	-0.143
-369.771	-165.711	-0.622	-0.027
-368.756	15.608	0.954	-0.751
-367.742	-44.709	-0.642	0.321
-366.727	248.741	-0.536	0.909
-365.712	24.841	0.511	-0.424
-364.698	-94.243	0.623	-0.171
-363.683	312.665	-0.167	0.314
-362.669	107.839	-0.120	0.143
-361.654	-99.352	-0.347	-0.088
-360.639	-40.076	0.455	0.238
-359.625	-177.146	-0.838	-0.021
-358.610	800.000	0.068	-0.291
-357.596	-200.000	0.015	0.080
-356.581	150.779	0.195	0.266
-355.566	53.337	0.671	-0.644
-354.552	800.000	0.046	0.136
-353.537	-52.992	-0.443	0.204
-352.523	-37.069	0.634	0.340
-351.508	-24.556	-0.432	-0.257
-350.493	800.000	-0.189	-0.539
-349.479	186.804	-0.243	-0.362
-348.464	-27.181	-0.536	0.313
-347.450	-101.337	0.756	-0.185
-346.435	-97.364	0.506	0.132
-345.420	-53.360	0.207	0.095
-344.406	-200.000	0.028	-0.505
-343.391	-33.964	0.513	0.283
-342.377	105.708	0.191	0.226
-341.362	800.000	-0.154	-0.564
-340.348	800.000	-0.164	-0.461
-339.333	-200.000	0.063	-0.836
-338.318	135.923	0.305	0.398
-337.304	800.000	0.063	0.240
-336.289	800.000	-0.034	-0.130
-335.275	-0.445	0.988	0.702
-334.260	-35.493	-0.555	0.301
-333.245	800.000	-0.138	-0.561
-332.231	55.234	-0.397	0.384
-331.216	-200.000	-0.267	-1.315
-330.202	387.408	-0.408	0.845
-329.187	39.956	0.201	0.180
-328.172	16.211	-0.469	0.370
-327.158	-0.717	0.435	0.309
-326.143	516.920	0.142	0.332
-325.129	17.295	-0.340	-0.270
-324.114	-125.249	-0.868	-0.133
-323.099	-117.636	0.273	0.049
-322.085	-172.876	-0.318	0.010
-321.070	800.000	0.067	-0.219
-320.056	40.068	-0.212	0.191
-319.041	-200.000	-0.035	0.365
-318.026	-200.000	-0.009	0.102
-317.012	800.000	-0.104	-0.396
-315.997	-122.340	-0.266	0.043
-314.983	-108.923	0.269	0.057
-313.968	193.891	0.076	-0.115
-312.953	-57.221	0.558	0.246
-311.939	131.169	0.459	0.590
-310.924	70.986	0.317	-0.328
-309.910	-43.952	-0.266	-0.134
-308.895	107.178	0.519	0.617
-307.880	271.205	0.108	-0.191
-306.866	800.000	-0.127	-0.381
-305.851	197.208	-0.248	-0.379
-304.837	-173.535	1.001	0.030
-303.822	290.780	0.242	0.439
-302.807	534.716	0.482	1.142
-301.793	257.119	-0.226	-0.388
-300.778	108.864	0.540	-0.645
-299.764	-118.223	0.848	-0.151
-298.749	-60.828	-0.544	-0.230
-297.735	91.252	0.247	0.277
-296.720	-200.000	-0.050	1.066
-295.705	280.826	0.299	0.534
-294.691	-37.323	-0.278	0.148
-293.676	139.906	0.086	-0.113
-292.662	-200.000	0.067	0.474
-291.647	800.000	-0.139	-0.556
-290.632	511.555	0.100	-0.232
-289.618	-4.656	-0.519	0.358
-288.603	-200.000	-0.102	1.133
-287.589	-58.967	0.442	-0.191
-286.574	-109.950	-0.438	0.092
-285.559	-45.169	-1.048	-0.520
-284.545	398.315	-0.134	-0.280
-283.530	129.238	-0.321	0.410
-282.516	312.583	-0.247	0.464
-281.501	42.429	-0.377	-0.343
-280.486	197.920	0.332	0.506
-279.472	-200.000	-0.001	-0.027
-278.457	359.161	-0.320	0.639
-277.443	23.096	0.465	-0.381
-276.428	800.000	-0.199	-0.660
-275.413	24.020	-0.189	0.156
-274.399	25.129	-1.151	-0.954
-273.384	183.496	-0.330	-0.488
-272.370	-200.000	0.133	-0.875
-271.355	546.918	0.127	-0.303
-270.340	110.906	-0.024	-0.029
-269.326	-200.000	0.073	0.620
-268.311	-112.728	0.371	-0.074
-267.297	-200.000	-0.010	-0.794
-266.282	-50.792	-0.476	0.223
-265.267	37.760	-0.420	-0.372
-264.253	-184.550	0.732	-0.012
-263.238	-86.436	-0.137	-0.042
-262.224	-51.237	-0.350	0.164
-261.209	-34.135	0.499	-0.274
-260.195	-200.000	0.039	-0.599
-259.180	-200.000	0.051	-0.252
-258.165	390.674	0.181	-0.374
-257.151	326.952	-0.190	-0.364
-256.136	-200.000	-0.049	0.315
-255.122	-200.000	-0.021	-0.635
-254.107	-167.771	0.318	0.013
-253.092	30.789	-0.179	0.153
-252.078	-200.000	0.069	-0.537
-251.063	800.000	0.212	0.912
-250.049	-200.000	-0.045	0.242
-249.034	125.009	-0.409	0.514
-248.019	7.663	-0.835	0.623
-247.005	130.994	-0.305	0.391
-245.990	-97.305	0.560	0.146
-244.976	-12.067	0.993	-0.649
-243.961	52.797	-0.234	-0.223
-242.946	-153.822	0.565	0.039
-241.932	-192.737	-0.373	0.003
-240.917	-200.000	0.350	1.556
-239.903	-200.000	0.003	0.277
-238.888	-193.095	-0.402	-0.004
-237.873	67.207	-0.193	-0.197
-236.859	49.408	0.262	-0.246
-235.844	-111.885	-0.932	0.188
-234.830	462.936	-0.400	0.890
-233.815	63.985	-0.690	0.692
-232.800	-125.405	-0.309	-0.047
-231.786	233.765	-0.105	-0.173
-230.771	-200.000	-0.082	-0.358
-229.757	-159.960	-0.533	-0.029
-228.742	-200.000	0.011	1.057
-227.727	791.013	0.099	0.270
-226.713	-70.166	-0.852	0.323
-225.698	-109.705	-0.358	-0.075
-224.684	137.095	-0.483	-0.630
-223.669	-60.653	0.225	0.095
-222.655	43.148	0.170	0.155
-221.640	-200.000	-0.007	0.290
-220.625	-193.750	-0.552	0.005
-219.611	-69.691	-0.356	0.136
-218.596	-132.006	-0.782	-0.102
-217.582	246.009	0.088	-0.148
-216.567	-200.000	-0.063	0.486
-215.552	-179.744	-0.386	0.008
-214.538	258.073	0.291	0.499
-213.523	355.136	-0.113	-0.223
-212.509	353.731	0.039	-0.077
-211.494	-42.747	0.540	0.274
-210.479	54.855	0.716	0.688
-209.465	-58.105	-0.639	0.278
-208.450	800.000	0.127	0.437
-207.436	92.543	0.221	-0.248
-206.421	-25.067	0.415	0.245
-205.406	-17.053	-0.804	-0.506
-204.392	247.954	-0.664	-1.119
-203.377	467.284	0.355	0.794
-202.363	88.916	-0.566	-0.628
-201.348	-1.920	0.414	-0.290
-200.333	263.454	-0.152	0.263
-199.319	55.684	0.185	0.178
-198.304	19.571	0.326	-0.261
-197.290	147.940	-0.151	-0.203
-196.275	-52.646	0.626	0.288
-195.260	-143.880	-0.965	0.091
-194.246	-200.000	-0.005	0.235
-193.231	192.770	-0.170	0.256
-192.217	-190.894	0.509	0.005
-191.202	-23.646	-0.609	0.363
-190.187	-200.000	-0.196	-0.000
-189.173	800.000	0.174	0.722
-188.158	800.000	-0.115	-0.475
-187.144	44.864	0.175	0.161
-186.129	99.663	0.436	0.502
-185.114	197.686	-0.212	0.322
-184.100	-13.360	0.328	0.212
-183.085	-200.000	-0.037	-0.496
-182.071	-145.575	-0.675	-0.060
-181.056	776.856	-0.137	0.371
-180.042	-61.044	-0.572	0.240
-179.027	-200.000	0.010	0.603
-178.012	307.555	-0.416	-0.771
-176.998	800.000	0.145	-0.445
-175.983	257.861	0.259	0.444
-174.969	-97.505	-0.221	0.057
-173.954	-13.354	0.456	0.294
-172.939	800.000	0.113	0.476
-171.925	-116.006	1.175	-0.218
-170.910	213.066	-0.049	0.077
-169.896	-27.191	-0.365	0.212
-168.881	-107.070	-0.611	0.134
-167.866	721.732	0.208	-0.550
-166.852	-104.081	0.703	-0.163
-165.837	-71.179	-0.384	-0.143
-164.823	800.000	0.241	-0.751
-163.808	67.075	-0.459	0.465
-162.793	-126.647	0.486	-0.072
-161.779	-35.304	1.018	0.551
-160.764	-81.504	0.398	0.130
-159.750	537.587	-0.092	-0.218
-158.735	-200.000	-0.119	-0.772
-157.720	341.772	0.019	-0.037
-156.706	523.493	0.242	0.566
-155.691	398.058	0.130	0.270
-154.677	20.689	-0.413	0.332
-153.662	506.248	-0.149	-0.344
-152.647	-200.000	-0.035	0.546
-151.633	339.343	-0.202	-0.391
-150.618	800.000	0.113	0.379
-149.604	-57.439	1.012	-0.442
-148.589	28.657	0.281	-0.237
-147.574	-112.124	0.327	0.065
-146.560	151.848	-0.452	0.612
-145.545	39.635	0.607	-0.540
-144.531	-200.000	0.131	-0.953
-143.516	-69.895	-0.267	-0.101
-142.502	133.016	-0.352	0.451
-141.487	-120.585	0.553	0.093
-140.472	-200.000	-0.150	0.672
-139.458	-133.101	0.930	0.117
-138.443	-61.387	0.365	-0.152
-137.429	800.000	-0.186	-0.685
-136.414	279.962	0.209	0.371
-135.399	-2.293	-0.462	-0.322
-134.385	127.302	-0.399	-0.503
-133.370	800.000	0.194	0.621
-132.356	800.000	0.158	-0.569
-131.341	-200.000	0.020	-0.546
-130.326	11.754	-0.883	-0.673
-129.312	-200.000	-0.065	-0.516
-128.297	-172.057	-0.774	0.025
-127.283	-200.000	-0.050	-0.350
-126.268	151.127	0.230	-0.311
-125.253	-200.000	-0.001	0.352
-124.239	63.031	-0.281	-0.280
-123.224	-115.923	1.001	-0.185
-122.210	8.831	-0.498	0.373
