DTS Sentinel unit serial number:	SN413079Multiplexer serial number:	ORYXHardware model number:	OX4-SRSoftware version number:	ORYX F/W v4.00 Oryx Data Collector v3.7.2.0data status	okinstallation	princeton_trtdifferential loss correction	single-endedforward channel	channel 4reverse channel	N/Adate	2019/09/18time	00:21:35forward acquisition time	60.00reverse acquisition time	0.00gamma	496.2192k internal	0.2334k external	0.2334temperature offset calibration	0.9996default loss term (dB/km)	0.3790temperature slope calibration	1.0000multiplexer offset coefficient	1.0000multiplexer slope coefficient	1.0000fibre end	0.00T internal ref (°C)	23.62T ext. ref 1 (°C)	0.17T ext. ref 2 (°C)	17.19length (m)	temperature (°C)	Stokes	anti-Stokes-747.200	160.126	-0.093	0.131
-746.185	78.881	0.145	0.156
-745.171	-35.301	-0.102	-0.056
-744.156	106.022	-0.139	0.165
-743.142	87.459	-0.060	-0.067
-742.127	800.000	-0.105	0.340
-741.112	800.000	0.036	0.139
-740.098	-88.495	-0.041	0.012
-739.083	464.019	-0.010	0.023
-738.069	117.894	-0.332	0.411
-737.054	-43.612	0.391	0.198
-736.039	-6.715	-0.273	-0.187
-735.025	125.010	-0.168	-0.213
-734.010	80.927	-0.052	-0.056
-732.996	-200.000	-0.034	-0.197
-731.981	-124.108	-0.141	-0.022
-730.966	36.634	-0.232	0.206
-729.952	-122.964	-0.372	0.060
-728.937	-68.893	-0.320	-0.124
-727.923	55.394	-0.123	0.120
-726.908	-62.861	-0.034	0.014
-725.894	-21.685	0.176	-0.108
-724.879	800.000	0.071	-0.278
-723.864	-107.952	-0.155	-0.034
-722.850	-34.972	0.214	0.117
-721.835	-128.697	-0.208	-0.029
-720.821	-200.000	-0.037	-0.197
-719.806	800.000	0.026	0.078
-718.791	76.984	0.176	-0.188
-717.777	230.793	-0.068	0.111
-716.762	800.000	0.040	0.139
-715.748	-200.000	0.035	0.428
-714.733	-200.000	-0.028	-0.147
-713.718	57.515	0.233	-0.229
-712.704	-200.000	0.006	0.146
-711.689	800.000	-0.071	0.219
-710.675	357.913	0.070	-0.140
-709.660	-184.535	0.126	-0.002
-708.645	-110.756	0.179	0.037
-707.631	177.244	0.059	0.087
-706.616	45.044	-0.290	0.268
-705.602	651.153	-0.092	0.237
-704.587	-200.000	-0.061	-0.300
-703.572	-200.000	-0.039	-0.275
-702.558	-80.779	0.155	-0.052
-701.543	-56.387	0.103	0.046
-700.529	217.128	-0.198	0.316
-699.514	667.437	0.148	-0.383
-698.499	179.411	-0.100	0.147
-697.485	27.860	0.103	0.087
-696.470	-200.000	-0.016	-0.283
-695.456	32.341	-0.152	-0.132
-694.441	-105.514	0.141	0.032
-693.426	-200.000	-0.057	-0.588
-692.412	-200.000	-0.005	-0.121
-691.397	160.628	-0.169	-0.237
-690.383	-112.647	-0.375	-0.075
-689.368	-7.155	-0.178	0.121
-688.354	168.972	0.061	-0.087
-687.339	-197.856	-0.144	-0.001
-686.324	800.000	0.047	-0.152
-685.310	211.658	-0.138	0.218
-684.295	305.275	-0.141	0.263
-683.281	432.570	0.038	0.082
-682.266	64.677	0.208	0.210
-681.251	109.476	-0.132	0.158
-680.237	121.063	-0.056	-0.070
-679.222	449.458	0.076	0.169
-678.208	14.232	0.110	0.086
-677.193	800.000	-0.021	0.085
-676.178	-90.503	-0.060	0.017
-675.164	-45.666	-0.121	-0.060
-674.149	-184.380	-0.176	-0.003
-673.135	19.608	0.103	-0.083
-672.120	299.781	0.107	0.198
-671.105	-200.000	0.022	0.132
-670.091	800.000	0.072	-0.266
-669.076	74.728	-0.221	0.233
-668.062	-14.537	0.162	0.105
-667.047	-140.411	-0.248	-0.026
-666.032	-15.407	0.283	0.181
-665.018	-119.174	0.049	-0.009
-664.003	-1.896	0.256	-0.180
-662.989	-77.993	-0.230	0.079
-661.974	-105.048	0.179	0.041
-660.959	345.595	-0.099	-0.196
-659.945	-154.639	-0.234	0.016
-658.930	95.317	0.156	-0.178
-657.916	800.000	0.121	-0.445
-656.901	269.747	0.026	0.046
-655.886	140.983	0.017	0.022
-654.872	-102.721	-0.035	0.008
-653.857	800.000	0.032	-0.140
-652.843	112.011	0.352	-0.426
-651.828	-120.860	-0.262	0.044
-650.814	800.000	0.090	0.373
-649.799	100.640	-0.052	-0.060
-648.784	-200.000	0.005	-0.180
-647.770	97.940	-0.254	0.293
-646.755	-22.379	-0.068	-0.041
-645.741	-200.000	0.068	-0.365
-644.726	-200.000	0.020	-0.189
-643.711	62.440	0.140	0.140
-642.697	25.225	0.209	-0.174
-641.682	-200.000	0.014	0.106
-640.668	800.000	0.084	-0.342
-639.653	800.000	0.046	-0.160
-638.638	-200.000	0.015	0.100
-637.624	183.956	-0.076	0.112
-636.609	-200.000	0.056	-0.336
-635.595	-142.062	0.176	-0.018
-634.580	427.220	-0.104	0.224
-633.565	9.801	-0.160	-0.121
-632.551	-200.000	-0.004	-0.108
-631.536	174.840	0.194	0.281
-630.522	11.219	0.242	0.185
-629.507	-177.981	-0.040	0.001
-628.492	800.000	0.024	0.089
-627.478	-6.379	0.276	0.189
-626.463	6.237	0.325	-0.242
-625.449	-200.000	0.014	0.216
-624.434	-154.078	-0.297	0.020
-623.419	-108.086	0.365	0.079
-622.405	116.970	0.122	0.149
-621.390	5.822	0.175	0.129
-620.376	66.125	0.216	0.220
-619.361	-19.645	-0.213	0.132
-618.346	371.626	-0.035	-0.071
-617.332	10.684	-0.277	-0.211
-616.317	20.710	-0.200	0.162
-615.303	800.000	0.066	-0.226
-614.288	112.016	-0.117	-0.141
-613.273	20.769	0.299	0.242
-612.259	-91.755	0.217	0.062
-611.244	-110.672	0.267	-0.055
-610.230	800.000	-0.046	-0.201
-609.215	-200.000	-0.031	-0.138
-608.201	287.210	-0.059	0.106
-607.186	-117.162	-0.109	-0.020
-606.171	-90.765	-0.176	0.051
-605.157	117.388	-0.300	0.369
-604.142	-200.000	-0.041	-0.234
-603.128	171.340	-0.107	-0.154
-602.113	-123.672	-0.078	-0.012
-601.098	256.470	-0.081	-0.139
-600.084	-86.104	-0.564	-0.174
-599.069	338.353	-0.106	0.206
-598.055	321.366	-0.081	-0.153
-597.040	-77.844	0.089	-0.031
-596.025	-25.965	0.190	0.112
-595.011	246.656	0.105	-0.178
-593.996	21.646	-0.082	0.067
-592.982	-200.000	0.000	0.194
-591.967	172.370	-0.147	0.211
-590.952	800.000	-0.011	0.038
-589.938	-147.303	-0.114	0.010
-588.923	-200.000	0.043	-0.242
-587.909	-86.698	-0.238	-0.073
-586.894	-200.000	-0.020	-0.117
-585.879	-3.913	0.372	0.258
-584.865	197.737	0.207	0.317
-583.850	-141.068	0.165	-0.017
-582.836	-129.849	-0.142	-0.019
-581.821	-200.000	-0.023	-0.277
-580.806	-4.517	-0.022	-0.015
-579.792	-121.293	0.199	-0.033
-578.777	-67.186	0.171	0.067
-577.763	31.466	0.219	-0.188
-576.748	800.000	-0.167	0.498
-575.733	-2.263	-0.372	0.260
-574.719	244.091	0.134	-0.225
-573.704	-200.000	-0.011	0.074
-572.690	467.915	0.088	-0.196
-571.675	-35.709	0.305	0.165
-570.661	-153.588	-0.132	0.009
-569.646	155.166	0.139	-0.191
-568.631	94.284	0.108	0.122
-567.617	4.948	0.197	0.145
-566.602	-126.362	-0.256	0.038
-565.588	-13.591	-0.230	0.148
-564.573	447.823	-0.076	0.167
-563.558	-200.000	0.031	0.220
-562.544	3.190	0.081	-0.058
-561.529	166.488	0.288	0.407
-560.515	570.615	-0.016	0.039
-559.500	-131.603	0.617	-0.081
-558.485	-200.000	0.002	-0.465
-557.471	-51.779	-0.193	-0.090
-556.456	-69.998	0.249	-0.095
-555.442	798.762	0.140	0.387
-554.427	-150.587	-0.413	0.031
-553.412	-137.522	-0.341	0.038
-552.398	-136.740	-0.189	-0.022
-551.383	399.850	-0.093	0.195
-550.369	-17.195	-0.224	-0.141
-549.354	433.325	0.009	-0.019
-548.339	187.573	0.173	0.258
-547.325	-112.545	-0.200	-0.040
-546.310	-117.479	-0.449	-0.081
-545.296	201.445	0.191	0.293
-544.281	61.055	-0.184	0.182
-543.266	800.000	-0.056	0.199
-542.252	604.423	0.068	0.168
-541.237	443.338	0.066	0.144
-540.223	-101.300	0.364	-0.089
-539.208	274.359	0.113	-0.199
-538.193	-54.006	-0.181	-0.082
-537.179	-200.000	0.012	-0.263
-536.164	89.451	-0.127	-0.141
-535.150	135.455	0.289	-0.375
-534.135	210.610	-0.140	-0.219
-533.121	40.012	0.096	0.086
-532.106	241.951	0.085	0.141
-531.091	501.044	-0.043	0.099
-530.077	800.000	0.094	0.258
-529.062	56.662	0.167	0.162
-528.048	77.986	0.144	-0.153
-527.033	-89.882	-0.119	0.035
-526.018	128.136	0.161	-0.205
-525.004	-200.000	0.040	-0.243
-523.989	-116.792	-0.133	-0.024
-522.975	-46.277	0.295	0.144
-521.960	-68.415	0.186	0.072
-520.945	-19.751	-0.230	-0.142
-519.931	199.223	0.051	0.079
-518.916	800.000	-0.075	0.298
-517.902	-200.000	-0.040	-0.250
-516.887	-79.864	-0.379	-0.127
-515.872	-51.987	-0.531	-0.246
-514.858	800.000	-0.078	-0.280
-513.843	61.454	0.077	-0.077
-512.829	9.415	-0.147	0.110
-511.814	75.117	0.092	-0.097
-510.799	416.438	-0.077	-0.164
-509.785	-70.185	0.528	-0.200
-508.770	163.215	-0.021	-0.029
-507.756	-41.003	0.375	-0.193
-506.741	224.872	0.067	0.108
-505.726	800.000	0.031	-0.089
-504.712	-41.540	0.162	0.083
-503.697	87.949	-0.145	-0.160
-502.683	-27.687	-0.116	0.067
-501.668	-164.618	-0.232	-0.010
-500.653	-200.000	-0.055	-0.408
-499.639	31.921	-0.083	0.071
-498.624	-200.000	-0.002	-0.233
-497.610	-153.350	-0.181	0.013
-496.595	-58.898	0.335	0.144
-495.581	-200.000	-0.009	0.143
-494.566	-170.258	-0.113	-0.004
-493.551	-64.166	-0.125	0.051
-492.537	163.742	-0.100	-0.141
-491.522	127.573	-0.069	-0.088
-490.508	-200.000	-0.076	0.358
-489.493	800.000	0.091	-0.285
-488.478	800.000	-0.100	-0.406
-487.464	-32.603	-0.147	0.081
-486.449	-200.000	0.018	0.204
-485.435	-158.374	0.078	0.005
-484.420	54.517	-0.095	0.091
-483.405	508.693	-0.021	0.048
-482.391	-200.000	0.005	-0.191
-481.376	-22.630	-0.190	-0.114
-480.362	-123.023	-0.096	-0.015
-479.347	-96.172	0.305	-0.080
-478.332	800.000	-0.042	-0.144
-477.318	-200.000	-0.050	0.302
-476.303	5.064	0.263	-0.193
-475.289	-30.054	0.362	-0.205
-474.274	-90.799	-0.207	0.059
-473.259	-56.245	0.418	-0.185
-472.245	-155.753	0.314	-0.020
-471.230	138.123	0.174	-0.226
-470.216	-108.045	0.347	-0.075
-469.201	6.537	-0.195	0.144
-468.186	-200.000	0.020	-0.265
-467.172	121.262	0.256	0.317
-466.157	-162.126	-0.401	-0.020
-465.143	-200.000	0.052	0.275
-464.128	800.000	0.150	0.540
-463.113	582.685	-0.110	0.268
-462.099	-97.928	0.168	0.043
-461.084	-200.000	0.030	0.161
-460.070	97.222	0.218	0.249
-459.055	20.561	0.219	0.176
-458.040	225.648	-0.119	0.191
-457.026	-124.434	0.085	0.013
-456.011	56.637	-0.066	-0.064
-454.997	-200.000	-0.044	-0.442
-453.982	3.045	-0.222	0.160
-452.968	10.430	0.139	0.105
-451.953	-200.000	-0.009	-0.107
-450.938	298.027	0.146	-0.267
-449.924	541.162	0.065	0.154
-448.909	800.000	-0.088	0.242
-447.895	-118.918	0.408	0.071
-446.880	324.149	-0.206	0.390
-445.865	-64.399	-0.461	0.186
-444.851	-119.303	0.224	0.039
-443.836	-123.119	0.504	0.080
-442.822	800.000	-0.086	0.271
-441.807	133.653	0.133	-0.171
-440.792	-104.220	0.160	0.037
-439.778	192.756	0.135	-0.202
-438.763	150.745	-0.218	-0.295
-437.749	-31.917	0.206	-0.115
-436.734	-122.143	-0.221	0.036
-435.719	800.000	0.048	0.157
-434.705	-200.000	0.019	0.136
-433.690	0.743	0.205	-0.145
-432.676	800.000	0.101	-0.425
-431.661	267.731	0.244	-0.423
-430.646	-44.779	-0.090	-0.045
-429.632	115.228	-0.110	0.133
-428.617	-8.230	-0.169	-0.113
-427.603	-29.670	-0.269	-0.152
-426.588	800.000	0.075	-0.236
-425.573	-200.000	0.010	-0.242
-424.559	216.919	0.141	0.223
-423.544	-200.000	0.008	-0.244
-422.530	-13.856	-0.319	0.204
-421.515	30.308	0.172	0.146
-420.500	326.696	0.174	0.331
-419.486	53.579	-0.014	-0.013
-418.471	-115.072	0.148	0.028
-417.457	-37.892	0.145	-0.076
-416.442	64.698	-0.114	-0.114
-415.428	-200.000	-0.010	-0.064
-414.413	-42.132	-0.190	-0.097
-413.398	800.000	0.055	0.152
-412.384	22.965	-0.100	0.082
-411.369	331.745	0.041	-0.078
-410.355	-56.551	-0.219	-0.096
-409.340	-72.550	0.299	0.109
-408.325	149.680	-0.097	0.130
-407.311	-133.210	-0.186	0.023
-406.296	-82.082	-0.115	-0.037
-405.282	-161.875	0.268	-0.013
-404.267	-156.402	0.350	0.022
-403.252	304.133	-0.165	0.305
-402.238	-18.997	-0.108	0.067
-401.223	-69.858	0.092	0.035
-400.209	-168.905	0.078	0.003
-399.194	530.515	-0.066	0.155
-398.179	-112.619	0.045	-0.009
-397.165	-31.543	-0.349	0.195
-396.150	195.028	-0.119	0.179
-395.136	-138.828	0.322	-0.035
-394.121	442.060	0.122	-0.265
-393.106	800.000	-0.045	-0.182
-392.092	-134.314	0.124	-0.015
-391.077	-53.236	-0.153	0.070
-390.063	800.000	-0.038	0.125
-389.048	800.000	0.046	-0.163
-388.033	284.206	0.164	-0.293
-387.019	-200.000	-0.007	-0.074
-386.004	208.225	-0.131	0.202
-384.990	4.310	-0.185	0.135
-383.975	-200.000	-0.014	0.307
-382.960	-200.000	0.044	0.298
-381.946	103.510	0.100	-0.116
-380.931	706.679	-0.087	0.228
-379.917	224.755	-0.052	0.083
-378.902	15.688	-0.240	0.187
-377.888	85.850	-0.080	0.088
-376.873	-47.081	-0.106	-0.051
-375.858	173.065	-0.065	-0.092
-374.844	-98.435	0.161	-0.041
-373.829	800.000	-0.067	-0.251
-372.815	465.414	0.106	-0.235
-371.800	501.170	-0.088	0.201
-370.785	-15.037	0.327	0.208
-369.771	-106.048	-0.269	-0.060
-368.756	141.182	-0.197	0.258
-367.742	264.358	-0.138	-0.237
-366.727	96.879	-0.089	-0.101
-365.712	561.635	-0.057	-0.138
-364.698	-193.459	0.032	-0.000
-363.683	62.116	0.059	-0.058
-362.669	-200.000	0.003	-0.155
-361.654	33.150	-0.169	-0.145
-360.639	579.742	-0.117	0.285
-359.625	-200.000	-0.008	-0.283
-358.610	-200.000	-0.044	-0.191
-357.596	140.399	-0.096	-0.125
-356.581	800.000	0.035	0.120
-355.566	267.912	-0.103	0.179
-354.552	-200.000	-0.030	0.171
-353.537	40.813	0.113	-0.101
-352.523	146.877	0.114	0.152
-351.508	26.467	0.250	-0.207
-350.493	-10.517	-0.190	0.125
-349.479	530.875	-0.090	-0.211
-348.464	-77.913	0.337	0.115
-347.450	273.320	0.060	-0.106
-346.435	-114.396	-0.149	-0.028
-345.420	-200.000	-0.008	-0.211
-344.406	35.985	-0.197	-0.172
-343.391	155.167	-0.201	0.273
-342.377	153.044	-0.007	0.010
-341.362	-51.665	-0.284	-0.131
-340.348	59.655	-0.047	-0.045
-339.333	-126.297	-0.409	0.060
-338.318	800.000	0.116	0.366
-337.304	-36.896	0.163	0.087
-336.289	-1.997	-0.344	-0.239
-335.275	800.000	-0.044	0.133
-334.260	-200.000	0.001	-0.371
-333.245	-178.220	-0.232	0.005
-332.231	90.428	0.167	0.185
-331.216	800.000	-0.038	-0.111
-330.202	14.491	0.376	0.291
-329.187	16.235	-0.028	-0.022
-328.172	-36.916	0.015	-0.008
-327.158	277.719	-0.072	-0.127
-326.143	800.000	-0.103	0.362
-325.129	-81.661	-0.348	0.113
-324.114	22.318	0.355	0.287
-323.099	-200.000	-0.017	-0.087
-322.085	30.977	-0.225	-0.191
-321.070	597.785	-0.032	-0.078
-320.056	369.733	-0.145	-0.291
-319.041	800.000	-0.100	-0.361
-318.026	14.886	-0.255	0.198
-317.012	-200.000	-0.017	-0.222
-315.997	182.467	-0.146	-0.213
-314.983	-89.308	0.154	-0.045
-313.968	59.749	-0.088	-0.086
-312.953	361.600	-0.040	0.079
-311.939	-108.233	0.092	-0.020
-310.924	-42.857	-0.046	0.023
-309.910	-43.449	0.098	-0.049
-308.895	117.591	0.140	-0.170
-307.880	-52.838	-0.046	-0.021
-306.866	185.472	0.156	0.229
-305.851	-118.520	-0.197	-0.035
-304.837	199.630	0.093	0.142
-303.822	91.230	0.134	0.148
-302.807	355.732	-0.084	0.165
-301.793	800.000	-0.076	-0.263
-300.778	161.952	-0.291	0.403
-299.764	-200.000	-0.001	-0.298
-298.749	361.915	0.018	0.035
-297.735	800.000	0.134	-0.496
-296.720	-158.848	-0.172	-0.010
-295.705	-132.313	-0.301	-0.038
-294.691	-169.639	0.217	0.008
-293.676	-8.132	-0.091	0.061
-292.662	48.901	0.229	-0.213
-291.647	800.000	0.060	-0.244
-290.632	-88.135	0.155	-0.046
-289.618	128.587	-0.205	-0.257
-288.603	318.885	0.179	-0.335
-287.589	102.551	-0.202	0.233
-286.574	328.254	0.187	-0.354
-285.559	-45.490	-0.262	0.128
-284.545	-200.000	0.037	-0.204
-283.530	-200.000	-0.031	0.216
-282.516	-47.147	-0.071	0.034
-281.501	-64.950	0.168	0.067
-280.486	79.939	-0.046	0.049
-279.472	-13.460	-0.271	0.173
-278.457	37.983	-0.271	0.238
-277.443	574.633	0.211	0.509
-276.428	246.438	-0.162	0.269
-275.413	-200.000	-0.001	-0.203
-274.399	-19.421	0.117	-0.072
-273.384	-128.983	0.036	-0.005
-272.370	800.000	-0.015	-0.047
-271.355	-180.937	0.105	0.002
-270.340	-102.415	-0.177	0.042
-269.326	45.025	0.120	-0.109
-268.311	35.036	0.110	0.095
-267.297	-49.831	0.295	-0.138
-266.282	-200.000	0.005	0.298
-265.267	-84.735	-0.171	0.053
-264.253	-91.674	0.154	0.043
-263.238	-200.000	0.012	0.208
-262.224	-145.023	0.263	-0.024
-261.209	-200.000	0.020	-0.102
-260.195	-33.031	0.347	0.190
-259.180	-200.000	0.030	-0.222
-258.165	-13.844	-0.194	0.124
-257.151	191.970	-0.102	0.151
-256.136	800.000	-0.089	0.311
-255.122	-123.409	-0.264	-0.041
-254.107	-200.000	-0.003	0.148
-253.092	-92.560	0.185	0.051
-252.078	-91.611	0.418	-0.117
-251.063	134.207	-0.233	-0.298
-250.049	-108.796	0.168	-0.035
-249.034	-200.000	-0.066	0.390
-248.019	410.251	0.084	-0.175
-247.005	-12.284	-0.221	0.143
-245.990	350.647	-0.079	0.155
-244.976	112.243	-0.265	-0.316
-243.961	-24.558	0.450	0.264
-242.946	-56.869	-0.113	0.049
-241.932	29.695	0.065	0.055
-240.917	93.570	-0.071	0.079
-239.903	42.284	0.203	-0.182
-238.888	-21.760	0.246	-0.148
-237.873	1.110	-0.177	0.125
-236.859	140.260	-0.176	0.229
-235.844	-37.756	0.078	-0.041
-234.830	-139.560	-0.176	0.019
-233.815	-92.245	-0.218	-0.061
-232.800	-127.806	0.289	0.041
-231.786	-104.109	0.151	0.035
-230.771	144.631	0.271	-0.357
-229.757	800.000	-0.096	-0.320
-228.742	-134.838	0.207	0.025
-227.727	800.000	-0.140	-0.391
-226.713	-200.000	-0.015	-0.161
-225.698	-108.273	-0.247	-0.053
-224.684	-72.259	-0.514	0.188
-223.669	-106.335	-0.117	0.026
-222.655	-200.000	-0.002	0.052
-221.640	432.502	-0.014	0.031
-220.625	66.554	-0.179	0.179
-219.611	-13.968	0.225	0.143
-218.596	5.116	0.243	0.176
-217.582	-21.332	-0.320	0.192
-216.567	270.168	0.102	-0.177
-215.552	-36.812	-0.255	0.135
-214.538	-8.401	-0.198	0.131
-213.523	63.951	0.220	0.218
-212.509	-93.327	-0.302	-0.083
-211.494	800.000	-0.047	-0.135
-210.479	315.098	0.097	-0.180
-209.465	-200.000	-0.044	-0.223
-208.450	-200.000	-0.034	-0.317
-207.436	81.651	0.110	-0.117
-206.421	-89.373	0.209	-0.061
-205.406	-0.513	-0.160	-0.112
-204.392	295.872	0.088	-0.159
-203.377	339.313	-0.150	0.288
-202.363	201.474	0.113	0.172
-201.348	60.865	0.098	-0.096
-200.333	-200.000	-0.013	-0.142
-199.319	0.969	-0.209	-0.147
-198.304	67.825	0.110	0.110
-197.290	800.000	-0.144	0.399
-196.275	-200.000	-0.034	0.279
-195.260	-200.000	-0.016	0.245
-194.246	-38.345	-0.076	-0.039
-193.231	800.000	0.088	0.242
-192.217	49.709	-0.214	-0.198
-191.202	-72.863	-0.099	-0.036
-190.187	-186.872	-0.088	0.001
-189.173	37.349	-0.220	-0.192
-188.158	-36.731	0.232	0.122
-187.144	-41.640	0.133	0.067
-186.129	800.000	0.048	-0.133
-185.114	-48.253	-0.449	0.213
-184.100	-96.407	0.319	-0.083
-183.085	-200.000	-0.067	0.355
-182.071	-1.983	0.067	0.046
-181.056	-11.211	-0.186	0.120
-180.042	800.000	-0.016	-0.067
-179.027	-74.149	-0.059	0.021
-178.012	14.542	-0.254	0.195
-176.998	-56.314	0.281	0.123
-175.983	-200.000	0.048	-0.294
-174.969	800.000	0.023	0.066
-173.954	45.473	0.079	0.072
-172.939	289.805	0.139	-0.248
-171.925	-55.361	-0.088	0.039
-170.910	-200.000	0.101	-0.443
-169.896	-183.655	-0.345	0.006
-168.881	-78.919	0.297	0.100
-167.866	574.154	-0.063	-0.151
-166.852	-58.710	0.095	0.041
-165.837	216.574	0.066	0.103
-164.823	-200.000	0.001	-0.194
-163.808	-190.950	-0.261	0.003
-162.793	-49.620	0.159	-0.074
-161.779	-139.757	0.433	-0.045
-160.764	-44.086	0.128	0.063
-159.750	317.686	-0.054	-0.101
-158.735	31.727	0.173	0.146
-157.720	-15.134	-0.240	-0.151
-156.706	-22.340	0.260	-0.155
-155.691	189.840	0.035	-0.051
-154.677	-200.000	0.044	-0.250
-153.662	-0.758	-0.055	0.038
-152.647	-34.164	0.195	0.105
-151.633	-71.595	0.032	0.012
-150.618	-9.019	-0.200	-0.131
-149.604	-200.000	0.056	-0.309
-148.589	378.153	-0.105	-0.211
-147.574	-55.931	-0.167	0.073
-146.560	-100.288	-0.191	0.046
-145.545	-200.000	-0.039	0.216
-144.531	48.377	-0.140	0.129
-143.516	280.971	0.258	-0.453
-142.502	-157.611	-0.049	-0.003
-141.487	-200.000	-0.050	0.240
-140.472	384.289	-0.054	-0.110
-139.458	772.249	-0.072	-0.193
-138.443	-200.000	-0.050	-0.284
-137.429	-104.858	0.295	0.066
-136.414	77.754	0.385	0.403
-135.399	-200.000	-0.017	0.227
-134.385	800.000	0.046	-0.152
-133.370	-64.869	-0.338	-0.134
-132.356	230.383	0.043	0.069
-131.341	127.535	-0.190	0.237
-130.326	217.820	0.066	0.103
-129.312	-157.219	0.379	0.023
-128.297	290.302	-0.048	-0.085
-127.283	-124.397	0.291	0.044
-126.268	-111.643	-0.009	0.002
-125.253	20.384	0.224	-0.178
-124.239	-200.000	-0.024	0.115
-123.224	-200.000	-0.030	0.311
-122.210	-18.809	-0.321	0.196
-121.195	-120.025	-0.443	0.075
