DTS Sentinel unit serial number:	SN413079Multiplexer serial number:	ORYXHardware model number:	OX4-SRSoftware version number:	ORYX F/W v4.00 Oryx Data Collector v3.7.2.0data status	okinstallation	princeton_trtdifferential loss correction	single-endedforward channel	channel 4reverse channel	N/Adate	2019/09/14time	06:25:34forward acquisition time	60.00reverse acquisition time	0.00gamma	496.2192k internal	0.2323k external	0.2323temperature offset calibration	1.0139default loss term (dB/km)	0.3790temperature slope calibration	1.0000multiplexer offset coefficient	1.0000multiplexer slope coefficient	1.0000fibre end	0.00T internal ref (°C)	26.55T ext. ref 1 (°C)	3.42T ext. ref 2 (°C)	20.46length (m)	temperature (°C)	Stokes	anti-Stokes-747.200	16.332	-0.201	-0.160
-746.185	16.239	0.047	-0.037
-745.171	93.872	-0.106	-0.121
-744.156	198.883	-0.183	0.282
-743.142	287.180	-0.099	0.181
-742.127	800.000	0.062	-0.189
-741.112	144.656	0.075	-0.101
-740.098	-22.724	-0.043	-0.026
-739.083	272.260	-0.109	-0.195
-738.069	-200.000	0.027	0.255
-737.054	-91.596	0.098	-0.028
-736.039	-60.568	-0.165	-0.071
-735.025	10.193	0.187	-0.144
-734.010	-200.000	-0.010	0.186
-732.996	86.466	-0.190	-0.211
-731.981	-112.404	-0.137	0.028
-730.966	-40.591	-0.255	-0.134
-729.952	-200.000	-0.005	0.114
-728.937	612.135	-0.039	-0.099
-727.923	-144.156	0.077	-0.007
-726.908	-123.982	0.281	0.045
-725.894	-65.978	-0.135	-0.055
-724.879	-112.771	-0.319	-0.064
-723.864	-154.127	-0.232	0.016
-722.850	-200.000	-0.078	-0.369
-721.835	259.363	-0.062	-0.108
-720.821	-91.489	0.046	-0.013
-719.806	62.299	-0.048	0.048
-718.791	-69.953	-0.142	0.054
-717.777	-99.433	0.092	0.023
-716.762	-200.000	0.026	-0.387
-715.748	58.419	-0.127	-0.126
-714.733	-200.000	0.040	-0.312
-713.718	-155.943	-0.287	-0.018
-712.704	-14.335	0.268	0.174
-711.689	310.819	0.127	-0.240
-710.675	-50.090	0.162	-0.077
-709.660	800.000	0.061	-0.170
-708.645	-45.687	-0.326	0.163
-707.631	-105.190	0.175	0.040
-706.616	115.618	0.031	-0.039
-705.602	28.131	-0.070	0.060
-704.587	91.042	-0.114	-0.128
-703.572	758.326	0.156	0.425
-702.558	-72.281	0.256	0.096
-701.543	10.621	-0.355	-0.273
-700.529	214.921	0.149	-0.238
-699.514	-80.152	-0.445	0.150
-698.499	99.941	-0.196	0.229
-697.485	-155.815	0.320	-0.021
-696.470	25.967	-0.244	-0.205
-695.456	31.655	0.200	-0.173
-694.441	-200.000	-0.038	0.182
-693.426	-31.894	-0.290	0.164
-692.412	11.375	-0.118	-0.091
-691.397	331.042	0.096	0.187
-690.383	-57.527	-0.390	-0.173
-689.368	-200.000	-0.042	-0.330
-688.354	-200.000	-0.019	0.243
-687.339	-200.000	-0.044	0.314
-686.324	-129.370	0.139	-0.019
-685.310	-200.000	0.017	-0.127
-684.295	-181.278	-0.350	-0.007
-683.281	169.598	0.117	-0.168
-682.266	-56.597	0.269	-0.120
-681.251	-19.458	-0.266	0.166
-680.237	39.929	0.251	0.227
-679.222	-36.899	-0.078	0.042
-678.208	-102.369	-0.224	0.054
-677.193	800.000	-0.015	-0.044
-676.178	503.243	-0.118	-0.276
-675.164	144.769	-0.139	0.188
-674.149	-20.464	0.067	-0.041
-673.135	800.000	-0.080	-0.307
-672.120	91.192	0.119	0.134
-671.105	120.987	0.105	0.132
-670.091	268.519	0.019	0.034
-669.076	-47.170	0.098	0.048
-668.062	-200.000	-0.024	-0.118
-667.047	37.510	-0.144	-0.129
-666.032	-70.516	-0.177	0.068
-665.018	-200.000	0.016	-0.362
-664.003	187.075	0.156	-0.234
-662.989	75.148	0.063	0.066
-661.974	141.335	-0.063	-0.084
-660.959	-55.757	0.190	0.085
-659.945	416.508	-0.034	0.073
-658.930	-144.843	-0.280	-0.026
-657.916	255.666	0.080	0.139
-656.901	171.969	-0.228	-0.329
-655.886	-200.000	-0.038	-0.329
-654.872	95.703	-0.079	-0.091
-653.857	-60.663	-0.121	0.052
-652.843	153.604	-0.081	0.112
-651.828	30.373	-0.050	0.043
-650.814	800.000	0.140	0.408
-649.799	-54.146	-0.287	-0.131
-648.784	-200.000	-0.025	-0.420
-647.770	-156.311	-0.101	0.006
-646.755	-200.000	0.015	0.110
-645.741	-185.780	0.039	-0.001
-644.726	-81.606	-0.225	-0.074
-643.711	-74.298	0.193	-0.070
-642.697	328.809	-0.209	0.403
-641.682	263.669	0.213	0.372
-640.668	-200.000	0.002	-0.017
-639.653	-200.000	0.008	0.074
-638.638	-200.000	0.017	-0.194
-637.624	800.000	0.017	0.072
-636.609	668.865	0.024	-0.062
-635.595	-114.370	0.236	0.046
-634.580	156.293	0.157	-0.217
-633.565	63.269	-0.287	0.289
-632.551	-118.358	-0.056	-0.010
-631.536	-40.007	0.215	0.113
-630.522	-101.572	0.313	0.077
-629.507	-21.048	-0.164	-0.101
-628.492	41.178	-0.168	-0.153
-627.478	-200.000	-0.007	0.311
-626.463	-20.281	-0.063	0.039
-625.449	99.095	-0.138	0.161
-624.434	-78.478	-0.525	-0.181
-623.419	317.175	0.053	-0.102
-622.405	32.166	0.190	0.164
-621.390	72.890	-0.088	0.092
-620.376	-200.000	0.009	0.322
-619.361	-200.000	-0.015	0.067
-618.346	86.853	-0.169	-0.188
-617.332	227.459	0.046	-0.075
-616.317	-6.625	0.184	-0.126
-615.303	264.917	0.083	-0.146
-614.288	131.775	0.092	0.119
-613.273	86.402	0.239	-0.265
-612.259	16.091	-0.100	0.079
-611.244	-118.645	0.204	-0.036
-610.230	191.436	0.140	-0.212
-609.215	-74.329	-0.130	0.047
-608.201	227.152	0.077	-0.126
-607.186	71.699	-0.180	-0.188
-606.171	351.684	0.115	0.229
-605.157	515.813	-0.023	-0.053
-604.142	-200.000	0.034	0.160
-603.128	-86.739	-0.184	0.057
-602.113	-200.000	-0.003	-0.129
-601.098	-186.346	-0.184	-0.003
-600.084	141.519	-0.054	0.071
-599.069	651.395	-0.033	-0.085
-598.055	437.491	0.163	0.357
-597.040	53.716	-0.291	0.281
-596.025	83.917	-0.059	-0.064
-595.011	-184.429	0.100	0.002
-593.996	86.872	0.185	-0.205
-592.982	-200.000	0.018	0.118
-591.967	-139.299	-0.291	-0.031
-590.952	60.864	0.086	-0.086
-589.938	-108.464	0.328	-0.071
-588.923	-74.167	-0.068	-0.025
-587.909	-200.000	0.006	0.042
-586.894	-44.348	-0.036	-0.018
-585.879	-98.218	0.249	-0.064
-584.865	-200.000	0.005	-0.192
-583.850	-176.065	0.493	0.013
-582.836	-43.979	0.524	-0.264
-581.821	-200.000	-0.012	-0.115
-580.806	371.877	0.044	-0.090
-579.792	800.000	0.081	-0.249
-578.777	-117.629	-0.168	0.030
-577.763	-76.401	-0.423	0.149
-576.748	-52.996	0.091	0.042
-575.733	305.402	-0.124	0.232
-574.719	-72.472	-0.027	-0.010
-573.704	-145.847	-0.161	0.014
-572.690	101.292	-0.171	-0.200
-571.675	425.111	0.147	-0.318
-570.661	87.658	-0.194	-0.216
-569.646	-200.000	0.004	0.108
-568.631	-65.506	0.057	0.023
-567.617	-3.687	-0.211	-0.147
-566.602	-38.865	-0.228	0.120
-565.588	-200.000	0.011	-0.528
-564.573	-117.757	0.210	0.038
-563.558	-67.731	-0.082	-0.032
-562.544	-8.750	-0.208	0.140
-561.529	-200.000	-0.021	0.145
-560.515	10.124	0.167	0.128
-559.500	55.808	-0.100	-0.097
-558.485	244.121	-0.227	-0.381
-557.471	-77.230	-0.223	0.078
-556.456	325.158	-0.116	0.222
-555.442	-61.200	-0.056	-0.024
-554.427	83.437	-0.124	0.136
-553.412	153.311	0.117	-0.161
-552.398	-122.756	-0.168	0.027
-551.383	-21.071	-0.036	0.022
-550.369	-180.993	0.265	0.005
-549.354	-200.000	-0.047	0.400
-548.339	32.611	-0.099	0.086
-547.325	76.935	-0.264	0.281
-546.310	-157.656	-0.102	0.006
-545.296	255.782	0.103	0.178
-544.281	-200.000	0.015	-0.086
-543.266	800.000	-0.086	0.309
-542.252	-105.636	0.289	0.066
-541.237	42.721	0.243	-0.221
-540.223	-57.532	-0.073	0.032
-539.208	-83.922	0.348	0.111
-538.193	800.000	-0.149	-0.563
-537.179	-69.272	-0.224	-0.086
-536.164	-104.997	0.232	0.053
-535.150	-60.058	0.223	0.095
-534.135	46.788	-0.313	0.291
-533.121	-200.000	-0.029	0.161
-532.106	-200.000	0.005	0.462
-531.091	-3.111	0.178	-0.125
-530.077	-76.887	-0.269	0.094
-529.062	-200.000	-0.010	-0.172
-528.048	235.757	-0.070	0.116
-527.033	-63.550	-0.294	-0.121
-526.018	-114.860	0.248	0.047
-525.004	800.000	0.028	-0.108
-523.989	-76.475	-0.089	0.031
-522.975	-200.000	0.048	-0.350
-521.960	-35.156	-0.166	0.091
-520.945	134.618	-0.069	0.090
-519.931	-200.000	-0.059	-0.279
-518.916	99.405	-0.070	-0.081
-517.902	112.919	0.123	-0.149
-516.887	306.239	-0.127	0.236
-515.872	143.463	0.156	0.208
-514.858	800.000	-0.092	-0.277
-513.843	-14.263	-0.133	-0.086
-512.829	272.064	0.038	-0.066
-511.814	321.171	-0.072	0.136
-510.799	87.341	0.187	0.207
-509.785	-200.000	-0.009	-0.050
-508.770	-92.060	-0.288	0.081
-507.756	-63.242	-0.283	-0.117
-506.741	-28.600	0.210	-0.121
-505.726	800.000	-0.064	-0.223
-504.712	382.521	-0.095	0.196
-503.697	-100.343	0.033	-0.008
-502.683	-153.813	-0.264	-0.018
-501.668	-161.320	0.323	0.017
-500.653	-141.383	0.178	0.018
-499.639	800.000	-0.046	0.138
-498.624	89.683	0.044	-0.049
-497.610	-105.286	-0.012	0.003
-496.595	133.862	-0.195	-0.252
-495.581	46.553	0.245	-0.227
-494.566	54.870	-0.072	-0.070
-493.551	800.000	0.059	-0.203
-492.537	-10.781	-0.327	-0.216
-491.522	65.837	0.179	-0.181
-490.508	800.000	0.067	-0.240
-489.493	-162.049	-0.186	0.009
-488.478	-200.000	0.016	-0.244
-487.464	-200.000	0.042	0.257
-486.449	-138.193	0.032	0.004
-485.435	-91.693	0.257	-0.073
-484.420	-133.257	-0.326	0.041
-483.405	-58.898	0.259	0.112
-482.391	290.776	0.034	-0.063
-481.376	456.965	0.076	0.168
-480.362	-103.435	-0.117	0.028
-479.347	-36.470	-0.217	0.117
-478.332	595.772	-0.136	0.336
-477.318	-200.000	-0.023	0.160
-476.303	310.717	0.093	0.174
-475.289	-59.283	0.196	-0.084
-474.274	800.000	-0.044	0.182
-473.259	-137.015	0.152	0.017
-472.245	20.735	0.110	-0.089
-471.230	-171.707	-0.347	-0.011
-470.216	-122.551	-0.080	-0.013
-469.201	-50.046	0.169	0.080
-468.186	-31.749	-0.161	-0.090
-467.172	-73.755	-0.312	-0.114
-466.157	-56.639	-0.138	-0.061
-465.143	-118.619	-0.165	-0.029
-464.128	103.743	0.075	0.088
-463.113	-91.901	-0.158	-0.045
-462.099	-200.000	0.070	-0.498
-461.084	123.300	-0.189	-0.236
-460.070	95.376	0.287	-0.326
-459.055	-200.000	0.041	0.185
-458.040	118.079	0.127	-0.156
-457.026	-56.152	0.112	-0.050
-456.011	800.000	-0.058	0.182
-454.997	-36.080	-0.087	0.047
-453.982	-200.000	0.010	0.113
-452.968	-68.408	0.137	-0.053
-451.953	-92.489	0.331	-0.093
-450.938	-200.000	0.015	-0.140
-449.924	-18.362	0.062	-0.039
-448.909	-70.271	-0.284	0.108
-447.895	118.496	-0.084	0.103
-446.880	-34.448	-0.300	0.164
-445.865	-87.648	0.119	0.036
-444.851	73.754	0.104	-0.109
-443.836	-120.685	0.190	-0.032
-442.822	-200.000	-0.003	0.040
-441.807	669.864	0.157	0.405
-440.792	800.000	0.106	-0.361
-439.778	18.444	-0.193	0.154
-438.763	25.677	0.164	0.137
-437.749	88.614	0.152	0.168
-436.734	181.502	0.109	0.160
-435.719	10.548	0.416	-0.316
-434.705	-134.190	0.365	-0.045
-433.690	-53.086	0.085	-0.039
-432.676	301.684	-0.078	0.144
-431.661	-57.908	-0.310	0.135
-430.646	84.581	0.264	-0.288
-429.632	-18.341	-0.166	-0.103
-428.617	43.503	-0.255	-0.233
-427.603	165.768	-0.120	0.170
-426.588	40.278	-0.086	0.077
-425.573	448.927	0.046	-0.101
-424.559	-94.826	-0.248	0.067
-423.544	-132.153	0.093	-0.012
-422.530	-56.769	0.226	-0.100
-421.515	-71.064	-0.125	-0.047
-420.500	-133.183	0.216	0.027
-419.486	119.062	-0.045	0.055
-418.471	-88.569	-0.137	-0.041
-417.457	159.427	-0.100	-0.139
-416.442	-62.193	0.115	-0.048
-415.428	105.629	0.206	0.242
-414.413	-78.861	-0.273	-0.093
-413.398	270.281	-0.051	0.089
-412.384	-39.990	-0.184	0.095
-411.369	-21.419	0.275	0.167
-410.355	207.182	-0.099	0.153
-409.340	-188.684	0.363	0.004
-408.325	-2.217	-0.227	0.159
-407.311	-10.368	0.133	-0.088
-406.296	-159.842	0.336	0.018
-405.282	800.000	0.050	-0.144
-404.267	30.907	0.078	-0.066
-403.252	448.816	0.043	-0.095
-402.238	-105.257	-0.573	-0.130
-401.223	-116.919	0.103	0.019
-400.209	667.317	0.106	-0.273
-399.194	110.272	0.091	0.109
-398.179	-35.907	0.204	0.110
-397.165	19.353	-0.321	-0.257
-396.150	-182.542	-0.292	-0.005
-395.136	-74.482	0.400	-0.144
-394.121	-93.086	0.150	0.042
-393.106	6.238	-0.191	0.141
-392.092	-3.279	0.121	0.084
-391.077	800.000	-0.069	0.204
-390.063	414.653	0.104	0.221
-389.048	-96.498	0.552	-0.145
-388.033	800.000	-0.049	-0.187
-387.019	-6.444	0.172	0.117
-386.004	269.885	-0.184	-0.323
-384.990	800.000	0.021	0.081
-383.975	-50.323	0.216	-0.102
-382.960	-51.983	0.088	0.041
-381.946	-87.492	0.138	-0.042
-380.931	800.000	0.140	0.552
-379.917	-36.736	-0.329	0.176
-378.902	266.522	-0.126	0.219
-377.888	186.635	0.074	-0.110
-376.873	-89.632	0.263	0.077
-375.858	-35.227	0.136	0.074
-374.844	-86.213	-0.251	-0.077
-373.829	32.416	-0.182	-0.157
-372.815	800.000	-0.114	0.355
-371.800	-104.918	-0.090	0.020
-370.785	-74.328	0.113	-0.040
-369.771	299.457	0.108	0.199
-368.756	113.575	-0.116	0.140
-367.742	-105.282	-0.062	-0.014
-366.727	246.717	0.056	-0.094
-365.712	-31.453	-0.371	0.208
-364.698	-181.152	-0.270	0.005
-363.683	-200.000	-0.066	-0.453
-362.669	-62.364	0.190	0.079
-361.654	-0.999	0.098	-0.069
-360.639	-98.032	-0.281	-0.072
-359.625	132.353	-0.025	-0.033
-358.610	-127.603	0.105	-0.015
-357.596	-87.635	0.230	-0.069
-356.581	142.077	0.150	0.198
-355.566	75.463	-0.099	-0.104
-354.552	-94.910	0.210	-0.057
-353.537	-115.716	-0.196	-0.036
-352.523	-8.043	0.056	-0.038
-351.508	-200.000	-0.030	-0.371
-350.493	-33.287	0.070	0.039
-349.479	52.312	0.339	-0.321
-348.464	-96.306	-0.127	-0.033
-347.450	-80.413	0.364	0.121
-346.435	-71.330	-0.159	0.059
-345.420	-44.749	0.299	-0.148
-344.406	-159.022	0.192	-0.011
-343.391	731.069	-0.129	0.343
-342.377	136.717	-0.115	-0.150
-341.362	130.628	0.075	0.096
-340.348	-200.000	0.010	0.171
-339.333	-0.268	0.022	0.016
-338.318	-46.953	-0.111	0.054
-337.304	-200.000	0.040	0.275
-336.289	-88.742	0.241	-0.071
-335.275	543.540	-0.079	0.186
-334.260	289.613	0.090	0.162
-333.245	157.343	0.217	0.298
-332.231	16.322	0.191	-0.149
-331.216	64.595	0.200	0.200
-330.202	-200.000	0.000	0.209
-329.187	-200.000	-0.008	-0.087
-328.172	800.000	-0.082	0.345
-327.158	144.463	0.346	-0.460
-326.143	-144.195	0.380	-0.035
-325.129	800.000	0.081	0.248
-324.114	30.298	0.140	-0.119
-323.099	11.462	0.078	0.059
-322.085	-118.378	0.200	-0.035
-321.070	352.365	-0.044	-0.086
-320.056	172.082	-0.191	-0.272
-319.041	-184.920	0.094	-0.001
-318.026	800.000	0.077	-0.289
-317.012	-119.563	-0.397	0.068
-315.997	139.614	0.204	-0.266
-314.983	-200.000	0.049	0.323
-313.968	94.857	0.220	-0.249
-312.953	55.924	0.392	0.378
-311.939	202.509	-0.153	0.234
-310.924	-200.000	-0.020	0.242
-309.910	-200.000	0.004	-0.051
-308.895	64.754	0.221	0.221
-307.880	-162.506	0.220	-0.011
-306.866	-12.153	-0.255	0.166
-305.851	800.000	-0.021	0.070
-304.837	800.000	0.077	0.311
-303.822	-106.393	0.132	0.029
-302.807	71.338	0.042	0.044
-301.793	379.467	0.079	0.160
-300.778	-55.280	-0.183	0.082
-299.764	-62.297	0.175	0.073
-298.749	27.211	-0.251	-0.209
-297.735	447.041	-0.145	-0.317
-296.720	800.000	-0.018	0.070
-295.705	-79.184	-0.182	0.061
-294.691	-92.322	-0.116	-0.032
-293.676	-200.000	-0.035	0.435
-292.662	21.700	-0.049	0.040
-291.647	-9.393	0.215	0.143
-290.632	-88.659	-0.170	0.050
-289.618	-200.000	0.016	0.288
-288.603	5.468	0.091	0.066
-287.589	-131.025	-0.280	-0.037
-286.574	-200.000	-0.023	0.147
-285.559	-77.286	-0.182	-0.063
-284.545	-130.634	0.200	-0.027
-283.530	-25.324	-0.274	-0.161
-282.516	16.029	-0.210	0.164
-281.501	-200.000	0.044	-0.270
-280.486	-100.901	-0.294	-0.072
-279.472	-41.147	0.235	-0.121
-278.457	78.317	0.132	-0.140
-277.443	800.000	0.019	-0.074
-276.428	-200.000	-0.004	-0.050
-275.413	53.892	-0.166	0.158
-274.399	-200.000	0.017	-0.271
-273.384	-70.955	0.081	-0.030
-272.370	800.000	0.048	0.173
-271.355	146.283	-0.092	0.123
-270.340	553.326	0.088	-0.210
-269.326	31.510	-0.156	0.133
-268.311	-200.000	0.017	0.107
-267.297	-119.210	-0.306	0.053
-266.282	-200.000	0.026	-0.454
-265.267	-81.607	0.284	-0.093
-264.253	-110.832	0.434	0.089
-263.238	800.000	-0.073	0.249
-262.224	-37.265	-0.152	-0.081
-261.209	-112.939	-0.472	0.093
-260.195	-6.642	0.136	-0.092
-259.180	-70.821	-0.025	0.009
-258.165	146.864	0.206	0.275
-257.151	-186.901	-0.182	-0.003
-256.136	168.791	0.231	-0.326
-255.122	-90.026	-0.210	-0.061
-254.107	118.546	-0.123	-0.151
-253.092	-4.350	-0.063	0.043
-252.078	112.386	-0.163	0.196
-251.063	800.000	-0.141	0.424
-250.049	-90.689	-0.363	-0.104
-249.034	-200.000	0.027	0.141
-248.019	-49.723	0.172	-0.081
-247.005	281.436	-0.147	-0.261
-245.990	310.785	0.047	-0.087
-244.976	-10.578	-0.400	-0.262
-243.961	-122.893	0.376	-0.060
-242.946	56.458	0.089	-0.086
-241.932	329.231	-0.054	0.103
-240.917	79.543	0.104	0.110
-239.903	-200.000	0.013	-0.315
-238.888	-51.763	0.156	-0.072
-237.873	-143.106	-0.359	0.034
-236.859	-164.261	-0.313	0.014
-235.844	-46.052	-0.145	-0.071
-234.830	480.068	0.012	0.027
-233.815	800.000	0.111	0.327
-232.800	-110.933	0.103	-0.021
-231.786	-51.305	-0.142	-0.066
-230.771	-200.000	-0.068	-0.327
-229.757	800.000	0.116	-0.380
-228.742	800.000	-0.030	0.126
-227.727	-200.000	-0.021	0.099
-226.713	-199.756	-0.091	0.000
-225.698	-37.891	0.061	0.032
-224.684	266.940	0.045	0.078
-223.669	-114.585	0.085	-0.016
-222.655	-92.689	-0.190	-0.053
-221.640	17.041	0.238	-0.187
-220.625	-117.305	-0.135	0.024
-219.611	-77.722	-0.476	-0.163
-218.596	800.000	-0.081	-0.273
-217.582	-14.638	0.244	-0.155
-216.567	-71.518	0.202	0.075
-215.552	-200.000	-0.030	-0.283
-214.538	96.900	-0.305	0.346
-213.523	49.417	-0.256	0.238
-212.509	-178.148	-0.185	0.004
-211.494	519.765	-0.098	0.227
-210.479	174.736	-0.071	0.102
-209.465	183.768	0.097	-0.141
-208.450	47.463	0.190	-0.175
-207.436	-200.000	0.107	0.493
-206.421	-200.000	0.011	-0.140
-205.406	-111.592	-0.272	0.055
-204.392	800.000	0.042	0.176
-203.377	49.956	0.279	-0.260
-202.363	43.084	-0.006	0.005
-201.348	72.307	0.057	0.059
-200.333	53.530	-0.086	-0.081
-199.319	-174.218	0.340	-0.010
-198.304	800.000	0.067	0.196
-197.290	-140.950	-0.187	-0.019
-196.275	-102.582	-0.225	-0.053
-195.260	-200.000	0.021	-0.148
-194.246	-10.840	0.072	-0.047
-193.231	-200.000	0.021	-0.128
-192.217	335.473	-0.152	-0.291
-191.202	313.062	0.124	0.230
-190.187	103.857	0.023	0.027
-189.173	341.612	0.039	0.075
-188.158	-103.844	0.473	-0.109
-187.144	-44.418	0.337	0.167
-186.129	-161.621	-0.539	-0.027
-185.114	14.361	0.104	0.080
-184.100	-96.439	-0.322	-0.084
-183.085	131.326	0.055	0.070
-182.071	-137.444	0.086	0.010
-181.056	621.758	-0.085	-0.212
-180.042	-26.471	-0.154	0.089
-179.027	-200.000	-0.014	-0.141
-178.012	-110.036	0.433	0.089
-176.998	147.413	0.074	-0.099
-175.983	136.538	-0.055	-0.071
-174.969	240.668	-0.102	0.168
-173.954	-86.429	0.134	0.041
-172.939	-200.000	0.003	-0.064
-171.925	-56.590	-0.378	0.166
-170.910	-1.241	0.228	-0.159
-169.896	-110.687	0.274	0.056
-168.881	-200.000	-0.008	0.055
-167.866	-200.000	0.038	-0.400
-166.852	-54.908	0.092	-0.041
-165.837	-33.488	-0.203	-0.111
-164.823	267.127	-0.041	-0.071
-163.808	195.292	0.233	-0.350
-162.793	-133.602	-0.415	0.051
-161.779	-200.000	0.002	0.149
-160.764	138.008	0.058	0.075
-159.750	8.771	0.142	-0.106
-158.735	44.558	-0.164	0.148
-157.720	-96.886	-0.172	-0.045
-156.706	-120.304	0.075	0.013
-155.691	-87.962	0.217	-0.064
-154.677	-68.100	0.104	-0.040
-153.662	404.767	0.087	0.180
-152.647	-108.904	-0.301	-0.063
-151.633	-200.000	0.076	0.441
-150.618	252.639	-0.209	-0.351
-149.604	443.664	0.108	0.235
-148.589	282.322	0.069	0.122
-147.574	290.697	0.095	-0.170
-146.560	-200.000	-0.021	-0.293
-145.545	131.726	0.165	-0.209
-144.531	326.041	-0.222	-0.419
-143.516	-150.635	0.502	0.038
-142.502	-43.879	-0.169	0.084
-141.487	146.547	-0.132	-0.175
-140.472	48.873	0.089	-0.082
-139.458	-43.928	-0.067	0.033
-138.443	68.145	0.040	0.040
-137.429	800.000	0.086	-0.247
-136.414	44.317	0.383	-0.346
-135.399	-156.236	-0.299	0.019
-134.385	507.117	0.071	0.163
-133.370	-13.742	0.030	-0.019
-132.356	173.669	-0.087	-0.124
-131.341	800.000	0.092	-0.318
-130.326	-200.000	0.034	-0.247
-129.312	218.380	-0.173	-0.272
-128.297	796.404	0.066	-0.179
-127.283	-200.000	-0.002	0.264
-126.268	-121.907	0.076	0.012
-125.253	800.000	0.144	0.418
-124.239	-11.147	-0.106	0.069
-123.224	11.380	-0.258	0.195
-122.210	-73.072	0.162	0.059
-121.195	-148.716	0.402	-0.032
