DTS Sentinel unit serial number:	SN413079Multiplexer serial number:	ORYXHardware model number:	OX4-SRSoftware version number:	ORYX F/W v4.00 Oryx Data Collector v3.7.2.0data status	okinstallation	princeton_trtdifferential loss correction	single-endedforward channel	channel 4reverse channel	N/Adate	2019/09/13time	22:57:34forward acquisition time	60.00reverse acquisition time	0.00gamma	496.2192k internal	0.2322k external	0.2322temperature offset calibration	1.0135default loss term (dB/km)	0.3790temperature slope calibration	1.0000multiplexer offset coefficient	1.0000multiplexer slope coefficient	1.0000fibre end	0.00T internal ref (°C)	27.39T ext. ref 1 (°C)	3.21T ext. ref 2 (°C)	21.41length (m)	temperature (°C)	Stokes	anti-Stokes-747.200	-54.253	0.153	0.070
-746.185	-39.512	0.067	-0.035
-745.171	-131.209	-0.141	0.019
-744.156	-200.000	0.028	0.171
-743.142	11.748	-0.116	0.090
-742.127	-133.679	-0.156	0.020
-741.112	-79.445	0.151	0.051
-740.098	-200.000	-0.041	0.208
-739.083	800.000	-0.070	-0.249
-738.069	-57.741	-0.266	0.118
-737.054	-116.158	0.503	0.094
-736.039	-7.000	-0.259	-0.177
-735.025	-130.776	0.338	0.046
-734.010	-5.137	-0.119	-0.083
-732.996	-200.000	0.027	0.273
-731.981	800.000	-0.030	-0.101
-730.966	403.436	0.051	-0.109
-729.952	368.312	0.093	0.190
-728.937	-129.256	0.124	-0.017
-727.923	-12.553	-0.297	-0.196
-726.908	-200.000	0.022	-0.195
-725.894	-120.806	0.254	-0.043
-724.879	-92.751	-0.387	0.109
-723.864	-200.000	-0.002	0.027
-722.850	212.176	0.083	0.133
-721.835	133.702	-0.312	-0.408
-720.821	385.307	-0.066	0.138
-719.806	-88.014	0.218	-0.066
-718.791	50.974	0.110	-0.105
-717.777	86.368	-0.141	0.157
-716.762	126.420	0.012	0.015
-715.748	800.000	-0.027	0.101
-714.733	540.821	-0.051	-0.123
-713.718	-200.000	-0.011	-0.123
-712.704	-5.670	-0.131	-0.091
-711.689	90.222	0.184	-0.207
-710.675	-200.000	-0.025	-0.294
-709.660	800.000	0.019	0.084
-708.645	-57.097	-0.185	-0.082
-707.631	163.679	0.177	-0.251
-706.616	-105.288	-0.386	-0.089
-705.602	-45.864	-0.412	0.205
-704.587	-137.000	-0.226	0.026
-703.572	-200.000	-0.007	-0.270
-702.558	800.000	-0.061	0.202
-701.543	-200.000	0.014	-0.237
-700.529	-32.264	0.104	-0.059
-699.514	30.340	0.140	0.121
-698.499	800.000	0.117	0.447
-697.485	-25.918	0.332	0.197
-696.470	-200.000	-0.076	0.348
-695.456	35.306	-0.204	0.180
-694.441	4.758	0.071	-0.053
-693.426	800.000	0.057	0.173
-692.412	-160.273	0.084	-0.005
-691.397	-200.000	0.006	-0.092
-690.383	166.721	0.071	-0.102
-689.368	4.252	-0.305	0.225
-688.354	-124.433	-0.125	0.020
-687.339	159.651	-0.156	0.219
-686.324	213.710	-0.066	-0.106
-685.310	-200.000	0.013	-0.257
-684.295	-13.111	0.320	-0.210
-683.281	115.446	0.031	0.038
-682.266	-116.488	-0.323	-0.060
-681.251	800.000	-0.104	0.342
-680.237	-183.444	0.147	0.003
-679.222	-200.000	-0.053	0.246
-678.208	51.975	0.086	0.083
-677.193	8.876	-0.237	-0.180
-676.178	-200.000	-0.041	-0.306
-675.164	800.000	0.028	0.090
-674.149	34.199	-0.287	0.252
-673.135	-131.840	-0.070	0.009
-672.120	-15.164	0.222	0.143
-671.105	631.963	-0.087	-0.222
-670.091	-99.643	-0.274	0.069
-669.076	16.935	0.090	0.072
-668.062	224.009	0.087	-0.142
-667.047	74.997	-0.067	0.072
-666.032	8.196	-0.239	0.181
-665.018	26.585	-0.280	0.236
-664.003	399.159	0.014	-0.030
-662.989	245.312	0.043	0.072
-661.974	-138.128	-0.396	-0.044
-660.959	71.423	0.213	-0.222
-659.945	-200.000	0.065	0.320
-658.930	191.372	0.073	-0.111
-657.916	-200.000	0.000	-0.205
-656.901	800.000	0.031	-0.130
-655.886	-39.703	0.220	0.116
-654.872	652.285	-0.021	0.053
-653.857	-107.189	0.205	0.045
-652.843	523.629	-0.151	-0.357
-651.828	-171.371	0.360	-0.012
-650.814	110.437	0.119	-0.144
-649.799	-74.412	-0.340	-0.124
-648.784	40.098	0.303	-0.274
-647.770	-18.916	0.261	-0.164
-646.755	800.000	0.127	0.420
-645.741	-65.903	-0.148	-0.060
-644.726	-3.260	0.273	-0.191
-643.711	-53.295	0.102	0.047
-642.697	173.293	0.139	-0.202
-641.682	116.586	-0.088	-0.108
-640.668	7.163	0.351	0.264
-639.653	218.460	0.224	0.361
-638.638	-120.786	0.058	-0.010
-637.624	800.000	0.128	0.466
-636.609	-133.891	-0.110	-0.014
-635.595	158.401	0.152	0.212
-634.580	513.354	0.061	-0.144
-633.565	-41.920	0.104	-0.053
-632.551	800.000	-0.105	-0.357
-631.536	-74.137	0.183	0.067
-630.522	20.914	-0.355	0.289
-629.507	-37.927	-0.069	-0.037
-628.492	-97.503	0.109	-0.029
-627.478	-91.640	-0.179	-0.051
-626.463	-72.539	-0.040	-0.015
-625.449	221.515	0.207	0.335
-624.434	-200.000	-0.022	0.142
-623.419	-25.129	0.120	-0.071
-622.405	-144.884	0.271	-0.025
-621.390	80.725	0.064	-0.069
-620.376	117.561	0.011	-0.013
-619.361	-200.000	-0.043	-0.262
-618.346	291.154	0.167	-0.305
-617.332	-64.632	0.194	-0.079
-616.317	357.956	-0.177	-0.354
-615.303	-200.000	-0.004	0.080
-614.288	-57.595	-0.110	0.048
-613.273	17.857	-0.185	-0.148
-612.259	31.873	0.127	0.110
-611.244	-76.638	0.047	-0.017
-610.230	-27.631	-0.112	-0.065
-609.215	597.380	-0.026	-0.065
-608.201	-52.472	0.140	-0.065
-607.186	-20.451	-0.188	-0.116
-606.171	173.868	-0.185	-0.269
-605.157	800.000	0.034	0.135
-604.142	227.255	0.156	-0.255
-603.128	117.615	-0.143	0.177
-602.113	-96.010	0.280	-0.075
-601.098	-90.608	-0.218	-0.063
-600.084	32.579	-0.217	-0.188
-599.069	-200.000	-0.010	-0.091
-598.055	193.882	-0.173	-0.263
-597.040	16.019	-0.264	-0.209
-596.025	-123.859	-0.441	0.070
-595.011	535.034	-0.108	-0.258
-593.996	601.893	-0.069	0.173
-592.982	191.802	-0.073	0.110
-591.967	-106.666	-0.216	-0.048
-590.952	-35.300	0.425	0.232
-589.938	320.813	-0.024	-0.046
-588.923	-200.000	0.011	0.161
-587.909	-200.000	-0.046	-0.316
-586.894	-17.465	-0.151	-0.096
-585.879	45.795	-0.129	0.120
-584.865	224.767	0.061	-0.098
-583.850	800.000	0.092	-0.331
-582.836	-200.000	-0.021	-0.392
-581.821	459.882	0.091	0.203
-580.806	-85.447	-0.376	-0.118
-579.792	61.973	-0.198	0.198
-578.777	-91.773	-0.201	-0.057
-577.763	-118.755	0.275	0.049
-576.748	800.000	0.060	0.219
-575.733	480.259	0.060	0.137
-574.719	223.162	-0.115	0.186
-573.704	6.806	0.182	0.136
-572.690	307.070	0.047	-0.089
-571.675	-200.000	-0.039	-0.218
-570.661	-144.698	0.149	-0.014
-569.646	800.000	-0.076	0.254
-568.631	37.409	0.086	-0.076
-567.617	144.633	-0.182	0.244
-566.602	-175.491	-0.333	0.009
-565.588	367.798	0.098	0.200
-564.573	-152.979	0.345	-0.024
-563.558	95.695	0.046	0.053
-562.544	-120.705	-0.252	-0.043
-561.529	-200.000	0.001	-0.273
-560.515	800.000	-0.024	0.070
-559.500	-113.579	0.140	0.028
-558.485	-75.069	0.269	-0.097
-557.471	-123.169	-0.404	0.065
-556.456	286.006	0.075	0.135
-555.442	800.000	-0.046	0.200
-554.427	800.000	0.038	0.148
-553.412	-200.000	-0.029	0.487
-552.398	159.423	0.166	-0.232
-551.383	-111.263	-0.060	0.012
-550.369	227.846	0.040	0.066
-549.354	65.077	0.092	-0.093
-548.339	35.727	0.219	0.193
-547.325	800.000	0.089	0.372
-546.310	326.045	0.085	-0.164
-545.296	-124.586	-0.378	0.059
-544.281	80.307	0.032	-0.034
-543.266	-200.000	-0.009	-0.059
-542.252	-45.929	-0.164	-0.081
-541.237	220.457	-0.180	0.289
-540.223	-118.906	0.240	-0.042
-539.208	129.895	-0.165	-0.211
-538.193	-200.000	-0.050	-0.281
-537.179	-117.754	0.223	0.040
-536.164	168.092	-0.130	0.185
-535.150	800.000	0.074	0.253
-534.135	-200.000	0.019	0.228
-533.121	57.518	0.091	-0.089
-532.106	125.704	0.206	-0.261
-531.091	-37.082	-0.214	0.115
-530.077	123.232	0.013	0.016
-529.062	97.580	0.027	0.031
-528.048	213.725	0.196	-0.310
-527.033	-200.000	0.023	0.213
-526.018	-137.473	-0.188	0.021
-525.004	331.508	-0.109	-0.210
-523.989	39.480	0.169	-0.152
-522.975	9.513	0.030	-0.023
-521.960	-200.000	-0.015	0.218
-520.945	-200.000	0.004	-0.059
-519.931	-133.068	-0.167	-0.021
-518.916	800.000	0.160	0.498
-517.902	-200.000	-0.003	-0.404
-516.887	230.544	0.103	-0.169
-515.872	185.589	0.157	0.234
-514.858	196.751	-0.191	-0.292
-513.843	-63.525	0.111	-0.045
-512.829	-44.749	0.244	0.122
-511.814	23.459	-0.079	-0.065
-510.799	-19.093	0.157	-0.098
-509.785	65.310	-0.240	-0.243
-508.770	-135.311	-0.221	-0.026
-507.756	151.855	-0.201	-0.274
-506.741	-200.000	0.059	-0.382
-505.726	57.356	0.100	0.098
-504.712	-71.991	-0.076	0.028
-503.697	-0.455	0.240	0.171
-502.683	-200.000	-0.000	0.183
-501.668	337.452	0.044	0.085
-500.653	-41.771	-0.166	0.085
-499.639	-70.372	-0.064	-0.024
-498.624	2.555	0.227	0.165
-497.610	-85.543	-0.143	0.044
-496.595	-114.706	0.141	-0.027
-495.581	266.192	0.097	0.169
-494.566	50.565	-0.214	0.203
-493.551	-109.739	0.415	0.087
-492.537	-200.000	-0.057	0.252
-491.522	-200.000	0.208	-0.000
-490.508	800.000	0.056	-0.201
-489.493	-200.000	-0.001	0.160
-488.478	-104.134	-0.290	0.067
-487.464	-200.000	0.009	-0.212
-486.449	-200.000	-0.048	-0.322
-485.435	153.487	-0.008	-0.011
-484.420	10.157	0.067	-0.051
-483.405	-66.423	0.192	0.076
-482.391	-200.000	-0.037	0.265
-481.376	472.458	-0.090	-0.202
-480.362	800.000	0.041	0.141
-479.347	-200.000	-0.042	-0.269
-478.332	638.703	-0.048	-0.121
-477.318	-200.000	-0.043	0.243
-476.303	-200.000	0.011	0.114
-475.289	800.000	0.065	-0.219
-474.274	-131.597	0.122	-0.016
-473.259	-200.000	0.031	0.328
-472.245	-118.392	0.117	0.021
-471.230	-200.000	-0.021	0.189
-470.216	355.799	0.090	-0.179
-469.201	143.100	-0.153	0.203
-468.186	-176.244	0.309	-0.008
-467.172	-36.850	-0.306	-0.164
-466.157	203.888	-0.215	-0.332
-465.143	-118.529	0.231	0.041
-464.128	-140.586	0.258	-0.027
-463.113	-200.000	0.011	0.081
-462.099	-122.833	0.212	0.034
-461.084	-158.567	0.191	0.011
-460.070	-141.793	-0.156	-0.016
-459.055	-200.000	0.006	0.125
-458.040	-200.000	0.052	0.320
-457.026	-72.879	0.209	-0.077
-456.011	-72.783	0.190	-0.070
-454.997	800.000	0.029	0.096
-453.982	166.597	-0.294	0.416
-452.968	-78.671	-0.105	-0.036
-451.953	-145.727	0.175	-0.016
-450.938	364.380	0.061	0.124
-449.924	-200.000	0.045	-0.214
-448.909	24.123	0.065	0.054
-447.895	-200.000	-0.054	-0.285
-446.880	40.646	-0.306	0.275
-445.865	351.295	0.121	0.239
-444.851	-144.263	-0.147	0.014
-443.836	-120.606	0.291	-0.049
-442.822	-200.000	-0.008	-0.046
-441.807	257.971	0.054	-0.093
-440.792	32.619	0.092	-0.080
-439.778	281.950	-0.137	0.246
-438.763	61.086	0.236	-0.234
-437.749	-98.102	0.134	0.034
-436.734	-200.000	-0.045	-0.346
-435.719	-148.550	0.223	0.018
-434.705	102.043	-0.045	-0.053
-433.690	7.110	-0.330	-0.246
-432.676	21.163	0.165	-0.134
-431.661	800.000	-0.060	0.244
-430.646	-165.910	0.255	-0.011
-429.632	-200.000	-0.061	0.303
-428.617	-200.000	-0.006	-0.036
-427.603	214.499	-0.067	0.106
-426.588	0.106	0.195	0.139
-425.573	-104.657	0.154	0.035
-424.559	724.710	0.034	-0.089
-423.544	117.002	-0.111	0.136
-422.530	-87.185	-0.127	-0.038
-421.515	-19.484	0.221	-0.137
-420.500	-52.934	-0.187	-0.086
-419.486	-55.464	0.250	-0.112
-418.471	-1.406	-0.193	-0.136
-417.457	-53.560	-0.443	-0.202
-416.442	-200.000	-0.006	0.238
-415.428	739.805	-0.110	0.294
-414.413	223.125	-0.144	0.231
-413.398	-200.000	-0.079	0.423
-412.384	6.260	0.132	0.098
-411.369	-144.254	0.100	-0.009
-410.355	374.288	0.078	0.158
-409.340	515.867	0.051	-0.119
-408.325	148.872	-0.121	-0.164
-407.311	-36.243	0.187	-0.100
-406.296	37.509	-0.168	0.149
-405.282	12.493	-0.221	0.170
-404.267	556.185	-0.061	-0.147
-403.252	24.104	-0.301	0.248
-402.238	164.651	0.080	-0.112
-401.223	800.000	-0.015	-0.065
-400.209	-200.000	-0.043	0.214
-399.194	56.237	0.121	-0.117
-398.179	-59.656	0.286	0.122
-397.165	39.345	-0.253	0.225
-396.150	90.952	0.080	0.090
-395.136	676.004	-0.102	0.264
-394.121	-102.283	0.325	-0.078
-393.106	800.000	-0.077	0.276
-392.092	-94.376	0.260	0.071
-391.077	-82.903	0.028	0.009
-390.063	-66.433	-0.183	-0.072
-389.048	-151.824	-0.137	-0.010
-388.033	234.909	-0.076	0.125
-387.019	20.271	0.055	0.044
-386.004	800.000	0.040	0.113
-384.990	800.000	0.036	0.143
-383.975	40.883	-0.255	-0.229
-382.960	-24.828	0.197	-0.116
-381.946	322.414	-0.052	-0.099
-380.931	-171.698	-0.278	-0.009
-379.917	136.270	-0.207	0.269
-378.902	-110.958	-0.165	-0.034
-377.888	9.067	-0.090	0.068
-376.873	58.045	0.204	-0.199
-375.858	800.000	0.059	0.224
-374.844	-200.000	-0.048	-0.386
-373.829	-91.833	0.231	0.065
-372.815	-1.397	0.106	0.074
-371.800	-20.435	0.078	0.048
-370.785	800.000	-0.068	-0.200
-369.771	467.747	0.030	0.067
-368.756	173.833	-0.163	-0.234
-367.742	-79.169	-0.353	0.119
-366.727	-10.558	0.311	0.205
-365.712	348.107	0.074	-0.144
-364.698	-200.000	-0.014	-0.318
-363.683	787.862	0.083	-0.227
-362.669	800.000	0.063	-0.235
-361.654	46.092	-0.139	-0.128
-360.639	140.630	-0.066	0.087
-359.625	23.376	0.086	-0.071
-358.610	-200.000	-0.012	0.072
-357.596	75.378	0.236	0.247
-356.581	-200.000	0.014	-0.297
-355.566	-200.000	0.013	-0.292
-354.552	-200.000	-0.034	0.203
-353.537	-200.000	0.007	-0.197
-352.523	-80.264	0.190	-0.063
-351.508	291.607	-0.108	-0.196
-350.493	-200.000	-0.064	-0.306
-349.479	590.046	-0.066	-0.161
-348.464	148.243	0.048	-0.065
-347.450	521.035	0.078	-0.183
-346.435	-164.968	-0.332	0.015
-345.420	-60.068	-0.053	0.022
-344.406	769.425	0.147	-0.399
-343.391	368.876	0.115	-0.231
-342.377	-173.821	0.098	0.003
-341.362	61.910	0.089	0.088
-340.348	-200.000	-0.003	0.020
-339.333	65.933	-0.190	0.192
-338.318	-154.034	0.179	0.012
-337.304	471.630	-0.057	-0.127
-336.289	-99.331	0.223	0.056
-335.275	449.395	-0.068	-0.149
-334.260	800.000	-0.125	0.435
-333.245	-166.155	0.131	0.006
-332.231	-200.000	-0.051	-0.290
-331.216	-200.000	0.001	0.266
-330.202	-56.718	-0.222	0.097
-329.187	-6.921	0.190	-0.128
-328.172	516.306	-0.091	-0.211
-327.158	-34.037	0.218	-0.119
-326.143	800.000	-0.111	-0.313
-325.129	800.000	-0.090	0.270
-324.114	-200.000	-0.002	0.249
-323.099	358.713	-0.077	0.152
-322.085	719.622	0.069	-0.183
-321.070	-200.000	-0.003	0.124
-320.056	800.000	0.089	-0.320
-319.041	-200.000	-0.001	0.160
-318.026	-95.394	0.186	-0.050
-317.012	800.000	-0.056	0.156
-315.997	-129.245	0.295	0.041
-314.983	-200.000	-0.038	-0.222
-313.968	-200.000	-0.011	-0.308
-312.953	-19.134	-0.306	0.189
-311.939	-50.418	-0.224	0.105
-310.924	-143.636	0.291	0.027
-309.910	196.150	-0.085	-0.129
-308.895	384.132	0.045	0.093
-307.880	800.000	-0.083	0.354
-306.866	-200.000	-0.010	0.118
-305.851	402.771	0.084	0.175
-304.837	-200.000	-0.001	-0.059
-303.822	50.818	-0.085	0.080
-302.807	50.573	-0.120	0.113
-301.793	-32.056	0.281	-0.156
-300.778	-76.577	-0.141	0.049
-299.764	-60.467	-0.129	-0.054
-298.749	-200.000	-0.011	-0.072
-297.735	-200.000	-0.053	-0.231
-296.720	349.392	-0.019	-0.037
-295.705	-177.953	-0.291	0.007
-294.691	251.153	0.082	-0.138
-293.676	-96.875	-0.565	-0.147
-292.662	-59.720	-0.366	0.156
-291.647	-14.256	0.484	-0.310
-290.632	254.862	-0.018	0.031
-289.618	2.692	-0.073	-0.052
-288.603	-89.947	-0.086	0.025
-287.589	800.000	0.082	0.266
-286.574	-41.879	-0.372	-0.189
-285.559	-178.836	0.155	0.003
-284.545	-147.259	-0.037	0.003
-283.530	116.537	0.170	-0.207
-282.516	-200.000	0.076	0.502
-281.501	-115.312	0.223	0.042
-280.486	296.371	0.201	-0.366
-279.472	-112.400	-0.425	-0.084
-278.457	108.422	0.279	0.330
-277.443	11.858	0.129	0.098
-276.428	190.115	0.025	-0.037
-275.413	185.890	0.052	0.077
-274.399	-200.000	-0.002	-0.026
-273.384	39.280	0.188	-0.167
-272.370	157.931	-0.184	0.252
-271.355	36.493	0.295	0.259
-270.340	50.266	0.017	0.016
-269.326	163.215	0.082	0.115
-268.311	-56.845	-0.090	0.039
-267.297	800.000	-0.091	0.270
-266.282	478.798	-0.143	-0.321
-265.267	476.864	0.042	-0.093
-264.253	-45.390	-0.216	-0.106
-263.238	82.522	-0.042	-0.045
-262.224	-200.000	0.041	-0.238
-261.209	27.866	-0.151	0.126
-260.195	-200.000	0.008	-0.145
-259.180	517.542	0.086	-0.200
-258.165	-180.495	0.067	0.001
-257.151	101.987	0.028	0.032
-256.136	-200.000	-0.017	0.449
-255.122	669.787	0.183	-0.470
-254.107	-200.000	-0.001	0.131
-253.092	800.000	0.024	0.101
-252.078	35.582	-0.446	-0.388
-251.063	13.406	-0.097	-0.074
-250.049	37.743	0.209	-0.184
-249.034	88.337	-0.246	0.271
-248.019	80.066	-0.115	0.123
-247.005	-69.291	0.064	0.024
-245.990	-75.922	0.253	0.089
-244.976	-34.117	-0.222	0.121
-243.961	800.000	0.082	0.285
-242.946	-174.726	0.272	-0.008
-241.932	9.477	0.194	0.146
-240.917	24.944	0.113	-0.093
-239.903	-200.000	-0.081	0.386
-238.888	-13.663	0.076	-0.049
-237.873	94.733	0.304	0.343
-236.859	800.000	0.035	0.134
-235.844	140.193	-0.146	-0.191
-234.830	196.389	-0.051	-0.077
-233.815	203.174	0.135	0.206
-232.800	79.115	-0.104	0.111
-231.786	14.446	0.185	-0.143
-230.771	400.620	-0.037	0.076
-229.757	191.829	-0.143	0.213
-228.742	-69.844	0.126	0.048
-227.727	-3.374	-0.243	0.168
-226.713	-200.000	0.010	0.067
-225.698	271.147	0.105	-0.183
-224.684	-200.000	-0.001	0.212
-223.669	182.619	0.060	0.088
-222.655	57.218	0.178	-0.172
-221.640	-113.922	0.298	-0.057
-220.625	37.957	-0.275	0.242
-219.611	-200.000	0.011	0.229
-218.596	207.286	0.088	0.136
-217.582	57.625	-0.181	-0.175
-216.567	-200.000	-0.024	0.262
-215.552	229.156	0.129	-0.208
-214.538	225.693	-0.141	-0.226
-213.523	800.000	-0.041	-0.135
-212.509	226.691	-0.044	0.071
-211.494	46.452	-0.158	-0.145
-210.479	-200.000	0.028	-0.153
-209.465	119.476	-0.193	-0.237
-208.450	-24.025	0.118	-0.070
-207.436	-57.527	0.112	0.049
-206.421	-200.000	0.003	0.033
-205.406	-113.843	-0.311	0.060
-204.392	-64.855	0.252	0.101
-203.377	53.287	-0.211	0.200
-202.363	129.076	0.065	-0.081
-201.348	-188.006	-0.345	-0.004
-200.333	-94.243	-0.082	0.022
-199.319	-200.000	0.052	-0.277
-198.304	111.233	-0.161	0.191
-197.290	-200.000	0.273	-0.001
-196.275	-138.001	-0.069	-0.008
-195.260	-71.393	-0.215	0.080
-194.246	149.137	0.340	-0.455
-193.231	-200.000	0.017	0.170
-192.217	800.000	-0.074	0.225
-191.202	-197.217	-0.228	-0.001
-190.187	-10.282	0.052	-0.034
-189.173	88.733	-0.107	0.118
-188.158	800.000	-0.018	-0.073
-187.144	-14.674	-0.128	0.082
-186.129	53.544	-0.231	-0.219
-185.114	-64.321	0.372	-0.150
-184.100	-200.000	-0.025	-0.385
-183.085	-200.000	0.001	-0.020
-182.071	-69.205	-0.139	0.053
-181.056	307.322	0.266	-0.490
-180.042	-200.000	-0.040	0.204
-179.027	-200.000	-0.045	0.271
-178.012	-98.663	-0.249	0.063
-176.998	-200.000	0.037	-0.252
-175.983	117.735	0.065	-0.079
-174.969	686.650	-0.126	-0.324
-173.954	9.023	-0.236	0.176
-172.939	170.391	0.167	-0.237
-171.925	539.998	-0.069	0.163
-170.910	532.638	-0.081	0.189
-169.896	125.420	-0.092	-0.114
-168.881	660.369	-0.169	0.429
-167.866	295.757	0.212	0.384
-166.852	-92.887	0.263	-0.073
-165.837	-27.534	0.124	-0.071
-164.823	-137.888	-0.216	-0.024
-163.808	191.301	0.173	0.258
-162.793	800.000	0.048	-0.181
-161.779	-50.646	-0.017	-0.008
-160.764	-165.897	-0.323	0.014
-159.750	800.000	-0.018	-0.073
-158.735	-26.155	0.065	0.038
-157.720	-200.000	0.036	-0.210
-156.706	-118.308	-0.205	0.036
-155.691	-22.888	-0.157	-0.094
-154.677	278.600	-0.116	-0.203
-153.662	-200.000	-0.006	0.030
-152.647	-105.535	0.260	-0.058
-151.633	-69.363	-0.242	-0.092
-150.618	-200.000	-0.040	0.399
-149.604	-44.143	-0.058	0.029
-148.589	96.454	-0.201	0.227
-147.574	6.956	0.222	0.164
-146.560	661.540	-0.113	0.286
-145.545	483.155	0.118	0.266
-144.531	333.414	-0.156	0.297
-143.516	22.483	-0.315	0.254
-142.502	146.834	-0.010	-0.013
-141.487	-32.796	0.056	-0.031
-140.472	125.113	-0.144	-0.179
-139.458	28.754	0.171	-0.143
-138.443	283.206	-0.044	-0.078
-137.429	-27.786	0.169	0.097
-136.414	800.000	-0.031	0.103
-135.399	157.499	0.063	0.087
-134.385	-90.345	0.331	0.095
-133.370	110.943	0.041	0.048
-132.356	-200.000	0.043	-0.249
-131.341	33.060	-0.051	0.044
-130.326	-68.899	0.407	-0.155
-129.312	-108.414	-0.217	0.046
-128.297	-17.481	0.090	0.056
-127.283	-5.335	-0.158	-0.107
-126.268	164.738	0.101	0.141
-125.253	800.000	-0.061	0.183
-124.239	-200.000	-0.122	0.611
-123.224	-200.000	0.013	0.269
-122.210	-45.643	-0.220	-0.107
-121.195	-60.663	0.280	-0.117
