DTS Sentinel unit serial number:	SN413079Multiplexer serial number:	ORYXHardware model number:	OX4-SRSoftware version number:	ORYX F/W v4.00 Oryx Data Collector v3.7.2.0data status	okinstallation	princeton_trtdifferential loss correction	single-endedforward channel	channel 4reverse channel	N/Adate	2019/09/16time	10:09:35forward acquisition time	60.00reverse acquisition time	0.00gamma	496.2192k internal	0.2302k external	0.2302temperature offset calibration	0.9958default loss term (dB/km)	0.3790temperature slope calibration	1.0000multiplexer offset coefficient	1.0000multiplexer slope coefficient	1.0000fibre end	0.00T internal ref (°C)	34.00T ext. ref 1 (°C)	12.44T ext. ref 2 (°C)	32.94length (m)	temperature (°C)	Stokes	anti-Stokes-747.200	233.468	0.144	0.241
-746.185	-200.000	0.033	0.454
-745.171	568.362	-0.053	0.132
-744.156	-15.612	-0.313	0.203
-743.142	28.115	0.252	0.217
-742.127	237.131	0.119	0.200
-741.112	0.488	-0.298	0.217
-740.098	0.407	-0.053	0.039
-739.083	-200.000	0.035	-0.297
-738.069	-200.000	0.022	0.119
-737.054	372.995	0.030	-0.063
-736.039	-200.000	-0.050	0.438
-735.025	-200.000	0.017	-0.092
-734.010	-13.875	0.185	0.122
-732.996	-165.256	-0.362	0.016
-731.981	-128.058	-0.298	0.043
-730.966	-200.000	0.047	-0.295
-729.952	52.532	0.090	0.087
-728.937	166.178	-0.131	0.189
-727.923	34.026	-0.106	-0.094
-726.908	800.000	-0.029	0.118
-725.894	-200.000	0.021	0.125
-724.879	-177.182	0.171	-0.004
-723.864	730.254	0.137	-0.373
-722.850	2.452	0.453	-0.334
-721.835	110.498	-0.228	-0.278
-720.821	800.000	-0.121	-0.390
-719.806	-135.039	0.062	0.008
-718.791	71.884	-0.135	0.143
-717.777	-20.277	-0.223	-0.140
-716.762	800.000	0.112	-0.418
-715.748	-200.000	-0.059	0.325
-714.733	129.303	-0.095	0.123
-713.718	403.109	-0.134	0.286
-712.704	-164.437	-0.165	0.008
-711.689	285.705	-0.099	0.181
-710.675	299.022	0.087	-0.163
-709.660	737.225	0.079	-0.216
-708.645	-122.743	-0.183	-0.030
-707.631	-200.000	0.018	0.100
-706.616	73.522	0.063	0.067
-705.602	77.885	-0.116	0.126
-704.587	280.806	-0.195	0.355
-703.572	-33.124	-0.141	0.079
-702.558	-109.370	-0.245	0.053
-701.543	-99.141	0.244	-0.063
-700.529	19.001	0.151	-0.123
-699.514	-200.000	-0.044	0.212
-698.499	-200.000	-0.044	0.217
-697.485	-116.915	-0.344	-0.064
-696.470	730.977	-0.043	-0.118
-695.456	94.161	-0.087	0.100
-694.441	460.605	0.060	-0.137
-693.426	-200.000	-0.059	0.274
-692.412	-3.824	0.054	-0.038
-691.397	437.901	0.080	0.177
-690.383	504.541	0.050	-0.117
-689.368	21.203	0.322	-0.265
-688.354	-200.000	-0.065	-0.478
-687.339	281.597	0.104	0.190
-686.324	800.000	0.112	-0.327
-685.310	548.504	-0.056	-0.136
-684.295	800.000	0.021	0.064
-683.281	-162.236	-0.008	-0.000
-682.266	292.866	0.063	-0.117
-681.251	-97.424	-0.135	-0.036
-680.237	19.814	0.228	-0.187
-679.222	312.401	0.094	-0.180
-678.208	249.449	-0.084	-0.145
-677.193	19.755	0.138	0.113
-676.178	800.000	-0.087	-0.254
-675.164	152.293	-0.203	-0.281
-674.149	-16.157	0.146	-0.094
-673.135	162.026	0.123	0.175
-672.120	229.013	-0.010	-0.016
-671.105	-200.000	0.043	-0.336
-670.091	81.616	0.163	-0.180
-669.076	428.227	0.140	0.307
-668.062	156.187	0.107	0.150
-667.047	14.086	-0.100	-0.079
-666.032	-6.343	0.077	0.054
-665.018	-119.746	0.337	-0.059
-664.003	-64.775	-0.183	-0.075
-662.989	300.243	0.063	0.117
-661.974	169.999	0.144	0.209
-660.959	800.000	-0.085	0.318
-659.945	250.307	0.048	-0.083
-658.930	-66.959	0.184	-0.074
-657.916	-200.000	0.000	0.039
-656.901	59.586	-0.213	0.213
-655.886	0.868	0.358	0.261
-654.872	45.367	0.039	0.037
-653.857	-50.550	0.065	0.031
-652.843	68.040	-0.065	0.068
-651.828	-200.000	0.013	-0.090
-650.814	-8.731	-0.170	0.116
-649.799	52.745	0.021	0.020
-648.784	49.332	0.124	0.118
-647.770	-105.237	-0.250	-0.058
-646.755	78.186	-0.141	0.153
-645.741	588.929	-0.104	-0.260
-644.726	-48.632	0.290	-0.142
-643.711	1.949	0.280	0.205
-642.697	-52.442	-0.267	-0.125
-641.682	-78.525	-0.056	0.020
-640.668	-13.889	0.188	-0.123
-639.653	-42.481	-0.180	0.093
-638.638	-85.022	0.288	0.092
-637.624	-146.653	-0.094	0.008
-636.609	769.591	-0.035	-0.097
-635.595	111.051	0.145	-0.177
-634.580	29.192	-0.034	0.029
-633.565	199.834	-0.196	-0.305
-632.551	10.397	0.398	-0.308
-631.536	-200.000	0.015	-0.240
-630.522	800.000	-0.029	0.095
-629.507	37.724	0.138	-0.125
-628.492	282.672	0.054	0.098
-627.478	109.790	0.165	-0.200
-626.463	-53.601	-0.375	-0.174
-625.449	-98.833	0.256	0.066
-624.434	-200.000	0.026	-0.198
-623.419	-200.000	0.019	-0.174
-622.405	-80.927	-0.222	-0.075
-621.390	162.334	0.053	-0.076
-620.376	-105.393	0.231	-0.053
-619.361	-105.932	0.167	-0.038
-618.346	76.555	-0.093	0.100
-617.332	800.000	0.051	-0.216
-616.317	-200.000	0.029	0.279
-615.303	160.943	-0.095	0.134
-614.288	-21.812	0.233	0.144
-613.273	-91.352	-0.319	0.093
-612.259	40.837	0.127	-0.116
-611.244	-11.448	-0.310	0.206
-610.230	-65.438	-0.045	-0.018
-609.215	212.229	0.275	-0.439
-608.201	-200.000	-0.020	-0.124
-607.186	-74.882	0.199	-0.073
-606.171	-140.089	-0.277	0.030
-605.157	168.027	0.105	0.152
-604.142	-200.000	-0.005	-0.034
-603.128	-161.577	-0.119	0.006
-602.113	800.000	-0.106	-0.376
-601.098	-164.749	0.202	-0.009
-600.084	-90.899	0.189	0.055
-599.069	-200.000	0.022	-0.202
-598.055	-47.817	-0.176	-0.086
-597.040	-27.284	-0.277	0.163
-596.025	-17.234	0.091	-0.058
-595.011	398.184	-0.067	-0.142
-593.996	-106.839	0.459	-0.103
-592.982	-9.428	-0.206	0.139
-591.967	413.642	0.107	0.232
-590.952	-200.000	0.009	-0.042
-589.938	-31.562	-0.112	-0.064
-588.923	-49.956	-0.264	0.127
-587.909	-55.299	0.093	0.042
-586.894	-40.303	-0.217	-0.114
-585.879	521.220	0.152	0.361
-584.865	-0.757	0.211	0.152
-583.850	-200.000	0.052	0.254
-582.836	-101.503	-0.370	0.091
-581.821	-200.000	-0.008	0.242
-580.806	-28.433	0.024	0.014
-579.792	447.273	-0.153	-0.340
-578.777	795.816	0.055	-0.153
-577.763	-18.940	0.295	-0.186
-576.748	-127.346	0.317	-0.047
-575.733	-51.969	-0.283	0.133
-574.719	-200.000	-0.003	-0.142
-573.704	-187.997	0.037	0.000
-572.690	-200.000	0.016	-0.121
-571.675	388.388	-0.112	-0.234
-570.661	-200.000	-0.009	0.048
-569.646	-51.402	0.203	-0.096
-568.631	118.058	0.216	0.269
-567.617	800.000	0.019	0.061
-566.602	210.462	-0.104	-0.165
-565.588	800.000	-0.080	-0.280
-564.573	-200.000	0.111	0.598
-563.558	-111.161	-0.142	0.029
-562.544	248.612	0.183	0.313
-561.529	-200.000	-0.040	0.302
-560.515	198.306	-0.253	-0.392
-559.500	-29.776	-0.388	0.224
-558.485	634.121	0.125	0.320
-557.471	242.360	-0.243	-0.411
-556.456	627.292	-0.092	0.235
-555.442	-200.000	-0.046	0.213
-554.427	-55.798	-0.180	-0.081
-553.412	-200.000	-0.009	0.115
-552.398	-28.796	-0.161	-0.094
-551.383	-200.000	-0.026	0.223
-550.369	800.000	0.016	0.044
-549.354	-92.786	-0.177	-0.050
-548.339	66.903	0.118	0.122
-547.325	-114.635	0.244	-0.047
-546.310	184.423	0.182	-0.272
-545.296	-89.570	-0.488	-0.145
-544.281	77.214	-0.044	-0.047
-543.266	-44.233	-0.099	-0.050
-542.252	128.709	0.174	0.224
-541.237	-183.958	0.128	-0.002
-540.223	-111.312	0.225	0.046
-539.208	15.222	-0.182	-0.145
-538.193	41.347	0.217	0.198
-537.179	-75.605	-0.113	-0.040
-536.164	168.420	-0.053	0.076
-535.150	34.563	-0.231	-0.204
-534.135	-91.963	0.150	-0.043
-533.121	-4.663	0.253	-0.176
-532.106	280.744	-0.047	0.084
-531.091	302.878	0.088	0.165
-530.077	135.898	-0.111	0.147
-529.062	-72.107	-0.434	0.163
-528.048	-200.000	0.001	-0.046
-527.033	-200.000	-0.021	0.190
-526.018	-26.832	-0.353	-0.208
-525.004	83.943	0.041	-0.046
-523.989	800.000	0.041	-0.141
-522.975	-116.313	-0.217	-0.041
-521.960	-169.466	0.174	-0.006
-520.945	-76.044	-0.140	-0.050
-519.931	800.000	0.097	-0.299
-518.916	-20.185	-0.135	-0.084
-517.902	-200.000	0.030	0.204
-516.887	95.622	0.162	0.187
-515.872	-157.055	0.085	-0.005
-514.858	-200.000	-0.007	-0.030
-513.843	351.648	0.042	0.083
-512.829	-200.000	0.017	-0.085
-511.814	-118.068	-0.043	0.008
-510.799	-200.000	-0.006	0.145
-509.785	800.000	-0.042	-0.164
-508.770	161.622	0.179	0.253
-507.756	239.335	-0.049	-0.082
-506.741	462.887	-0.045	-0.102
-505.726	-100.284	0.214	0.054
-504.712	-82.578	0.195	-0.064
-503.697	195.932	0.325	0.499
-502.683	-200.000	-0.004	0.314
-501.668	-43.600	-0.422	-0.215
-500.653	-160.851	-0.068	0.004
-499.639	78.834	-0.078	-0.084
-498.624	230.908	0.187	0.308
-497.610	48.641	0.242	0.229
-496.595	800.000	-0.006	-0.025
-495.581	-63.188	0.062	-0.026
-494.566	365.421	-0.142	-0.289
-493.551	800.000	0.021	-0.088
-492.537	128.469	0.225	-0.290
-491.522	-200.000	0.007	0.208
-490.508	211.318	0.158	-0.251
-489.493	-52.765	-0.267	-0.124
-488.478	-34.374	-0.037	-0.020
-487.464	94.711	-0.209	0.240
-486.449	-200.000	-0.009	0.266
-485.435	100.055	0.138	-0.161
-484.420	49.049	0.102	-0.097
-483.405	-200.000	-0.028	-0.162
-482.391	118.476	-0.125	-0.156
-481.376	340.081	-0.032	-0.063
-480.362	135.096	0.180	0.236
-479.347	331.384	0.060	-0.117
-478.332	800.000	-0.026	0.115
-477.318	-120.366	-0.317	-0.054
-476.303	-114.847	0.174	0.034
-475.289	-176.395	-0.138	-0.004
-474.274	-128.192	-0.280	0.040
-473.259	7.470	-0.240	-0.181
-472.245	17.736	-0.117	-0.094
-471.230	-49.350	0.237	0.114
-470.216	30.089	0.150	-0.129
-469.201	734.259	-0.049	0.131
-468.186	114.380	0.021	-0.026
-467.172	569.554	-0.032	0.079
-466.157	800.000	-0.033	0.107
-465.143	-91.897	0.202	0.058
-464.128	-40.119	-0.240	0.126
-463.113	-131.866	-0.216	0.028
-462.099	-178.859	-0.203	0.005
-461.084	208.672	0.037	0.059
-460.070	-111.744	0.120	0.025
-459.055	140.671	-0.009	0.012
-458.040	800.000	-0.015	0.066
-457.026	56.165	-0.306	0.299
-456.011	-91.644	0.176	0.051
-454.997	-110.233	-0.135	-0.028
-453.982	44.871	0.156	-0.144
-452.968	-200.000	0.048	-0.378
-451.953	465.436	-0.065	-0.146
-450.938	-200.000	-0.048	0.237
-449.924	328.225	-0.136	-0.263
-448.909	24.207	0.098	-0.081
-447.895	800.000	0.036	0.116
-446.880	522.667	0.059	-0.140
-445.865	-24.458	0.240	-0.144
-444.851	165.097	0.128	-0.182
-443.836	250.266	-0.183	-0.313
-442.822	711.454	-0.120	0.319
-441.807	420.278	-0.050	0.108
-440.792	-17.592	0.292	-0.185
-439.778	157.770	0.276	-0.385
-438.763	-166.553	-0.278	0.012
-437.749	43.127	0.098	0.090
-436.734	80.898	0.111	0.121
-435.719	-200.000	-0.023	-0.528
-434.705	-76.134	0.052	0.018
-433.690	-200.000	-0.037	0.252
-432.676	46.549	0.356	0.333
-431.661	13.630	-0.170	-0.133
-430.646	-67.493	0.168	-0.066
-429.632	800.000	0.079	0.274
-428.617	111.705	-0.176	0.213
-427.603	-13.716	0.244	-0.159
-426.588	-200.000	0.000	0.025
-425.573	158.590	0.086	0.120
-424.559	-70.950	-0.191	-0.073
-423.544	-200.000	0.023	-0.247
-422.530	800.000	-0.078	-0.278
-421.515	-200.000	0.062	0.355
-420.500	-200.000	0.018	-0.237
-419.486	227.622	-0.178	-0.292
-418.471	-114.310	-0.299	-0.058
-417.457	-161.066	0.247	-0.013
-416.442	800.000	-0.041	0.127
-415.428	-62.238	-0.316	-0.133
-414.413	217.995	-0.105	-0.169
-413.398	-103.673	-0.222	0.052
-412.384	233.833	-0.136	-0.226
-411.369	-133.459	0.122	-0.015
-410.355	94.974	0.191	0.219
-409.340	14.783	-0.256	0.201
-408.325	-89.641	-0.219	0.065
-407.311	115.285	-0.222	0.273
-406.296	-55.698	-0.395	-0.178
-405.282	-41.386	0.209	-0.108
-404.267	42.167	-0.288	0.263
-403.252	-51.384	-0.123	-0.058
-402.238	-72.542	0.338	0.126
-401.223	23.931	0.261	0.216
-400.209	-95.229	0.205	-0.055
-399.194	91.575	-0.062	-0.070
-398.179	-200.000	0.005	0.103
-397.165	47.371	-0.142	0.133
-396.150	4.042	0.297	0.218
-395.136	-200.000	0.025	0.241
-394.121	39.727	-0.140	-0.126
-393.106	-66.538	0.297	-0.119
-392.092	-139.067	0.203	0.022
-391.077	-60.803	-0.338	0.144
-390.063	-124.418	0.186	0.029
-389.048	800.000	0.035	0.125
-388.033	-49.072	0.342	-0.165
-387.019	4.255	0.146	-0.108
-386.004	-129.358	-0.423	0.059
-384.990	76.253	0.073	0.077
-383.975	-102.020	0.201	-0.049
-382.960	-71.340	-0.361	-0.136
-381.946	-91.478	0.156	-0.045
-380.931	228.456	0.153	0.250
-379.917	-21.077	-0.171	-0.105
-378.902	108.605	0.018	0.022
-377.888	695.986	-0.033	-0.086
-376.873	604.590	-0.008	-0.021
-375.858	-29.619	-0.193	0.111
-374.844	297.757	-0.078	0.145
-373.829	-145.812	0.384	0.034
-372.815	115.951	0.055	-0.068
-371.800	52.662	0.264	0.254
-370.785	-187.812	0.365	0.005
-369.771	161.860	0.082	-0.116
-368.756	800.000	0.051	0.167
-367.742	46.151	0.267	0.249
-366.727	130.742	0.116	-0.149
-365.712	-164.380	0.391	-0.018
-364.698	-63.421	0.174	0.072
-363.683	91.604	0.122	0.138
-362.669	-0.587	-0.144	0.102
-361.654	-200.000	0.112	-0.000
-360.639	-78.349	-0.152	-0.052
-359.625	53.279	-0.037	0.035
-358.610	203.579	-0.099	0.155
-357.596	-108.042	-0.117	-0.026
-356.581	-70.092	0.171	0.065
-355.566	-121.156	-0.212	-0.036
-354.552	-200.000	-0.078	-0.433
-353.537	-200.000	-0.007	0.181
-352.523	-200.000	0.038	-0.177
-351.508	-151.035	0.059	-0.004
-350.493	24.486	0.123	-0.102
-349.479	-160.089	-0.257	0.014
-348.464	77.228	0.141	0.150
-347.450	19.560	0.085	0.069
-346.435	88.619	0.099	-0.110
-345.420	-122.405	-0.150	-0.025
-344.406	-105.283	0.131	-0.030
-343.391	-200.000	-0.004	-0.240
-342.377	35.507	0.298	-0.263
-341.362	44.427	0.240	-0.221
-340.348	-187.860	0.083	0.001
-339.333	800.000	-0.109	0.396
-338.318	12.522	-0.073	-0.056
-337.304	-38.770	-0.065	-0.034
-336.289	127.028	0.149	-0.189
-335.275	-200.000	-0.001	0.126
-334.260	-6.293	0.045	-0.031
-333.245	800.000	-0.016	0.064
-332.231	-90.189	0.265	-0.077
-331.216	480.386	0.042	-0.095
-330.202	-93.466	-0.241	-0.067
-329.187	800.000	0.088	-0.245
-328.172	-200.000	0.023	-0.127
-327.158	-63.995	0.135	-0.055
-326.143	-11.785	-0.149	0.098
-325.129	-55.615	0.073	-0.033
-324.114	-200.000	-0.036	0.169
-323.099	800.000	-0.067	-0.208
-322.085	12.415	0.171	0.132
-321.070	585.140	0.191	0.470
-320.056	332.679	-0.044	0.084
-319.041	-58.610	0.348	-0.151
-318.026	-200.000	-0.049	-0.236
-317.012	800.000	0.100	-0.340
-315.997	217.576	0.123	0.197
-314.983	-200.000	-0.048	0.274
-313.968	21.147	-0.154	-0.126
-312.953	-172.621	0.238	0.008
-311.939	-129.736	-0.282	0.039
-310.924	-127.039	-0.099	0.015
-309.910	-95.707	-0.188	-0.050
-308.895	800.000	0.102	-0.337
-307.880	88.073	-0.169	-0.187
-306.866	-114.096	0.272	0.053
-305.851	229.846	-0.262	-0.428
-304.837	142.479	0.159	-0.211
-303.822	800.000	0.064	-0.238
-302.807	-200.000	-0.044	-0.347
-301.793	-200.000	0.069	0.310
-300.778	-1.483	0.081	0.057
-299.764	375.197	-0.060	-0.122
-298.749	-200.000	-0.003	0.032
-297.735	-107.908	0.224	0.049
-296.720	-200.000	0.043	0.241
-295.705	800.000	0.057	-0.173
-294.691	50.013	-0.251	0.237
-293.676	8.843	-0.041	-0.031
-292.662	-87.948	0.081	-0.024
-291.647	-108.602	-0.074	0.016
-290.632	-16.797	-0.174	0.110
-289.618	113.497	-0.156	0.189
-288.603	-200.000	0.032	-0.321
-287.589	441.131	0.079	0.174
-286.574	800.000	0.023	0.090
-285.559	-152.490	-0.279	0.020
-284.545	38.615	0.226	0.202
-283.530	-62.237	0.579	0.241
-282.516	174.946	-0.083	0.120
-281.501	-200.000	-0.055	0.423
-280.486	109.060	-0.083	0.100
-279.472	233.326	0.086	0.141
-278.457	-180.049	-0.365	-0.008
-277.443	41.619	0.139	0.126
-276.428	800.000	0.110	-0.418
-275.413	-7.452	0.122	-0.083
-274.399	13.763	-0.044	0.034
-273.384	227.510	0.003	-0.005
-272.370	-40.889	-0.124	-0.064
-271.355	126.400	-0.139	0.176
-270.340	-124.136	0.411	0.064
-269.326	-11.508	-0.324	-0.213
-268.311	-166.908	-0.120	-0.005
-267.297	116.010	-0.058	0.071
-266.282	227.455	0.041	-0.067
-265.267	-176.682	0.216	0.006
-264.253	800.000	-0.088	0.252
-263.238	-200.000	0.052	0.253
-262.224	-200.000	0.005	0.409
-261.209	342.304	-0.071	0.139
-260.195	-37.821	0.136	-0.073
-259.180	800.000	-0.132	-0.467
-258.165	-200.000	0.001	0.118
-257.151	-200.000	0.044	0.279
-256.136	9.308	-0.228	0.172
-255.122	366.570	-0.085	-0.171
-254.107	-109.557	0.040	-0.008
-253.092	-27.224	0.142	-0.083
-252.078	84.540	-0.235	0.257
-251.063	-200.000	0.010	-0.090
-250.049	-139.973	-0.102	0.011
-249.034	142.652	-0.146	0.193
-248.019	-200.000	0.015	0.073
-247.005	-85.794	-0.078	0.024
-245.990	-65.538	-0.156	0.063
-244.976	60.229	-0.252	0.249
-243.961	800.000	0.064	0.223
-242.946	-200.000	-0.021	-0.145
-241.932	-95.117	0.215	0.058
-240.917	-84.157	0.368	0.117
-239.903	169.604	0.099	0.142
-238.888	-200.000	0.030	-0.143
-237.873	285.681	-0.051	-0.093
-236.859	-60.148	-0.137	-0.058
-235.844	514.369	0.089	-0.208
-234.830	497.255	-0.035	-0.079
-233.815	102.687	-0.116	0.136
-232.800	351.041	0.133	-0.264
-231.786	-71.009	-0.202	0.076
-230.771	-200.000	0.045	0.236
-229.757	-200.000	0.010	0.173
-228.742	232.427	-0.192	-0.316
-227.727	131.866	0.070	-0.090
-226.713	52.106	-0.036	0.034
-225.698	409.215	-0.109	-0.230
-224.684	14.251	0.095	0.074
-223.669	-52.480	-0.520	-0.240
-222.655	-200.000	-0.057	-0.302
-221.640	-200.000	-0.010	-0.264
-220.625	-117.823	0.394	0.071
-219.611	643.996	-0.027	0.068
-218.596	800.000	0.120	0.333
-217.582	55.602	-0.221	0.214
-216.567	800.000	0.097	0.282
-215.552	800.000	0.040	0.129
-214.538	-61.083	0.076	-0.032
-213.523	800.000	0.111	-0.316
-212.509	-62.395	-0.301	0.125
-211.494	36.272	-0.122	-0.107
-210.479	32.605	0.201	-0.174
-209.465	-200.000	-0.015	-0.323
-208.450	-200.000	0.015	0.243
-207.436	66.451	-0.242	-0.245
-206.421	623.806	0.071	-0.177
-205.406	614.607	-0.050	-0.125
-204.392	-119.373	0.218	-0.038
-203.377	-83.331	0.306	0.098
-202.363	-200.000	-0.080	0.532
-201.348	-96.515	-0.194	-0.051
-200.333	-47.552	0.118	-0.057
-199.319	-80.293	0.059	0.020
-198.304	800.000	-0.056	-0.183
-197.290	800.000	-0.072	-0.282
-196.275	-127.387	0.118	0.017
-195.260	648.553	-0.068	-0.174
-194.246	306.196	0.075	0.138
-193.231	-200.000	0.099	0.453
-192.217	64.729	-0.006	0.006
-191.202	-71.220	0.320	-0.120
-190.187	-200.000	0.062	0.284
-189.173	97.300	-0.048	-0.055
-188.158	272.728	-0.153	0.270
-187.144	-200.000	-0.027	-0.147
-186.129	269.035	-0.205	-0.359
-185.114	280.774	-0.152	0.272
-184.100	-85.604	0.078	0.024
-183.085	-110.559	0.067	-0.014
-182.071	-75.437	0.093	0.033
-181.056	-37.081	-0.266	-0.142
-180.042	339.029	0.011	-0.021
-179.027	-127.119	-0.072	0.010
-178.012	-200.000	-0.010	0.063
-176.998	387.551	0.026	-0.053
-175.983	-18.541	-0.225	0.140
-174.969	800.000	-0.127	-0.379
-173.954	-51.602	0.065	-0.030
-172.939	326.951	0.083	-0.159
-171.925	147.824	-0.177	-0.238
-170.910	658.646	0.086	-0.220
-169.896	4.606	0.264	-0.193
-168.881	-36.393	-0.212	0.114
-167.866	-56.213	0.123	0.055
-166.852	166.686	-0.099	0.140
-165.837	800.000	0.076	-0.281
-164.823	-200.000	-0.011	0.084
-163.808	3.452	-0.189	-0.138
-162.793	186.095	-0.116	0.172
-161.779	-12.465	-0.361	0.235
-160.764	-124.390	0.124	-0.019
-159.750	166.283	-0.129	0.181
-158.735	-39.661	-0.043	0.022
-157.720	-154.255	-0.237	0.016
-156.706	12.441	-0.130	0.100
-155.691	-137.338	0.126	-0.014
-154.677	33.257	0.304	0.263
-153.662	105.486	-0.234	0.276
-152.647	800.000	-0.012	0.048
-151.633	-200.000	0.004	0.060
-150.618	-9.508	0.119	-0.079
-149.604	-155.120	-0.140	-0.009
-148.589	-2.093	-0.039	0.027
-147.574	373.884	0.233	-0.472
-146.560	183.616	-0.208	0.306
-145.545	-9.819	0.282	0.187
-144.531	145.723	0.254	-0.339
-143.516	-200.000	0.034	0.215
-142.502	800.000	0.039	-0.169
-141.487	-68.558	0.098	-0.038
-140.472	385.319	-0.145	0.298
-139.458	89.125	0.185	0.205
-138.443	169.648	-0.170	-0.242
-137.429	69.835	-0.098	0.100
-136.414	241.552	0.154	-0.256
-135.399	800.000	-0.058	0.172
-134.385	564.579	0.037	0.090
-133.370	386.578	-0.088	-0.181
-132.356	-31.784	-0.056	-0.031
-131.341	-185.014	0.225	-0.004
-130.326	800.000	0.073	0.241
-129.312	-114.164	-0.266	0.051
-128.297	50.417	-0.097	-0.091
-127.283	38.334	-0.190	-0.169
-126.268	-200.000	0.030	-0.240
-125.253	270.464	-0.039	-0.068
-124.239	71.710	0.165	-0.170
-123.224	7.975	0.115	0.086
-122.210	73.338	-0.097	0.101
-121.195	139.572	-0.058	-0.076
-120.180	-200.000	-0.026	-0.171
