DTS Sentinel unit serial number:	SN413079Multiplexer serial number:	ORYXHardware model number:	OX4-SRSoftware version number:	ORYX F/W v4.00 Oryx Data Collector v3.7.2.0data status	okinstallation	princeton_trtdifferential loss correction	single-endedforward channel	channel 4reverse channel	N/Adate	2019/09/17time	05:25:34forward acquisition time	60.00reverse acquisition time	0.00gamma	496.2192k internal	0.2313k external	0.2313temperature offset calibration	0.9979default loss term (dB/km)	0.3790temperature slope calibration	1.0000multiplexer offset coefficient	1.0000multiplexer slope coefficient	1.0000fibre end	0.00T internal ref (°C)	29.30T ext. ref 1 (°C)	0.14T ext. ref 2 (°C)	23.42length (m)	temperature (°C)	Stokes	anti-Stokes-747.200	3.125	-0.161	-0.119
-746.185	-86.268	-0.357	-0.112
-745.171	-200.000	0.271	-0.001
-744.156	33.990	0.113	-0.099
-743.142	143.623	-0.183	0.248
-742.127	-105.559	-0.305	0.070
-741.112	800.000	-0.057	-0.192
-740.098	-30.819	-0.445	0.255
-739.083	-191.815	0.089	0.001
-738.069	800.000	0.128	0.419
-737.054	107.490	-0.028	-0.034
-736.039	800.000	-0.037	-0.131
-735.025	-200.000	0.093	0.000
-734.010	13.966	-0.256	-0.202
-732.996	800.000	0.015	0.047
-731.981	-113.007	0.476	-0.095
-730.966	1.703	-0.081	-0.059
-729.952	80.363	-0.361	-0.393
-728.937	-84.470	-0.300	0.096
-727.923	-44.926	-0.155	0.078
-726.908	-15.086	-0.243	0.158
-725.894	-200.000	0.001	0.065
-724.879	50.780	-0.398	0.382
-723.864	800.000	0.059	0.247
-722.850	-10.784	0.318	0.213
-721.835	396.484	0.111	0.235
-720.821	-200.000	-0.048	0.220
-719.806	5.534	0.344	0.257
-718.791	-153.429	0.238	0.017
-717.777	-200.000	-0.019	-0.147
-716.762	-95.976	0.065	-0.018
-715.748	-200.000	-0.006	-0.172
-714.733	-200.000	0.002	-0.274
-713.718	-1.179	0.138	0.099
-712.704	36.281	-0.303	0.270
-711.689	-200.000	0.009	0.055
-710.675	621.146	0.059	0.150
-709.660	1.179	0.170	-0.124
-708.645	-129.585	0.278	0.039
-707.631	-179.414	0.294	-0.007
-706.616	139.328	-0.240	-0.320
-705.602	-34.610	-0.177	0.098
-704.587	-77.767	-0.164	-0.057
-703.572	-196.829	0.061	0.000
-702.558	456.643	0.113	0.254
-701.543	285.816	0.058	0.106
-700.529	288.768	-0.158	0.290
-699.514	185.778	0.218	0.329
-698.499	278.913	0.066	0.119
-697.485	-132.491	-0.263	0.034
-696.470	-53.788	0.141	-0.065
-695.456	-200.000	0.014	-0.198
-694.441	-110.853	0.171	-0.036
-693.426	127.675	-0.050	0.064
-692.412	172.901	0.058	0.085
-691.397	126.415	-0.077	0.098
-690.383	146.056	-0.079	0.108
-689.368	142.115	0.228	-0.306
-688.354	186.226	0.104	0.157
-687.339	-113.229	-0.180	-0.036
-686.324	800.000	0.131	-0.375
-685.310	-34.811	-0.368	-0.203
-684.295	455.041	-0.034	0.076
-683.281	-154.480	-0.142	0.010
-682.266	299.341	-0.133	-0.247
-681.251	-159.367	0.094	0.005
-680.237	-43.970	-0.253	-0.129
-679.222	223.285	-0.122	-0.200
-678.208	36.178	-0.351	0.313
-677.193	-47.534	0.142	-0.070
-676.178	800.000	0.056	0.241
-675.164	-200.000	0.018	-0.366
-674.149	3.860	-0.117	-0.087
-673.135	-130.107	-0.341	-0.047
-672.120	11.753	-0.176	-0.137
-671.105	660.925	0.185	0.483
-670.091	-200.000	0.006	-0.049
-669.076	17.430	0.132	-0.106
-668.062	800.000	-0.069	-0.269
-667.047	-89.574	0.322	0.096
-666.032	108.099	-0.106	-0.128
-665.018	-41.901	0.173	0.090
-664.003	62.804	0.111	0.112
-662.989	693.854	0.041	-0.108
-661.974	-200.000	0.003	0.095
-660.959	79.675	-0.216	0.235
-659.945	-200.000	-0.009	-0.458
-658.930	374.528	0.053	0.109
-657.916	-103.355	-0.050	0.012
-656.901	434.546	-0.131	0.287
-655.886	-22.282	0.151	0.092
-654.872	-35.922	-0.141	0.077
-653.857	4.080	-0.082	0.060
-652.843	682.571	-0.050	-0.133
-651.828	741.160	0.041	-0.110
-650.814	-200.000	0.029	-0.134
-649.799	-137.976	0.064	0.007
-648.784	-39.558	0.217	-0.115
-647.770	-56.882	-0.092	-0.041
-646.755	154.092	-0.084	-0.116
-645.741	90.986	-0.096	0.109
-644.726	-6.037	0.267	-0.184
-643.711	150.093	-0.068	-0.093
-642.697	-165.909	0.121	-0.005
-641.682	800.000	-0.100	-0.291
-640.668	25.029	-0.164	0.138
-639.653	-124.086	0.155	0.025
-638.638	29.715	-0.179	0.154
-637.624	-200.000	-0.010	-0.170
-636.609	37.839	-0.196	-0.176
-635.595	146.243	0.185	-0.250
-634.580	-200.000	-0.060	-0.314
-633.565	569.970	0.054	0.133
-632.551	39.215	0.089	0.081
-631.536	-200.000	0.046	-0.426
-630.522	-200.000	0.028	-0.240
-629.507	-150.527	-0.155	0.012
-628.492	-200.000	0.015	-0.074
-627.478	-66.187	0.163	-0.066
-626.463	50.376	-0.040	0.038
-625.449	41.290	0.239	-0.218
-624.434	243.353	0.063	0.107
-623.419	328.659	0.173	0.335
-622.405	48.261	-0.202	0.190
-621.390	-87.475	-0.459	-0.140
-620.376	-64.784	0.112	0.046
-619.361	800.000	-0.085	0.351
-618.346	-185.141	0.238	-0.004
-617.332	21.969	-0.185	-0.152
-616.317	66.450	0.045	0.047
-615.303	-147.951	-0.178	0.015
-614.288	-53.049	-0.242	-0.112
-613.273	-200.000	0.022	0.121
-612.259	31.993	0.068	0.059
-611.244	-200.000	0.026	0.157
-610.230	-1.531	-0.140	-0.099
-609.215	-167.351	0.343	-0.014
-608.201	-136.611	0.329	0.038
-607.186	-125.250	0.252	-0.039
-606.171	-108.313	-0.289	0.063
-605.157	-32.785	-0.019	-0.011
-604.142	-119.226	-0.102	-0.018
-603.128	-67.602	0.225	-0.089
-602.113	-97.624	-0.150	-0.039
-601.098	356.558	0.037	-0.074
-600.084	226.055	-0.079	-0.130
-599.069	467.050	-0.093	-0.209
-598.055	-136.670	0.133	-0.015
-597.040	52.413	-0.070	0.067
-596.025	-200.000	0.015	-0.136
-595.011	-200.000	0.022	0.210
-593.996	71.464	0.226	-0.236
-592.982	-200.000	-0.001	0.044
-591.967	800.000	0.080	-0.317
-590.952	-121.924	0.151	-0.025
-589.938	-9.127	0.118	0.080
-588.923	-35.062	-0.329	0.181
-587.909	53.719	-0.279	0.270
-586.894	-161.829	-0.150	0.008
-585.879	-158.682	-0.101	-0.006
-584.865	463.712	0.085	-0.192
-583.850	-109.997	-0.363	-0.077
-582.836	38.191	-0.129	0.116
-581.821	-54.053	0.110	0.050
-580.806	182.546	-0.038	-0.056
-579.792	-11.923	-0.105	-0.069
-578.777	-200.000	0.030	-0.338
-577.763	307.863	0.017	0.032
-576.748	389.041	-0.025	0.052
-575.733	-16.646	0.131	0.084
-574.719	800.000	0.077	-0.287
-573.704	50.947	0.245	-0.234
-572.690	800.000	0.049	0.191
-571.675	370.592	0.106	0.215
-570.661	464.922	0.056	-0.126
-569.646	-200.000	-0.006	-0.196
-568.631	800.000	-0.021	0.059
-567.617	160.787	-0.111	0.156
-566.602	223.596	-0.182	-0.296
-565.588	118.268	-0.099	-0.122
-564.573	-31.285	-0.167	-0.095
-563.558	-114.668	0.200	0.039
-562.544	744.949	0.081	-0.219
-561.529	-75.664	0.193	-0.069
-560.515	239.501	0.092	-0.154
-559.500	800.000	0.046	-0.153
-558.485	-35.549	0.116	0.063
-557.471	800.000	-0.090	-0.256
-556.456	678.796	0.048	0.126
-555.442	800.000	0.094	0.330
-554.427	-200.000	0.045	0.284
-553.412	-8.309	0.088	-0.059
-552.398	96.152	0.064	-0.073
-551.383	-200.000	0.008	0.124
-550.369	74.949	0.031	-0.033
-549.354	218.989	-0.117	-0.188
-548.339	800.000	-0.148	0.487
-547.325	42.558	-0.202	0.185
-546.310	33.609	-0.135	-0.118
-545.296	81.315	0.123	-0.133
-544.281	-87.217	0.161	-0.049
-543.266	-26.643	0.143	0.084
-542.252	20.084	0.043	-0.035
-541.237	94.273	0.194	-0.222
-540.223	662.302	0.009	-0.024
-539.208	756.177	0.069	-0.188
-538.193	423.801	-0.030	0.064
-537.179	800.000	-0.077	0.242
-536.164	-200.000	-0.092	-0.442
-535.150	418.047	0.128	-0.275
-534.135	-130.266	-0.304	-0.042
-533.121	-65.366	-0.269	-0.109
-532.106	-107.678	-0.117	-0.026
-531.091	800.000	-0.078	0.306
-530.077	-67.597	0.259	-0.102
-529.062	-182.111	0.116	0.002
-528.048	182.161	-0.181	0.268
-527.033	122.275	0.028	0.035
-526.018	-6.803	-0.114	-0.078
-525.004	0.085	0.061	0.044
-523.989	-34.665	0.165	-0.091
-522.975	66.259	-0.291	0.297
-521.960	-200.000	-0.005	0.118
-520.945	80.422	0.248	-0.269
-519.931	-19.688	0.279	-0.173
-518.916	5.376	-0.302	-0.224
-517.902	703.634	-0.071	-0.189
-516.887	-67.145	0.179	-0.071
-515.872	352.155	0.050	0.099
-514.858	800.000	-0.032	-0.095
-513.843	-68.461	-0.107	-0.042
-512.829	-66.772	0.052	0.021
-511.814	-31.349	0.188	0.106
-510.799	-200.000	0.066	0.295
-509.785	-136.038	-0.254	0.030
-508.770	-84.190	0.110	0.035
-507.756	-129.935	-0.080	-0.011
-506.741	800.000	-0.052	-0.148
-505.726	-33.196	0.197	0.110
-504.712	-7.383	0.148	0.101
-503.697	-97.861	-0.147	0.038
-502.683	800.000	-0.061	0.246
-501.668	-82.775	-0.090	-0.029
-500.653	-160.908	-0.139	0.007
-499.639	-200.000	-0.061	-0.336
-498.624	-200.000	-0.026	-0.204
-497.610	-200.000	0.011	0.222
-496.595	55.187	0.315	-0.306
-495.581	244.926	-0.115	-0.194
-494.566	237.292	0.134	0.222
-493.551	327.047	0.104	-0.201
-492.537	800.000	0.057	-0.165
-491.522	800.000	-0.119	-0.374
-490.508	139.453	0.102	-0.135
-489.493	143.471	-0.128	0.172
-488.478	138.678	0.126	0.166
-487.464	513.125	0.084	0.197
-486.449	116.834	-0.068	-0.083
-485.435	-30.077	0.071	0.041
-484.420	-62.811	-0.305	-0.127
-483.405	-200.000	0.035	0.240
-482.391	-174.711	0.189	-0.005
-481.376	62.698	0.183	-0.184
-480.362	594.769	0.061	-0.151
-479.347	-155.307	-0.170	0.011
-478.332	-200.000	-0.022	0.419
-477.318	-74.544	-0.345	0.125
-476.303	-200.000	0.054	0.517
-475.289	340.112	0.091	0.178
-474.274	-123.170	0.098	0.016
-473.259	0.786	0.034	0.025
-472.245	-200.000	0.049	0.239
-471.230	-63.976	-0.173	-0.071
-470.216	-193.177	-0.104	-0.001
-469.201	-70.777	0.302	-0.114
-468.186	-200.000	0.055	-0.275
-467.172	-38.784	-0.484	-0.256
-466.157	-101.672	-0.192	0.047
-465.143	-200.000	-0.030	0.180
-464.128	-200.000	0.020	-0.104
-463.113	-200.000	-0.022	-0.328
-462.099	651.536	0.090	-0.232
-461.084	75.537	0.187	-0.198
-460.070	-200.000	-0.024	0.170
-459.055	-31.558	-0.167	0.094
-458.040	800.000	-0.076	0.329
-457.026	-188.067	0.137	0.002
-456.011	-200.000	0.047	0.259
-454.997	4.313	-0.328	0.241
-453.982	-128.601	0.203	-0.029
-452.968	265.448	-0.047	-0.082
-451.953	-58.966	0.298	0.129
-450.938	-154.583	-0.295	-0.020
-449.924	143.170	-0.124	0.165
-448.909	-145.268	0.057	0.005
-447.895	-93.928	0.236	0.065
-446.880	175.696	0.236	-0.343
-445.865	-200.000	0.072	0.372
-444.851	-105.792	0.108	0.024
-443.836	-182.130	-0.387	-0.007
-442.822	-64.603	-0.147	0.060
-441.807	-200.000	-0.020	-0.231
-440.792	-200.000	-0.006	-0.187
-439.778	800.000	0.124	-0.441
-438.763	425.502	0.039	-0.084
-437.749	189.482	0.030	0.045
-436.734	-6.267	-0.235	-0.161
-435.719	-80.570	-0.160	-0.053
-434.705	97.800	0.118	0.136
-433.690	-59.351	0.154	-0.066
-432.676	-80.947	0.167	-0.055
-431.661	-48.715	0.060	0.029
-430.646	800.000	0.063	-0.221
-429.632	420.399	-0.106	0.227
-428.617	-13.183	-0.304	0.198
-427.603	-47.807	0.174	-0.085
-426.588	-89.952	0.166	-0.048
-425.573	49.577	-0.040	0.038
-424.559	-200.000	0.050	0.334
-423.544	-200.000	-0.043	0.250
-422.530	-26.186	-0.165	0.097
-421.515	21.989	0.100	-0.082
-420.500	-89.000	0.235	-0.070
-419.486	-28.379	-0.179	0.104
-418.471	6.272	-0.353	0.262
-417.457	800.000	0.093	-0.326
-416.442	-3.319	-0.200	-0.139
-415.428	-76.876	-0.233	0.081
-414.413	266.029	0.146	0.255
-413.398	144.276	-0.111	0.148
-412.384	539.292	-0.279	0.665
-411.369	-200.000	0.026	0.204
-410.355	-105.901	-0.141	-0.032
-409.340	-72.128	-0.149	-0.055
-408.325	279.668	0.102	-0.182
-407.311	800.000	-0.062	0.187
-406.296	800.000	0.094	0.336
-405.282	-65.318	0.519	-0.209
-404.267	-158.952	-0.433	-0.025
-403.252	-200.000	-0.035	0.248
-402.238	343.228	-0.140	-0.274
-401.223	-38.415	-0.039	0.020
-400.209	-200.000	0.017	-0.109
-399.194	338.914	0.115	-0.224
-398.179	10.488	-0.178	-0.136
-397.165	408.306	0.055	0.116
-396.150	-132.372	0.220	0.028
-395.136	800.000	0.049	-0.137
-394.121	462.292	-0.120	-0.267
-393.106	-200.000	0.162	-0.000
-392.092	-47.503	0.113	-0.055
-391.077	29.988	0.208	0.177
-390.063	-18.796	0.134	-0.084
-389.048	-14.995	0.158	0.101
-388.033	-58.111	0.303	0.132
-387.019	194.220	-0.146	0.222
-386.004	800.000	-0.013	-0.049
-384.990	-200.000	0.004	-0.022
-383.975	-200.000	0.031	0.138
-382.960	51.841	0.213	0.202
-381.946	428.848	0.015	0.032
-380.931	-200.000	0.082	-0.439
-379.917	800.000	0.044	-0.186
-378.902	282.806	-0.088	-0.158
-377.888	168.658	0.115	-0.164
-376.873	-0.657	0.146	0.104
-375.858	-73.578	0.176	-0.064
-374.844	13.443	0.123	0.095
-373.829	-94.919	0.144	-0.039
-372.815	58.569	-0.103	-0.101
-371.800	-31.101	0.261	-0.147
-370.785	-155.694	-0.247	0.016
-369.771	184.272	-0.090	0.134
-368.756	71.379	-0.048	-0.050
-367.742	274.293	-0.073	-0.129
-366.727	-62.725	0.068	-0.028
-365.712	351.888	0.092	-0.181
-364.698	-95.797	-0.357	0.095
-363.683	-65.577	0.306	0.123
-362.669	-62.941	-0.080	0.033
-361.654	-110.148	0.210	0.044
-360.639	560.362	0.063	0.151
-359.625	792.698	-0.029	-0.081
-358.610	71.986	-0.167	0.174
-357.596	398.764	-0.116	0.242
-356.581	-70.222	0.383	-0.145
-355.566	-200.000	0.007	-0.212
-354.552	-200.000	-0.082	-0.405
-353.537	-200.000	-0.019	0.132
-352.523	165.870	-0.184	-0.260
-351.508	-19.602	-0.203	-0.126
-350.493	-56.238	-0.248	-0.110
-349.479	500.822	0.110	-0.253
-348.464	-79.425	0.176	-0.059
-347.450	-59.506	0.112	0.048
-346.435	-47.595	-0.174	0.084
-345.420	-56.541	0.425	0.188
-344.406	451.980	0.083	-0.184
-343.391	800.000	-0.034	0.099
-342.377	-88.905	0.104	0.031
-341.362	783.446	-0.046	-0.126
-340.348	-115.802	0.111	-0.021
-339.333	43.233	0.101	0.092
-338.318	55.205	0.181	-0.175
-337.304	251.262	0.125	-0.213
-336.289	-80.111	0.177	0.059
-335.275	-97.227	-0.206	-0.054
-334.260	-200.000	0.014	-0.117
-333.245	67.966	-0.150	-0.154
-332.231	34.960	-0.198	0.173
-331.216	-200.000	-0.021	0.175
-330.202	-33.617	-0.158	-0.087
-329.187	-200.000	0.029	0.216
-328.172	800.000	0.075	-0.243
-327.158	-120.536	-0.207	0.035
-326.143	589.005	0.052	-0.128
-325.129	-189.266	0.075	0.001
-324.114	-86.675	0.116	0.036
-323.099	19.191	0.020	0.016
-322.085	-200.000	0.014	-0.369
-321.070	-151.985	-0.232	0.017
-320.056	-99.587	-0.121	0.030
-319.041	-63.211	0.159	0.065
-318.026	-76.610	-0.263	-0.092
-317.012	-63.636	0.250	-0.102
-315.997	-145.833	0.056	-0.005
-314.983	721.172	-0.120	0.318
-313.968	-200.000	-0.039	0.241
-312.953	-22.452	-0.279	-0.168
-311.939	9.458	-0.276	0.208
-310.924	110.156	0.035	0.042
-309.910	-200.000	-0.030	-0.132
-308.895	104.628	-0.304	-0.357
-307.880	30.125	-0.136	-0.116
-306.866	-116.273	-0.160	-0.030
-305.851	-6.351	-0.291	-0.198
-304.837	-136.817	0.056	-0.006
-303.822	-58.766	0.120	-0.052
-302.807	120.858	-0.102	-0.127
-301.793	-85.610	-0.066	-0.020
-300.778	800.000	0.071	0.292
-299.764	638.251	0.088	-0.223
-298.749	800.000	-0.119	0.418
-297.735	-27.988	0.197	0.114
-296.720	-200.000	-0.021	0.100
-295.705	57.316	0.063	-0.062
-294.691	-92.074	-0.108	0.031
-293.676	-26.188	-0.103	-0.060
-292.662	65.971	0.065	-0.066
-291.647	522.163	-0.112	0.263
-290.632	-200.000	0.012	0.172
-289.618	-200.000	0.050	0.252
-288.603	800.000	-0.011	0.035
-287.589	137.335	-0.152	0.198
-286.574	40.553	-0.040	0.036
-285.559	-68.087	0.191	0.074
-284.545	60.498	0.125	0.123
-283.530	-9.988	-0.284	0.188
-282.516	-64.140	0.092	-0.037
-281.501	-138.875	-0.163	-0.018
-280.486	-128.838	-0.354	-0.050
-279.472	26.670	-0.160	-0.133
-278.457	800.000	-0.085	-0.240
-277.443	248.378	-0.172	0.290
-276.428	-100.134	0.143	-0.035
-275.413	-200.000	0.070	0.317
-274.399	-200.000	-0.019	0.196
-273.384	-75.731	0.533	-0.188
-272.370	-200.000	0.008	-0.382
-271.355	116.774	0.183	-0.224
-270.340	-67.672	-0.297	-0.116
-269.326	800.000	-0.104	0.389
-268.311	-185.887	0.370	0.005
-267.297	-200.000	-0.015	0.190
-266.282	32.997	0.081	-0.070
-265.267	53.713	-0.291	-0.278
-264.253	437.850	0.080	-0.174
-263.238	800.000	-0.042	0.124
-262.224	-200.000	-0.005	0.309
-261.209	-86.154	0.070	-0.021
-260.195	-42.370	0.062	0.031
-259.180	204.314	-0.052	-0.081
-258.165	73.993	-0.152	-0.159
-257.151	44.718	-0.191	0.175
-256.136	55.841	0.170	0.164
-255.122	97.147	-0.098	0.112
-254.107	-75.736	0.187	0.066
-253.092	580.411	-0.072	0.175
-252.078	-27.273	0.136	-0.079
-251.063	-200.000	-0.037	-0.176
-250.049	-200.000	0.003	-0.135
-249.034	672.996	-0.057	-0.148
-248.019	529.253	0.100	0.234
-247.005	-138.546	-0.235	-0.026
-245.990	800.000	0.084	0.257
-244.976	444.999	0.064	0.139
-243.961	108.212	-0.151	-0.180
-242.946	141.979	-0.101	-0.133
-241.932	178.482	0.067	-0.097
-240.917	14.295	-0.140	0.108
-239.903	149.697	0.169	-0.227
-238.888	-79.026	-0.228	0.077
-237.873	-22.449	0.191	0.115
-236.859	-108.339	-0.287	-0.062
-235.844	-180.580	0.109	-0.002
-234.830	800.000	-0.072	-0.275
-233.815	-58.215	0.050	-0.022
-232.800	85.143	0.087	-0.095
-231.786	116.875	0.195	0.238
-230.771	16.374	0.250	0.196
-229.757	630.682	0.046	-0.115
-228.742	-200.000	-0.025	-0.450
-227.727	737.166	0.141	-0.375
-226.713	-200.000	0.001	0.130
-225.698	162.898	-0.271	0.378
-224.684	-89.545	-0.238	-0.069
-223.669	175.878	-0.148	0.213
-222.655	-200.000	-0.011	0.145
-221.640	-200.000	0.073	-0.362
-220.625	215.699	0.147	-0.231
-219.611	535.552	0.033	-0.078
-218.596	-93.262	-0.124	0.034
-217.582	-200.000	-0.035	0.402
-216.567	-181.508	0.228	0.004
-215.552	108.450	0.134	-0.160
-214.538	-137.472	-0.118	0.013
-213.523	19.696	0.352	0.281
-212.509	800.000	-0.085	0.267
-211.494	25.083	0.015	-0.012
-210.479	522.322	-0.043	0.100
-209.465	-120.656	0.041	0.007
-208.450	36.365	0.218	-0.191
-207.436	-198.820	-0.377	0.002
-206.421	-102.964	0.137	0.032
-205.406	265.602	0.131	0.227
-204.392	800.000	-0.041	0.136
-203.377	-200.000	-0.044	0.226
-202.363	-18.179	-0.231	-0.144
-201.348	680.517	0.044	-0.113
-200.333	-1.605	0.079	0.055
-199.319	227.937	0.049	-0.080
-198.304	-55.218	0.082	0.037
-197.290	-64.189	-0.105	-0.043
-196.275	64.965	0.225	0.225
-195.260	-59.356	-0.341	-0.146
-194.246	13.723	0.129	-0.100
-193.231	800.000	-0.108	0.445
-192.217	-58.338	0.143	-0.062
-191.202	-22.619	0.115	-0.069
-190.187	556.494	0.065	-0.154
-189.173	547.343	-0.040	0.095
-188.158	-158.184	0.087	-0.005
-187.144	-65.212	-0.028	-0.011
-186.129	214.389	0.108	0.170
-185.114	85.049	-0.266	0.290
-184.100	-200.000	0.006	-0.451
-183.085	-56.135	0.228	0.101
-182.071	-200.000	-0.012	0.205
-181.056	-131.153	-0.156	0.021
-180.042	-200.000	-0.024	0.121
-179.027	37.973	0.180	-0.159
-178.012	-48.203	-0.118	0.056
-176.998	21.212	0.349	0.281
-175.983	20.075	-0.096	-0.077
-174.969	800.000	0.111	0.368
-173.954	-146.674	-0.094	0.008
-172.939	142.801	-0.214	-0.283
-171.925	800.000	-0.067	0.218
-170.910	-50.512	0.287	0.134
-169.896	67.246	0.057	-0.058
-168.881	-200.000	0.012	-0.122
-167.866	-56.200	0.124	-0.055
-166.852	25.167	-0.408	0.336
-165.837	47.517	-0.040	0.037
-164.823	-69.962	0.237	0.090
-163.808	112.971	0.173	-0.208
-162.793	106.196	0.354	-0.416
-161.779	-200.000	-0.028	0.174
-160.764	-200.000	0.045	0.197
-159.750	407.199	-0.090	0.189
-158.735	144.458	-0.175	0.231
-157.720	15.976	-0.107	0.084
-156.706	403.772	-0.116	0.241
-155.691	-200.000	0.052	0.406
-154.677	-200.000	-0.055	0.248
-153.662	-123.229	-0.143	0.023
-152.647	-174.512	0.032	-0.001
-151.633	800.000	0.043	-0.136
-150.618	-107.039	0.318	0.070
-149.604	22.926	-0.002	-0.001
-148.589	-43.856	0.179	-0.089
-147.574	800.000	-0.044	-0.122
-146.560	529.777	0.050	-0.118
-145.545	43.183	-0.260	0.235
-144.531	170.179	-0.206	0.292
-143.516	-48.906	0.193	-0.091
-142.502	-123.302	0.124	-0.020
-141.487	-2.443	-0.109	-0.075
-140.472	-200.000	-0.015	0.225
-139.458	-37.436	-0.153	0.081
-138.443	762.772	0.027	-0.071
-137.429	11.212	-0.241	0.183
-136.414	-170.114	0.185	0.007
-135.399	800.000	-0.105	0.365
-134.385	-15.574	0.175	-0.111
-133.370	27.995	0.160	-0.133
-132.356	4.394	0.209	-0.152
-131.341	44.521	0.247	0.225
-130.326	25.843	-0.223	0.184
-129.312	-200.000	-0.051	-0.363
-128.297	369.269	-0.179	-0.358
-127.283	-200.000	0.004	-0.195
-126.268	800.000	-0.056	0.175
-125.253	-68.256	-0.114	0.044
-124.239	-55.160	-0.319	-0.142
-123.224	-84.794	0.284	-0.089
-122.210	42.620	-0.089	-0.080
-121.195	87.226	-0.202	0.221
-120.180	134.760	-0.175	0.225
