DTS Sentinel unit serial number:	SN413079Multiplexer serial number:	ORYXHardware model number:	OX4-SRSoftware version number:	ORYX F/W v4.00 Oryx Data Collector v3.7.2.0data status	okinstallation	princeton_trtdifferential loss correction	single-endedforward channel	channel 4reverse channel	N/Adate	2019/09/15time	08:53:35forward acquisition time	60.00reverse acquisition time	0.00gamma	496.2192k internal	0.2302k external	0.2302temperature offset calibration	1.0024default loss term (dB/km)	0.3790temperature slope calibration	1.0000multiplexer offset coefficient	1.0000multiplexer slope coefficient	1.0000fibre end	0.00T internal ref (°C)	32.50T ext. ref 1 (°C)	4.98T ext. ref 2 (°C)	29.67length (m)	temperature (°C)	Stokes	anti-Stokes-747.200	-21.568	-0.061	-0.038
-746.185	349.162	-0.050	-0.100
-745.171	-200.000	-0.009	-0.193
-744.156	89.273	0.303	0.344
-743.142	800.000	-0.062	-0.237
-742.127	-33.507	-0.024	-0.013
-741.112	800.000	-0.058	-0.222
-740.098	-200.000	-0.028	-0.215
-739.083	145.439	0.131	0.179
-738.069	268.517	-0.211	0.376
-737.054	800.000	-0.013	-0.038
-736.039	-157.234	-0.128	-0.008
-735.025	2.700	0.227	-0.167
-734.010	-73.523	0.115	-0.043
-732.996	-200.000	0.004	-0.018
-731.981	-32.842	0.117	0.066
-730.966	-122.623	0.090	-0.015
-729.952	-176.459	-0.171	0.005
-728.937	503.668	-0.119	-0.279
-727.923	-200.000	0.009	-0.264
-726.908	800.000	-0.072	-0.236
-725.894	-164.461	-0.184	-0.009
-724.879	288.797	0.112	0.206
-723.864	167.130	0.156	-0.226
-722.850	587.306	-0.057	-0.142
-721.835	-106.122	-0.193	0.044
-720.821	-60.007	-0.151	-0.066
-719.806	-103.694	-0.244	0.058
-718.791	-161.953	0.095	-0.005
-717.777	-200.000	0.009	0.130
-716.762	-107.834	-0.325	0.072
-715.748	-3.734	0.236	-0.167
-714.733	226.490	0.149	0.247
-713.718	800.000	0.075	-0.261
-712.704	-63.092	0.225	0.094
-711.689	265.956	-0.142	-0.252
-710.675	115.315	-0.193	-0.240
-709.660	2.423	-0.117	-0.086
-708.645	-5.392	-0.211	-0.147
-707.631	-35.364	0.153	0.084
-706.616	405.921	0.140	0.301
-705.602	-185.345	-0.317	0.005
-704.587	166.516	-0.255	-0.368
-703.572	-70.227	-0.220	-0.085
-702.558	800.000	0.023	0.095
-701.543	-100.053	0.255	-0.065
-700.529	-67.814	-0.288	-0.115
-699.514	-200.000	-0.038	-0.415
-698.499	192.320	-0.116	-0.179
-697.485	-145.990	-0.409	-0.037
-696.470	-200.000	0.069	-0.312
-695.456	-200.000	-0.042	-0.274
-694.441	104.015	0.102	-0.122
-693.426	-78.112	-0.292	0.102
-692.412	-200.000	0.003	0.128
-691.397	-76.869	-0.154	-0.055
-690.383	-1.029	0.130	0.093
-689.368	-25.526	0.325	0.195
-688.354	-22.854	-0.069	-0.042
-687.339	68.340	-0.087	0.091
-686.324	-37.857	0.293	-0.159
-685.310	-34.290	-0.246	-0.137
-684.295	800.000	0.055	-0.221
-683.281	-200.000	-0.034	0.153
-682.266	175.623	0.217	0.321
-681.251	11.259	0.436	0.339
-680.237	-200.000	0.004	0.046
-679.222	-115.495	0.441	-0.084
-678.208	-106.257	0.172	-0.039
-677.193	82.253	-0.261	-0.288
-676.178	-9.066	-0.099	0.068
-675.164	-200.000	-0.062	-0.299
-674.149	-37.533	0.164	-0.089
-673.135	-125.701	-0.281	-0.043
-672.120	118.796	-0.140	0.176
-671.105	133.863	-0.091	-0.120
-670.091	201.523	0.195	0.305
-669.076	800.000	-0.057	0.215
-668.062	47.127	0.468	-0.442
-667.047	-200.000	-0.014	-0.129
-666.032	44.837	-0.150	-0.140
-665.018	10.916	0.173	-0.134
-664.003	-41.582	-0.324	-0.169
-662.989	-102.401	-0.168	0.041
-661.974	-92.077	-0.213	-0.061
-660.959	-50.715	0.389	-0.186
-659.945	-65.398	0.101	0.041
-658.930	-200.000	-0.005	-0.250
-657.916	-143.833	-0.196	0.019
-656.901	81.562	-0.076	-0.084
-655.886	40.962	-0.269	-0.246
-654.872	-200.000	0.023	0.119
-653.857	-102.071	0.167	0.041
-652.843	-50.565	-0.107	-0.051
-651.828	171.449	0.149	-0.217
-650.814	8.827	0.330	-0.253
-649.799	208.342	0.107	-0.170
-648.784	-165.875	-0.066	-0.003
-647.770	226.298	-0.105	-0.173
-646.755	-148.289	0.338	0.028
-645.741	-160.127	-0.116	0.006
-644.726	84.257	-0.143	-0.159
-643.711	-200.000	-0.006	0.081
-642.697	128.517	-0.083	-0.107
-641.682	-51.036	-0.312	-0.149
-640.668	2.564	0.260	-0.191
-639.653	-200.000	0.001	0.053
-638.638	-200.000	0.007	0.105
-637.624	58.645	-0.152	0.151
-636.609	-13.845	-0.215	0.141
-635.595	1.425	0.201	-0.147
-634.580	-200.000	0.006	-0.335
-633.565	-200.000	-0.008	-0.162
-632.551	-137.729	0.176	0.020
-631.536	-200.000	0.006	0.254
-630.522	-39.910	-0.226	-0.120
-629.507	-127.134	-0.179	0.027
-628.492	-101.903	-0.306	0.075
-627.478	-200.000	-0.024	-0.293
-626.463	-107.571	0.233	0.052
-625.449	262.569	0.056	0.098
-624.434	-200.000	-0.020	-0.237
-623.419	-119.353	0.252	-0.044
-622.405	-74.445	0.245	-0.090
-621.390	248.397	-0.100	0.172
-620.376	-200.000	-0.045	-0.226
-619.361	-21.157	-0.095	0.059
-618.346	53.533	-0.247	-0.241
-617.332	17.558	-0.319	-0.257
-616.317	-33.191	-0.156	0.088
-615.303	128.368	0.082	0.106
-614.288	-200.000	-0.012	-0.293
-613.273	381.401	-0.041	-0.086
-612.259	-58.824	-0.206	-0.091
-611.244	-200.000	-0.013	-0.065
-610.230	-54.656	0.108	0.049
-609.215	-70.075	-0.145	0.056
-608.201	111.603	0.069	0.085
-607.186	-22.459	-0.087	0.054
-606.171	-159.811	-0.118	-0.007
-605.157	-200.000	-0.003	-0.071
-604.142	-97.091	0.190	0.050
-603.128	-33.940	-0.159	-0.089
-602.113	16.342	0.135	-0.108
-601.098	-56.946	-0.243	-0.109
-600.084	-195.920	0.360	0.003
-599.069	83.025	-0.118	-0.130
-598.055	469.069	0.148	-0.336
-597.040	800.000	-0.074	0.292
-596.025	-200.000	0.047	-0.218
-595.011	800.000	-0.049	-0.192
-593.996	-200.000	-0.025	0.143
-592.982	-149.225	0.238	0.019
-591.967	-200.000	-0.007	-0.285
-590.952	-69.935	0.289	-0.112
-589.938	-6.262	0.341	-0.235
-588.923	-86.184	-0.068	0.021
-587.909	-130.923	-0.189	0.026
-586.894	-50.352	0.034	-0.016
-585.879	-112.947	-0.112	0.022
-584.865	-38.139	0.133	0.071
-583.850	4.225	0.225	-0.167
-582.836	800.000	0.045	-0.158
-581.821	381.268	-0.021	-0.043
-580.806	-200.000	-0.016	0.182
-579.792	179.805	-0.123	0.183
-578.777	800.000	0.078	-0.260
-577.763	-200.000	-0.053	-0.318
-576.748	-28.754	0.183	0.107
-575.733	194.282	-0.057	0.088
-574.719	-28.446	-0.226	0.132
-573.704	151.458	-0.111	0.153
-572.690	800.000	0.068	0.291
-571.675	-128.305	0.048	0.007
-570.661	800.000	-0.032	-0.107
-569.646	456.521	0.025	-0.057
-568.631	241.332	0.127	0.214
-567.617	-200.000	0.030	0.201
-566.602	800.000	0.079	0.288
-565.588	32.733	0.156	0.136
-564.573	-106.778	-0.336	-0.076
-563.558	-146.709	0.243	0.021
-562.544	25.984	0.080	-0.068
-561.529	750.673	-0.139	-0.380
-560.515	800.000	-0.032	-0.092
-559.500	-200.000	0.052	-0.259
-558.485	5.617	-0.246	0.184
-557.471	-83.628	0.368	0.119
-556.456	-95.692	-0.065	-0.017
-555.442	308.093	0.137	0.259
-554.427	-12.567	0.269	0.177
-553.412	-73.431	-0.374	0.138
-552.398	165.283	0.089	0.127
-551.383	670.137	-0.118	0.309
-550.369	-200.000	0.015	0.187
-549.354	351.580	-0.054	0.109
-548.339	800.000	0.112	-0.343
-547.325	-139.253	-0.292	-0.032
-546.310	-108.663	0.170	0.037
-545.296	-96.216	0.189	-0.051
-544.281	-200.000	-0.030	-0.300
-543.266	159.867	-0.132	-0.186
-542.252	-140.524	0.265	0.028
-541.237	800.000	0.020	0.057
-540.223	-63.672	0.271	-0.112
-539.208	-200.000	0.002	-0.044
-538.193	-200.000	0.068	0.324
-537.179	357.376	0.018	0.036
-536.164	-153.151	-0.372	-0.026
-535.150	-200.000	0.011	0.272
-534.135	-200.000	0.016	0.282
-533.121	-28.518	0.256	-0.149
-532.106	218.722	-0.128	0.207
-531.091	-200.000	0.013	0.183
-530.077	-54.887	0.070	-0.032
-529.062	669.276	0.092	0.241
-528.048	270.326	0.171	-0.304
-527.033	-200.000	-0.030	0.361
-526.018	-200.000	0.023	0.359
-525.004	18.062	0.246	-0.198
-523.989	-49.335	0.274	-0.132
-522.975	71.350	-0.054	0.057
-521.960	-200.000	0.023	0.108
-520.945	-148.156	-0.396	0.033
-519.931	-200.000	-0.041	0.198
-518.916	-200.000	0.031	0.332
-517.902	-39.814	-0.103	0.055
-516.887	462.074	0.086	0.195
-515.872	42.291	-0.148	-0.135
-514.858	-200.000	-0.035	0.379
-513.843	-55.713	-0.166	0.075
-512.829	5.434	0.223	0.166
-511.814	716.840	0.073	0.197
-510.799	48.797	-0.173	0.164
-509.785	315.280	0.161	-0.306
-508.770	-139.550	-0.293	-0.032
-507.756	-127.821	0.021	0.003
-506.741	56.522	0.172	-0.168
-505.726	24.931	-0.280	-0.235
-504.712	-24.160	0.167	0.101
-503.697	-49.688	0.146	0.070
-502.683	-178.169	-0.364	0.009
-501.668	-14.854	-0.127	-0.082
-500.653	-105.351	0.166	0.038
-499.639	-80.375	-0.206	0.070
-498.624	800.000	-0.076	0.290
-497.610	-80.145	0.133	0.045
-496.595	19.593	0.031	-0.025
-495.581	800.000	0.037	-0.144
-494.566	-15.359	0.147	-0.095
-493.551	-39.040	0.124	0.066
-492.537	-118.001	-0.241	-0.044
-491.522	-135.912	0.106	-0.013
-490.508	471.171	0.090	0.204
-489.493	122.787	0.081	0.102
-488.478	14.521	-0.294	-0.232
-487.464	47.102	-0.203	-0.190
-486.449	-41.670	-0.335	0.173
-485.435	-13.251	-0.152	-0.099
-484.420	195.826	-0.142	-0.217
-483.405	40.095	0.080	-0.073
-482.391	-162.859	0.143	0.007
-481.376	-95.648	-0.187	-0.051
-480.362	115.919	-0.212	-0.262
-479.347	13.326	0.131	0.102
-478.332	-200.000	0.021	0.151
-477.318	60.940	0.088	-0.088
-476.303	-48.061	-0.152	0.074
-475.289	124.646	0.093	0.118
-474.274	800.000	0.106	0.337
-473.259	127.915	-0.119	0.152
-472.245	-106.027	0.156	0.035
-471.230	-162.912	-0.124	0.006
-470.216	-0.322	0.409	-0.293
-469.201	-67.765	-0.097	0.038
-468.186	281.099	-0.058	-0.104
-467.172	-200.000	-0.016	-0.376
-466.157	114.216	0.139	0.170
-465.143	800.000	0.035	0.099
-464.128	-157.612	0.129	0.008
-463.113	-26.479	-0.268	0.158
-462.099	-80.944	-0.443	-0.148
-461.084	31.335	0.126	-0.109
-460.070	-200.000	0.026	0.133
-459.055	-143.504	0.469	-0.045
-458.040	96.526	-0.125	-0.144
-457.026	-200.000	-0.001	0.208
-456.011	-200.000	0.026	-0.154
-454.997	-132.448	0.071	-0.009
-453.982	-200.000	-0.044	0.252
-452.968	-128.282	0.119	-0.017
-451.953	-200.000	0.062	0.284
-450.938	-102.351	-0.093	0.022
-449.924	-200.000	0.034	-0.152
-448.909	-65.791	0.181	0.073
-447.895	-18.653	0.151	0.095
-446.880	-104.738	0.188	-0.044
-445.865	-200.000	-0.037	-0.352
-444.851	-125.790	-0.049	0.007
-443.836	-80.144	0.148	-0.050
-442.822	-200.000	-0.011	0.126
-441.807	-200.000	0.029	-0.322
-440.792	17.521	-0.145	-0.116
-439.778	-62.369	-0.100	-0.042
-438.763	-200.000	-0.005	0.054
-437.749	41.952	-0.048	-0.044
-436.734	170.045	0.071	0.102
-435.719	-23.048	0.208	-0.126
-434.705	97.253	0.177	0.204
-433.690	500.630	0.074	-0.173
-432.676	-161.058	0.290	0.015
-431.661	35.154	0.109	-0.096
-430.646	-127.561	0.200	0.029
-429.632	-126.270	-0.131	0.020
-428.617	-200.000	0.001	0.023
-427.603	127.524	0.120	0.153
-426.588	800.000	0.129	0.374
-425.573	-200.000	-0.015	0.225
-424.559	-14.803	-0.128	-0.083
-423.544	214.505	0.183	0.292
-422.530	800.000	-0.024	-0.086
-421.515	20.643	0.083	0.068
-420.500	490.655	0.128	0.296
-419.486	32.503	0.043	-0.037
-418.471	-200.000	-0.044	-0.291
-417.457	659.943	-0.115	-0.298
-416.442	-106.681	0.312	-0.070
-415.428	27.060	0.029	-0.025
-414.413	101.064	0.299	-0.350
-413.398	-200.000	-0.013	0.086
-412.384	-34.147	-0.226	-0.125
-411.369	6.492	0.270	-0.202
-410.355	160.166	0.101	-0.141
-409.340	-151.485	-0.204	-0.015
-408.325	-104.482	0.250	0.058
-407.311	-89.940	0.401	0.118
-406.296	155.199	-0.011	0.015
-405.282	-71.003	0.225	0.085
-404.267	-32.137	-0.287	-0.161
-403.252	-72.120	-0.211	-0.079
-402.238	-133.577	0.159	0.020
-401.223	16.454	-0.272	-0.216
-400.209	-162.176	0.259	-0.013
-399.194	-28.282	-0.288	-0.167
-398.179	-145.628	0.040	0.004
-397.165	38.334	0.153	0.137
-396.150	485.221	0.129	0.295
-395.136	149.793	-0.118	0.161
-394.121	-77.661	0.274	-0.095
-393.106	-200.000	0.018	0.199
-392.092	-200.000	0.008	-0.122
-391.077	-121.525	-0.209	-0.035
-390.063	-142.452	-0.117	-0.012
-389.048	800.000	-0.026	0.081
-388.033	114.395	-0.179	0.219
-387.019	-86.725	-0.423	0.130
-386.004	69.073	0.092	-0.095
-384.990	9.212	0.036	-0.028
-383.975	-65.473	0.095	0.038
-382.960	-112.844	-0.172	0.034
-381.946	800.000	0.063	0.262
-380.931	158.635	-0.138	0.192
-379.917	800.000	0.062	-0.183
-378.902	66.641	-0.201	0.205
-377.888	-124.084	-0.143	0.023
-376.873	-37.884	0.182	0.097
-375.858	62.998	-0.066	0.067
-374.844	-0.141	-0.173	-0.124
-373.829	-26.458	0.141	-0.083
-372.815	-86.729	0.279	0.086
-371.800	170.791	-0.249	-0.358
-370.785	48.354	0.029	-0.027
-369.771	586.792	-0.035	0.086
-368.756	-81.542	-0.303	-0.100
-367.742	800.000	-0.027	0.106
-366.727	-160.502	-0.084	-0.005
-365.712	129.555	-0.187	-0.240
-364.698	-54.857	0.165	-0.075
-363.683	27.322	0.349	0.295
-362.669	112.514	-0.059	-0.072
-361.654	-58.276	-0.175	-0.076
-360.639	111.972	0.183	-0.222
-359.625	31.050	0.048	-0.041
-358.610	-96.788	0.242	0.064
-357.596	-26.018	0.278	-0.164
-356.581	11.277	0.184	-0.141
-355.566	12.737	-0.206	-0.160
-354.552	-200.000	-0.015	0.206
-353.537	-24.384	0.055	-0.033
-352.523	-92.826	0.116	-0.033
-351.508	9.930	-0.093	0.071
-350.493	800.000	0.028	0.123
-349.479	70.333	0.110	-0.114
-348.464	370.959	0.013	0.026
-347.450	-38.164	-0.294	0.157
-346.435	147.706	0.119	0.161
-345.420	173.269	0.176	0.255
-344.406	-200.000	0.026	-0.117
-343.391	-200.000	0.071	-0.434
-342.377	81.543	0.098	-0.106
-341.362	-200.000	0.003	0.174
-340.348	350.685	-0.047	0.093
-339.333	-200.000	0.035	-0.326
-338.318	133.170	-0.128	-0.165
-337.304	-114.754	0.133	0.026
-336.289	55.570	0.190	-0.184
-335.275	800.000	0.130	-0.386
-334.260	35.342	-0.232	-0.204
-333.245	17.654	-0.076	-0.061
-332.231	34.557	0.272	0.239
-331.216	-89.476	-0.146	0.043
-330.202	131.420	-0.076	-0.098
-329.187	-30.833	0.412	-0.233
-328.172	-200.000	-0.028	0.244
-327.158	-31.118	-0.121	0.068
-326.143	-100.390	0.332	0.082
-325.129	-154.087	-0.373	0.025
-324.114	299.802	-0.096	0.178
-323.099	-200.000	-0.015	0.201
-322.085	-200.000	-0.037	-0.351
-321.070	-46.035	0.047	-0.023
-320.056	88.764	-0.129	-0.144
-319.041	142.427	0.156	-0.207
-318.026	-200.000	0.036	-0.181
-317.012	19.900	-0.331	0.267
-315.997	-200.000	0.008	0.095
-314.983	-200.000	-0.031	0.377
-313.968	-119.625	-0.187	-0.032
-312.953	-66.799	-0.195	0.077
-311.939	213.360	-0.220	-0.348
-310.924	-81.507	0.118	-0.039
-309.910	23.385	-0.078	-0.065
-308.895	143.195	0.059	-0.079
-307.880	20.884	-0.286	-0.233
-306.866	4.828	-0.094	0.069
-305.851	59.536	-0.064	0.063
-304.837	3.742	-0.324	0.237
-303.822	-37.006	0.163	-0.087
-302.807	-200.000	0.004	-0.443
-301.793	-5.923	0.230	-0.158
-300.778	120.088	-0.191	-0.237
-299.764	-80.515	0.115	-0.038
-298.749	-44.788	0.204	0.102
-297.735	-107.580	0.107	0.023
-296.720	800.000	-0.092	0.307
-295.705	800.000	0.057	0.162
-294.691	800.000	0.055	0.194
-293.676	-200.000	-0.050	0.239
-292.662	-183.190	-0.100	-0.002
-291.647	-73.524	-0.132	0.048
-290.632	-61.086	0.111	0.047
-289.618	208.184	0.095	0.149
-288.603	141.182	-0.141	-0.187
-287.589	129.884	0.281	0.359
-286.574	800.000	-0.007	-0.027
-285.559	-200.000	0.036	0.223
-284.545	-11.232	-0.269	-0.177
-283.530	-179.326	-0.332	-0.007
-282.516	20.627	0.170	0.137
-281.501	800.000	0.089	0.354
-280.486	-75.012	-0.369	-0.132
-279.472	-93.228	0.565	0.157
-278.457	-58.926	-0.116	0.050
-277.443	254.451	-0.066	-0.114
-276.428	274.267	-0.157	0.279
-275.413	62.355	0.271	0.271
-274.399	145.563	-0.172	-0.231
-273.384	800.000	0.113	0.360
-272.370	-151.108	-0.380	-0.029
-271.355	800.000	0.055	-0.213
-270.340	800.000	0.028	-0.117
-269.326	-3.944	0.116	0.081
-268.311	657.767	0.118	0.304
-267.297	-21.347	-0.107	0.065
-266.282	540.911	0.122	-0.291
-265.267	-95.948	-0.220	-0.058
-264.253	-178.575	0.147	-0.003
-263.238	25.201	-0.295	0.245
-262.224	-61.122	0.098	-0.041
-261.209	-147.063	-0.278	0.024
-260.195	-151.655	-0.273	-0.020
-259.180	-4.606	0.253	0.175
-258.165	-56.507	-0.333	-0.148
-257.151	800.000	-0.024	-0.099
-256.136	507.597	-0.207	-0.481
-255.122	-200.000	0.009	-0.290
-254.107	-200.000	-0.013	0.217
-253.092	-99.987	-0.255	-0.064
-252.078	-165.722	0.137	-0.006
-251.063	-59.626	0.180	0.077
-250.049	270.809	-0.072	0.127
-249.034	524.007	-0.077	-0.180
-248.019	-14.161	0.163	0.105
-247.005	-200.000	-0.014	0.135
-245.990	17.938	-0.159	-0.127
-244.976	-20.759	0.122	-0.075
-243.961	176.895	0.176	-0.256
-242.946	56.788	-0.101	-0.098
-241.932	-192.610	0.238	-0.002
-240.917	-200.000	0.036	-0.233
-239.903	-24.082	-0.174	0.104
-238.888	53.437	-0.171	-0.164
-237.873	-20.808	-0.117	0.072
-236.859	697.524	0.212	0.556
-235.844	-200.000	0.007	-0.058
-234.830	213.930	-0.210	-0.332
-233.815	114.630	0.058	0.070
-232.800	294.245	-0.038	-0.070
-231.786	-7.793	0.253	0.171
-230.771	-94.344	-0.169	-0.046
-229.757	103.119	-0.052	-0.061
-228.742	22.554	0.284	-0.232
-227.727	800.000	-0.096	-0.294
-226.713	-13.957	0.309	-0.200
-225.698	5.040	0.218	-0.160
-224.684	65.887	-0.044	0.045
-223.669	208.414	-0.097	0.152
-222.655	83.227	0.194	0.211
-221.640	85.891	0.137	0.150
-220.625	299.512	-0.226	-0.416
-219.611	-155.685	-0.498	0.032
-218.596	27.922	-0.054	0.045
-217.582	-200.000	-0.003	0.048
-216.567	-99.626	-0.143	-0.036
-215.552	169.427	0.010	0.014
-214.538	40.129	0.096	-0.086
-213.523	82.845	0.241	0.262
-212.509	-142.522	-0.320	0.031
-211.494	800.000	-0.050	-0.168
-210.479	-7.170	-0.172	0.117
-209.465	-53.795	-0.330	-0.150
-208.450	-110.299	-0.199	-0.041
-207.436	-38.308	-0.148	-0.078
-206.421	185.313	-0.200	-0.297
-205.406	47.949	0.150	0.140
-204.392	-128.294	0.299	0.042
-203.377	-107.749	0.105	-0.023
-202.363	86.659	-0.010	0.011
-201.348	-200.000	-0.013	-0.221
-200.333	-61.745	-0.269	-0.113
-199.319	289.744	-0.154	0.279
-198.304	-45.045	0.398	0.198
-197.290	-200.000	-0.018	0.091
-196.275	-49.923	0.140	-0.066
-195.260	-200.000	0.436	0.000
-194.246	694.556	0.033	-0.087
-193.231	57.004	0.156	0.152
-192.217	-48.542	0.199	-0.095
-191.202	-115.995	-0.294	-0.055
-190.187	180.455	-0.081	-0.119
-189.173	-81.442	-0.099	-0.032
-188.158	26.445	0.306	-0.255
-187.144	-74.617	0.393	-0.141
-186.129	57.387	-0.035	-0.034
-185.114	-12.482	0.290	-0.189
-184.100	-32.984	0.168	0.093
-183.085	-132.076	-0.293	-0.038
-182.071	-200.000	0.004	0.154
-181.056	800.000	-0.032	0.124
-180.042	20.317	-0.384	0.309
-179.027	318.134	-0.066	0.124
-178.012	61.654	-0.137	0.136
-176.998	168.055	-0.076	0.107
-175.983	173.556	0.178	-0.256
-174.969	-34.265	-0.182	0.100
-173.954	-174.572	-0.096	0.003
-172.939	104.392	0.152	-0.178
-171.925	-56.119	-0.042	0.019
-170.910	411.721	0.176	0.372
-169.896	164.623	-0.178	0.250
-168.881	-15.888	0.113	-0.071
-167.866	-27.540	0.164	0.095
-166.852	17.013	0.198	0.156
-165.837	-200.000	0.038	0.440
-164.823	-8.591	0.074	0.050
-163.808	-200.000	-0.382	-0.001
-162.793	-93.738	-0.345	0.095
-161.779	-17.223	0.232	-0.146
-160.764	372.721	-0.090	-0.181
-159.750	537.631	-0.012	0.029
-158.735	97.018	-0.047	-0.054
-157.720	130.330	0.030	0.038
-156.706	-9.827	0.166	0.110
-155.691	-39.294	-0.079	0.041
-154.677	-111.836	0.173	-0.035
-153.662	-152.210	-0.388	-0.028
-152.647	285.726	-0.131	0.234
-151.633	-152.008	-0.046	0.003
-150.618	-139.680	-0.345	-0.037
-149.604	-23.005	-0.244	0.147
-148.589	146.710	0.144	-0.192
-147.574	179.094	-0.071	-0.104
-146.560	-35.809	0.304	0.164
-145.545	-24.331	0.063	0.037
-144.531	-113.527	-0.681	-0.133
-143.516	800.000	0.036	0.105
-142.502	155.781	-0.083	-0.114
-141.487	-200.000	0.038	0.219
-140.472	508.705	0.041	0.095
-139.458	-200.000	-0.051	-0.319
-138.443	-70.074	0.164	-0.062
-137.429	394.796	0.147	0.305
-136.414	-172.438	-0.371	0.012
-135.399	-65.715	0.336	-0.134
-134.385	340.159	0.101	-0.197
-133.370	-7.827	-0.163	-0.110
-132.356	120.182	-0.132	-0.163
-131.341	168.047	0.093	0.132
-130.326	800.000	0.053	-0.179
-129.312	133.576	0.106	-0.136
-128.297	305.463	0.202	0.374
-127.283	177.647	-0.089	0.129
-126.268	119.817	-0.107	0.132
-125.253	777.934	-0.087	-0.237
-124.239	-88.096	0.257	-0.077
-123.224	-25.263	0.323	-0.190
-122.210	800.000	-0.065	-0.217
-121.195	800.000	-0.016	-0.061
