DTS Sentinel unit serial number:	SN413079Multiplexer serial number:	ORYXHardware model number:	OX4-SRSoftware version number:	ORYX F/W v4.00 Oryx Data Collector v3.7.2.0data status	okinstallation	princeton_trtdifferential loss correction	single-endedforward channel	channel 4reverse channel	N/Adate	2019/09/10time	17:07:11forward acquisition time	60.00reverse acquisition time	0.00gamma	496.2192k internal	0.2295k external	0.2295temperature offset calibration	0.9943default loss term (dB/km)	0.3790temperature slope calibration	1.0000multiplexer offset coefficient	1.0000multiplexer slope coefficient	1.0000fibre end	0.00T internal ref (°C)	37.62T ext. ref 1 (°C)	-0.31T ext. ref 2 (°C)	31.87length (m)	temperature (°C)	Stokes	anti-Stokes-747.200	-200.000	-0.025	-0.343
-746.185	348.613	0.098	0.197
-745.171	670.030	0.058	0.152
-744.156	-93.328	-0.103	0.029
-743.142	800.000	0.102	0.396
-742.127	-70.275	-0.061	0.024
-741.112	-132.576	-0.415	-0.054
-740.098	-78.357	-0.331	0.116
-739.083	800.000	0.104	0.385
-738.069	-85.753	0.331	0.105
-737.054	375.637	-0.075	0.157
-736.039	17.754	-0.208	0.169
-735.025	128.392	0.130	0.170
-734.010	335.245	0.057	-0.114
-732.996	-200.000	-0.008	-0.076
-731.981	72.812	0.081	0.086
-730.966	26.434	0.231	-0.198
-729.952	702.469	0.086	0.233
-728.937	43.536	0.251	-0.234
-727.923	-149.384	0.212	-0.017
-726.908	374.956	-0.109	0.226
-725.894	-57.542	-0.230	-0.103
-724.879	800.000	0.063	0.192
-723.864	197.518	0.130	-0.203
-722.850	104.535	-0.080	0.096
-721.835	564.720	0.031	-0.077
-720.821	-99.772	-0.207	0.053
-719.806	180.451	-0.231	0.347
-718.791	-20.086	-0.265	-0.167
-717.777	654.552	0.067	-0.176
-716.762	-150.879	-0.077	0.006
-715.748	-43.431	0.126	0.065
-714.733	-6.791	0.284	-0.197
-713.718	-200.000	-0.036	-0.240
-712.704	446.609	0.142	0.319
-711.689	389.613	-0.139	0.294
-710.675	-91.409	0.243	0.071
-709.660	-200.000	-0.080	0.408
-708.645	-200.000	0.084	-0.437
-707.631	97.307	-0.247	-0.290
-706.616	36.258	0.221	0.199
-705.602	-65.879	-0.195	0.079
-704.587	-147.333	-0.176	-0.015
-703.572	138.733	-0.060	0.080
-702.558	-200.000	-0.128	0.000
-701.543	323.930	0.129	-0.252
-700.529	-136.403	-0.136	0.016
-699.514	-83.445	-0.345	-0.113
-698.499	-66.473	0.122	-0.050
-697.485	-103.379	0.320	0.077
-696.470	-200.000	-0.025	0.207
-695.456	274.463	0.065	0.118
-694.441	129.032	0.128	0.166
-693.426	800.000	0.031	-0.087
-692.412	-19.577	-0.467	0.295
-691.397	526.308	0.048	-0.116
-690.383	-200.000	0.063	0.457
-689.368	158.075	0.154	0.218
-688.354	62.293	-0.207	0.211
-687.339	800.000	-0.041	0.172
-686.324	422.169	0.046	-0.100
-685.310	25.123	-0.288	-0.243
-684.295	167.885	0.134	-0.194
-683.281	358.053	-0.106	0.215
-682.266	-170.994	-0.628	-0.022
-681.251	-73.481	-0.280	-0.104
-680.237	-65.615	0.372	-0.152
-679.222	228.774	-0.200	-0.333
-678.208	-200.000	-0.011	0.113
-677.193	-118.731	0.244	-0.044
-676.178	1.771	0.224	-0.164
-675.164	-48.103	-0.090	-0.044
-674.149	800.000	0.122	0.354
-673.135	339.535	-0.151	-0.300
-672.120	5.907	-0.132	-0.100
-671.105	-87.698	-0.304	-0.094
-670.091	-7.568	-0.115	-0.079
-669.076	33.246	0.408	0.361
-668.062	24.609	0.033	-0.027
-667.047	327.929	-0.109	0.214
-666.032	-200.000	-0.027	0.467
-665.018	243.691	-0.151	-0.258
-664.003	548.355	-0.072	0.175
-662.989	-27.294	0.260	-0.154
-661.974	3.846	-0.116	-0.087
-660.959	-43.334	-0.354	-0.182
-659.945	800.000	-0.034	-0.132
-658.930	36.983	0.105	-0.095
-657.916	-200.000	-0.002	-0.314
-656.901	-200.000	-0.058	-0.263
-655.886	-200.000	0.005	-0.134
-654.872	-200.000	-0.067	-0.373
-653.857	14.081	0.108	0.086
-652.843	99.328	0.084	-0.099
-651.828	212.435	-0.088	0.141
-650.814	53.345	-0.065	-0.063
-649.799	800.000	-0.055	-0.160
-648.784	-149.614	0.301	-0.024
-647.770	656.107	-0.089	-0.232
-646.755	-33.678	-0.198	0.111
-645.741	70.905	0.115	0.122
-644.726	140.929	-0.098	-0.132
-643.711	336.451	0.094	-0.186
-642.697	54.369	-0.186	-0.182
-641.682	-86.668	0.097	0.030
-640.668	-200.000	-0.011	-0.082
-639.653	800.000	-0.129	-0.537
-638.638	-172.113	0.015	-0.000
-637.624	66.149	0.100	0.104
-636.609	146.422	-0.242	-0.331
-635.595	-99.348	-0.386	-0.099
-634.580	-39.240	0.071	0.038
-633.565	800.000	0.091	0.284
-632.551	145.431	-0.038	0.052
-631.536	328.913	0.077	0.150
-630.522	37.621	-0.142	-0.128
-629.507	-126.917	0.129	0.019
-628.492	113.492	-0.092	-0.114
-627.478	355.659	-0.139	-0.282
-626.463	-119.411	0.123	-0.022
-625.449	800.000	0.058	0.166
-624.434	361.461	-0.067	-0.137
-623.419	-200.000	-0.018	0.172
-622.405	61.653	-0.160	-0.162
-621.390	-78.949	-0.151	-0.052
-620.376	-55.612	-0.341	-0.155
-619.361	-65.148	0.177	0.073
-618.346	184.149	0.167	0.251
-617.332	-12.812	-0.062	-0.041
-616.317	-200.000	0.010	0.197
-615.303	-73.351	-0.056	-0.021
-614.288	800.000	-0.075	0.281
-613.273	-13.049	0.101	0.067
-612.259	-99.961	-0.137	0.035
-611.244	-27.004	0.204	-0.121
-610.230	-153.474	-0.220	0.016
-609.215	-30.383	0.258	0.149
-608.201	9.724	0.095	-0.073
-607.186	98.669	0.067	0.079
-606.171	800.000	-0.056	0.162
-605.157	4.546	0.088	0.066
-604.142	108.448	0.095	0.115
-603.128	-6.711	0.011	-0.007
-602.113	85.864	-0.078	0.087
-601.098	37.070	-0.102	0.091
-600.084	340.981	-0.141	-0.281
-599.069	-81.830	0.063	0.021
-598.055	-200.000	0.056	0.293
-597.040	-88.489	0.157	0.047
-596.025	-200.000	0.054	0.481
-595.011	-117.014	-0.145	0.027
-593.996	-26.713	-0.181	-0.108
-592.982	-141.365	0.076	0.008
-591.967	370.814	-0.103	-0.213
-590.952	53.438	-0.107	-0.105
-589.938	-80.939	-0.301	-0.101
-588.923	677.739	0.065	-0.173
-587.909	-115.266	-0.223	-0.043
-586.894	7.205	-0.245	0.186
-585.879	-88.693	0.225	0.068
-584.865	-45.150	-0.363	-0.183
-583.850	800.000	0.019	-0.060
-582.836	-36.910	0.017	0.009
-581.821	248.499	0.133	0.229
-580.806	0.978	-0.242	0.176
-579.792	595.391	-0.112	0.281
-578.777	-48.960	0.244	-0.119
-577.763	368.057	0.041	-0.084
-576.748	0.577	-0.234	0.170
-575.733	-119.108	0.148	0.026
-574.719	-200.000	0.022	-0.216
-573.704	-31.871	0.208	-0.118
-572.690	-98.273	0.318	-0.083
-571.675	-40.311	0.198	0.105
-570.661	-48.715	0.073	-0.036
-569.646	-200.000	-0.005	0.083
-568.631	-200.000	0.011	-0.179
-567.617	598.069	0.052	-0.130
-566.602	-140.125	-0.168	-0.018
-565.588	91.198	-0.025	-0.029
-564.573	97.929	-0.102	-0.119
-563.558	-148.934	0.175	0.014
-562.544	66.521	0.013	-0.013
-561.529	276.329	-0.128	0.231
-560.515	-152.092	0.135	0.010
-559.500	-168.186	-0.138	0.005
-558.485	-16.935	0.164	0.105
-557.471	69.573	-0.376	-0.393
-556.456	-114.190	0.462	-0.090
-555.442	4.026	0.288	-0.214
-554.427	-110.290	0.042	-0.009
-553.412	-109.427	-0.077	0.017
-552.398	-102.510	0.167	-0.041
-551.383	-200.000	0.001	0.301
-550.369	659.073	-0.110	-0.287
-549.354	-137.531	0.215	0.025
-548.339	534.498	-0.102	-0.245
-547.325	-40.729	0.197	0.104
-546.310	-91.604	0.315	-0.091
-545.296	-200.000	0.056	-0.293
-544.281	160.802	0.168	-0.237
-543.266	-125.137	-0.144	-0.022
-542.252	-26.828	-0.042	0.025
-541.237	257.263	0.195	-0.340
-540.223	-36.940	0.116	0.063
-539.208	706.612	-0.069	0.184
-538.193	410.003	0.079	-0.170
-537.179	-101.411	-0.223	-0.055
-536.164	-172.197	0.141	-0.005
-535.150	-167.873	0.213	-0.008
-534.135	-43.661	-0.010	-0.005
-533.121	165.623	-0.185	-0.265
-532.106	-78.876	-0.329	0.114
-531.091	-200.000	-0.000	-0.316
-530.077	-21.954	0.144	-0.089
-529.062	99.219	0.218	-0.255
-528.048	-200.000	-0.020	-0.127
-527.033	-200.000	0.017	-0.193
-526.018	94.735	-0.060	0.069
-525.004	-200.000	0.065	0.314
-523.989	499.732	-0.139	-0.325
-522.975	155.828	0.099	-0.138
-521.960	220.231	-0.082	0.133
-520.945	-115.623	0.167	0.032
-519.931	98.756	0.114	0.133
-518.916	361.144	-0.168	0.340
-517.902	295.255	0.158	0.292
-516.887	-39.608	-0.417	0.221
-515.872	800.000	0.009	0.040
-514.858	-159.147	0.030	0.002
-513.843	79.759	0.138	-0.150
-512.829	-76.615	-0.144	-0.051
-511.814	-200.000	-0.040	-0.250
-510.799	-139.700	0.228	0.025
-509.785	-45.510	-0.228	-0.114
-508.770	-99.040	-0.268	-0.069
-507.756	129.014	-0.151	0.195
-506.741	-200.000	-0.015	-0.302
-505.726	800.000	-0.030	-0.116
-504.712	110.817	0.155	-0.188
-503.697	-200.000	-0.025	-0.244
-502.683	357.835	-0.096	0.193
-501.668	-54.474	-0.350	0.161
-500.653	458.679	0.047	-0.105
-499.639	-150.343	0.217	0.017
-498.624	-24.257	0.224	0.135
-497.610	8.208	0.159	0.121
-496.595	29.141	-0.116	-0.100
-495.581	250.067	-0.036	-0.063
-494.566	256.877	-0.187	-0.325
-493.551	-200.000	0.017	-0.223
-492.537	46.032	0.158	-0.148
-491.522	800.000	0.111	0.369
-490.508	-200.000	-0.020	0.103
-489.493	-107.672	-0.401	0.089
-488.478	60.153	0.083	0.083
-487.464	-122.005	-0.155	0.026
-486.449	255.900	0.038	-0.066
-485.435	15.355	0.194	-0.154
-484.420	-39.685	0.162	0.086
-483.405	-200.000	0.037	0.183
-482.391	-27.271	-0.127	0.075
-481.376	-95.802	0.056	0.015
-480.362	-86.085	0.051	-0.016
-479.347	-200.000	0.031	-0.192
-478.332	-142.605	-0.176	0.017
-477.318	49.656	0.193	-0.184
-476.303	13.717	0.104	-0.082
-475.289	-123.904	-0.111	-0.018
-474.274	-200.000	-0.003	0.205
-473.259	26.117	0.144	0.122
-472.245	-200.000	0.029	0.212
-471.230	-30.660	-0.126	-0.072
-470.216	-200.000	-0.036	0.199
-469.201	45.007	0.170	0.158
-468.186	-15.392	-0.118	-0.076
-467.172	-200.000	-0.024	-0.420
-466.157	-200.000	0.014	-0.120
-465.143	55.902	-0.158	-0.155
-464.128	800.000	-0.085	0.344
-463.113	-191.244	0.271	0.003
-462.099	308.576	0.099	0.187
-461.084	-24.255	-0.156	-0.094
-460.070	559.728	-0.064	-0.156
-459.055	41.031	0.048	0.044
-458.040	-99.056	-0.299	-0.077
-457.026	-19.399	0.130	0.081
-456.011	-200.000	0.076	0.382
-454.997	63.739	0.073	0.075
-453.982	-27.899	-0.289	0.169
-452.968	13.228	-0.121	0.095
-451.953	-59.441	0.039	-0.017
-450.938	800.000	0.122	0.358
-449.924	-98.346	-0.150	-0.039
-448.909	-159.886	0.222	-0.012
-447.895	65.590	-0.109	0.112
-446.880	800.000	-0.054	0.160
-445.865	-200.000	-0.011	-0.230
-444.851	9.457	0.114	0.087
-443.836	149.011	-0.102	-0.139
-442.822	800.000	0.054	-0.221
-441.807	-200.000	0.027	0.146
-440.792	800.000	0.057	-0.201
-439.778	280.320	0.041	-0.074
-438.763	451.475	-0.021	-0.047
-437.749	-111.033	-0.375	-0.078
-436.734	266.929	0.056	-0.098
-435.719	25.040	0.126	-0.105
-434.705	143.083	-0.036	0.048
-433.690	181.953	0.050	-0.075
-432.676	-61.622	0.117	-0.050
-431.661	-200.000	0.060	-0.270
-430.646	-7.474	-0.280	-0.191
-429.632	57.640	0.047	-0.047
-428.617	-199.461	0.199	-0.001
-427.603	-39.408	0.343	0.181
-426.588	-103.674	0.332	-0.079
-425.573	-63.800	0.386	-0.160
-424.559	-200.000	0.007	-0.297
-423.544	-139.382	0.024	-0.003
-422.530	-200.000	0.039	0.211
-421.515	-42.446	0.146	0.075
-420.500	-59.668	0.262	-0.113
-419.486	800.000	0.038	0.148
-418.471	271.415	-0.127	-0.226
-417.457	-200.000	0.070	0.323
-416.442	-12.050	-0.257	-0.170
-415.428	-90.145	0.061	0.018
-414.413	467.004	0.094	0.212
-413.398	51.629	-0.203	-0.194
-412.384	-51.538	-0.101	-0.048
-411.369	-89.975	0.213	-0.063
-410.355	-173.860	0.347	0.010
-409.340	-98.099	-0.212	0.055
-408.325	-18.613	0.207	0.131
-407.311	-171.313	0.225	-0.008
-406.296	-75.077	0.365	-0.132
-405.282	237.017	-0.112	0.187
-404.267	536.571	-0.102	0.245
-403.252	-50.247	-0.233	-0.111
-402.238	-104.571	0.062	0.014
-401.223	152.431	-0.122	-0.168
-400.209	-200.000	-0.001	-0.021
-399.194	-43.352	-0.245	-0.125
-398.179	-200.000	-0.062	-0.321
-397.165	-128.346	-0.286	0.041
-396.150	-200.000	-0.011	-0.132
-395.136	-118.832	0.188	0.033
-394.121	70.538	-0.143	0.149
-393.106	-200.000	0.048	-0.350
-392.092	150.959	-0.045	-0.062
-391.077	-200.000	0.087	0.391
-390.063	800.000	0.009	0.025
-389.048	163.078	0.110	0.155
-388.033	-200.000	-0.167	0.000
-387.019	298.419	-0.019	0.035
-386.004	387.816	-0.131	0.272
-384.990	56.387	-0.006	0.006
-383.975	-103.916	-0.154	0.036
-382.960	-167.761	0.208	0.008
-381.946	39.654	0.044	-0.039
-380.931	-74.995	-0.401	-0.145
-379.917	2.873	-0.118	-0.086
-378.902	-53.071	0.256	0.118
-377.888	-200.000	0.011	-0.154
-376.873	-200.000	-0.049	-0.333
-375.858	0.338	-0.102	0.073
-374.844	-27.449	0.384	-0.225
-373.829	6.945	0.153	-0.115
-372.815	85.042	-0.120	-0.132
-371.800	800.000	-0.037	-0.111
-370.785	-37.154	0.175	0.094
-369.771	-200.000	-0.348	0.000
-368.756	27.922	-0.036	0.031
-367.742	800.000	-0.075	0.327
-366.727	235.239	-0.124	-0.206
-365.712	57.563	0.117	0.116
-364.698	-99.881	0.436	-0.110
-363.683	509.883	0.070	-0.163
-362.669	-10.382	0.069	0.046
-361.654	-113.685	0.034	-0.007
-360.639	-119.829	-0.227	-0.039
-359.625	-148.412	-0.294	0.024
-358.610	-200.000	0.015	-0.233
-357.596	-12.050	0.194	0.128
-356.581	-135.661	-0.423	0.051
-355.566	83.112	0.212	0.232
-354.552	62.236	0.107	0.107
-353.537	168.112	-0.199	0.284
-352.523	-200.000	0.010	0.085
-351.508	-200.000	0.005	0.102
-350.493	136.520	-0.104	-0.137
-349.479	-156.786	0.122	-0.008
-348.464	158.245	0.094	-0.131
-347.450	-70.719	0.042	0.016
-346.435	168.722	0.022	0.032
-345.420	-200.000	-0.025	0.196
-344.406	-63.814	-0.334	0.138
-343.391	-56.398	0.222	-0.099
-342.377	598.228	0.064	0.161
-341.362	132.561	0.105	0.136
-340.348	-200.000	0.045	0.215
-339.333	-200.000	-0.002	-0.096
-338.318	-200.000	0.022	0.116
-337.304	-164.880	-0.369	-0.017
-336.289	205.970	0.116	0.181
-335.275	149.467	-0.170	0.232
-334.260	128.836	0.117	-0.150
-333.245	-121.625	-0.401	-0.067
-332.231	88.499	-0.122	0.137
-331.216	654.876	-0.102	-0.264
-330.202	-95.953	0.269	-0.072
-329.187	800.000	0.022	0.065
-328.172	563.287	0.032	0.079
-327.158	-200.000	-0.014	0.300
-326.143	-60.872	0.091	-0.039
-325.129	82.646	0.311	0.339
-324.114	-46.743	0.162	0.080
-323.099	-200.000	-0.057	-0.295
-322.085	800.000	0.120	-0.449
-321.070	800.000	0.071	0.218
-320.056	-58.812	-0.331	0.144
-319.041	36.577	0.247	0.219
-318.026	-7.841	0.059	0.040
-317.012	-104.570	0.286	0.066
-315.997	-200.000	-0.050	-0.266
-314.983	91.818	0.029	0.033
-313.968	102.957	0.429	-0.505
-312.953	156.176	0.014	-0.019
-311.939	52.758	0.076	-0.073
-310.924	16.309	-0.306	-0.243
-309.910	492.365	0.205	-0.473
-308.895	-200.000	0.009	-0.191
-307.880	-39.373	0.224	0.118
-306.866	-161.256	0.247	-0.013
-305.851	-200.000	-0.053	-0.307
-304.837	-5.898	0.073	0.050
-303.822	-119.528	0.219	-0.038
-302.807	-82.690	-0.084	0.027
-301.793	-43.922	0.141	0.071
-300.778	292.131	0.118	0.215
-299.764	-3.221	0.204	0.143
-298.749	351.476	-0.071	0.141
-297.735	47.570	-0.218	0.204
-296.720	8.265	-0.374	0.282
-295.705	45.281	-0.199	0.185
-294.691	-200.000	0.013	0.211
-293.676	109.246	0.154	0.185
-292.662	-117.494	-0.526	0.096
-291.647	-105.855	0.308	-0.070
-290.632	-125.013	0.198	-0.031
-289.618	-65.289	0.273	-0.111
-288.603	-40.244	-0.280	0.146
-287.589	0.423	-0.217	-0.156
-286.574	-107.696	-0.292	0.064
-285.559	263.555	0.084	-0.146
-284.545	9.144	-0.253	-0.192
-283.530	78.035	-0.208	0.222
-282.516	-180.734	-0.094	0.002
-281.501	-158.592	0.324	-0.019
-280.486	-138.842	0.083	0.009
-279.472	533.148	-0.061	-0.144
-278.457	-12.434	-0.068	-0.045
-277.443	113.166	-0.198	-0.241
-276.428	-200.000	0.010	-0.049
-275.413	161.024	0.074	0.104
-274.399	419.576	-0.042	-0.090
-273.384	624.340	-0.053	0.135
-272.370	-26.006	0.205	-0.121
-271.355	29.596	-0.192	-0.164
-270.340	800.000	0.067	-0.202
-269.326	-112.089	0.178	0.036
-268.311	320.113	0.082	-0.156
-267.297	39.958	-0.085	0.077
-266.282	-56.399	0.096	0.043
-265.267	-159.587	0.380	0.021
-264.253	-52.078	-0.240	-0.112
-263.238	-200.000	0.001	0.246
-262.224	-185.952	0.170	-0.003
-261.209	-2.548	0.066	0.046
-260.195	800.000	-0.039	-0.146
-259.180	725.544	0.082	0.218
-258.165	-200.000	0.060	0.282
-257.151	33.668	-0.109	0.095
-256.136	23.795	0.245	0.202
-255.122	-17.149	-0.047	-0.030
-254.107	34.911	-0.324	-0.285
-253.092	-152.208	-0.087	0.006
-252.078	-200.000	-0.076	0.461
-251.063	436.429	-0.038	-0.083
-250.049	800.000	-0.158	-0.512
-249.034	-65.779	-0.196	-0.078
-248.019	-20.937	0.141	0.087
-247.005	-84.249	0.058	-0.019
-245.990	212.873	-0.038	0.060
-244.976	-23.626	0.268	-0.161
-243.961	122.571	0.112	-0.141
-242.946	-1.819	0.072	-0.050
-241.932	261.725	0.050	0.087
-240.917	59.977	0.176	0.175
-239.903	-111.173	0.325	-0.067
-238.888	553.596	-0.187	0.450
-237.873	265.394	-0.139	-0.243
-236.859	-200.000	0.010	-0.192
-235.844	-116.346	-0.134	0.025
-234.830	-5.272	-0.166	0.114
-233.815	-200.000	-0.076	-0.421
-232.800	20.575	0.184	-0.149
-231.786	281.981	-0.094	0.169
-230.771	101.220	0.314	0.366
-229.757	-6.191	0.127	0.087
-228.742	-80.284	-0.283	0.095
-227.727	-200.000	-0.026	0.250
-226.713	-200.000	-0.001	0.272
-225.698	514.167	0.097	0.228
-224.684	-200.000	0.038	0.241
-223.669	-115.600	-0.216	-0.041
-222.655	800.000	0.060	-0.244
-221.640	-200.000	-0.025	0.235
-220.625	-161.762	0.236	-0.012
-219.611	320.294	0.147	-0.280
-218.596	800.000	0.037	0.134
-217.582	-87.663	-0.128	-0.039
-216.567	-45.200	0.118	0.059
-215.552	139.934	-0.140	-0.185
-214.538	-30.108	-0.202	0.115
-213.523	-200.000	-0.018	0.167
-212.509	411.588	-0.083	-0.176
-211.494	-74.914	-0.304	-0.109
-210.479	-74.059	-0.091	-0.033
-209.465	53.253	0.153	-0.147
-208.450	258.903	0.176	-0.303
-207.436	800.000	-0.058	0.243
-206.421	-83.194	-0.352	0.113
-205.406	563.863	-0.083	0.202
-204.392	-132.245	0.071	0.009
-203.377	-153.883	0.379	0.026
-202.363	-52.624	0.084	0.039
-201.348	633.711	-0.103	0.263
-200.333	-164.963	-0.247	-0.011
-199.319	-166.305	-0.296	-0.012
-198.304	-136.979	-0.144	-0.017
-197.290	-25.672	0.106	0.062
-196.275	-200.000	0.008	-0.162
-195.260	-200.000	0.044	-0.217
-194.246	330.412	0.113	0.218
-193.231	800.000	0.125	0.397
-192.217	-200.000	0.046	0.253
-191.202	-148.800	-0.194	-0.016
-190.187	-190.297	0.118	0.001
-189.173	417.016	-0.035	0.074
-188.158	146.054	-0.169	0.227
-187.144	-16.764	-0.223	0.141
-186.129	-200.000	-0.036	-0.232
-185.114	800.000	-0.041	-0.179
-184.100	-6.998	-0.134	0.091
-183.085	-200.000	-0.059	0.302
-182.071	227.914	0.137	-0.223
-181.056	112.858	0.050	0.061
-180.042	-53.563	-0.372	-0.170
-179.027	68.887	-0.040	0.041
-178.012	-31.130	0.369	-0.208
-176.998	32.292	-0.184	-0.158
-175.983	-200.000	0.009	-0.201
-174.969	487.947	-0.048	-0.109
-173.954	0.903	-0.072	0.051
-172.939	1.554	-0.216	0.155
-171.925	-131.261	-0.256	0.034
-170.910	-79.143	-0.257	0.087
-169.896	-159.223	-0.278	-0.016
-168.881	-135.651	0.249	0.030
-167.866	800.000	0.077	0.271
-166.852	-93.160	0.177	0.049
-165.837	11.962	-0.218	0.167
-164.823	65.348	-0.141	0.142
-163.808	-68.553	0.071	-0.027
-162.793	39.412	-0.119	-0.107
-161.779	-152.389	0.232	-0.017
-160.764	345.201	0.074	0.145
-159.750	-200.000	0.037	0.367
-158.735	-81.343	0.269	0.089
-157.720	67.715	0.080	0.082
-156.706	356.034	0.094	0.187
-155.691	110.413	-0.131	0.157
-154.677	64.107	0.138	-0.139
-153.662	-56.197	0.116	0.052
-152.647	-200.000	0.026	-0.232
-151.633	-59.566	-0.266	0.114
-150.618	-37.087	-0.289	-0.154
-149.604	-200.000	0.031	0.371
-148.589	-200.000	-0.019	0.414
-147.574	234.691	0.048	-0.079
-146.560	-200.000	-0.022	0.308
-145.545	12.724	0.326	0.252
-144.531	-140.714	0.277	-0.029
-143.516	3.124	-0.065	-0.047
-142.502	800.000	0.019	-0.070
-141.487	800.000	0.059	-0.200
-140.472	-43.036	-0.144	0.073
-139.458	-171.220	-0.228	0.008
-138.443	-104.504	0.139	0.032
-137.429	-200.000	0.020	0.136
-136.414	800.000	0.024	0.100
-135.399	71.305	-0.154	0.160
-134.385	285.619	0.154	0.278
-133.370	-29.210	0.371	0.212
-132.356	-140.906	0.176	0.018
-131.341	-200.000	0.032	0.169
-130.326	-109.636	-0.172	-0.036
-129.312	645.481	0.074	0.188
-128.297	-36.589	-0.287	0.154
-127.283	369.469	0.029	0.059
-126.268	274.403	0.126	0.223
-125.253	-200.000	0.008	0.088
-124.239	-131.219	-0.332	-0.044
-123.224	-161.140	0.203	-0.011
-122.210	684.045	0.093	-0.242
-121.195	381.331	0.150	-0.307
-120.180	116.623	0.190	-0.233
