DTS Sentinel unit serial number:	SN413079Multiplexer serial number:	ORYXHardware model number:	OX4-SRSoftware version number:	ORYX F/W v4.00 Oryx Data Collector v3.7.2.0data status	okinstallation	princeton_trtdifferential loss correction	single-endedforward channel	channel 4reverse channel	N/Adate	2019/09/18time	23:13:35forward acquisition time	60.00reverse acquisition time	0.00gamma	496.2192k internal	0.2334k external	0.2334temperature offset calibration	1.0032default loss term (dB/km)	0.3790temperature slope calibration	1.0000multiplexer offset coefficient	1.0000multiplexer slope coefficient	1.0000fibre end	0.00T internal ref (°C)	23.94T ext. ref 1 (°C)	0.78T ext. ref 2 (°C)	17.32length (m)	temperature (°C)	Stokes	anti-Stokes-747.200	248.493	0.135	0.230
-746.185	184.527	-0.214	0.319
-745.171	-140.742	0.296	0.031
-744.156	-68.586	-0.368	0.144
-743.142	92.532	0.145	-0.164
-742.127	-200.000	-0.003	0.040
-741.112	123.417	0.168	0.212
-740.098	-200.000	-0.011	0.435
-739.083	-83.136	0.239	-0.077
-738.069	41.416	0.161	0.146
-737.054	187.316	-0.162	0.243
-736.039	-162.894	-0.463	0.023
-735.025	-66.214	-0.218	-0.087
-734.010	93.250	0.123	0.140
-732.996	-99.064	-0.168	-0.043
-731.981	-68.671	0.139	-0.054
-730.966	-186.733	0.295	-0.004
-729.952	131.482	-0.192	0.248
-728.937	-101.933	0.248	-0.060
-727.923	400.325	0.077	0.163
-726.908	40.471	0.061	0.056
-725.894	-200.000	-0.000	0.076
-724.879	236.129	-0.157	-0.261
-723.864	-188.278	0.239	-0.003
-722.850	-200.000	0.042	0.192
-721.835	384.940	-0.183	-0.379
-720.821	-6.413	-0.122	-0.084
-719.806	800.000	-0.011	-0.045
-718.791	52.405	-0.377	0.362
-717.777	343.741	-0.070	0.138
-716.762	221.452	0.089	0.143
-715.748	395.286	0.072	-0.151
-714.733	-121.596	-0.036	0.006
-713.718	4.535	-0.212	0.156
-712.704	-200.000	0.032	0.146
-711.689	376.733	-0.131	0.268
-710.675	800.000	-0.070	0.303
-709.660	-200.000	0.077	-0.347
-708.645	640.801	-0.114	0.290
-707.631	382.958	0.036	-0.075
-706.616	800.000	-0.069	-0.274
-705.602	9.550	0.102	0.078
-704.587	51.864	0.261	-0.249
-703.572	-125.128	-0.255	0.039
-702.558	719.005	-0.088	0.234
-701.543	-91.177	-0.543	-0.156
-700.529	-105.113	0.215	0.049
-699.514	-84.882	-0.092	0.029
-698.499	-53.845	-0.368	-0.169
-697.485	-200.000	-0.050	-0.289
-696.470	-116.101	0.350	-0.065
-695.456	-183.872	-0.179	-0.003
-694.441	138.275	-0.280	-0.368
-693.426	800.000	0.065	-0.190
-692.412	-39.305	0.050	-0.026
-691.397	142.400	0.064	0.085
-690.383	218.045	-0.111	-0.177
-689.368	-30.770	0.036	-0.021
-688.354	-200.000	0.030	-0.212
-687.339	-200.000	-0.000	0.187
-686.324	265.085	0.103	0.180
-685.310	198.216	0.131	0.200
-684.295	800.000	-0.023	-0.095
-683.281	26.021	0.108	-0.090
-682.266	-200.000	0.007	-0.137
-681.251	32.408	-0.149	-0.129
-680.237	-200.000	-0.027	-0.171
-679.222	43.771	0.287	-0.263
-678.208	-28.659	-0.145	-0.084
-677.193	292.742	0.129	-0.235
-676.178	40.579	-0.245	0.222
-675.164	-200.000	-0.036	-0.188
-674.149	-200.000	-0.063	-0.286
-673.135	-200.000	-0.007	-0.123
-672.120	800.000	-0.068	-0.203
-671.105	142.533	-0.149	0.199
-670.091	-134.209	0.273	0.034
-669.076	39.724	-0.027	-0.025
-668.062	78.409	0.150	-0.161
-667.047	103.502	0.360	-0.423
-666.032	263.160	-0.078	-0.136
-665.018	-86.349	-0.307	-0.095
-664.003	-29.522	-0.269	0.154
-662.989	165.265	0.053	0.076
-661.974	-2.789	-0.298	0.209
-660.959	-156.296	-0.022	0.001
-659.945	774.794	-0.070	0.191
-658.930	118.859	0.104	0.129
-657.916	-200.000	-0.062	-0.318
-656.901	141.229	0.076	0.101
-655.886	29.003	-0.125	0.106
-654.872	58.967	0.467	-0.460
-653.857	127.191	0.131	0.166
-652.843	-157.501	0.038	-0.002
-651.828	-46.831	0.034	0.017
-650.814	-137.020	0.162	0.019
-649.799	-151.904	0.138	-0.010
-648.784	59.320	-0.173	0.171
-647.770	297.437	0.039	0.071
-646.755	-97.136	0.095	-0.025
-645.741	595.266	0.014	0.035
-644.726	23.172	-0.276	0.227
-643.711	-104.745	0.173	-0.040
-642.697	176.392	0.236	0.344
-641.682	232.956	-0.075	0.123
-640.668	18.038	-0.347	0.277
-639.653	-52.039	-0.161	0.075
-638.638	-108.271	-0.293	-0.063
-637.624	-200.000	-0.041	0.431
-636.609	171.236	-0.186	-0.267
-635.595	462.927	-0.207	-0.463
-634.580	-151.129	-0.204	-0.015
-633.565	800.000	-0.044	0.154
-632.551	-200.000	0.029	0.167
-631.536	800.000	-0.077	-0.240
-630.522	-6.107	0.134	-0.092
-629.507	-200.000	0.010	-0.331
-628.492	-53.475	-0.158	-0.072
-627.478	-10.553	0.199	0.132
-626.463	-78.500	0.264	0.091
-625.449	-31.053	0.225	-0.127
-624.434	-155.846	-0.171	-0.011
-623.419	-152.017	0.215	0.016
-622.405	102.551	-0.172	-0.201
-621.390	800.000	-0.026	-0.111
-620.376	-200.000	0.030	0.508
-619.361	191.979	0.209	0.315
-618.346	-200.000	-0.009	-0.041
-617.332	369.211	0.081	-0.163
-616.317	-0.853	-0.185	-0.131
-615.303	-135.781	-0.370	-0.044
-614.288	-200.000	0.118	0.595
-613.273	459.952	0.024	0.054
-612.259	-97.757	0.173	0.045
-611.244	-200.000	-0.012	0.184
-610.230	-200.000	0.042	0.318
-609.215	387.890	-0.127	0.263
-608.201	23.503	0.061	0.050
-607.186	53.792	-0.167	-0.160
-606.171	77.948	0.093	0.100
-605.157	-200.000	0.006	0.320
-604.142	-113.847	-0.025	0.005
-603.128	23.538	-0.172	0.142
-602.113	-114.323	0.070	0.013
-601.098	-200.000	0.020	-0.352
-600.084	6.761	-0.034	-0.025
-599.069	-84.549	-0.107	0.034
-598.055	255.611	0.052	-0.089
-597.040	-150.886	-0.251	0.019
-596.025	800.000	0.065	0.219
-595.011	800.000	-0.075	0.255
-593.996	145.283	-0.021	-0.028
-592.982	-200.000	0.025	0.159
-591.967	-200.000	0.035	0.444
-590.952	-200.000	0.045	-0.296
-589.938	2.342	-0.243	-0.176
-588.923	-0.626	0.269	-0.191
-587.909	266.336	0.076	-0.133
-586.894	-53.538	0.225	-0.103
-585.879	-136.092	-0.131	0.015
-584.865	679.531	0.109	0.284
-583.850	-200.000	-0.064	-0.280
-582.836	-82.888	0.122	0.039
-581.821	-107.869	0.183	-0.040
-580.806	742.718	0.074	-0.198
-579.792	-122.188	0.086	0.014
-578.777	-51.233	-0.082	-0.038
-577.763	-131.566	-0.465	-0.061
-576.748	800.000	-0.041	0.113
-575.733	-83.862	-0.226	-0.072
-574.719	-108.027	-0.184	0.040
-573.704	-200.000	-0.009	-0.250
-572.690	-200.000	0.075	-0.385
-571.675	800.000	-0.149	-0.458
-570.661	-114.894	0.291	-0.055
-569.646	645.715	-0.117	-0.299
-568.631	-140.224	-0.157	-0.016
-567.617	148.013	-0.233	0.314
-566.602	211.215	-0.128	-0.201
-565.588	-44.683	0.140	-0.070
-564.573	-66.798	-0.163	0.064
-563.558	-57.689	-0.282	0.123
-562.544	-200.000	0.007	0.117
-561.529	-136.523	-0.257	-0.030
-560.515	-75.565	-0.232	0.082
-559.500	-105.205	0.187	0.043
-558.485	39.265	0.216	-0.193
-557.471	453.002	0.108	-0.237
-556.456	11.624	0.234	0.179
-555.442	-110.340	0.203	0.042
-554.427	-0.459	-0.239	-0.169
-553.412	44.211	-0.124	-0.114
-552.398	-178.813	0.255	-0.006
-551.383	123.792	0.191	0.240
-550.369	-13.832	-0.143	0.092
-549.354	1.173	-0.193	-0.138
-548.339	205.415	0.106	0.165
-547.325	-107.991	-0.284	0.061
-546.310	41.980	0.027	0.025
-545.296	389.862	0.102	0.211
-544.281	60.895	0.092	0.091
-543.266	20.256	0.169	0.136
-542.252	-56.267	0.097	-0.043
-541.237	-58.862	-0.100	-0.043
-540.223	-27.308	-0.174	-0.101
-539.208	6.375	-0.290	-0.214
-538.193	-126.697	-0.388	-0.057
-537.179	-21.826	-0.395	-0.240
-536.164	552.919	-0.103	0.247
-535.150	390.756	0.227	-0.469
-534.135	177.368	-0.239	0.347
-533.121	132.402	-0.127	0.163
-532.106	129.322	0.159	-0.202
-531.091	-166.144	0.419	0.018
-530.077	800.000	-0.052	0.158
-529.062	-84.214	0.209	0.066
-528.048	-89.152	-0.104	0.031
-527.033	-110.340	-0.184	0.038
-526.018	141.817	0.168	0.222
-525.004	-96.067	0.322	-0.085
-523.989	-200.000	-0.083	0.579
-522.975	-200.000	0.166	-0.000
-521.960	92.206	0.032	-0.036
-520.945	-130.947	-0.227	0.030
-519.931	800.000	0.074	-0.254
-518.916	-200.000	0.040	0.291
-517.902	-200.000	-0.034	0.309
-516.887	145.685	0.236	0.315
-515.872	-156.707	-0.477	-0.029
-514.858	360.033	0.102	-0.204
-513.843	78.522	0.049	0.052
-512.829	-161.498	0.409	-0.021
-511.814	205.149	0.103	-0.159
-510.799	-124.849	-0.224	-0.034
-509.785	136.005	0.059	0.076
-508.770	460.086	-0.128	-0.285
-507.756	-200.000	-0.009	-0.177
-506.741	664.595	-0.067	-0.172
-505.726	574.318	-0.120	-0.291
-504.712	657.854	-0.070	-0.178
-503.697	139.675	0.116	0.153
-502.683	240.573	-0.227	0.377
-501.668	-98.740	0.349	0.089
-500.653	18.565	0.398	-0.317
-499.639	-58.467	-0.059	-0.025
-498.624	-66.333	0.168	0.066
-497.610	-76.952	-0.345	0.120
-496.595	189.235	-0.084	-0.126
-495.581	-127.017	0.132	0.019
-494.566	800.000	-0.017	0.068
-493.551	-188.984	0.394	0.005
-492.537	-200.000	0.116	0.000
-491.522	-89.370	-0.047	-0.014
-490.508	800.000	0.030	0.127
-489.493	-6.259	0.122	-0.083
-488.478	293.431	0.113	-0.204
-487.464	800.000	0.025	0.082
-486.449	-200.000	-0.009	0.257
-485.435	10.870	0.135	-0.103
-484.420	800.000	0.091	-0.268
-483.405	5.089	0.090	0.066
-482.391	4.535	-0.192	0.140
-481.376	-199.961	0.063	-0.000
-480.362	-133.786	-0.088	0.011
-479.347	578.000	-0.159	-0.386
-478.332	38.042	0.190	0.168
-477.318	-96.599	0.081	-0.021
-476.303	53.194	-0.424	-0.404
-475.289	800.000	0.052	-0.156
-474.274	-107.245	-0.162	-0.035
-473.259	-4.738	-0.183	0.126
-472.245	18.619	0.074	-0.059
-471.230	45.509	0.135	-0.124
-470.216	233.357	0.055	-0.090
-469.201	-164.277	-0.296	-0.014
-468.186	-9.818	0.323	0.214
-467.172	658.277	0.221	-0.565
-466.157	59.926	0.312	0.306
-465.143	800.000	-0.069	-0.210
-464.128	107.656	0.098	0.116
-463.113	104.442	0.061	-0.071
-462.099	-14.914	-0.222	0.141
-461.084	87.600	-0.098	-0.108
-460.070	-120.439	0.212	-0.036
-459.055	800.000	0.111	0.421
-458.040	403.752	0.043	-0.090
-457.026	52.731	0.102	-0.097
-456.011	800.000	0.156	-0.452
-454.997	120.299	0.149	-0.184
-453.982	415.978	0.095	0.202
-452.968	-95.038	-0.016	0.004
-451.953	800.000	-0.096	0.348
-450.938	-85.571	-0.100	0.031
-449.924	-17.882	-0.142	-0.089
-448.909	11.934	0.258	0.197
-447.895	-78.772	-0.029	0.010
-446.880	115.885	-0.184	-0.224
-445.865	-84.323	-0.038	-0.012
-444.851	800.000	-0.105	0.294
-443.836	302.277	0.051	0.095
-442.822	59.561	-0.048	-0.047
-441.807	104.470	-0.265	0.310
-440.792	130.914	-0.080	-0.101
-439.778	-47.231	-0.177	0.086
-438.763	-65.831	0.317	-0.126
-437.749	365.670	-0.104	0.209
-436.734	800.000	-0.062	0.236
-435.719	540.221	-0.118	-0.278
-434.705	-200.000	-0.074	0.359
-433.690	188.709	-0.190	-0.283
-432.676	-200.000	-0.006	-0.254
-431.661	-38.637	-0.154	-0.081
-430.646	42.026	-0.062	-0.056
-429.632	-101.075	0.116	0.028
-428.617	198.773	-0.020	-0.030
-427.603	122.209	-0.241	0.299
-426.588	212.306	0.141	0.221
-425.573	-89.333	-0.094	-0.028
-424.559	750.233	-0.099	-0.266
-423.544	-24.501	-0.177	0.105
-422.530	188.330	0.237	0.352
-421.515	69.414	0.038	-0.039
-420.500	-49.276	0.358	-0.170
-419.486	-70.564	0.488	-0.183
-418.471	-3.879	0.201	0.138
-417.457	-18.181	0.131	-0.081
-416.442	18.760	0.137	-0.109
-415.428	-129.609	0.152	-0.021
-414.413	685.610	0.055	-0.143
-413.398	-200.000	0.000	0.012
-412.384	227.642	0.100	0.162
-411.369	-95.560	0.054	-0.014
-410.355	91.697	-0.246	0.275
-409.340	-98.067	-0.134	-0.034
-408.325	-135.895	-0.316	0.037
-407.311	-120.497	-0.163	0.028
-406.296	800.000	-0.052	0.163
-405.282	241.029	-0.159	-0.264
-404.267	368.039	-0.174	0.349
-403.252	800.000	0.047	-0.134
-402.238	184.216	0.098	0.144
-401.223	-153.210	0.104	-0.007
-400.209	224.256	0.114	-0.183
-399.194	-113.932	0.376	-0.072
-398.179	158.992	-0.218	0.301
-397.165	-62.824	0.201	-0.082
-396.150	45.197	-0.193	0.177
-395.136	-9.016	-0.087	0.058
-394.121	800.000	0.029	0.100
-393.106	-27.783	-0.176	-0.101
-392.092	-10.609	-0.167	-0.110
-391.077	-200.000	0.005	0.111
-390.063	-200.000	-0.025	-0.268
-389.048	-67.626	-0.236	0.092
-388.033	29.594	-0.023	-0.020
-387.019	-200.000	-0.093	-0.000
-386.004	800.000	0.108	-0.342
-384.990	-200.000	-0.043	-0.367
-383.975	-3.113	0.147	0.102
-382.960	-159.991	0.108	0.006
-381.946	26.316	0.080	-0.066
-380.931	-200.000	-0.035	0.241
-379.917	-200.000	-0.001	0.108
-378.902	87.949	-0.323	-0.355
-377.888	-29.949	0.101	0.057
-376.873	-104.757	-0.280	0.064
-375.858	-200.000	-0.010	0.104
-374.844	800.000	0.031	0.128
-373.829	-188.279	0.117	0.001
-372.815	-130.408	-0.252	-0.034
-371.800	-71.363	-0.136	0.050
-370.785	-31.152	0.110	-0.062
-369.771	134.567	0.172	-0.222
-368.756	800.000	-0.013	0.046
-367.742	337.973	0.203	0.392
-366.727	-145.490	0.031	-0.003
-365.712	316.331	-0.225	-0.420
-364.698	800.000	0.047	-0.179
-363.683	356.109	0.047	-0.092
-362.669	-200.000	-0.029	0.428
-361.654	-88.800	-0.322	0.095
-360.639	162.646	0.076	0.106
-359.625	-64.570	0.145	0.058
-358.610	-11.414	-0.102	-0.066
-357.596	-200.000	0.027	0.117
-356.581	534.118	0.096	-0.226
-355.566	-121.842	0.467	0.076
-354.552	-64.457	0.010	-0.004
-353.537	9.986	0.028	0.021
-352.523	800.000	0.042	-0.134
-351.508	-14.081	0.140	-0.089
-350.493	405.668	-0.197	-0.411
-349.479	120.887	-0.153	0.188
-348.464	231.706	-0.081	0.132
-347.450	407.946	0.126	-0.264
-346.435	-98.157	-0.163	-0.042
-345.420	-200.000	-0.008	-0.061
-344.406	-18.927	-0.135	0.083
-343.391	-104.493	-0.196	-0.045
-342.377	-159.198	-0.260	0.014
-341.362	-167.085	-0.195	-0.008
-340.348	-183.647	0.302	-0.005
-339.333	-37.526	0.058	-0.031
-338.318	435.197	0.072	0.155
-337.304	75.608	0.072	-0.075
-336.289	-200.000	0.038	-0.213
-335.275	-200.000	0.030	-0.147
-334.260	268.777	-0.204	-0.354
-333.245	212.722	-0.051	-0.080
-332.231	-170.989	0.183	-0.006
-331.216	64.074	-0.046	-0.046
-330.202	159.119	-0.185	0.255
-329.187	20.085	0.160	0.128
-328.172	-200.000	0.003	-0.147
-327.158	-200.000	0.008	-0.116
-326.143	398.044	-0.073	0.152
-325.129	31.428	0.097	0.083
-324.114	349.395	0.123	0.240
-323.099	35.416	-0.124	-0.108
-322.085	-169.870	0.458	0.016
-321.070	435.818	0.085	-0.184
-320.056	-55.607	0.132	-0.058
-319.041	-98.945	-0.187	0.047
-318.026	-136.414	0.237	-0.027
-317.012	-200.000	0.004	0.064
-315.997	-163.655	0.298	0.014
-314.983	243.665	-0.014	0.023
-313.968	-89.400	-0.304	-0.088
-312.953	34.782	0.021	-0.018
-311.939	596.815	0.225	0.551
-310.924	-56.870	-0.112	-0.049
-309.910	800.000	-0.069	-0.230
-308.895	-13.054	-0.298	0.191
-307.880	261.780	0.049	-0.083
-306.866	-23.423	0.356	0.211
-305.851	800.000	-0.043	0.144
-304.837	196.249	-0.139	-0.209
-303.822	-200.000	-0.016	-0.149
-302.807	-136.929	0.336	0.038
-301.793	52.011	-0.161	0.151
-300.778	-68.956	-0.160	0.061
-299.764	448.011	-0.078	0.169
-298.749	-93.238	0.226	0.062
-297.735	-128.953	-0.169	0.023
-296.720	532.158	-0.120	-0.279
-295.705	6.027	0.221	0.162
-294.691	-200.000	-0.051	-0.245
-293.676	800.000	-0.070	-0.206
-292.662	-48.621	0.172	0.082
-291.647	800.000	-0.092	-0.320
-290.632	300.157	0.020	-0.036
-289.618	800.000	-0.009	-0.027
-288.603	-8.419	0.112	0.074
-287.589	-3.131	-0.132	-0.091
-286.574	-119.238	-0.251	-0.043
-285.559	100.093	0.223	-0.255
-284.545	-151.759	-0.110	0.008
-283.530	800.000	0.095	-0.318
-282.516	800.000	0.002	0.008
-281.501	118.099	-0.195	-0.237
-280.486	800.000	-0.048	-0.163
-279.472	-105.498	0.257	0.058
-278.457	-31.404	-0.391	-0.217
-277.443	800.000	0.074	0.273
-276.428	-162.646	-0.361	-0.018
-275.413	84.042	0.132	-0.143
-274.399	428.520	0.063	0.134
-273.384	-36.777	-0.099	-0.052
-272.370	-109.265	0.209	0.044
-271.355	-67.625	0.255	0.098
-270.340	203.216	-0.081	-0.124
-269.326	324.921	0.069	0.131
-268.311	36.637	0.074	0.065
-267.297	-100.951	-0.063	-0.015
-266.282	-198.548	-0.162	-0.001
-265.267	44.047	0.074	-0.067
-264.253	-72.984	-0.199	0.072
-263.238	400.681	-0.147	-0.304
-262.224	-200.000	0.002	-0.236
-261.209	664.495	0.121	0.309
-260.195	-200.000	-0.020	-0.136
-259.180	-200.000	-0.003	0.046
-258.165	-59.070	-0.249	0.106
-257.151	117.943	-0.029	0.035
-256.136	-200.000	0.034	0.169
-255.122	-138.684	0.344	-0.037
-254.107	213.462	0.183	0.285
-253.092	536.938	-0.168	0.394
-252.078	-166.087	0.226	0.009
-251.063	-25.427	0.191	-0.112
-250.049	203.020	-0.270	-0.412
-249.034	-200.000	0.015	0.080
-248.019	491.933	-0.025	-0.057
-247.005	-119.348	0.108	0.018
-245.990	155.339	0.086	-0.116
-244.976	800.000	0.093	0.382
-243.961	-45.116	-0.246	-0.121
-242.946	-69.688	-0.073	0.028
-241.932	-118.701	0.519	-0.090
-240.917	262.841	0.105	0.180
-239.903	115.160	0.072	0.086
-238.888	430.385	-0.081	0.174
-237.873	-200.000	-0.005	0.270
-236.859	292.863	0.222	-0.400
-235.844	-5.112	-0.199	-0.135
-234.830	800.000	0.108	0.307
-233.815	-47.014	-0.322	0.155
-232.800	7.485	0.221	0.163
-231.786	-77.108	0.200	0.069
-230.771	-200.000	-0.032	-0.211
-229.757	-1.773	0.029	0.020
-228.742	370.293	-0.119	-0.238
-227.727	-200.000	-0.027	-0.131
-226.713	-40.622	0.306	0.156
-225.698	-51.363	0.241	0.111
-224.684	-117.340	0.188	-0.034
-223.669	-200.000	0.081	0.459
-222.655	-200.000	0.007	0.257
-221.640	-200.000	-0.033	0.381
-220.625	481.385	-0.150	-0.336
-219.611	17.294	0.089	0.070
-218.596	141.778	0.163	-0.212
-217.582	22.249	-0.298	-0.239
-216.567	189.356	0.177	-0.261
-215.552	22.251	-0.062	-0.050
-214.538	-58.706	-0.031	0.013
-213.523	493.559	-0.060	0.136
-212.509	800.000	-0.035	-0.113
-211.494	800.000	0.068	-0.194
-210.479	313.989	0.082	-0.152
-209.465	79.015	-0.097	-0.102
-208.450	90.205	0.108	0.119
-207.436	103.459	-0.172	0.199
-206.421	800.000	0.021	0.072
-205.406	220.686	0.080	0.127
-204.392	-66.639	-0.072	0.028
-203.377	-66.063	0.267	-0.105
-202.363	-200.000	-0.009	0.107
-201.348	75.401	0.191	-0.198
-200.333	-200.000	0.034	-0.278
-199.319	760.062	-0.128	-0.343
-198.304	51.996	0.183	-0.172
-197.290	-34.018	-0.012	-0.006
-196.275	244.201	0.113	-0.186
-195.260	-60.682	-0.097	-0.041
-194.246	-200.000	-0.041	0.247
-193.231	-105.166	-0.201	0.045
-192.217	229.443	-0.160	0.258
-191.202	-112.186	-0.062	0.012
-190.187	-5.065	0.188	-0.127
-189.173	-104.729	0.535	-0.121
-188.158	-157.190	0.232	-0.014
-187.144	-115.115	-0.261	-0.049
-186.129	-62.322	0.189	0.078
-185.114	244.307	-0.062	0.102
-184.100	-200.000	0.008	-0.186
-183.085	-60.925	0.074	-0.031
-182.071	142.140	-0.078	0.101
-181.056	256.412	0.050	0.084
-180.042	581.903	0.130	0.313
-179.027	-31.482	-0.263	-0.146
-178.012	-143.171	0.380	-0.036
-176.998	800.000	0.007	0.029
-175.983	-200.000	0.031	-0.236
-174.969	-200.000	-0.026	0.148
-173.954	-19.319	-0.045	0.028
-172.939	199.898	-0.102	-0.154
-171.925	284.863	-0.081	0.143
-170.910	405.434	-0.048	0.100
-169.896	-77.626	0.249	0.085
-168.881	-11.743	-0.448	0.289
-167.866	111.869	-0.083	-0.098
-166.852	-150.007	0.300	-0.023
-165.837	-97.314	-0.498	0.128
-164.823	205.210	0.173	-0.264
-163.808	177.925	-0.162	0.232
-162.793	-137.834	0.079	0.009
-161.779	-30.441	0.120	0.067
-160.764	96.743	0.019	0.022
-159.750	255.712	-0.155	0.261
-158.735	45.981	0.120	0.109
-157.720	62.000	-0.214	-0.210
-156.706	800.000	0.053	-0.200
-155.691	-200.000	0.032	-0.299
-154.677	-41.818	0.141	0.071
-153.662	-132.749	-0.397	0.050
-152.647	800.000	-0.043	-0.152
-151.633	800.000	0.032	0.105
-150.618	358.304	0.023	0.044
-149.604	157.481	-0.260	0.353
-148.589	-200.000	0.006	-0.142
-147.574	-200.000	-0.041	-0.442
-146.560	-32.470	-0.217	0.119
-145.545	4.527	0.136	0.098
-144.531	-38.203	0.208	-0.108
-143.516	602.475	-0.181	-0.441
-142.502	-91.902	-0.409	-0.114
-141.487	292.825	0.074	-0.133
-140.472	-200.000	0.033	0.211
-139.458	-28.591	0.065	-0.037
-138.443	374.227	0.084	-0.168
-137.429	-8.967	0.395	0.260
-136.414	-80.095	0.118	-0.039
-135.399	-63.064	0.249	0.101
-134.385	95.964	-0.206	0.231
-133.370	-108.530	0.473	-0.100
-132.356	-50.120	-0.123	-0.057
-131.341	595.975	0.017	0.042
-130.326	59.909	-0.173	0.167
-129.312	-200.000	0.015	0.108
-128.297	546.400	0.113	-0.266
-127.283	714.899	0.019	-0.049
-126.268	82.513	0.037	0.040
-125.253	15.449	0.099	-0.076
-124.239	800.000	0.049	-0.180
-123.224	30.014	0.333	0.278
-122.210	27.365	0.277	-0.228
-121.195	-69.399	-0.332	0.125
