DTS Sentinel unit serial number:	SN413079Multiplexer serial number:	ORYXHardware model number:	OX4-SRSoftware version number:	ORYX F/W v4.00 Oryx Data Collector v3.7.2.0data status	okinstallation	princeton_trtdifferential loss correction	single-endedforward channel	channel 4reverse channel	N/Adate	2019/09/13time	06:49:35forward acquisition time	60.00reverse acquisition time	0.00gamma	496.2192k internal	0.2324k external	0.2324temperature offset calibration	1.0195default loss term (dB/km)	0.3790temperature slope calibration	1.0000multiplexer offset coefficient	1.0000multiplexer slope coefficient	1.0000fibre end	0.00T internal ref (°C)	26.00T ext. ref 1 (°C)	4.11T ext. ref 2 (°C)	20.68length (m)	temperature (°C)	Stokes	anti-Stokes-747.200	195.422	-0.064	0.099
-746.185	800.000	-0.035	-0.119
-745.171	-200.000	0.007	-0.074
-744.156	800.000	-0.034	0.105
-743.142	358.682	0.086	-0.173
-742.127	-83.918	-0.093	-0.030
-741.112	-200.000	0.000	-0.148
-740.098	-200.000	-0.042	0.244
-739.083	266.022	0.114	0.200
-738.069	-105.599	-0.271	0.062
-737.054	343.979	0.100	-0.199
-736.039	-50.554	-0.184	0.088
-735.025	-23.240	0.340	0.206
-734.010	-90.246	-0.314	0.092
-732.996	800.000	-0.051	-0.192
-731.981	-145.091	0.154	-0.014
-730.966	464.550	0.132	0.298
-729.952	22.145	-0.281	-0.232
-728.937	-128.165	-0.428	0.062
-727.923	101.112	0.190	-0.223
-726.908	-200.000	-0.031	-0.267
-725.894	26.071	-0.088	-0.074
-724.879	-200.000	0.026	-0.203
-723.864	130.957	-0.108	-0.140
-722.850	96.353	-0.153	0.176
-721.835	217.453	0.075	0.120
-720.821	-35.753	-0.128	-0.070
-719.806	199.452	0.188	-0.291
-718.791	247.348	-0.200	-0.341
-717.777	320.580	0.162	0.311
-716.762	452.642	0.130	-0.290
-715.748	663.596	0.061	0.159
-714.733	502.237	-0.032	0.074
-713.718	46.566	-0.094	0.088
-712.704	-200.000	-0.003	0.041
-711.689	162.121	0.059	-0.084
-710.675	800.000	-0.148	-0.493
-709.660	105.844	-0.169	-0.201
-708.645	174.044	0.128	-0.187
-707.631	-200.000	0.009	0.169
-706.616	271.075	0.181	-0.321
-705.602	-99.232	-0.478	0.122
-704.587	800.000	-0.025	0.074
-703.572	438.213	-0.053	-0.117
-702.558	7.794	0.368	0.278
-701.543	-55.421	-0.098	-0.044
-700.529	800.000	0.081	0.325
-699.514	438.764	0.038	-0.083
-698.499	-68.649	-0.413	0.161
-697.485	-200.000	0.032	-0.164
-696.470	41.251	0.186	0.169
-695.456	-187.300	-0.082	0.001
-694.441	-136.554	-0.392	0.046
-693.426	164.605	0.079	-0.112
-692.412	-20.332	-0.102	0.063
-691.397	81.937	0.144	0.157
-690.383	800.000	-0.016	0.060
-689.368	-87.412	-0.027	0.008
-688.354	-200.000	-0.041	-0.263
-687.339	-129.245	-0.458	-0.064
-686.324	800.000	-0.045	-0.132
-685.310	73.460	-0.197	-0.208
-684.295	-20.648	-0.305	0.188
-683.281	-200.000	-0.072	-0.401
-682.266	-200.000	0.015	-0.261
-681.251	-13.181	-0.230	-0.150
-680.237	47.751	0.186	0.175
-679.222	-86.046	0.030	-0.009
-678.208	800.000	0.118	0.392
-677.193	617.001	0.062	-0.158
-676.178	86.600	0.100	-0.111
-675.164	190.743	0.088	-0.133
-674.149	-115.125	-0.244	0.047
-673.135	90.104	0.067	-0.075
-672.120	-200.000	-0.039	-0.182
-671.105	-57.446	0.119	0.052
-670.091	48.760	-0.115	-0.109
-669.076	573.911	0.054	-0.132
-668.062	-66.274	-0.217	-0.087
-667.047	-106.563	0.072	-0.016
-666.032	42.282	0.117	0.107
-665.018	-200.000	-0.010	0.136
-664.003	68.018	-0.266	0.274
-662.989	-79.490	-0.258	-0.088
-661.974	325.883	0.116	-0.224
-660.959	135.895	-0.201	-0.263
-659.945	-200.000	0.010	0.096
-658.930	236.635	0.177	0.294
-657.916	459.139	-0.103	-0.231
-656.901	401.418	0.194	-0.411
-655.886	-108.662	-0.330	0.071
-654.872	-200.000	0.009	0.111
-653.857	95.491	-0.169	-0.194
-652.843	-116.008	0.066	0.012
-651.828	-143.124	-0.216	0.021
-650.814	-150.117	0.064	0.005
-649.799	-85.901	0.262	0.082
-648.784	-42.732	0.278	0.142
-647.770	-111.853	0.130	0.026
-646.755	-200.000	-0.005	-0.404
-645.741	-48.081	-0.196	0.095
-644.726	63.844	0.091	-0.092
-643.711	-33.563	-0.112	0.062
-642.697	8.926	-0.253	0.192
-641.682	-117.911	-0.059	-0.011
-640.668	-90.783	0.107	-0.031
-639.653	-114.549	-0.173	0.033
-638.638	800.000	-0.101	-0.400
-637.624	-89.265	0.303	-0.090
-636.609	-35.319	0.250	-0.137
-635.595	-113.191	-0.374	-0.074
-634.580	102.317	-0.039	0.046
-633.565	-200.000	-0.001	0.227
-632.551	-152.447	-0.280	-0.020
-631.536	-130.760	0.210	-0.028
-630.522	106.637	-0.232	-0.277
-629.507	-127.807	-0.114	0.017
-628.492	-200.000	-0.036	0.182
-627.478	-200.000	-0.023	0.204
-626.463	783.122	0.062	0.172
-625.449	42.273	0.141	0.128
-624.434	221.984	-0.041	0.066
-623.419	-117.462	0.437	0.079
-622.405	-200.000	-0.048	-0.317
-621.390	-63.082	-0.278	0.115
-620.376	-141.209	0.367	-0.038
-619.361	252.422	0.120	0.205
-618.346	69.210	-0.037	-0.039
-617.332	99.155	-0.168	0.195
-616.317	-200.000	0.009	0.150
-615.303	3.083	0.073	0.053
-614.288	95.293	0.058	0.066
-613.273	800.000	-0.029	0.096
-612.259	111.644	-0.248	0.301
-611.244	211.100	-0.087	0.137
-610.230	-200.000	0.025	-0.369
-609.215	331.720	0.079	-0.152
-608.201	-175.330	-0.185	-0.005
-607.186	158.915	-0.114	0.159
-606.171	-49.937	-0.411	0.196
-605.157	526.436	0.051	0.121
-604.142	28.630	0.070	-0.059
-603.128	37.715	-0.053	0.047
-602.113	800.000	0.028	0.114
-601.098	-200.000	-0.003	-0.202
-600.084	-200.000	0.070	-0.364
-599.069	-99.900	-0.252	0.063
-598.055	-26.711	-0.149	-0.087
-597.040	18.283	0.151	0.121
-596.025	660.000	-0.104	-0.268
-595.011	17.547	-0.299	-0.239
-593.996	18.922	-0.075	0.060
-592.982	-98.057	-0.297	0.077
-591.967	189.056	0.167	0.251
-590.952	-77.584	-0.222	-0.077
-589.938	-129.197	-0.222	0.031
-588.923	-1.269	0.113	-0.080
-587.909	770.411	-0.045	-0.124
-586.894	58.579	0.280	-0.276
-585.879	-200.000	0.059	-0.275
-584.865	-200.000	0.015	-0.124
-583.850	101.152	0.200	-0.234
-582.836	283.554	-0.137	-0.247
-581.821	237.601	0.118	-0.197
-580.806	371.476	-0.131	-0.267
-579.792	456.066	0.039	0.087
-578.777	156.241	-0.107	-0.148
-577.763	167.038	0.287	0.409
-576.748	-103.494	0.166	0.039
-575.733	-200.000	0.018	-0.139
-574.719	-42.260	-0.228	0.117
-573.704	374.655	0.051	0.105
-572.690	-129.063	-0.597	0.084
-571.675	-147.087	0.096	0.008
-570.661	148.835	-0.029	0.039
-569.646	800.000	0.071	0.223
-568.631	-200.000	0.002	0.012
-567.617	-200.000	-0.040	-0.300
-566.602	126.515	-0.119	0.151
-565.588	800.000	0.125	-0.405
-564.573	-200.000	0.035	0.203
-563.558	-200.000	0.040	0.248
-562.544	43.893	-0.336	0.309
-561.529	537.636	0.106	0.252
-560.515	-200.000	-0.071	0.323
-559.500	-51.500	0.146	0.068
-558.485	66.615	-0.226	-0.230
-557.471	-13.998	-0.250	-0.162
-556.456	-100.761	-0.376	-0.093
-555.442	-73.333	-0.143	0.052
-554.427	-200.000	-0.055	-0.363
-553.412	187.795	0.172	-0.257
-552.398	-151.137	-0.168	0.013
-551.383	-8.144	-0.224	0.151
-550.369	-113.268	-0.310	0.061
-549.354	-200.000	0.010	0.118
-548.339	800.000	-0.028	0.081
-547.325	-187.197	0.233	-0.003
-546.310	-48.686	0.121	-0.058
-545.296	-108.707	-0.242	-0.052
-544.281	321.214	-0.049	0.094
-543.266	151.225	-0.217	0.295
-542.252	189.499	-0.095	-0.143
-541.237	54.267	-0.081	0.078
-540.223	180.724	-0.073	-0.108
-539.208	-92.703	0.306	-0.086
-538.193	-200.000	0.039	-0.271
-537.179	108.491	0.174	-0.208
-536.164	800.000	0.003	-0.011
-535.150	-68.402	0.176	0.069
-534.135	410.944	0.098	-0.207
-533.121	205.477	-0.139	-0.217
-532.106	-129.960	0.273	0.037
-531.091	498.603	0.058	-0.135
-530.077	-46.483	-0.119	-0.058
-529.062	-46.186	0.231	0.114
-528.048	447.121	0.073	-0.161
-527.033	-117.933	0.276	-0.050
-526.018	619.833	-0.155	0.390
-525.004	-200.000	-0.029	0.251
-523.989	800.000	-0.042	-0.136
-522.975	469.458	0.009	-0.021
-521.960	-200.000	-0.010	-0.076
-520.945	82.094	0.106	0.115
-519.931	-38.420	0.176	0.093
-518.916	503.579	0.116	-0.269
-517.902	151.439	-0.134	-0.183
-516.887	353.702	-0.018	0.035
-515.872	-61.384	0.132	0.056
-514.858	-200.000	-0.037	0.368
-513.843	800.000	-0.149	-0.494
-512.829	-97.191	-0.274	0.072
-511.814	-38.346	0.185	0.098
-510.799	-40.661	-0.203	0.105
-509.785	53.805	-0.240	-0.231
-508.770	-162.755	0.113	-0.006
-507.756	-93.184	0.329	0.092
-506.741	-162.636	-0.122	0.006
-505.726	315.272	0.104	-0.196
-504.712	-200.000	-0.014	0.230
-503.697	800.000	-0.057	-0.217
-502.683	100.421	-0.081	-0.093
-501.668	-51.286	0.171	-0.080
-500.653	315.937	-0.039	0.073
-499.639	-125.583	-0.223	0.034
-498.624	-5.229	-0.087	0.060
-497.610	-86.817	0.323	-0.099
-496.595	442.586	-0.078	0.170
-495.581	-200.000	0.025	-0.162
-494.566	-78.098	0.154	-0.053
-493.551	-113.776	-0.252	-0.049
-492.537	449.130	-0.076	0.168
-491.522	800.000	-0.080	0.292
-490.508	-175.733	0.278	-0.007
-489.493	69.186	0.136	0.140
-488.478	0.568	-0.157	0.112
-487.464	800.000	-0.049	-0.166
-486.449	149.299	0.096	0.131
-485.435	800.000	0.062	-0.212
-484.420	800.000	-0.030	0.085
-483.405	-74.814	-0.327	0.117
-482.391	28.237	0.028	0.024
-481.376	80.208	0.116	-0.125
-480.362	-54.897	-0.197	-0.089
-479.347	-63.780	-0.089	-0.036
-478.332	75.348	-0.053	-0.056
-477.318	164.769	0.198	-0.279
-476.303	78.987	0.095	0.102
-475.289	79.525	-0.125	-0.134
-474.274	-200.000	0.027	-0.238
-473.259	-28.378	-0.071	-0.041
-472.245	-200.000	-0.018	-0.517
-471.230	9.231	0.067	0.050
-470.216	26.277	-0.121	-0.101
-469.201	469.414	0.052	0.116
-468.186	-147.067	-0.249	-0.021
-467.172	94.980	-0.266	0.302
-466.157	-34.866	-0.217	-0.119
-465.143	734.126	-0.005	0.013
-464.128	111.736	0.177	0.214
-463.113	-106.499	-0.304	0.068
-462.099	217.077	-0.130	-0.207
-461.084	-33.354	0.164	0.091
-460.070	-65.952	0.149	-0.059
-459.055	-147.612	0.146	-0.012
-458.040	145.341	-0.136	0.181
-457.026	-73.100	0.169	0.062
-456.011	102.493	-0.123	0.143
-454.997	-141.447	0.193	-0.020
-453.982	-163.410	-0.176	-0.008
-452.968	-200.000	-0.002	0.426
-451.953	800.000	-0.052	0.195
-450.938	170.580	-0.068	-0.097
-449.924	40.928	0.190	0.171
-448.909	-99.585	0.296	-0.074
-447.895	-200.000	0.011	0.056
-446.880	-200.000	-0.049	0.449
-445.865	576.222	0.140	-0.341
-444.851	731.427	-0.048	-0.128
-443.836	-20.057	0.046	0.029
-442.822	363.844	0.090	0.181
-441.807	296.411	0.097	-0.177
-440.792	362.284	-0.184	-0.368
-439.778	-200.000	-0.003	-0.028
-438.763	800.000	0.081	0.267
-437.749	-200.000	0.077	0.375
-436.734	224.179	-0.138	-0.223
-435.719	92.400	0.191	-0.215
-434.705	229.966	0.181	-0.295
-433.690	800.000	-0.056	-0.179
-432.676	212.399	-0.181	-0.284
-431.661	800.000	-0.082	-0.230
-430.646	71.967	0.330	0.343
-429.632	-10.256	0.284	-0.188
-428.617	-200.000	-0.033	-0.221
-427.603	174.640	-0.125	0.181
-426.588	-183.007	-0.254	0.005
-425.573	-153.701	-0.074	-0.005
-424.559	307.489	-0.059	-0.110
-423.544	364.993	0.135	-0.272
-422.530	65.496	0.109	-0.110
-421.515	-200.000	-0.043	-0.308
-420.500	-49.891	0.093	-0.044
-419.486	-63.076	0.196	0.081
-418.471	-74.241	-0.200	-0.072
-417.457	-200.000	0.026	-0.228
-416.442	-140.392	-0.173	0.018
-415.428	-200.000	0.001	-0.184
-414.413	-164.944	-0.341	0.015
-413.398	800.000	-0.058	0.204
-412.384	-200.000	0.013	-0.198
-411.369	-25.114	-0.393	0.232
-410.355	335.445	-0.113	0.217
-409.340	130.275	-0.186	0.237
-408.325	756.284	0.145	0.392
-407.311	-200.000	0.030	-0.141
-406.296	-200.000	0.032	0.274
-405.282	-200.000	-0.038	0.172
-404.267	103.299	-0.030	-0.034
-403.252	106.847	-0.081	-0.095
-402.238	331.268	0.103	0.198
-401.223	-28.356	-0.133	-0.077
-400.209	-200.000	-0.038	0.471
-399.194	-25.042	-0.405	0.239
-398.179	800.000	0.080	0.340
-397.165	24.254	0.177	0.145
-396.150	800.000	0.013	-0.050
-395.136	-123.633	0.202	0.032
-394.121	-144.841	0.155	0.014
-393.106	149.273	0.041	0.056
-392.092	-83.605	0.063	-0.020
-391.077	-140.053	-0.248	-0.026
-390.063	800.000	0.097	0.292
-389.048	-106.201	0.190	0.042
-388.033	41.004	-0.083	-0.075
-387.019	151.427	0.119	-0.162
-386.004	-200.000	0.004	-0.279
-384.990	-200.000	-0.016	0.100
-383.975	306.010	0.064	-0.119
-382.960	800.000	0.065	0.200
-381.946	195.126	-0.220	-0.332
-380.931	119.257	-0.152	0.187
-379.917	15.154	0.111	-0.086
-378.902	-101.330	-0.152	-0.037
-377.888	22.306	-0.227	0.184
-376.873	-11.841	-0.087	0.057
-375.858	-99.289	0.249	0.062
-374.844	-175.858	0.299	0.008
-373.829	207.530	0.180	-0.280
-372.815	2.587	0.113	-0.082
-371.800	-75.439	0.149	0.053
-370.785	49.742	-0.229	-0.215
-369.771	111.291	-0.110	-0.132
-368.756	44.434	0.078	-0.071
-367.742	-200.000	-0.029	-0.332
-366.727	-66.009	0.267	-0.106
-365.712	41.572	0.290	-0.261
-364.698	364.722	-0.096	-0.192
-363.683	-200.000	-0.034	-0.218
-362.669	359.197	-0.160	-0.319
-361.654	18.058	0.020	-0.016
-360.639	-111.601	-0.468	0.095
-359.625	140.431	-0.018	-0.024
-358.610	308.747	0.114	0.213
-357.596	-84.425	0.203	-0.064
-356.581	-144.234	-0.291	-0.027
-355.566	-192.848	-0.221	0.002
-354.552	377.626	-0.075	-0.152
-353.537	-135.348	-0.188	0.022
-352.523	-200.000	0.068	-0.315
-351.508	800.000	0.078	-0.237
-350.493	-200.000	0.031	0.219
-349.479	-200.000	-0.017	0.409
-348.464	-91.135	0.244	-0.069
-347.450	-152.020	-0.093	-0.007
-346.435	-200.000	0.001	-0.107
-345.420	-108.933	0.132	0.028
-344.406	-72.183	-0.212	0.078
-343.391	120.832	-0.030	0.038
-342.377	298.648	0.094	-0.173
-341.362	-97.607	-0.225	-0.058
-340.348	-92.256	-0.365	0.102
-339.333	-106.049	0.269	-0.060
-338.318	63.273	0.093	-0.093
-337.304	-25.126	-0.140	0.082
-336.289	51.870	0.312	0.295
-335.275	402.391	0.135	0.283
-334.260	-4.679	-0.195	0.133
-333.245	800.000	0.085	0.283
-332.231	70.489	-0.156	0.160
-331.216	-144.231	0.052	0.005
-330.202	-200.000	-0.011	-0.300
-329.187	-200.000	-0.005	0.255
-328.172	-72.265	-0.058	0.021
-327.158	800.000	-0.049	-0.180
-326.143	-200.000	0.001	-0.050
-325.129	-136.653	0.095	0.011
-324.114	-99.724	-0.078	-0.019
-323.099	800.000	0.065	-0.182
-322.085	682.896	-0.045	0.116
-321.070	-34.218	0.313	-0.171
-320.056	-54.937	0.221	-0.099
-319.041	-200.000	0.015	0.119
-318.026	-115.120	-0.152	0.029
-317.012	-55.376	-0.084	-0.038
-315.997	171.979	0.047	0.067
-314.983	440.456	-0.026	0.057
-313.968	-200.000	-0.019	0.096
-312.953	36.880	-0.112	-0.098
-311.939	-54.815	0.178	0.080
-310.924	-200.000	-0.038	-0.260
-309.910	-200.000	-0.062	0.324
-308.895	-121.905	0.375	0.061
-307.880	-80.541	0.250	0.083
-306.866	-133.565	0.140	0.017
-305.851	800.000	-0.051	-0.207
-304.837	-200.000	0.047	0.398
-303.822	-200.000	-0.010	0.146
-302.807	71.610	-0.026	-0.027
-301.793	-200.000	-0.007	0.145
-300.778	-119.505	-0.213	-0.037
-299.764	-106.740	-0.137	-0.030
-298.749	-123.849	0.102	-0.016
-297.735	-70.768	-0.235	-0.088
-296.720	651.410	-0.076	0.194
-295.705	39.052	0.158	-0.140
-294.691	232.223	-0.122	0.198
-293.676	150.187	0.180	0.243
-292.662	-44.599	0.052	0.026
-291.647	66.732	0.171	0.172
-290.632	-170.662	0.301	-0.010
-289.618	573.304	0.143	-0.346
-288.603	110.294	-0.056	-0.067
-287.589	-120.107	-0.060	-0.010
-286.574	-200.000	-0.032	-0.400
-285.559	17.496	0.176	0.139
-284.545	-200.000	-0.034	0.184
-283.530	800.000	0.085	-0.246
-282.516	800.000	0.040	0.128
-281.501	254.330	-0.143	-0.243
-280.486	-200.000	0.006	0.141
-279.472	-42.593	-0.339	0.171
-278.457	-95.466	0.067	0.018
-277.443	-200.000	-0.002	0.291
-276.428	800.000	0.051	0.167
-275.413	618.080	0.064	-0.159
-274.399	800.000	0.030	-0.093
-273.384	-38.580	0.197	-0.103
-272.370	-34.646	0.064	-0.034
-271.355	-94.804	0.236	0.063
-270.340	376.443	0.173	0.351
-269.326	420.605	0.157	0.333
-268.311	800.000	0.031	0.103
-267.297	-55.515	0.065	0.029
-266.282	-200.000	-0.012	-0.115
-265.267	-122.652	-0.338	-0.054
-264.253	577.542	0.145	0.352
-263.238	-31.082	0.092	0.052
-262.224	46.815	0.158	0.145
-261.209	16.311	-0.292	0.229
-260.195	-200.000	-0.019	0.190
-259.180	-200.000	-0.018	0.256
-258.165	800.000	0.036	0.135
-257.151	115.509	-0.152	0.185
-256.136	460.254	0.111	-0.246
-255.122	-12.747	-0.251	-0.162
-254.107	4.001	0.114	-0.083
-253.092	-78.146	-0.038	0.013
-252.078	-23.243	0.302	0.180
-251.063	800.000	0.099	0.336
-250.049	-200.000	-0.047	0.231
-249.034	6.665	-0.221	-0.163
-248.019	-157.150	0.208	-0.013
-247.005	-40.135	0.321	0.166
-245.990	-51.518	0.161	-0.074
-244.976	-72.510	-0.156	-0.057
-243.961	-141.542	-0.195	0.019
-242.946	-200.000	-0.009	0.159
-241.932	-12.838	-0.119	0.077
-240.917	-118.809	0.230	-0.040
-239.903	-183.817	0.313	0.005
-238.888	1.128	-0.034	-0.024
-237.873	-200.000	-0.022	-0.136
-236.859	445.198	0.066	-0.142
-235.844	13.863	-0.287	0.221
-234.830	800.000	0.045	0.140
-233.815	-110.973	-0.275	0.056
-232.800	121.408	0.209	0.257
-231.786	800.000	-0.137	0.395
-230.771	249.253	-0.174	-0.291
-229.757	54.735	0.255	-0.243
-228.742	7.350	-0.268	0.198
-227.727	10.460	-0.042	-0.032
-226.713	-150.328	-0.269	-0.021
-225.698	-155.844	-0.210	0.013
-224.684	137.233	0.237	-0.306
-223.669	-139.026	-0.055	-0.006
-222.655	-200.000	-0.051	0.268
-221.640	800.000	-0.075	0.277
-220.625	13.465	-0.306	-0.234
-219.611	75.378	0.101	-0.105
-218.596	271.565	0.083	-0.145
-217.582	16.236	0.380	-0.296
-216.567	49.751	-0.110	-0.103
-215.552	-91.847	0.120	0.034
-214.538	495.789	0.068	0.154
-213.523	-200.000	-0.023	-0.328
-212.509	256.889	0.206	-0.350
-211.494	348.371	-0.141	0.274
-210.479	451.101	-0.107	0.234
-209.465	-10.474	0.272	-0.178
-208.450	-31.222	-0.121	0.067
-207.436	-200.000	0.017	-0.148
-206.421	800.000	0.027	-0.078
-205.406	127.021	0.186	-0.233
-204.392	800.000	0.035	0.114
-203.377	104.812	-0.166	-0.194
-202.363	234.069	-0.063	-0.102
-201.348	800.000	0.129	-0.499
-200.333	-98.703	0.387	0.097
-199.319	-200.000	0.032	-0.175
-198.304	800.000	0.051	0.190
-197.290	800.000	-0.095	-0.337
-196.275	54.100	-0.145	0.138
-195.260	-16.690	0.159	-0.100
-194.246	101.932	0.203	-0.234
-193.231	-112.837	-0.264	-0.052
-192.217	41.091	0.207	-0.185
-191.202	157.456	0.196	0.267
-190.187	466.991	0.136	-0.302
-189.173	-54.983	-0.152	0.068
-188.158	-36.842	0.187	-0.099
-187.144	64.516	0.183	0.182
-186.129	209.198	0.144	-0.222
-185.114	467.548	0.105	-0.232
-184.100	-25.893	0.244	0.142
-183.085	-200.000	-0.030	0.258
-182.071	-38.784	-0.049	-0.026
-181.056	-200.000	0.077	-0.426
-180.042	-120.554	-0.328	-0.055
-179.027	24.207	-0.134	0.109
-178.012	-174.361	-0.310	0.009
-176.998	-80.148	0.281	0.093
-175.983	42.989	-0.080	0.072
-174.969	-98.886	-0.181	-0.045
-173.954	800.000	-0.026	0.073
-172.939	-107.930	-0.081	-0.017
-171.925	134.947	0.152	0.194
-170.910	506.277	-0.030	-0.068
-169.896	67.818	0.205	0.207
-168.881	-200.000	0.009	-0.306
-167.866	176.528	-0.103	-0.148
-166.852	82.115	0.080	0.085
-165.837	-200.000	-0.002	0.087
-164.823	81.734	-0.203	0.217
-163.808	-99.675	-0.334	-0.083
-162.793	-68.416	-0.341	0.131
-161.779	-66.679	0.225	0.088
-160.764	408.877	0.043	0.089
-159.750	-168.565	0.384	-0.014
-158.735	92.217	0.179	-0.199
-157.720	800.000	0.109	0.340
-156.706	-66.045	0.301	0.119
-155.691	-72.380	0.248	-0.091
-154.677	-200.000	0.002	0.106
-153.662	-98.458	0.206	0.052
-152.647	-200.000	0.001	0.044
-151.633	-31.995	-0.089	-0.049
-150.618	-19.494	0.212	-0.130
-149.604	-23.584	-0.192	0.113
-148.589	27.088	-0.142	0.118
-147.574	11.822	0.280	0.212
-146.560	-133.564	0.217	-0.027
-145.545	-80.117	0.108	0.036
-144.531	63.214	-0.147	0.145
-143.516	-172.725	0.132	0.004
-142.502	784.897	0.078	0.210
-141.487	-160.831	-0.306	-0.016
-140.472	463.750	0.054	-0.119
-139.458	50.627	-0.189	0.176
-138.443	-140.467	-0.505	0.052
-137.429	-200.000	-0.021	0.278
-136.414	123.736	-0.068	0.085
-135.399	-86.940	0.192	-0.058
-134.385	230.174	0.075	0.120
-133.370	209.326	0.068	0.105
-132.356	800.000	-0.015	-0.054
-131.341	-74.331	0.185	0.066
-130.326	-69.699	0.228	-0.086
-129.312	-144.807	0.017	0.002
-128.297	300.256	0.095	0.173
-127.283	-37.214	-0.087	-0.046
-126.268	-116.694	-0.523	0.095
-125.253	-200.000	-0.058	0.344
-124.239	-147.542	-0.215	-0.018
-123.224	69.365	0.165	-0.167
-122.210	-200.000	0.005	0.047
