DTS Sentinel unit serial number:	SN413079Multiplexer serial number:	ORYXHardware model number:	OX4-SRSoftware version number:	ORYX F/W v4.00 Oryx Data Collector v3.7.2.0data status	okinstallation	princeton_trtdifferential loss correction	single-endedforward channel	channel 4reverse channel	N/Adate	2019/09/19time	06:49:35forward acquisition time	60.00reverse acquisition time	0.00gamma	496.2192k internal	0.2340k external	0.2340temperature offset calibration	1.0026default loss term (dB/km)	0.3790temperature slope calibration	1.0000multiplexer offset coefficient	1.0000multiplexer slope coefficient	1.0000fibre end	0.00T internal ref (°C)	19.00T ext. ref 1 (°C)	0.56T ext. ref 2 (°C)	12.74length (m)	temperature (°C)	Stokes	anti-Stokes-747.200	-50.079	-0.160	0.076
-746.185	-200.000	0.117	0.000
-745.171	-167.670	0.181	-0.007
-744.156	800.000	-0.064	0.239
-743.142	370.249	0.088	-0.179
-742.127	48.894	0.140	0.131
-741.112	-117.260	-0.139	-0.025
-740.098	288.930	0.043	0.079
-739.083	-200.000	-0.054	-0.275
-738.069	94.935	0.354	-0.403
-737.054	65.559	0.171	-0.174
-736.039	86.132	-0.183	-0.201
-735.025	-11.463	-0.134	0.088
-734.010	-72.071	-0.282	0.105
-732.996	294.534	-0.126	0.231
-731.981	-158.851	0.157	-0.009
-730.966	-200.000	-0.060	0.415
-729.952	-200.000	-0.064	0.294
-728.937	-200.000	0.016	-0.168
-727.923	-85.240	-0.293	0.092
-726.908	-200.000	0.041	-0.292
-725.894	-200.000	-0.074	-0.465
-724.879	800.000	0.037	-0.102
-723.864	-99.063	-0.102	-0.026
-722.850	-91.874	-0.084	0.024
-721.835	800.000	-0.122	-0.499
-720.821	-181.209	0.392	-0.008
-719.806	177.719	-0.144	0.210
-718.791	268.100	-0.176	-0.309
-717.777	176.887	0.165	-0.240
-716.762	5.532	-0.093	0.069
-715.748	-200.000	-0.022	0.416
-714.733	32.240	0.297	0.257
-713.718	-101.495	0.138	0.034
-712.704	338.474	0.174	-0.338
-711.689	21.749	-0.229	-0.187
-710.675	800.000	-0.098	0.333
-709.660	-16.830	0.248	-0.157
-708.645	-200.000	0.006	0.183
-707.631	235.658	0.114	0.188
-706.616	501.676	-0.093	0.215
-705.602	81.378	-0.047	0.051
-704.587	-9.862	-0.460	-0.307
-703.572	-200.000	0.028	-0.212
-702.558	-12.178	-0.126	-0.083
-701.543	-129.623	-0.222	-0.031
-700.529	25.613	-0.160	0.133
-699.514	-200.000	0.014	0.162
-698.499	-154.741	0.341	-0.023
-697.485	-91.599	-0.287	-0.082
-696.470	-200.000	-0.008	-0.098
-695.456	131.584	0.149	0.192
-694.441	-200.000	-0.025	0.217
-693.426	-67.529	0.180	-0.071
-692.412	625.017	-0.141	-0.355
-691.397	-200.000	0.042	-0.247
-690.383	-46.039	0.135	0.067
-689.368	16.422	-0.074	-0.059
-688.354	-105.227	0.373	0.085
-687.339	33.055	-0.097	0.084
-686.324	-200.000	-0.013	-0.141
-685.310	800.000	-0.043	-0.150
-684.295	102.940	-0.092	-0.108
-683.281	-200.000	0.011	-0.284
-682.266	-52.575	0.229	-0.106
-681.251	-200.000	-0.046	-0.207
-680.237	43.369	0.277	0.253
-679.222	503.674	-0.135	0.313
-678.208	268.314	-0.069	0.120
-677.193	84.138	-0.174	-0.190
-676.178	-63.485	-0.040	-0.016
-675.164	57.622	-0.174	-0.170
-674.149	-28.827	0.458	0.263
-673.135	-61.334	-0.437	0.184
-672.120	-200.000	0.015	-0.108
-671.105	-200.000	-0.030	0.239
-670.091	-52.179	0.465	-0.215
-669.076	45.669	-0.075	-0.069
-668.062	-200.000	-0.037	-0.280
-667.047	488.179	-0.051	0.116
-666.032	800.000	-0.149	-0.452
-665.018	535.017	-0.113	0.269
-664.003	175.219	-0.103	0.149
-662.989	190.724	0.133	-0.200
-661.974	-200.000	0.048	-0.289
-660.959	-19.817	0.126	-0.078
-659.945	-200.000	-0.025	-0.121
-658.930	-5.035	0.130	-0.090
-657.916	52.453	-0.280	0.267
-656.901	-24.321	-0.136	0.081
-655.886	-141.027	0.120	-0.012
-654.872	162.785	-0.191	0.267
-653.857	106.211	0.183	-0.216
-652.843	119.684	0.257	-0.319
-651.828	800.000	0.056	-0.210
-650.814	-45.395	-0.136	0.067
-649.799	1.033	0.413	0.296
-648.784	-108.237	-0.201	-0.043
-647.770	-43.842	-0.334	0.168
-646.755	-170.559	0.074	0.003
-645.741	-200.000	-0.018	0.236
-644.726	800.000	0.069	-0.198
-643.711	454.634	0.127	-0.282
-642.697	800.000	0.057	0.238
-641.682	-115.638	-0.429	-0.080
-640.668	800.000	0.084	-0.267
-639.653	486.768	0.057	-0.129
-638.638	-125.588	0.294	0.045
-637.624	242.831	-0.091	0.153
-636.609	-200.000	0.003	0.236
-635.595	34.998	0.262	0.229
-634.580	255.648	-0.057	-0.097
-633.565	-66.063	-0.106	0.042
-632.551	185.206	-0.124	-0.184
-631.536	-37.518	0.269	-0.143
-630.522	-200.000	-0.065	0.481
-629.507	-92.751	-0.142	-0.040
-628.492	-24.135	0.171	0.102
-627.478	-110.214	0.243	0.050
-626.463	97.830	0.308	0.354
-625.449	-10.587	-0.343	-0.226
-624.434	-15.143	-0.195	-0.125
-623.419	34.353	0.220	0.192
-622.405	391.272	0.106	0.220
-621.390	63.186	-0.189	0.189
-620.376	-114.460	0.342	-0.066
-619.361	-167.466	-0.280	0.011
-618.346	88.431	-0.118	0.131
-617.332	-200.000	-0.052	0.238
-616.317	800.000	-0.029	-0.085
-615.303	-59.610	-0.123	0.053
-614.288	728.031	-0.121	-0.321
-613.273	-200.000	0.013	-0.212
-612.259	-90.315	0.106	0.031
-611.244	650.914	-0.059	-0.150
-610.230	-117.734	-0.248	-0.044
-609.215	-75.177	0.137	0.049
-608.201	-160.379	-0.281	-0.015
-607.186	133.197	-0.175	-0.226
-606.171	-200.000	-0.039	-0.380
-605.157	660.647	0.069	-0.176
-604.142	48.674	-0.141	0.131
-603.128	105.427	-0.080	0.094
-602.113	29.048	-0.152	-0.129
-601.098	456.455	0.159	-0.351
-600.084	-86.175	0.227	-0.070
-599.069	-136.589	-0.431	-0.050
-598.055	243.646	-0.031	-0.053
-597.040	70.430	-0.106	0.110
-596.025	71.846	-0.177	-0.183
-595.011	-118.495	0.221	-0.039
-593.996	51.107	0.156	-0.147
-592.982	177.262	-0.203	-0.295
-591.967	-80.249	0.069	0.023
-590.952	-102.212	0.179	-0.043
-589.938	-200.000	-0.027	0.230
-588.923	39.406	0.124	0.111
-587.909	-132.666	-0.414	0.053
-586.894	69.232	0.119	0.122
-585.879	-200.000	-0.026	0.203
-584.865	-200.000	0.008	0.083
-583.850	72.161	-0.232	-0.241
-582.836	-200.000	-0.030	-0.228
-581.821	-12.337	0.150	-0.098
-580.806	-49.746	0.284	-0.134
-579.792	-101.217	-0.181	-0.044
-578.777	-132.452	-0.391	0.050
-577.763	-143.163	-0.171	0.016
-576.748	-126.402	0.331	-0.049
-575.733	-184.950	-0.148	-0.002
-574.719	32.445	0.395	0.340
-573.704	-200.000	-0.037	0.177
-572.690	30.648	-0.158	0.134
-571.675	-133.834	0.281	0.035
-570.661	-132.306	-0.370	-0.048
-569.646	142.836	0.044	-0.059
-568.631	-27.121	-0.119	-0.069
-567.617	800.000	-0.045	0.160
-566.602	754.360	-0.106	-0.286
-565.588	79.378	-0.334	-0.357
-564.573	-66.601	-0.076	-0.030
-563.558	146.790	-0.087	-0.117
-562.544	-200.000	0.077	-0.389
-561.529	-80.056	-0.351	0.117
-560.515	-97.476	0.281	0.073
-559.500	-162.609	0.431	0.021
-558.485	126.662	-0.072	0.091
-557.471	-34.531	-0.237	-0.129
-556.456	405.181	-0.121	-0.254
-555.442	-72.994	-0.129	-0.047
-554.427	33.773	0.117	0.101
-553.412	800.000	0.041	0.124
-552.398	800.000	-0.043	0.157
-551.383	-132.379	0.414	-0.053
-550.369	-92.646	0.280	-0.078
-549.354	800.000	-0.024	0.095
-548.339	800.000	0.072	-0.205
-547.325	351.756	0.108	0.213
-546.310	-143.697	-0.304	0.029
-545.296	800.000	-0.155	-0.449
-544.281	111.076	0.089	-0.107
-543.266	-14.160	0.138	0.088
-542.252	483.748	-0.020	-0.045
-541.237	-0.020	0.149	0.106
-540.223	-169.852	-0.251	-0.009
-539.208	-134.607	0.414	0.050
-538.193	-92.953	-0.213	-0.059
-537.179	-110.067	-0.272	-0.056
-536.164	800.000	-0.069	-0.245
-535.150	-200.000	0.007	0.293
-534.135	-145.807	-0.103	-0.009
-533.121	-87.312	-0.222	-0.067
-532.106	-99.152	0.081	0.020
-531.091	32.347	-0.174	-0.150
-530.077	-200.000	-0.018	0.252
-529.062	-200.000	-0.072	-0.528
-528.048	-20.864	0.122	-0.074
-527.033	-98.724	0.212	-0.054
-526.018	60.756	0.122	0.121
-525.004	-85.046	0.158	0.049
-523.989	371.870	0.064	-0.129
-522.975	30.837	-0.240	-0.204
-521.960	-18.886	-0.089	-0.055
-520.945	422.454	0.102	0.219
-519.931	257.606	0.243	-0.415
-518.916	-200.000	0.069	-0.320
-517.902	422.744	-0.121	0.258
-516.887	-200.000	0.011	-0.068
-515.872	-200.000	-0.010	0.104
-514.858	393.076	-0.086	0.178
-513.843	-22.468	0.373	0.224
-512.829	-107.377	-0.110	0.024
-511.814	672.328	0.044	0.113
-510.799	43.905	0.204	0.186
-509.785	757.029	0.021	-0.056
-508.770	367.989	-0.089	-0.179
-507.756	-200.000	-0.037	0.216
-506.741	-164.697	-0.332	0.015
-505.726	-53.163	0.136	-0.062
-504.712	5.967	-0.202	0.149
-503.697	473.924	0.089	-0.200
-502.683	-102.059	-0.149	0.036
-501.668	-200.000	0.035	-0.305
-500.653	27.829	-0.126	0.105
-499.639	236.992	0.169	0.277
-498.624	-136.078	0.339	0.040
-497.610	80.065	-0.239	-0.255
-496.595	-200.000	-0.058	-0.325
-495.581	-126.155	-0.339	0.050
-494.566	-86.004	-0.013	-0.004
-493.551	-110.476	0.341	-0.070
-492.537	-93.116	0.112	0.031
-491.522	181.300	-0.134	-0.195
-490.508	-87.673	-0.340	0.102
-489.493	-15.123	-0.166	0.105
-488.478	800.000	-0.005	-0.017
-487.464	-200.000	0.002	-0.359
-486.449	-175.892	0.233	-0.006
-485.435	-173.581	0.297	-0.009
-484.420	-143.460	0.157	0.015
-483.405	38.074	-0.257	0.227
-482.391	-200.000	-0.047	0.379
-481.376	800.000	-0.086	-0.370
-480.362	336.072	0.094	-0.181
-479.347	-155.788	0.275	-0.017
-478.332	-117.312	0.272	-0.049
-477.318	-200.000	0.016	0.145
-476.303	-200.000	0.008	0.137
-475.289	37.911	-0.006	0.006
-474.274	-140.363	-0.263	-0.027
-473.259	-53.651	-0.182	0.083
-472.245	170.358	-0.203	-0.288
-471.230	-200.000	-0.009	0.111
-470.216	-34.473	-0.079	-0.043
-469.201	-200.000	-0.014	0.334
-468.186	-88.324	-0.063	0.019
-467.172	800.000	-0.088	-0.330
-466.157	110.405	0.091	-0.109
-465.143	162.335	0.183	0.255
-464.128	113.046	-0.206	-0.248
-463.113	18.857	-0.048	0.038
-462.099	42.120	0.047	-0.042
-461.084	33.793	-0.191	-0.165
-460.070	40.449	-0.011	0.010
-459.055	-200.000	0.038	-0.218
-458.040	161.700	0.331	-0.460
-457.026	-111.994	0.198	0.040
-456.011	-68.435	0.433	-0.166
-454.997	-200.000	-0.012	-0.109
-453.982	-200.000	0.034	-0.220
-452.968	-161.228	0.160	-0.008
-451.953	-117.731	0.143	0.025
-450.938	580.979	-0.084	0.204
-449.924	-92.021	0.451	-0.127
-448.909	198.488	-0.159	-0.241
-447.895	-130.539	-0.107	-0.014
-446.880	254.212	-0.196	-0.331
-445.865	167.235	0.109	0.153
-444.851	-128.773	-0.294	0.041
-443.836	-150.799	-0.257	0.019
-442.822	1.881	-0.228	-0.163
-441.807	800.000	-0.073	0.291
-440.792	152.623	-0.056	0.076
-439.778	72.775	-0.174	0.180
-438.763	349.043	0.131	0.256
-437.749	351.680	-0.029	-0.057
-436.734	-78.656	0.195	-0.066
-435.719	-69.171	0.166	-0.063
-434.705	323.211	-0.082	-0.155
-433.690	-200.000	-0.015	0.324
-432.676	-79.528	-0.124	-0.042
-431.661	-2.636	-0.397	-0.275
-430.646	-116.872	-0.309	0.056
-429.632	-74.800	-0.309	0.110
-428.617	-99.762	0.313	0.078
-427.603	-200.000	-0.045	0.371
-426.588	-200.000	-0.035	0.000
-425.573	-149.098	-0.146	0.012
-424.559	800.000	-0.037	0.131
-423.544	113.506	0.078	-0.093
-422.530	200.469	-0.166	-0.253
-421.515	-200.000	-0.026	-0.175
-420.500	-135.765	0.292	-0.034
-419.486	800.000	-0.111	-0.340
-418.471	-23.984	0.331	0.196
-417.457	-3.568	0.155	0.107
-416.442	161.091	-0.213	0.295
-415.428	-200.000	0.008	0.175
-414.413	90.253	0.250	-0.276
-413.398	-12.122	0.200	0.130
-412.384	-26.232	0.167	-0.097
-411.369	288.551	-0.225	0.403
-410.355	800.000	-0.076	-0.218
-409.340	-37.547	-0.295	-0.156
-408.325	-118.280	0.378	-0.067
-407.311	-43.890	-0.362	-0.180
-406.296	-34.346	0.322	0.175
-405.282	159.694	0.071	-0.097
-404.267	-161.438	-0.368	-0.019
-403.252	-72.859	0.334	-0.122
-402.238	137.156	-0.194	-0.251
-401.223	-30.614	-0.172	-0.097
-400.209	-39.551	0.204	-0.106
-399.194	34.549	0.202	0.175
-398.179	-172.097	0.336	0.011
-397.165	800.000	0.078	0.266
-396.150	148.813	0.077	0.102
-395.136	205.511	-0.118	0.181
-394.121	-47.375	0.194	-0.094
-393.106	-30.627	0.171	0.096
-392.092	126.896	-0.209	-0.262
-391.077	208.031	-0.039	0.060
-390.063	800.000	-0.020	0.078
-389.048	331.476	-0.076	-0.144
-388.033	47.708	0.151	-0.140
-387.019	-162.018	0.311	-0.016
-386.004	-200.000	0.014	-0.241
-384.990	-124.078	0.339	0.053
-383.975	800.000	0.048	-0.131
-382.960	23.349	0.175	-0.142
-381.946	35.405	-0.161	0.140
-380.931	149.971	0.339	0.454
-379.917	1.448	0.013	-0.009
-378.902	-69.175	0.146	0.055
-377.888	-129.816	-0.439	0.060
-376.873	38.838	-0.052	-0.046
-375.858	-31.177	-0.285	0.159
-374.844	221.024	-0.199	-0.316
-373.829	268.898	0.080	-0.138
-372.815	-96.846	0.096	-0.025
-371.800	79.475	-0.230	0.243
-370.785	76.973	0.070	0.074
-369.771	188.944	0.172	-0.255
-368.756	601.594	-0.035	-0.085
-367.742	-16.898	0.038	0.024
-366.727	-99.710	-0.105	0.026
-365.712	135.375	0.123	0.159
-364.698	-7.235	-0.289	0.194
-363.683	-200.000	-0.305	0.000
-362.669	-117.942	0.138	0.024
-361.654	800.000	-0.041	-0.153
-360.639	800.000	0.025	-0.105
-359.625	800.000	-0.060	-0.258
-358.610	-123.553	-0.332	-0.052
-357.596	470.786	0.086	0.192
-356.581	-200.000	-0.019	0.144
-355.566	800.000	-0.087	0.276
-354.552	-200.000	-0.040	-0.294
-353.537	-24.876	-0.196	0.115
-352.523	-76.823	-0.228	0.079
-351.508	448.378	-0.041	-0.089
-350.493	-4.516	-0.066	-0.045
-349.479	-84.240	-0.299	0.094
-348.464	-59.797	0.386	0.163
-347.450	570.856	0.037	0.090
-346.435	-200.000	-0.029	0.269
-345.420	-113.047	-0.235	-0.046
-344.406	-50.774	0.060	-0.028
-343.391	166.550	-0.064	0.089
-342.377	56.135	0.144	0.138
-341.362	-24.467	-0.081	-0.048
-340.348	800.000	-0.036	0.118
-339.333	-64.757	-0.380	-0.152
-338.318	-69.103	-0.071	-0.027
-337.304	-80.365	-0.163	0.054
-336.289	-200.000	0.009	0.215
-335.275	548.459	0.019	-0.046
-334.260	576.229	0.036	0.088
-333.245	-200.000	0.028	0.162
-332.231	67.587	0.086	0.087
-331.216	40.577	0.232	0.206
-330.202	-127.929	0.297	-0.042
-329.187	115.445	0.266	0.320
-328.172	0.286	-0.185	-0.130
-327.158	-25.971	-0.073	-0.042
-326.143	205.641	-0.066	0.101
-325.129	-93.090	-0.175	0.048
-324.114	44.290	0.310	-0.281
-323.099	377.647	0.145	0.293
-322.085	-65.205	-0.126	-0.050
-321.070	-28.961	-0.325	-0.184
-320.056	53.456	-0.067	0.064
-319.041	-200.000	0.034	-0.368
-318.026	-53.978	-0.331	0.149
-317.012	-2.435	-0.121	-0.084
-315.997	-147.489	0.147	0.012
-314.983	455.515	0.087	-0.189
-313.968	95.945	0.113	-0.127
-312.953	206.882	0.212	-0.325
-311.939	97.104	0.195	-0.220
-310.924	-200.000	0.297	0.001
-309.910	614.918	-0.140	-0.345
-308.895	-200.000	0.003	-0.192
-307.880	437.383	-0.081	0.175
-306.866	187.012	-0.380	0.558
-305.851	-200.000	0.018	-0.153
-304.837	-100.194	0.107	-0.026
-303.822	-21.361	0.249	-0.150
-302.807	-16.523	0.056	-0.035
-301.793	93.203	-0.386	0.430
-300.778	-157.604	0.110	-0.006
-299.764	0.766	0.122	-0.086
-298.749	57.895	0.087	-0.084
-297.735	-74.522	0.274	0.097
-296.720	-22.819	-0.224	-0.133
-295.705	155.428	-0.016	-0.022
-294.691	800.000	0.106	0.391
-293.676	187.497	0.102	-0.150
-292.662	-143.704	0.260	-0.024
-291.647	30.334	-0.101	0.085
-290.632	-78.204	0.002	-0.001
-289.618	-200.000	-0.047	0.524
-288.603	264.352	0.016	-0.028
-287.589	149.243	-0.035	0.046
-286.574	348.337	0.080	0.156
-285.559	438.040	0.052	0.111
-284.545	-150.685	0.242	-0.018
-283.530	-69.622	0.249	0.094
-282.516	-26.291	0.227	0.131
-281.501	21.845	-0.149	-0.119
-280.486	-9.628	-0.138	0.090
-279.472	-63.643	-0.158	0.064
-278.457	100.062	-0.156	-0.178
-277.443	-126.250	0.209	0.031
-276.428	179.242	0.161	0.231
-275.413	-11.287	0.097	-0.063
-274.399	-200.000	-0.001	0.049
-273.384	-56.182	-0.081	-0.036
-272.370	127.448	0.143	0.179
-271.355	-60.940	-0.071	0.030
-270.340	-200.000	-0.013	0.068
-269.326	243.622	0.074	-0.121
-268.311	1.914	0.327	-0.232
-267.297	-94.919	-0.173	-0.046
-266.282	154.751	-0.100	0.135
-265.267	800.000	-0.048	0.137
-264.253	-11.811	-0.124	0.080
-263.238	-42.133	-0.282	-0.142
-262.224	-200.000	-0.028	0.161
-261.209	-61.423	0.259	0.107
-260.195	-128.901	-0.118	-0.016
-259.180	37.546	0.165	0.144
-258.165	117.556	0.219	0.264
-257.151	-66.796	-0.197	-0.077
-256.136	-186.652	0.303	0.004
-255.122	-22.530	0.139	0.083
-254.107	-200.000	0.040	0.206
-253.092	-21.923	-0.316	0.189
-252.078	800.000	-0.038	0.136
-251.063	62.138	0.207	0.203
-250.049	-200.000	0.033	0.185
-249.034	-200.000	0.003	0.095
-248.019	-200.000	0.005	-0.084
-247.005	195.716	0.192	-0.287
-245.990	-137.362	0.199	-0.022
-244.976	800.000	0.097	0.331
-243.961	174.363	0.221	0.314
-242.946	-60.819	0.305	0.127
-241.932	-90.162	-0.367	0.105
-240.917	-200.000	0.004	-0.242
-239.903	77.768	0.160	-0.168
-238.888	159.497	0.146	0.200
-237.873	-200.000	-0.044	-0.463
-236.859	-0.092	-0.326	0.228
-235.844	-200.000	0.036	-0.180
-234.830	73.446	0.122	-0.126
-233.815	-128.639	-0.231	-0.032
-232.800	-192.549	0.303	-0.003
-231.786	-200.000	0.025	-0.123
-230.771	159.835	0.009	-0.012
-229.757	-168.105	-0.506	0.019
-228.742	-200.000	0.056	0.263
-227.727	800.000	-0.047	-0.170
-226.713	25.762	0.164	-0.135
-225.698	800.000	0.051	-0.203
-224.684	101.498	-0.129	0.148
-223.669	432.440	-0.071	0.151
-222.655	-139.037	-0.105	0.011
-221.640	-30.660	0.171	0.095
-220.625	2.425	-0.115	-0.082
-219.611	131.029	-0.221	0.279
-218.596	-92.640	-0.281	-0.077
-217.582	91.507	-0.060	0.066
-216.567	-200.000	-0.017	-0.309
-215.552	-64.068	-0.113	-0.045
-214.538	43.568	0.038	-0.034
-213.523	-100.672	-0.362	-0.088
-212.509	-155.129	-0.355	-0.023
-211.494	23.719	-0.112	0.090
-210.479	206.713	-0.142	-0.218
-209.465	754.368	-0.037	-0.097
-208.450	-168.427	-0.049	0.002
-207.436	800.000	0.045	0.163
-206.421	-200.000	0.040	-0.260
-205.406	43.447	0.088	0.079
-204.392	-26.752	0.269	0.154
-203.377	-2.508	0.411	0.282
-202.363	-200.000	0.026	0.126
-201.348	245.700	-0.112	0.185
-200.333	337.088	-0.101	-0.193
-199.319	-145.753	0.159	-0.014
-198.304	137.021	-0.186	0.239
-197.290	131.513	0.031	0.039
-196.275	800.000	-0.015	0.062
-195.260	-200.000	-0.015	0.119
-194.246	-143.018	-0.373	-0.035
-193.231	47.733	0.192	0.176
-192.217	-200.000	0.006	-0.128
-191.202	-23.028	0.224	0.132
-190.187	-200.000	-0.029	0.133
-189.173	-200.000	0.024	0.193
-188.158	60.615	-0.230	-0.223
-187.144	165.726	0.098	-0.137
-186.129	-26.398	-0.120	-0.069
-185.114	-126.971	0.303	-0.044
-184.100	800.000	0.075	0.224
-183.085	-78.738	0.136	0.045
-182.071	226.405	0.120	-0.191
-181.056	-46.681	-0.350	-0.168
-180.042	384.664	0.090	-0.182
-179.027	112.397	-0.066	0.078
-178.012	-16.270	0.221	-0.138
-176.998	114.347	-0.161	-0.193
-175.983	27.991	0.157	0.130
-174.969	-68.396	0.170	0.065
-173.954	-12.458	0.120	0.077
-172.939	800.000	0.034	-0.137
-171.925	800.000	0.018	0.072
-170.910	448.801	0.116	0.251
-169.896	-39.041	-0.167	0.086
-168.881	534.913	0.074	0.173
-167.866	147.408	0.125	-0.164
-166.852	513.715	-0.097	0.222
-165.837	219.539	0.277	-0.434
-164.823	-63.801	-0.320	-0.128
-163.808	800.000	0.062	0.247
-162.793	-43.147	0.325	-0.161
-161.779	-122.199	0.220	0.035
-160.764	356.473	-0.161	-0.315
-159.750	-95.630	0.095	0.025
-158.735	-122.856	0.123	0.019
-157.720	41.718	0.175	0.156
-156.706	-200.000	0.026	0.192
-155.691	13.534	-0.133	-0.101
-154.677	123.890	0.115	0.141
-153.662	800.000	-0.023	0.087
-152.647	23.684	0.131	0.106
-151.633	19.259	-0.121	-0.095
-150.618	-200.000	-0.061	-0.422
-149.604	13.564	-0.087	-0.066
-148.589	-155.564	0.267	0.017
-147.574	-200.000	0.374	-0.001
-146.560	590.136	-0.161	-0.389
-145.545	-121.368	-0.287	0.047
-144.531	-200.000	0.033	0.187
-143.516	-90.526	-0.310	-0.088
-142.502	-200.000	0.048	0.256
-141.487	-200.000	0.001	-0.034
-140.472	-144.031	-0.388	-0.036
-139.458	-21.159	-0.075	-0.045
-138.443	-129.551	0.059	-0.008
-137.429	800.000	0.040	0.138
-136.414	59.666	-0.170	-0.164
-135.399	-64.803	-0.117	0.046
-134.385	-200.000	-0.036	-0.255
-133.370	-56.194	0.388	0.169
-132.356	293.820	-0.156	0.279
-131.341	487.945	0.108	-0.241
-130.326	2.320	0.020	0.014
-129.312	632.039	-0.094	0.232
-128.297	-7.263	-0.253	-0.168
-127.283	-122.946	0.194	-0.030
-126.268	-47.576	0.175	0.083
-125.253	-200.000	-0.034	0.191
-124.239	800.000	0.053	-0.147
-123.224	-200.000	-0.034	0.201
-122.210	-67.625	0.414	0.159
