DTS Sentinel unit serial number:	SN413079Multiplexer serial number:	ORYXHardware model number:	OX4-SRSoftware version number:	ORYX F/W v4.00 Oryx Data Collector v3.7.2.0data status	okinstallation	princeton_trtdifferential loss correction	single-endedforward channel	channel 4reverse channel	N/Adate	2019/09/14time	14:21:35forward acquisition time	60.00reverse acquisition time	0.00gamma	496.2192k internal	0.2289k external	0.2289temperature offset calibration	1.0147default loss term (dB/km)	0.3790temperature slope calibration	1.0000multiplexer offset coefficient	1.0000multiplexer slope coefficient	1.0000fibre end	0.00T internal ref (°C)	38.89T ext. ref 1 (°C)	5.10T ext. ref 2 (°C)	35.94length (m)	temperature (°C)	Stokes	anti-Stokes-747.200	-200.000	-0.010	0.199
-746.185	-16.910	0.353	-0.229
-745.171	-100.549	0.130	0.033
-744.156	-200.000	-0.004	0.141
-743.142	-103.595	-0.221	-0.053
-742.127	-200.000	-0.055	0.291
-741.112	91.371	0.053	-0.061
-740.098	353.818	0.239	0.486
-739.083	-69.309	-0.293	0.115
-738.069	-200.000	-0.088	0.418
-737.054	-53.664	-0.193	0.090
-736.039	-200.000	0.012	0.179
-735.025	-138.285	0.381	0.043
-734.010	-41.885	0.278	-0.146
-732.996	44.225	-0.270	-0.254
-731.981	86.025	0.046	-0.052
-730.966	59.152	0.239	0.241
-729.952	800.000	0.036	-0.107
-728.937	-122.181	0.145	0.024
-727.923	-200.000	-0.029	-0.198
-726.908	-73.979	-0.104	0.039
-725.894	-172.249	-0.020	0.001
-724.879	82.604	-0.034	-0.038
-723.864	-102.212	0.112	-0.028
-722.850	-70.568	-0.215	-0.083
-721.835	-165.642	0.149	0.007
-720.821	57.539	-0.163	-0.163
-719.806	-200.000	-0.015	0.289
-718.791	546.955	-0.075	0.183
-717.777	148.001	-0.064	-0.088
-716.762	49.399	0.073	-0.070
-715.748	58.654	-0.141	-0.142
-714.733	54.774	0.109	-0.107
-713.718	104.194	0.151	0.182
-712.704	80.873	-0.018	-0.020
-711.689	-172.304	0.084	0.003
-710.675	2.196	0.104	0.077
-709.660	87.491	-0.132	-0.149
-708.645	-200.000	0.038	0.192
-707.631	-200.000	0.009	0.333
-706.616	-177.861	0.134	0.003
-705.602	-182.215	0.407	0.008
-704.587	-12.100	-0.117	0.079
-703.572	-46.544	0.170	-0.086
-702.558	-200.000	0.004	-0.384
-701.543	238.266	0.031	-0.053
-700.529	-45.525	-0.252	0.128
-699.514	-88.050	-0.271	-0.083
-698.499	-149.721	0.266	0.021
-697.485	74.988	0.162	-0.175
-696.470	-174.392	0.066	0.002
-695.456	-200.000	0.016	-0.188
-694.441	-126.157	-0.258	-0.040
-693.426	524.587	0.134	-0.322
-692.412	-200.000	0.006	-0.206
-691.397	-200.000	0.009	-0.340
-690.383	-200.000	0.003	0.098
-689.368	-14.521	-0.271	0.179
-688.354	-200.000	0.004	0.180
-687.339	15.495	0.241	-0.194
-686.324	-200.000	-0.060	0.376
-685.310	-200.000	-0.025	0.138
-684.295	-8.467	-0.142	-0.098
-683.281	356.909	-0.100	-0.204
-682.266	-89.171	-0.184	0.056
-681.251	-88.729	-0.133	0.040
-680.237	344.860	0.055	0.110
-679.222	274.894	-0.061	-0.111
-678.208	800.000	0.033	0.122
-677.193	24.224	0.179	0.151
-676.178	47.328	-0.366	0.349
-675.164	-138.941	-0.117	-0.013
-674.149	-50.977	0.212	0.102
-673.135	-64.707	-0.094	-0.039
-672.120	-51.698	-0.124	-0.059
-671.105	133.806	-0.104	0.138
-670.091	-63.807	0.243	0.102
-669.076	-50.035	0.188	0.091
-668.062	-134.461	-0.120	-0.015
-667.047	-107.495	0.305	-0.068
-666.032	-4.916	-0.137	-0.096
-665.018	144.291	-0.439	-0.599
-664.003	-134.789	0.212	0.026
-662.989	-69.065	0.173	-0.068
-661.974	280.281	0.054	-0.099
-660.959	119.047	0.220	-0.278
-659.945	651.868	0.111	0.291
-658.930	207.630	0.152	0.243
-657.916	-99.433	-0.213	0.055
-656.901	732.511	-0.116	0.318
-655.886	701.122	0.090	0.242
-654.872	2.976	0.078	0.058
-653.857	-200.000	0.026	0.578
-652.843	-64.047	-0.157	-0.065
-651.828	328.711	-0.131	-0.257
-650.814	242.063	-0.152	0.260
-649.799	29.516	0.088	0.076
-648.784	-200.000	0.001	0.102
-647.770	800.000	-0.051	-0.227
-646.755	800.000	-0.105	0.322
-645.741	-169.491	-0.112	0.004
-644.726	33.404	0.158	-0.140
-643.711	21.769	0.182	-0.152
-642.697	43.234	-0.087	-0.081
-641.682	210.380	-0.044	0.070
-640.668	6.410	0.065	-0.049
-639.653	-115.242	-0.380	0.073
-638.638	-124.222	-0.350	0.056
-637.624	288.321	-0.015	0.027
-636.609	2.919	-0.251	0.186
-635.595	-156.413	0.079	-0.005
-634.580	92.143	0.351	-0.404
-633.565	19.329	0.217	0.178
-632.551	305.196	-0.106	-0.200
-631.536	-200.000	-0.006	-0.099
-630.522	371.759	-0.045	-0.094
-629.507	-15.435	0.325	-0.212
-628.492	800.000	0.083	-0.256
-627.478	-21.951	-0.103	-0.064
-626.463	146.397	-0.072	0.098
-625.449	-100.532	0.243	0.061
-624.434	800.000	0.056	-0.240
-623.419	248.494	0.082	-0.142
-622.405	17.921	-0.088	-0.071
-621.390	74.516	0.300	0.321
-620.376	51.425	0.220	0.213
-619.361	749.750	-0.034	-0.093
-618.346	-66.041	0.094	-0.038
-617.332	436.929	0.229	-0.509
-616.317	224.824	-0.152	-0.250
-615.303	-23.667	0.088	-0.054
-614.288	123.947	-0.282	0.362
-613.273	215.644	-0.054	-0.088
-612.259	-153.110	0.138	0.010
-611.244	-62.310	-0.066	0.028
-610.230	-76.902	0.182	-0.065
-609.215	453.000	-0.070	-0.158
-608.201	259.816	-0.250	-0.440
-607.186	3.536	0.103	0.076
-606.171	-200.000	0.032	-0.289
-605.157	-58.585	-0.364	0.161
-604.142	-107.460	-0.307	-0.069
-603.128	-55.310	-0.013	-0.006
-602.113	-85.503	-0.166	-0.053
-601.098	144.464	-0.112	-0.152
-600.084	57.679	0.303	0.302
-599.069	609.786	0.178	-0.454
-598.055	-200.000	-0.019	-0.129
-597.040	-116.184	-0.330	0.062
-596.025	44.555	0.173	0.162
-595.011	-77.649	0.139	0.049
-593.996	-21.927	-0.183	-0.113
-592.982	800.000	-0.049	-0.207
-591.967	-200.000	0.019	-0.197
-590.952	-74.534	-0.232	-0.085
-589.938	-200.000	-0.005	0.395
-588.923	-44.338	0.215	-0.109
-587.909	-174.899	0.392	0.011
-586.894	467.671	0.152	-0.348
-585.879	664.817	-0.118	-0.309
-584.865	800.000	-0.028	0.105
-583.850	177.486	-0.165	-0.245
-582.836	-102.350	0.304	0.074
-581.821	156.491	0.149	-0.210
-580.806	-126.165	0.068	-0.010
-579.792	-70.738	-0.216	-0.083
-578.777	-14.221	0.166	0.109
-577.763	800.000	0.053	0.184
-576.748	-190.036	-0.328	0.004
-575.733	446.106	0.120	0.268
-574.719	-152.460	0.285	0.021
-573.704	-39.403	-0.159	0.085
-572.690	124.635	-0.192	-0.246
-571.675	-31.372	0.345	0.198
-570.661	-73.491	-0.367	0.136
-569.646	-119.846	-0.553	-0.097
-568.631	-124.316	-0.288	0.046
-567.617	-66.634	0.232	0.094
-566.602	-57.651	-0.041	-0.018
-565.588	-200.000	0.022	-0.164
-564.573	-61.646	-0.290	0.124
-563.558	-171.449	0.326	0.011
-562.544	82.072	-0.165	-0.182
-561.529	800.000	-0.068	-0.217
-560.515	95.836	-0.126	-0.147
-559.500	-67.485	0.087	0.035
-558.485	180.357	0.069	-0.102
-557.471	292.237	-0.162	-0.301
-556.456	-200.000	-0.044	0.257
-555.442	350.548	0.090	0.180
-554.427	261.536	0.090	-0.159
-553.412	450.117	0.136	0.305
-552.398	28.805	0.180	-0.155
-551.383	-162.883	-0.343	-0.017
-550.369	-200.000	-0.015	0.412
-549.354	800.000	-0.044	-0.161
-548.339	5.847	-0.223	-0.168
-547.325	409.601	-0.080	0.173
-546.310	67.463	-0.280	0.290
-545.296	19.020	0.321	-0.261
-544.281	-4.729	0.151	0.106
-543.266	800.000	0.031	0.117
-542.252	-200.000	0.020	0.247
-541.237	-179.794	0.390	-0.009
-540.223	105.735	0.108	0.130
-539.208	-157.417	-0.299	-0.018
-538.193	430.174	-0.099	-0.218
-537.179	-84.235	0.098	0.032
-536.164	279.933	0.026	-0.047
-535.150	-166.274	0.106	-0.005
-534.135	18.613	-0.243	0.197
-533.121	145.713	0.104	-0.142
-532.106	213.035	0.229	0.367
-531.091	-116.717	0.275	0.051
-530.077	-28.112	0.209	-0.123
-529.062	201.796	0.128	0.201
-528.048	-108.273	0.350	0.077
-527.033	-200.000	0.061	0.473
-526.018	-200.000	0.005	-0.270
-525.004	-32.415	-0.296	0.168
-523.989	191.354	-0.076	0.117
-522.975	-2.815	-0.169	0.120
-521.960	-200.000	-0.007	-0.479
-520.945	-68.647	-0.080	-0.032
-519.931	-200.000	-0.012	-0.111
-518.916	-5.096	-0.119	-0.083
-517.902	-146.422	-0.149	0.013
-516.887	-92.690	-0.240	0.068
-515.872	-200.000	-0.028	-0.275
-514.858	58.751	-0.135	-0.134
-513.843	173.067	0.094	0.138
-512.829	-16.538	0.207	0.133
-511.814	121.216	0.136	-0.172
-510.799	-63.334	0.435	0.182
-509.785	-19.602	-0.381	0.239
-508.770	-200.000	0.005	0.122
-507.756	-60.145	0.271	0.117
-506.741	178.977	-0.141	-0.209
-505.726	29.189	-0.374	0.322
-504.712	-50.336	-0.068	0.032
-503.697	102.952	0.161	-0.191
-502.683	-124.891	-0.047	-0.007
-501.668	326.947	0.105	0.205
-500.653	745.110	0.030	0.083
-499.639	-102.353	0.363	0.088
-498.624	-58.199	-0.185	-0.082
-497.610	134.313	0.293	-0.385
-496.595	-156.901	-0.080	-0.005
-495.581	-49.647	0.276	0.133
-494.566	-34.019	-0.188	0.105
-493.551	-169.518	0.236	-0.009
-492.537	800.000	-0.059	0.166
-491.522	37.378	0.066	-0.060
-490.508	-86.657	-0.114	0.035
-489.493	-200.000	-0.011	-0.210
-488.478	-200.000	-0.028	0.331
-487.464	-106.971	0.375	0.084
-486.449	-149.216	0.083	0.007
-485.435	-200.000	0.193	0.001
-484.420	311.438	0.054	0.103
-483.405	800.000	-0.027	0.098
-482.391	-8.223	0.128	-0.087
-481.376	-1.671	0.160	0.114
-480.362	-57.336	-0.279	-0.124
-479.347	-200.000	-0.053	0.288
-478.332	-71.575	-0.328	0.124
-477.318	21.676	-0.029	-0.024
-476.303	-200.000	-0.012	-0.440
-475.289	-177.497	0.071	-0.002
-474.274	2.419	-0.160	-0.117
-473.259	98.005	0.277	0.324
-472.245	554.571	-0.053	-0.128
-471.230	-200.000	0.001	0.143
-470.216	230.024	0.078	0.129
-469.201	-200.000	0.011	-0.244
-468.186	-200.000	-0.000	0.154
-467.172	214.791	-0.097	0.156
-466.157	-116.448	-0.146	0.027
-465.143	40.381	0.300	-0.274
-464.128	216.455	0.081	-0.131
-463.113	800.000	-0.031	-0.139
-462.099	-200.000	0.056	0.322
-461.084	-200.000	0.049	-0.289
-460.070	157.236	0.096	0.135
-459.055	479.080	-0.062	-0.143
-458.040	610.039	0.071	0.180
-457.026	275.885	-0.063	0.113
-456.011	-200.000	-0.030	0.321
-454.997	-158.605	-0.061	0.004
-453.982	106.179	0.301	-0.362
-452.968	23.928	-0.101	0.084
-451.953	5.131	0.253	-0.189
-450.938	-98.828	0.046	-0.012
-449.924	155.236	0.193	-0.269
-448.909	98.783	-0.113	-0.132
-447.895	-200.000	0.009	-0.283
-446.880	706.926	-0.062	-0.165
-445.865	402.522	-0.041	-0.087
-444.851	28.624	0.236	0.202
-443.836	558.204	-0.089	0.217
-442.822	102.585	0.183	-0.217
-441.807	-200.000	0.077	-0.395
-440.792	318.123	-0.137	0.262
-439.778	800.000	-0.060	-0.265
-438.763	-198.399	-0.175	-0.001
-437.749	-90.871	0.195	-0.057
-436.734	800.000	-0.047	-0.148
-435.719	-41.471	-0.080	0.041
-434.705	172.064	-0.172	0.251
-433.690	-108.266	0.205	-0.045
-432.676	-200.000	-0.008	0.113
-431.661	-98.205	0.276	0.072
-430.646	-200.000	0.051	0.230
-429.632	-157.390	-0.240	0.015
-428.617	357.374	0.195	-0.394
-427.603	-10.266	0.248	-0.167
-426.588	-200.000	-0.023	0.316
-425.573	-112.108	-0.067	0.014
-424.559	-1.233	-0.217	0.155
-423.544	40.647	-0.076	0.069
-422.530	-200.000	-0.138	0.660
-421.515	-163.973	-0.474	0.022
-420.500	71.272	0.211	-0.222
-419.486	-128.107	0.419	-0.061
-418.471	111.472	-0.122	0.149
-417.457	-145.481	-0.164	-0.015
-416.442	166.207	0.110	0.157
-415.428	65.891	-0.064	-0.066
-414.413	-200.000	0.011	-0.063
-413.398	-200.000	-0.007	0.102
-412.384	363.599	0.228	0.464
-411.369	-200.000	0.003	0.022
-410.355	-15.432	0.083	0.054
-409.340	59.170	0.214	-0.213
-408.325	-81.566	0.075	-0.025
-407.311	166.802	-0.145	-0.209
-406.296	133.019	-0.256	-0.334
-405.282	800.000	0.090	-0.257
-404.267	133.054	0.136	0.178
-403.252	-200.000	-0.004	0.075
-402.238	11.050	-0.109	-0.084
-401.223	-109.902	-0.102	-0.022
-400.209	-200.000	-0.000	-0.004
-399.194	800.000	-0.079	0.284
-398.179	-55.707	0.054	0.024
-397.165	49.680	0.263	-0.251
-396.150	-138.189	-0.105	0.012
-395.136	60.264	-0.286	-0.286
-394.121	23.369	-0.137	-0.114
-393.106	183.721	0.120	-0.179
-392.092	-165.123	0.159	0.007
-391.077	-200.000	0.057	-0.325
-390.063	266.717	0.174	-0.307
-389.048	-65.747	-0.134	0.054
-388.033	800.000	0.051	0.155
-387.019	-71.962	0.367	-0.138
-386.004	55.106	-0.235	0.230
-384.990	-200.000	0.022	-0.222
-383.975	-147.233	-0.209	0.018
-382.960	171.510	-0.174	0.253
-381.946	-200.000	-0.024	0.144
-380.931	310.485	-0.088	0.167
-379.917	64.861	0.179	-0.182
-378.902	-58.714	-0.228	-0.100
-377.888	-42.593	-0.180	0.092
-376.873	49.643	-0.064	0.061
-375.858	-75.454	-0.242	0.087
-374.844	-73.537	-0.054	-0.020
-373.829	213.272	0.076	0.121
-372.815	-200.000	0.037	0.242
-371.800	-36.368	0.115	-0.063
-370.785	61.705	0.290	-0.292
-369.771	189.480	-0.178	0.270
-368.756	-176.703	-0.078	-0.002
-367.742	123.088	-0.041	-0.051
-366.727	-28.901	0.121	-0.070
-365.712	-200.000	0.018	0.357
-364.698	40.365	0.280	-0.255
-363.683	9.786	0.124	0.095
-362.669	101.209	-0.226	-0.266
-361.654	-200.000	-0.018	0.294
-360.639	158.491	-0.049	-0.068
-359.625	108.931	0.170	0.205
-358.610	450.974	-0.085	0.189
-357.596	407.567	0.119	-0.254
-356.581	-180.418	0.414	-0.009
-355.566	360.265	-0.049	0.098
-354.552	-132.923	0.123	0.016
-353.537	15.601	-0.163	-0.129
-352.523	-5.801	-0.226	-0.156
-351.508	-163.628	0.236	-0.011
-350.493	180.749	0.078	0.116
-349.479	496.484	0.075	-0.173
-348.464	-28.983	-0.103	0.060
-347.450	39.119	-0.074	-0.066
-346.435	800.000	-0.052	0.153
-345.420	19.962	-0.206	-0.168
-344.406	800.000	-0.058	-0.184
-343.391	-200.000	-0.013	0.149
-342.377	-200.000	-0.002	-0.039
-341.362	33.818	-0.252	-0.221
-340.348	133.754	0.031	-0.040
-339.333	279.404	0.087	-0.156
-338.318	572.051	0.191	-0.471
-337.304	-60.121	0.078	-0.034
-336.289	-200.000	-0.004	-0.236
-335.275	598.861	-0.056	0.141
-334.260	-18.934	-0.194	-0.121
-333.245	-200.000	0.024	-0.123
-332.231	-200.000	-0.067	0.318
-331.216	800.000	0.059	-0.251
-330.202	800.000	0.042	0.125
-329.187	-80.087	0.163	-0.055
-328.172	-98.280	-0.180	0.047
-327.158	-64.788	-0.229	-0.093
-326.143	-18.014	0.297	0.188
-325.129	129.699	0.055	-0.071
-324.114	-128.282	-0.413	-0.059
-323.099	-164.851	0.171	0.008
-322.085	101.631	-0.145	0.170
-321.070	7.380	0.118	0.089
-320.056	-200.000	-0.005	-0.038
-319.041	-95.953	0.116	0.031
-318.026	53.515	-0.210	0.203
-317.012	72.827	-0.232	0.244
-315.997	76.751	-0.135	0.144
-314.983	485.535	-0.143	0.329
-313.968	-200.000	0.061	0.360
-312.953	118.851	0.246	-0.306
-311.939	150.180	0.040	0.055
-310.924	800.000	-0.014	-0.057
-309.910	286.758	-0.153	-0.278
-308.895	-77.696	-0.095	-0.033
-307.880	6.154	-0.401	0.300
-306.866	-131.001	-0.173	0.023
-305.851	-188.467	-0.053	-0.001
-304.837	114.926	-0.166	0.205
-303.822	-90.657	-0.235	-0.068
-302.807	-117.786	-0.196	0.035
-301.793	37.519	0.062	-0.055
-300.778	-60.615	-0.228	-0.098
-299.764	-69.782	0.288	-0.111
-298.749	-140.444	-0.236	-0.025
-297.735	-114.542	-0.178	-0.034
-296.720	-174.520	-0.330	0.010
-295.705	-75.042	0.308	-0.111
-294.691	-10.309	-0.004	-0.002
-293.676	-109.566	0.102	-0.022
-292.662	426.118	-0.120	-0.260
-291.647	82.269	-0.148	0.162
-290.632	23.670	-0.253	0.210
-289.618	-96.510	0.381	-0.101
-288.603	-0.962	-0.114	-0.081
-287.589	-17.217	0.234	-0.149
-286.574	-200.000	0.057	-0.353
-285.559	-132.556	0.310	-0.040
-284.545	-170.988	-0.077	-0.003
-283.530	189.777	-0.111	-0.168
-282.516	7.780	-0.297	0.224
-281.501	200.369	0.097	-0.151
-280.486	-200.000	0.020	-0.571
-279.472	50.744	-0.050	-0.048
-278.457	253.430	-0.142	-0.243
-277.443	-51.797	0.292	0.137
-276.428	-125.681	-0.153	0.023
-275.413	13.357	-0.138	0.107
-274.399	-65.185	0.134	0.054
-273.384	-14.204	-0.180	0.117
-272.370	124.030	0.288	-0.365
-271.355	-34.844	0.056	-0.031
-270.340	20.758	0.147	-0.119
-269.326	-54.951	-0.238	-0.108
-268.311	-17.819	0.200	-0.126
-267.297	107.523	0.123	-0.148
-266.282	800.000	-0.102	-0.317
-265.267	496.874	0.073	-0.170
-264.253	-200.000	0.013	-0.135
-263.238	-12.050	0.303	0.199
-262.224	309.340	0.028	-0.053
-261.209	-42.550	-0.112	0.057
-260.195	-200.000	0.032	0.450
-259.180	-200.000	-0.066	0.392
-258.165	-74.798	-0.058	0.021
-257.151	24.722	-0.291	-0.242
-256.136	51.173	0.028	0.027
-255.122	-5.007	-0.315	0.218
-254.107	800.000	-0.068	0.214
-253.092	-200.000	0.009	-0.067
-252.078	-200.000	0.039	-0.395
-251.063	-144.635	-0.105	0.010
-250.049	-200.000	-0.004	0.244
-249.034	333.832	-0.084	0.163
-248.019	144.822	-0.161	-0.216
-247.005	-91.978	0.083	0.024
-245.990	154.848	-0.063	0.088
-244.976	6.980	-0.039	-0.029
-243.961	151.482	0.185	0.253
-242.946	-133.036	-0.432	-0.055
-241.932	800.000	0.065	-0.231
-240.917	-42.326	0.081	0.042
-239.903	-41.489	-0.172	-0.089
-238.888	-200.000	-0.034	-0.149
-237.873	-163.044	-0.303	0.015
-236.859	459.502	0.104	-0.232
-235.844	-55.282	0.386	-0.174
-234.830	-122.162	0.243	-0.040
-233.815	-147.872	0.299	0.025
-232.800	800.000	0.037	-0.150
-231.786	-200.000	-0.003	-0.264
-230.771	692.263	-0.077	0.204
-229.757	800.000	0.139	0.428
-228.742	-21.255	0.160	0.098
-227.727	-122.426	0.296	-0.048
-226.713	12.054	0.299	0.231
-225.698	-177.208	0.154	-0.004
-224.684	27.005	0.274	0.231
-223.669	-200.000	0.010	0.157
-222.655	150.922	0.109	-0.149
-221.640	-167.486	0.140	-0.006
-220.625	-136.975	-0.348	0.040
-219.611	-200.000	-0.018	-0.201
-218.596	-53.498	-0.068	-0.031
-217.582	30.238	-0.222	0.191
-216.567	-200.000	0.002	0.122
-215.552	76.393	0.170	-0.181
-214.538	-143.356	0.075	-0.007
-213.523	800.000	0.022	0.072
-212.509	146.882	0.048	0.065
-211.494	357.186	-0.069	0.138
-210.479	-200.000	-0.053	0.267
-209.465	96.252	-0.197	0.226
-208.450	-2.874	0.275	0.193
-207.436	-200.000	0.023	-0.263
-206.421	-144.452	-0.376	-0.035
-205.406	800.000	-0.077	0.326
-204.392	-95.454	0.064	0.017
-203.377	800.000	-0.071	0.257
-202.363	-99.112	0.492	0.125
-201.348	-200.000	-0.023	0.284
-200.333	-200.000	0.040	0.218
-199.319	72.833	0.031	-0.033
-198.304	536.988	-0.091	0.218
-197.290	-24.913	-0.435	0.259
-196.275	-10.017	-0.213	0.142
-195.260	-65.442	0.279	-0.112
-194.246	-62.721	0.236	-0.098
-193.231	-106.144	0.431	-0.097
-192.217	163.995	-0.181	0.256
-191.202	326.587	0.150	-0.289
-190.187	-60.135	-0.207	0.088
-189.173	74.318	-0.224	0.236
-188.158	527.527	-0.140	0.331
-187.144	-4.813	-0.204	0.141
-186.129	-39.472	0.231	-0.121
-185.114	-105.124	-0.158	0.036
-184.100	18.043	0.090	-0.072
-183.085	-200.000	0.045	0.288
-182.071	-41.592	-0.042	0.021
-181.056	-26.061	0.207	-0.122
-180.042	-0.210	-0.302	0.215
-179.027	-123.295	-0.386	0.062
-178.012	36.311	0.254	-0.225
-176.998	86.963	-0.174	-0.192
-175.983	256.019	-0.094	-0.162
-174.969	-62.421	0.189	-0.079
-173.954	127.553	-0.021	0.027
-172.939	-37.711	-0.248	-0.132
-171.925	-157.155	-0.199	-0.012
-170.910	800.000	0.079	0.312
-169.896	-85.777	-0.252	0.078
-168.881	-164.050	-0.060	-0.003
-167.866	800.000	-0.019	0.060
-166.852	-78.965	0.315	0.107
-165.837	-128.534	0.348	-0.049
-164.823	-200.000	-0.071	-0.310
-163.808	-55.326	0.242	-0.109
-162.793	757.707	-0.064	-0.175
-161.779	48.733	0.248	0.233
-160.764	114.629	0.188	0.229
-159.750	-6.666	0.095	0.065
-158.735	-118.766	0.135	-0.024
-157.720	18.360	0.061	-0.049
-156.706	-152.821	-0.178	0.013
-155.691	-200.000	-0.020	0.183
-154.677	800.000	-0.014	0.060
-153.662	12.302	-0.276	0.213
-152.647	-78.440	-0.359	0.123
-151.633	566.407	0.107	0.260
-150.618	-6.091	-0.188	0.128
-149.604	-200.000	-0.067	0.342
-148.589	-160.705	-0.284	-0.015
-147.574	-54.974	-0.160	-0.072
-146.560	-74.293	0.358	-0.129
-145.545	-200.000	0.054	-0.343
-144.531	-103.463	-0.284	0.067
-143.516	20.126	-0.404	0.326
-142.502	-200.000	-0.030	0.467
-141.487	-200.000	-0.041	0.199
-140.472	-100.503	-0.134	0.033
-139.458	257.373	0.115	-0.199
-138.443	-65.870	0.173	-0.069
-137.429	-106.020	-0.382	-0.086
-136.414	-49.580	0.276	0.132
-135.399	-47.723	-0.173	-0.084
-134.385	-60.155	0.240	-0.102
-133.370	-142.097	-0.134	-0.013
-132.356	-77.360	0.037	0.013
-131.341	637.042	0.065	-0.166
-130.326	800.000	-0.163	0.450
-129.312	-115.636	-0.168	0.032
-128.297	112.759	0.184	0.223
-127.283	-7.017	-0.078	-0.053
-126.268	-50.480	-0.225	0.106
-125.253	75.202	0.357	0.376
-124.239	333.174	0.011	-0.021
-123.224	-17.933	-0.271	-0.170
-122.210	167.693	-0.093	0.133
-121.195	800.000	0.110	0.358
