DTS Sentinel unit serial number:	SN413079Multiplexer serial number:	ORYXHardware model number:	OX4-SRSoftware version number:	ORYX F/W v4.00 Oryx Data Collector v3.7.2.0data status	okinstallation	princeton_trtdifferential loss correction	single-endedforward channel	channel 4reverse channel	N/Adate	2019/09/13time	15:29:35forward acquisition time	60.00reverse acquisition time	0.00gamma	496.2192k internal	0.2298k external	0.2298temperature offset calibration	1.0214default loss term (dB/km)	0.3790temperature slope calibration	1.0000multiplexer offset coefficient	1.0000multiplexer slope coefficient	1.0000fibre end	0.00T internal ref (°C)	35.16T ext. ref 1 (°C)	4.75T ext. ref 2 (°C)	29.58length (m)	temperature (°C)	Stokes	anti-Stokes-747.200	120.912	0.309	-0.393
-746.185	222.144	0.169	0.278
-745.171	176.708	0.121	-0.180
-744.156	465.067	0.177	0.403
-743.142	-35.354	0.093	0.052
-742.127	-57.652	-0.168	0.075
-741.112	-97.700	0.264	0.070
-740.098	-52.680	-0.262	0.123
-739.083	800.000	-0.011	-0.047
-738.069	-80.060	-0.124	-0.042
-737.054	145.718	-0.165	0.225
-736.039	148.816	-0.346	0.477
-735.025	-200.000	-0.020	0.114
-734.010	475.261	-0.091	-0.209
-732.996	-84.546	-0.299	0.096
-731.981	-200.000	-0.019	-0.346
-730.966	-200.000	0.018	-0.114
-729.952	57.373	-0.317	0.315
-728.937	-109.398	-0.311	-0.067
-727.923	-114.649	-0.321	-0.063
-726.908	800.000	0.043	0.158
-725.894	-71.494	-0.370	0.141
-724.879	-52.261	-0.211	-0.100
-723.864	195.792	0.111	-0.172
-722.850	-117.488	-0.151	0.028
-721.835	215.522	-0.071	-0.115
-720.821	233.133	-0.058	-0.096
-719.806	-129.381	0.123	0.017
-718.791	91.066	0.198	0.227
-717.777	-66.070	-0.296	0.121
-716.762	133.263	0.033	-0.044
-715.748	-86.582	-0.063	0.020
-714.733	25.657	0.170	0.144
-713.718	-200.000	-0.004	-0.113
-712.704	265.300	0.141	-0.250
-711.689	-82.696	0.369	0.122
-710.675	79.327	0.078	-0.085
-709.660	-19.161	-0.114	0.072
-708.645	-14.599	0.320	0.209
-707.631	597.326	-0.048	0.121
-706.616	-200.000	0.027	-0.202
-705.602	-103.657	0.292	-0.070
-704.587	-14.060	-0.095	0.062
-703.572	-54.647	-0.321	-0.148
-702.558	118.361	-0.095	-0.119
-701.543	-70.421	0.271	-0.105
-700.529	-200.000	-0.031	-0.231
-699.514	-161.817	0.213	-0.011
-698.499	-112.823	-0.241	0.049
-697.485	27.743	-0.157	0.135
-696.470	215.513	0.097	0.157
-695.456	-122.825	0.282	-0.046
-694.441	800.000	-0.055	0.167
-693.426	-153.082	-0.199	-0.014
-692.412	-104.447	-0.333	-0.079
-691.397	-129.565	0.152	-0.021
-690.383	-200.000	0.002	0.084
-689.368	398.777	-0.092	0.197
-688.354	-159.061	0.069	-0.004
-687.339	438.864	0.010	-0.023
-686.324	-200.000	-0.048	-0.293
-685.310	447.042	0.120	-0.268
-684.295	234.230	0.163	-0.274
-683.281	338.390	0.074	-0.147
-682.266	-59.867	-0.493	-0.215
-681.251	-128.023	0.300	-0.044
-680.237	578.590	-0.051	-0.128
-679.222	-121.122	0.304	-0.052
-678.208	-200.000	0.033	-0.204
-677.193	690.132	0.152	0.406
-676.178	-22.683	-0.086	0.053
-675.164	184.392	0.100	-0.150
-674.149	191.737	-0.093	0.143
-673.135	39.596	0.082	-0.075
-672.120	-41.813	-0.106	-0.055
-671.105	-7.585	0.115	-0.079
-670.091	300.442	0.124	0.232
-669.076	130.181	-0.102	0.133
-668.062	181.904	-0.061	0.091
-667.047	540.453	0.074	0.179
-666.032	70.857	0.093	-0.098
-665.018	-200.000	0.003	-0.138
-664.003	180.136	-0.265	-0.396
-662.989	800.000	0.132	-0.441
-661.974	70.814	-0.173	-0.183
-660.959	-94.140	-0.387	0.108
-659.945	800.000	0.094	0.313
-658.930	504.603	-0.065	0.154
-657.916	-61.036	0.112	-0.048
-656.901	279.606	-0.144	-0.261
-655.886	-200.000	-0.010	-0.159
-654.872	800.000	-0.086	-0.271
-653.857	-134.021	-0.174	-0.022
-652.843	-112.024	0.341	0.070
-651.828	-111.729	0.167	-0.035
-650.814	389.473	-0.183	-0.386
-649.799	-200.000	-0.002	-0.370
-648.784	-200.000	0.038	0.231
-647.770	-9.913	-0.443	0.300
-646.755	-147.312	0.123	0.011
-645.741	13.083	-0.224	-0.177
-644.726	-24.552	-0.289	-0.175
-643.711	51.741	-0.083	-0.080
-642.697	62.197	-0.222	-0.225
-641.682	-181.637	-0.037	-0.001
-640.668	-56.267	0.249	-0.113
-639.653	430.837	0.124	0.274
-638.638	527.236	-0.091	-0.218
-637.624	-200.000	-0.002	0.113
-636.609	-168.905	0.215	-0.008
-635.595	-22.836	-0.445	-0.273
-634.580	43.327	0.081	0.075
-633.565	-16.689	-0.309	-0.199
-632.551	45.695	-0.025	-0.023
-631.536	157.614	0.089	-0.125
-630.522	194.924	-0.038	-0.059
-629.507	326.176	-0.239	-0.466
-628.492	-87.172	0.084	0.026
-627.478	-200.000	0.060	0.346
-626.463	346.398	-0.094	-0.189
-625.449	-5.202	-0.159	-0.111
-624.434	800.000	0.087	0.247
-623.419	-7.328	0.157	0.108
-622.405	704.947	-0.077	0.208
-621.390	40.008	0.029	0.026
-620.376	-75.759	0.101	-0.037
-619.361	800.000	0.047	0.169
-618.346	85.800	-0.170	0.190
-617.332	-67.120	0.056	0.022
-616.317	-134.853	-0.404	-0.050
-615.303	66.458	0.069	0.071
-614.288	121.339	-0.197	-0.250
-613.273	-1.249	0.132	-0.095
-612.259	45.623	-0.110	0.103
-611.244	-160.935	0.369	0.020
-610.230	-200.000	-0.037	-0.312
-609.215	67.478	0.162	0.168
-608.201	104.456	-0.067	0.080
-607.186	-93.518	-0.151	-0.043
-606.171	-167.224	0.388	0.016
-605.157	312.975	0.052	-0.099
-604.142	677.240	-0.031	0.081
-603.128	-200.000	0.007	-0.140
-602.113	-47.292	0.188	0.093
-601.098	208.079	0.099	-0.156
-600.084	800.000	-0.117	0.364
-599.069	573.789	0.075	0.187
-598.055	58.639	-0.087	0.087
-597.040	-2.391	0.147	-0.105
-596.025	-200.000	-0.039	-0.189
-595.011	196.669	0.208	0.322
-593.996	-79.315	0.191	-0.066
-592.982	-69.753	0.154	-0.060
-591.967	-200.000	-0.022	-0.254
-590.952	-200.000	-0.067	0.326
-589.938	14.415	0.016	-0.013
-588.923	121.725	0.121	-0.153
-587.909	-7.284	0.183	-0.126
-586.894	-1.263	0.157	0.113
-585.879	-142.042	-0.210	-0.021
-584.865	72.712	-0.164	0.173
-583.850	-85.564	-0.160	-0.050
-582.836	-127.735	0.254	0.037
-581.821	-4.740	0.103	0.072
-580.806	78.672	0.020	0.021
-579.792	-200.000	0.010	0.099
-578.777	800.000	0.079	-0.271
-577.763	800.000	0.015	0.059
-576.748	102.643	-0.079	0.094
-575.733	-124.244	-0.129	0.020
-574.719	166.469	-0.025	-0.036
-573.704	800.000	-0.038	-0.141
-572.690	-200.000	0.046	-0.285
-571.675	-121.653	0.122	0.021
-570.661	-65.141	0.171	0.070
-569.646	507.633	0.058	0.136
-568.631	-36.055	0.183	0.100
-567.617	800.000	0.115	-0.374
-566.602	23.864	-0.102	-0.085
-565.588	37.018	-0.145	0.130
-564.573	-111.830	0.347	-0.071
-563.558	12.124	0.257	-0.200
-562.544	-132.325	-0.195	0.026
-561.529	-43.020	0.334	0.172
-560.515	678.410	0.075	0.197
-559.500	166.462	0.041	-0.058
-558.485	214.762	0.160	-0.256
-557.471	60.350	0.190	-0.191
-556.456	-22.396	-0.140	-0.086
-555.442	-66.388	-0.142	-0.057
-554.427	-146.128	-0.214	-0.019
-553.412	48.288	0.244	0.231
-552.398	271.969	0.095	-0.169
-551.383	-15.050	-0.250	0.162
-550.369	221.331	-0.123	-0.201
-549.354	143.664	-0.039	-0.053
-548.339	-78.432	0.059	-0.021
-547.325	90.233	0.155	0.176
-546.310	318.751	0.046	0.088
-545.296	-30.650	-0.201	-0.115
-544.281	12.507	-0.117	-0.092
-543.266	155.805	0.107	-0.150
-542.252	800.000	-0.086	-0.268
-541.237	-57.216	-0.210	0.093
-540.223	539.268	0.025	-0.059
-539.208	-40.790	-0.081	0.043
-538.193	37.906	0.221	-0.199
-537.179	50.197	0.098	0.094
-536.164	151.047	-0.136	-0.187
-535.150	33.236	-0.269	-0.236
-534.135	-104.888	0.436	0.101
-533.121	800.000	0.014	0.056
-532.106	-88.755	-0.201	-0.061
-531.091	-21.118	0.166	0.103
-530.077	-110.153	-0.199	0.042
-529.062	-200.000	-0.015	-0.301
-528.048	-130.803	0.166	0.023
-527.033	-5.963	-0.088	0.061
-526.018	-59.421	0.168	0.073
-525.004	38.114	0.148	0.133
-523.989	599.426	-0.058	0.146
-522.975	-200.000	0.002	0.291
-521.960	-200.000	0.001	0.064
-520.945	-200.000	0.021	-0.160
-519.931	-137.306	-0.210	-0.024
-518.916	800.000	0.014	0.055
-517.902	-55.883	-0.150	-0.068
-516.887	0.322	-0.192	0.138
-515.872	254.623	-0.117	-0.202
-514.858	-32.867	-0.173	0.097
-513.843	189.720	-0.207	0.314
-512.829	-200.000	-0.004	0.113
-511.814	-171.158	0.134	-0.005
-510.799	-90.563	-0.168	-0.049
-509.785	247.824	-0.185	0.316
-508.770	-62.873	0.266	-0.111
-507.756	800.000	0.104	-0.374
-506.741	800.000	0.045	0.132
-505.726	-82.213	0.162	-0.053
-504.712	-37.776	0.064	0.034
-503.697	-200.000	0.036	-0.234
-502.683	800.000	-0.042	0.151
-501.668	52.903	-0.277	0.268
-500.653	-200.000	-0.003	0.078
-499.639	-102.214	0.115	0.028
-498.624	-200.000	0.099	0.000
-497.610	705.727	-0.164	0.437
-496.595	-102.500	-0.200	0.048
-495.581	800.000	-0.062	0.216
-494.566	14.299	0.157	0.124
-493.551	160.700	-0.174	0.246
-492.537	-22.852	0.236	-0.144
-491.522	-200.000	0.041	0.203
-490.508	-200.000	-0.003	0.173
-489.493	-33.690	-0.368	0.205
-488.478	-170.097	-0.226	0.008
-487.464	-200.000	0.017	0.101
-486.449	-44.221	0.181	0.092
-485.435	-165.437	-0.195	0.009
-484.420	-27.272	0.117	0.069
-483.405	40.639	0.307	0.280
-482.391	-200.000	0.021	0.202
-481.376	800.000	-0.061	-0.258
-480.362	800.000	0.031	-0.089
-479.347	43.383	-0.155	-0.143
-478.332	-2.199	-0.021	-0.015
-477.318	-200.000	0.007	-0.083
-476.303	-185.783	0.062	-0.001
-475.289	332.448	0.162	0.317
-474.274	-48.453	0.273	0.133
-473.259	296.147	-0.188	-0.348
-472.245	-84.315	0.573	0.183
-471.230	-82.656	-0.252	0.082
-470.216	356.853	0.136	-0.274
-469.201	355.593	0.062	0.124
-468.186	-200.000	-0.054	0.253
-467.172	-76.577	-0.283	-0.100
-466.157	-51.575	-0.315	-0.148
-465.143	-200.000	0.016	-0.225
-464.128	800.000	-0.083	-0.349
-463.113	53.132	-0.260	0.251
-462.099	-73.284	-0.124	-0.046
-461.084	-56.510	-0.071	-0.032
-460.070	-101.410	-0.010	-0.003
-459.055	-135.509	-0.403	-0.048
-458.040	42.100	0.205	-0.188
-457.026	-80.306	0.316	-0.107
-456.011	-37.274	-0.124	-0.067
-454.997	-25.349	-0.195	-0.116
-453.982	-127.651	-0.177	-0.026
-452.968	93.568	-0.223	-0.254
-451.953	577.846	-0.040	0.100
-450.938	-93.987	0.182	-0.050
-449.924	13.667	0.225	0.176
-448.909	13.862	-0.347	0.272
-447.895	-91.483	0.305	0.088
-446.880	-162.496	-0.440	0.022
-445.865	234.162	0.178	0.296
-444.851	-181.915	-0.109	0.002
-443.836	233.770	0.178	-0.295
-442.822	-200.000	-0.044	-0.218
-441.807	-200.000	-0.023	0.110
-440.792	-115.890	0.291	-0.055
-439.778	-33.165	-0.272	-0.152
-438.763	-139.995	0.153	0.016
-437.749	152.509	0.122	-0.169
-436.734	84.637	-0.116	-0.128
-435.719	428.862	-0.212	0.463
-434.705	-200.000	-0.001	-0.143
-433.690	592.602	-0.076	-0.190
-432.676	-58.369	0.068	0.030
-431.661	-200.000	0.029	-0.209
-430.646	197.505	0.060	0.093
-429.632	-150.141	-0.193	0.015
-428.617	-200.000	-0.026	-0.275
-427.603	-156.048	-0.169	0.011
-426.588	-109.042	0.082	0.018
-425.573	274.212	0.128	-0.229
-424.559	-4.494	0.027	-0.019
-423.544	800.000	-0.074	-0.313
-422.530	99.029	0.091	0.106
-421.515	-200.000	0.022	0.144
-420.500	305.021	0.055	-0.102
-419.486	139.043	-0.123	-0.162
-418.471	-103.312	0.071	0.017
-417.457	800.000	-0.117	-0.378
-416.442	-126.744	-0.394	0.059
-415.428	304.724	-0.090	0.169
-414.413	-2.141	-0.172	-0.121
-413.398	-200.000	-0.026	-0.155
-412.384	-158.313	0.298	-0.017
-411.369	54.541	-0.326	-0.317
-410.355	-200.000	-0.002	-0.211
-409.340	-79.773	0.104	0.035
-408.325	-53.849	-0.075	0.034
-407.311	-200.000	0.007	-0.040
-406.296	157.354	0.176	-0.245
-405.282	3.898	-0.141	-0.104
-404.267	-2.747	-0.209	0.147
-403.252	0.948	0.229	0.165
-402.238	95.078	-0.388	0.445
-401.223	-200.000	-0.009	-0.167
-400.209	149.197	0.145	-0.198
-399.194	-58.728	-0.074	-0.032
-398.179	134.375	0.230	-0.301
-397.165	-90.814	-0.192	0.056
-396.150	-110.954	0.212	-0.044
-395.136	-101.295	-0.208	-0.051
-394.121	-30.097	0.166	-0.095
-393.106	45.328	0.243	-0.225
-392.092	16.745	0.162	0.129
-391.077	178.653	-0.103	0.152
-390.063	223.732	0.172	-0.280
-389.048	62.647	0.154	-0.155
-388.033	-139.740	0.112	-0.012
-387.019	-124.283	-0.228	0.036
-386.004	-30.507	-0.095	0.054
-384.990	-200.000	-0.041	-0.214
-383.975	-200.000	0.036	0.215
-382.960	50.217	0.124	-0.118
-381.946	800.000	0.099	0.302
-380.931	-119.372	0.146	0.026
-379.917	40.531	0.222	-0.202
-378.902	185.218	0.170	0.254
-377.888	-97.941	0.117	0.030
-376.873	800.000	0.077	0.264
-375.858	-45.408	0.094	-0.047
-374.844	-81.641	0.196	-0.065
-373.829	800.000	-0.139	0.410
-372.815	800.000	-0.044	-0.163
-371.800	312.861	0.087	-0.164
-370.785	-95.338	0.148	0.040
-369.771	-200.000	-0.014	-0.128
-368.756	27.463	-0.182	0.154
-367.742	41.800	-0.046	-0.042
-366.727	49.694	0.373	-0.353
-365.712	-86.661	0.341	0.105
-364.698	35.510	-0.253	0.224
-363.683	126.655	-0.062	0.079
-362.669	-62.320	0.410	-0.172
-361.654	20.151	-0.127	-0.103
-360.639	-151.728	0.157	-0.012
-359.625	800.000	0.051	0.221
-358.610	-114.244	-0.230	0.045
-357.596	242.200	-0.092	0.155
-356.581	800.000	-0.042	0.183
-355.566	-78.047	0.203	0.070
-354.552	-157.436	0.065	-0.004
-353.537	73.928	0.059	-0.063
-352.523	331.909	-0.023	0.045
-351.508	34.398	-0.150	-0.132
-350.493	721.459	0.054	-0.144
-349.479	-200.000	0.022	-0.212
-348.464	-200.000	-0.020	-0.208
-347.450	-58.779	-0.206	-0.090
-346.435	-200.000	0.008	-0.221
-345.420	-130.010	0.166	0.023
-344.406	-12.001	0.185	-0.122
-343.391	494.196	0.144	0.331
-342.377	-39.206	-0.053	-0.028
-341.362	-99.867	-0.244	-0.061
-340.348	511.573	0.088	-0.205
-339.333	-23.864	-0.369	0.222
-338.318	-99.112	-0.303	-0.077
-337.304	50.745	-0.022	-0.021
-336.289	-89.660	-0.173	0.051
-335.275	-10.548	0.352	-0.234
-334.260	217.831	-0.143	0.228
-333.245	178.526	0.108	0.159
-332.231	-142.005	0.011	0.001
-331.216	210.996	-0.075	0.118
-330.202	-6.025	-0.213	0.146
-329.187	528.433	-0.108	0.255
-328.172	281.342	0.114	0.204
-327.158	-129.126	0.093	-0.013
-326.143	-139.257	0.415	0.045
-325.129	-97.785	0.319	-0.083
-324.114	8.016	0.192	-0.145
-323.099	-53.941	-0.524	-0.240
-322.085	159.920	-0.198	-0.276
-321.070	-79.870	-0.406	-0.137
-320.056	-137.789	0.164	0.018
-319.041	-200.000	-0.031	-0.239
-318.026	100.202	0.118	-0.137
-317.012	-38.525	0.350	0.186
-315.997	1.743	-0.346	0.250
-314.983	114.266	0.146	0.179
-313.968	90.656	-0.174	0.196
-312.953	800.000	-0.080	0.271
-311.939	-88.016	-0.219	-0.066
-310.924	-51.271	0.116	-0.055
-309.910	-59.800	-0.263	0.113
-308.895	800.000	0.146	-0.473
-307.880	146.303	-0.237	-0.320
-306.866	168.803	0.141	0.202
-305.851	593.634	0.131	-0.324
-304.837	101.203	0.169	-0.198
-303.822	-200.000	0.005	-0.110
-302.807	-18.147	0.287	0.180
-301.793	-200.000	-0.026	-0.120
-300.778	345.455	-0.046	0.091
-299.764	-108.196	0.254	-0.055
-298.749	6.556	0.250	-0.187
-297.735	13.449	0.344	0.267
-296.720	-176.789	-0.297	0.008
-295.705	27.811	-0.221	0.187
-294.691	-49.680	0.325	-0.155
-293.676	-200.000	-0.014	-0.124
-292.662	-27.223	-0.111	0.065
-291.647	673.325	0.131	-0.341
-290.632	-66.746	0.349	-0.138
-289.618	-71.881	0.162	-0.061
-288.603	589.874	0.063	-0.156
-287.589	636.688	0.184	0.468
-286.574	-70.202	-0.088	0.034
-285.559	-47.654	0.184	0.089
-284.545	-200.000	0.050	0.230
-283.530	-105.127	-0.205	-0.047
-282.516	-112.611	0.134	0.027
-281.501	60.314	0.041	-0.040
-280.486	176.213	-0.168	-0.245
-279.472	46.037	-0.122	-0.113
-278.457	-90.142	0.131	-0.038
-277.443	-65.837	-0.189	-0.076
-276.428	-20.413	-0.209	-0.129
-275.413	266.000	0.152	0.266
-274.399	-158.838	0.427	-0.024
-273.384	174.140	0.185	0.268
-272.370	-129.844	0.285	0.039
-271.355	29.851	0.177	0.151
-270.340	-98.198	0.175	-0.045
-269.326	38.639	-0.290	-0.259
-268.311	75.603	0.133	0.140
-267.297	110.191	-0.236	0.284
-266.282	43.027	0.206	0.189
-265.267	-61.687	-0.159	-0.067
-264.253	275.195	0.099	-0.175
-263.238	422.346	-0.059	0.126
-262.224	166.446	-0.088	-0.125
-261.209	-134.789	0.175	0.021
-260.195	130.350	0.103	-0.132
-259.180	800.000	-0.044	0.168
-258.165	106.845	-0.139	0.166
-257.151	-121.262	0.400	-0.067
-256.136	-200.000	-0.057	-0.352
-255.122	-28.040	0.141	-0.082
-254.107	0.971	0.310	-0.223
-253.092	83.880	-0.192	-0.210
-252.078	1.035	-0.257	-0.185
-251.063	-200.000	0.021	-0.104
-250.049	202.640	0.091	-0.141
-249.034	-172.101	0.338	0.011
-248.019	-66.698	0.225	-0.089
-247.005	-174.364	0.291	0.008
-245.990	800.000	0.026	-0.092
-244.976	-59.306	0.340	-0.147
-243.961	727.879	-0.062	0.167
-242.946	-37.041	-0.094	-0.051
-241.932	116.265	-0.309	0.379
-240.917	-200.000	-0.033	0.417
-239.903	16.943	0.267	0.212
-238.888	155.835	0.009	-0.012
-237.873	-80.851	-0.277	-0.092
-236.859	233.966	-0.061	0.100
-235.844	-200.000	0.027	0.258
-234.830	-200.000	0.025	-0.181
-233.815	-118.357	-0.444	0.079
-232.800	4.215	-0.198	0.145
-231.786	370.874	-0.102	0.206
-230.771	0.054	-0.100	0.071
-229.757	-128.034	-0.030	0.004
-228.742	-200.000	-0.084	-0.391
-227.727	-200.000	0.018	-0.400
-226.713	-11.380	0.122	0.081
-225.698	54.106	0.279	0.268
-224.684	-130.235	-0.053	0.007
-223.669	53.155	-0.169	0.162
-222.655	51.584	-0.093	0.089
-221.640	169.383	-0.154	0.220
-220.625	-120.314	-0.254	0.043
-219.611	-25.245	0.063	-0.037
-218.596	-200.000	-0.029	0.205
-217.582	-150.496	0.129	-0.010
-216.567	800.000	-0.025	0.098
-215.552	800.000	-0.051	0.193
-214.538	355.125	-0.140	0.278
-213.523	201.203	0.151	-0.232
-212.509	0.465	0.103	0.074
-211.494	800.000	0.103	0.385
-210.479	230.413	-0.205	0.335
-209.465	92.156	-0.154	-0.173
-208.450	800.000	-0.047	-0.138
-207.436	-33.991	-0.172	0.095
-206.421	253.518	-0.155	-0.264
-205.406	800.000	0.015	-0.052
-204.392	-95.478	-0.207	-0.055
-203.377	11.735	-0.078	0.060
-202.363	-162.396	0.422	-0.021
-201.348	294.431	-0.068	-0.124
-200.333	-56.706	-0.211	0.093
-199.319	-200.000	-0.033	0.280
-198.304	41.092	0.153	-0.138
-197.290	-200.000	0.028	-0.429
-196.275	414.619	-0.175	0.373
-195.260	-122.678	0.050	-0.008
-194.246	108.440	0.188	0.224
-193.231	-200.000	0.004	-0.067
-192.217	-20.200	-0.083	0.051
-191.202	42.419	-0.125	0.113
-190.187	115.473	-0.135	-0.165
-189.173	-101.839	-0.461	0.111
-188.158	-200.000	0.025	-0.268
-187.144	-200.000	0.076	0.338
-186.129	-66.430	-0.184	-0.073
-185.114	122.436	0.154	-0.192
-184.100	65.000	0.053	0.053
-183.085	-120.207	0.074	0.013
-182.071	6.912	-0.093	0.069
-181.056	-35.247	-0.069	-0.038
-180.042	-151.567	0.259	-0.019
-179.027	-128.516	-0.555	0.079
-178.012	-72.256	-0.291	0.108
-176.998	-200.000	0.057	0.393
-175.983	-163.532	0.181	0.009
-174.969	-34.476	0.147	0.080
-173.954	281.712	-0.061	0.110
-172.939	25.398	0.195	0.162
-171.925	484.123	-0.209	0.474
-170.910	-51.926	-0.129	-0.060
-169.896	135.727	0.140	0.181
-168.881	411.133	-0.174	-0.369
-167.866	-182.859	-0.218	-0.004
-166.852	-92.442	-0.140	-0.039
-165.837	-36.187	0.239	0.129
-164.823	-200.000	-0.003	0.097
-163.808	244.073	-0.065	-0.109
-162.793	-7.922	0.145	-0.098
-161.779	-94.625	-0.257	0.070
-160.764	10.741	0.184	0.140
-159.750	800.000	-0.062	0.242
-158.735	66.250	-0.279	0.283
-157.720	-70.214	-0.126	0.048
-156.706	-200.000	0.048	0.362
-155.691	189.360	-0.059	-0.088
-154.677	-93.532	0.236	0.065
-153.662	198.314	0.229	-0.350
-152.647	-200.000	0.010	-0.369
-151.633	12.474	0.073	-0.056
-150.618	25.904	-0.213	0.177
-149.604	-5.576	0.257	0.176
-148.589	-44.648	0.424	-0.211
-147.574	-88.554	-0.101	0.030
-146.560	221.936	0.059	0.095
-145.545	85.370	0.062	-0.068
-144.531	-27.282	0.240	0.139
-143.516	67.155	-0.168	-0.171
-142.502	-37.812	-0.226	0.120
-141.487	231.850	0.087	0.142
-140.472	-156.274	-0.277	-0.017
-139.458	-140.217	0.164	0.017
-138.443	800.000	0.054	-0.163
-137.429	61.598	0.054	0.053
-136.414	-83.548	-0.201	0.064
-135.399	496.188	-0.089	0.203
-134.385	-30.156	0.081	0.046
-133.370	-200.000	0.017	0.476
-132.356	-2.411	-0.175	-0.122
-131.341	-62.046	0.121	0.050
-130.326	-78.994	0.144	-0.049
-129.312	-33.432	-0.219	0.121
-128.297	-101.436	0.365	0.089
-127.283	800.000	-0.033	-0.118
-126.268	137.515	-0.068	0.088
-125.253	800.000	-0.026	0.113
-124.239	184.281	-0.097	0.144
-123.224	202.968	-0.024	0.037
-122.210	-101.550	0.188	0.046
-121.195	151.905	0.108	-0.147
-120.180	36.876	-0.146	-0.128
