DTS Sentinel unit serial number:	SN413079Multiplexer serial number:	ORYXHardware model number:	OX4-SRSoftware version number:	ORYX F/W v4.00 Oryx Data Collector v3.7.2.0data status	okinstallation	princeton_trtdifferential loss correction	single-endedforward channel	channel 4reverse channel	N/Adate	2019/09/14time	08:21:34forward acquisition time	60.00reverse acquisition time	0.00gamma	496.2192k internal	0.2315k external	0.2315temperature offset calibration	1.0136default loss term (dB/km)	0.3790temperature slope calibration	1.0000multiplexer offset coefficient	1.0000multiplexer slope coefficient	1.0000fibre end	0.00T internal ref (°C)	27.98T ext. ref 1 (°C)	3.61T ext. ref 2 (°C)	26.03length (m)	temperature (°C)	Stokes	anti-Stokes-747.200	800.000	0.067	0.215
-746.185	1.445	-0.370	0.269
-745.171	-10.140	0.126	-0.085
-744.156	800.000	-0.038	-0.159
-743.142	-2.061	0.270	-0.192
-742.127	133.894	0.165	0.216
-741.112	162.139	0.034	-0.048
-740.098	-200.000	-0.024	0.192
-739.083	-200.000	0.015	-0.329
-738.069	240.516	-0.064	-0.108
-737.054	-65.534	0.117	-0.048
-736.039	800.000	-0.050	-0.186
-735.025	800.000	0.117	-0.507
-734.010	63.500	-0.260	0.264
-732.996	-155.672	-0.437	0.028
-731.981	-200.000	0.008	-0.116
-730.966	288.946	-0.116	-0.212
-729.952	-140.276	-0.216	-0.023
-728.937	-63.733	0.195	0.081
-727.923	214.408	0.131	-0.210
-726.908	10.324	-0.205	-0.158
-725.894	-200.000	0.034	-0.281
-724.879	280.231	-0.066	-0.120
-723.864	355.849	0.106	0.213
-722.850	-200.000	-0.022	-0.170
-721.835	22.731	-0.132	-0.109
-720.821	224.358	0.183	0.299
-719.806	-3.954	0.042	0.029
-718.791	-110.436	-0.471	0.099
-717.777	63.134	0.167	-0.170
-716.762	-29.303	-0.166	-0.096
-715.748	800.000	0.055	-0.158
-714.733	-41.213	0.120	0.062
-713.718	-114.019	0.299	-0.059
-712.704	-200.000	0.023	-0.295
-711.689	216.882	0.150	-0.242
-710.675	-128.487	0.111	0.016
-709.660	-44.518	0.383	-0.194
-708.645	-5.458	-0.178	-0.124
-707.631	-110.377	-0.050	-0.011
-706.616	-89.318	0.203	-0.061
-705.602	-62.176	0.396	-0.167
-704.587	61.723	-0.252	0.254
-703.572	800.000	-0.051	0.157
-702.558	536.563	-0.031	0.075
-701.543	-86.565	0.029	-0.009
-700.529	800.000	0.045	-0.134
-699.514	-2.187	-0.250	-0.178
-698.499	800.000	0.075	0.289
-697.485	-200.000	-0.011	0.204
-696.470	-161.604	0.224	0.012
-695.456	-85.330	0.191	0.060
-694.441	325.283	-0.086	-0.166
-693.426	248.017	0.201	-0.343
-692.412	-200.000	-0.006	-0.141
-691.397	61.126	0.065	0.065
-690.383	-72.256	0.085	0.032
-689.368	800.000	0.060	0.239
-688.354	52.326	0.266	-0.257
-687.339	-200.000	0.058	-0.414
-686.324	-108.710	-0.424	0.092
-685.310	-6.863	0.179	-0.123
-684.295	187.030	-0.241	-0.363
-683.281	800.000	0.038	0.125
-682.266	-62.938	-0.137	0.057
-681.251	-22.439	-0.398	-0.244
-680.237	-175.933	-0.168	0.005
-679.222	103.818	0.096	-0.114
-678.208	218.154	-0.055	0.089
-677.193	-27.210	-0.124	0.073
-676.178	-108.959	0.114	0.025
-675.164	177.184	0.134	0.197
-674.149	127.078	-0.082	-0.105
-673.135	-33.967	0.150	-0.083
-672.120	26.863	0.148	0.125
-671.105	173.473	0.098	0.143
-670.091	-184.467	-0.256	0.004
-669.076	-39.522	-0.184	-0.097
-668.062	-200.000	0.018	0.138
-667.047	117.270	0.103	0.128
-666.032	-30.853	-0.188	-0.107
-665.018	45.069	-0.021	-0.020
-664.003	119.674	0.187	0.234
-662.989	800.000	-0.055	0.160
-661.974	-2.707	-0.276	0.195
-660.959	15.794	-0.232	-0.184
-659.945	-157.073	0.122	-0.007
-658.930	94.558	0.121	-0.139
-657.916	-200.000	-0.021	0.114
-656.901	-200.000	0.014	0.076
-655.886	25.151	-0.160	-0.134
-654.872	-93.059	0.249	0.070
-653.857	-58.107	0.212	-0.093
-652.843	-107.354	-0.462	-0.103
-651.828	162.180	-0.214	-0.304
-650.814	-56.283	-0.047	-0.021
-649.799	-135.217	0.319	0.039
-648.784	-129.710	-0.162	0.023
-647.770	-200.000	0.001	-0.272
-646.755	43.793	0.104	-0.096
-645.741	-42.360	0.057	0.029
-644.726	800.000	0.186	0.551
-643.711	-200.000	0.015	0.182
-642.697	-200.000	-0.020	-0.223
-641.682	-127.993	-0.210	0.030
-640.668	-50.779	-0.369	-0.175
-639.653	-97.296	0.283	-0.074
-638.638	25.505	-0.113	-0.095
-637.624	312.242	-0.049	0.094
-636.609	-200.000	0.040	-0.345
-635.595	80.242	0.239	0.259
-634.580	81.930	-0.258	-0.282
-633.565	454.495	-0.106	-0.236
-632.551	-200.000	-0.036	-0.352
-631.536	-6.731	-0.199	0.136
-630.522	800.000	-0.116	0.332
-629.507	-1.887	-0.164	0.116
-628.492	-200.000	-0.057	-0.350
-627.478	-99.055	-0.307	-0.078
-626.463	-126.605	0.253	0.038
-625.449	11.827	0.117	0.091
-624.434	800.000	0.008	-0.033
-623.419	313.432	0.064	0.122
-622.405	-200.000	-0.030	0.228
-621.390	-30.317	0.217	-0.124
-620.376	-200.000	0.063	0.455
-619.361	272.768	-0.051	0.090
-618.346	-1.761	0.092	0.065
-617.332	711.463	-0.048	0.129
-616.317	-117.243	0.156	0.029
-615.303	-127.807	-0.447	0.065
-614.288	-42.567	-0.138	0.071
-613.273	249.293	0.167	-0.286
-612.259	-200.000	-0.020	0.211
-611.244	-117.920	-0.197	0.036
-610.230	58.864	-0.162	-0.160
-609.215	128.524	-0.089	-0.114
-608.201	87.367	-0.161	-0.180
-607.186	-200.000	0.034	-0.337
-606.171	-200.000	-0.011	0.228
-605.157	-128.281	0.172	0.025
-604.142	42.056	-0.101	-0.092
-603.128	282.219	0.061	0.111
-602.113	-153.394	-0.223	0.016
-601.098	10.078	-0.296	0.227
-600.084	7.708	0.097	-0.073
-599.069	-147.639	0.431	0.037
-598.055	-200.000	0.055	-0.465
-597.040	-58.498	-0.265	-0.116
-596.025	-200.000	0.014	0.107
-595.011	800.000	-0.088	-0.290
-593.996	-110.648	-0.145	0.030
-592.982	-200.000	-0.044	-0.399
-591.967	800.000	-0.045	-0.139
-590.952	-16.733	-0.233	0.149
-589.938	-200.000	-0.121	-0.000
-588.923	-200.000	-0.076	-0.344
-587.909	190.985	-0.019	-0.028
-586.894	248.306	-0.103	0.176
-585.879	-200.000	-0.053	0.000
-584.865	-48.885	-0.181	0.087
-583.850	-26.868	0.078	0.046
-582.836	-122.791	0.266	0.043
-581.821	247.129	-0.188	0.320
-580.806	26.513	-0.107	-0.091
-579.792	-43.561	0.052	-0.026
-578.777	-200.000	0.046	-0.242
-577.763	-200.000	0.006	0.159
-576.748	-200.000	-0.007	0.204
-575.733	-81.767	-0.218	-0.072
-574.719	-142.345	-0.119	0.012
-573.704	-48.283	-0.080	0.039
-572.690	47.335	0.106	0.100
-571.675	-200.000	0.047	0.297
-570.661	-138.078	-0.263	-0.029
-569.646	800.000	0.059	-0.232
-568.631	-107.777	-0.075	0.017
-567.617	-3.406	-0.271	0.190
-566.602	436.147	0.138	0.303
-565.588	-200.000	0.008	0.270
-564.573	-85.640	-0.102	0.032
-563.558	642.176	0.064	-0.165
-562.544	-200.000	-0.040	0.219
-561.529	106.951	-0.039	0.047
-560.515	800.000	-0.045	-0.193
-559.500	-48.576	-0.358	-0.173
-558.485	214.808	0.094	-0.150
-557.471	-27.487	-0.126	-0.073
-556.456	53.140	0.067	-0.065
-555.442	-200.000	-0.088	0.419
-554.427	-123.209	-0.090	-0.014
-553.412	-79.071	0.176	-0.060
-552.398	-129.642	-0.315	-0.044
-551.383	488.424	0.109	-0.250
-550.369	-62.831	-0.221	-0.092
-549.354	52.204	0.234	-0.224
-548.339	49.941	0.227	-0.215
-547.325	-200.000	-0.043	-0.358
-546.310	-200.000	0.018	0.089
-545.296	-22.354	0.059	0.036
-544.281	159.343	0.197	-0.276
-543.266	-200.000	0.029	0.199
-542.252	-200.000	0.031	0.249
-541.237	406.281	-0.106	-0.226
-540.223	-50.224	-0.115	-0.054
-539.208	800.000	-0.081	0.298
-538.193	-193.926	0.081	-0.001
-537.179	100.727	-0.057	-0.066
-536.164	231.745	0.146	-0.241
-535.150	-32.356	-0.114	-0.064
-534.135	60.944	0.086	-0.086
-533.121	12.481	0.088	-0.068
-532.106	-131.807	-0.135	0.018
-531.091	259.420	0.053	-0.092
-530.077	107.634	-0.238	0.285
-529.062	-26.019	-0.096	-0.057
-528.048	21.953	-0.053	-0.043
-527.033	-104.493	-0.203	-0.047
-526.018	76.239	0.151	0.161
-525.004	-58.381	0.081	-0.036
-523.989	800.000	-0.142	-0.409
-522.975	-200.000	0.012	-0.185
-521.960	242.908	0.158	-0.266
-520.945	34.556	-0.172	-0.151
-519.931	-4.106	0.343	-0.238
-518.916	371.148	-0.089	0.181
-517.902	215.923	0.185	0.295
-516.887	-200.000	-0.058	-0.327
-515.872	73.956	-0.226	0.238
-514.858	595.947	-0.082	-0.204
-513.843	236.575	-0.136	0.226
-512.829	357.114	-0.102	-0.203
-511.814	-85.909	0.149	0.046
-510.799	101.420	-0.080	0.094
-509.785	244.545	0.212	-0.357
-508.770	-25.213	0.306	0.182
-507.756	-54.988	-0.330	-0.149
-506.741	-71.193	0.212	0.080
-505.726	-50.384	0.155	-0.074
-504.712	153.987	-0.088	-0.121
-503.697	-183.687	-0.479	0.008
-502.683	182.911	-0.017	-0.025
-501.668	-125.234	-0.178	0.027
-500.653	437.281	-0.099	-0.217
-499.639	303.730	-0.116	-0.216
-498.624	-64.917	-0.062	-0.025
-497.610	34.104	-0.079	0.069
-496.595	-28.241	-0.089	0.051
-495.581	-118.728	-0.113	-0.020
-494.566	520.873	0.090	0.212
-493.551	54.441	0.132	-0.128
-492.537	-41.119	0.192	-0.099
-491.522	167.189	-0.117	0.166
-490.508	34.525	0.128	0.113
-489.493	800.000	0.104	-0.390
-488.478	-200.000	-0.024	0.221
-487.464	-200.000	0.084	-0.414
-486.449	726.365	-0.034	-0.090
-485.435	-44.270	-0.085	-0.043
-484.420	-50.932	0.355	0.167
-483.405	-63.721	-0.237	-0.098
-482.391	-48.108	0.237	-0.115
-481.376	-79.269	0.128	0.043
-480.362	333.514	0.078	0.151
-479.347	72.718	-0.179	0.188
-478.332	210.063	0.030	-0.047
-477.318	-145.549	0.167	-0.015
-476.303	-149.750	-0.191	-0.015
-475.289	15.366	0.148	0.116
-474.274	-5.579	-0.253	-0.174
-473.259	-200.000	0.057	-0.265
-472.245	-200.000	-0.115	-0.516
-471.230	-168.053	-0.278	0.011
-470.216	-200.000	0.013	-0.183
-469.201	253.243	0.050	0.086
-468.186	-78.348	0.269	0.093
-467.172	262.144	-0.067	0.116
-466.157	-105.831	0.461	0.104
-465.143	-83.295	0.237	-0.076
-464.128	800.000	0.076	-0.332
-463.113	800.000	-0.083	0.231
-462.099	-3.022	0.210	-0.147
-461.084	-133.589	-0.152	0.019
-460.070	-147.469	0.337	0.029
-459.055	356.516	0.086	0.172
-458.040	82.724	-0.067	-0.073
-457.026	-200.000	-0.005	0.070
-456.011	800.000	0.039	-0.171
-454.997	800.000	0.051	0.160
-453.982	-20.483	0.149	0.092
-452.968	-105.518	0.181	0.041
-451.953	368.339	-0.230	0.467
-450.938	103.587	0.085	-0.100
-449.924	253.151	-0.240	0.411
-448.909	-20.115	-0.090	-0.055
-447.895	800.000	0.064	-0.257
-446.880	-103.224	0.158	-0.037
-445.865	-44.175	-0.312	-0.157
-444.851	-4.969	0.222	0.153
-443.836	-95.392	0.255	-0.069
-442.822	-104.725	0.254	0.059
-441.807	344.673	-0.054	0.106
-440.792	-64.905	-0.111	0.045
-439.778	-119.779	0.431	-0.074
-438.763	51.474	0.054	-0.051
-437.749	-200.000	-0.002	-0.037
-436.734	533.516	0.178	-0.421
-435.719	82.617	-0.139	0.151
-434.705	-52.659	0.102	-0.047
-433.690	269.178	0.099	0.174
-432.676	424.045	0.062	-0.134
-431.661	-147.749	-0.203	-0.017
-430.646	-71.823	0.054	-0.020
-429.632	32.937	0.092	0.079
-428.617	-44.842	0.080	-0.040
-427.603	-17.809	-0.514	0.323
-426.588	-200.000	0.027	0.213
-425.573	41.274	-0.123	0.112
-424.559	-48.162	0.159	-0.077
-423.544	51.344	-0.093	0.088
-422.530	27.491	0.287	0.242
-421.515	96.714	-0.035	-0.040
-420.500	501.138	0.193	-0.446
-419.486	800.000	0.025	-0.094
-418.471	-107.449	0.233	0.051
-417.457	800.000	0.039	0.114
-416.442	-108.171	-0.355	0.077
-415.428	-200.000	0.019	0.165
-414.413	-200.000	0.038	-0.253
-413.398	155.380	-0.124	-0.170
-412.384	472.557	0.080	-0.181
-411.369	-200.000	-0.001	0.081
-410.355	15.126	0.302	0.237
-409.340	-200.000	-0.004	0.411
-408.325	70.262	0.122	0.126
-407.311	-129.666	-0.282	-0.039
-406.296	-200.000	0.038	0.328
-405.282	-200.000	-0.002	-0.134
-404.267	26.000	-0.071	0.059
-403.252	768.471	0.090	-0.246
-402.238	200.739	-0.072	0.110
-401.223	522.584	-0.181	0.424
-400.209	-200.000	-0.008	0.324
-399.194	130.088	0.294	-0.376
-398.179	304.795	-0.107	-0.199
-397.165	-90.696	0.073	-0.021
-396.150	486.984	0.089	-0.203
-395.136	77.903	-0.186	-0.198
-394.121	-200.000	0.011	0.056
-393.106	151.527	0.121	-0.164
-392.092	82.595	-0.116	-0.125
-391.077	220.795	-0.123	0.196
-390.063	-200.000	-0.001	-0.305
-389.048	-180.077	0.179	-0.004
-388.033	-118.030	-0.322	0.058
-387.019	-149.917	-0.350	0.027
-386.004	-200.000	0.040	-0.190
-384.990	-200.000	0.001	0.122
-383.975	-121.928	-0.155	-0.025
-382.960	-33.679	-0.222	-0.123
-381.946	-90.278	0.221	0.064
-380.931	-200.000	-0.006	-0.094
-379.917	-126.693	-0.247	-0.037
-378.902	-25.614	-0.239	-0.141
-377.888	-97.837	0.123	-0.032
-376.873	398.280	0.120	0.251
-375.858	800.000	0.019	-0.057
-374.844	249.178	-0.080	0.135
-373.829	-200.000	-0.004	-0.039
-372.815	-79.502	-0.164	0.055
-371.800	-56.108	0.020	-0.009
-370.785	382.786	0.151	-0.309
-369.771	-154.156	0.067	0.005
-368.756	86.842	-0.162	0.178
-367.742	-89.571	-0.180	-0.053
-366.727	572.433	0.112	0.272
-365.712	198.551	-0.194	0.297
-364.698	-200.000	0.026	-0.254
-363.683	19.698	-0.069	-0.055
-362.669	-200.000	-0.033	0.205
-361.654	22.792	-0.187	-0.153
-360.639	267.270	0.035	-0.061
-359.625	-70.861	0.127	0.048
-358.610	-127.539	0.339	-0.049
-357.596	-153.030	0.396	-0.028
-356.581	-60.587	0.199	-0.084
-355.566	197.535	0.107	-0.164
-354.552	-200.000	-0.005	0.375
-353.537	800.000	0.009	-0.034
-352.523	-15.452	0.205	0.131
-351.508	-181.955	0.097	0.002
-350.493	464.828	-0.022	-0.049
-349.479	48.249	0.156	0.145
-348.464	253.334	-0.100	-0.170
-347.450	278.254	0.069	-0.122
-346.435	53.678	0.211	0.202
-345.420	185.280	-0.088	0.131
-344.406	-80.153	-0.328	0.110
-343.391	471.785	-0.102	-0.229
-342.377	-128.773	0.305	0.043
-341.362	126.512	0.124	0.156
-340.348	-200.000	0.025	0.266
-339.333	314.082	0.040	-0.074
-338.318	2.792	0.190	-0.138
-337.304	800.000	0.089	-0.266
-336.289	-200.000	0.054	-0.256
-335.275	218.867	-0.076	0.121
-334.260	219.174	0.054	0.086
-333.245	-125.683	-0.239	0.036
-332.231	187.559	-0.214	-0.319
-331.216	-172.938	-0.261	0.008
-330.202	746.085	0.113	0.302
-329.187	800.000	-0.015	-0.062
-328.172	496.992	0.102	0.233
-327.158	401.520	-0.196	0.410
-326.143	177.441	0.095	-0.139
-325.129	-10.267	-0.277	-0.183
-324.114	745.355	-0.112	-0.301
-323.099	-158.660	0.190	0.011
-322.085	-146.182	0.288	-0.025
-321.070	-40.671	-0.307	-0.159
-320.056	152.700	0.164	0.224
-319.041	-149.170	-0.369	0.029
-318.026	368.121	0.099	-0.199
-317.012	-200.000	0.027	-0.281
-315.997	275.186	0.046	-0.081
-314.983	61.382	-0.118	0.117
-313.968	-117.029	0.467	-0.085
-312.953	-101.308	-0.342	-0.083
-311.939	-80.478	-0.082	-0.027
-310.924	33.473	0.218	0.188
-309.910	800.000	0.055	0.176
-308.895	240.311	-0.075	0.124
-307.880	-50.616	0.366	0.172
-306.866	542.096	-0.105	0.250
-305.851	46.350	-0.312	-0.288
-304.837	-200.000	0.026	-0.194
-303.822	-66.110	0.130	0.051
-302.807	319.670	0.044	0.084
-301.793	86.741	-0.079	0.087
-300.778	6.280	0.097	0.072
-299.764	-157.319	-0.349	-0.021
-298.749	-102.358	-0.285	0.068
-297.735	-58.786	0.254	-0.109
-296.720	143.641	-0.183	-0.242
-295.705	-45.233	-0.402	-0.199
-294.691	-149.849	-0.278	0.022
-293.676	-92.315	-0.225	-0.063
-292.662	-117.310	0.465	0.084
-291.647	-10.377	-0.088	0.058
-290.632	-7.311	-0.508	0.342
-289.618	10.591	-0.117	-0.089
-288.603	654.773	-0.081	0.208
-287.589	643.811	-0.142	0.361
-286.574	-200.000	-0.008	0.184
-285.559	-157.058	0.233	-0.014
-284.545	-15.560	-0.117	0.074
-283.530	40.063	0.016	0.014
-282.516	800.000	-0.094	0.347
-281.501	-200.000	-0.060	0.376
-280.486	219.007	0.195	-0.311
-279.472	-112.411	-0.071	0.014
-278.457	-66.602	0.253	0.100
-277.443	-200.000	-0.018	0.178
-276.428	25.133	-0.266	-0.220
-275.413	86.176	-0.042	0.046
-274.399	-111.137	0.191	-0.039
-273.384	-138.049	-0.168	0.019
-272.370	-200.000	0.001	0.212
-271.355	-168.300	0.450	0.017
-270.340	37.739	0.255	0.226
-269.326	2.522	-0.115	0.083
-268.311	-200.000	-0.040	-0.198
-267.297	-144.321	0.411	0.038
-266.282	800.000	0.035	-0.098
-265.267	-42.799	-0.037	-0.019
-264.253	143.297	0.170	0.226
-263.238	220.494	0.160	0.255
-262.224	12.943	0.221	-0.170
-261.209	-170.491	0.238	-0.008
-260.195	-200.000	0.323	0.001
-259.180	63.150	0.124	0.124
-258.165	17.501	0.383	0.303
-257.151	-58.867	0.099	-0.042
-256.136	163.515	-0.247	-0.345
-255.122	-153.075	0.186	-0.013
-254.107	-81.925	0.175	0.057
-253.092	800.000	-0.111	-0.398
-252.078	254.519	0.069	0.117
-251.063	228.448	0.052	-0.085
-250.049	-200.000	0.034	-0.234
-249.034	-200.000	-0.006	0.310
-248.019	239.915	0.203	0.336
-247.005	-160.549	0.197	-0.010
-245.990	-90.802	-0.224	-0.064
-244.976	58.694	0.293	0.286
-243.961	748.255	0.213	0.570
-242.946	257.002	0.171	-0.292
-241.932	-126.253	0.100	0.015
-240.917	800.000	0.043	-0.133
-239.903	283.301	0.180	-0.320
-238.888	364.104	0.059	0.119
-237.873	-120.666	0.248	-0.042
-236.859	61.644	-0.117	-0.116
-235.844	-53.941	-0.150	-0.068
-234.830	-85.286	-0.253	0.078
-233.815	79.299	0.177	-0.188
-232.800	284.394	-0.269	0.482
-231.786	584.218	-0.073	-0.178
-230.771	-137.805	-0.281	-0.031
-229.757	79.495	0.272	0.290
-228.742	800.000	0.086	0.241
-227.727	-128.251	-0.471	0.067
-226.713	335.416	-0.138	-0.265
-225.698	-56.238	-0.400	0.177
-224.684	14.841	0.153	-0.119
-223.669	-200.000	-0.013	0.128
-222.655	96.559	0.104	-0.118
-221.640	-17.987	0.130	-0.081
-220.625	-66.440	-0.298	-0.117
-219.611	80.201	-0.069	0.073
-218.596	-200.000	-0.011	-0.121
-217.582	-40.228	0.346	-0.179
-216.567	-120.526	-0.238	-0.040
-215.552	-99.248	0.182	0.046
-214.538	132.859	0.160	-0.205
-213.523	-71.989	0.069	-0.025
-212.509	-51.010	0.194	-0.090
-211.494	538.073	0.136	0.320
-210.479	-200.000	0.006	0.168
-209.465	-200.000	0.004	-0.152
-208.450	-190.724	-0.118	0.001
-207.436	-200.000	-0.016	-0.252
-206.421	-200.000	-0.019	0.314
-205.406	549.035	0.052	-0.123
-204.392	-200.000	0.009	-0.052
-203.377	-3.602	-0.224	-0.155
-202.363	800.000	-0.059	0.188
-201.348	319.645	-0.059	-0.112
-200.333	-48.630	-0.093	-0.045
-199.319	-99.636	-0.293	0.073
-198.304	800.000	-0.073	0.211
-197.290	-142.956	-0.075	0.007
-196.275	226.574	-0.147	-0.237
-195.260	503.471	-0.156	-0.358
-194.246	-200.000	0.009	-0.556
-193.231	-85.471	0.153	0.047
-192.217	49.120	-0.087	0.081
-191.202	140.748	0.125	0.164
-190.187	-75.398	-0.165	0.058
-189.173	149.508	-0.081	0.108
-188.158	-103.323	0.244	0.057
-187.144	-124.271	0.061	0.009
-186.129	-34.865	0.036	0.020
-185.114	85.006	0.094	-0.103
-184.100	800.000	-0.035	0.098
-183.085	65.885	0.208	0.209
-182.071	-200.000	-0.008	-0.099
-181.056	-126.410	0.247	-0.036
-180.042	-67.887	0.359	0.139
-179.027	29.121	0.182	-0.154
-178.012	-49.837	0.161	0.076
-176.998	78.364	0.221	-0.234
-175.983	136.062	0.025	0.032
-174.969	-200.000	0.009	0.199
-173.954	327.541	-0.099	-0.189
-172.939	153.153	0.250	0.339
-171.925	-32.455	-0.264	0.146
-170.910	306.025	-0.153	0.281
-169.896	-82.651	0.210	-0.067
-168.881	800.000	-0.062	0.229
-167.866	315.927	-0.048	0.090
-166.852	620.028	0.104	0.258
-165.837	66.252	0.240	0.241
-164.823	126.118	-0.050	0.062
-163.808	800.000	0.079	-0.258
-162.793	50.727	0.209	-0.196
-161.779	28.006	0.193	0.161
-160.764	-133.489	-0.430	0.053
-159.750	367.116	0.125	-0.249
-158.735	-2.671	-0.273	0.190
-157.720	293.014	-0.097	-0.175
-156.706	800.000	-0.064	0.255
-155.691	325.157	-0.039	-0.075
-154.677	2.109	-0.100	-0.071
-153.662	87.460	-0.137	0.151
-152.647	-11.709	-0.055	0.036
-151.633	-160.078	-0.070	0.004
-150.618	-42.683	0.170	0.086
-149.604	-56.175	0.164	-0.072
-148.589	-48.982	-0.160	-0.076
-147.574	73.235	-0.058	0.060
-146.560	116.319	-0.240	-0.291
-145.545	-200.000	-0.018	-0.136
-144.531	111.375	-0.116	0.139
-143.516	479.313	-0.108	-0.243
-142.502	0.233	-0.261	-0.185
-141.487	145.236	-0.131	-0.173
-140.472	-163.914	0.156	0.007
-139.458	800.000	-0.060	-0.218
-138.443	73.475	-0.114	-0.118
-137.429	-200.000	-0.052	-0.225
-136.414	-200.000	0.025	0.175
-135.399	139.176	-0.053	-0.069
-134.385	380.977	0.045	-0.091
-133.370	84.506	0.262	0.283
-132.356	-20.405	0.284	0.173
-131.341	325.219	0.106	-0.201
-130.326	215.093	0.091	-0.143
-129.312	-26.119	-0.028	-0.016
-128.297	12.386	0.285	-0.217
-127.283	-200.000	0.011	0.153
-126.268	-14.666	0.204	0.129
-125.253	-200.000	0.078	-0.628
-124.239	-200.000	-0.048	-0.390
-123.224	459.005	-0.114	0.251
-122.210	-126.597	0.348	-0.051
-121.195	-182.081	0.297	0.006
