DTS Sentinel unit serial number:	SN413079Multiplexer serial number:	ORYXHardware model number:	OX4-SRSoftware version number:	ORYX F/W v4.00 Oryx Data Collector v3.7.2.0data status	okinstallation	princeton_trtdifferential loss correction	single-endedforward channel	channel 4reverse channel	N/Adate	2019/09/16time	01:05:35forward acquisition time	60.00reverse acquisition time	0.00gamma	496.2192k internal	0.2323k external	0.2323temperature offset calibration	0.9970default loss term (dB/km)	0.3790temperature slope calibration	1.0000multiplexer offset coefficient	1.0000multiplexer slope coefficient	1.0000fibre end	0.00T internal ref (°C)	27.31T ext. ref 1 (°C)	9.77T ext. ref 2 (°C)	21.57length (m)	temperature (°C)	Stokes	anti-Stokes-747.200	-26.077	0.253	-0.150
-746.185	272.758	-0.029	0.053
-745.171	-127.635	0.258	0.038
-744.156	-124.313	-0.275	0.043
-743.142	66.328	0.074	-0.076
-742.127	383.660	0.032	0.066
-741.112	-177.648	0.145	0.004
-740.098	125.714	-0.136	-0.173
-739.083	21.769	-0.367	-0.302
-738.069	-8.595	-0.197	0.134
-737.054	-22.588	-0.254	-0.155
-736.039	-78.986	-0.222	0.076
-735.025	281.071	0.256	0.462
-734.010	46.797	0.227	-0.213
-732.996	160.392	0.159	-0.223
-731.981	-200.000	-0.028	-0.149
-730.966	-61.010	0.258	0.110
-729.952	-183.165	-0.274	0.005
-728.937	50.931	0.069	0.066
-727.923	-200.000	-0.011	-0.152
-726.908	-107.740	0.159	-0.035
-725.894	-113.310	-0.169	-0.034
-724.879	231.845	0.106	-0.176
-723.864	369.252	-0.040	-0.081
-722.850	7.874	-0.047	0.035
-721.835	34.179	0.209	-0.183
-720.821	-21.098	-0.264	-0.163
-719.806	-81.055	-0.108	0.036
-718.791	306.413	-0.040	-0.076
-717.777	-2.594	-0.278	-0.196
-716.762	-200.000	-0.052	0.283
-715.748	26.810	0.153	0.129
-714.733	350.939	-0.077	0.154
-713.718	127.583	-0.265	0.339
-712.704	-83.736	0.287	-0.092
-711.689	800.000	-0.079	-0.228
-710.675	451.410	0.009	-0.021
-709.660	-44.630	0.373	-0.188
-708.645	-155.623	0.234	0.015
-707.631	-133.120	0.340	-0.043
-706.616	-163.261	0.107	0.005
-705.602	-131.675	0.011	-0.002
-704.587	800.000	0.156	0.449
-703.572	179.875	0.196	-0.290
-702.558	115.446	-0.041	-0.051
-701.543	-200.000	0.036	-0.170
-700.529	-200.000	-0.012	-0.168
-699.514	-91.752	-0.228	-0.065
-698.499	-53.285	-0.406	-0.188
-697.485	-24.318	0.178	0.107
-696.470	-200.000	0.042	-0.207
-695.456	-81.741	-0.139	-0.046
-694.441	388.747	-0.063	-0.132
-693.426	800.000	-0.101	-0.354
-692.412	68.826	0.162	-0.167
-691.397	-200.000	-0.034	0.158
-690.383	-13.551	0.151	-0.099
-689.368	107.991	0.130	-0.156
-688.354	332.239	-0.106	0.207
-687.339	800.000	-0.126	-0.380
-686.324	800.000	-0.089	-0.345
-685.310	-105.614	-0.523	0.119
-684.295	48.796	0.247	0.233
-683.281	-162.366	0.128	-0.006
-682.266	98.692	0.213	-0.248
-681.251	-138.642	-0.116	0.013
-680.237	-76.177	0.185	0.066
-679.222	-97.124	-0.167	-0.044
-678.208	84.691	0.244	0.269
-677.193	-99.188	-0.161	-0.041
-676.178	93.842	0.074	0.085
-675.164	-66.885	0.348	0.138
-674.149	-29.250	-0.481	0.278
-673.135	4.391	0.247	0.183
-672.120	-9.929	0.313	0.210
-671.105	-118.648	0.127	0.023
-670.091	-91.876	0.045	-0.013
-669.076	178.193	-0.032	-0.047
-668.062	184.218	-0.125	-0.187
-667.047	-121.961	-0.101	0.017
-666.032	-68.877	-0.172	-0.067
-665.018	173.985	0.224	-0.326
-664.003	97.086	-0.237	-0.273
-662.989	-56.092	0.219	0.098
-661.974	10.751	-0.128	-0.099
-660.959	247.431	-0.102	-0.174
-659.945	-119.170	-0.084	-0.015
-658.930	800.000	0.057	0.173
-657.916	-108.059	-0.245	0.054
-656.901	-200.000	0.006	-0.200
-655.886	-135.195	0.262	0.032
-654.872	26.637	-0.167	-0.141
-653.857	-28.140	-0.139	-0.081
-652.843	-82.326	-0.263	-0.086
-651.828	-200.000	-0.009	0.272
-650.814	127.439	0.159	-0.204
-649.799	798.749	-0.097	-0.268
-648.784	-16.238	0.219	0.140
-647.770	-157.375	0.012	-0.001
-646.755	800.000	0.061	-0.200
-645.741	577.317	0.030	-0.073
-644.726	3.329	-0.069	0.051
-643.711	-108.762	-0.091	0.020
-642.697	800.000	0.083	-0.270
-641.682	311.556	0.022	0.041
-640.668	-200.000	-0.041	0.262
-639.653	-3.818	0.199	-0.139
-638.638	136.166	-0.084	0.110
-637.624	-200.000	-0.016	0.153
-636.609	-163.237	0.037	-0.002
-635.595	800.000	-0.078	0.318
-634.580	13.594	-0.091	0.071
-633.565	-13.720	-0.115	0.075
-632.551	459.517	-0.123	-0.275
-631.536	169.852	-0.116	0.166
-630.522	800.000	-0.153	0.445
-629.507	431.805	0.093	-0.203
-628.492	99.597	0.051	-0.059
-627.478	342.046	-0.114	-0.225
-626.463	274.602	0.195	-0.347
-625.449	65.922	-0.142	0.144
-624.434	800.000	0.025	-0.090
-623.419	255.129	0.243	-0.418
-622.405	-41.118	-0.197	-0.102
-621.390	68.897	0.216	-0.223
-620.376	96.754	-0.182	0.210
-619.361	-70.596	-0.143	0.054
-618.346	-200.000	-0.129	0.000
-617.332	-10.553	0.089	-0.059
-616.317	-200.000	-0.019	0.170
-615.303	-38.715	-0.070	-0.037
-614.288	-122.339	0.273	0.045
-613.273	207.631	0.090	-0.140
-612.259	-61.255	0.212	-0.090
-611.244	-47.541	0.359	0.175
-610.230	81.381	0.223	-0.242
-609.215	800.000	0.084	-0.297
-608.201	-200.000	-0.017	0.176
-607.186	800.000	-0.141	0.608
-606.171	-100.369	-0.186	-0.046
-605.157	-72.014	-0.372	-0.139
-604.142	310.083	-0.098	-0.184
-603.128	298.230	0.189	-0.348
-602.113	108.859	0.033	0.039
-601.098	-106.079	-0.234	-0.053
-600.084	-61.332	0.492	-0.208
-599.069	-200.000	0.037	-0.288
-598.055	800.000	-0.065	0.195
-597.040	61.607	-0.108	0.108
-596.025	30.914	0.084	-0.072
-595.011	-200.000	0.061	0.367
-593.996	-200.000	-0.013	0.077
-592.982	-13.442	0.115	0.075
-591.967	800.000	0.135	0.389
-590.952	-200.000	0.002	0.111
-589.938	-84.877	0.084	0.027
-588.923	-200.000	0.009	-0.048
-587.909	-116.754	0.055	0.010
-586.894	76.404	-0.076	-0.081
-585.879	-178.978	-0.453	-0.010
-584.865	359.518	0.095	0.190
-583.850	189.515	0.214	0.322
-582.836	111.586	-0.193	-0.234
-581.821	-91.514	-0.244	0.070
-580.806	-150.224	-0.365	-0.028
-579.792	465.767	0.091	-0.204
-578.777	-41.863	0.101	0.052
-577.763	218.874	-0.143	-0.229
-576.748	-99.571	0.071	-0.018
-575.733	800.000	-0.060	-0.196
-574.719	-200.000	-0.005	0.274
-573.704	136.062	-0.093	0.122
-572.690	17.682	-0.138	0.110
-571.675	-141.544	-0.200	-0.020
-570.661	194.128	-0.045	0.069
-569.646	328.364	-0.164	0.316
-568.631	22.784	0.152	-0.125
-567.617	210.768	-0.129	-0.203
-566.602	-72.118	0.171	-0.064
-565.588	-120.019	-0.160	-0.027
-564.573	-50.581	-0.362	-0.171
-563.558	-81.133	-0.262	0.087
-562.544	-123.058	0.207	-0.033
-561.529	800.000	0.028	0.084
-560.515	-124.472	0.240	-0.037
-559.500	38.838	0.075	0.067
-558.485	-35.815	-0.188	0.102
-557.471	800.000	0.169	0.495
-556.456	-112.139	-0.276	-0.056
-555.442	318.688	0.057	-0.108
-554.427	-200.000	0.010	-0.057
-553.412	129.758	-0.078	-0.100
-552.398	-53.523	0.140	-0.064
-551.383	-37.617	0.121	-0.065
-550.369	800.000	0.089	0.295
-549.354	-200.000	-0.078	0.364
-548.339	-195.159	-0.315	-0.002
-547.325	88.292	0.080	-0.089
-546.310	-4.506	-0.373	-0.258
-545.296	-11.158	0.255	-0.168
-544.281	-200.000	0.000	0.033
-543.266	112.553	0.165	-0.200
-542.252	800.000	-0.051	0.194
-541.237	74.473	0.065	0.069
-540.223	-200.000	0.097	-0.454
-539.208	-200.000	-0.013	0.262
-538.193	203.890	0.155	-0.240
-537.179	276.378	0.194	-0.345
-536.164	-200.000	-0.004	0.205
-535.150	-56.623	-0.081	0.036
-534.135	569.466	0.033	-0.079
-533.121	-123.724	-0.182	0.029
-532.106	529.551	0.076	-0.179
-531.091	145.263	-0.105	-0.140
-530.077	-1.924	0.117	-0.082
-529.062	-91.336	0.341	-0.098
-528.048	-121.463	-0.155	0.026
-527.033	-200.000	-0.032	-0.191
-526.018	-73.739	0.436	-0.159
-525.004	-128.518	-0.398	0.057
-523.989	800.000	0.094	-0.284
-522.975	800.000	0.061	-0.221
-521.960	-200.000	-0.014	-0.216
-520.945	125.185	-0.125	0.158
-519.931	585.929	-0.048	-0.119
-518.916	123.729	0.233	0.293
-517.902	-46.439	-0.177	-0.087
-516.887	99.238	-0.102	-0.118
-515.872	84.945	0.122	0.134
-514.858	-93.397	-0.035	0.010
-513.843	-52.870	0.151	0.069
-512.829	62.356	0.057	-0.057
-511.814	-200.000	0.021	0.098
-510.799	47.202	0.157	-0.146
-509.785	-61.796	-0.457	0.191
-508.770	-112.748	-0.193	0.038
-507.756	-66.695	-0.259	0.103
-506.741	-197.653	0.294	-0.002
-505.726	0.487	0.251	-0.179
-504.712	-200.000	-0.046	-0.257
-503.697	-52.986	-0.147	0.068
-502.683	160.092	-0.065	-0.090
-501.668	-200.000	0.024	0.169
-500.653	800.000	0.062	-0.222
-499.639	297.700	0.120	-0.220
-498.624	262.534	0.264	-0.458
-497.610	800.000	-0.029	-0.125
-496.595	-121.124	0.572	0.096
-495.581	-200.000	-0.012	0.183
-494.566	42.411	0.162	-0.148
-493.551	800.000	0.008	0.026
-492.537	-124.712	-0.191	-0.030
-491.522	-52.648	0.299	-0.138
-490.508	183.169	-0.135	0.200
-489.493	20.803	-0.147	-0.119
-488.478	-158.996	-0.092	-0.005
-487.464	-49.625	-0.280	0.133
-486.449	341.842	-0.199	0.389
-485.435	306.306	-0.079	0.147
-484.420	53.603	0.079	0.075
-483.405	9.378	-0.269	0.203
-482.391	89.933	-0.081	-0.091
-481.376	-121.423	-0.077	0.013
-480.362	77.631	-0.050	-0.053
-479.347	-200.000	0.040	0.204
-478.332	171.906	-0.203	-0.291
-477.318	67.709	0.104	-0.106
-476.303	-54.389	0.165	-0.075
-475.289	-43.789	0.180	0.091
-474.274	-107.650	0.073	0.016
-473.259	164.848	0.057	-0.080
-472.245	-59.532	0.207	-0.089
-471.230	-141.895	0.266	0.027
-470.216	181.228	-0.006	0.009
-469.201	65.418	0.287	-0.290
-468.186	-58.707	-0.074	-0.032
-467.172	800.000	0.050	-0.152
-466.157	193.812	-0.163	-0.247
-465.143	9.457	-0.048	0.036
-464.128	-91.456	-0.370	0.106
-463.113	-200.000	0.019	-0.121
-462.099	-136.558	0.182	-0.021
-461.084	-96.899	0.267	0.070
-460.070	800.000	-0.044	0.171
-459.055	-132.346	0.108	-0.014
-458.040	-200.000	-0.017	0.179
-457.026	411.385	-0.114	0.242
-456.011	168.749	-0.101	0.144
-454.997	92.744	0.280	-0.316
-453.982	-200.000	0.034	0.170
-452.968	-72.470	0.233	-0.086
-451.953	37.707	-0.299	0.265
-450.938	-56.181	-0.299	0.133
-449.924	44.226	0.292	0.267
-448.909	-95.101	-0.260	0.070
-447.895	800.000	0.043	0.157
-446.880	-200.000	0.033	-0.184
-445.865	179.291	-0.228	-0.334
-444.851	187.203	0.131	0.194
-443.836	-200.000	-0.005	0.066
-442.822	461.437	0.041	-0.092
-441.807	-48.673	0.355	0.170
-440.792	-200.000	0.018	0.248
-439.778	511.127	0.052	0.122
-438.763	-67.856	-0.053	-0.021
-437.749	800.000	0.109	0.467
-436.734	-58.368	0.396	0.172
-435.719	10.301	-0.188	0.142
-434.705	-200.000	-0.030	0.363
-433.690	98.162	0.158	-0.182
-432.676	38.042	0.118	0.104
-431.661	12.333	0.259	0.199
-430.646	698.379	0.023	-0.060
-429.632	-48.735	-0.210	0.100
-428.617	-200.000	-0.010	0.374
-427.603	-138.548	-0.272	0.030
-426.588	182.295	0.253	0.372
-425.573	507.797	0.005	0.012
-424.559	273.606	0.074	-0.131
-423.544	-57.613	-0.234	-0.102
-422.530	-24.514	0.077	0.046
-421.515	268.801	0.055	-0.097
-420.500	800.000	-0.023	-0.092
-419.486	3.394	0.417	0.303
-418.471	-1.723	-0.125	0.088
-417.457	-200.000	0.053	0.316
-416.442	800.000	0.045	-0.154
-415.428	-28.052	-0.191	-0.110
-414.413	-200.000	-0.012	0.329
-413.398	-51.098	-0.221	-0.103
-412.384	118.421	0.126	0.155
-411.369	-106.944	-0.202	0.045
-410.355	-129.110	0.137	-0.019
-409.340	-141.836	-0.244	0.024
-408.325	-200.000	-0.049	-0.320
-407.311	202.117	-0.070	-0.107
-406.296	-200.000	-0.086	-0.391
-405.282	15.255	0.281	-0.219
-404.267	393.545	-0.046	-0.094
-403.252	800.000	-0.027	0.081
-402.238	800.000	0.094	-0.306
-401.223	54.597	-0.185	-0.178
-400.209	-58.391	-0.070	0.030
-399.194	55.599	0.100	0.096
-398.179	696.875	-0.096	-0.250
-397.165	-200.000	0.048	-0.296
-396.150	800.000	-0.039	0.131
-395.136	-200.000	-0.026	-0.234
-394.121	-38.326	0.205	-0.108
-393.106	227.869	0.086	-0.140
-392.092	800.000	-0.099	-0.374
-391.077	612.550	0.071	0.176
-390.063	114.461	-0.218	0.264
-389.048	29.958	0.326	0.276
-388.033	177.393	0.201	-0.292
-387.019	-200.000	-0.049	0.231
-386.004	-111.244	-0.484	0.099
-384.990	800.000	0.084	0.267
-383.975	-200.000	-0.016	0.289
-382.960	250.122	0.111	0.188
-381.946	428.984	-0.126	0.271
-380.931	-109.409	-0.195	0.041
-379.917	173.619	0.128	0.184
-378.902	-42.761	-0.210	0.106
-377.888	22.094	0.223	-0.181
-376.873	-31.177	-0.152	0.085
-375.858	800.000	0.147	0.551
-374.844	800.000	-0.059	-0.235
-373.829	-44.784	0.212	-0.105
-372.815	154.496	0.140	-0.191
-371.800	-54.261	0.115	0.052
-370.785	800.000	0.163	0.536
-369.771	-139.949	-0.244	0.026
-368.756	800.000	0.055	0.199
-367.742	48.949	0.080	0.074
-366.727	-132.636	-0.192	-0.025
-365.712	221.907	-0.037	-0.060
-364.698	364.729	-0.073	-0.147
-363.683	-54.506	0.283	0.127
-362.669	-80.665	0.271	-0.090
-361.654	130.301	0.156	0.199
-360.639	-200.000	0.028	-0.248
-359.625	-191.704	0.136	-0.001
-358.610	-25.739	-0.008	-0.005
-357.596	-102.508	-0.170	-0.040
-356.581	-63.132	-0.013	-0.006
-355.566	114.977	-0.132	-0.160
-354.552	-200.000	0.024	-0.288
-353.537	-43.634	0.080	0.040
-352.523	-200.000	0.032	-0.184
-351.508	193.761	-0.242	-0.365
-350.493	-163.802	0.109	-0.005
-349.479	-41.789	0.217	0.111
-348.464	109.434	-0.162	0.193
-347.450	-200.000	0.038	-0.340
-346.435	-75.744	-0.243	0.086
-345.420	-200.000	0.063	0.325
-344.406	3.832	0.199	0.144
-343.391	-12.761	-0.495	0.321
-342.377	549.856	0.135	0.322
-341.362	-29.466	-0.090	0.051
-340.348	-134.385	0.324	-0.040
-339.333	-200.000	-0.033	-0.191
-338.318	76.910	-0.171	0.180
-337.304	-200.000	0.086	0.633
-336.289	-34.512	0.274	-0.149
-335.275	-75.171	0.178	0.063
-334.260	2.288	-0.192	0.138
-333.245	439.426	0.131	0.285
-332.231	-129.052	-0.172	-0.024
-331.216	800.000	-0.123	0.388
-330.202	165.821	0.057	0.080
-329.187	202.245	0.097	0.149
-328.172	-200.000	0.026	-0.334
-327.158	285.431	0.119	-0.212
-326.143	243.134	-0.116	0.193
-325.129	-71.927	0.211	0.078
-324.114	-200.000	0.005	-0.035
-323.099	3.054	-0.164	0.118
-322.085	323.037	0.087	-0.165
-321.070	-121.477	-0.175	0.029
-320.056	213.754	0.142	-0.223
-319.041	-75.711	0.087	0.031
-318.026	-200.000	0.025	0.156
-317.012	126.954	0.197	-0.248
-315.997	-200.000	-0.059	-0.370
-314.983	-200.000	-0.010	-0.259
-313.968	-11.909	0.015	-0.010
-312.953	-200.000	0.028	0.492
-311.939	16.449	-0.300	-0.235
-310.924	800.000	0.101	-0.280
-309.910	126.179	-0.076	0.095
-308.895	-147.514	0.113	0.009
-307.880	-81.470	0.254	-0.083
-306.866	365.055	0.073	0.146
-305.851	733.468	0.021	0.057
-304.837	800.000	0.068	0.194
-303.822	-200.000	-0.028	-0.347
-302.807	-200.000	-0.051	-0.239
-301.793	423.680	-0.111	0.237
-300.778	725.847	-0.116	0.306
-299.764	800.000	-0.088	0.350
-298.749	-98.131	-0.344	-0.088
-297.735	191.320	0.109	-0.163
-296.720	173.907	0.149	0.214
-295.705	-200.000	-0.002	0.062
-294.691	25.568	-0.160	-0.132
-293.676	-33.468	0.142	-0.078
-292.662	-119.270	-0.374	-0.065
-291.647	800.000	-0.115	0.359
-290.632	133.302	-0.266	-0.341
-289.618	-66.662	0.176	-0.069
-288.603	293.659	0.070	-0.126
-287.589	800.000	0.069	0.240
-286.574	-200.000	-0.051	-0.536
-285.559	140.573	0.063	0.083
-284.545	485.632	-0.062	0.139
-283.530	-49.309	-0.055	0.026
-282.516	-67.844	0.226	0.088
-281.501	-58.875	0.165	0.071
-280.486	-200.000	0.341	-0.001
-279.472	-157.711	-0.196	-0.012
-278.457	365.395	-0.122	-0.244
-277.443	-52.652	0.217	0.099
-276.428	53.160	-0.134	-0.127
-275.413	64.942	0.052	0.052
-274.399	-200.000	0.037	-0.197
-273.384	451.997	-0.098	-0.215
-272.370	-135.222	0.245	0.029
-271.355	-131.586	0.117	-0.015
-270.340	-101.716	-0.288	-0.069
-269.326	800.000	0.039	0.132
-268.311	800.000	0.033	0.094
-267.297	800.000	0.104	-0.286
-266.282	65.921	0.082	-0.083
-265.267	-75.387	0.227	0.080
-264.253	-78.179	0.259	0.088
-263.238	-154.842	0.378	0.025
-262.224	630.295	0.048	0.119
-261.209	-56.347	0.082	0.036
-260.195	48.806	0.099	-0.092
-259.180	-189.003	-0.114	-0.001
-258.165	-90.771	-0.125	-0.036
-257.151	3.386	-0.154	-0.111
-256.136	87.762	0.139	0.153
-255.122	-200.000	0.008	-0.141
-254.107	-30.868	0.140	-0.078
-253.092	45.251	0.124	0.114
-252.078	292.653	0.139	-0.250
-251.063	-200.000	0.019	-0.144
-250.049	34.585	-0.056	-0.048
-249.034	54.834	0.062	-0.059
-248.019	-94.608	0.268	-0.072
-247.005	-200.000	-0.041	0.225
-245.990	-200.000	-0.055	0.323
-244.976	303.607	-0.069	-0.127
-243.961	54.695	0.097	0.092
-242.946	-59.955	-0.213	-0.090
-241.932	800.000	-0.084	-0.327
-240.917	-63.635	-0.332	-0.135
-239.903	-122.420	-0.434	0.070
-238.888	-53.447	-0.137	-0.062
-237.873	-123.281	-0.261	0.041
-236.859	-200.000	0.032	-0.176
-235.844	-200.000	0.002	0.275
-234.830	800.000	-0.093	-0.316
-233.815	-9.944	-0.359	-0.237
-232.800	-15.660	0.219	-0.138
-231.786	-37.029	-0.323	-0.171
-230.771	-93.460	-0.314	0.086
-229.757	800.000	-0.046	0.159
-228.742	-165.292	-0.044	0.002
-227.727	-200.000	0.029	0.444
-226.713	-200.000	-0.038	-0.253
-225.698	800.000	-0.063	-0.223
-224.684	-44.547	0.392	-0.194
-223.669	-27.495	-0.260	-0.150
-222.655	233.291	-0.090	-0.147
-221.640	275.498	0.230	-0.404
-220.625	-62.892	-0.490	0.200
-219.611	-112.915	0.195	-0.038
-218.596	-128.129	-0.266	-0.038
-217.582	800.000	0.161	-0.442
-216.567	800.000	0.045	0.160
-215.552	-15.028	0.046	0.029
-214.538	-200.000	0.017	-0.120
-213.523	-70.209	0.160	-0.060
-212.509	-143.754	-0.275	-0.026
-211.494	-123.673	-0.390	-0.061
-210.479	39.956	-0.111	0.099
-209.465	295.357	-0.102	-0.184
-208.450	-78.935	-0.063	0.021
-207.436	693.940	0.069	0.180
-206.421	56.006	0.133	-0.127
-205.406	255.665	-0.032	0.055
-204.392	64.777	0.099	0.098
-203.377	247.944	0.037	-0.062
-202.363	782.695	-0.022	0.058
-201.348	36.485	0.110	0.096
-200.333	-25.280	0.244	0.143
-199.319	-69.829	0.243	0.092
-198.304	-200.000	0.018	0.079
-197.290	637.875	0.090	0.226
-196.275	281.581	-0.106	-0.189
-195.260	-200.000	-0.039	-0.193
-194.246	-37.608	0.159	0.084
-193.231	251.346	-0.057	0.095
-192.217	106.589	0.068	0.079
-191.202	-59.024	-0.198	-0.084
-190.187	110.736	-0.108	-0.128
-189.173	-130.502	-0.201	-0.027
-188.158	-124.079	0.315	-0.049
-187.144	164.542	-0.149	-0.208
-186.129	-79.687	0.260	0.087
-185.114	-15.207	-0.189	0.119
-184.100	-13.188	-0.160	-0.102
-183.085	90.773	0.137	0.152
-182.071	-22.996	0.352	-0.209
-181.056	-76.550	-0.349	0.121
-180.042	709.272	-0.130	-0.341
-179.027	29.090	0.173	0.145
-178.012	327.617	-0.158	0.299
-176.998	-15.114	0.239	-0.151
-175.983	-97.007	-0.305	-0.079
-174.969	-95.131	-0.080	-0.021
-173.954	-200.000	-0.005	0.220
-172.939	20.762	-0.278	-0.222
-171.925	-46.378	-0.076	-0.037
-170.910	-137.375	0.170	0.019
-169.896	-63.741	0.207	-0.084
-168.881	21.504	0.010	-0.008
-167.866	312.051	0.115	-0.212
-166.852	-43.349	-0.223	-0.111
-165.837	488.800	0.159	0.359
-164.823	-130.652	-0.114	-0.015
-163.808	104.608	-0.071	0.082
-162.793	-52.692	-0.108	0.049
-161.779	-47.144	-0.130	0.062
-160.764	-14.159	0.425	0.270
-159.750	-124.183	-0.290	0.045
-158.735	-128.287	0.114	0.016
-157.720	-200.000	-0.018	-0.162
-156.706	-200.000	0.062	0.325
-155.691	-3.989	-0.261	-0.179
-154.677	-200.000	0.013	0.173
-153.662	-178.813	-0.065	0.001
-152.647	-2.552	-0.308	0.213
-151.633	87.093	0.121	-0.132
-150.618	-140.357	0.425	-0.044
-149.604	26.769	0.316	-0.261
-148.589	-200.000	0.023	-0.215
-147.574	-9.450	-0.206	-0.135
-146.560	-81.429	0.337	-0.110
-145.545	-67.718	0.292	-0.113
-144.531	36.520	0.180	0.157
-143.516	-20.846	0.134	0.081
-142.502	-38.333	0.156	-0.082
-141.487	-69.850	0.147	0.055
-140.472	243.762	0.080	0.133
-139.458	-200.000	-0.043	0.220
-138.443	-200.000	0.003	-0.120
-137.429	20.038	0.132	-0.105
-136.414	800.000	0.079	-0.266
-135.399	741.081	-0.143	0.378
-134.385	-200.000	-0.056	0.477
-133.370	-91.111	0.344	0.097
-132.356	23.886	-0.168	-0.136
-131.341	-50.201	0.206	-0.096
-130.326	-181.824	0.133	0.003
-129.312	-15.986	0.211	-0.132
-128.297	-33.145	-0.617	0.337
-127.283	261.308	0.083	-0.141
-126.268	800.000	-0.048	-0.159
-125.253	-132.715	0.059	-0.007
-124.239	314.763	-0.141	0.262
-123.224	39.974	0.249	-0.220
-122.210	-200.000	-0.006	-0.083
-121.195	-82.812	-0.146	-0.047
