DTS Sentinel unit serial number:	SN413079Multiplexer serial number:	ORYXHardware model number:	OX4-SRSoftware version number:	ORYX F/W v4.00 Oryx Data Collector v3.7.2.0data status	okinstallation	princeton_trtdifferential loss correction	single-endedforward channel	channel 4reverse channel	N/Adate	2019/09/12time	08:27:11forward acquisition time	60.00reverse acquisition time	0.00gamma	496.2192k internal	0.2302k external	0.2302temperature offset calibration	1.0064default loss term (dB/km)	0.3790temperature slope calibration	1.0000multiplexer offset coefficient	1.0000multiplexer slope coefficient	1.0000fibre end	0.00T internal ref (°C)	33.61T ext. ref 1 (°C)	1.71T ext. ref 2 (°C)	29.59length (m)	temperature (°C)	Stokes	anti-Stokes-747.200	-181.451	0.202	-0.004
-746.185	-39.891	0.263	0.140
-745.171	-40.958	0.160	-0.084
-744.156	122.642	0.064	0.082
-743.142	652.902	0.134	-0.349
-742.127	-55.266	0.082	-0.038
-741.112	-129.739	-0.048	-0.007
-740.098	-200.000	0.012	0.134
-739.083	113.952	0.022	0.027
-738.069	-200.000	0.025	0.182
-737.054	404.150	-0.084	0.181
-736.039	-88.079	-0.094	-0.029
-735.025	8.457	-0.133	-0.102
-734.010	-200.000	-0.040	-0.327
-732.996	205.183	-0.192	-0.304
-731.981	179.369	-0.069	0.103
-730.966	26.858	-0.189	-0.161
-729.952	-200.000	-0.038	-0.480
-728.937	-79.414	-0.327	-0.113
-727.923	412.311	0.013	0.027
-726.908	268.087	0.140	-0.249
-725.894	-124.345	-0.073	-0.012
-724.879	67.868	-0.240	-0.250
-723.864	-200.000	-0.001	0.060
-722.850	-6.368	0.166	-0.115
-721.835	549.100	-0.155	-0.378
-720.821	-75.514	0.122	0.044
-719.806	426.832	0.056	0.123
-718.791	-105.213	-0.439	-0.102
-717.777	-200.000	0.027	-0.500
-716.762	318.986	0.143	0.276
-715.748	-35.298	-0.202	-0.112
-714.733	-63.923	-0.319	0.133
-713.718	-45.645	0.168	-0.084
-712.704	800.000	-0.039	-0.139
-711.689	106.520	-0.141	0.171
-710.675	-56.814	0.121	0.054
-709.660	-23.615	-0.235	-0.143
-708.645	-96.433	0.156	0.042
-707.631	-102.982	0.369	-0.089
-706.616	565.855	0.109	0.269
-705.602	800.000	-0.063	0.248
-704.587	-200.000	0.012	0.236
-703.572	800.000	0.010	-0.043
-702.558	-32.556	0.200	-0.113
-701.543	800.000	-0.130	0.434
-700.529	-78.253	-0.133	-0.047
-699.514	-38.570	-0.119	-0.064
-698.499	118.207	0.311	-0.390
-697.485	227.702	-0.088	0.145
-696.470	-92.481	-0.283	-0.081
-695.456	800.000	-0.042	0.138
-694.441	-140.700	-0.266	0.028
-693.426	800.000	-0.039	0.129
-692.412	162.245	-0.202	0.289
-691.397	800.000	-0.122	0.358
-690.383	718.615	0.110	-0.297
-689.368	-123.314	-0.450	-0.073
-688.354	22.034	-0.325	0.270
-687.339	-68.969	0.340	-0.134
-686.324	125.162	0.109	0.140
-685.310	437.653	0.135	-0.300
-684.295	-183.785	-0.093	0.002
-683.281	498.439	-0.173	-0.404
-682.266	252.587	-0.180	0.312
-681.251	-127.954	-0.173	-0.025
-680.237	-200.000	-0.029	0.278
-679.222	-178.427	-0.163	0.004
-678.208	-76.138	-0.110	-0.039
-677.193	-19.090	-0.089	-0.056
-676.178	-34.450	-0.167	0.093
-675.164	800.000	0.037	-0.157
-674.149	23.859	-0.020	0.017
-673.135	79.529	-0.083	-0.090
-672.120	-143.851	0.093	-0.009
-671.105	170.854	0.176	0.256
-670.091	-179.813	-0.107	0.002
-669.076	231.988	0.131	-0.218
-668.062	800.000	0.072	-0.274
-667.047	-104.307	0.219	0.051
-666.032	-6.585	-0.171	0.118
-665.018	-200.000	-0.006	-0.086
-664.003	-200.000	0.010	-0.145
-662.989	654.039	-0.060	-0.157
-661.974	384.894	0.166	-0.348
-660.959	-79.414	-0.285	0.098
-659.945	-200.000	0.054	0.332
-658.930	-200.000	0.009	0.188
-657.916	-200.000	0.020	-0.160
-656.901	319.652	0.145	0.280
-655.886	251.276	-0.188	0.324
-654.872	430.555	-0.017	0.036
-653.857	-50.534	-0.172	-0.082
-652.843	-38.579	0.102	-0.055
-651.828	87.565	0.200	0.225
-650.814	12.999	-0.352	-0.277
-649.799	-97.464	0.225	0.059
-648.784	-24.283	0.132	-0.080
-647.770	-85.545	0.383	-0.121
-646.755	800.000	0.034	-0.121
-645.741	800.000	-0.167	0.501
-644.726	367.900	-0.064	0.131
-643.711	800.000	0.041	-0.167
-642.697	-200.000	0.018	-0.131
-641.682	89.092	0.314	0.356
-640.668	127.028	-0.111	0.143
-639.653	-200.000	-0.001	-0.054
-638.638	-56.485	-0.087	-0.039
-637.624	-99.598	-0.282	0.072
-636.609	800.000	-0.138	0.425
-635.595	800.000	0.082	-0.265
-634.580	-200.000	0.014	-0.085
-633.565	412.972	0.170	-0.367
-632.551	-95.722	-0.147	-0.040
-631.536	97.625	-0.205	-0.239
-630.522	-2.356	0.059	0.042
-629.507	-110.318	-0.374	0.079
-628.492	-147.972	-0.090	0.008
-627.478	-44.501	-0.350	-0.177
-626.463	-65.866	-0.099	0.040
-625.449	-105.992	0.209	-0.048
-624.434	-107.465	0.269	-0.060
-623.419	-32.106	-0.220	-0.125
-622.405	361.794	-0.125	-0.254
-621.390	180.538	-0.120	0.178
-620.376	-70.289	-0.158	0.061
-619.361	-99.166	-0.150	0.038
-618.346	390.856	0.046	-0.098
-617.332	-102.394	-0.308	0.075
-616.317	-200.000	-0.002	0.037
-615.303	-200.000	-0.034	-0.305
-614.288	95.391	0.152	-0.176
-613.273	9.716	-0.096	0.074
-612.259	-46.302	-0.179	-0.089
-611.244	-142.726	-0.036	0.004
-610.230	272.779	0.092	0.165
-609.215	-132.911	0.187	0.024
-608.201	-148.277	0.199	-0.017
-607.186	-200.000	-0.016	0.124
-606.171	32.562	-0.111	0.097
-605.157	45.579	0.229	-0.214
-604.142	123.153	-0.167	-0.212
-603.128	-81.147	-0.103	-0.035
-602.113	374.395	0.180	-0.372
-601.098	47.622	0.283	-0.268
-600.084	-129.874	-0.245	0.034
-599.069	247.745	-0.025	0.042
-598.055	296.397	-0.025	-0.046
-597.040	-28.644	0.372	-0.217
-596.025	25.795	-0.131	-0.111
-595.011	-200.000	-0.054	-0.319
-593.996	-6.306	0.177	-0.122
-592.982	307.900	-0.051	0.097
-591.967	511.769	-0.133	0.313
-590.952	54.007	0.212	-0.207
-589.938	-184.954	-0.037	0.001
-588.923	-40.195	0.239	0.126
-587.909	233.497	0.145	-0.242
-586.894	5.385	-0.201	-0.150
-585.879	-68.678	-0.475	0.186
-584.865	-40.015	-0.185	-0.098
-583.850	-58.445	-0.088	0.039
-582.836	-164.861	0.193	-0.009
-581.821	800.000	-0.059	0.226
-580.806	-176.691	-0.165	0.004
-579.792	-200.000	-0.025	-0.143
-578.777	8.268	0.096	-0.073
-577.763	387.475	0.049	0.102
-576.748	800.000	0.033	-0.128
-575.733	-28.944	0.358	-0.208
-574.719	-190.401	-0.096	-0.001
-573.704	-154.221	-0.093	-0.006
-572.690	-200.000	-0.025	0.278
-571.675	513.733	0.058	-0.138
-570.661	-57.530	0.298	0.132
-569.646	-103.129	0.551	0.132
-568.631	-119.363	0.474	-0.083
-567.617	800.000	0.080	-0.284
-566.602	-138.573	-0.149	0.017
-565.588	112.445	0.110	-0.135
-564.573	-121.946	-0.279	0.046
-563.558	-200.000	0.049	0.268
-562.544	-163.361	-0.089	0.004
-561.529	-158.582	0.259	-0.015
-560.515	-200.000	0.023	-0.142
-559.500	264.098	-0.218	-0.383
-558.485	800.000	-0.083	-0.265
-557.471	-200.000	-0.019	0.238
-556.456	-200.000	-0.006	0.250
-555.442	312.253	-0.050	0.095
-554.427	-101.174	0.132	0.033
-553.412	337.709	-0.040	0.080
-552.398	-21.223	0.299	-0.185
-551.383	56.210	0.150	-0.147
-550.369	-58.521	-0.182	-0.080
-549.354	343.777	-0.182	-0.362
-548.339	-160.976	0.229	-0.012
-547.325	-200.000	0.041	-0.272
-546.310	159.383	0.102	-0.144
-545.296	356.275	-0.042	0.085
-544.281	-143.188	-0.180	-0.018
-543.266	586.866	-0.040	-0.101
-542.252	-55.702	-0.031	0.014
-541.237	103.385	0.074	-0.088
-540.223	298.111	-0.125	-0.232
-539.208	182.266	0.227	-0.338
-538.193	277.410	-0.112	-0.201
-537.179	68.090	0.100	-0.103
-536.164	182.009	-0.123	0.183
-535.150	185.883	-0.070	0.106
-534.135	101.907	-0.249	0.294
-533.121	-117.029	-0.327	-0.060
-532.106	18.688	-0.288	0.233
-531.091	251.376	-0.152	-0.262
-530.077	35.427	0.086	0.076
-529.062	-46.635	-0.278	-0.138
-528.048	361.889	0.043	-0.087
-527.033	54.954	-0.176	0.171
-526.018	63.242	-0.323	-0.327
-525.004	154.863	0.057	-0.080
-523.989	-70.659	-0.051	-0.019
-522.975	-74.314	-0.194	0.071
-521.960	601.920	0.169	0.425
-520.945	800.000	-0.031	0.131
-519.931	-70.949	-0.050	-0.019
-518.916	38.327	0.109	0.098
-517.902	24.118	-0.371	-0.309
-516.887	800.000	0.087	0.258
-515.872	-187.079	0.291	-0.004
-514.858	-129.041	0.071	-0.010
-513.843	-200.000	0.034	0.163
-512.829	800.000	-0.059	0.183
-511.814	-132.905	0.023	0.003
-510.799	-123.427	-0.178	0.029
-509.785	171.824	-0.044	0.063
-508.770	11.763	0.135	0.104
-507.756	-10.276	-0.184	0.124
-506.741	-71.612	0.059	-0.022
-505.726	114.883	-0.059	0.073
-504.712	235.867	0.198	0.331
-503.697	161.610	0.170	0.240
-502.683	402.587	0.177	-0.376
-501.668	310.391	0.153	-0.289
-500.653	800.000	-0.088	-0.369
-499.639	-22.775	0.267	0.163
-498.624	563.846	0.038	0.092
-497.610	96.883	0.365	-0.422
-496.595	-19.703	0.232	0.145
-495.581	90.404	0.060	-0.067
-494.566	171.560	0.205	0.298
-493.551	-42.665	-0.176	-0.091
-492.537	24.620	0.151	0.126
-491.522	379.237	-0.069	0.143
-490.508	-116.664	0.139	-0.026
-489.493	177.088	0.105	-0.154
-488.478	-138.290	0.056	0.006
-487.464	-60.371	-0.233	0.100
-486.449	-200.000	0.007	-0.177
-485.435	116.009	0.144	-0.178
-484.420	-32.739	-0.147	-0.083
-483.405	-200.000	0.033	0.147
-482.391	-65.810	-0.033	0.014
-481.376	-55.116	-0.162	0.073
-480.362	-65.838	-0.150	0.061
-479.347	127.215	0.271	-0.347
-478.332	189.674	0.169	0.255
-477.318	48.285	-0.121	-0.114
-476.303	41.662	0.166	-0.152
-475.289	271.755	-0.174	0.309
-474.274	-78.542	0.182	0.063
-473.259	-200.000	0.001	-0.063
-472.245	139.763	-0.198	0.264
-471.230	-9.959	-0.047	0.031
-470.216	107.596	-0.049	0.059
-469.201	-23.815	0.302	0.183
-468.186	130.619	0.059	-0.076
-467.172	182.134	0.114	-0.169
-466.157	-167.900	-0.382	0.015
-465.143	251.738	-0.169	0.290
-464.128	-91.694	0.099	0.028
-463.113	65.772	-0.089	0.091
-462.099	-137.817	-0.342	-0.039
-461.084	2.617	0.191	0.140
-460.070	32.888	-0.121	0.105
-459.055	113.133	0.171	-0.209
-458.040	800.000	-0.030	0.093
-457.026	447.546	-0.134	-0.298
-456.011	-30.470	0.183	0.105
-454.997	344.301	-0.120	-0.237
-453.982	-200.000	0.026	-0.207
-452.968	-200.000	0.039	-0.249
-451.953	-86.779	0.248	-0.076
-450.938	-200.000	0.024	0.231
-449.924	-200.000	-0.008	0.158
-448.909	-32.111	-0.159	0.089
-447.895	-133.203	-0.266	0.034
-446.880	120.139	-0.138	-0.173
-445.865	-136.732	-0.230	0.027
-444.851	8.078	0.142	-0.107
-443.836	-89.559	0.183	0.054
-442.822	2.158	-0.203	-0.148
-441.807	56.637	-0.094	-0.092
-440.792	-178.832	-0.221	-0.005
-439.778	118.635	0.247	0.307
-438.763	285.620	0.058	0.105
-437.749	-200.000	0.067	0.303
-436.734	24.923	-0.207	-0.173
-435.719	-48.739	0.264	-0.127
-434.705	-119.973	0.245	0.042
-433.690	21.642	-0.148	0.122
-432.676	-200.000	0.003	0.200
-431.661	140.361	-0.118	0.157
-430.646	-90.220	0.144	-0.042
-429.632	-8.797	-0.375	0.253
-428.617	130.803	0.159	0.205
-427.603	395.881	0.061	-0.129
-426.588	74.658	0.008	-0.008
-425.573	-51.014	-0.206	0.097
-424.559	-94.535	-0.176	0.048
-423.544	-88.017	0.125	0.038
-422.530	-20.810	0.120	0.074
-421.515	87.709	0.102	-0.114
-420.500	83.925	-0.160	-0.175
-419.486	203.693	0.097	-0.151
-418.471	231.177	-0.098	-0.161
-417.457	58.574	0.304	-0.300
-416.442	-54.669	0.131	0.060
-415.428	-200.000	-0.002	0.180
-414.413	221.687	-0.145	0.234
-413.398	49.281	-0.073	0.069
-412.384	-200.000	-0.003	0.142
-411.369	-34.211	-0.318	0.176
-410.355	-111.945	-0.159	-0.032
-409.340	-33.688	0.247	-0.137
-408.325	-200.000	-0.048	0.446
-407.311	-87.600	-0.120	0.037
-406.296	793.972	0.085	0.235
-405.282	-69.871	-0.058	-0.022
-404.267	137.194	-0.008	0.011
-403.252	-17.909	-0.126	0.080
-402.238	-52.547	-0.113	-0.052
-401.223	87.431	-0.105	-0.116
-400.209	-200.000	0.022	-0.179
-399.194	-129.140	-0.220	-0.031
-398.179	92.813	0.161	0.182
-397.165	-40.552	-0.196	0.102
-396.150	114.134	0.118	0.144
-395.136	-49.420	0.277	0.133
-394.121	257.400	-0.169	-0.292
-393.106	800.000	0.052	0.203
-392.092	-200.000	0.026	0.213
-391.077	5.197	-0.163	0.121
-390.063	800.000	-0.034	0.103
-389.048	289.343	-0.107	0.195
-388.033	45.619	-0.186	-0.173
-387.019	-101.843	-0.160	-0.039
-386.004	-76.605	-0.397	0.140
-384.990	800.000	0.079	0.224
-383.975	282.886	0.069	-0.125
-382.960	-183.625	0.335	-0.006
-381.946	-157.712	0.266	-0.016
-380.931	-200.000	-0.049	0.223
-379.917	174.735	0.072	0.105
-378.902	-192.932	0.229	-0.002
-377.888	-175.825	-0.060	0.002
-376.873	-200.000	-0.036	-0.568
-375.858	-131.260	-0.149	0.020
-374.844	-10.793	0.102	-0.068
-373.829	-4.803	-0.091	-0.063
-372.815	73.353	0.291	-0.306
-371.800	-200.000	-0.075	0.464
-370.785	-20.909	-0.179	-0.110
-369.771	91.393	-0.173	0.196
-368.756	85.227	-0.021	-0.023
-367.742	-11.069	-0.125	0.083
-366.727	112.751	0.181	-0.220
-365.712	-166.318	-0.180	-0.008
-364.698	265.026	0.027	0.048
-363.683	24.362	0.082	0.068
-362.669	-200.000	-0.024	-0.203
-361.654	170.604	0.162	0.233
-360.639	-200.000	0.014	0.146
-359.625	-52.700	-0.429	0.199
-358.610	686.937	0.034	-0.090
-357.596	-106.245	0.167	-0.038
-356.581	-5.022	-0.339	0.234
-355.566	-45.295	-0.251	-0.125
-354.552	-158.200	0.144	0.008
-353.537	-38.835	-0.234	0.124
-352.523	800.000	0.059	0.247
-351.508	-55.117	0.052	-0.023
-350.493	-200.000	0.024	-0.152
-349.479	-55.721	0.064	-0.029
-348.464	320.983	-0.119	-0.227
-347.450	-63.766	-0.273	0.112
-346.435	-50.034	-0.160	-0.076
-345.420	800.000	0.041	-0.159
-344.406	137.742	0.146	-0.192
-343.391	15.902	0.199	0.157
-342.377	-200.000	0.044	-0.232
-341.362	522.279	0.040	0.095
-340.348	623.699	-0.068	-0.172
-339.333	-23.764	0.019	0.012
-338.318	375.343	0.062	-0.126
-337.304	800.000	0.022	0.073
-336.289	29.158	0.117	-0.100
-335.275	125.327	0.158	-0.200
-334.260	183.282	-0.083	0.123
-333.245	-6.547	0.185	-0.126
-332.231	-97.060	0.123	0.032
-331.216	43.920	-0.260	0.239
-330.202	-200.000	0.013	0.089
-329.187	-11.130	-0.104	0.069
-328.172	-101.300	-0.290	-0.071
-327.158	51.336	0.313	-0.298
-326.143	-126.946	-0.176	0.026
-325.129	118.732	-0.019	0.024
-324.114	58.864	0.182	-0.180
-323.099	-141.016	-0.228	0.023
-322.085	-73.224	-0.239	0.088
-321.070	-61.316	0.162	-0.068
-320.056	18.118	-0.255	0.204
-319.041	-159.706	-0.148	-0.008
-318.026	418.767	0.043	0.092
-317.012	218.286	-0.004	-0.006
-315.997	338.501	0.107	0.209
-314.983	-49.517	0.272	0.130
-313.968	800.000	0.085	-0.272
-312.953	-116.913	-0.233	0.043
-311.939	30.155	0.114	0.098
-310.924	17.781	-0.511	0.408
-309.910	-167.661	0.190	-0.008
-308.895	0.630	0.079	-0.057
-307.880	-200.000	0.005	0.050
-306.866	800.000	-0.015	-0.048
-305.851	-66.718	0.166	0.066
-304.837	61.428	-0.266	-0.265
-303.822	497.418	0.031	-0.070
-302.807	12.595	-0.098	-0.076
-301.793	-171.263	-0.075	0.003
-300.778	-31.282	0.105	0.059
-299.764	138.316	0.135	0.177
-298.749	-111.870	0.283	-0.057
-297.735	106.618	-0.077	0.091
-296.720	800.000	0.038	-0.122
-295.705	65.330	-0.109	0.110
-294.691	687.617	0.130	0.342
-293.676	-123.850	0.246	0.039
-292.662	-95.414	0.147	0.039
-291.647	800.000	-0.101	0.287
-290.632	-81.753	-0.211	0.069
-289.618	-56.115	0.358	-0.160
-288.603	-200.000	0.026	0.151
-287.589	-200.000	-0.033	0.240
-286.574	-75.029	0.387	0.139
-285.559	800.000	-0.078	0.311
-284.545	-193.314	-0.088	-0.001
-283.530	-128.721	-0.312	-0.044
-282.516	9.431	-0.250	0.190
-281.501	-200.000	0.014	-0.226
-280.486	-54.294	0.391	-0.178
-279.472	-44.582	-0.164	0.082
-278.457	800.000	0.016	0.048
-277.443	-180.116	-0.098	0.002
-276.428	-101.738	-0.075	-0.018
-275.413	106.694	-0.144	0.171
-274.399	-22.044	-0.288	0.175
-273.384	506.044	0.057	-0.132
-272.370	-24.372	0.151	0.090
-271.355	88.793	0.155	-0.173
-270.340	47.266	-0.093	-0.087
-269.326	100.241	0.221	-0.257
-268.311	-200.000	-0.009	-0.142
-267.297	96.894	-0.237	0.272
-266.282	800.000	0.012	0.048
-265.267	58.752	0.109	-0.107
-264.253	-28.582	0.403	0.232
-263.238	-73.604	0.247	-0.090
-262.224	-200.000	-0.013	-0.162
-261.209	-64.809	0.059	-0.024
-260.195	-200.000	0.029	-0.161
-259.180	26.557	-0.375	-0.314
-258.165	800.000	-0.012	-0.045
-257.151	-200.000	-0.013	-0.160
-256.136	-200.000	0.015	0.069
-255.122	800.000	-0.045	0.163
-254.107	-96.370	-0.104	-0.027
-253.092	482.114	0.047	0.107
-252.078	167.521	-0.184	0.261
-251.063	295.370	-0.053	0.097
-250.049	69.209	-0.179	0.184
-249.034	800.000	-0.105	0.359
-248.019	800.000	0.045	-0.135
-247.005	4.904	-0.089	0.065
-245.990	-4.321	-0.196	-0.136
-244.976	-75.958	-0.164	0.058
-243.961	42.654	0.096	0.088
-242.946	-94.148	0.229	-0.063
-241.932	-200.000	-0.061	0.299
-240.917	-44.154	-0.121	-0.061
-239.903	-200.000	0.023	-0.287
-238.888	-200.000	0.064	-0.285
-237.873	-200.000	0.110	-0.512
-236.859	44.147	0.088	0.081
-235.844	-98.362	-0.316	-0.081
-234.830	-200.000	0.033	0.149
-233.815	800.000	0.106	-0.330
-232.800	-58.114	0.094	-0.041
-231.786	133.840	-0.172	-0.223
-230.771	-147.415	-0.112	-0.009
-229.757	61.966	0.242	-0.241
-228.742	-200.000	-0.026	0.153
-227.727	-200.000	0.002	0.269
-226.713	235.944	0.067	0.111
-225.698	-52.215	0.339	0.157
-224.684	-30.130	-0.127	0.072
-223.669	-58.552	0.448	-0.194
-222.655	602.606	0.052	0.130
-221.640	-152.297	-0.236	0.017
-220.625	74.357	0.104	-0.109
-219.611	35.671	-0.080	-0.070
-218.596	-25.134	-0.177	-0.105
-217.582	-102.418	0.338	-0.081
-216.567	-122.174	0.477	-0.078
-215.552	127.545	0.223	0.283
-214.538	80.718	0.185	-0.200
-213.523	-70.394	0.117	-0.044
-212.509	693.968	-0.045	-0.118
-211.494	-22.324	-0.140	-0.084
-210.479	-92.957	0.249	0.069
-209.465	-200.000	-0.001	0.029
-208.450	645.456	-0.093	-0.238
-207.436	132.381	-0.108	0.139
-206.421	308.606	0.021	-0.039
-205.406	109.859	0.319	-0.382
-204.392	625.408	-0.076	-0.191
-203.377	-200.000	0.008	-0.205
-202.363	800.000	0.107	0.420
-201.348	129.363	-0.171	0.218
-200.333	626.858	-0.065	0.164
-199.319	-100.956	0.397	-0.097
-198.304	-38.164	-0.141	-0.075
-197.290	-200.000	0.025	0.111
-196.275	303.013	-0.066	-0.122
-195.260	-62.348	0.155	-0.064
-194.246	-12.420	-0.158	0.103
-193.231	242.809	0.070	-0.117
-192.217	800.000	0.033	-0.096
-191.202	-142.648	0.522	-0.051
-190.187	-200.000	-0.030	-0.429
-189.173	34.501	-0.153	-0.133
-188.158	-56.923	0.108	-0.047
-187.144	413.789	-0.078	-0.166
-186.129	390.928	-0.079	0.163
-185.114	539.150	0.054	0.128
-184.100	176.948	0.049	-0.072
-183.085	83.642	0.057	0.062
-182.071	-95.706	-0.102	0.027
-181.056	-87.940	-0.198	-0.059
-180.042	-76.774	-0.212	0.074
-179.027	-93.319	0.081	0.022
-178.012	352.283	-0.092	-0.181
-176.998	-43.371	-0.083	-0.042
-175.983	-200.000	-0.004	0.083
-174.969	800.000	-0.036	0.149
-173.954	-200.000	0.025	0.329
-172.939	-144.142	0.028	0.003
-171.925	-105.585	-0.014	0.003
-170.910	-85.184	-0.051	-0.016
-169.896	23.004	0.127	0.103
-168.881	-200.000	-0.037	0.183
-167.866	-120.513	0.175	0.030
-166.852	800.000	-0.066	0.185
-165.837	-125.478	-0.142	0.022
-164.823	-78.855	-0.235	0.080
-163.808	800.000	0.030	0.099
-162.793	-200.000	-0.008	0.098
-161.779	-200.000	0.006	0.140
-160.764	67.818	0.285	0.290
-159.750	-200.000	0.019	-0.153
-158.735	235.914	-0.047	0.077
-157.720	-13.465	0.316	-0.204
-156.706	-48.758	-0.093	-0.045
-155.691	40.003	0.221	0.198
-154.677	-30.683	0.307	-0.173
-153.662	-82.059	-0.240	0.078
-152.647	36.684	0.100	0.088
-151.633	491.421	-0.065	-0.147
-150.618	-30.314	-0.098	0.056
-149.604	800.000	0.067	0.265
-148.589	533.424	-0.166	-0.391
-147.574	800.000	-0.103	0.346
-146.560	-49.275	-0.369	-0.175
-145.545	433.831	-0.027	0.058
-144.531	-80.054	0.106	-0.035
-143.516	96.891	0.134	0.153
-142.502	-85.316	-0.066	-0.021
-141.487	800.000	0.052	-0.147
-140.472	-139.092	0.234	0.025
-139.458	-3.921	-0.184	0.127
-138.443	-200.000	-0.050	-0.553
-137.429	-153.770	0.122	-0.008
-136.414	-165.354	0.207	0.009
-135.399	290.345	-0.076	0.138
-134.385	-200.000	0.068	0.360
-133.370	-31.284	-0.177	0.099
-132.356	218.018	0.341	0.541
-131.341	800.000	0.094	0.309
-130.326	-118.851	-0.495	-0.087
-129.312	31.184	-0.056	-0.048
-128.297	55.270	-0.093	-0.090
-127.283	108.555	0.160	-0.190
-126.268	-0.220	0.359	-0.254
-125.253	-88.111	-0.079	-0.023
-124.239	209.331	-0.066	0.103
-123.224	-187.731	0.170	-0.002
-122.210	257.422	-0.123	-0.211
-121.195	294.841	-0.078	0.142
