DTS Sentinel unit serial number:	SN413079Multiplexer serial number:	ORYXHardware model number:	OX4-SRSoftware version number:	ORYX F/W v4.00 Oryx Data Collector v3.7.2.0data status	okinstallation	princeton_trtdifferential loss correction	single-endedforward channel	channel 4reverse channel	N/Adate	2019/09/16time	22:17:35forward acquisition time	60.00reverse acquisition time	0.00gamma	496.2192k internal	0.2313k external	0.2313temperature offset calibration	0.9969default loss term (dB/km)	0.3790temperature slope calibration	1.0000multiplexer offset coefficient	1.0000multiplexer slope coefficient	1.0000fibre end	0.00T internal ref (°C)	31.00T ext. ref 1 (°C)	0.08T ext. ref 2 (°C)	24.65length (m)	temperature (°C)	Stokes	anti-Stokes-747.200	800.000	0.044	-0.166
-746.185	93.358	-0.193	0.222
-745.171	-92.958	0.038	0.011
-744.156	390.483	0.216	0.455
-743.142	-200.000	0.029	0.464
-742.127	624.818	0.103	0.264
-741.112	-79.386	0.209	-0.072
-740.098	-9.561	-0.368	0.249
-739.083	-113.357	0.162	0.032
-738.069	-200.000	-0.112	0.511
-737.054	-194.534	0.270	0.002
-736.039	142.237	-0.153	-0.206
-735.025	-10.390	-0.314	-0.211
-734.010	258.429	-0.181	-0.316
-732.996	40.915	-0.222	0.203
-731.981	-44.447	0.263	-0.133
-730.966	-200.000	0.011	-0.264
-729.952	25.137	-0.337	-0.284
-728.937	-200.000	-0.027	-0.139
-727.923	-9.495	0.356	-0.241
-726.908	-200.000	0.015	0.270
-725.894	-59.274	0.314	0.137
-724.879	-117.405	0.092	0.017
-723.864	-200.000	-0.016	0.128
-722.850	800.000	0.066	0.210
-721.835	84.234	0.196	-0.218
-720.821	-200.000	0.014	0.257
-719.806	57.176	-0.178	0.176
-718.791	-17.331	-0.088	0.056
-717.777	120.967	0.066	-0.083
-716.762	-171.756	0.202	-0.007
-715.748	183.996	0.057	0.086
-714.733	800.000	0.043	0.132
-713.718	-200.000	-0.007	-0.143
-712.704	-123.470	0.230	0.037
-711.689	144.973	0.044	-0.060
-710.675	37.888	0.216	-0.194
-709.660	126.161	0.162	-0.208
-708.645	133.253	0.174	-0.228
-707.631	-22.644	-0.234	-0.144
-706.616	789.791	-0.082	-0.228
-705.602	52.263	-0.121	-0.116
-704.587	215.706	0.118	-0.190
-703.572	66.953	-0.312	-0.322
-702.558	-88.352	-0.384	-0.116
-701.543	195.703	0.122	0.188
-700.529	-132.438	-0.301	-0.039
-699.514	-200.000	-0.011	-0.094
-698.499	800.000	0.035	0.110
-697.485	800.000	-0.017	-0.059
-696.470	-200.000	0.018	-0.314
-695.456	308.000	0.087	-0.164
-694.441	-36.570	-0.137	0.075
-693.426	31.633	0.161	-0.140
-692.412	800.000	-0.037	-0.109
-691.397	-54.592	0.222	0.102
-690.383	319.128	-0.106	0.204
-689.368	244.300	-0.160	0.272
-688.354	-155.569	-0.304	0.020
-687.339	-76.704	0.314	0.112
-686.324	522.870	-0.142	0.338
-685.310	-128.989	0.207	-0.029
-684.295	-135.051	0.132	-0.016
-683.281	-200.000	-0.001	-0.333
-682.266	-168.384	0.094	0.004
-681.251	-200.000	-0.009	0.137
-680.237	800.000	-0.095	-0.380
-679.222	-200.000	0.015	-0.381
-678.208	-85.487	0.252	-0.079
-677.193	-71.535	-0.157	0.059
-676.178	82.520	-0.081	0.089
-675.164	800.000	0.058	0.187
-674.149	250.840	-0.127	0.219
-673.135	773.615	-0.115	-0.318
-672.120	-8.394	0.149	-0.101
-671.105	-123.702	-0.184	-0.029
-670.091	146.175	0.156	-0.212
-669.076	-94.503	-0.096	0.026
-668.062	324.896	0.149	0.289
-667.047	200.491	0.079	-0.122
-666.032	102.726	0.251	0.297
-665.018	800.000	0.030	-0.124
-664.003	-32.953	-0.161	-0.090
-662.989	-81.268	0.103	0.034
-661.974	6.726	0.096	0.072
-660.959	-145.141	-0.172	0.016
-659.945	40.369	-0.220	-0.200
-658.930	-131.841	-0.336	0.044
-657.916	-60.898	-0.282	0.121
-656.901	-101.570	0.109	0.027
-655.886	261.478	0.069	0.122
-654.872	-182.125	0.121	0.002
-653.857	-200.000	-0.049	0.371
-652.843	92.711	-0.204	0.232
-651.828	-72.656	0.439	-0.164
-650.814	-57.608	0.122	0.054
-649.799	-98.153	0.269	0.070
-648.784	197.518	-0.137	-0.212
-647.770	800.000	-0.096	-0.283
-646.755	484.235	0.128	-0.294
-645.741	-54.959	0.093	0.042
-644.726	8.544	-0.245	-0.186
-643.711	-200.000	0.041	0.269
-642.697	-134.364	-0.060	-0.007
-641.682	800.000	-0.101	-0.353
-640.668	113.892	0.147	-0.180
-639.653	-61.472	-0.246	-0.105
-638.638	-200.000	0.026	-0.172
-637.624	-200.000	-0.075	-0.442
-636.609	-200.000	-0.026	0.127
-635.595	800.000	-0.042	-0.144
-634.580	-200.000	-0.049	0.339
-633.565	25.459	-0.171	0.143
-632.551	-200.000	0.022	-0.099
-631.536	162.795	0.041	-0.059
-630.522	9.152	0.090	0.069
-629.507	411.225	-0.049	0.105
-628.492	116.341	-0.116	-0.144
-627.478	140.005	-0.263	-0.350
-626.463	54.589	0.186	0.181
-625.449	178.403	-0.145	0.213
-624.434	-196.906	-0.101	-0.001
-623.419	800.000	-0.075	-0.276
-622.405	63.369	-0.206	-0.209
-621.390	-87.131	0.352	-0.108
-620.376	20.461	-0.263	-0.215
-619.361	-95.768	-0.238	0.064
-618.346	-200.000	0.011	-0.194
-617.332	-38.335	0.278	0.149
-616.317	-200.000	0.012	-0.104
-615.303	3.331	-0.191	-0.140
-614.288	800.000	0.029	-0.105
-613.273	800.000	0.079	-0.297
-612.259	-138.083	0.097	-0.011
-611.244	-200.000	-0.025	-0.170
-610.230	223.401	0.164	-0.267
-609.215	-29.064	0.226	0.131
-608.201	-200.000	-0.002	-0.113
-607.186	-85.035	0.075	-0.024
-606.171	327.358	0.032	-0.062
-605.157	197.105	0.065	-0.101
-604.142	77.042	-0.299	-0.320
-603.128	-112.056	0.107	0.022
-602.113	-97.780	0.248	-0.065
-601.098	-122.053	-0.519	-0.086
-600.084	288.763	0.110	0.201
-599.069	-47.493	-0.107	-0.052
-598.055	800.000	-0.103	0.447
-597.040	8.885	-0.145	-0.110
-596.025	-161.931	0.159	0.008
-595.011	-18.108	-0.231	0.146
-593.996	-103.881	-0.199	-0.047
-592.982	34.080	-0.106	-0.093
-591.967	156.331	-0.051	0.071
-590.952	-200.000	0.031	0.176
-589.938	112.417	-0.110	0.135
-588.923	-43.748	-0.145	0.074
-587.909	-200.000	0.024	0.282
-586.894	-200.000	0.003	-0.052
-585.879	33.522	-0.198	0.173
-584.865	63.439	0.362	0.366
-583.850	108.008	0.111	-0.133
-582.836	-82.335	-0.098	-0.032
-581.821	317.891	0.040	-0.077
-580.806	-110.185	-0.296	-0.062
-579.792	345.802	-0.201	0.398
-578.777	560.666	-0.119	0.291
-577.763	-34.143	-0.095	0.053
-576.748	-200.000	0.009	-0.052
-575.733	54.104	0.253	0.245
-574.719	139.744	0.106	0.141
-573.704	-128.051	-0.335	-0.048
-572.690	-42.728	0.120	0.062
-571.675	-200.000	-0.009	-0.125
-570.661	171.162	-0.167	-0.241
-569.646	-133.201	0.216	0.028
-568.631	-27.074	0.232	-0.136
-567.617	-47.798	-0.557	0.272
-566.602	50.032	-0.091	0.086
-565.588	-49.531	0.363	0.174
-564.573	57.710	-0.203	-0.200
-563.558	5.873	0.230	0.172
-562.544	800.000	-0.037	0.150
-561.529	-50.129	0.176	0.084
-560.515	158.213	-0.088	0.123
-559.500	-86.354	-0.217	0.067
-558.485	350.599	0.069	-0.138
-557.471	-200.000	-0.006	0.433
-556.456	-200.000	0.060	-0.330
-555.442	56.207	0.083	-0.081
-554.427	-107.906	0.145	-0.032
-553.412	-144.393	-0.366	0.034
-552.398	73.924	-0.095	0.100
-551.383	-200.000	0.017	0.085
-550.369	-200.000	0.020	0.095
-549.354	364.588	-0.150	-0.304
-548.339	-93.883	-0.340	0.094
-547.325	800.000	-0.060	0.241
-546.310	590.688	0.195	0.485
-545.296	87.775	-0.066	-0.074
-544.281	800.000	-0.104	-0.424
-543.266	-126.864	-0.277	0.041
-542.252	800.000	0.057	0.239
-541.237	-200.000	-0.039	0.172
-540.223	47.758	0.163	0.153
-539.208	-200.000	-0.008	0.197
-538.193	-91.167	0.094	0.027
-537.179	-200.000	-0.007	0.057
-536.164	377.300	-0.024	0.049
-535.150	-200.000	0.035	0.234
-534.135	-146.897	0.122	-0.011
-533.121	193.409	0.224	0.341
-532.106	92.287	0.129	0.147
-531.091	548.341	-0.139	-0.335
-530.077	42.154	0.175	-0.160
-529.062	-120.258	-0.322	0.055
-528.048	-200.000	-0.011	0.071
-527.033	800.000	0.051	-0.152
-526.018	-135.149	-0.219	-0.026
-525.004	-102.893	0.299	-0.071
-523.989	800.000	-0.016	0.068
-522.975	-90.619	0.354	0.103
-521.960	347.320	-0.045	0.090
-520.945	-200.000	-0.038	-0.307
-519.931	800.000	-0.065	-0.187
-518.916	546.151	-0.115	-0.276
-517.902	283.854	-0.099	-0.179
-516.887	-84.767	0.183	-0.058
-515.872	156.161	0.242	0.336
-514.858	-92.057	-0.128	-0.036
-513.843	-51.359	0.223	-0.105
-512.829	-200.000	0.018	0.300
-511.814	38.335	-0.200	0.179
-510.799	-33.767	0.403	-0.223
-509.785	-32.569	-0.229	0.128
-508.770	-55.829	-0.197	-0.088
-507.756	-140.672	0.230	-0.024
-506.741	-200.000	0.106	0.507
-505.726	-2.577	-0.248	0.175
-504.712	800.000	-0.088	0.323
-503.697	-107.078	-0.165	-0.037
-502.683	69.188	0.190	-0.197
-501.668	-110.476	0.305	-0.064
-500.653	-138.525	-0.284	0.031
-499.639	-0.149	-0.200	0.143
-498.624	800.000	-0.123	-0.390
-497.610	-15.640	0.096	0.062
-496.595	-182.390	0.300	0.006
-495.581	-200.000	-0.010	0.231
-494.566	3.671	0.302	-0.221
-493.551	125.265	-0.085	-0.107
-492.537	-200.000	0.013	0.140
-491.522	-16.668	0.169	-0.107
-490.508	-66.033	-0.303	-0.121
-489.493	-76.220	-0.302	-0.107
-488.478	-61.521	0.388	0.164
-487.464	-170.835	-0.144	-0.005
-486.449	124.261	0.306	-0.386
-485.435	800.000	-0.056	0.221
-484.420	-135.833	0.282	0.033
-483.405	25.522	-0.122	-0.102
-482.391	648.683	-0.100	-0.258
-481.376	-38.960	-0.294	0.155
-480.362	-200.000	-0.059	0.425
-479.347	-200.000	0.172	0.000
-478.332	102.900	0.071	0.083
-477.318	-138.943	-0.220	-0.024
-476.303	-41.334	-0.150	-0.078
-475.289	-47.753	0.174	-0.085
-474.274	-200.000	-0.033	0.173
-473.259	478.154	0.141	0.320
-472.245	103.078	0.170	-0.200
-471.230	243.849	0.231	-0.389
-470.216	-67.474	0.175	0.069
-469.201	-185.526	0.045	0.001
-468.186	-63.393	0.231	-0.095
-467.172	78.770	0.051	-0.055
-466.157	-141.642	0.102	-0.010
-465.143	-200.000	0.014	-0.299
-464.128	800.000	-0.033	-0.146
-463.113	-127.224	0.160	0.023
-462.099	-108.952	0.339	-0.072
-461.084	-200.000	0.032	0.169
-460.070	-162.788	-0.365	-0.018
-459.055	-114.715	-0.130	-0.025
-458.040	-200.000	-0.008	0.104
-457.026	800.000	0.076	-0.240
-456.011	-200.000	0.030	0.212
-454.997	800.000	-0.108	-0.346
-453.982	281.393	-0.167	0.300
-452.968	118.660	-0.124	-0.154
-451.953	-200.000	-0.009	-0.057
-450.938	96.487	0.264	0.303
-449.924	-200.000	-0.067	0.350
-448.909	-108.595	0.085	0.018
-447.895	-63.779	0.047	0.019
-446.880	-200.000	0.019	-0.207
-445.865	305.936	-0.191	0.356
-444.851	800.000	-0.096	0.269
-443.836	190.730	-0.046	-0.069
-442.822	440.131	0.064	-0.140
-441.807	72.014	0.140	-0.146
-440.792	-200.000	-0.019	-0.225
-439.778	112.314	0.070	0.085
-438.763	299.696	0.041	-0.075
-437.749	41.553	-0.202	0.183
-436.734	-134.979	-0.092	0.011
-435.719	97.393	-0.049	0.056
-434.705	-188.617	0.208	-0.003
-433.690	-200.000	0.009	-0.080
-432.676	-200.000	0.027	-0.153
-431.661	135.035	0.177	-0.231
-430.646	800.000	0.006	0.021
-429.632	-166.520	-0.286	-0.012
-428.617	-200.000	0.039	-0.285
-427.603	-120.315	-0.239	-0.041
-426.588	133.424	0.059	-0.077
-425.573	298.012	0.060	0.110
-424.559	-200.000	-0.001	0.421
-423.544	-75.977	0.152	-0.054
-422.530	-191.527	0.153	-0.002
-421.515	23.940	-0.080	0.066
-420.500	-152.132	-0.199	-0.014
-419.486	-200.000	-0.027	-0.299
-418.471	394.155	0.192	0.400
-417.457	15.058	-0.208	0.163
-416.442	-138.804	-0.299	0.033
-415.428	217.532	-0.165	0.263
-414.413	-78.909	0.096	-0.033
-413.398	-120.286	0.391	-0.067
-412.384	-148.680	-0.194	-0.016
-411.369	-109.154	-0.091	0.019
-410.355	-107.616	-0.138	-0.030
-409.340	229.156	-0.133	0.217
-408.325	-29.817	0.076	-0.043
-407.311	200.063	0.063	0.097
-406.296	148.267	-0.160	-0.216
-405.282	-79.086	-0.135	0.046
-404.267	84.535	-0.028	0.030
-403.252	-33.874	-0.273	-0.151
-402.238	-64.345	-0.187	-0.076
-401.223	-55.823	-0.298	-0.133
-400.209	-87.201	-0.335	-0.102
-399.194	-106.676	-0.310	0.069
-398.179	599.564	0.049	-0.122
-397.165	-139.534	0.360	-0.039
-396.150	-200.000	0.033	0.353
-395.136	14.006	-0.245	-0.191
-394.121	800.000	0.025	0.109
-393.106	-200.000	0.046	0.270
-392.092	-71.762	0.224	-0.084
-391.077	800.000	0.086	-0.255
-390.063	800.000	0.031	-0.108
-389.048	-86.506	-0.135	0.041
-388.033	-17.643	0.099	-0.062
-387.019	532.467	0.077	-0.182
-386.004	-55.590	0.240	-0.107
-384.990	376.193	0.072	-0.147
-383.975	-150.638	0.242	-0.018
-382.960	27.890	-0.212	-0.179
-381.946	-71.608	-0.122	0.046
-380.931	-83.854	0.239	0.076
-379.917	-173.632	0.096	-0.003
-378.902	5.947	0.192	-0.142
-377.888	-63.753	0.071	0.029
-376.873	-40.212	-0.205	-0.107
-375.858	-200.000	0.016	-0.392
-374.844	-200.000	0.196	-0.001
-373.829	76.430	-0.117	0.124
-372.815	-122.295	0.115	0.019
-371.800	-84.421	-0.162	0.051
-370.785	28.409	-0.100	0.085
-369.771	39.510	0.229	0.205
-368.756	-200.000	0.082	-0.439
-367.742	362.984	-0.078	0.157
-366.727	-72.410	0.068	0.025
-365.712	-77.733	0.060	-0.021
-364.698	-153.793	0.330	0.023
-363.683	429.020	0.141	-0.305
-362.669	76.285	-0.128	-0.135
-361.654	-121.045	-0.174	-0.029
-360.639	39.577	-0.347	-0.311
-359.625	-62.453	0.076	-0.032
-358.610	-200.000	-0.002	-0.183
-357.596	140.000	0.232	0.305
-356.581	-34.808	0.101	0.055
-355.566	106.022	0.219	0.259
-354.552	419.867	-0.152	-0.324
-353.537	-200.000	0.036	0.165
-352.523	495.112	0.074	-0.170
-351.508	-98.913	0.216	0.055
-350.493	-120.579	-0.300	0.051
-349.479	-200.000	-0.043	-0.390
-348.464	-200.000	0.030	-0.135
-347.450	187.285	0.041	-0.061
-346.435	-17.872	0.130	0.082
-345.420	-20.313	0.179	0.110
-344.406	102.295	0.040	0.046
-343.391	212.910	-0.104	-0.164
-342.377	-200.000	-0.025	-0.269
-341.362	110.423	0.086	-0.103
-340.348	-200.000	-0.035	0.295
-339.333	22.968	0.253	0.208
-338.318	-200.000	-0.006	0.110
-337.304	-200.000	0.008	-0.138
-336.289	-200.000	0.073	0.378
-335.275	-200.000	-0.003	-0.078
-334.260	-200.000	0.009	-0.102
-333.245	6.061	0.071	0.052
-332.231	-200.000	-0.071	-0.541
-331.216	66.862	0.059	0.060
-330.202	418.923	0.122	-0.260
-329.187	-200.000	-0.008	0.092
-328.172	-200.000	0.057	-0.285
-327.158	-200.000	-0.050	0.376
-326.143	196.606	-0.150	-0.229
-325.129	-32.333	0.167	0.093
-324.114	-200.000	0.008	0.094
-323.099	254.810	0.103	-0.176
-322.085	-109.131	0.240	0.051
-321.070	-200.000	0.006	0.275
-320.056	-103.248	-0.251	-0.059
-319.041	439.390	0.023	0.050
-318.026	50.613	0.152	0.143
-317.012	151.378	-0.209	0.284
-315.997	-35.351	0.163	0.089
-314.983	-70.388	-0.428	-0.162
-313.968	-93.869	-0.212	0.058
-312.953	-200.000	-0.052	-0.268
-311.939	6.335	-0.370	-0.274
-310.924	-148.664	0.063	-0.005
-309.910	-3.206	-0.264	0.183
-308.895	-126.176	-0.385	-0.057
-307.880	800.000	0.036	0.137
-306.866	221.241	-0.118	0.188
-305.851	-59.254	0.074	-0.032
-304.837	144.111	-0.114	0.151
-303.822	-43.825	-0.226	-0.114
-302.807	-200.000	0.016	-0.085
-301.793	-39.394	-0.165	0.086
-300.778	-138.505	0.250	-0.027
-299.764	-75.504	-0.264	0.094
-298.749	-200.000	0.048	-0.234
-297.735	-200.000	0.055	-0.297
-296.720	-200.000	-0.087	0.447
-295.705	800.000	0.057	0.165
-294.691	155.867	0.095	-0.130
-293.676	11.731	0.181	-0.138
-292.662	186.572	0.105	-0.155
-291.647	-200.000	0.001	0.194
-290.632	462.439	-0.055	-0.122
-289.618	-116.823	0.187	0.034
-288.603	-32.184	0.117	-0.065
-287.589	156.084	-0.121	-0.166
-286.574	-200.000	-0.033	-0.152
-285.559	48.508	0.190	-0.177
-284.545	-114.340	0.127	0.024
-283.530	-167.633	-0.193	-0.008
-282.516	-29.953	-0.130	-0.074
-281.501	-200.000	-0.081	-0.000
-280.486	-103.338	-0.352	0.083
-279.472	-134.741	-0.220	0.027
-278.457	-44.560	0.173	0.086
-277.443	63.045	-0.157	-0.156
-276.428	-200.000	0.069	0.380
-275.413	-101.210	0.450	-0.110
-274.399	30.312	0.158	0.135
-273.384	-97.425	-0.138	0.036
-272.370	164.993	0.066	0.093
-271.355	43.036	0.280	-0.255
-270.340	-118.306	0.165	-0.029
-269.326	-87.507	0.149	-0.045
-268.311	-10.465	-0.353	0.233
-267.297	-97.940	0.185	0.047
-266.282	344.758	0.168	-0.328
-265.267	542.423	-0.054	0.128
-264.253	149.798	0.115	0.155
-263.238	-88.399	0.199	0.059
-262.224	213.088	0.079	0.125
-261.209	-130.325	0.240	-0.032
-260.195	339.974	0.091	-0.177
-259.180	29.541	-0.258	0.218
-258.165	11.546	-0.127	0.097
-257.151	55.055	0.078	0.075
-256.136	9.103	-0.019	-0.014
-255.122	-200.000	-0.023	-0.206
-254.107	-53.786	-0.173	-0.079
-253.092	4.680	0.196	-0.144
-252.078	-46.447	0.255	-0.124
-251.063	-8.194	-0.252	-0.169
-250.049	-124.490	-0.189	0.029
-249.034	-77.072	0.390	0.135
-248.019	800.000	-0.072	-0.257
-247.005	800.000	-0.021	0.089
-245.990	-16.471	0.176	0.111
-244.976	-200.000	0.036	-0.240
-243.961	770.410	-0.034	0.092
-242.946	-9.115	0.288	0.191
-241.932	-131.993	-0.274	-0.036
-240.917	58.938	-0.187	-0.183
-239.903	132.356	-0.082	-0.105
-238.888	-174.991	-0.067	-0.002
-237.873	364.688	0.131	0.263
-236.859	209.704	-0.174	0.271
-235.844	-93.221	0.330	0.091
-234.830	-102.750	0.166	0.039
-233.815	800.000	-0.059	-0.217
-232.800	38.430	0.144	-0.127
-231.786	707.108	-0.063	-0.165
-230.771	-120.508	-0.283	0.048
-229.757	-200.000	0.053	-0.354
-228.742	-200.000	0.030	-0.285
-227.727	-200.000	0.020	0.526
-226.713	-78.158	0.422	-0.144
-225.698	236.794	0.162	-0.266
-224.684	62.027	0.038	-0.038
-223.669	69.324	0.049	0.050
-222.655	130.547	-0.138	0.176
-221.640	319.806	-0.073	0.137
-220.625	-58.513	0.268	-0.116
-219.611	-200.000	-0.001	0.180
-218.596	800.000	0.134	0.442
-217.582	800.000	-0.094	-0.300
-216.567	-200.000	0.070	0.349
-215.552	-60.633	0.129	-0.054
-214.538	-120.728	-0.164	0.028
-213.523	382.567	-0.076	-0.155
-212.509	800.000	0.054	0.218
-211.494	217.018	0.067	-0.107
-210.479	-200.000	0.061	-0.307
-209.465	-73.981	0.309	0.111
-208.450	800.000	-0.052	-0.152
-207.436	-200.000	0.009	0.220
-206.421	223.537	0.106	0.170
-205.406	37.333	0.063	-0.055
-204.392	89.392	-0.144	0.160
-203.377	122.490	0.058	-0.073
-202.363	58.744	-0.169	0.165
-201.348	-53.360	0.146	-0.067
-200.333	288.919	0.056	0.100
-199.319	-139.843	-0.325	0.034
-198.304	-200.000	0.007	-0.032
-197.290	-200.000	0.077	0.427
-196.275	268.699	0.056	0.098
-195.260	208.716	0.100	0.155
-194.246	-200.000	0.000	-0.064
-193.231	-82.742	-0.238	0.077
-192.217	800.000	-0.030	0.122
-191.202	-119.092	0.245	0.043
-190.187	-142.402	-0.245	0.024
-189.173	231.767	0.123	0.200
-188.158	77.850	-0.096	-0.101
-187.144	-200.000	0.033	-0.173
-186.129	231.649	0.141	0.229
-185.114	41.634	-0.150	0.135
-184.100	800.000	0.068	0.253
-183.085	28.748	0.188	-0.158
-182.071	-200.000	-0.019	-0.306
-181.056	530.299	-0.027	0.064
-180.042	-143.847	0.097	0.009
-179.027	119.872	-0.189	-0.232
-178.012	800.000	-0.058	-0.189
-176.998	-158.379	0.179	0.010
-175.983	-131.258	0.244	0.032
-174.969	800.000	0.058	-0.211
-173.954	800.000	-0.034	0.106
-172.939	-200.000	0.049	-0.302
-171.925	-60.137	0.215	0.091
-170.910	312.291	-0.116	0.216
-169.896	75.376	0.095	0.099
-168.881	300.209	-0.208	0.381
-167.866	-200.000	0.004	-0.120
-166.852	-200.000	-0.013	0.146
-165.837	22.824	-0.025	-0.020
-164.823	-24.471	-0.234	0.138
-163.808	-133.022	-0.075	-0.009
-162.793	-173.646	-0.137	-0.004
-161.779	800.000	0.040	0.162
-160.764	268.896	0.180	0.312
-159.750	-200.000	-0.016	0.225
-158.735	-0.112	0.043	-0.030
-157.720	-200.000	0.021	0.173
-156.706	-180.976	0.218	-0.004
-155.691	-112.710	-0.137	0.027
-154.677	161.086	-0.258	-0.357
-153.662	-200.000	0.086	0.000
-152.647	-45.633	-0.218	-0.107
-151.633	262.023	-0.099	0.171
-150.618	10.539	-0.064	0.049
-149.604	-84.091	-0.036	0.011
-148.589	495.801	-0.069	0.157
-147.574	9.022	0.143	0.107
-146.560	-200.000	-0.020	0.192
-145.545	-200.000	-0.039	-0.173
-144.531	102.404	0.148	0.171
-143.516	292.786	0.153	0.276
-142.502	-87.002	0.101	0.031
-141.487	-59.302	0.146	0.062
-140.472	-109.232	-0.213	-0.045
-139.458	800.000	-0.036	0.127
-138.443	-129.603	-0.429	-0.059
-137.429	151.071	0.113	-0.152
-136.414	46.851	0.201	-0.185
-135.399	54.183	0.143	-0.137
-134.385	-70.293	0.213	0.080
-133.370	517.820	0.075	-0.174
-132.356	7.052	-0.158	-0.117
-131.341	-131.209	0.254	-0.033
-130.326	-200.000	0.002	0.346
-129.312	23.639	0.337	0.274
-128.297	9.851	0.405	0.304
-127.283	254.541	0.177	0.300
-126.268	100.019	0.071	-0.081
-125.253	-52.668	-0.147	-0.067
-124.239	-16.374	-0.111	-0.070
-123.224	-56.421	0.432	0.190
-122.210	800.000	-0.074	0.282
