DTS Sentinel unit serial number:	SN413079Multiplexer serial number:	ORYXHardware model number:	OX4-SRSoftware version number:	ORYX F/W v4.00 Oryx Data Collector v3.7.2.0data status	okinstallation	princeton_trtdifferential loss correction	single-endedforward channel	channel 4reverse channel	N/Adate	2019/09/14time	08:33:35forward acquisition time	60.00reverse acquisition time	0.00gamma	496.2192k internal	0.2314k external	0.2314temperature offset calibration	1.0137default loss term (dB/km)	0.3790temperature slope calibration	1.0000multiplexer offset coefficient	1.0000multiplexer slope coefficient	1.0000fibre end	0.00T internal ref (°C)	28.56T ext. ref 1 (°C)	3.65T ext. ref 2 (°C)	25.99length (m)	temperature (°C)	Stokes	anti-Stokes-747.200	-108.054	-0.293	0.064
-746.185	14.906	0.218	-0.173
-745.171	122.534	-0.176	0.223
-744.156	-12.232	-0.167	0.110
-743.142	-45.737	-0.319	-0.160
-742.127	-163.866	0.296	-0.014
-741.112	-200.000	0.000	0.016
-740.098	-15.564	-0.278	-0.180
-739.083	115.242	0.129	-0.160
-738.069	288.461	0.088	-0.161
-737.054	-181.474	-0.177	0.003
-736.039	124.941	-0.044	-0.056
-735.025	-200.000	-0.003	0.027
-734.010	185.717	0.087	0.131
-732.996	338.404	-0.161	0.318
-731.981	-63.124	0.187	0.078
-730.966	30.959	0.137	0.119
-729.952	-200.000	-0.059	-0.343
-728.937	-200.000	-0.028	-0.386
-727.923	-200.000	0.001	-0.171
-726.908	-20.372	0.206	0.129
-725.894	-151.005	-0.095	-0.007
-724.879	302.868	-0.035	0.066
-723.864	88.781	0.213	-0.240
-722.850	480.850	-0.104	0.240
-721.835	800.000	-0.054	-0.166
-720.821	-200.000	-0.017	0.192
-719.806	800.000	0.101	-0.294
-718.791	18.406	-0.166	-0.134
-717.777	40.511	0.071	-0.064
-716.762	-65.230	-0.510	-0.208
-715.748	-125.628	-0.236	0.036
-714.733	393.135	0.086	0.182
-713.718	206.336	-0.066	0.104
-712.704	-52.674	-0.084	-0.039
-711.689	121.125	-0.076	0.095
-710.675	-48.949	-0.064	-0.031
-709.660	-39.797	-0.170	-0.090
-708.645	-120.193	0.302	-0.052
-707.631	-40.030	-0.159	0.084
-706.616	-36.328	-0.194	0.106
-705.602	-200.000	0.016	-0.088
-704.587	60.408	0.202	-0.202
-703.572	4.563	-0.162	0.120
-702.558	12.116	-0.081	-0.063
-701.543	-31.694	-0.199	0.113
-700.529	784.997	0.077	0.214
-699.514	662.477	-0.099	0.257
-698.499	598.444	-0.076	-0.191
-697.485	370.797	-0.120	0.246
-696.470	34.466	0.027	0.024
-695.456	-200.000	-0.007	-0.355
-694.441	193.160	-0.170	0.259
-693.426	-200.000	0.034	-0.372
-692.412	-32.931	-0.216	0.121
-691.397	-97.590	-0.326	0.086
-690.383	-200.000	-0.008	0.257
-689.368	-37.110	-0.163	-0.088
-688.354	49.987	0.150	0.143
-687.339	-126.817	-0.173	0.026
-686.324	387.914	0.081	0.170
-685.310	-38.145	-0.364	0.196
-684.295	261.493	-0.095	0.167
-683.281	126.972	0.250	-0.321
-682.266	-26.762	-0.167	0.099
-681.251	-115.086	-0.067	0.013
-680.237	-104.103	0.033	0.008
-679.222	-149.813	0.037	-0.003
-678.208	-160.178	0.285	-0.016
-677.193	-200.000	0.000	-0.106
-676.178	-200.000	-0.033	-0.214
-675.164	-44.423	-0.237	-0.120
-674.149	-37.892	-0.250	0.134
-673.135	-74.568	0.094	0.034
-672.120	-90.710	0.251	0.073
-671.105	-7.599	-0.358	0.245
-670.091	-111.974	-0.195	0.040
-669.076	151.607	-0.167	0.230
-668.062	-200.000	-0.011	0.254
-667.047	-38.293	0.221	-0.118
-666.032	519.991	-0.127	-0.300
-665.018	-52.631	0.176	-0.082
-664.003	115.223	-0.126	0.155
-662.989	-37.462	-0.164	0.088
-661.974	509.659	-0.070	0.165
-660.959	184.170	0.077	0.115
-659.945	-49.001	0.075	0.036
-658.930	800.000	0.065	-0.253
-657.916	-36.431	-0.065	0.035
-656.901	560.148	0.154	0.377
-655.886	98.292	0.202	0.235
-654.872	-200.000	0.012	-0.272
-653.857	325.265	-0.058	0.112
-652.843	-103.290	-0.126	0.030
-651.828	90.464	0.120	0.136
-650.814	-32.545	-0.092	0.052
-649.799	-126.851	0.249	0.037
-648.784	-67.866	-0.216	-0.085
-647.770	800.000	-0.062	-0.181
-646.755	-107.779	0.233	0.051
-645.741	-88.166	0.146	-0.044
-644.726	-132.834	0.058	-0.008
-643.711	-119.659	0.319	-0.056
-642.697	-24.991	-0.288	-0.173
-641.682	-200.000	0.015	0.208
-640.668	-42.785	-0.154	-0.079
-639.653	800.000	0.094	-0.358
-638.638	53.226	0.123	0.119
-637.624	512.694	-0.055	0.130
-636.609	172.628	-0.126	0.183
-635.595	149.860	-0.072	-0.099
-634.580	-22.656	-0.196	0.120
-633.565	800.000	0.062	-0.201
-632.551	-200.000	0.015	-0.301
-631.536	-152.019	-0.422	-0.031
-630.522	95.446	0.231	0.266
-629.507	443.634	0.166	-0.368
-628.492	-200.000	-0.068	0.416
-627.478	-118.220	0.272	0.049
-626.463	-101.789	-0.355	-0.087
-625.449	110.924	0.084	0.101
-624.434	144.609	0.186	-0.250
-623.419	-100.955	-0.239	0.059
-622.405	-200.000	0.007	0.211
-621.390	-19.359	0.144	0.090
-620.376	-29.319	0.108	0.062
-619.361	34.336	-0.097	-0.085
-618.346	142.459	0.149	-0.199
-617.332	-85.333	-0.232	0.073
-616.317	-200.000	0.003	0.277
-615.303	-148.770	-0.166	0.014
-614.288	-11.043	-0.164	0.109
-613.273	-200.000	0.002	0.123
-612.259	308.020	-0.221	0.416
-611.244	-151.804	0.283	0.021
-610.230	137.070	0.242	0.320
-609.215	225.914	-0.187	0.305
-608.201	-42.529	-0.107	0.055
-607.186	-61.380	-0.187	0.080
-606.171	-106.661	-0.056	-0.013
-605.157	-31.683	0.116	0.066
-604.142	-56.531	-0.229	0.102
-603.128	578.839	0.041	-0.100
-602.113	-37.596	-0.180	0.097
-601.098	-138.876	0.082	-0.009
-600.084	800.000	-0.122	-0.460
-599.069	-116.702	-0.061	0.011
-598.055	-77.419	-0.178	0.062
-597.040	800.000	0.040	-0.136
-596.025	800.000	-0.108	-0.310
-595.011	-200.000	-0.017	-0.354
-593.996	665.455	-0.030	-0.078
-592.982	-56.811	0.107	-0.048
-591.967	-183.468	-0.142	-0.002
-590.952	-85.256	-0.363	0.114
-589.938	-200.000	0.026	-0.113
-588.923	3.328	-0.128	-0.094
-587.909	800.000	0.108	0.463
-586.894	0.314	-0.300	-0.216
-585.879	-130.780	-0.127	0.017
-584.865	-135.404	0.541	0.065
-583.850	-200.000	-0.004	-0.280
-582.836	216.734	-0.042	0.067
-581.821	-58.607	0.067	-0.029
-580.806	-137.245	-0.131	0.015
-579.792	800.000	-0.129	-0.378
-578.777	-200.000	-0.005	-0.225
-577.763	258.519	0.193	-0.334
-576.748	-138.116	0.141	0.016
-575.733	-95.213	-0.168	-0.046
-574.719	-200.000	-0.012	-0.265
-573.704	210.790	-0.172	0.273
-572.690	-47.330	0.185	0.091
-571.675	242.614	0.135	0.228
-570.661	5.880	-0.316	-0.235
-569.646	-47.523	0.132	-0.065
-568.631	-200.000	-0.074	-0.388
-567.617	129.286	-0.174	-0.223
-566.602	116.298	-0.172	0.212
-565.588	800.000	0.074	-0.239
-564.573	87.019	0.144	-0.160
-563.558	172.201	0.130	0.189
-562.544	-177.016	-0.215	0.005
-561.529	205.101	0.144	0.225
-560.515	6.999	-0.241	0.180
-559.500	21.312	-0.141	-0.116
-558.485	-77.955	-0.388	0.135
-557.471	-31.879	-0.029	0.016
-556.456	-127.147	-0.104	-0.015
-555.442	260.804	0.094	0.163
-554.427	-132.511	-0.148	-0.019
-553.412	-32.748	0.150	0.084
-552.398	7.749	-0.067	0.051
-551.383	800.000	-0.143	-0.412
-550.369	43.892	-0.196	-0.180
-549.354	260.706	0.088	-0.153
-548.339	-82.316	0.052	-0.017
-547.325	98.561	-0.181	-0.210
-546.310	243.538	0.097	-0.164
-545.296	800.000	0.100	-0.313
-544.281	-200.000	-0.025	-0.349
-543.266	-191.587	-0.055	-0.001
-542.252	-200.000	-0.007	0.300
-541.237	150.014	-0.184	-0.251
-540.223	35.475	0.327	0.288
-539.208	800.000	-0.064	0.184
-538.193	-54.038	-0.179	-0.082
-537.179	-155.800	0.296	0.019
-536.164	100.647	-0.040	0.046
-535.150	-55.555	-0.448	-0.202
-534.135	800.000	-0.133	-0.511
-533.121	-200.000	0.006	-0.585
-532.106	704.323	-0.106	-0.282
-531.091	-56.942	-0.049	0.022
-530.077	-200.000	0.001	-0.017
-529.062	-200.000	0.038	-0.360
-528.048	-50.637	-0.301	-0.143
-527.033	20.651	0.241	-0.196
-526.018	-0.614	-0.192	0.137
-525.004	149.852	-0.201	-0.274
-523.989	800.000	0.070	-0.299
-522.975	-44.642	0.137	-0.069
-521.960	-115.910	0.116	-0.022
-520.945	-124.298	0.181	-0.028
-519.931	800.000	0.089	0.248
-518.916	233.100	-0.059	0.098
-517.902	166.498	-0.204	0.290
-516.887	-200.000	0.047	0.424
-515.872	122.452	-0.143	-0.180
-514.858	22.893	0.342	0.282
-513.843	-73.319	-0.304	0.112
-512.829	410.252	0.046	-0.099
-511.814	-200.000	0.004	-0.309
-510.799	33.058	0.070	0.061
-509.785	203.171	-0.088	-0.136
-508.770	418.437	-0.106	0.228
-507.756	-46.231	-0.165	-0.081
-506.741	-33.533	0.226	-0.126
-505.726	207.314	-0.113	-0.177
-504.712	-200.000	0.047	-0.267
-503.697	-113.627	-0.066	0.013
-502.683	800.000	-0.084	0.237
-501.668	452.252	-0.096	0.214
-500.653	-115.895	0.064	0.012
-499.639	-200.000	0.041	0.290
-498.624	-67.680	0.116	-0.046
-497.610	-14.634	-0.096	0.062
-496.595	-119.260	-0.172	0.030
-495.581	800.000	0.083	0.245
-494.566	259.572	-0.203	0.352
-493.551	-200.000	0.001	0.218
-492.537	605.246	-0.084	0.209
-491.522	-122.181	0.315	0.052
-490.508	-52.186	0.194	-0.091
-489.493	546.399	0.093	-0.224
-488.478	5.383	-0.077	0.057
-487.464	-53.133	0.161	-0.074
-486.449	800.000	-0.045	-0.133
-485.435	-200.000	-0.004	-0.038
-484.420	350.115	-0.049	-0.098
-483.405	-200.000	-0.008	0.314
-482.391	180.006	-0.145	-0.213
-481.376	455.239	0.086	-0.191
-480.362	-8.510	-0.097	-0.065
-479.347	67.290	-0.157	0.161
-478.332	-100.356	0.339	0.084
-477.318	800.000	-0.147	0.431
-476.303	800.000	-0.094	0.376
-475.289	-200.000	-0.001	0.073
-474.274	800.000	0.060	0.239
-473.259	45.733	-0.202	-0.188
-472.245	-200.000	0.015	-0.099
-471.230	-45.449	0.183	-0.091
-470.216	61.756	0.309	0.308
-469.201	-179.986	0.427	0.009
-468.186	-92.408	-0.167	-0.047
-467.172	-200.000	0.002	-0.351
-466.157	42.739	0.130	-0.119
-465.143	-117.728	0.391	-0.070
-464.128	383.411	-0.027	-0.056
-463.113	-124.724	0.073	0.011
-462.099	-200.000	-0.001	-0.249
-461.084	-200.000	0.037	0.174
-460.070	39.863	-0.057	0.051
-459.055	-49.876	0.104	-0.050
-458.040	-96.501	0.136	-0.036
-457.026	-83.193	-0.195	-0.063
-456.011	181.201	0.164	0.242
-454.997	-41.082	-0.168	-0.087
-453.982	-95.088	-0.482	-0.131
-452.968	-200.000	-0.076	-0.394
-451.953	-65.852	0.108	0.043
-450.938	-200.000	-0.008	0.172
-449.924	337.780	-0.058	0.113
-448.909	-108.642	-0.140	-0.030
-447.895	47.252	0.215	-0.201
-446.880	-200.000	-0.051	-0.260
-445.865	531.169	-0.024	-0.056
-444.851	709.918	0.133	-0.352
-443.836	-200.000	-0.002	0.183
-442.822	-100.008	-0.159	0.040
-441.807	800.000	-0.105	0.358
-440.792	-200.000	0.001	-0.011
-439.778	81.409	0.107	0.116
-438.763	-200.000	-0.040	0.249
-437.749	800.000	-0.061	0.240
-436.734	16.125	-0.168	0.132
-435.719	63.223	0.285	0.286
-434.705	-200.000	-0.008	-0.105
-433.690	-2.420	0.275	-0.193
-432.676	-161.671	-0.207	0.011
-431.661	-200.000	-0.042	0.201
-430.646	-58.065	-0.242	0.106
-429.632	26.910	-0.151	0.127
-428.617	49.412	0.031	-0.029
-427.603	-102.685	0.198	-0.047
-426.588	-200.000	0.002	-0.054
-425.573	171.201	-0.171	0.246
-424.559	-200.000	-0.039	0.173
-423.544	-47.892	0.112	-0.054
-422.530	-123.622	0.278	0.044
-421.515	800.000	-0.025	-0.073
-420.500	50.794	0.017	0.016
-419.486	-176.971	-0.298	-0.008
-418.471	800.000	0.140	-0.399
-417.457	39.670	0.057	0.051
-416.442	-14.642	-0.119	-0.076
-415.428	-200.000	-0.013	-0.161
-414.413	-37.416	-0.025	0.013
-413.398	129.774	0.130	-0.167
-412.384	-23.621	0.052	0.031
-411.369	-107.341	0.308	-0.068
-410.355	-200.000	0.026	0.217
-409.340	-65.442	0.169	-0.068
-408.325	215.830	-0.133	0.211
-407.311	61.490	0.024	-0.024
-406.296	-50.185	0.055	-0.026
-405.282	429.774	-0.120	-0.261
-404.267	-62.973	-0.262	0.108
-403.252	59.087	0.117	0.115
-402.238	-200.000	0.005	-0.274
-401.223	44.492	-0.394	-0.362
-400.209	352.686	0.094	0.187
-399.194	5.109	-0.218	-0.161
-398.179	-152.714	0.180	0.013
-397.165	-80.883	-0.286	0.095
-396.150	-200.000	0.404	0.001
-395.136	-160.226	0.436	0.024
-394.121	378.444	-0.081	-0.165
-393.106	320.466	-0.258	0.491
-392.092	-46.330	-0.174	-0.085
-391.077	332.528	-0.090	0.175
-390.063	-89.151	-0.122	-0.036
-389.048	-91.051	-0.125	-0.036
-388.033	-140.524	0.365	0.038
-387.019	-92.725	0.137	-0.038
-386.004	800.000	0.157	0.499
-384.990	5.611	-0.260	-0.192
-383.975	-125.327	0.390	-0.059
-382.960	156.236	-0.162	-0.224
-381.946	-200.000	-0.004	-0.109
-380.931	-54.194	-0.231	0.105
-379.917	-59.563	-0.096	-0.041
-378.902	-200.000	-0.021	-0.257
-377.888	-74.336	0.206	0.074
-376.873	-97.439	0.058	0.015
-375.858	5.272	-0.339	-0.250
-374.844	-59.184	0.339	0.146
-373.829	100.453	-0.205	0.238
-372.815	800.000	0.050	-0.211
-371.800	572.347	0.139	0.338
-370.785	399.063	-0.078	0.164
-369.771	171.238	0.203	0.291
-368.756	-71.223	0.175	-0.066
-367.742	800.000	-0.059	-0.195
-366.727	-48.922	-0.151	-0.072
-365.712	800.000	0.006	0.019
-364.698	-41.139	0.217	-0.112
-363.683	-73.659	-0.144	0.053
-362.669	800.000	0.045	-0.181
-361.654	-18.536	-0.257	0.160
-360.639	-123.045	0.091	0.015
-359.625	-200.000	0.004	-0.262
-358.610	288.020	-0.146	0.264
-357.596	-200.000	0.035	-0.271
-356.581	737.000	0.061	-0.162
-355.566	110.168	-0.352	0.422
-354.552	-50.466	0.029	-0.013
-353.537	316.707	0.115	-0.216
-352.523	48.109	0.212	-0.198
-351.508	160.658	0.167	0.233
-350.493	-75.897	-0.194	0.069
-349.479	42.191	0.021	-0.019
-348.464	122.012	0.162	-0.202
-347.450	-200.000	-0.007	-0.131
-346.435	15.366	0.136	0.107
-345.420	61.707	0.142	0.141
-344.406	800.000	0.058	-0.209
-343.391	-101.990	0.049	0.012
-342.377	153.994	0.212	-0.291
-341.362	-200.000	0.010	0.195
-340.348	-63.517	-0.516	0.211
-339.333	432.956	0.040	0.087
-338.318	35.356	0.242	0.212
-337.304	33.324	0.157	-0.136
-336.289	-38.054	0.144	-0.076
-335.275	800.000	-0.058	0.247
-334.260	-200.000	-0.019	-0.274
-333.245	-106.827	0.151	-0.033
-332.231	-130.488	-0.314	-0.042
-331.216	-141.519	0.102	0.010
-330.202	-10.657	0.069	0.045
-329.187	78.231	0.009	-0.010
-328.172	800.000	-0.088	0.254
-327.158	-200.000	-0.008	-0.332
-326.143	-57.299	0.377	0.165
-325.129	54.613	0.097	-0.093
-324.114	54.676	0.089	-0.085
-323.099	-152.946	0.083	-0.006
-322.085	377.516	-0.079	-0.162
-321.070	323.604	0.028	0.053
-320.056	800.000	-0.155	-0.536
-319.041	109.792	-0.132	0.158
-318.026	-126.666	0.289	0.043
-317.012	-74.882	-0.379	-0.136
-315.997	177.560	0.086	0.125
-314.983	707.229	-0.076	0.199
-313.968	-70.156	0.123	0.046
-312.953	15.092	-0.297	0.232
-311.939	445.443	-0.093	-0.204
-310.924	-200.000	-0.037	0.244
-309.910	657.691	0.104	0.265
-308.895	21.637	0.141	-0.114
-307.880	539.433	0.078	-0.186
-306.866	-200.000	0.011	0.183
-305.851	-158.916	-0.363	-0.021
-304.837	800.000	0.095	-0.319
-303.822	64.018	-0.195	-0.195
-302.807	-200.000	0.023	0.375
-301.793	-65.300	-0.061	-0.024
-300.778	-83.716	0.331	-0.105
-299.764	78.179	-0.060	0.064
-298.749	123.029	-0.209	0.261
-297.735	-62.240	0.102	0.042
-296.720	30.259	-0.079	0.068
-295.705	603.926	0.038	0.095
-294.691	-148.432	0.106	0.009
-293.676	800.000	-0.112	-0.316
-292.662	14.475	-0.117	0.091
-291.647	-200.000	-0.041	-0.255
-290.632	-138.072	0.156	-0.017
-289.618	365.304	0.264	0.529
-288.603	-17.670	-0.013	-0.008
-287.589	-39.523	0.188	0.098
-286.574	-3.973	0.139	0.096
-285.559	462.676	-0.122	0.272
-284.545	320.745	-0.177	0.335
-283.530	800.000	-0.031	0.096
-282.516	-122.714	-0.211	0.034
-281.501	-60.687	-0.284	0.120
-280.486	13.179	0.389	-0.300
-279.472	-73.180	0.010	-0.004
-278.457	-21.524	0.234	0.142
-277.443	62.421	0.188	0.187
-276.428	28.653	-0.142	0.120
-275.413	-200.000	0.084	-0.447
-274.399	-112.027	0.197	0.040
-273.384	10.362	-0.316	0.239
-272.370	55.056	-0.104	0.100
-271.355	-47.821	0.171	-0.083
-270.340	540.473	-0.131	-0.311
-269.326	184.561	0.224	0.331
-268.311	55.058	0.070	-0.067
-267.297	-42.646	0.078	-0.040
-266.282	248.254	-0.114	0.192
-265.267	-161.555	-0.427	0.022
-264.253	-162.565	0.201	0.010
-263.238	-200.000	0.011	0.176
-262.224	-200.000	0.014	0.214
-261.209	15.290	0.158	0.123
-260.195	-188.647	-0.174	-0.002
-259.180	603.310	-0.169	0.418
-258.165	68.581	0.320	0.326
-257.151	800.000	0.048	0.131
-256.136	-101.698	0.283	-0.068
-255.122	85.602	0.112	-0.122
-254.107	-22.420	0.159	-0.096
-253.092	64.501	0.344	0.345
-252.078	-200.000	-0.006	-0.056
-251.063	322.688	0.053	-0.100
-250.049	27.189	0.211	0.176
-249.034	365.582	0.030	-0.061
-248.019	-96.923	0.329	-0.086
-247.005	-110.931	0.210	-0.043
-245.990	101.260	0.145	-0.167
-244.976	19.646	0.130	-0.104
-243.961	70.877	0.188	-0.194
-242.946	634.537	-0.083	-0.210
-241.932	-200.000	0.033	0.148
-240.917	-200.000	0.013	-0.199
-239.903	-163.584	0.103	0.005
-238.888	-115.713	0.095	-0.018
-237.873	169.713	-0.044	-0.062
-236.859	-41.182	0.115	-0.059
-235.844	125.446	0.098	-0.123
-234.830	23.458	-0.179	0.146
-233.815	-137.725	0.065	0.007
-232.800	169.099	0.235	0.333
-231.786	-200.000	-0.002	-0.145
-230.771	800.000	0.060	-0.242
-229.757	149.845	-0.070	0.094
-228.742	124.438	0.055	0.069
-227.727	-200.000	-0.018	0.120
-226.713	-100.852	-0.144	-0.035
-225.698	-129.730	-0.126	-0.017
-224.684	26.895	-0.250	0.209
-223.669	-5.583	0.259	-0.176
-222.655	-139.288	0.042	0.004
-221.640	800.000	-0.057	-0.211
-220.625	-91.633	-0.310	0.088
-219.611	-200.000	0.061	0.405
-218.596	-54.792	-0.313	-0.140
-217.582	14.165	0.210	-0.162
-216.567	-200.000	-0.006	0.034
-215.552	-31.288	-0.426	-0.238
-214.538	-200.000	-0.049	0.266
-213.523	-88.077	-0.333	0.099
-212.509	-200.000	-0.003	-0.015
-211.494	-73.908	0.059	0.021
-210.479	750.417	-0.082	0.220
-209.465	-5.112	-0.209	-0.143
-208.450	800.000	0.030	0.093
-207.436	608.380	-0.163	0.404
-206.421	285.029	-0.022	0.039
-205.406	800.000	0.141	-0.396
-204.392	62.750	0.109	0.108
-203.377	800.000	0.055	0.175
-202.363	678.932	-0.055	0.143
-201.348	-200.000	0.005	0.242
-200.333	-200.000	0.065	-0.376
-199.319	-200.000	0.017	-0.080
-198.304	800.000	0.003	0.014
-197.290	-63.795	0.207	0.084
-196.275	-200.000	0.034	-0.195
-195.260	548.013	0.030	-0.071
-194.246	486.771	0.083	-0.187
-193.231	216.010	-0.189	0.298
-192.217	-200.000	-0.000	0.066
-191.202	209.775	0.060	-0.093
-190.187	-93.281	-0.056	0.015
-189.173	275.253	0.049	0.087
-188.158	-116.677	0.178	0.033
-187.144	41.530	-0.122	0.110
-186.129	-59.584	-0.154	-0.065
-185.114	-200.000	0.067	-0.497
-184.100	800.000	0.027	-0.099
-183.085	-52.114	0.204	-0.094
-182.071	-12.396	0.261	-0.169
-181.056	-59.085	-0.351	0.150
-180.042	429.101	-0.164	-0.352
-179.027	-63.646	-0.437	-0.178
-178.012	532.770	0.044	-0.104
-176.998	691.230	0.115	0.299
-175.983	-200.000	0.000	0.332
-174.969	320.624	-0.108	-0.204
-173.954	33.759	0.152	-0.131
-172.939	23.206	0.145	0.118
-171.925	-97.661	0.161	-0.041
-170.910	168.785	0.146	-0.207
-169.896	-79.594	-0.169	0.057
-168.881	130.485	-0.073	0.093
-167.866	-69.925	-0.205	-0.078
-166.852	-91.561	0.222	-0.063
-165.837	-139.044	0.265	-0.028
-164.823	234.449	0.191	0.311
-163.808	-35.194	-0.245	0.132
-162.793	117.234	0.088	-0.107
-161.779	-166.843	-0.208	0.008
-160.764	1.680	-0.076	0.054
-159.750	184.814	0.102	0.149
-158.735	18.002	0.204	0.162
-157.720	202.822	-0.074	-0.113
-156.706	14.592	-0.114	-0.088
-155.691	800.000	0.069	0.219
-154.677	-146.048	0.203	0.018
-153.662	-69.507	-0.023	0.009
-152.647	-104.498	-0.118	-0.027
-151.633	-35.044	0.318	0.172
-150.618	800.000	0.031	-0.109
-149.604	247.493	-0.029	0.049
-148.589	-200.000	-0.017	0.202
-147.574	-200.000	0.021	-0.211
-146.560	-200.000	0.016	0.071
-145.545	206.836	0.147	0.226
-144.531	-200.000	-0.042	0.184
-143.516	266.014	-0.084	-0.146
-142.502	243.247	0.137	-0.227
-141.487	-98.432	-0.214	-0.054
-140.472	-200.000	0.022	0.105
-139.458	800.000	0.076	-0.265
-138.443	800.000	0.056	0.212
-137.429	-80.751	-0.285	0.094
-136.414	-52.482	0.348	-0.159
-135.399	566.522	-0.112	0.269
-134.385	26.366	-0.143	-0.118
-133.370	296.576	0.037	0.067
-132.356	611.607	0.049	0.122
-131.341	-21.347	-0.411	-0.249
-130.326	563.819	-0.138	0.330
-129.312	-200.000	0.067	-0.292
-128.297	-200.000	-0.027	-0.377
-127.283	-86.196	0.378	0.115
-126.268	43.093	-0.174	0.157
-125.253	283.705	-0.239	0.424
-124.239	-200.000	-0.021	0.133
-123.224	428.065	0.035	-0.076
-122.210	-200.000	-0.053	0.272
-121.195	1.319	0.214	0.152
