DTS Sentinel unit serial number:	SN413079Multiplexer serial number:	ORYXHardware model number:	OX4-SRSoftware version number:	ORYX F/W v4.00 Oryx Data Collector v3.7.2.0data status	okinstallation	princeton_trtdifferential loss correction	single-endedforward channel	channel 4reverse channel	N/Adate	2019/09/18time	08:57:34forward acquisition time	60.00reverse acquisition time	0.00gamma	496.2192k internal	0.2324k external	0.2324temperature offset calibration	0.9987default loss term (dB/km)	0.3790temperature slope calibration	1.0000multiplexer offset coefficient	1.0000multiplexer slope coefficient	1.0000fibre end	0.00T internal ref (°C)	24.98T ext. ref 1 (°C)	0.24T ext. ref 2 (°C)	21.39length (m)	temperature (°C)	Stokes	anti-Stokes-747.200	94.471	0.142	0.163
-746.185	-29.825	0.168	0.097
-745.171	-146.463	-0.268	-0.024
-744.156	-200.000	-0.026	0.272
-743.142	8.595	0.087	-0.066
-742.127	-200.000	-0.023	0.418
-741.112	-200.000	0.001	-0.016
-740.098	65.940	-0.288	0.295
-739.083	-200.000	-0.019	0.097
-738.069	-103.826	-0.099	0.023
-737.054	-200.000	0.056	-0.334
-736.039	-77.146	-0.075	-0.026
-735.025	212.500	0.155	0.247
-734.010	-110.430	-0.217	0.045
-732.996	12.063	-0.278	-0.216
-731.981	18.439	-0.066	-0.053
-730.966	-200.000	-0.026	0.380
-729.952	105.285	-0.185	-0.220
-728.937	157.583	-0.124	-0.174
-727.923	-19.243	-0.229	0.143
-726.908	-97.782	-0.259	0.068
-725.894	800.000	0.065	-0.237
-724.879	-108.283	0.245	-0.053
-723.864	-68.922	-0.097	-0.038
-722.850	-73.310	-0.080	0.029
-721.835	800.000	-0.012	0.033
-720.821	124.506	-0.330	0.419
-719.806	138.015	-0.054	0.072
-718.791	-134.945	-0.466	0.057
-717.777	-200.000	-0.036	0.444
-716.762	48.432	0.094	-0.088
-715.748	105.474	0.028	-0.034
-714.733	263.146	-0.250	-0.438
-713.718	-39.084	0.222	-0.118
-712.704	-179.959	-0.220	-0.005
-711.689	486.295	0.024	-0.055
-710.675	221.310	0.064	-0.104
-709.660	-200.000	-0.065	-0.326
-708.645	-127.512	-0.273	-0.040
-707.631	-200.000	0.020	-0.190
-706.616	416.834	-0.092	0.199
-705.602	-82.642	-0.133	0.043
-704.587	800.000	0.093	-0.395
-703.572	359.615	-0.144	0.290
-702.558	-200.000	0.017	-0.116
-701.543	124.461	0.142	0.179
-700.529	320.005	-0.055	-0.106
-699.514	-200.000	-0.042	-0.260
-698.499	-200.000	0.003	0.238
-697.485	-69.531	-0.292	-0.113
-696.470	-200.000	-0.008	0.219
-695.456	257.343	-0.081	-0.140
-694.441	325.306	-0.144	0.277
-693.426	737.426	-0.054	-0.146
-692.412	-21.432	-0.134	-0.082
-691.397	154.608	-0.290	-0.401
-690.383	-61.084	-0.308	-0.131
-689.368	-50.626	0.202	-0.096
-688.354	-200.000	0.018	0.324
-687.339	127.318	0.128	0.163
-686.324	-200.000	0.013	-0.146
-685.310	-200.000	0.008	0.080
-684.295	-117.591	-0.291	-0.053
-683.281	64.794	0.105	-0.107
-682.266	576.585	-0.140	0.346
-681.251	386.180	-0.017	0.036
-680.237	-137.670	-0.296	-0.033
-679.222	441.243	0.087	0.192
-678.208	-172.985	-0.362	-0.011
-677.193	-200.000	0.031	0.153
-676.178	-200.000	0.052	0.281
-675.164	-200.000	0.032	-0.215
-674.149	-200.000	-0.007	-0.350
-673.135	-58.874	0.069	0.030
-672.120	-65.323	-0.177	-0.072
-671.105	-160.950	0.165	-0.009
-670.091	-200.000	-0.017	-0.149
-669.076	8.935	-0.127	-0.097
-668.062	-60.392	-0.239	0.102
-667.047	32.511	-0.165	0.144
-666.032	86.224	-0.077	0.085
-665.018	-60.634	-0.178	0.076
-664.003	42.045	-0.266	-0.243
-662.989	-33.775	-0.098	0.055
-661.974	184.407	-0.181	-0.269
-660.959	729.664	0.166	-0.447
-659.945	49.066	0.259	0.245
-658.930	-113.586	-0.072	-0.014
-657.916	382.133	0.063	-0.131
-656.901	60.372	0.281	-0.280
-655.886	-57.550	0.338	-0.149
-654.872	-100.156	0.216	-0.054
-653.857	-200.000	0.034	-0.314
-652.843	-19.251	0.199	0.125
-651.828	284.816	0.124	-0.225
-650.814	60.682	-0.108	0.108
-649.799	-200.000	0.038	-0.410
-648.784	-134.451	-0.137	-0.017
-647.770	195.558	-0.155	-0.237
-646.755	-36.109	0.109	0.059
-645.741	-200.000	0.019	-0.290
-644.726	-199.945	-0.383	0.002
-643.711	-37.844	-0.229	-0.122
-642.697	-61.946	-0.184	0.077
-641.682	164.434	0.162	0.229
-640.668	44.336	0.024	-0.022
-639.653	-97.371	0.101	0.026
-638.638	193.345	-0.091	-0.138
-637.624	-200.000	0.014	-0.186
-636.609	800.000	-0.090	0.294
-635.595	-9.526	-0.177	0.118
-634.580	-55.162	0.508	0.230
-633.565	21.012	-0.086	-0.070
-632.551	-143.540	-0.232	-0.022
-631.536	-200.000	-0.040	-0.309
-630.522	29.505	0.276	0.236
-629.507	-200.000	0.005	-0.130
-628.492	-50.277	0.172	0.082
-627.478	197.870	-0.087	-0.134
-626.463	-200.000	0.001	0.188
-625.449	-4.829	0.363	-0.251
-624.434	-89.605	-0.457	0.135
-623.419	-179.403	0.241	0.005
-622.405	-140.933	-0.241	-0.025
-621.390	-200.000	0.012	-0.185
-620.376	179.337	0.172	0.253
-619.361	800.000	-0.014	-0.039
-618.346	800.000	0.016	-0.051
-617.332	66.993	0.171	-0.175
-616.317	-10.416	0.251	-0.167
-615.303	-124.042	0.089	0.014
-614.288	-11.335	-0.127	0.084
-613.273	96.629	0.118	-0.136
-612.259	136.991	-0.333	-0.437
-611.244	-200.000	0.027	0.268
-610.230	-86.635	0.214	0.066
-609.215	800.000	0.079	-0.250
-608.201	-116.512	-0.160	-0.030
-607.186	-130.712	-0.312	0.042
-606.171	800.000	0.116	0.487
-605.157	-106.258	-0.127	0.028
-604.142	22.923	-0.050	-0.041
-603.128	759.476	-0.070	-0.189
-602.113	238.778	0.142	0.237
-601.098	11.003	-0.309	-0.237
-600.084	-200.000	0.004	-0.193
-599.069	-200.000	-0.081	0.361
-598.055	-200.000	0.005	0.165
-597.040	-200.000	-0.062	0.310
-596.025	144.587	-0.141	-0.189
-595.011	-62.570	-0.198	-0.083
-593.996	79.541	-0.113	0.122
-592.982	-200.000	-0.027	-0.261
-591.967	-102.739	-0.060	0.014
-590.952	77.909	-0.156	0.167
-589.938	-200.000	0.049	0.222
-588.923	-130.613	0.100	0.013
-587.909	29.845	0.141	0.121
-586.894	-90.197	-0.107	0.031
-585.879	-42.269	-0.346	-0.177
-584.865	-200.000	0.032	0.252
-583.850	685.462	-0.106	-0.277
-582.836	-200.000	-0.010	-0.305
-581.821	254.769	0.048	0.083
-580.806	733.618	0.119	-0.318
-579.792	207.425	0.120	0.188
-578.777	-139.052	-0.151	-0.016
-577.763	800.000	-0.081	0.298
-576.748	3.917	0.278	0.203
-575.733	12.971	0.131	0.101
-574.719	800.000	0.037	0.153
-573.704	40.986	-0.252	0.229
-572.690	39.306	-0.209	0.188
-571.675	-200.000	0.001	-0.187
-570.661	800.000	-0.076	0.313
-569.646	-76.633	-0.420	0.148
-568.631	630.612	-0.075	-0.189
-567.617	-200.000	0.053	0.243
-566.602	238.871	0.115	0.191
-565.588	-34.414	-0.148	-0.081
-564.573	800.000	0.062	-0.177
-563.558	-22.992	0.147	-0.089
-562.544	800.000	-0.068	0.277
-561.529	800.000	0.140	0.430
-560.515	-89.441	0.119	0.035
-559.500	-55.278	-0.128	-0.058
-558.485	-79.102	0.344	0.117
-557.471	-200.000	-0.047	0.291
-556.456	198.020	0.138	0.211
-555.442	-200.000	0.048	0.223
-554.427	-148.324	0.385	-0.032
-553.412	69.603	-0.202	-0.209
-552.398	-22.521	0.144	0.087
-551.383	-87.144	0.168	-0.051
-550.369	-200.000	0.076	0.347
-549.354	293.693	0.194	-0.355
-548.339	-60.802	0.272	0.115
-547.325	-200.000	-0.129	0.001
-546.310	-169.452	-0.242	-0.009
-545.296	-100.012	0.332	0.083
-544.281	-132.394	-0.215	0.028
-543.266	-200.000	-0.031	0.263
-542.252	302.132	-0.178	0.329
-541.237	-200.000	-0.022	0.132
-540.223	-97.717	0.453	-0.118
-539.208	-169.662	-0.294	-0.011
-538.193	-90.392	0.108	0.031
-537.179	118.497	0.132	0.163
-536.164	800.000	-0.023	-0.063
-535.150	104.270	-0.083	0.098
-534.135	-197.338	0.095	0.001
-533.121	-200.000	-0.041	0.244
-532.106	-44.403	0.244	-0.122
-531.091	22.936	0.238	0.195
-530.077	61.261	0.219	0.218
-529.062	-200.000	0.012	-0.120
-528.048	104.154	-0.153	-0.180
-527.033	-172.784	0.171	0.005
-526.018	143.940	0.067	0.090
-525.004	28.460	0.054	0.045
-523.989	-80.359	-0.119	0.040
-522.975	4.916	0.217	-0.159
-521.960	105.264	-0.139	-0.164
-520.945	248.344	-0.089	-0.150
-519.931	321.112	-0.145	-0.275
-518.916	452.072	-0.102	-0.227
-517.902	-200.000	0.024	-0.224
-516.887	800.000	-0.075	-0.236
-515.872	6.336	-0.170	0.126
-514.858	-61.219	-0.166	0.070
-513.843	41.684	0.082	0.075
-512.829	305.397	0.057	-0.106
-511.814	-5.798	0.096	-0.066
-510.799	-97.252	-0.337	0.088
-509.785	514.164	0.107	0.250
-508.770	800.000	-0.130	-0.475
-507.756	-73.184	0.254	-0.093
-506.741	-34.189	-0.057	-0.031
-505.726	166.978	0.019	0.027
-504.712	-43.298	0.321	0.162
-503.697	132.105	-0.218	-0.281
-502.683	-75.219	0.469	-0.168
-501.668	-6.329	0.047	0.032
-500.653	-73.206	-0.031	-0.011
-499.639	23.447	-0.072	0.059
-498.624	196.451	0.141	0.215
-497.610	-119.575	0.311	-0.054
-496.595	283.252	-0.038	0.067
-495.581	-200.000	0.015	0.263
-494.566	297.832	-0.068	-0.125
-493.551	-70.092	0.038	0.014
-492.537	-200.000	-0.001	-0.146
-491.522	800.000	-0.020	-0.083
-490.508	193.077	0.043	0.065
-489.493	393.661	0.038	-0.079
-488.478	337.617	0.094	-0.183
-487.464	-200.000	-0.055	-0.540
-486.449	487.023	0.063	-0.144
-485.435	-55.279	-0.130	0.058
-484.420	800.000	0.060	-0.196
-483.405	-200.000	0.025	-0.273
-482.391	800.000	0.083	0.248
-481.376	-200.000	0.016	0.269
-480.362	-200.000	-0.004	-0.260
-479.347	148.149	-0.073	-0.099
-478.332	208.295	-0.102	-0.160
-477.318	-36.660	0.271	0.146
-476.303	116.312	0.203	-0.249
-475.289	-69.900	0.161	-0.061
-474.274	-122.984	-0.721	0.116
-473.259	127.438	0.065	0.082
-472.245	-42.098	-0.222	-0.114
-471.230	-200.000	0.070	-0.377
-470.216	-133.308	-0.105	-0.013
-469.201	142.653	-0.168	0.223
-468.186	-200.000	-0.036	-0.352
-467.172	-69.963	0.125	-0.048
-466.157	-136.238	0.246	0.029
-465.143	-74.687	-0.337	-0.121
-464.128	800.000	0.073	-0.233
-463.113	-61.122	-0.132	-0.055
-462.099	785.336	-0.151	0.412
-461.084	457.130	0.063	0.140
-460.070	-50.278	-0.247	-0.116
-459.055	61.085	-0.096	-0.095
-458.040	-19.556	0.095	-0.058
-457.026	-150.443	-0.182	0.014
-456.011	31.743	0.096	0.083
-454.997	442.323	-0.127	0.277
-453.982	77.964	-0.124	-0.132
-452.968	119.065	0.161	-0.198
-451.953	800.000	-0.022	0.077
-450.938	294.911	0.025	-0.046
-449.924	74.651	0.252	0.264
-448.909	-135.921	0.161	0.019
-447.895	-7.130	-0.252	-0.171
-446.880	174.691	-0.104	-0.151
-445.865	-11.749	-0.141	-0.093
-444.851	-67.438	0.437	0.171
-443.836	-75.643	0.149	-0.053
-442.822	547.042	-0.043	-0.102
-441.807	-51.073	0.234	-0.110
-440.792	-21.624	-0.515	0.313
-439.778	-106.028	0.285	0.064
-438.763	-200.000	-0.002	0.273
-437.749	800.000	0.058	-0.239
-436.734	-43.876	-0.214	-0.107
-435.719	571.613	-0.035	0.086
-434.705	-200.000	-0.020	0.202
-433.690	102.358	0.050	0.058
-432.676	230.284	-0.151	0.247
-431.661	77.802	0.186	-0.198
-430.646	-83.952	-0.092	-0.029
-429.632	147.589	-0.189	-0.254
-428.617	183.868	-0.196	0.289
-427.603	-72.445	0.212	-0.078
-426.588	327.451	0.236	0.451
-425.573	33.149	-0.089	0.077
-424.559	-45.567	-0.159	-0.079
-423.544	-29.559	-0.149	-0.085
-422.530	-1.134	-0.205	-0.144
-421.515	800.000	0.019	0.080
-420.500	409.797	0.063	0.134
-419.486	70.755	-0.158	-0.163
-418.471	-200.000	-0.041	0.327
-417.457	-200.000	0.004	0.231
-416.442	101.172	-0.056	0.065
-415.428	-162.468	0.039	0.002
-414.413	710.373	0.107	-0.283
-413.398	-200.000	0.000	-0.035
-412.384	-200.000	0.047	0.222
-411.369	-200.000	-0.038	-0.352
-410.355	124.495	-0.087	-0.109
-409.340	301.015	-0.122	0.224
-408.325	-200.000	0.012	-0.273
-407.311	151.598	-0.141	-0.191
-406.296	-98.574	-0.322	-0.082
-405.282	800.000	0.134	0.408
-404.267	-100.375	0.221	-0.055
-403.252	130.168	0.091	0.116
-402.238	-34.266	0.193	-0.106
-401.223	-4.192	-0.302	0.208
-400.209	-200.000	-0.005	0.145
-399.194	434.645	-0.050	0.108
-398.179	274.790	0.071	-0.125
-397.165	800.000	0.054	0.162
-396.150	-108.872	-0.211	-0.045
-395.136	366.611	-0.090	-0.182
-394.121	161.507	-0.238	-0.331
-393.106	-44.977	-0.230	-0.114
-392.092	449.572	-0.069	0.152
-391.077	-181.562	-0.123	-0.002
-390.063	-88.059	0.168	-0.050
-389.048	-66.972	0.180	0.071
-388.033	-200.000	-0.005	0.052
-387.019	156.938	0.181	0.249
-386.004	-118.809	-0.139	0.024
-384.990	-9.151	-0.181	-0.121
-383.975	-117.399	-0.279	0.050
-382.960	741.170	0.047	-0.125
-381.946	-200.000	0.026	-0.130
-380.931	-200.000	-0.055	-0.347
-379.917	421.803	0.081	0.173
-378.902	168.452	-0.209	0.296
-377.888	9.169	-0.171	-0.129
-376.873	-47.767	0.065	0.032
-375.858	-111.313	-0.113	-0.023
-374.844	-200.000	-0.047	-0.283
-373.829	-33.115	0.043	0.024
-372.815	-33.592	0.348	0.191
-371.800	169.475	0.090	-0.128
-370.785	-84.429	0.057	0.018
-369.771	-66.806	0.278	0.109
-368.756	800.000	-0.078	0.311
-367.742	800.000	0.050	0.169
-366.727	110.322	0.182	-0.218
-365.712	399.505	0.205	0.426
-364.698	466.833	-0.036	0.080
-363.683	37.987	-0.226	-0.200
-362.669	800.000	-0.032	-0.135
-361.654	-200.000	0.021	-0.555
-360.639	800.000	0.049	-0.148
-359.625	231.031	0.154	-0.251
-358.610	16.506	-0.165	0.129
-357.596	373.913	0.036	-0.072
-356.581	800.000	0.050	0.163
-355.566	-200.000	-0.061	-0.462
-354.552	-45.457	-0.206	-0.102
-353.537	-70.276	-0.259	-0.098
-352.523	-49.825	-0.205	-0.097
-351.508	-200.000	-0.020	-0.117
-350.493	-200.000	0.025	-0.113
-349.479	-200.000	-0.035	0.321
-348.464	-126.244	0.136	-0.020
-347.450	-200.000	0.016	-0.173
-346.435	372.894	0.066	-0.133
-345.420	-32.088	0.053	-0.029
-344.406	271.479	0.102	0.178
-343.391	-200.000	0.007	-0.057
-342.377	34.302	0.094	-0.082
-341.362	-200.000	-0.018	0.114
-340.348	-200.000	-0.009	-0.142
-339.333	47.845	0.060	0.055
-338.318	-128.994	0.296	-0.041
-337.304	74.217	-0.237	-0.248
-336.289	61.574	0.123	0.121
-335.275	145.339	-0.194	0.258
-334.260	-200.000	0.013	0.081
-333.245	800.000	0.123	0.362
-332.231	73.387	0.145	-0.150
-331.216	-3.946	0.258	0.178
-330.202	6.475	0.103	0.076
-329.187	800.000	0.080	0.221
-328.172	-200.000	-0.010	0.182
-327.158	16.428	0.102	0.080
-326.143	151.344	-0.081	0.110
-325.129	130.192	-0.114	-0.145
-324.114	800.000	-0.139	-0.427
-323.099	141.603	0.059	-0.077
-322.085	-75.412	0.098	0.035
-321.070	800.000	-0.045	0.164
-320.056	-200.000	0.028	0.176
-319.041	-200.000	-0.020	-0.138
-318.026	800.000	-0.010	-0.041
-317.012	-144.461	0.288	-0.027
-315.997	-38.414	-0.273	-0.143
-314.983	-200.000	-0.035	-0.561
-313.968	-61.934	-0.204	-0.085
-312.953	-200.000	0.009	-0.238
-311.939	-31.846	-0.289	0.161
-310.924	800.000	-0.046	0.182
-309.910	106.198	-0.008	0.009
-308.895	-200.000	-0.011	0.134
-307.880	-48.520	0.129	-0.062
-306.866	608.702	0.127	-0.314
-305.851	-200.000	-0.074	-0.380
-304.837	17.068	-0.255	0.201
-303.822	-200.000	0.036	0.206
-302.807	113.632	-0.196	0.236
-301.793	61.918	-0.160	-0.158
-300.778	-147.512	0.168	0.014
-299.764	42.298	0.296	0.267
-298.749	93.184	-0.139	-0.156
-297.735	615.443	0.152	0.379
-296.720	800.000	-0.020	0.084
-295.705	-14.905	-0.139	-0.088
-294.691	-200.000	0.060	0.351
-293.676	266.053	0.049	-0.085
-292.662	800.000	-0.041	-0.143
-291.647	-78.186	-0.068	0.023
-290.632	800.000	-0.049	-0.151
-289.618	-48.672	0.140	0.067
-288.603	-200.000	0.038	-0.207
-287.589	2.314	-0.349	-0.250
-286.574	58.431	0.180	-0.175
-285.559	-20.235	0.276	0.168
-284.545	-31.830	0.182	0.101
-283.530	40.021	0.317	0.282
-282.516	-82.619	-0.178	0.057
-281.501	116.776	-0.215	-0.261
-280.486	-159.577	-0.235	0.013
-279.472	724.417	0.067	0.176
-278.457	800.000	0.037	-0.149
-277.443	20.155	0.103	0.082
-276.428	256.957	-0.125	-0.213
-275.413	800.000	0.202	-0.599
-274.399	-64.461	-0.261	-0.105
-273.384	-124.452	0.306	-0.047
-272.370	114.712	-0.127	-0.153
-271.355	-5.900	-0.339	0.230
-270.340	32.184	0.398	0.340
-269.326	-200.000	0.003	-0.044
-268.311	-24.368	0.011	0.006
-267.297	800.000	0.042	-0.130
-266.282	-70.909	0.367	0.137
-265.267	-200.000	-0.013	0.321
-264.253	120.675	-0.073	0.089
-263.238	-134.403	-0.310	-0.038
-262.224	-200.000	-0.009	0.170
-261.209	203.203	-0.175	0.267
-260.195	209.025	0.143	-0.221
-259.180	-200.000	-0.031	-0.268
-258.165	115.104	-0.041	0.050
-257.151	165.775	-0.160	0.224
-256.136	19.007	0.222	-0.176
-255.122	9.001	-0.394	0.295
-254.107	-62.658	-0.395	0.162
-253.092	800.000	0.112	0.347
-252.078	-127.730	0.157	0.022
-251.063	-111.476	0.411	0.083
-250.049	-200.000	0.036	-0.237
-249.034	-200.000	-0.006	-0.030
-248.019	29.850	0.095	0.080
-247.005	26.645	0.526	0.436
-245.990	800.000	0.065	-0.268
-244.976	-130.968	0.145	-0.019
-243.961	-13.015	0.242	0.156
-242.946	-61.066	0.109	0.045
-241.932	-80.333	-0.089	0.030
-240.917	211.732	0.094	-0.147
-239.903	-65.986	0.177	-0.070
-238.888	-13.114	-0.313	0.202
-237.873	-173.805	0.071	0.002
-236.859	62.693	-0.117	-0.115
-235.844	11.783	0.067	0.051
-234.830	-156.710	0.383	-0.023
-233.815	255.084	0.078	-0.133
-232.800	-196.163	-0.107	0.001
-231.786	150.791	-0.247	0.332
-230.771	-200.000	0.010	0.416
-229.757	95.021	0.110	0.124
-228.742	-200.000	-0.124	-0.581
-227.727	-200.000	-0.015	-0.076
-226.713	117.291	-0.306	-0.372
-225.698	288.125	0.040	0.072
-224.684	-200.000	-0.021	0.150
-223.669	-29.619	-0.172	-0.097
-222.655	800.000	0.063	-0.227
-221.640	800.000	-0.049	0.186
-220.625	-200.000	-0.013	0.120
-219.611	-102.302	-0.432	0.103
-218.596	273.423	-0.121	-0.211
-217.582	-155.339	-0.102	-0.007
-216.567	-8.190	-0.155	-0.103
-215.552	75.456	-0.025	0.026
-214.538	141.687	0.155	-0.203
-213.523	-156.256	-0.506	0.031
-212.509	82.188	-0.080	-0.085
-211.494	-161.098	-0.120	-0.006
-210.479	-144.908	-0.128	-0.012
-209.465	505.182	0.088	-0.201
-208.450	249.585	-0.116	-0.194
-207.436	93.800	-0.045	-0.050
-206.421	800.000	-0.064	-0.189
-205.406	-35.970	0.382	-0.204
-204.392	-93.021	0.018	-0.005
-203.377	-124.936	0.420	-0.064
-202.363	-200.000	-0.051	0.227
-201.348	-200.000	0.042	0.243
-200.333	528.800	0.034	-0.079
-199.319	-27.761	-0.366	0.209
-198.304	-200.000	0.012	0.068
-197.290	-117.945	-0.167	0.030
-196.275	-110.155	0.352	0.073
-195.260	-200.000	0.042	0.354
-194.246	-134.371	0.360	0.044
-193.231	-200.000	0.041	0.266
-192.217	-200.000	-0.033	0.284
-191.202	-79.734	0.322	0.107
-190.187	-200.000	0.080	-0.399
-189.173	648.469	0.176	0.443
-188.158	187.041	-0.311	-0.457
-187.144	16.192	-0.130	0.101
-186.129	800.000	-0.017	0.070
-185.114	-38.038	0.079	-0.041
-184.100	-96.471	0.190	-0.050
-183.085	37.560	-0.249	0.218
-182.071	30.210	0.412	0.347
-181.056	-200.000	-0.043	0.216
-180.042	-159.175	-0.202	0.011
-179.027	-181.653	0.280	0.005
-178.012	-176.816	0.088	0.002
-176.998	-200.000	0.023	0.281
-175.983	-123.232	0.175	0.028
-174.969	633.246	-0.077	-0.194
-173.954	-59.161	0.306	-0.130
-172.939	233.661	0.303	-0.492
-171.925	-159.014	-0.119	0.007
-170.910	-48.347	-0.188	0.089
-169.896	372.498	-0.036	-0.072
-168.881	-200.000	-0.022	-0.227
-167.866	4.572	0.257	-0.186
-166.852	-102.782	-0.351	-0.083
-165.837	-101.391	0.295	-0.071
-164.823	-18.824	-0.191	0.117
-163.808	8.807	0.084	0.063
-162.793	-18.855	-0.099	0.061
-161.779	-129.828	0.291	-0.039
-160.764	-45.960	0.101	-0.049
-159.750	-200.000	-0.079	-0.362
-158.735	193.614	-0.079	-0.117
-157.720	-106.988	-0.155	-0.034
-156.706	-171.107	0.537	-0.018
-155.691	-200.000	0.026	0.123
-154.677	93.303	0.077	0.086
-153.662	-121.887	-0.353	-0.057
-152.647	112.668	-0.105	0.125
-151.633	247.662	0.043	0.072
-150.618	334.219	0.114	0.218
-149.604	6.000	0.227	0.166
-148.589	38.431	-0.221	0.194
-147.574	275.104	0.069	0.120
-146.560	-99.794	0.140	0.035
-145.545	87.097	0.113	0.123
-144.531	-74.348	0.163	-0.058
-143.516	21.339	0.218	-0.175
-142.502	-200.000	0.031	-0.220
-141.487	-94.124	0.150	-0.040
-140.472	-132.685	0.097	-0.012
-139.458	-70.354	-0.158	0.059
-138.443	-200.000	0.013	0.298
-137.429	-9.875	0.114	-0.075
-136.414	31.420	0.338	-0.286
-135.399	7.721	0.148	0.109
-134.385	-200.000	0.023	0.159
-133.370	-200.000	0.002	0.065
-132.356	800.000	0.017	0.062
-131.341	-200.000	-0.069	0.363
-130.326	-200.000	0.048	0.299
-129.312	85.609	-0.207	0.224
-128.297	-200.000	-0.042	-0.201
-127.283	210.428	-0.083	-0.129
-126.268	-40.594	0.126	0.065
-125.253	-200.000	0.022	0.166
-124.239	71.575	0.139	0.143
-123.224	653.141	0.201	0.507
-122.210	533.132	0.122	0.286
