DTS Sentinel unit serial number:	SN413079Multiplexer serial number:	ORYXHardware model number:	OX4-SRSoftware version number:	ORYX F/W v4.00 Oryx Data Collector v3.7.2.0data status	okinstallation	princeton_trtdifferential loss correction	single-endedforward channel	channel 4reverse channel	N/Adate	2019/09/12time	03:47:11forward acquisition time	60.00reverse acquisition time	0.00gamma	496.2192k internal	0.2309k external	0.2309temperature offset calibration	1.0096default loss term (dB/km)	0.3790temperature slope calibration	1.0000multiplexer offset coefficient	1.0000multiplexer slope coefficient	1.0000fibre end	0.00T internal ref (°C)	32.14T ext. ref 1 (°C)	2.15T ext. ref 2 (°C)	27.17length (m)	temperature (°C)	Stokes	anti-Stokes-747.200	-31.520	0.058	-0.033
-746.185	-24.206	-0.177	0.107
-745.171	-185.577	0.247	-0.004
-744.156	-21.433	0.159	0.098
-743.142	-38.262	-0.105	-0.056
-742.127	463.965	-0.192	0.436
-741.112	287.386	-0.176	0.324
-740.098	-36.340	0.178	0.097
-739.083	-173.912	0.061	0.002
-738.069	-135.146	-0.264	0.032
-737.054	-104.348	-0.250	0.059
-736.039	261.744	-0.098	0.172
-735.025	-200.000	-0.051	0.230
-734.010	775.516	-0.112	-0.309
-732.996	275.564	-0.067	0.120
-731.981	59.546	-0.215	-0.215
-730.966	-200.000	-0.062	-0.409
-729.952	-200.000	-0.091	-0.532
-728.937	-62.207	-0.289	-0.122
-727.923	175.972	-0.202	-0.298
-726.908	-159.112	0.210	0.012
-725.894	-84.644	-0.106	0.034
-724.879	-200.000	-0.028	-0.375
-723.864	687.709	-0.049	-0.130
-722.850	-1.493	0.204	-0.146
-721.835	-200.000	0.011	0.107
-720.821	11.979	0.182	0.142
-719.806	2.236	-0.062	-0.045
-718.791	-72.720	0.297	0.111
-717.777	-0.036	-0.258	0.186
-716.762	106.930	-0.060	-0.072
-715.748	36.231	-0.254	0.227
-714.733	345.874	0.101	-0.202
-713.718	-104.961	-0.201	0.047
-712.704	141.239	0.083	-0.111
-711.689	419.291	0.062	-0.135
-710.675	-49.582	0.295	-0.142
-709.660	800.000	0.037	-0.133
-708.645	-115.118	-0.424	0.082
-707.631	-6.136	0.164	-0.113
-706.616	800.000	0.022	-0.072
-705.602	-70.730	0.151	-0.058
-704.587	129.544	0.055	0.072
-703.572	-200.000	-0.002	0.244
-702.558	68.853	0.114	-0.119
-701.543	119.400	0.122	-0.153
-700.529	-94.592	0.141	0.039
-699.514	-94.735	0.136	0.037
-698.499	-23.216	0.156	0.095
-697.485	-127.293	-0.266	-0.039
-696.470	-200.000	-0.013	0.209
-695.456	-23.182	-0.145	-0.088
-694.441	-72.089	-0.081	0.030
-693.426	-68.588	-0.416	0.163
-692.412	203.511	-0.112	-0.175
-691.397	114.616	-0.120	0.148
-690.383	-200.000	0.007	-0.107
-689.368	-14.756	0.222	-0.144
-688.354	-121.170	-0.270	-0.046
-687.339	-106.273	-0.367	-0.083
-686.324	592.775	0.098	0.245
-685.310	44.802	-0.112	0.105
-684.295	201.820	-0.033	-0.051
-683.281	4.139	-0.075	0.055
-682.266	20.145	-0.193	-0.158
-681.251	-23.683	-0.311	0.189
-680.237	-106.862	-0.284	-0.064
-679.222	-153.159	0.247	-0.018
-678.208	-89.231	-0.124	0.037
-677.193	91.326	-0.229	-0.260
-676.178	162.557	-0.146	0.207
-675.164	-200.000	0.003	-0.054
-674.149	-92.293	-0.168	-0.048
-673.135	-200.000	0.011	0.060
-672.120	30.119	0.241	0.208
-671.105	-200.000	0.039	0.201
-670.091	800.000	0.047	-0.162
-669.076	674.831	-0.045	-0.118
-668.062	323.220	0.060	-0.115
-667.047	28.989	-0.385	-0.330
-666.032	-87.031	-0.333	0.103
-665.018	-200.000	0.014	-0.067
-664.003	64.269	-0.242	0.246
-662.989	-200.000	0.042	0.408
-661.974	-200.000	0.022	-0.235
-660.959	800.000	-0.048	-0.188
-659.945	-143.053	-0.219	-0.021
-658.930	146.178	0.069	0.093
-657.916	800.000	-0.056	0.166
-656.901	54.742	0.242	-0.236
-655.886	-200.000	0.005	-0.023
-654.872	104.946	-0.166	-0.199
-653.857	181.202	-0.098	-0.146
-652.843	132.559	0.112	-0.146
-651.828	-7.474	-0.282	0.193
-650.814	44.594	-0.188	-0.175
-649.799	-143.212	-0.185	0.018
-648.784	-10.284	-0.036	0.024
-647.770	-200.000	0.030	-0.135
-646.755	-96.935	-0.241	-0.064
-645.741	-46.855	0.252	-0.124
-644.726	30.275	0.197	0.170
-643.711	194.763	-0.135	0.208
-642.697	291.526	0.100	0.184
-641.682	248.070	-0.093	0.158
-640.668	-86.128	0.207	0.065
-639.653	299.136	-0.092	-0.171
-638.638	55.414	-0.221	-0.216
-637.624	204.640	-0.072	-0.113
-636.609	387.875	0.183	0.382
-635.595	-200.000	0.009	0.326
-634.580	658.483	0.073	0.190
-633.565	-200.000	-0.261	-0.001
-632.551	-179.997	-0.362	0.008
-631.536	-13.332	0.093	-0.061
-630.522	-200.000	0.004	0.025
-629.507	27.447	-0.222	0.189
-628.492	-46.511	0.167	-0.083
-627.478	36.265	-0.221	-0.197
-626.463	-153.156	-0.164	0.012
-625.449	214.350	-0.098	-0.157
-624.434	-200.000	-0.031	-0.205
-623.419	114.448	0.044	-0.054
-622.405	307.185	0.164	-0.309
-621.390	-200.000	-0.002	-0.277
-620.376	-200.000	-0.040	-0.186
-619.361	-4.343	-0.213	0.149
-618.346	250.450	-0.081	-0.138
-617.332	-3.207	-0.316	-0.223
-616.317	800.000	0.043	0.148
-615.303	-42.070	0.334	-0.173
-614.288	-200.000	-0.090	0.491
-613.273	800.000	0.041	0.119
-612.259	800.000	0.086	0.260
-611.244	800.000	-0.040	-0.163
-610.230	-200.000	0.013	-0.484
-609.215	389.982	0.229	-0.481
-608.201	-200.000	-0.039	0.186
-607.186	769.715	0.155	0.426
-606.171	-82.456	-0.208	0.068
-605.157	-200.000	-0.003	0.248
-604.142	45.554	0.040	-0.037
-603.128	-200.000	0.056	0.276
-602.113	-200.000	0.016	0.226
-601.098	-98.113	0.353	0.092
-600.084	10.563	-0.307	0.237
-599.069	-130.029	-0.331	0.046
-598.055	20.385	-0.200	-0.163
-597.040	764.860	-0.074	-0.204
-596.025	-200.000	0.065	-0.321
-595.011	-2.380	-0.041	-0.029
-593.996	231.245	0.107	0.177
-592.982	800.000	0.051	-0.184
-591.967	241.869	-0.135	-0.227
-590.952	95.283	0.173	-0.199
-589.938	-200.000	0.008	-0.288
-588.923	-200.000	0.065	-0.288
-587.909	800.000	0.050	-0.147
-586.894	-6.391	-0.109	0.075
-585.879	-200.000	-0.028	-0.242
-584.865	229.864	0.174	-0.287
-583.850	-71.871	-0.191	-0.072
-582.836	336.861	-0.103	-0.201
-581.821	27.273	0.249	0.211
-580.806	406.870	0.036	-0.077
-579.792	-15.831	-0.124	0.080
-578.777	800.000	0.103	-0.426
-577.763	-200.000	-0.019	-0.171
-576.748	582.497	-0.162	0.401
-575.733	115.080	0.171	-0.211
-574.719	228.811	0.113	-0.186
-573.704	-107.128	-0.107	-0.024
-572.690	4.427	-0.213	0.157
-571.675	-86.961	-0.211	-0.065
-570.661	-12.120	0.101	0.066
-569.646	186.656	0.020	-0.031
-568.631	180.274	0.179	-0.266
-567.617	-72.093	0.244	0.092
-566.602	-126.425	-0.064	0.010
-565.588	-1.905	0.234	0.166
-564.573	-120.001	-0.130	0.022
-563.558	800.000	0.099	-0.279
-562.544	298.699	-0.132	-0.244
-561.529	-128.833	0.289	-0.041
-560.515	800.000	-0.056	-0.212
-559.500	281.678	-0.169	-0.305
-558.485	38.726	-0.248	-0.223
-557.471	-147.125	-0.102	-0.009
-556.456	74.712	-0.058	0.062
-555.442	-200.000	-0.028	0.324
-554.427	49.328	0.207	-0.196
-553.412	-200.000	0.007	0.103
-552.398	30.105	-0.129	-0.111
-551.383	554.606	-0.171	0.415
-550.369	-200.000	0.066	0.470
-549.354	800.000	-0.032	-0.100
-548.339	-62.069	-0.262	0.110
-547.325	191.560	-0.244	-0.371
-546.310	-200.000	-0.063	-0.328
-545.296	-29.256	-0.245	0.141
-544.281	-60.625	-0.168	-0.072
-543.266	-200.000	0.025	-0.112
-542.252	7.679	0.406	-0.306
-541.237	-74.961	0.297	-0.107
-540.223	401.893	-0.100	-0.211
-539.208	-84.451	0.204	0.065
-538.193	777.650	-0.068	0.187
-537.179	-47.219	-0.252	0.124
-536.164	-200.000	0.009	0.290
-535.150	25.542	0.179	-0.150
-534.135	97.742	-0.167	-0.193
-533.121	-200.000	-0.016	-0.092
-532.106	800.000	-0.066	0.190
-531.091	800.000	0.021	0.078
-530.077	89.928	0.196	-0.221
-529.062	-101.573	-0.223	0.055
-528.048	-2.519	-0.156	0.110
-527.033	203.621	-0.146	-0.228
-526.018	454.131	-0.088	0.197
-525.004	-200.000	0.004	-0.127
-523.989	-114.385	0.466	-0.090
-522.975	-6.713	0.211	-0.144
-521.960	-96.555	-0.196	0.052
-520.945	51.320	0.098	-0.094
-519.931	40.348	-0.183	-0.166
-518.916	-32.070	0.299	-0.168
-517.902	-39.719	-0.166	0.087
-516.887	-200.000	-0.005	0.120
-515.872	-160.397	-0.401	0.022
-514.858	-95.898	-0.175	-0.047
-513.843	128.021	-0.108	-0.138
-512.829	-24.737	0.136	-0.081
-511.814	197.549	-0.249	0.383
-510.799	-47.374	-0.185	0.091
-509.785	3.466	-0.314	-0.230
-508.770	-200.000	0.001	-0.010
-507.756	-200.000	0.005	0.062
-506.741	21.698	0.083	-0.068
-505.726	-115.359	-0.156	0.030
-504.712	-200.000	-0.020	-0.125
-503.697	-53.982	0.110	0.050
-502.683	44.400	0.158	-0.146
-501.668	29.056	-0.203	0.173
-500.653	-76.433	0.239	0.085
-499.639	466.584	0.074	-0.167
-498.624	261.168	-0.163	0.284
-497.610	53.929	0.310	-0.300
-496.595	-157.472	-0.163	0.010
-495.581	-200.000	0.051	-0.320
-494.566	-129.322	0.148	-0.021
-493.551	-43.244	-0.169	-0.086
-492.537	-133.886	-0.118	-0.015
-491.522	4.441	-0.224	0.166
-490.508	551.954	-0.053	-0.128
-489.493	13.044	0.160	0.125
-488.478	-169.293	0.042	0.002
-487.464	-200.000	-0.027	0.141
-486.449	-127.996	0.207	0.030
-485.435	2.580	-0.128	0.093
-484.420	103.889	-0.066	-0.078
-483.405	-53.057	0.207	-0.096
-482.391	-83.338	0.309	-0.100
-481.376	-127.236	0.222	0.033
-480.362	-200.000	0.060	-0.284
-479.347	-34.393	-0.053	0.029
-478.332	-31.378	0.107	-0.060
-477.318	-123.768	0.018	0.003
-476.303	-200.000	0.005	0.080
-475.289	39.672	0.152	-0.137
-474.274	800.000	0.126	-0.469
-473.259	-145.583	-0.168	0.015
-472.245	96.986	0.189	-0.217
-471.230	-200.000	0.031	-0.219
-470.216	-149.510	-0.269	-0.021
-469.201	225.860	0.097	-0.157
-468.186	22.635	0.121	-0.100
-467.172	71.079	0.390	0.406
-466.157	800.000	-0.112	-0.407
-465.143	-180.345	-0.158	0.003
-464.128	465.284	-0.083	0.187
-463.113	162.826	-0.110	0.155
-462.099	-200.000	-0.032	-0.206
-461.084	-161.496	-0.210	0.011
-460.070	205.601	-0.061	-0.096
-459.055	271.311	-0.145	0.256
-458.040	-33.869	-0.070	-0.039
-457.026	-6.361	-0.062	-0.043
-456.011	127.038	0.121	-0.155
-454.997	475.030	-0.116	-0.263
-453.982	-200.000	0.001	0.013
-452.968	800.000	0.118	-0.381
-451.953	-2.684	0.171	-0.120
-450.938	93.496	0.068	0.077
-449.924	93.914	0.357	0.407
-448.909	-200.000	0.017	-0.095
-447.895	-31.256	0.328	0.186
-446.880	-0.766	0.192	0.137
-445.865	-200.000	0.045	0.334
-444.851	-51.831	-0.188	0.088
-443.836	-31.785	0.034	0.019
-442.822	-92.989	-0.288	0.081
-441.807	-200.000	-0.015	0.254
-440.792	-37.230	0.267	-0.143
-439.778	-20.583	-0.197	0.122
-438.763	-24.513	-0.072	0.043
-437.749	-64.060	-0.241	-0.099
-436.734	-45.550	0.101	0.050
-435.719	-145.768	0.261	-0.023
-434.705	-35.193	0.106	-0.058
-433.690	153.997	0.171	0.235
-432.676	421.568	-0.115	-0.247
-431.661	-17.406	-0.029	0.018
-430.646	-200.000	-0.017	0.247
-429.632	-72.836	-0.139	0.051
-428.617	-200.000	-0.002	0.128
-427.603	-77.914	-0.303	-0.105
-426.588	-200.000	0.004	0.076
-425.573	-60.985	0.286	0.121
-424.559	-94.678	0.160	0.044
-423.544	124.891	0.046	-0.058
-422.530	800.000	-0.037	-0.140
-421.515	-102.178	-0.031	0.007
-420.500	800.000	-0.049	-0.147
-419.486	28.592	0.094	-0.080
-418.471	21.138	-0.106	0.086
-417.457	-60.009	-0.246	-0.105
-416.442	76.242	0.147	0.157
-415.428	194.914	0.189	-0.287
-414.413	109.236	-0.139	0.167
-413.398	346.722	-0.111	-0.218
-412.384	598.058	-0.102	-0.254
-411.369	70.136	-0.193	0.200
-410.355	96.135	0.072	-0.083
-409.340	95.161	0.184	0.210
-408.325	-200.000	-0.042	-0.276
-407.311	-7.029	-0.139	0.095
-406.296	136.939	-0.132	0.172
-405.282	-53.970	0.098	-0.045
-404.267	-25.121	-0.132	0.078
-403.252	-46.695	-0.048	-0.023
-402.238	-144.672	0.110	-0.010
-401.223	-171.800	-0.476	-0.016
-400.209	1.155	-0.150	0.108
-399.194	270.443	0.214	0.378
-398.179	-4.604	0.190	0.132
-397.165	111.146	-0.147	0.177
-396.150	494.503	-0.090	-0.206
-395.136	-18.732	-0.132	-0.083
-394.121	-200.000	0.064	-0.339
-393.106	208.357	0.159	0.249
-392.092	-90.437	-0.394	0.115
-391.077	228.058	-0.158	0.258
-390.063	-200.000	0.020	-0.291
-389.048	264.796	0.049	0.085
-388.033	-200.000	-0.067	0.330
-387.019	289.908	0.191	0.348
-386.004	68.165	-0.185	0.190
-384.990	6.081	0.085	-0.063
-383.975	-57.271	0.090	-0.040
-382.960	-56.836	-0.063	-0.028
-381.946	800.000	0.057	-0.181
-380.931	-200.000	0.000	-0.076
-379.917	-66.971	-0.487	0.192
-378.902	546.591	-0.083	0.199
-377.888	96.099	-0.173	-0.198
-376.873	301.000	-0.103	0.190
-375.858	12.552	-0.175	0.135
-374.844	10.275	0.212	-0.161
-373.829	85.353	0.240	0.264
-372.815	800.000	0.103	-0.389
-371.800	444.972	-0.073	-0.161
-370.785	299.300	-0.030	0.055
-369.771	800.000	-0.089	0.304
-368.756	-26.903	0.039	-0.023
-367.742	-200.000	0.010	-0.084
-366.727	800.000	-0.047	-0.194
-365.712	-21.656	-0.236	0.144
-364.698	376.951	0.113	-0.230
-363.683	-22.999	0.300	-0.181
-362.669	-82.246	-0.324	-0.105
-361.654	-129.243	0.064	0.009
-360.639	-200.000	-0.068	-0.394
-359.625	370.473	0.065	-0.131
-358.610	800.000	-0.026	-0.073
-357.596	258.466	0.025	0.043
-356.581	717.446	0.039	-0.103
-355.566	-78.772	-0.214	-0.073
-354.552	-84.931	0.174	-0.055
-353.537	-39.996	-0.154	0.080
-352.523	-200.000	0.009	0.147
-351.508	-101.758	0.297	0.072
-350.493	-91.998	-0.226	-0.064
-349.479	800.000	0.059	-0.184
-348.464	-100.603	0.215	0.053
-347.450	-73.729	0.265	0.096
-346.435	140.118	-0.098	-0.129
-345.420	-48.807	0.064	-0.031
-344.406	94.132	0.064	-0.072
-343.391	-56.663	0.329	0.146
-342.377	119.656	0.131	-0.162
-341.362	-77.363	-0.072	0.025
-340.348	419.616	0.085	-0.182
-339.333	-35.318	0.508	-0.276
-338.318	72.528	0.149	-0.156
-337.304	72.132	-0.206	0.215
-336.289	800.000	0.077	0.251
-335.275	11.119	0.149	-0.114
-334.260	336.850	-0.038	-0.074
-333.245	128.402	0.068	0.086
-332.231	-200.000	-0.042	-0.370
-331.216	-118.576	-0.147	-0.026
-330.202	-179.556	-0.295	-0.006
-329.187	-10.528	0.194	0.128
-328.172	-99.776	-0.227	0.057
-327.158	800.000	0.087	-0.257
-326.143	45.964	0.349	0.323
-325.129	-18.245	-0.217	0.136
-324.114	94.156	-0.089	-0.101
-323.099	800.000	-0.097	0.328
-322.085	-0.675	-0.255	-0.180
-321.070	-20.903	-0.330	0.202
-320.056	-128.629	0.180	0.025
-319.041	39.443	-0.110	0.099
-318.026	-200.000	-0.040	-0.178
-317.012	800.000	0.073	0.318
-315.997	-17.932	0.256	0.161
-314.983	-33.024	0.252	-0.140
-313.968	-115.696	0.061	-0.011
-312.953	-134.823	-0.304	0.037
-311.939	23.969	0.108	0.089
-310.924	65.916	0.231	-0.233
-309.910	-200.000	0.019	0.383
-308.895	800.000	-0.184	0.543
-307.880	-200.000	-0.040	0.208
-306.866	54.028	0.221	0.213
-305.851	-200.000	0.035	0.240
-304.837	-49.632	0.414	-0.197
-303.822	249.880	-0.051	0.087
-302.807	-200.000	-0.015	0.232
-301.793	327.634	0.088	0.169
-300.778	800.000	0.037	0.132
-299.764	-64.143	-0.207	0.084
-298.749	-61.732	-0.124	0.052
-297.735	-58.454	0.183	-0.079
-296.720	231.414	-0.117	0.191
-295.705	-111.418	-0.341	0.069
-294.691	68.219	0.238	0.243
-293.676	251.155	-0.195	0.331
-292.662	-62.866	-0.286	-0.118
-291.647	73.632	0.105	0.110
-290.632	-41.797	0.210	0.107
-289.618	240.332	0.119	0.198
-288.603	57.598	-0.253	0.247
-287.589	800.000	-0.083	0.231
-286.574	800.000	-0.061	0.174
-285.559	30.728	-0.180	0.154
-284.545	-98.701	0.440	-0.112
-283.530	38.139	0.054	-0.048
-282.516	557.547	-0.020	0.047
-281.501	-52.562	0.278	-0.128
-280.486	162.011	0.099	0.138
-279.472	800.000	0.061	-0.173
-278.457	-53.573	-0.076	0.034
-277.443	288.684	-0.077	-0.139
-276.428	210.496	0.110	0.172
-275.413	-200.000	-0.011	0.176
-274.399	208.310	0.034	-0.053
-273.384	-27.743	-0.311	0.180
-272.370	-79.633	0.119	0.040
-271.355	211.411	-0.079	0.125
-270.340	-200.000	-0.014	-0.072
-269.326	-8.747	0.132	0.089
-268.311	-105.704	-0.079	-0.018
-267.297	122.959	0.251	-0.314
-266.282	146.034	-0.189	-0.253
-265.267	204.941	-0.217	-0.336
-264.253	800.000	-0.040	0.111
-263.238	34.438	-0.254	0.221
-262.224	11.647	0.093	0.071
-261.209	-55.067	0.316	0.142
-260.195	-31.228	-0.093	-0.052
-259.180	43.663	-0.142	-0.129
-258.165	79.880	0.031	0.033
-257.151	236.196	0.032	-0.052
-256.136	-157.541	0.147	0.009
-255.122	-200.000	-0.013	0.213
-254.107	189.254	-0.090	0.135
-253.092	161.562	0.056	-0.079
-252.078	-111.364	0.299	0.061
-251.063	362.220	-0.229	0.458
-250.049	-200.000	0.033	0.265
-249.034	-200.000	-0.026	-0.314
-248.019	94.677	-0.184	-0.209
-247.005	-200.000	-0.031	0.232
-245.990	196.970	-0.188	0.285
-244.976	-119.033	-0.212	0.037
-243.961	177.708	-0.151	-0.220
-242.946	35.954	0.269	-0.236
-241.932	800.000	0.072	-0.284
-240.917	-200.000	0.070	0.424
-239.903	128.199	0.124	0.158
-238.888	167.120	-0.088	0.125
-237.873	-98.925	0.217	-0.055
-236.859	-141.707	-0.225	0.022
-235.844	800.000	-0.052	-0.166
-234.830	-73.663	0.474	0.172
-233.815	-123.093	-0.066	-0.011
-232.800	-21.873	0.181	-0.109
-231.786	221.061	0.063	-0.100
-230.771	-102.533	-0.239	-0.057
-229.757	800.000	0.130	-0.375
-228.742	-200.000	0.005	0.119
-227.727	-200.000	0.048	-0.238
-226.713	-200.000	0.017	-0.279
-225.698	53.071	0.108	0.103
-224.684	-200.000	-0.008	-0.219
-223.669	800.000	0.090	0.369
-222.655	142.450	-0.108	0.143
-221.640	-72.099	-0.081	-0.030
-220.625	-29.961	-0.388	-0.220
-219.611	105.056	-0.125	-0.147
-218.596	74.417	-0.164	-0.171
-217.582	105.210	-0.108	-0.127
-216.567	-200.000	-0.012	-0.101
-215.552	-156.456	0.397	0.025
-214.538	800.000	-0.026	0.084
-213.523	-81.571	0.131	-0.043
-212.509	-97.958	-0.360	0.092
-211.494	-200.000	-0.036	-0.159
-210.479	-72.295	-0.294	-0.108
-209.465	-30.135	0.127	0.072
-208.450	-43.331	0.114	0.057
-207.436	-13.681	-0.208	-0.134
-206.421	25.204	0.107	-0.089
-205.406	-45.078	-0.181	0.089
-204.392	57.240	0.151	-0.147
-203.377	-200.000	0.042	0.443
-202.363	-15.894	-0.030	0.019
-201.348	11.405	0.160	-0.122
-200.333	800.000	0.015	-0.064
-199.319	-80.968	0.190	-0.063
-198.304	-151.087	-0.223	-0.017
-197.290	79.632	-0.037	0.040
-196.275	304.483	0.201	0.370
-195.260	66.349	-0.151	-0.152
-194.246	-65.878	-0.090	0.036
-193.231	490.461	0.106	0.241
-192.217	103.491	0.132	-0.154
-191.202	-200.000	0.076	0.354
-190.187	1.943	-0.205	0.147
-189.173	-102.763	0.148	-0.035
-188.158	-63.523	-0.074	-0.030
-187.144	247.021	0.079	-0.132
-186.129	-39.045	-0.075	-0.039
-185.114	-200.000	-0.008	-0.190
-184.100	114.511	-0.229	-0.277
-183.085	800.000	-0.074	-0.206
-182.071	-4.404	0.181	0.124
-181.056	-86.552	0.280	-0.085
-180.042	-183.662	0.387	-0.007
-179.027	14.368	0.140	-0.108
-178.012	-200.000	0.012	0.128
-176.998	-37.080	0.150	0.080
-175.983	-53.806	0.253	-0.115
-174.969	-200.000	-0.013	0.240
-173.954	-200.000	-0.032	-0.159
-172.939	-200.000	-0.073	-0.364
-171.925	465.396	-0.099	0.219
-170.910	63.566	0.102	-0.102
-169.896	28.811	0.317	0.267
-168.881	-200.000	-0.019	0.141
-167.866	-200.000	-0.053	-0.370
-166.852	236.673	0.151	0.248
-165.837	-200.000	0.065	0.282
-164.823	-200.000	-0.001	0.114
-163.808	-85.297	0.233	0.072
-162.793	-90.827	-0.081	0.023
-161.779	455.904	0.119	0.262
-160.764	69.301	0.089	-0.091
-159.750	21.060	-0.142	0.114
-158.735	-5.231	0.173	0.118
-157.720	-200.000	0.050	0.219
-156.706	164.563	0.235	0.329
-155.691	-200.000	0.023	-0.155
-154.677	-5.123	0.126	-0.086
-153.662	-5.502	-0.304	0.207
-152.647	-49.406	0.240	0.114
-151.633	-38.645	0.207	-0.109
-150.618	-30.167	0.107	-0.060
-149.604	344.361	0.104	0.203
-148.589	-171.694	0.271	-0.009
-147.574	-124.995	0.334	-0.051
-146.560	-7.245	-0.342	-0.230
-145.545	190.162	0.052	0.077
-144.531	-113.276	-0.101	0.020
-143.516	-94.519	0.077	0.021
-142.502	-44.779	-0.292	0.144
-141.487	800.000	0.027	-0.093
-140.472	-6.723	-0.014	-0.009
-139.458	41.483	-0.333	0.299
-138.443	-159.410	0.510	-0.028
-137.429	-200.000	0.001	0.100
-136.414	-162.577	-0.114	-0.006
-135.399	-110.108	-0.385	0.080
-134.385	-162.961	0.288	0.014
-133.370	-200.000	-0.011	0.444
-132.356	-89.202	0.522	-0.153
-131.341	107.866	-0.113	0.133
-130.326	74.382	0.190	-0.198
-129.312	133.491	-0.153	-0.196
-128.297	3.338	0.174	-0.126
-127.283	-32.398	-0.338	-0.187
-126.268	-200.000	-0.014	0.464
-125.253	234.529	0.230	0.377
-124.239	800.000	-0.116	0.406
-123.224	-120.890	-0.344	0.057
-122.210	-200.000	0.087	-0.000
-121.195	-200.000	-0.008	-0.064
