DTS Sentinel unit serial number:	SN413079Multiplexer serial number:	ORYXHardware model number:	OX4-SRSoftware version number:	ORYX F/W v4.00 Oryx Data Collector v3.7.2.0data status	okinstallation	princeton_trtdifferential loss correction	single-endedforward channel	channel 4reverse channel	N/Adate	2019/09/15time	09:21:35forward acquisition time	60.00reverse acquisition time	0.00gamma	496.2192k internal	0.2300k external	0.2300temperature offset calibration	1.0013default loss term (dB/km)	0.3790temperature slope calibration	1.0000multiplexer offset coefficient	1.0000multiplexer slope coefficient	1.0000fibre end	0.00T internal ref (°C)	33.50T ext. ref 1 (°C)	4.96T ext. ref 2 (°C)	30.48length (m)	temperature (°C)	Stokes	anti-Stokes-747.200	-24.863	-0.142	-0.086
-746.185	5.149	0.093	0.070
-745.171	-174.547	0.360	0.010
-744.156	800.000	0.042	-0.134
-743.142	-156.307	-0.296	0.019
-742.127	-85.035	-0.195	0.062
-741.112	-76.526	-0.319	-0.114
-740.098	390.814	0.013	-0.028
-739.083	-24.743	-0.375	0.227
-738.069	133.485	0.160	0.210
-737.054	-200.000	-0.029	-0.197
-736.039	37.350	-0.080	-0.072
-735.025	227.273	0.088	0.146
-734.010	-121.837	-0.220	-0.037
-732.996	43.001	-0.205	-0.191
-731.981	-27.078	0.233	-0.139
-730.966	-18.799	-0.167	-0.106
-729.952	-86.331	-0.355	-0.111
-728.937	-76.325	-0.214	0.077
-727.923	427.553	0.098	-0.216
-726.908	80.121	-0.330	-0.361
-725.894	-200.000	0.040	-0.229
-724.879	-200.000	-0.007	0.066
-723.864	-200.000	-0.005	-0.101
-722.850	-200.000	-0.008	0.062
-721.835	38.821	0.161	-0.147
-720.821	-96.514	-0.243	-0.065
-719.806	135.783	-0.219	-0.291
-718.791	-57.608	-0.258	0.115
-717.777	210.278	-0.180	0.289
-716.762	800.000	0.063	0.222
-715.748	-200.000	-0.011	-0.161
-714.733	-139.957	-0.277	-0.030
-713.718	-71.495	-0.056	-0.021
-712.704	-20.645	0.193	-0.121
-711.689	111.375	-0.118	-0.145
-710.675	31.810	-0.135	-0.119
-709.660	-200.000	0.035	-0.210
-708.645	-71.510	-0.301	-0.115
-707.631	-116.098	-0.136	0.026
-706.616	-200.000	-0.029	-0.339
-705.602	-99.243	-0.216	0.056
-704.587	-156.934	-0.191	-0.012
-703.572	290.791	-0.039	0.072
-702.558	-1.623	0.363	0.260
-701.543	-200.000	0.029	0.181
-700.529	-88.758	0.236	0.071
-699.514	439.133	-0.026	0.059
-698.499	293.189	0.096	-0.179
-697.485	-147.963	-0.453	-0.038
-696.470	-51.141	-0.253	0.121
-695.456	-85.514	0.194	0.061
-694.441	-13.023	0.130	-0.086
-693.426	-32.225	0.214	-0.121
-692.412	291.683	-0.040	-0.074
-691.397	423.990	0.024	-0.052
-690.383	-72.206	-0.402	-0.152
-689.368	-200.000	0.003	-0.089
-688.354	196.537	-0.084	-0.130
-687.339	67.325	0.233	-0.242
-686.324	-200.000	-0.055	0.260
-685.310	-58.769	0.442	-0.195
-684.295	474.752	-0.043	0.100
-683.281	209.627	0.078	-0.125
-682.266	179.154	-0.171	0.254
-681.251	-164.021	0.076	0.004
-680.237	800.000	-0.037	-0.165
-679.222	-85.137	-0.143	-0.045
-678.208	-55.801	-0.162	-0.073
-677.193	173.354	0.129	-0.190
-676.178	-162.701	-0.304	-0.015
-675.164	-155.604	-0.140	-0.009
-674.149	-64.955	0.202	0.083
-673.135	598.802	-0.068	-0.172
-672.120	-161.461	-0.166	0.009
-671.105	105.495	0.014	0.017
-670.091	-29.482	-0.341	-0.198
-669.076	-200.000	0.025	0.175
-668.062	-81.110	0.166	0.056
-667.047	-200.000	0.019	0.421
-666.032	-27.068	0.327	-0.194
-665.018	-200.000	-0.016	-0.284
-664.003	-129.774	0.199	-0.028
-662.989	43.439	0.325	0.302
-661.974	-0.654	0.146	-0.105
-660.959	6.920	0.098	0.074
-659.945	-179.368	-0.352	-0.008
-658.930	-200.000	0.062	-0.298
-657.916	800.000	-0.045	0.181
-656.901	148.336	-0.062	-0.085
-655.886	800.000	-0.023	-0.087
-654.872	-62.305	0.050	-0.021
-653.857	233.368	-0.056	-0.094
-652.843	-136.012	0.280	0.033
-651.828	546.937	-0.150	0.365
-650.814	-123.744	-0.248	0.040
-649.799	690.970	0.131	-0.349
-648.784	333.441	0.113	0.223
-647.770	-143.865	0.131	0.013
-646.755	58.433	-0.091	0.090
-645.741	-9.068	0.360	0.245
-644.726	88.026	-0.109	-0.123
-643.711	134.239	0.266	0.350
-642.697	-158.075	0.292	-0.017
-641.682	800.000	0.093	-0.282
-640.668	800.000	-0.056	-0.171
-639.653	-200.000	-0.050	-0.332
-638.638	-200.000	-0.010	-0.052
-637.624	17.797	0.197	-0.159
-636.609	-111.400	-0.223	-0.046
-635.595	58.114	-0.097	-0.097
-634.580	-187.285	0.166	0.002
-633.565	4.082	0.234	-0.174
-632.551	-94.432	0.298	0.083
-631.536	-159.371	-0.405	-0.023
-630.522	-29.444	0.232	-0.135
-629.507	254.327	-0.057	0.099
-628.492	411.504	-0.072	0.156
-627.478	-77.988	-0.107	0.037
-626.463	115.328	-0.086	-0.107
-625.449	-24.246	0.135	0.082
-624.434	427.671	-0.046	0.100
-623.419	-172.543	0.230	0.007
-622.405	11.747	-0.072	-0.056
-621.390	20.684	0.354	-0.291
-620.376	-200.000	0.030	0.187
-619.361	511.321	0.108	-0.256
-618.346	-200.000	0.025	0.189
-617.332	212.450	-0.032	0.052
-616.317	-24.734	-0.221	-0.133
-615.303	9.053	0.123	-0.094
-614.288	-19.392	-0.155	0.097
-613.273	-200.000	-0.015	0.129
-612.259	-200.000	-0.008	-0.308
-611.244	328.872	-0.042	0.082
-610.230	-91.071	-0.246	-0.072
-609.215	-200.000	-0.028	0.155
-608.201	38.652	0.074	0.067
-607.186	800.000	0.073	0.319
-606.171	182.457	0.047	-0.070
-605.157	701.423	-0.102	-0.273
-604.142	-61.553	-0.196	-0.084
-603.128	438.254	0.125	-0.277
-602.113	-14.543	0.270	-0.176
-601.098	-163.886	0.272	0.013
-600.084	10.204	0.303	0.234
-599.069	-200.000	-0.038	0.276
-598.055	199.952	0.044	0.069
-597.040	115.398	-0.156	0.193
-596.025	383.859	-0.093	-0.194
-595.011	-62.950	-0.161	-0.067
-593.996	-81.167	-0.051	0.017
-592.982	800.000	0.067	0.189
-591.967	-90.474	-0.151	0.044
-590.952	-160.911	0.262	-0.014
-589.938	-79.489	0.338	-0.116
-588.923	-126.173	0.133	0.020
-587.909	-41.262	-0.184	-0.096
-586.894	-200.000	-0.002	-0.052
-585.879	-200.000	-0.070	0.342
-584.865	-200.000	0.021	0.106
-583.850	-199.375	0.428	0.002
-582.836	39.512	-0.215	-0.196
-581.821	-40.577	0.157	-0.083
-580.806	-58.892	0.111	-0.049
-579.792	800.000	-0.029	-0.085
-578.777	-200.000	-0.030	0.364
-577.763	-118.670	0.064	-0.011
-576.748	-20.104	0.241	-0.150
-575.733	-131.245	0.233	0.031
-574.719	-66.972	0.179	0.071
-573.704	-32.355	0.133	0.075
-572.690	-158.201	0.217	0.013
-571.675	-131.577	-0.312	-0.042
-570.661	-37.228	-0.224	-0.121
-569.646	-59.667	-0.416	0.181
-568.631	151.690	-0.190	0.262
-567.617	-74.795	0.101	-0.037
-566.602	153.611	-0.032	-0.045
-565.588	-200.000	-0.010	-0.073
-564.573	800.000	0.047	-0.159
-563.558	-0.559	0.189	-0.136
-562.544	-200.000	0.026	-0.211
-561.529	136.119	0.109	-0.144
-560.515	-199.644	-0.320	-0.002
-559.500	50.402	-0.085	-0.082
-558.485	-200.000	-0.030	-0.210
-557.471	-200.000	-0.036	0.280
-556.456	-102.782	0.104	0.025
-555.442	-160.444	0.193	-0.010
-554.427	140.938	-0.204	0.273
-553.412	149.172	0.076	0.105
-552.398	-128.916	-0.124	0.018
-551.383	-92.849	0.294	-0.083
-550.369	59.464	0.167	0.167
-549.354	138.406	0.055	-0.073
-548.339	650.395	0.029	-0.076
-547.325	459.316	-0.075	-0.169
-546.310	66.477	0.092	-0.095
-545.296	-79.786	-0.200	-0.068
-544.281	-112.006	0.301	-0.061
-543.266	-56.462	-0.140	-0.063
-542.252	430.400	0.041	0.090
-541.237	800.000	-0.090	0.358
-540.223	8.392	0.291	0.222
-539.208	87.081	-0.152	0.170
-538.193	-43.374	0.169	-0.086
-537.179	-49.010	0.239	-0.116
-536.164	-188.681	-0.033	0.000
-535.150	-34.221	-0.083	0.046
-534.135	16.860	-0.183	-0.146
-533.121	-138.531	-0.291	0.032
-532.106	115.589	0.241	-0.298
-531.091	800.000	0.085	-0.278
-530.077	-145.783	0.224	-0.020
-529.062	-200.000	0.064	0.000
-528.048	-200.000	-0.078	0.451
-527.033	-114.372	0.268	-0.052
-526.018	169.299	-0.053	0.076
-525.004	-135.177	0.203	-0.025
-523.989	67.529	-0.419	-0.433
-522.975	600.027	-0.081	-0.204
-521.960	-26.438	-0.036	0.021
-520.945	142.406	0.087	0.116
-519.931	81.388	-0.334	-0.365
-518.916	800.000	-0.021	-0.089
-517.902	-200.000	-0.044	-0.334
-516.887	381.759	-0.097	-0.202
-515.872	-103.397	-0.341	0.081
-514.858	589.115	-0.065	0.161
-513.843	-200.000	0.051	0.228
-512.829	-18.383	0.228	-0.144
-511.814	-31.491	0.144	0.082
-510.799	-76.370	-0.243	0.086
-509.785	800.000	-0.076	-0.241
-508.770	165.857	-0.154	0.220
-507.756	333.139	-0.153	0.298
-506.741	23.399	0.161	0.133
-505.726	-136.943	0.228	0.026
-504.712	-200.000	0.005	-0.061
-503.697	-116.765	0.248	-0.046
-502.683	-105.556	-0.360	-0.082
-501.668	40.087	0.084	-0.076
-500.653	-48.403	0.127	0.062
-499.639	-7.646	-0.212	-0.145
-498.624	56.796	0.057	0.056
-497.610	-200.000	0.039	-0.380
-496.595	595.998	0.056	0.140
-495.581	-66.871	-0.396	0.158
-494.566	216.046	-0.022	-0.036
-493.551	800.000	-0.031	-0.122
-492.537	112.768	-0.064	0.078
-491.522	-106.311	-0.228	0.052
-490.508	-123.672	0.158	0.025
-489.493	128.720	-0.149	0.192
-488.478	-200.000	0.031	-0.219
-487.464	-155.438	-0.109	0.007
-486.449	-200.000	-0.016	0.243
-485.435	-200.000	-0.006	0.039
-484.420	-200.000	0.021	-0.153
-483.405	540.278	-0.073	0.176
-482.391	56.246	-0.099	0.097
-481.376	86.886	0.109	0.122
-480.362	-200.000	-0.035	0.200
-479.347	44.337	0.150	-0.139
-478.332	-119.503	0.282	-0.049
-477.318	52.997	-0.305	-0.295
-476.303	-200.000	-0.013	-0.409
-475.289	531.328	0.109	0.261
-474.274	-200.000	0.014	0.159
-473.259	-38.104	0.289	-0.155
-472.245	36.312	-0.176	-0.156
-471.230	240.621	0.158	0.265
-470.216	19.043	0.185	-0.150
-469.201	800.000	0.031	-0.107
-468.186	41.155	-0.287	-0.261
-467.172	113.732	-0.198	-0.243
-466.157	-85.723	0.346	0.108
-465.143	133.649	-0.114	-0.148
-464.128	518.006	-0.088	-0.208
-463.113	-39.529	-0.201	0.106
-462.099	-53.687	-0.077	-0.036
-461.084	420.386	-0.140	0.302
-460.070	433.309	-0.148	-0.324
-459.055	-129.665	0.221	-0.031
-458.040	310.083	0.226	0.427
-457.026	800.000	0.119	-0.348
-456.011	-68.841	0.164	-0.064
-454.997	74.129	-0.185	0.196
-453.982	-126.599	0.076	0.011
-452.968	232.074	-0.127	-0.210
-451.953	-112.490	0.117	0.024
-450.938	317.381	-0.164	0.313
-449.924	97.427	-0.151	0.175
-448.909	-144.285	-0.036	0.003
-447.895	-113.260	-0.270	0.054
-446.880	800.000	0.005	0.013
-445.865	100.216	-0.169	0.198
-444.851	-200.000	-0.009	-0.347
-443.836	-81.425	-0.015	-0.005
-442.822	230.926	-0.072	-0.120
-441.807	800.000	0.043	0.185
-440.792	114.805	-0.061	0.075
-439.778	-79.103	0.167	0.057
-438.763	55.109	-0.033	0.032
-437.749	18.644	0.132	-0.107
-436.734	-121.945	0.413	0.068
-435.719	-73.291	0.182	0.067
-434.705	-46.386	0.162	-0.080
-433.690	236.682	-0.016	0.026
-432.676	-200.000	-0.007	0.355
-431.661	-200.000	-0.007	0.262
-430.646	6.069	-0.187	0.139
-429.632	-200.000	-0.066	-0.441
-428.617	266.112	-0.167	0.294
-427.603	-200.000	0.012	0.106
-426.588	-75.347	0.167	-0.060
-425.573	-200.000	-0.031	0.361
-424.559	16.007	0.075	0.060
-423.544	72.765	-0.281	-0.296
-422.530	34.911	-0.036	0.032
-421.515	218.995	-0.169	-0.272
-420.500	800.000	0.085	-0.288
-419.486	-123.931	0.143	0.023
-418.471	233.072	-0.156	-0.258
-417.457	-12.426	-0.171	-0.112
-416.442	68.537	-0.190	-0.196
-415.428	-151.829	0.142	-0.010
-414.413	-49.704	0.185	0.088
-413.398	-138.915	-0.201	-0.022
-412.384	105.883	-0.246	-0.294
-411.369	-116.952	0.201	-0.037
-410.355	47.243	0.243	0.228
-409.340	-150.054	0.162	-0.013
-408.325	-134.889	0.045	-0.006
-407.311	800.000	0.049	0.167
-406.296	-91.185	-0.440	-0.127
-405.282	19.343	-0.153	0.124
-404.267	642.284	-0.099	-0.253
-403.252	800.000	-0.037	0.140
-402.238	112.897	-0.168	0.205
-401.223	-60.200	-0.100	0.043
-400.209	-68.387	-0.167	0.065
-399.194	-173.472	-0.207	0.006
-398.179	-200.000	-0.018	0.250
-397.165	-200.000	-0.046	0.269
-396.150	359.405	-0.102	-0.205
-395.136	-200.000	0.041	0.198
-394.121	-200.000	0.008	0.145
-393.106	-72.510	0.231	-0.086
-392.092	-99.434	-0.231	0.059
-391.077	-34.692	-0.175	-0.096
-390.063	108.728	0.122	-0.146
-389.048	-86.273	0.221	0.068
-388.033	-68.230	0.170	0.066
-387.019	800.000	0.076	-0.276
-386.004	-62.345	0.168	0.070
-384.990	195.215	-0.124	0.189
-383.975	-68.409	0.292	-0.114
-382.960	7.119	-0.204	-0.153
-381.946	31.352	-0.175	-0.151
-380.931	-64.227	0.041	0.017
-379.917	-200.000	0.007	-0.112
-378.902	800.000	-0.072	-0.213
-377.888	33.237	-0.166	0.144
-376.873	-200.000	-0.044	-0.362
-375.858	-51.587	0.257	-0.120
-374.844	-0.054	0.016	-0.011
-373.829	65.125	0.082	-0.084
-372.815	12.176	0.121	-0.094
-371.800	-45.263	-0.081	0.040
-370.785	22.108	0.364	-0.299
-369.771	4.783	0.312	-0.230
-368.756	800.000	-0.033	-0.101
-367.742	-200.000	0.057	0.331
-366.727	487.993	-0.028	0.064
-365.712	102.002	0.036	-0.042
-364.698	189.391	-0.071	0.107
-363.683	-200.000	-0.022	0.237
-362.669	800.000	-0.096	-0.295
-361.654	-84.549	-0.385	0.122
-360.639	44.145	-0.228	-0.210
-359.625	-200.000	0.028	0.162
-358.610	692.916	0.116	0.305
-357.596	-134.263	0.192	-0.024
-356.581	71.816	0.267	-0.279
-355.566	-33.567	-0.156	-0.086
-354.552	192.486	-0.084	-0.127
-353.537	-200.000	-0.020	0.251
-352.523	164.384	0.222	-0.314
-351.508	800.000	-0.048	-0.149
-350.493	12.931	-0.194	0.151
-349.479	-200.000	-0.029	-0.251
-348.464	-200.000	0.109	-0.491
-347.450	-83.767	0.268	-0.086
-346.435	-200.000	-0.047	-0.267
-345.420	-8.282	-0.156	-0.105
-344.406	599.669	0.050	0.124
-343.391	800.000	0.088	-0.376
-342.377	47.420	0.122	-0.114
-341.362	-3.836	-0.276	-0.192
-340.348	-107.285	0.342	0.076
-339.333	-105.230	-0.413	0.095
-338.318	-133.571	-0.042	0.005
-337.304	44.554	0.194	-0.179
-336.289	91.060	-0.072	0.081
-335.275	570.527	-0.079	-0.193
-334.260	298.038	-0.040	0.075
-333.245	-126.554	-0.270	0.040
-332.231	72.541	-0.163	-0.171
-331.216	-160.196	-0.210	0.011
-330.202	-167.946	-0.312	-0.012
-329.187	800.000	-0.103	-0.433
-328.172	800.000	0.064	0.239
-327.158	-136.624	-0.252	-0.029
-326.143	-7.987	-0.077	0.052
-325.129	-200.000	-0.022	-0.321
-324.114	47.060	-0.149	0.139
-323.099	28.915	0.324	0.275
-322.085	174.470	-0.226	0.328
-321.070	-200.000	0.007	0.127
-320.056	-52.174	-0.222	-0.103
-319.041	66.762	0.102	0.104
-318.026	-35.109	0.251	-0.137
-317.012	309.577	0.090	-0.169
-315.997	-133.209	-0.186	0.024
-314.983	155.603	-0.009	0.013
-313.968	320.734	-0.118	0.225
-312.953	-60.288	-0.165	-0.070
-311.939	-9.247	-0.087	-0.058
-310.924	-200.000	0.029	0.200
-309.910	568.403	0.114	0.277
-308.895	37.015	0.069	0.061
-307.880	-170.715	-0.247	-0.009
-306.866	-18.114	0.127	-0.080
-305.851	-19.948	0.095	0.059
-304.837	146.381	-0.088	-0.118
-303.822	800.000	-0.040	0.115
-302.807	800.000	0.061	0.205
-301.793	800.000	0.042	-0.144
-300.778	-200.000	0.002	-0.219
-299.764	800.000	0.094	0.284
-298.749	-118.078	-0.296	0.053
-297.735	-24.591	0.174	-0.104
-296.720	-111.116	-0.190	-0.039
-295.705	552.154	0.034	0.082
-294.691	-200.000	0.105	0.465
-293.676	-179.588	-0.342	0.007
-292.662	-200.000	-0.027	0.153
-291.647	-137.988	0.405	0.045
-290.632	-39.574	-0.241	-0.126
-289.618	106.662	-0.068	0.081
-288.603	38.263	-0.182	-0.162
-287.589	-191.078	-0.238	-0.002
-286.574	-153.737	0.022	-0.002
-285.559	125.390	-0.086	-0.109
-284.545	-200.000	0.014	0.295
-283.530	-34.624	0.453	-0.248
-282.516	-37.533	0.141	0.075
-281.501	-56.675	0.031	-0.014
-280.486	-200.000	0.013	-0.067
-279.472	602.942	-0.129	-0.321
-278.457	338.874	-0.242	-0.473
-277.443	-200.000	-0.019	-0.160
-276.428	725.246	-0.043	-0.114
-275.413	86.787	-0.151	0.167
-274.399	-51.875	0.167	0.078
-273.384	204.547	0.094	0.146
-272.370	-200.000	0.021	-0.293
-271.355	800.000	-0.058	0.219
-270.340	-85.588	0.127	-0.040
-269.326	139.454	-0.165	0.217
-268.311	56.521	-0.199	-0.194
-267.297	346.061	-0.029	0.058
-266.282	336.446	0.139	0.270
-265.267	491.915	-0.037	0.084
-264.253	-5.534	0.239	-0.164
-263.238	730.860	-0.065	-0.174
-262.224	-179.340	0.055	-0.001
-261.209	430.331	-0.076	-0.165
-260.195	-72.845	0.301	-0.111
-259.180	55.479	-0.128	0.124
-258.165	800.000	0.114	0.382
-257.151	-78.057	0.283	-0.097
-256.136	-53.605	0.230	0.105
-255.122	-123.091	0.252	-0.040
-254.107	151.431	0.054	-0.074
-253.092	-34.987	-0.051	0.028
-252.078	716.629	0.061	0.162
-251.063	-66.889	0.211	-0.084
-250.049	-123.311	-0.294	0.047
-249.034	-36.438	0.092	0.050
-248.019	-49.603	-0.124	0.059
-247.005	120.196	0.097	-0.120
-245.990	-200.000	-0.034	-0.324
-244.976	-159.235	0.196	0.011
-243.961	-45.792	0.086	0.043
-242.946	11.057	-0.269	-0.206
-241.932	197.375	-0.062	0.094
-240.917	83.349	0.154	0.168
-239.903	-3.436	0.037	-0.026
-238.888	-92.340	-0.064	-0.018
-237.873	37.784	-0.366	0.325
-236.859	-26.417	0.315	0.184
-235.844	-200.000	0.016	0.120
-234.830	272.409	0.026	0.045
-233.815	-98.688	0.151	0.039
-232.800	800.000	-0.058	-0.167
-231.786	-200.000	0.015	0.317
-230.771	247.089	-0.053	-0.090
-229.757	14.698	0.178	0.139
-228.742	18.652	-0.010	-0.008
-227.727	-200.000	-0.019	-0.137
-226.713	214.076	-0.134	-0.212
-225.698	21.431	-0.175	0.143
-224.684	-133.901	-0.248	-0.031
-223.669	-153.347	0.169	-0.012
-222.655	95.208	-0.240	0.273
-221.640	441.856	0.035	0.076
-220.625	800.000	-0.002	-0.006
-219.611	74.676	0.196	-0.206
-218.596	-200.000	-0.015	0.142
-217.582	90.106	-0.091	-0.102
-216.567	800.000	-0.111	0.339
-215.552	-66.245	-0.295	0.117
-214.538	4.112	0.313	0.229
-213.523	-46.364	0.347	-0.170
-212.509	800.000	0.046	-0.177
-211.494	97.596	0.138	0.158
-210.479	800.000	-0.041	0.155
-209.465	25.476	-0.085	0.070
-208.450	-200.000	0.012	0.123
-207.436	-200.000	0.019	0.283
-206.421	-26.175	-0.091	-0.054
-205.406	-158.702	-0.222	0.013
-204.392	-200.000	-0.017	-0.232
-203.377	147.277	0.054	0.072
-202.363	800.000	0.067	0.192
-201.348	-62.191	-0.377	-0.157
-200.333	800.000	-0.044	0.165
-199.319	-200.000	-0.041	0.211
-198.304	-63.909	-0.460	-0.188
-197.290	-125.232	0.431	0.066
-196.275	53.157	0.385	0.368
-195.260	-82.203	-0.324	-0.105
-194.246	-92.582	0.162	0.045
-193.231	800.000	0.022	0.073
-192.217	-73.827	-0.112	-0.041
-191.202	-200.000	-0.006	0.248
-190.187	762.929	0.058	-0.158
-189.173	-164.107	0.279	0.013
-188.158	-102.700	-0.082	-0.020
-187.144	-200.000	0.028	0.140
-186.129	800.000	-0.023	0.065
-185.114	-138.751	0.331	-0.036
-184.100	154.069	-0.230	-0.315
-183.085	470.357	-0.108	0.242
-182.071	123.579	-0.098	-0.123
-181.056	421.604	-0.014	-0.030
-180.042	85.647	-0.259	-0.284
-179.027	-16.218	0.339	0.215
-178.012	131.726	-0.321	-0.412
-176.998	-200.000	0.015	-0.156
-175.983	83.592	0.194	0.211
-174.969	-14.441	0.129	0.083
-173.954	-171.337	0.238	-0.008
-172.939	68.660	0.060	0.061
-171.925	-26.350	0.258	0.151
-170.910	-80.849	-0.296	0.098
-169.896	394.308	-0.072	0.150
-168.881	-34.604	0.276	0.151
-167.866	698.617	0.110	0.288
-166.852	396.946	0.121	0.252
-165.837	403.190	0.033	0.070
-164.823	-95.180	-0.070	-0.019
-163.808	217.014	0.148	0.236
-162.793	44.060	-0.080	-0.073
-161.779	-93.819	0.113	-0.031
-160.764	158.276	0.155	-0.214
-159.750	189.157	-0.122	0.181
-158.735	-137.191	-0.192	-0.022
-157.720	-200.000	-0.083	0.365
-156.706	800.000	-0.068	0.203
-155.691	-152.797	0.041	-0.003
-154.677	-168.301	-0.296	0.011
-153.662	-106.756	0.065	-0.014
-152.647	-200.000	-0.016	0.229
-151.633	-41.734	-0.279	0.143
-150.618	641.762	-0.046	-0.116
-149.604	96.393	-0.284	0.324
-148.589	-46.845	-0.327	-0.159
-147.574	-68.677	0.302	-0.117
-146.560	45.975	0.106	0.098
-145.545	800.000	0.115	-0.347
-144.531	-55.019	-0.144	-0.064
-143.516	677.516	0.009	0.022
-142.502	-137.015	0.157	0.018
-141.487	-146.651	0.076	0.007
-140.472	-34.850	-0.125	0.068
-139.458	-82.605	-0.250	-0.081
-138.443	-59.653	-0.211	0.090
-137.429	-130.836	0.012	-0.002
-136.414	176.207	-0.155	-0.224
-135.399	217.585	-0.126	-0.200
-134.385	325.518	-0.198	-0.376
-133.370	-200.000	0.027	-0.221
-132.356	800.000	-0.051	0.151
-131.341	-53.301	0.335	0.153
-130.326	4.305	-0.231	0.168
-129.312	-200.000	0.001	-0.214
-128.297	-28.513	0.269	0.155
-127.283	-99.629	0.038	-0.010
-126.268	50.088	0.158	-0.148
-125.253	-128.453	0.115	0.016
-124.239	-99.069	0.264	-0.067
-123.224	41.122	-0.174	0.156
-122.210	195.068	-0.117	-0.177
