DTS Sentinel unit serial number:	SN413079Multiplexer serial number:	ORYXHardware model number:	OX4-SRSoftware version number:	ORYX F/W v4.00 Oryx Data Collector v3.7.2.0data status	okinstallation	princeton_trtdifferential loss correction	single-endedforward channel	channel 4reverse channel	N/Adate	2019/09/14time	07:45:35forward acquisition time	60.00reverse acquisition time	0.00gamma	496.2192k internal	0.2322k external	0.2322temperature offset calibration	1.0131default loss term (dB/km)	0.3790temperature slope calibration	1.0000multiplexer offset coefficient	1.0000multiplexer slope coefficient	1.0000fibre end	0.00T internal ref (°C)	26.37T ext. ref 1 (°C)	3.47T ext. ref 2 (°C)	22.59length (m)	temperature (°C)	Stokes	anti-Stokes-747.200	63.614	-0.161	-0.164
-746.185	-200.000	-0.265	0.001
-745.171	-29.842	0.095	-0.055
-744.156	-200.000	0.053	0.250
-743.142	-90.987	0.240	0.070
-742.127	87.904	-0.388	0.434
-741.112	298.281	0.123	0.229
-740.098	122.973	0.020	0.025
-739.083	101.693	-0.160	0.188
-738.069	426.661	-0.106	0.230
-737.054	355.329	0.036	-0.072
-736.039	-77.110	-0.306	0.108
-735.025	-200.000	0.045	0.330
-734.010	-43.749	0.088	0.045
-732.996	-176.053	-0.208	-0.006
-731.981	-91.050	-0.091	0.026
-730.966	-200.000	0.030	0.212
-729.952	-108.940	0.345	-0.074
-728.937	115.470	-0.031	0.038
-727.923	-200.000	0.057	-0.474
-726.908	104.764	-0.073	0.087
-725.894	-101.231	-0.290	0.071
-724.879	33.405	-0.159	0.139
-723.864	394.167	0.070	-0.147
-722.850	-106.138	-0.424	0.096
-721.835	800.000	-0.039	-0.154
-720.821	392.458	0.062	0.130
-719.806	644.163	0.072	-0.184
-718.791	159.731	-0.112	-0.157
-717.777	195.347	-0.064	0.098
-716.762	-76.333	-0.168	0.060
-715.748	-200.000	-0.024	-0.164
-714.733	-52.547	-0.323	-0.151
-713.718	-9.650	0.070	0.047
-712.704	6.187	-0.162	0.121
-711.689	-116.198	0.326	-0.061
-710.675	71.506	0.141	-0.148
-709.660	-197.723	0.109	-0.001
-708.645	-124.413	-0.050	0.008
-707.631	147.766	0.075	0.102
-706.616	-200.000	0.027	0.147
-705.602	-200.000	0.026	0.362
-704.587	91.166	0.118	0.134
-703.572	-49.170	0.228	0.110
-702.558	-200.000	0.071	0.397
-701.543	-79.582	-0.461	0.157
-700.529	-91.486	0.209	-0.060
-699.514	-200.000	0.004	0.422
-698.499	800.000	-0.040	-0.166
-697.485	13.843	-0.216	-0.170
-696.470	491.715	0.046	-0.107
-695.456	-133.283	-0.193	-0.025
-694.441	-72.939	-0.152	0.056
-693.426	-5.089	-0.278	0.193
-692.412	-28.212	-0.133	-0.078
-691.397	-200.000	0.004	-0.026
-690.383	-102.199	0.259	0.063
-689.368	-117.764	-0.128	0.023
-688.354	-188.298	0.332	0.004
-687.339	-170.922	0.153	-0.005
-686.324	139.525	-0.164	-0.218
-685.310	-37.553	0.027	-0.014
-684.295	339.684	0.088	-0.174
-683.281	619.608	-0.076	0.193
-682.266	-125.082	-0.333	0.052
-681.251	800.000	-0.108	-0.400
-680.237	-200.000	0.043	0.290
-679.222	575.339	0.121	0.298
-678.208	-78.444	-0.194	-0.067
-677.193	-100.040	-0.452	-0.114
-676.178	6.767	-0.367	0.276
-675.164	-200.000	-0.018	-0.114
-674.149	-11.965	0.061	0.040
-673.135	-59.624	-0.318	0.138
-672.120	-156.044	0.432	0.028
-671.105	-200.000	0.036	0.228
-670.091	-200.000	-0.055	0.282
-669.076	114.534	0.135	0.166
-668.062	-27.120	0.198	-0.116
-667.047	800.000	-0.047	-0.183
-666.032	-40.800	0.172	0.090
-665.018	800.000	-0.040	0.122
-664.003	698.294	0.017	0.044
-662.989	-47.455	0.068	-0.033
-661.974	-66.262	0.109	0.044
-660.959	150.273	0.120	-0.164
-659.945	-115.906	-0.295	-0.055
-658.930	140.494	-0.148	-0.197
-657.916	-85.093	0.231	0.073
-656.901	-60.744	-0.116	0.049
-655.886	-200.000	-0.110	0.000
-654.872	190.005	0.170	0.257
-653.857	27.832	0.093	0.079
-652.843	342.941	-0.038	0.074
-651.828	24.775	-0.221	-0.184
-650.814	-38.359	0.148	-0.079
-649.799	132.504	-0.111	-0.145
-648.784	-85.880	0.092	0.029
-647.770	800.000	-0.043	-0.138
-646.755	800.000	0.153	-0.463
-645.741	58.543	-0.188	-0.185
-644.726	-105.779	0.239	0.054
-643.711	-80.341	-0.198	-0.067
-642.697	294.916	-0.171	-0.314
-641.682	57.193	-0.197	-0.194
-640.668	468.787	0.115	-0.260
-639.653	-111.329	-0.241	-0.049
-638.638	148.710	0.122	-0.167
-637.624	-82.219	-0.394	-0.129
-636.609	-95.321	-0.366	0.099
-635.595	-129.571	0.116	0.016
-634.580	-133.100	-0.347	0.044
-633.565	-19.047	0.150	-0.094
-632.551	800.000	-0.075	-0.235
-631.536	-200.000	0.031	-0.143
-630.522	-18.112	-0.192	0.121
-629.507	-166.723	-0.209	0.009
-628.492	-184.235	-0.085	-0.001
-627.478	-100.286	0.257	0.064
-626.463	232.022	-0.126	0.208
-625.449	-200.000	0.014	0.117
-624.434	-19.557	-0.100	-0.062
-623.419	-33.912	0.265	0.147
-622.405	-73.555	-0.125	-0.046
-621.390	29.134	0.282	0.240
-620.376	-57.285	-0.369	-0.163
-619.361	-200.000	-0.049	0.255
-618.346	-64.536	0.239	0.098
-617.332	210.254	-0.106	0.167
-616.317	-200.000	0.012	0.150
-615.303	-50.698	0.067	0.032
-614.288	180.589	-0.067	-0.099
-613.273	37.520	-0.167	-0.149
-612.259	-28.509	0.422	-0.245
-611.244	-5.330	-0.251	0.173
-610.230	-150.722	0.174	-0.013
-609.215	800.000	0.045	0.131
-608.201	-79.807	-0.206	-0.070
-607.186	-99.363	-0.168	0.043
-606.171	222.069	-0.048	-0.077
-605.157	89.078	0.024	-0.027
-604.142	57.563	0.075	0.073
-603.128	360.452	-0.061	0.122
-602.113	30.991	0.062	0.053
-601.098	-200.000	-0.097	-0.439
-600.084	320.613	-0.085	0.162
-599.069	242.338	-0.195	0.328
-598.055	-97.091	0.019	-0.005
-597.040	-200.000	-0.005	-0.442
-596.025	-123.950	-0.242	-0.038
-595.011	374.115	-0.159	-0.325
-593.996	222.496	-0.129	0.209
-592.982	431.231	-0.035	0.077
-591.967	15.969	0.165	-0.130
-590.952	-0.123	0.465	0.333
-589.938	763.279	-0.050	0.137
-588.923	-113.633	0.217	-0.043
-587.909	98.024	-0.109	-0.126
-586.894	341.747	0.163	0.321
-585.879	-156.640	-0.090	-0.006
-584.865	-106.345	0.238	0.053
-583.850	-13.466	-0.091	-0.059
-582.836	800.000	0.037	-0.126
-581.821	58.685	0.297	-0.293
-580.806	502.794	-0.037	0.086
-579.792	66.609	-0.121	0.124
-578.777	220.829	-0.077	0.124
-577.763	235.610	0.062	0.103
-576.748	-125.920	-0.159	-0.024
-575.733	-71.144	-0.228	-0.086
-574.719	189.121	0.133	0.201
-573.704	-157.300	-0.429	0.026
-572.690	276.692	-0.073	-0.131
-571.675	90.420	-0.074	0.083
-570.661	-200.000	-0.028	0.199
-569.646	-45.922	-0.172	-0.085
-568.631	202.048	-0.062	0.095
-567.617	800.000	-0.039	0.147
-566.602	-200.000	-0.023	-0.173
-565.588	119.063	0.147	-0.182
-564.573	33.301	-0.059	0.051
-563.558	-145.136	0.522	0.048
-562.544	-200.000	-0.018	-0.174
-561.529	-77.075	0.216	-0.075
-560.515	-131.077	-0.105	0.014
-559.500	63.251	-0.115	-0.115
-558.485	-200.000	0.080	-0.396
-557.471	132.579	-0.138	-0.178
-556.456	194.890	0.046	0.070
-555.442	748.021	-0.025	0.067
-554.427	-39.237	-0.215	-0.113
-553.412	-158.773	0.154	-0.009
-552.398	-116.749	-0.071	0.013
-551.383	800.000	0.150	0.474
-550.369	36.805	0.349	-0.309
-549.354	-200.000	-0.016	0.404
-548.339	-200.000	0.042	-0.194
-547.325	-131.863	-0.125	-0.016
-546.310	-94.119	-0.336	-0.092
-545.296	800.000	0.104	0.314
-544.281	-200.000	-0.017	0.273
-543.266	-200.000	-0.019	-0.192
-542.252	-89.947	-0.281	-0.082
-541.237	-161.288	-0.155	0.008
-540.223	-200.000	-0.054	-0.336
-539.208	-17.868	0.422	0.265
-538.193	388.723	-0.081	-0.168
-537.179	-100.231	-0.136	0.034
-536.164	539.157	0.125	0.297
-535.150	-172.083	-0.300	0.010
-534.135	259.251	-0.073	-0.127
-533.121	388.453	-0.040	-0.082
-532.106	-1.323	0.053	0.037
-531.091	-200.000	0.016	-0.206
-530.077	54.029	0.180	-0.174
-529.062	-200.000	-0.013	0.233
-528.048	-16.592	-0.040	-0.026
-527.033	-27.279	0.220	-0.129
-526.018	23.996	-0.357	-0.295
-525.004	-144.655	0.181	0.017
-523.989	800.000	-0.034	-0.136
-522.975	244.725	-0.064	-0.107
-521.960	-40.433	0.120	0.063
-520.945	-114.049	-0.237	0.046
-519.931	162.458	0.188	-0.263
-518.916	800.000	0.032	-0.093
-517.902	-58.217	-0.404	0.176
-516.887	242.540	0.060	0.100
-515.872	3.467	-0.213	0.155
-514.858	-138.379	-0.115	-0.013
-513.843	-73.267	0.198	0.072
-512.829	172.308	-0.094	-0.136
-511.814	38.497	0.030	0.027
-510.799	-89.480	-0.200	-0.059
-509.785	4.238	0.130	-0.096
-508.770	85.805	-0.053	-0.059
-507.756	593.775	0.080	0.198
-506.741	556.697	-0.085	-0.205
-505.726	2.778	-0.052	0.038
-504.712	-56.196	0.280	0.125
-503.697	-56.612	-0.378	0.168
-502.683	-70.796	0.139	0.052
-501.668	170.217	-0.083	-0.119
-500.653	-23.856	-0.302	-0.181
-499.639	-200.000	-0.040	-0.343
-498.624	-85.003	0.146	0.046
-497.610	45.478	0.227	0.209
-496.595	-2.077	-0.149	-0.105
-495.581	800.000	0.059	0.240
-494.566	-119.160	-0.331	-0.058
-493.551	326.940	0.186	-0.357
-492.537	-30.263	-0.126	-0.071
-491.522	-54.489	0.076	0.034
-490.508	-116.893	0.251	0.046
-489.493	-3.888	-0.103	0.071
-488.478	52.826	-0.109	0.104
-487.464	800.000	-0.033	-0.135
-486.449	-117.455	0.145	-0.026
-485.435	-48.076	-0.203	0.098
-484.420	58.905	0.010	0.010
-483.405	800.000	0.013	-0.041
-482.391	62.140	0.121	0.121
-481.376	-22.916	-0.123	0.074
-480.362	-200.000	-0.036	0.167
-479.347	81.589	0.203	-0.219
-478.332	-50.029	0.323	0.153
-477.318	-29.185	0.106	-0.060
-476.303	-115.693	-0.232	0.043
-475.289	-200.000	0.002	-0.119
-474.274	-39.006	-0.237	0.125
-473.259	-27.377	-0.186	-0.108
-472.245	800.000	-0.047	-0.142
-471.230	63.183	-0.343	0.344
-470.216	800.000	0.059	0.215
-469.201	-108.253	0.169	0.037
-468.186	-200.000	0.030	-0.233
-467.172	334.727	0.076	-0.146
-466.157	-173.427	-0.312	0.009
-465.143	-4.354	0.095	0.066
-464.128	-93.457	-0.311	-0.086
-463.113	-200.000	0.050	-0.279
-462.099	366.271	0.163	-0.329
-461.084	344.592	0.063	-0.124
-460.070	-29.084	-0.170	0.097
-459.055	-46.822	0.053	-0.026
-458.040	-200.000	0.010	0.150
-457.026	19.496	-0.237	-0.190
-456.011	280.180	-0.035	0.062
-454.997	-200.000	0.030	0.166
-453.982	-23.639	-0.261	0.156
-452.968	-2.384	-0.237	0.166
-451.953	-84.507	0.225	0.071
-450.938	253.144	-0.065	-0.111
-449.924	-7.854	0.154	0.104
-448.909	-49.941	-0.243	0.115
-447.895	622.939	-0.113	0.285
-446.880	-166.544	0.027	0.001
-445.865	800.000	-0.046	0.144
-444.851	-98.157	-0.331	-0.085
-443.836	245.113	0.162	-0.272
-442.822	800.000	0.055	-0.206
-441.807	202.561	0.074	-0.114
-440.792	57.960	0.312	-0.305
-439.778	-138.186	-0.243	0.027
-438.763	-48.815	0.341	-0.163
-437.749	-200.000	-0.020	0.191
-436.734	-21.377	-0.161	-0.098
-435.719	-200.000	0.043	0.385
-434.705	-72.505	0.108	0.040
-433.690	-108.294	-0.218	-0.047
-432.676	-74.686	0.208	0.075
-431.661	-39.615	-0.128	0.067
-430.646	-168.787	0.191	0.007
-429.632	-10.081	0.130	-0.086
-428.617	-69.699	-0.308	-0.117
-427.603	14.228	-0.207	0.161
-426.588	-28.076	-0.059	-0.034
-425.573	-74.951	-0.166	-0.059
-424.559	-64.584	0.279	0.113
-423.544	800.000	0.089	-0.353
-422.530	201.560	0.217	0.333
-421.515	-76.599	-0.074	-0.026
-420.500	175.677	0.132	0.190
-419.486	-200.000	-0.018	0.095
-418.471	406.919	0.175	0.369
-417.457	199.201	-0.233	0.357
-416.442	-35.773	-0.269	-0.145
-415.428	-126.604	-0.244	0.036
-414.413	-200.000	-0.007	-0.215
-413.398	20.331	0.153	0.123
-412.384	-200.000	-0.001	-0.027
-411.369	235.056	-0.233	0.383
-410.355	124.910	-0.028	0.035
-409.340	-95.780	0.249	0.066
-408.325	76.012	-0.224	-0.236
-407.311	-200.000	-0.005	0.150
-406.296	224.893	-0.042	0.068
-405.282	-28.074	0.244	0.141
-404.267	455.734	0.184	-0.406
-403.252	175.397	-0.225	-0.325
-402.238	-113.902	-0.342	-0.066
-401.223	-51.641	0.151	-0.070
-400.209	-24.002	-0.142	0.085
-399.194	37.655	-0.156	0.138
-398.179	518.830	0.062	0.144
-397.165	-185.077	0.261	0.004
-396.150	-200.000	0.016	0.072
-395.136	-96.427	-0.305	0.080
-394.121	-66.972	0.433	0.170
-393.106	-99.802	-0.144	-0.036
-392.092	283.231	0.039	-0.069
-391.077	449.719	0.051	0.111
-390.063	-200.000	-0.021	-0.163
-389.048	45.493	-0.366	-0.337
-388.033	-27.489	-0.083	0.048
-387.019	56.130	0.064	0.062
-386.004	800.000	0.135	0.491
-384.990	-65.210	0.067	0.027
-383.975	-152.891	0.231	0.016
-382.960	123.277	0.130	0.163
-381.946	-200.000	-0.043	0.250
-380.931	187.889	0.106	0.157
-379.917	376.772	0.050	0.101
-378.902	25.397	0.013	-0.011
-377.888	800.000	0.054	-0.221
-376.873	653.901	-0.092	0.235
-375.858	-144.057	0.325	-0.030
-374.844	47.552	0.063	0.058
-373.829	-23.914	0.056	-0.033
-372.815	-47.513	-0.285	-0.138
-371.800	-29.515	-0.293	0.167
-370.785	-200.000	-0.017	0.080
-369.771	-146.551	-0.194	0.017
-368.756	246.845	0.104	0.174
-367.742	-47.881	0.091	0.044
-366.727	582.259	-0.106	0.259
-365.712	18.242	0.171	0.136
-364.698	23.228	0.229	-0.187
-363.683	800.000	0.094	-0.283
-362.669	42.932	0.341	0.310
-361.654	-125.290	0.341	-0.052
-360.639	-10.953	-0.177	-0.116
-359.625	-200.000	0.050	0.346
-358.610	148.006	0.029	-0.039
-357.596	-127.530	-0.063	0.009
-356.581	33.900	-0.160	-0.138
-355.566	-94.041	0.128	-0.035
-354.552	-38.851	-0.248	0.130
-353.537	715.022	-0.138	0.363
-352.523	138.619	-0.075	-0.098
-351.508	752.325	-0.111	0.299
-350.493	-120.736	0.292	0.049
-349.479	162.977	-0.078	-0.109
-348.464	-200.000	-0.003	-0.253
-347.450	800.000	0.073	0.263
-346.435	17.909	0.489	0.388
-345.420	133.305	-0.169	-0.217
-344.406	-78.770	0.156	0.053
-343.391	32.235	-0.066	0.057
-342.377	800.000	-0.042	0.117
-341.362	800.000	0.095	0.378
-340.348	-46.880	-0.157	-0.076
-339.333	155.838	0.160	0.220
-338.318	-200.000	-0.001	-0.127
-337.304	60.113	-0.168	-0.165
-336.289	-43.271	0.226	-0.114
-335.275	-48.351	-0.131	0.063
-334.260	316.840	0.113	0.213
-333.245	-139.123	0.227	-0.024
-332.231	-8.154	0.040	-0.027
-331.216	69.069	-0.032	-0.032
-330.202	-200.000	-0.026	-0.209
-329.187	-46.682	0.085	0.042
-328.172	175.695	0.145	0.209
-327.158	-200.000	0.082	0.413
-326.143	-80.326	0.252	-0.084
-325.129	138.247	-0.143	-0.186
-324.114	800.000	-0.049	-0.188
-323.099	800.000	-0.045	-0.194
-322.085	800.000	0.047	0.199
-321.070	-117.730	0.396	-0.071
-320.056	-65.662	0.224	0.089
-319.041	-200.000	-0.006	0.167
-318.026	334.051	0.107	0.206
-317.012	532.389	-0.023	-0.054
-315.997	759.113	-0.036	0.097
-314.983	-127.068	-0.034	-0.005
-313.968	783.286	0.037	0.100
-312.953	10.482	-0.112	-0.085
-311.939	692.244	0.102	0.266
-310.924	-7.527	-0.219	0.147
-309.910	10.918	0.223	0.169
-308.895	305.940	0.133	-0.245
-307.880	129.510	-0.247	-0.313
-306.866	185.721	-0.191	0.282
-305.851	800.000	0.097	0.313
-304.837	800.000	-0.127	0.457
-303.822	515.424	-0.032	-0.074
-302.807	114.413	-0.078	-0.094
-301.793	-35.974	0.204	-0.109
-300.778	800.000	-0.071	-0.217
-299.764	-25.690	0.139	-0.081
-298.749	77.979	-0.204	0.216
-297.735	238.582	0.045	0.074
-296.720	445.004	0.014	-0.031
-295.705	-142.187	-0.326	0.032
-294.691	-121.242	-0.214	-0.036
-293.676	-136.107	0.262	0.030
-292.662	-70.077	0.147	-0.056
-291.647	-106.862	0.395	-0.087
-290.632	-200.000	0.000	0.082
-289.618	68.757	-0.120	-0.122
-288.603	-112.415	-0.382	-0.076
-287.589	-26.149	-0.205	0.119
-286.574	624.117	0.107	-0.268
-285.559	53.393	-0.188	-0.179
-284.545	-43.332	0.201	-0.101
-283.530	71.694	0.057	-0.059
-282.516	35.355	-0.206	0.180
-281.501	-121.797	0.448	0.073
-280.486	-11.068	0.088	-0.058
-279.472	174.523	-0.128	0.183
-278.457	392.632	-0.108	-0.223
-277.443	62.013	-0.038	-0.038
-276.428	741.459	-0.144	0.385
-275.413	-200.000	-0.026	-0.116
-274.399	-173.096	0.080	0.002
-273.384	96.300	0.183	0.208
-272.370	-200.000	-0.044	-0.460
-271.355	-108.180	0.138	-0.030
-270.340	-142.445	0.328	-0.032
-269.326	-34.777	0.218	0.118
-268.311	5.724	-0.204	0.150
-267.297	-149.690	-0.189	0.015
-266.282	-200.000	-0.059	0.309
-265.267	59.269	0.171	0.167
-264.253	303.499	-0.150	-0.275
-263.238	-20.669	0.182	-0.111
-262.224	274.993	-0.130	0.229
-261.209	198.178	-0.075	-0.113
-260.195	472.740	0.077	0.172
-259.180	-136.660	-0.325	-0.037
-258.165	-156.056	0.257	-0.016
-257.151	-87.628	0.194	-0.058
-256.136	103.075	-0.061	-0.071
-255.122	271.147	-0.218	-0.380
-254.107	49.198	0.153	-0.143
-253.092	800.000	-0.050	0.157
-252.078	800.000	0.191	-0.606
-251.063	-39.495	0.160	-0.083
-250.049	-47.951	0.152	0.073
-249.034	685.316	0.067	0.174
-248.019	-104.363	0.183	-0.042
-247.005	57.379	-0.373	-0.361
-245.990	800.000	-0.061	0.247
-244.976	-105.081	0.144	-0.033
-243.961	-200.000	0.019	-0.105
-242.946	171.271	0.274	-0.390
-241.932	-76.626	-0.145	-0.051
-240.917	54.481	-0.234	-0.223
-239.903	-132.924	0.272	-0.034
-238.888	493.697	-0.091	-0.206
-237.873	19.324	-0.177	0.141
-236.859	378.688	0.162	-0.328
-235.844	3.899	0.036	0.026
-234.830	105.439	0.110	0.129
-233.815	-42.386	0.125	0.063
-232.800	-34.432	0.190	-0.103
-231.786	800.000	0.031	0.113
-230.771	121.889	-0.260	0.321
-229.757	120.772	-0.079	0.097
-228.742	-2.371	-0.192	0.133
-227.727	-89.907	0.310	-0.090
-226.713	-129.745	0.243	0.033
-225.698	-200.000	0.016	-0.123
-224.684	-200.000	-0.021	0.411
-223.669	143.605	-0.148	0.195
-222.655	-200.000	0.086	-0.378
-221.640	800.000	0.023	0.083
-220.625	249.404	0.139	-0.234
-219.611	-114.348	0.270	0.051
-218.596	-200.000	0.043	-0.223
-217.582	800.000	-0.107	-0.311
-216.567	294.477	-0.155	-0.280
-215.552	25.685	0.089	0.073
-214.538	-180.654	0.121	-0.002
-213.523	-147.436	-0.263	0.022
-212.509	-79.749	0.077	0.026
-211.494	-10.564	0.127	0.083
-210.479	147.914	0.079	-0.105
-209.465	-10.481	0.307	-0.201
-208.450	800.000	0.025	0.091
-207.436	185.151	0.045	-0.066
-206.421	205.923	-0.090	0.139
-205.406	47.171	-0.034	0.032
-204.392	-50.664	0.125	0.058
-203.377	684.731	-0.082	-0.213
-202.363	-200.000	0.010	-0.070
-201.348	-200.000	0.023	-0.117
-200.333	3.643	0.108	-0.078
-199.319	33.585	0.455	-0.391
-198.304	-157.703	0.180	0.011
-197.290	116.382	-0.082	0.099
-196.275	32.714	0.138	0.118
-195.260	1.217	-0.084	0.060
-194.246	-34.147	-0.210	-0.114
-193.231	800.000	0.065	0.218
-192.217	-25.087	-0.036	0.021
-191.202	314.959	0.082	0.153
-190.187	-16.872	-0.271	-0.169
-189.173	301.874	-0.075	0.137
-188.158	-200.000	0.055	0.398
-187.144	-159.344	-0.328	0.018
-186.129	37.183	0.132	-0.116
-185.114	-200.000	-0.021	0.237
-184.100	211.967	-0.124	0.194
-183.085	-104.695	0.254	0.058
-182.071	-0.905	-0.086	-0.060
-181.056	-200.000	-0.005	0.061
-180.042	339.518	0.032	-0.061
-179.027	-200.000	-0.009	-0.221
-178.012	-200.000	0.003	0.016
-176.998	-200.000	0.006	0.083
-175.983	-77.570	0.283	0.097
-174.969	-66.534	0.138	0.054
-173.954	146.073	0.091	-0.121
-172.939	800.000	0.102	0.398
-171.925	-26.247	0.044	0.025
-170.910	-200.000	0.032	-0.222
-169.896	-58.124	0.197	-0.085
-168.881	246.287	-0.114	0.190
-167.866	185.471	-0.137	-0.201
-166.852	-200.000	-0.016	0.156
-165.837	-200.000	-0.039	0.264
-164.823	-74.958	-0.131	-0.047
-163.808	-103.566	0.106	-0.025
-162.793	-200.000	-0.033	0.201
-161.779	153.254	0.179	-0.242
-160.764	179.924	0.198	-0.287
-159.750	89.331	-0.173	0.190
-158.735	-17.283	-0.220	-0.137
-157.720	800.000	0.048	-0.155
-156.706	-89.724	0.215	-0.062
-155.691	-200.000	-0.011	-0.237
-154.677	-200.000	-0.007	-0.175
-153.662	244.987	-0.255	-0.424
-152.647	57.718	0.195	0.188
-151.633	186.439	0.146	-0.215
-150.618	-80.119	0.264	-0.087
-149.604	25.052	-0.176	0.144
-148.589	800.000	-0.162	0.466
-147.574	-30.132	0.240	-0.135
-146.560	198.022	0.146	0.221
-145.545	-133.886	-0.243	0.030
-144.531	800.000	0.064	-0.178
-143.516	240.770	-0.055	-0.090
-142.502	800.000	-0.057	0.219
-141.487	800.000	0.098	0.408
-140.472	-119.232	-0.418	-0.072
-139.458	-143.567	-0.404	0.038
-138.443	212.205	-0.136	-0.212
-137.429	-0.522	0.281	0.197
-136.414	-200.000	-0.018	0.175
-135.399	102.983	-0.104	0.120
-134.385	-57.366	0.014	-0.006
-133.370	-200.000	0.046	-0.329
-132.356	-200.000	-0.023	0.113
-131.341	-156.216	0.348	-0.022
-130.326	684.051	0.106	-0.272
-129.312	-80.773	-0.085	-0.028
-128.297	-200.000	0.025	0.168
-127.283	-43.627	0.239	-0.119
-126.268	91.124	0.074	-0.082
-125.253	-200.000	-0.005	-0.072
-124.239	-80.629	0.073	-0.024
-123.224	-174.568	0.150	0.004
-122.210	116.414	-0.028	0.034
-121.195	-200.000	0.026	0.204
