DTS Sentinel unit serial number:	SN413079Multiplexer serial number:	ORYXHardware model number:	OX4-SRSoftware version number:	ORYX F/W v4.00 Oryx Data Collector v3.7.2.0data status	okinstallation	princeton_trtdifferential loss correction	single-endedforward channel	channel 4reverse channel	N/Adate	2019/09/14time	04:49:34forward acquisition time	60.00reverse acquisition time	0.00gamma	496.2192k internal	0.2320k external	0.2320temperature offset calibration	1.0136default loss term (dB/km)	0.3790temperature slope calibration	1.0000multiplexer offset coefficient	1.0000multiplexer slope coefficient	1.0000fibre end	0.00T internal ref (°C)	26.81T ext. ref 1 (°C)	3.35T ext. ref 2 (°C)	21.97length (m)	temperature (°C)	Stokes	anti-Stokes-747.200	5.411	0.048	-0.036
-746.185	-10.162	-0.211	0.142
-745.171	-52.062	-0.131	-0.062
-744.156	-92.890	-0.037	0.010
-743.142	800.000	0.118	0.415
-742.127	-49.268	0.331	0.160
-741.112	25.179	0.059	-0.049
-740.098	255.799	-0.160	-0.277
-739.083	-91.027	-0.291	-0.085
-738.069	63.049	0.098	-0.099
-737.054	-200.000	-0.003	-0.040
-736.039	-200.000	-0.006	0.076
-735.025	-104.701	-0.072	-0.017
-734.010	13.405	-0.382	-0.300
-732.996	703.840	-0.064	0.170
-731.981	-42.667	-0.102	-0.053
-730.966	-24.918	-0.311	-0.187
-729.952	-200.000	0.002	0.203
-728.937	132.936	0.194	-0.253
-727.923	-12.513	-0.138	0.091
-726.908	5.149	-0.306	-0.227
-725.894	-174.165	0.069	0.002
-724.879	-155.801	-0.131	0.008
-723.864	405.252	-0.087	-0.186
-722.850	-133.413	-0.342	-0.043
-721.835	-51.381	0.315	-0.149
-720.821	607.967	0.031	0.077
-719.806	-110.255	-0.138	-0.029
-718.791	-97.370	-0.161	-0.042
-717.777	83.324	-0.181	-0.199
-716.762	205.824	0.054	-0.085
-715.748	-200.000	0.051	-0.325
-714.733	-97.163	0.363	-0.096
-713.718	376.937	-0.087	-0.179
-712.704	800.000	-0.070	0.194
-711.689	-200.000	0.101	0.000
-710.675	-200.000	-0.031	0.402
-709.660	-200.000	0.012	0.080
-708.645	734.744	-0.108	0.292
-707.631	-71.325	0.104	0.039
-706.616	800.000	0.103	0.402
-705.602	64.267	0.114	0.116
-704.587	800.000	-0.090	0.269
-703.572	18.505	0.394	-0.318
-702.558	-200.000	-0.000	-0.143
-701.543	118.749	-0.143	-0.178
-700.529	-200.000	-0.008	-0.298
-699.514	-200.000	0.012	-0.141
-698.499	-200.000	0.019	-0.089
-697.485	46.060	0.189	-0.177
-696.470	95.197	-0.175	0.201
-695.456	-130.803	0.031	0.004
-694.441	-33.692	0.150	0.084
-693.426	564.450	0.089	-0.217
-692.412	102.438	0.079	-0.094
-691.397	-88.777	0.456	-0.137
-690.383	52.933	-0.213	-0.205
-689.368	160.521	0.059	-0.082
-688.354	59.132	0.042	0.042
-687.339	116.105	-0.189	-0.234
-686.324	-28.306	0.230	-0.134
-685.310	-42.120	-0.217	-0.112
-684.295	-200.000	-0.018	-0.201
-683.281	-54.637	-0.177	-0.081
-682.266	-149.689	-0.321	-0.026
-681.251	800.000	-0.065	-0.227
-680.237	-88.363	0.096	-0.029
-679.222	-200.000	-0.039	0.225
-678.208	800.000	0.104	-0.342
-677.193	-15.705	-0.110	0.071
-676.178	800.000	-0.040	-0.147
-675.164	-76.547	0.321	-0.114
-674.149	800.000	-0.054	-0.223
-673.135	243.084	0.205	0.346
-672.120	-84.940	-0.045	0.014
-671.105	-200.000	0.015	0.084
-670.091	180.980	0.083	0.122
-669.076	-188.032	-0.054	0.001
-668.062	-67.830	-0.174	0.068
-667.047	-64.006	0.089	0.037
-666.032	-200.000	-0.002	0.483
-665.018	252.284	0.048	0.083
-664.003	-54.022	0.116	-0.053
-662.989	62.878	0.269	0.272
-661.974	415.222	0.133	-0.286
-660.959	-33.307	0.021	-0.012
-659.945	-78.469	0.454	0.157
-658.930	800.000	0.034	-0.097
-657.916	-200.000	-0.048	-0.271
-656.901	317.112	0.095	-0.181
-655.886	137.774	0.098	0.129
-654.872	436.645	-0.078	0.171
-653.857	-178.823	0.355	0.008
-652.843	0.990	-0.091	0.066
-651.828	73.353	0.216	0.228
-650.814	82.510	0.017	0.018
-649.799	37.279	0.135	-0.120
-648.784	160.222	0.012	0.016
-647.770	154.785	0.225	-0.312
-646.755	-200.000	-0.050	0.374
-645.741	-66.155	-0.121	0.049
-644.726	-200.000	0.018	-0.261
-643.711	800.000	-0.062	-0.185
-642.697	-97.597	-0.263	-0.069
-641.682	-18.706	0.118	-0.074
-640.668	-188.749	0.165	0.002
-639.653	-69.894	-0.272	-0.105
-638.638	-200.000	0.025	0.162
-637.624	249.572	0.134	-0.228
-636.609	400.953	-0.085	-0.179
-635.595	-51.647	-0.259	0.122
-634.580	167.467	0.170	0.244
-633.565	86.967	-0.096	0.107
-632.551	27.585	-0.325	0.275
-631.536	161.914	0.195	-0.275
-630.522	800.000	-0.036	-0.134
-629.507	-200.000	-0.015	-0.182
-628.492	-68.283	0.282	0.110
-627.478	44.156	-0.079	-0.073
-626.463	800.000	0.089	-0.297
-625.449	800.000	-0.037	-0.117
-624.434	91.140	0.089	0.100
-623.419	-200.000	-0.014	0.217
-622.405	-131.237	0.263	-0.035
-621.390	800.000	-0.061	0.225
-620.376	-200.000	-0.050	0.245
-619.361	59.480	-0.144	-0.143
-618.346	282.284	0.142	-0.257
-617.332	88.502	-0.245	-0.274
-616.317	213.799	-0.059	-0.093
-615.303	205.221	0.098	0.153
-614.288	246.983	0.161	0.274
-613.273	86.284	-0.045	-0.050
-612.259	-41.864	0.167	-0.086
-611.244	-71.477	-0.386	-0.145
-610.230	-155.293	0.339	0.022
-609.215	-139.396	0.323	-0.035
-608.201	-200.000	-0.092	0.548
-607.186	-57.614	-0.479	-0.211
-606.171	-3.301	0.299	-0.210
-605.157	-148.219	0.359	0.030
-604.142	517.177	0.119	-0.280
-603.128	161.485	-0.024	0.033
-602.113	74.765	0.161	-0.170
-601.098	213.528	-0.203	0.323
-600.084	-200.000	-0.013	0.184
-599.069	800.000	-0.089	0.277
-598.055	80.652	-0.096	0.104
-597.040	209.477	-0.237	-0.373
-596.025	-97.963	0.219	0.057
-595.011	-135.391	-0.468	-0.056
-593.996	180.766	0.207	-0.305
-592.982	-88.439	-0.075	0.023
-591.967	487.005	0.083	-0.189
-590.952	-82.694	-0.244	-0.079
-589.938	-113.665	0.096	0.019
-588.923	-182.561	-0.128	0.002
-587.909	800.000	0.075	-0.264
-586.894	800.000	0.076	0.278
-585.879	-120.468	-0.151	-0.026
-584.865	133.866	0.271	-0.353
-583.850	8.422	-0.269	0.204
-582.836	104.340	0.254	-0.301
-581.821	11.921	-0.046	0.035
-580.806	117.824	-0.021	0.026
-579.792	116.810	0.106	-0.131
-578.777	24.062	0.142	0.118
-577.763	102.085	0.077	0.090
-576.748	-12.041	-0.204	0.134
-575.733	36.522	0.171	-0.151
-574.719	12.549	0.146	-0.113
-573.704	-105.512	0.145	0.033
-572.690	167.788	-0.066	0.094
-571.675	94.096	0.202	0.230
-570.661	-89.370	-0.347	-0.103
-569.646	800.000	-0.086	0.264
-568.631	-18.727	0.169	-0.106
-567.617	-80.126	-0.099	0.033
-566.602	-200.000	0.197	0.001
-565.588	800.000	-0.076	0.238
-564.573	761.676	-0.050	-0.136
-563.558	-200.000	0.013	0.176
-562.544	21.876	0.144	0.118
-561.529	-142.511	-0.094	-0.009
-560.515	-99.248	0.224	0.057
-559.500	-135.007	0.139	-0.017
-558.485	164.518	0.045	0.063
-557.471	-138.390	-0.434	-0.048
-556.456	2.147	0.128	-0.093
-555.442	-88.392	-0.253	-0.076
-554.427	-200.000	0.003	-0.079
-553.412	427.264	-0.035	0.076
-552.398	243.708	0.130	-0.218
-551.383	-12.079	-0.208	-0.137
-550.369	1.146	-0.269	0.194
-549.354	800.000	-0.072	0.294
-548.339	-52.302	-0.244	-0.113
-547.325	-91.569	0.284	0.081
-546.310	-200.000	-0.012	-0.168
-545.296	180.825	-0.129	0.190
-544.281	5.974	0.215	-0.160
-543.266	391.912	-0.138	-0.288
-542.252	-78.309	-0.258	-0.089
-541.237	-200.000	-0.001	-0.267
-540.223	-200.000	-0.040	0.221
-539.208	-200.000	-0.005	-0.052
-538.193	111.704	-0.140	0.169
-537.179	34.867	-0.167	0.147
-536.164	-200.000	0.020	0.141
-535.150	653.530	-0.029	-0.074
-534.135	229.937	0.068	0.112
-533.121	-123.260	0.195	0.031
-532.106	-200.000	-0.010	0.408
-531.091	564.267	0.103	-0.249
-530.077	-83.129	0.393	-0.127
-529.062	-121.586	-0.238	0.040
-528.048	59.483	-0.054	0.053
-527.033	134.774	-0.134	-0.175
-526.018	-116.728	-0.319	-0.059
-525.004	-44.059	0.242	-0.122
-523.989	363.491	-0.142	-0.285
-522.975	-0.985	-0.266	-0.189
-521.960	256.145	0.101	-0.174
-520.945	-39.136	-0.054	0.028
-519.931	-200.000	-0.027	-0.203
-518.916	-65.290	0.215	-0.087
-517.902	-200.000	0.013	0.132
-516.887	84.167	-0.138	-0.151
-515.872	637.998	-0.072	-0.184
-514.858	721.133	0.049	-0.131
-513.843	-200.000	0.008	-0.122
-512.829	-31.101	-0.062	0.035
-511.814	-94.444	0.132	-0.036
-510.799	-164.162	0.084	-0.004
-509.785	156.933	0.039	-0.055
-508.770	66.142	-0.192	0.195
-507.756	-44.431	0.044	0.022
-506.741	15.269	-0.203	0.160
-505.726	-94.829	-0.111	-0.030
-504.712	-200.000	-0.033	0.229
-503.697	-6.404	-0.109	-0.075
-502.683	-95.360	-0.158	-0.043
-501.668	-5.324	0.504	0.347
-500.653	52.390	-0.077	0.074
-499.639	-15.417	-0.240	-0.153
-498.624	-32.395	0.272	-0.152
-497.610	40.438	-0.265	-0.239
-496.595	-200.000	0.020	-0.157
-495.581	800.000	0.122	-0.368
-494.566	-43.748	-0.265	-0.134
-493.551	-61.895	-0.138	-0.058
-492.537	-200.000	0.031	0.276
-491.522	83.868	0.122	-0.133
-490.508	-120.859	-0.059	-0.010
-489.493	86.650	-0.054	-0.060
-488.478	-200.000	0.056	0.258
-487.464	285.430	-0.066	0.119
-486.449	800.000	0.094	0.375
-485.435	168.097	0.100	0.142
-484.420	302.271	0.207	0.383
-483.405	2.655	-0.148	0.107
-482.391	-98.090	-0.260	-0.067
-481.376	-200.000	0.012	0.108
-480.362	53.179	0.233	0.223
-479.347	800.000	0.026	-0.097
-478.332	13.726	-0.091	0.071
-477.318	-20.387	0.113	0.070
-476.303	173.859	0.071	0.102
-475.289	-74.897	0.261	0.094
-474.274	-200.000	-0.071	-0.329
-473.259	-14.991	-0.243	0.156
-472.245	-72.926	0.224	0.083
-471.230	6.639	0.179	0.133
-470.216	97.765	0.079	0.090
-469.201	258.293	0.128	0.220
-468.186	-118.713	-0.257	0.045
-467.172	615.833	0.088	0.222
-466.157	-60.213	-0.330	0.141
-465.143	-200.000	0.021	-0.163
-464.128	273.314	0.082	-0.145
-463.113	-62.022	-0.281	0.117
-462.099	-104.730	0.226	-0.052
-461.084	-90.222	-0.045	0.013
-460.070	-89.679	-0.145	0.042
-459.055	617.500	0.084	-0.211
-458.040	-175.599	0.497	0.013
-457.026	800.000	0.019	-0.080
-456.011	-115.544	0.241	-0.045
-454.997	-71.081	-0.476	-0.179
-453.982	-156.044	0.338	-0.021
-452.968	-33.718	-0.249	0.137
-451.953	662.206	-0.122	-0.314
-450.938	-2.326	-0.100	0.070
-449.924	135.032	-0.216	0.281
-448.909	800.000	-0.104	0.363
-447.895	-200.000	0.012	0.058
-446.880	800.000	0.081	0.313
-445.865	23.021	-0.380	0.312
-444.851	158.075	0.131	-0.181
-443.836	354.126	0.114	0.226
-442.822	141.281	0.213	-0.282
-441.807	-33.786	0.306	0.168
-440.792	7.031	-0.211	0.157
-439.778	800.000	0.066	-0.185
-438.763	293.263	-0.261	-0.476
-437.749	166.944	0.060	-0.085
-436.734	20.917	0.030	0.024
-435.719	-133.781	-0.194	0.024
-434.705	800.000	-0.051	-0.145
-433.690	13.103	0.336	-0.260
-432.676	-163.055	-0.467	-0.023
-431.661	800.000	-0.128	0.368
-430.646	175.406	0.085	0.123
-429.632	595.869	0.030	-0.073
-428.617	352.989	-0.190	0.377
-427.603	800.000	-0.030	0.126
-426.588	-200.000	-0.012	0.166
-425.573	-50.848	-0.394	0.185
-424.559	-160.310	-0.281	-0.015
-423.544	-59.334	0.339	-0.145
-422.530	-84.064	0.092	0.029
-421.515	137.514	-0.106	0.139
-420.500	-200.000	-0.007	0.085
-419.486	-200.000	-0.010	-0.138
-418.471	21.668	0.353	0.287
-417.457	-11.922	-0.266	0.174
-416.442	-11.273	0.267	0.175
-415.428	-122.579	-0.189	0.031
-414.413	-200.000	0.075	-0.354
-413.398	-200.000	0.031	0.258
-412.384	-93.664	0.433	0.119
-411.369	-116.011	-0.395	-0.073
-410.355	800.000	0.030	-0.108
-409.340	-200.000	-0.008	0.062
-408.325	69.283	0.156	0.160
-407.311	-42.256	-0.241	-0.123
-406.296	-48.294	-0.123	0.059
-405.282	-200.000	0.005	0.125
-404.267	-114.580	0.292	-0.056
-403.252	-200.000	-0.158	-0.000
-402.238	-66.790	-0.253	0.100
-401.223	-7.300	-0.224	0.151
-400.209	84.339	0.218	-0.237
-399.194	228.551	-0.088	-0.144
-398.179	89.348	-0.120	0.134
-397.165	-148.418	-0.139	0.011
-396.150	182.438	0.095	0.140
-395.136	107.797	0.098	0.117
-394.121	198.475	0.120	0.184
-393.106	800.000	-0.019	0.068
-392.092	-61.029	0.114	0.048
-391.077	622.037	-0.237	-0.595
-390.063	-162.601	-0.269	-0.013
-389.048	133.737	-0.157	0.203
-388.033	-188.591	0.394	0.005
-387.019	19.267	-0.106	-0.085
-386.004	262.068	0.117	-0.202
-384.990	782.084	0.084	0.230
-383.975	-144.462	-0.286	-0.026
-382.960	-164.701	0.146	-0.007
-381.946	-55.015	-0.145	-0.065
-380.931	-78.729	0.222	0.075
-379.917	800.000	0.108	-0.341
-378.902	-74.334	-0.215	-0.077
-377.888	250.576	-0.052	0.088
-376.873	51.079	0.135	-0.127
-375.858	344.899	0.104	-0.204
-374.844	800.000	-0.033	0.113
-373.829	94.716	0.145	0.164
-372.815	432.050	0.238	0.514
-371.800	608.966	0.078	-0.195
-370.785	-13.926	-0.233	-0.150
-369.771	130.954	-0.070	-0.089
-368.756	-152.178	0.308	-0.022
-367.742	409.385	0.147	0.310
-366.727	-109.237	0.159	0.034
-365.712	-131.632	0.215	-0.028
-364.698	-174.099	-0.111	0.003
-363.683	-200.000	-0.003	0.105
-362.669	83.553	0.188	-0.205
-361.654	-79.133	-0.339	-0.115
-360.639	800.000	0.142	-0.461
-359.625	178.637	0.142	0.206
-358.610	-54.920	0.289	-0.130
-357.596	-200.000	-0.015	0.080
-356.581	-200.000	-0.029	-0.307
-355.566	257.763	-0.134	-0.229
-354.552	-200.000	0.031	-0.272
-353.537	105.939	0.122	-0.143
-352.523	800.000	-0.055	0.210
-351.508	800.000	0.096	0.280
-350.493	-109.213	0.161	-0.034
-349.479	10.172	0.218	-0.165
-348.464	26.327	-0.337	0.280
-347.450	465.618	0.166	0.371
-346.435	-78.822	0.177	-0.060
-345.420	-44.371	0.028	-0.014
-344.406	800.000	-0.029	0.088
-343.391	-79.821	-0.266	0.089
-342.377	-200.000	-0.011	-0.289
-341.362	-118.237	0.315	-0.056
-340.348	214.729	0.146	0.231
-339.333	800.000	-0.062	0.245
-338.318	-99.284	0.092	-0.023
-337.304	-140.711	-0.141	0.015
-336.289	300.878	-0.021	-0.039
-335.275	22.528	-0.247	0.201
-334.260	-200.000	-0.054	0.247
-333.245	-123.073	0.332	0.053
-332.231	57.083	0.153	-0.149
-331.216	178.772	-0.382	0.556
-330.202	-200.000	0.003	-0.041
-329.187	355.757	0.209	0.413
-328.172	402.992	-0.144	-0.301
-327.158	-158.302	0.209	0.012
-326.143	78.535	0.081	0.087
-325.129	-21.727	-0.132	0.080
-324.114	-200.000	-0.017	0.243
-323.099	267.254	0.171	-0.298
-322.085	-200.000	-0.012	-0.131
-321.070	138.971	-0.202	-0.264
-320.056	-25.781	0.146	-0.085
-319.041	-72.485	0.193	-0.071
-318.026	-92.128	-0.173	0.049
-317.012	61.632	0.209	-0.207
-315.997	-61.093	-0.199	-0.083
-314.983	-91.691	0.072	0.020
-313.968	-200.000	-0.001	0.035
-312.953	729.947	-0.054	-0.145
-311.939	-19.736	-0.212	0.130
-310.924	32.083	0.051	-0.043
-309.910	247.293	0.129	-0.216
-308.895	-144.774	-0.021	-0.002
-307.880	-200.000	0.002	-0.223
-306.866	-137.740	0.361	0.040
-305.851	125.000	0.024	-0.030
-304.837	800.000	-0.066	0.191
-303.822	800.000	0.076	0.264
-302.807	-25.923	-0.133	-0.078
-301.793	565.536	-0.043	0.105
-300.778	441.359	0.086	-0.186
-299.764	550.571	-0.067	-0.161
-298.749	531.032	-0.078	0.183
-297.735	-92.994	0.354	0.098
-296.720	-10.187	-0.167	-0.110
-295.705	-15.839	-0.125	-0.079
-294.691	436.149	-0.181	0.392
-293.676	515.465	-0.026	0.060
-292.662	-132.692	-0.141	0.018
-291.647	-56.989	-0.260	-0.114
-290.632	-85.675	-0.333	-0.103
-289.618	800.000	0.037	0.122
-288.603	6.243	0.175	0.129
-287.589	45.852	0.204	-0.187
-286.574	501.680	-0.091	0.209
-285.559	-87.740	-0.116	0.035
-284.545	-37.655	0.298	0.158
-283.530	-73.988	0.530	0.191
-282.516	44.448	0.118	-0.107
-281.501	130.043	-0.173	-0.219
-280.486	75.086	0.105	0.110
-279.472	-73.933	0.217	0.078
-278.457	-200.000	-0.013	-0.323
-277.443	64.590	-0.133	0.133
-276.428	-200.000	-0.012	0.284
-275.413	-88.096	0.315	0.094
-274.399	-200.000	-0.257	0.000
-273.384	-98.965	-0.221	-0.056
-272.370	203.650	-0.105	-0.161
-271.355	800.000	-0.030	-0.107
-270.340	243.325	0.136	0.226
-269.326	225.210	0.149	-0.239
-268.311	-127.415	-0.081	-0.012
-267.297	-200.000	0.007	-0.099
-266.282	-33.135	-0.400	-0.220
-265.267	185.765	-0.038	-0.056
-264.253	58.986	0.179	0.174
-263.238	-200.000	0.015	0.156
-262.224	-104.291	-0.423	-0.097
-261.209	-125.945	0.068	0.010
-260.195	-49.812	-0.136	-0.064
-259.180	506.953	-0.092	-0.212
-258.165	-2.221	0.018	0.013
-257.151	-103.226	-0.351	0.082
-256.136	-160.477	-0.242	0.013
-255.122	-22.218	0.357	-0.215
-254.107	800.000	-0.027	0.100
-253.092	374.236	-0.061	0.124
-252.078	275.513	-0.096	0.169
-251.063	-128.551	0.083	-0.012
-250.049	-128.436	0.319	-0.045
-249.034	-41.597	-0.318	0.162
-248.019	-163.997	-0.594	0.027
-247.005	800.000	-0.096	-0.294
-245.990	67.037	-0.158	-0.160
-244.976	54.036	-0.272	-0.260
-243.961	-146.789	0.115	-0.010
-242.946	-200.000	0.023	0.202
-241.932	-125.109	-0.324	0.049
-240.917	2.731	-0.224	0.161
-239.903	64.701	0.078	0.078
-238.888	489.323	-0.095	-0.216
-237.873	-200.000	-0.004	0.172
-236.859	-44.964	0.169	-0.083
-235.844	-200.000	0.033	-0.314
-234.830	27.178	0.228	-0.189
-233.815	-161.379	-0.226	-0.012
-232.800	800.000	0.094	-0.318
-231.786	-76.429	-0.209	-0.073
-230.771	-173.522	-0.111	-0.003
-229.757	141.771	-0.141	0.186
-228.742	-170.932	-0.299	-0.010
-227.727	-79.276	0.154	0.052
-226.713	4.369	-0.159	0.115
-225.698	-200.000	0.021	-0.170
-224.684	-99.160	0.369	-0.092
-223.669	55.473	0.195	0.187
-222.655	-89.064	-0.210	-0.061
-221.640	-125.007	-0.283	0.043
-220.625	-0.587	0.140	-0.098
-219.611	-43.512	0.346	-0.173
-218.596	-105.793	-0.243	0.054
-217.582	163.196	0.070	-0.098
-216.567	800.000	-0.038	0.154
-215.552	-27.753	0.242	0.139
-214.538	-45.050	-0.085	-0.042
-213.523	-127.048	-0.536	0.078
-212.509	-34.338	0.258	-0.140
-211.494	800.000	-0.072	-0.286
-210.479	-132.538	0.095	0.012
-209.465	89.567	-0.166	-0.183
-208.450	264.283	-0.120	-0.207
-207.436	-8.069	0.213	-0.142
-206.421	104.875	0.102	-0.119
-205.406	478.717	0.233	-0.522
-204.392	247.945	0.030	-0.049
-203.377	-187.525	0.047	-0.001
-202.363	342.118	0.088	-0.171
-201.348	-200.000	-0.018	0.102
-200.333	-200.000	0.023	0.150
-199.319	-84.491	0.231	0.072
-198.304	328.457	-0.127	0.241
-197.290	35.978	0.207	0.180
-196.275	208.855	-0.107	0.166
-195.260	-145.440	0.418	0.037
-194.246	38.475	-0.052	-0.046
-193.231	78.470	0.179	-0.190
-192.217	-132.066	0.221	-0.029
-191.202	146.973	-0.037	0.049
-190.187	172.463	0.082	-0.117
-189.173	209.199	0.117	0.181
-188.158	84.818	0.046	-0.050
-187.144	-140.358	0.371	0.038
-186.129	-200.000	0.002	0.077
-185.114	153.197	0.287	-0.388
-184.100	272.500	-0.077	-0.134
-183.085	-63.725	0.207	0.084
-182.071	-67.512	-0.256	-0.100
-181.056	-200.000	-0.005	-0.045
-180.042	-63.430	0.126	0.051
-179.027	-200.000	-0.014	0.130
-178.012	-103.874	0.290	0.067
-176.998	8.015	0.337	0.250
-175.983	800.000	-0.076	0.326
-174.969	800.000	0.037	-0.129
-173.954	-85.889	0.372	0.114
-172.939	-200.000	0.015	-0.078
-171.925	-105.679	-0.143	-0.032
-170.910	800.000	-0.041	-0.175
-169.896	601.814	-0.118	0.290
-168.881	164.653	0.151	-0.211
-167.866	-21.750	0.086	-0.051
-166.852	-200.000	0.141	-0.000
-165.837	-176.068	-0.231	0.006
-164.823	82.415	0.287	0.308
-163.808	381.710	-0.064	0.131
-162.793	79.378	-0.133	0.141
-161.779	223.594	0.088	-0.140
-160.764	800.000	-0.163	0.450
-159.750	-200.000	0.003	-0.207
-158.735	-200.000	-0.009	0.183
-157.720	-128.488	0.209	-0.029
-156.706	537.345	0.112	0.264
-155.691	82.921	-0.317	-0.341
-154.677	69.309	0.146	-0.149
-153.662	-200.000	-0.015	0.123
-152.647	211.857	-0.141	-0.220
-151.633	-54.716	-0.207	-0.092
-150.618	-200.000	0.012	0.274
-149.604	800.000	0.057	0.158
-148.589	800.000	-0.058	-0.162
-147.574	800.000	0.054	-0.160
-146.560	277.598	0.155	-0.272
-145.545	800.000	0.081	-0.252
-144.531	323.088	0.041	-0.078
-143.516	-40.786	-0.127	0.065
-142.502	-200.000	-0.002	-0.103
-141.487	800.000	0.083	-0.256
-140.472	-200.000	0.017	-0.451
-139.458	91.695	0.171	0.190
-138.443	448.558	0.119	0.260
-137.429	255.234	-0.087	-0.147
-136.414	-200.000	0.040	-0.473
-135.399	-116.767	-0.055	0.010
-134.385	-42.341	0.186	0.094
-133.370	-184.493	0.284	0.005
-132.356	-35.314	0.186	0.100
-131.341	6.514	-0.172	-0.126
-130.326	-26.368	-0.232	-0.134
-129.312	-200.000	-0.020	0.201
-128.297	488.102	0.122	0.274
-127.283	-200.000	0.032	0.232
-126.268	-32.269	0.171	0.094
-125.253	-43.517	0.608	-0.303
-124.239	-200.000	-0.019	0.096
-123.224	140.665	-0.133	0.173
-122.210	-89.693	0.179	-0.052
-121.195	-75.129	0.350	0.124
