DTS Sentinel unit serial number:	SN413079Multiplexer serial number:	ORYXHardware model number:	OX4-SRSoftware version number:	ORYX F/W v4.00 Oryx Data Collector v3.7.2.0data status	okinstallation	princeton_trtdifferential loss correction	single-endedforward channel	channel 4reverse channel	N/Adate	2019/09/12time	00:47:11forward acquisition time	60.00reverse acquisition time	0.00gamma	496.2192k internal	0.2309k external	0.2309temperature offset calibration	1.0091default loss term (dB/km)	0.3790temperature slope calibration	1.0000multiplexer offset coefficient	1.0000multiplexer slope coefficient	1.0000fibre end	0.00T internal ref (°C)	33.28T ext. ref 1 (°C)	2.08T ext. ref 2 (°C)	28.13length (m)	temperature (°C)	Stokes	anti-Stokes-747.200	800.000	-0.037	0.162
-746.185	120.409	0.106	0.134
-745.171	-71.552	0.094	-0.036
-744.156	93.723	0.222	0.256
-743.142	-179.182	-0.245	0.006
-742.127	-200.000	-0.049	0.292
-741.112	-42.620	-0.186	-0.096
-740.098	-42.765	-0.049	0.025
-739.083	636.944	0.109	0.281
-738.069	-48.897	0.225	0.110
-737.054	-200.000	0.028	-0.146
-736.039	800.000	-0.053	-0.198
-735.025	800.000	0.036	-0.116
-734.010	25.224	0.151	-0.127
-732.996	140.157	-0.283	-0.379
-731.981	-138.369	0.233	0.026
-730.966	-161.737	0.211	-0.011
-729.952	123.611	0.065	-0.083
-728.937	23.606	-0.076	-0.064
-727.923	-172.075	-0.207	0.007
-726.908	-200.000	-0.015	-0.364
-725.894	-0.913	0.147	-0.106
-724.879	-80.715	-0.093	-0.031
-723.864	-74.280	0.292	0.107
-722.850	800.000	-0.020	-0.080
-721.835	-38.028	-0.284	-0.153
-720.821	250.813	0.073	0.125
-719.806	-131.537	-0.242	-0.032
-718.791	101.458	0.189	-0.224
-717.777	16.995	0.300	-0.241
-716.762	-23.624	-0.252	0.154
-715.748	524.526	-0.027	-0.064
-714.733	273.841	-0.194	0.348
-713.718	-30.487	0.240	-0.138
-712.704	-64.479	-0.318	0.131
-711.689	-151.137	-0.087	0.007
-710.675	-200.000	0.026	-0.256
-709.660	800.000	-0.042	-0.174
-708.645	-161.355	-0.312	0.016
-707.631	-200.000	-0.020	0.229
-706.616	-16.334	-0.285	0.183
-705.602	-98.049	-0.114	-0.030
-704.587	-200.000	0.026	-0.115
-703.572	655.219	-0.082	-0.213
-702.558	-200.000	0.004	0.058
-701.543	-53.043	-0.172	0.080
-700.529	-93.639	0.153	0.043
-699.514	51.954	-0.260	-0.251
-698.499	800.000	-0.046	0.201
-697.485	93.890	-0.015	-0.018
-696.470	59.151	-0.061	0.061
-695.456	179.782	0.211	-0.313
-694.441	43.728	-0.146	0.136
-693.426	800.000	0.043	-0.163
-692.412	38.405	-0.082	-0.074
-691.397	-82.272	0.350	-0.115
-690.383	-200.000	-0.007	0.150
-689.368	-122.674	-0.211	0.035
-688.354	-171.907	0.169	-0.006
-687.339	-200.000	-0.065	-0.332
-686.324	-15.481	-0.124	0.080
-685.310	-200.000	-0.011	0.387
-684.295	-200.000	0.008	0.119
-683.281	59.589	0.204	0.203
-682.266	-147.849	-0.290	-0.025
-681.251	-41.076	-0.131	-0.069
-680.237	-63.081	0.066	0.028
-679.222	-200.000	-0.103	-0.556
-678.208	319.295	-0.149	0.287
-677.193	185.834	0.023	0.035
-676.178	440.361	0.094	-0.209
-675.164	-26.247	0.319	-0.190
-674.149	439.673	-0.079	-0.175
-673.135	109.958	-0.130	-0.158
-672.120	800.000	0.103	-0.360
-671.105	400.360	0.063	-0.133
-670.091	63.282	-0.145	0.147
-669.076	800.000	0.025	0.100
-668.062	315.606	-0.087	-0.167
-667.047	-43.075	-0.184	-0.094
-666.032	-113.022	-0.206	-0.041
-665.018	258.445	-0.021	-0.036
-664.003	-97.751	-0.341	-0.089
-662.989	276.756	0.127	-0.229
-661.974	122.121	-0.276	0.349
-660.959	343.875	0.086	-0.171
-659.945	-66.193	0.151	0.061
-658.930	-97.883	-0.381	0.100
-657.916	634.490	0.039	-0.099
-656.901	329.326	0.100	0.195
-655.886	800.000	-0.082	0.267
-654.872	800.000	-0.033	-0.136
-653.857	-17.363	0.292	0.186
-652.843	-121.710	0.175	0.029
-651.828	-118.237	-0.377	-0.068
-650.814	31.115	-0.107	-0.093
-649.799	-5.750	-0.381	0.265
-648.784	-13.715	0.055	0.036
-647.770	-29.173	0.230	-0.133
-646.755	-200.000	0.049	0.231
-645.741	-34.050	-0.205	-0.114
-644.726	-85.222	0.107	-0.034
-643.711	-73.494	-0.443	-0.164
-642.697	800.000	0.040	0.152
-641.682	-200.000	0.071	-0.549
-640.668	-200.000	-0.011	-0.211
-639.653	-163.613	-0.203	0.010
-638.638	471.338	-0.128	0.292
-637.624	47.922	-0.119	0.112
-636.609	-200.000	0.023	-0.261
-635.595	636.675	-0.055	0.141
-634.580	800.000	-0.102	-0.318
-633.565	139.688	0.049	0.066
-632.551	122.348	-0.065	0.082
-631.536	-20.442	0.235	-0.146
-630.522	-200.000	0.013	-0.256
-629.507	-200.000	0.033	0.201
-628.492	85.852	-0.214	-0.238
-627.478	-138.100	-0.037	-0.004
-626.463	800.000	-0.114	-0.370
-625.449	-200.000	0.000	-0.283
-624.434	48.567	-0.096	0.091
-623.419	210.419	-0.070	-0.111
-622.405	45.280	-0.050	-0.046
-621.390	-122.776	0.153	-0.025
-620.376	800.000	0.125	0.384
-619.361	313.792	0.105	-0.200
-618.346	71.626	0.061	0.064
-617.332	-87.986	-0.189	0.057
-616.317	451.068	-0.035	0.079
-615.303	81.967	0.047	0.052
-614.288	-106.524	-0.046	-0.010
-613.273	800.000	-0.081	-0.248
-612.259	3.745	-0.058	0.043
-611.244	468.064	-0.122	-0.277
-610.230	79.760	-0.241	0.262
-609.215	-50.283	-0.099	0.047
-608.201	-200.000	0.003	0.271
-607.186	-116.265	-0.353	-0.066
-606.171	-145.213	0.082	0.008
-605.157	800.000	-0.088	-0.278
-604.142	115.903	0.130	-0.161
-603.128	157.360	-0.152	0.213
-602.113	-77.462	0.226	-0.079
-601.098	-200.000	-0.016	-0.208
-600.084	25.224	0.096	0.081
-599.069	800.000	-0.023	0.095
-598.055	315.856	-0.112	-0.213
-597.040	49.181	0.166	0.158
-596.025	-197.338	0.097	-0.001
-595.011	296.113	0.148	0.274
-593.996	723.504	0.093	-0.251
-592.982	495.537	0.106	-0.246
-591.967	176.996	-0.154	0.226
-590.952	146.485	-0.130	-0.176
-589.938	-19.572	-0.175	0.109
-588.923	-200.000	-0.015	-0.130
-587.909	-173.235	0.192	0.006
-586.894	131.949	0.160	-0.208
-585.879	138.723	0.053	-0.071
-584.865	-106.321	-0.205	0.046
-583.850	518.607	0.123	-0.292
-582.836	-2.812	-0.080	0.056
-581.821	85.991	-0.079	0.088
-580.806	-120.749	0.310	-0.053
-579.792	-200.000	0.064	0.420
-578.777	79.145	-0.103	-0.111
-577.763	8.744	0.171	0.130
-576.748	-74.755	-0.103	0.037
-575.733	-200.000	-0.035	0.243
-574.719	-70.966	-0.263	-0.100
-573.704	-200.000	0.111	-0.529
-572.690	349.934	0.041	0.081
-571.675	88.204	-0.135	-0.151
-570.661	58.181	-0.222	-0.219
-569.646	-50.784	-0.171	0.081
-568.631	96.105	-0.111	0.128
-567.617	20.347	-0.072	0.059
-566.602	-64.668	0.123	0.050
-565.588	-1.265	0.203	-0.145
-564.573	-200.000	0.005	-0.161
-563.558	-52.800	0.220	0.102
-562.544	55.611	0.173	0.169
-561.529	-53.979	-0.046	0.021
-560.515	186.526	0.098	-0.147
-559.500	-99.839	-0.185	0.047
-558.485	800.000	0.014	-0.054
-557.471	-200.000	-0.012	-0.092
-556.456	313.175	0.079	-0.149
-555.442	76.792	-0.144	-0.154
-554.427	-137.074	0.303	0.035
-553.412	-65.528	0.258	0.104
-552.398	-200.000	-0.027	-0.220
-551.383	39.763	-0.132	0.120
-550.369	-80.085	0.011	-0.004
-549.354	-200.000	0.022	-0.224
-548.339	-106.525	-0.225	0.051
-547.325	-104.003	-0.266	-0.063
-546.310	310.517	-0.035	-0.066
-545.296	-200.000	0.024	-0.216
-544.281	-74.228	0.041	0.015
-543.266	-18.081	-0.105	0.066
-542.252	-58.810	0.409	0.178
-541.237	-136.875	0.152	0.018
-540.223	46.172	0.066	-0.061
-539.208	82.057	0.208	0.227
-538.193	264.455	0.102	-0.179
-537.179	-165.507	0.246	0.011
-536.164	70.280	-0.020	-0.021
-535.150	-200.000	0.060	-0.323
-534.135	14.575	0.301	0.237
-533.121	-81.049	-0.180	0.060
-532.106	-135.285	-0.384	0.046
-531.091	-18.602	0.178	-0.112
-530.077	-65.082	-0.074	0.030
-529.062	533.511	-0.093	-0.222
-528.048	-200.000	-0.030	-0.231
-527.033	-79.995	0.338	0.114
-526.018	49.352	0.106	-0.100
-525.004	70.235	-0.070	0.073
-523.989	-200.000	-0.023	0.187
-522.975	687.827	0.062	-0.164
-521.960	-162.045	0.133	0.007
-520.945	308.453	0.036	-0.068
-519.931	216.970	0.193	-0.310
-518.916	-131.004	-0.268	0.036
-517.902	10.208	0.423	0.324
-516.887	800.000	-0.041	0.158
-515.872	-200.000	-0.005	-0.082
-514.858	-131.670	0.175	0.023
-513.843	72.127	0.125	-0.131
-512.829	377.711	-0.042	-0.087
-511.814	-36.731	0.180	-0.098
-510.799	362.589	0.142	0.287
-509.785	-18.153	0.138	-0.087
-508.770	597.131	0.129	-0.323
-507.756	268.409	-0.138	0.243
-506.741	-18.317	-0.107	0.068
-505.726	-125.832	-0.302	-0.046
-504.712	-11.448	0.168	0.111
-503.697	-40.750	0.318	0.166
-502.683	800.000	-0.034	0.113
-501.668	-7.968	0.150	0.102
-500.653	415.576	0.090	-0.194
-499.639	78.466	0.194	0.209
-498.624	119.537	0.068	0.085
-497.610	40.510	0.044	0.040
-496.595	-200.000	-0.024	0.210
-495.581	8.143	0.396	0.299
-494.566	270.096	-0.102	-0.181
-493.551	-25.466	-0.203	-0.121
-492.537	-40.278	-0.269	0.141
-491.522	-27.868	0.338	-0.197
-490.508	-12.465	-0.205	-0.135
-489.493	-59.667	-0.097	-0.042
-488.478	800.000	-0.072	-0.202
-487.464	6.106	0.128	-0.095
-486.449	-41.124	0.216	-0.112
-485.435	118.768	-0.198	0.247
-484.420	-169.770	-0.234	-0.008
-483.405	-160.474	-0.115	-0.006
-482.391	-113.188	-0.071	0.014
-481.376	577.525	0.107	0.263
-480.362	-124.487	-0.141	-0.022
-479.347	-200.000	0.007	0.082
-478.332	-68.175	-0.150	0.059
-477.318	131.495	0.052	0.067
-476.303	-109.548	0.153	0.032
-475.289	-25.699	0.066	-0.039
-474.274	503.822	-0.080	0.187
-473.259	-132.613	0.305	-0.039
-472.245	-61.694	-0.292	0.123
-471.230	284.919	0.208	-0.376
-470.216	4.696	0.218	-0.161
-469.201	63.796	0.100	-0.101
-468.186	98.953	0.095	-0.110
-467.172	-200.000	0.008	0.336
-466.157	-200.000	0.023	0.192
-465.143	113.393	0.066	0.080
-464.128	-154.365	-0.316	0.021
-463.113	-200.000	0.005	0.034
-462.099	2.625	0.175	-0.127
-461.084	-66.514	-0.180	-0.072
-460.070	76.432	-0.078	0.083
-459.055	-96.578	0.331	-0.088
-458.040	-35.207	0.412	-0.225
-457.026	-200.000	0.005	-0.245
-456.011	87.645	-0.178	0.198
-454.997	603.847	0.075	0.187
-453.982	24.633	-0.307	0.255
-452.968	291.903	-0.138	-0.253
-451.953	-200.000	0.008	-0.202
-450.938	-8.521	-0.282	0.191
-449.924	-200.000	-0.013	0.187
-448.909	-189.810	-0.225	0.003
-447.895	-200.000	-0.011	-0.220
-446.880	-65.820	0.455	0.183
-445.865	-13.377	-0.085	-0.055
-444.851	543.516	0.169	-0.405
-443.836	-31.297	-0.067	-0.038
-442.822	8.377	-0.180	-0.136
-441.807	-28.556	0.166	-0.096
-440.792	800.000	0.060	0.228
-439.778	131.731	0.283	-0.365
-438.763	135.699	-0.126	-0.165
-437.749	0.496	-0.282	0.202
-436.734	-103.022	-0.021	0.005
-435.719	-149.162	0.206	0.017
-434.705	-99.770	-0.221	0.056
-433.690	-200.000	-0.003	0.267
-432.676	-19.896	-0.227	-0.141
-431.661	-169.327	-0.116	0.004
-430.646	-124.211	-0.281	0.044
-429.632	-84.633	0.359	-0.114
-428.617	800.000	0.065	0.228
-427.603	-200.000	0.002	-0.045
-426.588	-122.844	-0.016	-0.003
-425.573	97.984	0.053	0.062
-424.559	-53.227	-0.209	0.096
-423.544	-200.000	0.004	-0.090
-422.530	-25.873	0.073	0.043
-421.515	-200.000	0.017	0.108
-420.500	81.707	0.111	0.121
-419.486	-200.000	0.054	-0.273
-418.471	-93.468	-0.106	0.029
-417.457	-98.925	-0.069	-0.018
-416.442	524.418	-0.050	0.119
-415.428	-15.178	-0.326	0.210
-414.413	6.450	0.032	-0.024
-413.398	-118.472	-0.383	-0.068
-412.384	17.551	0.175	0.140
-411.369	-147.006	-0.447	0.038
-410.355	-200.000	-0.033	0.254
-409.340	-63.470	-0.162	0.067
-408.325	126.985	0.077	0.098
-407.311	171.105	0.145	-0.209
-406.296	-200.000	-0.008	-0.142
-405.282	233.520	0.180	0.297
-404.267	530.457	-0.100	0.236
-403.252	800.000	0.014	0.048
-402.238	-107.020	0.258	0.057
-401.223	-83.632	-0.249	-0.080
-400.209	-200.000	-0.072	0.000
-399.194	147.979	0.163	0.220
-398.179	-77.128	-0.274	0.096
-397.165	177.250	0.048	-0.071
-396.150	403.102	-0.202	-0.425
-395.136	-32.241	0.176	-0.099
-394.121	76.204	-0.171	0.181
-393.106	-200.000	-0.048	-0.450
-392.092	-200.000	0.026	0.143
-391.077	-81.247	-0.183	-0.060
-390.063	92.842	0.049	-0.056
-389.048	-200.000	0.051	0.417
-388.033	74.911	0.173	0.182
-387.019	-200.000	-0.023	0.336
-386.004	154.027	-0.136	0.187
-384.990	-25.614	0.402	0.237
-383.975	-200.000	-0.102	0.000
-382.960	-124.880	-0.179	0.028
-381.946	-49.375	-0.079	0.038
-380.931	1.888	0.161	0.116
-379.917	59.448	-0.168	-0.166
-378.902	90.775	0.248	-0.279
-377.888	-31.823	0.175	-0.098
-376.873	-58.664	-0.038	-0.016
-375.858	-200.000	-0.012	0.114
-374.844	75.811	0.116	-0.123
-373.829	416.841	0.069	0.148
-372.815	730.199	-0.061	0.164
-371.800	-131.121	-0.277	-0.037
-370.785	120.509	-0.214	-0.267
-369.771	-200.000	0.023	-0.241
-368.756	546.358	-0.065	0.155
-367.742	-43.357	-0.277	-0.140
-366.727	800.000	-0.090	-0.250
-365.712	192.979	-0.167	-0.253
-364.698	-49.957	-0.205	-0.097
-363.683	121.652	-0.117	0.146
-362.669	516.782	-0.072	-0.168
-361.654	-49.534	0.210	-0.100
-360.639	77.077	0.184	0.195
-359.625	-4.447	-0.204	-0.141
-358.610	27.965	0.125	-0.105
-357.596	-107.419	0.367	0.081
-356.581	-72.816	0.184	0.068
-355.566	-200.000	-0.001	0.101
-354.552	10.340	-0.119	-0.090
-353.537	-200.000	-0.040	0.176
-352.523	7.076	0.221	0.165
-351.508	-128.691	0.264	0.037
-350.493	-55.744	0.339	-0.152
-349.479	-2.624	0.282	0.197
-348.464	86.835	0.316	0.349
-347.450	-39.016	-0.461	0.243
-346.435	222.551	-0.069	0.110
-345.420	13.112	-0.046	-0.036
-344.406	224.759	0.160	-0.259
-343.391	-200.000	-0.015	-0.070
-342.377	-122.082	0.451	0.074
-341.362	-20.771	0.149	0.091
-340.348	-5.096	-0.076	0.052
-339.333	26.352	-0.036	-0.030
-338.318	-115.246	-0.397	0.075
-337.304	264.299	-0.050	-0.087
-336.289	-49.959	-0.351	-0.167
-335.275	-20.134	0.173	0.107
-334.260	273.737	-0.150	0.266
-333.245	-80.668	-0.290	0.097
-332.231	-82.138	0.080	0.026
-331.216	139.176	-0.127	0.167
-330.202	168.506	-0.191	0.272
-329.187	147.330	0.246	0.331
-328.172	254.711	0.102	-0.174
-327.158	-178.105	0.318	-0.008
-326.143	-200.000	-0.001	-0.014
-325.129	-101.090	0.147	-0.036
-324.114	393.452	-0.084	0.174
-323.099	98.499	-0.135	0.155
-322.085	297.283	-0.186	0.341
-321.070	80.830	0.037	0.040
-320.056	490.955	0.106	-0.242
-319.041	26.766	-0.030	-0.025
-318.026	-82.418	0.175	0.057
-317.012	-120.243	-0.246	-0.042
-315.997	-200.000	0.030	0.230
-314.983	-200.000	0.011	0.374
-313.968	-143.393	-0.034	-0.003
-312.953	307.979	0.061	-0.114
-311.939	800.000	0.069	0.220
-310.924	-200.000	0.217	0.001
-309.910	800.000	-0.101	-0.311
-308.895	800.000	-0.027	-0.099
-307.880	-153.281	0.089	0.006
-306.866	-136.826	0.148	-0.017
-305.851	-75.692	-0.158	0.056
-304.837	-124.944	0.131	-0.020
-303.822	12.936	0.112	0.087
-302.807	198.805	0.045	-0.068
-301.793	107.974	0.079	0.094
-300.778	-82.391	-0.125	-0.040
-299.764	-200.000	-0.002	0.132
-298.749	-147.579	-0.079	-0.007
-297.735	59.618	-0.254	0.250
-296.720	-15.657	-0.176	0.112
-295.705	-113.429	0.335	0.066
-294.691	331.908	-0.070	0.135
-293.676	-90.324	0.218	-0.063
-292.662	177.001	0.160	0.233
-291.647	-73.906	-0.293	-0.106
-290.632	-105.705	0.154	-0.035
-289.618	85.594	0.066	-0.072
-288.603	-17.087	-0.086	0.054
-287.589	426.588	-0.111	-0.239
-286.574	-0.704	-0.232	0.164
-285.559	75.039	-0.190	0.200
-284.545	21.627	-0.041	-0.034
-283.530	161.445	0.051	-0.071
-282.516	38.771	0.289	-0.257
-281.501	-100.272	-0.364	0.090
-280.486	8.966	-0.141	-0.106
-279.472	12.904	0.168	-0.129
-278.457	-113.351	0.426	-0.083
-277.443	19.783	-0.251	0.201
-276.428	-74.919	-0.069	0.025
-275.413	-192.047	-0.429	0.004
-274.399	22.166	-0.197	0.160
-273.384	-55.818	-0.270	0.120
-272.370	-118.209	0.346	-0.061
-271.355	67.836	-0.235	-0.239
-270.340	-186.913	-0.361	-0.005
-269.326	27.825	0.146	-0.123
-268.311	-39.057	0.258	0.135
-267.297	-108.807	-0.459	-0.098
-266.282	268.932	-0.190	-0.332
-265.267	473.264	0.178	-0.401
-264.253	-20.572	0.167	0.102
-263.238	-200.000	-0.022	0.120
-262.224	-101.011	-0.032	0.008
-261.209	-19.853	0.097	-0.060
-260.195	-200.000	-0.030	-0.140
-259.180	330.432	-0.058	-0.112
-258.165	103.885	-0.131	-0.154
-257.151	7.247	-0.051	0.038
-256.136	-200.000	0.021	0.148
-255.122	3.613	-0.113	-0.082
-254.107	800.000	-0.090	-0.370
-253.092	289.098	-0.100	0.181
-252.078	-168.265	-0.022	-0.001
-251.063	316.383	0.184	-0.347
-250.049	-200.000	0.030	-0.143
-249.034	240.310	0.192	-0.318
-248.019	-13.733	-0.276	0.178
-247.005	-175.170	0.166	0.005
-245.990	100.507	-0.112	-0.130
-244.976	800.000	0.049	0.144
-243.961	29.541	-0.378	0.320
-242.946	294.090	0.073	0.133
-241.932	-200.000	-0.026	0.197
-240.917	186.538	0.133	0.198
-239.903	184.884	-0.219	0.323
-238.888	38.241	-0.177	0.157
-237.873	-72.719	0.305	0.112
-236.859	112.391	0.194	0.234
-235.844	171.390	0.107	-0.153
-234.830	57.142	-0.224	0.217
-233.815	742.014	0.124	0.333
-232.800	-29.484	0.299	-0.170
-231.786	-145.104	0.155	0.014
-230.771	-76.036	0.194	-0.068
-229.757	-136.735	0.031	0.004
-228.742	-200.000	-0.005	0.181
-227.727	764.129	0.014	0.037
-226.713	534.289	-0.028	-0.067
-225.698	-63.486	0.077	0.032
-224.684	47.003	-0.190	0.176
-223.669	-200.000	0.171	0.000
-222.655	800.000	0.117	0.417
-221.640	195.284	0.142	-0.214
-220.625	-200.000	0.020	-0.266
-219.611	-92.350	0.033	-0.009
-218.596	-135.333	0.598	-0.071
-217.582	-200.000	-0.027	-0.187
-216.567	84.204	0.193	-0.209
-215.552	-200.000	0.027	0.290
-214.538	-122.697	0.297	-0.048
-213.523	-18.586	0.221	-0.137
-212.509	-15.654	0.054	0.034
-211.494	-82.623	0.236	-0.076
-210.479	-198.237	-0.388	-0.002
-209.465	-17.890	0.228	-0.142
-208.450	93.877	-0.114	-0.129
-207.436	800.000	0.033	-0.120
-206.421	5.203	0.294	0.216
-205.406	204.542	0.131	-0.202
-204.392	800.000	0.058	-0.159
-203.377	729.797	-0.052	0.139
-202.363	800.000	0.055	-0.163
-201.348	-173.021	0.332	-0.010
-200.333	409.828	0.106	-0.223
-199.319	-128.890	0.404	0.056
-198.304	-200.000	-0.006	-0.194
-197.290	42.203	0.085	0.077
-196.275	-200.000	0.030	0.217
-195.260	800.000	-0.080	-0.344
-194.246	-51.019	-0.516	-0.241
-193.231	109.638	-0.243	0.290
-192.217	800.000	-0.075	0.268
-191.202	155.640	-0.127	0.173
-190.187	-47.160	0.237	0.115
-189.173	-200.000	-0.032	-0.274
-188.158	38.233	-0.155	-0.137
-187.144	160.313	-0.108	0.149
-186.129	-200.000	-0.028	0.360
-185.114	-49.126	-0.252	0.120
-184.100	-110.371	-0.123	0.026
-183.085	103.576	0.073	-0.085
-182.071	12.093	0.143	-0.110
-181.056	341.971	0.069	-0.135
-180.042	-127.073	-0.400	0.058
-179.027	496.800	-0.126	-0.288
-178.012	-200.000	0.009	-0.040
-176.998	800.000	0.066	-0.191
-175.983	800.000	-0.062	-0.182
-174.969	-200.000	0.048	-0.307
-173.954	41.200	0.224	-0.202
-172.939	441.932	-0.030	0.065
-171.925	-200.000	-0.022	-0.160
-170.910	-114.052	0.221	0.042
-169.896	73.555	0.201	-0.209
-168.881	-106.266	-0.331	-0.074
-167.866	49.579	0.046	-0.043
-166.852	3.429	-0.289	0.209
-165.837	150.125	-0.177	0.238
-164.823	-200.000	-0.036	0.365
-163.808	7.979	0.217	0.161
-162.793	80.469	-0.140	-0.149
-161.779	17.206	0.147	0.115
-160.764	16.105	0.035	0.027
-159.750	69.899	0.109	-0.112
-158.735	142.718	-0.119	-0.157
-157.720	409.432	-0.140	0.294
-156.706	133.933	-0.223	0.287
-155.691	32.723	0.094	0.081
-154.677	-165.858	-0.469	-0.020
-153.662	-86.369	-0.188	-0.057
-152.647	-88.148	-0.115	-0.034
-151.633	46.815	0.205	-0.189
-150.618	187.171	-0.036	0.053
-149.604	-200.000	-0.025	-0.116
-148.589	-134.978	0.118	-0.014
-147.574	-25.031	-0.390	-0.229
-146.560	96.734	0.066	-0.075
-145.545	-110.541	-0.326	-0.067
-144.531	8.063	0.046	0.034
-143.516	212.061	-0.197	0.307
-142.502	492.576	-0.140	-0.319
-141.487	-103.368	0.271	-0.063
-140.472	-187.846	0.084	0.001
-139.458	-200.000	-0.001	-0.169
-138.443	-7.417	0.285	0.192
-137.429	800.000	0.104	0.314
-136.414	-110.837	0.345	-0.070
-135.399	800.000	-0.077	-0.297
-134.385	450.934	-0.148	-0.325
-133.370	164.895	0.101	-0.141
-132.356	62.380	-0.201	0.199
-131.341	95.733	0.036	-0.041
-130.326	30.585	0.169	0.143
-129.312	210.390	-0.114	-0.177
-128.297	-32.604	0.122	0.067
-127.283	800.000	0.024	0.076
-126.268	-8.103	0.182	0.122
-125.253	-200.000	-0.033	0.321
-124.239	-76.627	-0.295	0.103
-123.224	-53.824	0.179	-0.081
-122.210	122.921	0.228	-0.283
-121.195	85.783	0.269	-0.293
-120.180	203.231	0.236	-0.362
