DTS Sentinel unit serial number:	SN413079Multiplexer serial number:	ORYXHardware model number:	OX4-SRSoftware version number:	ORYX F/W v4.00 Oryx Data Collector v3.7.2.0data status	okinstallation	princeton_trtdifferential loss correction	single-endedforward channel	channel 4reverse channel	N/Adate	2019/09/15time	07:57:35forward acquisition time	60.00reverse acquisition time	0.00gamma	496.2192k internal	0.2310k external	0.2310temperature offset calibration	1.0032default loss term (dB/km)	0.3790temperature slope calibration	1.0000multiplexer offset coefficient	1.0000multiplexer slope coefficient	1.0000fibre end	0.00T internal ref (°C)	30.73T ext. ref 1 (°C)	4.96T ext. ref 2 (°C)	26.31length (m)	temperature (°C)	Stokes	anti-Stokes-747.200	166.683	-0.095	0.137
-746.185	-200.000	-0.045	0.508
-745.171	800.000	-0.034	-0.115
-744.156	-200.000	-0.049	0.220
-743.142	-126.274	0.135	-0.021
-742.127	-200.000	0.021	0.254
-741.112	45.622	-0.149	0.139
-740.098	97.433	0.212	0.247
-739.083	-111.618	0.144	0.030
-738.069	-200.000	0.016	0.198
-737.054	-88.769	0.055	0.017
-736.039	-146.655	-0.348	-0.031
-735.025	568.462	-0.027	0.068
-734.010	-200.000	0.002	-0.179
-732.996	-80.623	0.075	-0.025
-731.981	-45.569	0.167	0.084
-730.966	-170.483	-0.186	-0.007
-729.952	-97.464	-0.149	-0.039
-728.937	176.291	0.156	-0.230
-727.923	-118.836	0.135	0.024
-726.908	-200.000	-0.018	0.352
-725.894	-14.307	-0.080	-0.052
-724.879	-200.000	0.005	0.036
-723.864	-72.387	0.119	-0.045
-722.850	-113.571	-0.066	-0.013
-721.835	800.000	-0.031	0.125
-720.821	-57.144	-0.290	-0.130
-719.806	800.000	-0.110	-0.429
-718.791	188.853	-0.188	0.285
-717.777	18.533	0.065	-0.053
-716.762	-109.946	0.328	0.070
-715.748	-200.000	0.017	0.269
-714.733	800.000	-0.137	-0.485
-713.718	-97.551	-0.274	-0.072
-712.704	-6.734	-0.228	-0.157
-711.689	68.636	0.158	0.164
-710.675	800.000	-0.022	0.072
-709.660	-155.955	0.220	0.014
-708.645	-165.362	0.258	0.012
-707.631	-200.000	0.019	-0.163
-706.616	-200.000	0.005	-0.128
-705.602	-64.910	-0.171	0.070
-704.587	-200.000	-0.013	-0.069
-703.572	-98.531	0.121	-0.031
-702.558	129.954	0.046	-0.060
-701.543	-200.000	0.000	0.448
-700.529	-116.506	0.413	0.077
-699.514	27.502	0.086	-0.073
-698.499	800.000	0.062	-0.201
-697.485	-137.771	-0.203	0.023
-696.470	22.196	0.126	0.104
-695.456	-71.625	-0.351	-0.133
-694.441	-132.064	0.022	-0.003
-693.426	-61.698	-0.324	-0.137
-692.412	82.104	-0.071	0.077
-691.397	107.548	0.241	0.291
-690.383	-121.923	0.151	-0.025
-689.368	59.508	0.186	-0.186
-688.354	225.862	-0.028	0.046
-687.339	109.737	-0.238	-0.289
-686.324	-200.000	0.002	-0.015
-685.310	-200.000	-0.003	0.220
-684.295	-131.978	-0.296	-0.039
-683.281	-200.000	-0.043	-0.417
-682.266	-23.569	-0.274	0.167
-681.251	740.493	-0.072	-0.196
-680.237	82.291	-0.135	-0.148
-679.222	-99.169	-0.257	-0.066
-678.208	-1.478	0.067	-0.048
-677.193	295.368	-0.164	0.304
-676.178	-200.000	-0.016	0.122
-675.164	19.417	-0.026	-0.021
-674.149	39.068	0.205	-0.186
-673.135	-200.000	-0.050	0.277
-672.120	-200.000	-0.009	-0.312
-671.105	259.444	-0.057	-0.100
-670.091	80.996	-0.078	0.085
-669.076	-35.451	-0.298	-0.164
-668.062	800.000	-0.032	-0.123
-667.047	-200.000	-0.000	-0.086
-666.032	180.862	0.046	-0.069
-665.018	63.693	-0.064	0.065
-664.003	255.733	-0.043	0.075
-662.989	-200.000	-0.005	-0.113
-661.974	-200.000	0.021	-0.154
-660.959	-92.065	-0.478	-0.137
-659.945	1.846	-0.062	0.045
-658.930	191.834	0.052	-0.080
-657.916	-102.106	0.071	0.017
-656.901	-200.000	-0.017	0.279
-655.886	3.803	-0.237	0.175
-654.872	15.018	0.328	-0.260
-653.857	103.969	-0.112	-0.134
-652.843	-140.922	-0.211	-0.022
-651.828	-85.645	-0.318	0.100
-650.814	-56.956	0.310	0.138
-649.799	439.820	0.037	-0.081
-648.784	-200.000	-0.005	-0.237
-647.770	-6.043	-0.251	-0.174
-646.755	381.646	-0.112	0.234
-645.741	-200.000	-0.005	-0.176
-644.726	800.000	-0.090	-0.398
-643.711	231.653	-0.074	-0.122
-642.697	-129.767	-0.162	-0.023
-641.682	-15.526	0.157	-0.101
-640.668	-5.553	0.138	-0.096
-639.653	503.829	0.073	0.170
-638.638	169.278	0.029	-0.042
-637.624	-200.000	-0.030	-0.545
-636.609	305.768	0.096	-0.181
-635.595	52.461	0.336	-0.325
-634.580	284.428	-0.039	0.071
-633.565	41.504	0.092	0.084
-632.551	217.672	0.087	-0.140
-631.536	-78.735	-0.179	-0.062
-630.522	-100.923	0.226	0.056
-629.507	122.470	-0.087	-0.110
-628.492	-3.119	0.235	0.166
-627.478	-53.459	-0.121	0.056
-626.463	332.887	0.116	-0.227
-625.449	-75.021	0.210	0.076
-624.434	-62.361	0.171	0.072
-623.419	-116.659	-0.398	0.074
-622.405	-106.440	-0.439	0.099
-621.390	-93.062	0.218	-0.061
-620.376	181.027	-0.212	0.315
-619.361	800.000	-0.004	-0.012
-618.346	144.602	-0.144	-0.194
-617.332	40.438	-0.084	0.076
-616.317	-177.664	-0.353	-0.009
-615.303	-79.953	-0.443	0.150
-614.288	800.000	0.024	0.080
-613.273	2.980	0.172	0.126
-612.259	451.201	-0.124	0.276
-611.244	-200.000	-0.198	-0.001
-610.230	-200.000	-0.006	-0.370
-609.215	370.027	0.064	0.131
-608.201	107.272	-0.066	-0.079
-607.186	113.521	-0.290	-0.355
-606.171	215.075	-0.088	0.140
-605.157	-87.679	-0.191	-0.058
-604.142	14.614	-0.212	-0.167
-603.128	87.800	-0.163	0.182
-602.113	34.882	0.084	0.074
-601.098	-129.338	0.132	0.018
-600.084	97.670	0.191	-0.221
-599.069	274.258	-0.019	0.035
-598.055	317.775	0.087	0.166
-597.040	-102.758	0.109	0.026
-596.025	-64.975	-0.200	0.081
-595.011	-191.271	0.123	0.001
-593.996	128.873	-0.031	-0.040
-592.982	156.867	0.098	0.137
-591.967	-200.000	-0.001	-0.115
-590.952	-135.076	-0.191	0.023
-589.938	-170.632	0.308	0.011
-588.923	800.000	-0.064	-0.209
-587.909	-200.000	-0.036	-0.332
-586.894	-39.636	-0.341	0.180
-585.879	-200.000	0.037	0.337
-584.865	-53.204	0.205	-0.095
-583.850	-39.300	0.089	0.047
-582.836	-1.983	0.165	0.117
-581.821	800.000	-0.100	-0.341
-580.806	61.320	0.110	-0.111
-579.792	-155.657	-0.200	-0.013
-578.777	-114.347	-0.076	-0.015
-577.763	-53.713	0.111	-0.051
-576.748	-86.011	-0.270	-0.084
-575.733	-88.913	0.319	-0.096
-574.719	379.816	0.125	0.259
-573.704	-200.000	0.091	0.460
-572.690	-80.886	0.251	0.084
-571.675	29.538	0.122	0.105
-570.661	-38.891	0.284	-0.151
-569.646	-155.159	-0.563	-0.037
-568.631	-5.472	0.046	-0.032
-567.617	800.000	-0.051	0.218
-566.602	-81.871	-0.260	0.086
-565.588	227.316	0.156	0.255
-564.573	87.234	-0.211	0.235
-563.558	-75.067	0.186	-0.067
-562.544	-109.604	-0.057	-0.012
-561.529	124.362	-0.080	0.101
-560.515	381.687	-0.128	-0.265
-559.500	-93.112	-0.074	-0.021
-558.485	-200.000	0.000	0.193
-557.471	-29.208	0.126	0.073
-556.456	338.427	0.020	0.039
-555.442	717.742	0.007	-0.018
-554.427	47.717	0.239	0.225
-553.412	-200.000	0.017	-0.118
-552.398	-94.974	0.067	0.018
-551.383	328.672	-0.073	-0.142
-550.369	-107.375	0.193	0.043
-549.354	800.000	-0.044	-0.134
-548.339	-133.074	0.186	-0.024
-547.325	800.000	-0.163	0.465
-546.310	-200.000	-0.028	-0.219
-545.296	-200.000	0.001	-0.366
-544.281	-200.000	-0.001	0.112
-543.266	-200.000	0.066	-0.460
-542.252	-64.224	0.135	0.056
-541.237	50.460	0.085	-0.081
-540.223	0.239	-0.173	0.124
-539.208	11.501	-0.098	-0.076
-538.193	-181.123	0.181	0.004
-537.179	800.000	-0.036	-0.146
-536.164	238.282	0.080	-0.133
-535.150	-43.874	0.096	0.048
-534.135	-200.000	0.008	0.091
-533.121	319.317	0.040	0.077
-532.106	765.288	-0.048	0.130
-531.091	45.461	-0.080	-0.075
-530.077	28.310	0.166	0.141
-529.062	-132.995	-0.215	-0.027
-528.048	61.935	-0.158	-0.158
-527.033	538.480	0.090	-0.215
-526.018	408.734	-0.065	0.138
-525.004	481.548	0.064	0.145
-523.989	-95.140	-0.199	-0.054
-522.975	186.422	-0.029	-0.044
-521.960	800.000	-0.060	0.199
-520.945	41.677	-0.285	-0.260
-519.931	-200.000	0.027	0.162
-518.916	-55.049	0.113	-0.051
-517.902	-128.114	-0.142	-0.021
-516.887	295.321	-0.188	-0.346
-515.872	-177.590	0.214	-0.005
-514.858	800.000	0.052	-0.183
-513.843	-10.674	0.230	0.153
-512.829	20.979	0.237	0.193
-511.814	376.192	0.063	-0.130
-510.799	28.310	0.141	0.120
-509.785	274.625	-0.085	0.151
-508.770	158.539	-0.084	-0.118
-507.756	44.671	0.063	-0.058
-506.741	-200.000	-0.004	-0.089
-505.726	136.670	-0.106	-0.139
-504.712	-46.148	0.147	0.073
-503.697	283.374	-0.090	-0.163
-502.683	180.507	-0.093	-0.137
-501.668	-51.269	0.388	0.183
-500.653	20.746	-0.238	-0.194
-499.639	-98.926	-0.375	0.096
-498.624	-82.215	0.338	-0.111
-497.610	127.769	-0.156	-0.200
-496.595	272.454	-0.145	0.257
-495.581	800.000	-0.110	-0.385
-494.566	-31.489	-0.196	-0.111
-493.551	-200.000	-0.012	-0.155
-492.537	165.914	-0.052	0.074
-491.522	20.488	-0.078	-0.063
-490.508	-200.000	0.033	0.195
-489.493	185.662	0.133	-0.198
-488.478	-139.054	-0.318	0.035
-487.464	456.968	0.056	0.125
-486.449	-108.728	0.223	0.048
-485.435	137.825	0.248	0.327
-484.420	-70.273	-0.179	0.068
-483.405	36.218	0.102	-0.091
-482.391	-125.481	0.280	0.043
-481.376	76.435	-0.134	-0.142
-480.362	-17.767	-0.016	0.010
-479.347	-139.693	0.408	0.044
-478.332	-129.837	0.163	0.022
-477.318	-137.380	0.334	-0.038
-476.303	-65.773	0.194	0.078
-475.289	800.000	-0.074	-0.309
-474.274	-200.000	-0.031	0.157
-473.259	69.881	0.214	0.221
-472.245	212.938	0.039	-0.061
-471.230	77.645	-0.171	0.183
-470.216	3.564	-0.225	0.165
-469.201	9.745	-0.171	-0.130
-468.186	-82.920	0.408	-0.132
-467.172	18.571	0.132	0.106
-466.157	-47.198	-0.214	0.105
-465.143	34.752	-0.093	0.081
-464.128	-134.520	-0.056	-0.007
-463.113	-200.000	-0.020	0.345
-462.099	160.168	0.043	0.060
-461.084	-45.469	0.211	-0.105
-460.070	-50.002	-0.257	-0.122
-459.055	-64.069	-0.126	0.052
-458.040	-63.887	0.368	0.151
-457.026	800.000	0.023	-0.074
-456.011	-200.000	-0.027	-0.286
-454.997	170.411	0.157	0.226
-453.982	-64.714	-0.166	0.067
-452.968	188.026	0.198	-0.298
-451.953	-183.568	0.134	0.002
-450.938	206.884	-0.145	0.226
-449.924	41.207	-0.255	-0.231
-448.909	-98.175	-0.231	-0.060
-447.895	-54.805	0.368	0.167
-446.880	-27.510	-0.027	0.016
-445.865	-155.297	-0.341	-0.022
-444.851	88.978	-0.203	0.227
-443.836	-131.349	0.110	0.015
-442.822	92.609	0.139	-0.157
-441.807	23.016	0.113	-0.093
-440.792	-121.848	0.381	0.063
-439.778	800.000	0.033	0.096
-438.763	-200.000	-0.020	-0.106
-437.749	87.716	-0.139	-0.155
-436.734	27.707	-0.101	-0.085
-435.719	-130.384	0.250	0.034
-434.705	-13.794	-0.036	-0.024
-433.690	-98.391	-0.233	-0.060
-432.676	129.651	0.144	0.185
-431.661	-3.123	0.127	0.089
-430.646	204.015	-0.096	-0.150
-429.632	-135.260	0.024	0.003
-428.617	15.310	-0.107	-0.084
-427.603	-53.724	-0.172	-0.079
-426.588	800.000	0.052	0.169
-425.573	-171.639	0.164	0.005
-424.559	162.987	0.058	0.082
-423.544	314.911	-0.033	-0.062
-422.530	28.395	0.073	0.062
-421.515	-158.692	-0.081	-0.005
-420.500	175.489	0.118	0.172
-419.486	-21.332	-0.055	0.034
-418.471	-71.417	-0.495	-0.186
-417.457	-200.000	0.033	0.170
-416.442	-55.681	-0.139	0.062
-415.428	-200.000	-0.010	-0.165
-414.413	-43.183	-0.059	-0.030
-413.398	-169.437	-0.296	-0.011
-412.384	-136.139	-0.345	0.041
-411.369	-81.938	0.068	0.022
-410.355	-190.691	-0.158	-0.002
-409.340	-200.000	0.009	-0.177
-408.325	-41.708	0.182	0.094
-407.311	-200.000	0.045	0.426
-406.296	-200.000	-0.023	0.171
-405.282	164.540	-0.274	-0.387
-404.267	-76.963	0.303	0.106
-403.252	401.131	0.124	0.261
-402.238	800.000	0.057	-0.203
-401.223	36.587	-0.238	-0.210
-400.209	119.657	-0.202	-0.251
-399.194	79.534	-0.136	-0.146
-398.179	-166.097	0.197	0.008
-397.165	-48.208	0.306	0.148
-396.150	-200.000	0.042	0.212
-395.136	-45.441	-0.082	-0.041
-394.121	95.510	-0.164	-0.188
-393.106	454.498	0.133	0.295
-392.092	27.481	-0.118	0.099
-391.077	-45.273	0.437	-0.217
-390.063	42.629	0.215	-0.196
-389.048	174.309	0.150	-0.218
-388.033	-200.000	0.069	0.310
-387.019	-135.715	-0.279	0.033
-386.004	37.335	-0.078	-0.069
-384.990	100.247	0.094	0.109
-383.975	-200.000	-0.086	0.381
-382.960	-53.740	0.281	-0.129
-381.946	208.143	-0.282	-0.441
-380.931	-178.796	0.277	0.006
-379.917	-145.454	-0.159	-0.014
-378.902	-200.000	0.058	-0.392
-377.888	800.000	-0.070	-0.263
-376.873	-16.458	0.082	-0.052
-375.858	207.604	-0.157	0.245
-374.844	-200.000	-0.015	0.219
-373.829	46.090	0.252	0.234
-372.815	54.506	0.392	0.378
-371.800	718.430	-0.061	0.161
-370.785	-173.736	0.444	-0.013
-369.771	-79.044	-0.177	-0.060
-368.756	20.794	-0.153	0.124
-367.742	-43.265	0.056	0.029
-366.727	116.226	-0.136	-0.167
-365.712	95.071	-0.240	0.274
-364.698	42.584	-0.246	-0.224
-363.683	110.139	0.032	-0.038
-362.669	-118.888	0.238	0.042
-361.654	61.527	-0.127	0.126
-360.639	-107.548	-0.189	0.041
-359.625	-69.010	-0.212	-0.082
-358.610	431.466	0.167	0.362
-357.596	-76.153	0.030	-0.011
-356.581	-36.983	0.214	-0.115
-355.566	-200.000	-0.015	-0.341
-354.552	-128.270	-0.261	0.037
-353.537	-200.000	0.003	-0.333
-352.523	-74.636	0.172	0.062
-351.508	41.511	0.114	-0.103
-350.493	-200.000	0.056	0.366
-349.479	49.990	-0.189	0.178
-348.464	800.000	0.069	0.273
-347.450	-70.759	0.104	-0.039
-346.435	254.916	0.080	0.137
-345.420	-200.000	0.083	0.407
-344.406	-112.860	-0.403	-0.080
-343.391	-200.000	0.034	-0.195
-342.377	464.863	0.092	0.206
-341.362	87.137	0.102	-0.113
-340.348	379.317	-0.097	0.198
-339.333	-104.926	-0.205	0.047
-338.318	3.635	0.162	0.118
-337.304	-31.601	0.265	-0.149
-336.289	-200.000	-0.001	0.122
-335.275	49.318	0.256	-0.241
-334.260	19.525	0.158	0.127
-333.245	140.340	-0.147	-0.194
-332.231	-22.516	0.102	-0.062
-331.216	-136.886	0.171	0.020
-330.202	539.171	0.037	-0.089
-329.187	41.782	0.185	0.168
-328.172	-39.604	-0.084	0.044
-327.158	-200.000	0.029	-0.153
-326.143	-200.000	0.001	0.080
-325.129	99.932	0.081	-0.094
-324.114	76.443	0.121	-0.128
-323.099	20.481	0.115	0.093
-322.085	-172.351	-0.138	0.004
-321.070	-122.282	0.283	-0.046
-320.056	-200.000	-0.036	-0.373
-319.041	21.083	-0.141	0.114
-318.026	-33.290	-0.534	0.295
-317.012	22.620	-0.047	-0.038
-315.997	115.054	-0.108	-0.131
-314.983	128.815	0.147	-0.187
-313.968	-108.492	0.153	0.033
-312.953	-200.000	0.026	0.252
-311.939	-34.972	-0.424	0.231
-310.924	66.162	0.113	0.114
-309.910	413.051	0.068	0.145
-308.895	-81.799	-0.162	-0.053
-307.880	113.958	0.073	-0.088
-306.866	62.101	-0.177	-0.176
-305.851	-109.337	-0.144	0.030
-304.837	-49.066	0.131	-0.063
-303.822	-98.993	0.067	-0.017
-302.807	-200.000	-0.043	0.209
-301.793	-14.170	0.155	0.100
-300.778	-4.287	-0.237	-0.164
-299.764	-200.000	-0.110	0.528
-298.749	24.316	-0.048	-0.040
-297.735	-200.000	0.054	0.264
-296.720	-200.000	0.037	-0.311
-295.705	-200.000	0.019	-0.284
-294.691	104.994	0.187	0.220
-293.676	-200.000	0.062	-0.288
-292.662	23.131	-0.269	-0.220
-291.647	-7.813	0.077	0.052
-290.632	-200.000	0.031	-0.368
-289.618	-50.418	0.179	-0.084
-288.603	637.304	-0.100	0.255
-287.589	-81.166	0.249	0.082
-286.574	71.550	-0.246	-0.255
-285.559	118.724	-0.153	0.188
-284.545	-33.429	0.191	0.105
-283.530	-157.483	-0.073	0.004
-282.516	800.000	-0.035	0.139
-281.501	-169.441	0.437	0.016
-280.486	289.892	-0.076	0.137
-279.472	-200.000	0.034	0.264
-278.457	256.755	0.129	0.220
-277.443	40.177	0.061	-0.054
-276.428	149.654	-0.110	-0.149
-275.413	-74.981	0.268	-0.096
-274.399	88.769	-0.306	-0.339
-273.384	-200.000	-0.001	-0.122
-272.370	-200.000	-0.013	-0.278
-271.355	-119.647	-0.294	-0.051
-270.340	-60.905	-0.244	0.103
-269.326	326.814	0.204	-0.390
-268.311	-200.000	0.030	0.289
-267.297	146.055	-0.312	0.417
-266.282	-200.000	0.001	0.143
-265.267	-5.590	0.008	0.006
-264.253	6.559	0.255	-0.189
-263.238	97.665	-0.269	0.308
-262.224	-42.213	0.191	0.097
-261.209	-200.000	0.011	0.091
-260.195	-112.570	-0.126	0.025
-259.180	130.459	0.152	0.194
-258.165	226.868	-0.034	0.056
-257.151	-46.286	-0.131	-0.064
-256.136	-10.448	-0.292	-0.193
-255.122	-10.753	0.101	-0.066
-254.107	60.332	0.113	-0.112
-253.092	-200.000	0.019	0.267
-252.078	-68.582	0.104	-0.040
-251.063	-200.000	0.014	0.110
-250.049	-148.231	0.046	-0.004
-249.034	100.886	-0.127	0.147
-248.019	-200.000	-0.043	-0.315
-247.005	117.216	-0.144	0.176
-245.990	-166.264	0.210	0.009
-244.976	96.194	0.099	0.112
-243.961	3.866	-0.223	0.162
-242.946	-74.729	-0.231	-0.083
-241.932	-200.000	-0.051	-0.231
-240.917	800.000	0.170	-0.589
-239.903	56.002	-0.023	-0.022
-238.888	-172.389	-0.179	-0.006
-237.873	-131.682	-0.099	-0.013
-236.859	800.000	0.165	0.460
-235.844	378.189	0.036	-0.073
-234.830	216.374	0.199	-0.314
-233.815	-171.431	-0.109	-0.004
-232.800	41.611	0.171	0.155
-231.786	-200.000	-0.005	0.227
-230.771	31.592	0.065	0.055
-229.757	218.762	0.241	0.383
-228.742	-116.608	-0.243	-0.045
-227.727	-162.987	0.226	-0.011
-226.713	57.030	-0.199	-0.193
-225.698	131.978	0.077	-0.098
-224.684	62.755	0.101	-0.101
-223.669	-200.000	0.010	-0.127
-222.655	-100.902	-0.326	-0.080
-221.640	131.608	0.272	0.348
-220.625	282.692	-0.164	-0.293
-219.611	-146.298	-0.215	-0.019
-218.596	18.768	0.083	0.066
-217.582	-200.000	-0.037	0.176
-216.567	-31.964	-0.208	0.116
-215.552	140.294	0.179	0.235
-214.538	-107.433	-0.176	-0.038
-213.523	800.000	0.073	-0.257
-212.509	57.933	0.084	0.081
-211.494	-64.114	0.088	0.036
-210.479	250.600	0.112	-0.189
-209.465	238.106	-0.079	-0.130
-208.450	307.181	-0.154	-0.285
-207.436	-61.858	0.258	-0.107
-206.421	-81.285	0.100	-0.033
-205.406	-100.444	0.295	0.073
-204.392	-42.262	0.129	0.066
-203.377	314.978	-0.070	0.132
-202.363	-200.000	-0.022	-0.165
-201.348	-163.769	-0.211	-0.010
-200.333	89.409	-0.181	0.201
-199.319	-125.651	-0.272	-0.041
-198.304	490.301	0.103	0.234
-197.290	724.039	-0.072	-0.191
-196.275	738.873	-0.049	-0.129
-195.260	-89.266	0.205	0.060
-194.246	98.905	0.073	0.084
-193.231	-200.000	-0.008	-0.111
-192.217	800.000	0.057	-0.229
-191.202	68.442	0.074	0.075
-190.187	270.736	-0.144	-0.252
-189.173	-96.744	0.059	0.015
-188.158	-7.562	0.325	0.218
-187.144	-110.493	0.376	0.077
-186.129	-200.000	-0.006	0.111
-185.114	-1.634	-0.186	-0.131
-184.100	-121.603	0.224	0.037
-183.085	195.733	-0.056	0.085
-182.071	133.315	-0.158	-0.203
-181.056	708.436	-0.120	0.314
-180.042	0.402	0.196	-0.139
-179.027	-115.479	0.183	-0.034
-178.012	-200.000	0.032	0.340
-176.998	-89.805	0.350	0.102
-175.983	-189.830	0.167	0.002
-174.969	-24.281	-0.079	-0.047
-173.954	-200.000	-0.012	-0.089
-172.939	282.280	0.140	-0.250
-171.925	-105.121	0.147	-0.033
-170.910	-123.323	0.152	0.024
-169.896	-164.630	-0.268	-0.012
-168.881	-114.580	-0.140	-0.027
-167.866	1.234	-0.355	-0.253
-166.852	-200.000	-0.006	0.246
-165.837	800.000	0.066	-0.235
-164.823	-200.000	0.058	0.262
-163.808	192.527	-0.417	0.625
-162.793	-113.037	0.171	0.033
-161.779	800.000	-0.017	-0.071
-160.764	-200.000	0.025	0.156
-159.750	338.549	0.160	-0.308
-158.735	-140.591	-0.261	0.027
-157.720	145.703	0.137	0.182
-156.706	-109.858	-0.339	0.070
-155.691	-31.108	0.238	-0.133
-154.677	39.096	-0.087	-0.077
-153.662	-46.611	-0.255	-0.124
-152.647	-200.000	-0.017	-0.116
-151.633	-132.764	-0.194	0.025
-150.618	-119.075	0.193	-0.034
-149.604	-75.800	0.219	0.077
-148.589	-114.438	0.170	-0.032
-147.574	108.832	-0.129	-0.153
-146.560	800.000	-0.000	0.002
-145.545	-200.000	-0.051	-0.413
-144.531	-98.977	0.208	-0.052
-143.516	292.500	-0.165	-0.298
-142.502	-120.646	-0.446	0.075
-141.487	-66.449	-0.141	0.055
-140.472	-57.729	0.091	-0.039
-139.458	-200.000	0.002	0.066
-138.443	333.947	0.049	0.095
-137.429	-200.000	-0.093	0.498
-136.414	-155.566	0.259	0.017
-135.399	152.898	0.055	0.074
-134.385	-14.179	-0.135	-0.086
-133.370	-200.000	0.032	0.450
-132.356	26.547	-0.269	0.223
-131.341	-104.565	0.168	0.038
-130.326	-161.396	0.135	0.007
-129.312	31.984	-0.263	-0.224
-128.297	-10.279	0.223	-0.147
-127.283	-200.000	-0.013	0.212
-126.268	455.488	0.069	-0.151
-125.253	60.469	-0.006	0.006
-124.239	-71.547	-0.078	-0.029
-123.224	-30.710	0.143	-0.080
-122.210	214.444	0.084	-0.132
-121.195	187.518	-0.119	0.176
