DTS Sentinel unit serial number:	SN413079Multiplexer serial number:	ORYXHardware model number:	OX4-SRSoftware version number:	ORYX F/W v4.00 Oryx Data Collector v3.7.2.0data status	okinstallation	princeton_trtdifferential loss correction	single-endedforward channel	channel 4reverse channel	N/Adate	2019/09/10time	15:51:11forward acquisition time	60.00reverse acquisition time	0.00gamma	496.2192k internal	0.2294k external	0.2294temperature offset calibration	0.9933default loss term (dB/km)	0.3790temperature slope calibration	1.0000multiplexer offset coefficient	1.0000multiplexer slope coefficient	1.0000fibre end	0.00T internal ref (°C)	38.12T ext. ref 1 (°C)	-0.28T ext. ref 2 (°C)	32.67length (m)	temperature (°C)	Stokes	anti-Stokes-747.200	122.764	0.114	0.146
-746.185	-29.069	-0.392	0.230
-745.171	748.719	0.078	0.216
-744.156	7.637	-0.135	0.103
-743.142	30.560	-0.253	0.221
-742.127	800.000	-0.120	0.425
-741.112	73.502	0.363	0.389
-740.098	-200.000	-0.045	0.222
-739.083	86.738	-0.034	-0.039
-738.069	-200.000	0.075	-0.340
-737.054	-160.434	0.182	0.010
-736.039	-200.000	-0.041	-0.306
-735.025	297.538	-0.065	0.122
-734.010	-200.000	-0.028	0.192
-732.996	-136.886	-0.383	-0.045
-731.981	-200.000	-0.028	-0.401
-730.966	-162.827	0.038	-0.002
-729.952	607.755	0.054	-0.138
-728.937	452.302	0.102	0.231
-727.923	-81.908	-0.156	0.052
-726.908	661.343	0.110	0.288
-725.894	800.000	0.021	0.072
-724.879	191.297	0.101	0.155
-723.864	800.000	-0.044	0.194
-722.850	-145.082	-0.039	-0.004
-721.835	-63.263	-0.282	-0.119
-720.821	-200.000	-0.006	-0.242
-719.806	800.000	0.063	-0.186
-718.791	142.428	-0.244	-0.332
-717.777	-144.523	0.161	-0.015
-716.762	-101.899	-0.168	-0.041
-715.748	-200.000	-0.018	0.142
-714.733	111.228	0.204	-0.251
-713.718	664.623	-0.041	0.109
-712.704	-111.839	-0.008	-0.002
-711.689	24.334	0.224	-0.189
-710.675	-79.690	-0.081	0.028
-709.660	148.031	0.192	-0.265
-708.645	334.963	-0.036	-0.071
-707.631	-200.000	-0.005	0.045
-706.616	25.293	0.127	0.108
-705.602	-69.268	0.220	-0.086
-704.587	-110.859	-0.244	-0.051
-703.572	-157.731	-0.065	0.004
-702.558	13.808	0.228	-0.181
-701.543	-78.252	-0.355	-0.125
-700.529	-89.174	0.127	-0.038
-699.514	-76.403	-0.449	-0.161
-698.499	545.550	-0.082	0.199
-697.485	-2.909	-0.067	-0.047
-696.470	-51.349	-0.196	0.093
-695.456	-4.408	-0.381	-0.269
-694.441	6.419	0.145	-0.110
-693.426	-200.000	-0.005	0.275
-692.412	-5.748	-0.174	-0.121
-691.397	-157.563	-0.348	-0.021
-690.383	-200.000	0.011	0.515
-689.368	800.000	-0.117	0.345
-688.354	-71.644	0.093	-0.036
-687.339	-49.043	-0.176	-0.086
-686.324	53.238	0.188	-0.183
-685.310	-107.673	-0.203	-0.045
-684.295	147.358	0.137	-0.188
-683.281	-75.484	0.162	0.059
-682.266	84.960	-0.199	-0.222
-681.251	-42.450	-0.680	0.354
-680.237	-200.000	0.033	-0.255
-679.222	-156.409	-0.171	-0.011
-678.208	-200.000	0.040	0.221
-677.193	25.006	-0.312	0.264
-676.178	43.106	-0.030	-0.028
-675.164	-32.308	0.049	-0.028
-674.149	800.000	-0.045	0.182
-673.135	-70.199	-0.228	-0.088
-672.120	-200.000	0.056	-0.252
-671.105	-35.362	-0.069	0.038
-670.091	-0.758	-0.201	0.145
-669.076	-200.000	-0.079	-0.467
-668.062	800.000	-0.060	-0.247
-667.047	-2.024	0.034	0.024
-666.032	-41.592	0.121	0.064
-665.018	-107.250	0.148	0.033
-664.003	-57.480	-0.176	-0.079
-662.989	-200.000	-0.055	0.462
-661.974	168.111	0.067	0.098
-660.959	-154.607	-0.158	0.011
-659.945	-5.218	0.168	0.118
-658.930	-89.160	0.188	0.057
-657.916	-200.000	-0.073	-0.423
-656.901	125.177	-0.180	0.231
-655.886	-68.117	0.066	-0.026
-654.872	355.547	0.017	0.034
-653.857	251.552	-0.032	0.055
-652.843	800.000	0.021	0.067
-651.828	-42.233	0.381	-0.198
-650.814	-85.335	-0.290	-0.092
-649.799	-14.296	-0.238	-0.156
-648.784	-10.618	-0.426	-0.287
-647.770	-40.991	-0.063	-0.033
-646.755	-165.022	-0.135	-0.006
-645.741	-186.896	0.202	0.003
-644.726	231.071	-0.181	-0.302
-643.711	380.587	0.090	0.187
-642.697	-200.000	0.034	-0.198
-641.682	-71.509	-0.110	0.042
-640.668	-17.069	-0.019	0.012
-639.653	106.590	-0.160	-0.193
-638.638	-200.000	-0.045	0.237
-637.624	-133.010	-0.296	-0.038
-636.609	23.693	0.302	-0.253
-635.595	-200.000	0.003	-0.225
-634.580	257.451	-0.087	-0.152
-633.565	297.776	0.173	-0.323
-632.551	-64.356	0.349	-0.144
-631.536	20.049	0.106	0.087
-630.522	-28.087	0.279	-0.164
-629.507	-200.000	0.050	0.255
-628.492	32.892	-0.051	0.045
-627.478	-89.154	-0.192	-0.058
-626.463	-90.797	-0.227	0.066
-625.449	203.737	0.131	0.207
-624.434	-105.051	-0.140	0.033
-623.419	-102.089	-0.200	0.049
-622.405	108.043	0.062	-0.076
-621.390	-200.000	0.001	0.023
-620.376	-200.000	-0.009	-0.232
-619.361	-16.671	0.032	0.020
-618.346	-82.013	-0.179	-0.060
-617.332	-9.628	0.148	-0.100
-616.317	-63.584	-0.453	0.189
-615.303	-121.025	-0.105	0.018
-614.288	-92.735	-0.149	-0.042
-613.273	-2.838	0.290	-0.206
-612.259	38.544	0.127	0.115
-611.244	-29.035	0.184	0.108
-610.230	18.084	-0.212	0.172
-609.215	-32.471	-0.177	-0.100
-608.201	-22.357	-0.231	-0.142
-607.186	800.000	0.035	0.122
-606.171	-200.000	-0.010	0.259
-605.157	-200.000	0.001	-0.123
-604.142	-75.509	0.250	0.091
-603.128	-188.225	-0.295	-0.004
-602.113	43.302	0.203	0.188
-601.098	-99.682	0.183	0.047
-600.084	79.447	-0.075	-0.082
-599.069	-112.942	0.035	-0.007
-598.055	-200.000	-0.392	-0.001
-597.040	13.528	-0.256	0.202
-596.025	-180.536	-0.159	0.003
-595.011	24.354	0.224	0.188
-593.996	-200.000	-0.002	0.205
-592.982	-200.000	0.001	0.323
-591.967	-187.947	0.310	0.004
-590.952	800.000	-0.068	-0.210
-589.938	-59.508	-0.106	-0.046
-588.923	-45.373	-0.412	0.208
-587.909	79.144	-0.173	-0.189
-586.894	219.121	0.118	-0.191
-585.879	800.000	-0.089	-0.283
-584.865	-200.000	0.024	0.177
-583.850	-110.473	0.190	-0.040
-582.836	-200.000	-0.053	0.374
-581.821	-200.000	0.000	0.103
-580.806	-200.000	-0.019	-0.218
-579.792	452.191	0.109	-0.246
-578.777	-26.923	-0.240	-0.142
-577.763	-200.000	0.066	0.386
-576.748	211.308	-0.101	0.161
-575.733	121.781	-0.195	-0.247
-574.719	260.834	0.044	-0.078
-573.704	34.272	0.111	-0.098
-572.690	-200.000	0.036	-0.259
-571.675	-105.467	0.279	0.064
-570.661	-200.000	-0.037	0.193
-569.646	24.902	0.246	0.207
-568.631	800.000	0.065	-0.198
-567.617	-200.000	-0.037	0.303
-566.602	83.507	0.042	0.046
-565.588	-105.900	0.132	-0.030
-564.573	28.028	0.207	-0.178
-563.558	-92.121	-0.088	-0.025
-562.544	800.000	-0.083	0.290
-561.529	291.288	-0.041	-0.076
-560.515	-25.929	0.078	-0.046
-559.500	6.906	0.143	-0.108
-558.485	37.057	0.235	0.211
-557.471	119.603	0.102	0.129
-556.456	164.379	-0.150	-0.214
-555.442	-18.557	0.180	0.114
-554.427	-92.423	-0.155	0.044
-553.412	342.521	-0.035	0.069
-552.398	-46.441	-0.206	-0.103
-551.383	-60.522	-0.265	-0.114
-550.369	3.515	0.206	0.153
-549.354	90.545	0.051	-0.058
-548.339	-94.793	0.450	0.124
-547.325	-200.000	0.037	0.317
-546.310	-24.695	0.241	-0.145
-545.296	-92.933	-0.093	-0.026
-544.281	146.644	-0.058	0.079
-543.266	800.000	-0.056	0.211
-542.252	57.977	-0.037	0.037
-541.237	62.724	-0.154	0.156
-540.223	50.002	0.131	0.126
-539.208	110.629	-0.216	-0.263
-538.193	-30.808	0.197	-0.113
-537.179	560.272	0.050	0.123
-536.164	-200.000	0.082	-0.508
-535.150	96.619	-0.169	-0.196
-534.135	-97.275	0.124	-0.033
-533.121	176.600	-0.053	-0.078
-532.106	97.679	-0.218	0.255
-531.091	-34.437	0.352	0.196
-530.077	-97.757	-0.089	-0.023
-529.062	-107.069	0.195	-0.044
-528.048	93.115	-0.092	0.106
-527.033	117.784	0.262	0.327
-526.018	61.577	-0.162	-0.163
-525.004	-107.014	0.178	0.040
-523.989	485.381	0.110	-0.254
-522.975	48.379	-0.187	-0.177
-521.960	279.597	0.119	0.216
-520.945	-63.631	0.339	0.141
-519.931	42.044	0.184	0.169
-518.916	800.000	-0.025	0.101
-517.902	333.656	-0.091	-0.178
-516.887	-200.000	-0.019	-0.315
-515.872	800.000	-0.053	-0.169
-514.858	-200.000	-0.026	0.116
-513.843	137.447	0.135	-0.179
-512.829	8.309	-0.061	0.046
-511.814	-7.768	-0.171	0.117
-510.799	-30.633	0.218	0.125
-509.785	-86.114	-0.279	0.087
-508.770	-45.212	-0.097	-0.049
-507.756	-200.000	0.020	-0.210
-506.741	-155.795	-0.111	-0.007
-505.726	-189.104	-0.107	-0.001
-504.712	-40.849	0.169	0.088
-503.697	470.063	-0.067	-0.152
-502.683	-50.674	0.361	0.172
-501.668	800.000	0.029	0.095
-500.653	93.308	-0.189	-0.216
-499.639	55.838	-0.052	-0.051
-498.624	788.359	-0.136	0.379
-497.610	-200.000	-0.004	-0.166
-496.595	-200.000	-0.057	-0.266
-495.581	800.000	-0.133	-0.495
-494.566	-139.623	0.242	0.026
-493.551	-200.000	0.028	-0.181
-492.537	86.199	-0.203	0.227
-491.522	-200.000	0.005	0.362
-490.508	1.196	0.072	0.053
-489.493	-29.647	-0.302	0.175
-488.478	185.379	-0.003	0.005
-487.464	-90.987	-0.455	-0.132
-486.449	-140.196	0.220	0.023
-485.435	479.455	0.162	0.372
-484.420	71.942	-0.193	0.203
-483.405	360.252	-0.182	0.368
-482.391	163.845	-0.061	0.087
-481.376	258.218	0.192	0.334
-480.362	174.788	0.203	0.297
-479.347	800.000	0.076	0.293
-478.332	-142.803	-0.350	0.034
-477.318	-40.871	0.135	-0.071
-476.303	-200.000	0.012	-0.178
-475.289	-146.790	0.129	0.011
-474.274	-200.000	0.014	-0.197
-473.259	197.053	0.135	0.209
-472.245	143.113	-0.147	-0.198
-471.230	-200.000	-0.020	0.491
-470.216	-200.000	0.025	0.114
-469.201	9.843	-0.034	0.026
-468.186	-64.906	-0.327	-0.134
-467.172	235.264	0.084	0.140
-466.157	-158.290	-0.097	0.006
-465.143	484.940	-0.071	0.162
-464.128	-200.000	-0.016	0.082
-463.113	800.000	0.061	-0.185
-462.099	-51.957	0.487	0.229
-461.084	800.000	0.062	0.188
-460.070	-42.257	-0.310	0.160
-459.055	103.958	0.290	-0.345
-458.040	-200.000	0.023	-0.431
-457.026	-38.190	-0.359	-0.193
-456.011	-148.451	-0.339	-0.028
-454.997	-199.423	0.104	-0.001
-453.982	-14.053	0.223	-0.146
-452.968	800.000	0.087	0.293
-451.953	800.000	-0.089	0.297
-450.938	-82.549	-0.281	-0.092
-449.924	-151.559	0.245	-0.018
-448.909	-154.891	0.043	0.003
-447.895	-190.078	-0.163	-0.002
-446.880	636.486	-0.071	-0.181
-445.865	-173.543	0.203	0.006
-444.851	523.672	-0.156	-0.370
-443.836	800.000	-0.064	0.247
-442.822	118.373	0.155	-0.193
-441.807	-42.310	0.224	0.115
-440.792	4.235	-0.183	0.136
-439.778	-200.000	0.006	0.046
-438.763	-18.678	-0.073	0.046
-437.749	53.069	0.119	0.115
-436.734	282.324	-0.035	-0.063
-435.719	-59.603	0.150	0.065
-434.705	-200.000	0.024	0.262
-433.690	-173.139	-0.193	-0.006
-432.676	56.057	0.075	0.074
-431.661	-64.230	-0.404	-0.166
-430.646	-116.216	-0.195	0.037
-429.632	264.493	0.134	-0.236
-428.617	93.933	-0.194	-0.223
-427.603	-108.878	-0.149	-0.032
-426.588	96.121	-0.106	-0.123
-425.573	-71.487	0.254	-0.096
-424.559	-142.837	0.359	-0.035
-423.544	6.192	0.235	-0.176
-422.530	326.139	-0.141	-0.272
-421.515	103.475	-0.214	0.254
-420.500	-70.102	-0.301	0.116
-419.486	20.276	-0.047	-0.039
-418.471	-18.552	-0.269	-0.169
-417.457	688.990	0.059	0.155
-416.442	-57.666	-0.094	0.042
-415.428	800.000	-0.083	-0.258
-414.413	-125.964	0.350	-0.053
-413.398	162.165	-0.053	-0.075
-412.384	128.550	-0.091	-0.116
-411.369	-143.071	0.198	-0.019
-410.355	-17.998	0.441	0.279
-409.340	4.888	0.120	0.089
-408.325	-7.686	0.241	0.164
-407.311	-81.119	-0.156	0.052
-406.296	220.688	-0.013	-0.021
-405.282	104.680	0.154	-0.183
-404.267	800.000	-0.101	-0.282
-403.252	-69.396	0.159	0.061
-402.238	800.000	-0.052	0.146
-401.223	67.296	0.095	-0.097
-400.209	-200.000	-0.046	-0.292
-399.194	-200.000	0.051	0.450
-398.179	-74.679	-0.230	-0.083
-397.165	-200.000	0.011	0.059
-396.150	-25.141	0.241	0.144
-395.136	30.129	-0.087	0.075
-394.121	-168.505	0.345	-0.013
-393.106	800.000	-0.028	-0.096
-392.092	-200.000	-0.010	0.232
-391.077	-49.607	0.160	-0.077
-390.063	137.013	-0.178	-0.234
-389.048	178.361	-0.194	0.286
-388.033	186.166	-0.221	0.332
-387.019	63.928	0.201	0.204
-386.004	800.000	-0.117	-0.338
-384.990	85.378	0.146	-0.162
-383.975	-132.469	0.238	0.031
-382.960	-133.431	-0.367	-0.046
-381.946	89.421	-0.179	0.202
-380.931	-200.000	0.305	-0.001
-379.917	424.776	-0.060	0.130
-378.902	389.588	-0.174	-0.363
-377.888	800.000	0.135	-0.403
-376.873	-44.279	-0.244	-0.123
-375.858	-36.390	-0.367	-0.199
-374.844	-200.000	0.065	0.391
-373.829	210.546	-0.032	0.050
-372.815	774.915	0.056	-0.153
-371.800	-102.307	0.079	-0.019
-370.785	119.747	0.171	-0.214
-369.771	81.147	0.166	0.181
-368.756	99.114	0.295	0.343
-367.742	800.000	-0.080	-0.341
-366.727	-60.727	-0.070	0.030
-365.712	-200.000	0.035	-0.175
-364.698	481.827	-0.022	0.049
-363.683	-200.000	0.009	0.063
-362.669	104.748	0.227	0.269
-361.654	81.097	-0.188	0.204
-360.639	84.384	-0.224	-0.247
-359.625	-9.342	-0.271	-0.182
-358.610	-132.838	0.084	0.011
-357.596	-57.779	-0.405	0.178
-356.581	-36.091	0.294	0.160
-355.566	-28.266	-0.127	-0.074
-354.552	247.657	-0.066	-0.113
-353.537	-46.869	0.232	0.114
-352.523	-200.000	0.011	-0.207
-351.508	-133.857	-0.173	-0.022
-350.493	-104.896	0.531	-0.123
-349.479	247.716	-0.143	0.243
-348.464	145.433	-0.018	0.024
-347.450	-114.220	-0.458	0.089
-346.435	116.718	0.087	-0.107
-345.420	-200.000	-0.004	0.050
-344.406	-48.453	0.338	0.164
-343.391	-6.518	0.086	0.059
-342.377	800.000	0.064	-0.200
-341.362	108.736	0.131	-0.158
-340.348	67.215	-0.085	0.087
-339.333	800.000	-0.032	0.143
-338.318	-5.463	-0.113	-0.078
-337.304	800.000	0.069	0.221
-336.289	-200.000	0.019	0.536
-335.275	-99.146	-0.191	-0.049
-334.260	32.081	-0.189	-0.164
-333.245	533.558	0.259	-0.616
-332.231	99.071	-0.066	-0.076
-331.216	195.315	0.073	0.111
-330.202	483.436	-0.107	-0.244
-329.187	-23.246	-0.149	-0.090
-328.172	-37.357	-0.068	-0.037
-327.158	-38.455	0.300	-0.160
-326.143	-200.000	0.039	0.188
-325.129	-54.169	0.122	0.056
-324.114	-90.649	0.309	0.090
-323.099	-71.623	-0.224	-0.084
-322.085	-200.000	-0.063	0.358
-321.070	656.513	-0.082	0.213
-320.056	2.393	-0.154	0.112
-319.041	-130.812	-0.273	0.037
-318.026	461.034	0.105	0.237
-317.012	140.335	0.110	0.146
-315.997	-200.000	0.029	-0.274
-314.983	800.000	-0.139	-0.482
-313.968	82.833	0.154	-0.168
-312.953	-48.887	0.127	-0.061
-311.939	-92.734	0.277	-0.078
-310.924	-200.000	0.038	0.251
-309.910	-200.000	0.034	0.367
-308.895	-200.000	0.029	-0.275
-307.880	-84.500	-0.185	0.059
-306.866	335.058	0.094	0.184
-305.851	-200.000	-0.032	0.152
-304.837	-44.812	-0.255	0.128
-303.822	-13.283	-0.124	-0.081
-302.807	-49.288	0.335	0.161
-301.793	194.696	-0.173	0.263
-300.778	-200.000	0.017	0.212
-299.764	-200.000	-0.004	-0.153
-298.749	571.894	0.098	-0.241
-297.735	-63.454	0.206	0.085
-296.720	-200.000	-0.040	0.241
-295.705	-200.000	-0.006	-0.049
-294.691	-200.000	0.004	0.033
-293.676	-122.006	-0.342	-0.057
-292.662	-27.536	0.113	-0.066
-291.647	-85.384	0.155	0.049
-290.632	-58.518	0.343	-0.150
-289.618	336.459	-0.163	-0.318
-288.603	-158.129	-0.111	0.007
-287.589	494.468	0.108	0.248
-286.574	71.692	0.220	0.229
-285.559	-32.316	0.119	-0.066
-284.545	-55.966	-0.205	-0.092
-283.530	157.432	0.062	-0.086
-282.516	-172.136	0.239	0.008
-281.501	20.920	0.085	-0.069
-280.486	800.000	0.139	-0.391
-279.472	-42.470	0.229	-0.117
-278.457	-200.000	-0.063	-0.285
-277.443	-200.000	-0.029	-0.302
-276.428	-200.000	0.089	0.440
-275.413	115.174	-0.075	-0.093
-274.399	-18.817	0.321	-0.201
-273.384	-98.128	-0.163	-0.042
-272.370	-101.207	-0.165	-0.040
-271.355	-141.261	0.305	0.031
-270.340	-57.466	-0.454	0.200
-269.326	171.384	-0.200	0.287
-268.311	15.445	0.107	-0.084
-267.297	-30.862	0.019	-0.011
-266.282	47.735	0.151	-0.142
-265.267	55.413	-0.304	0.295
-264.253	-194.016	0.183	0.002
-263.238	800.000	0.024	0.069
-262.224	-105.771	-0.328	-0.074
-261.209	658.637	-0.074	-0.190
-260.195	-92.727	0.240	-0.067
-259.180	-59.224	-0.346	-0.150
-258.165	23.151	0.120	-0.099
-257.151	-192.576	0.230	-0.002
-256.136	-50.762	0.209	0.099
-255.122	275.411	-0.017	-0.030
-254.107	-106.624	-0.203	0.045
-253.092	-200.000	-0.003	0.062
-252.078	800.000	-0.065	0.187
-251.063	-143.608	0.450	-0.043
-250.049	-139.757	-0.059	0.006
-249.034	-116.459	-0.331	-0.061
-248.019	732.272	-0.029	0.077
-247.005	48.778	0.311	0.293
-245.990	0.597	0.179	0.129
-244.976	800.000	0.081	0.227
-243.961	800.000	-0.011	-0.045
-242.946	-93.393	-0.062	0.017
-241.932	118.416	0.022	-0.028
-240.917	-8.411	-0.072	0.048
-239.903	-19.646	0.321	0.199
-238.888	-200.000	-0.148	-0.681
-237.873	-41.774	0.339	-0.174
-236.859	616.997	-0.138	0.346
-235.844	800.000	0.083	-0.252
-234.830	164.575	-0.236	-0.334
-233.815	87.031	-0.185	0.205
-232.800	800.000	-0.105	-0.328
-231.786	-200.000	-0.055	-0.258
-230.771	-200.000	0.024	0.172
-229.757	-133.642	0.234	-0.029
-228.742	112.773	0.150	0.182
-227.727	-142.213	-0.194	-0.019
-226.713	29.309	0.084	-0.072
-225.698	-54.020	0.103	-0.047
-224.684	-200.000	-0.002	-0.136
-223.669	353.411	-0.154	0.307
-222.655	-200.000	-0.010	-0.179
-221.640	-87.546	0.129	-0.039
-220.625	-200.000	-0.015	-0.112
-219.611	800.000	-0.055	-0.160
-218.596	541.640	0.025	0.059
-217.582	-200.000	-0.008	0.096
-216.567	-108.909	0.255	0.055
-215.552	10.438	-0.256	0.195
-214.538	-119.321	0.032	-0.006
-213.523	510.773	-0.023	-0.053
-212.509	549.483	0.023	0.056
-211.494	181.306	-0.120	0.177
-210.479	-139.536	0.087	0.009
-209.465	46.031	0.229	-0.212
-208.450	-76.572	-0.226	0.079
-207.436	-200.000	-0.036	0.203
-206.421	411.785	-0.216	-0.458
-205.406	-130.854	-0.271	-0.036
-204.392	-9.864	-0.228	-0.152
-203.377	154.192	-0.137	0.188
-202.363	800.000	0.076	0.242
-201.348	-25.867	-0.094	0.055
-200.333	320.870	0.058	-0.110
-199.319	-200.000	-0.001	-0.015
-198.304	-21.853	-0.126	0.077
-197.290	-190.316	0.328	0.004
-196.275	-32.531	-0.230	-0.128
-195.260	-200.000	0.027	-0.326
-194.246	340.787	0.084	0.164
-193.231	-200.000	0.043	0.362
-192.217	61.347	-0.080	0.079
-191.202	40.004	0.176	0.158
-190.187	-200.000	0.026	-0.266
-189.173	800.000	0.077	0.302
-188.158	220.193	0.147	0.235
-187.144	203.665	0.089	0.137
-186.129	-43.849	-0.319	-0.161
-185.114	-10.420	0.373	-0.247
-184.100	800.000	-0.050	0.143
-183.085	99.218	0.209	-0.242
-182.071	574.118	0.212	-0.516
-181.056	549.677	0.128	0.308
-180.042	323.832	0.135	0.258
-179.027	-170.694	-0.259	0.009
-178.012	-77.025	0.252	-0.088
-176.998	-60.134	-0.152	-0.065
-175.983	-145.148	-0.148	0.013
-174.969	-21.278	0.104	0.064
-173.954	-200.000	-0.040	-0.206
-172.939	155.313	0.093	-0.128
-171.925	335.011	-0.060	-0.117
-170.910	-21.548	0.333	-0.203
-169.896	-118.841	-0.219	0.038
-168.881	-18.926	0.194	0.121
-167.866	800.000	0.058	-0.195
-166.852	-198.542	-0.348	0.002
-165.837	-200.000	-0.045	0.535
-164.823	233.472	0.114	0.187
-163.808	189.201	0.094	0.141
-162.793	-22.958	-0.189	-0.114
-161.779	-67.600	0.012	-0.005
-160.764	664.673	0.027	-0.069
-159.750	-133.114	-0.615	0.078
-158.735	-200.000	-0.004	-0.301
-157.720	-200.000	0.029	-0.186
-156.706	-67.608	0.156	0.061
-155.691	376.656	-0.040	0.081
-154.677	-107.840	-0.102	-0.022
-153.662	800.000	-0.109	-0.353
-152.647	800.000	0.054	-0.168
-151.633	341.698	0.096	-0.187
-150.618	-109.354	0.110	0.023
-149.604	61.693	0.200	0.199
-148.589	51.732	0.101	0.096
-147.574	-159.482	-0.252	-0.014
-146.560	800.000	0.035	-0.128
-145.545	-116.520	-0.379	0.070
-144.531	-200.000	0.006	0.051
-143.516	42.948	-0.256	0.233
-142.502	673.665	-0.214	0.555
-141.487	136.133	0.106	-0.139
-140.472	-140.474	0.176	-0.018
-139.458	-100.334	-0.162	-0.040
-138.443	283.344	0.114	0.204
-137.429	-200.000	-0.019	-0.130
-136.414	110.527	0.152	-0.182
-135.399	31.971	0.087	0.075
-134.385	-156.833	-0.124	0.008
-133.370	-163.443	-0.136	0.006
-132.356	19.154	0.147	0.118
-131.341	-105.818	-0.068	0.015
-130.326	-118.334	0.260	-0.046
-129.312	26.109	0.241	-0.201
-128.297	-68.318	0.219	0.085
-127.283	800.000	-0.043	-0.135
-126.268	-200.000	0.004	-0.274
-125.253	-131.992	0.127	-0.017
-124.239	800.000	-0.035	-0.132
-123.224	695.865	0.071	0.186
-122.210	-73.333	0.034	-0.013
