DTS Sentinel unit serial number:	SN413079Multiplexer serial number:	ORYXHardware model number:	OX4-SRSoftware version number:	ORYX F/W v4.00 Oryx Data Collector v3.7.2.0data status	okinstallation	princeton_trtdifferential loss correction	single-endedforward channel	channel 4reverse channel	N/Adate	2019/09/17time	19:21:34forward acquisition time	60.00reverse acquisition time	0.00gamma	496.2192k internal	0.2302k external	0.2302temperature offset calibration	0.9982default loss term (dB/km)	0.3790temperature slope calibration	1.0000multiplexer offset coefficient	1.0000multiplexer slope coefficient	1.0000fibre end	0.00T internal ref (°C)	37.83T ext. ref 1 (°C)	0.25T ext. ref 2 (°C)	26.07length (m)	temperature (°C)	Stokes	anti-Stokes-747.200	100.780	-0.217	0.257
-746.185	800.000	-0.081	0.246
-745.171	-61.825	-0.223	-0.095
-744.156	182.229	-0.061	0.092
-743.142	200.626	-0.052	0.082
-742.127	-166.881	-0.390	0.016
-741.112	255.409	-0.064	0.112
-740.098	-102.576	0.144	-0.035
-739.083	-200.000	0.003	0.235
-738.069	-200.000	0.008	-0.348
-737.054	800.000	0.068	0.280
-736.039	-156.243	-0.137	0.009
-735.025	240.904	-0.133	0.226
-734.010	-0.935	-0.308	-0.222
-732.996	127.150	0.312	-0.403
-731.981	-200.000	-0.062	-0.347
-730.966	-75.709	0.099	-0.036
-729.952	103.133	-0.222	-0.265
-728.937	-200.000	-0.002	-0.016
-727.923	207.255	-0.068	0.108
-726.908	632.383	-0.044	0.112
-725.894	-86.039	-0.200	0.063
-724.879	-11.712	0.117	-0.078
-723.864	-73.524	-0.152	0.056
-722.850	-200.000	-0.137	0.000
-721.835	409.474	-0.197	-0.425
-720.821	-83.221	-0.205	0.067
-719.806	-135.012	0.218	-0.027
-718.791	800.000	0.055	-0.219
-717.777	-200.000	0.003	0.115
-716.762	800.000	-0.080	0.246
-715.748	-96.857	-0.414	-0.111
-714.733	-200.000	0.041	-0.241
-713.718	37.349	-0.176	0.159
-712.704	-35.714	0.210	-0.116
-711.689	-200.000	0.104	0.538
-710.675	-124.397	0.260	-0.041
-709.660	800.000	-0.084	0.326
-708.645	-34.359	0.168	-0.094
-707.631	272.764	-0.155	0.279
-706.616	97.276	0.078	-0.091
-705.602	133.649	0.171	-0.225
-704.587	84.712	-0.394	-0.439
-703.572	-95.838	0.272	0.074
-702.558	-200.000	-0.003	-0.110
-701.543	223.647	-0.120	0.197
-700.529	-148.007	0.362	0.031
-699.514	104.683	-0.276	0.331
-698.499	-35.460	-0.083	-0.046
-697.485	109.747	0.100	-0.122
-696.470	800.000	0.056	-0.245
-695.456	-200.000	0.004	0.141
-694.441	-200.000	-0.047	0.348
-693.426	-149.068	0.484	-0.040
-692.412	303.666	-0.125	-0.236
-691.397	-30.746	-0.135	0.078
-690.383	-200.000	-0.005	0.099
-689.368	484.330	-0.103	0.239
-688.354	-169.321	0.156	0.006
-687.339	490.528	-0.203	-0.473
-686.324	103.399	-0.068	0.081
-685.310	120.712	0.175	0.221
-684.295	800.000	-0.007	-0.024
-683.281	56.288	-0.135	0.134
-682.266	-97.842	-0.185	-0.049
-681.251	42.455	0.419	0.387
-680.237	160.835	-0.200	-0.284
-679.222	43.860	-0.410	-0.382
-678.208	-200.000	0.005	0.141
-677.193	25.835	-0.298	0.252
-676.178	9.340	0.103	0.079
-675.164	228.255	-0.122	0.203
-674.149	27.677	-0.098	0.084
-673.135	-58.420	0.245	0.108
-672.120	-143.783	0.277	0.027
-671.105	-200.000	-0.005	-0.269
-670.091	-85.801	-0.079	0.025
-669.076	26.057	-0.165	-0.140
-668.062	-61.184	0.398	-0.171
-667.047	226.857	0.071	-0.117
-666.032	51.832	-0.145	0.140
-665.018	54.009	0.113	0.110
-664.003	-14.471	-0.107	0.070
-662.989	-200.000	0.050	0.276
-661.974	-124.929	-0.266	0.042
-660.959	-200.000	-0.026	-0.132
-659.945	-103.992	-0.423	0.100
-658.930	-91.772	-0.432	0.125
-657.916	800.000	-0.091	-0.383
-656.901	622.548	0.113	0.289
-655.886	-37.383	-0.253	-0.137
-654.872	-12.260	-0.185	0.123
-653.857	-104.922	-0.247	-0.057
-652.843	49.220	-0.111	0.106
-651.828	47.426	-0.404	-0.382
-650.814	239.309	0.122	0.207
-649.799	-53.519	-0.307	-0.142
-648.784	-64.950	-0.270	0.111
-647.770	-200.000	0.037	0.290
-646.755	-160.854	-0.122	0.007
-645.741	-125.852	-0.453	0.069
-644.726	800.000	-0.039	-0.111
-643.711	800.000	0.034	0.115
-642.697	-189.537	0.376	-0.004
-641.682	-161.488	-0.271	0.014
-640.668	212.056	-0.309	0.494
-639.653	-39.431	0.029	0.015
-638.638	-112.703	0.071	-0.014
-637.624	-200.000	-0.006	0.128
-636.609	-4.429	0.228	-0.160
-635.595	74.586	0.225	-0.240
-634.580	800.000	0.035	-0.137
-633.565	800.000	0.129	0.502
-632.551	-41.419	-0.351	0.183
-631.536	-24.103	0.297	0.180
-630.522	-82.966	-0.184	-0.060
-629.507	-200.000	-0.031	-0.140
-628.492	-141.077	0.166	-0.017
-627.478	487.510	-0.132	-0.306
-626.463	800.000	-0.068	0.217
-625.449	-75.073	0.340	0.123
-624.434	800.000	-0.083	0.248
-623.419	137.537	0.026	-0.034
-622.405	800.000	-0.027	0.096
-621.390	314.240	-0.047	0.090
-620.376	-91.117	0.157	-0.046
-619.361	235.881	-0.087	0.146
-618.346	61.554	-0.180	0.182
-617.332	484.962	-0.033	-0.077
-616.317	121.556	-0.033	0.042
-615.303	14.181	0.146	-0.115
-614.288	-105.615	-0.183	0.042
-613.273	-137.800	-0.250	0.028
-612.259	-200.000	-0.052	0.252
-611.244	133.063	0.130	0.170
-610.230	-65.935	-0.332	-0.135
-609.215	-200.000	-0.015	0.179
-608.201	-200.000	-0.076	0.000
-607.186	-72.130	-0.181	0.068
-606.171	-200.000	0.036	0.231
-605.157	385.342	-0.102	-0.214
-604.142	-10.508	-0.177	0.119
-603.128	-185.774	-0.162	-0.002
-602.113	-200.000	0.034	-0.216
-601.098	-41.270	0.157	-0.082
-600.084	489.310	-0.065	-0.150
-599.069	14.799	-0.053	-0.042
-598.055	800.000	0.023	-0.102
-597.040	-200.000	0.007	-0.187
-596.025	800.000	-0.101	0.353
-595.011	-49.616	0.270	0.130
-593.996	258.270	-0.170	-0.296
-592.982	-88.705	0.235	0.071
-591.967	-200.000	-0.018	-0.165
-590.952	22.756	0.147	0.122
-589.938	90.681	-0.166	-0.188
-588.923	-74.309	-0.053	-0.020
-587.909	-21.683	-0.253	-0.156
-586.894	-90.680	0.062	0.018
-585.879	405.670	-0.031	-0.066
-584.865	325.841	-0.121	-0.235
-583.850	-158.952	-0.324	-0.019
-582.836	-174.278	0.402	-0.012
-581.821	800.000	0.109	-0.366
-580.806	-95.437	-0.360	-0.098
-579.792	-22.583	0.121	0.074
-578.777	114.892	-0.128	0.158
-577.763	-165.187	-0.218	-0.010
-576.748	-178.115	0.331	0.008
-575.733	800.000	0.116	0.365
-574.719	-57.252	0.247	-0.110
-573.704	110.198	0.094	-0.114
-572.690	-86.528	-0.129	0.040
-571.675	-123.724	0.321	0.051
-570.661	-15.119	-0.114	-0.074
-569.646	-200.000	-0.008	0.173
-568.631	-10.059	0.173	-0.116
-567.617	800.000	0.052	0.165
-566.602	234.334	-0.134	-0.224
-565.588	-76.249	0.063	-0.022
-564.573	800.000	-0.009	0.030
-563.558	-24.943	-0.157	0.094
-562.544	519.194	-0.051	0.121
-561.529	-114.596	-0.303	-0.059
-560.515	-200.000	0.031	-0.155
-559.500	238.308	0.046	0.077
-558.485	-43.240	0.218	-0.112
-557.471	800.000	-0.105	-0.410
-556.456	277.415	0.066	-0.119
-555.442	-127.479	0.374	-0.055
-554.427	-200.000	-0.020	-0.275
-553.412	60.796	0.166	0.167
-552.398	321.208	-0.092	0.178
-551.383	-23.953	-0.391	0.237
-550.369	37.411	0.247	0.222
-549.354	-97.471	0.125	-0.033
-548.339	44.350	-0.172	-0.160
-547.325	-53.969	0.063	0.029
-546.310	-200.000	-0.020	0.124
-545.296	-200.000	-0.033	-0.247
-544.281	241.643	0.052	-0.088
-543.266	-74.718	0.289	0.105
-542.252	800.000	-0.032	-0.110
-541.237	-104.662	-0.226	0.053
-540.223	709.699	0.036	-0.096
-539.208	-200.000	0.006	-0.291
-538.193	147.277	-0.024	-0.033
-537.179	219.172	-0.128	-0.206
-536.164	-37.556	0.188	-0.101
-535.150	-108.403	0.133	0.029
-534.135	0.860	-0.179	-0.129
-533.121	-103.688	-0.187	-0.044
-532.106	-83.888	0.321	-0.103
-531.091	-122.906	0.399	-0.065
-530.077	-75.752	0.088	0.032
-529.062	180.180	0.086	0.128
-528.048	496.743	-0.065	0.151
-527.033	-77.248	-0.300	-0.105
-526.018	-87.296	-0.094	-0.029
-525.004	-81.574	-0.068	0.023
-523.989	-163.631	0.104	-0.005
-522.975	-26.424	-0.007	0.004
-521.960	-94.268	0.212	0.059
-520.945	-200.000	0.018	0.179
-519.931	26.101	-0.219	-0.185
-518.916	699.939	0.103	0.275
-517.902	-6.395	0.109	-0.075
-516.887	408.072	-0.062	-0.133
-515.872	-200.000	-0.004	0.151
-514.858	45.610	0.093	-0.087
-513.843	121.200	-0.122	-0.153
-512.829	559.547	0.034	0.084
-511.814	-80.146	-0.140	-0.047
-510.799	-106.799	0.087	-0.019
-509.785	-200.000	0.029	-0.229
-508.770	12.047	-0.157	0.122
-507.756	111.096	0.136	0.165
-506.741	561.963	0.125	0.306
-505.726	598.973	-0.102	-0.255
-504.712	-64.216	-0.396	-0.163
-503.697	-200.000	0.000	0.037
-502.683	88.334	-0.229	-0.256
-501.668	-153.662	-0.180	-0.013
-500.653	22.510	-0.076	0.063
-499.639	-10.415	0.390	0.261
-498.624	-129.588	0.104	0.015
-497.610	-200.000	-0.066	-0.456
-496.595	-98.438	0.380	-0.098
-495.581	-158.195	0.074	-0.004
-494.566	-71.932	0.114	-0.043
-493.551	-143.972	0.296	-0.028
-492.537	-200.000	-0.066	0.454
-491.522	800.000	-0.001	0.002
-490.508	-58.646	-0.256	-0.112
-489.493	800.000	-0.074	0.281
-488.478	94.759	0.077	0.088
-487.464	174.751	-0.146	-0.213
-486.449	448.491	-0.211	-0.468
-485.435	-69.033	0.365	0.142
-484.420	-120.404	-0.148	-0.025
-483.405	800.000	0.032	0.111
-482.391	-39.771	0.072	0.038
-481.376	-91.727	-0.020	-0.006
-480.362	110.593	0.355	-0.431
-479.347	100.216	-0.063	-0.074
-478.332	74.239	-0.189	-0.200
-477.318	34.950	-0.261	-0.230
-476.303	152.395	-0.197	-0.271
-475.289	705.420	-0.115	0.306
-474.274	29.159	-0.199	0.170
-473.259	-200.000	0.022	-0.179
-472.245	352.696	0.110	0.219
-471.230	-84.815	0.099	-0.031
-470.216	168.238	-0.099	-0.142
-469.201	-200.000	-0.003	-0.166
-468.186	-200.000	-0.024	-0.117
-467.172	693.491	-0.096	0.255
-466.157	97.325	-0.105	0.122
-465.143	28.892	-0.295	-0.252
-464.128	-200.000	0.005	0.225
-463.113	-200.000	-0.048	0.309
-462.099	-23.132	0.205	-0.124
-461.084	14.643	-0.041	-0.032
-460.070	-39.822	0.033	-0.017
-459.055	800.000	0.019	0.080
-458.040	67.438	-0.206	0.212
-457.026	-200.000	0.249	0.001
-456.011	-164.782	0.300	-0.014
-454.997	-28.279	-0.120	0.070
-453.982	-124.997	0.224	0.035
-452.968	-67.192	-0.300	0.119
-451.953	-108.387	0.405	-0.088
-450.938	800.000	-0.042	-0.187
-449.924	190.218	0.071	-0.108
-448.909	-95.638	0.171	-0.046
-447.895	273.372	-0.101	0.180
-446.880	317.730	-0.112	0.213
-445.865	464.189	0.115	0.258
-444.851	-7.914	0.115	0.078
-443.836	-53.508	-0.181	-0.084
-442.822	-14.198	-0.115	0.075
-441.807	306.601	0.033	-0.062
-440.792	-96.941	-0.211	0.056
-439.778	103.627	-0.166	-0.196
-438.763	800.000	0.017	0.064
-437.749	636.638	0.035	-0.089
-436.734	235.599	0.132	0.220
-435.719	-114.803	-0.066	0.013
-434.705	430.393	0.037	-0.081
-433.690	81.892	0.105	-0.114
-432.676	-97.468	0.312	0.082
-431.661	-23.523	0.266	-0.161
-430.646	-21.054	-0.158	-0.097
-429.632	-200.000	-0.035	-0.345
-428.617	53.220	-0.238	0.229
-427.603	-170.236	-0.308	-0.011
-426.588	26.032	0.104	-0.088
-425.573	-200.000	0.024	-0.280
-424.559	-70.278	-0.523	0.200
-423.544	-186.640	0.300	-0.004
-422.530	182.421	-0.087	0.129
-421.515	-125.611	0.095	-0.015
-420.500	-58.117	-0.237	-0.104
-419.486	-57.796	-0.201	0.088
-418.471	55.495	-0.173	0.169
-417.457	153.613	-0.190	0.263
-416.442	-200.000	-0.013	0.161
-415.428	92.514	0.174	-0.197
-414.413	-27.949	-0.123	-0.071
-413.398	-27.189	0.496	0.291
-412.384	-64.056	-0.080	0.033
-411.369	92.396	-0.079	-0.090
-410.355	800.000	0.130	0.425
-409.340	-85.050	-0.475	0.150
-408.325	-200.000	-0.030	0.212
-407.311	-91.205	-0.188	-0.054
-406.296	-200.000	-0.004	-0.156
-405.282	148.273	-0.019	-0.026
-404.267	-106.924	-0.203	0.045
-403.252	-200.000	-0.001	0.291
-402.238	-153.864	0.303	0.021
-401.223	238.277	0.118	-0.197
-400.209	800.000	-0.114	0.316
-399.194	77.067	0.124	-0.132
-398.179	800.000	0.046	-0.127
-397.165	800.000	0.105	0.312
-396.150	-84.674	0.412	0.131
-395.136	-200.000	0.010	-0.086
-394.121	-200.000	0.050	-0.290
-393.106	4.021	0.092	0.067
-392.092	800.000	0.067	-0.237
-391.077	61.621	0.028	-0.028
-390.063	-65.695	0.246	-0.099
-389.048	104.773	-0.026	0.031
-388.033	138.894	0.149	-0.197
-387.019	366.050	-0.087	-0.176
-386.004	8.260	-0.232	0.175
-384.990	-32.108	0.104	-0.058
-383.975	-137.474	0.310	-0.035
-382.960	-38.685	0.166	-0.088
-381.946	-22.021	-0.118	-0.072
-380.931	297.732	0.257	0.475
-379.917	753.525	0.186	-0.504
-378.902	-111.427	0.417	0.085
-377.888	141.763	0.047	-0.063
-376.873	800.000	0.077	0.218
-375.858	449.334	-0.242	0.537
-374.844	194.896	0.132	0.202
-373.829	318.235	0.059	-0.113
-372.815	-21.052	0.370	0.227
-371.800	248.244	-0.143	-0.243
-370.785	-100.620	0.224	0.056
-369.771	122.474	-0.044	-0.055
-368.756	-118.818	-0.336	0.059
-367.742	197.566	0.144	-0.221
-366.727	-200.000	-0.056	-0.266
-365.712	134.279	-0.014	0.018
-364.698	-143.532	-0.242	0.023
-363.683	155.368	-0.278	-0.384
-362.669	143.564	-0.176	-0.236
-361.654	66.833	0.008	-0.008
-360.639	638.708	-0.058	0.147
-359.625	-20.517	-0.035	-0.022
-358.610	-200.000	-0.015	0.095
-357.596	-200.000	-0.006	-0.232
-356.581	380.455	-0.185	-0.381
-355.566	693.430	0.179	-0.472
-354.552	-200.000	-0.017	0.114
-353.537	365.733	0.199	0.403
-352.523	2.214	-0.180	0.131
-351.508	36.784	-0.177	0.157
-350.493	-78.978	-0.081	0.028
-349.479	376.878	0.029	-0.060
-348.464	185.894	-0.238	0.355
-347.450	-93.539	0.116	-0.032
-346.435	25.696	0.207	-0.173
-345.420	-200.000	-0.030	0.137
-344.406	218.280	-0.090	-0.145
-343.391	-88.735	0.175	-0.052
-342.377	161.010	-0.148	0.208
-341.362	-114.611	0.127	0.024
-340.348	86.534	0.248	-0.275
-339.333	-153.689	0.107	-0.007
-338.318	-9.828	0.144	0.096
-337.304	-200.000	-0.063	-0.439
-336.289	21.606	0.217	-0.177
-335.275	-81.599	-0.342	0.113
-334.260	433.620	0.100	-0.219
-333.245	76.340	0.072	-0.076
-332.231	800.000	0.038	-0.153
-331.216	800.000	0.051	0.193
-330.202	509.058	-0.077	0.179
-329.187	-68.654	-0.409	-0.159
-328.172	277.470	0.148	0.264
-327.158	337.584	0.074	-0.145
-326.143	-200.000	-0.018	-0.154
-325.129	-21.465	-0.150	-0.092
-324.114	-200.000	0.047	-0.223
-323.099	82.950	-0.194	-0.211
-322.085	312.809	-0.068	0.128
-321.070	234.111	0.203	-0.335
-320.056	148.014	-0.057	0.077
-319.041	800.000	0.055	0.171
-318.026	-50.422	0.374	-0.177
-317.012	97.467	0.308	-0.355
-315.997	-100.612	-0.267	-0.066
-314.983	800.000	0.033	-0.132
-313.968	-17.663	0.272	-0.171
-312.953	-20.459	-0.079	0.049
-311.939	96.070	-0.057	0.065
-310.924	800.000	-0.099	0.297
-309.910	-200.000	-0.042	0.554
-308.895	559.255	-0.021	-0.050
-307.880	36.989	-0.174	-0.154
-306.866	-80.100	-0.240	-0.080
-305.851	-200.000	0.011	-0.173
-304.837	800.000	0.068	-0.190
-303.822	-37.047	-0.234	-0.125
-302.807	8.194	0.208	-0.156
-301.793	375.359	0.038	0.077
-300.778	-200.000	-0.040	-0.216
-299.764	-9.935	-0.312	0.208
-298.749	136.236	-0.067	0.087
-297.735	239.411	-0.216	-0.360
-296.720	71.268	0.061	0.063
-295.705	264.557	0.081	0.141
-294.691	-200.000	-0.027	0.173
-293.676	58.387	-0.134	0.132
-292.662	-200.000	0.094	-0.441
-291.647	-200.000	-0.038	-0.331
-290.632	-200.000	0.001	0.155
-289.618	24.090	-0.114	-0.094
-288.603	-113.031	0.331	-0.066
-287.589	714.370	-0.092	-0.245
-286.574	597.825	0.041	0.102
-285.559	-114.729	0.060	-0.012
-284.545	-101.540	-0.377	-0.092
-283.530	-62.776	-0.155	-0.064
-282.516	-200.000	0.028	0.174
-281.501	-200.000	0.011	-0.190
-280.486	125.419	-0.220	-0.277
-279.472	-200.000	0.026	0.396
-278.457	189.503	0.127	0.190
-277.443	341.753	-0.138	0.269
-276.428	800.000	-0.088	0.290
-275.413	75.176	0.241	0.255
-274.399	-200.000	-0.038	0.268
-273.384	800.000	0.054	-0.195
-272.370	16.653	0.069	-0.055
-271.355	215.568	-0.128	-0.203
-270.340	-129.815	-0.043	0.006
-269.326	-69.423	0.413	0.158
-268.311	-23.576	0.216	-0.130
-267.297	-34.742	0.337	-0.184
-266.282	380.011	-0.090	-0.184
-265.267	-71.569	0.171	-0.064
-264.253	377.113	0.225	0.459
-263.238	-75.105	-0.256	0.092
-262.224	-84.241	0.167	-0.053
-261.209	800.000	-0.052	-0.184
-260.195	-200.000	0.041	0.273
-259.180	-50.429	-0.314	0.148
-258.165	-200.000	-0.025	0.183
-257.151	800.000	-0.015	0.064
-256.136	-200.000	0.011	0.389
-255.122	-200.000	0.001	-0.128
-254.107	-95.325	-0.397	0.107
-253.092	85.508	-0.153	-0.168
-252.078	800.000	-0.082	0.259
-251.063	800.000	0.043	-0.136
-250.049	57.263	0.152	0.148
-249.034	-163.468	0.232	0.011
-248.019	800.000	-0.077	0.278
-247.005	-99.111	-0.384	0.097
-245.990	25.491	0.174	-0.145
-244.976	310.805	-0.055	-0.104
-243.961	23.562	0.069	-0.057
-242.946	-79.802	0.028	-0.009
-241.932	298.551	-0.022	-0.040
-240.917	800.000	0.043	0.181
-239.903	-200.000	-0.166	0.001
-238.888	-122.749	0.291	0.047
-237.873	231.869	0.067	-0.109
-236.859	-11.371	-0.066	-0.044
-235.844	-200.000	0.007	0.031
-234.830	-44.410	0.297	0.148
-233.815	-67.038	-0.365	-0.144
-232.800	34.307	0.132	-0.115
-231.786	-110.903	0.137	0.028
-230.771	-200.000	-0.017	0.079
-229.757	-157.657	-0.233	-0.014
-228.742	800.000	0.116	0.388
-227.727	-116.301	0.118	-0.022
-226.713	-19.607	-0.141	-0.087
-225.698	70.048	-0.154	-0.159
-224.684	-50.477	0.066	0.031
-223.669	485.303	-0.150	0.341
-222.655	253.769	-0.090	-0.154
-221.640	114.165	-0.212	0.257
-220.625	448.678	-0.046	0.101
-219.611	26.646	-0.328	-0.274
-218.596	286.941	0.164	0.295
-217.582	-200.000	0.006	0.100
-216.567	800.000	-0.085	0.270
-215.552	-114.011	0.285	0.055
-214.538	-28.115	-0.340	0.196
-213.523	-200.000	-0.048	0.416
-212.509	-51.727	0.032	-0.015
-211.494	-163.823	0.072	-0.003
-210.479	-3.492	0.190	-0.132
-209.465	-200.000	0.005	-0.202
-208.450	160.781	0.169	-0.236
-207.436	-77.681	0.168	0.058
-206.421	3.473	0.057	-0.042
-205.406	-106.823	-0.146	-0.032
-204.392	-7.976	-0.070	0.047
-203.377	29.684	-0.131	-0.111
-202.363	-117.052	0.168	0.031
-201.348	-129.305	-0.113	-0.016
-200.333	81.636	0.184	0.198
-199.319	-36.089	0.216	-0.117
-198.304	779.863	-0.097	-0.264
-197.290	495.006	0.023	0.053
-196.275	360.940	0.034	0.068
-195.260	-200.000	-0.046	0.285
-194.246	-61.227	0.087	-0.036
-193.231	-200.000	0.028	0.173
-192.217	-140.813	-0.016	-0.002
-191.202	198.168	0.103	0.156
-190.187	-200.000	-0.036	0.283
-189.173	-8.865	-0.104	-0.069
-188.158	104.462	-0.123	0.144
-187.144	479.264	-0.076	0.172
-186.129	800.000	0.020	0.056
-185.114	207.570	0.143	0.222
-184.100	432.657	-0.101	0.218
-183.085	-93.145	-0.175	0.048
-182.071	-54.713	-0.041	-0.019
-181.056	-23.711	0.232	0.139
-180.042	6.188	0.260	-0.192
-179.027	542.368	-0.072	-0.172
-178.012	-141.079	0.467	-0.048
-176.998	3.166	0.124	0.090
-175.983	800.000	-0.046	0.130
-174.969	-55.607	0.063	0.028
-173.954	406.148	0.012	0.026
-172.939	5.242	0.183	0.134
-171.925	321.335	-0.120	-0.227
-170.910	-3.901	0.122	-0.084
-169.896	428.733	-0.104	-0.224
-168.881	-89.427	0.224	0.066
-167.866	-200.000	-0.063	-0.347
-166.852	65.148	-0.084	-0.085
-165.837	136.055	0.124	0.161
-164.823	58.570	-0.042	0.041
-163.808	-130.151	0.445	0.060
-162.793	39.548	-0.295	0.264
-161.779	-44.728	-0.130	0.065
-160.764	-62.072	-0.214	0.089
-159.750	-88.093	0.128	-0.038
-158.735	182.850	-0.200	-0.294
-157.720	-99.942	-0.174	-0.043
-156.706	208.477	0.219	-0.341
-155.691	-24.783	0.342	-0.203
-154.677	13.771	0.435	-0.336
-153.662	-200.000	-0.002	-0.119
-152.647	-200.000	0.026	-0.129
-151.633	-9.896	-0.071	0.047
-150.618	-114.192	-0.126	0.024
-149.604	-59.916	0.071	-0.030
-148.589	-183.398	0.185	-0.003
-147.574	70.894	0.334	0.345
-146.560	-104.573	-0.296	-0.068
-145.545	-91.496	0.180	0.051
-144.531	164.700	0.080	0.112
-143.516	-134.191	0.155	-0.019
-142.502	35.415	0.059	0.051
-141.487	-200.000	0.001	-0.208
-140.472	277.827	-0.075	0.132
-139.458	-200.000	-0.018	-0.360
-138.443	-125.888	-0.262	-0.039
-137.429	240.767	0.099	-0.164
-136.414	133.998	-0.030	0.039
-135.399	-39.867	0.187	0.097
-134.385	-34.727	-0.438	0.238
-133.370	-152.367	0.445	0.032
-132.356	-133.592	-0.033	-0.004
-131.341	-33.287	0.194	-0.107
-130.326	800.000	0.065	-0.247
-129.312	-121.392	-0.372	0.062
-128.297	-29.562	-0.154	0.088
-127.283	-122.857	0.341	-0.055
-126.268	57.958	-0.023	-0.022
-125.253	235.462	0.095	0.156
-124.239	-141.537	0.219	0.022
-123.224	109.759	-0.168	-0.201
-122.210	-120.633	-0.169	0.029
