DTS Sentinel unit serial number:	SN413079Multiplexer serial number:	ORYXHardware model number:	OX4-SRSoftware version number:	ORYX F/W v4.00 Oryx Data Collector v3.7.2.0data status	okinstallation	princeton_trtdifferential loss correction	single-endedforward channel	channel 4reverse channel	N/Adate	2019/09/15time	07:37:35forward acquisition time	60.00reverse acquisition time	0.00gamma	496.2192k internal	0.2311k external	0.2311temperature offset calibration	1.0035default loss term (dB/km)	0.3790temperature slope calibration	1.0000multiplexer offset coefficient	1.0000multiplexer slope coefficient	1.0000fibre end	0.00T internal ref (°C)	30.62T ext. ref 1 (°C)	4.97T ext. ref 2 (°C)	25.43length (m)	temperature (°C)	Stokes	anti-Stokes-747.200	492.155	-0.057	0.132
-746.185	84.846	-0.133	-0.148
-745.171	-19.547	-0.106	-0.066
-744.156	-18.038	-0.116	0.074
-743.142	49.650	0.153	-0.147
-742.127	800.000	-0.065	0.240
-741.112	270.185	0.068	0.121
-740.098	76.687	-0.310	0.334
-739.083	-132.191	0.213	0.028
-738.069	657.120	0.017	0.043
-737.054	-93.199	-0.099	-0.028
-736.039	800.000	-0.109	-0.421
-735.025	280.967	0.174	0.315
-734.010	586.058	-0.057	0.142
-732.996	-123.135	-0.399	0.065
-731.981	-28.826	0.203	-0.118
-730.966	-64.830	0.059	-0.024
-729.952	-153.612	0.588	-0.041
-728.937	800.000	0.036	0.158
-727.923	-200.000	0.006	-0.115
-726.908	800.000	-0.043	0.179
-725.894	382.560	-0.036	-0.075
-724.879	-92.943	-0.258	0.073
-723.864	800.000	-0.094	0.387
-722.850	-121.541	-0.300	0.050
-721.835	162.820	0.126	0.179
-720.821	-30.448	-0.141	-0.081
-719.806	-45.562	0.270	0.135
-718.791	-50.320	-0.109	0.052
-717.777	-80.969	-0.215	0.072
-716.762	-11.965	-0.149	0.099
-715.748	-92.087	-0.142	0.041
-714.733	121.173	-0.019	-0.024
-713.718	-200.000	0.048	0.306
-712.704	-104.593	0.412	-0.096
-711.689	-15.912	-0.173	-0.112
-710.675	204.273	-0.078	0.122
-709.660	104.954	-0.088	0.105
-708.645	-33.960	-0.158	0.088
-707.631	103.420	0.185	0.220
-706.616	-65.681	0.218	0.088
-705.602	149.189	0.041	0.057
-704.587	-94.244	-0.215	0.060
-703.572	-120.499	-0.229	-0.039
-702.558	-116.845	-0.291	-0.054
-701.543	-132.319	-0.270	-0.035
-700.529	119.918	-0.201	-0.252
-699.514	101.351	0.027	-0.032
-698.499	282.379	-0.004	0.007
-697.485	136.568	0.055	-0.073
-696.470	158.604	-0.187	-0.264
-695.456	54.287	-0.056	0.055
-694.441	31.853	0.175	0.153
-693.426	622.760	-0.064	-0.164
-692.412	17.549	-0.305	0.246
-691.397	677.690	-0.081	-0.213
-690.383	-74.713	0.091	-0.033
-689.368	100.694	-0.114	0.135
-688.354	-200.000	0.021	0.141
-687.339	-137.778	0.089	-0.010
-686.324	763.387	-0.133	0.366
-685.310	-99.917	-0.174	0.044
-684.295	46.086	-0.161	-0.151
-683.281	-91.173	0.217	0.063
-682.266	421.952	0.094	-0.204
-681.251	58.293	0.388	0.385
-680.237	-65.271	0.062	-0.025
-679.222	-50.715	-0.305	0.145
-678.208	82.434	0.143	0.157
-677.193	430.688	-0.052	0.115
-676.178	800.000	0.045	-0.136
-675.164	-200.000	-0.044	0.196
-674.149	-200.000	0.002	-0.028
-673.135	446.482	0.054	0.120
-672.120	406.925	0.137	-0.293
-671.105	48.869	-0.063	0.060
-670.091	47.803	0.114	-0.108
-669.076	334.158	0.024	-0.048
-668.062	433.007	0.110	0.241
-667.047	145.530	-0.073	-0.099
-666.032	-156.884	0.467	-0.029
-665.018	628.833	0.137	-0.351
-664.003	111.082	0.128	-0.157
-662.989	-196.461	-0.292	0.002
-661.974	-107.052	-0.110	-0.025
-660.959	307.847	0.048	-0.091
-659.945	-14.579	0.064	0.042
-658.930	800.000	-0.049	0.210
-657.916	-76.073	0.082	-0.029
-656.901	-70.574	0.264	-0.101
-655.886	-200.000	0.039	-0.205
-654.872	-120.326	0.245	-0.042
-653.857	-200.000	-0.037	-0.204
-652.843	57.328	-0.170	-0.168
-651.828	201.149	-0.078	-0.122
-650.814	-130.832	-0.150	0.020
-649.799	373.922	-0.095	-0.196
-648.784	312.721	-0.126	0.240
-647.770	170.630	0.061	0.088
-646.755	-8.238	0.092	0.062
-645.741	133.273	0.144	-0.188
-644.726	372.601	0.039	-0.079
-643.711	-82.463	-0.108	0.036
-642.697	-117.101	-0.153	0.028
-641.682	-200.000	0.008	0.175
-640.668	103.511	-0.124	0.148
-639.653	-109.796	0.184	0.039
-638.638	-200.000	0.011	0.082
-637.624	800.000	-0.056	0.190
-636.609	-19.894	-0.307	0.192
-635.595	-51.601	-0.064	0.030
-634.580	-200.000	-0.006	0.351
-633.565	120.455	-0.228	0.287
-632.551	-49.848	0.230	-0.110
-631.536	-200.000	0.008	0.266
-630.522	-157.812	0.150	-0.009
-629.507	6.282	-0.248	0.186
-628.492	61.604	-0.043	0.043
-627.478	-100.892	-0.241	-0.060
-626.463	172.865	0.144	0.209
-625.449	-200.000	0.018	0.285
-624.434	-200.000	0.057	0.318
-623.419	-200.000	0.025	0.138
-622.405	641.523	-0.133	0.342
-621.390	-39.296	0.033	-0.017
-620.376	800.000	-0.111	-0.331
-619.361	-90.330	-0.385	-0.113
-618.346	207.868	0.044	0.070
-617.332	800.000	-0.121	-0.368
-616.317	-84.063	0.370	-0.119
-615.303	-82.207	-0.175	0.058
-614.288	411.109	0.093	-0.198
-613.273	-8.860	0.092	0.063
-612.259	-200.000	0.005	0.226
-611.244	-44.794	-0.124	-0.062
-610.230	-18.354	-0.099	-0.062
-609.215	-176.240	0.193	0.005
-608.201	4.527	-0.137	-0.101
-607.186	-78.948	-0.186	-0.064
-606.171	800.000	0.106	0.308
-605.157	800.000	-0.002	0.007
-604.142	-18.525	-0.273	0.172
-603.128	-200.000	0.031	0.235
-602.113	800.000	-0.066	0.266
-601.098	800.000	-0.041	0.180
-600.084	800.000	0.060	0.195
-599.069	-10.236	-0.060	0.040
-598.055	-26.815	0.026	0.015
-597.040	-200.000	0.037	-0.207
-596.025	43.804	-0.339	-0.313
-595.011	-78.696	-0.170	-0.058
-593.996	-125.613	-0.198	0.030
-592.982	-200.000	-0.028	0.307
-591.967	-127.266	0.219	0.032
-590.952	127.619	-0.186	-0.239
-589.938	87.665	-0.132	-0.147
-588.923	-200.000	0.052	-0.233
-587.909	780.407	0.023	-0.065
-586.894	149.277	0.220	-0.301
-585.879	-200.000	0.053	-0.426
-584.865	227.593	0.192	-0.314
-583.850	-200.000	-0.014	-0.348
-582.836	-46.527	-0.438	0.217
-581.821	-200.000	0.046	0.345
-580.806	-25.123	0.185	0.110
-579.792	-12.713	-0.050	-0.033
-578.777	43.593	-0.357	0.330
-577.763	-69.341	-0.128	0.050
-576.748	185.387	-0.111	-0.167
-575.733	-132.507	-0.193	-0.025
-574.719	-44.085	0.102	0.051
-573.704	341.652	-0.037	0.074
-572.690	-108.661	-0.160	-0.035
-571.675	-200.000	-0.216	-0.001
-570.661	84.755	-0.086	0.095
-569.646	-55.515	-0.229	-0.104
-568.631	-82.645	0.044	-0.014
-567.617	-2.333	-0.032	-0.022
-566.602	-23.341	-0.069	-0.042
-565.588	-144.440	0.242	0.023
-564.573	92.521	-0.193	0.219
-563.558	439.967	0.148	0.326
-562.544	-200.000	0.006	-0.392
-561.529	-119.863	0.138	0.024
-560.515	-84.705	-0.268	0.085
-559.500	121.694	0.179	-0.224
-558.485	181.215	0.211	-0.313
-557.471	-200.000	-0.023	0.187
-556.456	-200.000	0.031	-0.259
-555.442	92.785	-0.060	0.068
-554.427	473.699	0.128	0.292
-553.412	-152.783	0.177	-0.013
-552.398	-144.152	-0.306	-0.029
-551.383	-200.000	-0.032	-0.244
-550.369	-143.966	0.202	0.019
-549.354	800.000	0.065	-0.237
-548.339	-30.861	-0.171	-0.097
-547.325	-200.000	0.008	-0.048
-546.310	800.000	-0.095	-0.300
-545.296	800.000	-0.035	-0.129
-544.281	-7.953	-0.347	-0.236
-543.266	-200.000	0.005	0.065
-542.252	50.342	0.118	-0.112
-541.237	800.000	0.022	0.090
-540.223	800.000	-0.123	-0.376
-539.208	720.853	-0.015	-0.040
-538.193	758.389	-0.030	-0.081
-537.179	-200.000	-0.059	-0.378
-536.164	-29.057	0.169	0.098
-535.150	75.488	0.090	-0.096
-534.135	11.273	0.105	-0.081
-533.121	57.918	-0.198	-0.195
-532.106	-200.000	0.012	-0.118
-531.091	18.917	-0.062	-0.050
-530.077	-200.000	-0.001	0.224
-529.062	36.407	-0.135	-0.120
-528.048	-66.184	0.379	0.152
-527.033	-30.026	0.086	0.049
-526.018	97.537	-0.207	0.239
-525.004	98.611	0.189	-0.220
-523.989	-133.566	0.270	-0.034
-522.975	-200.000	0.048	-0.233
-521.960	-200.000	0.023	0.321
-520.945	-131.197	0.157	0.021
-519.931	-36.993	0.141	0.076
-518.916	-200.000	0.006	-0.112
-517.902	-38.167	-0.257	0.137
-516.887	-71.093	-0.312	-0.118
-515.872	55.484	-0.101	0.098
-514.858	115.618	0.219	-0.270
-513.843	-149.744	0.483	-0.038
-512.829	-46.211	0.165	0.082
-511.814	126.452	-0.225	0.286
-510.799	-119.696	0.168	-0.029
-509.785	-81.801	-0.330	-0.109
-508.770	55.832	0.213	-0.208
-507.756	-200.000	0.051	0.485
-506.741	33.588	0.020	-0.017
-505.726	800.000	0.089	-0.282
-504.712	-200.000	-0.036	0.214
-503.697	-74.776	-0.122	0.044
-502.683	-200.000	-0.367	-0.002
-501.668	172.964	-0.145	0.210
-500.653	-200.000	0.006	-0.261
-499.639	74.716	-0.183	-0.193
-498.624	-92.966	0.121	0.034
-497.610	-28.221	-0.072	0.042
-496.595	-200.000	0.036	0.241
-495.581	-10.359	-0.232	-0.155
-494.566	-105.684	-0.308	-0.070
-493.551	-14.015	0.204	0.133
-492.537	160.079	0.128	-0.180
-491.522	-104.049	-0.092	-0.022
-490.508	69.412	0.152	0.157
-489.493	31.201	0.201	-0.173
-488.478	-46.230	-0.105	-0.052
-487.464	-188.672	0.355	-0.004
-486.449	-13.090	0.214	-0.140
-485.435	800.000	-0.074	-0.224
-484.420	676.632	-0.045	-0.118
-483.405	257.047	-0.087	0.150
-482.391	57.258	0.096	0.094
-481.376	-182.823	-0.210	-0.004
-480.362	70.676	-0.152	0.158
-479.347	126.960	0.185	-0.235
-478.332	-110.810	-0.091	0.019
-477.318	-140.067	0.163	-0.017
-476.303	-54.468	-0.206	-0.094
-475.289	168.988	-0.150	-0.215
-474.274	-115.175	-0.077	-0.015
-473.259	-200.000	-0.028	-0.196
-472.245	346.868	-0.065	0.129
-471.230	-27.427	0.251	-0.147
-470.216	287.291	0.144	-0.262
-469.201	800.000	0.032	-0.139
-468.186	76.714	-0.074	-0.079
-467.172	25.544	0.128	0.107
-466.157	111.752	0.090	-0.109
-465.143	466.778	0.076	0.170
-464.128	96.955	-0.142	-0.163
-463.113	-55.228	-0.093	0.042
-462.099	85.653	0.247	-0.272
-461.084	-200.000	-0.008	-0.131
-460.070	53.640	0.084	0.081
-459.055	-16.885	-0.198	0.125
-458.040	623.665	-0.229	0.579
-457.026	545.583	-0.112	0.269
-456.011	-83.495	-0.175	0.056
-454.997	-54.693	0.284	0.129
-453.982	50.954	0.331	0.314
-452.968	78.937	-0.248	0.266
-451.953	75.153	-0.155	0.164
-450.938	57.071	-0.093	-0.091
-449.924	-200.000	0.001	0.083
-448.909	333.720	-0.087	-0.168
-447.895	64.148	-0.207	-0.209
-446.880	-200.000	0.038	-0.236
-445.865	-200.000	-0.002	-0.242
-444.851	-200.000	0.038	-0.206
-443.836	-62.918	0.276	-0.115
-442.822	-200.000	-0.064	0.379
-441.807	369.963	0.154	0.312
-440.792	-140.482	-0.259	0.027
-439.778	17.110	-0.183	0.146
-438.763	800.000	-0.037	-0.145
-437.749	-177.598	0.209	-0.005
-436.734	50.230	-0.219	0.207
-435.719	226.693	-0.152	-0.248
-434.705	-123.839	-0.400	0.063
-433.690	-65.948	-0.202	0.081
-432.676	-173.439	-0.106	-0.003
-431.661	-125.800	-0.159	0.024
-430.646	22.657	-0.217	0.178
-429.632	-22.851	-0.098	0.059
-428.617	-5.580	0.066	0.046
-427.603	-121.626	-0.091	0.015
-426.588	-200.000	-0.006	0.164
-425.573	54.826	0.167	0.162
-424.559	76.666	-0.221	0.235
-423.544	-40.844	0.275	0.143
-422.530	800.000	0.107	-0.393
-421.515	-106.869	-0.049	0.011
-420.500	-200.000	-0.067	-0.346
-419.486	800.000	-0.082	0.291
-418.471	-162.628	-0.082	0.004
-417.457	-106.511	-0.245	-0.055
-416.442	-200.000	-0.033	-0.199
-415.428	147.400	0.123	-0.166
-414.413	117.614	0.191	0.236
-413.398	-65.513	0.251	0.101
-412.384	-99.796	0.111	0.028
-411.369	551.055	-0.116	-0.279
-410.355	34.789	0.255	0.223
-409.340	24.694	0.277	0.230
-408.325	-167.542	-0.317	-0.013
-407.311	107.153	0.279	0.333
-406.296	800.000	-0.119	-0.368
-405.282	-10.659	0.100	0.066
-404.267	780.495	-0.068	0.188
-403.252	-89.531	0.187	0.055
-402.238	466.741	-0.027	0.060
-401.223	-118.904	-0.218	0.038
-400.209	-134.020	0.289	-0.036
-399.194	-123.538	-0.188	-0.030
-398.179	800.000	0.144	0.584
-397.165	107.679	0.194	0.231
-396.150	-200.000	0.004	0.192
-395.136	-34.038	-0.316	0.174
-394.121	217.474	-0.072	-0.115
-393.106	-200.000	0.015	0.287
-392.092	29.994	-0.188	-0.160
-391.077	-200.000	0.015	-0.089
-390.063	-17.349	-0.272	0.171
-389.048	-200.000	0.016	0.254
-388.033	-120.527	0.380	0.065
-387.019	83.427	-0.079	0.087
-386.004	800.000	0.057	0.174
-384.990	-200.000	0.056	-0.399
-383.975	305.847	0.105	-0.196
-382.960	-28.303	0.342	-0.198
-381.946	-200.000	0.016	-0.308
-380.931	97.210	-0.029	0.033
-379.917	800.000	-0.108	0.405
-378.902	689.268	0.053	0.138
-377.888	394.696	-0.079	-0.164
-376.873	800.000	0.111	0.311
-375.858	-121.144	-0.548	-0.092
-374.844	-142.202	0.238	-0.024
-373.829	780.987	0.142	0.390
-372.815	133.251	-0.057	-0.074
-371.800	-65.876	-0.046	-0.018
-370.785	-200.000	-0.015	-0.206
-369.771	-200.000	0.012	0.077
-368.756	134.521	0.151	-0.196
-367.742	-102.878	0.313	-0.074
-366.727	11.106	-0.130	0.100
-365.712	-81.160	0.107	-0.036
-364.698	43.730	-0.241	-0.220
-363.683	-70.333	0.117	0.044
-362.669	218.895	-0.009	0.014
-361.654	-200.000	0.014	-0.461
-360.639	-145.907	-0.175	-0.015
-359.625	-53.181	0.269	0.123
-358.610	-200.000	-0.011	-0.064
-357.596	-200.000	0.018	-0.178
-356.581	575.989	-0.088	-0.214
-355.566	800.000	-0.034	0.109
-354.552	-200.000	-0.005	-0.144
-353.537	252.462	0.075	-0.128
-352.523	267.965	-0.081	-0.142
-351.508	-163.963	-0.238	-0.011
-350.493	-181.843	-0.322	0.006
-349.479	-173.823	0.193	-0.006
-348.464	-55.285	0.316	-0.142
-347.450	73.312	-0.121	0.126
-346.435	800.000	-0.067	-0.252
-345.420	13.139	-0.234	0.181
-344.406	19.693	0.216	-0.173
-343.391	330.342	-0.038	-0.073
-342.377	-200.000	-0.058	-0.321
-341.362	800.000	-0.065	-0.181
-340.348	466.831	0.133	-0.299
-339.333	800.000	-0.069	0.292
-338.318	-50.005	0.155	0.074
-337.304	-83.580	-0.107	-0.034
-336.289	-13.335	-0.202	0.131
-335.275	-200.000	-0.049	-0.279
-334.260	-122.265	-0.087	-0.014
-333.245	-140.611	0.460	0.048
-332.231	54.765	0.187	0.180
-331.216	61.851	0.108	0.107
-330.202	403.468	0.135	-0.285
-329.187	13.703	0.231	0.179
-328.172	-118.240	-0.242	0.043
-327.158	-107.111	0.059	0.013
-326.143	114.003	0.286	0.348
-325.129	-70.457	0.258	0.098
-324.114	-64.222	-0.221	0.090
-323.099	-74.236	0.294	-0.106
-322.085	800.000	0.018	0.077
-321.070	-84.915	-0.328	-0.103
-320.056	221.774	-0.157	-0.251
-319.041	139.441	-0.298	-0.392
-318.026	92.617	-0.075	-0.084
-317.012	-200.000	-0.065	0.387
-315.997	112.335	0.135	-0.163
-314.983	41.435	0.248	0.224
-313.968	69.311	-0.190	-0.195
-312.953	-71.378	-0.159	0.060
-311.939	-200.000	-0.021	0.550
-310.924	222.683	0.114	0.184
-309.910	-100.496	0.487	-0.120
-308.895	71.842	0.258	-0.267
-307.880	-85.661	0.105	0.033
-306.866	800.000	-0.073	0.292
-305.851	-102.074	-0.259	0.062
-304.837	-101.797	0.270	0.065
-303.822	-200.000	0.022	-0.151
-302.807	8.429	-0.278	-0.209
-301.793	244.474	0.363	-0.609
-300.778	-172.641	0.220	-0.007
-299.764	-91.972	0.588	-0.166
-298.749	-200.000	-0.046	-0.218
-297.735	150.114	0.118	-0.160
-296.720	96.634	0.190	0.217
-295.705	-70.406	0.093	-0.035
-294.691	135.826	-0.186	0.241
-293.676	84.226	0.127	0.139
-292.662	800.000	0.108	0.298
-291.647	2.198	-0.228	-0.164
-290.632	352.521	0.075	0.147
-289.618	-200.000	-0.051	0.304
-288.603	-112.315	0.270	0.054
-287.589	-79.617	-0.346	0.117
-286.574	800.000	0.085	0.276
-285.559	-114.078	-0.269	0.052
-284.545	-144.601	0.146	-0.013
-283.530	-13.212	-0.365	-0.236
-282.516	37.627	-0.073	-0.064
-281.501	800.000	0.033	0.098
-280.486	70.882	-0.112	-0.116
-279.472	-15.184	0.273	0.174
-278.457	631.380	-0.058	0.147
-277.443	-106.918	-0.439	0.097
-276.428	-200.000	-0.014	-0.071
-275.413	104.214	0.232	0.272
-274.399	47.935	-0.175	-0.163
-273.384	-200.000	0.010	-0.406
-272.370	800.000	0.203	-0.723
-271.355	474.370	-0.060	-0.134
-270.340	-200.000	-0.015	-0.067
-269.326	-19.185	0.478	0.296
-268.311	-150.234	0.459	-0.035
-267.297	203.551	-0.090	0.138
-266.282	800.000	0.037	-0.111
-265.267	-42.726	0.131	-0.066
-264.253	-17.253	-0.199	0.125
-263.238	-200.000	-0.012	0.250
-262.224	198.391	0.105	0.160
-261.209	106.352	0.222	-0.262
-260.195	-121.908	0.287	-0.047
-259.180	438.241	-0.093	-0.203
-258.165	11.185	-0.127	0.097
-257.151	-158.525	-0.290	-0.017
-256.136	800.000	0.066	0.194
-255.122	332.739	0.179	0.344
-254.107	800.000	-0.126	-0.354
-253.092	-43.037	-0.150	-0.076
-252.078	305.595	-0.089	-0.165
-251.063	-200.000	-0.046	0.286
-250.049	-200.000	-0.008	-0.179
-249.034	72.878	-0.107	-0.111
-248.019	607.271	-0.113	-0.280
-247.005	-200.000	0.025	-0.289
-245.990	-118.197	-0.216	-0.038
-244.976	163.791	0.043	0.060
-243.961	-200.000	-0.017	0.090
-242.946	-6.764	0.171	-0.116
-241.932	82.586	-0.096	-0.104
-240.917	-61.035	-0.132	-0.056
-239.903	-143.686	-0.031	-0.003
-238.888	-150.167	-0.404	-0.031
-237.873	440.204	0.102	-0.222
-236.859	135.481	0.272	0.353
-235.844	800.000	-0.063	-0.195
-234.830	-199.221	-0.126	-0.001
-233.815	431.519	0.085	-0.184
-232.800	-86.356	-0.234	-0.072
-231.786	202.026	0.150	-0.230
-230.771	332.593	0.070	0.134
-229.757	-200.000	0.005	-0.048
-228.742	201.118	-0.146	0.224
-227.727	9.286	0.110	-0.083
-226.713	800.000	0.055	0.172
-225.698	-200.000	-0.001	-0.383
-224.684	-200.000	0.012	-0.222
-223.669	-5.131	-0.181	-0.124
-222.655	-71.014	-0.115	-0.043
-221.640	668.242	0.028	-0.072
-220.625	-200.000	-0.019	-0.145
-219.611	582.341	0.109	-0.265
-218.596	420.999	0.069	0.147
-217.582	606.513	0.084	0.208
-216.567	-83.737	-0.226	0.072
-215.552	-146.626	0.192	-0.017
-214.538	-79.541	0.269	0.090
-213.523	-200.000	0.003	0.254
-212.509	-55.862	0.302	0.134
-211.494	-61.104	0.198	0.083
-210.479	-200.000	-0.008	-0.191
-209.465	800.000	0.080	0.283
-208.450	261.743	0.102	0.176
-207.436	-106.411	0.253	0.056
-206.421	112.235	-0.054	0.065
-205.406	93.689	0.193	-0.217
-204.392	82.291	0.114	-0.123
-203.377	-200.000	-0.000	-0.018
-202.363	-176.548	0.345	0.009
-201.348	85.993	-0.094	-0.103
-200.333	-200.000	0.044	-0.211
-199.319	-200.000	-0.033	0.424
-198.304	-60.552	0.324	0.137
-197.290	687.348	-0.069	-0.180
-196.275	10.665	-0.259	-0.196
-195.260	366.106	-0.071	-0.142
-194.246	800.000	0.031	0.090
-193.231	76.617	0.151	-0.159
-192.217	-5.687	-0.173	0.118
-191.202	40.875	-0.132	-0.119
-190.187	116.088	0.160	-0.194
-189.173	261.019	-0.185	0.317
-188.158	77.064	-0.197	-0.208
-187.144	-118.123	0.439	0.078
-186.129	-200.000	0.033	0.292
-185.114	-135.679	0.294	-0.035
-184.100	186.535	-0.213	0.315
-183.085	708.358	0.048	0.125
-182.071	120.336	0.283	0.349
-181.056	-55.756	0.091	-0.040
-180.042	-18.476	0.150	0.093
-179.027	96.602	0.093	-0.105
-178.012	72.955	-0.074	-0.077
-176.998	-98.262	0.164	0.042
-175.983	-120.939	0.297	-0.050
-174.969	231.862	0.134	0.218
-173.954	7.322	-0.173	-0.128
-172.939	-200.000	-0.003	0.019
-171.925	68.656	-0.198	0.201
-170.910	91.445	0.046	-0.051
-169.896	-63.549	-0.354	-0.144
-168.881	-29.895	0.019	0.011
-167.866	800.000	-0.025	0.081
-166.852	-200.000	0.018	-0.083
-165.837	29.630	0.285	-0.240
-164.823	-200.000	-0.016	-0.163
-163.808	20.103	-0.287	0.230
-162.793	485.062	-0.088	-0.198
-161.779	20.725	-0.294	-0.236
-160.764	76.804	-0.166	0.174
-159.750	-200.000	0.011	0.338
-158.735	-200.000	0.092	0.571
-157.720	-41.656	0.068	0.035
-156.706	-168.748	0.175	0.007
-155.691	-136.825	-0.431	-0.049
-154.677	219.218	0.070	0.111
-153.662	-157.140	0.141	-0.009
-152.647	-24.772	0.179	-0.106
-151.633	-41.979	0.147	-0.075
-150.618	44.648	0.226	-0.206
-149.604	-180.147	0.244	0.005
-148.589	72.768	-0.162	-0.168
-147.574	474.887	0.103	-0.230
-146.560	207.668	-0.146	-0.227
-145.545	-67.202	0.183	0.071
-144.531	-66.517	0.121	0.047
-143.516	-123.081	-0.270	0.043
-142.502	-10.933	0.082	0.054
-141.487	-97.405	-0.125	-0.032
-140.472	800.000	-0.017	-0.045
-139.458	-128.881	-0.087	0.012
-138.443	377.387	-0.030	0.061
-137.429	-84.535	-0.162	-0.051
-136.414	-200.000	-0.001	0.110
-135.399	-200.000	-0.009	0.118
-134.385	-200.000	0.228	0.000
-133.370	380.690	0.113	-0.229
-132.356	78.985	-0.132	0.140
-131.341	-43.080	0.273	0.137
-130.326	151.018	0.109	0.147
-129.312	-155.900	0.163	-0.010
-128.297	459.342	-0.101	-0.224
-127.283	800.000	0.032	0.098
-126.268	-23.618	0.100	0.059
-125.253	500.821	-0.142	0.324
-124.239	-196.473	0.339	0.002
-123.224	-78.581	0.352	-0.119
-122.210	-74.444	-0.284	-0.101
