DTS Sentinel unit serial number:	SN413079Multiplexer serial number:	ORYXHardware model number:	OX4-SRSoftware version number:	ORYX F/W v4.00 Oryx Data Collector v3.7.2.0data status	okinstallation	princeton_trtdifferential loss correction	single-endedforward channel	channel 4reverse channel	N/Adate	2019/09/19time	03:33:34forward acquisition time	60.00reverse acquisition time	0.00gamma	496.2192k internal	0.2340k external	0.2340temperature offset calibration	1.0028default loss term (dB/km)	0.3790temperature slope calibration	1.0000multiplexer offset coefficient	1.0000multiplexer slope coefficient	1.0000fibre end	0.00T internal ref (°C)	20.61T ext. ref 1 (°C)	0.64T ext. ref 2 (°C)	14.43length (m)	temperature (°C)	Stokes	anti-Stokes-747.200	-34.950	0.381	0.208
-746.185	-24.325	0.358	0.214
-745.171	-41.007	0.216	-0.112
-744.156	135.478	-0.070	0.092
-743.142	-114.282	0.149	-0.029
-742.127	-56.955	-0.143	0.063
-741.112	-107.335	-0.259	-0.057
-740.098	-2.271	-0.188	-0.132
-739.083	-64.057	-0.182	-0.074
-738.069	800.000	-0.113	0.340
-737.054	-200.000	-0.021	-0.143
-736.039	-40.393	-0.125	0.065
-735.025	53.492	0.175	0.168
-734.010	-131.986	-0.587	-0.077
-732.996	-200.000	-0.049	0.224
-731.981	-125.660	-0.304	-0.046
-730.966	-94.111	-0.237	-0.065
-729.952	-200.000	-0.021	-0.095
-728.937	-139.262	-0.369	-0.040
-727.923	223.025	0.081	-0.130
-726.908	-200.000	-0.037	0.335
-725.894	800.000	0.084	-0.300
-724.879	800.000	-0.095	-0.341
-723.864	75.400	-0.126	0.133
-722.850	474.504	-0.123	-0.278
-721.835	-43.228	0.265	-0.134
-720.821	117.532	0.111	-0.136
-719.806	578.883	0.065	-0.160
-718.791	510.776	0.037	0.085
-717.777	800.000	0.058	-0.181
-716.762	348.108	-0.118	0.233
-715.748	-97.808	0.209	0.054
-714.733	-137.236	0.124	-0.014
-713.718	-32.165	0.189	-0.106
-712.704	-94.434	-0.060	0.016
-711.689	35.830	0.109	0.096
-710.675	-144.487	-0.274	0.025
-709.660	124.819	-0.100	0.126
-708.645	-55.621	0.142	0.064
-707.631	299.965	0.095	-0.175
-706.616	-200.000	0.010	0.043
-705.602	-91.740	0.159	-0.045
-704.587	-103.519	0.225	0.053
-703.572	-145.310	0.227	-0.021
-702.558	203.630	0.263	-0.407
-701.543	85.287	0.064	-0.071
-700.529	800.000	-0.061	0.238
-699.514	155.209	0.045	-0.062
-698.499	-129.321	-0.248	-0.034
-697.485	-200.000	-0.021	0.398
-696.470	271.978	-0.057	0.101
-695.456	-82.498	0.084	-0.027
-694.441	-200.000	-0.041	-0.223
-693.426	-200.000	0.046	-0.497
-692.412	-89.691	-0.182	0.053
-691.397	431.085	0.119	0.257
-690.383	-200.000	0.047	-0.207
-689.368	-200.000	-0.003	0.047
-688.354	245.482	0.013	0.022
-687.339	-81.841	0.235	-0.077
-686.324	-200.000	0.030	0.196
-685.310	125.186	-0.142	0.179
-684.295	-128.624	0.325	-0.046
-683.281	181.121	0.060	0.088
-682.266	382.821	-0.035	-0.072
-681.251	-0.701	-0.144	-0.102
-680.237	287.446	-0.031	0.055
-679.222	-24.626	-0.162	-0.096
-678.208	-9.437	0.180	0.120
-677.193	-101.900	-0.165	-0.040
-676.178	106.980	0.297	-0.353
-675.164	-60.335	-0.090	-0.038
-674.149	-54.193	0.229	-0.104
-673.135	43.636	0.125	-0.115
-672.120	-200.000	0.007	0.119
-671.105	31.537	0.153	-0.132
-670.091	53.760	-0.344	-0.330
-669.076	-200.000	0.001	0.251
-668.062	-73.854	-0.207	-0.075
-667.047	768.799	-0.116	0.315
-666.032	62.848	-0.276	0.276
-665.018	343.764	-0.026	0.051
-664.003	29.123	0.182	-0.155
-662.989	-200.000	-0.045	-0.206
-661.974	-143.363	-0.215	-0.021
-660.959	72.270	-0.226	0.235
-659.945	116.346	-0.150	0.183
-658.930	-200.000	-0.087	0.470
-657.916	149.127	0.067	0.090
-656.901	510.471	-0.093	0.216
-655.886	-200.000	0.014	-0.083
-654.872	-176.209	0.123	0.003
-653.857	-38.532	0.049	-0.026
-652.843	182.692	0.110	-0.162
-651.828	-73.530	0.123	0.045
-650.814	-61.154	0.416	-0.175
-649.799	168.711	-0.065	0.092
-648.784	-200.000	0.001	0.165
-647.770	-112.021	-0.401	-0.081
-646.755	-80.438	0.257	0.086
-645.741	-54.864	-0.079	-0.036
-644.726	-200.000	0.011	0.108
-643.711	145.083	-0.213	-0.284
-642.697	130.192	-0.046	-0.058
-641.682	-200.000	-0.024	-0.105
-640.668	-200.000	-0.031	0.167
-639.653	257.352	-0.200	-0.344
-638.638	89.320	-0.209	-0.233
-637.624	29.452	-0.102	0.086
-636.609	800.000	-0.057	0.201
-635.595	-110.779	-0.449	-0.092
-634.580	342.380	0.164	-0.320
-633.565	800.000	-0.077	-0.218
-632.551	85.935	-0.092	-0.101
-631.536	31.397	-0.010	-0.009
-630.522	-105.244	0.208	-0.047
-629.507	800.000	0.083	0.299
-628.492	-67.021	-0.144	0.057
-627.478	800.000	0.012	-0.045
-626.463	-87.162	0.133	0.040
-625.449	-200.000	-0.007	-0.176
-624.434	-200.000	0.041	-0.245
-623.419	158.430	0.277	0.383
-622.405	109.543	-0.339	0.405
-621.390	193.574	0.144	0.218
-620.376	639.370	-0.042	0.106
-619.361	800.000	0.019	-0.077
-618.346	-22.619	0.114	0.069
-617.332	387.741	0.044	-0.091
-616.317	-17.755	-0.221	-0.138
-615.303	335.053	-0.151	-0.292
-614.288	800.000	-0.082	-0.237
-613.273	224.663	-0.116	0.187
-612.259	-23.840	0.247	0.148
-611.244	-200.000	-0.019	0.160
-610.230	296.182	-0.033	0.060
-609.215	-113.374	-0.207	-0.041
-608.201	-24.894	-0.143	0.085
-607.186	-77.559	-0.319	-0.110
-606.171	-200.000	-0.013	-0.176
-605.157	-59.384	0.166	-0.071
-604.142	-200.000	-0.033	-0.196
-603.128	-0.658	-0.106	-0.075
-602.113	518.815	-0.102	0.238
-601.098	-200.000	0.002	0.254
-600.084	-3.717	-0.075	-0.052
-599.069	-105.554	-0.158	-0.036
-598.055	-38.570	-0.092	0.048
-597.040	312.424	0.115	-0.214
-596.025	93.441	-0.208	0.234
-595.011	-108.077	-0.120	-0.026
-593.996	52.178	-0.094	0.089
-592.982	-102.838	0.064	0.015
-591.967	-187.389	-0.196	0.003
-590.952	-200.000	-0.029	-0.272
-589.938	168.209	-0.038	-0.054
-588.923	-86.382	0.143	-0.044
-587.909	-173.551	0.256	0.008
-586.894	-27.207	-0.453	-0.263
-585.879	-106.523	0.468	0.104
-584.865	594.437	0.057	0.141
-583.850	43.630	-0.142	0.129
-582.836	-103.220	0.237	-0.056
-581.821	-49.587	-0.261	-0.124
-580.806	684.029	-0.223	0.579
-579.792	119.671	-0.134	-0.165
-578.777	8.260	0.225	0.168
-577.763	24.156	0.158	0.130
-576.748	-200.000	-0.081	0.357
-575.733	-200.000	-0.038	0.457
-574.719	-70.393	-0.341	-0.129
-573.704	-92.763	0.016	0.004
-572.690	32.014	0.221	0.189
-571.675	800.000	-0.081	-0.283
-570.661	234.253	-0.035	-0.057
-569.646	-21.120	0.481	-0.293
-568.631	89.289	-0.092	-0.102
-567.617	32.097	0.194	0.166
-566.602	82.432	-0.171	0.185
-565.588	120.725	-0.082	-0.102
-564.573	112.786	0.015	0.018
-563.558	75.205	0.090	0.095
-562.544	-41.824	-0.165	0.084
-561.529	800.000	0.049	-0.187
-560.515	220.035	0.090	0.144
-559.500	-22.325	-0.214	0.129
-558.485	-200.000	-0.042	-0.183
-557.471	65.717	-0.239	0.241
-556.456	-139.861	0.071	-0.007
-555.442	7.473	-0.147	-0.109
-554.427	-200.000	-0.031	-0.343
-553.412	-163.012	-0.285	0.014
-552.398	-200.000	0.002	-0.210
-551.383	-200.000	0.010	0.108
-550.369	325.495	0.118	0.225
-549.354	-142.465	0.172	0.017
-548.339	348.971	0.175	0.343
-547.325	-134.938	-0.121	-0.015
-546.310	-131.990	-0.351	0.045
-545.296	29.504	0.198	-0.168
-544.281	-0.423	-0.237	-0.168
-543.266	800.000	0.033	0.135
-542.252	-76.630	-0.171	0.060
-541.237	-87.726	0.143	0.043
-540.223	-153.791	0.149	0.010
-539.208	800.000	-0.050	0.140
-538.193	-72.206	0.200	0.074
-537.179	-170.575	-0.291	0.010
-536.164	-60.774	0.173	0.073
-535.150	-57.446	0.112	-0.049
-534.135	19.420	-0.424	-0.339
-533.121	131.933	-0.119	0.153
-532.106	-112.152	-0.259	-0.052
-531.091	800.000	0.089	0.327
-530.077	-159.417	-0.228	0.013
-529.062	343.717	0.109	-0.212
-528.048	-76.191	0.120	-0.042
-527.033	800.000	0.023	0.101
-526.018	210.350	0.045	0.070
-525.004	205.928	0.097	0.150
-523.989	439.113	-0.154	-0.334
-522.975	800.000	0.034	0.112
-521.960	-200.000	0.001	0.172
-520.945	-200.000	-0.052	-0.363
-519.931	-127.724	0.153	0.022
-518.916	-200.000	-0.047	0.227
-517.902	246.952	0.065	0.109
-516.887	167.815	-0.210	-0.297
-515.872	-36.937	-0.098	0.052
-514.858	137.954	-0.096	-0.125
-513.843	71.043	0.201	-0.207
-512.829	-11.353	0.075	-0.049
-511.814	83.152	-0.270	0.292
-510.799	-137.803	-0.077	0.009
-509.785	1.186	-0.042	-0.030
-508.770	-200.000	0.003	0.021
-507.756	98.375	0.157	-0.180
-506.741	-200.000	-0.005	-0.194
-505.726	-45.974	-0.062	0.031
-504.712	111.062	0.029	0.034
-503.697	-200.000	-0.001	-0.172
-502.683	719.721	-0.100	-0.263
-501.668	-37.462	-0.261	0.138
-500.653	94.606	-0.130	-0.147
-499.639	-116.934	0.061	-0.011
-498.624	-189.500	-0.125	0.001
-497.610	3.785	0.217	0.157
-496.595	26.555	-0.065	0.054
-495.581	126.962	-0.048	0.061
-494.566	-200.000	0.026	-0.219
-493.551	-190.060	-0.167	-0.002
-492.537	-38.505	-0.285	-0.149
-491.522	800.000	0.060	-0.181
-490.508	-84.637	-0.075	0.024
-489.493	-54.216	-0.075	0.034
-488.478	-200.000	-0.038	-0.224
-487.464	-200.000	-0.013	0.351
-486.449	732.826	-0.156	0.414
-485.435	-65.441	0.333	0.133
-484.420	-185.823	-0.067	0.001
-483.405	-200.000	-0.082	-0.427
-482.391	-47.856	0.163	-0.078
-481.376	-11.987	-0.170	-0.111
-480.362	83.350	0.229	-0.248
-479.347	700.507	-0.084	-0.219
-478.332	-200.000	0.014	0.128
-477.318	344.873	-0.047	-0.091
-476.303	-73.099	0.322	0.117
-475.289	-200.000	-0.080	-0.480
-474.274	-178.156	-0.141	-0.003
-473.259	3.884	0.276	-0.200
-472.245	-145.191	-0.230	0.021
-471.230	-200.000	-0.056	0.535
-470.216	-200.000	0.038	-0.172
-469.201	-55.941	0.234	0.103
-468.186	800.000	-0.033	-0.118
-467.172	-200.000	-0.036	-0.222
-466.157	-35.250	-0.408	0.220
-465.143	-130.274	0.257	0.035
-464.128	555.776	0.048	0.116
-463.113	-120.941	-0.146	-0.024
-462.099	-38.956	0.155	-0.081
-461.084	230.909	-0.093	0.152
-460.070	356.859	0.096	0.189
-459.055	427.442	-0.105	0.224
-458.040	800.000	-0.086	-0.277
-457.026	94.937	0.188	0.212
-456.011	-135.562	0.276	0.033
-454.997	-73.552	-0.360	-0.130
-453.982	-93.414	0.234	0.064
-452.968	371.241	-0.132	-0.265
-451.953	686.844	0.086	0.222
-450.938	300.882	0.169	-0.309
-449.924	-40.117	-0.209	0.108
-448.909	-174.243	-0.209	-0.006
-447.895	-49.738	0.244	0.115
-446.880	-64.780	0.063	0.025
-445.865	-141.474	0.158	0.016
-444.851	256.231	-0.126	-0.214
-443.836	-154.023	0.234	-0.016
-442.822	-28.338	-0.113	-0.065
-441.807	-97.626	-0.095	-0.025
-440.792	54.326	-0.135	-0.129
-439.778	-158.240	0.145	0.008
-438.763	-48.697	0.154	0.073
-437.749	-27.292	-0.226	0.130
-436.734	-153.764	0.258	-0.018
-435.719	4.092	-0.155	-0.112
-434.705	-200.000	-0.010	0.143
-433.690	-102.784	0.035	-0.008
-432.676	-35.550	-0.451	-0.243
-431.661	-142.676	0.089	-0.009
-430.646	361.313	-0.084	0.167
-429.632	706.469	0.056	0.147
-428.617	-56.378	-0.138	-0.061
-427.603	-72.048	-0.363	0.134
-426.588	-200.000	0.014	0.118
-425.573	219.098	-0.103	0.163
-424.559	-11.014	0.224	0.146
-423.544	-200.000	-0.026	0.253
-422.530	800.000	0.055	-0.187
-421.515	204.971	-0.135	-0.208
-420.500	-200.000	-0.047	-0.258
-419.486	-200.000	0.023	-0.342
-418.471	-131.227	-0.165	0.022
-417.457	-37.055	-0.283	0.150
-416.442	422.042	-0.178	-0.377
-415.428	215.696	0.198	-0.312
-414.413	-200.000	-0.024	0.263
-413.398	-200.000	-0.020	0.169
-412.384	467.307	-0.117	0.260
-411.369	800.000	0.090	-0.270
-410.355	220.216	-0.120	0.191
-409.340	800.000	0.038	-0.132
-408.325	249.113	0.053	0.089
-407.311	-200.000	-0.036	0.195
-406.296	-78.263	-0.146	0.049
-405.282	86.713	-0.113	-0.123
-404.267	-162.091	0.210	-0.010
-403.252	-149.697	-0.279	0.022
-402.238	-39.983	-0.229	-0.118
-401.223	0.782	0.065	-0.046
-400.209	-129.488	0.275	0.038
-399.194	-20.729	-0.083	0.051
-398.179	180.488	-0.135	-0.196
-397.165	20.382	0.128	-0.102
-396.150	-200.000	0.052	0.232
-395.136	-147.532	0.178	-0.015
-394.121	532.307	0.088	0.205
-393.106	121.899	-0.268	-0.331
-392.092	800.000	-0.022	-0.094
-391.077	30.362	-0.064	0.054
-390.063	-200.000	0.018	0.132
-389.048	-195.326	-0.328	-0.002
-388.033	-79.374	0.239	0.080
-387.019	-200.000	0.019	0.241
-386.004	119.254	-0.222	0.272
-384.990	327.014	0.103	0.196
-383.975	-35.245	-0.458	-0.246
-382.960	-135.355	-0.272	0.032
-381.946	47.549	0.151	-0.139
-380.931	-93.141	0.249	0.069
-379.917	202.282	0.187	0.286
-378.902	77.877	-0.054	0.056
-377.888	449.920	0.057	-0.125
-376.873	-19.531	-0.179	-0.109
-375.858	-89.902	-0.053	-0.015
-374.844	-70.522	0.098	-0.037
-373.829	-11.456	0.205	0.133
-372.815	-200.000	-0.006	0.103
-371.800	385.879	-0.032	-0.065
-370.785	39.503	-0.044	-0.039
-369.771	-18.447	-0.296	0.182
-368.756	-200.000	-0.002	0.168
-367.742	-102.231	0.116	0.027
-366.727	88.365	0.215	-0.236
-365.712	1.936	-0.120	0.085
-364.698	800.000	0.096	0.283
-363.683	800.000	0.129	0.387
-362.669	196.660	0.117	0.176
-361.654	800.000	0.034	0.098
-360.639	-12.481	-0.170	-0.109
-359.625	-200.000	0.032	-0.460
-358.610	-95.581	0.301	0.080
-357.596	-108.004	0.211	-0.045
-356.581	380.373	-0.039	-0.078
-355.566	-200.000	0.013	-0.095
-354.552	-131.196	-0.150	0.020
-353.537	238.862	-0.123	0.202
-352.523	-161.706	-0.127	-0.006
-351.508	3.530	0.030	-0.021
-350.493	-37.095	-0.145	0.077
-349.479	-200.000	0.001	0.129
-348.464	-96.730	0.545	0.142
-347.450	-200.000	-0.007	-0.154
-346.435	269.179	0.157	0.273
-345.420	-200.000	-0.044	-0.239
-344.406	-140.062	0.074	0.008
-343.391	-92.540	0.200	-0.056
-342.377	-25.889	0.291	-0.169
-341.362	-26.244	-0.111	-0.065
-340.348	708.514	-0.067	0.174
-339.333	-200.000	0.034	0.304
-338.318	-200.000	-0.016	-0.273
-337.304	-75.290	0.153	-0.054
-336.289	1.121	-0.186	0.131
-335.275	48.817	-0.100	-0.092
-334.260	-200.000	0.023	-0.311
-333.245	-107.287	0.463	0.100
-332.231	-19.963	-0.148	-0.090
-331.216	-200.000	0.017	-0.198
-330.202	-163.718	-0.292	-0.014
-329.187	9.262	-0.024	0.018
-328.172	52.161	-0.030	-0.028
-327.158	800.000	0.037	-0.138
-326.143	722.117	0.109	-0.285
-325.129	231.732	-0.064	-0.104
-324.114	-200.000	0.004	0.041
-323.099	-200.000	0.003	0.053
-322.085	-22.435	0.090	-0.054
-321.070	-31.273	0.097	-0.054
-320.056	-29.638	0.281	-0.158
-319.041	-93.511	0.099	-0.027
-318.026	-26.506	0.135	-0.078
-317.012	-10.408	0.173	-0.113
-315.997	-127.359	0.400	-0.057
-314.983	43.808	-0.207	-0.187
-313.968	-12.498	-0.104	0.067
-312.953	300.397	0.217	0.395
-311.939	41.128	-0.146	-0.130
-310.924	-200.000	0.003	0.062
-309.910	800.000	-0.017	0.052
-308.895	-200.000	0.018	-0.157
-307.880	-163.921	0.241	0.011
-306.866	-188.941	0.267	0.003
-305.851	-200.000	0.027	0.127
-304.837	536.560	-0.045	0.106
-303.822	195.472	0.294	0.440
-302.807	21.432	0.146	-0.117
-301.793	-158.299	-0.221	0.013
-300.778	-200.000	0.007	-0.165
-299.764	301.668	0.087	-0.158
-298.749	-68.242	0.353	-0.135
-297.735	320.644	-0.136	-0.254
-296.720	800.000	0.021	-0.080
-295.705	800.000	-0.019	-0.070
-294.691	11.493	-0.135	0.102
-293.676	-33.944	0.281	-0.153
-292.662	-200.000	-0.027	-0.264
-291.647	800.000	0.069	0.252
-290.632	-83.821	-0.287	0.090
-289.618	-200.000	0.048	0.277
-288.603	13.271	0.176	-0.134
-287.589	9.656	0.175	-0.131
-286.574	800.000	-0.061	0.221
-285.559	-32.440	0.204	0.112
-284.545	-59.652	0.112	0.047
-283.530	743.477	0.027	0.072
-282.516	-17.674	0.102	-0.063
-281.501	105.720	0.196	0.228
-280.486	-200.000	0.006	0.246
-279.472	800.000	-0.015	-0.059
-278.457	-115.555	-0.346	0.064
-277.443	481.909	-0.089	0.198
-276.428	-200.000	-0.034	0.192
-275.413	-200.000	0.004	-0.091
-274.399	-69.865	0.070	-0.026
-273.384	-200.000	0.014	-0.105
-272.370	-79.456	0.314	0.104
-271.355	128.815	0.167	0.209
-270.340	205.405	0.108	-0.165
-269.326	-133.537	0.321	-0.040
-268.311	-137.452	-0.358	-0.040
-267.297	-113.644	-0.378	-0.073
-266.282	405.310	-0.132	-0.274
-265.267	-132.964	-0.209	0.026
-264.253	66.341	0.236	0.235
-263.238	-200.000	0.054	0.423
-262.224	284.241	0.057	0.101
-261.209	42.444	0.245	0.219
-260.195	173.656	-0.122	-0.174
-259.180	-200.000	-0.050	-0.342
-258.165	-200.000	0.018	0.088
-257.151	-118.255	0.119	-0.021
-256.136	-200.000	0.068	-0.347
-255.122	-8.924	-0.271	-0.178
-254.107	316.880	0.271	0.504
-253.092	-200.000	0.004	0.218
-252.078	-106.499	0.273	-0.060
-251.063	287.274	-0.175	0.310
-250.049	-43.124	0.102	0.051
-249.034	265.424	-0.195	-0.334
-248.019	538.564	0.018	0.042
-247.005	-55.750	-0.205	0.090
-245.990	800.000	0.066	-0.191
-244.976	-110.971	-0.250	-0.051
-243.961	-60.647	0.285	-0.119
-242.946	95.243	0.312	-0.350
-241.932	-99.796	-0.212	0.052
-240.917	-187.731	-0.215	0.003
-239.903	-19.049	0.152	0.093
-238.888	-200.000	-0.064	0.414
-237.873	-157.183	0.349	0.021
-236.859	77.357	0.169	-0.177
-235.844	-139.327	-0.242	-0.026
-234.830	-141.168	0.344	0.034
-233.815	-200.000	-0.038	-0.275
-232.800	-136.593	0.143	0.016
-231.786	67.070	0.124	0.124
-230.771	-76.121	0.388	0.135
-229.757	-55.913	0.294	-0.129
-228.742	-6.353	-0.257	0.173
-227.727	-35.761	0.257	-0.137
-226.713	-200.000	-0.016	-0.188
-225.698	-50.559	-0.106	0.049
-224.684	-6.412	0.123	-0.082
-223.669	-39.502	0.337	0.174
-222.655	-6.472	-0.107	-0.072
-221.640	-200.000	-0.015	0.218
-220.625	75.238	-0.084	0.087
-219.611	-50.587	0.141	0.065
-218.596	1.702	0.194	-0.137
-217.582	-188.983	0.144	-0.002
-216.567	-96.940	-0.153	-0.039
-215.552	9.057	0.044	-0.033
-214.538	-76.790	-0.121	-0.042
-213.523	-121.335	0.291	0.048
-212.509	-134.650	-0.096	-0.011
-211.494	-54.117	0.216	-0.097
-210.479	-200.000	-0.009	-0.048
-209.465	-200.000	0.187	0.000
-208.450	-77.567	-0.133	-0.045
-207.436	4.056	0.453	0.325
-206.421	66.828	-0.026	-0.026
-205.406	-200.000	0.005	0.293
-204.392	311.466	-0.071	-0.131
-203.377	-65.292	-0.083	0.033
-202.363	263.390	-0.043	-0.073
-201.348	-200.000	-0.057	-0.307
-200.333	195.418	0.051	-0.076
-199.319	-142.728	-0.266	-0.025
-198.304	107.185	0.071	-0.083
-197.290	-40.672	-0.132	0.067
-196.275	435.190	0.106	0.226
-195.260	52.712	-0.205	-0.192
-194.246	319.063	-0.169	-0.314
-193.231	90.304	0.186	0.204
-192.217	-130.228	-0.162	0.022
-191.202	-200.000	-0.001	-0.298
-190.187	800.000	-0.083	-0.340
-189.173	-123.797	-0.476	0.074
-188.158	152.005	0.109	-0.146
-187.144	-118.606	0.133	-0.023
-186.129	7.366	-0.108	-0.079
-185.114	800.000	-0.102	0.304
-184.100	-87.440	-0.164	0.049
-183.085	67.768	0.193	0.193
-182.071	49.506	-0.042	0.039
-181.056	-90.850	-0.141	-0.040
-180.042	153.212	-0.079	0.106
-179.027	-166.124	0.162	0.007
-178.012	269.311	-0.106	-0.183
-176.998	361.082	0.093	0.184
-175.983	-200.000	0.011	-0.121
-174.969	-41.685	0.183	0.092
-173.954	-137.543	-0.090	-0.010
-172.939	32.595	-0.180	0.152
-171.925	-31.823	0.181	0.099
-170.910	287.832	-0.040	-0.070
-169.896	800.000	0.065	-0.198
-168.881	-68.778	-0.098	0.037
-167.866	298.938	0.173	-0.312
-166.852	-200.000	-0.022	0.211
-165.837	-200.000	0.023	0.238
-164.823	-116.977	-0.201	-0.036
-163.808	-44.183	0.274	-0.135
-162.793	-111.888	0.522	0.103
-161.779	-200.000	0.013	0.181
-160.764	95.136	-0.112	0.125
-159.750	58.411	0.217	0.209
-158.735	800.000	0.011	0.030
-157.720	-22.622	0.193	0.114
-156.706	640.543	0.154	-0.384
-155.691	259.794	0.142	-0.241
-154.677	-200.000	-0.032	-0.175
-153.662	-30.261	-0.060	0.034
-152.647	-103.909	-0.072	-0.017
-151.633	-200.000	0.000	0.128
-150.618	-114.973	-0.415	-0.077
-149.604	-56.657	0.206	-0.089
-148.589	-2.213	0.236	-0.162
-147.574	42.854	-0.339	-0.303
-146.560	55.262	-0.204	-0.193
-145.545	131.587	0.155	0.195
-144.531	800.000	0.102	-0.278
-143.516	477.901	-0.119	-0.264
-142.502	-111.291	-0.261	-0.052
-141.487	800.000	0.134	-0.401
-140.472	46.687	0.104	-0.095
-139.458	31.648	0.184	0.155
-138.443	800.000	-0.089	0.293
-137.429	800.000	0.023	-0.084
-136.414	749.013	-0.139	-0.366
-135.399	52.163	-0.142	-0.132
-134.385	-69.076	0.231	0.087
-133.370	36.800	-0.066	-0.057
-132.356	-145.354	0.273	-0.024
-131.341	64.940	-0.115	-0.114
-130.326	82.564	-0.080	0.085
-129.312	-200.000	0.018	0.133
-128.297	-80.648	-0.193	-0.063
-127.283	90.916	-0.223	-0.244
-126.268	-75.598	-0.284	-0.099
-125.253	598.552	-0.098	0.239
-124.239	285.075	0.033	-0.059
-123.224	-38.062	0.218	0.113
-122.210	-200.000	-0.017	0.195
