DTS Sentinel unit serial number:	SN413079Multiplexer serial number:	ORYXHardware model number:	OX4-SRSoftware version number:	ORYX F/W v4.00 Oryx Data Collector v3.7.2.0data status	okinstallation	princeton_trtdifferential loss correction	single-endedforward channel	channel 4reverse channel	N/Adate	2019/09/17time	10:13:34forward acquisition time	60.00reverse acquisition time	0.00gamma	496.2192k internal	0.2311k external	0.2311temperature offset calibration	0.9972default loss term (dB/km)	0.3790temperature slope calibration	1.0000multiplexer offset coefficient	1.0000multiplexer slope coefficient	1.0000fibre end	0.00T internal ref (°C)	29.81T ext. ref 1 (°C)	0.16T ext. ref 2 (°C)	25.28length (m)	temperature (°C)	Stokes	anti-Stokes-747.200	-200.000	0.026	0.239
-746.185	309.614	-0.097	-0.184
-745.171	-88.597	-0.276	0.083
-744.156	-138.682	-0.049	-0.005
-743.142	33.592	-0.032	-0.028
-742.127	480.989	0.123	0.282
-741.112	20.263	-0.245	0.201
-740.098	-113.421	-0.145	0.029
-739.083	27.174	0.175	-0.149
-738.069	65.532	0.058	-0.059
-737.054	591.052	-0.047	0.118
-736.039	-200.000	-0.033	-0.400
-735.025	31.420	0.220	0.192
-734.010	-94.688	-0.202	-0.056
-732.996	91.916	-0.115	-0.131
-731.981	7.509	-0.309	-0.234
-730.966	-82.427	-0.265	0.087
-729.952	-200.000	0.011	0.123
-728.937	800.000	0.164	-0.516
-727.923	108.068	-0.140	-0.169
-726.908	-200.000	0.021	-0.276
-725.894	-125.604	-0.189	-0.029
-724.879	-190.946	0.028	-0.000
-723.864	-200.000	-0.014	0.177
-722.850	-43.088	0.097	0.050
-721.835	0.159	-0.208	0.151
-720.821	-11.452	-0.127	0.085
-719.806	-65.356	-0.207	0.084
-718.791	279.888	-0.096	-0.174
-717.777	-36.674	-0.359	-0.196
-716.762	-67.779	0.185	0.074
-715.748	791.446	0.089	-0.249
-714.733	112.372	0.124	-0.152
-713.718	339.484	0.095	-0.188
-712.704	-59.864	0.190	-0.082
-711.689	-8.365	-0.125	-0.085
-710.675	-200.000	0.055	0.628
-709.660	294.578	-0.130	-0.241
-708.645	207.133	0.088	0.139
-707.631	153.260	-0.203	-0.281
-706.616	684.230	-0.109	-0.288
-705.602	303.864	0.219	-0.412
-704.587	10.306	-0.234	0.180
-703.572	800.000	0.136	0.464
-702.558	-11.393	0.218	0.146
-701.543	26.606	-0.206	-0.175
-700.529	-166.596	0.373	0.016
-699.514	-93.316	-0.264	-0.074
-698.499	80.007	-0.098	-0.107
-697.485	661.330	-0.142	-0.372
-696.470	667.943	0.085	0.224
-695.456	-200.000	-0.031	-0.205
-694.441	-94.984	0.286	-0.078
-693.426	-35.693	-0.043	-0.024
-692.412	467.850	0.094	-0.214
-691.397	-49.293	-0.221	-0.107
-690.383	-200.000	-0.017	-0.219
-689.368	42.902	-0.199	-0.184
-688.354	-149.379	0.136	0.011
-687.339	-73.432	-0.101	-0.037
-686.324	800.000	-0.012	-0.045
-685.310	176.811	0.103	-0.152
-684.295	49.031	0.345	0.328
-683.281	-200.000	0.023	-0.164
-682.266	69.613	0.320	-0.334
-681.251	-78.077	-0.184	-0.064
-680.237	-124.704	-0.245	-0.038
-679.222	-73.324	0.090	-0.033
-678.208	-159.943	-0.225	-0.012
-677.193	393.295	0.123	-0.259
-676.178	-119.066	0.192	-0.034
-675.164	-170.126	-0.283	0.010
-674.149	-200.000	-0.001	0.223
-673.135	-200.000	-0.016	-0.202
-672.120	353.465	0.112	-0.226
-671.105	-26.666	-0.117	-0.069
-670.091	-130.596	-0.099	-0.013
-669.076	-108.136	0.426	-0.093
-668.062	-66.174	-0.294	0.119
-667.047	10.076	-0.259	0.199
-666.032	-104.941	0.301	-0.070
-665.018	52.447	-0.082	-0.080
-664.003	140.281	0.154	-0.205
-662.989	-84.404	0.130	-0.042
-661.974	-117.287	-0.169	-0.031
-660.959	43.094	-0.261	-0.241
-659.945	-180.627	0.335	0.007
-658.930	308.393	0.108	-0.204
-657.916	800.000	-0.068	0.248
-656.901	61.915	0.015	0.015
-655.886	697.097	-0.077	0.205
-654.872	800.000	-0.089	0.337
-653.857	15.042	0.317	0.251
-652.843	397.618	0.030	-0.063
-651.828	-200.000	-0.001	-0.063
-650.814	800.000	-0.040	0.141
-649.799	591.166	-0.080	-0.200
-648.784	-152.960	0.047	-0.003
-647.770	464.683	-0.233	0.528
-646.755	184.251	-0.156	0.234
-645.741	54.457	-0.091	0.088
-644.726	-131.317	-0.388	-0.052
-643.711	-66.817	0.290	0.116
-642.697	-45.443	0.183	-0.092
-641.682	-57.202	-0.191	-0.085
-640.668	8.110	0.086	0.065
-639.653	86.726	-0.127	-0.142
-638.638	66.974	-0.174	-0.179
-637.624	-40.182	-0.197	-0.104
-636.609	75.053	-0.037	-0.039
-635.595	586.734	0.065	0.163
-634.580	-169.820	0.340	0.012
-633.565	41.257	0.039	0.035
-632.551	64.783	0.102	0.104
-631.536	189.800	0.081	-0.122
-630.522	472.920	-0.092	0.210
-629.507	427.852	-0.019	0.042
-628.492	585.804	-0.179	-0.446
-627.478	-112.372	-0.152	-0.031
-626.463	71.991	0.068	-0.072
-625.449	-93.869	-0.170	-0.047
-624.434	-44.771	-0.032	0.016
-623.419	-64.546	-0.066	-0.027
-622.405	46.440	0.251	-0.235
-621.390	-200.000	0.008	0.115
-620.376	-85.702	-0.145	0.045
-619.361	226.087	-0.151	0.247
-618.346	800.000	0.038	0.110
-617.332	-61.016	0.273	0.116
-616.317	114.732	0.051	0.063
-615.303	482.355	-0.193	-0.442
-614.288	-106.576	-0.351	0.079
-613.273	131.556	-0.058	0.075
-612.259	101.744	-0.208	-0.245
-611.244	-200.000	0.024	-0.151
-610.230	31.698	0.104	0.091
-609.215	800.000	-0.069	0.244
-608.201	-95.216	-0.112	0.030
-607.186	453.473	-0.036	0.081
-606.171	-4.067	0.128	-0.090
-605.157	50.638	-0.052	-0.050
-604.142	800.000	-0.081	0.266
-603.128	800.000	0.062	0.177
-602.113	-153.863	-0.102	-0.007
-601.098	-200.000	-0.018	-0.253
-600.084	-48.982	-0.055	0.027
-599.069	-200.000	0.015	0.183
-598.055	800.000	0.078	0.252
-597.040	186.507	-0.164	0.246
-596.025	106.051	0.090	-0.108
-595.011	276.673	0.068	-0.122
-593.996	256.266	0.031	0.054
-592.982	-74.736	-0.216	-0.078
-591.967	800.000	0.152	0.494
-590.952	-15.140	-0.071	0.046
-589.938	-57.776	-0.312	0.138
-588.923	800.000	-0.130	0.450
-587.909	-125.084	-0.376	-0.058
-586.894	800.000	0.084	-0.333
-585.879	3.731	0.059	-0.043
-584.865	-129.532	-0.174	-0.024
-583.850	293.825	-0.243	-0.448
-582.836	800.000	0.067	0.218
-581.821	-200.000	-0.001	-0.027
-580.806	-5.590	0.261	-0.181
-579.792	-200.000	0.006	0.304
-578.777	-66.609	-0.230	0.092
-577.763	307.377	-0.081	-0.151
-576.748	46.956	0.202	0.189
-575.733	-110.126	-0.179	-0.038
-574.719	195.555	0.161	-0.247
-573.704	800.000	-0.086	-0.245
-572.690	-167.404	-0.081	-0.003
-571.675	-48.307	0.073	0.036
-570.661	-163.235	0.092	-0.004
-569.646	800.000	-0.077	-0.308
-568.631	800.000	-0.089	-0.280
-567.617	-125.172	-0.361	0.056
-566.602	-200.000	-0.052	-0.449
-565.588	-121.087	0.286	0.048
-564.573	-77.492	-0.230	-0.080
-563.558	-51.620	0.246	0.116
-562.544	21.737	-0.218	-0.179
-561.529	-108.705	-0.162	-0.035
-560.515	225.005	-0.188	0.307
-559.500	18.863	0.182	-0.147
-558.485	-5.564	-0.272	-0.188
-557.471	281.545	0.041	0.074
-556.456	11.306	0.129	0.100
-555.442	28.515	0.304	-0.259
-554.427	-27.912	0.057	0.033
-553.412	-117.265	0.008	-0.001
-552.398	-71.826	-0.139	-0.052
-551.383	170.291	-0.226	0.326
-550.369	-83.115	-0.145	-0.047
-549.354	572.500	-0.146	-0.360
-548.339	560.861	0.102	0.247
-547.325	441.805	0.308	0.679
-546.310	12.221	-0.176	-0.137
-545.296	163.080	0.155	0.219
-544.281	150.796	0.086	-0.117
-543.266	335.782	0.051	0.100
-542.252	214.654	0.075	0.119
-541.237	-200.000	-0.025	-0.219
-540.223	-132.074	0.281	0.037
-539.208	182.406	0.099	-0.147
-538.193	-16.467	-0.100	-0.064
-537.179	3.169	-0.226	0.166
-536.164	465.111	0.110	0.248
-535.150	31.861	0.173	0.150
-534.135	-23.287	-0.129	-0.078
-533.121	489.733	-0.063	-0.145
-532.106	206.470	-0.045	-0.071
-531.091	12.987	0.384	-0.299
-530.077	-175.537	-0.266	0.007
-529.062	-98.865	0.246	-0.063
-528.048	276.656	0.017	-0.031
-527.033	-78.672	0.173	0.059
-526.018	800.000	0.017	0.070
-525.004	9.999	0.193	-0.147
-523.989	-200.000	-0.002	-0.241
-522.975	49.726	0.392	-0.372
-521.960	-200.000	-0.029	-0.205
-520.945	231.597	0.066	-0.108
-519.931	-55.962	0.340	-0.153
-518.916	-85.857	-0.217	-0.068
-517.902	-24.912	0.286	0.171
-516.887	54.139	-0.185	0.179
-515.872	-200.000	-0.023	0.218
-514.858	-109.696	0.235	-0.050
-513.843	-87.546	0.310	0.094
-512.829	800.000	-0.179	0.640
-511.814	-54.787	0.195	0.089
-510.799	-200.000	0.016	-0.127
-509.785	31.287	-0.143	-0.124
-508.770	6.846	0.097	-0.073
-507.756	-200.000	0.202	0.000
-506.741	222.195	0.051	-0.082
-505.726	-95.376	-0.068	0.018
-504.712	800.000	-0.047	0.135
-503.697	57.741	0.204	0.200
-502.683	800.000	0.055	0.192
-501.668	-85.973	0.132	0.041
-500.653	-200.000	-0.031	0.176
-499.639	-65.687	0.180	-0.072
-498.624	-97.978	-0.167	0.043
-497.610	334.510	0.204	0.398
-496.595	12.148	0.264	-0.204
-495.581	41.426	0.226	0.205
-494.566	-200.000	-0.005	-0.064
-493.551	36.220	-0.203	0.180
-492.537	-11.272	-0.283	-0.188
-491.522	-200.000	-0.046	-0.329
-490.508	-200.000	-0.008	-0.151
-489.493	304.108	0.096	0.179
-488.478	272.542	0.153	0.271
-487.464	-200.000	0.012	-0.215
-486.449	796.508	0.045	0.124
-485.435	-29.233	-0.465	0.268
-484.420	-200.000	-0.096	-0.478
-483.405	248.917	0.035	0.059
-482.391	317.159	0.089	0.168
-481.376	117.322	0.051	0.063
-480.362	-73.535	0.089	-0.033
-479.347	60.281	-0.165	0.164
-478.332	22.297	-0.214	-0.176
-477.318	235.059	-0.206	-0.341
-476.303	-200.000	0.036	-0.314
-475.289	-200.000	0.006	-0.061
-474.274	-200.000	-0.092	-0.457
-473.259	75.910	0.175	0.186
-472.245	-200.000	-0.014	0.127
-471.230	284.223	-0.049	-0.089
-470.216	248.403	-0.151	0.257
-469.201	-100.220	0.150	-0.038
-468.186	-115.961	0.129	-0.024
-467.172	-28.213	0.136	0.079
-466.157	-200.000	0.042	0.382
-465.143	5.135	0.175	0.129
-464.128	-125.380	0.299	0.046
-463.113	41.381	0.120	-0.109
-462.099	270.872	0.225	-0.397
-461.084	-16.579	0.037	0.023
-460.070	-44.735	-0.244	-0.122
-459.055	-21.884	-0.186	0.114
-458.040	-200.000	0.022	0.248
-457.026	-30.258	-0.176	-0.101
-456.011	-134.684	-0.406	0.050
-454.997	44.692	0.315	-0.291
-453.982	-200.000	-0.052	-0.249
-452.968	-200.000	-0.026	-0.196
-451.953	-200.000	-0.010	0.113
-450.938	146.364	-0.127	0.171
-449.924	800.000	0.068	0.230
-448.909	-200.000	0.000	0.262
-447.895	12.290	-0.140	0.108
-446.880	-185.760	0.207	-0.003
-445.865	-109.865	-0.185	-0.039
-444.851	-153.044	-0.380	-0.027
-443.836	-55.498	0.053	0.024
-442.822	191.589	0.212	-0.320
-441.807	72.986	-0.093	-0.097
-440.792	93.945	-0.056	-0.064
-439.778	-138.473	-0.350	0.039
-438.763	-29.626	0.064	-0.036
-437.749	800.000	0.066	0.223
-436.734	541.964	-0.119	-0.285
-435.719	184.132	0.114	0.169
-434.705	119.421	-0.170	0.211
-433.690	38.181	-0.130	-0.116
-432.676	44.505	0.022	0.020
-431.661	742.382	0.094	0.254
-430.646	-200.000	-0.043	-0.324
-429.632	800.000	-0.019	-0.065
-428.617	154.589	-0.191	-0.264
-427.603	-7.367	-0.231	-0.157
-426.588	14.126	0.284	0.222
-425.573	30.940	0.308	-0.265
-424.559	200.496	-0.114	0.176
-423.544	-140.881	-0.075	0.008
-422.530	-200.000	-0.016	0.139
-421.515	-74.773	0.140	0.050
-420.500	493.445	-0.126	0.289
-419.486	52.997	-0.192	-0.185
-418.471	608.955	-0.084	0.209
-417.457	-178.585	0.132	0.003
-416.442	-50.156	-0.252	-0.119
-415.428	105.780	0.197	-0.234
-414.413	591.834	0.116	0.288
-413.398	-57.248	-0.154	-0.068
-412.384	-40.228	0.228	-0.119
-411.369	727.097	-0.022	0.060
-410.355	800.000	-0.120	0.497
-409.340	372.824	-0.121	0.246
-408.325	800.000	-0.017	0.067
-407.311	800.000	0.025	-0.095
-406.296	106.260	0.249	-0.296
-405.282	-200.000	0.022	0.100
-404.267	62.617	0.063	-0.063
-403.252	800.000	-0.086	0.322
-402.238	-113.928	-0.360	0.070
-401.223	121.435	-0.319	0.398
-400.209	335.602	0.141	0.275
-399.194	217.528	-0.128	-0.205
-398.179	202.085	0.256	-0.395
-397.165	348.106	-0.070	-0.139
-396.150	-158.533	0.228	-0.013
-395.136	-32.296	0.189	-0.106
-394.121	-85.165	0.311	-0.097
-393.106	800.000	-0.035	0.133
-392.092	-136.187	-0.297	0.035
-391.077	-163.516	0.473	-0.022
-390.063	153.066	-0.129	-0.177
-389.048	-57.209	0.052	-0.023
-388.033	29.757	-0.220	-0.187
-387.019	16.994	-0.188	-0.149
-386.004	-26.615	-0.169	0.099
-384.990	-181.407	-0.305	-0.006
-383.975	181.809	-0.141	0.208
-382.960	-60.118	0.313	0.133
-381.946	452.835	-0.106	0.236
-380.931	800.000	-0.018	0.063
-379.917	-119.371	-0.165	0.029
-378.902	-200.000	-0.037	-0.178
-377.888	93.055	0.149	-0.168
-376.873	195.657	0.120	0.182
-375.858	-200.000	0.010	0.084
-374.844	800.000	0.085	-0.291
-373.829	-174.478	-0.098	0.003
-372.815	64.434	0.429	-0.433
-371.800	-15.222	-0.092	-0.059
-370.785	800.000	-0.049	-0.166
-369.771	-140.136	0.312	-0.033
-368.756	-200.000	-0.004	0.178
-367.742	-200.000	-0.051	-0.237
-366.727	82.718	-0.149	0.162
-365.712	386.278	-0.043	-0.088
-364.698	-29.577	0.262	0.149
-363.683	756.358	0.043	-0.117
-362.669	344.334	0.160	0.315
-361.654	800.000	0.077	0.269
-360.639	-200.000	-0.005	-0.214
-359.625	-200.000	-0.053	-0.446
-358.610	-102.670	0.346	-0.082
-357.596	59.329	-0.156	0.153
-356.581	-84.754	0.137	0.043
-355.566	-200.000	-0.035	-0.188
-354.552	-2.511	0.226	-0.158
-353.537	-22.640	-0.303	0.183
-352.523	800.000	0.050	-0.167
-351.508	-35.836	-0.047	-0.026
-350.493	800.000	-0.023	-0.094
-349.479	390.208	-0.133	0.276
-348.464	21.258	0.348	0.282
-347.450	-29.120	0.241	0.138
-346.435	-149.714	0.129	-0.010
-345.420	364.597	-0.061	0.123
-344.406	58.915	0.113	0.111
-343.391	-200.000	0.007	0.061
-342.377	-200.000	-0.079	0.410
-341.362	-123.261	-0.262	-0.042
-340.348	800.000	0.041	-0.126
-339.333	8.403	0.021	-0.016
-338.318	-43.627	-0.142	-0.072
-337.304	800.000	0.056	-0.234
-336.289	406.201	0.083	0.175
-335.275	-25.901	0.203	0.119
-334.260	190.831	-0.062	-0.093
-333.245	-53.629	0.332	0.152
-332.231	41.723	0.047	0.043
-331.216	-67.905	-0.262	-0.102
-330.202	-52.105	-0.226	-0.105
-329.187	-200.000	-0.020	-0.170
-328.172	471.873	-0.047	-0.106
-327.158	242.895	0.099	0.165
-326.143	-178.383	0.379	-0.009
-325.129	-200.000	0.011	-0.208
-324.114	-136.396	-0.070	0.008
-323.099	176.752	0.100	-0.145
-322.085	800.000	0.056	0.238
-321.070	36.663	-0.173	-0.152
-320.056	170.475	-0.080	-0.115
-319.041	-18.375	-0.104	-0.065
-318.026	800.000	0.043	-0.159
-317.012	-132.412	0.082	0.011
-315.997	227.303	0.052	-0.085
-314.983	-80.363	-0.125	-0.042
-313.968	-20.592	-0.279	0.171
-312.953	113.356	0.071	-0.086
-311.939	-29.892	-0.105	-0.060
-310.924	205.995	0.232	-0.360
-309.910	800.000	-0.073	0.248
-308.895	-35.653	-0.187	0.101
-307.880	-75.023	-0.435	0.155
-306.866	800.000	0.024	-0.076
-305.851	-20.110	0.210	0.129
-304.837	78.632	-0.169	-0.180
-303.822	-14.668	-0.027	0.017
-302.807	134.121	0.205	0.265
-301.793	-200.000	-0.008	0.155
-300.778	72.423	0.120	0.125
-299.764	-122.793	0.303	-0.049
-298.749	-98.681	0.073	-0.019
-297.735	85.062	0.294	0.322
-296.720	-133.128	-0.211	0.027
-295.705	33.898	0.192	0.167
-294.691	-9.282	-0.199	-0.133
-293.676	-94.437	0.126	-0.034
-292.662	-109.724	-0.321	-0.067
-291.647	800.000	-0.086	0.264
-290.632	473.125	-0.025	0.056
-289.618	-200.000	0.032	-0.381
-288.603	-0.390	0.321	0.227
-287.589	-138.716	-0.183	0.020
-286.574	-177.987	0.356	0.008
-285.559	-117.206	-0.274	0.050
-284.545	-76.434	-0.246	0.086
-283.530	-95.399	0.017	-0.005
-282.516	96.416	0.344	0.392
-281.501	-200.000	0.005	-0.371
-280.486	15.854	0.130	-0.102
-279.472	-110.717	-0.162	-0.033
-278.457	800.000	-0.057	-0.211
-277.443	163.604	0.103	-0.144
-276.428	800.000	-0.105	-0.325
-275.413	800.000	-0.040	0.153
-274.399	514.774	-0.061	-0.142
-273.384	-37.887	-0.088	-0.047
-272.370	109.000	-0.010	-0.011
-271.355	-133.807	0.185	0.023
-270.340	-200.000	-0.041	0.333
-269.326	800.000	0.070	0.276
-268.311	-200.000	-0.033	0.203
-267.297	800.000	-0.078	-0.337
-266.282	159.147	-0.052	0.072
-265.267	-123.524	-0.058	-0.009
-264.253	242.722	0.134	0.223
-263.238	43.053	-0.141	-0.128
-262.224	-26.256	-0.174	-0.102
-261.209	-86.152	0.084	-0.026
-260.195	193.439	0.093	-0.139
-259.180	149.903	-0.190	-0.257
-258.165	-68.791	0.195	-0.075
-257.151	-47.017	0.118	0.057
-256.136	703.370	-0.107	-0.282
-255.122	208.880	0.088	-0.137
-254.107	11.858	0.139	0.106
-253.092	134.873	0.180	-0.232
-252.078	-73.965	0.377	0.136
-251.063	366.894	0.122	-0.245
-250.049	17.365	0.437	0.346
-249.034	-28.646	-0.149	0.086
-248.019	56.123	0.189	0.183
-247.005	535.327	-0.041	0.097
-245.990	-200.000	-0.005	-0.085
-244.976	-33.192	-0.377	0.208
-243.961	124.274	0.160	-0.200
-242.946	-67.114	-0.297	0.117
-241.932	90.855	0.077	0.086
-240.917	800.000	0.075	-0.301
-239.903	262.575	0.154	-0.266
-238.888	-81.781	-0.095	0.031
-237.873	-38.095	-0.096	-0.051
-236.859	800.000	0.078	-0.265
-235.844	163.068	0.144	0.202
-234.830	-45.134	0.226	-0.112
-233.815	-39.988	-0.238	0.123
-232.800	-115.167	-0.103	0.019
-231.786	-120.079	-0.107	-0.018
-230.771	102.838	-0.111	-0.129
-229.757	493.100	-0.077	0.175
-228.742	-200.000	0.041	-0.271
-227.727	-200.000	-0.037	0.200
-226.713	-200.000	-0.015	0.220
-225.698	148.041	0.173	-0.232
-224.684	39.771	-0.135	0.121
-223.669	-200.000	-0.013	0.220
-222.655	130.015	0.181	0.231
-221.640	163.753	-0.092	0.128
-220.625	-119.203	-0.234	-0.041
-219.611	541.697	0.068	-0.161
-218.596	-139.810	0.252	-0.027
-217.582	-55.434	0.084	-0.038
-216.567	-128.483	0.177	-0.025
-215.552	-5.966	0.164	0.112
-214.538	579.048	-0.042	-0.103
-213.523	176.516	-0.233	-0.336
-212.509	400.330	-0.092	-0.191
-211.494	53.755	0.126	0.121
-210.479	-200.000	0.013	-0.106
-209.465	-200.000	-0.016	-0.307
-208.450	107.663	-0.061	-0.072
-207.436	800.000	-0.029	-0.099
-206.421	-200.000	0.030	0.364
-205.406	142.701	0.283	-0.374
-204.392	-5.401	-0.355	-0.243
-203.377	11.794	0.163	-0.125
-202.363	-59.421	-0.166	0.071
-201.348	800.000	-0.037	-0.140
-200.333	800.000	-0.035	-0.104
-199.319	540.678	-0.097	0.229
-198.304	-10.194	-0.239	-0.157
-197.290	-200.000	0.002	0.194
-196.275	204.539	-0.134	0.207
-195.260	358.341	-0.145	0.288
-194.246	-107.645	0.484	0.105
-193.231	-200.000	-0.021	0.162
-192.217	-62.860	0.264	-0.109
-191.202	-200.000	0.024	0.204
-190.187	77.245	-0.298	-0.315
-189.173	-45.416	-0.246	-0.121
-188.158	110.484	-0.111	0.132
-187.144	448.168	0.216	-0.474
-186.129	-72.530	0.318	0.117
-185.114	-40.172	0.170	-0.088
-184.100	-12.349	-0.221	0.143
-183.085	800.000	0.082	0.264
-182.071	66.965	-0.205	0.208
-181.056	-84.090	0.257	0.081
-180.042	126.894	-0.095	-0.119
-179.027	200.511	0.211	-0.321
-178.012	-200.000	0.012	-0.253
-176.998	-200.000	-0.014	0.195
-175.983	-200.000	0.016	0.113
-174.969	-149.030	-0.403	-0.032
-173.954	16.239	-0.128	0.100
-172.939	-43.239	-0.069	0.035
-171.925	-200.000	0.024	-0.110
-170.910	-99.632	-0.116	-0.029
-169.896	-200.000	-0.005	0.221
-168.881	-200.000	-0.017	0.212
-167.866	-144.342	0.295	0.027
-166.852	-86.233	-0.316	0.096
-165.837	29.752	-0.152	0.128
-164.823	377.580	-0.128	-0.260
-163.808	-68.592	-0.189	0.073
-162.793	248.828	0.166	-0.278
-161.779	446.360	0.036	0.078
-160.764	800.000	-0.047	0.158
-159.750	-182.727	-0.375	-0.007
-158.735	36.066	0.120	-0.105
-157.720	800.000	-0.014	-0.049
-156.706	-200.000	0.034	-0.271
-155.691	149.275	0.286	0.384
-154.677	-200.000	0.016	0.118
-153.662	195.455	0.144	0.217
-152.647	266.174	0.114	-0.197
-151.633	-138.477	0.149	0.016
-150.618	-31.493	0.078	0.043
-149.604	13.528	0.114	-0.087
-148.589	-13.534	-0.203	0.130
-147.574	-200.000	-0.015	0.249
-146.560	-141.772	0.264	-0.026
-145.545	169.268	0.091	0.128
-144.531	-58.443	-0.150	0.064
-143.516	636.470	0.034	-0.086
-142.502	-153.922	0.256	0.017
-141.487	-39.632	0.173	-0.090
-140.472	-200.000	0.022	0.328
-139.458	-200.000	0.002	0.123
-138.443	115.783	0.132	-0.160
-137.429	-64.845	0.270	-0.108
-136.414	-200.000	0.002	0.047
-135.399	-200.000	-0.221	0.001
-134.385	136.224	0.141	-0.182
-133.370	-200.000	0.011	-0.167
-132.356	-16.026	0.269	-0.170
-131.341	-113.715	-0.339	-0.065
-130.326	41.880	-0.266	-0.239
-129.312	-15.790	0.118	0.074
-128.297	-200.000	-0.021	0.108
-127.283	800.000	0.071	-0.204
-126.268	-60.052	0.113	0.048
-125.253	800.000	-0.082	-0.352
-124.239	800.000	0.139	-0.393
-123.224	18.517	-0.083	-0.065
-122.210	-9.414	0.181	0.119
-121.195	97.897	0.210	0.239
