DTS Sentinel unit serial number:	SN413079Multiplexer serial number:	ORYXHardware model number:	OX4-SRSoftware version number:	ORYX F/W v4.00 Oryx Data Collector v3.7.2.0data status	okinstallation	princeton_trtdifferential loss correction	single-endedforward channel	channel 4reverse channel	N/Adate	2019/09/10time	22:51:10forward acquisition time	60.00reverse acquisition time	0.00gamma	496.2192k internal	0.2316k external	0.2316temperature offset calibration	0.9949default loss term (dB/km)	0.3790temperature slope calibration	1.0000multiplexer offset coefficient	1.0000multiplexer slope coefficient	1.0000fibre end	0.00T internal ref (°C)	30.12T ext. ref 1 (°C)	-0.32T ext. ref 2 (°C)	23.49length (m)	temperature (°C)	Stokes	anti-Stokes-747.200	242.862	-0.131	0.222
-746.185	-104.929	-0.103	0.024
-745.171	-48.347	-0.134	0.066
-744.156	50.448	-0.253	0.242
-743.142	-200.000	0.036	-0.333
-742.127	31.703	-0.158	-0.138
-741.112	800.000	-0.076	0.256
-740.098	195.796	0.191	0.295
-739.083	91.732	-0.204	0.233
-738.069	-100.526	-0.487	0.122
-737.054	-78.307	-0.133	0.046
-736.039	-171.328	-0.198	-0.007
-735.025	199.153	0.108	0.167
-734.010	281.293	-0.166	-0.300
-732.996	-118.131	-0.147	0.027
-731.981	-47.996	-0.174	0.085
-730.966	-200.000	-0.009	-0.128
-729.952	450.513	-0.186	-0.415
-728.937	-14.865	-0.300	-0.195
-727.923	43.513	-0.014	-0.013
-726.908	24.370	-0.292	0.244
-725.894	-79.348	0.382	0.131
-724.879	-70.208	-0.140	0.054
-723.864	94.876	-0.186	-0.215
-722.850	-104.423	0.062	0.015
-721.835	-200.000	-0.011	0.124
-720.821	48.686	-0.123	0.116
-719.806	32.776	0.242	-0.212
-718.791	-200.000	0.005	-0.142
-717.777	-2.604	-0.276	-0.196
-716.762	56.008	0.096	-0.094
-715.748	248.757	0.025	-0.042
-714.733	158.295	-0.138	-0.193
-713.718	-87.441	-0.282	0.086
-712.704	-71.622	-0.081	-0.031
-711.689	-103.694	-0.089	0.021
-710.675	-89.659	0.249	0.074
-709.660	-200.000	0.113	-0.582
-708.645	-200.000	-0.034	-0.359
-707.631	-12.304	0.222	0.147
-706.616	-40.554	0.102	-0.054
-705.602	78.689	-0.107	-0.115
-704.587	-94.977	-0.244	-0.067
-703.572	800.000	0.042	0.124
-702.558	-49.711	0.090	0.043
-701.543	691.238	0.097	0.258
-700.529	-154.177	-0.136	0.009
-699.514	-200.000	-0.007	0.249
-698.499	-92.075	-0.299	-0.086
-697.485	527.881	0.117	-0.279
-696.470	89.701	-0.047	0.053
-695.456	-200.000	0.010	-0.071
-694.441	-66.455	-0.396	0.159
-693.426	338.281	-0.255	-0.502
-692.412	-13.330	-0.283	-0.185
-691.397	-100.709	-0.058	-0.015
-690.383	-131.793	-0.349	0.046
-689.368	-95.000	-0.264	-0.072
-688.354	-56.669	0.105	-0.047
-687.339	110.951	-0.057	0.070
-686.324	-134.216	-0.259	-0.032
-685.310	180.401	0.168	0.249
-684.295	-164.062	-0.015	0.001
-683.281	117.040	0.161	-0.200
-682.266	29.813	-0.261	-0.224
-681.251	40.438	-0.225	0.205
-680.237	-124.602	0.214	-0.034
-679.222	27.378	-0.138	-0.117
-678.208	-50.220	-0.372	0.178
-677.193	47.425	-0.175	0.165
-676.178	365.318	0.086	-0.176
-675.164	-121.996	-0.117	0.019
-674.149	316.605	0.207	0.394
-673.135	129.032	0.068	-0.088
-672.120	377.495	-0.163	-0.337
-671.105	-76.704	0.274	-0.097
-670.091	396.281	0.049	-0.104
-669.076	-200.000	0.010	0.056
-668.062	-42.652	-0.170	-0.087
-667.047	-123.006	-0.167	0.027
-666.032	-43.804	-0.141	-0.072
-665.018	205.480	-0.128	0.201
-664.003	-31.447	-0.244	-0.138
-662.989	39.144	-0.134	-0.121
-661.974	349.938	0.295	-0.589
-660.959	-46.018	-0.327	-0.163
-659.945	-5.684	-0.278	-0.192
-658.930	800.000	0.047	-0.141
-657.916	153.606	0.076	0.105
-656.901	-200.000	-0.022	-0.133
-655.886	797.302	0.043	-0.120
-654.872	518.715	-0.084	-0.200
-653.857	-60.175	-0.330	0.142
-652.843	29.322	0.084	0.072
-651.828	-77.759	-0.017	-0.006
-650.814	-200.000	-0.004	-0.248
-649.799	-200.000	0.085	-0.393
-648.784	800.000	0.056	-0.183
-647.770	-53.806	-0.081	0.037
-646.755	123.180	0.072	0.091
-645.741	-81.408	-0.439	0.146
-644.726	-93.201	0.070	-0.020
-643.711	-200.000	-0.062	0.538
-642.697	249.263	0.055	0.094
-641.682	517.222	-0.178	0.421
-640.668	-53.973	0.190	0.087
-639.653	-37.387	-0.146	-0.078
-638.638	234.908	-0.045	-0.076
-637.624	-67.420	-0.216	-0.085
-636.609	800.000	-0.045	0.146
-635.595	800.000	-0.045	-0.169
-634.580	75.682	-0.097	-0.103
-633.565	52.810	-0.196	0.189
-632.551	383.478	0.015	-0.031
-631.536	-5.046	0.132	0.092
-630.522	152.904	-0.105	0.145
-629.507	6.793	0.201	0.151
-628.492	85.001	-0.220	-0.243
-627.478	710.239	0.075	-0.199
-626.463	-67.075	-0.425	0.169
-625.449	-146.910	-0.147	-0.013
-624.434	180.809	-0.183	0.271
-623.419	137.822	-0.074	0.098
-622.405	-200.000	-0.017	-0.118
-621.390	-123.702	0.222	-0.035
-620.376	-200.000	-0.007	0.283
-619.361	-63.441	0.413	0.171
-618.346	-200.000	0.054	-0.249
-617.332	35.468	-0.298	-0.264
-616.317	-200.000	-0.073	-0.423
-615.303	26.503	-0.107	-0.090
-614.288	-148.600	-0.234	0.019
-613.273	307.234	-0.252	0.473
-612.259	-170.060	0.292	0.010
-611.244	-106.367	-0.115	-0.026
-610.230	-196.624	0.652	0.004
-609.215	62.400	0.243	-0.245
-608.201	-128.610	0.267	-0.038
-607.186	109.352	0.190	-0.230
-606.171	-134.909	-0.301	0.037
-605.157	168.377	-0.170	0.244
-604.142	800.000	-0.053	0.174
-603.128	-167.730	0.215	0.009
-602.113	511.107	-0.043	0.100
-601.098	59.639	0.041	-0.041
-600.084	800.000	-0.085	0.282
-599.069	-48.914	0.179	-0.086
-598.055	-89.259	-0.243	-0.072
-597.040	-34.245	0.236	-0.130
-596.025	-8.926	0.026	-0.018
-595.011	23.358	-0.119	-0.098
-593.996	147.535	-0.223	0.302
-592.982	62.208	-0.187	-0.188
-591.967	-140.353	0.003	-0.000
-590.952	274.025	-0.221	0.393
-589.938	108.843	0.029	-0.035
-588.923	382.909	-0.159	-0.329
-587.909	329.679	-0.150	-0.290
-586.894	-121.146	-0.054	0.009
-585.879	-174.661	-0.095	-0.003
-584.865	-114.831	-0.161	-0.031
-583.850	-3.042	0.145	0.102
-582.836	-18.611	0.128	-0.080
-581.821	-176.476	0.236	-0.006
-580.806	452.195	-0.189	0.420
-579.792	-200.000	0.031	-0.203
-578.777	-24.406	-0.222	0.133
-577.763	575.234	-0.053	0.130
-576.748	610.255	0.066	-0.165
-575.733	714.244	0.046	0.123
-574.719	289.700	0.061	0.112
-573.704	209.884	-0.122	-0.192
-572.690	800.000	0.013	0.050
-571.675	-131.117	-0.217	-0.029
-570.661	-79.926	-0.170	-0.058
-569.646	420.676	-0.112	-0.242
-568.631	10.721	-0.373	0.286
-567.617	-200.000	0.030	0.373
-566.602	-117.574	0.057	0.010
-565.588	-86.026	-0.043	0.013
-564.573	-157.635	0.163	0.010
-563.558	-200.000	-0.029	0.178
-562.544	-15.374	0.127	0.082
-561.529	-20.679	-0.083	0.051
-560.515	-90.493	-0.210	0.061
-559.500	-200.000	0.047	-0.369
-558.485	108.881	0.136	0.163
-557.471	29.324	-0.112	-0.096
-556.456	23.718	0.161	-0.133
-555.442	-200.000	-0.016	0.167
-554.427	-200.000	-0.021	-0.191
-553.412	-70.288	-0.214	-0.082
-552.398	131.315	0.356	-0.460
-551.383	-49.408	-0.294	0.141
-550.369	-200.000	0.015	-0.087
-549.354	-88.893	0.284	0.085
-548.339	-200.000	0.005	-0.058
-547.325	97.161	-0.198	-0.228
-546.310	43.881	-0.129	-0.119
-545.296	-86.884	-0.156	-0.048
-544.281	800.000	0.039	-0.164
-543.266	-35.174	0.106	0.058
-542.252	-161.592	-0.342	0.018
-541.237	-200.000	-0.011	-0.059
-540.223	183.154	-0.062	-0.091
-539.208	-200.000	-0.015	-0.335
-538.193	67.818	0.045	-0.046
-537.179	101.578	-0.261	-0.306
-536.164	475.799	-0.052	-0.117
-535.150	-6.074	0.094	0.065
-534.135	800.000	0.013	-0.052
-533.121	-30.839	0.163	0.092
-532.106	-35.415	-0.073	-0.040
-531.091	-114.323	-0.320	-0.062
-530.077	800.000	0.097	-0.288
-529.062	-200.000	-0.018	-0.246
-528.048	-72.094	0.421	0.157
-527.033	484.869	0.094	-0.216
-526.018	184.109	0.192	-0.286
-525.004	-113.133	-0.104	-0.021
-523.989	-16.972	0.037	-0.024
-522.975	-186.624	0.382	0.005
-521.960	-121.531	0.344	0.057
-520.945	-200.000	0.003	0.305
-519.931	70.902	0.023	-0.024
-518.916	103.604	-0.131	-0.154
-517.902	-83.266	-0.317	-0.102
-516.887	41.132	0.337	-0.306
-515.872	-180.708	-0.218	-0.004
-514.858	800.000	0.054	-0.184
-513.843	-140.072	-0.337	0.036
-512.829	687.331	0.179	-0.469
-511.814	78.086	0.082	-0.088
-510.799	-133.325	-0.095	0.012
-509.785	-200.000	-0.006	0.200
-508.770	642.413	-0.057	0.145
-507.756	-200.000	-0.004	0.139
-506.741	-55.847	-0.209	-0.094
-505.726	245.755	-0.055	0.093
-504.712	-200.000	0.043	-0.415
-503.697	-179.536	-0.155	0.003
-502.683	102.339	0.163	0.191
-501.668	-124.883	0.223	0.035
-500.653	-136.838	-0.051	0.006
-499.639	-11.209	-0.263	-0.174
-498.624	-200.000	-0.009	-0.094
-497.610	-37.351	-0.037	-0.020
-496.595	-54.199	-0.420	0.191
-495.581	571.729	0.052	-0.128
-494.566	-119.549	0.259	0.045
-493.551	151.763	0.105	-0.144
-492.537	70.119	0.085	0.088
-491.522	800.000	0.075	-0.214
-490.508	-98.639	0.285	0.073
-489.493	800.000	0.043	-0.134
-488.478	95.271	-0.097	-0.111
-487.464	-7.977	-0.252	0.170
-486.449	-195.802	-0.158	0.001
-485.435	68.361	-0.251	0.258
-484.420	-97.298	0.478	0.125
-483.405	-21.407	-0.329	-0.201
-482.391	53.505	0.074	-0.071
-481.376	113.767	-0.119	0.145
-480.362	-137.789	-0.215	-0.024
-479.347	-143.724	-0.047	-0.004
-478.332	-119.385	0.229	0.040
-477.318	32.555	-0.241	0.209
-476.303	677.557	-0.075	-0.196
-475.289	285.385	-0.213	-0.385
-474.274	-113.311	0.216	0.043
-473.259	-55.030	-0.367	0.166
-472.245	-78.688	0.091	0.031
-471.230	6.767	0.258	-0.192
-470.216	782.323	0.099	0.271
-469.201	800.000	0.014	-0.054
-468.186	-181.099	0.345	0.007
-467.172	-19.729	-0.304	-0.188
-466.157	-25.193	0.362	0.215
-465.143	-171.177	-0.342	-0.012
-464.128	77.595	0.151	-0.161
-463.113	8.723	0.186	-0.141
-462.099	-200.000	-0.054	-0.429
-461.084	-147.763	-0.163	-0.014
-460.070	671.212	0.044	0.114
-459.055	-200.000	-0.014	-0.302
-458.040	10.619	0.489	-0.374
-457.026	-48.257	0.296	0.143
-456.011	-140.239	0.358	-0.038
-454.997	-81.719	-0.100	-0.033
-453.982	34.205	-0.059	-0.051
-452.968	743.637	0.131	0.353
-451.953	-19.532	0.290	0.180
-450.938	-33.807	-0.169	-0.093
-449.924	-30.900	-0.303	-0.172
-448.909	800.000	0.097	0.388
-447.895	174.522	-0.137	0.198
-446.880	12.723	0.126	0.097
-445.865	800.000	-0.042	-0.173
-444.851	-19.243	-0.440	-0.274
-443.836	17.742	0.348	-0.277
-442.822	-76.267	0.281	0.099
-441.807	45.867	0.076	0.070
-440.792	53.133	-0.071	-0.069
-439.778	-52.180	-0.028	0.013
-438.763	-35.881	-0.384	-0.208
-437.749	-200.000	-0.019	-0.155
-436.734	-19.597	-0.226	-0.140
-435.719	-69.524	0.033	0.013
-434.705	-60.853	-0.140	-0.059
-433.690	32.423	0.149	0.129
-432.676	-140.572	-0.239	-0.025
-431.661	-109.828	0.240	0.050
-430.646	-200.000	-0.048	0.246
-429.632	-64.716	-0.095	-0.038
-428.617	-124.843	0.165	0.025
-427.603	-96.326	-0.134	0.036
-426.588	290.202	-0.174	-0.316
-425.573	89.963	-0.032	-0.036
-424.559	-200.000	0.069	-0.313
-423.544	-77.699	0.111	-0.038
-422.530	-200.000	0.019	-0.099
-421.515	-200.000	-0.025	0.119
-420.500	-200.000	-0.079	0.430
-419.486	-200.000	0.040	0.296
-418.471	-40.012	-0.217	-0.113
-417.457	-200.000	-0.078	-0.416
-416.442	-200.000	-0.002	-0.130
-415.428	557.519	-0.032	0.076
-414.413	124.465	-0.042	0.053
-413.398	-47.440	-0.075	-0.036
-412.384	-163.809	-0.534	0.025
-411.369	2.500	-0.016	0.012
-410.355	-100.497	0.345	-0.085
-409.340	-27.340	-0.069	-0.040
-408.325	-116.816	-0.236	-0.043
-407.311	-17.133	0.090	0.057
-406.296	-6.993	-0.194	-0.132
-405.282	-146.024	0.199	-0.018
-404.267	800.000	-0.081	0.277
-403.252	465.042	0.072	0.161
-402.238	-200.000	0.009	-0.047
-401.223	15.743	-0.235	-0.185
-400.209	-5.006	-0.117	-0.081
-399.194	38.204	0.145	0.129
-398.179	253.703	0.129	0.220
-397.165	-200.000	0.074	0.338
-396.150	-200.000	0.038	0.359
-395.136	66.713	0.162	0.164
-394.121	-200.000	0.007	-0.279
-393.106	800.000	0.088	0.275
-392.092	-200.000	-0.028	0.155
-391.077	346.744	-0.030	-0.059
-390.063	380.971	0.080	0.165
-389.048	-85.989	-0.058	0.018
-388.033	128.540	-0.146	-0.185
-387.019	131.519	0.095	0.122
-386.004	-1.226	-0.128	-0.090
-384.990	171.902	-0.183	-0.263
-383.975	153.944	0.125	0.171
-382.960	-200.000	0.036	-0.214
-381.946	-200.000	-0.027	-0.374
-380.931	-83.224	0.487	0.156
-379.917	645.741	-0.119	0.304
-378.902	-84.415	0.135	-0.043
-377.888	437.555	0.127	-0.276
-376.873	7.353	0.153	-0.114
-375.858	430.672	-0.123	-0.265
-374.844	800.000	-0.049	0.150
-373.829	-99.846	-0.081	-0.020
-372.815	-132.913	-0.014	0.002
-371.800	-200.000	-0.021	0.177
-370.785	-200.000	-0.051	0.353
-369.771	800.000	-0.014	0.042
-368.756	-77.324	0.129	-0.045
-367.742	711.232	0.115	0.303
-366.727	15.328	0.329	0.258
-365.712	-75.102	0.152	0.054
-364.698	-106.800	-0.196	-0.043
-363.683	-200.000	0.009	0.485
-362.669	51.685	-0.100	-0.095
-361.654	-200.000	-0.045	0.209
-360.639	-21.017	-0.157	-0.096
-359.625	-32.613	0.206	-0.114
-358.610	800.000	-0.014	-0.046
-357.596	392.794	0.022	0.045
-356.581	800.000	-0.053	0.212
-355.566	-200.000	0.013	-0.162
-354.552	264.159	-0.111	-0.192
-353.537	43.155	0.024	-0.022
-352.523	109.813	-0.093	0.111
-351.508	800.000	-0.053	0.190
-350.493	-200.000	0.000	-0.066
-349.479	-126.635	0.168	0.025
-348.464	-56.087	-0.213	0.095
-347.450	-138.636	0.300	0.033
-346.435	18.428	0.120	-0.096
-345.420	69.818	0.084	0.086
-344.406	25.427	-0.290	0.240
-343.391	-178.323	0.044	0.001
-342.377	-200.000	-0.001	-0.088
-341.362	-200.000	0.026	-0.142
-340.348	138.430	-0.086	-0.113
-339.333	169.224	-0.165	-0.234
-338.318	34.040	0.076	0.066
-337.304	577.624	-0.093	0.227
-336.289	-60.464	-0.123	-0.052
-335.275	-126.180	0.053	-0.008
-334.260	70.931	-0.185	-0.191
-333.245	15.558	-0.161	0.126
-332.231	-43.639	0.177	-0.089
-331.216	41.035	-0.079	0.071
-330.202	330.611	0.046	0.089
-329.187	123.777	0.304	-0.380
-328.172	800.000	0.049	0.162
-327.158	-200.000	0.025	-0.359
-326.143	82.061	0.078	-0.084
-325.129	85.119	0.098	-0.107
-324.114	736.052	0.148	0.394
-323.099	46.387	0.166	0.153
-322.085	260.771	-0.055	-0.094
-321.070	150.646	0.170	0.230
-320.056	-128.489	-0.312	-0.044
-319.041	-200.000	-0.024	0.169
-318.026	-200.000	0.024	-0.196
-317.012	60.317	0.289	0.285
-315.997	-2.641	0.252	0.176
-314.983	3.607	-0.087	-0.063
-313.968	-134.200	0.215	0.026
-312.953	-33.043	0.398	0.220
-311.939	-159.582	-0.087	-0.005
-310.924	241.640	-0.107	0.178
-309.910	-133.877	-0.183	0.023
-308.895	216.123	-0.033	-0.052
-307.880	-157.347	-0.167	0.010
-306.866	-58.617	0.299	0.129
-305.851	800.000	0.116	-0.379
-304.837	-136.137	0.146	-0.017
-303.822	528.760	-0.083	0.196
-302.807	625.762	0.040	0.100
-301.793	-25.090	0.298	0.176
-300.778	64.876	-0.030	-0.030
-299.764	-144.866	0.204	0.019
-298.749	-139.354	0.413	-0.044
-297.735	-139.709	-0.248	-0.026
-296.720	193.134	-0.170	-0.256
-295.705	261.218	-0.141	-0.243
-294.691	-37.023	0.109	0.058
-293.676	800.000	0.047	0.188
-292.662	800.000	-0.064	0.196
-291.647	546.871	-0.107	-0.254
-290.632	-200.000	-0.021	0.097
-289.618	-173.873	0.159	0.005
-288.603	171.723	0.112	-0.161
-287.589	-35.316	0.194	0.105
-286.574	-103.714	0.198	0.046
-285.559	174.490	-0.227	-0.326
-284.545	25.191	0.090	0.075
-283.530	-53.587	0.243	-0.110
-282.516	73.498	0.289	-0.301
-281.501	800.000	-0.073	-0.211
-280.486	13.052	0.234	0.180
-279.472	88.465	0.030	0.033
-278.457	-148.921	0.458	0.037
-277.443	-169.928	-0.035	-0.001
-276.428	800.000	0.087	-0.327
-275.413	-105.504	-0.253	0.057
-274.399	800.000	0.076	0.283
-273.384	23.743	-0.379	0.310
-272.370	6.434	0.261	-0.193
-271.355	800.000	0.087	-0.332
-270.340	141.856	0.119	-0.157
-269.326	-99.526	0.137	-0.034
-268.311	-200.000	-0.020	0.255
-267.297	-200.000	-0.036	0.483
-266.282	-131.268	-0.247	0.033
-265.267	800.000	-0.052	-0.175
-264.253	-87.442	0.215	0.065
-263.238	800.000	-0.043	-0.177
-262.224	800.000	0.071	0.196
-261.209	-79.076	0.421	-0.142
-260.195	234.508	-0.065	0.107
-259.180	728.295	0.097	0.258
-258.165	-114.024	0.122	0.024
-257.151	-72.764	0.223	0.082
-256.136	-179.370	-0.440	-0.010
-255.122	-200.000	-0.023	0.101
-254.107	-200.000	0.056	-0.395
-253.092	49.807	-0.408	-0.382
-252.078	-111.397	0.191	0.039
-251.063	-30.298	0.118	-0.067
-250.049	-52.769	0.102	-0.047
-249.034	-200.000	-0.039	0.299
-248.019	90.292	0.091	-0.101
-247.005	41.296	-0.162	0.145
-245.990	122.070	0.109	-0.136
-244.976	-39.744	0.302	0.157
-243.961	-85.503	0.408	0.126
-242.946	632.663	0.167	0.421
-241.932	-200.000	0.019	-0.101
-240.917	572.828	-0.138	-0.334
-239.903	11.074	-0.068	0.052
-238.888	-85.607	-0.559	-0.173
-237.873	-200.000	0.002	-0.008
-236.859	-58.136	0.155	-0.067
-235.844	-116.882	-0.170	0.031
-234.830	10.348	0.359	0.272
-233.815	220.218	-0.190	0.303
-232.800	-25.187	-0.194	-0.114
-231.786	442.037	-0.100	0.218
-230.771	27.769	0.309	0.258
-229.757	-200.000	0.001	-0.317
-228.742	12.086	-0.118	0.090
-227.727	-200.000	-0.030	-0.263
-226.713	118.402	0.184	0.226
-225.698	-123.453	-0.093	-0.015
-224.684	-82.104	-0.176	0.057
-223.669	-57.701	-0.113	-0.049
-222.655	3.310	-0.224	0.162
-221.640	800.000	0.166	0.502
-220.625	-118.406	0.047	-0.008
-219.611	-111.179	0.158	-0.032
-218.596	117.780	-0.145	-0.177
-217.582	-151.714	-0.261	0.019
-216.567	208.487	0.050	0.078
-215.552	-200.000	-0.024	-0.305
-214.538	-11.718	-0.307	-0.200
-213.523	-200.000	0.003	-0.149
-212.509	-200.000	-0.061	-0.389
-211.494	235.264	0.129	-0.212
-210.479	-200.000	-0.041	0.306
-209.465	556.793	0.068	-0.164
-208.450	-200.000	-0.001	-0.096
-207.436	-200.000	-0.044	0.210
-206.421	114.671	-0.131	0.158
-205.406	180.725	-0.123	0.180
-204.392	194.044	0.189	0.283
-203.377	-5.279	-0.180	0.123
-202.363	50.583	-0.024	0.022
-201.348	-154.821	0.416	0.027
-200.333	6.645	-0.221	-0.163
-199.319	-105.516	0.155	-0.035
-198.304	-79.837	0.125	0.042
-197.290	487.927	-0.050	0.114
-196.275	-139.108	-0.204	-0.022
-195.260	-200.000	0.078	-0.375
-194.246	800.000	-0.053	0.203
-193.231	265.167	0.294	0.508
-192.217	-38.907	-0.222	0.116
-191.202	65.321	0.169	0.170
-190.187	800.000	-0.042	0.140
-189.173	191.184	-0.091	-0.135
-188.158	336.446	-0.123	0.236
-187.144	-63.810	0.331	-0.134
-186.129	-68.828	0.124	-0.048
-185.114	800.000	-0.056	0.227
-184.100	38.856	0.142	0.125
-183.085	96.702	-0.171	0.194
-182.071	-200.000	-0.001	0.256
-181.056	-31.317	-0.251	0.140
-180.042	172.220	-0.192	-0.274
-179.027	299.006	-0.162	-0.296
-178.012	-104.893	0.114	0.026
-176.998	57.454	0.104	-0.101
-175.983	-63.445	-0.071	-0.029
-174.969	-71.346	0.161	0.060
-173.954	800.000	-0.110	0.353
-172.939	-77.309	-0.105	0.036
-171.925	528.272	-0.040	-0.093
-170.910	-152.399	0.250	-0.018
-169.896	89.988	0.056	0.062
-168.881	-69.531	0.183	-0.069
-167.866	555.216	0.020	-0.047
-166.852	77.872	-0.162	0.171
-165.837	399.621	0.119	-0.247
-164.823	-145.263	0.299	0.027
-163.808	-51.393	-0.432	-0.200
-162.793	-134.880	0.246	-0.030
-161.779	-93.114	-0.037	-0.010
-160.764	-29.602	-0.200	-0.113
-159.750	-200.000	0.005	-0.058
-158.735	-77.150	0.101	0.035
-157.720	-67.608	-0.304	-0.118
-156.706	79.160	-0.322	0.342
-155.691	-62.301	0.242	-0.100
-154.677	-10.281	0.281	-0.185
-153.662	761.293	-0.083	0.222
-152.647	800.000	-0.040	-0.145
-151.633	15.183	-0.188	0.146
-150.618	560.779	0.080	-0.190
-149.604	-121.538	0.573	-0.094
-148.589	273.620	0.096	-0.169
-147.574	-39.383	-0.170	0.088
-146.560	419.888	-0.083	-0.177
-145.545	169.931	-0.096	0.136
-144.531	371.587	0.075	0.151
-143.516	5.479	-0.137	0.100
-142.502	800.000	0.027	-0.076
-141.487	-64.813	-0.335	-0.134
-140.472	207.152	-0.176	0.271
-139.458	447.272	-0.124	0.269
-138.443	-156.239	0.052	0.003
-137.429	-114.160	0.177	-0.034
-136.414	370.228	0.083	-0.165
-135.399	-135.521	0.294	-0.035
-134.385	208.931	-0.180	0.279
-133.370	-56.892	0.187	-0.082
-132.356	16.277	0.157	0.122
-131.341	245.340	-0.097	-0.162
-130.326	55.819	-0.188	0.180
-129.312	202.939	-0.102	0.155
-128.297	-100.952	-0.137	0.033
-127.283	-87.985	-0.196	-0.058
-126.268	-9.366	-0.348	0.230
-125.253	800.000	0.051	-0.188
-124.239	-200.000	0.037	0.187
-123.224	-70.586	0.384	0.144
-122.210	-118.659	-0.084	-0.015
