DTS Sentinel unit serial number:	SN413079Multiplexer serial number:	ORYXHardware model number:	OX4-SRSoftware version number:	ORYX F/W v4.00 Oryx Data Collector v3.7.2.0data status	okinstallation	princeton_trtdifferential loss correction	single-endedforward channel	channel 4reverse channel	N/Adate	2019/09/12time	14:35:11forward acquisition time	60.00reverse acquisition time	0.00gamma	496.2192k internal	0.2291k external	0.2291temperature offset calibration	1.0086default loss term (dB/km)	0.3790temperature slope calibration	1.0000multiplexer offset coefficient	1.0000multiplexer slope coefficient	1.0000fibre end	0.00T internal ref (°C)	40.06T ext. ref 1 (°C)	2.26T ext. ref 2 (°C)	36.29length (m)	temperature (°C)	Stokes	anti-Stokes-747.200	376.474	0.055	0.115
-746.185	800.000	-0.111	0.462
-745.171	-98.794	0.066	0.017
-744.156	-200.000	-0.011	0.362
-743.142	-200.000	-0.029	0.354
-742.127	800.000	0.017	0.060
-741.112	800.000	0.053	0.216
-740.098	428.211	0.107	0.236
-739.083	289.142	0.115	0.214
-738.069	-31.006	-0.084	0.048
-737.054	-200.000	-0.006	0.101
-736.039	16.827	0.154	-0.125
-735.025	-144.601	0.240	0.023
-734.010	-77.940	-0.297	-0.105
-732.996	-200.000	-0.003	-0.275
-731.981	-200.000	0.047	-0.396
-730.966	-200.000	0.019	-0.264
-729.952	46.784	-0.211	-0.200
-728.937	-200.000	-0.038	0.236
-727.923	49.884	0.163	-0.157
-726.908	373.537	0.052	0.108
-725.894	-200.000	-0.001	-0.514
-724.879	-200.000	0.010	-0.093
-723.864	54.469	0.223	-0.220
-722.850	642.510	0.029	-0.077
-721.835	-113.558	-0.087	-0.017
-720.821	-67.912	-0.212	0.085
-719.806	11.023	-0.233	0.182
-718.791	800.000	-0.079	0.290
-717.777	-95.194	-0.187	-0.052
-716.762	182.288	0.089	-0.134
-715.748	199.727	-0.043	0.068
-714.733	707.222	0.078	-0.209
-713.718	800.000	-0.074	0.280
-712.704	-174.044	-0.505	-0.015
-711.689	-200.000	0.004	-0.127
-710.675	-200.000	-0.034	0.220
-709.660	800.000	-0.098	0.292
-708.645	800.000	0.079	-0.332
-707.631	546.401	-0.094	0.231
-706.616	800.000	-0.048	-0.191
-705.602	59.305	0.287	-0.289
-704.587	800.000	-0.046	0.199
-703.572	-32.944	0.178	0.101
-702.558	-150.640	0.143	0.011
-701.543	-114.057	0.137	-0.027
-700.529	271.241	0.049	0.089
-699.514	-77.298	0.187	0.066
-698.499	284.477	0.068	-0.125
-697.485	-46.129	-0.281	-0.142
-696.470	71.457	-0.180	-0.191
-695.456	-44.609	0.175	-0.089
-694.441	800.000	-0.039	0.116
-693.426	6.873	0.125	-0.095
-692.412	500.337	-0.057	-0.135
-691.397	-160.029	-0.300	-0.017
-690.383	157.241	-0.061	-0.086
-689.368	-58.483	-0.148	0.066
-688.354	0.482	0.097	-0.071
-687.339	-200.000	0.012	-0.194
-686.324	-200.000	0.033	-0.289
-685.310	-49.734	-0.095	0.046
-684.295	-175.581	-0.214	0.006
-683.281	-56.521	0.240	-0.109
-682.266	-200.000	0.025	-0.185
-681.251	114.024	0.136	-0.169
-680.237	-200.000	-0.007	-0.106
-679.222	280.391	0.108	0.196
-678.208	-73.001	0.361	-0.136
-677.193	-25.458	-0.179	-0.108
-676.178	-200.000	0.001	-0.169
-675.164	-200.000	-0.001	0.012
-674.149	-200.000	-0.038	0.271
-673.135	-106.362	0.166	0.038
-672.120	-23.556	-0.455	-0.279
-671.105	155.697	-0.164	-0.231
-670.091	192.122	0.156	-0.241
-669.076	800.000	0.064	0.282
-668.062	251.003	0.133	0.232
-667.047	197.956	-0.053	-0.083
-666.032	800.000	0.103	-0.381
-665.018	11.854	-0.099	-0.078
-664.003	800.000	0.049	0.170
-662.989	97.874	0.144	-0.169
-661.974	-200.000	-0.007	-0.312
-660.959	195.912	-0.110	-0.171
-659.945	19.077	-0.181	0.148
-658.930	-7.335	-0.022	-0.015
-657.916	-200.000	-0.034	-0.255
-656.901	-120.882	-0.070	0.012
-655.886	35.878	-0.426	0.382
-654.872	800.000	-0.048	0.140
-653.857	677.602	-0.192	-0.510
-652.843	-177.000	-0.130	0.003
-651.828	800.000	-0.080	0.344
-650.814	-89.819	-0.045	-0.013
-649.799	11.424	0.229	0.179
-648.784	175.877	-0.063	0.094
-647.770	475.399	0.178	-0.410
-646.755	-200.000	0.055	-0.342
-645.741	-149.660	0.035	0.003
-644.726	27.692	-0.063	-0.054
-643.711	-21.249	0.205	-0.128
-642.697	-154.877	0.239	-0.016
-641.682	-144.448	0.025	-0.002
-640.668	-200.000	-0.036	0.241
-639.653	-119.663	0.304	0.054
-638.638	-200.000	0.130	0.000
-637.624	-49.843	-0.084	0.041
-636.609	-18.202	-0.268	0.171
-635.595	488.683	0.110	0.257
-634.580	-54.094	-0.246	-0.114
-633.565	-137.520	-0.043	-0.005
-632.551	358.310	-0.070	-0.143
-631.536	-188.977	0.133	-0.002
-630.522	-96.967	-0.066	-0.018
-629.507	-36.494	0.132	0.072
-628.492	-29.869	0.054	-0.032
-627.478	-184.466	0.161	0.003
-626.463	30.857	-0.114	0.100
-625.449	-200.000	-0.020	0.119
-624.434	-133.574	-0.473	0.060
-623.419	-95.062	0.327	0.090
-622.405	800.000	0.078	0.241
-621.390	21.719	-0.356	0.295
-620.376	236.388	-0.158	-0.266
-619.361	285.900	0.053	0.097
-618.346	149.098	0.302	-0.417
-617.332	-200.000	0.027	-0.496
-616.317	49.698	-0.088	-0.085
-615.303	-12.698	-0.050	-0.033
-614.288	-82.134	-0.276	0.092
-613.273	-60.899	0.029	-0.013
-612.259	800.000	0.046	-0.134
-611.244	-178.734	-0.293	0.007
-610.230	-6.622	-0.224	-0.155
-609.215	-153.833	-0.213	0.015
-608.201	-200.000	-0.020	-0.094
-607.186	184.231	-0.053	-0.080
-606.171	169.815	0.068	0.098
-605.157	-200.000	-0.023	0.194
-604.142	-117.076	0.247	-0.046
-603.128	34.951	-0.207	0.185
-602.113	-140.631	-0.094	-0.010
-601.098	23.854	0.065	-0.054
-600.084	800.000	0.039	-0.153
-599.069	172.023	-0.112	-0.164
-598.055	-184.449	0.058	0.001
-597.040	551.178	-0.145	-0.355
-596.025	291.050	-0.143	0.264
-595.011	65.243	-0.188	-0.194
-593.996	-77.548	-0.180	-0.064
-592.982	236.873	-0.176	-0.296
-591.967	616.722	0.105	-0.268
-590.952	800.000	-0.040	0.180
-589.938	800.000	-0.075	0.298
-588.923	97.870	0.031	-0.036
-587.909	35.010	-0.256	0.228
-586.894	-200.000	-0.036	0.175
-585.879	-200.000	-0.015	-0.160
-584.865	155.960	0.246	-0.345
-583.850	-200.000	0.003	-0.208
-582.836	-4.268	-0.136	-0.096
-581.821	67.197	0.236	0.245
-580.806	-68.205	0.261	0.103
-579.792	-200.000	0.036	0.218
-578.777	277.491	0.144	0.262
-577.763	-124.245	0.461	0.073
-576.748	-200.000	0.009	0.330
-575.733	2.795	-0.230	-0.170
-574.719	-4.802	0.053	-0.037
-573.704	-34.314	-0.207	-0.115
-572.690	365.117	-0.161	-0.331
-571.675	-55.101	-0.208	-0.095
-570.661	-180.692	-0.143	-0.003
-569.646	-27.246	0.210	-0.124
-568.631	59.544	0.146	-0.146
-567.617	800.000	-0.054	0.170
-566.602	15.225	-0.099	0.079
-565.588	-142.513	0.243	0.024
-564.573	-140.906	0.156	-0.016
-563.558	-200.000	0.006	-0.259
-562.544	13.853	0.200	-0.158
-561.529	374.940	-0.048	-0.099
-560.515	582.246	0.041	-0.103
-559.500	82.396	0.125	-0.138
-558.485	-130.869	0.313	0.043
-557.471	-200.000	0.019	0.367
-556.456	-200.000	-0.024	0.299
-555.442	800.000	-0.082	0.278
-554.427	-170.604	0.046	-0.002
-553.412	-132.465	0.061	-0.008
-552.398	-20.513	0.264	-0.165
-551.383	-108.340	0.176	0.039
-550.369	419.904	0.086	0.188
-549.354	-11.785	-0.169	-0.113
-548.339	143.830	0.091	-0.123
-547.325	-200.000	0.011	-0.051
-546.310	606.709	0.109	-0.276
-545.296	-135.951	-0.177	-0.021
-544.281	353.125	0.070	-0.141
-543.266	-37.514	0.356	-0.193
-542.252	-21.764	-0.260	0.161
-541.237	-200.000	0.062	-0.302
-540.223	694.723	-0.159	-0.424
-539.208	-162.873	0.011	0.001
-538.193	-9.606	0.096	0.065
-537.179	-121.879	-0.321	-0.054
-536.164	-151.851	0.217	0.016
-535.150	-79.811	0.180	-0.062
-534.135	-200.000	-0.015	-0.165
-533.121	226.445	0.164	0.271
-532.106	-200.000	-0.008	0.071
-531.091	171.743	-0.042	-0.062
-530.077	-137.503	0.228	0.026
-529.062	-47.619	-0.305	-0.150
-528.048	-97.399	-0.312	0.083
-527.033	119.744	0.182	-0.228
-526.018	-51.654	0.205	0.097
-525.004	49.059	0.129	0.123
-523.989	-95.998	-0.114	0.031
-522.975	800.000	-0.029	-0.120
-521.960	60.570	-0.274	-0.276
-520.945	-30.842	0.244	0.140
-519.931	163.200	0.147	-0.210
-518.916	204.619	-0.229	-0.361
-517.902	5.722	0.097	-0.072
-516.887	195.174	0.197	-0.303
-515.872	-200.000	-0.028	-0.366
-514.858	-200.000	-0.053	0.305
-513.843	-200.000	0.014	-0.314
-512.829	347.937	-0.100	0.200
-511.814	800.000	-0.088	0.325
-510.799	138.514	-0.195	-0.259
-509.785	-144.991	0.342	-0.032
-508.770	800.000	0.060	0.176
-507.756	65.802	0.056	0.058
-506.741	-124.844	-0.050	-0.008
-505.726	36.765	0.128	0.115
-504.712	-26.969	0.312	0.185
-503.697	-77.448	-0.225	0.079
-502.683	-200.000	0.009	-0.057
-501.668	-106.222	-0.103	0.023
-500.653	-95.325	-0.091	-0.025
-499.639	800.000	-0.008	0.030
-498.624	-200.000	0.019	0.143
-497.610	723.064	0.121	-0.328
-496.595	85.916	-0.165	-0.184
-495.581	-200.000	0.011	-0.181
-494.566	353.808	0.076	-0.153
-493.551	-123.739	-0.070	-0.011
-492.537	483.155	-0.027	0.062
-491.522	-154.023	-0.549	-0.038
-490.508	116.197	-0.108	-0.134
-489.493	52.721	0.145	0.140
-488.478	222.384	0.197	0.322
-487.464	190.519	0.128	0.194
-486.449	4.888	0.086	-0.064
-485.435	89.224	0.150	-0.169
-484.420	786.577	0.093	0.260
-483.405	-200.000	-0.059	-0.290
-482.391	38.252	0.308	0.278
-481.376	-35.046	-0.048	0.027
-480.362	-200.000	0.017	-0.202
-479.347	-200.000	0.021	0.100
-478.332	-83.708	0.237	0.077
-477.318	514.011	0.165	-0.390
-476.303	13.129	0.176	-0.138
-475.289	-57.656	0.100	-0.044
-474.274	-5.716	0.159	0.111
-473.259	328.708	-0.115	0.224
-472.245	289.924	-0.105	-0.193
-471.230	-200.000	0.002	-0.103
-470.216	-16.544	0.054	0.035
-469.201	406.657	-0.148	-0.316
-468.186	-200.000	-0.004	-0.211
-467.172	267.015	-0.035	0.061
-466.157	88.796	-0.085	0.095
-465.143	-200.000	-0.007	0.058
-464.128	697.953	-0.063	-0.166
-463.113	160.948	0.110	-0.155
-462.099	800.000	-0.068	-0.249
-461.084	-107.557	0.319	-0.071
-460.070	-45.487	-0.114	0.057
-459.055	-200.000	0.025	0.246
-458.040	-200.000	0.007	0.287
-457.026	-142.093	-0.080	-0.008
-456.011	-91.210	0.077	-0.022
-454.997	158.791	0.264	0.371
-453.982	800.000	0.132	0.471
-452.968	-200.000	-0.045	0.369
-451.953	-200.000	0.005	-0.076
-450.938	-79.425	-0.274	-0.094
-449.924	800.000	0.100	0.389
-448.909	-164.346	-0.170	0.008
-447.895	-85.425	0.255	0.081
-446.880	-132.564	-0.082	0.011
-445.865	311.808	0.138	-0.262
-444.851	583.924	0.074	0.183
-443.836	-28.343	-0.182	0.107
-442.822	-17.640	0.360	0.229
-441.807	-137.504	0.086	0.010
-440.792	-139.623	-0.131	0.014
-439.778	18.146	0.163	0.132
-438.763	15.808	-0.295	0.235
-437.749	-15.179	-0.182	-0.118
-436.734	153.720	-0.039	-0.054
-435.719	-102.312	-0.187	-0.045
-434.705	39.954	0.122	0.111
-433.690	35.825	0.033	0.029
-432.676	322.362	0.110	-0.212
-431.661	-146.567	-0.357	-0.031
-430.646	294.870	0.035	-0.065
-429.632	-200.000	-0.011	-0.333
-428.617	-124.329	0.369	-0.058
-427.603	-184.011	-0.215	0.004
-426.588	58.988	-0.077	0.077
-425.573	-184.697	-0.197	-0.003
-424.559	-200.000	-0.039	-0.208
-423.544	105.386	0.071	-0.085
-422.530	29.495	-0.084	-0.073
-421.515	-40.421	0.194	0.102
-420.500	-62.807	0.270	0.113
-419.486	-1.197	0.172	-0.123
-418.471	290.005	-0.118	-0.216
-417.457	800.000	0.051	-0.143
-416.442	-200.000	0.031	0.439
-415.428	-200.000	0.023	0.231
-414.413	800.000	0.105	0.395
-413.398	-12.219	0.214	0.141
-412.384	-104.212	0.271	-0.064
-411.369	-141.792	0.081	-0.008
-410.355	-200.000	-0.050	0.278
-409.340	-96.715	-0.076	-0.020
-408.325	138.629	0.095	-0.126
-407.311	60.402	-0.126	-0.126
-406.296	-77.806	-0.088	0.031
-405.282	-154.699	-0.050	-0.003
-404.267	-200.000	-0.011	0.088
-403.252	216.959	0.053	0.085
-402.238	92.827	-0.068	0.077
-401.223	-200.000	-0.084	-0.426
-400.209	119.791	0.096	0.120
-399.194	-200.000	0.011	-0.069
-398.179	-97.671	-0.164	-0.043
-397.165	800.000	0.070	0.260
-396.150	-96.432	-0.138	0.037
-395.136	-52.244	0.221	-0.104
-394.121	800.000	0.080	0.237
-393.106	-200.000	0.030	0.210
-392.092	-138.013	-0.131	0.015
-391.077	142.255	-0.206	0.276
-390.063	92.554	0.121	0.138
-389.048	-132.828	-0.551	0.071
-388.033	800.000	-0.140	0.501
-387.019	738.579	0.048	-0.130
-386.004	110.656	0.260	0.316
-384.990	52.034	0.141	0.136
-383.975	23.976	0.242	0.201
-382.960	-200.000	0.052	0.260
-381.946	-183.586	0.068	0.001
-380.931	-200.000	-0.022	0.194
-379.917	-92.063	0.081	0.023
-378.902	44.074	0.080	-0.074
-377.888	124.089	-0.129	0.163
-376.873	8.094	0.232	-0.176
-375.858	-200.000	0.028	-0.178
-374.844	-2.767	-0.188	-0.132
-373.829	-110.577	0.261	0.054
-372.815	122.354	0.118	0.148
-371.800	178.134	-0.052	-0.076
-370.785	122.378	-0.156	0.197
-369.771	800.000	0.006	-0.026
-368.756	-0.204	0.244	-0.175
-367.742	52.378	-0.091	-0.087
-366.727	-190.438	-0.264	-0.003
-365.712	109.773	0.230	-0.279
-364.698	-145.824	0.072	-0.006
-363.683	-61.686	-0.296	0.125
-362.669	-28.673	0.158	-0.092
-361.654	22.323	0.311	0.257
-360.639	-14.975	-0.250	-0.162
-359.625	121.683	-0.173	0.218
-358.610	54.405	-0.072	-0.070
-357.596	313.411	0.080	0.151
-356.581	-200.000	0.039	-0.309
-355.566	-200.000	-0.047	-0.369
-354.552	800.000	-0.018	0.061
-353.537	-200.000	0.005	0.078
-352.523	101.403	0.187	0.219
-351.508	-200.000	-0.023	-0.243
-350.493	-116.077	0.401	-0.075
-349.479	-200.000	0.014	0.098
-348.464	-200.000	0.058	-0.367
-347.450	57.087	0.135	-0.132
-346.435	-200.000	-0.021	0.137
-345.420	127.592	-0.060	-0.077
-344.406	-200.000	0.013	-0.203
-343.391	-10.161	-0.136	-0.091
-342.377	37.567	-0.091	0.081
-341.362	-118.458	0.258	0.046
-340.348	108.853	0.127	0.153
-339.333	59.089	-0.049	-0.049
-338.318	83.759	0.016	0.018
-337.304	-200.000	-0.033	0.163
-336.289	44.055	0.155	-0.143
-335.275	-1.816	-0.148	0.105
-334.260	32.123	-0.139	-0.121
-333.245	252.989	-0.080	0.138
-332.231	-105.727	0.055	0.013
-331.216	-200.000	-0.044	-0.231
-330.202	-142.545	0.136	-0.013
-329.187	-45.085	-0.406	-0.203
-328.172	-103.950	-0.257	-0.060
-327.158	-200.000	0.020	0.133
-326.143	393.938	0.036	-0.076
-325.129	655.464	-0.088	-0.229
-324.114	-92.129	-0.219	-0.062
-323.099	-200.000	0.016	0.091
-322.085	-158.900	-0.229	0.013
-321.070	329.588	0.108	-0.209
-320.056	-200.000	0.007	-0.469
-319.041	-167.721	0.067	0.003
-318.026	-200.000	0.013	0.301
-317.012	-113.215	-0.133	0.026
-315.997	-133.277	0.411	-0.052
-314.983	87.222	0.125	-0.140
-313.968	168.063	0.019	0.027
-312.953	504.359	-0.106	-0.247
-311.939	215.987	-0.196	-0.314
-310.924	-101.354	-0.182	0.045
-309.910	-93.187	0.092	0.026
-308.895	-200.000	-0.020	0.227
-307.880	217.038	-0.110	-0.176
-306.866	-47.481	0.182	0.089
-305.851	-84.380	0.314	0.100
-304.837	-64.206	0.053	0.022
-303.822	-200.000	0.003	-0.245
-302.807	-91.340	-0.196	0.057
-301.793	140.715	0.232	0.309
-300.778	218.563	0.242	0.389
-299.764	-200.000	-0.006	0.123
-298.749	-180.209	-0.231	0.005
-297.735	-108.466	0.361	-0.078
-296.720	-138.523	-0.054	0.006
-295.705	-200.000	-0.001	0.205
-294.691	-54.955	0.061	0.028
-293.676	-60.073	0.250	0.107
-292.662	147.010	0.127	-0.172
-291.647	-25.742	0.056	-0.033
-290.632	800.000	0.085	0.316
-289.618	316.128	0.007	0.014
-288.603	-105.188	-0.447	-0.103
-287.589	-34.669	-0.360	-0.198
-286.574	323.559	-0.162	0.310
-285.559	5.425	0.351	0.261
-284.545	-114.514	0.159	0.031
-283.530	-119.730	-0.118	-0.020
-282.516	-67.559	0.150	-0.059
-281.501	-67.534	0.198	-0.078
-280.486	-200.000	0.008	0.186
-279.472	-105.033	0.146	0.034
-278.457	194.461	-0.147	0.224
-277.443	-200.000	0.008	0.282
-276.428	-200.000	-0.042	-0.190
-275.413	-51.783	0.310	0.145
-274.399	-149.020	-0.070	0.006
-273.384	183.578	0.072	-0.107
-272.370	-49.276	0.146	-0.070
-271.355	-127.057	-0.038	0.006
-270.340	256.784	-0.286	-0.494
-269.326	164.384	0.338	-0.479
-268.311	-100.752	0.272	0.067
-267.297	4.771	-0.084	-0.062
-266.282	-51.520	-0.171	0.080
-265.267	-200.000	0.039	0.193
-264.253	800.000	0.019	-0.071
-263.238	-200.000	-0.007	-0.151
-262.224	800.000	-0.077	-0.336
-261.209	13.365	0.129	0.100
-260.195	158.585	-0.248	-0.346
-259.180	-55.414	-0.202	0.091
-258.165	25.267	0.139	-0.116
-257.151	-84.786	-0.062	-0.020
-256.136	-130.610	0.147	0.020
-255.122	-28.867	-0.231	0.133
-254.107	800.000	-0.063	0.230
-253.092	-21.466	-0.168	-0.103
-252.078	49.213	-0.473	-0.447
-251.063	-12.824	0.227	-0.149
-250.049	800.000	-0.107	-0.436
-249.034	-88.642	0.194	0.058
-248.019	21.603	0.161	0.132
-247.005	28.813	0.114	0.097
-245.990	-125.360	-0.082	0.013
-244.976	582.035	-0.077	0.189
-243.961	117.356	0.081	0.100
-242.946	164.468	0.093	-0.131
-241.932	-59.975	0.332	0.142
-240.917	-17.021	-0.250	0.159
-239.903	-132.773	0.354	-0.045
-238.888	-200.000	-0.005	0.389
-237.873	113.130	0.079	-0.096
-236.859	800.000	-0.144	-0.464
-235.844	530.348	0.031	-0.073
-234.830	-101.764	0.264	-0.064
-233.815	-87.316	-0.370	0.113
-232.800	800.000	0.016	0.047
-231.786	511.708	-0.053	-0.123
-230.771	-89.244	-0.135	-0.040
-229.757	589.044	0.142	0.352
-228.742	121.181	-0.294	0.367
-227.727	-77.094	0.357	-0.125
-226.713	149.135	-0.060	-0.081
-225.698	800.000	0.040	0.150
-224.684	800.000	0.066	0.218
-223.669	680.416	-0.073	-0.191
-222.655	-122.564	-0.180	-0.029
-221.640	54.649	-0.108	0.105
-220.625	-48.007	0.273	0.133
-219.611	25.274	-0.255	-0.212
-218.596	389.401	0.129	0.267
-217.582	241.077	-0.039	0.066
-216.567	213.881	-0.079	0.125
-215.552	-153.056	0.135	-0.010
-214.538	-82.458	-0.115	-0.037
-213.523	508.929	-0.093	-0.217
-212.509	-113.917	-0.106	0.021
-211.494	800.000	0.010	-0.027
-210.479	-132.593	-0.193	0.025
-209.465	-152.603	-0.315	0.023
-208.450	-16.506	-0.084	0.054
-207.436	196.244	-0.128	-0.195
-206.421	800.000	0.055	-0.154
-205.406	11.904	-0.177	-0.136
-204.392	44.778	0.171	0.158
-203.377	-83.840	-0.149	0.047
-202.363	-200.000	0.012	-0.095
-201.348	-31.924	-0.386	0.217
-200.333	44.961	0.101	-0.093
-199.319	84.157	-0.153	-0.168
-198.304	-65.924	-0.099	-0.040
-197.290	-43.926	-0.259	0.130
-196.275	-30.211	-0.259	-0.147
-195.260	800.000	0.088	0.291
-194.246	-200.000	0.004	0.083
-193.231	170.336	-0.105	0.151
-192.217	-150.452	-0.130	0.010
-191.202	34.654	0.205	0.179
-190.187	-85.848	-0.341	-0.106
-189.173	216.624	0.191	-0.305
-188.158	-28.532	0.234	-0.135
-187.144	800.000	0.021	0.070
-186.129	800.000	-0.111	-0.357
-185.114	-70.290	-0.203	0.077
-184.100	-68.167	-0.176	-0.069
-183.085	69.051	-0.182	0.187
-182.071	-200.000	0.008	0.210
-181.056	-200.000	-0.009	0.194
-180.042	800.000	-0.094	0.286
-179.027	172.484	-0.023	-0.033
-178.012	800.000	-0.099	0.278
-176.998	9.249	-0.129	-0.098
-175.983	800.000	0.028	0.097
-174.969	239.911	0.087	0.144
-173.954	138.323	-0.117	-0.154
-172.939	-50.758	-0.061	-0.029
-171.925	-106.382	-0.372	0.083
-170.910	-29.864	-0.028	0.016
-169.896	116.721	-0.169	0.208
-168.881	-31.801	0.294	0.165
-167.866	800.000	-0.073	0.210
-166.852	273.683	-0.091	-0.162
-165.837	-84.726	0.033	-0.010
-164.823	14.749	0.065	-0.051
-163.808	-90.246	0.153	0.045
-162.793	355.360	0.010	0.019
-161.779	-181.856	0.097	-0.002
-160.764	-200.000	-0.007	-0.087
-159.750	-48.639	0.171	0.082
-158.735	-200.000	-0.034	-0.182
-157.720	-147.608	-0.249	-0.021
-156.706	99.722	-0.054	-0.062
-155.691	-62.239	-0.166	0.069
-154.677	-59.407	-0.268	0.115
-153.662	262.391	-0.188	0.326
-152.647	800.000	0.060	0.220
-151.633	70.109	-0.141	-0.146
-150.618	41.816	-0.110	0.100
-149.604	-95.767	0.024	0.006
-148.589	-22.088	-0.338	0.205
-147.574	97.131	0.219	-0.251
-146.560	-200.000	-0.023	0.322
-145.545	58.703	-0.151	0.149
-144.531	800.000	0.074	0.238
-143.516	-129.147	0.244	0.034
-142.502	-200.000	-0.006	-0.080
-141.487	-200.000	-0.067	-0.301
-140.472	-96.405	-0.121	-0.032
-139.458	-52.319	0.209	0.097
-138.443	75.702	0.073	-0.077
-137.429	-141.008	0.190	-0.020
-136.414	-200.000	-0.007	-0.041
-135.399	-200.000	-0.010	-0.045
-134.385	800.000	-0.008	0.025
-133.370	-122.538	0.268	0.044
-132.356	-200.000	0.009	0.166
-131.341	12.410	0.312	0.241
-130.326	13.126	0.186	-0.144
-129.312	350.872	-0.179	0.354
-128.297	485.972	0.074	-0.170
-127.283	-133.553	-0.062	-0.008
-126.268	-170.932	0.183	0.006
-125.253	-200.000	0.018	0.431
-124.239	-167.086	0.405	0.016
-123.224	-170.966	-0.246	0.008
-122.210	-95.031	0.212	-0.057
