DTS Sentinel unit serial number:	SN413079Multiplexer serial number:	ORYXHardware model number:	OX4-SRSoftware version number:	ORYX F/W v4.00 Oryx Data Collector v3.7.2.0data status	okinstallation	princeton_trtdifferential loss correction	single-endedforward channel	channel 4reverse channel	N/Adate	2019/09/18time	11:29:35forward acquisition time	60.00reverse acquisition time	0.00gamma	496.2192k internal	0.2311k external	0.2311temperature offset calibration	0.9982default loss term (dB/km)	0.3790temperature slope calibration	1.0000multiplexer offset coefficient	1.0000multiplexer slope coefficient	1.0000fibre end	0.00T internal ref (°C)	30.42T ext. ref 1 (°C)	0.44T ext. ref 2 (°C)	28.14length (m)	temperature (°C)	Stokes	anti-Stokes-747.200	150.203	0.051	0.070
-746.185	-11.885	-0.330	-0.220
-745.171	-200.000	-0.003	-0.165
-744.156	222.440	-0.251	0.410
-743.142	42.388	0.182	0.168
-742.127	523.475	-0.159	-0.380
-741.112	-124.821	0.195	0.031
-740.098	301.597	0.091	-0.171
-739.083	-200.000	0.028	0.133
-738.069	-200.000	-0.020	0.369
-737.054	-200.000	-0.016	-0.165
-736.039	196.387	-0.215	0.332
-735.025	23.248	0.188	0.157
-734.010	94.412	-0.156	-0.179
-732.996	275.026	0.191	-0.344
-731.981	157.544	-0.106	-0.148
-730.966	-98.688	0.232	-0.060
-729.952	-61.248	-0.311	-0.133
-728.937	217.034	0.041	0.066
-727.923	128.389	-0.086	-0.111
-726.908	-108.749	0.133	-0.029
-725.894	391.264	0.037	-0.078
-724.879	-50.945	-0.356	-0.170
-723.864	-28.925	-0.501	-0.292
-722.850	-125.460	-0.154	0.024
-721.835	-200.000	-0.009	-0.191
-720.821	-111.931	-0.213	-0.044
-719.806	-84.600	0.474	-0.151
-718.791	800.000	0.055	-0.202
-717.777	-200.000	-0.003	0.316
-716.762	-125.643	0.062	-0.010
-715.748	15.317	0.233	-0.186
-714.733	800.000	0.111	-0.444
-713.718	800.000	0.080	-0.283
-712.704	800.000	-0.057	0.210
-711.689	800.000	-0.027	0.103
-710.675	-36.123	-0.237	-0.130
-709.660	124.396	-0.382	0.487
-708.645	-34.160	0.107	-0.060
-707.631	-22.222	0.164	0.101
-706.616	15.616	-0.234	0.186
-705.602	26.294	0.187	-0.158
-704.587	252.452	-0.095	-0.164
-703.572	-92.862	0.295	-0.084
-702.558	-166.565	-0.034	-0.001
-701.543	-200.000	0.064	0.291
-700.529	-50.518	0.105	0.050
-699.514	31.532	-0.142	0.124
-698.499	182.706	-0.127	-0.190
-697.485	-200.000	0.026	-0.165
-696.470	-200.000	-0.001	-0.146
-695.456	-14.117	-0.331	0.216
-694.441	-17.768	0.249	0.159
-693.426	-101.090	-0.122	0.030
-692.412	-148.392	0.181	0.015
-691.397	-154.758	-0.179	0.012
-690.383	-200.000	0.007	0.156
-689.368	-11.716	0.055	-0.037
-688.354	206.125	-0.073	-0.115
-687.339	-200.000	-0.034	-0.187
-686.324	-35.264	0.119	-0.066
-685.310	-200.000	0.015	-0.202
-684.295	-153.282	0.250	0.018
-683.281	-169.114	-0.445	0.017
-682.266	-105.068	-0.311	-0.072
-681.251	186.882	-0.119	-0.180
-680.237	-200.000	-0.012	0.117
-679.222	-43.259	-0.126	-0.065
-678.208	-125.390	-0.187	-0.029
-677.193	-200.000	0.009	0.307
-676.178	800.000	0.112	-0.374
-675.164	-200.000	-0.017	0.099
-674.149	-129.880	-0.164	-0.023
-673.135	-200.000	-0.034	-0.227
-672.120	-99.302	-0.189	-0.048
-671.105	-116.101	0.231	-0.043
-670.091	222.459	-0.178	0.291
-669.076	175.650	0.029	0.043
-668.062	-49.326	0.201	-0.097
-667.047	-94.560	-0.239	-0.066
-666.032	800.000	0.178	-0.672
-665.018	-200.000	-0.008	0.246
-664.003	200.851	0.216	0.336
-662.989	-200.000	0.088	0.403
-661.974	85.741	0.123	-0.137
-660.959	-143.588	-0.317	-0.031
-659.945	-95.606	-0.393	0.106
-658.930	21.568	0.090	-0.074
-657.916	-200.000	-0.035	-0.195
-656.901	-200.000	0.025	0.168
-655.886	-51.585	-0.399	0.189
-654.872	131.141	-0.116	-0.150
-653.857	570.870	0.070	0.172
-652.843	-101.167	0.196	-0.049
-651.828	-93.962	-0.252	-0.070
-650.814	180.368	0.165	0.244
-649.799	180.828	0.095	-0.142
-648.784	-69.457	-0.147	-0.057
-647.770	-83.593	-0.359	-0.116
-646.755	-36.297	0.175	-0.095
-645.741	-143.999	0.154	0.015
-644.726	-73.131	-0.040	0.015
-643.711	-13.327	0.045	0.029
-642.697	22.299	-0.391	0.323
-641.682	725.385	-0.036	0.098
-640.668	36.260	-0.088	0.078
-639.653	-200.000	0.008	-0.060
-638.638	62.670	0.076	0.077
-637.624	209.116	-0.096	-0.152
-636.609	74.206	-0.250	0.265
-635.595	-200.000	0.046	-0.225
-634.580	-99.799	-0.039	0.010
-633.565	-200.000	-0.024	-0.252
-632.551	154.231	0.205	-0.284
-631.536	97.609	0.266	-0.309
-630.522	-145.229	-0.175	0.016
-629.507	-172.613	-0.166	-0.005
-628.492	-142.970	0.269	-0.026
-627.478	44.707	0.156	-0.145
-626.463	-200.000	-0.102	-0.453
-625.449	-28.756	0.126	0.073
-624.434	125.012	-0.204	-0.260
-623.419	-200.000	-0.006	-0.120
-622.405	-46.538	0.134	-0.066
-621.390	-200.000	0.001	-0.177
-620.376	-166.673	0.107	0.004
-619.361	37.852	-0.241	-0.217
-618.346	-169.022	-0.062	-0.002
-617.332	800.000	0.101	0.282
-616.317	363.297	-0.081	0.165
-615.303	-82.505	-0.043	0.014
-614.288	203.128	-0.141	0.220
-613.273	-44.860	-0.084	-0.042
-612.259	44.581	0.123	0.114
-611.244	398.435	-0.089	-0.188
-610.230	-107.695	-0.426	-0.094
-609.215	-86.187	0.082	0.026
-608.201	-64.970	-0.029	0.012
-607.186	800.000	-0.106	-0.296
-606.171	23.941	0.148	-0.123
-605.157	-37.741	0.162	0.087
-604.142	-156.734	-0.359	-0.022
-603.128	61.548	0.284	0.286
-602.113	28.221	-0.187	-0.159
-601.098	-112.831	0.351	-0.070
-600.084	-3.186	0.193	0.136
-599.069	-122.155	0.108	-0.018
-598.055	20.520	0.125	0.102
-597.040	124.439	0.080	0.102
-596.025	-200.000	-0.045	-0.237
-595.011	-125.319	-0.193	-0.030
-593.996	98.761	-0.084	-0.098
-592.982	107.392	-0.106	0.127
-591.967	366.901	0.055	-0.112
-590.952	-135.448	-0.429	-0.052
-589.938	-200.000	-0.002	-0.059
-588.923	36.727	-0.397	-0.354
-587.909	252.535	-0.165	-0.284
-586.894	-200.000	0.008	-0.045
-585.879	39.390	-0.150	0.135
-584.865	-200.000	-0.020	0.208
-583.850	-168.664	-0.100	-0.004
-582.836	66.382	-0.079	-0.081
-581.821	-115.113	-0.360	-0.069
-580.806	-31.054	0.232	0.132
-579.792	84.966	0.075	0.083
-578.777	-200.000	0.042	-0.208
-577.763	-78.770	0.339	-0.117
-576.748	-145.190	0.200	0.018
-575.733	-200.000	0.055	-0.292
-574.719	800.000	-0.103	-0.388
-573.704	99.995	-0.110	0.129
-572.690	-124.402	-0.196	-0.031
-571.675	27.270	-0.113	0.095
-570.661	-55.092	0.051	0.023
-569.646	-115.476	-0.348	0.066
-568.631	-80.547	0.219	-0.074
-567.617	-20.533	-0.231	-0.143
-566.602	-60.033	0.351	-0.151
-565.588	170.808	0.084	-0.122
-564.573	25.699	-0.313	-0.263
-563.558	-32.069	-0.242	0.137
-562.544	-200.000	0.071	-0.329
-561.529	-97.030	0.337	-0.089
-560.515	41.970	0.171	0.156
-559.500	44.472	0.215	0.199
-558.485	-107.358	-0.312	-0.069
-557.471	250.837	-0.133	-0.227
-556.456	179.197	0.135	-0.198
-555.442	-200.000	-0.067	-0.397
-554.427	-155.873	-0.075	-0.005
-553.412	-113.442	-0.092	0.018
-552.398	-200.000	0.013	-0.245
-551.383	-200.000	0.047	0.241
-550.369	-200.000	-0.014	0.127
-549.354	-200.000	-0.041	-0.188
-548.339	178.699	0.156	-0.229
-547.325	-87.435	-0.259	-0.079
-546.310	-160.546	-0.205	0.011
-545.296	-200.000	0.024	-0.277
-544.281	-200.000	0.046	-0.262
-543.266	-87.973	-0.045	0.014
-542.252	396.393	0.023	-0.048
-541.237	-21.202	0.195	-0.120
-540.223	-80.480	0.277	0.093
-539.208	76.839	0.271	-0.290
-538.193	58.176	0.185	-0.183
-537.179	231.563	-0.089	0.148
-536.164	14.098	-0.093	0.073
-535.150	-19.197	0.234	0.146
-534.135	-200.000	-0.051	0.258
-533.121	65.207	-0.211	-0.214
-532.106	3.908	-0.095	-0.070
-531.091	-116.006	0.164	0.031
-530.077	41.890	0.112	0.102
-529.062	404.958	0.145	-0.308
-528.048	800.000	0.034	-0.140
-527.033	123.452	-0.086	0.109
-526.018	315.466	-0.008	-0.016
-525.004	393.258	0.102	0.213
-523.989	800.000	-0.135	0.474
-522.975	-200.000	0.051	0.337
-521.960	-200.000	0.032	0.213
-520.945	284.752	0.192	0.349
-519.931	-69.003	0.037	-0.014
-518.916	44.707	0.093	-0.086
-517.902	211.897	-0.096	-0.153
-516.887	-140.836	-0.110	-0.011
-515.872	-53.519	-0.174	-0.080
-514.858	144.366	-0.009	0.012
-513.843	50.529	0.124	-0.118
-512.829	58.579	0.344	0.339
-511.814	125.148	0.058	0.073
-510.799	-200.000	0.032	0.234
-509.785	219.282	0.132	-0.212
-508.770	-163.621	-0.191	0.009
-507.756	471.396	-0.042	-0.095
-506.741	198.681	0.076	-0.118
-505.726	277.869	0.187	0.334
-504.712	250.677	-0.120	0.204
-503.697	-154.224	-0.389	0.026
-502.683	169.007	0.185	-0.265
-501.668	191.860	-0.110	0.167
-500.653	-200.000	0.081	0.376
-499.639	-200.000	0.022	0.157
-498.624	800.000	-0.037	0.154
-497.610	800.000	-0.069	0.215
-496.595	-32.501	0.139	-0.078
-495.581	14.181	-0.224	-0.176
-494.566	-130.071	-0.324	-0.044
-493.551	620.466	0.112	0.284
-492.537	800.000	-0.086	-0.245
-491.522	411.726	-0.079	0.168
-490.508	-62.854	-0.163	0.068
-489.493	-93.054	0.340	0.095
-488.478	-96.781	0.200	-0.053
-487.464	-186.462	0.231	0.003
-486.449	-55.138	-0.267	0.121
-485.435	-200.000	-0.004	0.175
-484.420	-9.481	0.279	0.187
-483.405	-90.399	0.338	0.098
-482.391	-153.461	0.175	0.012
-481.376	-100.772	-0.117	-0.029
-480.362	-110.213	0.442	0.093
-479.347	259.343	-0.112	0.195
-478.332	-170.708	0.257	0.009
-477.318	30.071	-0.183	0.157
-476.303	371.034	-0.013	0.027
-475.289	149.060	-0.189	-0.257
-474.274	73.858	0.128	-0.135
-473.259	-19.554	0.230	0.143
-472.245	-149.194	0.057	0.005
-471.230	10.509	-0.086	0.066
-470.216	377.284	-0.131	0.270
-469.201	-200.000	-0.002	0.051
-468.186	-200.000	0.024	0.170
-467.172	-200.000	0.009	-0.349
-466.157	-200.000	-0.027	-0.208
-465.143	44.551	0.191	-0.176
-464.128	44.965	0.145	0.134
-463.113	334.096	-0.041	-0.080
-462.099	379.165	0.026	0.054
-461.084	-25.486	-0.104	-0.062
-460.070	-131.102	-0.082	0.011
-459.055	-3.134	-0.222	0.156
-458.040	800.000	0.093	-0.277
-457.026	-27.947	0.048	0.028
-456.011	-200.000	0.040	-0.210
-454.997	129.606	0.145	0.187
-453.982	498.672	-0.057	-0.133
-452.968	-24.204	0.207	0.124
-451.953	-17.479	-0.114	-0.072
-450.938	800.000	0.069	0.262
-449.924	-68.802	-0.336	0.130
-448.909	7.844	-0.169	0.127
-447.895	681.711	-0.040	0.105
-446.880	38.214	-0.232	-0.207
-445.865	19.177	0.166	0.133
-444.851	-24.792	0.058	0.034
-443.836	-33.734	-0.146	0.081
-442.822	-87.981	-0.021	0.006
-441.807	-200.000	-0.006	-0.138
-440.792	-107.422	-0.192	0.042
-439.778	-160.783	0.206	-0.011
-438.763	-88.676	-0.306	-0.091
-437.749	-90.534	-0.216	-0.063
-436.734	-85.822	-0.419	-0.130
-435.719	100.976	-0.023	0.027
-434.705	-13.331	0.088	-0.057
-433.690	4.028	-0.071	0.052
-432.676	509.570	-0.149	-0.347
-431.661	-65.093	0.127	-0.052
-430.646	71.852	-0.102	-0.106
-429.632	305.370	0.132	-0.246
-428.617	800.000	-0.094	-0.333
-427.603	328.186	-0.150	-0.289
-426.588	-86.396	0.158	0.049
-425.573	800.000	0.026	0.114
-424.559	800.000	0.042	0.132
-423.544	-200.000	0.046	-0.206
-422.530	-153.535	0.185	-0.013
-421.515	-87.779	0.314	0.095
-420.500	-52.752	-0.189	-0.087
-419.486	-17.654	-0.234	-0.147
-418.471	64.806	0.200	-0.203
-417.457	30.977	0.048	0.041
-416.442	58.225	-0.065	0.064
-415.428	-90.308	0.344	0.100
-414.413	-2.211	-0.142	-0.100
-413.398	-18.080	-0.294	-0.185
-412.384	-25.645	-0.483	-0.286
-411.369	92.097	0.075	-0.085
-410.355	122.408	0.101	0.127
-409.340	111.577	0.197	-0.238
-408.325	-51.049	0.171	0.080
-407.311	-168.673	0.133	0.005
-406.296	120.659	-0.215	0.267
-405.282	-200.000	0.019	0.127
-404.267	18.474	-0.033	0.027
-403.252	-135.296	0.188	-0.023
-402.238	-200.000	0.007	0.156
-401.223	-200.000	-0.053	-0.377
-400.209	-107.778	-0.220	0.048
-399.194	800.000	0.042	-0.137
-398.179	-131.537	0.272	0.036
-397.165	-200.000	-0.022	-0.190
-396.150	157.584	0.134	-0.186
-395.136	146.587	0.140	-0.188
-394.121	-200.000	0.005	0.033
-393.106	-54.351	-0.265	-0.120
-392.092	-200.000	0.005	0.204
-391.077	251.561	-0.106	0.181
-390.063	800.000	-0.056	-0.156
-389.048	150.383	-0.127	-0.172
-388.033	195.342	0.085	0.130
-387.019	25.233	0.113	0.094
-386.004	-77.227	0.191	0.066
-384.990	-90.024	-0.194	-0.057
-383.975	36.186	0.170	-0.150
-382.960	800.000	-0.085	-0.251
-381.946	800.000	-0.076	-0.257
-380.931	-124.826	0.393	0.061
-379.917	715.421	0.003	0.007
-378.902	-53.377	-0.168	-0.077
-377.888	32.172	0.188	-0.162
-376.873	164.949	0.084	-0.119
-375.858	-49.769	0.330	-0.157
-374.844	69.801	0.293	0.302
-373.829	275.581	0.209	0.371
-372.815	-152.087	-0.222	-0.016
-371.800	224.050	0.045	0.073
-370.785	210.211	-0.160	0.251
-369.771	117.134	0.154	0.189
-368.756	800.000	0.063	0.209
-367.742	-91.366	0.177	-0.050
-366.727	-200.000	-0.044	-0.208
-365.712	-88.727	-0.138	0.041
-364.698	693.102	0.112	-0.295
-363.683	170.460	0.087	-0.124
-362.669	-102.016	0.271	-0.065
-361.654	-107.699	-0.099	-0.022
-360.639	-200.000	0.046	0.273
-359.625	-200.000	-0.016	-0.097
-358.610	-61.739	-0.065	0.027
-357.596	-0.244	-0.384	0.273
-356.581	-200.000	0.069	0.312
-355.566	-200.000	-0.009	-0.277
-354.552	-51.008	-0.205	-0.096
-353.537	-28.865	-0.300	-0.172
-352.523	-41.303	0.112	-0.058
-351.508	-83.416	0.368	-0.118
-350.493	-163.600	0.182	-0.009
-349.479	-149.726	0.191	-0.015
-348.464	80.270	-0.065	-0.070
-347.450	-59.252	0.305	0.131
-346.435	81.338	0.085	-0.092
-345.420	-99.809	0.337	-0.084
-344.406	-70.351	0.133	0.050
-343.391	-149.924	-0.178	-0.014
-342.377	-182.941	-0.347	-0.006
-341.362	45.115	0.198	0.182
-340.348	96.513	-0.121	0.139
-339.333	-38.307	0.256	0.135
-338.318	-200.000	0.044	0.282
-337.304	-30.136	0.083	-0.047
-336.289	-45.072	0.083	0.041
-335.275	2.905	-0.361	-0.262
-334.260	337.411	-0.187	-0.363
-333.245	800.000	0.050	-0.194
-332.231	800.000	0.074	-0.206
-331.216	-4.704	0.150	-0.104
-330.202	97.128	-0.059	-0.068
-329.187	224.205	-0.189	0.305
-328.172	-157.034	-0.328	-0.020
-327.158	83.720	0.155	0.169
-326.143	-13.885	-0.307	0.198
-325.129	-37.589	-0.156	-0.083
-324.114	800.000	-0.054	0.225
-323.099	-97.131	0.263	-0.069
-322.085	-154.267	0.214	0.014
-321.070	-200.000	-0.042	0.373
-320.056	-152.798	-0.155	0.011
-319.041	188.815	0.141	-0.211
-318.026	-122.637	0.260	-0.042
-317.012	-4.508	0.338	0.233
-315.997	-147.924	-0.291	0.024
-314.983	90.638	-0.182	-0.204
-313.968	90.931	-0.068	0.076
-312.953	-200.000	0.006	0.078
-311.939	401.509	-0.099	-0.207
-310.924	7.317	0.264	0.197
-309.910	-169.890	0.100	0.004
-308.895	259.159	-0.013	0.023
-307.880	-200.000	0.022	0.328
-306.866	334.034	-0.142	0.274
-305.851	-30.250	-0.424	0.240
-304.837	-47.711	-0.162	-0.078
-303.822	800.000	-0.073	0.303
-302.807	83.183	0.247	0.268
-301.793	-55.998	-0.128	0.057
-300.778	266.068	-0.128	0.223
-299.764	800.000	0.042	-0.133
-298.749	-200.000	-0.006	-0.235
-297.735	92.122	-0.105	0.118
-296.720	139.641	-0.098	-0.129
-295.705	-200.000	0.014	-0.092
-294.691	-56.443	-0.138	-0.061
-293.676	-179.815	-0.077	0.002
-292.662	-200.000	0.029	-0.206
-291.647	265.570	-0.063	-0.110
-290.632	132.371	0.108	-0.139
-289.618	-79.792	0.230	-0.077
-288.603	800.000	-0.038	0.106
-287.589	-200.000	-0.020	-0.358
-286.574	800.000	0.164	0.452
-285.559	-7.805	0.239	-0.161
-284.545	800.000	0.073	0.258
-283.530	-21.855	0.289	0.175
-282.516	-200.000	-0.027	-0.130
-281.501	224.577	0.168	0.270
-280.486	-2.772	0.160	0.112
-279.472	8.213	-0.052	0.039
-278.457	-200.000	-0.040	0.298
-277.443	-37.528	0.288	-0.153
-276.428	372.970	-0.108	0.218
-275.413	119.829	0.145	-0.179
-274.399	-99.531	-0.290	0.073
-273.384	-200.000	-0.004	-0.323
-272.370	72.664	0.165	0.172
-271.355	157.884	-0.014	0.020
-270.340	800.000	0.046	0.174
-269.326	-111.857	-0.509	-0.103
-268.311	243.337	-0.088	-0.147
-267.297	640.309	0.032	-0.082
-266.282	-102.407	0.252	-0.060
-265.267	-200.000	-0.017	-0.332
-264.253	800.000	0.129	-0.393
-263.238	-200.000	-0.042	-0.358
-262.224	631.907	0.057	0.143
-261.209	-97.271	0.132	0.034
-260.195	91.800	0.238	-0.267
-259.180	39.027	-0.061	0.055
-258.165	-200.000	-0.002	0.271
-257.151	-95.696	-0.261	0.069
-256.136	723.739	-0.020	0.054
-255.122	-41.430	-0.349	0.179
-254.107	-200.000	-0.013	-0.209
-253.092	-200.000	-0.015	0.092
-252.078	-74.024	0.165	-0.060
-251.063	30.462	0.137	-0.117
-250.049	109.107	0.029	-0.035
-249.034	123.066	0.257	0.321
-248.019	543.638	-0.177	0.420
-247.005	-200.000	-0.026	0.153
-245.990	800.000	0.079	-0.330
-244.976	-116.221	-0.260	-0.048
-243.961	162.587	-0.168	-0.235
-242.946	800.000	0.038	0.146
-241.932	-200.000	-0.015	-0.229
-240.917	-73.098	0.322	-0.118
-239.903	-128.266	-0.007	-0.001
-238.888	507.443	-0.138	-0.320
-237.873	632.045	-0.026	0.065
-236.859	709.227	0.123	0.324
-235.844	74.603	-0.185	0.193
-234.830	-4.620	0.235	0.162
-233.815	800.000	-0.044	-0.186
-232.800	273.705	-0.258	-0.454
-231.786	27.082	-0.088	0.073
-230.771	800.000	-0.066	0.182
-229.757	152.034	0.137	0.186
-228.742	800.000	-0.079	0.268
-227.727	125.836	0.004	-0.006
-226.713	-14.663	0.241	0.154
-225.698	-26.649	-0.170	-0.099
-224.684	113.889	0.285	-0.345
-223.669	-87.156	-0.246	-0.074
-222.655	37.993	0.074	0.065
-221.640	-60.782	0.052	-0.022
-220.625	140.369	-0.141	-0.186
-219.611	-125.172	-0.079	-0.012
-218.596	-86.440	0.034	0.010
-217.582	-101.402	0.169	-0.041
-216.567	-9.091	0.107	-0.071
-215.552	-200.000	0.032	0.240
-214.538	-108.976	0.081	0.017
-213.523	-200.000	-0.005	0.058
-212.509	800.000	-0.046	0.131
-211.494	-168.350	-0.083	-0.003
-210.479	173.702	-0.091	0.131
-209.465	-98.604	-0.520	-0.132
-208.450	23.544	0.124	0.102
-207.436	800.000	0.064	0.216
-206.421	501.656	0.039	0.090
-205.406	-109.260	-0.418	0.088
-204.392	188.285	-0.166	-0.247
-203.377	-19.467	0.324	0.199
-202.363	800.000	-0.056	0.159
-201.348	-100.511	-0.259	-0.064
-200.333	398.352	0.104	0.216
-199.319	191.612	-0.059	-0.089
-198.304	-200.000	-0.013	0.189
-197.290	-147.722	0.319	-0.027
-196.275	800.000	0.076	0.288
-195.260	800.000	0.118	0.443
-194.246	-178.168	0.284	-0.007
-193.231	-200.000	0.063	0.275
-192.217	-62.615	0.086	0.035
-191.202	800.000	0.119	-0.405
-190.187	-59.468	0.205	0.087
-189.173	-200.000	-0.049	0.230
-188.158	2.522	-0.371	0.267
-187.144	-24.192	0.278	-0.165
-186.129	-58.227	0.242	0.105
-185.114	-175.170	0.110	0.003
-184.100	-19.603	0.342	-0.210
-183.085	-200.000	-0.099	0.442
-182.071	-126.889	-0.435	0.064
-181.056	-150.057	0.149	-0.011
-180.042	-200.000	0.087	0.406
-179.027	489.337	-0.153	0.348
-178.012	-143.649	-0.386	-0.036
-176.998	-155.446	-0.101	-0.006
-175.983	-200.000	0.009	-0.102
-174.969	-200.000	0.027	-0.140
-173.954	140.989	-0.158	0.208
-172.939	254.634	-0.094	0.160
-171.925	-200.000	0.023	-0.173
-170.910	-24.291	0.064	-0.038
-169.896	-200.000	0.022	0.177
-168.881	-141.576	-0.288	-0.029
-167.866	726.477	-0.125	-0.332
-166.852	-20.263	-0.337	0.206
-165.837	-64.752	-0.086	0.034
-164.823	279.248	0.135	-0.240
-163.808	192.806	-0.259	0.389
-162.793	54.186	-0.114	-0.109
-161.779	-111.994	0.231	0.046
-160.764	-196.899	-0.241	-0.002
-159.750	96.477	0.128	0.146
-158.735	148.863	-0.174	0.233
-157.720	133.299	0.208	0.266
-156.706	-37.211	-0.217	0.115
-155.691	-3.274	0.037	-0.025
-154.677	435.930	0.127	-0.275
-153.662	-109.913	0.271	-0.056
-152.647	-200.000	-0.044	0.208
-151.633	142.929	0.170	0.225
-150.618	36.255	0.271	-0.237
-149.604	800.000	0.149	-0.482
-148.589	800.000	0.073	-0.223
-147.574	-127.814	0.068	-0.010
-146.560	18.235	-0.249	0.197
-145.545	-73.251	0.459	-0.167
-144.531	45.969	-0.120	-0.110
-143.516	-116.004	0.331	0.061
-142.502	-20.021	-0.297	-0.182
-141.487	185.359	-0.034	0.051
-140.472	-150.564	-0.247	0.019
-139.458	167.890	-0.108	-0.152
-138.443	190.796	0.158	0.236
-137.429	155.712	0.134	0.183
-136.414	-156.977	0.304	0.018
-135.399	-10.747	0.389	0.255
-134.385	-68.902	-0.391	-0.149
-133.370	232.615	0.132	0.215
-132.356	443.694	-0.059	-0.129
-131.341	-200.000	-0.093	0.419
-130.326	88.777	0.123	-0.135
-129.312	800.000	0.048	-0.157
-128.297	-27.242	0.215	-0.124
-127.283	-4.262	0.155	-0.106
-126.268	170.227	-0.022	0.031
-125.253	-200.000	-0.021	0.240
-124.239	800.000	0.071	-0.251
-123.224	360.293	-0.153	-0.304
-122.210	-200.000	-0.055	-0.279
