DTS Sentinel unit serial number:	SN413079Multiplexer serial number:	ORYXHardware model number:	OX4-SRSoftware version number:	ORYX F/W v4.00 Oryx Data Collector v3.7.2.0data status	okinstallation	princeton_trtdifferential loss correction	single-endedforward channel	channel 4reverse channel	N/Adate	2019/09/16time	06:53:34forward acquisition time	60.00reverse acquisition time	0.00gamma	496.2192k internal	0.2321k external	0.2321temperature offset calibration	0.9979default loss term (dB/km)	0.3790temperature slope calibration	1.0000multiplexer offset coefficient	1.0000multiplexer slope coefficient	1.0000fibre end	0.00T internal ref (°C)	27.37T ext. ref 1 (°C)	11.45T ext. ref 2 (°C)	21.78length (m)	temperature (°C)	Stokes	anti-Stokes-747.200	11.005	0.297	-0.230
-746.185	-66.598	-0.128	-0.051
-745.171	-200.000	-0.010	-0.218
-744.156	509.656	-0.029	-0.069
-743.142	-89.517	-0.314	-0.093
-742.127	800.000	0.083	0.278
-741.112	-97.309	-0.253	-0.067
-740.098	-130.364	0.167	0.023
-739.083	201.028	0.024	0.038
-738.069	152.966	-0.148	0.205
-737.054	686.001	-0.087	0.231
-736.039	800.000	-0.019	0.056
-735.025	-200.000	0.008	-0.084
-734.010	-200.000	-0.008	-0.239
-732.996	-200.000	0.009	-0.064
-731.981	310.070	-0.069	0.130
-730.966	-200.000	-0.041	0.272
-729.952	800.000	-0.043	-0.127
-728.937	225.317	-0.126	-0.207
-727.923	95.103	0.111	-0.128
-726.908	-26.335	-0.118	0.070
-725.894	11.769	0.083	-0.065
-724.879	-34.768	-0.307	0.170
-723.864	800.000	-0.106	0.446
-722.850	-50.752	-0.403	-0.191
-721.835	-32.961	0.150	0.084
-720.821	171.304	0.214	0.310
-719.806	-181.362	-0.160	-0.003
-718.791	-200.000	-0.052	-0.521
-717.777	-61.714	0.218	-0.092
-716.762	231.526	0.115	-0.191
-715.748	-122.427	0.030	-0.005
-714.733	-200.000	0.006	-0.319
-713.718	-48.954	0.211	0.102
-712.704	-91.299	0.050	0.014
-711.689	718.366	0.118	0.316
-710.675	16.245	-0.366	-0.291
-709.660	-14.264	0.195	0.127
-708.645	800.000	0.055	0.215
-707.631	800.000	0.134	0.451
-706.616	-59.291	-0.204	-0.089
-705.602	800.000	-0.043	0.151
-704.587	-132.698	0.119	-0.015
-703.572	-200.000	-0.039	-0.250
-702.558	-152.019	0.110	0.008
-701.543	-200.000	-0.068	-0.370
-700.529	-45.326	-0.351	0.176
-699.514	-112.585	-0.308	-0.062
-698.499	-87.559	-0.137	-0.042
-697.485	-118.932	0.278	-0.049
-696.470	-200.000	-0.117	-0.590
-695.456	-69.861	0.242	-0.093
-694.441	80.658	0.202	-0.220
-693.426	-200.000	-0.015	-0.198
-692.412	800.000	0.137	-0.388
-691.397	-50.144	0.071	-0.034
-690.383	-86.870	0.128	-0.039
-689.368	-191.391	0.427	-0.004
-688.354	-77.496	-0.255	-0.089
-687.339	-96.755	0.147	-0.039
-686.324	219.357	0.096	-0.156
-685.310	800.000	-0.088	0.317
-684.295	800.000	0.055	0.161
-683.281	-3.248	0.252	-0.177
-682.266	-97.406	-0.333	-0.087
-681.251	-200.000	0.004	-0.190
-680.237	-46.148	-0.276	-0.137
-679.222	414.862	0.191	-0.410
-678.208	-200.000	-0.027	0.282
-677.193	25.796	0.235	-0.198
-676.178	35.161	-0.060	0.053
-675.164	-200.000	-0.045	0.434
-674.149	800.000	-0.116	-0.357
-673.135	-24.167	0.220	-0.133
-672.120	-163.185	-0.154	0.007
-671.105	636.681	-0.044	0.113
-670.091	-200.000	-0.016	-0.185
-669.076	-164.485	0.111	-0.005
-668.062	594.409	0.122	0.304
-667.047	-92.560	-0.316	-0.089
-666.032	-110.414	-0.202	0.042
-665.018	40.934	0.055	0.050
-664.003	-63.588	-0.309	0.128
-662.989	800.000	0.055	0.193
-661.974	800.000	-0.058	0.211
-660.959	-200.000	0.029	-0.222
-659.945	-80.964	0.312	-0.104
-658.930	465.405	-0.151	-0.341
-657.916	800.000	0.018	0.077
-656.901	-54.458	0.219	-0.100
-655.886	16.880	-0.186	0.148
-654.872	7.041	-0.238	0.179
-653.857	-16.463	-0.172	0.110
-652.843	800.000	-0.052	0.146
-651.828	8.909	-0.288	-0.219
-650.814	-120.303	-0.420	-0.072
-649.799	-200.000	-0.013	-0.210
-648.784	182.993	0.171	0.254
-647.770	800.000	-0.030	0.133
-646.755	46.075	0.335	0.313
-645.741	-200.000	0.003	0.290
-644.726	800.000	0.063	-0.191
-643.711	398.367	0.099	0.208
-642.697	123.790	0.183	-0.231
-641.682	-29.396	0.079	0.045
-640.668	-200.000	0.013	0.182
-639.653	-93.621	0.079	-0.022
-638.638	110.260	0.166	0.201
-637.624	42.716	-0.283	-0.259
-636.609	-94.001	0.264	-0.073
-635.595	6.355	0.123	-0.092
-634.580	-157.734	-0.140	-0.008
-633.565	-36.365	0.096	-0.052
-632.551	-200.000	0.054	0.241
-631.536	-200.000	0.048	0.332
-630.522	8.753	0.122	0.093
-629.507	-200.000	-0.020	0.209
-628.492	138.949	-0.075	-0.100
-627.478	-85.011	-0.222	0.070
-626.463	-200.000	-0.017	-0.162
-625.449	-200.000	0.017	0.189
-624.434	152.325	0.107	0.147
-623.419	-99.668	-0.062	-0.016
-622.405	325.981	-0.147	-0.284
-621.390	-63.111	0.075	-0.031
-620.376	-34.977	0.095	0.052
-619.361	-72.971	0.106	0.039
-618.346	576.670	-0.088	-0.216
-617.332	348.211	0.102	0.202
-616.317	-41.987	0.145	0.075
-615.303	50.848	-0.344	-0.328
-614.288	-168.374	0.056	0.002
-613.273	-149.102	0.122	0.010
-612.259	9.851	0.054	0.041
-611.244	-200.000	-0.009	0.352
-610.230	800.000	0.056	-0.205
-609.215	-134.312	-0.141	-0.017
-608.201	-36.236	-0.179	0.097
-607.186	-32.041	-0.366	0.206
-606.171	800.000	0.059	0.198
-605.157	-200.000	-0.099	-0.480
-604.142	-200.000	0.014	-0.083
-603.128	800.000	-0.142	-0.504
-602.113	13.375	-0.148	-0.115
-601.098	-200.000	-0.018	-0.157
-600.084	41.053	-0.131	-0.119
-599.069	-200.000	0.028	-0.203
-598.055	581.420	0.114	0.281
-597.040	-157.465	0.136	-0.008
-596.025	333.207	0.109	0.213
-595.011	-122.517	-0.217	-0.036
-593.996	-30.606	-0.266	-0.151
-592.982	190.133	-0.126	0.190
-591.967	327.935	0.040	-0.077
-590.952	-111.345	0.296	-0.061
-589.938	800.000	0.103	-0.286
-588.923	-200.000	-0.036	-0.163
-587.909	246.572	0.240	-0.407
-586.894	-23.564	0.250	0.151
-585.879	800.000	-0.060	0.176
-584.865	409.298	0.081	-0.172
-583.850	-200.000	-0.049	0.328
-582.836	-98.445	-0.298	-0.077
-581.821	-108.223	0.151	-0.033
-580.806	-86.394	-0.214	-0.066
-579.792	-127.920	-0.541	-0.078
-578.777	-63.048	-0.193	0.080
-577.763	41.239	0.175	0.159
-576.748	103.142	0.308	-0.362
-575.733	-200.000	0.001	0.147
-574.719	-200.000	0.006	-0.265
-573.704	41.964	-0.024	-0.022
-572.690	-200.000	0.014	0.107
-571.675	-172.538	-0.077	0.002
-570.661	86.990	-0.112	0.124
-569.646	-97.439	-0.231	0.060
-568.631	89.667	0.090	0.101
-567.617	-4.017	-0.052	-0.036
-566.602	-200.000	0.023	0.266
-565.588	-200.000	0.016	0.277
-564.573	300.221	-0.081	0.150
-563.558	-124.554	-0.236	0.037
-562.544	-101.113	0.169	0.041
-561.529	-40.240	0.227	-0.119
-560.515	-125.486	0.203	0.031
-559.500	305.358	-0.121	0.225
-558.485	288.775	0.078	0.142
-557.471	336.835	0.103	0.201
-556.456	-200.000	-0.032	-0.214
-555.442	123.526	-0.162	-0.204
-554.427	-65.158	-0.216	-0.087
-553.412	-55.232	-0.169	0.076
-552.398	167.940	0.166	-0.237
-551.383	40.889	0.036	-0.033
-550.369	-200.000	0.024	-0.368
-549.354	-200.000	0.027	0.184
-548.339	800.000	-0.022	0.080
-547.325	288.085	-0.112	0.203
-546.310	200.863	-0.196	-0.303
-545.296	17.132	0.198	0.158
-544.281	-22.087	-0.305	-0.186
-543.266	-200.000	-0.006	-0.520
-542.252	128.462	0.216	0.276
-541.237	800.000	-0.107	0.346
-540.223	-108.174	0.136	0.030
-539.208	130.877	-0.212	-0.273
-538.193	-2.526	0.114	0.080
-537.179	-136.040	0.172	0.020
-536.164	-59.118	0.329	-0.142
-535.150	-100.719	-0.326	-0.081
-534.135	-200.000	-0.034	-0.178
-533.121	63.597	-0.089	0.090
-532.106	-200.000	0.009	0.132
-531.091	-125.734	-0.112	-0.017
-530.077	-147.201	-0.100	-0.009
-529.062	61.224	-0.075	0.075
-528.048	408.507	0.102	-0.217
-527.033	700.365	-0.083	-0.219
-526.018	-158.958	-0.332	0.019
-525.004	-25.092	0.416	0.247
-523.989	-200.000	0.002	0.218
-522.975	-134.354	-0.104	0.013
-521.960	-200.000	-0.014	-0.062
-520.945	742.384	0.023	-0.061
-519.931	-162.982	0.099	0.005
-518.916	183.366	0.139	0.205
-517.902	-165.977	-0.192	-0.008
-516.887	40.807	-0.073	0.066
-515.872	792.357	-0.064	0.176
-514.858	-185.734	-0.479	0.007
-513.843	800.000	0.098	0.315
-512.829	800.000	-0.049	0.198
-511.814	-88.244	-0.125	0.037
-510.799	55.406	0.130	0.126
-509.785	17.991	0.150	0.120
-508.770	-115.494	-0.327	-0.062
-507.756	-200.000	-0.054	0.463
-506.741	5.009	-0.103	0.076
-505.726	-104.859	0.054	0.012
-504.712	-200.000	0.046	0.231
-503.697	-200.000	0.029	0.489
-502.683	-58.482	-0.292	0.127
-501.668	57.487	-0.167	-0.164
-500.653	-144.235	0.178	-0.017
-499.639	241.637	0.041	-0.069
-498.624	-200.000	0.038	-0.405
-497.610	255.676	0.089	-0.152
-496.595	-11.065	-0.289	-0.191
-495.581	176.812	-0.179	0.261
-494.566	9.385	-0.198	-0.150
-493.551	-200.000	0.032	-0.274
-492.537	57.321	0.129	-0.127
-491.522	-53.839	0.302	0.138
-490.508	104.897	-0.150	-0.177
-489.493	364.501	0.016	-0.032
-488.478	-19.157	0.190	-0.118
-487.464	132.061	-0.156	-0.201
-486.449	-139.200	0.043	-0.005
-485.435	-119.432	-0.232	-0.040
-484.420	75.017	-0.226	-0.238
-483.405	85.170	0.086	0.094
-482.391	-4.526	0.239	0.165
-481.376	32.070	-0.285	0.246
-480.362	41.817	0.191	-0.174
-479.347	114.542	0.059	0.071
-478.332	-122.686	0.371	-0.060
-477.318	141.463	-0.194	0.257
-476.303	800.000	-0.056	0.231
-475.289	-200.000	-0.038	0.322
-474.274	-2.247	0.171	0.120
-473.259	-41.241	0.145	-0.075
-472.245	-32.143	0.268	0.150
-471.230	547.845	-0.064	-0.153
-470.216	-192.660	0.088	-0.001
-469.201	321.829	-0.087	-0.165
-468.186	-20.644	0.214	0.132
-467.172	69.791	-0.021	-0.022
-466.157	-200.000	-0.021	-0.109
-465.143	-91.657	-0.331	-0.094
-464.128	-25.026	-0.073	0.043
-463.113	800.000	-0.087	-0.264
-462.099	183.403	-0.126	-0.186
-461.084	29.344	0.078	0.066
-460.070	-83.444	-0.304	-0.097
-459.055	53.490	-0.099	0.095
-458.040	-92.518	-0.088	0.025
-457.026	-150.356	0.236	-0.018
-456.011	-173.059	-0.214	-0.007
-454.997	800.000	0.086	0.256
-453.982	-200.000	-0.044	0.345
-452.968	-34.545	0.099	-0.054
-451.953	-34.581	0.484	-0.265
-450.938	-111.145	-0.261	-0.053
-449.924	-200.000	-0.043	-0.327
-448.909	6.941	0.152	0.113
-447.895	619.678	0.021	0.052
-446.880	-18.380	-0.145	-0.091
-445.865	83.847	-0.128	0.139
-444.851	-11.622	-0.203	0.133
-443.836	-106.476	0.283	-0.063
-442.822	-73.986	0.127	0.046
-441.807	40.636	0.329	-0.296
-440.792	-45.510	0.218	-0.108
-439.778	282.122	-0.072	0.129
-438.763	238.477	-0.079	-0.131
-437.749	107.126	-0.113	-0.134
-436.734	-148.811	0.182	-0.015
-435.719	-23.389	-0.053	-0.032
-434.705	165.420	-0.065	0.091
-433.690	-23.382	-0.150	0.090
-432.676	43.224	-0.324	0.295
-431.661	48.369	0.111	0.104
-430.646	-13.095	-0.284	0.184
-429.632	-175.134	0.158	-0.004
-428.617	75.827	-0.116	0.123
-427.603	-76.781	-0.094	0.033
-426.588	-120.140	-0.095	0.016
-425.573	38.859	-0.080	-0.071
-424.559	176.937	0.131	0.191
-423.544	800.000	-0.031	-0.128
-422.530	-200.000	0.018	-0.223
-421.515	-88.238	-0.300	-0.090
-420.500	800.000	-0.114	-0.398
-419.486	-108.172	-0.201	0.044
-418.471	800.000	0.061	0.235
-417.457	3.744	-0.047	-0.034
-416.442	-31.734	0.176	-0.098
-415.428	27.259	-0.263	0.221
-414.413	800.000	-0.056	-0.170
-413.398	-78.420	0.511	-0.175
-412.384	167.738	0.075	-0.106
-411.369	-147.405	0.392	0.033
-410.355	218.198	-0.162	-0.258
-409.340	800.000	0.032	-0.090
-408.325	-200.000	0.011	0.180
-407.311	800.000	-0.070	-0.272
-406.296	63.011	-0.072	-0.072
-405.282	-95.286	-0.176	-0.047
-404.267	485.744	-0.112	0.255
-403.252	95.718	-0.035	0.040
-402.238	-111.267	0.273	0.056
-401.223	-33.551	0.310	0.171
-400.209	2.612	0.326	0.236
-399.194	-83.587	0.171	-0.055
-398.179	-105.655	0.034	0.008
-397.165	-48.433	-0.340	0.163
-396.150	-23.832	-0.213	-0.127
-395.136	-129.210	-0.083	0.011
-394.121	-200.000	-0.049	-0.498
-393.106	314.908	-0.133	-0.251
-392.092	-89.905	0.404	0.118
-391.077	-19.138	0.136	-0.084
-390.063	-20.688	0.189	0.116
-389.048	618.794	-0.061	-0.153
-388.033	-94.759	0.377	0.102
-387.019	159.608	0.262	0.363
-386.004	140.842	-0.157	0.207
-384.990	-181.600	0.080	-0.002
-383.975	-200.000	-0.034	-0.268
-382.960	-98.397	0.241	-0.062
-381.946	15.519	-0.129	-0.101
-380.931	-43.251	0.196	0.099
-379.917	-45.465	0.281	-0.139
-378.902	41.540	-0.115	0.104
-377.888	800.000	-0.041	0.142
-376.873	-200.000	0.028	0.169
-375.858	-133.968	0.351	0.043
-374.844	-150.198	-0.128	0.010
-373.829	-72.289	0.129	-0.048
-372.815	-122.566	-0.214	0.035
-371.800	132.914	-0.095	0.122
-370.785	-132.015	0.184	-0.024
-369.771	421.191	0.052	-0.111
-368.756	397.213	0.082	-0.172
-367.742	-46.490	-0.120	0.059
-366.727	475.506	-0.130	0.293
-365.712	198.572	-0.039	0.060
-364.698	-200.000	-0.036	-0.180
-363.683	-200.000	0.020	-0.221
-362.669	-160.078	-0.343	-0.019
-361.654	-178.614	-0.100	0.002
-360.639	800.000	-0.013	-0.052
-359.625	-3.910	-0.256	0.177
-358.610	800.000	-0.032	0.114
-357.596	151.294	0.265	-0.360
-356.581	88.815	-0.121	-0.134
-355.566	40.419	-0.424	0.380
-354.552	-16.596	-0.064	-0.041
-353.537	-105.837	0.173	-0.039
-352.523	104.849	0.090	-0.106
-351.508	14.202	-0.209	-0.162
-350.493	345.632	-0.097	-0.191
-349.479	-137.708	-0.149	0.017
-348.464	800.000	0.009	0.037
-347.450	-27.744	0.112	-0.065
-346.435	170.049	0.037	0.052
-345.420	81.125	-0.180	0.193
-344.406	7.179	-0.138	-0.102
-343.391	-25.984	0.253	0.148
-342.377	-70.554	0.245	-0.092
-341.362	46.290	-0.211	0.195
-340.348	454.948	-0.100	0.220
-339.333	-200.000	-0.070	0.381
-338.318	-200.000	-0.034	-0.210
-337.304	-61.112	0.128	0.054
-336.289	-33.641	0.209	-0.115
-335.275	-107.605	0.492	-0.107
-334.260	800.000	-0.119	0.361
-333.245	105.317	-0.115	0.135
-332.231	135.907	0.128	-0.166
-331.216	58.856	0.244	-0.238
-330.202	-11.985	0.135	-0.088
-329.187	-30.662	-0.287	0.161
-328.172	158.291	-0.158	-0.219
-327.158	-14.813	0.217	-0.139
-326.143	73.801	-0.132	0.137
-325.129	-62.282	-0.311	-0.129
-324.114	97.664	-0.117	-0.134
-323.099	-126.384	-0.157	-0.023
-322.085	468.735	-0.081	-0.180
-321.070	-80.866	0.224	-0.074
-320.056	-200.000	-0.029	0.153
-319.041	-37.506	-0.154	-0.081
-318.026	112.004	-0.153	0.184
-317.012	161.363	0.316	-0.440
-315.997	-101.920	0.274	-0.066
-314.983	-62.171	0.137	0.057
-313.968	19.001	-0.089	-0.071
-312.953	124.363	-0.154	-0.193
-311.939	-200.000	0.062	0.365
-310.924	-93.918	0.442	-0.121
-309.910	-84.050	0.169	-0.053
-308.895	173.870	0.076	0.110
-307.880	409.694	-0.100	-0.211
-306.866	-200.000	-0.067	-0.339
-305.851	272.729	0.114	0.200
-304.837	281.679	0.064	-0.113
-303.822	338.198	0.237	0.459
-302.807	476.943	0.045	-0.102
-301.793	-74.284	-0.214	-0.077
-300.778	232.459	0.181	-0.295
-299.764	154.569	-0.101	-0.138
-298.749	37.776	0.301	0.265
-297.735	800.000	-0.036	-0.118
-296.720	-79.851	0.032	0.011
-295.705	-200.000	0.026	-0.286
-294.691	-200.000	-0.046	0.269
-293.676	78.415	0.063	-0.067
-292.662	-200.000	-0.008	-0.124
-291.647	-88.672	0.273	-0.081
-290.632	-41.105	-0.070	-0.036
-289.618	-200.000	0.015	-0.265
-288.603	114.924	0.097	0.118
-287.589	800.000	0.048	0.152
-286.574	209.681	0.094	0.146
-285.559	-200.000	-0.009	-0.265
-284.545	-136.480	-0.212	0.024
-283.530	-158.661	-0.157	-0.009
-282.516	491.228	-0.021	-0.048
-281.501	-26.228	-0.148	0.086
-280.486	492.492	0.210	0.479
-279.472	89.226	0.028	-0.031
-278.457	120.374	-0.058	0.071
-277.443	-28.732	-0.327	0.187
-276.428	121.949	-0.138	-0.171
-275.413	-130.360	0.027	0.004
-274.399	-200.000	-0.004	-0.338
-273.384	215.033	0.147	0.231
-272.370	-22.577	-0.212	-0.127
-271.355	-85.973	-0.120	0.037
-270.340	91.250	0.379	0.422
-269.326	-56.199	0.223	0.099
-268.311	-148.065	-0.143	-0.012
-267.297	66.059	-0.257	-0.259
-266.282	36.598	0.131	-0.115
-265.267	-200.000	-0.024	-0.168
-264.253	282.445	-0.074	0.131
-263.238	800.000	0.125	0.392
-262.224	25.886	0.254	0.210
-261.209	-48.652	0.204	0.097
-260.195	283.481	0.006	0.010
-259.180	507.717	0.014	0.033
-258.165	-156.730	-0.168	-0.010
-257.151	56.129	-0.165	-0.159
-256.136	-200.000	-0.013	-0.117
-255.122	-60.888	0.127	-0.053
-254.107	206.444	0.129	0.200
-253.092	8.915	-0.297	0.222
-252.078	-144.070	0.152	-0.014
-251.063	83.040	-0.162	0.174
-250.049	-45.146	0.367	0.181
-249.034	477.812	-0.137	-0.307
-248.019	-43.288	0.270	0.135
-247.005	800.000	-0.072	-0.215
-245.990	-200.000	0.023	0.182
-244.976	185.985	-0.037	0.054
-243.961	-200.000	0.004	0.076
-242.946	-77.812	-0.063	-0.022
-241.932	-5.678	0.130	-0.088
-240.917	329.506	-0.093	0.177
-239.903	-89.864	0.129	0.037
-238.888	800.000	0.061	0.226
-237.873	-143.685	-0.337	-0.032
-236.859	0.299	0.135	0.095
-235.844	-145.305	-0.153	-0.014
-234.830	212.788	0.148	0.232
-233.815	800.000	-0.035	0.103
-232.800	-174.282	-0.277	0.008
-231.786	-153.931	0.172	0.012
-230.771	-200.000	-0.028	-0.140
-229.757	627.190	-0.038	-0.095
-228.742	800.000	0.019	0.056
-227.727	318.052	-0.110	0.206
-226.713	191.501	0.093	0.139
-225.698	90.114	-0.074	-0.082
-224.684	-111.531	-0.293	0.059
-223.669	131.828	-0.236	0.301
-222.655	-200.000	0.018	-0.156
-221.640	354.472	-0.129	0.254
-220.625	-189.483	0.340	-0.004
-219.611	174.062	0.131	0.187
-218.596	-26.046	0.064	-0.037
-217.582	-71.064	0.336	0.125
-216.567	-200.000	0.003	0.089
-215.552	38.852	-0.035	-0.031
-214.538	-21.971	-0.118	0.071
-213.523	-77.439	-0.045	0.015
-212.509	-137.781	-0.261	0.029
-211.494	-8.531	-0.245	-0.163
-210.479	-171.776	0.102	-0.003
-209.465	75.717	-0.291	-0.305
-208.450	-200.000	0.081	0.365
-207.436	111.557	0.236	-0.282
-206.421	783.702	-0.110	-0.298
-205.406	107.816	-0.383	-0.451
-204.392	-200.000	-0.005	0.124
-203.377	293.654	0.112	0.202
-202.363	-27.980	0.220	0.126
-201.348	-113.794	-0.289	0.056
-200.333	2.491	-0.358	0.257
-199.319	-200.000	0.016	0.163
-198.304	126.503	0.026	-0.033
-197.290	112.633	0.095	-0.114
-196.275	86.343	0.143	0.156
-195.260	101.298	0.117	-0.135
-194.246	197.798	0.133	-0.202
-193.231	800.000	0.030	0.091
-192.217	-196.947	-0.174	0.001
-191.202	529.072	-0.165	-0.385
-190.187	447.433	0.051	0.111
-189.173	-140.562	0.154	0.016
-188.158	-56.744	0.138	-0.061
-187.144	49.904	0.028	-0.026
-186.129	0.022	0.279	-0.197
-185.114	-138.301	-0.070	0.008
-184.100	250.889	0.196	-0.329
-183.085	-200.000	0.026	0.347
-182.071	156.169	-0.074	0.101
-181.056	-79.113	0.303	-0.102
-180.042	800.000	0.039	0.166
-179.027	-94.141	0.117	-0.032
-178.012	46.467	-0.120	0.110
-176.998	288.575	-0.071	-0.126
-175.983	220.978	-0.276	-0.438
-174.969	800.000	-0.124	-0.429
-173.954	-200.000	0.027	-0.191
-172.939	61.679	-0.107	-0.105
-171.925	-62.023	0.132	-0.054
-170.910	-200.000	-0.005	-0.257
-169.896	-153.214	0.599	-0.041
-168.881	-130.352	-0.263	0.035
-167.866	-96.642	-0.225	-0.059
-166.852	204.444	-0.087	-0.134
-165.837	-63.539	0.379	-0.154
-164.823	-6.046	-0.113	-0.076
-163.808	4.862	-0.162	-0.118
-162.793	-32.761	-0.130	-0.072
-161.779	-108.650	-0.191	-0.041
-160.764	138.984	0.138	-0.179
-159.750	-46.138	0.057	0.028
-158.735	430.901	-0.133	0.285
-157.720	-137.440	-0.056	0.006
-156.706	13.860	-0.067	-0.051
-155.691	-146.292	-0.168	-0.015
-154.677	32.428	0.058	0.050
-153.662	30.874	0.292	0.247
-152.647	-145.451	0.194	0.017
-151.633	-39.953	0.224	-0.115
-150.618	29.561	0.231	0.194
-149.604	375.971	-0.062	0.125
-148.589	-200.000	0.019	-0.103
-147.574	-200.000	0.007	0.082
-146.560	-200.000	0.005	-0.125
-145.545	-75.635	-0.242	-0.085
-144.531	-50.233	-0.273	-0.127
-143.516	-109.565	-0.125	0.026
-142.502	108.604	0.029	0.035
-141.487	800.000	-0.020	0.072
-140.472	-58.432	0.381	0.163
-139.458	170.933	0.074	-0.104
-138.443	538.330	0.104	-0.243
-137.429	-89.375	-0.255	0.074
-136.414	495.750	-0.042	-0.094
-135.399	800.000	-0.089	-0.271
-134.385	159.179	-0.161	0.220
-133.370	1.877	-0.303	0.216
-132.356	227.396	0.052	0.084
-131.341	65.070	0.207	-0.206
-130.326	-46.560	-0.116	-0.056
-129.312	-19.714	-0.087	-0.053
-128.297	43.088	-0.145	-0.131
-127.283	-200.000	0.003	0.238
-126.268	800.000	0.114	0.324
-125.253	-82.307	-0.050	-0.016
-124.239	-69.000	0.397	0.151
-123.224	800.000	0.118	0.336
-122.210	105.694	0.236	-0.275
-121.195	2.578	-0.147	0.105
