DTS Sentinel unit serial number:	SN413079Multiplexer serial number:	ORYXHardware model number:	OX4-SRSoftware version number:	ORYX F/W v4.00 Oryx Data Collector v3.7.2.0data status	okinstallation	princeton_trtdifferential loss correction	single-endedforward channel	channel 4reverse channel	N/Adate	2019/09/13time	08:49:35forward acquisition time	60.00reverse acquisition time	0.00gamma	496.2192k internal	0.2315k external	0.2315temperature offset calibration	1.0200default loss term (dB/km)	0.3790temperature slope calibration	1.0000multiplexer offset coefficient	1.0000multiplexer slope coefficient	1.0000fibre end	0.00T internal ref (°C)	28.06T ext. ref 1 (°C)	4.34T ext. ref 2 (°C)	25.01length (m)	temperature (°C)	Stokes	anti-Stokes-747.200	165.789	-0.060	-0.086
-746.185	-110.554	0.264	0.055
-745.171	246.220	0.008	0.013
-744.156	-52.043	-0.125	0.059
-743.142	800.000	0.089	0.346
-742.127	800.000	0.036	-0.139
-741.112	800.000	-0.026	0.080
-740.098	800.000	0.032	0.100
-739.083	-84.518	-0.157	0.050
-738.069	-67.451	0.150	-0.060
-737.054	800.000	0.070	0.211
-736.039	-75.587	-0.009	0.003
-735.025	21.712	0.332	-0.274
-734.010	-90.401	-0.390	-0.115
-732.996	-61.507	-0.264	0.112
-731.981	211.219	-0.218	0.347
-730.966	121.253	-0.195	-0.246
-729.952	-20.839	-0.305	-0.189
-728.937	266.925	-0.173	-0.306
-727.923	-99.048	-0.149	0.038
-726.908	-200.000	0.005	0.095
-725.894	-200.000	-0.021	0.136
-724.879	50.057	0.189	0.181
-723.864	-102.628	-0.056	0.013
-722.850	137.121	0.200	0.265
-721.835	458.462	-0.055	0.123
-720.821	-158.671	0.118	-0.007
-719.806	582.997	-0.054	0.134
-718.791	-17.296	0.145	0.092
-717.777	-200.000	0.010	0.062
-716.762	78.034	0.259	0.280
-715.748	800.000	0.029	-0.088
-714.733	201.665	-0.068	-0.105
-713.718	-52.022	0.180	-0.085
-712.704	73.314	-0.049	0.052
-711.689	-81.879	-0.161	-0.053
-710.675	-4.666	0.225	-0.157
-709.660	441.465	0.261	-0.577
-708.645	99.378	-0.207	-0.242
-707.631	-200.000	-0.047	0.295
-706.616	198.714	0.064	0.098
-705.602	-125.230	0.255	-0.040
-704.587	800.000	0.061	-0.250
-703.572	-83.983	-0.034	0.011
-702.558	85.068	0.221	0.246
-701.543	-200.000	-0.026	-0.212
-700.529	-44.832	0.204	-0.103
-699.514	-54.120	0.103	-0.047
-698.499	98.642	0.226	0.264
-697.485	174.617	-0.107	0.157
-696.470	216.675	0.006	-0.010
-695.456	-168.997	0.261	0.010
-694.441	800.000	-0.019	-0.059
-693.426	-96.885	0.204	-0.054
-692.412	62.994	0.062	0.063
-691.397	-84.909	-0.099	0.031
-690.383	-40.537	0.012	0.006
-689.368	-200.000	-0.009	0.131
-688.354	-10.050	0.294	0.198
-687.339	185.750	-0.050	0.074
-686.324	-124.076	0.281	-0.045
-685.310	634.789	-0.036	-0.093
-684.295	-200.000	-0.001	-0.054
-683.281	-200.000	-0.405	0.001
-682.266	136.942	-0.086	-0.113
-681.251	-200.000	0.014	0.092
-680.237	-179.675	0.218	-0.005
-679.222	-150.124	0.060	0.005
-678.208	119.407	-0.144	-0.180
-677.193	800.000	-0.060	0.188
-676.178	-8.799	0.240	0.163
-675.164	44.648	0.171	-0.159
-674.149	101.801	0.030	0.035
-673.135	29.462	-0.179	0.153
-672.120	74.705	0.263	0.280
-671.105	187.355	-0.048	0.072
-670.091	-147.257	-0.050	0.004
-669.076	77.646	0.111	-0.120
-668.062	-200.000	-0.035	-0.358
-667.047	401.598	0.037	0.079
-666.032	505.419	-0.089	0.209
-665.018	-163.959	-0.225	-0.011
-664.003	335.085	-0.039	0.076
-662.989	108.566	0.040	0.049
-661.974	-144.635	-0.218	0.020
-660.959	206.275	-0.058	-0.092
-659.945	-14.052	0.075	-0.049
-658.930	-69.567	-0.057	-0.022
-657.916	800.000	-0.043	-0.160
-656.901	446.480	0.066	-0.146
-655.886	-95.612	0.072	0.019
-654.872	-117.098	-0.187	0.034
-653.857	800.000	-0.053	-0.231
-652.843	72.046	-0.091	-0.095
-651.828	-22.307	0.049	-0.030
-650.814	-102.836	-0.234	0.056
-649.799	699.309	0.062	0.166
-648.784	-198.333	0.140	0.001
-647.770	800.000	0.077	0.249
-646.755	-37.198	-0.086	-0.047
-645.741	190.546	-0.054	0.081
-644.726	-200.000	-0.010	0.075
-643.711	-6.432	0.060	0.041
-642.697	159.176	-0.083	-0.117
-641.682	-136.840	-0.392	0.045
-640.668	111.229	-0.118	-0.144
-639.653	-72.196	0.163	-0.061
-638.638	79.087	-0.073	0.079
-637.624	-148.166	0.060	0.005
-636.609	-62.043	-0.318	-0.134
-635.595	193.888	0.175	-0.268
-634.580	344.108	-0.100	0.198
-633.565	-200.000	0.039	-0.301
-632.551	-33.745	-0.236	-0.132
-631.536	435.009	0.158	0.347
-630.522	-130.231	0.057	-0.008
-629.507	350.016	-0.125	-0.249
-628.492	191.281	-0.209	-0.317
-627.478	-97.854	0.494	0.129
-626.463	-200.000	-0.076	0.340
-625.449	203.755	-0.181	0.282
-624.434	-126.092	0.353	0.053
-623.419	211.492	-0.130	-0.207
-622.405	800.000	0.110	-0.335
-621.390	43.158	-0.125	-0.115
-620.376	-200.000	-0.057	-0.288
-619.361	-137.772	0.266	-0.030
-618.346	-46.504	-0.273	-0.135
-617.332	-200.000	0.040	-0.330
-616.317	-82.157	0.279	-0.092
-615.303	351.899	0.067	0.133
-614.288	108.191	0.146	0.175
-613.273	138.302	0.043	-0.056
-612.259	800.000	0.073	-0.232
-611.244	-48.801	-0.222	0.107
-610.230	163.893	-0.016	-0.023
-609.215	377.783	0.139	0.286
-608.201	209.198	0.151	-0.239
-607.186	-134.844	-0.145	0.018
-606.171	151.013	0.038	0.052
-605.157	103.190	0.196	0.231
-604.142	-56.944	-0.269	0.120
-603.128	116.632	-0.041	-0.050
-602.113	-200.000	0.023	0.257
-601.098	800.000	-0.090	-0.305
-600.084	-86.333	-0.108	-0.033
-599.069	-124.186	-0.528	-0.083
-598.055	-122.186	-0.208	0.034
-597.040	103.806	0.266	0.315
-596.025	-99.772	-0.353	0.089
-595.011	25.669	0.411	0.344
-593.996	-14.907	0.093	0.060
-592.982	571.042	-0.060	0.146
-591.967	-22.112	0.297	-0.182
-590.952	295.258	-0.162	0.298
-589.938	22.600	0.186	0.154
-588.923	-200.000	-0.054	-0.277
-587.909	147.461	-0.127	0.172
-586.894	479.796	0.126	0.287
-585.879	370.991	0.149	-0.305
-584.865	-191.329	-0.155	0.002
-583.850	-109.923	0.349	-0.074
-582.836	-141.381	0.237	-0.024
-581.821	-113.717	-0.231	0.045
-580.806	89.755	0.206	0.231
-579.792	-200.000	-0.009	-0.254
-578.777	-82.360	0.328	-0.107
-577.763	616.550	-0.149	-0.376
-576.748	361.308	-0.054	-0.108
-575.733	83.176	0.071	-0.078
-574.719	-92.013	0.223	-0.064
-573.704	425.767	-0.060	0.129
-572.690	-105.009	-0.102	-0.023
-571.675	-99.519	0.319	0.081
-570.661	453.944	0.076	0.169
-569.646	-200.000	-0.038	-0.226
-568.631	-22.864	-0.152	-0.092
-567.617	74.244	-0.170	0.179
-566.602	-104.800	0.257	-0.059
-565.588	-200.000	-0.009	-0.185
-564.573	146.679	0.041	-0.056
-563.558	6.142	0.202	-0.151
-562.544	-200.000	0.016	0.102
-561.529	-98.941	0.210	-0.054
-560.515	800.000	0.052	0.160
-559.500	68.548	0.183	0.188
-558.485	-16.709	-0.130	-0.083
-557.471	800.000	-0.018	0.064
-556.456	-86.449	0.283	-0.087
-555.442	186.023	-0.191	0.286
-554.427	416.600	-0.044	-0.094
-553.412	-146.200	0.298	-0.026
-552.398	542.034	0.131	0.314
-551.383	15.503	-0.195	-0.154
-550.369	-49.985	-0.294	0.140
-549.354	-123.688	0.714	-0.114
-548.339	-200.000	-0.018	-0.286
-547.325	-200.000	0.019	0.091
-546.310	800.000	0.070	0.210
-545.296	-161.373	-0.210	0.011
-544.281	20.598	0.131	-0.106
-543.266	72.754	-0.087	-0.092
-542.252	93.410	0.068	-0.077
-541.237	-96.067	0.291	0.078
-540.223	332.051	-0.118	-0.228
-539.208	386.619	-0.054	0.112
-538.193	800.000	-0.029	-0.087
-537.179	-200.000	0.024	-0.366
-536.164	154.036	-0.131	-0.180
-535.150	-27.491	0.094	-0.055
-534.135	89.197	0.179	0.200
-533.121	-200.000	0.005	-0.113
-532.106	-125.846	-0.361	-0.055
-531.091	-45.773	0.203	-0.101
-530.077	616.061	0.003	0.007
-529.062	341.868	-0.086	-0.168
-528.048	-66.467	-0.125	0.050
-527.033	-152.528	0.092	-0.007
-526.018	-177.138	0.247	0.006
-525.004	-98.855	-0.052	-0.013
-523.989	420.626	0.167	-0.360
-522.975	-166.412	-0.329	-0.014
-521.960	120.658	-0.162	-0.203
-520.945	-97.220	-0.072	0.019
-519.931	-162.833	-0.266	0.013
-518.916	-200.000	0.026	-0.143
-517.902	315.975	0.035	-0.067
-516.887	2.083	-0.122	-0.088
-515.872	692.991	-0.033	0.086
-514.858	-74.080	0.105	-0.038
-513.843	-127.580	-0.152	-0.022
-512.829	2.196	-0.257	0.186
-511.814	11.936	0.088	0.068
-510.799	-77.409	0.364	-0.127
-509.785	222.137	-0.202	0.326
-508.770	216.261	0.099	-0.158
-507.756	34.778	0.126	0.111
-506.741	74.567	-0.295	-0.312
-505.726	-80.374	-0.366	-0.123
-504.712	-16.618	-0.163	0.104
-503.697	-200.000	-0.034	-0.225
-502.683	121.942	0.241	-0.301
-501.668	-119.270	0.093	0.016
-500.653	-200.000	0.030	-0.316
-499.639	-200.000	0.044	0.276
-498.624	-105.522	-0.188	-0.043
-497.610	113.022	0.166	-0.201
-496.595	5.197	-0.314	0.232
-495.581	-200.000	0.002	0.115
-494.566	320.650	-0.102	0.194
-493.551	-90.576	-0.141	-0.041
-492.537	465.979	-0.193	0.433
-491.522	-92.994	-0.099	0.028
-490.508	443.697	0.085	-0.187
-489.493	-117.837	0.243	-0.044
-488.478	800.000	-0.100	-0.385
-487.464	17.785	0.201	0.160
-486.449	245.445	0.027	-0.046
-485.435	-8.683	-0.160	-0.108
-484.420	-18.184	0.327	0.205
-483.405	295.734	0.044	0.081
-482.391	800.000	-0.061	0.179
-481.376	524.365	0.088	-0.207
-480.362	230.806	0.032	0.052
-479.347	-114.310	-0.148	0.029
-478.332	-127.062	0.279	-0.041
-477.318	-200.000	0.036	0.358
-476.303	564.375	0.161	0.391
-475.289	247.082	-0.054	0.091
-474.274	165.936	0.177	-0.251
-473.259	95.357	-0.048	0.055
-472.245	23.198	0.226	-0.186
-471.230	759.487	-0.116	-0.315
-470.216	18.334	-0.280	0.224
-469.201	-146.986	0.247	-0.021
-468.186	-200.000	0.042	0.267
-467.172	-200.000	0.045	0.291
-466.157	-112.115	0.153	0.031
-465.143	-200.000	0.007	-0.135
-464.128	10.267	-0.264	-0.201
-463.113	-25.603	-0.118	0.070
-462.099	88.484	0.216	-0.240
-461.084	-200.000	-0.011	-0.212
-460.070	-117.546	-0.068	-0.012
-459.055	176.200	0.009	0.012
-458.040	-23.423	0.171	0.103
-457.026	-148.175	-0.128	-0.011
-456.011	-34.057	-0.242	0.133
-454.997	204.400	-0.073	0.113
-453.982	-200.000	0.015	-0.282
-452.968	38.152	-0.256	-0.228
-451.953	-200.000	0.014	-0.130
-450.938	-200.000	-0.011	-0.112
-449.924	42.530	-0.089	0.081
-448.909	-200.000	-0.023	-0.322
-447.895	-200.000	-0.031	0.260
-446.880	58.655	0.282	-0.278
-445.865	-22.414	-0.037	-0.023
-444.851	-82.592	0.104	0.034
-443.836	-21.823	0.151	-0.092
-442.822	-124.184	0.210	0.033
-441.807	-200.000	0.095	0.467
-440.792	-200.000	0.035	0.215
-439.778	279.034	-0.189	0.337
-438.763	-125.406	-0.214	-0.033
-437.749	250.168	0.096	0.163
-436.734	-41.813	-0.187	0.096
-435.719	-60.200	0.281	-0.120
-434.705	-72.030	0.091	-0.034
-433.690	-154.958	-0.375	0.025
-432.676	-200.000	-0.013	-0.120
-431.661	140.562	0.092	0.121
-430.646	137.934	0.083	-0.108
-429.632	-139.400	-0.240	-0.026
-428.617	800.000	-0.044	-0.178
-427.603	688.457	-0.055	-0.145
-426.588	-14.364	0.348	-0.224
-425.573	168.490	-0.187	-0.267
-424.559	-131.207	0.211	-0.028
-423.544	-200.000	-0.005	-0.214
-422.530	-7.586	0.144	0.097
-421.515	-110.456	0.385	0.080
-420.500	30.625	-0.016	-0.013
-419.486	-22.587	-0.250	-0.151
-418.471	-118.384	-0.111	-0.020
-417.457	112.199	0.160	-0.194
-416.442	292.306	0.138	-0.251
-415.428	128.766	-0.138	-0.176
-414.413	800.000	0.144	0.401
-413.398	-7.047	-0.110	0.075
-412.384	-59.485	0.082	-0.035
-411.369	-97.532	-0.279	-0.073
-410.355	-103.189	0.471	0.111
-409.340	115.563	0.102	0.125
-408.325	25.834	-0.120	0.100
-407.311	-38.038	-0.083	0.044
-406.296	-200.000	0.280	0.000
-405.282	-200.000	-0.016	0.339
-404.267	-45.229	0.089	0.044
-403.252	-124.579	-0.183	0.028
-402.238	220.611	-0.144	0.231
-401.223	-15.081	0.240	0.154
-400.209	-133.729	0.088	-0.011
-399.194	-200.000	0.042	0.459
-398.179	235.930	-0.063	0.104
-397.165	800.000	-0.030	-0.126
-396.150	-51.725	-0.201	-0.094
-395.136	45.228	0.187	-0.172
-394.121	-200.000	0.028	0.305
-393.106	110.395	0.146	-0.175
-392.092	97.024	0.029	-0.033
-391.077	72.879	-0.082	0.085
-390.063	-134.323	0.383	0.047
-389.048	-7.369	0.236	0.160
-388.033	18.137	0.152	0.122
-387.019	48.919	0.224	-0.210
-386.004	-26.225	-0.198	-0.116
-384.990	448.188	0.068	0.151
-383.975	85.388	0.211	0.232
-382.960	-200.000	-0.009	-0.316
-381.946	607.978	-0.085	-0.211
-380.931	51.795	-0.084	-0.080
-379.917	800.000	-0.057	-0.233
-378.902	430.251	-0.030	0.065
-377.888	139.496	0.089	-0.117
-376.873	284.232	-0.158	0.283
-375.858	-143.344	-0.364	-0.035
-374.844	-58.434	-0.318	0.138
-373.829	78.837	-0.358	-0.383
-372.815	105.122	0.139	-0.163
-371.800	-11.130	0.219	-0.144
-370.785	-32.748	-0.381	0.212
-369.771	-72.876	0.209	-0.077
-368.756	-200.000	0.034	0.198
-367.742	800.000	0.013	0.056
-366.727	123.394	-0.220	-0.276
-365.712	107.238	0.163	0.193
-364.698	21.222	-0.139	0.112
-363.683	308.214	0.121	0.226
-362.669	331.908	-0.047	-0.091
-361.654	217.835	-0.093	-0.148
-360.639	638.781	-0.040	0.102
-359.625	800.000	0.075	0.221
-358.610	-192.848	-0.172	-0.002
-357.596	-103.158	-0.163	-0.039
-356.581	25.228	-0.113	-0.094
-355.566	-115.799	-0.377	-0.070
-354.552	113.438	-0.109	0.132
-353.537	-18.099	0.286	-0.179
-352.523	-42.632	0.284	-0.144
-351.508	-200.000	-0.036	-0.307
-350.493	-109.963	0.341	0.071
-349.479	-200.000	0.002	-0.135
-348.464	-26.656	-0.147	-0.086
-347.450	-13.407	-0.139	-0.090
-346.435	-96.721	-0.150	0.039
-345.420	-200.000	0.046	-0.278
-344.406	-200.000	-0.118	0.000
-343.391	-57.280	-0.332	-0.145
-342.377	-18.691	0.286	-0.178
-341.362	-1.682	-0.227	-0.160
-340.348	-81.011	-0.048	0.016
-339.333	-39.672	0.204	0.107
-338.318	576.224	-0.042	0.103
-337.304	-200.000	0.005	-0.096
-336.289	40.072	-0.078	0.070
-335.275	-160.319	0.252	-0.014
-334.260	-64.055	0.218	0.089
-333.245	-84.335	-0.067	0.021
-332.231	7.813	0.106	0.079
-331.216	59.838	-0.163	-0.160
-330.202	-200.000	-0.019	-0.118
-329.187	-200.000	-0.007	-0.478
-328.172	-33.392	0.232	-0.128
-327.158	139.640	-0.124	0.163
-326.143	-90.429	-0.062	0.018
-325.129	-10.496	-0.164	-0.108
-324.114	456.850	0.140	-0.310
-323.099	-143.962	-0.219	-0.020
-322.085	-125.637	-0.193	0.029
-321.070	-200.000	0.082	-0.414
-320.056	-85.868	-0.116	0.036
-319.041	26.109	-0.120	0.100
-318.026	-29.093	0.176	-0.101
-317.012	-200.000	-0.013	-0.071
-315.997	9.159	-0.060	-0.045
-314.983	800.000	0.076	0.295
-313.968	-52.834	-0.245	-0.113
-312.953	-200.000	-0.037	-0.216
-311.939	75.492	-0.009	0.009
-310.924	-103.525	0.172	0.040
-309.910	-99.171	-0.317	0.080
-308.895	-44.979	0.259	-0.128
-307.880	-141.404	0.239	-0.024
-306.866	22.300	0.284	-0.231
-305.851	-200.000	0.030	-0.230
-304.837	56.261	0.191	0.185
-303.822	-145.145	0.225	0.020
-302.807	-130.737	-0.527	0.071
-301.793	396.534	0.029	0.060
-300.778	378.448	0.133	0.272
-299.764	-200.000	-0.074	0.457
-298.749	-69.047	-0.115	-0.044
-297.735	-6.745	0.053	0.036
-296.720	-112.406	-0.352	0.070
-295.705	471.867	0.086	0.194
-294.691	763.721	-0.107	0.288
-293.676	800.000	-0.093	-0.291
-292.662	-65.660	-0.385	0.154
-291.647	-200.000	0.022	-0.149
-290.632	75.343	0.135	-0.142
-289.618	122.827	-0.088	-0.109
-288.603	-61.351	0.129	-0.054
-287.589	127.280	0.149	0.189
-286.574	-200.000	0.004	-0.429
-285.559	-200.000	0.029	-0.160
-284.545	-200.000	-0.062	0.357
-283.530	148.589	-0.280	0.376
-282.516	95.955	0.098	-0.112
-281.501	-74.541	-0.317	-0.114
-280.486	-34.748	-0.051	-0.028
-279.472	-37.878	0.050	0.026
-278.457	134.681	-0.102	-0.132
-277.443	11.377	-0.118	0.090
-276.428	13.176	-0.121	-0.093
-275.413	89.855	0.093	-0.104
-274.399	299.942	0.030	0.055
-273.384	281.266	0.090	0.161
-272.370	-200.000	0.097	0.000
-271.355	-28.932	-0.282	0.161
-270.340	-94.895	0.217	0.059
-269.326	219.099	-0.096	0.152
-268.311	-59.642	-0.427	0.182
-267.297	800.000	0.049	0.139
-266.282	-139.341	-0.239	-0.026
-265.267	160.584	0.176	-0.245
-264.253	-111.655	0.426	-0.086
-263.238	-74.440	-0.182	0.065
-262.224	-63.691	0.138	0.056
-261.209	-83.691	-0.031	0.010
-260.195	15.493	0.097	-0.076
-259.180	800.000	-0.070	0.255
-258.165	-29.360	-0.170	0.097
-257.151	333.552	-0.158	-0.303
-256.136	493.023	-0.048	0.110
-255.122	800.000	0.075	0.206
-254.107	-114.076	0.228	-0.044
-253.092	800.000	-0.104	-0.308
-252.078	-73.599	0.142	-0.051
-251.063	444.807	0.164	0.358
-250.049	-99.294	-0.424	0.106
-249.034	-200.000	-0.051	0.222
-248.019	-137.111	0.136	0.015
-247.005	-107.181	-0.145	0.032
-245.990	88.953	0.286	0.316
-244.976	-200.000	0.037	-0.253
-243.961	145.242	0.109	0.145
-242.946	-1.396	-0.163	0.114
-241.932	-115.950	0.397	0.074
-240.917	25.099	-0.294	0.242
-239.903	-91.455	-0.156	0.044
-238.888	-114.819	0.093	0.018
-237.873	-200.000	-0.007	0.214
-236.859	127.126	0.253	-0.318
-235.844	-200.000	0.055	0.379
-234.830	487.409	0.053	0.119
-233.815	-19.613	-0.193	-0.119
-232.800	-112.714	0.115	-0.023
-231.786	3.101	0.198	-0.143
-230.771	-200.000	0.012	-0.073
-229.757	-200.000	0.048	0.243
-228.742	-171.961	-0.333	-0.011
-227.727	-27.465	-0.072	-0.042
-226.713	132.984	-0.128	-0.164
-225.698	-68.930	-0.066	-0.025
-224.684	-131.048	-0.233	0.031
-223.669	185.630	-0.162	-0.239
-222.655	-119.479	0.220	-0.038
-221.640	-170.607	0.163	0.006
-220.625	800.000	-0.124	0.414
-219.611	523.110	0.100	-0.234
-218.596	73.545	0.135	-0.140
-217.582	800.000	-0.072	0.291
-216.567	100.974	0.138	0.160
-215.552	-92.808	0.292	-0.081
-214.538	42.609	0.140	-0.126
-213.523	-200.000	-0.049	0.286
-212.509	-96.304	0.105	0.028
-211.494	27.093	-0.206	0.172
-210.479	-115.371	-0.307	0.057
-209.465	-200.000	0.039	-0.228
-208.450	285.525	-0.080	-0.142
-207.436	-140.936	0.232	-0.024
-206.421	175.657	0.078	0.113
-205.406	-185.959	0.381	0.006
-204.392	-200.000	-0.011	-0.092
-203.377	800.000	0.087	0.288
-202.363	189.233	0.383	0.569
-201.348	-128.739	-0.484	-0.068
-200.333	-200.000	0.065	-0.337
-199.319	800.000	-0.059	-0.239
-198.304	196.895	-0.065	0.098
-197.290	-200.000	0.034	-0.147
-196.275	-200.000	-0.006	-0.425
-195.260	-34.012	-0.207	0.113
-194.246	-200.000	-0.038	0.226
-193.231	-52.342	0.472	-0.217
-192.217	-107.902	0.365	0.079
-191.202	51.365	-0.200	0.188
-190.187	-1.652	-0.231	0.161
-189.173	-122.885	-0.410	-0.066
-188.158	-55.531	0.043	-0.019
-187.144	-153.435	0.207	-0.014
-186.129	49.741	-0.056	-0.053
-185.114	-111.713	-0.282	0.057
-184.100	737.526	0.063	0.167
-183.085	-74.751	-0.254	-0.091
-182.071	800.000	0.135	0.395
-181.056	-19.729	-0.307	0.188
-180.042	-200.000	0.008	0.056
-179.027	-200.000	-0.025	0.236
-178.012	800.000	0.083	-0.234
-176.998	189.204	-0.263	0.391
-175.983	-13.582	0.350	0.224
-174.969	-200.000	-0.014	0.177
-173.954	-140.222	0.198	0.021
-172.939	-19.273	0.091	-0.056
-171.925	-170.669	0.110	-0.004
-170.910	-155.001	-0.166	0.011
-169.896	41.621	0.241	0.216
-168.881	-118.167	0.201	-0.035
-167.866	150.611	-0.239	0.322
-166.852	29.130	-0.089	0.075
-165.837	58.779	0.172	-0.168
-164.823	800.000	0.086	0.303
-163.808	148.682	-0.122	-0.163
-162.793	-37.349	-0.313	0.166
-161.779	129.128	-0.039	0.049
-160.764	-74.840	-0.254	-0.090
-159.750	-81.123	0.210	0.069
-158.735	410.880	-0.177	-0.373
-157.720	800.000	-0.071	0.194
-156.706	151.461	-0.141	-0.190
-155.691	600.916	-0.022	-0.055
-154.677	290.303	-0.039	0.070
-153.662	58.333	-0.015	0.015
-152.647	-200.000	0.002	-0.102
-151.633	-200.000	0.009	-0.126
-150.618	-83.507	0.408	-0.129
-149.604	-60.443	-0.136	-0.057
-148.589	-200.000	0.048	0.306
-147.574	-120.417	0.345	-0.058
-146.560	37.581	0.220	-0.193
-145.545	-147.627	0.186	-0.015
-144.531	-57.162	0.272	-0.118
-143.516	13.457	0.091	0.070
-142.502	684.774	-0.117	-0.302
-141.487	-57.107	-0.214	-0.093
-140.472	-196.120	-0.166	0.001
-139.458	208.608	0.092	0.142
-138.443	-5.538	-0.070	0.048
-137.429	800.000	0.038	0.109
-136.414	138.566	0.147	-0.191
-135.399	-200.000	-0.018	0.118
-134.385	800.000	0.044	0.132
-133.370	99.024	-0.147	0.167
-132.356	18.340	0.083	-0.065
-131.341	-53.302	-0.242	-0.110
-130.326	-200.000	0.002	-0.131
-129.312	-121.469	-0.073	0.012
-128.297	107.993	0.166	-0.195
-127.283	86.802	-0.055	0.060
-126.268	-172.039	0.170	0.005
-125.253	-1.358	-0.112	0.078
-124.239	800.000	0.022	0.073
-123.224	-200.000	-0.001	0.073
-122.210	-200.000	-0.005	0.150
