DTS Sentinel unit serial number:	SN413079Multiplexer serial number:	ORYXHardware model number:	OX4-SRSoftware version number:	ORYX F/W v4.00 Oryx Data Collector v3.7.2.0data status	okinstallation	princeton_trtdifferential loss correction	single-endedforward channel	channel 4reverse channel	N/Adate	2019/09/18time	06:13:35forward acquisition time	60.00reverse acquisition time	0.00gamma	496.2192k internal	0.2332k external	0.2332temperature offset calibration	0.9994default loss term (dB/km)	0.3790temperature slope calibration	1.0000multiplexer offset coefficient	1.0000multiplexer slope coefficient	1.0000fibre end	0.00T internal ref (°C)	23.19T ext. ref 1 (°C)	0.19T ext. ref 2 (°C)	17.78length (m)	temperature (°C)	Stokes	anti-Stokes-747.200	198.312	0.158	-0.243
-746.185	-4.819	-0.255	0.177
-745.171	-70.425	0.287	0.109
-744.156	-113.447	-0.059	-0.012
-743.142	-200.000	0.004	0.036
-742.127	219.988	0.163	0.263
-741.112	-35.441	-0.201	0.110
-740.098	210.349	0.186	0.294
-739.083	-50.657	0.219	-0.104
-738.069	30.196	-0.213	0.183
-737.054	-200.000	0.005	0.036
-736.039	-93.248	-0.175	0.049
-735.025	143.397	0.245	0.328
-734.010	187.284	0.147	-0.220
-732.996	-109.589	0.281	0.059
-731.981	185.988	-0.133	0.199
-730.966	120.643	-0.247	-0.309
-729.952	-4.193	0.146	-0.102
-728.937	258.344	0.026	0.045
-727.923	300.030	-0.175	-0.324
-726.908	-116.349	-0.470	0.088
-725.894	-164.454	0.242	-0.011
-724.879	-200.000	-0.028	0.499
-723.864	-112.913	-0.204	-0.041
-722.850	-42.273	-0.190	-0.097
-721.835	-142.836	-0.341	0.033
-720.821	-11.976	-0.185	0.122
-719.806	94.977	-0.157	-0.180
-718.791	-65.196	-0.172	-0.070
-717.777	-200.000	-0.026	-0.315
-716.762	-129.891	-0.210	-0.029
-715.748	800.000	0.036	0.120
-714.733	-200.000	-0.064	-0.383
-713.718	-49.604	-0.171	-0.082
-712.704	50.021	0.141	0.134
-711.689	-16.070	0.056	0.036
-710.675	-200.000	-0.011	0.086
-709.660	171.533	-0.161	0.233
-708.645	-61.903	0.454	0.191
-707.631	-47.710	-0.195	0.095
-706.616	-4.594	0.258	0.179
-705.602	-103.516	-0.322	0.076
-704.587	-39.370	-0.225	0.119
-703.572	-59.344	-0.099	0.043
-702.558	-158.191	-0.342	0.020
-701.543	-84.471	0.078	0.025
-700.529	-135.382	-0.364	0.044
-699.514	4.719	-0.153	0.113
-698.499	-32.835	-0.082	-0.046
-697.485	-200.000	0.004	-0.035
-696.470	-56.944	-0.093	0.041
-695.456	-97.008	-0.219	-0.057
-694.441	328.691	-0.140	-0.271
-693.426	-200.000	-0.019	-0.205
-692.412	-124.780	-0.032	0.005
-691.397	173.676	0.137	0.198
-690.383	-0.364	0.089	-0.064
-689.368	49.367	0.161	0.152
-688.354	800.000	-0.059	-0.211
-687.339	800.000	0.038	-0.119
-686.324	-5.046	0.099	0.068
-685.310	-78.131	0.277	-0.096
-684.295	498.124	-0.121	0.280
-683.281	-99.163	0.054	0.014
-682.266	-95.566	0.299	-0.080
-681.251	136.266	-0.230	-0.300
-680.237	-200.000	0.026	-0.146
-679.222	800.000	-0.064	0.234
-678.208	108.009	-0.161	0.192
-677.193	-96.519	-0.194	-0.051
-676.178	-48.995	-0.149	0.072
-675.164	-200.000	0.019	0.222
-674.149	29.341	0.138	0.118
-673.135	122.622	-0.240	-0.301
-672.120	525.699	-0.141	-0.333
-671.105	800.000	-0.064	-0.265
-670.091	-200.000	0.027	-0.320
-669.076	187.206	0.007	0.010
-668.062	249.945	0.057	0.097
-667.047	54.095	0.342	0.330
-666.032	10.537	-0.191	-0.146
-665.018	366.980	-0.010	-0.021
-664.003	800.000	0.024	0.093
-662.989	-200.000	-0.026	-0.161
-661.974	-61.447	0.122	-0.051
-660.959	51.776	0.274	-0.261
-659.945	-47.079	-0.253	-0.124
-658.930	386.816	-0.064	0.133
-657.916	800.000	0.068	0.264
-656.901	800.000	0.075	-0.297
-655.886	-26.711	0.120	0.070
-654.872	-67.582	0.207	0.081
-653.857	63.650	-0.306	0.308
-652.843	800.000	-0.074	0.216
-651.828	85.628	0.131	0.144
-650.814	72.273	0.111	-0.116
-649.799	585.242	-0.043	-0.105
-648.784	540.133	0.205	-0.489
-647.770	342.571	0.242	-0.475
-646.755	800.000	-0.070	-0.228
-645.741	46.475	-0.079	0.074
-644.726	241.630	-0.094	0.157
-643.711	5.370	-0.180	0.133
-642.697	-149.229	0.061	-0.005
-641.682	55.436	0.100	0.097
-640.668	236.942	-0.088	-0.145
-639.653	-53.013	0.247	-0.114
-638.638	-75.153	-0.158	0.057
-637.624	650.551	0.046	-0.119
-636.609	-14.426	-0.395	0.255
-635.595	-112.085	0.139	-0.028
-634.580	800.000	-0.091	-0.347
-633.565	101.008	-0.064	0.075
-632.551	-87.549	-0.500	0.151
-631.536	17.871	0.116	-0.092
-630.522	-200.000	-0.040	-0.246
-629.507	253.098	0.133	0.227
-628.492	177.115	0.169	-0.246
-627.478	608.139	0.066	-0.165
-626.463	-200.000	0.012	-0.057
-625.449	-200.000	0.060	0.461
-624.434	-157.121	-0.185	0.011
-623.419	-149.468	0.251	-0.020
-622.405	-200.000	0.031	-0.143
-621.390	800.000	0.014	0.058
-620.376	2.509	0.284	-0.206
-619.361	50.235	-0.336	-0.317
-618.346	-152.732	-0.248	0.018
-617.332	8.740	-0.184	0.139
-616.317	-111.389	-0.083	-0.017
-615.303	-200.000	0.007	0.034
-614.288	22.710	-0.341	-0.280
-613.273	186.264	-0.211	0.314
-612.259	-47.400	0.368	0.179
-611.244	-108.187	0.070	-0.015
-610.230	557.314	0.161	0.387
-609.215	550.385	-0.105	0.252
-608.201	-145.964	-0.201	-0.018
-607.186	119.979	-0.099	-0.123
-606.171	-36.935	0.308	0.165
-605.157	-89.541	-0.115	-0.034
-604.142	-172.069	-0.120	0.004
-603.128	35.347	-0.177	-0.155
-602.113	-155.532	-0.212	0.014
-601.098	40.690	-0.073	-0.066
-600.084	-3.652	-0.085	0.059
-599.069	489.034	-0.047	0.107
-598.055	23.327	-0.093	-0.077
-597.040	16.305	0.149	-0.118
-596.025	133.865	0.100	0.130
-595.011	-200.000	0.027	-0.252
-593.996	245.569	0.213	0.358
-592.982	-200.000	0.087	-0.486
-591.967	-134.044	-0.343	-0.042
-590.952	-200.000	0.002	0.046
-589.938	-0.416	-0.044	-0.031
-588.923	-200.000	0.007	0.161
-587.909	16.666	0.113	0.089
-586.894	135.229	0.083	0.108
-585.879	-17.498	0.234	0.147
-584.865	-200.000	-0.004	-0.150
-583.850	34.350	-0.060	0.053
-582.836	5.290	0.138	-0.101
-581.821	35.919	-0.090	0.079
-580.806	-1.378	-0.085	0.060
-579.792	174.396	0.135	0.196
-578.777	-200.000	0.008	0.042
-577.763	-166.623	0.289	-0.012
-576.748	-160.410	0.104	-0.006
-575.733	-112.277	-0.216	-0.043
-574.719	-80.507	-0.050	-0.017
-573.704	33.192	-0.236	0.204
-572.690	65.297	-0.103	0.104
-571.675	-37.316	-0.095	-0.051
-570.661	-87.609	-0.196	-0.059
-569.646	554.501	0.170	-0.409
-568.631	-105.003	0.220	0.050
-567.617	-200.000	-0.006	-0.248
-566.602	41.095	-0.352	0.317
-565.588	413.515	0.058	-0.124
-564.573	-11.871	-0.027	-0.018
-563.558	447.373	0.192	0.422
-562.544	-200.000	-0.005	-0.227
-561.529	-200.000	0.019	-0.164
-560.515	61.011	0.110	0.109
-559.500	219.893	0.125	-0.201
-558.485	-48.589	-0.443	-0.213
-557.471	-10.061	0.208	-0.138
-556.456	545.139	0.175	-0.419
-555.442	-108.003	-0.338	0.073
-554.427	224.880	0.034	-0.056
-553.412	800.000	0.026	-0.106
-552.398	-200.000	-0.004	-0.033
-551.383	-113.128	-0.224	-0.044
-550.369	35.349	-0.070	0.061
-549.354	-55.821	0.272	-0.121
-548.339	-200.000	-0.013	0.067
-547.325	-34.282	0.383	-0.210
-546.310	130.004	-0.116	-0.148
-545.296	-89.757	-0.186	-0.054
-544.281	-200.000	-0.027	-0.363
-543.266	35.967	-0.306	-0.269
-542.252	452.067	0.143	0.315
-541.237	4.816	-0.295	0.217
-540.223	-15.324	-0.106	-0.068
-539.208	-153.561	0.449	0.031
-538.193	800.000	-0.067	-0.188
-537.179	70.612	-0.244	0.252
-536.164	-6.468	0.314	0.214
-535.150	100.259	-0.137	0.159
-534.135	-200.000	0.007	0.168
-533.121	357.316	-0.102	0.204
-532.106	-23.086	0.173	0.104
-531.091	800.000	0.046	0.193
-530.077	4.382	0.170	0.124
-529.062	441.112	-0.054	-0.117
-528.048	800.000	0.048	-0.166
-527.033	-191.987	-0.247	0.002
-526.018	-64.299	0.255	-0.103
-525.004	-200.000	0.007	0.150
-523.989	800.000	0.116	0.398
-522.975	800.000	0.050	-0.159
-521.960	-200.000	0.007	-0.289
-520.945	800.000	-0.106	-0.411
-519.931	-146.635	0.131	-0.011
-518.916	1.084	0.167	0.119
-517.902	-21.813	-0.263	0.160
-516.887	10.547	-0.330	0.250
-515.872	447.319	0.076	-0.167
-514.858	39.097	-0.108	-0.096
-513.843	162.998	0.172	-0.241
-512.829	-86.678	0.336	-0.102
-511.814	77.816	0.142	-0.151
-510.799	179.817	-0.105	0.153
-509.785	-200.000	-0.004	0.153
-508.770	667.216	-0.104	0.269
-507.756	-59.859	0.158	-0.067
-506.741	170.391	0.093	0.133
-505.726	89.649	0.019	0.021
-504.712	-2.109	-0.201	0.141
-503.697	-200.000	-0.014	0.198
-502.683	38.679	0.300	-0.266
-501.668	-200.000	0.011	-0.050
-500.653	-104.997	-0.046	0.010
-499.639	-115.489	0.031	0.006
-498.624	-22.059	0.071	-0.043
-497.610	-200.000	-0.040	0.254
-496.595	279.682	-0.059	-0.104
-495.581	553.441	-0.028	0.067
-494.566	187.723	0.043	0.063
-493.551	139.234	0.124	-0.162
-492.537	-87.770	-0.118	-0.036
-491.522	62.203	0.037	0.037
-490.508	-200.000	-0.022	0.142
-489.493	-49.207	-0.252	-0.120
-488.478	800.000	-0.040	0.154
-487.464	340.182	0.129	0.250
-486.449	-18.944	-0.248	-0.154
-485.435	-28.245	0.367	-0.211
-484.420	86.006	-0.271	0.297
-483.405	-200.000	0.206	-0.000
-482.391	800.000	0.024	-0.089
-481.376	214.551	0.171	-0.269
-480.362	-94.368	0.358	-0.097
-479.347	-67.355	-0.133	-0.052
-478.332	-200.000	0.010	0.312
-477.318	-57.862	-0.294	0.128
-476.303	45.201	0.214	0.196
-475.289	54.129	-0.117	-0.112
-474.274	59.747	-0.251	0.247
-473.259	96.312	-0.077	-0.087
-472.245	239.165	0.052	-0.085
-471.230	10.103	0.261	0.197
-470.216	-177.634	0.142	0.003
-469.201	358.419	-0.151	0.299
-468.186	-200.000	-0.010	0.231
-467.172	-92.479	0.111	-0.031
-466.157	59.095	0.197	0.193
-465.143	425.282	-0.143	0.306
-464.128	100.462	0.189	-0.219
-463.113	-102.921	-0.328	-0.078
-462.099	800.000	-0.098	-0.278
-461.084	-71.432	-0.159	-0.059
-460.070	113.441	-0.128	-0.155
-459.055	-200.000	0.031	0.172
-458.040	245.990	-0.115	-0.193
-457.026	751.866	-0.022	-0.058
-456.011	-158.525	0.114	0.007
-454.997	630.090	-0.163	-0.411
-453.982	-13.885	0.221	-0.142
-452.968	496.480	-0.048	0.110
-451.953	800.000	0.033	-0.110
-450.938	800.000	0.108	0.386
-449.924	38.512	-0.284	-0.252
-448.909	-18.712	0.181	0.112
-447.895	-200.000	0.021	0.335
-446.880	800.000	0.024	0.067
-445.865	-34.034	-0.458	-0.251
-444.851	18.930	-0.143	-0.114
-443.836	282.041	0.177	0.316
-442.822	121.250	0.104	0.128
-441.807	-56.840	0.139	-0.061
-440.792	-9.615	-0.102	-0.067
-439.778	384.774	-0.085	0.174
-438.763	-30.659	-0.107	-0.060
-437.749	46.110	-0.025	-0.023
-436.734	-151.090	-0.146	0.011
-435.719	-122.647	0.246	-0.040
-434.705	-200.000	-0.014	0.181
-433.690	172.713	-0.267	0.382
-432.676	800.000	0.039	0.152
-431.661	170.609	0.039	0.055
-430.646	682.750	-0.174	-0.451
-429.632	-79.487	0.077	-0.026
-428.617	453.367	0.060	0.132
-427.603	800.000	-0.044	0.189
-426.588	170.789	-0.122	-0.174
-425.573	-200.000	0.047	-0.226
-424.559	-93.652	-0.193	0.053
-423.544	265.664	0.079	-0.137
-422.530	-123.677	-0.187	-0.029
-421.515	-200.000	-0.069	0.356
-420.500	-21.053	0.109	0.066
-419.486	95.890	0.094	0.107
-418.471	7.289	0.125	0.093
-417.457	103.434	0.168	0.196
-416.442	97.464	0.066	-0.075
-415.428	72.902	-0.167	-0.173
-414.413	-200.000	-0.007	0.092
-413.398	-78.562	0.284	0.096
-412.384	317.412	-0.156	-0.293
-411.369	293.656	0.116	0.210
-410.355	-19.036	0.221	-0.136
-409.340	556.236	0.063	-0.150
-408.325	-102.464	0.178	0.042
-407.311	138.805	-0.080	0.104
-406.296	131.746	-0.183	0.233
-405.282	-10.633	0.183	-0.120
-404.267	-200.000	0.008	-0.344
-403.252	48.993	0.238	-0.221
-402.238	-55.834	0.194	0.086
-401.223	90.980	-0.132	0.147
-400.209	-73.406	-0.332	-0.120
-399.194	17.963	0.035	-0.028
-398.179	32.177	0.246	0.210
-397.165	-169.673	0.391	-0.014
-396.150	246.786	0.089	0.150
-395.136	6.533	0.328	0.242
-394.121	124.807	-0.119	0.149
-393.106	154.413	0.036	-0.050
-392.092	-138.355	0.311	-0.034
-391.077	-136.447	0.226	-0.026
-390.063	800.000	0.073	-0.283
-389.048	46.135	0.144	-0.132
-388.033	53.991	0.094	-0.089
-387.019	259.502	0.090	-0.153
-386.004	-175.322	0.118	-0.003
-384.990	0.022	0.098	0.070
-383.975	30.837	-0.251	-0.213
-382.960	127.304	0.035	0.043
-381.946	-95.008	0.089	0.024
-380.931	800.000	0.027	0.113
-379.917	-200.000	-0.015	0.190
-378.902	-146.942	-0.186	0.016
-377.888	267.361	0.188	-0.326
-376.873	-61.020	0.105	-0.044
-375.858	-94.223	-0.138	-0.037
-374.844	-17.797	-0.253	0.158
-373.829	-14.132	0.129	0.082
-372.815	-45.156	-0.471	0.232
-371.800	-24.405	0.123	0.073
-370.785	-62.113	-0.024	-0.010
-369.771	-54.788	0.534	-0.239
-368.756	-123.961	0.122	0.019
-367.742	-96.011	-0.192	0.051
-366.727	-139.033	-0.301	0.032
-365.712	401.143	-0.040	-0.082
-364.698	-200.000	0.020	-0.141
-363.683	-54.113	-0.032	0.014
-362.669	-105.902	0.313	0.070
-361.654	-54.280	0.133	0.060
-360.639	800.000	0.129	-0.416
-359.625	-35.800	0.140	-0.075
-358.610	-18.682	0.067	0.041
-357.596	1.630	-0.214	-0.153
-356.581	-92.730	0.148	0.041
-355.566	59.605	-0.178	-0.174
-354.552	-82.374	0.102	-0.033
-353.537	-192.279	-0.180	0.002
-352.523	-152.056	0.331	-0.024
-351.508	-41.597	-0.274	0.139
-350.493	-144.959	-0.344	0.031
-349.479	204.351	-0.096	0.147
-348.464	800.000	-0.058	-0.175
-347.450	3.204	-0.283	-0.204
-346.435	100.005	-0.264	0.303
-345.420	-37.232	0.052	0.028
-344.406	800.000	-0.055	-0.171
-343.391	1.311	-0.198	-0.141
-342.377	10.194	-0.115	-0.086
-341.362	395.355	-0.157	0.325
-340.348	-200.000	0.022	-0.255
-339.333	67.395	0.278	0.281
-338.318	-13.926	0.193	0.123
-337.304	800.000	-0.123	-0.451
-336.289	-145.648	-0.293	0.026
-335.275	142.001	-0.123	-0.161
-334.260	33.613	0.061	0.053
-333.245	36.361	-0.140	-0.123
-332.231	162.532	0.082	-0.113
-331.216	-107.143	-0.295	0.064
-330.202	-200.000	-0.040	0.000
-329.187	-145.411	0.312	-0.028
-328.172	-55.042	-0.202	0.090
-327.158	-73.915	-0.390	0.140
-326.143	112.619	-0.193	-0.231
-325.129	23.825	-0.142	-0.116
-324.114	-110.844	0.044	0.009
-323.099	-200.000	-0.007	0.070
-322.085	-3.228	0.116	-0.080
-321.070	741.474	-0.081	-0.214
-320.056	182.495	0.069	0.101
-319.041	800.000	-0.036	0.107
-318.026	-92.390	-0.255	0.071
-317.012	-120.931	0.111	-0.018
-315.997	-86.190	0.142	0.043
-314.983	-200.000	-0.028	0.139
-313.968	56.001	0.099	-0.095
-312.953	17.827	-0.136	0.107
-311.939	42.105	-0.282	0.253
-310.924	-200.000	0.039	0.216
-309.910	49.225	-0.089	0.082
-308.895	-200.000	-0.030	0.404
-307.880	-105.698	0.183	0.041
-306.866	-116.363	0.163	0.030
-305.851	-200.000	0.055	-0.295
-304.837	-200.000	0.003	-0.044
-303.822	-103.510	0.330	0.077
-302.807	-79.308	-0.151	-0.050
-301.793	55.653	-0.105	0.101
-300.778	19.991	-0.176	0.140
-299.764	59.560	0.194	-0.189
-298.749	-200.000	-0.031	-0.328
-297.735	-147.461	-0.142	-0.012
-296.720	800.000	-0.056	0.220
-295.705	100.159	-0.126	-0.145
-294.691	-200.000	0.044	-0.202
-293.676	-200.000	-0.010	-0.168
-292.662	-157.267	0.083	0.005
-291.647	-200.000	0.024	0.123
-290.632	-200.000	0.005	0.044
-289.618	-85.935	0.275	0.084
-288.603	-150.329	0.108	0.008
-287.589	-22.729	0.076	-0.046
-286.574	-200.000	0.032	-0.244
-285.559	-69.709	-0.213	0.081
-284.545	-135.430	0.311	0.037
-283.530	-48.695	0.011	0.005
-282.516	-91.969	0.099	-0.028
-281.501	62.888	-0.198	-0.195
-280.486	47.210	0.202	0.186
-279.472	-4.785	0.186	0.127
-278.457	-81.455	0.053	0.017
-277.443	0.931	-0.179	0.126
-276.428	71.770	-0.213	0.218
-275.413	212.698	-0.145	-0.227
-274.399	117.208	-0.109	-0.133
-273.384	497.895	0.108	-0.247
-272.370	-98.579	0.318	0.080
-271.355	-200.000	-0.008	-0.170
-270.340	128.569	0.102	-0.128
-269.326	800.000	0.002	0.007
-268.311	-76.341	-0.193	-0.067
-267.297	-200.000	-0.020	0.287
-266.282	-200.000	0.036	-0.322
-265.267	800.000	0.051	-0.191
-264.253	-72.592	0.451	0.164
-263.238	-200.000	-0.008	0.105
-262.224	50.860	-0.091	0.085
-261.209	-200.000	0.007	0.041
-260.195	372.240	0.024	-0.049
-259.180	-13.862	0.475	-0.303
-258.165	687.311	0.119	0.308
-257.151	800.000	0.039	0.138
-256.136	467.986	-0.131	-0.289
-255.122	118.401	0.083	-0.101
-254.107	-200.000	-0.015	-0.097
-253.092	245.830	-0.102	-0.169
-252.078	282.522	0.127	0.225
-251.063	377.870	-0.050	0.101
-250.049	-131.420	-0.278	-0.036
-249.034	389.779	-0.055	-0.112
-248.019	800.000	0.073	-0.262
-247.005	-200.000	-0.015	-0.090
-245.990	-27.589	-0.241	0.138
-244.976	-114.048	-0.098	-0.019
-243.961	205.768	0.232	0.356
-242.946	-112.063	0.068	0.014
-241.932	-110.097	-0.112	0.023
-240.917	-200.000	0.069	-0.327
-239.903	88.210	0.099	0.109
-238.888	31.658	-0.280	0.237
-237.873	800.000	-0.075	-0.257
-236.859	671.276	0.082	-0.208
-235.844	-44.656	0.066	-0.032
-234.830	-200.000	0.036	-0.276
-233.815	-200.000	-0.006	-0.328
-232.800	-186.031	-0.113	0.002
-231.786	62.538	0.215	0.212
-230.771	800.000	-0.069	-0.207
-229.757	85.880	0.129	-0.140
-228.742	-100.235	0.290	-0.071
-227.727	17.096	-0.188	-0.147
-226.713	800.000	0.050	-0.155
-225.698	584.141	-0.070	-0.168
-224.684	51.614	-0.276	0.258
-223.669	55.091	0.072	-0.069
-222.655	-200.000	-0.049	0.232
-221.640	416.024	-0.105	0.221
-220.625	-184.292	0.367	0.006
-219.611	800.000	-0.055	0.190
-218.596	668.187	0.061	0.154
-217.582	-73.807	-0.287	-0.103
-216.567	-200.000	0.003	0.119
-215.552	-59.387	0.292	0.124
-214.538	157.396	-0.241	-0.329
-213.523	-200.000	0.007	0.276
-212.509	800.000	-0.006	0.017
-211.494	800.000	0.087	-0.255
-210.479	-200.000	-0.012	-0.104
-209.465	-200.000	-0.052	0.374
-208.450	96.491	0.072	-0.081
-207.436	665.584	-0.137	-0.348
-206.421	800.000	0.036	0.144
-205.406	-77.446	-0.012	0.004
-204.392	45.461	-0.284	-0.258
-203.377	-200.000	0.045	0.425
-202.363	200.088	0.211	0.319
-201.348	-93.238	0.282	0.077
-200.333	22.911	-0.215	0.174
-199.319	93.039	0.206	0.229
-198.304	-67.569	0.058	-0.022
-197.290	148.053	-0.269	0.357
-196.275	-108.897	0.295	0.062
-195.260	-200.000	-0.043	-0.256
-194.246	-19.778	-0.223	0.135
-193.231	-151.451	0.297	0.022
-192.217	373.781	0.056	-0.112
-191.202	-200.000	0.006	-0.185
-190.187	456.876	0.150	0.329
-189.173	800.000	-0.064	0.271
-188.158	-112.654	-0.228	-0.045
-187.144	121.471	-0.059	-0.073
-186.129	574.744	-0.133	0.320
-185.114	-200.000	-0.007	-0.152
-184.100	800.000	-0.047	-0.151
-183.085	780.999	-0.129	0.348
-182.071	-200.000	0.027	0.125
-181.056	-200.000	-0.045	-0.227
-180.042	800.000	-0.039	-0.122
-179.027	225.144	0.145	-0.230
-178.012	609.995	-0.074	0.183
-176.998	-90.878	0.159	0.045
-175.983	372.893	-0.057	0.114
-174.969	-171.337	-0.191	0.006
-173.954	-8.517	0.078	-0.051
-172.939	-200.000	-0.007	0.315
-171.925	158.932	-0.077	-0.105
-170.910	800.000	-0.050	-0.198
-169.896	33.760	-0.140	-0.120
-168.881	-96.849	-0.361	-0.093
-167.866	-105.150	0.399	-0.090
-166.852	800.000	-0.122	0.374
-165.837	244.129	-0.158	0.262
-164.823	-194.785	0.123	0.001
-163.808	140.626	-0.050	0.065
-162.793	-200.000	0.018	0.129
-161.779	-8.361	0.269	-0.178
-160.764	-32.984	-0.080	-0.044
-159.750	-138.514	0.090	-0.010
-158.735	800.000	0.078	0.218
-157.720	-29.975	0.167	0.093
-156.706	-99.514	0.152	0.038
-155.691	-55.355	0.070	0.031
-154.677	80.745	0.183	-0.194
-153.662	60.257	-0.091	0.088
-152.647	-138.706	-0.178	0.019
-151.633	224.960	0.056	0.090
-150.618	20.230	0.290	0.230
-149.604	165.804	0.245	0.341
-148.589	108.753	-0.257	-0.302
-147.574	336.705	0.147	0.280
-146.560	800.000	0.017	-0.072
-145.545	800.000	-0.077	0.229
-144.531	800.000	0.076	-0.241
-143.516	-200.000	0.014	-0.172
-142.502	35.457	0.170	0.146
-141.487	-123.186	-0.225	-0.035
-140.472	-200.000	-0.139	0.000
-139.458	-59.566	0.140	0.059
-138.443	-200.000	-0.004	-0.047
-137.429	-35.506	0.348	-0.186
-136.414	800.000	0.037	0.103
-135.399	36.947	-0.318	0.277
-134.385	-200.000	0.013	0.202
-133.370	-70.534	0.233	-0.087
-132.356	-89.393	-0.104	0.030
-131.341	-49.404	-0.194	0.091
-130.326	191.560	0.146	0.216
-129.312	-6.448	-0.037	0.025
-128.297	-166.197	0.184	-0.008
-127.283	-35.381	-0.229	0.122
-126.268	237.660	0.084	-0.137
-125.253	14.065	-0.139	-0.106
-124.239	63.051	-0.059	0.058
-123.224	8.150	0.112	-0.083
-122.210	-133.049	0.253	-0.032
-121.195	92.296	-0.132	-0.146
-120.180	-65.834	0.102	0.040
-119.166	-200.000	0.013	0.210
