DTS Sentinel unit serial number:	SN413079Multiplexer serial number:	ORYXHardware model number:	OX4-SRSoftware version number:	ORYX F/W v4.00 Oryx Data Collector v3.7.2.0data status	okinstallation	princeton_trtdifferential loss correction	single-endedforward channel	channel 4reverse channel	N/Adate	2019/09/13time	09:25:34forward acquisition time	60.00reverse acquisition time	0.00gamma	496.2192k internal	0.2312k external	0.2312temperature offset calibration	1.0190default loss term (dB/km)	0.3790temperature slope calibration	1.0000multiplexer offset coefficient	1.0000multiplexer slope coefficient	1.0000fibre end	0.00T internal ref (°C)	29.34T ext. ref 1 (°C)	4.41T ext. ref 2 (°C)	26.24length (m)	temperature (°C)	Stokes	anti-Stokes-747.200	-127.534	-0.144	0.021
-746.185	313.631	0.135	0.258
-745.171	-132.554	0.077	0.010
-744.156	-35.078	-0.284	0.157
-743.142	221.126	0.229	0.374
-742.127	-200.000	-0.041	0.210
-741.112	-57.702	-0.201	-0.089
-740.098	-91.973	0.351	-0.101
-739.083	-165.809	-0.036	0.002
-738.069	-28.068	0.187	0.110
-737.054	-151.343	0.068	-0.005
-736.039	103.926	-0.165	0.197
-735.025	75.336	0.194	0.208
-734.010	-29.774	-0.216	0.125
-732.996	-96.808	0.295	0.079
-731.981	-61.306	-0.222	0.095
-730.966	-200.000	-0.027	0.121
-729.952	-57.276	0.151	-0.067
-728.937	-147.233	-0.135	-0.012
-727.923	585.300	-0.150	0.373
-726.908	380.285	-0.022	0.045
-725.894	-39.583	-0.230	-0.122
-724.879	175.104	0.218	-0.320
-723.864	-132.747	-0.574	0.074
-722.850	417.582	-0.194	-0.420
-721.835	128.550	0.138	0.178
-720.821	35.026	-0.371	-0.330
-719.806	-8.950	-0.055	-0.038
-718.791	-119.736	0.484	-0.085
-717.777	162.258	-0.167	-0.237
-716.762	20.075	-0.119	-0.097
-715.748	-96.231	0.294	-0.079
-714.733	-92.541	0.136	0.039
-713.718	-57.510	-0.222	-0.099
-712.704	-71.650	-0.210	-0.080
-711.689	34.169	-0.292	-0.258
-710.675	124.869	-0.245	-0.313
-709.660	181.569	0.241	-0.359
-708.645	800.000	-0.013	0.038
-707.631	-9.262	0.381	0.258
-706.616	180.748	-0.054	0.080
-705.602	-120.714	-0.263	0.045
-704.587	-186.209	0.237	0.003
-703.572	230.771	-0.101	-0.168
-702.558	800.000	-0.054	-0.171
-701.543	-187.014	0.118	-0.002
-700.529	2.433	-0.044	-0.032
-699.514	-20.142	0.124	0.078
-698.499	702.927	-0.113	-0.302
-697.485	60.087	0.154	-0.154
-696.470	440.887	0.034	-0.074
-695.456	-39.627	-0.328	-0.174
-694.441	800.000	-0.127	-0.388
-693.426	-146.443	-0.150	-0.013
-692.412	800.000	0.026	0.109
-691.397	-200.000	-0.035	0.174
-690.383	-18.539	0.204	-0.129
-689.368	546.561	-0.166	0.401
-688.354	-16.563	-0.081	0.052
-687.339	-48.880	-0.092	0.044
-686.324	585.201	0.019	-0.046
-685.310	-78.200	0.191	0.067
-684.295	145.264	0.170	-0.230
-683.281	-98.181	0.111	-0.029
-682.266	800.000	-0.061	-0.173
-681.251	-69.765	0.278	-0.107
-680.237	-200.000	-0.074	-0.431
-679.222	78.597	0.329	0.356
-678.208	34.520	-0.114	0.101
-677.193	-63.994	-0.195	0.081
-676.178	-73.056	-0.162	-0.060
-675.164	-200.000	-0.076	-0.425
-674.149	210.542	0.171	0.272
-673.135	-94.154	-0.440	-0.122
-672.120	-135.756	-0.403	0.048
-671.105	800.000	0.016	-0.058
-670.091	-101.961	-0.153	0.037
-669.076	-200.000	-0.026	-0.405
-668.062	160.365	-0.056	0.079
-667.047	-149.934	0.110	0.009
-666.032	-110.908	0.119	0.025
-665.018	-43.590	0.199	0.102
-664.003	554.514	-0.058	0.140
-662.989	-200.000	0.026	-0.266
-661.974	238.303	-0.176	-0.296
-660.959	-133.896	-0.198	-0.025
-659.945	-57.420	-0.345	0.153
-658.930	800.000	0.087	-0.303
-657.916	-200.000	-0.041	-0.285
-656.901	-62.718	-0.286	-0.120
-655.886	197.755	0.168	-0.260
-654.872	-110.322	0.073	-0.015
-653.857	229.547	-0.092	-0.152
-652.843	-85.874	-0.181	-0.057
-651.828	9.261	0.181	-0.139
-650.814	-24.442	-0.168	-0.101
-649.799	52.746	0.094	0.091
-648.784	-117.718	-0.148	0.027
-647.770	-66.862	0.164	0.065
-646.755	283.160	0.187	-0.339
-645.741	-83.576	-0.227	-0.073
-644.726	-200.000	-0.048	0.247
-643.711	-200.000	-0.068	-0.370
-642.697	15.992	0.129	-0.103
-641.682	800.000	-0.014	-0.058
-640.668	-110.603	0.242	0.051
-639.653	157.771	0.055	-0.077
-638.638	800.000	0.061	-0.240
-637.624	-77.322	-0.109	0.038
-636.609	-159.329	0.115	0.007
-635.595	-200.000	-0.010	-0.295
-634.580	800.000	-0.041	-0.146
-633.565	139.422	-0.150	-0.199
-632.551	800.000	0.011	-0.050
-631.536	800.000	0.036	-0.124
-630.522	-19.280	-0.187	-0.117
-629.507	800.000	0.010	0.040
-628.492	-200.000	0.015	0.142
-627.478	19.833	0.148	0.121
-626.463	-45.518	-0.257	0.128
-625.449	-62.900	-0.177	0.074
-624.434	-200.000	0.000	0.046
-623.419	-148.148	-0.205	0.017
-622.405	285.391	-0.072	-0.131
-621.390	209.239	0.073	0.115
-620.376	-200.000	0.027	-0.270
-619.361	-200.000	0.043	-0.298
-618.346	-20.465	0.138	0.086
-617.332	128.724	-0.210	0.270
-616.317	421.169	0.166	0.360
-615.303	-132.815	0.341	-0.044
-614.288	-27.924	0.041	0.024
-613.273	-126.915	0.134	-0.020
-612.259	87.161	0.087	0.097
-611.244	800.000	0.063	0.199
-610.230	-29.204	0.196	-0.113
-609.215	-113.626	-0.229	0.045
-608.201	-58.333	0.316	0.139
-607.186	-56.459	-0.397	-0.178
-606.171	-7.931	0.047	0.032
-605.157	99.524	-0.139	0.163
-604.142	106.743	0.106	-0.127
-603.128	137.201	0.276	0.364
-602.113	-112.280	0.319	0.065
-601.098	-200.000	-0.004	0.028
-600.084	800.000	0.069	0.226
-599.069	-83.428	-0.111	-0.036
-598.055	-200.000	0.038	0.248
-597.040	109.377	-0.330	-0.399
-596.025	-200.000	0.028	0.285
-595.011	-55.117	0.047	0.021
-593.996	-66.384	-0.217	-0.087
-592.982	-85.080	0.180	-0.057
-591.967	-134.722	-0.286	0.035
-590.952	37.323	0.149	-0.133
-589.938	-60.278	0.205	0.088
-588.923	414.496	-0.040	-0.085
-587.909	73.172	-0.254	-0.268
-586.894	-200.000	0.002	-0.176
-585.879	-90.100	0.471	0.138
-584.865	3.631	0.276	0.203
-583.850	-176.508	-0.177	-0.005
-582.836	-200.000	-0.025	-0.211
-581.821	-200.000	-0.004	0.161
-580.806	-190.279	0.127	-0.001
-579.792	800.000	0.107	-0.421
-578.777	-67.011	0.126	0.050
-577.763	96.104	0.099	0.114
-576.748	-97.825	-0.063	-0.016
-575.733	-200.000	0.043	-0.322
-574.719	341.741	-0.153	-0.301
-573.704	-56.864	-0.096	-0.043
-572.690	-141.083	-0.068	0.007
-571.675	800.000	0.079	0.291
-570.661	209.603	0.060	-0.096
-569.646	-29.952	0.038	-0.022
-568.631	16.910	0.366	-0.292
-567.617	-79.815	0.124	-0.042
-566.602	-123.589	-0.323	0.052
-565.588	-173.444	-0.152	-0.005
-564.573	389.164	-0.055	-0.116
-563.558	470.509	-0.007	-0.016
-562.544	-153.580	0.065	-0.005
-561.529	-200.000	0.041	-0.337
-560.515	-9.161	-0.250	-0.168
-559.500	800.000	0.036	-0.141
-558.485	-200.000	0.012	0.242
-557.471	-200.000	-0.076	0.337
-556.456	800.000	-0.127	0.540
-555.442	192.430	-0.027	0.040
-554.427	75.354	-0.155	-0.165
-553.412	-200.000	0.011	0.103
-552.398	800.000	0.033	-0.113
-551.383	1.204	-0.216	0.156
-550.369	-3.256	-0.112	-0.079
-549.354	-200.000	0.031	0.201
-548.339	-42.688	0.109	0.056
-547.325	14.968	0.204	-0.161
-546.310	-200.000	-0.058	-0.263
-545.296	-200.000	-0.054	-0.313
-544.281	800.000	-0.075	0.295
-543.266	198.632	-0.057	0.087
-542.252	-25.526	-0.073	0.043
-541.237	64.664	0.164	0.166
-540.223	-41.888	-0.279	-0.144
-539.208	145.941	-0.200	-0.270
-538.193	-90.063	-0.155	0.045
-537.179	-35.487	-0.140	0.076
-536.164	531.091	-0.102	-0.242
-535.150	-200.000	0.066	0.553
-534.135	-187.065	-0.456	0.006
-533.121	-200.000	0.024	-0.280
-532.106	48.728	0.159	0.150
-531.091	-123.450	-0.386	0.062
-530.077	146.376	0.064	-0.086
-529.062	2.798	0.098	-0.071
-528.048	-59.855	-0.189	-0.081
-527.033	43.181	0.205	-0.188
-526.018	-16.479	0.040	0.025
-525.004	-41.002	0.251	-0.130
-523.989	800.000	-0.013	0.053
-522.975	130.099	-0.186	0.240
-521.960	482.416	-0.017	0.039
-520.945	16.969	0.453	0.361
-519.931	-200.000	-0.030	0.144
-518.916	-28.735	-0.173	0.100
-517.902	-148.261	0.103	0.009
-516.887	-80.036	0.175	-0.059
-515.872	54.502	0.088	0.085
-514.858	-62.341	0.197	-0.083
-513.843	-33.761	-0.359	-0.199
-512.829	-100.725	0.299	-0.074
-511.814	-82.803	-0.327	-0.106
-510.799	161.003	0.028	0.039
-509.785	-91.934	0.228	-0.065
-508.770	800.000	0.100	-0.307
-507.756	589.303	0.102	0.253
-506.741	119.810	-0.042	-0.053
-505.726	-82.375	-0.086	0.028
-504.712	800.000	-0.084	0.266
-503.697	46.444	0.089	0.083
-502.683	-60.187	0.054	0.023
-501.668	299.471	0.179	-0.331
-500.653	-200.000	-0.050	-0.275
-499.639	-200.000	-0.001	0.013
-498.624	-70.544	-0.290	0.110
-497.610	-48.112	-0.111	0.054
-496.595	506.157	-0.167	-0.389
-495.581	-78.015	-0.321	-0.111
-494.566	263.583	-0.089	-0.155
-493.551	-116.106	0.235	0.044
-492.537	-6.623	-0.153	0.105
-491.522	-86.534	0.396	-0.122
-490.508	205.876	-0.147	0.229
-489.493	-72.696	0.222	0.082
-488.478	106.398	0.232	0.277
-487.464	-129.970	0.371	0.051
-486.449	-51.266	-0.123	-0.058
-485.435	800.000	-0.125	0.443
-484.420	800.000	0.012	-0.036
-483.405	324.891	-0.051	-0.097
-482.391	-150.785	-0.114	0.009
-481.376	-61.531	-0.205	-0.086
-480.362	-80.919	-0.422	-0.140
-479.347	-117.182	-0.389	0.071
-478.332	89.585	-0.122	0.137
-477.318	-98.283	-0.155	-0.040
-476.303	-71.872	0.259	-0.097
-475.289	800.000	-0.048	-0.153
-474.274	-200.000	0.029	-0.129
-473.259	160.953	0.169	0.237
-472.245	639.016	0.034	0.086
-471.230	800.000	0.078	-0.268
-470.216	-85.172	-0.199	0.063
-469.201	-53.556	-0.203	0.093
-468.186	-200.000	0.015	0.079
-467.172	800.000	0.021	-0.087
-466.157	113.292	-0.177	-0.216
-465.143	-49.123	0.170	-0.082
-464.128	-136.872	0.107	-0.012
-463.113	-162.877	-0.132	0.006
-462.099	-80.880	-0.367	-0.122
-461.084	226.780	-0.030	0.049
-460.070	20.976	-0.114	-0.093
-459.055	-200.000	0.063	-0.387
-458.040	-114.648	-0.286	0.055
-457.026	-145.153	-0.151	0.014
-456.011	-200.000	-0.011	-0.047
-454.997	-65.444	-0.145	-0.059
-453.982	-45.896	0.127	0.063
-452.968	664.281	0.030	-0.078
-451.953	-200.000	-0.020	-0.147
-450.938	87.320	-0.132	-0.147
-449.924	-114.050	0.312	-0.061
-448.909	-70.417	-0.363	-0.138
-447.895	80.822	-0.102	-0.111
-446.880	-140.917	0.117	0.012
-445.865	800.000	-0.091	-0.302
-444.851	-53.417	-0.095	-0.044
-443.836	10.628	-0.076	0.058
-442.822	-200.000	-0.000	-0.059
-441.807	90.783	0.136	-0.152
-440.792	800.000	0.038	0.131
-439.778	-68.956	0.147	0.057
-438.763	800.000	-0.060	0.170
-437.749	-98.766	-0.254	-0.065
-436.734	-146.177	0.224	0.020
-435.719	-19.540	-0.272	-0.169
-434.705	47.039	0.282	0.263
-433.690	-41.282	-0.184	-0.095
-432.676	-110.989	0.278	-0.057
-431.661	-86.343	0.274	0.084
-430.646	-65.171	-0.379	-0.153
-429.632	-200.000	0.033	0.186
-428.617	-200.000	0.021	0.277
-427.603	-189.074	-0.175	-0.002
-426.588	-200.000	0.017	0.237
-425.573	-73.747	0.178	0.065
-424.559	800.000	-0.041	-0.113
-423.544	-109.622	0.133	0.028
-422.530	-93.765	0.180	-0.050
-421.515	-25.893	-0.303	0.179
-420.500	212.360	0.117	0.184
-419.486	104.045	-0.165	0.194
-418.471	98.570	0.084	-0.097
-417.457	50.050	-0.171	0.161
-416.442	-26.486	0.479	0.281
-415.428	202.357	-0.125	-0.192
-414.413	791.485	0.097	0.267
-413.398	178.927	0.035	-0.052
-412.384	14.410	0.358	0.280
-411.369	-77.710	0.319	0.111
-410.355	-200.000	0.022	-0.159
-409.340	-190.385	0.341	-0.004
-408.325	86.258	0.150	-0.166
-407.311	-50.800	-0.092	0.043
-406.296	800.000	0.065	-0.215
-405.282	-200.000	-0.075	-0.344
-404.267	232.979	0.062	0.102
-403.252	-200.000	0.003	0.137
-402.238	18.682	-0.126	-0.101
-401.223	63.317	-0.092	-0.092
-400.209	459.139	-0.057	0.127
-399.194	-60.382	0.086	0.037
-398.179	-200.000	-0.001	0.098
-397.165	-37.981	-0.194	0.103
-396.150	67.873	-0.079	-0.081
-395.136	-200.000	-0.005	0.100
-394.121	-15.350	0.225	0.144
-393.106	177.798	0.149	0.218
-392.092	473.732	0.143	0.323
-391.077	-200.000	0.065	0.393
-390.063	-139.116	0.132	-0.014
-389.048	800.000	-0.073	-0.205
-388.033	-200.000	-0.011	0.125
-387.019	314.598	-0.055	0.104
-386.004	1.506	0.295	-0.213
-384.990	383.582	-0.144	-0.297
-383.975	495.156	0.211	0.486
-382.960	-75.186	0.169	-0.060
-381.946	190.260	-0.101	-0.151
-380.931	-8.268	0.273	-0.184
-379.917	-20.083	0.195	-0.120
-378.902	124.206	0.115	-0.144
-377.888	49.833	-0.103	-0.097
-376.873	83.429	-0.141	-0.154
-375.858	800.000	0.133	0.387
-374.844	163.964	-0.069	-0.097
-373.829	114.499	-0.220	-0.268
-372.815	-200.000	-0.001	-0.191
-371.800	8.819	0.241	0.181
-370.785	150.040	-0.128	0.173
-369.771	79.869	0.189	0.203
-368.756	-123.850	-0.309	-0.049
-367.742	-40.235	0.171	-0.089
-366.727	-175.725	-0.133	-0.004
-365.712	-79.639	0.135	-0.046
-364.698	1.121	-0.366	0.262
-363.683	800.000	-0.115	0.323
-362.669	-14.643	0.172	0.111
-361.654	-54.071	-0.150	0.068
-360.639	800.000	0.078	0.244
-359.625	-91.932	0.221	-0.062
-358.610	320.691	0.126	0.240
-357.596	-72.686	0.246	0.091
-356.581	198.276	0.022	0.033
-355.566	-200.000	-0.005	-0.200
-354.552	173.586	-0.107	0.154
-353.537	4.797	-0.178	-0.131
-352.523	353.345	0.150	0.297
-351.508	-200.000	-0.001	-0.191
-350.493	-138.103	0.079	0.009
-349.479	-80.371	-0.062	-0.021
-348.464	101.746	0.155	-0.181
-347.450	-128.840	-0.107	-0.015
-346.435	-14.765	-0.168	0.108
-345.420	84.544	0.127	-0.138
-344.406	-11.711	0.255	0.167
-343.391	-200.000	0.035	-0.331
-342.377	800.000	0.015	-0.043
-341.362	-136.812	-0.336	0.039
-340.348	800.000	-0.034	0.106
-339.333	161.901	0.072	-0.101
-338.318	-63.436	0.433	-0.178
-337.304	-87.654	0.258	0.078
-336.289	-71.854	-0.229	0.085
-335.275	-86.724	-0.120	0.037
-334.260	-21.978	0.102	0.062
-333.245	-200.000	-0.072	0.469
-332.231	5.815	0.337	-0.249
-331.216	-125.368	0.103	0.016
-330.202	-111.235	0.162	-0.033
-329.187	800.000	-0.023	0.076
-328.172	-149.440	0.264	0.021
-327.158	567.517	-0.094	-0.229
-326.143	636.646	0.055	-0.138
-325.129	314.778	-0.092	-0.174
-324.114	-63.191	-0.231	0.095
-323.099	-200.000	0.008	0.194
-322.085	147.892	-0.102	0.137
-321.070	-32.936	0.059	0.033
-320.056	-61.331	-0.230	0.097
-319.041	41.311	0.081	-0.073
-318.026	-200.000	0.049	-0.222
-317.012	800.000	0.079	-0.265
-315.997	536.524	-0.095	-0.224
-314.983	-27.869	0.186	0.108
-313.968	-88.239	-0.286	-0.085
-312.953	-92.893	-0.244	-0.068
-311.939	202.918	0.133	-0.204
-310.924	741.578	-0.148	0.396
-309.910	190.985	0.054	0.080
-308.895	78.759	0.265	-0.282
-307.880	327.355	-0.059	0.113
-306.866	-2.032	0.179	-0.125
-305.851	332.122	-0.047	0.091
-304.837	-200.000	-0.002	-0.186
-303.822	-5.135	0.220	0.151
-302.807	-12.885	-0.242	0.157
-301.793	-87.379	-0.220	0.066
-300.778	28.133	-0.102	0.086
-299.764	-200.000	-0.008	-0.094
-298.749	-200.000	-0.089	-0.433
-297.735	-63.162	-0.225	-0.093
-296.720	258.357	-0.018	0.031
-295.705	800.000	-0.063	-0.266
-294.691	-11.536	-0.156	-0.103
-293.676	-138.452	0.208	0.023
-292.662	152.274	0.034	0.046
-291.647	73.339	0.211	-0.220
-290.632	-20.510	0.145	0.089
-289.618	-55.393	0.126	0.056
-288.603	88.225	-0.059	-0.066
-287.589	-58.549	-0.237	0.103
-286.574	-89.894	0.243	0.071
-285.559	-33.980	0.091	0.050
-284.545	727.293	0.104	-0.277
-283.530	-200.000	0.018	0.409
-282.516	-200.000	-0.030	-0.469
-281.501	-200.000	0.034	-0.237
-280.486	-127.350	-0.260	0.038
-279.472	212.831	0.138	0.218
-278.457	82.882	-0.186	-0.202
-277.443	-200.000	-0.047	-0.262
-276.428	-200.000	-0.015	0.144
-275.413	-200.000	0.012	-0.090
-274.399	419.931	-0.128	0.272
-273.384	249.129	-0.167	-0.282
-272.370	12.028	-0.216	-0.165
-271.355	20.411	0.252	-0.203
-270.340	-3.228	0.039	-0.027
-269.326	-68.203	0.144	-0.056
-268.311	-200.000	-0.042	0.282
-267.297	53.322	0.196	0.187
-266.282	303.673	-0.095	-0.175
-265.267	-200.000	-0.038	-0.176
-264.253	-200.000	-0.032	0.170
-263.238	-50.271	0.158	0.075
-262.224	-65.926	0.300	0.119
-261.209	155.494	-0.114	-0.156
-260.195	-34.646	0.179	-0.098
-259.180	69.160	0.319	0.327
-258.165	-29.120	-0.205	0.117
-257.151	154.302	0.146	0.200
-256.136	240.039	0.044	0.073
-255.122	628.099	0.066	0.166
-254.107	352.542	0.108	-0.212
-253.092	-88.413	0.188	0.056
-252.078	28.306	-0.340	0.286
-251.063	5.681	-0.325	0.239
-250.049	-15.970	0.166	-0.105
-249.034	-89.635	-0.084	0.024
-248.019	40.723	-0.144	-0.129
-247.005	9.508	-0.183	0.138
-245.990	-200.000	-0.015	-0.179
-244.976	32.390	0.155	-0.133
-243.961	-200.000	-0.024	0.114
-242.946	-103.439	-0.205	-0.048
-241.932	-196.356	0.164	0.001
-240.917	-122.586	0.290	-0.047
-239.903	163.106	0.051	0.072
-238.888	-200.000	0.043	-0.329
-237.873	800.000	-0.071	-0.287
-236.859	6.692	-0.092	-0.068
-235.844	177.030	0.119	0.173
-234.830	-101.286	-0.199	0.048
-233.815	-200.000	0.012	-0.152
-232.800	50.581	-0.060	0.057
-231.786	-139.271	0.154	0.017
-230.771	702.612	0.053	-0.138
-229.757	-111.118	0.288	0.059
-228.742	-108.579	0.246	0.053
-227.727	413.020	-0.107	0.227
-226.713	54.261	0.094	0.090
-225.698	800.000	0.025	0.095
-224.684	188.148	0.119	-0.177
-223.669	800.000	-0.136	-0.422
-222.655	-200.000	-0.035	0.284
-221.640	529.628	0.023	-0.054
-220.625	-200.000	-0.040	-0.435
-219.611	800.000	-0.056	0.211
-218.596	179.324	-0.040	0.059
-217.582	290.974	-0.135	0.244
-216.567	-200.000	-0.066	-0.348
-215.552	-200.000	-0.008	0.224
-214.538	-3.486	0.053	0.036
-213.523	100.009	0.032	-0.037
-212.509	800.000	0.150	0.446
-211.494	-93.139	-0.169	-0.047
-210.479	-29.014	-0.200	-0.114
-209.465	-200.000	0.050	0.437
-208.450	-200.000	-0.012	-0.162
-207.436	99.353	0.250	-0.287
-206.421	70.452	-0.232	-0.238
-205.406	-78.660	0.404	0.137
-204.392	-200.000	-0.015	0.067
-203.377	-110.446	0.084	-0.017
-202.363	-119.627	-0.229	0.039
-201.348	32.402	-0.212	0.182
-200.333	-200.000	0.004	0.079
-199.319	388.404	-0.146	0.300
-198.304	-124.718	-0.146	0.023
-197.290	366.398	0.129	-0.258
-196.275	-120.198	-0.150	0.025
-195.260	-57.819	0.090	-0.039
-194.246	-137.427	-0.236	-0.027
-193.231	-0.505	0.177	0.124
-192.217	745.536	0.042	-0.113
-191.202	235.827	-0.094	-0.154
-190.187	-59.871	-0.172	-0.073
-189.173	93.274	-0.248	0.278
-188.158	-200.000	-0.027	-0.167
-187.144	-200.000	0.002	-0.115
-186.129	-143.082	-0.212	-0.020
-185.114	250.887	0.076	0.128
-184.100	9.327	0.207	0.155
-183.085	27.120	-0.078	0.065
-182.071	-200.000	-0.024	-0.137
-181.056	-52.067	-0.223	0.103
-180.042	-59.278	0.152	-0.065
-179.027	-200.000	-0.009	0.208
-178.012	-3.406	-0.272	0.188
-176.998	-116.274	-0.227	0.042
-175.983	-200.000	0.035	-0.295
-174.969	146.960	-0.316	-0.422
-173.954	-85.730	0.490	0.151
-172.939	800.000	0.013	0.044
-171.925	573.530	-0.125	-0.302
-170.910	-18.281	0.272	0.169
-169.896	-200.000	0.042	0.583
-168.881	19.900	0.297	0.238
-167.866	-165.209	-0.307	0.013
-166.852	-60.026	-0.291	-0.123
-165.837	123.771	0.155	0.193
-164.823	-30.643	0.216	0.121
-163.808	105.926	0.209	0.245
-162.793	-44.215	0.313	-0.156
-161.779	-200.000	0.044	-0.242
-160.764	46.070	-0.048	-0.044
-159.750	-177.573	-0.281	0.007
-158.735	-83.857	-0.123	-0.039
-157.720	-200.000	0.012	0.087
-156.706	152.920	-0.190	0.257
-155.691	-200.000	0.017	0.131
-154.677	157.909	-0.197	0.270
-153.662	-179.457	-0.483	0.011
-152.647	800.000	0.057	-0.230
-151.633	58.117	0.089	0.086
-150.618	51.550	-0.268	0.252
-149.604	4.662	-0.158	0.115
-148.589	800.000	-0.067	0.235
-147.574	-153.199	0.124	0.009
-146.560	668.638	-0.131	0.335
-145.545	800.000	0.036	0.101
-144.531	84.609	-0.155	0.168
-143.516	-37.547	-0.022	-0.012
-142.502	146.173	-0.144	-0.191
-141.487	301.466	0.102	-0.186
-140.472	-66.519	-0.276	-0.109
-139.458	-123.421	-0.131	0.021
-138.443	-95.811	0.353	0.093
-137.429	747.511	-0.061	0.163
-136.414	800.000	0.060	0.241
-135.399	271.222	0.126	0.220
-134.385	-200.000	-0.016	0.105
-133.370	149.390	0.231	0.310
-132.356	-200.000	-0.206	0.001
-131.341	-200.000	0.018	0.361
-130.326	13.253	0.292	-0.224
-129.312	-95.724	0.323	-0.085
-128.297	800.000	0.017	0.062
-127.283	-13.690	0.192	-0.123
-126.268	-200.000	0.005	0.141
-125.253	-200.000	-0.012	0.159
-124.239	34.428	0.145	0.125
-123.224	-200.000	0.012	0.139
-122.210	130.840	-0.131	-0.167
-121.195	-200.000	-0.016	-0.172
