DTS Sentinel unit serial number:	SN413079Multiplexer serial number:	ORYXHardware model number:	OX4-SRSoftware version number:	ORYX F/W v4.00 Oryx Data Collector v3.7.2.0data status	okinstallation	princeton_trtdifferential loss correction	single-endedforward channel	channel 4reverse channel	N/Adate	2019/09/18time	17:25:35forward acquisition time	60.00reverse acquisition time	0.00gamma	496.2192k internal	0.2287k external	0.2287temperature offset calibration	1.0013default loss term (dB/km)	0.3790temperature slope calibration	1.0000multiplexer offset coefficient	1.0000multiplexer slope coefficient	1.0000fibre end	0.00T internal ref (°C)	40.00T ext. ref 1 (°C)	0.91T ext. ref 2 (°C)	36.76length (m)	temperature (°C)	Stokes	anti-Stokes-747.200	-200.000	-0.003	0.094
-746.185	800.000	0.027	0.085
-745.171	-73.097	0.246	0.092
-744.156	153.358	0.204	0.286
-743.142	800.000	-0.030	-0.120
-742.127	-200.000	0.053	0.348
-741.112	-34.925	0.260	-0.146
-740.098	800.000	0.093	0.322
-739.083	-200.000	0.007	0.325
-738.069	105.691	-0.254	0.308
-737.054	13.623	0.294	0.234
-736.039	734.766	0.059	0.163
-735.025	-200.000	-0.011	0.149
-734.010	196.629	-0.234	-0.366
-732.996	-1.568	-0.118	0.085
-731.981	-76.878	-0.123	0.044
-730.966	387.425	0.085	0.180
-729.952	-200.000	-0.011	-0.116
-728.937	-200.000	-0.041	0.225
-727.923	-127.795	-0.265	-0.039
-726.908	800.000	-0.068	-0.279
-725.894	6.905	-0.131	-0.100
-724.879	160.890	0.250	0.357
-723.864	-146.513	-0.356	0.032
-722.850	198.112	-0.167	-0.261
-721.835	-153.879	-0.185	0.013
-720.821	508.804	-0.116	-0.276
-719.806	214.675	-0.138	-0.225
-718.791	-200.000	-0.033	0.368
-717.777	82.359	-0.092	0.103
-716.762	-100.861	0.165	-0.042
-715.748	-166.823	-0.532	0.022
-714.733	51.568	-0.069	0.068
-713.718	-104.710	-0.245	0.058
-712.704	11.024	-0.185	0.145
-711.689	-26.268	-0.065	-0.039
-710.675	-40.196	0.284	-0.151
-709.660	112.067	-0.018	0.023
-708.645	-200.000	0.044	-0.207
-707.631	-200.000	-0.014	-0.331
-706.616	110.420	-0.206	-0.253
-705.602	185.857	0.211	-0.321
-704.587	-8.403	-0.115	-0.079
-703.572	-200.000	0.026	-0.282
-702.558	42.253	0.353	0.329
-701.543	-121.885	0.125	-0.021
-700.529	-73.027	0.166	0.062
-699.514	301.673	0.210	0.397
-698.499	279.165	0.158	0.289
-697.485	-200.000	0.057	0.282
-696.470	-84.029	-0.202	-0.066
-695.456	-61.331	-0.202	-0.087
-694.441	-200.000	-0.036	-0.391
-693.426	-200.000	0.007	-0.040
-692.412	-87.160	-0.328	-0.102
-691.397	-113.308	-0.160	0.032
-690.383	-134.356	0.314	0.039
-689.368	-76.532	0.409	0.147
-688.354	-20.257	0.137	-0.087
-687.339	72.951	-0.141	-0.151
-686.324	-200.000	0.001	-0.169
-685.310	800.000	0.062	-0.254
-684.295	-32.596	0.145	0.083
-683.281	-145.656	0.109	0.010
-682.266	-157.623	-0.015	-0.001
-681.251	-200.000	-0.036	0.259
-680.237	-200.000	0.055	-0.308
-679.222	800.000	-0.126	0.422
-678.208	-145.317	-0.300	-0.028
-677.193	74.305	0.166	0.178
-676.178	800.000	0.090	0.277
-675.164	-64.689	-0.077	-0.032
-674.149	-93.077	-0.409	0.116
-673.135	-96.628	-0.064	0.017
-672.120	-59.477	-0.164	-0.072
-671.105	-200.000	-0.030	0.349
-670.091	-40.314	0.302	0.161
-669.076	-66.188	0.152	0.062
-668.062	17.625	-0.121	-0.099
-667.047	-121.035	-0.302	0.052
-666.032	153.065	-0.090	-0.126
-665.018	-135.007	0.214	0.026
-664.003	-52.583	-0.174	-0.082
-662.989	14.519	0.066	0.053
-661.974	800.000	0.154	0.611
-660.959	800.000	-0.133	-0.421
-659.945	-110.302	-0.087	-0.019
-658.930	-121.782	-0.258	-0.044
-657.916	-74.859	-0.424	0.156
-656.901	-126.636	-0.514	-0.078
-655.886	73.702	-0.225	-0.241
-654.872	-45.559	-0.076	-0.038
-653.857	646.689	0.032	-0.084
-652.843	512.411	0.041	-0.098
-651.828	478.638	-0.066	-0.154
-650.814	-19.814	0.123	0.078
-649.799	146.936	0.140	0.192
-648.784	-187.847	0.029	-0.000
-647.770	800.000	-0.149	-0.423
-646.755	497.677	-0.093	0.219
-645.741	800.000	-0.059	-0.253
-644.726	159.200	-0.100	-0.142
-643.711	-200.000	0.010	0.248
-642.697	-92.560	0.334	0.096
-641.682	-59.157	0.065	-0.029
-640.668	-38.040	-0.006	-0.003
-639.653	19.452	0.189	-0.155
-638.638	383.060	-0.027	-0.058
-637.624	263.667	0.124	-0.220
-636.609	-200.000	0.016	0.437
-635.595	-73.904	0.175	0.065
-634.580	535.831	-0.028	-0.067
-633.565	-7.238	-0.217	0.150
-632.551	43.800	-0.015	-0.014
-631.536	10.141	-0.327	-0.254
-630.522	259.529	0.051	-0.090
-629.507	-116.944	-0.093	0.017
-628.492	-103.174	0.183	0.044
-627.478	-47.564	-0.140	-0.070
-626.463	328.299	0.162	-0.318
-625.449	-117.544	-0.113	0.021
-624.434	-68.861	-0.167	0.066
-623.419	44.306	-0.141	-0.132
-622.405	101.471	-0.154	0.183
-621.390	-33.107	0.097	0.055
-620.376	-117.194	0.217	0.040
-619.361	-21.132	0.232	-0.145
-618.346	800.000	0.060	-0.200
-617.332	-200.000	0.008	-0.233
-616.317	-200.000	-0.038	-0.204
-615.303	498.272	-0.125	-0.295
-614.288	-147.322	-0.370	0.032
-613.273	-159.770	0.122	-0.007
-612.259	-200.000	-0.003	0.069
-611.244	147.305	0.164	0.226
-610.230	800.000	0.058	-0.191
-609.215	800.000	-0.025	-0.099
-608.201	30.106	-0.163	0.142
-607.186	-70.921	-0.207	-0.080
-606.171	-195.064	0.218	0.002
-605.157	122.467	-0.188	-0.239
-604.142	800.000	-0.055	0.237
-603.128	476.019	-0.165	0.380
-602.113	-99.659	-0.204	-0.052
-601.098	-47.003	-0.072	-0.036
-600.084	-200.000	0.016	-0.102
-599.069	-15.283	-0.116	0.075
-598.055	-106.518	0.319	0.073
-597.040	-56.658	0.207	0.093
-596.025	-200.000	0.094	0.443
-595.011	54.534	0.220	-0.216
-593.996	-120.315	-0.262	0.046
-592.982	541.386	-0.095	-0.231
-591.967	-17.582	0.120	-0.077
-590.952	-54.286	0.275	0.127
-589.938	-39.615	-0.250	-0.133
-588.923	37.605	-0.180	-0.163
-587.909	730.533	0.048	-0.130
-586.894	-23.109	0.276	0.169
-585.879	291.743	0.066	0.123
-584.865	800.000	-0.028	0.105
-583.850	-200.000	0.020	0.237
-582.836	172.535	-0.130	-0.190
-581.821	-110.802	0.206	0.043
-580.806	800.000	-0.038	0.115
-579.792	31.340	0.182	0.160
-578.777	263.717	0.085	0.151
-577.763	161.179	0.096	-0.137
-576.748	222.599	-0.058	-0.096
-575.733	-151.836	0.208	-0.016
-574.719	0.830	-0.172	0.125
-573.704	-200.000	-0.005	0.077
-572.690	138.605	0.141	-0.188
-571.675	-197.931	-0.254	0.002
-570.661	-46.669	-0.108	0.054
-569.646	-90.717	0.094	0.028
-568.631	-113.215	-0.069	0.014
-567.617	104.683	-0.032	-0.038
-566.602	-148.859	-0.414	0.034
-565.588	469.335	-0.062	-0.142
-564.573	64.946	-0.140	0.144
-563.558	-64.883	0.306	-0.126
-562.544	628.061	-0.077	-0.198
-561.529	800.000	0.107	0.302
-560.515	84.533	0.208	-0.232
-559.500	800.000	-0.046	0.177
-558.485	-44.098	-0.153	-0.078
-557.471	513.257	0.083	0.198
-556.456	175.326	-0.073	-0.108
-555.442	-48.492	-0.193	0.094
-554.427	-70.512	-0.160	-0.062
-553.412	-51.256	-0.137	0.065
-552.398	-97.218	0.318	-0.084
-551.383	136.669	-0.056	-0.075
-550.369	800.000	0.065	0.268
-549.354	-200.000	0.013	-0.238
-548.339	800.000	-0.062	-0.253
-547.325	282.111	-0.037	-0.067
-546.310	34.139	0.148	0.132
-545.296	-200.000	-0.014	-0.181
-544.281	-127.786	-0.162	0.024
-543.266	800.000	0.067	0.257
-542.252	-10.717	0.154	-0.104
-541.237	-73.943	0.106	0.039
-540.223	-200.000	0.006	0.035
-539.208	164.332	-0.061	-0.088
-538.193	-200.000	0.003	-0.047
-537.179	131.554	0.074	0.097
-536.164	800.000	0.061	-0.175
-535.150	-26.337	-0.075	0.045
-534.135	0.948	-0.082	0.060
-533.121	-119.594	0.162	-0.029
-532.106	210.437	0.131	0.210
-531.091	-94.787	-0.194	0.054
-530.077	55.764	-0.125	-0.124
-529.062	513.976	-0.102	0.242
-528.048	-200.000	-0.037	0.211
-527.033	-110.358	0.211	0.045
-526.018	-200.000	0.045	-0.208
-525.004	63.785	-0.237	0.242
-523.989	231.406	-0.162	0.270
-522.975	303.173	-0.121	-0.228
-521.960	-129.779	-0.028	0.004
-520.945	112.115	0.085	0.104
-519.931	142.755	0.071	0.096
-518.916	-97.169	-0.187	0.050
-517.902	95.625	-0.088	-0.102
-516.887	-38.964	0.248	0.133
-515.872	396.164	-0.049	0.105
-514.858	-34.287	-0.347	0.194
-513.843	38.347	-0.190	-0.172
-512.829	-64.083	-0.270	0.112
-511.814	88.471	0.335	-0.378
-510.799	-83.802	0.284	0.092
-509.785	318.687	0.101	0.194
-508.770	-8.763	0.221	-0.151
-507.756	-200.000	-0.047	0.295
-506.741	-96.891	0.282	0.075
-505.726	-200.000	0.007	-0.045
-504.712	-74.738	0.106	0.039
-503.697	-92.113	0.241	0.069
-502.683	-46.542	-0.167	-0.083
-501.668	401.613	-0.052	-0.111
-500.653	-200.000	0.015	0.080
-499.639	200.015	-0.171	0.266
-498.624	-200.000	-0.010	0.236
-497.610	23.401	-0.164	0.137
-496.595	107.840	-0.129	-0.156
-495.581	-200.000	-0.017	0.099
-494.566	800.000	-0.029	-0.119
-493.551	-167.444	0.449	-0.018
-492.537	-180.892	0.299	0.006
-491.522	-200.000	-0.011	-0.058
-490.508	138.102	-0.258	0.344
-489.493	353.726	-0.081	-0.163
-488.478	75.889	-0.058	-0.062
-487.464	71.213	0.257	0.271
-486.449	-100.034	-0.161	0.041
-485.435	800.000	-0.029	-0.109
-484.420	-200.000	0.026	-0.210
-483.405	68.283	-0.182	-0.189
-482.391	69.714	0.252	0.263
-481.376	-189.181	0.112	-0.001
-480.362	-30.971	-0.185	0.106
-479.347	200.362	-0.168	0.263
-478.332	800.000	-0.033	0.132
-477.318	-200.000	-0.002	0.029
-476.303	109.543	0.164	-0.200
-475.289	-115.348	-0.563	-0.108
-474.274	67.829	0.247	-0.256
-473.259	-77.552	-0.286	0.101
-472.245	-200.000	-0.000	0.029
-471.230	-75.677	-0.131	-0.047
-470.216	-79.339	-0.407	0.140
-469.201	497.072	0.087	-0.202
-468.186	-44.668	-0.121	0.061
-467.172	-79.208	-0.199	0.068
-466.157	205.371	0.159	-0.251
-465.143	46.485	0.058	0.054
-464.128	-200.000	0.002	-0.037
-463.113	197.921	0.062	-0.096
-462.099	53.303	-0.134	-0.131
-461.084	-57.762	0.127	0.056
-460.070	-142.630	-0.292	-0.029
-459.055	92.981	0.193	-0.222
-458.040	-12.838	0.296	0.195
-457.026	-1.743	0.227	0.162
-456.011	-89.688	0.076	-0.022
-454.997	-71.227	-0.218	0.083
-453.982	-16.878	0.040	0.026
-452.968	-77.749	-0.081	-0.028
-451.953	137.614	0.178	-0.237
-450.938	228.951	0.131	-0.217
-449.924	-60.009	0.504	-0.218
-448.909	800.000	-0.110	-0.320
-447.895	-33.715	-0.234	0.131
-446.880	800.000	-0.032	-0.115
-445.865	800.000	-0.077	-0.338
-444.851	-110.446	-0.209	0.044
-443.836	-48.012	-0.128	0.063
-442.822	-120.952	-0.240	-0.041
-441.807	-45.858	-0.394	-0.197
-440.792	322.099	0.186	0.360
-439.778	490.236	0.141	-0.328
-438.763	-200.000	-0.009	0.166
-437.749	-76.256	-0.134	-0.048
-436.734	-62.173	-0.320	0.135
-435.719	-158.620	-0.133	0.008
-434.705	26.291	-0.102	-0.087
-433.690	33.130	0.097	0.085
-432.676	-200.000	0.017	0.291
-431.661	-25.876	0.265	-0.158
-430.646	203.270	0.235	-0.368
-429.632	800.000	0.097	0.423
-428.617	-21.618	0.120	-0.074
-427.603	800.000	-0.204	-0.639
-426.588	800.000	0.146	0.434
-425.573	-66.342	0.135	0.054
-424.559	800.000	0.038	0.160
-423.544	155.874	-0.128	-0.179
-422.530	-200.000	-0.030	0.534
-421.515	-200.000	0.022	0.102
-420.500	-200.000	-0.025	0.221
-419.486	-84.282	0.222	0.071
-418.471	-200.000	-0.020	0.116
-417.457	289.491	-0.162	-0.297
-416.442	313.094	0.151	-0.287
-415.428	5.542	-0.124	-0.092
-414.413	541.988	-0.096	0.232
-413.398	800.000	0.118	0.409
-412.384	800.000	-0.110	-0.385
-411.369	-200.000	-0.395	-0.001
-410.355	800.000	0.065	-0.278
-409.340	-82.403	0.358	0.118
-408.325	27.413	0.113	-0.096
-407.311	-84.471	-0.115	0.037
-406.296	613.230	-0.120	-0.304
-405.282	-111.468	0.265	0.055
-404.267	390.842	-0.035	-0.074
-403.252	-29.069	0.283	-0.165
-402.238	113.160	0.169	-0.208
-401.223	776.852	0.050	-0.138
-400.209	50.038	0.115	0.110
-399.194	342.803	0.183	-0.363
-398.179	111.620	0.083	0.102
-397.165	-200.000	0.073	0.360
-396.150	-160.665	0.019	0.001
-395.136	-63.449	-0.291	0.121
-394.121	800.000	0.047	-0.165
-393.106	-200.000	-0.027	-0.250
-392.092	298.559	0.133	0.247
-391.077	161.841	0.079	0.112
-390.063	-34.898	-0.091	-0.050
-389.048	96.381	-0.084	-0.097
-388.033	-200.000	-0.014	-0.173
-387.019	-118.908	-0.144	-0.026
-386.004	-47.589	0.158	0.077
-384.990	157.033	-0.091	-0.128
-383.975	-19.316	-0.185	-0.116
-382.960	800.000	-0.053	0.219
-381.946	514.385	0.117	-0.275
-380.931	-95.155	0.432	0.118
-379.917	-134.900	-0.190	0.023
-378.902	-200.000	0.056	-0.322
-377.888	-35.455	0.120	-0.066
-376.873	-38.165	-0.103	-0.055
-375.858	23.970	0.242	0.202
-374.844	-156.413	0.053	0.003
-373.829	159.435	0.131	0.184
-372.815	800.000	0.047	-0.134
-371.800	-132.663	0.099	0.013
-370.785	-155.640	0.182	-0.012
-369.771	-14.973	0.238	0.154
-368.756	338.821	0.125	0.245
-367.742	-16.854	-0.271	-0.173
-366.727	447.567	-0.184	0.410
-365.712	-0.840	-0.014	-0.010
-364.698	65.552	0.254	-0.260
-363.683	-200.000	-0.015	0.114
-362.669	-139.506	-0.133	-0.014
-361.654	-19.058	0.122	-0.077
-360.639	153.226	0.183	0.253
-359.625	800.000	0.012	0.050
-358.610	-79.605	0.083	-0.028
-357.596	-159.975	0.158	0.009
-356.581	-10.446	-0.295	0.197
-355.566	161.283	0.059	0.083
-354.552	690.419	-0.128	0.338
-353.537	-200.000	0.002	0.011
-352.523	143.246	0.137	-0.184
-351.508	-200.000	-0.023	-0.213
-350.493	-29.959	-0.218	0.125
-349.479	35.540	-0.222	0.196
-348.464	-200.000	0.045	0.367
-347.450	77.175	0.088	-0.094
-346.435	299.866	-0.117	-0.217
-345.420	-200.000	-0.041	-0.228
-344.406	-139.016	-0.273	-0.030
-343.391	-200.000	-0.068	-0.000
-342.377	-120.752	0.048	0.008
-341.362	332.845	0.125	0.244
-340.348	292.158	0.163	0.301
-339.333	-20.408	0.106	-0.066
-338.318	505.310	0.107	-0.250
-337.304	-190.329	0.146	0.002
-336.289	-129.008	-0.163	-0.023
-335.275	68.285	0.158	0.163
-334.260	581.483	-0.116	0.287
-333.245	-44.745	0.039	0.020
-332.231	781.876	0.081	-0.224
-331.216	800.000	0.111	0.324
-330.202	-161.597	-0.111	-0.006
-329.187	143.209	-0.069	0.092
-328.172	-151.043	-0.415	0.031
-327.158	-200.000	0.022	-0.160
-326.143	800.000	-0.047	-0.146
-325.129	-123.104	-0.098	0.016
-324.114	800.000	0.018	0.071
-323.099	-61.675	0.074	0.031
-322.085	312.486	-0.064	-0.121
-321.070	-200.000	0.021	-0.162
-320.056	87.785	0.164	-0.184
-319.041	-165.004	0.165	0.007
-318.026	423.958	0.114	-0.247
-317.012	94.616	-0.233	0.267
-315.997	-60.798	-0.067	-0.029
-314.983	-125.785	0.150	0.023
-313.968	800.000	0.039	-0.161
-312.953	-40.134	0.313	0.164
-311.939	-33.592	-0.170	-0.095
-310.924	267.170	-0.096	0.170
-309.910	71.650	0.092	-0.096
-308.895	1.578	0.070	0.051
-307.880	-154.430	-0.326	-0.022
-306.866	-14.854	-0.343	-0.222
-305.851	-200.000	-0.001	-0.005
-304.837	441.547	0.080	0.177
-303.822	-94.555	0.387	-0.106
-302.807	344.159	-0.079	-0.156
-301.793	-36.720	-0.055	0.030
-300.778	120.524	0.162	0.203
-299.764	-27.711	-0.302	0.177
-298.749	800.000	-0.068	0.298
-297.735	800.000	-0.030	0.099
-296.720	193.842	0.281	0.429
-295.705	-200.000	0.022	-0.216
-294.691	101.368	-0.051	-0.060
-293.676	118.905	-0.112	0.139
-292.662	82.923	-0.342	0.375
-291.647	682.849	-0.096	-0.253
-290.632	800.000	0.044	0.141
-289.618	-200.000	0.057	-0.266
-288.603	-200.000	-0.095	-0.486
-287.589	261.968	-0.162	0.283
-286.574	-92.211	-0.245	0.070
-285.559	-200.000	-0.006	0.112
-284.545	113.959	0.048	0.059
-283.530	59.530	0.207	0.206
-282.516	246.745	-0.059	0.100
-281.501	81.118	-0.075	0.082
-280.486	37.346	-0.171	-0.153
-279.472	15.753	0.195	0.155
-278.457	219.888	0.186	0.300
-277.443	800.000	-0.080	-0.236
-276.428	347.238	-0.065	0.128
-275.413	-88.237	-0.034	0.010
-274.399	800.000	0.070	0.232
-273.384	489.170	-0.167	0.385
-272.370	-168.526	-0.271	-0.010
-271.355	37.580	0.254	-0.227
-270.340	-86.779	0.314	-0.097
-269.326	800.000	-0.146	-0.419
-268.311	-122.897	-0.202	0.033
-267.297	413.621	0.038	-0.082
-266.282	-120.098	0.056	-0.010
-265.267	91.512	-0.113	-0.127
-264.253	-200.000	-0.001	-0.048
-263.238	-71.587	-0.285	0.107
-262.224	300.173	-0.069	-0.128
-261.209	1.940	-0.212	-0.154
-260.195	113.648	-0.282	0.344
-259.180	345.855	0.119	0.235
-258.165	-132.353	-0.277	0.036
-257.151	31.192	-0.071	0.061
-256.136	-121.581	0.145	0.024
-255.122	800.000	0.021	0.086
-254.107	-76.051	0.218	0.077
-253.092	115.742	-0.110	-0.135
-252.078	103.089	0.320	-0.378
-251.063	54.699	0.163	0.158
-250.049	256.684	-0.186	-0.321
-249.034	84.169	0.267	0.293
-248.019	408.924	0.170	-0.363
-247.005	364.657	-0.071	-0.144
-245.990	6.037	-0.168	-0.125
-244.976	-200.000	-0.018	0.116
-243.961	-104.062	-0.318	0.075
-242.946	777.135	-0.058	-0.158
-241.932	-13.771	-0.146	-0.095
-240.917	-32.378	-0.357	0.200
-239.903	186.607	-0.089	-0.133
-238.888	89.847	-0.206	0.231
-237.873	4.573	-0.111	-0.082
-236.859	74.409	0.132	0.139
-235.844	177.225	-0.248	-0.363
-234.830	612.595	-0.087	-0.219
-233.815	-6.021	0.228	-0.157
-232.800	19.013	0.359	-0.289
-231.786	378.818	0.078	0.160
-230.771	-5.901	-0.275	-0.189
-229.757	48.636	0.164	0.155
-228.742	-142.362	0.252	-0.025
-227.727	-190.364	0.201	0.002
-226.713	-80.317	0.156	0.053
-225.698	28.583	-0.038	-0.032
-224.684	-200.000	-0.053	-0.407
-223.669	-68.301	0.452	-0.176
-222.655	-32.424	0.222	0.124
-221.640	800.000	0.028	0.086
-220.625	15.232	0.049	-0.039
-219.611	609.720	0.067	0.167
-218.596	-175.442	0.278	0.008
-217.582	310.381	-0.151	-0.284
-216.567	170.759	0.048	0.069
-215.552	-155.604	0.278	-0.018
-214.538	800.000	-0.013	0.055
-213.523	800.000	-0.062	-0.193
-212.509	42.301	0.200	-0.182
-211.494	-93.211	0.123	-0.034
-210.479	800.000	0.041	-0.156
-209.465	-54.812	0.185	0.084
-208.450	211.102	-0.060	0.094
-207.436	-103.594	-0.150	0.035
-206.421	-141.546	0.181	-0.018
-205.406	292.619	0.142	0.261
-204.392	218.846	0.066	-0.106
-203.377	-200.000	-0.018	-0.087
-202.363	-200.000	-0.403	0.000
-201.348	41.395	-0.073	0.067
-200.333	-6.955	-0.122	-0.083
-199.319	-200.000	-0.003	0.025
-198.304	32.758	-0.302	-0.262
-197.290	666.301	-0.122	0.316
-196.275	-200.000	0.002	-0.355
-195.260	800.000	0.059	0.195
-194.246	-74.705	-0.308	0.111
-193.231	-2.102	-0.229	0.161
-192.217	-200.000	0.044	0.283
-191.202	-200.000	0.009	0.042
-190.187	-85.290	0.200	0.063
-189.173	48.562	-0.197	0.185
-188.158	66.305	0.050	-0.051
-187.144	-109.918	0.324	-0.068
-186.129	-136.655	0.232	-0.027
-185.114	-200.000	-0.026	0.116
-184.100	-163.183	-0.238	0.011
-183.085	18.439	0.181	-0.145
-182.071	361.543	-0.174	0.351
-181.056	48.477	-0.124	0.116
-180.042	-143.511	0.488	-0.047
-179.027	312.754	0.212	-0.400
-178.012	-1.789	0.211	0.149
-176.998	-200.000	0.004	-0.138
-175.983	-152.626	0.074	-0.005
-174.969	76.679	-0.067	0.071
-173.954	579.663	0.043	0.105
-172.939	-200.000	0.012	-0.143
-171.925	-74.045	0.180	-0.065
-170.910	800.000	-0.111	0.325
-169.896	-200.000	0.027	0.202
-168.881	-200.000	-0.014	-0.229
-167.866	11.991	-0.330	-0.254
-166.852	-174.739	0.121	-0.003
-165.837	-87.508	0.094	0.028
-164.823	-81.412	-0.251	-0.083
-163.808	84.433	-0.203	-0.223
-162.793	236.739	-0.157	-0.260
-161.779	-57.879	-0.113	0.049
-160.764	-200.000	0.011	0.148
-159.750	-200.000	0.029	-0.380
-158.735	291.635	-0.126	-0.230
-157.720	758.504	0.112	0.303
-156.706	33.611	0.198	0.172
-155.691	419.265	0.028	-0.060
-154.677	-113.552	0.264	0.052
-153.662	255.947	0.065	0.112
-152.647	800.000	0.068	0.262
-151.633	10.925	-0.169	-0.129
-150.618	-88.634	0.074	0.022
-149.604	-200.000	0.005	-0.024
-148.589	-40.414	0.232	-0.121
-147.574	-129.861	0.304	-0.042
-146.560	-26.490	-0.062	-0.036
-145.545	189.396	-0.163	-0.244
-144.531	-133.296	0.297	0.038
-143.516	-127.795	0.341	-0.049
-142.502	-200.000	-0.023	-0.510
-141.487	-62.727	-0.129	-0.054
-140.472	-200.000	-0.039	-0.285
-139.458	145.719	-0.055	-0.074
-138.443	-200.000	-0.028	0.128
-137.429	17.184	0.144	-0.114
-136.414	800.000	-0.092	0.340
-135.399	-42.690	0.357	0.182
-134.385	77.129	-0.196	0.208
-133.370	0.670	0.232	-0.166
-132.356	533.585	-0.129	0.306
-131.341	-42.974	-0.136	0.069
-130.326	-36.386	-0.231	-0.125
-129.312	-200.000	0.030	-0.172
-128.297	-200.000	0.013	0.269
-127.283	89.250	-0.053	0.059
-126.268	-100.266	-0.320	-0.080
-125.253	47.718	-0.085	0.079
-124.239	177.921	-0.033	0.048
-123.224	99.739	0.238	0.276
-122.210	-31.768	-0.216	-0.121
-121.195	74.857	0.153	-0.161
