DTS Sentinel unit serial number:	SN413079Multiplexer serial number:	ORYXHardware model number:	OX4-SRSoftware version number:	ORYX F/W v4.00 Oryx Data Collector v3.7.2.0data status	okinstallation	princeton_trtdifferential loss correction	single-endedforward channel	channel 4reverse channel	N/Adate	2019/09/12time	01:11:10forward acquisition time	60.00reverse acquisition time	0.00gamma	496.2192k internal	0.2309k external	0.2309temperature offset calibration	1.0091default loss term (dB/km)	0.3790temperature slope calibration	1.0000multiplexer offset coefficient	1.0000multiplexer slope coefficient	1.0000fibre end	0.00T internal ref (°C)	33.06T ext. ref 1 (°C)	2.08T ext. ref 2 (°C)	27.66length (m)	temperature (°C)	Stokes	anti-Stokes-747.200	-200.000	0.039	0.210
-746.185	-200.000	-0.014	0.250
-745.171	327.816	0.098	-0.192
-744.156	-122.872	-0.238	0.039
-743.142	-200.000	-0.076	-0.391
-742.127	-35.397	-0.130	0.072
-741.112	800.000	-0.093	-0.284
-740.098	255.005	0.058	-0.101
-739.083	-200.000	-0.024	-0.467
-738.069	11.302	0.274	0.213
-737.054	-139.633	-0.353	0.038
-736.039	60.324	-0.153	0.154
-735.025	-39.871	0.205	0.109
-734.010	-200.000	-0.075	-0.407
-732.996	78.619	-0.279	0.303
-731.981	531.632	-0.102	0.245
-730.966	-200.000	0.047	0.249
-729.952	60.055	-0.285	-0.286
-728.937	-52.947	-0.097	0.045
-727.923	81.544	-0.223	-0.245
-726.908	91.714	0.175	-0.200
-725.894	800.000	0.059	0.205
-724.879	-122.714	-0.187	-0.031
-723.864	139.705	0.276	0.369
-722.850	436.032	0.087	0.192
-721.835	800.000	0.035	-0.123
-720.821	800.000	-0.038	0.167
-719.806	-200.000	0.007	-0.120
-718.791	89.713	0.082	-0.093
-717.777	-200.000	0.020	0.364
-716.762	-60.617	-0.162	-0.070
-715.748	-200.000	0.036	0.186
-714.733	371.472	-0.106	-0.218
-713.718	217.197	-0.234	-0.379
-712.704	-76.194	-0.368	-0.132
-711.689	-200.000	-0.006	0.101
-710.675	190.407	-0.191	0.291
-709.660	47.102	-0.214	0.203
-708.645	180.032	0.126	0.187
-707.631	-141.564	-0.161	0.016
-706.616	-115.600	0.337	0.064
-705.602	-53.894	-0.020	-0.009
-704.587	-21.807	-0.177	-0.109
-703.572	336.159	-0.061	0.120
-702.558	-108.905	-0.187	-0.041
-701.543	-200.000	-0.009	0.250
-700.529	-49.752	-0.223	0.107
-699.514	800.000	0.044	0.177
-698.499	-20.738	-0.203	-0.126
-697.485	523.788	-0.034	-0.082
-696.470	-34.495	-0.035	0.019
-695.456	800.000	-0.098	-0.407
-694.441	-120.813	-0.069	0.012
-693.426	-200.000	-0.006	-0.069
-692.412	-79.360	-0.300	-0.103
-691.397	-111.561	0.138	-0.028
-690.383	-70.449	-0.292	-0.112
-689.368	41.927	-0.184	0.169
-688.354	-200.000	0.018	-0.121
-687.339	-200.000	0.032	0.191
-686.324	-161.368	0.249	0.013
-685.310	-70.564	-0.387	0.148
-684.295	-100.946	0.145	0.036
-683.281	81.340	-0.215	0.235
-682.266	304.290	0.101	0.190
-681.251	72.795	-0.267	-0.283
-680.237	-65.920	0.127	-0.051
-679.222	101.357	-0.271	-0.320
-678.208	650.913	-0.124	-0.323
-677.193	-9.301	-0.278	-0.188
-676.178	-200.000	0.071	0.338
-675.164	-35.883	-0.141	0.078
-674.149	-200.000	-0.009	0.079
-673.135	-55.646	-0.587	0.266
-672.120	-109.087	0.019	0.004
-671.105	-74.152	-0.026	-0.009
-670.091	-84.858	-0.307	-0.098
-669.076	-200.000	-0.028	0.194
-668.062	267.990	-0.027	-0.047
-667.047	-22.866	0.220	-0.135
-666.032	-32.275	0.288	0.163
-665.018	3.719	-0.234	0.173
-664.003	-200.000	-0.018	-0.234
-662.989	-68.631	0.321	0.126
-661.974	521.585	0.046	-0.110
-660.959	159.512	0.260	-0.367
-659.945	-78.808	-0.265	0.091
-658.930	-200.000	-0.011	-0.063
-657.916	-200.000	-0.025	0.250
-656.901	66.624	-0.214	0.220
-655.886	-81.155	-0.045	0.015
-654.872	-200.000	-0.068	-0.311
-653.857	-184.659	-0.319	-0.005
-652.843	247.160	-0.039	0.066
-651.828	-63.593	0.320	-0.133
-650.814	800.000	-0.047	-0.142
-649.799	-137.587	-0.173	-0.020
-648.784	-200.000	-0.008	0.203
-647.770	-200.000	-0.019	-0.172
-646.755	800.000	-0.012	0.047
-645.741	-150.387	-0.242	0.019
-644.726	278.562	0.121	0.218
-643.711	-3.292	0.288	-0.203
-642.697	-133.981	-0.397	-0.050
-641.682	-192.325	0.109	-0.001
-640.668	-18.404	0.168	-0.106
-639.653	153.259	0.043	0.060
-638.638	123.961	-0.139	-0.177
-637.624	-41.235	0.115	0.060
-636.609	219.060	0.113	0.183
-635.595	193.246	0.168	-0.257
-634.580	-103.020	-0.328	-0.079
-633.565	226.590	-0.022	-0.036
-632.551	-103.722	0.153	-0.036
-631.536	42.648	0.070	-0.064
-630.522	79.286	0.060	-0.065
-629.507	48.210	0.111	-0.105
-628.492	-200.000	-0.014	-0.144
-627.478	336.019	-0.164	-0.322
-626.463	65.049	-0.135	-0.138
-625.449	-142.231	-0.182	-0.018
-624.434	55.636	-0.241	-0.236
-623.419	423.560	0.099	-0.215
-622.405	-200.000	-0.009	0.130
-621.390	362.004	-0.164	0.332
-620.376	-77.514	-0.312	-0.110
-619.361	221.579	-0.048	0.079
-618.346	-10.573	-0.026	0.018
-617.332	-131.132	0.294	-0.040
-616.317	800.000	0.033	0.123
-615.303	800.000	0.085	0.244
-614.288	-200.000	-0.014	-0.325
-613.273	-62.209	-0.301	0.127
-612.259	272.035	-0.113	-0.202
-611.244	-79.054	-0.408	-0.140
-610.230	800.000	0.050	-0.150
-609.215	76.151	-0.289	-0.310
-608.201	36.893	-0.092	0.082
-607.186	10.521	0.215	0.166
-606.171	-200.000	0.001	-0.066
-605.157	-27.042	0.186	0.110
-604.142	-157.041	0.248	0.015
-603.128	-38.676	0.082	0.044
-602.113	-50.600	-0.126	-0.060
-601.098	-200.000	0.024	-0.281
-600.084	461.545	-0.115	0.260
-599.069	239.089	0.117	0.197
-598.055	86.052	-0.289	0.321
-597.040	12.129	0.246	0.191
-596.025	-200.000	-0.068	0.345
-595.011	-118.799	0.461	0.082
-593.996	90.642	0.247	0.280
-592.982	-200.000	-0.001	0.277
-591.967	-75.037	-0.251	-0.091
-590.952	-38.676	-0.115	0.061
-589.938	-39.009	-0.090	0.048
-588.923	-24.035	-0.053	-0.032
-587.909	-115.404	-0.257	-0.049
-586.894	-200.000	-0.000	-0.135
-585.879	91.442	0.227	-0.258
-584.865	-107.986	-0.088	-0.019
-583.850	-106.910	-0.148	-0.033
-582.836	-200.000	-0.013	0.063
-581.821	69.285	-0.061	-0.063
-580.806	-155.549	-0.219	0.014
-579.792	-200.000	0.012	0.227
-578.777	40.818	0.080	0.073
-577.763	29.175	-0.125	0.107
-576.748	-68.681	0.168	0.066
-575.733	46.621	0.084	0.079
-574.719	-9.548	-0.148	0.099
-573.704	42.688	0.051	0.047
-572.690	110.290	-0.185	-0.224
-571.675	190.812	0.190	-0.289
-570.661	-101.195	-0.171	-0.042
-569.646	-200.000	0.030	0.197
-568.631	26.545	0.043	-0.036
-567.617	53.314	0.214	0.207
-566.602	29.243	-0.203	0.174
-565.588	142.781	0.176	-0.236
-564.573	71.922	-0.237	-0.249
-563.558	23.097	-0.093	-0.077
-562.544	-40.524	0.325	0.170
-561.529	56.720	-0.337	0.331
-560.515	-200.000	0.007	-0.054
-559.500	35.642	-0.172	0.152
-558.485	-67.025	0.198	-0.079
-557.471	-101.346	0.109	-0.027
-556.456	-200.000	-0.049	-0.259
-555.442	163.093	0.118	0.167
-554.427	23.412	-0.094	-0.078
-553.412	-129.357	0.287	0.040
-552.398	536.924	0.058	-0.138
-551.383	505.699	-0.160	-0.374
-550.369	209.489	0.144	-0.227
-549.354	-108.689	-0.185	-0.040
-548.339	0.936	0.174	0.126
-547.325	215.371	-0.141	-0.225
-546.310	-136.687	-0.200	0.023
-545.296	-200.000	-0.003	0.164
-544.281	-154.258	0.294	0.020
-543.266	201.849	0.058	0.091
-542.252	313.863	-0.137	0.260
-541.237	800.000	-0.096	-0.283
-540.223	117.517	-0.190	0.235
-539.208	-107.476	0.171	0.038
-538.193	-86.116	-0.228	0.071
-537.179	-200.000	0.002	0.519
-536.164	174.796	-0.158	0.230
-535.150	755.678	0.037	-0.102
-534.135	-98.141	0.137	0.035
-533.121	100.099	-0.186	-0.218
-532.106	27.195	-0.237	0.200
-531.091	800.000	0.085	0.237
-530.077	-103.294	-0.190	-0.045
-529.062	800.000	0.020	-0.075
-528.048	622.786	0.092	-0.234
-527.033	138.215	0.307	0.405
-526.018	-200.000	-0.017	0.370
-525.004	67.025	0.237	0.244
-523.989	661.287	0.040	-0.105
-522.975	800.000	-0.078	0.248
-521.960	464.764	-0.051	0.115
-520.945	796.263	-0.155	0.429
-519.931	185.279	0.126	0.189
-518.916	107.698	-0.239	0.287
-517.902	-10.621	-0.507	-0.338
-516.887	196.154	-0.178	-0.272
-515.872	-152.636	0.270	0.019
-514.858	-141.392	-0.065	-0.007
-513.843	-0.661	-0.100	0.072
-512.829	48.430	0.187	-0.177
-511.814	85.199	0.141	-0.156
-510.799	282.896	-0.126	0.228
-509.785	-100.703	0.214	-0.053
-508.770	-200.000	0.000	0.071
-507.756	-175.168	-0.287	0.008
-506.741	123.747	-0.135	0.170
-505.726	438.675	-0.126	-0.276
-504.712	-151.217	0.312	-0.024
-503.697	-200.000	-0.017	0.323
-502.683	-69.170	-0.396	-0.153
-501.668	-64.950	-0.098	0.040
-500.653	-30.110	0.153	-0.088
-499.639	-177.110	-0.259	-0.007
-498.624	-3.957	0.301	-0.210
-497.610	-200.000	-0.039	-0.190
-496.595	-165.016	0.281	-0.013
-495.581	-75.831	-0.166	0.059
-494.566	251.417	0.186	0.318
-493.551	-113.689	0.215	-0.042
-492.537	-171.302	0.440	0.015
-491.522	-89.779	-0.081	-0.024
-490.508	800.000	-0.068	0.211
-489.493	-131.767	-0.069	0.009
-488.478	-154.697	-0.176	0.012
-487.464	121.236	-0.124	0.155
-486.449	-39.759	0.116	0.061
-485.435	-53.266	0.083	-0.038
-484.420	111.402	0.161	-0.195
-483.405	-71.061	0.060	0.023
-482.391	791.849	0.112	0.310
-481.376	-153.089	-0.432	-0.031
-480.362	800.000	-0.053	-0.206
-479.347	-200.000	-0.001	-0.008
-478.332	287.887	0.073	-0.133
-477.318	-200.000	-0.018	0.166
-476.303	-200.000	-0.012	0.193
-475.289	-58.483	-0.176	0.077
-474.274	-6.450	-0.200	0.137
-473.259	-200.000	-0.005	0.057
-472.245	-112.864	-0.236	-0.047
-471.230	330.741	0.092	-0.178
-470.216	-110.896	0.545	-0.113
-469.201	58.477	0.176	0.173
-468.186	-96.940	0.245	-0.064
-467.172	-145.431	0.128	0.012
-466.157	-200.000	-0.037	-0.169
-465.143	-129.281	0.505	-0.071
-464.128	187.621	0.218	-0.327
-463.113	114.911	0.372	-0.456
-462.099	-6.300	0.030	0.021
-461.084	78.024	0.097	-0.104
-460.070	-200.000	-0.010	-0.252
-459.055	-61.147	-0.260	0.110
-458.040	-200.000	0.003	-0.048
-457.026	-50.015	0.197	-0.094
-456.011	-104.464	0.246	0.057
-454.997	-79.923	-0.120	0.040
-453.982	590.113	-0.057	-0.141
-452.968	-200.000	0.013	0.452
-451.953	-78.075	-0.081	-0.028
-450.938	-54.330	-0.309	0.141
-449.924	47.418	-0.107	-0.100
-448.909	-121.618	0.277	-0.046
-447.895	-200.000	-0.030	-0.222
-446.880	84.499	0.201	0.221
-445.865	-102.619	0.232	0.056
-444.851	81.429	0.095	0.103
-443.836	-7.378	-0.256	0.174
-442.822	-70.083	0.351	0.134
-441.807	-93.480	0.173	0.048
-440.792	-38.904	-0.126	-0.067
-439.778	800.000	0.072	0.206
-438.763	-184.468	-0.218	-0.004
-437.749	271.926	0.163	0.289
-436.734	206.943	-0.131	0.205
-435.719	-37.500	-0.186	0.100
-434.705	-200.000	0.030	0.133
-433.690	-200.000	-0.002	0.126
-432.676	312.828	-0.137	-0.258
-431.661	-179.106	-0.263	-0.006
-430.646	-17.493	0.173	-0.109
-429.632	189.009	0.155	-0.233
-428.617	-200.000	0.011	0.141
-427.603	-200.000	-0.051	-0.260
-426.588	-48.906	-0.225	-0.108
-425.573	-200.000	0.031	0.148
-424.559	573.315	0.006	-0.013
-423.544	-59.191	-0.143	-0.062
-422.530	-65.453	-0.370	0.149
-421.515	360.240	0.023	0.046
-420.500	204.116	-0.084	0.131
-419.486	-200.000	-0.028	-0.340
-418.471	221.819	-0.100	0.162
-417.457	100.907	0.268	-0.313
-416.442	561.259	-0.055	-0.134
-415.428	-40.603	0.151	0.079
-414.413	77.127	-0.104	-0.111
-413.398	-12.868	0.056	-0.037
-412.384	5.245	-0.122	-0.090
-411.369	-164.524	0.088	0.004
-410.355	-41.679	-0.100	0.051
-409.340	-96.085	-0.259	0.069
-408.325	121.609	0.209	-0.261
-407.311	-150.770	0.173	-0.013
-406.296	-200.000	0.009	-0.087
-405.282	217.825	-0.157	0.252
-404.267	-182.535	-0.226	-0.004
-403.252	800.000	0.084	-0.293
-402.238	54.991	-0.078	-0.076
-401.223	-200.000	-0.008	0.081
-400.209	-108.571	-0.460	-0.099
-399.194	0.663	0.422	0.303
-398.179	505.340	-0.080	0.185
-397.165	-90.137	0.241	0.070
-396.150	324.207	-0.099	-0.189
-395.136	-200.000	-0.069	-0.351
-394.121	800.000	-0.016	0.067
-393.106	223.687	-0.102	-0.165
-392.092	149.649	0.051	0.069
-391.077	517.964	-0.146	0.343
-390.063	-29.911	0.068	0.039
-389.048	-31.110	0.139	0.079
-388.033	-200.000	0.035	-0.203
-387.019	128.205	-0.113	0.144
-386.004	-200.000	0.000	0.053
-384.990	-2.532	-0.531	-0.373
-383.975	83.344	-0.116	0.126
-382.960	-200.000	-0.007	-0.137
-381.946	-200.000	-0.006	0.054
-380.931	-126.293	0.188	-0.028
-379.917	144.548	-0.118	-0.158
-378.902	800.000	0.033	0.114
-377.888	112.262	0.053	-0.064
-376.873	800.000	0.064	-0.191
-375.858	-91.126	-0.125	0.036
-374.844	251.772	-0.011	-0.018
-373.829	17.609	0.427	-0.340
-372.815	179.166	0.156	-0.229
-371.800	-88.478	-0.279	0.083
-370.785	82.146	-0.273	-0.297
-369.771	6.262	0.179	0.133
-368.756	800.000	-0.063	0.179
-367.742	95.827	0.137	-0.156
-366.727	-15.195	-0.184	-0.118
-365.712	-200.000	0.002	0.180
-364.698	349.256	0.055	0.108
-363.683	24.501	0.117	-0.096
-362.669	473.032	0.068	0.153
-361.654	200.783	-0.126	-0.193
-360.639	-200.000	-0.051	-0.274
-359.625	-89.041	0.327	0.097
-358.610	293.933	0.034	0.063
-357.596	-200.000	0.040	-0.289
-356.581	800.000	0.024	-0.089
-355.566	-105.412	0.085	-0.019
-354.552	69.644	0.066	-0.068
-353.537	-200.000	0.008	-0.248
-352.523	175.469	-0.120	-0.175
-351.508	189.389	0.086	0.129
-350.493	3.952	-0.229	0.168
-349.479	800.000	0.111	0.385
-348.464	-200.000	-0.034	0.209
-347.450	-172.474	0.159	0.005
-346.435	-200.000	0.018	0.243
-345.420	44.072	0.265	-0.243
-344.406	124.508	0.313	-0.393
-343.391	-148.420	-0.206	0.017
-342.377	221.351	0.160	-0.257
-341.362	164.920	-0.198	0.280
-340.348	800.000	0.071	0.234
-339.333	3.397	-0.124	0.091
-338.318	76.086	0.112	-0.118
-337.304	162.867	-0.077	0.109
-336.289	-108.608	0.041	-0.009
-335.275	349.121	0.058	-0.115
-334.260	-56.596	-0.249	-0.110
-333.245	35.726	-0.012	-0.011
-332.231	368.768	0.102	0.207
-331.216	-200.000	0.006	-0.133
-330.202	185.488	0.199	-0.295
-329.187	-200.000	-0.002	-0.344
-328.172	60.700	-0.211	-0.209
-327.158	154.832	0.270	0.371
-326.143	800.000	-0.072	0.258
-325.129	800.000	-0.058	0.206
-324.114	-59.988	-0.250	0.107
-323.099	15.419	0.238	0.187
-322.085	16.351	0.121	-0.095
-321.070	800.000	-0.078	-0.222
-320.056	57.712	-0.045	0.044
-319.041	800.000	-0.103	0.363
-318.026	-82.655	-0.099	0.032
-317.012	120.953	0.173	-0.215
-315.997	-101.453	-0.112	0.027
-314.983	69.776	-0.075	-0.078
-313.968	548.324	-0.164	0.393
-312.953	101.216	-0.420	-0.488
-311.939	-55.045	-0.192	0.086
-310.924	-17.674	0.235	0.148
-309.910	-104.030	-0.076	0.018
-308.895	274.291	0.205	-0.363
-307.880	-140.934	0.278	0.028
-306.866	190.071	0.155	-0.232
-305.851	800.000	-0.098	-0.309
-304.837	72.453	0.356	0.371
-303.822	37.539	0.163	0.145
-302.807	-200.000	0.005	-0.026
-301.793	628.318	0.145	0.367
-300.778	-173.687	-0.080	-0.002
-299.764	-157.023	-0.121	-0.007
-298.749	800.000	0.012	-0.053
-297.735	-140.017	-0.246	-0.026
-296.720	7.987	-0.107	0.080
-295.705	-22.920	-0.322	-0.194
-294.691	-98.836	-0.146	0.037
-293.676	-200.000	0.003	0.109
-292.662	386.545	0.062	-0.127
-291.647	-200.000	-0.002	0.171
-290.632	94.717	-0.120	-0.136
-289.618	311.971	-0.154	-0.289
-288.603	-98.475	0.300	-0.076
-287.589	-138.486	0.287	-0.032
-286.574	234.652	-0.104	0.171
-285.559	-23.569	-0.225	0.135
-284.545	0.519	0.292	-0.208
-283.530	-140.018	-0.361	-0.038
-282.516	399.888	-0.101	0.211
-281.501	-200.000	-0.031	-0.191
-280.486	-65.608	-0.200	0.080
-279.472	6.780	-0.125	-0.093
-278.457	699.864	-0.078	-0.204
-277.443	144.561	0.086	-0.114
-276.428	-145.811	0.095	0.008
-275.413	-135.918	0.242	0.028
-274.399	214.683	0.051	-0.081
-273.384	125.507	-0.131	-0.165
-272.370	102.197	0.196	0.229
-271.355	52.839	-0.291	0.278
-270.340	252.065	-0.087	0.149
-269.326	-26.555	0.091	-0.053
-268.311	-149.563	0.154	-0.012
-267.297	-171.558	0.125	-0.004
-266.282	800.000	0.085	-0.247
-265.267	158.567	-0.168	0.233
-264.253	136.042	-0.053	0.068
-263.238	800.000	-0.066	-0.281
-262.224	-200.000	-0.010	-0.083
-261.209	72.046	0.088	0.091
-260.195	-200.000	-0.015	-0.178
-259.180	800.000	-0.100	0.320
-258.165	-200.000	-0.027	0.241
-257.151	-200.000	-0.028	-0.126
-256.136	4.363	-0.108	-0.079
-255.122	-7.843	0.052	-0.035
-254.107	-78.201	-0.236	0.081
-253.092	95.140	0.108	0.122
-252.078	-150.433	0.136	-0.010
-251.063	59.439	-0.190	0.187
-250.049	-136.547	0.526	0.061
-249.034	-70.153	0.314	-0.119
-248.019	235.366	-0.203	-0.335
-247.005	302.312	0.130	0.240
-245.990	313.270	0.231	0.432
-244.976	-92.448	-0.130	0.036
-243.961	-68.725	0.272	-0.105
-242.946	282.446	-0.051	0.092
-241.932	-64.694	0.106	0.043
-240.917	-36.087	-0.217	-0.117
-239.903	800.000	-0.026	-0.094
-238.888	-27.020	-0.139	-0.081
-237.873	-1.919	0.213	0.149
-236.859	-99.579	-0.216	-0.054
-235.844	75.243	-0.277	0.291
-234.830	-167.045	0.423	-0.017
-233.815	278.550	0.108	-0.192
-232.800	-200.000	0.088	-0.620
-231.786	81.759	-0.137	0.148
-230.771	-59.544	-0.142	-0.061
-229.757	-194.875	0.096	-0.001
-228.742	224.884	0.058	0.093
-227.727	-82.892	-0.302	-0.097
-226.713	-101.101	0.324	-0.079
-225.698	-99.127	0.203	-0.051
-224.684	-130.781	0.388	0.052
-223.669	-181.056	0.238	0.005
-222.655	-81.664	0.259	-0.085
-221.640	-87.261	0.089	-0.027
-220.625	-18.392	0.245	-0.153
-219.611	28.904	0.398	0.336
-218.596	1.417	0.199	-0.143
-217.582	-129.426	-0.194	-0.027
-216.567	-104.523	-0.166	-0.038
-215.552	70.237	0.296	-0.304
-214.538	-105.208	-0.175	-0.040
-213.523	82.617	-0.211	0.228
-212.509	185.013	0.218	-0.322
-211.494	684.587	-0.014	-0.036
-210.479	205.326	-0.187	-0.288
-209.465	179.481	-0.362	-0.528
-208.450	-53.801	0.365	-0.166
-207.436	-200.000	-0.015	-0.109
-206.421	61.654	0.138	-0.137
-205.406	-64.760	-0.246	-0.099
-204.392	-109.204	0.344	0.073
-203.377	-81.852	0.234	0.076
-202.363	-200.000	0.017	0.312
-201.348	210.096	0.066	0.103
-200.333	32.995	-0.211	-0.182
-199.319	-200.000	0.015	0.243
-198.304	-97.537	-0.158	-0.041
-197.290	800.000	-0.130	0.434
-196.275	772.078	-0.130	0.352
-195.260	-192.410	-0.095	-0.001
-194.246	-200.000	-0.011	0.130
-193.231	-75.848	-0.146	0.052
-192.217	800.000	0.008	-0.031
-191.202	-99.285	-0.045	0.011
-190.187	800.000	-0.091	0.296
-189.173	237.837	-0.084	0.138
-188.158	-169.672	-0.213	-0.008
-187.144	-16.235	-0.285	0.180
-186.129	-105.676	-0.067	0.015
-185.114	-127.853	-0.084	-0.012
-184.100	-25.247	0.272	0.160
-183.085	800.000	-0.009	0.031
-182.071	71.218	0.107	0.110
-181.056	-200.000	0.002	-0.070
-180.042	-18.123	-0.155	-0.096
-179.027	47.060	-0.066	0.061
-178.012	-86.643	-0.114	0.035
-176.998	-98.832	0.025	-0.006
-175.983	-200.000	0.012	0.092
-174.969	147.404	0.196	-0.263
-173.954	265.988	-0.170	-0.294
-172.939	374.612	0.060	-0.122
-171.925	-109.238	-0.142	-0.030
-170.910	0.650	0.131	-0.093
-169.896	115.609	0.145	-0.176
-168.881	-12.440	0.101	-0.066
-167.866	357.128	0.106	0.209
-166.852	-200.000	0.021	-0.096
-165.837	-91.756	0.041	0.012
-164.823	454.551	-0.059	-0.129
-163.808	-93.618	-0.082	0.022
-162.793	800.000	-0.004	-0.015
-161.779	-200.000	-0.082	0.509
-160.764	268.968	-0.112	0.195
-159.750	448.011	-0.048	0.104
-158.735	-8.168	0.176	0.117
-157.720	-200.000	0.009	-0.260
-156.706	-88.292	0.057	0.017
-155.691	800.000	0.028	-0.084
-154.677	800.000	0.048	0.186
-153.662	455.164	0.052	-0.114
-152.647	800.000	-0.039	-0.158
-151.633	-161.293	0.219	0.011
-150.618	33.933	-0.110	-0.095
-149.604	143.929	0.047	0.062
-148.589	-200.000	-0.040	0.297
-147.574	76.977	-0.192	0.203
-146.560	-48.098	0.113	0.054
-145.545	-4.493	0.084	-0.058
-144.531	253.019	-0.227	0.385
-143.516	-126.378	0.204	-0.030
-142.502	138.579	0.180	0.234
-141.487	177.734	0.063	-0.091
-140.472	-43.325	-0.048	0.024
-139.458	-66.182	0.319	-0.126
-138.443	-92.506	0.264	0.074
-137.429	411.098	0.073	-0.154
-136.414	50.915	0.112	0.105
-135.399	-102.470	0.175	0.042
-134.385	551.221	0.063	-0.150
-133.370	-200.000	-0.062	-0.362
-132.356	66.926	0.098	0.099
-131.341	53.471	0.133	0.127
-130.326	22.863	0.147	-0.119
-129.312	139.205	0.069	0.090
-128.297	105.031	-0.104	-0.122
-127.283	-47.234	0.121	-0.058
-126.268	278.173	0.064	0.113
-125.253	90.661	0.076	-0.084
-124.239	-48.683	-0.181	-0.086
-123.224	-71.589	0.324	0.120
-122.210	88.354	0.308	-0.339
