DTS Sentinel unit serial number:	SN413079Multiplexer serial number:	ORYXHardware model number:	OX4-SRSoftware version number:	ORYX F/W v4.00 Oryx Data Collector v3.7.2.0data status	okinstallation	princeton_trtdifferential loss correction	single-endedforward channel	channel 4reverse channel	N/Adate	2019/09/12time	19:17:19forward acquisition time	15.00reverse acquisition time	0.00gamma	496.2192k internal	0.2309k external	0.2309temperature offset calibration	1.0146default loss term (dB/km)	0.3790temperature slope calibration	1.0000multiplexer offset coefficient	1.0000multiplexer slope coefficient	1.0000fibre end	0.00T internal ref (°C)	32.50T ext. ref 1 (°C)	3.24T ext. ref 2 (°C)	27.05length (m)	temperature (°C)	Stokes	anti-Stokes-747.200	-200.000	-0.086	0.826
-746.185	-63.204	-0.742	0.311
-745.171	50.329	-0.221	-0.212
-744.156	-14.016	-0.634	-0.416
-743.142	-4.965	-0.253	-0.177
-742.127	-200.000	-0.085	-0.390
-741.112	745.785	0.056	0.154
-740.098	105.280	-0.749	0.898
-739.083	676.076	-0.099	0.262
-738.069	131.954	-0.321	-0.420
-737.054	800.000	-0.265	-0.866
-736.039	217.669	0.529	-0.857
-735.025	211.139	-0.243	-0.388
-734.010	233.946	-0.083	0.138
-732.996	-13.553	-0.044	0.029
-731.981	176.850	-0.188	-0.277
-730.966	-200.000	-0.025	-0.259
-729.952	-6.354	-0.336	0.233
-728.937	42.758	-0.633	-0.586
-727.923	800.000	-0.240	-1.033
-726.908	800.000	-0.143	0.462
-725.894	-50.059	0.514	-0.248
-724.879	-200.000	0.041	-0.625
-723.864	-109.796	0.200	-0.043
-722.850	-35.172	0.215	-0.119
-721.835	-51.048	0.539	0.257
-720.821	272.345	-0.141	-0.253
-719.806	248.359	0.211	-0.362
-718.791	-174.070	0.489	0.015
-717.777	-126.993	-1.042	-0.155
-716.762	-82.676	-0.298	-0.098
-715.748	-164.378	0.452	0.021
-714.733	-200.000	-0.003	0.070
-713.718	188.135	-0.459	-0.696
-712.704	527.730	0.199	-0.476
-711.689	256.256	-0.311	0.542
-710.675	-200.000	0.022	-0.372
-709.660	-55.701	0.888	-0.403
-708.645	409.153	-0.235	0.505
-707.631	-85.589	0.663	-0.209
-706.616	800.000	-0.157	-0.452
-705.602	299.574	-0.020	-0.037
-704.587	800.000	-0.098	-0.350
-703.572	-200.000	0.007	0.553
-702.558	-108.735	-0.503	-0.109
-701.543	-81.000	0.740	-0.249
-700.529	-100.773	-0.813	0.203
-699.514	-100.591	-0.784	0.196
-698.499	4.621	-0.845	-0.630
-697.485	-200.000	0.028	-0.280
-696.470	-200.000	0.055	-1.557
-695.456	-121.104	-0.223	0.038
-694.441	-26.483	-0.325	0.193
-693.426	466.981	0.158	-0.359
-692.412	-190.615	0.767	-0.008
-691.397	-82.923	-0.253	0.083
-690.383	-200.000	0.077	0.371
-689.368	800.000	-0.178	0.522
-688.354	326.772	0.102	0.197
-687.339	168.034	-0.397	0.573
-686.324	-89.067	0.673	-0.202
-685.310	-50.301	0.328	0.157
-684.295	-4.766	0.776	-0.543
-683.281	-163.579	-1.077	-0.052
-682.266	-200.000	-0.077	-0.410
-681.251	20.889	0.091	-0.074
-680.237	-166.519	-0.280	0.012
-679.222	-95.570	-0.980	0.266
-678.208	-159.439	0.733	0.041
-677.193	-200.000	0.043	-0.511
-676.178	-151.023	0.460	0.035
-675.164	-200.000	-0.092	-0.730
-674.149	41.093	-0.386	-0.353
-673.135	-200.000	0.076	-0.546
-672.120	-200.000	0.048	-0.318
-671.105	169.964	-0.180	-0.261
-670.091	54.085	0.565	-0.551
-669.076	-57.632	0.129	0.057
-668.062	434.866	-0.381	-0.839
-667.047	125.146	-0.172	-0.219
-666.032	106.901	0.263	-0.317
-665.018	13.736	0.473	0.373
-664.003	-200.000	-0.115	-0.602
-662.989	339.478	-0.367	0.725
-661.974	146.265	-0.323	0.439
-660.959	-200.000	-0.013	-0.752
-659.945	356.237	0.187	-0.378
-658.930	-200.000	-0.005	0.980
-657.916	198.277	-0.530	-0.821
-656.901	159.007	0.064	-0.091
-655.886	-200.000	0.061	0.392
-654.872	161.508	0.212	-0.300
-653.857	-12.055	-0.811	0.538
-652.843	347.063	0.205	-0.410
-651.828	33.864	-0.760	-0.670
-650.814	107.635	-0.196	0.236
-649.799	-143.575	-0.109	-0.010
-648.784	-200.000	0.070	-0.964
-647.770	-89.326	0.514	-0.153
-646.755	800.000	0.162	-0.639
-645.741	800.000	-0.180	-0.570
-644.726	-128.671	0.711	0.102
-643.711	-119.603	-0.245	0.043
-642.697	800.000	0.145	-0.526
-641.682	128.458	-0.610	-0.786
-640.668	-108.504	-0.610	-0.133
-639.653	-200.000	-0.013	-1.100
-638.638	209.991	-0.245	-0.389
-637.624	214.570	0.346	-0.554
-636.609	-132.517	0.428	0.056
-635.595	157.140	0.215	-0.301
-634.580	62.152	-0.491	0.496
-633.565	111.135	-0.178	-0.217
-632.551	23.976	-0.483	-0.403
-631.536	252.196	0.188	-0.323
-630.522	348.514	0.180	0.359
-629.507	-81.601	-0.878	0.292
-628.492	10.447	-0.697	-0.537
-627.478	613.097	0.199	0.504
-626.463	179.807	0.112	0.165
-625.449	-114.862	-0.251	-0.048
-624.434	123.879	0.063	-0.080
-623.419	800.000	-0.318	1.139
-622.405	497.518	0.217	-0.506
-621.390	-64.665	0.328	-0.135
-620.376	-116.527	0.709	0.132
-619.361	-64.382	0.494	-0.203
-618.346	26.797	0.020	0.017
-617.332	-12.622	-0.669	0.441
-616.317	-6.864	-0.149	-0.103
-615.303	-4.981	-0.562	-0.391
-614.288	238.906	-0.279	0.469
-613.273	36.046	0.175	-0.155
-612.259	290.536	0.044	-0.081
-611.244	-102.232	-0.674	-0.164
-610.230	117.353	-0.027	0.034
-609.215	376.730	-0.300	0.620
-608.201	138.592	-0.309	0.410
-607.186	-128.676	0.564	-0.081
-606.171	-146.892	-0.565	-0.049
-605.157	-117.429	0.689	-0.126
-604.142	-1.106	-0.612	-0.437
-603.128	-17.815	0.705	-0.447
-602.113	-200.000	-0.105	-0.645
-601.098	153.770	0.517	0.716
-600.084	-200.000	0.110	-0.780
-599.069	-63.786	0.445	-0.184
-598.055	57.677	0.423	0.418
-597.040	123.901	0.589	-0.747
-596.025	-110.458	0.650	-0.136
-595.011	373.140	0.569	1.169
-593.996	-119.277	0.332	-0.058
-592.982	76.572	-0.125	0.134
-591.967	-177.320	-0.762	-0.019
-590.952	-23.519	-0.738	0.448
-589.938	247.319	-0.492	0.840
-588.923	-85.152	-0.452	0.143
-587.909	800.000	0.230	-0.673
-586.894	-150.034	0.265	0.021
-585.879	-78.570	0.943	0.326
-584.865	-48.693	-0.280	-0.136
-583.850	-33.318	0.078	0.044
-582.836	800.000	-0.167	0.703
-581.821	-179.721	-0.281	-0.006
-580.806	253.157	-0.395	0.681
-579.792	-200.000	0.012	0.944
-578.777	240.716	-0.491	-0.828
-577.763	-200.000	-0.142	-0.698
-576.748	-3.118	0.917	0.646
-575.733	-71.055	-0.659	0.250
-574.719	-200.000	0.071	-0.535
-573.704	-91.020	0.572	-0.166
-572.690	-200.000	-0.110	-0.748
-571.675	108.017	0.368	0.443
-570.661	-87.683	-0.126	-0.039
-569.646	-200.000	-0.188	-0.833
-568.631	178.387	0.317	-0.467
-567.617	-18.110	0.375	0.237
-566.602	-61.281	-0.617	0.262
-565.588	157.976	0.087	0.121
-564.573	800.000	0.051	-0.166
-563.558	-5.290	-0.423	-0.294
-562.544	211.796	-0.332	-0.528
-561.529	-114.461	-0.566	-0.110
-560.515	49.230	0.521	-0.494
-559.500	131.083	0.203	-0.263
-558.485	-200.000	-0.034	0.726
-557.471	279.724	0.209	0.377
-556.456	-54.214	0.894	-0.410
-555.442	-13.938	0.633	-0.412
-554.427	-80.715	0.644	0.216
-553.412	800.000	0.322	-1.342
-552.398	800.000	0.118	0.517
-551.383	33.379	0.248	-0.217
-550.369	-5.719	0.325	-0.225
-549.354	-200.000	0.074	0.352
-548.339	800.000	0.129	-0.427
-547.325	591.885	-0.235	-0.584
-546.310	-62.307	-0.382	-0.160
-545.296	-104.405	-0.143	-0.033
-544.281	800.000	-0.167	0.624
-543.266	-78.510	0.339	-0.117
-542.252	800.000	-0.100	-0.352
-541.237	-80.970	-0.610	-0.204
-540.223	318.739	-0.125	-0.239
-539.208	429.734	-0.256	0.558
-538.193	75.954	0.816	-0.870
-537.179	43.531	0.175	0.162
-536.164	-168.599	0.791	0.030
-535.150	800.000	-0.155	-0.484
-534.135	-200.000	0.080	-1.011
-533.121	365.496	0.151	-0.306
-532.106	44.976	0.660	0.613
-531.091	-13.609	-0.417	0.272
-530.077	-146.392	-0.489	-0.043
-529.062	172.504	0.443	-0.643
-528.048	456.445	-0.198	-0.444
-527.033	9.375	0.524	-0.400
-526.018	-200.000	-0.028	-0.472
-525.004	800.000	0.385	1.087
-523.989	112.570	-0.348	-0.424
-522.975	-124.927	0.271	-0.042
-521.960	-150.889	-0.754	0.057
-520.945	73.142	0.460	0.485
-519.931	800.000	0.239	-0.702
-518.916	-113.516	0.609	0.120
-517.902	225.757	0.261	0.427
-516.887	552.622	0.167	0.404
-515.872	-195.726	-0.333	0.002
-514.858	-19.160	-0.493	-0.308
-513.843	-200.000	0.116	0.637
-512.829	-57.118	0.527	0.234
-511.814	-34.854	-0.421	-0.232
-510.799	-39.443	-0.247	-0.131
-509.785	-101.199	0.464	0.114
-508.770	510.415	-0.215	0.504
-507.756	160.399	0.199	0.279
-506.741	214.647	0.143	0.228
-505.726	357.725	0.064	-0.129
-504.712	-139.733	-0.760	0.081
-503.697	-88.124	0.240	-0.073
-502.683	-120.619	0.761	-0.130
-501.668	-200.000	0.040	0.583
-500.653	-148.297	-0.067	0.006
-499.639	-48.700	-0.520	-0.251
-498.624	-28.525	0.472	-0.274
-497.610	-200.000	0.086	0.573
-496.595	-200.000	0.118	0.668
-495.581	209.299	0.390	-0.615
-494.566	-200.000	-0.041	-0.292
-493.551	182.410	0.202	-0.300
-492.537	-84.762	0.060	0.019
-491.522	-124.488	-0.315	-0.049
-490.508	149.240	0.532	-0.725
-489.493	-1.481	-1.064	0.755
-488.478	-168.523	0.653	-0.025
-487.464	-75.665	-0.397	0.142
-486.449	181.875	0.476	0.705
-485.435	-132.747	1.306	0.168
-484.420	-52.455	-0.366	0.170
-483.405	335.635	0.250	0.487
-482.391	117.979	-0.313	-0.387
-481.376	-200.000	0.079	0.363
-480.362	327.855	0.441	-0.851
-479.347	-177.410	-0.882	0.022
-478.332	-46.634	-0.484	0.238
-477.318	-38.539	-0.534	-0.284
-476.303	-162.734	-0.759	0.037
-475.289	-92.033	0.423	0.120
-474.274	9.608	-0.295	-0.224
-473.259	-169.133	0.617	0.023
-472.245	24.698	-0.455	-0.379
-471.230	-200.000	0.043	0.246
-470.216	-145.231	-0.514	-0.047
-469.201	-19.187	0.650	0.406
-468.186	800.000	-0.197	-0.672
-467.172	334.837	-0.276	0.537
-466.157	96.523	0.230	0.264
-465.143	-8.428	-0.246	0.166
-464.128	-193.358	0.234	0.002
-463.113	84.239	-0.252	-0.277
-462.099	-25.897	0.531	0.314
-461.084	275.080	0.275	0.490
-460.070	62.073	-0.629	0.630
-459.055	-72.949	0.505	0.186
-458.040	-131.645	0.414	0.055
-457.026	121.959	0.545	0.683
-456.011	-200.000	-0.126	0.651
-454.997	-200.000	0.029	0.492
-453.982	-87.480	1.080	0.328
-452.968	-200.000	0.131	0.677
-451.953	483.234	0.297	-0.678
-450.938	800.000	-0.182	-0.651
-449.924	486.002	0.153	-0.349
-448.909	-109.305	0.545	0.116
-447.895	-63.367	0.203	0.084
-446.880	-152.830	-0.342	-0.024
-445.865	552.210	-0.230	0.555
-444.851	-11.751	-0.693	-0.457
-443.836	-127.694	-0.552	-0.080
-442.822	-74.286	-0.556	0.202
-441.807	-154.798	0.635	0.042
-440.792	-200.000	-0.002	0.365
-439.778	27.655	0.632	-0.534
-438.763	-200.000	0.009	0.553
-437.749	18.552	0.590	0.474
-436.734	419.516	0.035	0.075
-435.719	-99.420	0.144	-0.037
-434.705	710.032	0.261	0.692
-433.690	-200.000	0.009	0.781
-432.676	0.232	-0.365	0.261
-431.661	181.355	-0.229	0.339
-430.646	-78.849	-0.233	-0.080
-429.632	54.213	-0.491	0.475
-428.617	224.657	0.133	0.215
-427.603	800.000	0.194	-0.602
-426.588	-200.000	0.063	-0.372
-425.573	-142.718	0.672	-0.066
-424.559	354.580	0.293	0.585
-423.544	-200.000	-0.046	0.444
-422.530	167.466	-0.440	-0.628
-421.515	-200.000	0.059	-0.440
-420.500	-107.838	-0.419	0.092
-419.486	-200.000	-0.194	-0.897
-418.471	468.553	0.519	-1.169
-417.457	-200.000	0.039	-0.317
-416.442	-141.416	0.462	0.047
-415.428	235.990	-0.165	0.274
-414.413	-200.000	0.226	0.001
-413.398	31.199	0.093	0.080
-412.384	800.000	-0.045	0.138
-411.369	513.853	0.121	0.283
-410.355	-112.717	0.424	0.084
-409.340	175.349	0.207	-0.300
-408.325	-54.865	-0.569	0.257
-407.311	-101.702	-0.167	-0.041
-406.296	-15.751	-0.630	-0.403
-405.282	90.113	0.119	0.133
-404.267	101.086	-0.450	0.526
-403.252	124.106	-0.263	-0.332
-402.238	21.023	0.261	0.212
-401.223	800.000	-0.233	0.837
-400.209	-20.097	0.343	-0.212
-399.194	-90.601	0.347	0.101
-398.179	-200.000	-0.053	-0.481
-397.165	34.320	-0.907	0.793
-396.150	4.994	0.069	-0.051
-395.136	-200.000	0.077	0.697
-394.121	294.253	0.078	-0.143
-393.106	-119.983	0.410	-0.070
-392.092	-200.000	-0.054	-1.016
-391.077	-46.810	0.514	-0.252
-390.063	-82.790	-0.105	-0.034
-389.048	-44.194	0.541	-0.272
-388.033	-79.827	0.577	0.195
-387.019	32.099	-0.856	0.739
-386.004	332.267	-0.184	0.355
-384.990	-200.000	0.012	-0.521
-383.975	800.000	0.083	0.324
-382.960	-6.181	0.327	0.223
-381.946	800.000	0.132	-0.560
-380.931	384.900	0.357	0.737
-379.917	-87.553	0.619	0.187
-378.902	-81.636	-0.310	-0.102
-377.888	-57.284	-0.419	-0.185
-376.873	-9.658	-0.947	0.632
-375.858	-137.235	-0.916	-0.104
-374.844	-82.994	-0.613	0.198
-373.829	-10.839	-0.270	-0.179
-372.815	526.718	-0.223	0.526
-371.800	30.996	0.409	-0.351
-370.785	309.253	0.380	0.711
-369.771	800.000	-0.320	0.999
-368.756	-57.679	-0.030	0.013
-367.742	-200.000	0.183	0.830
-366.727	182.673	0.816	1.205
-365.712	-128.272	0.204	-0.029
-364.698	-200.000	0.004	-0.618
-363.683	-200.000	0.816	-0.001
-362.669	-153.212	-0.184	-0.013
-361.654	-200.000	0.042	0.359
-360.639	800.000	0.032	0.136
-359.625	101.510	0.280	-0.327
-358.610	-99.156	-0.395	-0.100
-357.596	396.931	-0.276	0.576
-356.581	-93.287	-0.776	-0.216
-355.566	800.000	-0.166	-0.475
-354.552	800.000	0.163	-0.555
-353.537	-56.587	0.689	-0.306
-352.523	800.000	0.093	0.270
-351.508	800.000	-0.123	0.368
-350.493	800.000	0.106	0.308
-349.479	800.000	0.079	0.310
-348.464	99.106	0.394	-0.455
-347.450	24.119	-0.605	-0.500
-346.435	200.968	0.125	-0.193
-345.420	21.841	-0.225	0.184
-344.406	174.393	0.096	0.139
-343.391	323.473	-0.151	-0.287
-342.377	315.190	0.292	-0.550
-341.362	800.000	0.193	-0.804
-340.348	-200.000	0.040	0.449
-339.333	-93.467	-0.955	-0.265
-338.318	-41.533	-0.211	-0.108
-337.304	0.818	-0.359	-0.257
-336.289	74.667	0.525	0.552
-335.275	-14.310	0.359	0.231
-334.260	278.209	0.128	0.229
-333.245	143.982	-0.260	-0.347
-332.231	88.869	-0.312	-0.347
-331.216	14.351	0.812	-0.633
-330.202	-71.814	0.248	0.092
-329.187	-45.902	-0.448	0.221
-328.172	-138.505	0.318	-0.035
-327.158	39.967	-0.833	-0.748
-326.143	800.000	0.125	-0.366
-325.129	-109.011	0.513	-0.109
-324.114	-73.653	-0.507	-0.185
-323.099	9.805	0.396	-0.301
-322.085	800.000	-0.036	-0.157
-321.070	38.921	-0.599	-0.535
-320.056	87.107	-0.460	-0.508
-319.041	-120.591	-0.314	0.053
-318.026	59.876	0.570	0.562
-317.012	53.602	0.428	-0.410
-315.997	-13.071	0.509	-0.331
-314.983	-143.271	-0.877	0.084
-313.968	-86.257	-0.047	0.015
-312.953	-51.922	-0.113	0.053
-311.939	-116.406	-1.168	0.216
-310.924	84.594	0.572	0.626
-309.910	281.772	-0.440	0.788
-308.895	149.315	-0.373	-0.504
-307.880	108.819	-0.335	0.400
-306.866	800.000	-0.178	0.561
-305.851	800.000	-0.093	-0.286
-304.837	121.780	0.148	-0.184
-303.822	71.944	0.529	0.549
-302.807	-18.036	-0.205	0.129
-301.793	-200.000	-0.095	0.545
-300.778	-200.000	0.015	0.341
-299.764	-126.873	-0.844	0.124
-298.749	800.000	-0.147	0.437
-297.735	-10.507	0.929	-0.614
-296.720	-159.303	0.980	0.055
-295.705	83.084	-0.113	0.123
-294.691	47.260	-0.593	-0.551
-293.676	-29.500	0.022	0.013
-292.662	-200.000	0.039	-0.608
-291.647	-200.000	-0.023	-0.497
-290.632	-5.879	0.839	0.574
-289.618	137.179	-0.594	-0.776
-288.603	27.659	0.648	0.545
-287.589	-98.664	-0.494	-0.126
-286.574	207.818	0.133	0.207
-285.559	-200.000	0.074	-0.449
-284.545	-200.000	0.093	-0.974
-283.530	-148.203	-0.349	-0.029
-282.516	-45.586	-0.172	0.085
-281.501	800.000	0.129	0.504
-280.486	-39.210	-1.071	0.562
-279.472	19.517	-0.550	0.442
-278.457	146.731	0.117	0.156
-277.443	-174.962	0.497	-0.014
-276.428	-68.651	-0.018	-0.007
-275.413	-11.408	-0.232	-0.153
-274.399	800.000	-0.189	0.783
-273.384	-21.165	0.420	0.256
-272.370	800.000	-0.242	1.037
-271.355	-158.268	-0.989	0.058
-270.340	28.838	-0.204	0.173
-269.326	-200.000	-0.059	-0.561
-268.311	73.857	-0.300	-0.314
-267.297	7.283	-0.637	0.474
-266.282	13.119	-0.402	-0.310
-265.267	90.913	-0.262	-0.293
-264.253	-103.478	-0.712	0.167
-263.238	130.224	-0.228	-0.291
-262.224	-179.687	0.438	-0.009
-261.209	-5.550	0.752	-0.515
-260.195	-8.589	0.373	0.250
-259.180	118.066	0.300	0.369
-258.165	0.223	0.166	0.118
-257.151	-200.000	0.223	-1.126
-256.136	-200.000	0.102	-0.758
-255.122	800.000	-0.170	0.541
-254.107	-200.000	0.012	-0.607
-253.092	340.519	-0.137	0.266
-252.078	800.000	0.252	-0.703
-251.063	-200.000	0.090	0.443
-250.049	-200.000	0.052	-0.429
-249.034	93.400	-0.272	-0.307
-248.019	-200.000	-0.084	0.830
-247.005	-200.000	-0.026	-0.549
-245.990	-200.000	-0.063	0.450
-244.976	-200.000	-0.008	-0.070
-243.961	-181.751	1.262	0.024
-242.946	-123.769	-0.674	0.106
-241.932	-55.777	0.733	0.326
-240.917	-107.673	0.874	-0.190
-239.903	-72.285	0.208	0.077
-238.888	-200.000	0.052	0.585
-237.873	800.000	-0.094	-0.263
-236.859	-78.933	-0.441	-0.150
-235.844	87.189	0.254	0.280
-234.830	-37.939	-0.352	0.186
-233.815	57.836	-0.279	-0.272
-232.800	319.345	-0.290	-0.547
-231.786	-128.593	-0.430	-0.061
-230.771	213.810	0.260	0.410
-229.757	-16.156	-0.733	0.464
-228.742	31.926	0.755	0.648
-227.727	-85.123	0.780	0.243
-226.713	-94.819	0.533	-0.144
-225.698	567.619	-0.306	-0.740
-224.684	-118.986	-0.313	-0.055
-223.669	67.373	-0.461	-0.468
-222.655	800.000	-0.159	-0.447
-221.640	-97.831	-0.458	-0.118
-220.625	21.970	-0.327	0.266
-219.611	-200.000	0.048	0.515
-218.596	-0.145	-0.454	0.321
-217.582	1.411	0.441	0.316
-216.567	-2.722	-0.822	-0.572
-215.552	-71.656	-0.405	0.151
-214.538	800.000	0.113	-0.447
-213.523	800.000	-0.093	0.288
-212.509	-53.386	0.225	-0.103
-211.494	295.023	0.374	-0.680
-210.479	-24.022	-0.445	0.265
-209.465	281.604	-0.282	-0.503
-208.450	800.000	0.072	0.241
-207.436	-104.552	-0.638	-0.147
-206.421	-92.966	-0.258	0.072
-205.406	9.167	-0.064	0.048
-204.392	-28.305	-0.404	0.232
-203.377	-30.270	0.778	-0.440
-202.363	151.126	0.483	0.653
-201.348	-200.000	-0.009	0.134
-200.333	-200.000	-0.009	0.134
-199.319	75.718	0.222	0.233
-198.304	800.000	0.305	0.964
-197.290	76.860	-0.181	0.191
-196.275	438.107	0.053	0.116
-195.260	194.038	-0.098	-0.147
-194.246	800.000	-0.074	0.315
-193.231	44.080	0.435	-0.397
-192.217	53.133	-1.355	-1.290
-191.202	-187.145	-0.368	0.005
-190.187	137.009	0.159	0.206
-189.173	677.205	0.205	0.529
-188.158	124.266	-0.554	-0.692
-187.144	248.836	-0.345	0.581
-186.129	35.100	0.278	0.242
-185.114	-123.334	1.590	0.252
-184.100	145.368	0.264	-0.351
-183.085	-77.055	-0.843	0.292
-182.071	8.455	0.476	-0.356
-181.056	-200.000	0.205	-1.003
-180.042	800.000	-0.177	-0.536
-179.027	145.861	0.499	-0.665
-178.012	-14.676	-0.407	-0.260
-176.998	38.389	0.579	0.513
-175.983	-61.134	0.948	0.398
-174.969	64.646	-0.198	-0.199
-173.954	270.672	-0.284	0.497
-172.939	348.921	-0.134	-0.262
-171.925	-74.137	-0.935	-0.336
-170.910	154.267	-0.474	-0.646
-169.896	46.630	-0.552	-0.509
-168.881	186.320	-0.452	0.668
-167.866	28.865	0.632	0.532
-166.852	8.141	-0.617	0.460
-165.837	48.534	-0.527	0.490
-164.823	-87.712	-0.556	0.167
-163.808	25.392	-0.266	-0.219
-162.793	40.889	-0.247	0.221
-161.779	-22.457	0.363	0.218
-160.764	-83.498	-0.600	0.191
-159.750	-99.602	0.298	-0.074
-158.735	-19.727	-0.224	-0.138
-157.720	-176.743	0.972	0.025
-156.706	-166.134	0.254	0.011
-155.691	-146.170	1.016	-0.089
-154.677	216.405	-0.369	0.583
-153.662	416.596	0.089	-0.188
-152.647	-41.924	0.473	0.241
-151.633	90.771	-0.376	0.418
-150.618	58.677	-0.203	-0.198
-149.604	-22.089	0.059	0.035
-148.589	-156.564	0.741	-0.046
-147.574	206.044	0.129	0.199
-146.560	-200.000	-0.016	-0.680
-145.545	-133.807	-0.739	-0.091
-144.531	146.303	0.256	0.341
-143.516	-103.714	-0.435	-0.101
-142.502	776.627	0.434	-1.176
-141.487	-200.000	-0.041	-0.295
-140.472	28.143	0.315	-0.264
-139.458	-134.979	-0.833	-0.100
-138.443	273.558	0.182	-0.320
-137.429	-122.067	-0.656	-0.107
-136.414	18.858	-0.933	0.742
-135.399	-76.348	0.978	-0.342
-134.385	52.007	-0.541	0.512
-133.370	-126.732	0.178	0.026
-132.356	240.066	0.417	0.690
-131.341	764.290	-0.237	0.639
-130.326	800.000	0.216	0.688
-129.312	-136.413	0.902	-0.104
-128.297	-200.000	-0.016	0.594
-127.283	105.352	0.492	-0.576
-126.268	-200.000	-0.192	-0.874
-125.253	376.814	0.259	-0.524
-124.239	-87.477	0.535	-0.161
-123.224	112.495	-0.520	0.624
-122.210	10.369	-0.107	0.081
-121.195	-10.036	0.665	0.439
