DTS Sentinel unit serial number:	SN413079Multiplexer serial number:	ORYXHardware model number:	OX4-SRSoftware version number:	ORYX F/W v4.00 Oryx Data Collector v3.7.2.0data status	okinstallation	princeton_trtdifferential loss correction	single-endedforward channel	channel 4reverse channel	N/Adate	2019/09/17time	19:17:35forward acquisition time	60.00reverse acquisition time	0.00gamma	496.2192k internal	0.2300k external	0.2300temperature offset calibration	0.9987default loss term (dB/km)	0.3790temperature slope calibration	1.0000multiplexer offset coefficient	1.0000multiplexer slope coefficient	1.0000fibre end	0.00T internal ref (°C)	38.34T ext. ref 1 (°C)	0.26T ext. ref 2 (°C)	26.59length (m)	temperature (°C)	Stokes	anti-Stokes-747.200	-23.184	0.312	0.191
-746.185	-110.068	-0.269	0.057
-745.171	-141.985	0.113	-0.011
-744.156	-200.000	-0.070	0.498
-743.142	800.000	0.050	-0.213
-742.127	-117.293	-0.115	-0.021
-741.112	800.000	-0.105	0.341
-740.098	800.000	-0.024	-0.103
-739.083	10.448	-0.066	-0.051
-738.069	-138.535	-0.392	-0.044
-737.054	-77.404	0.076	-0.027
-736.039	-185.331	0.179	-0.003
-735.025	-200.000	0.017	-0.219
-734.010	-53.282	-0.231	-0.108
-732.996	-46.192	-0.114	0.057
-731.981	18.340	-0.441	-0.359
-730.966	147.280	0.119	-0.163
-729.952	72.368	0.097	0.103
-728.937	295.091	0.118	0.221
-727.923	-176.266	-0.396	-0.011
-726.908	-200.000	0.009	0.081
-725.894	-61.073	-0.104	0.045
-724.879	34.237	-0.139	-0.123
-723.864	-200.000	0.006	-0.183
-722.850	-89.479	0.066	0.020
-721.835	-200.000	-0.231	0.001
-720.821	-25.235	-0.138	0.084
-719.806	-145.398	-0.131	0.012
-718.791	-49.863	0.232	-0.112
-717.777	-177.560	0.239	-0.006
-716.762	-155.675	0.144	-0.009
-715.748	205.718	-0.106	0.169
-714.733	450.529	-0.123	-0.277
-713.718	-200.000	-0.009	0.205
-712.704	304.284	0.154	0.292
-711.689	64.853	-0.149	0.154
-710.675	15.545	0.256	-0.205
-709.660	-119.849	-0.302	0.053
-708.645	-28.947	-0.096	0.056
-707.631	65.079	-0.217	0.223
-706.616	800.000	-0.024	0.079
-705.602	-70.357	-0.226	-0.087
-704.587	338.182	0.150	-0.298
-703.572	29.253	0.293	-0.254
-702.558	-165.019	-0.352	0.016
-701.543	-200.000	-0.015	0.288
-700.529	-82.359	0.049	-0.016
-699.514	-200.000	-0.024	0.166
-698.499	52.920	-0.137	-0.133
-697.485	185.526	-0.215	-0.325
-696.470	17.733	-0.289	-0.234
-695.456	-200.000	-0.016	0.304
-694.441	-120.981	-0.203	0.035
-693.426	-39.837	-0.036	-0.019
-692.412	103.858	0.139	-0.166
-691.397	23.267	-0.194	0.162
-690.383	-124.745	0.008	-0.001
-689.368	-16.282	-0.217	0.140
-688.354	-109.265	-0.271	0.059
-687.339	-200.000	0.027	0.197
-686.324	-148.736	-0.454	-0.037
-685.310	-200.000	0.009	0.153
-684.295	93.188	0.145	0.167
-683.281	-200.000	0.013	-0.269
-682.266	-200.000	0.003	-0.186
-681.251	19.254	-0.182	-0.149
-680.237	-46.847	0.253	0.126
-679.222	-160.570	0.410	-0.022
-678.208	-200.000	-0.067	-0.304
-677.193	800.000	-0.100	-0.409
-676.178	800.000	-0.096	-0.287
-675.164	-95.545	0.319	-0.087
-674.149	-200.000	-0.033	-0.188
-673.135	8.518	-0.293	-0.225
-672.120	-51.977	0.477	0.226
-671.105	-73.286	-0.069	0.026
-670.091	61.602	-0.175	0.177
-669.076	-200.000	0.055	0.315
-668.062	36.533	0.232	-0.208
-667.047	17.994	-0.252	-0.204
-666.032	-47.284	-0.266	0.132
-665.018	-115.297	-0.297	0.057
-664.003	800.000	0.064	-0.266
-662.989	-108.109	0.342	0.075
-661.974	-94.624	-0.062	-0.017
-660.959	-200.000	0.057	0.265
-659.945	-30.695	-0.109	-0.063
-658.930	-14.443	0.074	0.048
-657.916	-200.000	0.031	-0.157
-656.901	42.570	-0.134	-0.124
-655.886	85.414	-0.217	-0.243
-654.872	3.070	-0.271	-0.200
-653.857	315.458	0.085	0.162
-652.843	385.451	-0.054	0.112
-651.828	-73.674	-0.278	0.103
-650.814	-200.000	-0.012	0.178
-649.799	-52.635	0.119	0.056
-648.784	-73.595	-0.106	-0.039
-647.770	295.306	0.187	-0.348
-646.755	550.901	0.066	-0.160
-645.741	376.297	0.179	-0.370
-644.726	49.618	-0.270	0.259
-643.711	-200.000	-0.004	-0.197
-642.697	-200.000	-0.006	-0.208
-641.682	-200.000	0.058	-0.322
-640.668	439.925	0.019	0.043
-639.653	-110.106	0.142	0.030
-638.638	10.412	0.207	-0.160
-637.624	-4.887	0.335	-0.235
-636.609	386.978	0.095	-0.200
-635.595	800.000	0.050	0.216
-634.580	102.242	-0.240	-0.285
-633.565	62.816	0.185	-0.188
-632.551	-200.000	0.021	0.125
-631.536	-59.037	0.245	0.107
-630.522	-40.683	-0.356	-0.188
-629.507	25.674	0.098	-0.083
-628.492	-8.819	-0.083	-0.057
-627.478	743.377	-0.084	-0.230
-626.463	122.341	-0.169	-0.215
-625.449	800.000	-0.075	0.216
-624.434	-200.000	0.011	-0.099
-623.419	-200.000	-0.048	-0.240
-622.405	-200.000	-0.030	0.196
-621.390	575.240	0.046	-0.115
-620.376	21.495	0.272	0.224
-619.361	654.949	0.035	-0.090
-618.346	-200.000	0.043	0.326
-617.332	43.601	0.147	-0.137
-616.317	254.832	0.156	-0.271
-615.303	-115.100	0.510	-0.098
-614.288	-170.755	0.085	-0.003
-613.273	492.915	0.070	0.163
-612.259	800.000	-0.058	0.234
-611.244	329.795	0.253	0.494
-610.230	2.016	0.118	-0.087
-609.215	800.000	0.052	0.196
-608.201	-200.000	0.036	0.453
-607.186	8.141	-0.151	-0.115
-606.171	-200.000	-0.038	0.199
-605.157	-158.993	-0.053	0.003
-604.142	-106.878	0.273	-0.061
-603.128	-162.098	-0.255	0.013
-602.113	-200.000	-0.001	0.131
-601.098	-123.122	0.422	-0.069
-600.084	228.998	0.059	-0.097
-599.069	-62.850	0.085	0.036
-598.055	-38.460	0.152	-0.082
-597.040	-21.804	-0.256	-0.158
-596.025	-200.000	-0.011	-0.105
-595.011	-130.972	-0.281	-0.038
-593.996	-200.000	0.012	-0.146
-592.982	-200.000	-0.002	0.237
-591.967	800.000	0.110	0.397
-590.952	-200.000	0.014	-0.156
-589.938	-200.000	0.368	-0.001
-588.923	46.789	-0.084	-0.080
-587.909	88.658	0.190	0.214
-586.894	-58.067	0.527	-0.233
-585.879	102.797	-0.194	0.230
-584.865	-72.665	-0.089	-0.033
-583.850	260.983	0.036	0.063
-582.836	2.517	-0.176	-0.129
-581.821	12.617	0.190	0.149
-580.806	1.979	-0.383	0.280
-579.792	21.340	-0.212	0.175
-578.777	-200.000	-0.025	0.138
-577.763	84.854	-0.081	0.090
-576.748	800.000	-0.090	0.334
-575.733	594.504	0.068	0.170
-574.719	-187.302	-0.071	0.001
-573.704	-41.948	-0.208	0.108
-572.690	615.358	-0.063	0.161
-571.675	-68.132	-0.101	-0.040
-570.661	261.707	-0.227	0.398
-569.646	-54.096	0.343	0.158
-568.631	17.741	-0.195	0.157
-567.617	147.888	0.114	-0.156
-566.602	-179.222	0.162	0.004
-565.588	5.806	0.106	-0.080
-564.573	-63.381	0.378	-0.157
-563.558	800.000	-0.077	-0.270
-562.544	261.193	-0.095	0.166
-561.529	-105.438	0.173	-0.040
-560.515	16.556	0.381	0.305
-559.500	80.940	0.230	0.252
-558.485	-200.000	0.012	0.132
-557.471	-70.016	0.045	-0.017
-556.456	-200.000	0.032	-0.169
-555.442	-129.812	0.227	-0.032
-554.427	-200.000	0.004	-0.150
-553.412	-32.878	0.214	0.120
-552.398	-200.000	-0.312	0.001
-551.383	471.785	-0.064	-0.145
-550.369	206.431	-0.101	0.160
-549.354	-91.772	0.150	-0.043
-548.339	276.317	-0.124	0.223
-547.325	-5.129	0.147	-0.103
-546.310	-200.000	0.027	-0.360
-545.296	-58.092	0.377	-0.167
-544.281	19.335	0.125	0.101
-543.266	127.783	-0.118	0.152
-542.252	45.869	-0.113	0.106
-541.237	-200.000	-0.038	-0.286
-540.223	210.245	-0.090	-0.143
-539.208	-16.263	-0.176	0.113
-538.193	-37.372	-0.337	-0.182
-537.179	-15.060	-0.229	-0.148
-536.164	679.997	-0.011	-0.030
-535.150	-200.000	-0.019	-0.198
-534.135	126.694	-0.055	-0.070
-533.121	-152.447	-0.417	-0.030
-532.106	-121.661	0.149	-0.025
-531.091	-81.009	-0.221	-0.074
-530.077	54.155	0.127	-0.124
-529.062	800.000	0.047	-0.138
-528.048	-27.327	-0.341	-0.201
-527.033	-35.490	-0.132	-0.072
-526.018	-200.000	0.002	-0.220
-525.004	-11.080	0.183	0.122
-523.989	17.309	0.204	-0.164
-522.975	133.000	0.121	-0.158
-521.960	-39.289	-0.028	0.015
-520.945	-73.179	-0.168	-0.062
-519.931	-23.046	0.119	-0.072
-518.916	-200.000	0.036	-0.187
-517.902	-37.813	-0.103	0.056
-516.887	-10.043	-0.063	-0.042
-515.872	-82.082	-0.134	-0.044
-514.858	185.472	-0.140	0.210
-513.843	-87.854	-0.045	-0.014
-512.829	234.799	0.117	0.195
-511.814	55.481	-0.172	-0.168
-510.799	-93.433	-0.246	-0.069
-509.785	-88.646	0.114	-0.034
-508.770	-75.151	0.217	-0.079
-507.756	7.059	-0.209	0.157
-506.741	482.614	-0.051	0.118
-505.726	-200.000	-0.003	-0.163
-504.712	800.000	0.034	0.116
-503.697	30.603	0.247	0.214
-502.683	-200.000	0.001	0.242
-501.668	19.601	0.084	-0.068
-500.653	-14.788	0.221	-0.143
-499.639	800.000	0.045	0.169
-498.624	551.769	0.080	-0.195
-497.610	-87.549	-0.198	0.061
-496.595	-66.994	-0.080	-0.032
-495.581	-168.479	0.229	0.009
-494.566	-200.000	0.013	0.279
-493.551	141.429	0.111	-0.148
-492.537	166.083	-0.085	-0.121
-491.522	484.133	-0.081	0.185
-490.508	-104.161	0.330	-0.078
-489.493	-200.000	-0.007	-0.236
-488.478	-154.284	-0.142	0.010
-487.464	190.058	0.145	0.220
-486.449	56.999	-0.251	-0.247
-485.435	91.395	-0.164	0.186
-484.420	-127.441	0.179	-0.026
-483.405	-200.000	0.006	-0.061
-482.391	334.561	-0.133	0.260
-481.376	-200.000	0.035	0.200
-480.362	-109.550	0.250	0.053
-479.347	-20.972	0.131	0.081
-478.332	800.000	0.089	0.377
-477.318	299.402	0.061	0.112
-476.303	-200.000	-0.048	0.307
-475.289	8.384	0.185	-0.140
-474.274	-151.609	0.139	0.010
-473.259	-200.000	0.022	0.185
-472.245	-101.313	-0.128	-0.032
-471.230	546.574	0.187	0.451
-470.216	30.393	-0.276	0.238
-469.201	78.852	0.227	-0.245
-468.186	800.000	-0.057	-0.181
-467.172	-91.846	0.242	-0.069
-466.157	-200.000	-0.026	0.201
-465.143	-11.180	0.232	-0.154
-464.128	21.368	-0.333	-0.273
-463.113	244.825	-0.134	-0.227
-462.099	21.434	-0.111	-0.091
-461.084	-77.358	-0.175	-0.061
-460.070	-5.232	-0.127	-0.088
-459.055	2.292	-0.419	-0.306
-458.040	79.917	0.152	0.165
-457.026	-81.672	-0.047	-0.016
-456.011	-144.786	0.066	0.006
-454.997	82.440	-0.251	-0.275
-453.982	-75.375	-0.213	0.077
-452.968	-30.213	0.079	-0.045
-451.953	-31.820	-0.187	0.106
-450.938	110.061	-0.114	-0.138
-449.924	454.715	0.132	-0.295
-448.909	-200.000	-0.018	0.156
-447.895	-200.000	-0.062	0.300
-446.880	-92.743	-0.267	-0.075
-445.865	-4.936	0.066	-0.046
-444.851	583.956	0.063	-0.156
-443.836	342.416	-0.094	-0.185
-442.822	274.785	-0.075	0.134
-441.807	800.000	-0.044	-0.152
-440.792	146.945	-0.060	0.082
-439.778	800.000	0.056	-0.170
-438.763	269.657	0.115	-0.203
-437.749	-200.000	0.007	-0.229
-436.734	128.807	-0.101	0.130
-435.719	134.805	-0.251	-0.328
-434.705	800.000	-0.022	-0.080
-433.690	91.178	0.121	0.137
-432.676	-188.587	-0.090	0.001
-431.661	800.000	0.014	0.061
-430.646	800.000	0.041	0.141
-429.632	-119.778	-0.270	0.047
-428.617	185.320	0.139	0.208
-427.603	-68.576	-0.141	0.055
-426.588	-58.718	0.171	-0.075
-425.573	-108.915	-0.099	0.021
-424.559	-200.000	0.021	0.141
-423.544	-200.000	-0.042	-0.222
-422.530	29.333	0.127	0.109
-421.515	-200.000	-0.064	-0.302
-420.500	800.000	-0.008	-0.033
-419.486	800.000	-0.024	-0.097
-418.471	-39.673	0.112	-0.059
-417.457	-200.000	-0.020	-0.414
-416.442	-109.758	-0.128	0.027
-415.428	800.000	-0.027	-0.097
-414.413	-151.709	0.217	0.016
-413.398	-200.000	-0.031	0.365
-412.384	-41.551	-0.086	-0.044
-411.369	800.000	-0.020	-0.063
-410.355	-200.000	-0.001	0.104
-409.340	-59.030	0.148	-0.064
-408.325	-128.107	-0.364	0.052
-407.311	-200.000	-0.028	0.209
-406.296	-16.677	-0.342	-0.218
-405.282	-82.585	-0.481	-0.157
-404.267	800.000	0.051	-0.169
-403.252	-149.718	-0.219	-0.017
-402.238	666.790	0.013	-0.033
-401.223	109.010	-0.057	-0.069
-400.209	-32.023	-0.100	0.056
-399.194	-200.000	-0.002	0.167
-398.179	13.076	0.059	0.046
-397.165	27.218	-0.085	0.072
-396.150	110.628	0.077	0.093
-395.136	22.894	-0.201	-0.165
-394.121	247.621	0.168	-0.285
-393.106	608.492	-0.095	0.238
-392.092	80.089	-0.162	0.175
-391.077	144.851	-0.070	-0.095
-390.063	-110.044	-0.466	0.098
-389.048	-175.535	0.087	-0.002
-388.033	155.370	-0.094	0.130
-387.019	-110.693	0.139	-0.029
-386.004	-91.601	0.027	0.008
-384.990	89.210	0.334	0.374
-383.975	67.096	0.237	-0.243
-382.960	-200.000	0.032	-0.253
-381.946	-67.705	-0.247	0.097
-380.931	-0.096	-0.034	-0.024
-379.917	-35.814	0.640	-0.348
-378.902	-200.000	-0.020	0.170
-377.888	677.618	-0.025	0.064
-376.873	-200.000	-0.036	0.234
-375.858	-200.000	0.014	0.183
-374.844	9.024	-0.124	-0.094
-373.829	-102.429	0.274	0.066
-372.815	-200.000	-0.006	0.264
-371.800	-112.688	-0.470	-0.094
-370.785	-47.668	0.207	-0.101
-369.771	-8.958	-0.071	-0.048
-368.756	-200.000	0.020	-0.285
-367.742	-0.380	0.265	0.189
-366.727	576.911	-0.067	0.164
-365.712	191.201	0.181	-0.274
-364.698	-200.000	0.002	-0.110
-363.683	-19.557	0.061	-0.038
-362.669	84.406	-0.221	-0.243
-361.654	-69.035	-0.233	-0.090
-360.639	-36.208	0.065	0.035
-359.625	-94.939	-0.132	0.036
-358.610	336.907	-0.090	0.176
-357.596	-84.659	0.172	0.055
-356.581	-21.876	-0.305	-0.186
-355.566	-46.249	0.134	-0.066
-354.552	-98.088	0.176	-0.045
-353.537	-200.000	0.005	-0.225
-352.523	-200.000	-0.009	-0.134
-351.508	-200.000	-0.006	-0.150
-350.493	-200.000	0.052	0.333
-349.479	-101.945	-0.199	0.048
-348.464	94.073	-0.237	0.270
-347.450	-138.787	-0.185	-0.020
-346.435	-19.597	0.239	-0.149
-345.420	-200.000	0.029	0.192
-344.406	-37.762	-0.057	0.030
-343.391	32.004	0.067	0.058
-342.377	-200.000	-0.004	-0.253
-341.362	-11.462	-0.149	-0.098
-340.348	-43.418	-0.116	0.059
-339.333	477.417	0.144	-0.327
-338.318	118.336	0.053	-0.066
-337.304	-200.000	-0.006	0.105
-336.289	-70.370	0.147	-0.056
-335.275	800.000	-0.038	-0.143
-334.260	60.156	0.200	0.199
-333.245	800.000	-0.035	0.135
-332.231	26.221	-0.076	0.064
-331.216	800.000	0.064	-0.274
-330.202	-103.012	0.248	-0.059
-329.187	-160.104	-0.051	0.003
-328.172	-25.124	0.193	0.115
-327.158	317.924	0.074	0.141
-326.143	-6.932	-0.236	0.161
-325.129	145.932	-0.186	-0.250
-324.114	-200.000	-0.051	0.289
-323.099	-200.000	-0.016	0.201
-322.085	-200.000	-0.020	0.384
-321.070	-200.000	0.003	-0.118
-320.056	140.358	-0.228	-0.302
-319.041	30.222	0.052	0.044
-318.026	-76.334	0.121	-0.043
-317.012	800.000	-0.006	-0.020
-315.997	-164.187	0.151	-0.007
-314.983	224.592	0.084	-0.136
-313.968	-120.646	0.160	0.027
-312.953	-119.271	0.107	-0.019
-311.939	-143.060	-0.173	0.017
-310.924	700.758	-0.101	0.267
-309.910	-122.697	0.164	-0.027
-308.895	2.119	0.276	0.200
-307.880	-11.264	-0.141	-0.093
-306.866	196.402	-0.095	-0.145
-305.851	-198.554	-0.104	-0.001
-304.837	-200.000	0.026	-0.232
-303.822	-82.371	0.142	0.046
-302.807	140.283	-0.110	-0.145
-301.793	-4.963	-0.149	0.103
-300.778	800.000	0.049	-0.155
-299.764	800.000	0.093	-0.269
-298.749	188.157	0.163	-0.245
-297.735	-36.828	-0.085	-0.046
-296.720	202.562	0.121	-0.188
-295.705	-66.906	-0.127	0.050
-294.691	662.400	0.062	-0.161
-293.676	800.000	0.032	0.135
-292.662	-24.819	-0.110	0.066
-291.647	-200.000	-0.003	-0.172
-290.632	256.470	-0.090	0.155
-289.618	-200.000	0.002	0.092
-288.603	-106.160	-0.267	-0.060
-287.589	-71.227	-0.144	-0.054
-286.574	-41.152	0.103	0.053
-285.559	-61.553	-0.143	-0.060
-284.545	-78.306	-0.373	0.128
-283.530	-200.000	-0.003	-0.044
-282.516	558.688	0.160	-0.387
-281.501	-200.000	0.061	-0.329
-280.486	-5.631	-0.046	0.032
-279.472	-65.934	0.283	-0.113
-278.457	-200.000	0.013	0.351
-277.443	-53.410	-0.321	-0.147
-276.428	800.000	-0.030	0.130
-275.413	-90.557	0.135	0.039
-274.399	800.000	0.107	-0.409
-273.384	-200.000	-0.083	0.432
-272.370	211.968	-0.091	0.143
-271.355	258.608	0.116	-0.199
-270.340	-34.229	-0.192	-0.105
-269.326	-152.703	0.125	-0.009
-268.311	-106.311	0.051	-0.011
-267.297	52.085	0.156	-0.148
-266.282	-125.430	-0.480	-0.073
-265.267	-200.000	-0.001	0.034
-264.253	195.856	-0.253	0.386
-263.238	-200.000	-0.017	-0.112
-262.224	118.664	0.155	-0.192
-261.209	103.635	0.209	-0.246
-260.195	189.545	-0.121	0.181
-259.180	-101.007	-0.155	-0.038
-258.165	48.085	-0.016	-0.015
-257.151	-15.927	0.390	-0.248
-256.136	208.579	-0.035	-0.054
-255.122	-200.000	0.004	0.075
-254.107	461.109	-0.177	-0.395
-253.092	529.225	-0.104	0.247
-252.078	-122.873	0.159	0.026
-251.063	-112.752	-0.066	-0.013
-250.049	326.830	-0.033	0.063
-249.034	160.699	0.281	-0.392
-248.019	-88.005	0.183	-0.055
-247.005	-109.864	0.258	0.054
-245.990	800.000	0.052	0.213
-244.976	-144.147	-0.086	-0.008
-243.961	-106.361	-0.127	0.028
-242.946	449.835	-0.108	0.238
-241.932	-49.942	-0.225	0.107
-240.917	-98.555	-0.207	0.053
-239.903	235.143	0.049	0.081
-238.888	-115.808	0.193	0.036
-237.873	-125.059	-0.205	0.031
-236.859	203.838	0.094	-0.146
-235.844	-200.000	0.011	0.084
-234.830	28.775	-0.163	0.138
-233.815	47.304	0.494	-0.460
-232.800	-200.000	0.044	0.197
-231.786	-137.392	-0.471	-0.053
-230.771	-56.578	0.270	-0.120
-229.757	-62.024	-0.228	0.095
-228.742	-50.178	0.274	0.129
-227.727	800.000	-0.023	0.093
-226.713	-131.750	0.257	-0.034
-225.698	255.775	0.092	-0.158
-224.684	-200.000	0.038	-0.374
-223.669	-200.000	-0.028	-0.292
-222.655	-200.000	-0.009	0.082
-221.640	11.172	0.263	0.201
-220.625	-74.235	0.390	-0.141
-219.611	-26.599	-0.282	0.165
-218.596	800.000	0.010	0.030
-217.582	-81.587	0.032	-0.010
-216.567	-141.866	-0.238	-0.024
-215.552	315.417	-0.123	0.232
-214.538	249.484	0.094	0.159
-213.523	284.208	-0.159	0.286
-212.509	-20.191	0.274	-0.168
-211.494	406.630	-0.065	-0.136
-210.479	2.270	0.040	-0.029
-209.465	-200.000	0.069	-0.380
-208.450	-35.164	-0.147	-0.080
-207.436	66.904	-0.245	0.249
-206.421	-27.979	0.300	-0.173
-205.406	-200.000	-0.004	0.049
-204.392	-71.063	-0.189	0.071
-203.377	-200.000	-0.056	0.311
-202.363	36.712	-0.012	0.011
-201.348	-177.791	0.305	-0.007
-200.333	-103.857	-0.340	0.079
-199.319	594.491	0.078	0.193
-198.304	25.760	0.186	0.155
-197.290	-135.326	0.225	-0.027
-196.275	800.000	0.047	-0.187
-195.260	-17.328	0.336	-0.211
-194.246	-200.000	-0.083	-0.373
-193.231	800.000	-0.055	0.172
-192.217	124.145	-0.196	-0.246
-191.202	146.275	0.197	-0.264
-190.187	-65.809	-0.057	0.023
-189.173	110.380	-0.104	0.125
-188.158	-69.345	-0.291	0.111
-187.144	-200.000	-0.064	0.418
-186.129	-141.708	0.403	-0.040
-185.114	502.671	-0.025	0.058
-184.100	219.278	0.131	0.210
-183.085	800.000	-0.117	0.445
-182.071	-168.722	-0.102	-0.004
-181.056	162.444	-0.216	0.302
-180.042	-200.000	-0.056	0.327
-179.027	-82.335	0.167	0.054
-178.012	149.418	-0.049	-0.066
-176.998	448.640	0.135	0.296
-175.983	92.896	0.243	0.274
-174.969	94.662	-0.211	0.239
-173.954	94.497	-0.176	-0.200
-172.939	359.675	0.078	-0.156
-171.925	526.461	-0.075	0.176
-170.910	-41.282	0.112	-0.058
-169.896	-102.857	-0.240	0.057
-168.881	-200.000	0.043	0.241
-167.866	-105.136	-0.074	-0.017
-166.852	-40.519	0.390	0.202
-165.837	42.375	0.339	0.307
-164.823	800.000	-0.019	-0.075
-163.808	-200.000	-0.050	-0.310
-162.793	320.676	0.064	0.121
-161.779	57.125	-0.068	-0.066
-160.764	-71.563	-0.061	0.023
-159.750	475.691	-0.263	0.592
-158.735	213.184	0.198	0.312
-157.720	-200.000	-0.032	0.262
-156.706	62.263	-0.256	-0.254
-155.691	268.337	-0.051	0.088
-154.677	-200.000	0.033	0.306
-153.662	24.550	-0.172	-0.142
-152.647	-200.000	-0.023	0.157
-151.633	-200.000	0.004	0.096
-150.618	-27.273	-0.415	-0.241
-149.604	-140.614	0.401	0.041
-148.589	48.765	-0.122	0.114
-147.574	659.456	0.117	0.300
-146.560	-11.133	0.222	0.146
-145.545	-44.121	-0.158	-0.079
-144.531	-160.905	0.239	-0.013
-143.516	128.934	0.117	-0.149
-142.502	-200.000	0.009	-0.108
-141.487	72.905	-0.064	0.066
-140.472	61.008	-0.168	0.166
-139.458	-42.551	0.067	0.034
-138.443	-35.951	-0.354	0.191
-137.429	-137.082	-0.232	0.026
-136.414	505.624	0.083	-0.192
-135.399	318.025	0.158	-0.299
-134.385	-200.000	-0.060	0.343
-133.370	125.861	0.171	0.215
-132.356	91.084	0.115	-0.129
-131.341	-195.548	0.040	-0.000
-130.326	-165.265	-0.265	-0.012
-129.312	199.052	0.108	-0.165
-128.297	-101.464	-0.199	-0.048
-127.283	29.819	0.170	-0.144
-126.268	-151.416	-0.055	-0.004
-125.253	122.493	0.172	0.214
-124.239	440.529	0.106	-0.230
-123.224	187.419	0.080	-0.118
