DTS Sentinel unit serial number:	SN413079Multiplexer serial number:	ORYXHardware model number:	OX4-SRSoftware version number:	ORYX F/W v4.00 Oryx Data Collector v3.7.2.0data status	okinstallation	princeton_trtdifferential loss correction	single-endedforward channel	channel 4reverse channel	N/Adate	2019/09/13time	18:45:35forward acquisition time	60.00reverse acquisition time	0.00gamma	496.2192k internal	0.2307k external	0.2307temperature offset calibration	1.0181default loss term (dB/km)	0.3790temperature slope calibration	1.0000multiplexer offset coefficient	1.0000multiplexer slope coefficient	1.0000fibre end	0.00T internal ref (°C)	32.62T ext. ref 1 (°C)	4.11T ext. ref 2 (°C)	25.81length (m)	temperature (°C)	Stokes	anti-Stokes-747.200	-162.672	-0.059	0.003
-746.185	-41.386	-0.098	-0.051
-745.171	-43.528	0.126	0.065
-744.156	139.937	-0.165	0.222
-743.142	800.000	0.011	0.039
-742.127	-132.636	-0.413	-0.054
-741.112	295.679	-0.090	0.167
-740.098	284.052	-0.075	0.137
-739.083	77.251	-0.031	0.034
-738.069	-189.460	-0.088	-0.001
-737.054	11.865	0.033	-0.026
-736.039	-68.820	-0.330	0.130
-735.025	-153.759	0.447	-0.031
-734.010	-200.000	-0.028	-0.257
-732.996	260.062	0.206	-0.362
-731.981	-200.000	-0.013	-0.072
-730.966	-200.000	0.093	-0.467
-729.952	-200.000	0.027	-0.121
-728.937	-69.074	-0.245	0.096
-727.923	143.059	0.145	0.196
-726.908	-122.692	-0.327	-0.054
-725.894	-93.191	-0.227	-0.064
-724.879	203.168	-0.146	-0.229
-723.864	-200.000	0.000	-0.026
-722.850	-171.099	-0.311	-0.011
-721.835	-134.613	-0.062	0.008
-720.821	-68.871	-0.461	-0.181
-719.806	679.343	-0.043	-0.114
-718.791	123.300	-0.130	-0.165
-717.777	242.493	0.161	-0.274
-716.762	-75.757	-0.226	0.081
-715.748	78.519	0.189	0.205
-714.733	-34.077	0.041	0.023
-713.718	800.000	0.053	0.173
-712.704	-79.831	-0.146	-0.050
-711.689	-109.922	-0.135	0.029
-710.675	34.731	0.147	0.131
-709.660	179.350	0.020	0.029
-708.645	144.393	0.059	-0.080
-707.631	-155.076	0.341	0.023
-706.616	569.046	0.083	-0.205
-705.602	191.919	0.152	-0.232
-704.587	719.066	-0.067	-0.180
-703.572	-200.000	0.012	-0.375
-702.558	660.811	0.042	-0.110
-701.543	44.825	-0.110	-0.103
-700.529	-200.000	-0.006	-0.240
-699.514	150.772	-0.022	0.031
-698.499	-103.439	-0.353	-0.084
-697.485	800.000	0.031	0.111
-696.470	-200.000	-0.024	0.191
-695.456	-64.276	-0.084	-0.035
-694.441	-110.869	-0.215	-0.045
-693.426	30.070	0.068	-0.058
-692.412	800.000	-0.044	-0.167
-691.397	-106.328	-0.203	-0.046
-690.383	17.270	-0.105	0.085
-689.368	-200.000	0.077	-0.000
-688.354	313.455	0.151	0.287
-687.339	-200.000	0.068	0.000
-686.324	157.051	0.126	0.177
-685.310	-200.000	0.006	-0.240
-684.295	502.773	-0.148	0.346
-683.281	-40.904	0.189	-0.099
-682.266	-135.479	0.276	0.033
-681.251	-200.000	-0.008	-0.255
-680.237	-200.000	-0.002	-0.061
-679.222	246.173	0.136	0.232
-678.208	179.780	0.124	0.184
-677.193	-200.000	0.045	0.291
-676.178	-48.496	-0.053	-0.026
-675.164	0.663	-0.220	-0.160
-674.149	-58.828	-0.141	-0.062
-673.135	-39.881	-0.283	-0.150
-672.120	-57.613	-0.150	-0.067
-671.105	-121.233	0.184	0.031
-670.091	201.832	0.051	0.080
-669.076	-89.432	-0.172	0.051
-668.062	620.781	-0.088	-0.225
-667.047	106.035	0.245	-0.294
-666.032	800.000	0.149	-0.429
-665.018	-33.750	-0.075	0.042
-664.003	13.366	-0.127	-0.100
-662.989	-149.767	-0.270	0.022
-661.974	800.000	-0.084	0.297
-660.959	-193.614	0.223	-0.002
-659.945	36.005	-0.128	0.114
-658.930	-131.999	-0.246	0.032
-657.916	32.404	-0.171	0.150
-656.901	14.843	-0.113	-0.089
-655.886	-200.000	-0.039	-0.207
-654.872	-96.916	0.305	-0.081
-653.857	-56.155	0.271	-0.122
-652.843	-200.000	-0.044	-0.425
-651.828	-116.563	-0.227	-0.042
-650.814	534.621	0.064	-0.154
-649.799	-108.878	-0.070	0.015
-648.784	159.763	-0.201	0.284
-647.770	532.234	-0.029	-0.069
-646.755	-27.820	-0.140	0.082
-645.741	-61.540	0.099	-0.042
-644.726	-98.233	0.172	0.045
-643.711	385.311	0.058	-0.121
-642.697	-200.000	-0.042	0.229
-641.682	-90.606	0.096	0.028
-640.668	-14.348	0.149	0.097
-639.653	-90.603	-0.296	0.087
-638.638	278.153	-0.074	-0.133
-637.624	-100.753	0.244	0.061
-636.609	-112.714	0.110	0.022
-635.595	550.751	0.072	0.176
-634.580	-200.000	-0.002	-0.242
-633.565	-142.322	-0.215	-0.022
-632.551	-200.000	0.023	0.326
-631.536	-22.837	-0.101	-0.061
-630.522	-69.169	0.108	0.042
-629.507	-129.807	-0.231	0.032
-628.492	800.000	0.073	-0.239
-627.478	-21.351	-0.232	-0.144
-626.463	-101.418	0.187	-0.046
-625.449	-170.732	-0.246	0.009
-624.434	35.295	-0.071	0.063
-623.419	-149.852	0.077	0.006
-622.405	504.692	0.060	-0.139
-621.390	-163.537	0.257	-0.012
-620.376	-108.262	-0.091	0.020
-619.361	287.185	0.100	0.183
-618.346	0.243	-0.143	0.103
-617.332	-81.203	0.299	-0.100
-616.317	800.000	0.064	0.278
-615.303	-48.332	-0.180	0.088
-614.288	76.670	0.111	-0.119
-613.273	588.525	0.090	-0.225
-612.259	800.000	0.060	-0.173
-611.244	-183.056	0.429	0.008
-610.230	64.569	0.225	-0.229
-609.215	-148.680	-0.307	-0.025
-608.201	-88.203	0.108	0.033
-607.186	256.330	0.126	0.218
-606.171	-24.662	-0.172	-0.103
-605.157	-112.950	-0.202	0.040
-604.142	-133.888	-0.349	-0.044
-603.128	-162.974	0.500	-0.024
-602.113	319.801	-0.028	-0.054
-601.098	-35.853	0.291	-0.160
-600.084	63.809	-0.292	-0.296
-599.069	311.190	-0.029	0.055
-598.055	23.519	0.109	0.090
-597.040	-175.280	-0.145	-0.004
-596.025	-75.793	-0.192	0.069
-595.011	-200.000	-0.029	0.245
-593.996	-67.850	0.192	-0.076
-592.982	117.828	-0.175	-0.218
-591.967	-200.000	-0.019	0.503
-590.952	-51.074	-0.053	-0.025
-589.938	18.932	0.109	-0.088
-588.923	-200.000	0.022	-0.111
-587.909	-200.000	-0.021	-0.195
-586.894	30.297	0.040	0.035
-585.879	231.520	-0.114	-0.188
-584.865	131.311	0.086	0.112
-583.850	49.077	0.211	-0.200
-582.836	-30.140	0.122	-0.070
-581.821	20.267	-0.146	-0.119
-580.806	-53.480	-0.070	-0.033
-579.792	216.625	-0.228	0.366
-578.777	-1.224	0.255	0.182
-577.763	-113.628	-0.326	0.064
-576.748	-65.315	-0.358	0.146
-575.733	-116.977	0.216	0.040
-574.719	303.860	0.028	-0.053
-573.704	-6.615	0.090	0.062
-572.690	47.182	-0.101	-0.095
-571.675	-146.480	-0.312	-0.027
-570.661	800.000	-0.108	-0.342
-569.646	341.926	-0.033	0.064
-568.631	104.993	0.153	0.183
-567.617	574.303	0.161	0.397
-566.602	9.395	0.159	0.121
-565.588	-68.325	-0.316	-0.124
-564.573	-80.139	-0.230	0.078
-563.558	-106.354	0.283	-0.064
-562.544	-104.449	0.139	-0.033
-561.529	9.442	0.251	0.191
-560.515	-137.743	0.060	0.007
-559.500	800.000	0.050	0.148
-558.485	800.000	0.045	-0.146
-557.471	-200.000	0.049	-0.221
-556.456	460.648	-0.090	0.203
-555.442	800.000	0.040	0.131
-554.427	236.221	-0.042	-0.071
-553.412	-200.000	0.023	-0.187
-552.398	416.896	0.100	-0.215
-551.383	-200.000	-0.013	-0.237
-550.369	312.010	0.125	-0.236
-549.354	-150.977	0.511	-0.039
-548.339	24.019	-0.278	-0.231
-547.325	2.198	-0.236	0.172
-546.310	-25.741	-0.092	0.055
-545.296	-69.195	-0.048	-0.019
-544.281	-81.092	-0.192	-0.064
-543.266	160.019	-0.090	-0.127
-542.252	-200.000	-0.014	-0.230
-541.237	428.785	-0.128	-0.278
-540.223	12.676	0.187	-0.145
-539.208	752.881	0.083	0.227
-538.193	-141.381	-0.065	-0.007
-537.179	800.000	0.016	-0.049
-536.164	-16.032	-0.150	-0.096
-535.150	323.135	0.076	0.146
-534.135	-200.000	0.020	0.491
-533.121	-107.112	-0.264	-0.059
-532.106	-159.820	-0.193	-0.011
-531.091	-200.000	-0.013	0.195
-530.077	-200.000	0.003	-0.029
-529.062	-200.000	-0.093	0.460
-528.048	-169.222	0.246	0.009
-527.033	154.256	0.023	0.031
-526.018	-38.068	-0.096	-0.051
-525.004	165.980	0.126	-0.180
-523.989	-36.814	0.130	-0.070
-522.975	-90.764	-0.145	0.042
-521.960	-200.000	-0.016	0.101
-520.945	57.529	-0.252	0.248
-519.931	21.766	0.113	0.093
-518.916	-200.000	0.040	0.256
-517.902	389.405	0.104	-0.217
-516.887	-200.000	0.001	-0.103
-515.872	-61.108	-0.160	0.068
-514.858	-97.911	-0.250	0.065
-513.843	9.297	-0.266	-0.203
-512.829	-200.000	0.043	-0.213
-511.814	-125.706	-0.050	0.008
-510.799	-166.897	-0.445	-0.018
-509.785	-200.000	-0.021	-0.133
-508.770	233.874	-0.005	0.009
-507.756	-184.657	-0.210	0.003
-506.741	800.000	0.125	-0.393
-505.726	-200.000	0.009	-0.068
-504.712	30.368	0.273	0.235
-503.697	-23.745	0.108	-0.065
-502.683	-151.232	0.309	0.023
-501.668	800.000	0.094	0.361
-500.653	-200.000	-0.034	-0.189
-499.639	31.791	0.061	-0.053
-498.624	800.000	-0.075	0.299
-497.610	-20.690	0.085	0.053
-496.595	-174.996	-0.354	-0.010
-495.581	-200.000	0.007	0.355
-494.566	800.000	-0.078	0.325
-493.551	743.199	0.089	0.240
-492.537	578.390	0.140	-0.344
-491.522	-78.425	-0.205	-0.071
-490.508	-82.974	-0.175	0.057
-489.493	27.625	0.231	-0.196
-488.478	-115.217	-0.146	-0.028
-487.464	642.429	0.017	-0.044
-486.449	456.704	-0.077	-0.172
-485.435	-120.624	0.330	0.056
-484.420	-200.000	-0.064	0.389
-483.405	-200.000	-0.075	0.334
-482.391	-200.000	0.020	-0.362
-481.376	-64.844	0.111	-0.045
-480.362	145.629	-0.046	0.062
-479.347	81.294	0.222	0.242
-478.332	-175.258	0.209	0.006
-477.318	53.275	-0.168	-0.162
-476.303	-76.837	-0.245	-0.086
-475.289	-116.273	0.319	-0.060
-474.274	144.980	0.102	0.137
-473.259	-200.000	-0.013	0.251
-472.245	-200.000	0.013	0.424
-471.230	90.930	-0.026	0.029
-470.216	-200.000	-0.023	-0.100
-469.201	77.518	0.313	0.335
-468.186	183.377	0.161	-0.239
-467.172	20.873	0.147	0.120
-466.157	81.874	0.118	-0.128
-465.143	800.000	-0.152	0.618
-464.128	-1.884	0.087	0.061
-463.113	-164.929	0.136	-0.006
-462.099	63.524	-0.295	0.298
-461.084	155.434	0.173	-0.240
-460.070	100.025	-0.074	-0.086
-459.055	-169.070	0.297	0.011
-458.040	200.868	0.052	-0.080
-457.026	-15.115	-0.299	0.193
-456.011	-78.929	-0.201	-0.069
-454.997	800.000	0.009	-0.033
-453.982	-187.199	0.119	0.002
-452.968	-101.910	0.255	-0.062
-451.953	486.459	-0.023	0.053
-450.938	213.108	0.113	-0.180
-449.924	-23.247	-0.165	-0.100
-448.909	4.970	0.124	0.092
-447.895	359.640	-0.093	0.187
-446.880	-200.000	0.063	0.457
-445.865	-118.420	0.284	-0.051
-444.851	-117.196	-0.174	0.032
-443.836	114.128	0.095	0.116
-442.822	298.553	0.210	-0.388
-441.807	-128.545	0.144	0.020
-440.792	152.704	0.094	-0.129
-439.778	-200.000	-0.003	0.204
-438.763	540.252	0.137	0.328
-437.749	293.712	-0.087	0.160
-436.734	10.177	0.166	0.127
-435.719	-44.565	0.060	0.030
-434.705	-91.218	-0.226	-0.065
-433.690	-200.000	0.041	0.263
-432.676	-164.244	0.097	-0.004
-431.661	351.441	0.096	-0.190
-430.646	9.767	-0.155	-0.118
-429.632	-23.329	-0.115	0.070
-428.617	-52.907	-0.329	-0.152
-427.603	-40.640	-0.384	-0.200
-426.588	-63.148	-0.219	-0.091
-425.573	7.611	0.169	-0.127
-424.559	-103.223	-0.408	-0.097
-423.544	130.781	0.096	-0.123
-422.530	157.348	-0.078	-0.108
-421.515	-60.861	-0.285	-0.121
-420.500	73.529	-0.172	-0.180
-419.486	47.305	-0.191	-0.179
-418.471	-70.096	0.123	-0.047
-417.457	83.895	-0.061	-0.067
-416.442	689.541	-0.088	0.230
-415.428	692.294	-0.066	0.174
-414.413	-136.104	-0.352	0.041
-413.398	29.531	0.039	0.033
-412.384	325.141	-0.065	-0.124
-411.369	91.023	0.121	0.137
-410.355	-25.316	-0.119	-0.071
-409.340	120.691	0.072	0.090
-408.325	-22.356	0.026	0.016
-407.311	-61.178	-0.176	0.075
-406.296	792.484	-0.037	0.103
-405.282	-138.045	0.361	0.040
-404.267	-146.092	0.052	0.005
-403.252	50.893	-0.026	0.025
-402.238	768.862	-0.112	-0.307
-401.223	22.439	0.174	-0.143
-400.209	-147.064	-0.264	0.023
-399.194	800.000	0.051	0.173
-398.179	130.357	-0.043	-0.055
-397.165	85.906	0.190	-0.210
-396.150	536.523	0.072	-0.172
-395.136	-27.809	-0.101	-0.059
-394.121	-81.725	-0.181	0.059
-393.106	-139.765	0.229	0.024
-392.092	800.000	-0.083	0.349
-391.077	332.356	-0.183	0.354
-390.063	-109.270	-0.270	0.057
-389.048	-30.265	-0.057	-0.032
-388.033	152.070	-0.060	0.082
-387.019	-83.599	0.175	-0.056
-386.004	0.676	0.241	0.173
-384.990	100.763	-0.174	-0.202
-383.975	-1.773	0.051	0.036
-382.960	-97.575	0.039	-0.010
-381.946	-72.647	0.218	-0.080
-380.931	124.089	-0.197	-0.249
-379.917	47.383	-0.117	0.109
-378.902	97.700	0.066	-0.076
-377.888	-85.668	-0.324	-0.101
-376.873	800.000	0.071	-0.261
-375.858	228.832	0.035	-0.057
-374.844	-200.000	0.014	-0.191
-373.829	-200.000	-0.031	0.173
-372.815	-40.493	-0.165	0.086
-371.800	115.919	0.180	-0.221
-370.785	-66.367	0.101	-0.040
-369.771	-148.031	-0.148	-0.012
-368.756	800.000	-0.035	-0.128
-367.742	-29.641	-0.048	-0.027
-366.727	-200.000	0.008	0.298
-365.712	800.000	0.015	-0.043
-364.698	90.653	-0.218	-0.244
-363.683	-200.000	-0.012	-0.208
-362.669	-77.262	0.218	-0.076
-361.654	77.923	-0.082	-0.087
-360.639	800.000	0.080	0.232
-359.625	220.199	-0.205	0.329
-358.610	-175.302	-0.054	0.001
-357.596	-0.850	0.186	-0.132
-356.581	143.349	-0.184	-0.245
-355.566	286.433	0.091	-0.164
-354.552	-200.000	-0.009	-0.040
-353.537	-162.083	-0.133	-0.007
-352.523	-76.632	0.328	0.115
-351.508	130.104	-0.088	0.112
-350.493	17.249	0.160	-0.127
-349.479	-62.886	0.322	-0.133
-348.464	-169.568	-0.281	-0.010
-347.450	-117.513	0.213	-0.038
-346.435	-135.748	0.237	-0.028
-345.420	-200.000	0.019	0.096
-344.406	-150.800	-0.240	0.018
-343.391	-36.059	0.336	-0.182
-342.377	-92.196	0.238	0.067
-341.362	-110.656	-0.261	0.054
-340.348	-82.696	0.406	-0.132
-339.333	-77.479	-0.220	0.077
-338.318	9.615	0.270	0.205
-337.304	-77.315	0.361	0.126
-336.289	173.186	-0.129	-0.186
-335.275	-200.000	0.000	0.037
-334.260	-103.030	-0.260	0.062
-333.245	-98.590	0.241	0.062
-332.231	-23.139	-0.145	0.087
-331.216	-127.596	0.092	0.013
-330.202	-110.923	-0.084	-0.017
-329.187	9.024	-0.192	-0.145
-328.172	-200.000	-0.012	-0.134
-327.158	25.754	0.182	-0.151
-326.143	-200.000	-0.004	0.215
-325.129	564.382	0.024	-0.058
-324.114	85.271	0.105	0.115
-323.099	104.159	0.115	-0.135
-322.085	176.662	0.164	0.239
-321.070	361.700	-0.118	0.237
-320.056	-81.756	-0.313	-0.103
-319.041	184.679	0.052	-0.077
-318.026	-140.781	0.167	0.017
-317.012	34.823	0.179	0.157
-315.997	-200.000	-0.003	-0.159
-314.983	169.042	0.099	0.142
-313.968	-28.341	-0.175	0.101
-312.953	-161.414	-0.020	0.001
-311.939	-89.593	0.352	-0.103
-310.924	182.620	-0.101	0.149
-309.910	-37.097	-0.127	-0.068
-308.895	-200.000	0.017	-0.165
-307.880	79.800	-0.176	-0.189
-306.866	321.884	0.028	0.053
-305.851	-200.000	-0.020	0.311
-304.837	800.000	0.050	-0.154
-303.822	-127.883	-0.246	-0.035
-302.807	800.000	0.097	0.423
-301.793	-34.623	0.161	0.088
-300.778	315.844	-0.178	0.337
-299.764	-162.582	-0.193	0.009
-298.749	114.051	-0.383	-0.466
-297.735	167.839	0.012	-0.017
-296.720	170.054	0.017	0.024
-295.705	663.173	-0.101	-0.260
-294.691	372.893	0.109	0.221
-293.676	-110.173	0.328	0.068
-292.662	-28.608	-0.268	-0.154
-291.647	323.285	-0.097	0.186
-290.632	408.010	0.091	-0.192
-289.618	28.959	-0.227	0.193
-288.603	-77.206	0.151	-0.053
-287.589	155.553	-0.141	0.194
-286.574	54.003	-0.227	0.218
-285.559	124.679	0.046	0.058
-284.545	-195.239	0.101	-0.001
-283.530	-200.000	-0.023	-0.218
-282.516	-147.806	0.361	-0.030
-281.501	-200.000	0.069	-0.460
-280.486	-28.017	0.180	-0.104
-279.472	-200.000	0.025	-0.321
-278.457	-45.472	0.142	-0.070
-277.443	-200.000	-0.046	-0.335
-276.428	124.761	0.030	0.038
-275.413	-15.736	-0.236	-0.150
-274.399	-63.703	-0.109	-0.045
-273.384	-61.852	0.111	-0.046
-272.370	255.909	0.149	0.255
-271.355	-15.690	-0.066	0.042
-270.340	-47.677	0.091	0.044
-269.326	800.000	0.037	-0.124
-268.311	-57.431	-0.140	-0.061
-267.297	800.000	0.061	0.194
-266.282	10.453	-0.053	0.040
-265.267	-146.365	0.318	0.028
-264.253	-51.859	-0.085	0.040
-263.238	800.000	0.085	-0.338
-262.224	240.699	0.151	-0.251
-261.209	-200.000	-0.029	0.156
-260.195	-200.000	0.033	0.232
-259.180	-139.254	-0.057	-0.006
-258.165	-200.000	-0.005	-0.070
-257.151	334.791	-0.021	-0.040
-256.136	360.721	0.036	0.073
-255.122	800.000	0.027	0.116
-254.107	379.872	-0.103	-0.210
-253.092	-41.249	0.072	-0.037
-252.078	89.070	0.143	0.159
-251.063	61.829	0.208	-0.207
-250.049	-200.000	0.001	0.022
-249.034	496.881	-0.150	-0.343
-248.019	19.496	0.253	-0.203
-247.005	77.781	-0.167	-0.177
-245.990	-33.144	0.091	0.050
-244.976	-6.212	0.089	0.061
-243.961	199.376	-0.124	-0.190
-242.946	329.918	-0.078	0.149
-241.932	60.819	-0.194	0.192
-240.917	-174.156	0.322	0.009
-239.903	15.689	-0.178	0.140
-238.888	-15.370	0.053	0.034
-237.873	36.419	-0.071	-0.062
-236.859	-200.000	-0.002	0.034
-235.844	-51.294	0.333	0.155
-234.830	223.679	-0.128	0.205
-233.815	-72.974	-0.349	-0.128
-232.800	-143.928	0.164	-0.015
-231.786	94.279	-0.249	0.281
-230.771	-105.828	-0.158	-0.036
-229.757	85.813	0.148	0.162
-228.742	-200.000	-0.013	-0.105
-227.727	-148.784	0.169	-0.014
-226.713	-11.877	-0.193	0.126
-225.698	-87.426	-0.071	-0.022
-224.684	58.008	0.269	0.262
-223.669	-130.672	-0.166	0.022
-222.655	-94.167	0.326	0.089
-221.640	-16.496	-0.099	0.063
-220.625	123.313	0.127	-0.159
-219.611	25.189	-0.186	-0.154
-218.596	-101.186	-0.225	-0.055
-217.582	-146.788	0.209	-0.018
-216.567	-121.122	-0.149	0.025
-215.552	91.534	0.289	-0.323
-214.538	-115.572	-0.173	-0.032
-213.523	6.931	-0.148	-0.110
-212.509	-200.000	0.042	0.204
-211.494	-84.333	0.304	-0.096
-210.479	-4.831	-0.283	0.195
-209.465	-61.848	-0.285	0.119
-208.450	-128.192	-0.024	-0.003
-207.436	-60.303	-0.288	-0.122
-206.421	-56.195	0.228	0.101
-205.406	800.000	-0.121	0.474
-204.392	-112.018	0.257	-0.052
-203.377	-146.043	0.096	-0.008
-202.363	-200.000	0.019	-0.271
-201.348	800.000	0.066	0.185
-200.333	-89.827	0.038	-0.011
-199.319	-200.000	0.001	0.099
-198.304	800.000	0.083	0.267
-197.290	800.000	0.040	-0.138
-196.275	-45.750	-0.217	0.107
-195.260	-200.000	-0.060	-0.324
-194.246	-122.506	0.052	0.008
-193.231	800.000	-0.087	0.317
-192.217	-158.837	-0.444	-0.025
-191.202	800.000	0.041	0.128
-190.187	-31.988	-0.153	0.085
-189.173	-200.000	0.127	-0.591
-188.158	-200.000	-0.013	-0.250
-187.144	-72.923	-0.225	0.082
-186.129	-200.000	0.107	0.000
-185.114	220.366	0.079	0.126
-184.100	53.544	-0.048	-0.046
-183.085	-200.000	-0.015	-0.145
-182.071	-55.105	0.073	-0.032
-181.056	-200.000	-0.010	0.348
-180.042	346.253	-0.130	0.254
-179.027	-200.000	-0.082	-0.000
-178.012	-127.989	0.287	-0.041
-176.998	-200.000	0.068	-0.356
-175.983	598.467	-0.045	-0.111
-174.969	-22.521	0.290	-0.174
-173.954	173.155	-0.016	-0.023
-172.939	-57.899	-0.359	0.156
-171.925	266.361	0.104	0.180
-170.910	-33.098	-0.142	0.078
-169.896	-108.670	0.260	-0.055
-168.881	-200.000	0.084	-0.469
-167.866	-200.000	-0.031	0.185
-166.852	1.835	-0.224	-0.161
-165.837	-51.005	0.253	-0.118
-164.823	-200.000	-0.001	0.120
-163.808	-42.519	-0.151	0.076
-162.793	-2.770	0.013	0.009
-161.779	-127.949	0.160	0.023
-160.764	698.205	-0.099	-0.259
-159.750	-135.455	0.244	-0.029
-158.735	660.638	0.075	-0.193
-157.720	775.959	-0.027	-0.072
-156.706	-144.717	-0.146	-0.013
-155.691	-124.311	-0.235	0.037
-154.677	-70.851	0.085	-0.032
-153.662	-36.672	0.131	-0.070
-152.647	-100.384	0.086	0.021
-151.633	-135.643	0.388	-0.046
-150.618	-54.332	-0.151	-0.068
-149.604	50.060	0.081	0.076
-148.589	55.470	0.089	-0.086
-147.574	-74.747	0.134	0.048
-146.560	31.599	0.199	0.170
-145.545	-28.839	-0.085	-0.049
-144.531	-85.060	-0.183	0.057
-143.516	287.633	0.149	-0.267
-142.502	-200.000	0.014	-0.115
-141.487	79.435	-0.130	0.139
-140.472	240.302	0.147	-0.243
-139.458	187.149	0.079	0.116
-138.443	35.487	0.164	0.143
-137.429	-188.021	-0.197	0.003
-136.414	-97.978	0.112	-0.029
-135.399	-200.000	0.042	-0.225
-134.385	-94.431	-0.221	0.060
-133.370	-70.457	-0.292	-0.110
-132.356	163.861	-0.046	0.064
-131.341	664.035	0.063	0.160
-130.326	-49.339	-0.431	-0.204
-129.312	214.236	-0.143	-0.225
-128.297	-155.748	-0.257	0.016
-127.283	30.807	0.271	0.230
-126.268	-98.722	0.341	-0.086
-125.253	800.000	-0.070	-0.265
-124.239	-124.388	-0.252	0.039
-123.224	6.801	-0.146	0.108
-122.210	-200.000	-0.027	-0.223
