DTS Sentinel unit serial number:	SN413079Multiplexer serial number:	ORYXHardware model number:	OX4-SRSoftware version number:	ORYX F/W v4.00 Oryx Data Collector v3.7.2.0data status	okinstallation	princeton_trtdifferential loss correction	single-endedforward channel	channel 4reverse channel	N/Adate	2019/09/14time	22:09:35forward acquisition time	60.00reverse acquisition time	0.00gamma	496.2192k internal	0.2306k external	0.2306temperature offset calibration	1.0067default loss term (dB/km)	0.3790temperature slope calibration	1.0000multiplexer offset coefficient	1.0000multiplexer slope coefficient	1.0000fibre end	0.00T internal ref (°C)	32.64T ext. ref 1 (°C)	4.69T ext. ref 2 (°C)	27.63length (m)	temperature (°C)	Stokes	anti-Stokes-747.200	800.000	-0.041	0.172
-746.185	229.031	-0.093	0.154
-745.171	-200.000	0.014	0.122
-744.156	-200.000	-0.006	-0.154
-743.142	-200.000	-0.026	0.119
-742.127	51.553	0.165	0.160
-741.112	-91.198	-0.284	-0.083
-740.098	-19.186	-0.273	0.172
-739.083	188.838	0.100	0.152
-738.069	-38.912	0.199	0.106
-737.054	-200.000	0.036	0.479
-736.039	-65.022	-0.147	0.060
-735.025	-29.492	0.163	0.095
-734.010	57.496	-0.090	-0.089
-732.996	-32.154	0.074	0.042
-731.981	97.535	0.122	-0.143
-730.966	397.341	-0.095	0.202
-729.952	800.000	-0.033	-0.109
-728.937	315.610	0.069	-0.132
-727.923	-51.546	-0.149	0.070
-726.908	-200.000	-0.004	0.057
-725.894	27.683	0.102	0.087
-724.879	-104.734	0.214	-0.050
-723.864	-200.000	0.007	-0.209
-722.850	-60.208	-0.177	-0.077
-721.835	-150.476	-0.169	0.013
-720.821	174.071	0.166	-0.244
-719.806	-30.114	0.143	-0.083
-718.791	-29.396	0.146	-0.085
-717.777	-72.687	0.215	0.080
-716.762	800.000	0.051	-0.173
-715.748	-99.469	-0.110	-0.028
-714.733	-142.157	0.351	0.035
-713.718	504.867	-0.066	0.155
-712.704	-200.000	0.011	-0.215
-711.689	-200.000	0.036	-0.185
-710.675	85.083	0.083	-0.092
-709.660	-200.000	-0.007	-0.272
-708.645	-175.573	-0.290	0.008
-707.631	-111.095	0.434	-0.090
-706.616	-200.000	-0.040	-0.477
-705.602	446.798	0.066	-0.149
-704.587	-152.659	0.313	0.023
-703.572	-16.247	0.048	0.031
-702.558	-200.000	-0.023	0.188
-701.543	800.000	-0.024	0.073
-700.529	66.480	-0.051	0.053
-699.514	-37.611	-0.077	0.042
-698.499	-97.185	-0.165	-0.044
-697.485	515.293	-0.120	-0.285
-696.470	-126.191	0.227	0.035
-695.456	21.387	0.390	-0.322
-694.441	8.253	0.147	-0.113
-693.426	-200.000	0.032	0.209
-692.412	54.861	0.113	0.111
-691.397	-200.000	-0.068	-0.333
-690.383	49.504	-0.189	-0.180
-689.368	165.743	0.144	-0.206
-688.354	-73.536	-0.135	-0.050
-687.339	153.956	0.118	0.164
-686.324	-103.330	0.086	0.021
-685.310	-87.145	-0.055	0.017
-684.295	-152.835	-0.190	-0.014
-683.281	107.357	-0.076	-0.092
-682.266	-25.230	-0.362	-0.217
-681.251	800.000	0.080	-0.276
-680.237	7.467	0.038	-0.029
-679.222	25.237	0.338	0.285
-678.208	-29.077	0.267	0.155
-677.193	-200.000	0.020	0.096
-676.178	209.443	-0.031	-0.050
-675.164	54.929	0.152	0.149
-674.149	503.831	-0.068	-0.160
-673.135	-126.064	0.230	-0.035
-672.120	123.840	-0.077	-0.098
-671.105	-90.108	-0.264	0.078
-670.091	44.755	0.118	-0.110
-669.076	90.842	0.161	-0.183
-668.062	-12.965	-0.227	0.150
-667.047	-58.171	-0.232	0.103
-666.032	-110.681	0.314	0.066
-665.018	11.167	0.261	0.203
-664.003	-200.000	-0.024	0.254
-662.989	112.484	-0.073	-0.090
-661.974	-122.588	0.229	-0.038
-660.959	-4.899	0.145	0.101
-659.945	-200.000	0.006	0.452
-658.930	566.735	-0.117	0.287
-657.916	314.778	-0.080	-0.153
-656.901	-79.190	0.374	0.129
-655.886	39.302	-0.312	0.283
-654.872	800.000	-0.065	-0.269
-653.857	-200.000	-0.005	0.057
-652.843	-200.000	-0.071	-0.463
-651.828	648.186	-0.103	0.268
-650.814	715.331	0.080	0.214
-649.799	465.400	-0.109	-0.248
-648.784	-62.430	0.113	0.048
-647.770	459.845	0.136	-0.307
-646.755	-121.033	-0.184	-0.031
-645.741	-200.000	-0.032	-0.269
-644.726	-26.506	-0.335	-0.199
-643.711	49.536	0.264	-0.252
-642.697	-200.000	-0.018	-0.293
-641.682	303.501	0.155	-0.292
-640.668	-176.510	0.083	0.002
-639.653	-37.991	-0.283	-0.152
-638.638	-147.412	-0.529	-0.045
-637.624	54.575	-0.271	0.264
-636.609	-191.820	-0.204	0.002
-635.595	800.000	-0.134	-0.450
-634.580	-46.838	-0.156	-0.077
-633.565	407.890	-0.169	0.361
-632.551	89.104	0.131	0.148
-631.536	-109.713	-0.104	-0.022
-630.522	57.342	-0.092	-0.091
-629.507	-200.000	0.012	0.201
-628.492	-5.468	0.248	0.173
-627.478	69.142	0.216	-0.225
-626.463	95.001	-0.045	-0.051
-625.449	70.845	0.055	-0.057
-624.434	-105.313	0.118	-0.027
-623.419	-146.807	-0.131	-0.011
-622.405	287.211	0.222	-0.406
-621.390	549.935	-0.042	0.102
-620.376	800.000	0.059	0.240
-619.361	-72.982	-0.275	0.102
-618.346	-200.000	0.036	0.309
-617.332	-200.000	0.002	0.248
-616.317	-99.271	-0.409	0.105
-615.303	131.173	0.199	0.259
-614.288	800.000	-0.099	0.372
-613.273	-62.507	-0.202	0.085
-612.259	-200.000	-0.004	0.249
-611.244	6.708	0.176	0.132
-610.230	415.057	0.048	0.103
-609.215	165.920	-0.301	-0.431
-608.201	800.000	0.075	0.266
-607.186	-200.000	-0.044	-0.000
-606.171	313.206	0.102	0.194
-605.157	28.691	0.148	-0.127
-604.142	800.000	0.026	0.084
-603.128	-81.545	-0.029	-0.010
-602.113	56.896	0.349	0.344
-601.098	37.396	-0.123	-0.110
-600.084	-1.693	0.221	0.157
-599.069	75.141	0.113	0.121
-598.055	-16.790	-0.173	0.111
-597.040	-123.930	0.336	-0.054
-596.025	44.035	0.079	0.073
-595.011	-8.658	0.077	-0.052
-593.996	-200.000	-0.012	-0.077
-592.982	-137.216	0.373	0.043
-591.967	-200.000	-0.050	0.247
-590.952	-158.863	0.329	0.019
-589.938	-200.000	-0.012	0.095
-588.923	30.309	-0.067	-0.058
-587.909	-200.000	-0.005	0.179
-586.894	-63.879	-0.257	0.106
-585.879	-200.000	-0.004	0.039
-584.865	-54.699	0.251	-0.115
-583.850	-26.374	0.049	0.029
-582.836	43.126	0.287	0.265
-581.821	132.509	0.140	-0.182
-580.806	-59.468	-0.400	-0.174
-579.792	30.343	0.136	0.117
-578.777	50.486	-0.107	0.102
-577.763	-57.841	-0.105	0.046
-576.748	183.633	0.141	0.210
-575.733	160.709	0.207	0.292
-574.719	-200.000	-0.038	-0.215
-573.704	-5.537	0.161	-0.112
-572.690	-163.440	0.037	0.002
-571.675	-112.720	-0.259	-0.052
-570.661	37.894	0.332	0.298
-569.646	77.428	-0.331	0.356
-568.631	212.175	-0.243	0.388
-567.617	317.181	-0.133	0.254
-566.602	-55.660	0.144	-0.065
-565.588	-97.973	0.224	-0.058
-564.573	111.412	0.212	0.258
-563.558	800.000	-0.102	-0.357
-562.544	16.599	-0.142	0.113
-561.529	58.703	0.119	-0.118
-560.515	19.982	0.155	0.126
-559.500	800.000	0.021	-0.070
-558.485	800.000	-0.016	0.052
-557.471	-200.000	-0.019	-0.212
-556.456	17.489	-0.152	0.122
-555.442	-33.174	0.260	0.145
-554.427	-118.196	0.097	0.017
-553.412	-83.801	0.404	-0.130
-552.398	99.338	0.068	-0.079
-551.383	-200.000	0.065	-0.509
-550.369	-77.342	0.082	-0.029
-549.354	15.321	0.291	-0.230
-548.339	-138.340	0.225	-0.025
-547.325	800.000	0.054	0.175
-546.310	116.162	-0.175	-0.217
-545.296	247.292	-0.051	-0.087
-544.281	-117.562	0.273	-0.050
-543.266	-149.628	-0.118	-0.009
-542.252	-61.146	-0.083	0.035
-541.237	-55.934	0.161	-0.073
-540.223	84.183	0.220	-0.243
-539.208	800.000	0.034	0.108
-538.193	-172.506	-0.195	-0.006
-537.179	402.249	0.169	-0.359
-536.164	286.722	0.154	0.280
-535.150	-156.465	0.357	0.022
-534.135	489.394	-0.174	0.401
-533.121	122.078	-0.154	-0.194
-532.106	186.671	0.066	0.099
-531.091	-34.832	-0.130	-0.071
-530.077	22.730	0.244	0.202
-529.062	508.525	0.049	-0.114
-528.048	-200.000	0.055	0.407
-527.033	-138.773	-0.332	0.037
-526.018	532.399	0.091	0.216
-525.004	675.066	-0.033	-0.085
-523.989	88.993	-0.189	-0.212
-522.975	800.000	-0.029	-0.125
-521.960	41.316	-0.119	-0.109
-520.945	800.000	-0.034	-0.136
-519.931	370.289	-0.172	0.352
-518.916	800.000	0.068	-0.210
-517.902	-200.000	0.011	-0.062
-516.887	-77.711	-0.415	0.145
-515.872	-147.428	0.382	0.033
-514.858	-200.000	0.024	-0.155
-513.843	800.000	0.102	-0.373
-512.829	-200.000	0.000	-0.084
-511.814	77.510	-0.240	0.258
-510.799	111.558	0.025	-0.031
-509.785	-86.008	0.147	-0.046
-508.770	78.552	-0.120	0.129
-507.756	-91.031	0.319	0.092
-506.741	146.540	0.095	-0.129
-505.726	-52.985	-0.097	-0.045
-504.712	-137.985	0.164	0.018
-503.697	526.935	-0.086	-0.203
-502.683	222.845	-0.074	0.120
-501.668	632.588	0.035	0.089
-500.653	490.488	0.159	0.368
-499.639	-113.595	-0.032	0.006
-498.624	-200.000	0.004	-0.080
-497.610	800.000	0.028	-0.115
-496.595	205.275	0.128	-0.200
-495.581	-53.088	-0.262	0.121
-494.566	-12.776	0.150	0.099
-493.551	800.000	-0.118	0.411
-492.537	730.860	0.057	-0.153
-491.522	99.840	0.172	0.201
-490.508	52.533	-0.146	0.140
-489.493	-200.000	-0.001	0.233
-488.478	-200.000	-0.060	-0.282
-487.464	-99.185	-0.013	-0.003
-486.449	354.527	0.099	-0.198
-485.435	-100.383	0.166	0.041
-484.420	-200.000	0.014	-0.218
-483.405	800.000	-0.138	0.464
-482.391	800.000	-0.035	-0.105
-481.376	-200.000	0.019	0.274
-480.362	-99.997	-0.327	0.082
-479.347	107.728	0.092	-0.110
-478.332	-74.855	0.073	-0.026
-477.318	15.839	-0.153	-0.121
-476.303	800.000	-0.108	0.311
-475.289	-158.541	0.074	-0.004
-474.274	-37.067	0.045	-0.025
-473.259	352.629	0.044	-0.088
-472.245	-200.000	-0.016	0.284
-471.230	162.586	-0.099	-0.139
-470.216	-156.266	0.341	-0.022
-469.201	-200.000	-0.007	-0.066
-468.186	800.000	0.078	0.303
-467.172	-98.228	-0.429	0.111
-466.157	-40.514	0.248	-0.130
-465.143	246.853	-0.085	0.145
-464.128	-136.127	0.136	-0.016
-463.113	-130.660	0.228	-0.031
-462.099	-200.000	0.019	0.108
-461.084	216.285	0.144	0.230
-460.070	800.000	0.018	-0.068
-459.055	-1.008	-0.207	0.147
-458.040	-37.783	-0.345	-0.185
-457.026	403.978	-0.017	-0.036
-456.011	121.925	-0.178	-0.224
-454.997	169.172	-0.096	0.137
-453.982	800.000	0.127	0.373
-452.968	-93.985	-0.182	0.050
-451.953	-112.950	-0.356	0.071
-450.938	-101.905	0.427	0.104
-449.924	387.876	0.201	0.418
-448.909	800.000	0.168	-0.467
-447.895	-146.597	-0.274	-0.024
-446.880	254.330	0.103	-0.177
-445.865	318.622	-0.032	-0.060
-444.851	0.696	0.146	-0.105
-443.836	182.871	0.076	0.113
-442.822	189.704	0.039	0.059
-441.807	39.133	0.084	-0.076
-440.792	-147.110	-0.036	-0.003
-439.778	-88.195	0.173	0.052
-438.763	-113.030	0.203	-0.040
-437.749	-26.999	0.141	0.083
-436.734	354.624	-0.031	-0.062
-435.719	-200.000	-0.024	0.248
-434.705	-13.953	0.310	0.201
-433.690	-65.215	-0.215	0.087
-432.676	67.480	-0.076	-0.078
-431.661	-152.020	0.217	-0.016
-430.646	196.117	0.127	0.194
-429.632	-82.911	-0.084	-0.027
-428.617	800.000	0.025	-0.087
-427.603	44.652	0.065	-0.060
-426.588	702.287	0.070	0.185
-425.573	44.887	0.054	-0.050
-424.559	-200.000	-0.014	-0.176
-423.544	-156.413	0.093	-0.006
-422.530	47.753	-0.135	-0.126
-421.515	800.000	-0.070	-0.306
-420.500	-135.357	-0.140	-0.017
-419.486	17.289	0.107	0.086
-418.471	-200.000	0.082	-0.377
-417.457	-72.538	-0.197	-0.073
-416.442	130.990	-0.121	-0.156
-415.428	-125.751	0.293	-0.045
-414.413	-176.779	0.407	-0.010
-413.398	280.659	0.109	0.195
-412.384	20.852	-0.249	0.202
-411.369	67.801	-0.162	-0.167
-410.355	136.568	-0.135	-0.177
-409.340	-200.000	0.025	0.226
-408.325	-200.000	-0.025	-0.220
-407.311	-72.302	-0.296	-0.110
-406.296	-15.988	-0.211	-0.135
-405.282	232.693	-0.092	0.152
-404.267	-13.789	0.186	0.121
-403.252	513.365	-0.126	-0.294
-402.238	440.383	-0.094	0.207
-401.223	216.612	-0.160	-0.255
-400.209	109.534	0.074	0.089
-399.194	-106.225	-0.138	-0.031
-398.179	-10.987	-0.081	0.054
-397.165	-200.000	0.054	-0.314
-396.150	294.147	0.090	-0.165
-395.136	-56.896	-0.045	-0.020
-394.121	-20.250	-0.251	-0.155
-393.106	-24.571	-0.199	0.119
-392.092	-40.288	-0.230	0.120
-391.077	-189.237	0.079	-0.001
-390.063	-27.455	-0.354	0.206
-389.048	-70.788	0.129	-0.049
-388.033	354.258	0.119	0.236
-387.019	-90.411	-0.097	-0.028
-386.004	-70.314	0.435	-0.165
-384.990	248.769	-0.022	-0.038
-383.975	63.209	-0.232	0.233
-382.960	-200.000	0.012	-0.312
-381.946	-122.340	-0.225	0.037
-380.931	5.097	-0.378	-0.279
-379.917	800.000	0.125	0.435
-378.902	800.000	-0.029	-0.084
-377.888	-90.039	-0.174	0.051
-376.873	800.000	-0.045	0.196
-375.858	305.601	-0.045	-0.084
-374.844	-12.664	0.086	-0.056
-373.829	-31.659	-0.193	-0.109
-372.815	-200.000	0.013	0.166
-371.800	56.335	0.146	0.142
-370.785	-97.757	-0.135	0.035
-369.771	-200.000	-0.015	-0.071
-368.756	14.341	0.220	-0.172
-367.742	-200.000	-0.039	-0.184
-366.727	0.076	0.162	0.116
-365.712	-200.000	-0.028	-0.142
-364.698	-139.302	-0.159	0.017
-363.683	227.204	-0.095	0.154
-362.669	-136.796	0.114	0.013
-361.654	-200.000	-0.007	0.031
-360.639	800.000	0.099	0.299
-359.625	171.914	-0.234	0.336
-358.610	-3.054	-0.275	-0.192
-357.596	800.000	0.084	-0.290
-356.581	-200.000	0.041	-0.181
-355.566	-200.000	0.021	0.110
-354.552	702.497	0.133	-0.350
-353.537	779.423	0.095	-0.261
-352.523	-39.156	-0.104	-0.055
-351.508	-200.000	-0.027	-0.166
-350.493	-45.616	-0.341	-0.169
-349.479	43.274	0.157	0.144
-348.464	-71.436	-0.165	0.062
-347.450	200.872	0.098	-0.151
-346.435	-142.306	0.134	0.013
-345.420	800.000	-0.016	-0.067
-344.406	-34.407	0.047	-0.026
-343.391	-200.000	-0.052	-0.268
-342.377	17.518	0.158	0.126
-341.362	-78.187	0.323	-0.111
-340.348	157.286	0.053	-0.073
-339.333	-89.263	0.097	0.029
-338.318	800.000	0.018	-0.052
-337.304	365.992	-0.157	0.317
-336.289	800.000	-0.063	-0.197
-335.275	-134.026	-0.319	-0.040
-334.260	567.567	0.095	0.232
-333.245	403.999	-0.074	-0.155
-332.231	-114.013	0.392	-0.076
-331.216	-163.599	-0.228	0.011
-330.202	-200.000	0.006	0.040
-329.187	-200.000	-0.005	0.199
-328.172	-200.000	-0.011	-0.102
-327.158	-200.000	0.072	-0.379
-326.143	284.203	0.142	-0.255
-325.129	800.000	-0.065	0.206
-324.114	543.754	0.050	0.121
-323.099	-151.045	-0.110	0.008
-322.085	800.000	-0.052	0.149
-321.070	132.935	0.110	0.142
-320.056	-132.830	-0.043	-0.006
-319.041	-70.120	-0.317	-0.121
-318.026	800.000	-0.050	-0.188
-317.012	-97.801	-0.267	-0.069
-315.997	800.000	-0.064	-0.258
-314.983	130.395	0.085	0.109
-313.968	-9.953	-0.192	-0.128
-312.953	42.278	0.272	-0.247
-311.939	431.209	-0.018	0.039
-310.924	-138.968	-0.101	-0.011
-309.910	-106.734	-0.190	0.042
-308.895	-82.026	0.147	-0.048
-307.880	-200.000	-0.016	-0.284
-306.866	552.721	0.055	0.132
-305.851	-160.036	-0.516	0.028
-304.837	-118.076	0.311	-0.056
-303.822	-33.776	0.215	0.119
-302.807	-200.000	0.046	-0.502
-301.793	17.125	0.160	0.127
-300.778	99.741	0.113	0.131
-299.764	225.028	0.065	0.105
-298.749	749.003	0.118	0.317
-297.735	51.107	-0.231	-0.219
-296.720	63.858	-0.164	0.165
-295.705	85.616	-0.243	-0.266
-294.691	-200.000	-0.014	0.147
-293.676	71.355	0.096	0.099
-292.662	-57.841	0.135	0.059
-291.647	-30.497	0.296	0.168
-290.632	199.543	0.074	-0.113
-289.618	61.797	0.187	0.186
-288.603	-14.630	-0.048	0.031
-287.589	228.912	-0.206	0.335
-286.574	80.796	0.147	0.158
-285.559	597.254	0.042	0.105
-284.545	-200.000	-0.031	-0.243
-283.530	411.438	0.086	-0.182
-282.516	10.207	-0.145	-0.110
-281.501	447.251	-0.142	-0.312
-280.486	99.394	0.284	0.328
-279.472	-200.000	-0.041	0.623
-278.457	343.150	0.124	0.243
-277.443	-37.666	-0.324	0.172
-276.428	-200.000	-0.003	0.075
-275.413	-200.000	-0.019	0.242
-274.399	-99.948	-0.190	0.047
-273.384	-200.000	-0.040	-0.403
-272.370	800.000	-0.029	0.117
-271.355	45.150	-0.292	-0.269
-270.340	-144.933	0.163	-0.015
-269.326	-40.336	0.274	-0.142
-268.311	-56.155	0.069	0.031
-267.297	-176.529	0.038	0.001
-266.282	-183.563	0.223	0.004
-265.267	800.000	0.066	-0.202
-264.253	-95.657	-0.250	0.067
-263.238	-156.865	-0.350	0.021
-262.224	200.546	0.013	0.020
-261.209	-200.000	0.051	0.414
-260.195	-13.975	-0.173	-0.112
-259.180	800.000	-0.042	0.180
-258.165	59.525	-0.192	-0.189
-257.151	409.250	0.010	0.020
-256.136	360.454	0.025	-0.050
-255.122	30.583	-0.275	-0.235
-254.107	-24.567	-0.118	-0.070
-253.092	-6.676	0.184	0.125
-252.078	197.752	0.208	0.317
-251.063	515.337	0.042	-0.097
-250.049	-56.891	-0.221	-0.097
-249.034	-97.076	-0.168	-0.044
-248.019	-200.000	0.008	-0.108
-247.005	190.684	0.146	0.218
-245.990	-200.000	-0.029	-0.135
-244.976	-13.722	0.111	-0.071
-243.961	87.004	-0.060	0.066
-242.946	-157.024	-0.213	0.013
-241.932	-129.783	0.079	0.011
-240.917	-47.725	-0.180	-0.087
-239.903	-13.452	-0.262	-0.169
-238.888	5.595	0.077	0.056
-237.873	-200.000	-0.003	-0.178
-236.859	305.887	-0.144	-0.267
-235.844	69.318	-0.042	-0.043
-234.830	473.138	-0.081	0.182
-233.815	-158.805	-0.296	0.017
-232.800	-200.000	-0.021	-0.266
-231.786	800.000	-0.058	0.199
-230.771	-44.925	-0.238	-0.118
-229.757	47.047	0.066	-0.061
-228.742	-200.000	0.005	-0.142
-227.727	-89.785	-0.268	-0.078
-226.713	-113.686	0.445	-0.086
-225.698	678.647	0.196	-0.508
-224.684	170.724	0.162	-0.231
-223.669	-95.629	0.113	-0.030
-222.655	42.477	0.341	0.309
-221.640	413.490	-0.101	-0.214
-220.625	-97.218	0.380	0.099
-219.611	44.247	0.123	-0.113
-218.596	451.455	0.119	0.261
-217.582	-100.793	-0.177	0.043
-216.567	-200.000	-0.006	-0.044
-215.552	-94.056	0.301	-0.082
-214.538	14.368	0.237	0.184
-213.523	39.329	-0.166	0.148
-212.509	2.659	0.090	-0.065
-211.494	-8.939	0.068	-0.045
-210.479	123.118	-0.108	-0.135
-209.465	-72.305	0.315	-0.116
-208.450	-15.044	0.147	0.094
-207.436	263.110	-0.099	0.171
-206.421	356.406	0.101	0.200
-205.406	195.462	0.166	-0.252
-204.392	-82.291	-0.363	-0.118
-203.377	238.064	0.149	-0.246
-202.363	444.467	-0.062	0.135
-201.348	-200.000	0.004	-0.042
-200.333	-200.000	0.051	0.343
-199.319	132.394	0.010	-0.013
-198.304	13.362	-0.226	-0.175
-197.290	533.499	0.048	0.113
-196.275	-81.704	-0.113	0.037
-195.260	0.729	-0.048	0.035
-194.246	10.887	0.134	-0.102
-193.231	361.117	-0.101	-0.202
-192.217	-200.000	0.025	0.278
-191.202	800.000	0.103	0.297
-190.187	-34.988	0.187	0.102
-189.173	-200.000	-0.020	0.170
-188.158	39.042	0.065	0.057
-187.144	-44.735	-0.238	-0.118
-186.129	-29.599	0.213	-0.121
-185.114	4.270	-0.254	-0.185
-184.100	-136.598	0.021	-0.002
-183.085	444.588	-0.028	0.062
-182.071	154.358	0.032	0.044
-181.056	349.290	-0.077	-0.152
-180.042	-200.000	-0.007	0.221
-179.027	-3.787	-0.116	0.080
-178.012	800.000	0.014	0.045
-176.998	-94.856	0.354	-0.095
-175.983	-115.846	-0.162	0.030
-174.969	-7.987	-0.211	0.141
-173.954	-113.852	0.091	-0.018
-172.939	800.000	0.061	0.234
-171.925	20.146	0.021	-0.016
-170.910	123.313	-0.116	-0.145
-169.896	-87.158	0.329	0.099
-168.881	179.881	-0.010	0.014
-167.866	619.152	0.068	0.171
-166.852	27.625	0.264	-0.221
-165.837	-200.000	0.021	-0.103
-164.823	-200.000	-0.032	-0.203
-163.808	38.127	0.329	-0.291
-162.793	60.503	-0.248	-0.244
-161.779	-53.689	-0.368	0.167
-160.764	383.007	-0.160	-0.326
-159.750	-200.000	0.011	-0.168
-158.735	-18.483	-0.056	-0.035
-157.720	48.684	-0.093	0.087
-156.706	169.442	0.114	-0.161
-155.691	800.000	-0.037	0.122
-154.677	-200.000	-0.015	0.120
-153.662	615.922	-0.131	0.326
-152.647	-11.632	-0.061	0.040
-151.633	363.813	-0.202	-0.403
-150.618	-200.000	0.007	-0.116
-149.604	-166.240	0.239	0.010
-148.589	-115.873	-0.143	-0.027
-147.574	58.433	-0.199	0.194
-146.560	-89.626	0.287	-0.084
-145.545	-94.712	0.130	-0.035
-144.531	-78.095	0.082	0.028
-143.516	62.253	-0.035	-0.035
-142.502	-104.194	-0.449	0.104
-141.487	765.140	-0.022	0.059
-140.472	-155.623	-0.035	-0.002
-139.458	800.000	0.034	0.140
-138.443	19.470	0.111	0.088
-137.429	-37.596	-0.363	-0.192
-136.414	-115.616	-0.040	0.008
-135.399	-200.000	0.060	0.306
-134.385	104.848	-0.114	-0.133
-133.370	136.327	-0.046	0.059
-132.356	-200.000	0.019	0.497
-131.341	-148.294	0.123	0.010
-130.326	-111.627	0.023	0.005
-129.312	476.466	0.158	0.354
-128.297	-200.000	-0.016	0.105
-127.283	656.508	0.022	-0.056
-126.268	424.162	0.125	-0.268
-125.253	800.000	0.046	0.188
-124.239	156.765	0.152	0.208
-123.224	-134.314	0.356	-0.043
-122.210	-11.958	0.170	0.111
-121.195	652.502	0.073	-0.186
