DTS Sentinel unit serial number:	SN413079Multiplexer serial number:	ORYXHardware model number:	OX4-SRSoftware version number:	ORYX F/W v4.00 Oryx Data Collector v3.7.2.0data status	okinstallation	princeton_trtdifferential loss correction	single-endedforward channel	channel 4reverse channel	N/Adate	2019/09/15time	00:17:34forward acquisition time	60.00reverse acquisition time	0.00gamma	496.2192k internal	0.2307k external	0.2307temperature offset calibration	1.0045default loss term (dB/km)	0.3790temperature slope calibration	1.0000multiplexer offset coefficient	1.0000multiplexer slope coefficient	1.0000fibre end	0.00T internal ref (°C)	32.17T ext. ref 1 (°C)	4.59T ext. ref 2 (°C)	27.18length (m)	temperature (°C)	Stokes	anti-Stokes-747.200	-200.000	-0.086	-0.533
-746.185	148.699	0.106	0.146
-745.171	-200.000	-0.032	-0.188
-744.156	742.031	-0.061	0.168
-743.142	800.000	-0.022	-0.078
-742.127	-200.000	0.002	0.110
-741.112	190.170	-0.251	-0.384
-740.098	24.292	-0.405	0.340
-739.083	-200.000	-0.004	-0.088
-738.069	90.277	-0.273	0.311
-737.054	800.000	-0.053	-0.198
-736.039	-200.000	-0.678	-0.003
-735.025	-200.000	0.007	0.050
-734.010	-200.000	0.063	0.489
-732.996	-189.655	-0.244	-0.003
-731.981	-8.744	0.083	-0.056
-730.966	-86.542	0.120	0.037
-729.952	502.806	0.065	0.152
-728.937	569.329	-0.038	0.094
-727.923	800.000	-0.075	-0.323
-726.908	-200.000	-0.060	-0.316
-725.894	-77.768	-0.208	-0.073
-724.879	16.473	-0.383	-0.307
-723.864	-34.191	-0.295	-0.165
-722.850	800.000	-0.120	0.396
-721.835	79.388	-0.065	0.071
-720.821	19.190	0.200	0.163
-719.806	51.297	0.085	-0.082
-718.791	58.159	-0.142	-0.142
-717.777	-37.163	-0.101	0.055
-716.762	50.603	-0.102	0.098
-715.748	11.690	0.172	0.134
-714.733	193.223	-0.066	0.102
-713.718	-88.164	-0.362	0.110
-712.704	-40.601	-0.482	0.254
-711.689	800.000	0.067	-0.191
-710.675	-200.000	-0.013	0.086
-709.660	-200.000	-0.046	-0.298
-708.645	-30.576	0.061	-0.035
-707.631	26.534	0.071	0.060
-706.616	389.228	0.069	-0.145
-705.602	89.338	-0.253	0.286
-704.587	657.139	0.044	-0.114
-703.572	-62.058	-0.426	-0.181
-702.558	-157.267	-0.315	0.019
-701.543	-127.372	-0.267	-0.039
-700.529	-151.431	-0.231	0.017
-699.514	203.674	-0.051	0.081
-698.499	-19.911	-0.218	0.137
-697.485	-118.079	0.400	-0.072
-696.470	-160.383	0.104	-0.006
-695.456	83.464	-0.268	-0.296
-694.441	-200.000	0.015	-0.189
-693.426	94.949	0.098	-0.113
-692.412	-129.161	-0.301	0.043
-691.397	-200.000	-0.026	-0.372
-690.383	-30.330	-0.120	-0.069
-689.368	-115.359	-0.289	-0.055
-688.354	800.000	-0.062	0.215
-687.339	-87.838	-0.369	-0.113
-686.324	-90.584	0.285	-0.084
-685.310	218.150	0.212	-0.343
-684.295	652.234	0.060	0.156
-683.281	-200.000	0.050	0.309
-682.266	800.000	0.056	-0.204
-681.251	644.883	-0.141	-0.366
-680.237	-63.706	-0.083	-0.034
-679.222	800.000	-0.069	-0.273
-678.208	299.666	-0.056	-0.105
-677.193	800.000	-0.053	-0.210
-676.178	133.597	0.032	-0.042
-675.164	70.842	-0.310	0.325
-674.149	800.000	0.081	0.318
-673.135	258.394	-0.157	-0.275
-672.120	93.133	0.063	-0.073
-671.105	-51.905	-0.359	-0.170
-670.091	164.546	0.064	0.091
-669.076	-200.000	0.050	0.233
-668.062	-60.479	-0.154	0.067
-667.047	115.811	-0.146	0.181
-666.032	-194.537	-0.299	-0.002
-665.018	-40.541	0.209	0.110
-664.003	146.760	-0.201	0.274
-662.989	205.551	-0.066	0.104
-661.974	695.139	-0.119	-0.317
-660.959	-106.811	-0.166	0.037
-659.945	800.000	-0.048	-0.208
-658.930	-82.477	-0.363	-0.119
-657.916	-113.034	-0.203	-0.041
-656.901	-200.000	-0.013	0.250
-655.886	-151.915	-0.202	0.015
-654.872	-54.721	-0.119	0.055
-653.857	45.353	-0.230	0.215
-652.843	93.579	-0.152	-0.174
-651.828	571.108	0.122	-0.301
-650.814	70.929	-0.111	0.116
-649.799	143.906	0.145	0.196
-648.784	-200.000	0.005	0.217
-647.770	-200.000	-0.033	0.322
-646.755	168.625	0.090	-0.131
-645.741	-200.000	-0.047	-0.333
-644.726	213.553	0.154	-0.247
-643.711	382.293	-0.106	0.221
-642.697	800.000	0.065	-0.203
-641.682	-162.093	-0.186	0.009
-640.668	-91.172	0.065	0.019
-639.653	115.204	-0.121	-0.150
-638.638	388.321	-0.082	-0.172
-637.624	27.990	-0.045	0.039
-636.609	-28.333	-0.325	-0.190
-635.595	-136.407	-0.181	-0.021
-634.580	-125.702	-0.202	0.031
-633.565	-200.000	0.034	0.163
-632.551	-200.000	0.027	0.246
-631.536	-12.341	0.298	0.198
-630.522	173.417	0.065	-0.094
-629.507	211.026	-0.159	0.253
-628.492	55.338	0.153	-0.150
-627.478	-95.577	0.332	-0.090
-626.463	155.720	-0.055	0.077
-625.449	250.270	0.234	-0.401
-624.434	-200.000	-0.017	-0.185
-623.419	60.227	-0.101	-0.101
-622.405	97.711	-0.080	0.093
-621.390	-53.062	-0.184	-0.085
-620.376	-64.979	0.004	-0.002
-619.361	301.655	-0.019	-0.036
-618.346	-49.640	-0.268	0.129
-617.332	800.000	0.085	-0.305
-616.317	102.606	0.103	-0.122
-615.303	499.953	0.099	-0.231
-614.288	800.000	0.124	-0.455
-613.273	50.497	0.129	-0.123
-612.259	146.869	0.144	0.196
-611.244	-200.000	-0.021	0.238
-610.230	766.569	-0.194	-0.535
-609.215	362.884	0.145	-0.295
-608.201	143.810	-0.134	-0.181
-607.186	-7.145	-0.406	0.279
-606.171	-132.426	0.157	0.020
-605.157	2.503	0.286	0.209
-604.142	-185.667	-0.293	0.004
-603.128	334.831	-0.128	0.252
-602.113	178.009	0.190	0.281
-601.098	385.561	0.112	-0.233
-600.084	-200.000	-0.034	0.165
-599.069	132.163	0.107	-0.140
-598.055	758.571	0.109	-0.298
-597.040	688.492	-0.273	-0.722
-596.025	-10.840	0.402	-0.268
-595.011	-200.000	0.011	-0.215
-593.996	-101.248	0.248	0.061
-592.982	-106.651	-0.138	0.031
-591.967	-200.000	-0.065	-0.443
-590.952	-40.978	0.160	0.084
-589.938	-200.000	0.022	-0.169
-588.923	202.123	-0.147	-0.228
-587.909	211.655	-0.136	0.216
-586.894	-200.000	-0.016	0.324
-585.879	54.344	0.196	-0.190
-584.865	178.621	-0.022	0.032
-583.850	-64.259	-0.128	0.053
-582.836	59.344	0.232	0.231
-581.821	-36.473	0.166	0.091
-580.806	800.000	0.038	-0.133
-579.792	-126.820	-0.259	-0.039
-578.777	-196.541	0.082	0.001
-577.763	273.555	-0.062	0.111
-576.748	326.561	0.181	-0.351
-575.733	-127.623	0.175	0.026
-574.719	557.938	-0.039	-0.096
-573.704	-15.793	-0.054	-0.035
-572.690	-200.000	-0.039	-0.220
-571.675	-37.247	0.070	0.038
-570.661	-143.603	0.147	-0.014
-569.646	583.014	0.031	-0.077
-568.631	-51.349	-0.127	-0.060
-567.617	344.751	0.096	-0.190
-566.602	742.753	-0.017	0.046
-565.588	-200.000	-0.019	-0.200
-564.573	-147.785	-0.309	-0.026
-563.558	-200.000	0.051	0.449
-562.544	-166.195	0.223	-0.010
-561.529	151.884	-0.078	-0.107
-560.515	-101.215	-0.195	-0.048
-559.500	160.637	-0.126	-0.178
-558.485	-200.000	-0.024	0.302
-557.471	-132.344	0.287	0.037
-556.456	-200.000	0.002	-0.146
-555.442	-38.792	-0.154	0.082
-554.427	-98.453	-0.180	-0.047
-553.412	34.326	-0.045	-0.039
-552.398	25.874	-0.119	0.100
-551.383	-41.967	0.038	-0.020
-550.369	-51.996	0.134	-0.063
-549.354	-200.000	0.050	-0.231
-548.339	-112.076	0.130	-0.026
-547.325	24.210	0.007	0.006
-546.310	800.000	-0.085	-0.284
-545.296	43.142	0.193	0.178
-544.281	-137.422	0.264	0.030
-543.266	-170.122	-0.178	0.006
-542.252	-200.000	0.011	-0.243
-541.237	5.687	0.062	0.047
-540.223	800.000	-0.116	-0.389
-539.208	159.880	-0.092	0.130
-538.193	674.261	-0.073	0.191
-537.179	-113.477	-0.364	-0.072
-536.164	659.823	0.040	-0.105
-535.150	129.381	0.220	-0.283
-534.135	41.393	0.153	-0.140
-533.121	99.808	-0.263	-0.308
-532.106	35.340	0.090	0.079
-531.091	-35.096	0.353	-0.194
-530.077	-200.000	0.005	0.070
-529.062	-89.514	0.188	-0.056
-528.048	13.420	0.220	0.172
-527.033	239.154	-0.148	-0.248
-526.018	193.804	0.177	-0.270
-525.004	62.895	-0.310	0.313
-523.989	-160.692	-0.223	0.012
-522.975	278.927	-0.084	0.150
-521.960	62.842	0.028	-0.028
-520.945	-200.000	-0.003	0.320
-519.931	68.690	0.080	-0.083
-518.916	57.296	-0.174	0.172
-517.902	-103.723	0.347	-0.082
-516.887	-200.000	0.034	-0.294
-515.872	-83.603	-0.081	0.026
-514.858	-71.752	-0.170	0.064
-513.843	800.000	-0.081	0.252
-512.829	206.996	-0.105	0.164
-511.814	-200.000	0.039	0.193
-510.799	63.578	0.112	-0.113
-509.785	610.756	0.160	-0.403
-508.770	-200.000	-0.043	0.254
-507.756	-200.000	0.061	-0.326
-506.741	378.267	-0.136	-0.280
-505.726	690.617	-0.051	0.135
-504.712	46.012	-0.248	0.231
-503.697	-200.000	0.012	0.295
-502.683	22.623	-0.148	0.122
-501.668	800.000	-0.009	-0.031
-500.653	-200.000	-0.031	-0.272
-499.639	-34.121	-0.073	0.041
-498.624	38.503	-0.087	0.078
-497.610	-60.363	0.102	-0.044
-496.595	800.000	-0.050	-0.170
-495.581	23.149	0.151	0.124
-494.566	-107.651	0.132	-0.029
-493.551	-132.657	-0.258	-0.033
-492.537	179.551	-0.043	-0.064
-491.522	-200.000	0.019	0.167
-490.508	-200.000	0.013	-0.148
-489.493	366.069	0.074	-0.151
-488.478	-74.623	0.120	-0.044
-487.464	16.008	-0.473	-0.375
-486.449	180.435	0.149	-0.221
-485.435	-200.000	-0.009	-0.118
-484.420	-76.520	-0.060	-0.021
-483.405	36.794	-0.131	-0.116
-482.391	-200.000	-0.094	0.000
-481.376	483.720	-0.142	0.324
-480.362	-32.026	-0.139	-0.078
-479.347	225.831	-0.105	0.172
-478.332	-200.000	-0.027	-0.197
-477.318	44.581	-0.016	-0.015
-476.303	-68.130	0.203	0.080
-475.289	-25.750	-0.379	0.225
-474.274	73.595	-0.321	0.338
-473.259	111.401	0.156	0.190
-472.245	-169.849	-0.201	0.007
-471.230	-200.000	-0.072	-0.323
-470.216	442.172	0.021	0.046
-469.201	-200.000	-0.033	0.229
-468.186	-41.595	-0.242	-0.125
-467.172	-200.000	0.031	-0.160
-466.157	99.267	0.138	0.161
-465.143	-65.330	-0.067	0.027
-464.128	-200.000	0.224	-0.001
-463.113	76.428	0.033	-0.035
-462.099	119.035	0.065	0.081
-461.084	800.000	-0.090	0.284
-460.070	326.496	0.106	-0.203
-459.055	800.000	0.054	-0.209
-458.040	-86.661	-0.197	-0.061
-457.026	-200.000	0.006	-0.277
-456.011	40.461	-0.130	-0.118
-454.997	-58.896	-0.354	-0.154
-453.982	-83.698	0.096	0.031
-452.968	-74.601	-0.272	-0.098
-451.953	-152.458	-0.164	-0.012
-450.938	800.000	0.095	0.262
-449.924	9.861	0.352	-0.268
-448.909	67.085	0.076	-0.078
-447.895	800.000	0.128	0.437
-446.880	481.073	0.053	0.121
-445.865	-13.628	0.118	-0.077
-444.851	-26.259	-0.102	0.060
-443.836	-96.972	0.266	0.070
-442.822	17.337	-0.177	0.141
-441.807	-126.303	-0.336	-0.050
-440.792	-39.936	0.154	0.081
-439.778	300.513	-0.222	0.412
-438.763	-110.805	0.100	0.021
-437.749	130.936	0.101	0.130
-436.734	-200.000	0.037	0.164
-435.719	800.000	-0.048	0.153
-434.705	-10.821	0.266	0.176
-433.690	259.711	0.139	0.241
-432.676	146.576	-0.305	0.412
-431.661	-11.959	-0.289	0.191
-430.646	-104.122	0.350	-0.082
-429.632	-130.110	-0.175	-0.024
-428.617	457.538	-0.093	0.207
-427.603	-100.461	0.220	0.055
-426.588	108.466	-0.193	-0.231
-425.573	11.387	0.322	-0.248
-424.559	365.620	-0.083	-0.168
-423.544	30.943	-0.077	-0.066
-422.530	-147.991	-0.263	-0.022
-421.515	-101.466	-0.264	-0.065
-420.500	-200.000	0.018	0.214
-419.486	341.033	-0.053	0.103
-418.471	-85.698	0.058	0.018
-417.457	319.983	-0.098	-0.186
-416.442	-119.197	-0.361	-0.063
-415.428	-21.540	0.394	0.241
-414.413	361.773	-0.097	0.195
-413.398	-146.262	-0.143	0.013
-412.384	-137.227	0.213	-0.024
-411.369	800.000	0.105	0.395
-410.355	-200.000	-0.016	-0.226
-409.340	-200.000	0.035	-0.217
-408.325	-200.000	0.048	-0.563
-407.311	-129.751	-0.277	0.038
-406.296	177.568	-0.095	0.138
-405.282	-20.914	-0.162	0.100
-404.267	800.000	-0.047	0.199
-403.252	-114.004	-0.111	-0.022
-402.238	-65.857	-0.520	-0.209
-401.223	-85.988	-0.298	-0.092
-400.209	-85.564	0.210	0.066
-399.194	-133.225	-0.146	0.019
-398.179	-200.000	0.005	0.119
-397.165	-200.000	-0.028	0.276
-396.150	-200.000	0.013	-0.063
-395.136	190.519	0.034	-0.051
-394.121	50.631	0.364	-0.346
-393.106	519.638	-0.074	0.174
-392.092	165.482	-0.041	0.057
-391.077	-200.000	0.014	-0.133
-390.063	-5.046	0.144	-0.100
-389.048	-200.000	-0.007	0.032
-388.033	93.150	-0.192	0.217
-387.019	198.629	0.170	-0.261
-386.004	497.257	0.017	0.039
-384.990	-59.961	0.161	-0.069
-383.975	-189.220	0.128	-0.002
-382.960	-127.006	-0.270	0.040
-381.946	22.209	0.067	0.055
-380.931	-117.169	0.059	0.011
-379.917	-10.871	0.243	0.161
-378.902	-155.841	0.313	-0.020
-377.888	7.929	0.028	-0.021
-376.873	44.808	-0.101	-0.094
-375.858	-156.848	0.335	-0.021
-374.844	800.000	0.016	-0.062
-373.829	-26.157	-0.127	0.075
-372.815	-119.578	0.098	-0.017
-371.800	-100.231	0.479	0.119
-370.785	45.333	0.154	-0.142
-369.771	800.000	-0.028	-0.090
-368.756	-110.991	-0.033	0.007
-367.742	-200.000	-0.035	-0.171
-366.727	159.066	0.236	0.329
-365.712	800.000	-0.066	0.206
-364.698	462.938	0.064	0.144
-363.683	209.899	-0.208	0.327
-362.669	-57.662	0.238	-0.105
-361.654	-200.000	-0.014	0.138
-360.639	-200.000	-0.001	-0.254
-359.625	-200.000	0.036	-0.397
-358.610	-41.359	0.123	-0.064
-357.596	210.608	0.023	-0.036
-356.581	153.881	0.120	0.165
-355.566	-112.580	-0.308	0.061
-354.552	800.000	-0.009	0.032
-353.537	-160.828	0.047	0.002
-352.523	69.342	-0.358	-0.369
-351.508	-19.239	-0.102	0.063
-350.493	-113.670	0.140	-0.027
-349.479	-176.354	0.238	0.006
-348.464	-149.628	-0.373	-0.029
-347.450	800.000	-0.026	-0.078
-346.435	138.739	0.133	-0.175
-345.420	-103.291	0.313	0.074
-344.406	-82.064	0.167	0.055
-343.391	800.000	-0.072	-0.214
-342.377	-46.500	0.331	0.163
-341.362	88.758	-0.247	0.275
-340.348	131.646	0.063	-0.082
-339.333	-200.000	0.037	-0.218
-338.318	-9.104	-0.189	-0.127
-337.304	-66.230	0.073	0.029
-336.289	-38.495	-0.198	0.105
-335.275	-36.901	0.163	0.087
-334.260	-19.152	-0.284	0.177
-333.245	-20.155	-0.210	0.130
-332.231	165.866	0.135	0.192
-331.216	-50.637	0.276	0.130
-330.202	-1.527	-0.198	-0.140
-329.187	247.941	-0.211	-0.356
-328.172	108.815	-0.102	0.122
-327.158	800.000	-0.092	0.256
-326.143	-8.544	0.254	0.171
-325.129	225.824	0.267	0.432
-324.114	-71.644	0.385	0.144
-323.099	800.000	-0.081	0.246
-322.085	-34.399	-0.228	-0.125
-321.070	-161.716	0.102	-0.005
-320.056	63.893	0.269	0.270
-319.041	181.988	-0.135	-0.199
-318.026	193.595	-0.033	-0.050
-317.012	-200.000	-0.017	-0.177
-315.997	-60.167	-0.274	-0.117
-314.983	85.066	0.124	0.136
-313.968	800.000	0.022	0.060
-312.953	-77.562	-0.264	0.091
-311.939	-84.951	0.279	0.088
-310.924	311.915	-0.097	0.182
-309.910	-35.385	0.194	0.106
-308.895	-166.449	0.192	-0.008
-307.880	287.142	-0.074	-0.134
-306.866	-152.582	-0.275	0.020
-305.851	24.594	-0.055	-0.045
-304.837	325.221	-0.096	0.183
-303.822	123.601	0.197	0.247
-302.807	243.919	0.170	-0.285
-301.793	-200.000	-0.009	0.116
-300.778	-200.000	-0.034	-0.153
-299.764	-94.238	-0.189	0.052
-298.749	-106.154	-0.226	-0.051
-297.735	-96.419	-0.535	-0.141
-296.720	-137.597	0.249	-0.028
-295.705	268.054	0.110	0.193
-294.691	-79.596	-0.225	0.076
-293.676	427.316	0.051	0.110
-292.662	98.348	0.156	0.179
-291.647	77.726	-0.166	0.177
-290.632	-82.324	0.193	0.063
-289.618	800.000	-0.058	0.244
-288.603	-200.000	0.052	-0.251
-287.589	214.153	-0.233	0.369
-286.574	266.115	-0.102	-0.179
-285.559	-83.863	-0.412	-0.131
-284.545	-200.000	0.004	0.310
-283.530	4.837	0.189	-0.139
-282.516	355.407	-0.031	-0.062
-281.501	-37.213	0.140	-0.075
-280.486	85.310	0.070	-0.077
-279.472	278.318	-0.156	-0.277
-278.457	50.911	-0.230	-0.218
-277.443	-200.000	-0.030	0.148
-276.428	800.000	-0.045	0.148
-275.413	-158.527	0.334	0.019
-274.399	-162.205	-0.050	0.002
-273.384	800.000	-0.036	-0.105
-272.370	87.015	-0.174	0.192
-271.355	-75.374	0.305	0.109
-270.340	424.676	0.127	-0.273
-269.326	303.045	0.099	0.183
-268.311	-200.000	0.000	-0.392
-267.297	347.692	0.158	-0.311
-266.282	-153.912	0.279	-0.019
-265.267	800.000	-0.034	-0.135
-264.253	216.109	0.078	-0.124
-263.238	105.709	-0.290	-0.343
-262.224	110.197	-0.292	0.350
-261.209	371.059	0.103	0.209
-260.195	-200.000	-0.041	0.271
-259.180	-159.448	-0.224	-0.012
-258.165	-48.656	-0.188	0.090
-257.151	307.037	0.061	0.114
-256.136	-95.157	0.082	-0.022
-255.122	-138.610	0.399	0.044
-254.107	97.281	0.162	-0.185
-253.092	156.675	-0.266	0.366
-252.078	113.795	0.006	0.007
-251.063	-200.000	0.067	-0.354
-250.049	194.200	0.170	0.256
-249.034	-200.000	-0.004	-0.144
-248.019	-26.692	0.117	-0.068
-247.005	-57.892	0.141	-0.062
-245.990	-200.000	-0.050	0.231
-244.976	-34.876	-0.376	0.205
-243.961	484.096	0.027	0.061
-242.946	242.494	0.115	-0.192
-241.932	-84.596	-0.080	-0.025
-240.917	122.014	0.079	0.098
-239.903	-82.028	-0.082	-0.027
-238.888	-200.000	0.011	-0.258
-237.873	-147.891	0.249	0.021
-236.859	800.000	-0.035	-0.148
-235.844	700.867	0.077	0.202
-234.830	-58.129	0.323	-0.141
-233.815	-107.847	0.128	-0.028
-232.800	28.090	-0.101	0.085
-231.786	-64.594	0.109	0.044
-230.771	-94.019	-0.032	-0.009
-229.757	-200.000	-0.004	-0.101
-228.742	233.434	0.064	-0.106
-227.727	-13.104	0.060	0.039
-226.713	-52.503	-0.245	0.113
-225.698	-200.000	0.199	-0.000
-224.684	-101.162	-0.082	0.020
-223.669	-200.000	-0.052	-0.239
-222.655	-170.691	-0.323	0.011
-221.640	32.381	-0.013	-0.011
-220.625	-90.865	0.392	0.113
-219.611	800.000	-0.066	0.218
-218.596	-114.438	-0.327	-0.063
-217.582	-200.000	0.030	0.280
-216.567	800.000	0.157	0.566
-215.552	65.981	0.017	0.017
-214.538	54.063	-0.172	0.165
-213.523	-79.992	0.237	-0.079
-212.509	134.246	-0.135	0.174
-211.494	800.000	0.113	0.473
-210.479	800.000	-0.063	0.219
-209.465	410.948	-0.153	-0.323
-208.450	-165.226	0.135	0.006
-207.436	-154.185	-0.161	-0.011
-206.421	0.748	0.107	0.076
-205.406	-185.176	0.074	0.001
-204.392	70.889	-0.146	-0.151
-203.377	716.833	-0.095	0.251
-202.363	222.741	0.116	0.186
-201.348	167.397	0.221	0.313
-200.333	-200.000	-0.054	0.244
-199.319	-200.000	0.044	-0.194
-198.304	-153.281	0.356	-0.025
-197.290	27.448	-0.232	0.194
-196.275	241.249	-0.090	-0.150
-195.260	545.947	0.077	0.183
-194.246	-200.000	-0.033	-0.268
-193.231	-200.000	0.015	-0.164
-192.217	-158.969	0.381	0.022
-191.202	800.000	0.087	-0.260
-190.187	-13.568	0.157	-0.101
-189.173	415.781	-0.146	0.309
-188.158	-155.015	-0.086	-0.006
-187.144	107.104	0.176	-0.208
-186.129	-122.666	0.315	0.051
-185.114	-41.928	-0.173	0.088
-184.100	48.237	-0.141	0.131
-183.085	64.193	-0.135	0.136
-182.071	314.984	0.050	0.094
-181.056	-136.898	0.115	-0.013
-180.042	-134.656	-0.266	0.032
-179.027	-200.000	-0.068	-0.300
-178.012	-200.000	0.003	-0.046
-176.998	309.651	0.216	0.401
-175.983	-60.827	0.175	-0.074
-174.969	-200.000	0.020	0.109
-173.954	800.000	-0.024	-0.087
-172.939	125.151	-0.262	-0.329
-171.925	263.750	-0.098	0.170
-170.910	-200.000	0.008	-0.095
-169.896	-131.857	0.178	-0.023
-168.881	-126.819	0.226	-0.033
-167.866	-80.664	-0.103	-0.034
-166.852	83.466	0.078	0.085
-165.837	56.534	0.042	-0.040
-164.823	-200.000	0.017	-0.421
-163.808	274.482	0.166	0.293
-162.793	-98.655	0.056	-0.014
-161.779	150.475	-0.043	0.058
-160.764	16.332	-0.151	-0.118
-159.750	-200.000	0.011	-0.114
-158.735	-122.077	-0.265	0.043
-157.720	-143.644	0.355	0.034
-156.706	-28.792	-0.070	0.040
-155.691	-47.342	0.102	-0.049
-154.677	-141.423	0.281	0.028
-153.662	-200.000	0.016	0.070
-152.647	5.677	-0.155	0.114
-151.633	429.506	0.032	0.068
-150.618	-126.489	0.291	-0.043
-149.604	150.038	-0.094	0.127
-148.589	-20.165	-0.109	0.067
-147.574	-149.044	0.169	-0.013
-146.560	-93.383	0.263	-0.072
-145.545	-200.000	0.005	-0.069
-144.531	-21.373	-0.077	-0.046
-143.516	-86.414	0.136	-0.042
-142.502	-172.030	0.068	0.002
-141.487	-200.000	0.022	0.124
-140.472	172.607	-0.075	-0.107
-139.458	-19.296	-0.311	-0.192
-138.443	-200.000	0.023	0.308
-137.429	-59.125	-0.082	0.035
-136.414	78.652	0.215	-0.228
-135.399	-105.506	0.059	0.013
-134.385	-196.835	0.028	-0.000
-133.370	-72.283	0.267	-0.098
-132.356	-200.000	-0.010	0.089
-131.341	-200.000	-0.020	0.257
-130.326	-101.287	0.101	-0.024
-129.312	85.550	-0.104	-0.114
-128.297	-51.970	0.225	0.104
-127.283	86.025	-0.167	0.182
-126.268	800.000	-0.103	0.332
-125.253	-25.745	-0.231	-0.135
-124.239	449.189	-0.073	-0.159
-123.224	102.145	0.058	-0.068
-122.210	271.731	-0.078	0.136
