DTS Sentinel unit serial number:	SN413079Multiplexer serial number:	ORYXHardware model number:	OX4-SRSoftware version number:	ORYX F/W v4.00 Oryx Data Collector v3.7.2.0data status	okinstallation	princeton_trtdifferential loss correction	single-endedforward channel	channel 4reverse channel	N/Adate	2019/09/19time	14:09:35forward acquisition time	60.00reverse acquisition time	0.00gamma	496.2192k internal	0.2307k external	0.2307temperature offset calibration	1.0023default loss term (dB/km)	0.3790temperature slope calibration	1.0000multiplexer offset coefficient	1.0000multiplexer slope coefficient	1.0000fibre end	0.00T internal ref (°C)	31.45T ext. ref 1 (°C)	1.03T ext. ref 2 (°C)	28.74length (m)	temperature (°C)	Stokes	anti-Stokes-747.200	-57.275	-0.124	0.055
-746.185	-13.711	0.116	-0.076
-745.171	800.000	-0.065	0.212
-744.156	-81.176	0.291	-0.098
-743.142	-156.104	0.115	0.007
-742.127	235.767	0.084	0.141
-741.112	-70.836	0.095	-0.036
-740.098	103.438	-0.309	0.368
-739.083	38.050	0.188	0.170
-738.069	292.649	0.187	0.347
-737.054	32.861	-0.196	-0.173
-736.039	-117.021	-0.165	0.031
-735.025	-54.033	-0.279	-0.129
-734.010	506.150	-0.096	-0.226
-732.996	86.196	-0.115	-0.129
-731.981	623.116	0.057	-0.146
-730.966	-200.000	-0.036	0.228
-729.952	-132.001	-0.183	0.024
-728.937	207.699	-0.280	-0.443
-727.923	-200.000	-0.008	-0.337
-726.908	-200.000	-0.049	-0.274
-725.894	395.427	-0.050	-0.106
-724.879	30.291	0.054	-0.047
-723.864	-118.798	-0.106	-0.019
-722.850	57.151	-0.029	0.029
-721.835	-200.000	0.026	0.135
-720.821	-74.520	-0.150	0.055
-719.806	-77.929	0.254	0.089
-718.791	-0.617	0.216	-0.156
-717.777	-60.406	0.146	0.063
-716.762	-200.000	0.063	-0.542
-715.748	-200.000	-0.033	0.212
-714.733	800.000	-0.073	0.295
-713.718	-195.390	0.237	-0.002
-712.704	-92.408	-0.188	-0.054
-711.689	-44.822	-0.077	-0.039
-710.675	-200.000	0.014	0.169
-709.660	-200.000	0.077	0.355
-708.645	-200.000	0.010	0.214
-707.631	48.923	-0.074	0.070
-706.616	-200.000	0.057	-0.546
-705.602	-162.870	0.427	0.021
-704.587	-87.772	-0.017	-0.005
-703.572	15.725	-0.127	0.101
-702.558	96.602	0.280	0.325
-701.543	59.424	0.182	0.182
-700.529	16.794	0.093	-0.075
-699.514	-162.083	-0.367	-0.019
-698.499	-47.607	-0.290	-0.143
-697.485	205.026	0.043	-0.068
-696.470	-129.067	-0.103	-0.015
-695.456	-84.928	0.199	-0.063
-694.441	-19.220	0.178	0.112
-693.426	2.235	0.235	-0.172
-692.412	800.000	-0.039	-0.112
-691.397	17.352	0.332	0.268
-690.383	21.051	-0.216	-0.178
-689.368	-117.021	-0.153	-0.028
-688.354	617.781	-0.057	-0.144
-687.339	7.481	0.110	0.083
-686.324	-40.837	-0.126	-0.066
-685.310	-137.557	0.147	0.017
-684.295	717.396	-0.084	-0.226
-683.281	-87.197	0.262	0.081
-682.266	-14.508	-0.098	-0.064
-681.251	-200.000	0.012	-0.168
-680.237	-196.007	0.126	-0.001
-679.222	-86.936	-0.550	0.170
-678.208	-69.699	-0.405	-0.157
-677.193	242.115	0.080	0.136
-676.178	-200.000	-0.034	-0.153
-675.164	-21.360	0.244	0.151
-674.149	-164.541	0.096	0.004
-673.135	-200.000	-0.033	-0.254
-672.120	110.311	-0.133	-0.162
-671.105	-200.000	0.006	-0.031
-670.091	94.052	-0.098	-0.113
-669.076	-200.000	0.011	0.155
-668.062	-53.634	-0.192	0.089
-667.047	-42.303	-0.133	-0.069
-666.032	-147.740	-0.434	-0.037
-665.018	-200.000	-0.001	-0.091
-664.003	-25.533	-0.032	0.019
-662.989	-18.474	-0.321	0.203
-661.974	-133.857	0.498	-0.063
-660.959	453.741	-0.007	0.017
-659.945	-131.193	-0.073	-0.010
-658.930	-145.164	0.313	-0.029
-657.916	51.896	0.224	-0.216
-656.901	46.951	-0.163	0.153
-655.886	285.919	-0.112	0.204
-654.872	-48.523	0.258	-0.126
-653.857	295.543	0.192	-0.357
-652.843	-200.000	-0.041	-0.361
-651.828	-200.000	-0.011	-0.066
-650.814	76.771	-0.152	0.163
-649.799	561.872	-0.077	-0.190
-648.784	163.529	0.166	-0.236
-647.770	-200.000	-0.030	-0.207
-646.755	-200.000	-0.021	0.149
-645.741	800.000	-0.044	0.131
-644.726	-164.795	-0.441	0.020
-643.711	-83.225	0.185	0.060
-642.697	208.968	-0.245	-0.389
-641.682	-75.335	0.239	0.086
-640.668	224.407	-0.148	-0.243
-639.653	95.111	0.341	-0.394
-638.638	-200.000	-0.011	-0.191
-637.624	-200.000	0.017	-0.342
-636.609	657.394	0.030	0.079
-635.595	-200.000	-0.021	-0.163
-634.580	800.000	-0.040	0.175
-633.565	125.440	-0.090	0.115
-632.551	-102.265	-0.213	0.052
-631.536	-200.000	-0.039	-0.268
-630.522	-99.213	0.162	0.041
-629.507	-200.000	0.042	0.257
-628.492	-148.272	-0.114	-0.010
-627.478	41.499	0.243	0.223
-626.463	800.000	-0.077	-0.222
-625.449	149.196	-0.142	-0.194
-624.434	800.000	-0.104	0.317
-623.419	-43.100	0.172	-0.088
-622.405	331.339	-0.054	-0.105
-621.390	-43.673	0.264	-0.135
-620.376	-67.341	-0.409	0.163
-619.361	-200.000	0.003	0.161
-618.346	-200.000	0.057	0.271
-617.332	-23.522	-0.320	-0.194
-616.317	-83.517	0.231	-0.075
-615.303	-200.000	0.078	0.359
-614.288	262.827	-0.111	-0.195
-613.273	181.070	0.153	-0.228
-612.259	626.158	0.025	-0.064
-611.244	-200.000	0.060	-0.276
-610.230	800.000	-0.072	-0.201
-609.215	-200.000	-0.032	0.507
-608.201	-53.171	0.218	0.101
-607.186	-130.883	0.371	-0.050
-606.171	-95.862	0.153	-0.041
-605.157	57.577	0.132	0.130
-604.142	115.387	0.222	0.274
-603.128	48.261	-0.132	0.125
-602.113	-122.076	-0.319	-0.053
-601.098	248.326	0.083	-0.142
-600.084	-120.884	-0.115	0.020
-599.069	-183.482	0.186	0.003
-598.055	-107.966	0.066	0.014
-597.040	32.547	-0.050	0.044
-596.025	-200.000	0.024	-0.135
-595.011	447.618	-0.038	-0.085
-593.996	-26.597	-0.194	0.115
-592.982	-200.000	0.035	-0.166
-591.967	13.970	0.267	0.210
-590.952	-30.504	0.089	-0.051
-589.938	348.396	0.069	-0.138
-588.923	514.568	0.082	0.193
-587.909	199.276	-0.077	-0.120
-586.894	-66.064	0.249	-0.100
-585.879	-200.000	-0.044	0.271
-584.865	-61.679	0.129	0.055
-583.850	-110.072	0.333	0.070
-582.836	-172.117	-0.255	0.008
-581.821	-66.095	-0.103	0.041
-580.806	412.410	0.062	0.133
-579.792	75.598	0.185	0.198
-578.777	-200.000	0.083	0.370
-577.763	-13.793	-0.114	-0.074
-576.748	-200.000	-0.007	0.132
-575.733	-200.000	-0.006	-0.347
-574.719	645.605	-0.059	0.152
-573.704	181.498	0.156	0.231
-572.690	-66.786	-0.298	-0.119
-571.675	800.000	0.077	0.338
-570.661	584.738	-0.138	0.342
-569.646	-160.685	0.025	-0.001
-568.631	-73.078	0.105	0.039
-567.617	-126.372	-0.323	-0.049
-566.602	77.336	0.253	-0.272
-565.588	800.000	-0.061	0.244
-564.573	-108.065	-0.269	0.059
-563.558	231.313	-0.237	0.392
-562.544	-109.488	-0.292	0.062
-561.529	187.599	-0.144	-0.217
-560.515	-65.876	-0.252	-0.102
-559.500	-148.245	0.096	-0.008
-558.485	10.782	0.254	-0.196
-557.471	18.970	-0.137	-0.111
-556.456	-168.895	-0.075	-0.003
-555.442	337.357	-0.038	0.074
-554.427	-121.199	-0.347	-0.059
-553.412	277.251	-0.049	0.088
-552.398	-91.650	-0.115	-0.033
-551.383	-200.000	-0.063	0.338
-550.369	-200.000	-0.028	0.367
-549.354	173.219	-0.062	0.091
-548.339	86.622	0.081	-0.090
-547.325	768.391	0.055	-0.152
-546.310	-8.880	-0.241	-0.163
-545.296	-87.159	0.128	-0.039
-544.281	41.964	-0.378	0.346
-543.266	-24.848	0.268	0.160
-542.252	76.608	0.151	-0.161
-541.237	-80.967	0.132	0.044
-540.223	267.699	0.109	-0.192
-539.208	50.902	0.234	-0.223
-538.193	187.902	0.189	-0.285
-537.179	-147.820	0.183	-0.015
-536.164	70.294	0.102	-0.106
-535.150	19.959	-0.196	-0.160
-534.135	-110.423	-0.316	0.066
-533.121	-86.887	0.162	0.050
-532.106	335.835	0.080	0.157
-531.091	118.878	0.112	0.139
-530.077	534.767	-0.175	0.417
-529.062	-52.926	0.041	-0.019
-528.048	155.698	0.103	-0.144
-527.033	-200.000	-0.009	0.292
-526.018	-200.000	0.001	-0.195
-525.004	-200.000	-0.025	0.179
-523.989	95.840	0.167	0.192
-522.975	95.394	-0.271	-0.311
-521.960	-19.007	0.282	0.176
-520.945	-107.230	0.017	-0.004
-519.931	-136.516	-0.230	0.027
-518.916	-81.975	-0.169	0.056
-517.902	-51.887	0.046	-0.021
-516.887	-200.000	-0.015	-0.418
-515.872	84.014	-0.052	0.057
-514.858	-58.865	0.077	0.034
-513.843	178.644	0.219	0.322
-512.829	-51.148	0.120	-0.056
-511.814	-23.020	-0.208	-0.126
-510.799	800.000	-0.051	0.221
-509.785	7.227	-0.195	0.146
-508.770	-200.000	0.039	0.321
-507.756	-200.000	-0.008	-0.212
-506.741	458.990	0.187	0.418
-505.726	-200.000	0.024	-0.131
-504.712	68.188	-0.259	-0.267
-503.697	-105.668	0.142	-0.032
-502.683	96.532	-0.165	-0.190
-501.668	-41.088	-0.078	0.041
-500.653	344.713	0.046	-0.091
-499.639	-200.000	0.035	-0.219
-498.624	190.976	-0.231	0.350
-497.610	-119.932	0.098	-0.017
-496.595	-102.162	0.363	-0.088
-495.581	32.441	-0.417	-0.363
-494.566	-92.836	-0.204	0.057
-493.551	-102.774	-0.173	0.042
-492.537	-89.658	0.154	0.045
-491.522	-200.000	-0.045	-0.417
-490.508	301.594	0.107	-0.198
-489.493	91.715	0.077	0.087
-488.478	-138.017	0.199	-0.022
-487.464	37.534	-0.123	-0.110
-486.449	317.407	0.085	-0.162
-485.435	365.165	-0.025	0.051
-484.420	-2.173	-0.216	-0.153
-483.405	170.282	-0.235	0.338
-482.391	-83.190	0.114	0.037
-481.376	42.326	-0.058	-0.053
-480.362	-21.553	-0.090	0.055
-479.347	-151.793	-0.175	-0.013
-478.332	-188.521	-0.273	0.003
-477.318	-48.984	-0.147	0.071
-476.303	-39.200	0.193	-0.102
-475.289	20.401	0.191	0.155
-474.274	38.483	-0.172	-0.154
-473.259	-48.451	0.235	0.114
-472.245	97.978	-0.170	0.197
-471.230	352.626	0.073	0.146
-470.216	-65.931	-0.034	0.014
-469.201	176.522	-0.249	-0.365
-468.186	6.385	-0.422	-0.315
-467.172	25.761	-0.045	-0.037
-466.157	674.421	0.028	0.074
-465.143	105.135	-0.131	-0.155
-464.128	64.185	-0.252	-0.256
-463.113	103.424	0.263	-0.311
-462.099	-101.865	0.400	0.097
-461.084	76.236	-0.251	0.267
-460.070	77.262	-0.066	-0.070
-459.055	32.127	-0.219	-0.190
-458.040	159.840	0.101	-0.141
-457.026	754.958	0.070	-0.191
-456.011	-117.146	-0.036	-0.007
-454.997	-27.857	-0.146	-0.085
-453.982	-71.878	0.308	-0.115
-452.968	800.000	0.054	-0.155
-451.953	-149.472	-0.093	-0.007
-450.938	-135.717	0.147	0.018
-449.924	55.452	-0.046	0.044
-448.909	-97.590	0.342	0.089
-447.895	284.598	0.187	-0.338
-446.880	800.000	-0.033	-0.145
-445.865	94.253	-0.237	0.270
-444.851	274.141	-0.105	-0.186
-443.836	-200.000	-0.025	-0.193
-442.822	800.000	0.084	0.344
-441.807	800.000	0.086	0.336
-440.792	42.435	-0.103	-0.094
-439.778	425.630	-0.036	0.077
-438.763	800.000	-0.104	0.376
-437.749	-50.757	-0.230	0.109
-436.734	-101.861	0.308	0.075
-435.719	296.012	-0.047	-0.087
-434.705	24.409	-0.165	-0.137
-433.690	800.000	0.074	-0.215
-432.676	504.726	0.148	0.344
-431.661	150.866	-0.164	-0.224
-430.646	-17.129	-0.118	-0.075
-429.632	510.809	0.066	-0.155
-428.617	-200.000	-0.038	0.184
-427.603	-129.478	0.158	0.022
-426.588	-200.000	-0.006	0.234
-425.573	-200.000	0.009	-0.202
-424.559	-45.959	-0.139	0.069
-423.544	-10.990	0.181	0.120
-422.530	316.886	0.105	0.200
-421.515	279.771	0.162	-0.291
-420.500	-55.083	-0.210	0.095
-419.486	231.552	0.128	-0.210
-418.471	-185.392	0.145	-0.002
-417.457	111.215	0.175	0.212
-416.442	-12.973	0.043	0.028
-415.428	-200.000	-0.032	0.261
-414.413	-200.000	0.004	-0.258
-413.398	-1.436	0.258	-0.183
-412.384	800.000	0.033	0.096
-411.369	278.065	-0.112	0.200
-410.355	294.288	-0.044	-0.081
-409.340	-88.005	0.273	-0.082
-408.325	-142.832	-0.164	0.016
-407.311	-200.000	-0.026	-0.245
-406.296	-47.127	0.204	-0.100
-405.282	2.530	-0.193	-0.140
-404.267	800.000	0.026	0.100
-403.252	14.862	0.178	-0.140
-402.238	-85.397	-0.147	0.046
-401.223	-200.000	-0.086	-0.485
-400.209	57.763	-0.147	-0.144
-399.194	212.841	-0.126	0.199
-398.179	-200.000	0.003	-0.133
-397.165	293.167	-0.057	0.103
-396.150	-200.000	-0.024	-0.136
-395.136	800.000	-0.048	0.153
-394.121	-15.205	0.231	0.148
-393.106	-103.967	-0.061	-0.014
-392.092	88.700	-0.197	-0.219
-391.077	85.702	0.096	-0.106
-390.063	-105.090	0.260	0.060
-389.048	-58.169	-0.648	0.283
-388.033	452.564	-0.108	-0.239
-387.019	-54.044	0.062	0.028
-386.004	-46.986	-0.114	0.056
-384.990	800.000	0.097	-0.394
-383.975	-200.000	0.019	-0.145
-382.960	-97.041	-0.190	-0.050
-381.946	102.755	0.215	-0.252
-380.931	237.693	0.102	-0.169
-379.917	-200.000	0.038	0.386
-378.902	-54.854	0.049	-0.022
-377.888	-70.861	-0.285	0.108
-376.873	-200.000	-0.047	0.232
-375.858	0.556	0.095	-0.068
-374.844	-200.000	0.019	-0.162
-373.829	-200.000	-0.025	-0.436
-372.815	-113.699	-0.626	-0.122
-371.800	436.596	-0.081	0.177
-370.785	39.224	0.034	-0.030
-369.771	800.000	0.078	0.274
-368.756	263.890	0.127	0.220
-367.742	88.157	-0.056	-0.063
-366.727	439.192	0.049	-0.107
-365.712	800.000	0.074	-0.243
-364.698	-143.130	0.412	-0.040
-363.683	-200.000	-0.018	-0.145
-362.669	-61.095	-0.395	-0.167
-361.654	-200.000	-0.022	0.288
-360.639	95.653	0.181	0.207
-359.625	420.467	0.061	-0.130
-358.610	223.872	-0.110	-0.179
-357.596	-175.843	-0.305	0.008
-356.581	-6.334	-0.342	-0.233
-355.566	-173.129	0.348	-0.011
-354.552	-122.754	0.066	-0.011
-353.537	800.000	-0.075	-0.279
-352.523	-69.693	0.064	-0.025
-351.508	800.000	-0.053	-0.215
-350.493	-200.000	0.026	-0.151
-349.479	-21.212	0.120	0.074
-348.464	-149.791	-0.216	0.017
-347.450	-200.000	-0.050	0.268
-346.435	116.449	0.062	0.077
-345.420	-160.233	0.373	0.020
-344.406	-59.966	0.223	0.095
-343.391	-140.108	0.121	0.013
-342.377	136.136	-0.233	0.305
-341.362	25.430	-0.086	0.071
-340.348	-125.156	-0.245	0.038
-339.333	181.432	0.137	-0.202
-338.318	42.782	0.088	0.081
-337.304	120.878	0.129	0.160
-336.289	80.492	0.029	0.032
-335.275	-79.819	-0.150	0.050
-334.260	-39.591	-0.102	0.053
-333.245	0.249	0.205	-0.146
-332.231	71.294	-0.206	0.214
-331.216	53.587	-0.070	0.067
-330.202	-200.000	0.058	0.282
-329.187	-41.587	0.416	0.214
-328.172	-200.000	-0.000	0.415
-327.158	2.314	0.312	-0.226
-326.143	532.888	0.064	-0.151
-325.129	245.858	-0.080	-0.134
-324.114	-200.000	-0.013	0.281
-323.099	-51.737	-0.326	-0.152
-322.085	800.000	0.073	0.217
-321.070	-147.120	-0.095	0.008
-320.056	-30.588	0.183	-0.103
-319.041	-38.253	-0.310	-0.164
-318.026	59.236	0.160	0.158
-317.012	-47.787	-0.369	0.179
-315.997	-62.646	0.132	-0.055
-314.983	-25.667	-0.137	-0.081
-313.968	800.000	-0.011	0.043
-312.953	189.311	0.030	-0.045
-311.939	800.000	-0.050	0.167
-310.924	-200.000	-0.039	-0.198
-309.910	141.462	0.152	-0.201
-308.895	635.770	-0.072	-0.182
-307.880	225.870	-0.178	-0.288
-306.866	-98.842	-0.054	0.014
-305.851	-105.969	0.241	0.054
-304.837	-33.473	-0.299	-0.165
-303.822	-57.786	-0.223	-0.097
-302.807	800.000	-0.127	0.437
-301.793	-178.110	0.295	0.007
-300.778	800.000	0.084	0.329
-299.764	-136.995	0.042	-0.005
-298.749	-104.956	0.304	-0.070
-297.735	-169.769	0.305	-0.011
-296.720	190.092	-0.068	0.102
-295.705	-170.153	0.353	0.012
-294.691	-153.818	-0.211	-0.014
-293.676	-102.544	0.459	0.110
-292.662	-109.272	-0.447	0.095
-291.647	60.485	-0.222	-0.220
-290.632	-164.576	0.206	0.009
-289.618	-200.000	0.013	-0.189
-288.603	19.465	-0.134	-0.107
-287.589	-194.442	0.204	-0.002
-286.574	35.672	-0.037	-0.033
-285.559	316.316	-0.067	-0.127
-284.545	-15.918	0.108	-0.068
-283.530	-200.000	-0.004	-0.085
-282.516	-151.505	0.171	-0.013
-281.501	800.000	0.047	0.152
-280.486	800.000	-0.085	-0.289
-279.472	482.776	0.195	0.442
-278.457	-119.892	0.532	-0.091
-277.443	-200.000	-0.070	0.394
-276.428	6.340	-0.121	0.090
-275.413	800.000	-0.050	-0.179
-274.399	-79.490	0.216	0.073
-273.384	-95.487	-0.347	-0.093
-272.370	136.416	0.152	-0.198
-271.355	-166.097	0.066	-0.003
-270.340	-110.598	0.350	-0.072
-269.326	333.860	-0.098	-0.190
-268.311	210.409	0.025	0.040
-267.297	-200.000	0.019	-0.163
-266.282	-52.421	0.249	-0.115
-265.267	-185.985	-0.071	0.001
-264.253	-200.000	0.011	-0.320
-263.238	-153.171	-0.225	-0.016
-262.224	-55.446	0.180	0.081
-261.209	349.932	-0.076	0.151
-260.195	-200.000	-0.015	0.112
-259.180	-111.055	0.351	0.072
-258.165	-169.417	-0.378	-0.014
-257.151	748.228	0.058	-0.155
-256.136	800.000	0.057	0.210
-255.122	53.724	-0.138	-0.133
-254.107	-200.000	0.009	0.078
-253.092	217.733	-0.067	-0.107
-252.078	168.396	0.283	0.402
-251.063	-96.816	-0.348	-0.091
-250.049	-4.107	0.115	-0.080
-249.034	140.175	0.065	0.085
-248.019	-200.000	-0.022	-0.144
-247.005	287.472	0.082	-0.149
-245.990	800.000	-0.047	-0.172
-244.976	-200.000	0.039	-0.382
-243.961	569.472	0.075	0.183
-242.946	-105.842	-0.090	0.020
-241.932	64.983	-0.265	0.267
-240.917	-39.734	0.309	-0.161
-239.903	-61.969	0.429	0.179
-238.888	540.538	0.040	0.095
-237.873	-91.629	-0.508	-0.144
-236.859	-190.338	0.272	-0.003
-235.844	-10.486	-0.277	0.183
-234.830	237.393	-0.161	0.266
-233.815	276.290	-0.151	-0.267
-232.800	-200.000	-0.037	-0.252
-231.786	-200.000	0.109	0.492
-230.771	-73.053	0.325	0.119
-229.757	-200.000	0.047	-0.335
-228.742	55.233	-0.262	0.252
-227.727	574.003	0.148	0.360
-226.713	28.314	0.140	-0.118
-225.698	-200.000	-0.025	-0.232
-224.684	800.000	-0.057	-0.189
-223.669	-130.280	0.375	0.051
-222.655	800.000	0.016	-0.051
-221.640	46.142	0.122	0.112
-220.625	-75.264	0.148	0.053
-219.611	18.663	0.106	-0.084
-218.596	-82.960	-0.087	-0.028
-217.582	11.416	0.254	0.194
-216.567	-102.477	-0.093	0.022
-215.552	424.644	0.103	-0.221
-214.538	-200.000	0.048	0.268
-213.523	-80.159	0.320	0.107
-212.509	-35.018	0.027	0.014
-211.494	-65.905	-0.057	0.023
-210.479	65.153	-0.038	0.038
-209.465	231.957	-0.066	-0.107
-208.450	58.140	-0.099	0.097
-207.436	-97.822	-0.252	0.065
-206.421	-200.000	0.047	0.289
-205.406	146.470	0.348	0.465
-204.392	506.322	0.127	0.293
-203.377	800.000	0.043	-0.175
-202.363	-13.956	-0.148	-0.095
-201.348	-91.950	-0.138	0.039
-200.333	-200.000	-0.004	-0.258
-199.319	430.967	-0.114	-0.247
-198.304	-74.016	0.076	-0.027
-197.290	104.159	0.136	0.159
-196.275	-200.000	0.035	-0.187
-195.260	738.135	-0.042	0.113
-194.246	497.391	-0.137	0.315
-193.231	263.482	-0.040	0.069
-192.217	-200.000	-0.022	0.202
-191.202	-84.597	0.140	0.044
-190.187	-113.654	0.213	0.041
-189.173	48.719	-0.225	-0.210
-188.158	-175.183	0.345	-0.010
-187.144	-149.453	-0.358	-0.028
-186.129	24.525	0.079	0.065
-185.114	-200.000	-0.017	0.173
-184.100	170.513	0.051	-0.072
-183.085	-177.129	-0.330	-0.008
-182.071	800.000	-0.147	0.484
-181.056	800.000	-0.103	0.321
-180.042	800.000	-0.138	-0.429
-179.027	-108.583	-0.104	0.022
-178.012	103.066	-0.094	-0.110
-176.998	317.942	0.119	-0.224
-175.983	211.124	0.044	0.069
-174.969	169.006	-0.116	-0.165
-173.954	-31.087	0.273	0.153
-172.939	622.341	-0.035	0.087
-171.925	-6.463	-0.060	0.040
-170.910	-41.189	-0.244	-0.125
-169.896	-50.079	-0.093	0.044
-168.881	-10.688	0.049	0.032
-167.866	69.025	-0.184	-0.188
-166.852	-110.878	-0.389	-0.080
-165.837	-43.993	0.277	0.138
-164.823	159.180	0.076	0.105
-163.808	-200.000	-0.028	0.237
-162.793	-68.630	0.186	0.072
-161.779	39.260	0.084	0.075
-160.764	-10.468	0.186	0.123
-159.750	-200.000	-0.031	-0.209
-158.735	6.102	-0.070	0.051
-157.720	800.000	-0.034	-0.139
-156.706	-99.638	-0.295	0.074
-155.691	93.933	0.142	-0.160
-154.677	-35.273	0.164	0.089
-153.662	-2.068	-0.149	0.104
-152.647	-81.838	0.257	0.084
-151.633	800.000	-0.007	-0.029
-150.618	-54.110	0.249	0.112
-149.604	-56.461	-0.172	0.076
-148.589	87.701	-0.122	-0.134
-147.574	-155.785	0.215	-0.014
-146.560	139.945	0.292	0.383
-145.545	-200.000	0.067	0.302
-144.531	-200.000	0.009	-0.146
-143.516	-74.007	0.265	0.095
-142.502	325.897	0.134	-0.254
-141.487	-72.274	0.413	-0.152
-140.472	-200.000	-0.029	-0.226
-139.458	-191.820	0.031	0.000
-138.443	41.657	0.058	-0.052
-137.429	-5.331	-0.145	0.099
-136.414	800.000	-0.039	0.135
-135.399	190.920	0.108	-0.162
-134.385	-45.149	0.303	0.149
-133.370	226.004	-0.053	0.085
-132.356	53.780	-0.066	-0.063
-131.341	-57.626	0.471	0.205
-130.326	800.000	-0.113	0.337
-129.312	25.948	0.234	-0.194
-128.297	-107.830	-0.172	0.037
-127.283	-33.921	-0.303	-0.166
-126.268	-119.648	0.385	0.066
-125.253	-200.000	0.025	-0.135
-124.239	-28.454	-0.193	0.111
-123.224	-200.000	-0.024	-0.174
-122.210	651.855	-0.088	0.223
