DTS Sentinel unit serial number:	SN413079Multiplexer serial number:	ORYXHardware model number:	OX4-SRSoftware version number:	ORYX F/W v4.00 Oryx Data Collector v3.7.2.0data status	okinstallation	princeton_trtdifferential loss correction	single-endedforward channel	channel 4reverse channel	N/Adate	2019/09/19time	00:25:35forward acquisition time	60.00reverse acquisition time	0.00gamma	496.2192k internal	0.2337k external	0.2337temperature offset calibration	1.0030default loss term (dB/km)	0.3790temperature slope calibration	1.0000multiplexer offset coefficient	1.0000multiplexer slope coefficient	1.0000fibre end	0.00T internal ref (°C)	22.56T ext. ref 1 (°C)	0.74T ext. ref 2 (°C)	15.52length (m)	temperature (°C)	Stokes	anti-Stokes-747.200	74.119	-0.161	0.169
-746.185	619.255	0.150	0.378
-745.171	173.630	-0.202	0.292
-744.156	-63.977	0.187	-0.077
-743.142	800.000	0.123	0.420
-742.127	-200.000	-0.061	0.496
-741.112	11.869	-0.071	-0.055
-740.098	800.000	-0.067	0.248
-739.083	417.587	0.074	-0.158
-738.069	-108.847	0.097	0.021
-737.054	-200.000	-0.008	0.136
-736.039	-200.000	-0.266	0.001
-735.025	-18.757	0.289	0.181
-734.010	42.877	-0.255	-0.233
-732.996	102.468	0.119	-0.140
-731.981	-71.676	-0.146	0.054
-730.966	-65.717	0.159	0.064
-729.952	-111.576	0.183	0.037
-728.937	67.701	-0.299	-0.306
-727.923	342.533	-0.114	0.223
-726.908	38.493	0.182	-0.163
-725.894	-112.710	-0.250	0.050
-724.879	3.206	-0.057	-0.042
-723.864	-70.969	-0.058	0.022
-722.850	-106.272	0.292	0.066
-721.835	-31.499	-0.247	0.139
-720.821	495.190	0.048	-0.110
-719.806	-41.825	-0.338	-0.174
-718.791	143.718	0.123	-0.164
-717.777	-125.726	0.250	-0.038
-716.762	-94.373	0.097	0.027
-715.748	54.846	-0.133	-0.128
-714.733	3.336	-0.375	-0.274
-713.718	-200.000	-0.018	0.190
-712.704	-105.373	-0.372	-0.085
-711.689	-71.737	0.293	-0.110
-710.675	-200.000	-0.015	0.163
-709.660	86.838	-0.188	0.208
-708.645	514.653	-0.131	0.308
-707.631	-107.741	0.230	0.050
-706.616	-137.668	-0.183	0.021
-705.602	447.816	-0.056	0.123
-704.587	-27.117	-0.139	0.081
-703.572	88.094	-0.117	-0.130
-702.558	-145.544	0.024	0.002
-701.543	150.582	-0.187	0.254
-700.529	800.000	0.087	0.253
-699.514	-94.082	-0.258	-0.071
-698.499	-111.367	-0.307	0.063
-697.485	-200.000	-0.020	-0.205
-696.470	231.388	-0.034	0.056
-695.456	-28.363	-0.354	-0.205
-694.441	119.775	-0.267	0.331
-693.426	100.322	0.033	-0.039
-692.412	-176.829	0.089	-0.002
-691.397	330.813	0.187	-0.362
-690.383	800.000	0.065	-0.254
-689.368	-11.314	-0.128	-0.084
-688.354	-52.071	0.230	0.107
-687.339	800.000	-0.003	0.010
-686.324	-107.561	-0.217	0.048
-685.310	254.815	-0.236	-0.405
-684.295	139.333	-0.143	0.188
-683.281	359.988	-0.215	0.430
-682.266	1.402	0.135	-0.097
-681.251	-44.145	0.291	-0.146
-680.237	30.984	-0.068	0.058
-679.222	78.580	0.231	-0.247
-678.208	42.855	0.059	-0.053
-677.193	170.468	0.245	-0.351
-676.178	614.413	0.036	0.091
-675.164	6.171	-0.121	-0.090
-674.149	-200.000	0.021	0.412
-673.135	-200.000	-0.047	-0.379
-672.120	800.000	-0.053	-0.157
-671.105	800.000	-0.029	0.080
-670.091	215.593	0.032	-0.051
-669.076	120.264	0.280	0.348
-668.062	-114.857	-0.266	0.051
-667.047	800.000	-0.045	-0.139
-666.032	542.012	-0.058	-0.138
-665.018	101.383	-0.045	-0.052
-664.003	96.419	0.043	-0.050
-662.989	202.793	-0.081	-0.126
-661.974	-200.000	0.044	-0.317
-660.959	659.802	0.031	0.081
-659.945	253.710	-0.054	-0.093
-658.930	144.825	-0.136	-0.182
-657.916	-17.949	0.091	-0.057
-656.901	216.748	-0.061	-0.098
-655.886	244.953	0.149	-0.251
-654.872	-200.000	-0.043	-0.292
-653.857	-91.694	0.270	0.077
-652.843	-107.089	-0.213	-0.047
-651.828	209.897	-0.059	0.092
-650.814	-81.997	-0.212	0.069
-649.799	800.000	0.017	-0.067
-648.784	-200.000	0.045	-0.324
-647.770	-45.026	-0.263	-0.131
-646.755	-200.000	0.074	-0.444
-645.741	-146.526	-0.280	-0.024
-644.726	-132.799	0.125	-0.016
-643.711	-166.110	-0.451	-0.019
-642.697	-200.000	0.028	-0.326
-641.682	-97.306	0.084	-0.022
-640.668	74.729	0.107	0.113
-639.653	-60.518	0.233	-0.099
-638.638	205.351	0.300	0.466
-637.624	268.362	-0.221	-0.387
-636.609	410.449	-0.125	-0.265
-635.595	-200.000	-0.030	0.263
-634.580	-135.665	-0.177	-0.021
-633.565	634.708	0.048	0.122
-632.551	588.689	-0.042	-0.103
-631.536	-170.614	0.056	-0.002
-630.522	-200.000	-0.019	-0.331
-629.507	-11.343	-0.264	-0.174
-628.492	109.414	0.049	-0.059
-627.478	-169.159	0.249	-0.009
-626.463	302.306	-0.091	-0.168
-625.449	-47.675	-0.393	0.191
-624.434	800.000	-0.107	-0.346
-623.419	-37.033	0.329	-0.176
-622.405	-98.089	-0.107	-0.028
-621.390	506.841	0.063	-0.145
-620.376	800.000	0.059	-0.214
-619.361	-200.000	0.012	0.195
-618.346	-200.000	-0.007	0.036
-617.332	-200.000	-0.003	-0.049
-616.317	-54.332	-0.232	-0.105
-615.303	-30.543	0.282	-0.160
-614.288	-200.000	0.005	0.147
-613.273	800.000	-0.040	0.140
-612.259	22.979	-0.185	-0.152
-611.244	368.739	0.169	-0.341
-610.230	-15.774	0.234	0.149
-609.215	40.282	-0.176	0.158
-608.201	-31.645	0.571	0.320
-607.186	-60.880	0.144	0.061
-606.171	-66.493	0.125	0.050
-605.157	-23.118	0.347	0.209
-604.142	86.124	0.121	0.133
-603.128	-31.463	0.216	0.121
-602.113	-49.240	-0.358	0.171
-601.098	278.573	0.037	0.065
-600.084	800.000	-0.087	-0.280
-599.069	800.000	-0.178	-0.567
-598.055	36.748	0.090	0.079
-597.040	60.705	-0.160	0.158
-596.025	-200.000	-0.040	-0.230
-595.011	-137.728	0.261	-0.029
-593.996	78.198	0.165	0.176
-592.982	269.048	-0.024	-0.042
-591.967	-200.000	-0.005	0.317
-590.952	-200.000	-0.055	0.394
-589.938	-200.000	-0.048	-0.302
-588.923	-122.191	0.362	-0.059
-587.909	800.000	0.024	-0.077
-586.894	39.208	-0.305	0.272
-585.879	-103.174	-0.127	-0.030
-584.865	-34.373	-0.154	-0.084
-583.850	-152.944	0.136	0.010
-582.836	55.640	0.161	-0.156
-581.821	-200.000	0.033	0.203
-580.806	-99.718	0.091	-0.023
-579.792	19.677	0.069	0.055
-578.777	-200.000	-0.009	-0.063
-577.763	-87.787	-0.361	-0.109
-576.748	-175.313	-0.167	0.005
-575.733	51.573	-0.099	0.094
-574.719	-36.004	-0.299	-0.161
-573.704	162.253	-0.220	-0.307
-572.690	195.381	0.100	0.151
-571.675	293.065	0.133	-0.241
-570.661	188.419	0.039	-0.059
-569.646	-200.000	-0.001	-0.399
-568.631	137.203	0.169	-0.221
-567.617	319.598	0.135	-0.256
-566.602	-27.206	0.183	0.106
-565.588	768.491	0.160	0.434
-564.573	-192.561	-0.141	0.001
-563.558	-41.953	0.126	-0.065
-562.544	404.863	0.080	-0.169
-561.529	800.000	0.067	0.192
-560.515	-38.118	-0.351	0.185
-559.500	-200.000	-0.019	0.165
-558.485	-35.051	-0.409	-0.222
-557.471	-13.591	0.180	-0.116
-556.456	-200.000	0.020	0.130
-555.442	-117.236	0.305	-0.055
-554.427	-57.287	-0.138	-0.061
-553.412	610.998	-0.181	-0.451
-552.398	48.489	-0.170	0.159
-551.383	-200.000	-0.031	-0.607
-550.369	-198.468	0.256	0.001
-549.354	138.789	-0.225	0.294
-548.339	-40.050	-0.055	0.028
-547.325	226.072	-0.037	-0.060
-546.310	-55.375	0.077	0.035
-545.296	-200.000	0.025	-0.182
-544.281	141.996	0.119	-0.158
-543.266	-106.246	-0.180	-0.040
-542.252	268.709	-0.102	-0.178
-541.237	-132.680	-0.041	-0.005
-540.223	-62.114	-0.061	-0.026
-539.208	-65.110	-0.201	-0.081
-538.193	-119.923	-0.302	-0.052
-537.179	391.727	-0.065	0.134
-536.164	135.457	-0.092	0.119
-535.150	265.277	0.072	-0.126
-534.135	-200.000	-0.013	-0.139
-533.121	161.434	-0.176	0.245
-532.106	800.000	-0.079	-0.266
-531.091	-200.000	0.012	0.217
-530.077	128.137	-0.098	-0.125
-529.062	100.468	-0.133	-0.154
-528.048	-0.053	0.149	-0.106
-527.033	287.579	-0.061	0.110
-526.018	96.395	-0.232	0.265
-525.004	-200.000	-0.016	-0.262
-523.989	6.593	-0.230	-0.171
-522.975	-97.909	-0.159	-0.041
-521.960	800.000	0.031	-0.096
-520.945	800.000	0.114	0.439
-519.931	140.849	-0.127	-0.167
-518.916	-161.955	-0.155	0.008
-517.902	-200.000	-0.033	-0.215
-516.887	63.331	0.214	0.213
-515.872	638.319	-0.100	-0.254
-514.858	36.526	-0.397	0.349
-513.843	-200.000	0.021	0.117
-512.829	-200.000	0.007	0.193
-511.814	-200.000	0.041	0.246
-510.799	537.463	0.107	0.254
-509.785	-17.815	-0.244	-0.152
-508.770	-200.000	-0.032	-0.369
-507.756	58.726	0.311	0.304
-506.741	87.190	0.104	-0.114
-505.726	48.737	-0.318	-0.297
-504.712	-200.000	0.003	-0.162
-503.697	-64.399	-0.254	-0.103
-502.683	-128.107	-0.300	-0.043
-501.668	-143.688	0.234	0.022
-500.653	800.000	-0.140	-0.443
-499.639	122.767	-0.033	0.041
-498.624	117.069	-0.240	0.293
-497.610	104.112	0.112	0.131
-496.595	-143.725	-0.202	0.019
-495.581	0.252	0.161	-0.114
-494.566	-69.203	-0.044	-0.017
-493.551	64.155	0.169	-0.169
-492.537	-175.233	0.095	-0.003
-491.522	-158.870	0.192	-0.011
-490.508	-198.589	-0.489	-0.003
-489.493	-35.118	0.039	-0.021
-488.478	192.237	0.044	-0.066
-487.464	21.543	0.022	0.017
-486.449	-25.320	-0.082	-0.048
-485.435	-200.000	-0.060	-0.285
-484.420	-99.347	0.196	-0.049
-483.405	-110.351	0.069	0.014
-482.391	29.045	-0.088	-0.074
-481.376	248.374	-0.101	0.170
-480.362	78.176	0.078	0.083
-479.347	103.227	0.282	-0.329
-478.332	37.280	0.312	0.275
-477.318	30.356	-0.211	0.179
-476.303	-67.623	0.252	-0.098
-475.289	238.418	-0.036	0.059
-474.274	-67.476	0.250	0.097
-473.259	87.597	0.139	-0.153
-472.245	167.711	-0.321	0.453
-471.230	126.161	-0.179	-0.225
-470.216	800.000	-0.074	-0.315
-469.201	-150.738	0.290	0.022
-468.186	-183.265	0.081	0.001
-467.172	-59.047	0.170	0.073
-466.157	73.649	0.300	-0.312
-465.143	-76.141	-0.228	0.080
-464.128	-200.000	-0.008	0.086
-463.113	-109.344	-0.437	-0.092
-462.099	30.526	0.125	-0.106
-461.084	228.451	-0.169	0.273
-460.070	-61.877	0.146	0.061
-459.055	-71.184	0.416	-0.155
-458.040	87.665	-0.079	0.087
-457.026	-65.697	0.087	-0.034
-456.011	-200.000	0.011	0.231
-454.997	800.000	-0.075	0.226
-453.982	-200.000	0.023	-0.423
-452.968	-200.000	0.009	0.072
-451.953	-200.000	0.004	-0.254
-450.938	8.016	0.183	0.136
-449.924	1.240	0.158	0.112
-448.909	800.000	-0.062	-0.221
-447.895	4.061	0.099	-0.072
-446.880	-88.003	0.362	0.108
-445.865	-200.000	0.006	0.054
-444.851	-22.597	0.159	0.095
-443.836	-71.028	-0.351	0.131
-442.822	84.515	-0.296	-0.321
-441.807	-56.524	0.174	-0.076
-440.792	-112.556	0.104	0.021
-439.778	-39.925	0.063	-0.033
-438.763	-11.623	0.183	0.119
-437.749	-160.690	-0.117	-0.006
-436.734	169.253	-0.066	-0.093
-435.719	17.043	0.095	-0.075
-434.705	-200.000	0.001	0.376
-433.690	-137.959	0.226	0.025
-432.676	87.128	0.109	-0.119
-431.661	128.743	-0.214	0.271
-430.646	319.482	-0.094	-0.177
-429.632	-200.000	0.030	0.256
-428.617	800.000	-0.062	-0.265
-427.603	287.622	0.006	-0.012
-426.588	800.000	-0.056	-0.195
-425.573	-7.754	-0.097	0.065
-424.559	-200.000	0.014	0.113
-423.544	800.000	0.046	-0.136
-422.530	-73.256	0.032	-0.011
-421.515	159.913	0.168	-0.232
-420.500	-200.000	-0.017	-0.201
-419.486	-29.373	-0.227	0.129
-418.471	-181.327	-0.166	0.003
-417.457	354.040	0.109	0.215
-416.442	-200.000	-0.015	0.183
-415.428	-6.604	-0.084	0.057
-414.413	800.000	-0.013	0.045
-413.398	-200.000	0.010	0.110
-412.384	800.000	-0.054	0.204
-411.369	800.000	0.184	0.522
-410.355	-139.885	-0.210	0.022
-409.340	206.656	0.018	-0.028
-408.325	12.842	0.147	-0.113
-407.311	18.958	0.348	0.276
-406.296	261.128	-0.268	0.460
-405.282	-116.467	-0.419	-0.077
-404.267	24.532	-0.087	-0.072
-403.252	141.212	-0.042	0.055
-402.238	-173.351	0.105	-0.003
-401.223	513.487	-0.122	0.281
-400.209	-67.354	0.176	-0.069
-399.194	-70.034	0.171	-0.065
-398.179	-38.672	0.250	0.130
-397.165	142.588	0.118	-0.155
-396.150	-69.053	-0.130	-0.049
-395.136	121.411	0.143	0.177
-394.121	-200.000	0.005	-0.196
-393.106	-102.361	0.448	-0.106
-392.092	-37.201	-0.120	-0.064
-391.077	-200.000	0.004	-0.080
-390.063	657.388	-0.085	-0.216
-389.048	12.090	0.129	0.098
-388.033	-148.951	-0.095	-0.008
-387.019	24.959	0.054	-0.044
-386.004	-200.000	0.024	0.117
-384.990	800.000	0.106	0.332
-383.975	95.225	0.102	0.115
-382.960	-83.009	-0.085	0.027
-381.946	67.992	0.282	0.285
-380.931	124.571	-0.123	-0.154
-379.917	100.757	0.045	-0.052
-378.902	-115.513	-0.077	0.014
-377.888	800.000	-0.023	-0.097
-376.873	205.352	-0.090	0.139
-375.858	-64.034	-0.154	0.062
-374.844	181.560	-0.117	-0.171
-373.829	13.257	0.127	0.097
-372.815	-59.999	-0.155	0.065
-371.800	-200.000	0.039	-0.193
-370.785	800.000	-0.057	0.223
-369.771	16.594	0.138	0.108
-368.756	800.000	-0.045	0.148
-367.742	292.698	0.084	0.152
-366.727	297.655	-0.039	0.071
-365.712	5.331	-0.241	-0.176
-364.698	-21.720	-0.143	0.086
-363.683	-171.419	0.183	0.006
-362.669	214.100	-0.045	-0.070
-361.654	-60.400	0.218	-0.092
-360.639	109.535	0.006	-0.007
-359.625	-16.112	-0.097	-0.061
-358.610	98.394	-0.153	0.175
-357.596	153.136	-0.125	0.169
-356.581	20.476	0.269	-0.215
-355.566	-200.000	-0.006	0.103
-354.552	211.053	-0.112	0.173
-353.537	-47.649	0.059	0.028
-352.523	269.470	0.109	0.189
-351.508	-200.000	-0.030	-0.140
-350.493	353.846	0.133	-0.261
-349.479	163.276	-0.031	-0.043
-348.464	587.164	-0.042	0.103
-347.450	-200.000	-0.028	0.238
-346.435	-144.581	-0.400	-0.037
-345.420	326.350	-0.059	-0.111
-344.406	68.376	-0.142	-0.143
-343.391	145.465	-0.210	0.278
-342.377	-27.040	0.170	-0.098
-341.362	428.266	-0.069	0.147
-340.348	-49.520	-0.358	0.169
-339.333	114.310	0.087	0.105
-338.318	-0.227	0.183	-0.129
-337.304	-73.983	0.232	-0.083
-336.289	710.620	-0.099	-0.258
-335.275	-39.706	0.315	0.163
-334.260	-200.000	-0.008	0.157
-333.245	800.000	-0.071	-0.212
-332.231	207.727	0.148	-0.228
-331.216	45.329	0.189	0.172
-330.202	87.001	0.050	0.054
-329.187	96.890	0.202	0.229
-328.172	-1.262	-0.105	0.073
-327.158	800.000	-0.030	-0.091
-326.143	162.068	0.172	0.238
-325.129	-36.465	-0.103	-0.055
-324.114	-25.145	-0.224	0.131
-323.099	-31.996	-0.194	-0.107
-322.085	-165.344	0.142	-0.006
-321.070	-139.056	0.104	0.011
-320.056	44.317	-0.198	0.179
-319.041	-164.035	-0.064	0.003
-318.026	-153.289	0.053	0.004
-317.012	-200.000	0.035	-0.215
-315.997	-131.386	0.127	-0.017
-314.983	-173.433	0.088	0.003
-313.968	-200.000	-0.032	-0.173
-312.953	-50.855	-0.121	-0.056
-311.939	-56.914	-0.095	0.041
-310.924	-108.457	0.377	0.080
-309.910	-82.828	-0.280	0.089
-308.895	248.319	0.014	0.023
-307.880	32.116	-0.143	-0.122
-306.866	-131.510	-0.138	0.018
-305.851	799.815	0.131	-0.357
-304.837	438.545	-0.027	0.059
-303.822	114.676	0.031	0.038
-302.807	-66.469	0.093	0.036
-301.793	800.000	0.076	-0.282
-300.778	-200.000	0.016	0.252
-299.764	194.826	0.115	0.172
-298.749	191.024	-0.255	0.378
-297.735	374.818	0.075	0.150
-296.720	151.322	0.158	0.213
-295.705	-25.440	0.164	0.096
-294.691	800.000	0.074	0.320
-293.676	-41.457	-0.075	-0.038
-292.662	156.314	-0.027	-0.037
-291.647	-200.000	0.031	0.169
-290.632	-76.685	-0.233	-0.080
-289.618	138.308	-0.193	0.250
-288.603	-51.821	0.149	0.068
-287.589	33.571	0.144	0.124
-286.574	-140.928	-0.121	0.012
-285.559	-24.781	-0.171	0.100
-284.545	563.965	0.088	0.209
-283.530	546.606	0.160	0.377
-282.516	-47.185	0.219	-0.105
-281.501	341.804	0.047	-0.091
-280.486	4.172	0.310	-0.224
-279.472	-72.204	-0.086	-0.032
-278.457	-126.191	-0.146	0.021
-277.443	453.763	0.020	-0.044
-276.428	17.609	0.053	0.041
-275.413	-200.000	-0.063	0.295
-274.399	-56.518	-0.178	-0.078
-273.384	-51.111	-0.081	0.037
-272.370	274.936	0.083	-0.145
-271.355	-200.000	0.051	0.279
-270.340	106.815	-0.131	0.154
-269.326	-48.378	0.088	-0.042
-268.311	-61.908	-0.047	-0.019
-267.297	-103.824	0.282	0.065
-266.282	176.845	0.057	0.082
-265.267	-134.453	-0.153	0.018
-264.253	67.499	0.163	-0.164
-263.238	126.336	-0.217	0.271
-262.224	-200.000	-0.071	0.339
-261.209	-33.946	0.334	0.181
-260.195	569.686	-0.120	0.288
-259.180	-132.368	0.347	0.044
-258.165	-87.217	0.238	0.071
-257.151	800.000	-0.069	-0.201
-256.136	399.877	-0.040	-0.083
-255.122	527.423	-0.074	-0.172
-254.107	3.631	0.422	0.303
-253.092	-170.837	0.226	0.008
-252.078	-53.131	0.315	0.142
-251.063	170.261	0.085	0.120
-250.049	-200.000	-0.014	0.102
-249.034	203.101	0.123	0.188
-248.019	-125.977	0.131	-0.019
-247.005	57.343	-0.137	0.131
-245.990	358.434	-0.108	-0.211
-244.976	641.636	-0.123	-0.308
-243.961	-200.000	0.060	0.357
-242.946	-88.780	0.133	-0.039
-241.932	-23.024	0.128	-0.076
-240.917	26.453	-0.064	0.052
-239.903	800.000	-0.159	-0.490
-238.888	-174.866	-0.078	0.002
-237.873	107.873	-0.074	0.087
-236.859	213.406	-0.151	0.234
-235.844	-185.140	-0.243	-0.004
-234.830	-61.671	-0.282	-0.116
-233.815	127.761	-0.103	0.128
-232.800	800.000	0.020	-0.082
-231.786	800.000	0.041	-0.159
-230.771	-0.862	-0.383	0.267
-229.757	139.604	0.107	-0.138
-228.742	35.772	0.201	0.174
-227.727	45.608	0.010	0.009
-226.713	-16.954	0.196	-0.122
-225.698	285.257	0.062	-0.110
-224.684	385.001	0.106	-0.214
-223.669	-33.321	0.184	0.100
-222.655	-148.530	0.196	-0.016
-221.640	463.184	-0.150	0.330
-220.625	-92.868	0.091	0.025
-219.611	-48.048	0.118	0.056
-218.596	105.115	-0.170	0.197
-217.582	45.295	-0.053	-0.048
-216.567	661.960	-0.021	0.053
-215.552	-12.834	-0.170	0.109
-214.538	12.828	-0.296	0.225
-213.523	-200.000	-0.016	-0.200
-212.509	-140.682	0.232	-0.024
-211.494	104.811	-0.105	0.122
-210.479	-15.142	0.214	0.135
-209.465	83.303	-0.240	0.257
-208.450	258.492	0.150	0.254
-207.436	257.664	0.072	0.122
-206.421	14.951	-0.164	0.127
-205.406	-49.470	0.031	-0.015
-204.392	68.714	0.063	0.064
-203.377	71.607	-0.081	0.083
-202.363	455.899	-0.117	-0.255
-201.348	1.507	-0.219	-0.155
-200.333	59.405	-0.135	0.131
-199.319	-200.000	0.024	0.120
-198.304	-73.274	0.120	0.043
-197.290	800.000	-0.035	0.112
-196.275	-143.091	-0.418	0.040
-195.260	-200.000	0.009	0.072
-194.246	560.352	0.026	-0.061
-193.231	800.000	0.068	-0.268
-192.217	367.279	0.073	-0.145
-191.202	-4.785	-0.251	-0.170
-190.187	405.887	0.073	-0.152
-189.173	-35.218	0.187	-0.100
-188.158	63.403	-0.219	-0.216
-187.144	800.000	-0.018	0.066
-186.129	-104.213	0.186	-0.042
-185.114	-118.711	0.206	0.036
-184.100	-200.000	-0.033	0.279
-183.085	-81.939	-0.202	-0.065
-182.071	-200.000	0.046	-0.255
-181.056	-200.000	0.048	-0.245
-180.042	800.000	-0.055	-0.222
-179.027	38.424	-0.207	-0.181
-178.012	-73.086	-0.457	-0.165
-176.998	-155.261	0.028	-0.002
-175.983	90.424	0.165	-0.181
-174.969	556.233	-0.022	0.053
-173.954	-127.472	0.482	-0.069
-172.939	-194.818	-0.548	-0.004
-171.925	-23.946	0.247	0.145
-170.910	88.638	0.088	0.096
-169.896	-71.524	0.127	-0.047
-168.881	186.538	0.130	0.189
-167.866	-147.305	-0.159	-0.013
-166.852	800.000	-0.045	-0.180
-165.837	432.049	-0.101	-0.215
-164.823	575.234	0.114	-0.273
-163.808	173.683	0.194	-0.274
-162.793	-71.574	0.156	0.057
-161.779	-94.447	0.163	0.044
-160.764	-200.000	0.077	0.440
-159.750	641.587	-0.126	-0.315
-158.735	-88.583	0.192	0.056
-157.720	-97.905	0.093	0.024
-156.706	-200.000	0.038	0.267
-155.691	-152.640	-0.387	-0.027
-154.677	-200.000	-0.027	-0.367
-153.662	-200.000	0.045	-0.419
-152.647	-200.000	0.064	-0.321
-151.633	-141.548	0.222	0.022
-150.618	-18.063	0.248	0.152
-149.604	170.642	-0.048	0.068
-148.589	628.118	0.111	0.276
-147.574	411.997	0.059	0.123
-146.560	337.310	-0.253	0.481
-145.545	800.000	-0.078	-0.278
-144.531	16.291	-0.054	-0.042
-143.516	448.626	-0.137	0.295
-142.502	-200.000	0.028	0.185
-141.487	-200.000	-0.008	0.126
-140.472	-113.463	-0.320	0.062
-139.458	-40.091	-0.113	-0.058
-138.443	800.000	0.035	0.126
-137.429	-109.679	0.041	0.008
-136.414	-2.432	-0.138	0.095
-135.399	-114.166	0.147	0.028
-134.385	-22.901	0.250	-0.148
-133.370	-14.319	0.138	-0.087
-132.356	-192.009	-0.222	-0.002
-131.341	49.696	-0.081	-0.075
-130.326	-200.000	0.034	0.192
-129.312	4.471	0.277	-0.199
-128.297	30.986	-0.121	-0.101
-127.283	13.935	0.238	0.181
-126.268	800.000	-0.020	-0.073
-125.253	-61.837	0.198	0.081
-124.239	291.524	-0.068	0.120
-123.224	280.669	0.097	-0.169
-122.210	350.887	-0.032	-0.062
-121.195	445.354	-0.157	0.338
