DTS Sentinel unit serial number:	SN413079Multiplexer serial number:	ORYXHardware model number:	OX4-SRSoftware version number:	ORYX F/W v4.00 Oryx Data Collector v3.7.2.0data status	okinstallation	princeton_trtdifferential loss correction	single-endedforward channel	channel 4reverse channel	N/Adate	2019/09/13time	05:13:35forward acquisition time	60.00reverse acquisition time	0.00gamma	496.2192k internal	0.2323k external	0.2323temperature offset calibration	1.0192default loss term (dB/km)	0.3790temperature slope calibration	1.0000multiplexer offset coefficient	1.0000multiplexer slope coefficient	1.0000fibre end	0.00T internal ref (°C)	26.37T ext. ref 1 (°C)	4.05T ext. ref 2 (°C)	20.85length (m)	temperature (°C)	Stokes	anti-Stokes-747.200	509.963	0.112	0.262
-746.185	779.905	0.169	0.468
-745.171	12.923	-0.291	0.227
-744.156	-139.866	0.163	-0.017
-743.142	140.611	-0.070	-0.093
-742.127	696.603	0.076	0.200
-741.112	62.033	-0.239	-0.241
-740.098	72.439	-0.178	0.187
-739.083	-200.000	-0.001	0.199
-738.069	356.453	0.224	0.450
-737.054	800.000	-0.115	0.322
-736.039	113.343	-0.151	0.185
-735.025	-62.086	-0.048	-0.020
-734.010	78.722	-0.220	-0.237
-732.996	-200.000	0.032	0.184
-731.981	-106.276	-0.330	0.075
-730.966	-73.672	0.335	0.123
-729.952	-21.105	0.223	-0.138
-728.937	-200.000	-0.017	-0.342
-727.923	110.497	-0.242	-0.294
-726.908	-86.205	-0.350	-0.109
-725.894	-200.000	-0.027	-0.210
-724.879	41.232	-0.227	0.207
-723.864	55.401	0.071	-0.069
-722.850	239.042	-0.205	-0.344
-721.835	765.292	-0.148	-0.407
-720.821	-63.949	-0.149	-0.062
-719.806	190.012	-0.090	-0.136
-718.791	-12.058	0.258	-0.171
-717.777	800.000	-0.130	-0.419
-716.762	-101.806	-0.058	0.014
-715.748	-112.686	-0.169	0.034
-714.733	561.827	0.044	0.107
-713.718	-200.000	0.008	-0.068
-712.704	800.000	0.023	0.075
-711.689	64.435	0.044	-0.044
-710.675	-124.410	-0.290	-0.046
-709.660	-125.515	0.041	-0.006
-708.645	-185.845	0.095	-0.001
-707.631	-200.000	0.000	0.047
-706.616	-145.854	-0.297	0.027
-705.602	-200.000	0.031	-0.300
-704.587	52.875	-0.217	-0.209
-703.572	-139.135	-0.273	-0.030
-702.558	-144.543	-0.239	-0.022
-701.543	-28.479	-0.174	0.101
-700.529	203.409	0.116	0.181
-699.514	193.209	-0.116	0.176
-698.499	244.827	-0.046	-0.078
-697.485	-200.000	0.036	-0.274
-696.470	-79.405	-0.112	0.038
-695.456	-31.020	0.194	0.111
-694.441	800.000	0.045	0.198
-693.426	-200.000	0.089	-0.564
-692.412	-84.094	-0.259	-0.083
-691.397	75.249	0.020	0.022
-690.383	-145.274	0.240	-0.022
-689.368	-28.008	-0.251	-0.146
-688.354	615.717	-0.096	-0.241
-687.339	-94.054	-0.266	0.074
-686.324	-200.000	-0.045	0.241
-685.310	119.184	-0.081	-0.101
-684.295	-132.205	-0.230	0.030
-683.281	25.922	0.128	0.108
-682.266	304.572	-0.253	0.474
-681.251	3.788	-0.276	0.203
-680.237	5.238	-0.106	0.079
-679.222	381.653	-0.125	-0.259
-678.208	-133.631	-0.357	0.045
-677.193	125.097	-0.185	0.235
-676.178	-54.574	-0.114	0.052
-675.164	433.200	0.131	0.287
-674.149	-200.000	-0.016	0.211
-673.135	-135.391	0.342	-0.041
-672.120	-177.025	-0.309	-0.008
-671.105	3.406	-0.082	-0.060
-670.091	-34.151	0.023	0.013
-669.076	-200.000	0.005	-0.164
-668.062	-71.086	-0.162	0.061
-667.047	800.000	0.137	-0.396
-666.032	-200.000	-0.008	-0.261
-665.018	133.402	0.047	0.061
-664.003	-200.000	0.018	0.196
-662.989	563.227	0.042	0.101
-661.974	-200.000	0.021	0.099
-660.959	665.590	-0.057	-0.148
-659.945	-0.454	-0.089	-0.064
-658.930	-200.000	0.043	0.222
-657.916	646.638	-0.082	-0.212
-656.901	-154.432	0.291	-0.020
-655.886	170.753	-0.032	0.046
-654.872	800.000	-0.031	-0.109
-653.857	492.642	-0.110	-0.254
-652.843	29.963	-0.069	0.059
-651.828	225.766	-0.074	0.121
-650.814	38.993	-0.135	0.122
-649.799	111.076	0.164	0.198
-648.784	-32.511	-0.106	0.059
-647.770	44.586	-0.142	0.132
-646.755	299.261	-0.176	0.327
-645.741	-200.000	-0.025	0.240
-644.726	-136.145	0.114	-0.013
-643.711	-136.469	-0.276	0.032
-642.697	2.139	-0.411	-0.299
-641.682	121.861	0.308	-0.387
-640.668	-122.663	0.117	0.019
-639.653	10.226	0.121	0.092
-638.638	61.686	0.182	0.183
-637.624	-158.145	0.276	-0.016
-636.609	84.012	-0.275	-0.302
-635.595	-200.000	0.009	-0.052
-634.580	70.423	0.156	0.162
-633.565	-152.148	0.099	-0.007
-632.551	-200.000	-0.000	0.044
-631.536	-148.545	-0.176	-0.014
-630.522	-200.000	-0.005	-0.267
-629.507	458.421	-0.093	0.207
-628.492	-166.548	0.168	0.007
-627.478	-147.083	-0.282	0.024
-626.463	-200.000	-0.010	0.124
-625.449	19.380	-0.192	-0.155
-624.434	-66.642	0.030	-0.012
-623.419	299.635	0.106	-0.196
-622.405	-200.000	-0.030	-0.227
-621.390	-28.360	0.269	-0.156
-620.376	137.937	-0.081	0.107
-619.361	-57.883	0.221	-0.097
-618.346	-169.720	-0.406	0.015
-617.332	88.697	-0.088	-0.099
-616.317	-59.255	0.130	-0.056
-615.303	244.903	-0.029	0.049
-614.288	-94.942	-0.279	0.076
-613.273	-59.101	0.356	0.154
-612.259	182.104	-0.267	0.395
-611.244	286.707	0.097	-0.176
-610.230	72.975	-0.203	0.213
-609.215	-200.000	-0.006	-0.131
-608.201	62.410	-0.098	0.098
-607.186	514.030	-0.156	0.366
-606.171	57.272	0.261	0.255
-605.157	-144.501	-0.170	-0.016
-604.142	-80.636	-0.199	0.066
-603.128	-54.786	0.178	-0.081
-602.113	8.121	-0.385	-0.291
-601.098	18.592	-0.145	-0.117
-600.084	-135.940	0.119	-0.014
-599.069	800.000	-0.087	0.311
-598.055	55.847	0.114	-0.111
-597.040	238.278	-0.116	-0.194
-596.025	329.206	-0.051	-0.098
-595.011	-58.404	-0.126	-0.055
-593.996	607.815	0.028	0.070
-592.982	-147.033	-0.156	0.013
-591.967	-59.304	-0.049	0.021
-590.952	-96.970	-0.186	-0.049
-589.938	-17.490	0.079	-0.050
-588.923	-76.873	-0.210	-0.074
-587.909	-121.869	-0.080	0.013
-586.894	121.011	-0.226	0.282
-585.879	93.679	-0.265	0.301
-584.865	44.313	-0.215	-0.198
-583.850	-200.000	-0.031	0.253
-582.836	150.634	-0.083	0.113
-581.821	367.753	0.049	-0.099
-580.806	-88.557	0.252	-0.075
-579.792	-111.744	0.112	0.023
-578.777	-169.466	0.252	0.009
-577.763	-200.000	-0.012	0.273
-576.748	-200.000	-0.006	-0.135
-575.733	158.184	-0.075	0.104
-574.719	-200.000	-0.057	-0.505
-573.704	-181.548	0.041	0.001
-572.690	-200.000	0.029	-0.192
-571.675	-200.000	-0.007	-0.289
-570.661	139.914	-0.133	0.176
-569.646	-122.949	-0.464	-0.075
-568.631	51.154	-0.249	0.237
-567.617	-70.113	0.348	-0.133
-566.602	-121.263	0.122	-0.020
-565.588	72.339	-0.378	0.395
-564.573	172.331	0.097	-0.140
-563.558	269.095	-0.166	0.292
-562.544	-101.537	-0.115	-0.028
-561.529	800.000	0.049	-0.212
-560.515	-9.615	0.320	-0.214
-559.500	-85.603	-0.124	-0.039
-558.485	161.164	-0.226	0.317
-557.471	800.000	0.033	-0.100
-556.456	61.226	-0.147	-0.146
-555.442	-200.000	0.002	-0.064
-554.427	59.405	-0.137	0.135
-553.412	-92.373	-0.154	-0.044
-552.398	-23.079	-0.303	-0.183
-551.383	166.891	-0.061	0.086
-550.369	-76.096	0.022	-0.008
-549.354	6.045	-0.091	0.068
-548.339	347.944	-0.111	-0.220
-547.325	800.000	0.088	-0.257
-546.310	98.467	-0.335	-0.387
-545.296	-12.494	-0.165	0.108
-544.281	-77.899	-0.227	-0.079
-543.266	-200.000	-0.005	-0.055
-542.252	8.737	0.108	0.082
-541.237	34.874	-0.191	-0.167
-540.223	18.275	-0.233	-0.186
-539.208	-111.409	0.297	0.061
-538.193	-66.806	-0.227	-0.090
-537.179	-59.554	-0.088	0.038
-536.164	800.000	0.049	-0.182
-535.150	-141.102	0.050	-0.005
-534.135	-12.378	-0.177	-0.116
-533.121	-123.021	-0.481	-0.077
-532.106	-46.690	0.235	0.115
-531.091	68.641	0.047	-0.049
-530.077	21.263	0.334	0.272
-529.062	-127.710	0.113	0.016
-528.048	-167.308	-0.296	-0.012
-527.033	-200.000	-0.017	0.303
-526.018	800.000	-0.060	-0.230
-525.004	-200.000	-0.042	-0.269
-523.989	42.041	0.052	-0.047
-522.975	-200.000	-0.009	-0.318
-521.960	-94.972	-0.148	-0.040
-520.945	-50.027	-0.184	-0.087
-519.931	-63.833	-0.275	-0.113
-518.916	-151.049	-0.066	0.005
-517.902	139.415	0.144	-0.190
-516.887	-200.000	-0.027	-0.243
-515.872	202.671	-0.116	-0.179
-514.858	192.168	-0.117	-0.176
-513.843	47.669	0.186	-0.174
-512.829	366.544	-0.087	-0.175
-511.814	-138.046	0.286	-0.032
-510.799	-86.096	0.305	0.094
-509.785	284.685	0.065	0.118
-508.770	65.998	-0.178	0.180
-507.756	762.564	-0.038	0.104
-506.741	29.191	-0.150	0.128
-505.726	-200.000	0.029	-0.298
-504.712	-130.540	-0.229	0.031
-503.697	73.896	0.141	0.148
-502.683	47.279	0.135	-0.126
-501.668	-200.000	-0.018	-0.126
-500.653	114.704	0.081	0.098
-499.639	28.467	-0.212	-0.180
-498.624	-118.102	-0.355	-0.063
-497.610	1.527	-0.292	0.210
-496.595	-54.172	0.129	0.059
-495.581	47.848	0.218	-0.203
-494.566	181.601	-0.148	-0.218
-493.551	800.000	0.048	-0.191
-492.537	102.999	0.287	-0.336
-491.522	92.440	0.100	0.112
-490.508	111.145	-0.181	-0.218
-489.493	-93.785	0.196	0.054
-488.478	496.632	-0.047	-0.107
-487.464	-69.369	-0.225	-0.086
-486.449	-66.114	0.202	-0.080
-485.435	46.358	0.122	0.113
-484.420	-178.548	0.196	-0.005
-483.405	-29.178	0.035	0.020
-482.391	-151.340	0.319	-0.024
-481.376	481.732	0.084	-0.190
-480.362	800.000	-0.031	0.096
-479.347	76.739	0.098	0.104
-478.332	-50.703	0.279	-0.131
-477.318	-60.281	0.153	-0.065
-476.303	-115.480	-0.144	0.027
-475.289	137.530	0.200	0.261
-474.274	-101.014	0.108	0.027
-473.259	-73.906	-0.093	-0.034
-472.245	-50.407	0.239	-0.113
-471.230	346.701	-0.139	-0.272
-470.216	-103.468	0.140	-0.033
-469.201	7.892	0.035	0.026
-468.186	-44.096	-0.437	-0.219
-467.172	-87.976	0.174	-0.052
-466.157	217.509	-0.150	-0.238
-465.143	800.000	0.052	-0.214
-464.128	388.317	0.149	0.309
-463.113	75.488	-0.210	-0.221
-462.099	317.311	0.051	-0.096
-461.084	800.000	0.030	0.116
-460.070	800.000	-0.084	0.275
-459.055	800.000	0.068	-0.198
-458.040	-102.976	-0.074	-0.017
-457.026	63.116	0.045	-0.045
-456.011	433.463	-0.095	-0.207
-454.997	-118.458	-0.334	0.059
-453.982	-115.464	0.206	-0.039
-452.968	38.782	0.079	-0.071
-451.953	-74.745	0.160	0.057
-450.938	-184.841	-0.193	-0.003
-449.924	448.339	0.069	-0.152
-448.909	800.000	-0.039	0.114
-447.895	-152.458	-0.148	0.011
-446.880	69.244	-0.232	-0.238
-445.865	-105.512	0.129	-0.029
-444.851	-200.000	0.041	0.192
-443.836	54.643	-0.268	0.258
-442.822	-200.000	0.275	-0.000
-441.807	-200.000	0.025	0.332
-440.792	-123.515	-0.262	0.042
-439.778	-200.000	-0.017	0.338
-438.763	0.318	-0.080	0.057
-437.749	41.932	0.108	-0.098
-436.734	800.000	-0.098	0.278
-435.719	800.000	0.079	-0.231
-434.705	164.050	0.065	-0.092
-433.690	-59.300	0.293	-0.126
-432.676	34.705	0.514	0.449
-431.661	-200.000	0.026	-0.132
-430.646	-200.000	0.035	0.194
-429.632	-4.419	-0.059	-0.040
-428.617	-200.000	0.089	-0.397
-427.603	-9.796	-0.243	0.161
-426.588	-123.682	-0.506	-0.080
-425.573	-149.793	0.114	0.009
-424.559	800.000	0.037	0.139
-423.544	-200.000	-0.025	0.211
-422.530	-60.183	0.281	0.120
-421.515	-66.776	0.037	0.014
-420.500	156.791	0.131	0.180
-419.486	-74.165	0.189	0.068
-418.471	-26.113	-0.351	0.206
-417.457	800.000	0.055	0.237
-416.442	800.000	0.049	0.202
-415.428	166.870	0.015	0.022
-414.413	414.872	-0.035	-0.075
-413.398	800.000	-0.065	-0.254
-412.384	-17.066	0.038	0.024
-411.369	-106.079	0.228	-0.051
-410.355	-157.852	0.202	-0.012
-409.340	800.000	-0.030	-0.100
-408.325	-200.000	-0.326	-0.000
-407.311	459.994	0.103	-0.228
-406.296	35.182	-0.203	-0.177
-405.282	231.003	0.069	-0.112
-404.267	-8.226	-0.089	-0.060
-403.252	-2.132	0.163	0.114
-402.238	-91.953	0.230	0.065
-401.223	30.722	-0.319	0.273
-400.209	431.470	-0.065	0.139
-399.194	-136.159	-0.451	-0.053
-398.179	-88.969	0.325	0.096
-397.165	120.399	0.238	-0.295
-396.150	315.363	-0.040	-0.075
-395.136	327.560	-0.073	-0.140
-394.121	-163.304	-0.057	0.003
-393.106	92.222	-0.105	-0.117
-392.092	-154.349	0.375	0.025
-391.077	282.995	0.085	0.152
-390.063	76.533	0.220	-0.232
-389.048	50.237	0.302	0.284
-388.033	691.430	-0.052	0.135
-387.019	-104.545	-0.372	-0.086
-386.004	296.759	-0.055	-0.101
-384.990	-200.000	0.051	0.282
-383.975	-200.000	0.044	0.222
-382.960	-200.000	-0.008	-0.287
-381.946	-200.000	-0.003	0.228
-380.931	-66.248	0.199	-0.079
-379.917	800.000	0.038	-0.129
-378.902	171.071	0.066	-0.094
-377.888	390.416	-0.042	0.086
-376.873	180.911	0.153	-0.223
-375.858	800.000	-0.134	-0.507
-374.844	-23.760	0.311	0.186
-373.829	141.502	-0.247	0.325
-372.815	-164.501	0.224	0.010
-371.800	800.000	-0.093	-0.314
-370.785	-9.314	-0.195	-0.130
-369.771	7.436	-0.179	-0.133
-368.756	-200.000	0.013	-0.230
-367.742	-53.327	-0.074	0.034
-366.727	-200.000	-0.014	0.220
-365.712	-0.392	-0.158	0.112
-364.698	-95.363	0.181	0.049
-363.683	800.000	0.116	0.493
-362.669	800.000	-0.055	-0.235
-361.654	800.000	-0.117	-0.443
-360.639	-192.082	0.347	0.003
-359.625	242.568	0.022	-0.036
-358.610	545.427	0.119	0.283
-357.596	77.195	-0.206	0.218
-356.581	-53.487	-0.131	-0.060
-355.566	-88.905	0.337	0.100
-354.552	-47.605	-0.113	-0.054
-353.537	-36.756	0.361	-0.193
-352.523	313.277	0.039	0.073
-351.508	207.370	-0.141	-0.219
-350.493	-95.057	0.162	0.044
-349.479	350.015	-0.237	-0.466
-348.464	-107.315	-0.068	0.015
-347.450	-200.000	0.020	-0.128
-346.435	142.194	-0.098	0.129
-345.420	-159.898	0.091	0.005
-344.406	-41.088	-0.163	0.084
-343.391	95.218	0.093	0.105
-342.377	-200.000	0.038	0.244
-341.362	51.337	0.055	-0.052
-340.348	-59.464	0.174	0.074
-339.333	-40.989	0.413	0.212
-338.318	-10.738	-0.150	0.099
-337.304	424.416	0.086	0.184
-336.289	-90.532	-0.376	0.108
-335.275	-143.152	-0.145	-0.014
-334.260	800.000	0.052	0.173
-333.245	-140.362	0.491	-0.051
-332.231	39.254	0.089	0.079
-331.216	7.720	0.178	-0.132
-330.202	800.000	-0.129	-0.359
-329.187	-200.000	0.014	0.091
-328.172	22.492	-0.370	0.300
-327.158	20.056	0.125	-0.100
-326.143	-200.000	-0.012	-0.155
-325.129	94.375	0.074	0.083
-324.114	-125.419	0.224	0.034
-323.099	800.000	-0.062	0.210
-322.085	-23.208	-0.241	0.144
-321.070	-200.000	0.103	-0.491
-320.056	-200.000	0.039	0.180
-319.041	-200.000	0.073	0.323
-318.026	-200.000	0.067	0.370
-317.012	221.900	0.088	0.140
-315.997	-72.956	0.450	-0.164
-314.983	-109.283	-0.177	-0.037
-313.968	-200.000	-0.018	0.324
-312.953	314.048	-0.155	-0.289
-311.939	-139.109	0.163	0.018
-310.924	-60.990	-0.142	-0.060
-309.910	-83.836	0.200	0.063
-308.895	639.645	-0.093	0.236
-307.880	800.000	-0.045	-0.144
-306.866	51.552	0.116	0.110
-305.851	337.598	0.066	-0.128
-304.837	800.000	0.026	-0.086
-303.822	800.000	-0.011	-0.049
-302.807	-200.000	0.007	-0.088
-301.793	-76.956	0.266	0.092
-300.778	163.463	0.104	0.146
-299.764	-0.320	0.143	-0.101
-298.749	-147.918	-0.257	-0.021
-297.735	57.534	-0.161	0.156
-296.720	-81.537	-0.151	0.049
-295.705	27.348	-0.115	0.096
-294.691	-200.000	0.018	-0.200
-293.676	-164.698	0.088	-0.004
-292.662	800.000	-0.063	0.232
-291.647	-114.878	-0.145	0.027
-290.632	270.477	-0.079	-0.138
-289.618	-83.154	-0.359	0.114
-288.603	-83.979	0.113	-0.036
-287.589	800.000	-0.059	0.208
-286.574	86.461	-0.121	0.133
-285.559	63.268	0.064	0.064
-284.545	-117.665	-0.187	-0.033
-283.530	183.976	0.174	-0.255
-282.516	-92.687	-0.309	0.086
-281.501	117.337	0.274	-0.334
-280.486	-14.374	-0.133	-0.085
-279.472	-200.000	0.048	-0.234
-278.457	59.003	0.249	0.243
-277.443	-85.409	-0.137	0.042
-276.428	63.444	0.256	-0.255
-275.413	-112.201	-0.137	0.027
-274.399	679.710	0.141	0.364
-273.384	-200.000	0.007	-0.153
-272.370	319.358	-0.159	0.300
-271.355	-200.000	0.003	0.012
-270.340	800.000	-0.058	0.213
-269.326	47.514	0.095	0.088
-268.311	-200.000	-0.007	-0.047
-267.297	800.000	-0.037	-0.110
-266.282	-110.789	0.353	-0.072
-265.267	-141.809	-0.113	0.011
-264.253	-200.000	-0.007	0.301
-263.238	94.707	0.151	0.170
-262.224	-200.000	0.018	0.130
-261.209	633.196	0.049	0.124
-260.195	149.491	0.106	0.142
-259.180	50.665	0.350	-0.328
-258.165	-200.000	-0.022	-0.241
-257.151	-134.063	-0.150	0.018
-256.136	-23.210	0.154	-0.092
-255.122	46.871	-0.187	0.172
-254.107	-23.588	0.286	0.170
-253.092	800.000	-0.166	0.536
-252.078	800.000	-0.045	0.157
-251.063	-41.959	0.395	0.200
-250.049	126.545	-0.223	-0.279
-249.034	-54.424	-0.031	-0.014
-248.019	11.728	-0.032	0.024
-247.005	391.235	-0.194	0.398
-245.990	96.724	0.191	0.217
-244.976	-65.665	0.116	0.046
-243.961	-118.422	-0.075	-0.013
-242.946	31.079	0.121	-0.103
-241.932	-66.771	0.125	0.049
-240.917	21.235	-0.262	-0.210
-239.903	16.298	0.180	-0.140
-238.888	-69.802	0.131	0.049
-237.873	-200.000	-0.012	0.120
-236.859	-143.931	-0.077	-0.007
-235.844	4.926	-0.094	-0.069
-234.830	800.000	0.023	-0.089
-233.815	-36.312	0.104	0.055
-232.800	800.000	0.099	-0.294
-231.786	-45.492	-0.237	-0.116
-230.771	151.401	-0.182	0.245
-229.757	-6.355	0.156	0.105
-228.742	183.570	0.134	-0.196
-227.727	-80.356	-0.305	0.101
-226.713	-129.630	-0.177	-0.024
-225.698	18.394	-0.216	0.171
-224.684	-200.000	-0.007	0.055
-223.669	89.249	0.028	-0.030
-222.655	-200.000	0.038	-0.188
-221.640	287.902	0.123	-0.220
-220.625	-171.869	0.167	0.005
-219.611	416.895	-0.074	0.157
-218.596	-81.013	0.061	-0.020
-217.582	-159.277	0.233	0.013
-216.567	-88.129	0.276	-0.082
-215.552	-183.097	0.045	0.001
-214.538	16.959	0.171	0.134
-213.523	93.978	0.091	0.102
-212.509	221.316	0.095	0.150
-211.494	-23.871	-0.131	0.077
-210.479	800.000	-0.057	0.187
-209.465	-200.000	0.017	-0.108
-208.450	-109.420	-0.092	0.019
-207.436	-117.541	-0.181	0.032
-206.421	-172.135	0.314	-0.010
-205.406	126.765	-0.173	0.216
-204.392	-200.000	-0.072	-0.347
-203.377	314.492	0.129	0.240
-202.363	261.539	0.196	-0.335
-201.348	-200.000	-0.030	-0.250
-200.333	341.309	-0.024	-0.046
-199.319	-200.000	-0.000	0.118
-198.304	-76.700	0.342	-0.118
-197.290	133.830	0.169	-0.216
-196.275	-71.455	-0.406	-0.150
-195.260	191.401	-0.240	-0.358
-194.246	149.295	0.228	0.305
-193.231	-200.000	0.048	0.266
-192.217	308.105	-0.142	0.262
-191.202	175.906	0.218	0.312
-190.187	199.768	0.109	0.166
-189.173	304.579	0.127	0.233
-188.158	199.786	-0.164	-0.249
-187.144	-200.000	-0.009	0.046
-186.129	-2.360	0.490	0.339
-185.114	95.062	0.269	0.302
-184.100	-9.582	0.291	-0.192
-183.085	354.766	0.023	0.046
-182.071	800.000	0.045	0.149
-181.056	-200.000	-0.037	-0.247
-180.042	-18.325	-0.125	-0.077
-179.027	-200.000	-0.054	0.364
-178.012	108.005	0.021	-0.024
-176.998	-41.264	-0.109	-0.056
-175.983	-93.096	0.382	-0.105
-174.969	214.143	0.081	-0.126
-173.954	514.975	0.012	-0.028
-172.939	-200.000	-0.018	0.189
-171.925	800.000	-0.091	-0.310
-170.910	-64.623	0.235	-0.094
-169.896	-200.000	-0.032	0.279
-168.881	-172.974	0.226	-0.007
-167.866	-200.000	-0.025	-0.112
-166.852	800.000	0.041	0.167
-165.837	-110.549	-0.142	0.029
-164.823	42.995	0.146	0.132
-163.808	-200.000	0.012	-0.356
-162.793	130.414	0.173	0.219
-161.779	66.729	0.090	-0.090
-160.764	27.464	-0.305	-0.254
-159.750	800.000	0.052	-0.143
-158.735	-80.292	0.220	-0.073
-157.720	-50.813	0.099	0.046
-156.706	-43.998	-0.203	0.101
-155.691	-126.933	0.057	-0.008
-154.677	-164.485	-0.131	-0.006
-153.662	-103.819	-0.343	-0.079
-152.647	-147.702	0.162	0.013
-151.633	-114.310	-0.245	0.047
-150.618	-55.376	0.187	0.083
-149.604	395.043	-0.134	0.275
-148.589	-183.463	-0.257	-0.004
-147.574	625.533	0.157	0.390
-146.560	-200.000	-0.032	0.205
-145.545	12.442	0.146	0.111
-144.531	-114.109	-0.083	0.016
-143.516	-200.000	-0.050	-0.224
-142.502	470.747	0.135	-0.299
-141.487	-144.100	-0.278	-0.026
-140.472	30.192	0.076	-0.064
-139.458	63.667	0.178	0.177
-138.443	-50.303	-0.219	0.102
-137.429	-103.657	-0.182	0.042
-136.414	-155.858	0.199	0.013
-135.399	-145.081	-0.336	-0.030
-134.385	-200.000	0.018	0.185
-133.370	218.312	0.169	0.266
-132.356	-168.873	-0.086	-0.003
-131.341	800.000	-0.050	-0.156
-130.326	-50.541	0.106	-0.049
-129.312	276.107	0.204	-0.358
-128.297	169.917	0.168	-0.237
-127.283	-54.667	0.450	0.200
-126.268	-200.000	-0.033	0.231
-125.253	-200.000	0.005	-0.028
-124.239	800.000	0.160	-0.484
-123.224	-200.000	-0.011	0.141
-122.210	-52.976	-0.197	-0.089
-121.195	800.000	-0.068	0.194
