DTS Sentinel unit serial number:	SN413079Multiplexer serial number:	ORYXHardware model number:	OX4-SRSoftware version number:	ORYX F/W v4.00 Oryx Data Collector v3.7.2.0data status	okinstallation	princeton_trtdifferential loss correction	single-endedforward channel	channel 4reverse channel	N/Adate	2019/09/17time	08:45:35forward acquisition time	60.00reverse acquisition time	0.00gamma	496.2192k internal	0.2317k external	0.2317temperature offset calibration	0.9981default loss term (dB/km)	0.3790temperature slope calibration	1.0000multiplexer offset coefficient	1.0000multiplexer slope coefficient	1.0000fibre end	0.00T internal ref (°C)	27.78T ext. ref 1 (°C)	0.13T ext. ref 2 (°C)	23.33length (m)	temperature (°C)	Stokes	anti-Stokes-747.200	177.671	-0.122	0.181
-746.185	-114.067	-0.022	-0.004
-745.171	-200.000	-0.011	-0.218
-744.156	-57.314	-0.320	-0.142
-743.142	349.888	0.095	0.190
-742.127	165.493	-0.107	0.153
-741.112	-200.000	0.005	0.041
-740.098	686.727	-0.081	0.215
-739.083	-132.419	0.329	0.043
-738.069	302.612	0.151	0.283
-737.054	96.130	0.065	-0.075
-736.039	641.095	-0.135	-0.347
-735.025	23.514	0.190	-0.158
-734.010	-68.864	-0.467	-0.182
-732.996	39.473	0.068	-0.061
-731.981	-200.000	0.008	-0.133
-730.966	301.488	0.085	-0.158
-729.952	14.353	0.402	-0.317
-728.937	248.016	-0.196	-0.335
-727.923	-92.006	0.157	-0.045
-726.908	-200.000	-0.049	-0.366
-725.894	2.947	-0.464	-0.341
-724.879	-100.936	0.196	-0.049
-723.864	500.668	-0.116	-0.271
-722.850	-55.110	-0.148	0.068
-721.835	84.555	0.110	0.122
-720.821	-62.748	0.098	0.041
-719.806	115.974	0.168	-0.208
-718.791	328.119	0.129	0.250
-717.777	800.000	0.044	0.165
-716.762	40.532	0.134	-0.122
-715.748	-107.009	-0.298	-0.067
-714.733	164.618	0.224	-0.320
-713.718	307.779	-0.088	-0.167
-712.704	-200.000	0.000	0.118
-711.689	146.791	-0.223	-0.304
-710.675	351.873	0.083	-0.166
-709.660	232.357	-0.023	0.039
-708.645	-67.142	0.342	-0.136
-707.631	-200.000	0.008	0.292
-706.616	19.279	0.030	-0.024
-705.602	171.806	-0.072	-0.105
-704.587	20.869	0.229	0.187
-703.572	169.218	-0.028	-0.040
-702.558	-200.000	0.013	0.224
-701.543	304.920	0.141	-0.265
-700.529	292.486	-0.155	0.286
-699.514	-141.333	-0.250	-0.026
-698.499	-49.866	-0.315	-0.151
-697.485	-99.645	0.187	-0.047
-696.470	-200.000	-0.006	-0.039
-695.456	21.019	-0.309	-0.253
-694.441	72.866	-0.073	-0.077
-693.426	-149.347	0.245	-0.020
-692.412	448.608	-0.111	-0.248
-691.397	183.087	0.181	-0.270
-690.383	-200.000	0.000	0.041
-689.368	-33.540	-0.154	0.086
-688.354	-200.000	0.000	-0.093
-687.339	203.920	-0.038	0.059
-686.324	-200.000	0.012	0.162
-685.310	570.821	-0.097	0.238
-684.295	-20.344	-0.404	-0.251
-683.281	800.000	-0.103	-0.376
-682.266	800.000	0.072	0.228
-681.251	32.338	-0.134	-0.117
-680.237	-47.473	0.036	-0.018
-679.222	-119.513	0.168	-0.029
-678.208	-109.552	0.410	-0.087
-677.193	-15.569	0.177	-0.114
-676.178	-134.212	0.247	-0.031
-675.164	0.425	0.112	0.081
-674.149	41.255	0.276	-0.252
-673.135	87.917	-0.086	0.097
-672.120	790.839	-0.030	0.084
-671.105	-115.513	0.121	-0.023
-670.091	111.826	0.187	-0.228
-669.076	56.259	-0.095	0.093
-668.062	-109.816	-0.188	-0.040
-667.047	-90.876	0.388	-0.113
-666.032	-200.000	-0.050	0.224
-665.018	595.540	0.061	-0.153
-664.003	-200.000	-0.007	-0.203
-662.989	190.105	-0.023	0.035
-661.974	-99.250	-0.179	-0.046
-660.959	-84.973	-0.228	-0.072
-659.945	-125.137	-0.053	0.008
-658.930	800.000	0.096	0.350
-657.916	0.866	-0.151	-0.109
-656.901	-141.048	-0.154	0.016
-655.886	71.823	0.079	0.082
-654.872	-105.602	0.306	-0.070
-653.857	-55.571	-0.264	-0.120
-652.843	-89.267	-0.091	-0.027
-651.828	39.450	-0.284	0.257
-650.814	-98.388	0.110	0.028
-649.799	345.534	-0.132	-0.262
-648.784	-153.693	0.148	0.010
-647.770	800.000	-0.046	0.151
-646.755	219.836	-0.184	-0.297
-645.741	194.996	0.134	-0.204
-644.726	-200.000	0.000	0.003
-643.711	-112.757	-0.077	-0.015
-642.697	-200.000	-0.005	-0.215
-641.682	22.868	0.047	-0.039
-640.668	-65.657	-0.389	0.157
-639.653	-200.000	0.018	0.283
-638.638	32.441	0.188	0.164
-637.624	-200.000	-0.214	-0.000
-636.609	-200.000	0.033	-0.208
-635.595	165.811	-0.051	-0.073
-634.580	-22.317	-0.119	0.073
-633.565	-117.845	-0.098	0.018
-632.551	49.521	0.225	0.213
-631.536	-200.000	0.004	-0.077
-630.522	258.082	-0.096	-0.166
-629.507	-71.461	0.229	0.087
-628.492	-200.000	0.023	0.272
-627.478	545.028	-0.261	-0.628
-626.463	51.386	0.241	-0.230
-625.449	-12.728	-0.049	-0.032
-624.434	-200.000	-0.024	0.158
-623.419	800.000	-0.014	-0.046
-622.405	154.135	0.095	0.132
-621.390	0.431	-0.111	0.080
-620.376	268.113	0.035	-0.061
-619.361	-119.930	-0.117	0.020
-618.346	-200.000	-0.018	0.497
-617.332	46.001	0.194	-0.181
-616.317	569.222	0.120	0.294
-615.303	10.373	0.090	0.069
-614.288	183.185	-0.081	0.120
-613.273	-200.000	0.023	-0.158
-612.259	-200.000	-0.067	-0.489
-611.244	190.615	0.291	-0.440
-610.230	303.673	0.087	0.162
-609.215	-44.413	-0.022	-0.011
-608.201	186.648	0.158	-0.237
-607.186	-46.413	-0.242	-0.120
-606.171	-19.586	0.273	0.170
-605.157	27.183	-0.202	0.171
-604.142	-200.000	0.000	-0.191
-603.128	78.157	0.266	-0.286
-602.113	280.102	0.074	0.134
-601.098	70.733	-0.140	0.146
-600.084	-200.000	0.030	-0.459
-599.069	-200.000	0.010	-0.138
-598.055	-200.000	0.038	-0.285
-597.040	63.714	0.255	0.258
-596.025	97.255	0.026	-0.030
-595.011	68.518	0.122	-0.126
-593.996	800.000	-0.032	-0.130
-592.982	57.835	-0.101	0.099
-591.967	226.690	0.072	0.117
-590.952	449.228	0.166	0.369
-589.938	-11.460	0.045	-0.030
-588.923	-200.000	0.021	-0.135
-587.909	122.845	0.028	-0.036
-586.894	-200.000	-0.029	0.299
-585.879	-131.578	0.196	-0.026
-584.865	176.787	-0.190	0.277
-583.850	-200.000	0.068	0.332
-582.836	-200.000	-0.040	0.222
-581.821	-40.919	-0.257	-0.134
-580.806	-101.797	-0.126	0.031
-579.792	-186.435	0.431	-0.006
-578.777	-200.000	-0.048	-0.289
-577.763	-200.000	0.014	-0.178
-576.748	227.431	-0.080	-0.130
-575.733	-200.000	0.011	-0.368
-574.719	-200.000	-0.027	0.308
-573.704	110.559	0.207	-0.250
-572.690	-8.792	0.147	0.099
-571.675	-141.607	-0.162	-0.016
-570.661	-200.000	-0.025	-0.141
-569.646	17.338	-0.163	-0.130
-568.631	225.326	-0.095	-0.155
-567.617	593.769	-0.126	-0.313
-566.602	500.630	-0.136	0.315
-565.588	77.529	0.128	-0.137
-564.573	-200.000	-0.003	-0.041
-563.558	689.363	0.009	-0.023
-562.544	188.327	0.205	-0.308
-561.529	-89.784	-0.371	0.109
-560.515	-1.648	0.368	0.260
-559.500	-101.631	0.309	-0.075
-558.485	-200.000	-0.005	0.256
-557.471	-159.096	-0.319	0.018
-556.456	-123.622	-0.080	0.013
-555.442	169.425	-0.212	-0.304
-554.427	-2.490	-0.278	-0.196
-553.412	-41.636	-0.376	0.194
-552.398	-200.000	0.003	0.164
-551.383	-107.150	0.157	0.035
-550.369	62.382	-0.045	-0.046
-549.354	-27.015	0.126	0.074
-548.339	-200.000	-0.009	0.280
-547.325	-200.000	0.040	0.327
-546.310	-39.147	0.295	0.156
-545.296	64.805	-0.254	0.257
-544.281	-111.860	0.121	-0.024
-543.266	-57.519	-0.120	0.053
-542.252	279.564	-0.155	0.277
-541.237	-102.027	0.061	-0.015
-540.223	250.317	0.071	-0.121
-539.208	53.002	-0.154	0.148
-538.193	-81.664	0.194	0.064
-537.179	8.508	-0.079	-0.060
-536.164	-78.319	-0.159	-0.055
-535.150	-200.000	0.001	-0.285
-534.135	121.498	0.162	-0.203
-533.121	154.386	0.218	0.300
-532.106	43.973	0.150	0.138
-531.091	61.349	-0.115	-0.115
-530.077	585.226	-0.083	0.206
-529.062	326.968	-0.115	0.221
-528.048	54.765	-0.129	0.125
-527.033	-199.145	0.218	-0.001
-526.018	326.135	0.007	0.014
-525.004	-5.847	-0.127	-0.087
-523.989	159.486	0.211	-0.295
-522.975	-96.795	-0.139	0.037
-521.960	-159.381	-0.230	-0.013
-520.945	-42.646	0.141	0.072
-519.931	199.990	0.115	-0.177
-518.916	-200.000	-0.031	-0.187
-517.902	-64.673	-0.219	-0.089
-516.887	-81.377	0.162	-0.054
-515.872	98.678	-0.187	-0.217
-514.858	40.446	-0.288	-0.260
-513.843	-200.000	-0.044	-0.199
-512.829	122.875	0.059	-0.074
-511.814	-144.742	0.104	0.010
-510.799	-200.000	-0.022	-0.113
-509.785	800.000	-0.021	-0.085
-508.770	34.816	-0.137	0.120
-507.756	-22.435	0.464	0.282
-506.741	-78.379	-0.150	-0.052
-505.726	-200.000	0.055	-0.296
-504.712	-9.527	0.109	0.073
-503.697	84.033	-0.077	0.084
-502.683	-87.626	0.176	0.053
-501.668	800.000	0.018	-0.054
-500.653	-200.000	-0.028	-0.131
-499.639	-156.764	0.355	-0.022
-498.624	-49.511	-0.142	-0.068
-497.610	180.082	0.103	0.152
-496.595	7.351	-0.237	0.178
-495.581	-43.790	0.134	0.068
-494.566	-200.000	-0.036	0.382
-493.551	-200.000	-0.014	0.186
-492.537	-164.296	0.171	0.008
-491.522	33.067	-0.198	0.172
-490.508	-200.000	-0.038	0.221
-489.493	-61.541	0.125	0.053
-488.478	-147.864	0.315	-0.026
-487.464	329.175	0.100	-0.193
-486.449	-103.661	-0.079	-0.019
-485.435	135.722	-0.107	-0.140
-484.420	-159.966	-0.252	0.014
-483.405	-200.000	-0.036	-0.383
-482.391	-85.544	-0.179	0.056
-481.376	-124.992	0.395	0.061
-480.362	55.215	0.098	-0.095
-479.347	90.899	-0.176	0.198
-478.332	-73.680	0.100	0.036
-477.318	-123.964	-0.138	-0.022
-476.303	72.313	0.283	0.295
-475.289	-29.744	-0.314	0.180
-474.274	-74.487	-0.341	0.123
-473.259	41.335	0.179	-0.162
-472.245	800.000	0.014	0.057
-471.230	123.180	-0.188	-0.236
-470.216	321.018	-0.174	-0.332
-469.201	-96.929	-0.303	-0.080
-468.186	-76.616	-0.103	0.036
-467.172	260.838	0.091	0.157
-466.157	-200.000	0.009	-0.180
-465.143	270.001	0.124	-0.218
-464.128	-78.463	0.297	-0.102
-463.113	-200.000	0.002	0.073
-462.099	96.833	-0.090	-0.103
-461.084	-2.875	-0.188	-0.132
-460.070	292.107	0.144	0.263
-459.055	131.131	0.144	-0.186
-458.040	305.094	-0.174	0.324
-457.026	294.438	-0.038	0.069
-456.011	340.522	0.145	0.283
-454.997	-58.967	-0.127	0.055
-453.982	94.454	-0.139	0.158
-452.968	-60.788	0.177	-0.075
-451.953	-45.517	-0.171	-0.085
-450.938	100.508	-0.271	-0.314
-449.924	-17.750	-0.347	-0.218
-448.909	55.068	0.166	0.160
-447.895	-77.135	0.212	-0.074
-446.880	31.126	0.293	-0.251
-445.865	-125.544	0.370	0.056
-444.851	252.148	-0.106	0.180
-443.836	401.635	-0.105	0.221
-442.822	-195.707	-0.201	0.001
-441.807	-92.085	-0.313	0.089
-440.792	-200.000	-0.054	-0.350
-439.778	800.000	-0.118	-0.335
-438.763	-76.512	-0.197	-0.069
-437.749	-94.795	-0.264	-0.072
-436.734	-27.410	-0.022	0.013
-435.719	-161.703	-0.163	0.008
-434.705	-37.901	0.523	0.278
-433.690	158.198	0.058	-0.080
-432.676	-44.371	0.237	0.119
-431.661	-200.000	-0.052	-0.245
-430.646	-92.606	0.341	0.096
-429.632	-79.938	0.004	-0.001
-428.617	208.292	-0.109	0.171
-427.603	-200.000	-0.052	0.270
-426.588	-59.819	-0.278	0.119
-425.573	-19.795	0.079	0.049
-424.559	-200.000	0.053	0.297
-423.544	800.000	-0.074	0.275
-422.530	282.997	-0.068	0.121
-421.515	-200.000	0.017	0.150
-420.500	-8.334	-0.194	0.131
-419.486	170.337	-0.196	0.280
-418.471	-89.673	-0.093	-0.027
-417.457	800.000	-0.093	0.286
-416.442	-2.931	-0.142	0.099
-415.428	800.000	-0.197	0.583
-414.413	-110.183	-0.171	0.036
-413.398	-200.000	-0.051	0.222
-412.384	-200.000	0.010	-0.149
-411.369	85.562	-0.087	-0.095
-410.355	-149.193	0.180	-0.014
-409.340	57.662	-0.093	0.090
-408.325	-104.451	0.263	-0.061
-407.311	17.070	-0.149	-0.118
-406.296	75.849	0.217	-0.229
-405.282	-67.951	-0.116	-0.045
-404.267	104.862	-0.231	0.272
-403.252	168.047	-0.037	-0.053
-402.238	28.173	0.272	0.229
-401.223	75.481	0.203	-0.214
-400.209	-200.000	0.014	-0.187
-399.194	66.001	0.072	-0.073
-398.179	-178.077	0.208	-0.005
-397.165	132.581	0.069	-0.089
-396.150	175.173	0.133	0.193
-395.136	89.057	0.109	0.122
-394.121	800.000	-0.089	-0.318
-393.106	-86.297	-0.410	0.126
-392.092	-21.116	-0.159	-0.097
-391.077	800.000	-0.105	0.297
-390.063	-200.000	-0.007	-0.046
-389.048	-200.000	0.067	0.298
-388.033	487.065	0.030	-0.069
-387.019	347.468	-0.212	-0.418
-386.004	567.067	0.169	0.409
-384.990	52.130	-0.276	-0.263
-383.975	-118.939	-0.160	-0.028
-382.960	168.917	0.153	0.219
-381.946	34.959	-0.102	-0.089
-380.931	-6.622	0.258	-0.176
-379.917	293.642	-0.085	0.154
-378.902	337.703	-0.225	0.437
-377.888	-200.000	-0.055	-0.248
-376.873	-73.269	0.049	0.018
-375.858	161.794	0.071	-0.100
-374.844	145.764	-0.224	-0.300
-373.829	-200.000	-0.025	0.225
-372.815	376.305	-0.127	0.258
-371.800	569.512	0.058	-0.141
-370.785	-30.440	0.409	-0.231
-369.771	23.350	-0.198	-0.162
-368.756	314.220	0.060	0.112
-367.742	253.592	-0.169	-0.288
-366.727	-74.193	0.055	0.020
-365.712	433.859	-0.082	0.178
-364.698	-129.722	-0.388	0.053
-363.683	800.000	0.088	-0.254
-362.669	800.000	0.051	-0.171
-361.654	563.839	-0.112	0.270
-360.639	-200.000	0.013	0.332
-359.625	-200.000	0.017	0.189
-358.610	-114.078	-0.197	0.038
-357.596	-75.925	-0.051	-0.018
-356.581	-66.336	-0.022	0.009
-355.566	-37.989	-0.138	-0.073
-354.552	-200.000	0.003	-0.151
-353.537	33.851	-0.050	-0.044
-352.523	-200.000	-0.051	0.278
-351.508	-5.978	0.152	0.104
-350.493	-200.000	-0.037	0.182
-349.479	154.190	-0.096	0.131
-348.464	302.821	0.091	0.168
-347.450	374.092	-0.125	0.253
-346.435	-21.592	-0.146	-0.089
-345.420	-200.000	0.013	-0.303
-344.406	-80.182	0.329	0.110
-343.391	614.558	0.067	-0.166
-342.377	396.966	-0.145	-0.303
-341.362	-200.000	-0.044	-0.292
-340.348	31.644	0.170	0.145
-339.333	-50.129	0.288	0.136
-338.318	-200.000	-0.004	0.023
-337.304	-200.000	-0.141	0.000
-336.289	-135.857	-0.253	-0.030
-335.275	58.193	0.092	-0.090
-334.260	-91.877	0.359	-0.102
-333.245	-200.000	-0.020	0.283
-332.231	15.413	-0.260	-0.203
-331.216	-118.687	-0.322	-0.057
-330.202	-40.335	-0.180	0.093
-329.187	-55.281	0.485	0.217
-328.172	51.156	0.263	-0.248
-327.158	268.083	-0.167	-0.291
-326.143	-200.000	-0.015	-0.250
-325.129	800.000	-0.154	-0.430
-324.114	-39.067	0.244	0.128
-323.099	-200.000	-0.004	-0.157
-322.085	131.947	-0.137	-0.176
-321.070	-2.909	-0.052	-0.036
-320.056	213.275	0.112	-0.176
-319.041	-58.933	-0.099	0.043
-318.026	-200.000	-0.032	0.361
-317.012	29.453	0.127	-0.107
-315.997	-98.494	-0.185	0.047
-314.983	-84.083	-0.163	0.052
-313.968	800.000	-0.059	-0.224
-312.953	718.221	0.061	-0.162
-311.939	-25.013	0.173	-0.102
-310.924	781.911	0.077	0.210
-309.910	217.403	-0.219	-0.348
-308.895	126.131	-0.216	-0.272
-307.880	-2.380	-0.106	-0.074
-306.866	-200.000	-0.009	-0.187
-305.851	-67.946	0.194	0.075
-304.837	112.760	0.107	0.129
-303.822	137.103	-0.050	-0.066
-302.807	-200.000	-0.004	-0.442
-301.793	313.747	-0.082	0.154
-300.778	800.000	0.051	0.141
-299.764	-200.000	-0.000	0.299
-298.749	-6.901	-0.340	0.230
-297.735	-79.732	-0.117	-0.039
-296.720	-43.382	-0.216	0.109
-295.705	-15.011	-0.183	0.117
-294.691	-200.000	0.004	0.211
-293.676	-200.000	-0.042	-0.219
-292.662	26.510	-0.230	-0.192
-291.647	-200.000	-0.042	0.193
-290.632	-157.825	0.233	0.014
-289.618	57.771	0.183	-0.178
-288.603	185.049	-0.115	0.169
-287.589	-22.222	-0.341	0.206
-286.574	-154.631	-0.132	0.009
-285.559	-8.180	0.239	-0.160
-284.545	-200.000	-0.038	0.188
-283.530	242.734	-0.129	0.215
-282.516	-25.288	0.183	-0.108
-281.501	-94.642	-0.232	-0.063
-280.486	-65.185	-0.384	-0.154
-279.472	135.222	-0.061	-0.078
-278.457	-200.000	0.019	-0.154
-277.443	-102.810	0.038	-0.009
-276.428	-20.926	-0.018	0.011
-275.413	-46.975	0.126	-0.061
-274.399	-18.384	0.087	-0.054
-273.384	-200.000	0.025	-0.171
-272.370	800.000	-0.020	-0.059
-271.355	-47.537	0.040	0.019
-270.340	-200.000	0.067	-0.418
-269.326	218.843	-0.149	-0.237
-268.311	800.000	0.050	0.183
-267.297	-22.123	0.276	-0.167
-266.282	800.000	-0.042	0.174
-265.267	-80.840	0.151	-0.050
-264.253	422.315	0.161	0.343
-263.238	-200.000	-0.005	-0.141
-262.224	429.954	-0.111	0.238
-261.209	-11.060	-0.230	-0.151
-260.195	-72.761	-0.421	0.154
-259.180	-120.900	-0.224	0.038
-258.165	177.346	0.046	-0.066
-257.151	-200.000	0.020	-0.120
-256.136	-178.374	-0.255	0.006
-255.122	-66.649	0.439	-0.173
-254.107	53.436	-0.165	-0.157
-253.092	-128.912	-0.221	-0.031
-252.078	166.539	-0.111	0.156
-251.063	3.839	0.182	-0.132
-250.049	57.725	-0.346	0.336
-249.034	-44.014	-0.310	0.155
-248.019	2.871	0.248	-0.179
-247.005	-200.000	-0.052	-0.274
-245.990	800.000	0.012	0.047
-244.976	47.337	-0.171	-0.158
-243.961	5.697	0.233	0.171
-242.946	-200.000	0.011	-0.096
-241.932	-53.768	0.267	-0.121
-240.917	55.356	-0.170	-0.164
-239.903	-125.617	-0.260	0.039
-238.888	-93.911	-0.099	-0.027
-237.873	-8.707	-0.068	0.045
-236.859	-174.198	0.400	-0.012
-235.844	-103.756	-0.158	-0.037
-234.830	6.648	0.087	-0.064
-233.815	-178.882	-0.219	-0.005
-232.800	800.000	0.042	0.152
-231.786	739.925	0.062	0.165
-230.771	248.738	-0.080	0.135
-229.757	-200.000	0.005	0.262
-228.742	-152.537	0.144	0.010
-227.727	323.151	0.145	0.274
-226.713	-5.975	-0.134	0.091
-225.698	800.000	-0.095	0.310
-224.684	-67.864	0.372	0.144
-223.669	-86.879	-0.289	-0.088
-222.655	-83.094	0.184	0.059
-221.640	-200.000	-0.020	0.290
-220.625	-37.572	0.238	0.126
-219.611	9.941	-0.221	-0.166
-218.596	55.007	0.185	0.177
-217.582	-122.540	-0.086	0.014
-216.567	-34.059	0.158	0.086
-215.552	-200.000	0.031	0.134
-214.538	53.023	0.121	-0.115
-213.523	-50.161	0.175	0.082
-212.509	89.686	0.081	-0.090
-211.494	-200.000	-0.001	-0.058
-210.479	-33.884	0.134	-0.073
-209.465	-111.519	0.273	0.055
-208.450	536.114	-0.124	0.291
-207.436	-167.899	0.110	0.004
-206.421	-78.515	0.331	-0.112
-205.406	399.557	-0.120	0.249
-204.392	800.000	0.052	0.181
-203.377	-29.204	0.188	-0.107
-202.363	62.807	0.113	0.112
-201.348	-158.494	0.328	0.019
-200.333	-78.219	-0.090	-0.031
-199.319	664.731	-0.109	-0.278
-198.304	-200.000	0.021	-0.188
-197.290	189.542	0.104	-0.155
-196.275	-200.000	-0.014	0.334
-195.260	-123.383	0.431	-0.068
-194.246	266.565	0.085	0.148
-193.231	-157.634	0.374	-0.022
-192.217	292.194	0.216	0.389
-191.202	457.699	-0.113	0.248
-190.187	-158.581	0.086	0.005
-189.173	306.174	0.023	-0.043
-188.158	800.000	0.074	-0.250
-187.144	1.335	0.235	-0.167
-186.129	96.246	0.101	0.115
-185.114	-15.584	0.129	-0.081
-184.100	-200.000	0.007	0.218
-183.085	-200.000	0.010	0.051
-182.071	32.292	-0.227	-0.194
-181.056	-200.000	-0.058	-0.276
-180.042	-154.139	-0.148	-0.010
-179.027	800.000	0.103	0.312
-178.012	-1.529	0.129	0.090
-176.998	551.384	-0.132	0.314
-175.983	-48.375	-0.316	-0.151
-174.969	345.864	0.029	-0.056
-173.954	67.337	0.138	-0.139
-172.939	-85.151	0.712	-0.221
-171.925	23.185	0.183	-0.149
-170.910	38.683	-0.053	-0.047
-169.896	40.244	-0.101	-0.090
-168.881	-121.066	-0.053	0.009
-167.866	-99.996	0.314	-0.078
-166.852	30.234	-0.034	-0.029
-165.837	274.063	-0.037	-0.065
-164.823	165.233	0.060	-0.085
-163.808	-36.203	0.135	-0.072
-162.793	17.165	0.206	-0.162
-161.779	204.860	-0.147	0.226
-160.764	800.000	0.016	-0.069
-159.750	-41.787	0.208	0.106
-158.735	182.434	-0.013	-0.019
-157.720	422.263	0.246	-0.523
-156.706	647.292	-0.191	0.482
-155.691	-100.808	0.488	0.119
-154.677	110.742	0.148	-0.176
-153.662	74.367	0.193	-0.200
-152.647	38.234	-0.162	-0.142
-151.633	-155.039	0.176	0.011
-150.618	800.000	0.052	0.191
-149.604	51.775	-0.064	0.060
-148.589	164.068	-0.169	-0.235
-147.574	771.070	-0.098	0.265
-146.560	-200.000	-0.105	0.541
-145.545	-200.000	0.045	-0.296
-144.531	-200.000	0.010	-0.119
-143.516	107.583	0.127	0.149
-142.502	-146.032	0.237	0.021
-141.487	-34.939	0.143	-0.077
-140.472	-54.730	-0.220	-0.098
-139.458	-146.633	-0.038	0.003
-138.443	800.000	0.032	0.101
-137.429	-200.000	0.028	-0.177
-136.414	-200.000	-0.028	-0.154
-135.399	32.811	-0.164	-0.140
-134.385	-200.000	0.028	0.285
-133.370	36.172	0.061	0.053
-132.356	14.294	0.263	0.203
-131.341	621.903	-0.028	-0.070
-130.326	-200.000	0.033	0.336
-129.312	-68.497	-0.106	0.040
-128.297	324.705	0.084	-0.159
-127.283	800.000	0.108	-0.372
-126.268	104.299	-0.086	-0.101
-125.253	-137.901	0.224	-0.025
-124.239	309.386	-0.086	-0.158
-123.224	-200.000	-0.002	0.109
-122.210	-82.788	-0.084	0.027
