DTS Sentinel unit serial number:	SN413079Multiplexer serial number:	ORYXHardware model number:	OX4-SRSoftware version number:	ORYX F/W v4.00 Oryx Data Collector v3.7.2.0data status	okinstallation	princeton_trtdifferential loss correction	single-endedforward channel	channel 4reverse channel	N/Adate	2019/09/17time	17:09:35forward acquisition time	60.00reverse acquisition time	0.00gamma	496.2192k internal	0.2280k external	0.2280temperature offset calibration	0.9979default loss term (dB/km)	0.3790temperature slope calibration	1.0000multiplexer offset coefficient	1.0000multiplexer slope coefficient	1.0000fibre end	0.00T internal ref (°C)	42.77T ext. ref 1 (°C)	0.35T ext. ref 2 (°C)	39.02length (m)	temperature (°C)	Stokes	anti-Stokes-747.200	-150.957	0.102	0.008
-746.185	118.538	-0.052	0.066
-745.171	25.162	0.149	0.127
-744.156	-200.000	0.002	0.183
-743.142	-20.652	0.050	-0.032
-742.127	-40.668	0.290	0.155
-741.112	-181.125	-0.104	0.002
-740.098	-115.345	-0.072	-0.014
-739.083	-109.484	-0.086	-0.019
-738.069	-84.510	0.277	0.090
-737.054	-92.796	-0.193	-0.056
-736.039	-132.243	0.200	0.027
-735.025	28.180	0.235	-0.204
-734.010	-85.325	0.286	-0.092
-732.996	348.807	-0.137	-0.278
-731.981	652.833	0.033	0.086
-730.966	-9.387	-0.147	0.101
-729.952	-200.000	-0.009	0.257
-728.937	12.589	-0.125	-0.099
-727.923	552.860	0.095	-0.235
-726.908	67.443	0.137	0.144
-725.894	279.886	-0.033	-0.060
-724.879	-94.664	-0.154	-0.043
-723.864	-140.690	0.381	0.040
-722.850	-45.004	0.110	-0.056
-721.835	-125.267	-0.242	-0.038
-720.821	-105.716	0.061	0.014
-719.806	296.100	0.151	-0.284
-718.791	280.036	-0.077	-0.142
-717.777	613.902	0.022	-0.058
-716.762	-200.000	0.023	-0.170
-715.748	19.103	-0.344	-0.284
-714.733	-133.347	-0.177	-0.023
-713.718	-79.884	-0.019	0.007
-712.704	6.605	0.193	-0.147
-711.689	-200.000	0.001	-0.213
-710.675	663.628	0.090	-0.238
-709.660	-200.000	-0.027	-0.235
-708.645	4.659	0.166	-0.125
-707.631	-200.000	-0.006	-0.065
-706.616	-181.051	-0.190	0.004
-705.602	-169.480	0.489	-0.018
-704.587	800.000	-0.057	-0.162
-703.572	-33.248	0.237	0.135
-702.558	-182.176	-0.043	-0.001
-701.543	305.122	-0.195	-0.373
-700.529	-160.763	-0.401	0.022
-699.514	32.044	-0.146	-0.129
-698.499	-53.373	-0.379	0.178
-697.485	599.593	0.031	0.079
-696.470	78.757	0.107	-0.117
-695.456	-132.529	0.031	0.004
-694.441	457.529	0.145	-0.331
-693.426	149.941	0.131	0.182
-692.412	-200.000	-0.053	-0.392
-691.397	32.127	-0.158	0.139
-690.383	-200.000	-0.005	0.141
-689.368	800.000	0.055	0.156
-688.354	-50.905	-0.325	0.157
-687.339	58.140	0.273	-0.274
-686.324	-89.636	0.418	-0.126
-685.310	-141.217	0.035	-0.004
-684.295	48.950	-0.028	0.027
-683.281	33.948	-0.153	0.137
-682.266	500.111	0.138	-0.327
-681.251	614.018	-0.103	-0.264
-680.237	-121.137	0.212	-0.036
-679.222	-50.109	-0.198	-0.096
-678.208	260.175	-0.108	-0.191
-677.193	27.977	0.096	0.083
-676.178	-48.937	-0.242	-0.119
-675.164	-200.000	-0.056	0.330
-674.149	-114.602	0.233	-0.046
-673.135	6.696	0.139	-0.106
-672.120	119.398	-0.180	-0.228
-671.105	7.935	-0.079	0.061
-670.091	-51.827	-0.242	-0.115
-669.076	61.343	-0.070	0.071
-668.062	296.854	0.074	0.139
-667.047	-170.925	0.249	-0.009
-666.032	-120.772	0.148	0.026
-665.018	-19.947	0.181	-0.115
-664.003	-137.397	-0.382	-0.044
-662.989	-25.551	0.234	0.142
-661.974	36.398	-0.186	0.168
-660.959	-13.397	-0.207	0.138
-659.945	-4.055	0.206	0.146
-658.930	-95.160	0.159	0.044
-657.916	312.255	-0.176	0.339
-656.901	-157.898	0.273	-0.017
-655.886	-108.983	0.428	0.094
-654.872	-126.391	0.136	-0.021
-653.857	92.051	-0.133	-0.153
-652.843	-56.619	0.311	-0.141
-651.828	-39.419	-0.056	0.030
-650.814	23.757	0.080	0.067
-649.799	-130.231	0.167	0.023
-648.784	-200.000	-0.002	0.011
-647.770	774.891	0.073	-0.205
-646.755	-56.431	-0.456	-0.207
-645.741	-139.772	0.048	0.005
-644.726	99.565	0.100	0.119
-643.711	72.310	-0.195	0.208
-642.697	-102.350	-0.527	0.130
-641.682	-200.000	-0.027	-0.193
-640.668	218.942	0.104	0.171
-639.653	-172.375	-0.329	-0.011
-638.638	-157.944	-0.372	-0.022
-637.624	107.724	0.161	-0.196
-636.609	-49.630	-0.188	0.092
-635.595	-59.407	-0.287	0.126
-634.580	800.000	-0.050	-0.155
-633.565	241.580	0.119	0.204
-632.551	2.487	-0.057	-0.042
-631.536	-63.652	0.398	-0.167
-630.522	326.424	-0.225	-0.441
-629.507	-70.806	0.481	0.186
-628.492	-15.124	0.295	0.194
-627.478	78.450	-0.035	-0.038
-626.463	-149.742	-0.258	0.021
-625.449	12.504	-0.109	0.086
-624.434	-200.000	-0.028	0.205
-623.419	-49.266	-0.177	-0.087
-622.405	-53.577	0.055	0.026
-621.390	612.078	-0.119	0.304
-620.376	83.949	-0.347	0.388
-619.361	96.051	0.125	-0.146
-618.346	-49.084	-0.171	-0.084
-617.332	-68.846	0.273	-0.108
-616.317	-86.811	0.227	0.071
-615.303	174.480	-0.026	-0.038
-614.288	764.162	-0.144	0.400
-613.273	119.441	-0.086	-0.108
-612.259	652.820	-0.132	-0.347
-611.244	-108.815	0.376	0.082
-610.230	44.655	0.098	0.092
-609.215	-22.996	-0.362	0.223
-608.201	800.000	-0.063	-0.255
-607.186	399.018	0.047	0.100
-606.171	-200.000	0.020	0.101
-605.157	64.014	0.055	-0.057
-604.142	42.574	-0.251	0.234
-603.128	-138.176	-0.379	-0.043
-602.113	54.892	0.034	0.034
-601.098	-177.836	0.153	0.004
-600.084	454.826	-0.068	-0.153
-599.069	298.276	0.068	-0.128
-598.055	800.000	-0.061	-0.217
-597.040	79.891	-0.039	0.043
-596.025	169.209	0.184	0.269
-595.011	10.882	0.168	-0.131
-593.996	-200.000	0.021	-0.102
-592.982	800.000	-0.052	0.219
-591.967	-200.000	0.009	0.182
-590.952	-200.000	0.071	-0.450
-589.938	800.000	-0.021	0.073
-588.923	128.979	-0.064	-0.084
-587.909	787.944	-0.117	-0.328
-586.894	-200.000	-0.042	-0.351
-585.879	-141.147	-0.225	-0.024
-584.865	-187.840	-0.428	-0.006
-583.850	800.000	0.102	0.293
-582.836	-121.334	-0.142	-0.024
-581.821	800.000	-0.102	-0.343
-580.806	-200.000	0.016	-0.112
-579.792	90.186	0.293	0.335
-578.777	-200.000	0.004	-0.037
-577.763	-105.069	0.359	0.084
-576.748	-134.713	0.292	-0.036
-575.733	-149.862	-0.582	0.047
-574.719	-195.646	0.328	0.002
-573.704	237.964	0.226	-0.384
-572.690	364.990	-0.012	0.025
-571.675	-200.000	0.052	0.349
-570.661	208.449	0.049	0.078
-569.646	290.924	0.252	-0.469
-568.631	800.000	-0.067	-0.216
-567.617	-156.970	-0.439	0.027
-566.602	63.432	0.124	-0.127
-565.588	280.277	-0.051	-0.094
-564.573	-200.000	0.021	-0.268
-563.558	-200.000	0.014	0.108
-562.544	393.523	-0.117	-0.249
-561.529	-28.681	0.070	-0.041
-560.515	-200.000	0.024	-0.227
-559.500	22.867	0.295	-0.247
-558.485	-173.803	0.232	0.007
-557.471	80.613	-0.081	-0.089
-556.456	-89.121	-0.116	0.035
-555.442	-200.000	-0.017	0.086
-554.427	116.568	0.077	0.096
-553.412	96.728	-0.302	0.353
-552.398	-16.402	0.069	-0.045
-551.383	16.478	0.157	0.127
-550.369	800.000	-0.031	-0.121
-549.354	-139.368	0.119	-0.013
-548.339	335.021	0.082	0.162
-547.325	390.576	0.060	0.128
-546.310	-196.778	-0.298	-0.002
-545.296	-20.124	0.243	0.153
-544.281	-107.842	0.368	-0.082
-543.266	102.623	0.176	-0.210
-542.252	-126.647	-0.260	-0.039
-541.237	77.082	0.083	0.090
-540.223	125.749	-0.158	-0.204
-539.208	-84.755	0.245	-0.079
-538.193	-200.000	-0.016	0.116
-537.179	103.365	0.073	0.087
-536.164	-200.000	-0.014	-0.197
-535.150	-128.042	0.303	-0.044
-534.135	-33.648	-0.044	0.025
-533.121	680.167	0.120	-0.318
-532.106	-121.954	-0.361	-0.061
-531.091	414.425	-0.027	-0.060
-530.077	800.000	0.085	-0.281
-529.062	-108.311	0.070	0.015
-528.048	-40.482	0.302	-0.160
-527.033	-77.088	-0.136	0.048
-526.018	-200.000	-0.052	0.261
-525.004	-200.000	-0.008	-0.357
-523.989	-73.610	-0.361	-0.134
-522.975	66.787	-0.131	-0.136
-521.960	198.472	-0.065	-0.102
-520.945	-84.410	0.342	-0.110
-519.931	-54.240	-0.199	-0.092
-518.916	-19.022	-0.026	0.017
-517.902	34.998	-0.019	-0.017
-516.887	29.459	0.135	0.117
-515.872	456.563	-0.054	0.123
-514.858	-22.109	0.137	-0.085
-513.843	301.199	0.113	0.212
-512.829	5.305	-0.106	-0.080
-511.814	-62.117	-0.129	0.055
-510.799	-156.773	0.114	0.007
-509.785	-188.375	-0.191	-0.002
-508.770	-142.866	0.095	-0.009
-507.756	69.950	-0.158	0.166
-506.741	144.310	0.245	-0.333
-505.726	164.099	-0.150	0.215
-504.712	-166.476	0.102	0.004
-503.697	-0.684	0.172	-0.124
-502.683	-90.309	0.251	-0.074
-501.668	43.797	0.238	0.222
-500.653	-90.622	-0.169	-0.050
-499.639	596.226	-0.068	0.171
-498.624	-48.578	0.316	0.155
-497.610	-107.139	0.215	-0.048
-496.595	41.495	-0.149	-0.137
-495.581	6.505	0.420	0.318
-494.566	433.465	-0.044	0.096
-493.551	-112.131	0.291	-0.060
-492.537	105.091	0.174	0.209
-491.522	-141.682	-0.312	-0.032
-490.508	-36.308	0.076	-0.042
-489.493	-99.474	0.234	0.060
-488.478	-157.512	-0.067	-0.004
-487.464	439.274	-0.099	-0.221
-486.449	-167.593	-0.194	0.008
-485.435	-148.808	-0.312	0.026
-484.420	77.162	0.167	-0.180
-483.405	-78.517	-0.322	-0.112
-482.391	648.931	-0.067	-0.174
-481.376	28.485	-0.101	-0.087
-480.362	-80.757	0.357	-0.121
-479.347	-128.000	-0.288	-0.042
-478.332	221.647	-0.130	0.213
-477.318	-112.340	-0.167	0.034
-476.303	-200.000	0.062	0.279
-475.289	-200.000	0.014	0.201
-474.274	125.939	-0.183	-0.235
-473.259	-200.000	-0.029	-0.421
-472.245	17.608	-0.195	0.158
-471.230	-200.000	0.023	-0.317
-470.216	-180.463	-0.027	-0.001
-469.201	-200.000	0.024	0.491
-468.186	319.411	-0.099	0.192
-467.172	235.102	-0.094	-0.158
-466.157	34.635	0.080	0.071
-465.143	125.736	0.101	-0.129
-464.128	800.000	-0.018	0.051
-463.113	-200.000	0.066	0.510
-462.099	800.000	0.148	-0.491
-461.084	800.000	0.017	0.059
-460.070	-43.166	-0.258	-0.133
-459.055	800.000	-0.036	0.122
-458.040	76.796	0.263	-0.284
-457.026	180.103	0.096	-0.144
-456.011	-200.000	0.014	0.287
-454.997	-175.980	-0.409	0.011
-453.982	-73.119	0.319	0.119
-452.968	-81.691	0.226	-0.076
-451.953	800.000	-0.043	0.152
-450.938	-125.701	0.020	0.003
-449.924	-200.000	-0.018	0.136
-448.909	59.070	0.160	0.160
-447.895	13.188	-0.144	0.113
-446.880	53.864	0.105	0.103
-445.865	-200.000	0.020	0.191
-444.851	189.158	0.117	0.179
-443.836	-200.000	0.024	-0.115
-442.822	420.522	0.101	-0.221
-441.807	12.040	-0.141	0.110
-440.792	144.730	0.080	-0.108
-439.778	491.663	0.077	0.179
-438.763	-73.972	0.026	0.010
-437.749	262.580	-0.221	0.390
-436.734	138.243	0.084	-0.111
-435.719	1.074	-0.147	0.107
-434.705	-165.249	-0.157	-0.007
-433.690	-190.776	0.182	0.002
-432.676	-152.038	-0.277	0.021
-431.661	-140.364	0.259	-0.028
-430.646	-152.801	-0.057	-0.004
-429.632	800.000	-0.158	0.457
-428.617	198.032	-0.078	0.121
-427.603	5.720	-0.330	0.248
-426.588	-200.000	-0.020	-0.428
-425.573	-113.841	-0.311	0.061
-424.559	800.000	-0.059	-0.234
-423.544	289.985	0.032	-0.059
-422.530	-31.758	-0.084	0.048
-421.515	-164.110	-0.202	0.010
-420.500	28.255	-0.318	0.273
-419.486	-20.183	0.040	-0.025
-418.471	777.199	0.151	-0.420
-417.457	-200.000	-0.019	-0.351
-416.442	-149.962	0.307	0.024
-415.428	144.789	-0.209	-0.283
-414.413	800.000	-0.046	0.136
-413.398	529.977	0.018	0.044
-412.384	559.701	-0.189	-0.464
-411.369	155.887	0.251	-0.351
-410.355	-200.000	-0.030	-0.216
-409.340	701.628	0.155	0.414
-408.325	-176.038	-0.350	0.009
-407.311	-92.330	-0.281	0.080
-406.296	-81.814	-0.138	0.046
-405.282	800.000	-0.064	0.261
-404.267	81.583	-0.032	-0.035
-403.252	-170.408	-0.108	-0.004
-402.238	-163.770	-0.244	-0.012
-401.223	-22.571	-0.234	-0.144
-400.209	-20.045	0.281	0.176
-399.194	-15.272	0.240	0.156
-398.179	303.509	0.086	0.162
-397.165	-200.000	-0.005	0.085
-396.150	-179.442	0.196	0.004
-395.136	-17.188	-0.160	-0.102
-394.121	205.061	-0.125	0.196
-393.106	-126.864	-0.138	-0.021
-392.092	800.000	-0.055	0.229
-391.077	15.393	0.149	0.119
-390.063	-85.967	-0.263	0.083
-389.048	-31.544	0.245	0.140
-388.033	-80.627	-0.106	-0.036
-387.019	-85.428	-0.185	0.059
-386.004	-15.182	0.029	0.019
-384.990	-136.942	0.270	0.031
-383.975	403.569	0.053	0.113
-382.960	800.000	-0.033	-0.139
-381.946	316.009	-0.097	0.186
-380.931	-74.311	0.120	0.044
-379.917	704.535	-0.154	-0.413
-378.902	-200.000	0.003	-0.318
-377.888	124.473	-0.122	-0.155
-376.873	-13.881	-0.240	-0.158
-375.858	-63.595	0.182	0.076
-374.844	-154.868	-0.178	0.012
-373.829	-200.000	0.011	-0.247
-372.815	30.558	0.222	0.192
-371.800	-160.399	0.336	-0.018
-370.785	-90.414	-0.219	0.064
-369.771	78.184	-0.152	0.164
-368.756	800.000	0.102	-0.407
-367.742	-97.578	0.535	-0.141
-366.727	370.306	0.141	-0.290
-365.712	-154.825	-0.330	0.022
-364.698	-200.000	0.028	-0.237
-363.683	-163.344	-0.185	0.009
-362.669	208.871	0.102	-0.161
-361.654	-28.299	-0.139	-0.081
-360.639	211.243	-0.234	0.373
-359.625	-20.192	-0.148	0.092
-358.610	-200.000	0.006	0.127
-357.596	-37.230	0.169	-0.091
-356.581	-114.007	0.484	0.095
-355.566	-52.433	0.122	-0.057
-354.552	-68.640	-0.157	0.062
-353.537	337.764	0.070	-0.137
-352.523	228.594	0.189	0.312
-351.508	-9.063	0.359	0.243
-350.493	613.259	0.056	0.141
-349.479	200.056	0.202	-0.314
-348.464	-58.269	-0.387	-0.171
-347.450	369.913	-0.111	0.228
-346.435	-42.826	0.335	-0.172
-345.420	3.922	0.018	-0.014
-344.406	127.801	-0.175	-0.225
-343.391	-192.026	-0.115	-0.001
-342.377	195.589	0.115	0.176
-341.362	246.309	0.186	0.318
-340.348	176.030	-0.142	-0.209
-339.333	-139.859	-0.060	-0.006
-338.318	10.222	-0.081	-0.063
-337.304	20.031	0.117	0.095
-336.289	-42.199	-0.167	-0.087
-335.275	-123.485	-0.186	-0.030
-334.260	776.004	-0.060	-0.167
-333.245	273.484	-0.099	0.178
-332.231	727.627	0.062	-0.167
-331.216	-200.000	0.043	-0.198
-330.202	348.267	0.048	-0.097
-329.187	66.861	0.057	0.058
-328.172	800.000	0.069	-0.303
-327.158	-65.883	0.179	-0.072
-326.143	246.743	0.151	0.259
-325.129	-18.809	-0.087	-0.055
-324.114	-19.497	0.050	0.032
-323.099	-71.810	0.213	-0.080
-322.085	145.571	-0.028	-0.038
-321.070	-200.000	-0.031	-0.182
-320.056	107.556	-0.113	-0.136
-319.041	-83.077	0.088	0.029
-318.026	111.340	0.272	-0.331
-317.012	-39.338	0.185	0.098
-315.997	182.005	-0.200	0.298
-314.983	-106.118	-0.306	-0.070
-313.968	11.421	-0.331	0.257
-312.953	96.749	0.116	-0.135
-311.939	-156.409	-0.179	0.011
-310.924	-5.750	0.007	0.005
-309.910	800.000	0.039	-0.111
-308.895	110.408	-0.213	-0.259
-307.880	-200.000	-0.018	-0.445
-306.866	121.045	-0.125	-0.157
-305.851	80.182	0.246	0.268
-304.837	-85.576	-0.146	-0.046
-303.822	429.580	-0.108	0.236
-302.807	245.154	-0.146	0.249
-301.793	-200.000	-0.019	0.307
-300.778	800.000	0.078	-0.221
-299.764	-200.000	0.009	-0.143
-298.749	-131.035	0.550	-0.074
-297.735	-132.487	0.222	-0.029
-296.720	229.017	-0.192	0.316
-295.705	168.434	-0.020	0.029
-294.691	-159.605	0.150	-0.008
-293.676	637.446	-0.005	0.013
-292.662	462.025	-0.127	0.286
-291.647	-65.901	-0.299	0.121
-290.632	4.266	0.192	-0.142
-289.618	202.360	-0.140	-0.218
-288.603	800.000	0.101	0.314
-287.589	-53.936	-0.256	0.118
-286.574	519.001	0.142	0.337
-285.559	-56.412	0.132	0.059
-284.545	738.973	-0.103	-0.279
-283.530	-85.976	0.269	0.084
-282.516	-89.650	0.111	0.033
-281.501	-68.386	0.260	0.102
-280.486	52.503	-0.284	0.274
-279.472	-200.000	-0.006	0.119
-278.457	249.910	0.130	0.222
-277.443	-62.902	-0.119	-0.050
-276.428	-74.624	-0.056	0.020
-275.413	-200.000	-0.063	-0.330
-274.399	-200.000	-0.003	0.135
-273.384	-47.266	-0.254	0.125
-272.370	-93.325	-0.092	-0.026
-271.355	136.041	-0.122	-0.160
-270.340	-119.438	-0.123	0.022
-269.326	90.842	0.084	-0.095
-268.311	-153.488	-0.206	0.014
-267.297	676.863	0.025	-0.065
-266.282	-126.811	-0.140	-0.021
-265.267	20.646	-0.319	-0.260
-264.253	800.000	-0.074	-0.225
-263.238	-19.027	0.103	0.065
-262.224	-178.113	0.363	-0.009
-261.209	27.626	-0.187	-0.159
-260.195	-200.000	0.021	-0.225
-259.180	-200.000	-0.005	-0.230
-258.165	-146.579	0.175	-0.015
-257.151	-135.243	-0.035	0.004
-256.136	45.661	-0.213	-0.199
-255.122	572.970	-0.028	-0.070
-254.107	-35.188	-0.128	-0.070
-253.092	330.902	0.040	0.078
-252.078	800.000	-0.066	0.278
-251.063	535.481	0.047	0.112
-250.049	-84.289	0.311	-0.100
-249.034	351.041	0.105	-0.210
-248.019	-43.354	-0.359	0.183
-247.005	-155.655	0.105	-0.007
-245.990	246.452	0.103	-0.175
-244.976	-80.355	0.097	-0.033
-243.961	-200.000	-0.003	0.053
-242.946	-109.485	0.247	-0.053
-241.932	-159.612	0.123	0.007
-240.917	-200.000	0.019	0.088
-239.903	-47.075	0.103	0.051
-238.888	-136.500	-0.238	0.028
-237.873	-13.499	0.452	0.295
-236.859	-159.605	0.127	-0.007
-235.844	-200.000	0.034	-0.158
-234.830	-153.979	0.218	0.015
-233.815	3.827	0.181	0.134
-232.800	118.098	-0.115	-0.143
-231.786	-68.904	0.135	0.053
-230.771	-146.814	-0.087	-0.008
-229.757	-200.000	-0.002	0.044
-228.742	180.870	-0.143	0.211
-227.727	-10.407	-0.224	0.150
-226.713	176.574	-0.100	-0.146
-225.698	14.205	0.078	0.061
-224.684	800.000	0.103	0.380
-223.669	614.217	0.081	0.204
-222.655	442.009	-0.079	0.174
-221.640	-13.870	-0.060	0.039
-220.625	800.000	-0.084	-0.295
-219.611	800.000	0.070	-0.290
-218.596	-157.470	0.113	0.007
-217.582	120.227	0.163	-0.204
-216.567	225.651	-0.079	0.130
-215.552	399.392	-0.046	0.098
-214.538	-24.426	0.100	0.060
-213.523	203.711	-0.046	-0.072
-212.509	5.212	0.132	0.098
-211.494	679.418	0.050	-0.131
-210.479	592.904	0.137	-0.341
-209.465	-159.174	0.536	0.030
-208.450	-200.000	0.373	-0.001
-207.436	19.605	-0.181	0.146
-206.421	-52.872	-0.211	-0.098
-205.406	800.000	0.046	0.133
-204.392	-85.158	0.167	0.052
-203.377	78.185	-0.054	-0.058
-202.363	-53.558	0.022	0.010
-201.348	-200.000	0.019	0.257
-200.333	-70.358	0.282	0.108
-199.319	-49.387	0.371	0.178
-198.304	-83.013	0.250	0.081
-197.290	66.405	0.132	0.135
-196.275	-200.000	-0.038	-0.208
-195.260	-44.058	0.156	0.079
-194.246	68.774	0.096	-0.099
-193.231	-165.557	0.137	0.006
-192.217	202.473	0.197	0.306
-191.202	36.399	-0.250	0.222
-190.187	-200.000	-0.040	0.199
-189.173	143.243	-0.109	0.146
-188.158	-164.162	-0.294	0.014
-187.144	164.195	0.076	-0.108
-186.129	-164.418	-0.123	0.006
-185.114	34.447	-0.104	0.091
-184.100	4.404	0.135	-0.100
-183.085	800.000	0.040	-0.162
-182.071	-88.416	0.111	0.033
-181.056	-135.345	-0.485	0.058
-180.042	624.163	-0.107	-0.272
-179.027	-155.732	0.151	0.010
-178.012	167.127	-0.166	0.238
-176.998	133.924	0.121	-0.157
-175.983	-122.351	0.346	-0.057
-174.969	-36.502	0.120	0.065
-173.954	800.000	0.026	0.097
-172.939	-200.000	0.007	-0.292
-171.925	94.398	-0.181	0.207
-170.910	190.988	0.115	0.175
-169.896	431.008	0.098	0.213
-168.881	72.581	-0.244	0.256
-167.866	283.955	-0.025	0.046
-166.852	-5.771	-0.087	-0.060
-165.837	-34.876	0.272	-0.149
-164.823	-200.000	0.013	0.147
-163.808	88.301	-0.151	-0.169
-162.793	48.956	-0.206	-0.195
-161.779	-50.136	0.117	0.056
-160.764	148.113	-0.268	0.363
-159.750	189.529	-0.036	-0.055
-158.735	-153.135	-0.016	-0.001
-157.720	164.943	-0.055	-0.079
-156.706	-200.000	-0.009	0.225
-155.691	101.202	0.146	0.171
-154.677	-90.418	0.218	-0.064
-153.662	800.000	-0.087	0.264
-152.647	477.515	-0.099	0.225
-151.633	182.561	-0.133	-0.197
-150.618	107.934	0.110	0.132
-149.604	-150.396	-0.097	-0.008
-148.589	-200.000	-0.015	0.222
-147.574	800.000	-0.035	0.139
-146.560	422.863	0.049	-0.105
-145.545	-200.000	0.069	-0.335
-144.531	444.137	-0.073	0.161
-143.516	-73.361	-0.278	0.102
-142.502	800.000	0.058	-0.196
-141.487	-87.716	-0.048	-0.015
-140.472	-56.630	-0.235	-0.105
-139.458	76.441	0.185	-0.197
-138.443	12.826	0.084	-0.065
-137.429	340.772	-0.070	-0.138
-136.414	-34.127	-0.255	0.141
-135.399	800.000	-0.019	0.056
-134.385	-200.000	-0.034	-0.174
-133.370	-119.358	-0.231	0.040
-132.356	-68.049	-0.045	-0.018
-131.341	433.119	-0.128	0.279
-130.326	-200.000	0.032	0.296
-129.312	205.127	0.099	0.154
-128.297	92.086	0.031	0.035
-127.283	-65.793	0.177	0.071
-126.268	-200.000	0.009	-0.067
-125.253	-159.739	-0.337	-0.019
-124.239	301.512	-0.113	0.210
-123.224	424.591	0.088	0.190
-122.210	-54.904	0.268	-0.121
-121.195	-4.890	0.085	0.059
