DTS Sentinel unit serial number:	SN413079Multiplexer serial number:	ORYXHardware model number:	OX4-SRSoftware version number:	ORYX F/W v4.00 Oryx Data Collector v3.7.2.0data status	okinstallation	princeton_trtdifferential loss correction	single-endedforward channel	channel 4reverse channel	N/Adate	2019/09/17time	08:33:35forward acquisition time	60.00reverse acquisition time	0.00gamma	496.2192k internal	0.2317k external	0.2317temperature offset calibration	0.9980default loss term (dB/km)	0.3790temperature slope calibration	1.0000multiplexer offset coefficient	1.0000multiplexer slope coefficient	1.0000fibre end	0.00T internal ref (°C)	27.62T ext. ref 1 (°C)	0.12T ext. ref 2 (°C)	23.16length (m)	temperature (°C)	Stokes	anti-Stokes-747.200	800.000	-0.039	0.164
-746.185	-31.401	-0.140	0.080
-745.171	-133.842	0.244	0.031
-744.156	-200.000	-0.007	0.300
-743.142	800.000	-0.138	0.392
-742.127	-6.855	-0.069	0.048
-741.112	-200.000	0.023	0.459
-740.098	-98.872	-0.181	0.046
-739.083	-200.000	0.038	0.273
-738.069	140.529	-0.114	0.152
-737.054	-102.287	-0.159	-0.039
-736.039	-151.079	-0.248	-0.019
-735.025	-200.000	-0.015	-0.285
-734.010	800.000	-0.072	0.231
-732.996	405.841	-0.115	0.246
-731.981	-200.000	0.052	0.263
-730.966	48.085	0.076	-0.072
-729.952	16.067	-0.377	0.300
-728.937	-200.000	0.034	-0.377
-727.923	235.927	-0.148	-0.247
-726.908	173.519	-0.174	-0.254
-725.894	-90.536	0.089	0.026
-724.879	-200.000	-0.006	-0.309
-723.864	23.853	0.091	-0.076
-722.850	800.000	-0.054	0.157
-721.835	-65.219	-0.242	-0.099
-720.821	96.797	0.117	-0.136
-719.806	-29.669	-0.354	-0.204
-718.791	-200.000	-0.060	-0.288
-717.777	-200.000	-0.021	0.125
-716.762	-81.908	-0.359	0.119
-715.748	-110.979	-0.141	-0.029
-714.733	800.000	0.053	0.167
-713.718	29.734	-0.174	0.150
-712.704	-24.994	0.215	0.129
-711.689	33.455	-0.189	0.166
-710.675	-114.139	-0.435	-0.085
-709.660	-135.349	-0.383	-0.046
-708.645	-200.000	0.022	0.212
-707.631	-22.623	0.372	-0.227
-706.616	800.000	0.044	-0.148
-705.602	-47.272	0.234	-0.115
-704.587	17.346	-0.246	0.197
-703.572	664.899	0.037	0.098
-702.558	150.521	-0.077	-0.106
-701.543	-200.000	-0.102	0.522
-700.529	-75.665	-0.286	0.103
-699.514	-118.926	-0.098	-0.017
-698.499	-200.000	-0.104	-0.000
-697.485	159.639	0.030	0.043
-696.470	-82.524	-0.305	-0.100
-695.456	104.803	0.049	0.058
-694.441	-147.796	0.234	0.020
-693.426	-178.497	-0.180	0.004
-692.412	-40.012	-0.350	0.184
-691.397	-200.000	-0.053	-0.276
-690.383	800.000	0.169	0.632
-689.368	-78.065	-0.112	-0.039
-688.354	273.374	0.086	-0.153
-687.339	-190.671	0.309	0.003
-686.324	486.313	-0.095	-0.220
-685.310	-12.531	-0.253	0.167
-684.295	-5.137	-0.183	0.127
-683.281	322.556	0.111	-0.214
-682.266	-48.077	-0.166	-0.081
-681.251	-104.750	0.106	-0.025
-680.237	640.933	-0.058	0.149
-679.222	65.498	-0.241	0.246
-678.208	-2.007	0.315	0.223
-677.193	-200.000	-0.001	-0.149
-676.178	-45.725	-0.193	0.096
-675.164	-2.052	-0.041	-0.029
-674.149	-144.006	0.366	-0.035
-673.135	27.905	0.171	0.146
-672.120	-99.189	0.406	0.104
-671.105	24.360	-0.208	0.173
-670.091	-200.000	0.036	0.162
-669.076	126.063	0.139	-0.177
-668.062	-96.357	0.299	0.080
-667.047	-44.755	-0.357	0.180
-666.032	-80.822	0.146	-0.049
-665.018	166.262	0.075	-0.107
-664.003	122.405	-0.271	0.342
-662.989	240.828	0.063	-0.106
-661.974	800.000	-0.063	-0.176
-660.959	-114.801	0.171	-0.033
-659.945	-93.658	-0.269	0.075
-658.930	170.363	0.096	-0.138
-657.916	-55.477	-0.325	-0.147
-656.901	-84.425	-0.195	-0.062
-655.886	-174.007	-0.124	-0.004
-654.872	-157.535	0.031	0.002
-653.857	-59.503	0.212	-0.092
-652.843	311.471	-0.061	0.116
-651.828	-60.471	-0.366	-0.157
-650.814	-74.791	0.043	-0.016
-649.799	227.646	-0.147	-0.241
-648.784	-200.000	0.035	-0.237
-647.770	89.670	0.031	-0.035
-646.755	793.121	-0.030	0.083
-645.741	-54.807	-0.338	-0.154
-644.726	-46.616	-0.293	0.145
-643.711	108.087	0.124	0.149
-642.697	-116.935	0.209	0.038
-641.682	-200.000	-0.037	0.183
-640.668	-200.000	0.069	0.353
-639.653	-200.000	-0.016	0.355
-638.638	485.406	0.177	-0.406
-637.624	800.000	0.024	-0.078
-636.609	-200.000	-0.008	0.187
-635.595	-200.000	0.015	-0.352
-634.580	-113.177	-0.232	-0.046
-633.565	662.737	-0.077	0.199
-632.551	-65.746	-0.139	0.056
-631.536	-200.000	-0.022	0.367
-630.522	58.812	-0.205	0.203
-629.507	-200.000	-0.014	-0.071
-628.492	223.374	-0.063	0.103
-627.478	-109.419	-0.237	0.050
-626.463	-32.512	0.206	-0.115
-625.449	28.252	0.085	-0.072
-624.434	-150.835	0.304	0.023
-623.419	144.586	-0.134	0.181
-622.405	-200.000	-0.039	-0.286
-621.390	63.207	-0.101	0.102
-620.376	84.769	0.198	0.218
-619.361	-200.000	0.058	-0.447
-618.346	-118.082	-0.202	-0.036
-617.332	-137.030	-0.462	0.053
-616.317	-123.872	-0.225	0.036
-615.303	-200.000	-0.014	0.224
-614.288	800.000	0.008	0.036
-613.273	149.410	-0.030	0.040
-612.259	231.134	-0.097	-0.160
-611.244	-112.543	-0.198	-0.040
-610.230	-200.000	0.012	0.311
-609.215	208.116	-0.140	0.220
-608.201	-107.933	-0.237	-0.052
-607.186	-42.362	-0.295	-0.152
-606.171	96.233	0.245	-0.282
-605.157	-169.402	-0.129	0.005
-604.142	-119.117	0.290	0.051
-603.128	99.632	0.022	0.026
-602.113	-80.481	-0.060	-0.020
-601.098	-20.207	0.216	0.134
-600.084	-75.011	0.035	0.013
-599.069	536.159	-0.072	0.173
-598.055	-84.977	-0.112	0.036
-597.040	-53.041	0.207	-0.096
-596.025	-185.313	-0.301	0.005
-595.011	685.601	0.128	-0.337
-593.996	18.076	0.319	-0.256
-592.982	-179.010	-0.093	0.002
-591.967	161.952	0.228	-0.321
-590.952	715.892	0.048	0.128
-589.938	380.459	0.086	0.177
-588.923	-200.000	0.023	0.144
-587.909	-19.565	0.319	0.199
-586.894	-46.613	0.160	-0.079
-585.879	289.626	0.064	-0.116
-584.865	25.701	-0.168	-0.141
-583.850	-200.000	0.022	-0.163
-582.836	-200.000	-0.026	0.206
-581.821	445.423	-0.174	-0.384
-580.806	114.814	0.082	-0.101
-579.792	-116.255	0.202	0.038
-578.777	346.126	-0.139	0.275
-577.763	800.000	0.037	0.108
-576.748	-200.000	-0.001	-0.115
-575.733	441.617	-0.018	-0.039
-574.719	134.590	-0.140	0.183
-573.704	-200.000	0.010	-0.073
-572.690	-83.326	0.282	-0.091
-571.675	-8.024	0.144	0.097
-570.661	-70.495	0.159	0.060
-569.646	-89.749	-0.241	0.071
-568.631	307.354	-0.091	-0.170
-567.617	-200.000	0.000	0.011
-566.602	-180.028	0.124	-0.003
-565.588	10.301	0.084	-0.065
-564.573	-200.000	0.010	0.054
-563.558	0.385	-0.104	-0.074
-562.544	-159.467	-0.124	-0.007
-561.529	-200.000	-0.052	0.319
-560.515	-192.540	0.098	0.001
-559.500	800.000	0.031	0.117
-558.485	27.894	-0.294	0.249
-557.471	740.422	-0.068	0.184
-556.456	227.542	-0.114	-0.186
-555.442	-200.000	-0.044	-0.202
-554.427	-34.382	0.134	0.074
-553.412	-200.000	0.010	0.384
-552.398	-200.000	0.033	-0.235
-551.383	-94.158	0.349	-0.096
-550.369	34.905	-0.197	-0.173
-549.354	-200.000	-0.009	0.095
-548.339	-139.570	-0.246	-0.026
-547.325	-96.117	-0.176	0.047
-546.310	412.574	0.094	0.200
-545.296	98.148	0.063	0.072
-544.281	383.529	-0.106	0.219
-543.266	-89.731	0.334	0.098
-542.252	-200.000	-0.023	-0.128
-541.237	-200.000	0.024	-0.144
-540.223	-200.000	-0.022	-0.228
-539.208	-138.870	-0.108	-0.012
-538.193	800.000	0.091	0.257
-537.179	-200.000	0.010	-0.164
-536.164	-154.855	-0.167	-0.011
-535.150	19.714	0.201	0.162
-534.135	-200.000	0.005	-0.051
-533.121	-108.592	0.074	0.016
-532.106	-200.000	0.043	-0.325
-531.091	47.480	-0.047	-0.044
-530.077	-200.000	-0.055	-0.437
-529.062	800.000	-0.038	0.146
-528.048	-19.276	0.083	-0.052
-527.033	-200.000	-0.005	-0.042
-526.018	-60.851	0.319	-0.135
-525.004	64.101	-0.134	0.135
-523.989	-119.961	-0.288	0.050
-522.975	-72.116	-0.352	0.131
-521.960	573.064	-0.115	0.282
-520.945	-154.507	0.063	0.004
-519.931	132.451	-0.035	0.045
-518.916	-7.224	-0.116	0.079
-517.902	-200.000	-0.025	-0.362
-516.887	8.747	-0.091	-0.069
-515.872	210.278	-0.163	-0.257
-514.858	575.084	0.061	-0.149
-513.843	-166.933	-0.148	0.006
-512.829	-47.239	-0.109	-0.053
-511.814	35.467	0.102	0.090
-510.799	-30.220	-0.138	0.079
-509.785	142.123	-0.102	0.136
-508.770	791.718	0.117	0.324
-507.756	-108.439	0.316	-0.068
-506.741	-167.827	-0.313	-0.012
-505.726	-78.558	-0.277	0.095
-504.712	-200.000	-0.024	0.340
-503.697	-139.865	0.207	0.022
-502.683	-200.000	0.023	0.397
-501.668	800.000	-0.057	0.233
-500.653	739.081	0.117	0.315
-499.639	-200.000	-0.008	0.049
-498.624	-84.258	-0.305	-0.097
-497.610	67.974	0.124	-0.127
-496.595	403.365	0.130	-0.273
-495.581	-129.398	0.285	0.040
-494.566	83.950	0.210	-0.230
-493.551	800.000	0.061	-0.246
-492.537	351.355	0.068	-0.134
-491.522	265.367	0.028	-0.048
-490.508	291.017	0.105	0.191
-489.493	-14.143	-0.272	0.176
-488.478	753.963	-0.047	0.128
-487.464	35.683	-0.181	-0.159
-486.449	278.095	0.094	-0.168
-485.435	258.254	-0.142	-0.246
-484.420	25.099	-0.078	-0.065
-483.405	-200.000	0.055	-0.252
-482.391	773.749	-0.060	0.163
-481.376	-97.998	0.255	-0.066
-480.362	-178.030	-0.177	0.004
-479.347	-132.037	-0.218	0.028
-478.332	-143.994	0.109	-0.010
-477.318	340.102	-0.071	0.140
-476.303	62.447	0.303	-0.303
-475.289	-188.148	-0.265	-0.003
-474.274	423.953	0.060	0.128
-473.259	-87.946	0.307	0.092
-472.245	800.000	-0.108	-0.332
-471.230	469.485	0.046	0.103
-470.216	800.000	-0.009	0.036
-469.201	-48.435	0.147	0.071
-468.186	-200.000	-0.008	0.063
-467.172	-48.504	0.073	-0.035
-466.157	-106.579	-0.143	-0.032
-465.143	151.917	0.181	0.246
-464.128	-18.716	0.113	0.070
-463.113	-117.713	0.242	0.044
-462.099	800.000	0.017	0.047
-461.084	-200.000	0.033	-0.152
-460.070	800.000	0.079	-0.240
-459.055	29.985	-0.106	0.090
-458.040	109.572	-0.140	-0.168
-457.026	248.922	0.189	-0.321
-456.011	-57.404	0.042	0.019
-454.997	-119.077	0.095	0.017
-453.982	-200.000	0.010	-0.216
-452.968	185.306	0.237	-0.352
-451.953	-97.398	-0.379	0.099
-450.938	-24.806	0.183	0.109
-449.924	-68.108	0.317	0.124
-448.909	-33.377	0.097	0.054
-447.895	397.950	0.137	-0.286
-446.880	800.000	0.140	0.497
-445.865	-163.637	-0.322	0.015
-444.851	800.000	-0.062	0.271
-443.836	51.156	0.268	-0.254
-442.822	-134.778	-0.127	0.015
-441.807	72.194	-0.056	0.058
-440.792	-35.542	0.235	-0.127
-439.778	320.967	-0.079	-0.151
-438.763	-13.000	-0.157	-0.102
-437.749	800.000	-0.129	-0.368
-436.734	800.000	-0.059	0.239
-435.719	330.732	0.106	-0.204
-434.705	-78.752	-0.179	0.061
-433.690	23.131	0.179	-0.147
-432.676	209.979	-0.077	0.121
-431.661	110.986	0.120	0.144
-430.646	800.000	0.022	-0.070
-429.632	116.698	-0.116	0.143
-428.617	0.235	-0.295	-0.210
-427.603	800.000	0.075	-0.324
-426.588	-108.075	0.193	0.042
-425.573	-200.000	-0.075	-0.342
-424.559	-200.000	0.000	0.156
-423.544	-200.000	0.009	0.057
-422.530	634.825	-0.084	-0.214
-421.515	-178.343	0.181	-0.004
-420.500	-200.000	0.019	-0.151
-419.486	-101.044	-0.282	-0.069
-418.471	-127.782	0.184	0.027
-417.457	-63.401	-0.179	0.074
-416.442	-72.076	0.181	0.067
-415.428	-200.000	-0.016	0.325
-414.413	-92.022	0.110	0.031
-413.398	-53.623	-0.149	0.068
-412.384	274.818	-0.112	-0.199
-411.369	-200.000	0.033	0.217
-410.355	-44.553	-0.288	-0.144
-409.340	800.000	-0.014	-0.046
-408.325	-61.703	-0.232	0.097
-407.311	37.994	-0.267	0.237
-406.296	-122.760	0.416	0.067
-405.282	-113.515	-0.173	-0.034
-404.267	17.216	-0.245	-0.194
-403.252	-200.000	0.009	0.366
-402.238	-4.969	-0.247	0.170
-401.223	800.000	-0.050	-0.168
-400.209	35.107	-0.175	-0.153
-399.194	-174.022	0.068	-0.002
-398.179	140.388	0.222	0.292
-397.165	-54.731	-0.161	-0.072
-396.150	-110.801	0.249	0.051
-395.136	52.614	-0.100	0.096
-394.121	-90.362	0.185	0.054
-393.106	-127.224	-0.103	-0.015
-392.092	5.000	-0.221	-0.162
-391.077	255.589	0.188	0.322
-390.063	800.000	0.063	0.175
-389.048	-200.000	0.029	0.276
-388.033	184.983	0.115	-0.170
-387.019	453.831	-0.035	0.078
-386.004	800.000	-0.039	-0.122
-384.990	-200.000	0.017	-0.191
-383.975	800.000	-0.063	0.225
-382.960	300.672	-0.116	-0.214
-381.946	-94.964	-0.105	-0.028
-380.931	246.606	0.094	0.159
-379.917	-21.482	0.181	0.110
-378.902	-75.747	0.143	0.051
-377.888	-69.217	-0.444	0.171
-376.873	-97.943	-0.091	0.023
-375.858	313.850	-0.056	-0.105
-374.844	602.538	-0.063	0.155
-373.829	-50.022	0.195	0.092
-372.815	791.754	0.032	-0.088
-371.800	-31.360	0.178	0.100
-370.785	-200.000	-0.044	-0.405
-369.771	-137.488	-0.184	-0.021
-368.756	-200.000	0.002	0.413
-367.742	54.160	-0.154	-0.147
-366.727	159.854	-0.033	-0.046
-365.712	114.427	0.235	0.286
-364.698	194.624	-0.029	0.044
-363.683	199.484	-0.067	0.103
-362.669	90.881	-0.152	-0.170
-361.654	-200.000	-0.026	0.310
-360.639	76.766	-0.333	0.353
-359.625	-200.000	-0.006	-0.409
-358.610	467.091	-0.042	0.093
-357.596	98.776	-0.066	-0.076
-356.581	800.000	-0.066	-0.212
-355.566	67.677	-0.131	0.134
-354.552	199.676	-0.096	-0.146
-353.537	-165.977	0.067	0.003
-352.523	800.000	-0.114	0.419
-351.508	-63.217	-0.146	0.060
-350.493	38.166	-0.126	0.112
-349.479	-101.233	-0.047	-0.012
-348.464	-200.000	0.008	0.042
-347.450	-114.669	0.119	-0.023
-346.435	-30.401	0.081	-0.046
-345.420	-86.260	0.258	0.079
-344.406	-72.388	0.231	-0.085
-343.391	-72.296	-0.357	-0.132
-342.377	-124.998	0.283	-0.043
-341.362	528.949	0.110	-0.259
-340.348	-127.859	-0.168	-0.024
-339.333	-128.318	0.266	-0.038
-338.318	-142.377	-0.197	0.019
-337.304	56.373	0.261	-0.252
-336.289	329.029	-0.088	-0.169
-335.275	800.000	0.010	0.039
-334.260	-200.000	0.026	0.188
-333.245	-106.444	-0.157	0.035
-332.231	-41.897	-0.220	-0.112
-331.216	16.065	0.238	-0.187
-330.202	-106.703	0.230	0.051
-329.187	373.719	-0.133	-0.269
-328.172	-107.137	0.196	0.043
-327.158	-120.351	0.296	0.050
-326.143	54.328	0.133	0.128
-325.129	800.000	-0.033	0.094
-324.114	225.313	0.152	-0.246
-323.099	-200.000	-0.009	-0.098
-322.085	-190.153	0.208	-0.002
-321.070	295.482	-0.091	-0.165
-320.056	-36.700	0.177	0.095
-319.041	-24.307	0.165	-0.098
-318.026	190.585	-0.135	-0.202
-317.012	682.287	0.071	0.184
-315.997	409.239	0.034	0.072
-314.983	800.000	-0.097	-0.365
-313.968	800.000	0.108	-0.303
-312.953	-26.763	-0.288	-0.168
-311.939	-82.519	0.095	0.031
-310.924	-86.548	-0.129	-0.039
-309.910	-200.000	-0.010	-0.166
-308.895	3.134	0.277	0.200
-307.880	9.431	-0.034	0.026
-306.866	259.767	0.166	-0.286
-305.851	-200.000	-0.039	-0.202
-304.837	-137.444	-0.113	-0.013
-303.822	-79.757	-0.397	-0.133
-302.807	-178.516	-0.224	-0.005
-301.793	147.873	-0.023	0.031
-300.778	-146.340	-0.063	0.006
-299.764	32.432	0.155	0.133
-298.749	105.205	0.154	-0.181
-297.735	734.889	-0.054	-0.144
-296.720	285.932	0.087	-0.155
-295.705	-120.383	-0.033	-0.006
-294.691	-200.000	-0.066	0.546
-293.676	-138.547	-0.251	-0.027
-292.662	-79.600	-0.322	0.108
-291.647	-122.020	-0.158	0.026
-290.632	338.988	0.132	-0.257
-289.618	580.529	-0.080	0.195
-288.603	96.228	0.141	-0.160
-287.589	88.663	0.283	-0.312
-286.574	-163.596	-0.224	-0.011
-285.559	-62.952	-0.146	-0.060
-284.545	-200.000	0.010	-0.077
-283.530	-200.000	0.018	0.157
-282.516	-35.458	-0.093	-0.050
-281.501	-200.000	0.017	0.337
-280.486	-150.749	0.208	-0.016
-279.472	-200.000	-0.010	-0.073
-278.457	171.713	0.162	0.231
-277.443	800.000	-0.033	0.104
-276.428	-200.000	0.007	-0.044
-275.413	-61.721	-0.086	0.036
-274.399	-106.360	-0.159	-0.035
-273.384	188.631	0.073	-0.109
-272.370	-200.000	-0.029	-0.223
-271.355	-200.000	-0.020	-0.139
-270.340	-200.000	-0.021	-0.274
-269.326	46.001	0.138	0.127
-268.311	-200.000	-0.028	0.384
-267.297	-200.000	-0.056	-0.295
-266.282	415.020	-0.139	-0.295
-265.267	-97.743	-0.276	-0.071
-264.253	667.452	0.036	-0.093
-263.238	-5.369	-0.306	0.209
-262.224	-88.710	0.200	-0.059
-261.209	-33.470	0.135	0.074
-260.195	95.459	0.253	0.287
-259.180	73.604	0.022	0.023
-258.165	-143.698	-0.240	0.023
-257.151	-154.286	-0.380	-0.025
-256.136	-3.173	0.175	-0.121
-255.122	-28.417	0.202	0.116
-254.107	-55.932	-0.193	-0.085
-253.092	54.513	-0.304	-0.291
-252.078	-107.236	-0.318	-0.070
-251.063	-200.000	0.060	-0.277
-250.049	-38.323	-0.123	0.065
-249.034	-77.811	-0.189	-0.065
-248.019	73.625	0.095	0.099
-247.005	-200.000	-0.079	-0.381
-245.990	-200.000	-0.003	-0.212
-244.976	-123.170	0.339	-0.054
-243.961	-83.743	-0.191	0.060
-242.946	-91.933	0.194	-0.054
-241.932	-148.483	-0.300	0.024
-240.917	-200.000	-0.032	0.224
-239.903	-200.000	-0.024	-0.139
-238.888	-92.581	0.213	-0.059
-237.873	500.225	0.173	0.397
-236.859	-172.575	0.159	0.005
-235.844	-200.000	0.051	0.222
-234.830	800.000	0.026	0.099
-233.815	153.688	0.192	-0.261
-232.800	772.522	0.014	-0.037
-231.786	219.074	0.065	0.103
-230.771	-30.430	0.292	0.165
-229.757	-200.000	-0.050	0.281
-228.742	58.061	-0.100	0.098
-227.727	518.543	-0.094	-0.217
-226.713	-146.053	0.309	-0.027
-225.698	-148.980	0.041	-0.003
-224.684	-6.683	0.280	-0.189
-223.669	-200.000	0.001	0.147
-222.655	225.501	-0.056	-0.089
-221.640	-136.580	0.088	0.010
-220.625	195.455	0.225	0.340
-219.611	-12.245	-0.065	-0.042
-218.596	220.840	-0.208	-0.331
-217.582	9.625	0.264	0.198
-216.567	466.619	0.023	0.050
-215.552	-200.000	0.055	0.265
-214.538	-23.430	0.207	0.124
-213.523	248.113	-0.162	0.272
-212.509	-98.685	0.253	-0.064
-211.494	-70.656	0.367	-0.138
-210.479	-200.000	-0.057	0.258
-209.465	375.336	0.127	-0.258
-208.450	144.908	0.112	-0.148
-207.436	199.979	0.076	-0.116
-206.421	618.552	0.070	-0.173
-205.406	-200.000	-0.002	0.164
-204.392	-59.845	-0.243	-0.103
-203.377	-200.000	0.044	0.359
-202.363	225.428	0.155	-0.249
-201.348	248.094	-0.093	-0.157
-200.333	66.323	0.314	0.316
-199.319	257.819	0.039	0.066
-198.304	82.074	0.082	-0.089
-197.290	59.510	0.111	0.108
-196.275	61.298	0.144	0.142
-195.260	-27.403	0.255	-0.147
-194.246	-190.400	0.350	0.004
-193.231	-200.000	0.024	0.206
-192.217	-200.000	0.039	-0.357
-191.202	-75.141	-0.266	-0.094
-190.187	97.335	-0.124	0.141
-189.173	-119.521	0.042	0.007
-188.158	-200.000	0.006	0.225
-187.144	-200.000	0.023	-0.271
-186.129	-16.803	-0.267	-0.167
-185.114	-200.000	0.016	0.295
-184.100	214.099	-0.152	0.238
-183.085	9.320	0.251	0.188
-182.071	-50.843	-0.299	-0.139
-181.056	800.000	-0.115	0.474
-180.042	800.000	-0.016	-0.048
-179.027	234.621	-0.009	0.015
-178.012	-155.125	-0.248	0.016
-176.998	455.870	0.070	-0.154
-175.983	112.915	-0.030	-0.036
-174.969	185.835	0.161	0.237
-173.954	-160.149	0.341	-0.018
-172.939	-200.000	-0.002	-0.023
-171.925	117.465	-0.021	0.026
-170.910	15.820	0.244	-0.190
-169.896	-157.838	-0.244	-0.014
-168.881	-23.971	0.128	0.076
-167.866	150.929	-0.051	-0.069
-166.852	-148.884	0.118	-0.009
-165.837	-11.458	0.147	0.095
-164.823	-121.163	0.130	-0.021
-163.808	-200.000	0.046	0.209
-162.793	-1.559	0.326	0.227
-161.779	800.000	0.018	-0.073
-160.764	-200.000	0.048	-0.212
-159.750	786.209	-0.052	0.140
-158.735	-200.000	-0.050	0.251
-157.720	409.856	-0.194	0.407
-156.706	331.499	-0.039	-0.075
-155.691	-130.200	0.068	0.009
-154.677	-179.305	-0.107	-0.002
-153.662	70.007	-0.056	0.057
-152.647	-3.554	-0.317	-0.218
-151.633	-60.952	0.276	-0.116
-150.618	542.634	-0.096	-0.227
-149.604	-100.197	-0.333	-0.082
-148.589	-200.000	0.028	0.133
-147.574	170.470	0.147	0.209
-146.560	-200.000	-0.175	-0.001
-145.545	297.219	-0.083	0.150
-144.531	341.587	-0.093	-0.180
-143.516	190.854	-0.034	0.051
-142.502	226.265	-0.057	-0.091
-141.487	10.245	-0.123	0.093
-140.472	-159.390	0.127	0.007
-139.458	321.006	-0.104	-0.195
-138.443	-200.000	-0.051	-0.222
-137.429	-200.000	-0.010	0.174
-136.414	-104.720	0.362	-0.082
-135.399	800.000	0.074	-0.307
-134.385	147.903	0.113	-0.151
-133.370	-2.506	-0.335	0.232
-132.356	-200.000	0.076	0.418
-131.341	32.613	-0.280	0.240
-130.326	-52.763	-0.186	0.085
-129.312	-200.000	0.012	0.141
-128.297	-116.870	0.583	0.105
-127.283	-105.903	0.169	-0.038
-126.268	-66.828	0.131	-0.051
-125.253	-60.809	0.225	-0.094
-124.239	507.065	0.095	0.218
-123.224	73.347	-0.157	-0.163
