DTS Sentinel unit serial number:	SN413079Multiplexer serial number:	ORYXHardware model number:	OX4-SRSoftware version number:	ORYX F/W v4.00 Oryx Data Collector v3.7.2.0data status	okinstallation	princeton_trtdifferential loss correction	single-endedforward channel	channel 4reverse channel	N/Adate	2019/09/15time	17:17:34forward acquisition time	60.00reverse acquisition time	0.00gamma	496.2192k internal	0.2275k external	0.2275temperature offset calibration	0.9926default loss term (dB/km)	0.3790temperature slope calibration	1.0000multiplexer offset coefficient	1.0000multiplexer slope coefficient	1.0000fibre end	0.00T internal ref (°C)	44.69T ext. ref 1 (°C)	6.03T ext. ref 2 (°C)	40.24length (m)	temperature (°C)	Stokes	anti-Stokes-747.200	0.322	-0.087	0.064
-746.185	-164.628	0.119	0.006
-745.171	800.000	0.118	-0.416
-744.156	233.841	-0.148	0.251
-743.142	108.053	-0.133	-0.164
-742.127	744.468	0.119	0.331
-741.112	-25.146	0.111	-0.068
-740.098	-93.798	-0.111	0.032
-739.083	-200.000	0.040	-0.231
-738.069	394.992	0.081	0.173
-737.054	-42.028	0.015	0.008
-736.039	-200.000	0.005	0.035
-735.025	-200.000	-0.054	0.444
-734.010	29.716	-0.215	0.189
-732.996	-200.000	0.049	-0.247
-731.981	-117.629	-0.427	0.079
-730.966	-200.000	0.008	0.060
-729.952	622.717	0.076	-0.198
-728.937	-200.000	-0.031	-0.220
-727.923	-35.653	-0.295	-0.165
-726.908	-200.000	0.002	-0.069
-725.894	6.104	-0.026	-0.020
-724.879	-89.568	-0.168	-0.051
-723.864	-98.779	-0.120	-0.031
-722.850	-102.084	0.032	-0.008
-721.835	-0.100	-0.026	-0.019
-720.821	35.927	-0.190	0.172
-719.806	381.387	-0.092	0.194
-718.791	388.743	-0.131	0.280
-717.777	528.783	0.108	0.262
-716.762	38.914	-0.204	0.187
-715.748	34.031	0.178	0.160
-714.733	532.293	0.083	0.202
-713.718	-176.410	-0.438	0.012
-712.704	186.322	-0.220	-0.337
-711.689	-2.890	-0.204	0.147
-710.675	-200.000	0.008	-0.070
-709.660	-101.522	0.232	0.058
-708.645	11.804	-0.182	0.144
-707.631	239.920	-0.147	-0.253
-706.616	-44.072	0.132	-0.068
-705.602	233.352	0.127	-0.215
-704.587	36.850	-0.153	-0.139
-703.572	-184.114	0.561	0.010
-702.558	-75.125	-0.120	0.044
-701.543	348.283	0.088	0.179
-700.529	208.944	0.088	0.141
-699.514	197.985	-0.120	0.189
-698.499	800.000	-0.046	0.136
-697.485	-83.015	-0.026	-0.009
-696.470	800.000	0.026	-0.104
-695.456	-126.853	0.055	-0.008
-694.441	800.000	0.015	-0.066
-693.426	-126.542	0.045	0.007
-692.412	-200.000	-0.032	-0.299
-691.397	104.588	0.075	0.090
-690.383	20.125	0.058	-0.049
-689.368	-10.069	0.319	0.218
-688.354	-99.006	-0.246	-0.064
-687.339	42.782	-0.160	0.150
-686.324	-200.000	0.001	-0.040
-685.310	800.000	-0.041	-0.149
-684.295	-51.038	0.234	0.113
-683.281	-200.000	0.052	0.311
-682.266	800.000	-0.072	-0.257
-681.251	194.550	-0.107	-0.168
-680.237	209.299	0.013	-0.020
-679.222	-129.950	0.210	0.030
-678.208	144.355	0.122	0.167
-677.193	-200.000	-0.020	0.156
-676.178	128.811	-0.073	0.096
-675.164	-200.000	0.011	-0.376
-674.149	697.147	0.056	-0.151
-673.135	800.000	-0.094	0.315
-672.120	-105.324	-0.331	0.078
-671.105	-68.016	-0.120	0.048
-670.091	558.366	-0.136	0.336
-669.076	3.917	-0.140	0.105
-668.062	-62.997	-0.227	-0.096
-667.047	800.000	-0.036	-0.151
-666.032	-59.254	0.061	-0.027
-665.018	-73.019	-0.147	0.055
-664.003	589.520	-0.121	0.307
-662.989	-169.901	0.221	-0.008
-661.974	-200.000	0.004	-0.152
-660.959	205.911	-0.152	0.242
-659.945	-8.124	-0.262	-0.182
-658.930	-73.590	0.498	0.187
-657.916	24.553	-0.274	-0.233
-656.901	-200.000	-0.047	-0.322
-655.886	98.503	0.187	-0.221
-654.872	103.175	0.116	-0.139
-653.857	-0.230	0.084	-0.061
-652.843	385.423	-0.027	-0.058
-651.828	-34.129	0.112	-0.063
-650.814	27.766	0.084	-0.073
-649.799	-141.364	0.129	0.013
-648.784	-89.670	0.046	0.014
-647.770	499.705	0.038	0.090
-646.755	-21.738	0.222	-0.139
-645.741	-83.201	-0.203	0.067
-644.726	-118.868	0.328	0.059
-643.711	-200.000	-0.115	-0.546
-642.697	466.048	0.146	0.337
-641.682	800.000	0.070	0.256
-640.668	453.039	-0.133	0.302
-639.653	-200.000	-0.021	-0.237
-638.638	717.082	-0.076	0.206
-637.624	-164.446	0.248	-0.012
-636.609	-91.225	0.128	0.038
-635.595	-200.000	-0.000	0.104
-634.580	-27.132	0.154	-0.092
-633.565	399.946	-0.141	-0.305
-632.551	199.218	-0.036	-0.056
-631.536	-107.103	-0.267	0.061
-630.522	-24.074	-0.198	-0.121
-629.507	245.498	0.127	-0.219
-628.492	-200.000	-0.082	-0.371
-627.478	12.690	-0.465	-0.369
-626.463	649.211	0.079	-0.208
-625.449	729.517	-0.161	-0.443
-624.434	-140.915	-0.207	-0.022
-623.419	-200.000	-0.034	0.324
-622.405	67.817	0.059	-0.062
-621.390	55.785	0.144	-0.143
-620.376	-64.662	-0.153	0.064
-619.361	-100.139	-0.328	0.084
-618.346	-164.601	-0.183	0.009
-617.332	-11.000	-0.183	-0.124
-616.317	-104.574	-0.562	-0.133
-615.303	307.130	-0.100	-0.192
-614.288	3.033	0.265	0.198
-613.273	-8.379	0.101	0.070
-612.259	-147.153	-0.277	-0.024
-611.244	-31.904	-0.296	-0.170
-610.230	273.075	-0.225	0.408
-609.215	800.000	-0.102	0.316
-608.201	800.000	0.040	0.139
-607.186	240.477	-0.144	0.247
-606.171	165.636	-0.057	0.082
-605.157	-80.331	0.162	-0.055
-604.142	-181.121	0.133	0.003
-603.128	287.379	-0.104	-0.193
-602.113	800.000	-0.046	-0.174
-601.098	-10.275	-0.351	-0.239
-600.084	-91.526	-0.199	-0.058
-599.069	264.920	-0.137	-0.245
-598.055	-120.689	0.157	-0.027
-597.040	192.254	-0.117	-0.182
-596.025	87.653	0.124	-0.140
-595.011	-200.000	-0.032	-0.218
-593.996	91.397	0.187	0.215
-592.982	2.599	0.331	0.246
-591.967	105.234	0.124	0.150
-590.952	111.911	-0.140	0.174
-589.938	-63.765	-0.169	0.071
-588.923	-200.000	-0.012	0.256
-587.909	194.076	-0.202	-0.314
-586.894	-200.000	-0.016	0.183
-585.879	200.621	0.107	-0.169
-584.865	800.000	0.046	-0.166
-583.850	15.655	0.174	0.140
-582.836	-169.934	0.340	0.012
-581.821	-200.000	0.066	-0.331
-580.806	-11.369	-0.297	-0.200
-579.792	-175.199	0.300	0.009
-578.777	-200.000	-0.016	0.093
-577.763	800.000	0.045	-0.147
-576.748	-132.122	-0.304	-0.041
-575.733	215.456	0.140	-0.228
-574.719	77.621	-0.198	-0.216
-573.704	-81.163	-0.302	-0.102
-572.690	-120.937	0.240	0.041
-571.675	-5.221	-0.042	0.030
-570.661	800.000	-0.036	0.145
-569.646	95.161	0.224	-0.261
-568.631	-200.000	0.014	-0.115
-567.617	-14.977	-0.135	0.089
-566.602	186.264	0.111	-0.170
-565.588	-104.623	-0.169	0.040
-564.573	-118.386	0.225	-0.041
-563.558	-200.000	0.026	-0.121
-562.544	-109.988	-0.239	-0.051
-561.529	-200.000	0.045	0.234
-560.515	-84.947	-0.141	-0.045
-559.500	108.816	-0.058	0.071
-558.485	591.869	0.176	0.445
-557.471	800.000	0.025	-0.082
-556.456	-48.121	-0.215	-0.106
-555.442	-101.329	-0.175	0.044
-554.427	-92.149	0.159	0.046
-553.412	-17.152	-0.105	0.068
-552.398	-200.000	-0.020	-0.148
-551.383	-127.901	-0.182	-0.027
-550.369	126.922	-0.119	-0.155
-549.354	-88.696	0.168	0.051
-548.339	777.833	0.047	0.132
-547.325	205.552	-0.125	0.198
-546.310	179.822	-0.041	-0.062
-545.296	-112.546	0.245	-0.050
-544.281	237.151	-0.084	-0.142
-543.266	182.547	-0.125	-0.188
-542.252	321.264	0.123	-0.240
-541.237	140.047	0.176	-0.237
-540.223	123.442	0.131	-0.168
-539.208	-76.958	-0.052	0.019
-538.193	240.556	0.130	-0.222
-537.179	195.138	-0.130	0.202
-536.164	-200.000	0.020	-0.114
-535.150	-166.834	-0.037	0.002
-534.135	-200.000	-0.063	-0.287
-533.121	-200.000	0.027	0.253
-532.106	393.891	0.100	0.213
-531.091	-35.200	0.110	0.061
-530.077	-78.737	0.346	0.121
-529.062	-79.321	0.309	0.107
-528.048	800.000	0.016	0.063
-527.033	49.241	-0.106	0.102
-526.018	-103.009	-0.316	-0.077
-525.004	800.000	-0.049	-0.202
-523.989	108.977	0.034	0.042
-522.975	4.614	-0.356	-0.267
-521.960	-200.000	-0.032	-0.243
-520.945	77.426	-0.142	0.155
-519.931	-43.975	0.152	-0.078
-518.916	-200.000	0.039	0.205
-517.902	-177.104	-0.235	0.006
-516.887	-200.000	-0.002	0.154
-515.872	-53.228	-0.160	0.075
-514.858	187.035	0.092	0.141
-513.843	330.309	0.103	-0.202
-512.829	-183.992	-0.135	-0.002
-511.814	542.244	0.064	0.155
-510.799	-200.000	-0.070	-0.364
-509.785	-7.246	0.051	-0.035
-508.770	800.000	-0.045	0.175
-507.756	471.680	0.086	0.199
-506.741	-192.141	0.302	0.003
-505.726	-33.913	-0.089	0.050
-504.712	-153.682	0.101	0.007
-503.697	-120.245	0.170	-0.030
-502.683	800.000	0.066	0.188
-501.668	-200.000	-0.009	-0.058
-500.653	-83.548	0.435	-0.142
-499.639	-200.000	0.052	-0.269
-498.624	13.477	-0.153	-0.121
-497.610	-31.208	0.361	-0.208
-496.595	-189.475	-0.069	-0.001
-495.581	207.190	-0.200	-0.318
-494.566	162.796	0.128	0.184
-493.551	92.784	-0.117	0.135
-492.537	-67.133	-0.045	-0.018
-491.522	-43.652	-0.240	0.124
-490.508	147.563	-0.118	-0.163
-489.493	-87.103	0.239	-0.074
-488.478	575.987	-0.063	0.156
-487.464	-108.830	0.374	0.082
-486.449	23.501	0.038	0.032
-485.435	-71.536	0.104	-0.040
-484.420	-107.466	-0.129	0.029
-483.405	-3.023	0.248	0.177
-482.391	-41.338	0.196	-0.103
-481.376	149.022	0.010	0.014
-480.362	3.840	0.161	0.120
-479.347	-200.000	-0.016	0.164
-478.332	54.476	0.201	-0.198
-477.318	7.072	-0.297	-0.226
-476.303	-37.049	0.225	-0.123
-475.289	365.018	0.055	0.113
-474.274	-129.230	-0.108	-0.015
-473.259	-123.266	0.396	0.065
-472.245	-84.593	-0.253	0.081
-471.230	-116.142	0.140	0.027
-470.216	33.912	0.202	0.180
-469.201	-200.000	-0.031	-0.267
-468.186	-99.277	0.477	-0.123
-467.172	-11.472	-0.054	-0.036
-466.157	146.592	-0.092	0.126
-465.143	-200.000	-0.000	-0.014
-464.128	-166.687	0.424	0.018
-463.113	104.766	0.282	-0.339
-462.099	-23.854	0.158	-0.096
-461.084	536.761	-0.057	0.137
-460.070	-118.409	0.097	0.018
-459.055	800.000	0.088	0.384
-458.040	-167.463	-0.427	-0.017
-457.026	2.979	-0.070	-0.052
-456.011	-200.000	0.020	-0.103
-454.997	-200.000	-0.074	0.341
-453.982	353.491	-0.113	0.228
-452.968	96.292	-0.178	0.208
-451.953	-147.164	-0.089	0.008
-450.938	246.096	-0.132	0.228
-449.924	1.756	0.177	0.130
-448.909	110.639	0.111	-0.136
-447.895	-72.337	-0.381	0.144
-446.880	-88.038	-0.252	-0.077
-445.865	-31.119	0.304	-0.175
-444.851	67.995	-0.136	0.141
-443.836	-29.467	-0.259	0.151
-442.822	104.768	0.032	-0.038
-441.807	-200.000	-0.010	-0.189
-440.792	26.541	-0.136	0.116
-439.778	-18.494	0.140	-0.089
-438.763	327.336	-0.073	-0.143
-437.749	-200.000	-0.030	-0.209
-436.734	-200.000	-0.014	-0.395
-435.719	130.502	-0.035	0.046
-434.705	-22.000	-0.141	-0.087
-433.690	69.432	0.165	0.173
-432.676	143.207	0.085	-0.116
-431.661	189.843	0.019	0.030
-430.646	-88.063	-0.229	-0.070
-429.632	139.051	0.141	0.189
-428.617	-17.985	0.051	-0.033
-427.603	146.405	-0.100	0.137
-426.588	800.000	0.047	0.146
-425.573	-105.299	-0.285	-0.066
-424.559	-87.497	0.196	0.060
-423.544	-70.103	-0.222	-0.086
-422.530	-120.060	-0.301	-0.053
-421.515	-86.331	-0.227	0.071
-420.500	-125.735	-0.197	0.030
-419.486	-199.120	0.214	0.001
-418.471	-21.688	0.251	0.156
-417.457	670.950	0.021	-0.056
-416.442	129.279	-0.098	0.127
-415.428	-116.326	-0.104	0.020
-414.413	57.695	-0.158	0.158
-413.398	-1.842	-0.074	-0.053
-412.384	-77.776	0.012	-0.004
-411.369	357.955	-0.122	-0.248
-410.355	120.774	0.223	0.283
-409.340	-103.020	0.267	-0.064
-408.325	-150.390	-0.242	-0.019
-407.311	641.110	-0.027	0.071
-406.296	800.000	0.027	-0.086
-405.282	114.233	0.093	-0.115
-404.267	18.724	0.165	-0.134
-403.252	-90.537	-0.121	0.036
-402.238	196.264	0.048	-0.074
-401.223	292.236	0.216	0.400
-400.209	-115.941	0.047	0.009
-399.194	210.416	0.033	-0.053
-398.179	85.233	-0.046	0.052
-397.165	338.970	0.106	-0.210
-396.150	256.282	-0.022	-0.039
-395.136	-101.768	0.226	0.056
-394.121	-75.318	0.039	0.014
-393.106	-200.000	-0.012	-0.178
-392.092	20.470	0.162	0.133
-391.077	-77.141	-0.219	-0.078
-390.063	-106.046	0.110	0.025
-389.048	-48.721	-0.259	-0.126
-388.033	-92.051	-0.198	-0.057
-387.019	-200.000	0.010	0.052
-386.004	-128.552	0.121	0.017
-384.990	694.490	0.071	0.190
-383.975	-159.028	0.450	-0.026
-382.960	-148.370	0.164	0.014
-381.946	800.000	-0.045	-0.165
-380.931	-200.000	-0.041	-0.365
-379.917	-141.522	0.061	-0.006
-378.902	-65.334	-0.073	0.030
-377.888	-71.564	0.047	-0.018
-376.873	-48.742	-0.270	-0.132
-375.858	186.572	-0.216	0.326
-374.844	-1.039	-0.077	-0.056
-373.829	-122.749	0.197	0.032
-372.815	-45.545	0.269	0.135
-371.800	88.082	0.147	0.165
-370.785	-84.787	-0.079	-0.025
-369.771	800.000	-0.142	0.401
-368.756	-58.239	0.210	0.093
-367.742	-32.904	-0.166	-0.093
-366.727	-68.908	-0.262	0.103
-365.712	450.648	-0.091	0.205
-364.698	151.449	0.305	0.422
-363.683	53.984	-0.088	0.086
-362.669	800.000	-0.062	-0.215
-361.654	-200.000	0.024	-0.119
-360.639	93.464	0.137	-0.157
-359.625	-35.933	0.161	-0.088
-358.610	103.955	-0.318	-0.380
-357.596	82.338	0.068	-0.075
-356.581	-24.096	-0.051	0.031
-355.566	199.393	-0.183	0.285
-354.552	322.789	-0.076	0.148
-353.537	102.743	-0.316	0.376
-352.523	81.908	-0.378	-0.416
-351.508	-200.000	0.049	0.237
-350.493	-8.946	-0.241	0.164
-349.479	800.000	0.038	-0.157
-348.464	10.045	-0.073	-0.057
-347.450	29.119	0.283	-0.244
-346.435	-200.000	-0.009	0.136
-345.420	592.722	0.058	0.146
-344.406	-200.000	-0.027	0.253
-343.391	-200.000	0.022	0.208
-342.377	-95.172	-0.424	0.116
-341.362	17.474	-0.159	0.128
-340.348	-42.155	0.258	-0.134
-339.333	-200.000	-0.034	-0.382
-338.318	-69.402	0.077	0.030
-337.304	-158.472	-0.270	-0.016
-336.289	-152.273	-0.130	-0.010
-335.275	119.868	0.100	-0.125
-334.260	-95.694	-0.264	0.072
-333.245	-144.101	-0.360	0.034
-332.231	-82.883	0.407	0.133
-331.216	-169.103	0.175	0.007
-330.202	34.129	0.092	0.081
-329.187	-49.922	-0.227	0.109
-328.172	-148.447	0.374	-0.031
-327.158	-200.000	0.019	-0.207
-326.143	800.000	0.091	0.305
-325.129	800.000	0.075	0.274
-324.114	-200.000	-0.034	0.252
-323.099	-75.192	-0.156	-0.057
-322.085	-100.091	-0.133	-0.034
-321.070	-164.662	0.260	-0.012
-320.056	800.000	0.075	-0.281
-319.041	319.723	-0.161	-0.311
-318.026	-69.315	0.243	-0.095
-317.012	-61.280	0.063	0.027
-315.997	33.934	-0.170	0.150
-314.983	-200.000	0.008	-0.258
-313.968	430.511	0.132	-0.290
-312.953	800.000	0.075	-0.291
-311.939	-27.180	-0.113	-0.067
-310.924	399.921	-0.030	-0.064
-309.910	-200.000	-0.029	-0.174
-308.895	800.000	-0.090	0.372
-307.880	-68.715	-0.211	0.083
-306.866	-45.123	0.350	-0.177
-305.851	-67.029	-0.040	0.016
-304.837	98.111	-0.078	-0.091
-303.822	66.788	0.144	0.148
-302.807	-52.012	0.078	-0.037
-301.793	-108.937	0.089	-0.019
-300.778	-200.000	-0.314	-0.000
-299.764	37.603	0.063	0.057
-298.749	-200.000	0.027	0.132
-297.735	412.301	0.027	-0.058
-296.720	800.000	-0.061	-0.241
-295.705	-200.000	0.054	0.275
-294.691	-43.495	0.201	0.103
-293.676	106.713	-0.217	-0.261
-292.662	-200.000	-0.030	0.226
-291.647	-46.898	-0.169	0.084
-290.632	16.020	0.213	-0.170
-289.618	-65.935	0.313	0.127
-288.603	387.155	0.089	-0.186
-287.589	-200.000	0.046	-0.225
-286.574	800.000	-0.039	0.156
-285.559	244.220	0.082	0.140
-284.545	-75.844	0.272	0.098
-283.530	-61.192	0.333	0.142
-282.516	-96.663	0.147	-0.039
-281.501	535.896	0.091	-0.220
-280.486	-113.142	0.245	0.049
-279.472	-133.754	-0.417	0.053
-278.457	-72.143	-0.387	0.146
-277.443	800.000	-0.062	-0.210
-276.428	201.058	0.125	0.194
-275.413	-200.000	-0.020	-0.231
-274.399	26.059	0.135	0.114
-273.384	-156.379	0.380	-0.024
-272.370	-200.000	0.008	-0.173
-271.355	-200.000	0.022	-0.132
-270.340	165.633	-0.073	0.104
-269.326	32.095	0.236	0.206
-268.311	695.733	0.078	0.208
-267.297	441.668	0.006	-0.014
-266.282	-101.503	-0.095	0.023
-265.267	-57.748	0.333	0.147
-264.253	-60.699	0.245	0.105
-263.238	-200.000	0.047	0.266
-262.224	-103.251	0.333	-0.079
-261.209	-108.022	-0.252	-0.055
-260.195	417.927	-0.204	0.442
-259.180	104.869	-0.152	-0.181
-258.165	-200.000	0.017	-0.346
-257.151	-54.170	0.376	-0.173
-256.136	2.602	-0.122	0.089
-255.122	-200.000	-0.010	0.125
-254.107	-104.499	0.071	0.017
-253.092	25.162	-0.179	0.150
-252.078	-161.325	0.185	0.010
-251.063	10.823	-0.164	-0.126
-250.049	-110.348	-0.069	0.014
-249.034	62.954	0.169	0.171
-248.019	-83.101	-0.197	-0.064
-247.005	62.437	-0.099	0.100
-245.990	55.256	-0.130	0.127
-244.976	-59.336	-0.276	-0.120
-243.961	-200.000	-0.059	0.288
-242.946	-60.418	-0.248	-0.107
-241.932	204.975	0.107	0.167
-240.917	49.067	-0.147	0.140
-239.903	-61.204	0.317	0.135
-238.888	-200.000	-0.017	0.181
-237.873	5.177	0.080	0.059
-236.859	-57.369	0.233	-0.104
-235.844	-200.000	-0.061	-0.332
-234.830	-200.000	0.000	-0.505
-233.815	-6.530	0.091	-0.063
-232.800	3.200	0.229	0.168
-231.786	800.000	0.075	-0.221
-230.771	-200.000	0.001	0.008
-229.757	800.000	-0.069	0.228
-228.742	637.818	-0.099	-0.255
-227.727	-200.000	-0.022	0.149
-226.713	-200.000	0.072	-0.333
-225.698	800.000	-0.037	-0.117
-224.684	31.877	-0.026	0.023
-223.669	-200.000	0.003	0.343
-222.655	-193.667	-0.102	0.001
-221.640	117.815	-0.090	0.112
-220.625	10.128	-0.162	0.124
-219.611	800.000	0.014	0.053
-218.596	9.451	0.213	0.163
-217.582	55.140	0.154	-0.150
-216.567	176.615	0.376	-0.552
-215.552	-74.132	-0.134	-0.049
-214.538	-62.069	0.180	0.076
-213.523	-200.000	0.037	0.204
-212.509	83.115	-0.028	-0.031
-211.494	-106.599	-0.365	-0.082
-210.479	-200.000	0.011	-0.130
-209.465	-200.000	0.026	0.163
-208.450	184.515	-0.032	-0.048
-207.436	-115.913	-0.127	-0.024
-206.421	-200.000	-0.048	0.227
-205.406	94.222	0.033	-0.038
-204.392	-0.231	-0.250	-0.180
-203.377	-136.058	0.089	0.011
-202.363	-88.180	-0.041	-0.013
-201.348	8.599	-0.033	0.025
-200.333	149.155	-0.098	0.135
-199.319	61.649	0.306	-0.307
-198.304	-138.938	-0.124	-0.014
-197.290	-200.000	-0.339	-0.000
-196.275	141.365	0.188	-0.251
-195.260	-134.688	0.074	-0.009
-194.246	222.826	-0.138	0.224
-193.231	512.634	0.138	0.326
-192.217	-200.000	-0.115	0.533
-191.202	-24.690	0.119	-0.072
-190.187	-200.000	0.001	0.083
-189.173	486.992	0.082	-0.188
-188.158	-200.000	0.005	0.057
-187.144	-200.000	0.025	0.332
-186.129	334.054	0.050	-0.097
-185.114	-69.343	0.189	-0.073
-184.100	119.929	-0.115	-0.144
-183.085	100.597	-0.310	0.363
-182.071	241.324	-0.029	-0.050
-181.056	800.000	-0.034	-0.142
-180.042	32.740	0.185	0.161
-179.027	-24.648	-0.217	0.130
-178.012	-30.438	0.195	0.112
-176.998	-200.000	-0.035	0.183
-175.983	-86.054	-0.168	-0.052
-174.969	175.179	-0.029	-0.043
-173.954	-200.000	-0.020	-0.130
-172.939	197.232	0.059	0.092
-171.925	-130.128	0.072	0.010
-170.910	-190.847	0.223	0.002
-169.896	-158.379	-0.093	0.005
-168.881	-58.333	0.220	0.096
-167.866	-109.548	0.177	0.038
-166.852	80.798	0.138	-0.150
-165.837	-200.000	-0.047	-0.255
-164.823	-122.754	0.488	-0.080
-163.808	-200.000	-0.023	-0.128
-162.793	-200.000	0.073	-0.338
-161.779	-109.341	-0.239	-0.051
-160.764	-42.766	-0.166	-0.085
-159.750	-200.000	0.016	0.191
-158.735	624.044	0.056	0.142
-157.720	-45.614	-0.045	0.022
-156.706	120.915	-0.252	0.315
-155.691	-200.000	-0.018	0.228
-154.677	28.030	0.042	0.036
-153.662	-20.606	0.145	0.090
-152.647	517.251	-0.060	-0.141
-151.633	-4.348	-0.373	0.260
-150.618	207.005	-0.142	0.223
-149.604	218.494	-0.034	-0.054
-148.589	800.000	0.033	0.103
-147.574	-200.000	-0.001	-0.223
-146.560	-26.001	0.266	-0.158
-145.545	479.509	0.062	-0.142
-144.531	-40.487	-0.129	-0.067
-143.516	-200.000	-0.006	0.609
-142.502	347.353	0.089	-0.177
-141.487	139.137	0.046	0.061
-140.472	-6.259	-0.238	-0.164
-139.458	800.000	-0.142	-0.458
-138.443	800.000	-0.083	-0.307
-137.429	800.000	-0.103	-0.387
-136.414	110.589	0.125	-0.152
-135.399	28.921	-0.239	-0.204
-134.385	-139.609	-0.012	-0.001
-133.370	-68.337	-0.259	-0.101
-132.356	697.047	0.068	-0.181
-131.341	-27.486	-0.275	0.161
-130.326	-200.000	0.023	-0.186
-129.312	-69.610	-0.263	-0.101
-128.297	127.555	-0.133	0.170
-127.283	800.000	0.026	0.085
-126.268	161.505	0.230	-0.324
-125.253	-200.000	-0.057	-0.253
-124.239	-200.000	-0.037	-0.465
-123.224	-100.604	0.167	-0.041
-122.210	-99.778	0.179	0.045
