DTS Sentinel unit serial number:	SN413079Multiplexer serial number:	ORYXHardware model number:	OX4-SRSoftware version number:	ORYX F/W v4.00 Oryx Data Collector v3.7.2.0data status	okinstallation	princeton_trtdifferential loss correction	single-endedforward channel	channel 4reverse channel	N/Adate	2019/09/15time	21:57:35forward acquisition time	60.00reverse acquisition time	0.00gamma	496.2192k internal	0.2319k external	0.2319temperature offset calibration	0.9949default loss term (dB/km)	0.3790temperature slope calibration	1.0000multiplexer offset coefficient	1.0000multiplexer slope coefficient	1.0000fibre end	0.00T internal ref (°C)	29.94T ext. ref 1 (°C)	8.50T ext. ref 2 (°C)	23.01length (m)	temperature (°C)	Stokes	anti-Stokes-747.200	-175.239	0.239	-0.007
-746.185	460.497	-0.053	0.119
-745.171	-200.000	0.013	0.198
-744.156	-100.650	-0.438	-0.109
-743.142	800.000	-0.035	0.140
-742.127	-200.000	-0.026	0.160
-741.112	-94.676	-0.080	0.022
-740.098	1.117	-0.238	0.173
-739.083	-200.000	-0.041	0.302
-738.069	800.000	0.128	0.360
-737.054	-200.000	0.020	0.119
-736.039	-115.304	-0.328	0.063
-735.025	213.219	0.150	-0.240
-734.010	-93.139	-0.343	0.097
-732.996	13.802	-0.123	-0.097
-731.981	17.992	0.415	-0.335
-730.966	-94.999	0.131	-0.036
-729.952	-200.000	0.027	-0.129
-728.937	-54.515	-0.083	0.038
-727.923	-74.167	0.091	-0.033
-726.908	41.444	0.135	0.124
-725.894	66.629	-0.226	-0.232
-724.879	-200.000	0.014	-0.233
-723.864	-82.170	-0.092	0.030
-722.850	0.428	0.071	0.051
-721.835	-8.691	-0.267	0.181
-720.821	800.000	-0.050	-0.194
-719.806	-127.794	0.325	0.047
-718.791	-160.887	0.462	-0.025
-717.777	-81.319	-0.171	0.057
-716.762	29.648	0.313	-0.269
-715.748	31.147	-0.167	-0.145
-714.733	9.977	-0.318	-0.244
-713.718	-200.000	-0.003	0.158
-712.704	800.000	0.057	0.229
-711.689	15.575	0.259	0.205
-710.675	-11.596	-0.175	-0.117
-709.660	-96.587	-0.202	-0.054
-708.645	-103.674	0.044	0.011
-707.631	800.000	0.015	0.064
-706.616	-61.177	0.297	-0.126
-705.602	72.301	-0.156	0.164
-704.587	-134.684	-0.030	0.004
-703.572	-98.265	0.028	-0.007
-702.558	-200.000	-0.009	0.231
-701.543	355.503	0.022	-0.044
-700.529	434.980	0.067	-0.147
-699.514	195.639	0.102	0.156
-698.499	405.884	0.195	0.415
-697.485	-200.000	-0.008	-0.178
-696.470	464.142	-0.075	-0.170
-695.456	-8.336	0.220	-0.149
-694.441	-9.283	0.103	0.070
-693.426	-62.387	0.094	0.040
-692.412	152.050	-0.225	-0.310
-691.397	84.596	-0.040	-0.044
-690.383	17.985	0.192	0.154
-689.368	744.544	-0.069	-0.186
-688.354	800.000	0.041	-0.123
-687.339	-200.000	-0.056	-0.308
-686.324	668.672	0.042	0.111
-685.310	373.322	0.012	0.025
-684.295	-40.000	-0.336	0.177
-683.281	170.740	0.111	-0.161
-682.266	-82.200	-0.240	-0.079
-681.251	50.096	0.136	-0.129
-680.237	-200.000	0.043	0.235
-679.222	-200.000	-0.021	0.186
-678.208	663.156	0.069	-0.179
-677.193	-200.000	0.041	0.253
-676.178	24.284	0.207	-0.173
-675.164	-24.325	-0.135	0.082
-674.149	800.000	-0.078	-0.310
-673.135	-68.484	-0.065	-0.026
-672.120	-200.000	-0.007	0.148
-671.105	21.770	-0.224	0.184
-670.091	-30.714	-0.170	-0.097
-669.076	506.617	0.066	-0.155
-668.062	1.453	0.029	0.021
-667.047	181.118	-0.202	0.300
-666.032	-42.239	0.216	-0.111
-665.018	101.196	-0.187	-0.219
-664.003	-7.334	-0.442	0.302
-662.989	541.033	0.045	0.107
-661.974	774.417	-0.080	-0.220
-660.959	-159.661	-0.447	-0.025
-659.945	-132.392	-0.174	-0.023
-658.930	-83.524	-0.254	-0.082
-657.916	800.000	0.005	0.020
-656.901	800.000	0.158	0.528
-655.886	399.072	-0.169	0.357
-654.872	-4.497	0.156	-0.108
-653.857	-158.891	-0.175	0.010
-652.843	45.131	-0.169	-0.157
-651.828	181.056	0.156	-0.232
-650.814	-36.101	-0.291	0.159
-649.799	-94.941	-0.302	-0.082
-648.784	-83.723	0.200	-0.064
-647.770	-37.947	-0.394	0.211
-646.755	-200.000	0.088	0.426
-645.741	-1.906	-0.066	0.047
-644.726	168.735	0.030	-0.043
-643.711	-179.123	0.086	-0.002
-642.697	-161.293	-0.258	0.013
-641.682	160.787	0.146	-0.206
-640.668	800.000	0.097	0.417
-639.653	-109.850	0.204	-0.043
-638.638	-200.000	-0.276	0.000
-637.624	-17.577	-0.392	0.248
-636.609	124.494	-0.109	-0.139
-635.595	-200.000	0.068	-0.345
-634.580	118.683	-0.187	-0.233
-633.565	304.086	0.096	-0.179
-632.551	-48.481	-0.205	0.100
-631.536	-200.000	-0.011	0.085
-630.522	-200.000	-0.012	0.181
-629.507	3.527	-0.236	-0.173
-628.492	-62.914	-0.104	0.043
-627.478	-200.000	0.000	-0.238
-626.463	-121.026	-0.100	0.017
-625.449	134.725	-0.152	0.198
-624.434	-46.195	-0.440	0.218
-623.419	-200.000	0.003	-0.277
-622.405	14.177	-0.234	-0.183
-621.390	-200.000	0.008	-0.062
-620.376	-165.129	-0.209	0.009
-619.361	-200.000	0.002	-0.161
-618.346	-200.000	-0.059	-0.377
-617.332	-135.383	-0.148	0.018
-616.317	53.964	0.190	0.184
-615.303	-200.000	0.004	0.303
-614.288	-155.427	-0.150	0.010
-613.273	364.775	-0.078	-0.157
-612.259	-64.231	-0.152	0.062
-611.244	-40.478	0.161	0.084
-610.230	-91.141	0.098	0.028
-609.215	-57.294	-0.199	0.088
-608.201	-33.813	-0.086	-0.048
-607.186	-200.000	0.032	-0.451
-606.171	-5.564	-0.286	-0.197
-605.157	-35.809	0.090	0.049
-604.142	147.471	0.133	-0.180
-603.128	90.316	0.078	0.088
-602.113	-178.895	-0.025	0.001
-601.098	199.899	-0.063	0.098
-600.084	146.637	-0.055	-0.074
-599.069	602.208	-0.047	0.117
-598.055	-97.830	-0.214	0.056
-597.040	-106.896	0.275	0.061
-596.025	800.000	0.059	-0.175
-595.011	-104.890	0.242	0.056
-593.996	63.295	0.136	-0.137
-592.982	-200.000	0.015	0.369
-591.967	-110.004	-0.093	0.020
-590.952	315.771	-0.054	-0.102
-589.938	-69.834	0.222	0.085
-588.923	101.062	-0.143	0.168
-587.909	681.769	-0.056	-0.148
-586.894	369.602	0.108	0.219
-585.879	-155.840	-0.118	-0.008
-584.865	-9.322	-0.121	0.081
-583.850	29.780	0.137	0.117
-582.836	-116.859	-0.097	0.018
-581.821	-142.873	0.073	-0.007
-580.806	-125.813	-0.113	-0.017
-579.792	535.350	0.073	-0.175
-578.777	202.706	-0.190	0.295
-577.763	141.520	0.157	-0.208
-576.748	735.748	-0.126	-0.338
-575.733	-153.797	0.198	-0.014
-574.719	-58.414	-0.043	-0.019
-573.704	-150.787	0.217	0.017
-572.690	-200.000	-0.009	-0.126
-571.675	-2.156	-0.250	-0.176
-570.661	234.935	-0.076	-0.127
-569.646	-18.625	0.306	0.192
-568.631	-27.554	-0.183	-0.107
-567.617	-92.387	-0.132	-0.037
-566.602	-164.025	0.267	-0.012
-565.588	-71.403	-0.247	0.093
-564.573	147.357	0.108	0.146
-563.558	-73.936	0.206	0.075
-562.544	800.000	0.032	0.103
-561.529	135.152	0.257	-0.336
-560.515	40.431	-0.279	-0.252
-559.500	42.923	-0.052	0.048
-558.485	42.937	-0.219	-0.201
-557.471	-33.848	-0.180	-0.099
-556.456	105.570	0.138	-0.164
-555.442	56.687	0.247	-0.241
-554.427	435.983	-0.107	-0.233
-553.412	-119.121	0.240	-0.042
-552.398	656.481	0.074	0.191
-551.383	93.106	-0.073	0.082
-550.369	181.922	0.143	-0.211
-549.354	-122.982	0.212	-0.034
-548.339	247.959	-0.173	-0.294
-547.325	-60.498	-0.291	-0.124
-546.310	5.785	0.135	-0.100
-545.296	-200.000	-0.005	-0.070
-544.281	154.986	0.074	0.102
-543.266	-118.958	-0.123	0.022
-542.252	180.277	0.130	0.191
-541.237	410.902	-0.098	0.209
-540.223	457.212	-0.153	0.341
-539.208	253.327	0.081	0.139
-538.193	-73.318	0.315	0.116
-537.179	-70.336	-0.069	-0.026
-536.164	800.000	0.101	-0.328
-535.150	-88.707	0.247	0.074
-534.135	499.953	-0.018	0.041
-533.121	361.542	0.093	-0.186
-532.106	-200.000	-0.011	0.165
-531.091	80.770	0.238	-0.258
-530.077	400.868	0.049	0.104
-529.062	-81.430	0.245	0.081
-528.048	3.719	-0.079	-0.058
-527.033	798.836	-0.120	-0.333
-526.018	-200.000	0.001	-0.251
-525.004	-105.079	-0.020	0.005
-523.989	-200.000	-0.085	-0.382
-522.975	50.563	0.181	0.172
-521.960	-37.282	0.118	0.063
-520.945	3.328	0.141	0.103
-519.931	8.285	0.183	-0.138
-518.916	-120.364	-0.402	0.069
-517.902	-200.000	-0.010	-0.271
-516.887	-200.000	0.016	0.390
-515.872	101.172	-0.176	-0.205
-514.858	-1.164	-0.351	0.249
-513.843	-29.590	0.215	-0.123
-512.829	-33.863	0.196	0.108
-511.814	24.768	-0.175	0.145
-510.799	15.101	0.139	0.109
-509.785	156.171	0.063	-0.087
-508.770	-200.000	0.002	-0.102
-507.756	-105.682	0.056	-0.013
-506.741	205.037	0.044	-0.068
-505.726	-200.000	-0.006	-0.032
-504.712	-27.162	0.185	0.108
-503.697	-156.724	0.230	-0.014
-502.683	492.351	-0.065	0.150
-501.668	344.969	-0.039	0.076
-500.653	336.611	-0.042	-0.082
-499.639	-200.000	0.017	0.203
-498.624	800.000	-0.025	-0.103
-497.610	-120.973	-0.349	-0.059
-496.595	-125.715	0.217	0.033
-495.581	-200.000	0.042	-0.249
-494.566	136.311	-0.096	-0.125
-493.551	800.000	-0.080	-0.224
-492.537	-27.546	0.250	0.145
-491.522	255.187	0.115	-0.198
-490.508	-200.000	0.044	0.235
-489.493	-26.865	-0.120	0.070
-488.478	-200.000	-0.011	0.364
-487.464	-1.179	0.098	-0.069
-486.449	138.108	-0.196	-0.258
-485.435	222.077	0.046	-0.074
-484.420	-17.220	-0.159	0.101
-483.405	-149.060	0.144	-0.012
-482.391	-77.705	0.188	-0.065
-481.376	-88.287	-0.113	-0.034
-480.362	-36.419	-0.179	-0.097
-479.347	-200.000	-0.036	0.217
-478.332	-23.191	0.320	0.193
-477.318	-123.673	-0.158	-0.025
-476.303	279.524	0.170	0.304
-475.289	265.503	-0.196	0.342
-474.274	-200.000	-0.038	0.344
-473.259	186.206	0.125	-0.186
-472.245	-1.871	0.076	-0.053
-471.230	-138.659	-0.112	0.012
-470.216	297.192	-0.104	0.190
-469.201	102.059	0.190	0.222
-468.186	-78.786	-0.309	-0.105
-467.172	43.588	0.104	-0.095
-466.157	579.311	0.100	0.244
-465.143	24.661	0.208	0.172
-464.128	-200.000	0.036	-0.240
-463.113	391.674	0.079	0.165
-462.099	381.396	0.153	0.314
-461.084	-200.000	0.442	-0.001
-460.070	35.638	-0.172	-0.152
-459.055	-108.842	-0.246	-0.053
-458.040	-159.600	0.420	-0.023
-457.026	-200.000	0.003	0.114
-456.011	145.654	0.390	-0.523
-454.997	438.979	-0.157	0.343
-453.982	-139.464	-0.353	-0.038
-452.968	477.431	-0.088	0.199
-451.953	46.522	0.147	0.137
-450.938	-112.298	0.138	-0.028
-449.924	372.661	-0.148	0.300
-448.909	-200.000	-0.009	0.259
-447.895	-200.000	-0.049	0.289
-446.880	-200.000	-0.016	-0.086
-445.865	118.733	-0.050	0.062
-444.851	800.000	-0.040	-0.146
-443.836	-200.000	-0.015	-0.225
-442.822	-179.762	-0.151	0.003
-441.807	183.979	-0.067	0.099
-440.792	73.210	0.122	0.127
-439.778	151.225	-0.186	0.253
-438.763	-35.198	-0.323	-0.176
-437.749	-126.662	0.156	-0.023
-436.734	130.789	0.126	0.161
-435.719	-200.000	-0.071	-0.350
-434.705	-77.989	-0.111	0.038
-433.690	12.041	0.254	0.195
-432.676	-96.794	0.266	0.070
-431.661	228.358	0.089	-0.145
-430.646	317.618	0.134	0.254
-429.632	-105.298	0.178	-0.041
-428.617	-63.146	0.270	-0.111
-427.603	-77.886	0.087	0.030
-426.588	-200.000	-0.015	0.085
-425.573	363.459	-0.120	-0.241
-424.559	-23.529	0.202	0.121
-423.544	-16.190	-0.119	0.075
-422.530	-113.005	0.083	-0.016
-421.515	-83.365	-0.326	0.104
-420.500	-88.360	-0.442	0.132
-419.486	-130.595	0.169	0.023
-418.471	-102.090	0.254	-0.061
-417.457	1.169	-0.164	-0.118
-416.442	-133.372	-0.308	-0.039
-415.428	-200.000	-0.011	-0.091
-414.413	40.009	-0.112	0.101
-413.398	13.510	-0.157	0.122
-412.384	-200.000	0.011	-0.360
-411.369	-82.806	-0.412	0.133
-410.355	-200.000	-0.001	0.078
-409.340	-48.029	0.127	0.061
-408.325	-60.418	0.126	-0.054
-407.311	-130.041	0.332	-0.045
-406.296	-173.740	0.090	-0.003
-405.282	56.780	0.274	-0.267
-404.267	87.938	0.053	0.059
-403.252	-38.829	0.173	0.091
-402.238	410.193	-0.076	0.161
-401.223	104.191	0.245	0.287
-400.209	-0.187	-0.249	-0.177
-399.194	232.743	0.069	0.113
-398.179	-1.652	-0.422	0.297
-397.165	-33.697	0.058	0.032
-396.150	-83.005	-0.236	-0.076
-395.136	-200.000	0.006	-0.168
-394.121	260.932	-0.187	-0.324
-393.106	-2.338	-0.222	-0.155
-392.092	-200.000	0.041	-0.274
-391.077	-130.516	-0.103	-0.014
-390.063	25.789	0.187	-0.155
-389.048	413.078	-0.029	-0.061
-388.033	12.521	0.089	-0.069
-387.019	172.174	0.189	-0.271
-386.004	139.186	0.157	-0.207
-384.990	-200.000	0.010	0.245
-383.975	-200.000	0.029	-0.417
-382.960	-35.930	-0.211	0.114
-381.946	-200.000	0.034	0.285
-380.931	6.908	-0.040	0.030
-379.917	-115.974	0.312	0.058
-378.902	-118.005	-0.126	-0.022
-377.888	-13.249	0.212	-0.137
-376.873	441.866	-0.048	0.105
-375.858	-86.595	-0.130	-0.040
-374.844	64.103	-0.358	0.359
-373.829	800.000	0.061	0.194
-372.815	23.796	0.197	-0.162
-371.800	-20.101	-0.296	-0.182
-370.785	375.292	0.147	0.298
-369.771	57.523	-0.039	0.038
-368.756	657.471	0.057	-0.146
-367.742	-200.000	0.072	0.346
-366.727	-200.000	0.005	-0.288
-365.712	-59.964	-0.320	-0.136
-364.698	123.537	0.082	-0.102
-363.683	-55.883	0.205	-0.091
-362.669	-48.452	0.331	0.159
-361.654	148.107	0.147	0.198
-360.639	175.789	-0.135	-0.195
-359.625	-200.000	0.043	0.578
-358.610	-99.742	0.123	-0.031
-357.596	11.809	-0.176	-0.135
-356.581	21.637	-0.201	-0.163
-355.566	317.070	0.127	0.240
-354.552	800.000	-0.071	0.309
-353.537	141.994	0.025	-0.033
-352.523	-100.328	0.067	-0.016
-351.508	-126.444	0.188	-0.028
-350.493	101.959	0.228	-0.265
-349.479	-33.112	-0.305	-0.168
-348.464	-200.000	0.032	0.427
-347.450	-4.979	-0.192	0.131
-346.435	205.437	0.028	-0.044
-345.420	-19.782	0.219	-0.135
-344.406	190.489	0.017	-0.025
-343.391	-45.129	0.055	0.027
-342.377	-200.000	0.044	-0.000
-341.362	-200.000	-0.023	-0.261
-340.348	800.000	0.101	0.354
-339.333	185.900	-0.179	0.266
-338.318	-50.266	-0.172	-0.081
-337.304	351.923	0.112	-0.221
-336.289	-63.075	-0.208	0.086
-335.275	-70.002	0.119	-0.045
-334.260	511.075	-0.101	-0.234
-333.245	24.633	0.077	-0.063
-332.231	800.000	-0.079	-0.271
-331.216	800.000	0.039	0.110
-330.202	-2.347	-0.084	0.059
-329.187	647.089	0.118	0.300
-328.172	800.000	-0.108	0.396
-327.158	-200.000	0.044	0.252
-326.143	-103.239	0.197	-0.046
-325.129	35.671	0.166	-0.145
-324.114	516.529	0.076	0.176
-323.099	-129.282	-0.144	0.020
-322.085	-114.150	0.081	0.016
-321.070	-200.000	-0.027	0.150
-320.056	316.664	-0.037	-0.070
-319.041	12.478	-0.280	-0.215
-318.026	800.000	0.045	0.160
-317.012	800.000	-0.033	0.136
-315.997	336.423	-0.116	-0.224
-314.983	-200.000	-0.035	0.185
-313.968	-200.000	0.051	-0.230
-312.953	14.887	0.259	0.201
-311.939	107.083	0.066	0.079
-310.924	-200.000	0.023	0.275
-309.910	-200.000	-0.008	-0.218
-308.895	-200.000	0.025	-0.180
-307.880	-200.000	-0.008	0.309
-306.866	-200.000	-0.014	-0.118
-305.851	-138.154	-0.079	0.009
-304.837	-200.000	-0.027	0.158
-303.822	122.166	0.038	-0.047
-302.807	33.369	-0.033	-0.029
-301.793	-200.000	-0.010	-0.087
-300.778	-200.000	0.021	0.322
-299.764	429.591	0.072	-0.156
-298.749	69.577	0.102	-0.105
-297.735	143.576	0.055	-0.073
-296.720	-56.223	-0.075	-0.033
-295.705	800.000	-0.074	-0.237
-294.691	17.594	0.239	0.189
-293.676	-33.632	-0.284	-0.156
-292.662	-134.742	0.110	0.013
-291.647	-200.000	-0.007	-0.124
-290.632	-12.806	0.101	0.065
-289.618	800.000	0.053	0.200
-288.603	-99.507	0.059	-0.015
-287.589	-28.458	-0.120	-0.069
-286.574	-69.751	-0.296	0.113
-285.559	11.133	0.134	0.102
-284.545	800.000	0.056	-0.194
-283.530	-81.945	-0.363	-0.118
-282.516	-91.391	-0.179	0.051
-281.501	239.020	0.091	-0.150
-280.486	15.467	0.205	0.160
-279.472	-179.274	0.317	-0.007
-278.457	-200.000	0.020	-0.186
-277.443	-88.274	-0.066	-0.020
-276.428	-177.334	0.109	-0.003
-275.413	120.640	0.087	-0.107
-274.399	800.000	0.023	0.093
-273.384	-126.732	0.228	0.033
-272.370	-72.713	-0.030	-0.011
-271.355	-19.102	-0.178	-0.110
-270.340	50.155	0.118	0.111
-269.326	800.000	-0.011	0.034
-268.311	800.000	0.046	0.185
-267.297	24.984	-0.173	-0.142
-266.282	182.343	-0.096	-0.141
-265.267	-89.633	-0.427	-0.124
-264.253	137.849	-0.135	-0.175
-263.238	277.626	0.053	0.093
-262.224	-200.000	0.021	-0.251
-261.209	-200.000	0.014	-0.114
-260.195	800.000	-0.049	0.162
-259.180	-17.147	0.232	0.145
-258.165	-83.790	-0.248	-0.079
-257.151	41.790	0.101	0.091
-256.136	-200.000	0.012	-0.068
-255.122	-182.658	0.024	0.000
-254.107	-200.000	0.018	0.244
-253.092	800.000	-0.091	0.298
-252.078	125.110	0.103	0.129
-251.063	-200.000	-0.036	-0.156
-250.049	-105.524	0.253	-0.057
-249.034	-109.656	-0.111	-0.023
-248.019	421.406	-0.145	0.309
-247.005	-99.609	0.162	0.040
-245.990	800.000	-0.050	-0.177
-244.976	-194.218	-0.255	0.002
-243.961	347.003	0.050	0.098
-242.946	-200.000	0.003	0.138
-241.932	-127.637	-0.304	-0.044
-240.917	129.488	-0.083	0.105
-239.903	389.041	-0.154	0.315
-238.888	34.114	0.074	-0.064
-237.873	-200.000	0.032	0.233
-236.859	208.450	-0.232	-0.360
-235.844	-200.000	0.019	-0.251
-234.830	-200.000	-0.007	0.038
-233.815	-200.000	0.003	-0.078
-232.800	-194.446	0.241	0.002
-231.786	-70.278	-0.189	0.071
-230.771	132.389	-0.156	0.200
-229.757	-6.905	-0.119	0.080
-228.742	499.681	0.060	-0.137
-227.727	454.954	0.088	-0.193
-226.713	-94.849	0.561	0.151
-225.698	124.857	-0.138	0.172
-224.684	-200.000	-0.026	0.212
-223.669	-195.268	0.121	-0.001
-222.655	-200.000	0.143	0.001
-221.640	287.379	0.060	0.107
-220.625	119.191	0.223	-0.274
-219.611	442.401	0.079	0.172
-218.596	198.801	-0.154	0.233
-217.582	800.000	-0.027	0.109
-216.567	-16.368	0.219	-0.137
-215.552	-82.501	0.104	0.033
-214.538	-5.929	0.211	-0.143
-213.523	-200.000	-0.053	-0.236
-212.509	54.839	-0.142	0.136
-211.494	-74.086	0.264	-0.095
-210.479	50.534	-0.117	-0.110
-209.465	673.868	0.147	0.379
-208.450	169.262	-0.041	0.058
-207.436	-60.598	-0.048	-0.020
-206.421	232.423	-0.012	0.020
-205.406	252.474	0.129	0.218
-204.392	-116.945	0.029	0.005
-203.377	-42.221	-0.244	-0.124
-202.363	800.000	0.034	-0.130
-201.348	305.400	0.097	-0.178
-200.333	37.121	-0.518	0.454
-199.319	98.345	-0.089	-0.101
-198.304	-39.158	0.353	-0.184
-197.290	24.548	0.354	0.290
-196.275	-79.304	-0.046	0.016
-195.260	161.963	0.123	-0.170
-194.246	800.000	-0.033	-0.096
-193.231	-75.069	-0.265	-0.094
-192.217	-135.927	-0.210	0.024
-191.202	800.000	0.089	-0.273
-190.187	37.325	0.208	-0.183
-189.173	-200.000	0.023	0.156
-188.158	-200.000	-0.001	-0.149
-187.144	-200.000	-0.006	0.244
-186.129	-200.000	-0.010	0.420
-185.114	-130.036	0.067	-0.009
-184.100	-120.665	-0.270	-0.045
-183.085	-99.626	-0.129	-0.032
-182.071	-200.000	0.006	0.060
-181.056	80.425	0.108	-0.115
-180.042	-89.771	-0.297	-0.086
-179.027	-64.154	-0.237	-0.095
-178.012	84.332	-0.273	-0.296
-176.998	-200.000	-0.052	-0.260
-175.983	54.736	0.335	0.319
-174.969	-83.298	-0.162	-0.051
-173.954	-95.447	-0.321	-0.085
-172.939	-75.582	-0.219	-0.077
-171.925	-18.525	0.258	-0.159
-170.910	-200.000	-0.033	-0.269
-169.896	325.966	0.132	-0.249
-168.881	-116.962	-0.215	0.039
-167.866	-200.000	0.017	-0.128
-166.852	-54.586	0.254	-0.114
-165.837	190.170	-0.150	-0.223
-164.823	-9.850	0.218	0.144
-163.808	238.300	0.185	-0.304
-162.793	-125.313	0.473	-0.071
-161.779	-87.690	-0.069	-0.020
-160.764	-166.212	0.163	0.007
-159.750	0.251	0.250	0.176
-158.735	726.841	-0.069	-0.183
-157.720	-46.742	-0.329	-0.159
-156.706	505.789	0.081	0.186
-155.691	-123.115	0.061	-0.010
-154.677	-200.000	-0.026	-0.145
-153.662	264.321	0.111	0.192
-152.647	-200.000	-0.029	-0.266
-151.633	520.992	0.074	0.172
-150.618	-79.395	-0.278	-0.093
-149.604	-166.240	-0.248	0.010
-148.589	112.104	-0.208	-0.249
-147.574	-200.000	-0.011	0.088
-146.560	64.675	-0.223	-0.222
-145.545	-200.000	-0.022	-0.286
-144.531	391.647	0.034	0.070
-143.516	-176.235	0.200	0.005
-142.502	800.000	-0.054	-0.151
-141.487	-112.053	0.221	0.044
-140.472	-26.828	0.159	-0.092
-139.458	-85.422	-0.299	-0.092
-138.443	46.869	0.155	0.143
-137.429	-0.637	-0.193	0.135
-136.414	161.404	0.053	-0.073
-135.399	26.506	-0.159	-0.131
-134.385	-200.000	-0.005	-0.310
-133.370	-56.366	-0.083	0.037
-132.356	-200.000	0.105	0.463
-131.341	-172.198	0.369	0.012
-130.326	-41.239	-0.277	0.141
-129.312	-35.746	0.132	0.070
-128.297	-99.185	-0.145	0.036
-127.283	86.551	0.131	-0.142
-126.268	-200.000	0.025	0.280
-125.253	19.409	-0.123	-0.097
-124.239	-159.305	0.340	-0.019
-123.224	7.514	0.170	-0.125
-122.210	27.666	0.301	0.250
-121.195	7.623	0.200	-0.148
