DTS Sentinel unit serial number:	SN413079Multiplexer serial number:	ORYXHardware model number:	OX4-SRSoftware version number:	ORYX F/W v4.00 Oryx Data Collector v3.7.2.0data status	okinstallation	princeton_trtdifferential loss correction	single-endedforward channel	channel 4reverse channel	N/Adate	2019/09/16time	01:09:35forward acquisition time	60.00reverse acquisition time	0.00gamma	496.2192k internal	0.2323k external	0.2323temperature offset calibration	0.9967default loss term (dB/km)	0.3790temperature slope calibration	1.0000multiplexer offset coefficient	1.0000multiplexer slope coefficient	1.0000fibre end	0.00T internal ref (°C)	27.28T ext. ref 1 (°C)	9.79T ext. ref 2 (°C)	21.69length (m)	temperature (°C)	Stokes	anti-Stokes-747.200	131.212	0.173	0.225
-746.185	82.621	0.234	0.257
-745.171	5.675	0.172	-0.128
-744.156	438.313	-0.103	0.228
-743.142	800.000	0.028	-0.111
-742.127	800.000	0.029	-0.099
-741.112	42.957	-0.058	-0.054
-740.098	-64.472	-0.532	0.218
-739.083	154.752	-0.094	0.131
-738.069	800.000	0.037	0.123
-737.054	374.984	0.039	0.081
-736.039	518.391	-0.102	-0.241
-735.025	-4.985	0.254	0.176
-734.010	19.886	-0.106	-0.086
-732.996	-16.832	0.387	-0.247
-731.981	44.120	0.058	0.053
-730.966	800.000	-0.110	0.416
-729.952	-36.831	0.024	-0.013
-728.937	800.000	-0.043	0.139
-727.923	-58.317	0.408	-0.179
-726.908	158.160	-0.111	0.155
-725.894	-200.000	-0.071	-0.414
-724.879	-130.809	-0.343	-0.046
-723.864	800.000	0.023	-0.086
-722.850	-133.210	-0.290	-0.037
-721.835	-200.000	-0.472	-0.001
-720.821	310.791	0.086	-0.163
-719.806	-200.000	-0.001	0.055
-718.791	211.152	0.135	-0.214
-717.777	-200.000	0.011	-0.208
-716.762	-40.024	-0.126	-0.066
-715.748	9.251	-0.203	-0.155
-714.733	105.327	0.093	0.110
-713.718	182.324	0.088	0.130
-712.704	-11.661	0.130	-0.086
-711.689	-200.000	-0.002	0.235
-710.675	95.323	0.078	-0.089
-709.660	239.269	0.275	0.462
-708.645	-200.000	0.023	-0.282
-707.631	525.784	-0.031	-0.072
-706.616	-200.000	0.006	-0.211
-705.602	800.000	-0.043	0.182
-704.587	-200.000	0.029	0.176
-703.572	-167.814	0.348	0.014
-702.558	107.009	-0.118	-0.142
-701.543	125.238	-0.225	0.287
-700.529	-89.793	0.020	-0.006
-699.514	276.311	0.105	0.187
-698.499	461.197	-0.059	0.133
-697.485	287.963	-0.167	-0.304
-696.470	544.397	-0.110	-0.266
-695.456	-1.366	-0.267	-0.190
-694.441	-162.987	-0.071	-0.003
-693.426	-55.639	0.359	-0.162
-692.412	-16.996	0.171	0.109
-691.397	-144.143	-0.257	0.024
-690.383	-131.025	0.168	0.023
-689.368	-78.011	-0.202	0.070
-688.354	214.091	-0.094	-0.150
-687.339	43.376	-0.162	-0.150
-686.324	135.188	0.202	0.264
-685.310	-200.000	-0.039	-0.384
-684.295	0.694	-0.303	-0.219
-683.281	-21.556	-0.167	0.102
-682.266	800.000	0.052	0.224
-681.251	-0.483	-0.192	-0.137
-680.237	63.765	-0.147	-0.148
-679.222	-18.031	0.294	0.186
-678.208	-53.959	-0.132	0.061
-677.193	-1.104	-0.224	0.159
-676.178	-92.892	0.061	0.017
-675.164	-18.755	-0.177	-0.111
-674.149	-29.169	-0.311	0.180
-673.135	-76.419	0.127	0.045
-672.120	63.779	-0.265	0.269
-671.105	154.227	-0.145	0.200
-670.091	-200.000	-0.029	0.214
-669.076	-200.000	0.022	0.215
-668.062	122.563	0.092	0.116
-667.047	-163.005	0.422	-0.021
-666.032	-82.009	-0.158	0.052
-665.018	-200.000	0.067	0.455
-664.003	800.000	-0.041	0.170
-662.989	-152.381	-0.636	-0.046
-661.974	427.248	-0.169	-0.366
-660.959	56.782	-0.072	0.071
-659.945	46.913	-0.118	0.110
-658.930	127.406	0.232	-0.297
-657.916	253.979	0.119	-0.204
-656.901	50.800	-0.129	0.122
-655.886	-200.000	0.019	0.084
-654.872	-32.155	0.187	0.105
-653.857	247.725	-0.176	-0.300
-652.843	800.000	-0.034	-0.122
-651.828	136.862	0.144	-0.189
-650.814	65.147	0.036	0.037
-649.799	450.287	0.045	0.099
-648.784	727.657	0.062	-0.166
-647.770	-105.589	0.262	0.060
-646.755	330.421	-0.101	-0.196
-645.741	352.692	-0.028	-0.056
-644.726	800.000	0.186	0.520
-643.711	-200.000	-0.037	0.223
-642.697	492.968	0.101	0.232
-641.682	222.487	0.148	-0.239
-640.668	276.211	-0.060	-0.107
-639.653	8.011	0.088	0.066
-638.638	454.588	-0.086	-0.191
-637.624	433.266	-0.071	-0.156
-636.609	289.683	0.081	-0.148
-635.595	-200.000	-0.072	0.367
-634.580	800.000	-0.032	0.097
-633.565	-115.062	-0.189	0.036
-632.551	-111.368	-0.118	0.024
-631.536	-106.306	0.250	-0.056
-630.522	-200.000	-0.071	0.363
-629.507	-80.573	-0.419	0.140
-628.492	55.617	0.219	0.213
-627.478	-33.421	-0.107	-0.059
-626.463	151.302	0.040	-0.054
-625.449	-4.643	0.078	-0.054
-624.434	-26.132	-0.261	0.154
-623.419	-109.275	0.433	0.092
-622.405	78.846	0.108	-0.116
-621.390	208.343	0.167	-0.263
-620.376	145.600	-0.103	-0.139
-619.361	-47.287	-0.130	0.064
-618.346	-96.146	0.046	0.012
-617.332	-200.000	0.030	-0.355
-616.317	54.448	-0.040	0.039
-615.303	54.524	0.101	0.098
-614.288	-43.232	0.107	0.054
-613.273	395.658	-0.173	-0.362
-612.259	-181.349	-0.271	0.005
-611.244	-200.000	-0.062	0.431
-610.230	206.969	-0.072	0.113
-609.215	-25.172	0.079	-0.047
-608.201	150.268	-0.153	-0.209
-607.186	-118.157	-0.317	0.057
-606.171	-105.516	0.177	-0.040
-605.157	-119.529	-0.199	0.035
-604.142	36.610	-0.110	-0.098
-603.128	-61.902	0.386	-0.162
-602.113	178.991	0.105	0.154
-601.098	-60.244	-0.069	0.030
-600.084	-49.929	0.150	0.071
-599.069	98.380	-0.231	-0.267
-598.055	-129.299	-0.225	-0.031
-597.040	268.427	0.120	-0.212
-596.025	-144.688	-0.164	0.015
-595.011	73.501	-0.156	-0.164
-593.996	-200.000	0.008	-0.055
-592.982	-142.206	-0.247	0.025
-591.967	220.515	0.198	0.319
-590.952	-39.333	-0.253	0.133
-589.938	800.000	0.075	-0.297
-588.923	-200.000	0.017	-0.123
-587.909	54.136	-0.084	0.082
-586.894	-66.158	-0.234	-0.094
-585.879	-65.300	-0.332	-0.134
-584.865	-169.085	0.383	-0.014
-583.850	7.990	0.176	0.133
-582.836	452.931	0.128	-0.283
-581.821	150.440	-0.169	-0.231
-580.806	800.000	-0.093	0.314
-579.792	-59.282	-0.145	-0.063
-578.777	-51.169	-0.166	-0.078
-577.763	166.510	0.228	-0.325
-576.748	281.458	-0.053	0.096
-575.733	231.711	0.127	-0.209
-574.719	-200.000	-0.003	0.173
-573.704	-35.406	-0.205	0.112
-572.690	800.000	0.020	0.063
-571.675	-121.984	0.175	-0.029
-570.661	46.264	-0.238	-0.221
-569.646	120.669	0.193	0.241
-568.631	800.000	0.070	0.236
-567.617	-19.083	-0.204	0.127
-566.602	-14.623	-0.304	-0.196
-565.588	800.000	0.081	-0.259
-564.573	-153.043	0.398	0.028
-563.558	-29.951	-0.204	-0.117
-562.544	-55.027	0.233	-0.105
-561.529	78.124	0.176	-0.188
-560.515	604.341	-0.077	-0.193
-559.500	-17.988	-0.121	0.076
-558.485	252.671	-0.093	0.160
-557.471	800.000	0.074	0.318
-556.456	90.923	-0.152	-0.170
-555.442	58.551	0.073	0.071
-554.427	-111.802	0.163	-0.033
-553.412	402.138	0.200	0.421
-552.398	-24.180	-0.147	-0.088
-551.383	-97.078	0.204	-0.053
-550.369	65.582	-0.098	-0.099
-549.354	-9.726	-0.230	0.154
-548.339	-96.235	-0.244	-0.065
-547.325	-134.117	0.332	-0.041
-546.310	-200.000	0.019	-0.406
-545.296	-200.000	-0.004	0.216
-544.281	31.541	-0.107	0.092
-543.266	131.150	0.098	0.126
-542.252	69.017	0.208	-0.214
-541.237	-55.112	-0.133	-0.060
-540.223	588.368	-0.036	0.088
-539.208	559.820	0.070	0.169
-538.193	89.381	0.186	-0.208
-537.179	94.112	0.228	-0.259
-536.164	71.971	-0.267	0.278
-535.150	99.870	0.255	-0.296
-534.135	800.000	0.074	0.250
-533.121	28.947	-0.116	0.099
-532.106	55.095	0.337	0.326
-531.091	750.773	0.117	-0.316
-530.077	123.645	0.093	-0.116
-529.062	-111.342	-0.281	-0.057
-528.048	73.721	0.443	-0.465
-527.033	-49.019	-0.256	0.123
-526.018	8.124	0.243	-0.182
-525.004	776.048	-0.135	0.369
-523.989	96.685	0.187	0.215
-522.975	-43.467	-0.298	0.150
-521.960	296.696	-0.149	-0.274
-520.945	-25.490	-0.175	0.103
-519.931	125.211	-0.028	-0.035
-518.916	55.692	0.078	0.076
-517.902	15.596	-0.307	-0.241
-516.887	800.000	0.074	-0.210
-515.872	100.893	0.134	0.156
-514.858	-96.007	-0.128	-0.034
-513.843	233.250	0.072	0.119
-512.829	305.585	0.151	-0.281
-511.814	-31.330	0.139	-0.078
-510.799	70.807	-0.202	-0.209
-509.785	310.233	-0.044	-0.083
-508.770	-124.741	-0.019	-0.003
-507.756	76.808	-0.095	0.101
-506.741	16.222	0.219	-0.173
-505.726	-46.261	0.114	-0.056
-504.712	-200.000	-0.027	-0.129
-503.697	4.416	0.153	0.112
-502.683	-200.000	-0.053	0.264
-501.668	166.439	0.111	0.157
-500.653	-100.221	0.087	0.022
-499.639	-95.430	0.283	0.076
-498.624	-16.478	0.190	-0.120
-497.610	-192.550	-0.216	0.002
-496.595	111.748	-0.275	-0.332
-495.581	-23.155	0.070	-0.042
-494.566	-31.815	-0.295	-0.165
-493.551	-104.630	0.132	-0.030
-492.537	-146.890	0.379	0.033
-491.522	-200.000	-0.008	0.038
-490.508	-22.050	0.152	0.093
-489.493	800.000	0.062	-0.178
-488.478	-66.988	-0.324	0.128
-487.464	213.569	-0.208	-0.328
-486.449	511.153	-0.134	0.311
-485.435	-194.640	0.141	-0.001
-484.420	-65.283	-0.101	0.040
-483.405	-200.000	-0.017	0.204
-482.391	800.000	0.085	0.320
-481.376	-50.464	0.335	0.158
-480.362	-200.000	0.027	-0.157
-479.347	67.820	-0.169	-0.173
-478.332	442.869	0.083	-0.181
-477.318	800.000	-0.100	0.357
-476.303	57.064	-0.202	-0.197
-475.289	108.499	0.192	-0.229
-474.274	-180.872	0.116	-0.002
-473.259	-72.353	-0.127	-0.047
-472.245	800.000	0.050	-0.153
-471.230	49.239	0.129	-0.121
-470.216	140.920	0.068	0.090
-469.201	318.461	-0.165	-0.312
-468.186	-54.419	-0.225	0.102
-467.172	-200.000	0.036	-0.189
-466.157	-83.415	0.167	-0.053
-465.143	-42.838	-0.161	-0.082
-464.128	-79.796	0.128	-0.043
-463.113	-49.616	0.043	-0.020
-462.099	-200.000	-0.032	0.213
-461.084	127.231	-0.187	-0.238
-460.070	-167.840	0.306	0.012
-459.055	-62.675	-0.286	0.119
-458.040	-200.000	-0.011	0.266
-457.026	-92.667	-0.090	0.025
-456.011	-104.725	-0.245	0.056
-454.997	-22.900	0.144	0.087
-453.982	-200.000	0.022	0.260
-452.968	522.311	-0.070	0.164
-451.953	-99.432	0.190	-0.048
-450.938	-158.869	0.319	0.018
-449.924	-36.383	-0.083	0.045
-448.909	382.354	0.101	-0.207
-447.895	243.699	-0.232	0.388
-446.880	-200.000	-0.064	0.309
-445.865	-139.728	-0.127	0.014
-444.851	-200.000	-0.044	0.224
-443.836	800.000	0.119	-0.384
-442.822	-10.340	-0.193	-0.128
-441.807	530.220	-0.095	0.223
-440.792	-200.000	-0.048	0.238
-439.778	461.204	0.181	0.403
-438.763	220.648	0.197	0.316
-437.749	-19.423	0.112	0.069
-436.734	-200.000	0.083	-0.399
-435.719	-38.073	-0.155	0.082
-434.705	184.654	0.020	-0.029
-433.690	800.000	-0.010	-0.031
-432.676	28.313	0.102	0.086
-431.661	800.000	0.027	-0.095
-430.646	-200.000	-0.032	-0.242
-429.632	-144.900	0.173	0.016
-428.617	-200.000	0.001	0.129
-427.603	-0.523	0.146	-0.104
-426.588	10.372	0.090	0.069
-425.573	-61.653	-0.206	-0.086
-424.559	416.411	0.137	0.292
-423.544	-200.000	-0.012	-0.137
-422.530	-109.861	-0.131	-0.027
-421.515	800.000	-0.134	-0.457
-420.500	800.000	-0.015	0.048
-419.486	-88.785	0.221	-0.065
-418.471	-80.169	0.299	0.100
-417.457	-38.796	-0.111	0.058
-416.442	800.000	-0.014	0.047
-415.428	26.698	-0.183	-0.153
-414.413	-177.628	0.370	-0.009
-413.398	-160.309	0.116	0.006
-412.384	447.101	-0.094	0.206
-411.369	229.870	0.222	-0.362
-410.355	800.000	-0.050	-0.195
-409.340	-64.052	0.235	-0.095
-408.325	800.000	-0.062	-0.201
-407.311	-101.534	-0.196	-0.048
-406.296	-105.675	-0.185	-0.042
-405.282	-34.314	-0.147	0.080
-404.267	-61.225	-0.168	0.071
-403.252	-61.887	0.355	-0.148
-402.238	44.146	-0.123	-0.112
-401.223	192.947	-0.078	0.118
-400.209	151.817	-0.204	0.277
-399.194	10.996	-0.133	-0.101
-398.179	-139.209	0.324	-0.035
-397.165	-200.000	-0.010	-0.163
-396.150	388.028	0.122	0.252
-395.136	-122.034	-0.268	-0.044
-394.121	-103.081	-0.083	0.020
-393.106	120.145	0.160	-0.197
-392.092	-200.000	-0.009	-0.132
-391.077	-200.000	0.031	-0.136
-390.063	0.023	0.336	0.238
-389.048	-51.097	-0.086	-0.040
-388.033	27.692	0.252	-0.211
-387.019	-81.070	-0.019	-0.006
-386.004	65.396	-0.255	-0.257
-384.990	80.455	0.100	-0.107
-383.975	129.969	-0.217	-0.277
-382.960	-200.000	-0.034	0.218
-381.946	6.943	-0.285	0.212
-380.931	34.167	-0.056	0.048
-379.917	-76.298	-0.321	0.113
-378.902	-59.726	-0.063	0.027
-377.888	-36.986	-0.142	0.076
-376.873	100.336	-0.214	0.248
-375.858	-98.960	-0.206	0.052
-374.844	-200.000	0.001	0.142
-373.829	256.693	-0.227	0.388
-372.815	800.000	-0.089	-0.332
-371.800	-200.000	0.004	0.192
-370.785	-49.615	0.192	-0.091
-369.771	-57.081	-0.437	0.192
-368.756	-200.000	0.035	-0.219
-367.742	81.977	0.054	-0.058
-366.727	270.340	0.066	0.115
-365.712	592.699	0.030	-0.074
-364.698	38.520	0.210	-0.187
-363.683	-147.696	0.216	-0.018
-362.669	-14.870	0.243	0.155
-361.654	-120.179	-0.081	-0.014
-360.639	214.263	0.081	0.127
-359.625	534.778	0.179	-0.422
-358.610	66.230	0.031	0.032
-357.596	49.132	0.149	-0.139
-356.581	-185.760	-0.121	0.002
-355.566	37.340	0.211	0.186
-354.552	365.362	0.047	0.094
-353.537	-54.365	-0.222	0.100
-352.523	70.039	-0.166	0.170
-351.508	-149.930	-0.154	0.012
-350.493	-122.766	0.150	0.024
-349.479	800.000	0.127	0.367
-348.464	60.863	-0.150	-0.148
-347.450	218.492	-0.165	-0.263
-346.435	-107.266	-0.456	0.100
-345.420	218.910	-0.079	0.125
-344.406	136.122	0.210	-0.272
-343.391	-200.000	0.093	-0.538
-342.377	23.635	-0.158	-0.130
-341.362	126.410	-0.100	0.126
-340.348	-32.132	-0.162	0.090
-339.333	-200.000	-0.081	0.442
-338.318	136.139	0.108	0.140
-337.304	8.287	0.238	0.178
-336.289	-28.417	-0.058	-0.033
-335.275	-112.664	-0.093	0.018
-334.260	-200.000	0.002	0.147
-333.245	-200.000	-0.065	-0.363
-332.231	55.977	-0.126	0.122
-331.216	-63.875	0.412	0.167
-330.202	-44.254	-0.174	0.087
-329.187	185.291	0.146	0.215
-328.172	299.473	0.158	0.289
-327.158	-43.097	0.121	-0.061
-326.143	-116.556	0.327	-0.060
-325.129	-200.000	0.006	0.199
-324.114	-121.848	-0.305	-0.050
-323.099	-200.000	0.069	-0.401
-322.085	181.914	0.124	0.182
-321.070	-47.047	0.147	-0.071
-320.056	-200.000	-0.022	-0.392
-319.041	50.969	0.158	0.149
-318.026	-104.040	0.066	0.015
-317.012	-200.000	0.011	-0.179
-315.997	-39.702	0.271	-0.140
-314.983	126.825	-0.100	-0.125
-313.968	254.311	0.193	-0.328
-312.953	38.164	-0.221	0.195
-311.939	-50.977	0.474	0.221
-310.924	125.509	0.115	0.144
-309.910	800.000	0.088	0.375
-308.895	-111.890	-0.176	0.035
-307.880	-200.000	0.010	0.288
-306.866	800.000	0.042	0.158
-305.851	-106.235	-0.284	-0.063
-304.837	39.554	-0.137	-0.122
-303.822	-52.101	-0.042	-0.019
-302.807	132.819	-0.114	0.147
-301.793	120.762	0.348	-0.429
-300.778	-200.000	-0.029	-0.273
-299.764	239.244	0.181	0.299
-298.749	103.071	-0.108	-0.126
-297.735	800.000	0.070	-0.213
-296.720	-25.066	-0.148	0.087
-295.705	65.562	0.283	-0.284
-294.691	-66.793	0.130	0.051
-293.676	63.451	0.136	-0.135
-292.662	-18.332	-0.048	0.030
-291.647	90.854	-0.198	0.220
-290.632	800.000	-0.093	-0.274
-289.618	57.766	-0.108	0.105
-288.603	138.037	0.162	-0.210
-287.589	287.873	-0.076	-0.137
-286.574	92.364	0.048	0.054
-285.559	52.363	-0.193	-0.183
-284.545	31.292	-0.160	0.136
-283.530	104.281	-0.408	0.476
-282.516	-121.824	0.288	-0.047
-281.501	-148.857	-0.190	-0.015
-280.486	-102.436	-0.053	-0.013
-279.472	-109.250	0.321	-0.068
-278.457	800.000	-0.109	-0.439
-277.443	-200.000	-0.016	-0.136
-276.428	120.260	-0.083	0.103
-275.413	217.480	-0.067	-0.105
-274.399	-43.395	0.268	0.134
-273.384	-150.772	-0.145	-0.011
-272.370	62.809	-0.200	0.198
-271.355	118.811	-0.168	-0.206
-270.340	-200.000	-0.041	0.292
-269.326	86.617	0.060	0.066
-268.311	-109.692	-0.147	-0.031
-267.297	-200.000	0.070	-0.480
-266.282	-41.060	0.223	0.114
-265.267	-200.000	-0.020	0.096
-264.253	491.681	0.070	0.160
-263.238	13.666	0.220	-0.170
-262.224	-85.072	-0.312	-0.097
-261.209	-103.287	0.222	-0.052
-260.195	228.233	0.069	-0.111
-259.180	-3.872	0.169	-0.116
-258.165	-11.045	0.354	0.231
-257.151	11.038	-0.217	-0.164
-256.136	-88.354	0.336	0.100
-255.122	-200.000	0.034	0.149
-254.107	63.919	0.062	-0.061
-253.092	-76.434	-0.058	0.020
-252.078	-65.175	0.158	0.063
-251.063	-127.604	-0.358	0.051
-250.049	94.870	-0.190	-0.214
-249.034	-152.788	0.421	-0.030
-248.019	62.824	0.220	0.218
-247.005	-200.000	-0.018	0.196
-245.990	82.308	0.168	0.181
-244.976	-133.110	-0.143	-0.018
-243.961	223.562	-0.097	-0.155
-242.946	659.670	0.117	0.299
-241.932	99.832	0.062	0.071
-240.917	-5.874	0.281	0.191
-239.903	-34.512	-0.141	-0.076
-238.888	360.246	0.100	-0.198
-237.873	111.416	-0.115	0.138
-236.859	171.311	-0.074	-0.106
-235.844	418.392	-0.034	-0.073
-234.830	-49.941	-0.237	-0.111
-233.815	13.169	-0.123	0.095
-232.800	51.652	0.063	0.059
-231.786	-175.566	-0.158	0.004
-230.771	-103.980	0.161	0.037
-229.757	800.000	0.114	-0.337
-228.742	-200.000	-0.012	-0.231
-227.727	-91.350	0.122	-0.035
-226.713	800.000	0.040	0.159
-225.698	29.667	-0.234	-0.197
-224.684	44.010	0.035	0.032
-223.669	-200.000	0.008	0.312
-222.655	210.017	-0.091	-0.141
-221.640	-200.000	0.065	0.316
-220.625	-200.000	-0.023	0.396
-219.611	262.364	0.010	0.018
-218.596	-200.000	-0.230	-0.001
-217.582	557.397	-0.076	0.182
-216.567	424.249	0.051	0.109
-215.552	325.601	0.054	-0.101
-214.538	123.987	0.063	-0.079
-213.523	-20.473	-0.156	0.095
-212.509	-133.647	0.138	0.017
-211.494	592.626	-0.020	0.050
-210.479	800.000	0.017	-0.051
-209.465	608.095	-0.034	-0.083
-208.450	-151.765	-0.111	0.008
-207.436	26.747	0.168	0.139
-206.421	321.004	-0.043	-0.081
-205.406	-44.339	-0.152	0.075
-204.392	174.433	-0.083	-0.119
-203.377	41.208	-0.096	-0.086
-202.363	-200.000	-0.022	0.154
-201.348	40.005	0.230	-0.204
-200.333	52.117	0.145	0.137
-199.319	342.971	-0.083	0.160
-198.304	136.401	0.131	0.169
-197.290	-200.000	0.003	-0.065
-196.275	800.000	0.097	0.354
-195.260	192.663	-0.052	-0.077
-194.246	-159.325	-0.094	0.005
-193.231	-171.795	0.185	-0.006
-192.217	-149.139	-0.049	0.004
-191.202	-36.426	-0.134	0.071
-190.187	-107.422	0.120	0.026
-189.173	-32.812	-0.204	-0.112
-188.158	-21.366	-0.251	0.151
-187.144	-58.063	0.248	0.107
-186.129	80.135	0.211	0.224
-185.114	-78.242	-0.047	-0.016
-184.100	-200.000	-0.011	0.051
-183.085	-149.049	-0.035	-0.003
-182.071	-200.000	-0.033	-0.252
-181.056	-200.000	0.025	-0.337
-180.042	-113.444	-0.175	-0.034
-179.027	-140.141	-0.044	-0.005
-178.012	-11.676	0.417	-0.270
-176.998	96.307	0.253	0.286
-175.983	-49.697	0.157	-0.074
-174.969	443.679	-0.054	0.116
-173.954	-134.490	-0.049	0.006
-172.939	-168.649	0.057	-0.002
-171.925	290.566	-0.064	0.116
-170.910	800.000	-0.136	0.435
-169.896	8.230	0.045	-0.033
-168.881	800.000	0.027	0.102
-167.866	-79.385	-0.298	-0.100
-166.852	-40.991	0.071	0.036
-165.837	-85.721	-0.061	-0.019
-164.823	-200.000	0.021	-0.182
-163.808	35.642	-0.354	0.307
-162.793	234.761	0.029	-0.047
-161.779	-57.321	-0.145	-0.063
-160.764	-180.959	-0.138	-0.003
-159.750	464.830	-0.025	0.054
-158.735	73.085	-0.243	-0.251
-157.720	-132.779	-0.336	-0.042
-156.706	43.365	-0.219	-0.197
-155.691	-85.224	0.314	-0.097
-154.677	30.081	-0.040	0.033
-153.662	65.457	0.132	-0.132
-152.647	44.060	0.211	0.191
-151.633	-40.157	-0.238	0.122
-150.618	-138.799	0.242	-0.026
-149.604	800.000	-0.027	0.080
-148.589	5.099	-0.182	-0.132
-147.574	149.111	0.127	0.169
-146.560	-149.727	-0.387	-0.030
-145.545	203.905	-0.070	0.107
-144.531	-15.785	0.270	0.170
-143.516	-200.000	0.006	0.129
-142.502	-11.475	-0.187	-0.122
-141.487	-200.000	0.031	-0.169
-140.472	-149.086	0.287	0.023
-139.458	-123.252	0.110	0.017
-138.443	-99.536	-0.243	-0.060
-137.429	-200.000	0.017	0.168
-136.414	192.337	-0.057	-0.084
-135.399	690.005	0.076	0.196
-134.385	-121.919	-0.095	0.015
-133.370	127.607	0.196	0.245
-132.356	380.543	0.149	0.301
-131.341	637.231	0.085	-0.212
-130.326	-200.000	-0.045	-0.228
-129.312	-88.159	-0.287	0.085
-128.297	-117.019	0.201	-0.036
-127.283	17.892	0.112	-0.088
-126.268	54.136	-0.112	-0.107
-125.253	8.479	0.168	0.125
-124.239	-135.948	-0.063	0.007
-123.224	-95.291	-0.190	0.050
-122.210	-200.000	0.063	-0.399
-121.195	12.711	-0.127	-0.096
-120.180	160.606	-0.161	0.221
