DTS Sentinel unit serial number:	SN413079Multiplexer serial number:	ORYXHardware model number:	OX4-SRSoftware version number:	ORYX F/W v4.00 Oryx Data Collector v3.7.2.0data status	okinstallation	princeton_trtdifferential loss correction	single-endedforward channel	channel 4reverse channel	N/Adate	2019/09/15time	02:13:34forward acquisition time	60.00reverse acquisition time	0.00gamma	496.2192k internal	0.2308k external	0.2308temperature offset calibration	1.0031default loss term (dB/km)	0.3790temperature slope calibration	1.0000multiplexer offset coefficient	1.0000multiplexer slope coefficient	1.0000fibre end	0.00T internal ref (°C)	31.67T ext. ref 1 (°C)	4.55T ext. ref 2 (°C)	26.24length (m)	temperature (°C)	Stokes	anti-Stokes-747.200	-200.000	-0.014	-0.206
-746.185	-157.740	0.195	-0.012
-745.171	86.440	-0.111	-0.125
-744.156	28.842	-0.184	-0.159
-743.142	-31.506	0.106	0.060
-742.127	-140.723	-0.356	0.037
-741.112	-119.965	-0.231	-0.040
-740.098	-200.000	-0.008	0.135
-739.083	111.650	-0.242	0.297
-738.069	-200.000	0.123	0.000
-737.054	87.000	-0.038	0.042
-736.039	61.699	-0.184	-0.186
-735.025	-80.909	0.204	0.069
-734.010	128.365	-0.060	-0.077
-732.996	-95.721	-0.336	0.091
-731.981	-200.000	-0.016	0.108
-730.966	-140.737	0.128	-0.013
-729.952	-200.000	-0.052	-0.316
-728.937	-87.402	-0.120	-0.037
-727.923	-200.000	-0.027	-0.399
-726.908	171.287	-0.090	-0.132
-725.894	170.927	-0.158	-0.231
-724.879	800.000	-0.059	0.234
-723.864	-200.000	-0.012	-0.094
-722.850	66.067	-0.124	-0.128
-721.835	2.927	-0.170	-0.126
-720.821	59.065	-0.170	0.170
-719.806	158.217	-0.228	-0.322
-718.791	183.480	-0.075	0.112
-717.777	-170.826	0.240	-0.008
-716.762	-108.912	-0.266	0.058
-715.748	-76.258	-0.063	-0.022
-714.733	-200.000	-0.020	-0.102
-713.718	254.987	0.068	-0.119
-712.704	-40.325	0.156	-0.082
-711.689	680.292	-0.201	-0.531
-710.675	-147.813	-0.120	-0.010
-709.660	-66.741	-0.381	-0.153
-708.645	-107.818	0.102	-0.023
-707.631	-47.083	0.128	-0.063
-706.616	-178.060	-0.226	-0.005
-705.602	-200.000	0.015	0.140
-704.587	610.533	0.089	-0.226
-703.572	-43.133	-0.038	0.019
-702.558	-28.304	0.110	0.065
-701.543	-126.985	-0.180	0.027
-700.529	24.723	0.110	-0.092
-699.514	-200.000	-0.076	0.411
-698.499	-102.911	0.065	-0.016
-697.485	-191.066	-0.076	-0.001
-696.470	-200.000	-0.061	0.441
-695.456	124.391	-0.144	0.183
-694.441	-138.169	-0.436	0.049
-693.426	-125.229	0.537	-0.083
-692.412	-200.000	0.012	0.154
-691.397	62.005	-0.127	0.129
-690.383	-106.488	0.045	-0.010
-689.368	296.757	0.157	0.292
-688.354	82.019	-0.131	-0.144
-687.339	279.914	0.044	0.079
-686.324	-99.665	-0.436	-0.111
-685.310	-1.522	-0.125	-0.089
-684.295	126.666	0.111	-0.143
-683.281	-75.713	0.129	-0.046
-682.266	-175.224	0.031	-0.001
-681.251	-6.105	-0.055	-0.038
-680.237	164.922	-0.151	0.216
-679.222	-106.964	-0.051	0.012
-678.208	-180.321	0.215	-0.005
-677.193	423.539	-0.057	0.124
-676.178	800.000	0.031	0.115
-675.164	363.040	-0.100	-0.203
-674.149	800.000	-0.066	-0.197
-673.135	121.459	-0.081	0.102
-672.120	227.247	0.083	0.137
-671.105	-136.529	0.228	-0.027
-670.091	18.990	0.202	-0.164
-669.076	-8.863	0.064	-0.043
-668.062	-66.565	0.126	0.051
-667.047	-95.964	-0.061	-0.016
-666.032	-174.959	0.362	0.010
-665.018	25.395	0.421	0.355
-664.003	113.030	-0.019	0.023
-662.989	-100.976	-0.214	-0.053
-661.974	107.971	-0.213	-0.257
-660.959	-119.964	0.236	0.041
-659.945	800.000	0.069	0.258
-658.930	102.485	0.219	0.259
-657.916	184.847	-0.201	-0.303
-656.901	-140.583	-0.136	-0.014
-655.886	510.760	-0.030	0.071
-654.872	30.713	-0.178	0.154
-653.857	-18.360	-0.153	0.097
-652.843	459.227	-0.090	-0.203
-651.828	176.599	-0.171	0.252
-650.814	-200.000	0.016	-0.234
-649.799	526.507	-0.061	0.145
-648.784	-76.686	0.270	-0.096
-647.770	-200.000	-0.043	0.275
-646.755	-89.060	-0.191	-0.057
-645.741	-44.495	0.454	-0.230
-644.726	261.953	0.100	-0.175
-643.711	-200.000	0.008	0.187
-642.697	-200.000	-0.021	-0.299
-641.682	39.458	0.144	0.131
-640.668	73.454	0.093	-0.098
-639.653	-30.034	-0.282	-0.162
-638.638	45.789	0.344	-0.322
-637.624	-63.171	0.125	0.052
-636.609	161.855	0.082	0.117
-635.595	800.000	0.051	0.175
-634.580	800.000	0.065	0.215
-633.565	-200.000	0.034	-0.181
-632.551	32.826	-0.126	-0.111
-631.536	303.072	0.050	0.094
-630.522	-22.740	0.299	0.183
-629.507	71.424	0.062	-0.065
-628.492	-200.000	-0.035	0.228
-627.478	425.449	0.066	0.144
-626.463	-56.878	0.030	-0.013
-625.449	-200.000	-0.040	-0.228
-624.434	545.018	-0.114	-0.275
-623.419	-14.765	0.229	-0.149
-622.405	-200.000	-0.042	-0.235
-621.390	-84.761	-0.134	-0.043
-620.376	-200.000	-0.017	0.088
-619.361	-140.927	0.270	0.028
-618.346	240.922	0.099	0.168
-617.332	408.011	-0.135	0.290
-616.317	-78.191	-0.221	-0.077
-615.303	-161.015	0.255	0.014
-614.288	-60.605	-0.235	0.101
-613.273	-22.729	0.109	0.066
-612.259	604.026	-0.153	0.385
-611.244	223.397	-0.248	-0.404
-610.230	256.189	0.237	0.412
-609.215	-115.733	0.215	0.041
-608.201	-200.000	-0.041	-0.226
-607.186	167.046	0.082	0.118
-606.171	800.000	-0.025	-0.102
-605.157	-86.323	-0.085	0.027
-604.142	50.104	-0.200	-0.191
-603.128	191.290	0.147	-0.224
-602.113	206.673	-0.062	-0.098
-601.098	166.248	0.173	-0.248
-600.084	800.000	-0.045	-0.194
-599.069	-107.713	-0.043	0.010
-598.055	800.000	0.063	0.259
-597.040	244.315	0.101	0.172
-596.025	-200.000	-0.049	0.255
-595.011	-200.000	-0.006	0.115
-593.996	-62.158	0.268	0.113
-592.982	-74.865	-0.275	0.100
-591.967	800.000	-0.035	-0.126
-590.952	-200.000	-0.008	-0.034
-589.938	90.976	0.195	-0.221
-588.923	-200.000	0.010	0.047
-587.909	146.500	0.082	-0.112
-586.894	46.940	-0.179	-0.168
-585.879	460.291	-0.068	0.153
-584.865	79.691	-0.217	0.236
-583.850	-200.000	-0.041	-0.281
-582.836	72.086	0.053	0.056
-581.821	102.880	-0.158	-0.187
-580.806	-9.235	-0.257	-0.173
-579.792	-200.000	0.017	-0.136
-578.777	-200.000	0.020	0.122
-577.763	-88.701	-0.465	-0.140
-576.748	760.555	0.094	-0.256
-575.733	65.943	0.083	-0.085
-574.719	-200.000	0.022	0.217
-573.704	800.000	-0.070	-0.237
-572.690	800.000	0.135	-0.399
-571.675	53.691	-0.257	0.250
-570.661	120.119	-0.205	-0.256
-569.646	-28.769	-0.164	-0.095
-568.631	209.015	-0.242	0.383
-567.617	-113.280	0.213	0.042
-566.602	-200.000	-0.002	-0.158
-565.588	800.000	-0.079	-0.323
-564.573	16.405	-0.105	-0.084
-563.558	-200.000	0.043	0.238
-562.544	41.997	-0.163	-0.149
-561.529	-120.645	-0.189	0.032
-560.515	800.000	0.050	0.165
-559.500	-200.000	0.000	0.028
-558.485	138.930	-0.183	-0.243
-557.471	-121.346	0.279	0.047
-556.456	-189.746	0.344	-0.004
-555.442	-86.748	-0.100	0.031
-554.427	-9.326	-0.087	-0.059
-553.412	-157.277	-0.139	-0.009
-552.398	-189.007	-0.302	-0.004
-551.383	-169.240	-0.150	0.006
-550.369	-200.000	0.001	-0.030
-549.354	-200.000	0.044	0.327
-548.339	9.250	-0.190	-0.145
-547.325	-200.000	-0.039	-0.189
-546.310	-133.623	-0.192	0.024
-545.296	106.398	0.158	-0.189
-544.281	-149.867	0.204	-0.016
-543.266	-200.000	-0.069	-0.463
-542.252	-83.078	-0.363	0.118
-541.237	313.215	0.063	-0.120
-540.223	-13.774	-0.071	0.046
-539.208	-143.256	0.065	0.006
-538.193	342.795	-0.018	0.035
-537.179	328.926	0.113	0.218
-536.164	62.786	0.129	0.130
-535.150	-128.617	0.274	-0.039
-534.135	-104.357	-0.479	0.112
-533.121	-200.000	-0.032	0.266
-532.106	-124.281	0.319	0.050
-531.091	-200.000	0.009	-0.049
-530.077	-127.383	-0.262	0.038
-529.062	203.433	0.147	0.229
-528.048	-109.004	-0.203	-0.044
-527.033	-20.902	-0.035	0.022
-526.018	76.287	-0.247	0.263
-525.004	-126.782	-0.191	-0.028
-523.989	370.533	0.091	-0.186
-522.975	88.123	-0.256	0.286
-521.960	523.021	-0.056	0.132
-520.945	-57.828	0.119	-0.052
-519.931	-150.317	0.252	0.020
-518.916	247.208	0.166	-0.283
-517.902	699.256	0.095	0.251
-516.887	-200.000	-0.020	0.340
-515.872	6.634	-0.211	0.158
-514.858	-128.696	-0.124	0.018
-513.843	130.685	0.115	0.148
-512.829	-106.062	0.385	-0.087
-511.814	-200.000	-0.017	-0.277
-510.799	-84.562	-0.139	-0.044
-509.785	-144.094	0.088	-0.008
-508.770	-56.628	0.266	-0.118
-507.756	-39.071	-0.302	-0.160
-506.741	800.000	-0.077	-0.226
-505.726	25.525	0.164	-0.137
-504.712	112.271	-0.168	-0.204
-503.697	497.432	-0.111	-0.257
-502.683	-151.518	0.297	-0.022
-501.668	-74.866	-0.272	0.098
-500.653	-138.737	-0.153	-0.017
-499.639	-142.344	-0.232	-0.023
-498.624	-200.000	0.044	0.237
-497.610	144.241	0.127	-0.171
-496.595	-92.331	0.315	0.089
-495.581	-27.729	0.144	-0.084
-494.566	-59.635	0.066	-0.029
-493.551	382.215	-0.087	-0.181
-492.537	382.777	0.106	0.219
-491.522	143.189	-0.116	-0.155
-490.508	728.650	-0.115	-0.310
-489.493	9.278	0.168	0.128
-488.478	-200.000	-0.024	-0.314
-487.464	252.750	0.126	-0.216
-486.449	-200.000	-0.084	0.475
-485.435	-52.404	-0.226	-0.105
-484.420	-129.207	-0.408	0.057
-483.405	689.398	0.043	0.114
-482.391	-200.000	-0.035	0.231
-481.376	570.353	-0.153	0.373
-480.362	800.000	-0.083	-0.265
-479.347	189.133	0.351	-0.529
-478.332	85.859	0.012	-0.013
-477.318	41.903	0.292	0.266
-476.303	67.312	-0.106	0.108
-475.289	-83.497	-0.165	-0.053
-474.274	207.458	0.053	-0.084
-473.259	-200.000	-0.013	0.138
-472.245	-39.294	-0.186	0.098
-471.230	130.040	-0.128	0.165
-470.216	800.000	0.052	-0.170
-469.201	-60.209	0.188	-0.081
-468.186	-186.400	-0.373	-0.005
-467.172	291.385	-0.102	0.186
-466.157	67.225	0.037	-0.038
-465.143	172.973	0.180	-0.260
-464.128	20.817	-0.139	0.113
-463.113	-200.000	0.029	0.388
-462.099	-62.439	-0.327	-0.137
-461.084	-68.017	0.302	-0.118
-460.070	20.983	0.016	-0.013
-459.055	800.000	-0.039	-0.127
-458.040	294.604	0.159	-0.293
-457.026	58.642	-0.148	0.146
-456.011	238.045	-0.127	-0.211
-454.997	-94.275	0.220	-0.060
-453.982	252.966	-0.077	-0.132
-452.968	385.655	-0.074	-0.152
-451.953	-167.944	0.044	0.002
-450.938	800.000	0.010	0.039
-449.924	-85.694	-0.120	-0.037
-448.909	-200.000	0.039	0.184
-447.895	592.097	-0.054	0.134
-446.880	154.085	-0.023	0.032
-445.865	651.167	-0.067	-0.173
-444.851	-7.519	-0.099	0.068
-443.836	405.131	-0.220	0.465
-442.822	264.378	-0.141	0.247
-441.807	-137.409	0.521	0.059
-440.792	-168.614	-0.290	-0.011
-439.778	-174.539	-0.075	0.002
-438.763	18.905	-0.050	-0.041
-437.749	-154.011	-0.262	0.018
-436.734	258.768	-0.125	-0.216
-435.719	-28.101	0.060	-0.035
-434.705	-200.000	-0.006	0.316
-433.690	-8.713	0.251	0.169
-432.676	-71.260	0.082	0.031
-431.661	117.906	-0.115	0.142
-430.646	-88.354	0.429	0.129
-429.632	-200.000	-0.010	-0.109
-428.617	800.000	0.091	-0.264
-427.603	-200.000	-0.054	0.719
-426.588	152.408	-0.273	0.374
-425.573	634.827	0.079	-0.202
-424.559	-62.218	-0.163	-0.068
-423.544	24.063	0.153	0.127
-422.530	-200.000	0.016	-0.077
-421.515	-137.821	-0.171	-0.019
-420.500	-94.029	0.210	-0.058
-419.486	79.337	0.071	0.077
-418.471	-140.847	-0.244	0.025
-417.457	129.406	-0.058	-0.074
-416.442	568.177	-0.085	0.208
-415.428	8.320	0.137	0.103
-414.413	14.627	0.275	-0.216
-413.398	-76.456	-0.257	0.091
-412.384	221.878	-0.099	0.159
-411.369	91.946	-0.125	0.141
-410.355	-77.726	0.407	-0.141
-409.340	176.380	0.215	-0.314
-408.325	531.356	-0.110	0.261
-407.311	-184.045	0.392	-0.007
-406.296	-62.223	0.156	-0.065
-405.282	-125.396	-0.244	-0.037
-404.267	-10.314	0.215	0.143
-403.252	-152.232	0.063	0.005
-402.238	-27.273	0.268	0.156
-401.223	-174.050	-0.270	0.008
-400.209	-200.000	0.012	0.111
-399.194	487.605	0.036	-0.083
-398.179	252.900	-0.069	0.118
-397.165	-19.475	-0.131	0.081
-396.150	-200.000	0.006	-0.084
-395.136	-52.620	-0.171	-0.079
-394.121	136.785	0.143	0.188
-393.106	-200.000	0.013	0.127
-392.092	529.773	0.045	0.106
-391.077	439.902	0.060	-0.132
-390.063	64.270	-0.112	0.113
-389.048	-36.887	-0.276	0.148
-388.033	60.409	0.238	0.237
-387.019	-76.446	-0.028	0.010
-386.004	-37.518	0.190	-0.102
-384.990	-200.000	0.009	-0.088
-383.975	140.178	0.230	-0.304
-382.960	-104.384	-0.251	0.058
-381.946	-44.382	0.068	0.034
-380.931	-90.467	0.141	-0.041
-379.917	-51.582	-0.011	-0.005
-378.902	154.532	0.187	-0.257
-377.888	-13.227	0.055	0.036
-376.873	96.243	0.196	0.225
-375.858	367.994	0.118	0.239
-374.844	-77.192	-0.012	0.004
-373.829	-96.731	0.047	-0.012
-372.815	549.943	0.031	-0.075
-371.800	-200.000	-0.019	0.264
-370.785	-105.608	-0.074	0.017
-369.771	800.000	0.080	-0.220
-368.756	536.926	0.050	-0.118
-367.742	-15.717	-0.242	0.154
-366.727	-89.363	0.293	-0.086
-365.712	-158.960	0.135	-0.008
-364.698	244.008	0.153	-0.257
-363.683	4.926	-0.193	-0.142
-362.669	111.720	-0.287	-0.347
-361.654	-69.648	-0.066	-0.025
-360.639	-99.469	-0.194	0.049
-359.625	-33.278	0.417	0.231
-358.610	800.000	0.164	0.481
-357.596	98.471	0.246	-0.284
-356.581	-42.203	-0.306	0.156
-355.566	800.000	-0.024	-0.067
-354.552	-45.710	-0.122	-0.060
-353.537	-200.000	-0.020	0.099
-352.523	44.685	-0.197	0.181
-351.508	800.000	-0.058	0.246
-350.493	-115.904	0.233	-0.043
-349.479	-14.878	-0.118	0.076
-348.464	-136.726	-0.105	-0.012
-347.450	-32.491	0.146	0.081
-346.435	-92.284	-0.079	-0.022
-345.420	-161.791	-0.206	-0.010
-344.406	80.846	-0.160	0.173
-343.391	-74.406	0.144	0.052
-342.377	-119.532	0.157	0.027
-341.362	-39.004	-0.355	-0.187
-340.348	-192.797	-0.153	-0.001
-339.333	597.960	0.050	-0.124
-338.318	-18.767	-0.317	-0.198
-337.304	495.784	0.063	0.145
-336.289	-48.738	0.371	0.178
-335.275	672.359	0.025	-0.065
-334.260	-87.105	0.216	-0.066
-333.245	23.931	-0.368	0.303
-332.231	800.000	-0.032	-0.102
-331.216	-123.019	0.367	-0.059
-330.202	-138.543	-0.121	0.013
-329.187	-104.380	-0.170	0.039
-328.172	-200.000	-0.002	0.139
-327.158	34.799	-0.067	-0.058
-326.143	-31.118	0.072	0.041
-325.129	133.227	0.176	-0.227
-324.114	141.258	-0.073	0.096
-323.099	-26.820	-0.020	-0.012
-322.085	-114.154	0.181	-0.035
-321.070	177.933	0.150	-0.219
-320.056	66.122	-0.158	0.160
-319.041	77.267	-0.277	-0.294
-318.026	-200.000	-0.039	-0.377
-317.012	-200.000	-0.079	-0.384
-315.997	204.770	-0.135	0.209
-314.983	-174.781	0.201	0.006
-313.968	143.459	0.135	-0.179
-312.953	-200.000	-0.024	-0.143
-311.939	48.658	0.074	-0.070
-310.924	36.791	0.187	-0.165
-309.910	-22.708	0.135	-0.081
-308.895	-200.000	0.035	0.280
-307.880	-1.381	-0.420	-0.296
-306.866	-200.000	0.015	-0.069
-305.851	-126.625	0.261	0.039
-304.837	-13.560	0.221	0.143
-303.822	-200.000	0.015	0.196
-302.807	-200.000	0.014	0.237
-301.793	-39.711	-0.120	0.062
-300.778	136.573	0.043	-0.057
-299.764	-200.000	-0.001	0.059
-298.749	-87.346	-0.204	-0.062
-297.735	-46.486	-0.134	0.066
-296.720	-200.000	-0.002	-0.062
-295.705	-24.036	-0.082	-0.049
-294.691	-68.743	0.261	-0.101
-293.676	-61.475	0.116	-0.049
-292.662	800.000	0.056	-0.158
-291.647	-56.097	-0.062	-0.028
-290.632	-117.881	0.079	0.014
-289.618	-124.275	-0.115	0.018
-288.603	91.975	0.042	0.048
-287.589	-117.325	-0.229	-0.042
-286.574	-200.000	-0.042	-0.195
-285.559	-85.545	0.176	0.055
-284.545	-200.000	-0.021	-0.349
-283.530	-26.259	-0.041	-0.024
-282.516	9.029	-0.056	-0.042
-281.501	92.647	-0.134	0.151
-280.486	34.061	0.145	0.126
-279.472	28.388	0.133	-0.112
-278.457	228.217	0.059	0.096
-277.443	-200.000	0.030	0.228
-276.428	-159.491	0.322	-0.018
-275.413	-166.129	-0.071	-0.003
-274.399	-158.651	0.178	-0.010
-273.384	707.700	-0.032	0.083
-272.370	-200.000	0.087	0.399
-271.355	210.181	0.113	0.176
-270.340	274.690	0.085	-0.150
-269.326	135.907	-0.223	-0.290
-268.311	-3.147	0.166	-0.115
-267.297	-159.797	0.121	0.007
-266.282	-117.236	-0.124	0.022
-265.267	792.892	-0.051	0.139
-264.253	-137.709	-0.291	-0.033
-263.238	196.753	0.102	-0.154
-262.224	800.000	-0.120	-0.470
-261.209	1.439	-0.270	0.194
-260.195	-139.000	-0.286	-0.031
-259.180	569.731	0.099	0.241
-258.165	3.594	-0.170	0.123
-257.151	312.341	-0.070	-0.132
-256.136	-167.263	-0.282	-0.011
-255.122	-200.000	-0.043	-0.199
-254.107	-188.737	-0.215	-0.003
-253.092	212.548	-0.221	-0.347
-252.078	413.280	0.118	-0.251
-251.063	310.462	0.129	0.242
-250.049	-115.798	-0.243	-0.045
-249.034	-44.574	0.271	-0.135
-248.019	68.149	-0.194	0.198
-247.005	-94.287	0.118	-0.032
-245.990	151.396	0.011	0.015
-244.976	-87.362	0.276	-0.083
-243.961	225.577	0.151	-0.244
-242.946	800.000	0.118	0.371
-241.932	-187.504	-0.209	-0.003
-240.917	-96.009	0.181	0.048
-239.903	-161.157	-0.359	-0.019
-238.888	-127.104	-0.110	-0.016
-237.873	57.004	0.236	0.229
-236.859	-135.220	0.236	0.028
-235.844	-121.041	0.248	0.042
-234.830	115.717	-0.087	-0.106
-233.815	126.949	-0.091	-0.115
-232.800	-178.642	0.205	0.005
-231.786	800.000	0.029	-0.101
-230.771	800.000	-0.057	0.167
-229.757	800.000	0.120	0.391
-228.742	64.147	0.101	0.101
-227.727	380.003	-0.129	-0.264
-226.713	25.688	0.321	-0.266
-225.698	695.814	0.079	0.208
-224.684	-100.982	-0.237	-0.058
-223.669	49.380	0.037	0.034
-222.655	-114.599	-0.197	0.038
-221.640	20.121	-0.137	0.110
-220.625	-122.935	0.085	-0.014
-219.611	-14.889	-0.311	0.199
-218.596	-54.689	-0.091	-0.041
-217.582	800.000	0.064	-0.239
-216.567	168.583	-0.061	-0.087
-215.552	292.516	-0.138	0.250
-214.538	-200.000	0.035	-0.207
-213.523	81.189	0.189	-0.203
-212.509	608.603	0.069	-0.171
-211.494	220.834	0.155	-0.248
-210.479	-9.788	0.256	0.169
-209.465	-80.715	-0.370	-0.123
-208.450	214.165	0.104	0.165
-207.436	-3.185	-0.139	-0.097
-206.421	800.000	-0.035	0.149
-205.406	-139.577	-0.256	0.027
-204.392	-124.552	0.305	-0.047
-203.377	-200.000	0.033	-0.236
-202.363	109.929	-0.194	-0.232
-201.348	-200.000	-0.008	0.098
-200.333	605.204	-0.084	0.209
-199.319	253.705	-0.110	-0.188
-198.304	621.056	0.124	-0.311
-197.290	-58.945	0.191	-0.082
-196.275	27.378	-0.121	-0.101
-195.260	-51.061	-0.066	0.031
-194.246	138.409	0.088	-0.115
-193.231	-200.000	-0.019	-0.284
-192.217	-46.867	0.352	0.171
-191.202	493.677	-0.038	-0.086
-190.187	51.718	-0.161	0.152
-189.173	-200.000	0.017	-0.272
-188.158	-27.812	0.272	0.157
-187.144	-200.000	0.030	0.153
-186.129	-154.771	0.148	0.010
-185.114	-101.876	0.143	0.034
-184.100	615.423	0.027	0.067
-183.085	-56.178	0.173	0.077
-182.071	113.233	0.067	-0.081
-181.056	246.867	-0.097	0.162
-180.042	-38.300	-0.037	0.019
-179.027	-147.378	0.173	0.015
-178.012	4.298	0.114	-0.083
-176.998	-200.000	-0.031	-0.200
-175.983	-49.753	0.223	0.105
-174.969	-26.733	-0.049	0.028
-173.954	237.565	0.130	0.214
-172.939	-166.195	0.163	0.007
-171.925	23.843	-0.218	-0.178
-170.910	55.418	-0.112	0.108
-169.896	-89.832	-0.339	0.099
-168.881	181.850	-0.016	0.024
-167.866	-200.000	-0.022	0.105
-166.852	-43.707	-0.123	-0.062
-165.837	101.658	0.189	0.219
-164.823	426.873	0.224	0.479
-163.808	-200.000	0.015	0.072
-162.793	800.000	-0.054	-0.220
-161.779	-200.000	0.056	0.332
-160.764	-200.000	-0.014	0.088
-159.750	108.246	0.159	-0.188
-158.735	390.263	0.117	0.241
-157.720	-97.715	-0.166	-0.043
-156.706	-200.000	0.034	0.372
-155.691	-200.000	0.002	0.036
-154.677	-64.579	-0.136	-0.055
-153.662	178.964	0.051	0.074
-152.647	800.000	0.038	0.132
-151.633	-118.073	0.227	0.040
-150.618	94.835	0.176	0.199
-149.604	-200.000	-0.004	0.122
-148.589	-118.697	-0.229	-0.040
-147.574	-200.000	0.033	0.338
-146.560	-99.602	-0.070	0.018
-145.545	-149.085	-0.380	-0.030
-144.531	468.349	-0.070	0.156
-143.516	155.457	-0.139	-0.190
-142.502	-200.000	-0.049	0.252
-141.487	800.000	-0.046	-0.136
-140.472	156.390	0.026	-0.035
-139.458	121.455	-0.095	0.117
-138.443	-80.853	0.145	-0.048
-137.429	-200.000	-0.036	0.196
-136.414	184.820	0.189	-0.277
-135.399	315.203	0.065	0.121
-134.385	-73.582	0.116	0.042
-133.370	-69.318	0.592	0.226
-132.356	276.257	0.040	-0.071
-131.341	-200.000	-0.023	0.267
-130.326	-88.485	0.492	0.146
-129.312	1.423	0.234	0.167
-128.297	-200.000	-0.005	0.115
-127.283	7.248	0.118	0.087
-126.268	169.347	0.267	-0.378
-125.253	62.877	0.136	-0.135
-124.239	-54.466	-0.161	0.072
-123.224	27.468	0.145	-0.121
