DTS Sentinel unit serial number:	SN413079Multiplexer serial number:	ORYXHardware model number:	OX4-SRSoftware version number:	ORYX F/W v4.00 Oryx Data Collector v3.7.2.0data status	okinstallation	princeton_trtdifferential loss correction	single-endedforward channel	channel 4reverse channel	N/Adate	2019/09/14time	11:33:35forward acquisition time	60.00reverse acquisition time	0.00gamma	496.2192k internal	0.2294k external	0.2294temperature offset calibration	1.0155default loss term (dB/km)	0.3790temperature slope calibration	1.0000multiplexer offset coefficient	1.0000multiplexer slope coefficient	1.0000fibre end	0.00T internal ref (°C)	36.81T ext. ref 1 (°C)	4.56T ext. ref 2 (°C)	32.83length (m)	temperature (°C)	Stokes	anti-Stokes-747.200	-169.784	0.043	0.002
-746.185	92.849	0.177	0.205
-745.171	-24.745	0.322	0.196
-744.156	-163.108	0.122	0.006
-743.142	-18.168	0.260	0.166
-742.127	197.395	0.093	0.145
-741.112	-118.413	-0.112	-0.020
-740.098	446.148	-0.090	0.201
-739.083	-42.195	0.072	-0.037
-738.069	145.651	0.155	0.212
-737.054	-111.787	-0.076	-0.016
-736.039	-125.875	-0.487	-0.075
-735.025	-64.702	0.060	-0.025
-734.010	800.000	-0.056	0.189
-732.996	800.000	-0.059	-0.197
-731.981	-38.833	-0.118	-0.063
-730.966	2.487	-0.110	0.082
-729.952	732.906	0.105	-0.287
-728.937	392.313	-0.022	-0.046
-727.923	112.298	0.200	-0.248
-726.908	409.222	-0.050	-0.108
-725.894	-89.145	-0.231	0.070
-724.879	124.906	-0.056	0.072
-723.864	-133.912	-0.663	-0.084
-722.850	-86.092	0.356	-0.112
-721.835	691.611	-0.032	-0.086
-720.821	-200.000	0.062	0.337
-719.806	-178.656	0.225	-0.005
-718.791	-63.208	-0.154	-0.065
-717.777	-9.435	-0.210	-0.143
-716.762	45.092	-0.113	-0.106
-715.748	-45.212	0.126	-0.064
-714.733	95.981	0.187	0.218
-713.718	-34.541	-0.241	-0.135
-712.704	-105.562	-0.149	-0.035
-711.689	85.622	-0.207	0.233
-710.675	-46.045	-0.028	0.014
-709.660	-200.000	-0.020	-0.103
-708.645	-194.351	-0.132	-0.001
-707.631	-130.323	-0.301	0.042
-706.616	26.307	0.151	0.129
-705.602	-23.651	-0.407	-0.249
-704.587	-95.415	-0.456	0.125
-703.572	-162.488	0.342	-0.017
-702.558	180.998	-0.139	0.208
-701.543	-156.358	0.206	-0.013
-700.529	25.450	0.144	-0.122
-699.514	-148.611	-0.060	0.005
-698.499	-200.000	0.031	0.155
-697.485	-34.282	0.209	-0.117
-696.470	333.012	0.077	-0.152
-695.456	-126.052	0.063	-0.010
-694.441	-43.762	0.214	0.110
-693.426	-33.970	0.285	0.160
-692.412	25.648	-0.374	-0.318
-691.397	-108.219	-0.138	-0.030
-690.383	-120.304	-0.362	-0.063
-689.368	375.374	-0.134	-0.278
-688.354	-131.270	-0.460	-0.062
-687.339	92.149	-0.191	-0.219
-686.324	800.000	-0.043	-0.182
-685.310	-71.180	-0.170	0.065
-684.295	-123.295	-0.440	0.072
-683.281	-200.000	-0.008	0.191
-682.266	-29.131	-0.037	-0.022
-681.251	-121.206	-0.141	0.024
-680.237	173.135	0.300	-0.441
-679.222	89.964	-0.163	0.185
-678.208	-68.726	-0.485	-0.191
-677.193	-55.396	-0.208	0.095
-676.178	-52.452	-0.173	0.081
-675.164	320.271	0.043	-0.082
-674.149	83.991	-0.071	-0.079
-673.135	-200.000	0.001	-0.253
-672.120	-200.000	-0.001	-0.295
-671.105	-89.379	-0.087	0.026
-670.091	800.000	-0.095	-0.412
-669.076	631.812	-0.043	0.112
-668.062	-183.755	0.199	-0.003
-667.047	6.007	0.122	-0.092
-666.032	15.178	-0.186	0.148
-665.018	591.476	0.075	-0.188
-664.003	277.553	0.133	0.242
-662.989	187.330	0.051	0.077
-661.974	-1.203	-0.150	0.108
-660.959	-154.148	0.459	-0.032
-659.945	414.278	-0.109	-0.235
-658.930	42.836	-0.192	0.178
-657.916	20.904	-0.090	-0.075
-656.901	383.375	0.032	-0.067
-655.886	-145.305	0.506	0.047
-654.872	-200.000	0.020	0.167
-653.857	75.690	-0.097	-0.105
-652.843	-49.299	-0.151	-0.074
-651.828	-73.107	0.328	-0.122
-650.814	-33.061	-0.097	-0.055
-649.799	-34.705	0.193	0.108
-648.784	-200.000	-0.027	-0.181
-647.770	800.000	0.050	-0.157
-646.755	-0.259	-0.169	0.123
-645.741	800.000	0.077	-0.252
-644.726	-200.000	-0.035	-0.236
-643.711	78.353	0.101	-0.109
-642.697	-200.000	0.029	-0.261
-641.682	-52.593	-0.187	-0.088
-640.668	-113.956	0.036	-0.007
-639.653	800.000	-0.069	0.215
-638.638	38.532	-0.137	-0.125
-637.624	14.486	-0.282	0.225
-636.609	-23.093	-0.292	0.179
-635.595	203.970	-0.079	0.125
-634.580	-53.505	-0.234	-0.109
-633.565	-24.125	-0.098	-0.060
-632.551	-61.077	-0.170	0.073
-631.536	356.795	0.090	-0.182
-630.522	15.815	0.317	-0.254
-629.507	-67.415	0.230	0.092
-628.492	800.000	-0.117	0.371
-627.478	135.229	0.222	-0.294
-626.463	-200.000	0.054	-0.500
-625.449	52.090	-0.270	-0.262
-624.434	-66.476	0.077	-0.031
-623.419	800.000	-0.043	0.175
-622.405	-52.962	-0.207	-0.097
-621.390	176.035	0.163	-0.241
-620.376	174.726	0.213	-0.314
-619.361	236.532	0.135	0.228
-618.346	-2.330	-0.107	0.076
-617.332	306.123	-0.134	0.253
-616.317	-130.133	0.062	0.009
-615.303	-200.000	-0.009	-0.151
-614.288	451.581	0.071	-0.159
-613.273	217.374	0.116	-0.188
-612.259	-120.802	0.083	0.014
-611.244	-133.255	0.271	-0.035
-610.230	66.808	-0.104	-0.108
-609.215	33.832	0.180	-0.160
-608.201	-59.428	0.452	0.197
-607.186	10.697	0.186	-0.145
-606.171	800.000	0.056	-0.175
-605.157	14.328	-0.313	-0.248
-604.142	-95.097	0.055	-0.015
-603.128	-36.932	-0.234	-0.127
-602.113	-77.010	-0.185	-0.066
-601.098	-200.000	-0.020	-0.132
-600.084	186.375	0.022	0.033
-599.069	-74.156	0.197	-0.072
-598.055	-123.853	-0.102	-0.016
-597.040	-75.040	-0.092	0.033
-596.025	-68.564	0.270	0.106
-595.011	-24.373	0.098	-0.059
-593.996	153.014	-0.170	-0.236
-592.982	800.000	0.019	0.066
-591.967	145.262	-0.164	-0.223
-590.952	130.940	-0.139	0.182
-589.938	-41.214	0.265	-0.139
-588.923	-152.231	-0.290	0.021
-587.909	-158.430	-0.097	-0.006
-586.894	33.238	-0.190	0.167
-585.879	76.056	-0.043	-0.046
-584.865	-9.128	0.020	-0.013
-583.850	33.632	0.099	0.087
-582.836	-200.000	0.035	-0.156
-581.821	-71.953	0.043	0.016
-580.806	800.000	-0.076	-0.226
-579.792	13.682	0.388	-0.306
-578.777	-50.374	-0.139	0.067
-577.763	-23.540	0.041	0.025
-576.748	24.338	-0.164	-0.137
-575.733	-2.237	0.279	-0.199
-574.719	99.675	0.266	0.312
-573.704	-200.000	-0.002	0.330
-572.690	296.659	-0.235	0.437
-571.675	-79.994	0.157	0.054
-570.661	800.000	-0.012	0.041
-569.646	-38.406	0.033	0.018
-568.631	568.828	-0.078	0.192
-567.617	-185.871	-0.182	0.003
-566.602	-31.365	0.185	0.106
-565.588	161.710	0.018	-0.026
-564.573	73.500	0.184	-0.196
-563.558	-29.609	0.190	-0.110
-562.544	50.549	-0.142	-0.136
-561.529	32.724	0.186	-0.164
-560.515	-172.463	0.250	-0.008
-559.500	-67.823	-0.167	0.066
-558.485	21.954	0.293	-0.243
-557.471	-40.375	0.112	0.059
-556.456	-107.540	-0.327	-0.073
-555.442	-136.823	0.210	0.025
-554.427	-85.374	-0.286	0.090
-553.412	-200.000	-0.002	-0.166
-552.398	-139.432	0.202	-0.022
-551.383	800.000	0.067	-0.245
-550.369	77.867	0.054	-0.058
-549.354	162.429	0.133	0.190
-548.339	-29.874	-0.242	0.140
-547.325	-43.328	-0.210	-0.108
-546.310	-117.116	0.289	0.053
-545.296	81.202	-0.127	0.139
-544.281	5.736	0.381	0.286
-543.266	-19.672	-0.238	0.149
-542.252	59.576	0.155	-0.155
-541.237	64.691	0.109	0.112
-540.223	217.813	-0.238	0.385
-539.208	-56.633	0.216	0.097
-538.193	-78.854	0.105	0.036
-537.179	800.000	0.127	-0.358
-536.164	-200.000	0.011	0.339
-535.150	206.888	0.068	0.108
-534.135	-149.891	-0.261	0.021
-533.121	54.094	0.174	-0.170
-532.106	25.013	0.279	-0.235
-531.091	577.588	-0.030	-0.074
-530.077	645.063	0.084	-0.217
-529.062	-200.000	-0.018	-0.234
-528.048	-129.978	0.370	-0.051
-527.033	77.997	-0.130	-0.140
-526.018	-79.782	-0.484	-0.165
-525.004	-14.103	-0.098	0.064
-523.989	11.776	0.129	0.101
-522.975	-200.000	0.044	0.203
-521.960	-96.726	0.249	0.066
-520.945	-57.711	0.159	-0.071
-519.931	196.545	0.227	0.350
-518.916	90.988	0.244	0.278
-517.902	-200.000	-0.004	-0.034
-516.887	178.843	-0.155	-0.230
-515.872	134.872	0.179	-0.235
-514.858	-200.000	0.033	0.359
-513.843	-115.701	-0.315	-0.060
-512.829	111.282	0.076	0.093
-511.814	-162.605	-0.343	-0.017
-510.799	-19.514	0.129	-0.081
-509.785	43.318	0.180	-0.167
-508.770	289.580	-0.216	-0.397
-507.756	32.448	0.047	-0.041
-506.741	-77.909	-0.198	0.069
-505.726	72.543	-0.045	-0.048
-504.712	407.081	0.153	0.328
-503.697	72.723	0.096	0.101
-502.683	-76.484	-0.065	0.023
-501.668	-200.000	-0.030	0.195
-500.653	-149.480	0.402	0.032
-499.639	-141.534	0.091	0.009
-498.624	257.825	0.108	-0.187
-497.610	-102.473	-0.211	0.051
-496.595	800.000	0.016	0.058
-495.581	-137.023	-0.186	-0.022
-494.566	-147.861	-0.263	-0.022
-493.551	-93.927	0.229	-0.064
-492.537	110.666	-0.083	0.101
-491.522	-200.000	-0.017	-0.077
-490.508	339.414	-0.221	-0.437
-489.493	-6.168	0.256	0.177
-488.478	800.000	-0.104	0.450
-487.464	-54.816	-0.175	-0.080
-486.449	68.339	-0.127	0.132
-485.435	-72.399	0.178	-0.067
-484.420	-113.033	-0.170	-0.034
-483.405	-160.867	0.234	-0.013
-482.391	35.912	-0.092	-0.082
-481.376	-47.943	0.283	-0.138
-480.362	-47.658	-0.146	-0.072
-479.347	277.565	0.085	0.153
-478.332	-200.000	-0.014	-0.102
-477.318	240.049	-0.226	0.381
-476.303	26.544	-0.089	0.075
-475.289	-107.838	-0.240	0.053
-474.274	10.327	0.113	0.087
-473.259	21.441	-0.213	-0.175
-472.245	-60.537	-0.112	-0.048
-471.230	201.589	0.028	0.043
-470.216	-112.623	0.227	-0.046
-469.201	800.000	-0.121	0.395
-468.186	-40.499	-0.216	0.113
-467.172	34.389	-0.277	0.244
-466.157	4.104	-0.342	0.253
-465.143	116.278	-0.142	0.176
-464.128	-113.219	-0.136	0.027
-463.113	-95.917	0.102	-0.027
-462.099	23.155	-0.251	-0.208
-461.084	-200.000	0.023	0.132
-460.070	-93.920	0.301	-0.084
-459.055	800.000	0.030	0.124
-458.040	-141.139	0.334	0.035
-457.026	-8.625	0.083	0.056
-456.011	97.979	-0.226	-0.263
-454.997	364.018	0.106	-0.215
-453.982	580.198	0.056	-0.139
-452.968	-117.058	-0.216	0.040
-451.953	800.000	-0.031	0.124
-450.938	200.642	0.181	0.281
-449.924	-106.330	-0.076	0.017
-448.909	298.338	-0.034	-0.062
-447.895	-104.083	-0.178	-0.042
-446.880	-200.000	0.027	0.202
-445.865	-200.000	-0.021	0.302
-444.851	129.383	-0.146	-0.189
-443.836	345.847	-0.030	-0.060
-442.822	-200.000	-0.078	0.471
-441.807	163.554	-0.202	0.287
-440.792	-80.973	0.071	-0.024
-439.778	-200.000	0.041	-0.212
-438.763	-45.982	0.138	-0.069
-437.749	343.809	-0.106	0.209
-436.734	-186.594	-0.121	0.002
-435.719	435.638	0.096	-0.211
-434.705	89.841	-0.084	0.095
-433.690	-97.033	-0.244	-0.065
-432.676	-198.759	-0.203	0.001
-431.661	-180.575	0.332	0.007
-430.646	-25.629	0.193	0.115
-429.632	-200.000	-0.020	0.283
-428.617	-200.000	0.003	0.021
-427.603	800.000	-0.034	0.120
-426.588	20.925	0.255	-0.209
-425.573	-116.843	-0.256	-0.047
-424.559	-52.423	0.150	-0.070
-423.544	-200.000	0.016	-0.290
-422.530	547.192	0.122	0.295
-421.515	125.455	-0.180	-0.230
-420.500	-77.123	0.144	-0.051
-419.486	81.363	0.143	-0.157
-418.471	376.700	-0.129	0.266
-417.457	83.668	0.087	-0.096
-416.442	-200.000	-0.016	-0.087
-415.428	-82.218	0.054	0.018
-414.413	-66.774	0.118	-0.047
-413.398	-200.000	-0.026	-0.364
-412.384	-57.463	0.252	0.112
-411.369	-200.000	-0.013	0.132
-410.355	-51.886	-0.187	0.088
-409.340	-129.516	-0.507	-0.071
-408.325	-107.211	0.378	0.084
-407.311	246.831	-0.083	-0.141
-406.296	-51.153	-0.130	-0.062
-405.282	-87.085	0.224	0.069
-404.267	-94.302	-0.225	0.062
-403.252	68.033	-0.287	-0.297
-402.238	366.999	0.032	0.066
-401.223	89.887	-0.072	0.082
-400.209	105.904	0.017	-0.021
-399.194	40.519	-0.060	-0.055
-398.179	-200.000	0.086	-0.384
-397.165	-143.364	0.228	-0.022
-396.150	-62.744	0.046	0.019
-395.136	657.259	0.115	0.299
-394.121	800.000	0.043	0.141
-393.106	24.978	0.148	0.124
-392.092	-120.362	0.123	0.021
-391.077	-68.265	-0.265	0.104
-390.063	25.300	0.148	-0.124
-389.048	709.199	0.170	0.454
-388.033	-200.000	0.003	0.210
-387.019	22.118	0.071	0.059
-386.004	-87.990	0.092	0.028
-384.990	-200.000	0.038	-0.294
-383.975	72.678	0.071	0.074
-382.960	-162.346	0.232	0.012
-381.946	65.393	-0.209	-0.213
-380.931	19.750	-0.081	0.066
-379.917	5.382	-0.140	0.104
-378.902	800.000	0.023	0.072
-377.888	-98.292	-0.087	-0.022
-376.873	326.872	0.079	-0.152
-375.858	-90.284	-0.319	0.093
-374.844	170.455	0.204	-0.295
-373.829	-200.000	0.026	-0.247
-372.815	64.297	0.162	-0.165
-371.800	769.340	-0.117	-0.321
-370.785	-200.000	-0.022	0.129
-369.771	-23.389	-0.412	-0.249
-368.756	-153.701	0.222	-0.015
-367.742	-175.625	-0.287	0.008
-366.727	-69.790	-0.198	-0.076
-365.712	460.548	0.098	0.221
-364.698	497.352	-0.076	-0.175
-363.683	68.581	-0.181	0.187
-362.669	-200.000	0.008	0.239
-361.654	-67.843	0.203	-0.080
-360.639	91.893	0.106	-0.120
-359.625	315.301	0.112	0.213
-358.610	93.093	0.066	0.075
-357.596	-5.976	0.146	0.100
-356.581	800.000	0.037	0.146
-355.566	126.835	-0.276	0.352
-354.552	402.722	0.063	0.133
-353.537	800.000	-0.049	-0.156
-352.523	-144.567	-0.215	-0.020
-351.508	75.025	0.216	0.230
-350.493	297.763	-0.049	0.091
-349.479	216.544	0.149	0.239
-348.464	86.552	-0.132	0.146
-347.450	-6.206	-0.420	-0.289
-346.435	134.630	0.154	-0.201
-345.420	-104.110	0.216	-0.051
-344.406	-200.000	0.024	-0.228
-343.391	-200.000	-0.039	-0.222
-342.377	-189.869	0.280	0.003
-341.362	-128.068	0.122	0.018
-340.348	-15.541	-0.120	0.077
-339.333	-177.086	-0.073	-0.002
-338.318	-100.410	-0.038	-0.009
-337.304	110.285	0.183	0.221
-336.289	47.308	0.078	0.073
-335.275	-200.000	-0.007	-0.036
-334.260	-200.000	0.000	0.208
-333.245	175.678	-0.078	-0.114
-332.231	-68.985	-0.118	-0.046
-331.216	97.347	-0.176	0.203
-330.202	14.596	0.082	0.064
-329.187	168.425	-0.213	-0.306
-328.172	219.598	0.071	0.115
-327.158	800.000	-0.023	0.088
-326.143	-200.000	0.002	0.329
-325.129	-141.757	0.275	-0.028
-324.114	800.000	0.021	0.068
-323.099	7.727	0.165	0.124
-322.085	107.041	0.142	0.169
-321.070	-123.887	0.070	0.011
-320.056	77.612	0.042	-0.045
-319.041	-126.406	0.157	-0.023
-318.026	-200.000	0.021	0.238
-317.012	-83.270	0.218	0.070
-315.997	-16.642	-0.153	-0.097
-314.983	-18.798	-0.174	0.109
-313.968	472.630	0.102	0.231
-312.953	-200.000	0.004	-0.131
-311.939	-72.167	0.344	-0.128
-310.924	-32.834	0.191	-0.106
-309.910	800.000	-0.092	-0.352
-308.895	-200.000	0.029	0.192
-307.880	-158.825	0.097	0.006
-306.866	182.209	0.186	-0.275
-305.851	-68.007	-0.253	0.099
-304.837	358.736	-0.037	-0.075
-303.822	800.000	0.103	-0.325
-302.807	-92.953	-0.220	0.062
-301.793	620.148	0.067	0.170
-300.778	-99.170	-0.260	-0.066
-299.764	800.000	0.045	0.170
-298.749	-200.000	0.030	-0.150
-297.735	96.335	0.041	0.047
-296.720	-90.676	-0.078	0.023
-295.705	679.656	0.070	-0.182
-294.691	800.000	-0.038	0.143
-293.676	97.027	-0.125	0.144
-292.662	-74.770	-0.097	-0.035
-291.647	-158.481	-0.185	0.011
-290.632	7.096	0.091	0.068
-289.618	-44.582	-0.013	0.007
-288.603	-136.229	0.072	0.008
-287.589	155.260	0.182	0.251
-286.574	-200.000	-0.013	-0.322
-285.559	-108.942	0.311	-0.067
-284.545	-143.098	-0.203	-0.020
-283.530	800.000	-0.047	0.174
-282.516	18.748	-0.023	-0.019
-281.501	-11.037	0.309	-0.205
-280.486	-127.668	0.336	0.049
-279.472	-20.647	0.229	-0.141
-278.457	-200.000	-0.005	-0.186
-277.443	800.000	0.026	0.099
-276.428	353.004	0.113	-0.224
-275.413	-200.000	0.039	-0.265
-274.399	24.889	-0.105	0.087
-273.384	-79.085	0.078	-0.026
-272.370	100.089	0.167	0.195
-271.355	193.749	-0.126	-0.191
-270.340	235.387	-0.201	-0.333
-269.326	-170.235	-0.262	0.009
-268.311	-34.940	-0.389	0.213
-267.297	97.461	0.141	0.163
-266.282	293.389	0.139	0.255
-265.267	-200.000	0.019	-0.142
-264.253	-102.110	-0.079	-0.019
-263.238	-52.461	-0.202	0.094
-262.224	-200.000	-0.028	0.157
-261.209	129.992	-0.098	-0.126
-260.195	66.190	-0.328	-0.334
-259.180	-63.131	-0.315	0.131
-258.165	65.681	0.253	0.257
-257.151	-200.000	-0.026	-0.156
-256.136	91.330	-0.159	-0.179
-255.122	257.791	0.032	0.055
-254.107	-40.792	0.266	0.138
-253.092	-187.855	-0.153	0.002
-252.078	-200.000	0.012	0.076
-251.063	-200.000	0.083	0.380
-250.049	-110.700	0.296	0.061
-249.034	-14.702	-0.397	0.256
-248.019	-75.199	-0.196	-0.070
-247.005	245.912	-0.135	0.227
-245.990	-152.564	0.165	0.012
-244.976	37.006	0.080	0.071
-243.961	800.000	-0.084	0.338
-242.946	800.000	0.054	0.159
-241.932	255.471	-0.103	-0.177
-240.917	315.628	-0.054	-0.103
-239.903	-141.525	0.062	-0.006
-238.888	-100.694	0.152	0.038
-237.873	-28.427	-0.463	-0.268
-236.859	800.000	0.065	0.197
-235.844	207.165	0.065	-0.101
-234.830	-200.000	-0.012	0.053
-233.815	218.594	0.015	0.024
-232.800	800.000	-0.064	0.281
-231.786	800.000	-0.013	0.039
-230.771	800.000	-0.023	-0.066
-229.757	42.321	-0.169	0.154
-228.742	-200.000	-0.027	0.196
-227.727	-200.000	0.019	0.146
-226.713	-20.134	-0.140	0.087
-225.698	536.509	0.167	0.397
-224.684	-132.974	-0.104	-0.013
-223.669	448.510	-0.070	-0.155
-222.655	800.000	0.041	-0.118
-221.640	-5.986	-0.117	-0.080
-220.625	85.145	-0.013	0.015
-219.611	-200.000	-0.005	0.074
-218.596	800.000	-0.039	0.119
-217.582	-111.419	0.256	0.052
-216.567	-19.148	0.163	0.101
-215.552	-28.938	-0.257	-0.148
-214.538	-47.442	0.105	-0.051
-213.523	-167.686	-0.145	0.006
-212.509	540.671	0.088	0.210
-211.494	-15.558	0.158	-0.101
-210.479	497.366	0.056	0.130
-209.465	392.289	-0.136	0.282
-208.450	-98.045	0.148	-0.038
-207.436	-200.000	0.015	-0.081
-206.421	800.000	0.023	0.074
-205.406	47.651	-0.182	-0.170
-204.392	-33.219	-0.292	-0.162
-203.377	-200.000	0.008	0.043
-202.363	613.694	0.068	-0.172
-201.348	-8.847	-0.065	-0.044
-200.333	-70.402	-0.284	0.108
-199.319	-200.000	0.031	-0.397
-198.304	5.894	0.281	0.208
-197.290	109.666	-0.141	0.169
-196.275	57.095	0.147	-0.144
-195.260	399.913	0.061	0.127
-194.246	0.759	-0.101	-0.072
-193.231	-82.532	-0.223	-0.072
-192.217	-57.070	-0.131	-0.058
-191.202	800.000	-0.139	-0.385
-190.187	13.141	-0.216	0.168
-189.173	-50.433	0.156	-0.074
-188.158	-198.823	0.067	0.000
-187.144	800.000	0.079	-0.257
-186.129	800.000	0.036	-0.128
-185.114	660.128	-0.041	0.105
-184.100	269.191	-0.161	-0.283
-183.085	-87.029	-0.040	-0.012
-182.071	-73.659	-0.372	-0.135
-181.056	-200.000	0.032	-0.167
-180.042	114.018	-0.160	0.194
-179.027	-7.403	0.067	0.045
-178.012	7.966	-0.077	0.058
-176.998	-200.000	0.047	-0.248
-175.983	-155.951	-0.113	0.007
-174.969	-90.286	0.151	0.044
-173.954	-12.484	0.304	0.198
-172.939	-49.317	0.067	0.032
-171.925	-49.388	-0.292	-0.139
-170.910	228.637	-0.099	-0.161
-169.896	-200.000	-0.003	-0.496
-168.881	-44.546	0.110	-0.055
-167.866	531.992	0.117	0.276
-166.852	56.111	0.073	-0.071
-165.837	115.957	-0.078	0.095
-164.823	449.869	0.072	-0.159
-163.808	-41.731	0.207	-0.106
-162.793	129.133	-0.067	-0.086
-161.779	146.332	0.129	-0.174
-160.764	800.000	0.020	-0.055
-159.750	-200.000	0.055	0.313
-158.735	80.078	0.161	0.173
-157.720	372.519	-0.104	0.211
-156.706	-39.466	0.093	-0.049
-155.691	-109.234	0.172	0.036
-154.677	42.358	-0.235	-0.213
-153.662	547.595	0.092	0.221
-152.647	190.147	0.074	-0.111
-151.633	680.400	0.015	0.038
-150.618	800.000	0.052	-0.199
-149.604	-200.000	0.003	-0.051
-148.589	-21.253	-0.196	0.119
-147.574	-149.046	-0.267	-0.021
-146.560	78.544	-0.166	0.177
-145.545	-84.566	0.113	-0.036
-144.531	24.141	0.187	-0.155
-143.516	800.000	0.094	-0.345
-142.502	-200.000	0.050	0.318
-141.487	-68.974	0.108	0.042
-140.472	-16.630	-0.296	-0.187
-139.458	-138.133	0.065	0.007
-138.443	-42.289	-0.309	-0.158
-137.429	800.000	0.048	0.179
-136.414	49.630	-0.186	0.175
-135.399	662.403	-0.097	-0.250
-134.385	-45.116	0.221	0.109
-133.370	-117.914	-0.392	0.070
-132.356	-141.212	-0.159	0.016
-131.341	-115.244	-0.275	-0.052
-130.326	-136.248	-0.284	-0.033
-129.312	-28.835	0.115	-0.066
-128.297	800.000	0.061	0.243
-127.283	47.039	-0.036	-0.033
-126.268	-135.060	-0.290	0.035
-125.253	800.000	0.045	0.152
-124.239	195.431	0.308	0.467
-123.224	495.830	-0.039	-0.088
-122.210	-101.214	0.222	0.054
-121.195	85.654	0.132	0.145
-120.180	-92.415	-0.244	-0.068
