DTS Sentinel unit serial number:	SN413079Multiplexer serial number:	ORYXHardware model number:	OX4-SRSoftware version number:	ORYX F/W v4.00 Oryx Data Collector v3.7.2.0data status	okinstallation	princeton_trtdifferential loss correction	single-endedforward channel	channel 4reverse channel	N/Adate	2019/09/15time	18:49:35forward acquisition time	60.00reverse acquisition time	0.00gamma	496.2192k internal	0.2281k external	0.2281temperature offset calibration	0.9919default loss term (dB/km)	0.3790temperature slope calibration	1.0000multiplexer offset coefficient	1.0000multiplexer slope coefficient	1.0000fibre end	0.00T internal ref (°C)	43.12T ext. ref 1 (°C)	6.93T ext. ref 2 (°C)	34.08length (m)	temperature (°C)	Stokes	anti-Stokes-747.200	-136.792	0.141	0.017
-746.185	159.712	0.181	0.259
-745.171	-25.800	-0.025	-0.015
-744.156	-200.000	-0.007	0.089
-743.142	275.341	0.167	-0.305
-742.127	387.574	-0.125	0.266
-741.112	23.220	-0.112	-0.095
-740.098	-77.835	-0.139	0.049
-739.083	66.880	0.071	0.074
-738.069	-97.343	0.227	0.061
-737.054	-97.607	-0.344	0.092
-736.039	214.300	0.090	0.146
-735.025	0.254	0.241	0.177
-734.010	-107.305	-0.162	-0.037
-732.996	-35.551	-0.252	-0.141
-731.981	-200.000	-0.015	0.120
-730.966	-109.322	0.112	0.024
-729.952	50.353	-0.240	0.233
-728.937	20.183	-0.039	-0.032
-727.923	15.840	-0.157	0.127
-726.908	168.348	-0.140	0.204
-725.894	-200.000	0.006	-0.133
-724.879	-75.375	-0.356	0.130
-723.864	332.739	-0.125	0.247
-722.850	-200.000	-0.051	-0.273
-721.835	42.085	-0.179	0.167
-720.821	415.920	-0.026	-0.056
-719.806	-7.187	-0.121	-0.084
-718.791	-200.000	0.043	-0.207
-717.777	-64.031	0.157	0.066
-716.762	-200.000	0.019	-0.174
-715.748	263.451	-0.111	0.199
-714.733	79.959	-0.099	-0.109
-713.718	-103.207	-0.411	-0.100
-712.704	119.053	-0.095	0.121
-711.689	-200.000	-0.005	0.080
-710.675	-196.021	0.370	0.003
-709.660	-65.551	0.152	0.063
-708.645	-200.000	0.005	-0.083
-707.631	800.000	0.027	0.116
-706.616	-200.000	0.048	0.224
-705.602	-74.232	-0.290	0.108
-704.587	57.233	0.099	-0.099
-703.572	396.242	-0.048	0.103
-702.558	-200.000	0.019	-0.156
-701.543	126.222	0.081	0.105
-700.529	-79.403	-0.244	-0.085
-699.514	-123.339	-0.109	-0.018
-698.499	-6.623	-0.159	0.111
-697.485	485.972	0.128	0.300
-696.470	84.267	-0.136	0.153
-695.456	-2.868	0.064	0.046
-694.441	-160.033	-0.294	0.016
-693.426	-149.361	-0.203	0.017
-692.412	-81.139	-0.335	0.114
-691.397	-125.713	-0.330	-0.051
-690.383	226.345	0.150	-0.249
-689.368	47.744	0.169	-0.162
-688.354	-99.837	-0.321	-0.082
-687.339	139.055	0.286	0.386
-686.324	303.224	0.032	-0.060
-685.310	-61.356	-0.162	-0.070
-684.295	-200.000	-0.019	-0.115
-683.281	164.174	-0.037	-0.053
-682.266	800.000	-0.076	-0.230
-681.251	-37.919	0.054	-0.029
-680.237	38.769	0.156	-0.143
-679.222	-175.341	0.101	0.003
-678.208	270.546	0.140	-0.253
-677.193	-93.292	-0.123	0.035
-676.178	-200.000	-0.101	-0.491
-675.164	377.316	0.036	0.076
-674.149	-39.442	-0.215	0.116
-673.135	-26.945	0.113	-0.068
-672.120	-36.717	0.277	0.152
-671.105	157.344	-0.291	0.413
-670.091	-200.000	-0.021	-0.108
-669.076	32.719	0.255	-0.226
-668.062	-32.702	-0.489	0.279
-667.047	-34.422	-0.119	-0.067
-666.032	-122.270	-0.383	-0.064
-665.018	96.860	0.167	0.196
-664.003	-200.000	0.031	-0.140
-662.989	784.797	-0.143	-0.402
-661.974	-200.000	-0.005	-0.236
-660.959	-200.000	-0.005	-0.185
-659.945	-99.264	0.235	-0.061
-658.930	39.279	-0.324	-0.298
-657.916	-155.567	0.231	-0.015
-656.901	35.330	0.185	-0.166
-655.886	-200.000	-0.005	-0.504
-654.872	4.206	0.094	0.070
-653.857	-68.209	0.097	0.039
-652.843	-200.000	-0.042	0.276
-651.828	800.000	-0.080	0.277
-650.814	242.039	-0.142	0.243
-649.799	-72.131	0.210	0.080
-648.784	-103.001	-0.303	-0.074
-647.770	377.676	-0.204	-0.426
-646.755	-81.741	-0.302	0.101
-645.741	297.857	-0.133	0.250
-644.726	-91.277	-0.229	0.067
-643.711	-200.000	-0.062	-0.332
-642.697	324.695	0.019	0.037
-641.682	-126.087	-0.057	-0.009
-640.668	-200.000	-0.014	0.248
-639.653	800.000	0.036	-0.106
-638.638	37.372	-0.005	0.004
-637.624	-5.290	-0.216	0.152
-636.609	433.718	0.057	0.126
-635.595	-200.000	-0.021	-0.399
-634.580	-200.000	0.003	0.072
-633.565	800.000	0.110	0.351
-632.551	-183.253	0.287	-0.005
-631.536	-200.000	0.023	0.305
-630.522	-122.615	-0.355	0.059
-629.507	64.369	0.162	-0.167
-628.492	70.290	-0.100	0.106
-627.478	-200.000	-0.009	0.299
-626.463	-173.472	-0.169	0.005
-625.449	54.530	-0.073	-0.072
-624.434	800.000	0.104	-0.374
-623.419	-52.740	-0.169	0.080
-622.405	800.000	-0.115	-0.385
-621.390	800.000	-0.085	-0.272
-620.376	486.984	-0.063	-0.147
-619.361	-135.664	-0.238	0.029
-618.346	157.707	-0.132	0.187
-617.332	-0.537	0.208	0.151
-616.317	32.104	-0.197	0.174
-615.303	262.722	0.070	-0.125
-614.288	-158.627	-0.099	0.006
-613.273	91.013	0.100	-0.114
-612.259	15.144	-0.109	0.087
-611.244	24.303	0.198	0.167
-610.230	-200.000	-0.002	0.058
-609.215	-200.000	-0.020	0.106
-608.201	710.125	0.005	-0.014
-607.186	-56.350	0.060	-0.027
-606.171	-128.971	0.269	-0.039
-605.157	-200.000	0.009	0.187
-604.142	-88.978	0.282	-0.085
-603.128	-49.313	0.036	-0.017
-602.113	-72.038	-0.265	-0.101
-601.098	-26.238	0.028	0.017
-600.084	-111.265	0.588	0.123
-599.069	-164.677	-0.266	0.012
-598.055	1.359	0.147	-0.108
-597.040	-184.697	-0.261	-0.004
-596.025	-69.090	0.180	0.071
-595.011	256.253	0.231	-0.406
-593.996	-200.000	-0.048	-0.224
-592.982	800.000	-0.088	-0.274
-591.967	0.449	0.238	-0.173
-590.952	53.057	-0.156	0.152
-589.938	104.602	-0.091	0.110
-588.923	-200.000	0.005	0.164
-587.909	-103.541	0.141	0.034
-586.894	800.000	-0.069	0.207
-585.879	56.906	0.035	-0.035
-584.865	-146.523	0.203	-0.018
-583.850	26.872	-0.133	-0.114
-582.836	-72.108	0.193	0.073
-581.821	72.104	-0.259	0.276
-580.806	-200.000	0.075	0.356
-579.792	-96.740	0.143	0.039
-578.777	173.145	-0.236	0.348
-577.763	421.976	-0.173	-0.380
-576.748	-26.729	-0.196	0.117
-575.733	29.916	-0.134	0.117
-574.719	-68.711	0.214	-0.085
-573.704	-200.000	-0.001	-0.020
-572.690	763.857	0.089	0.247
-571.675	-56.326	0.215	0.098
-570.661	-167.312	-0.151	-0.006
-569.646	152.055	0.286	-0.398
-568.631	349.934	-0.032	-0.065
-567.617	187.715	0.038	0.059
-566.602	-200.000	0.045	-0.287
-565.588	176.363	0.054	-0.080
-564.573	-106.183	-0.104	0.024
-563.558	246.295	0.176	0.303
-562.544	800.000	0.102	0.304
-561.529	54.566	-0.051	-0.050
-560.515	-200.000	-0.026	-0.297
-559.500	171.981	-0.073	-0.107
-558.485	-200.000	-0.001	-0.161
-557.471	-160.117	-0.249	0.014
-556.456	496.706	0.067	0.158
-555.442	7.661	-0.030	-0.023
-554.427	532.645	-0.022	-0.052
-553.412	457.165	-0.140	-0.318
-552.398	-200.000	-0.033	-0.176
-551.383	800.000	-0.050	-0.161
-550.369	108.244	0.143	-0.174
-549.354	-142.075	0.038	0.004
-548.339	-200.000	-0.014	-0.247
-547.325	16.637	0.013	-0.010
-546.310	107.734	-0.052	-0.063
-545.296	-200.000	-0.020	-0.328
-544.281	-200.000	0.002	0.199
-543.266	506.192	0.202	0.478
-542.252	121.452	0.130	0.166
-541.237	-56.422	-0.393	-0.178
-540.223	112.081	-0.272	0.335
-539.208	435.667	-0.044	-0.098
-538.193	577.104	-0.116	0.290
-537.179	158.623	0.187	-0.265
-536.164	-142.342	-0.225	-0.023
-535.150	114.511	0.225	-0.280
-534.135	-19.064	0.232	0.147
-533.121	-20.060	0.063	0.040
-532.106	74.692	0.243	-0.261
-531.091	-82.663	-0.159	0.052
-530.077	-145.841	-0.275	0.025
-529.062	86.557	0.221	-0.248
-528.048	-200.000	0.005	-0.176
-527.033	-120.581	-0.386	-0.067
-526.018	-84.746	-0.185	-0.059
-525.004	-22.983	-0.328	-0.202
-523.989	28.596	0.200	0.173
-522.975	39.886	-0.149	0.137
-521.960	323.427	-0.204	0.396
-520.945	-44.591	0.144	0.073
-519.931	-10.598	-0.245	-0.165
-518.916	-148.093	0.024	-0.002
-517.902	575.438	-0.072	-0.179
-516.887	562.997	0.129	0.320
-515.872	15.233	-0.260	-0.207
-514.858	14.278	-0.269	0.214
-513.843	163.142	-0.115	-0.165
-512.829	206.519	-0.107	0.171
-511.814	61.384	0.251	0.254
-510.799	-200.000	0.025	0.169
-509.785	220.194	0.213	-0.348
-508.770	-94.609	-0.123	0.034
-507.756	-200.000	-0.016	-0.331
-506.741	73.178	0.127	0.136
-505.726	-93.991	-0.117	-0.033
-504.712	-157.807	-0.179	0.011
-503.697	124.033	-0.106	-0.135
-502.683	-69.282	-0.216	-0.085
-501.668	-69.708	-0.314	0.122
-500.653	-7.217	0.231	-0.160
-499.639	-200.000	0.033	0.204
-498.624	-200.000	-0.010	0.158
-497.610	28.855	0.288	0.248
-496.595	-200.000	0.036	-0.220
-495.581	-151.158	0.303	0.023
-494.566	-120.696	0.157	0.027
-493.551	-200.000	-0.034	0.236
-492.537	-28.928	0.149	-0.087
-491.522	-74.608	-0.118	0.043
-490.508	255.916	-0.182	0.318
-489.493	-42.161	-0.292	0.152
-488.478	-154.051	-0.274	0.019
-487.464	-200.000	-0.026	0.132
-486.449	-112.852	-0.189	-0.038
-485.435	229.420	-0.115	-0.191
-484.420	213.490	0.271	0.437
-483.405	54.900	-0.073	0.072
-482.391	19.100	0.260	-0.212
-481.376	34.354	0.055	-0.049
-480.362	800.000	0.013	-0.039
-479.347	-143.875	-0.137	0.013
-478.332	-23.479	-0.177	0.108
-477.318	800.000	-0.048	0.148
-476.303	261.114	0.088	-0.154
-475.289	-128.021	0.256	-0.037
-474.274	-58.878	0.025	-0.011
-473.259	-100.491	-0.491	-0.124
-472.245	-98.895	0.198	-0.051
-471.230	695.385	-0.107	-0.285
-470.216	138.204	-0.108	-0.145
-469.201	205.490	-0.250	0.395
-468.186	93.800	0.255	-0.295
-467.172	89.264	0.210	0.238
-466.157	27.641	0.202	-0.173
-465.143	251.543	-0.038	0.066
-464.128	137.915	-0.276	0.368
-463.113	-103.174	0.363	0.087
-462.099	-188.499	0.294	0.004
-461.084	800.000	-0.030	-0.087
-460.070	-51.897	-0.203	-0.096
-459.055	26.286	-0.328	0.279
-458.040	800.000	-0.178	0.511
-457.026	280.564	-0.066	0.120
-456.011	-4.184	-0.263	-0.185
-454.997	116.334	0.348	-0.434
-453.982	59.132	0.344	-0.344
-452.968	-88.442	0.062	-0.019
-451.953	-31.022	0.242	-0.139
-450.938	-27.906	0.168	-0.099
-449.924	-163.329	-0.052	0.003
-448.909	-200.000	-0.016	-0.200
-447.895	-43.432	-0.184	0.095
-446.880	19.949	-0.184	-0.150
-445.865	739.763	-0.075	0.204
-444.851	-200.000	-0.048	0.225
-443.836	471.749	0.058	-0.132
-442.822	22.305	-0.146	-0.122
-441.807	-64.744	0.101	0.042
-440.792	10.551	-0.109	-0.084
-439.778	277.433	0.095	0.171
-438.763	-18.799	0.182	-0.115
-437.749	109.509	0.181	0.220
-436.734	32.139	0.085	-0.074
-435.719	385.666	-0.084	0.176
-434.705	-200.000	-0.080	0.000
-433.690	-113.585	-0.052	0.010
-432.676	800.000	-0.041	0.158
-431.661	-89.197	0.268	-0.080
-430.646	-113.887	-0.193	-0.038
-429.632	498.084	0.171	0.401
-428.617	412.069	-0.147	0.316
-427.603	800.000	-0.052	-0.204
-426.588	-7.649	0.145	0.100
-425.573	-200.000	0.037	-0.184
-424.559	-141.305	0.136	-0.014
-423.544	34.736	-0.048	-0.043
-422.530	-66.894	-0.209	-0.084
-421.515	-24.845	0.206	0.124
-420.500	-200.000	-0.010	-0.342
-419.486	-121.774	0.274	-0.046
-418.471	143.330	-0.167	0.226
-417.457	800.000	0.136	-0.492
-416.442	348.608	0.047	0.094
-415.428	-83.468	0.305	-0.099
-414.413	-200.000	0.039	-0.314
-413.398	82.430	-0.117	-0.129
-412.384	383.777	-0.176	-0.367
-411.369	489.618	0.064	0.150
-410.355	-127.192	-0.185	-0.027
-409.340	-138.399	-0.188	0.021
-408.325	-151.825	-0.036	0.003
-407.311	800.000	-0.072	-0.231
-406.296	235.895	0.094	0.158
-405.282	6.032	-0.526	0.396
-404.267	800.000	-0.051	0.188
-403.252	156.274	0.199	0.279
-402.238	736.323	0.078	-0.213
-401.223	800.000	0.188	0.542
-400.209	-89.323	0.123	-0.037
-399.194	-200.000	0.028	-0.372
-398.179	-119.328	-0.166	0.029
-397.165	93.684	-0.048	-0.055
-396.150	-200.000	-0.035	-0.159
-395.136	-180.339	0.540	0.011
-394.121	-41.224	0.237	-0.124
-393.106	-73.523	0.446	0.165
-392.092	-200.000	-0.032	-0.552
-391.077	-88.613	-0.225	0.068
-390.063	427.759	-0.089	0.195
-389.048	104.465	-0.034	0.041
-388.033	800.000	-0.035	0.136
-387.019	545.391	-0.053	0.129
-386.004	263.161	-0.003	0.005
-384.990	-35.484	-0.030	-0.016
-383.975	-200.000	0.026	-0.157
-382.960	-200.000	0.033	0.271
-381.946	800.000	0.054	-0.221
-380.931	176.863	0.061	-0.091
-379.917	-200.000	0.023	0.206
-378.902	800.000	-0.028	0.114
-377.888	-1.041	0.257	-0.184
-376.873	800.000	-0.089	-0.328
-375.858	159.387	0.035	0.050
-374.844	1.280	0.272	-0.198
-373.829	-120.694	-0.126	-0.022
-372.815	-200.000	-0.006	0.074
-371.800	540.499	0.072	-0.174
-370.785	110.905	-0.038	-0.047
-369.771	-134.657	0.154	-0.019
-368.756	164.556	-0.104	0.149
-367.742	36.354	0.128	0.114
-366.727	245.555	0.079	-0.134
-365.712	-148.724	-0.110	-0.009
-364.698	-11.069	-0.392	0.262
-363.683	-32.065	-0.132	-0.075
-362.669	238.622	0.062	-0.105
-361.654	94.642	0.113	-0.130
-360.639	156.898	-0.136	-0.191
-359.625	294.886	0.124	-0.231
-358.610	-114.015	0.401	0.079
-357.596	-46.970	-0.066	-0.033
-356.581	-200.000	-0.003	0.096
-355.566	-200.000	-0.040	-0.240
-354.552	367.517	-0.105	-0.214
-353.537	800.000	0.104	-0.297
-352.523	-200.000	0.013	-0.166
-351.508	800.000	0.105	-0.341
-350.493	37.023	-0.200	-0.180
-349.479	135.695	-0.113	-0.149
-348.464	-143.285	-0.247	0.024
-347.450	-61.433	-0.253	-0.108
-346.435	329.843	0.094	-0.184
-345.420	-200.000	0.091	0.444
-344.406	35.173	0.231	0.205
-343.391	800.000	-0.101	0.329
-342.377	31.420	0.132	0.115
-341.362	-47.984	0.257	-0.126
-340.348	138.782	0.203	-0.269
-339.333	-16.670	-0.226	-0.145
-338.318	-96.240	-0.150	0.040
-337.304	69.772	0.059	-0.062
-336.289	30.583	-0.119	-0.103
-335.275	157.038	-0.117	0.163
-334.260	-94.355	-0.350	0.097
-333.245	700.314	0.096	-0.257
-332.231	-143.301	-0.255	-0.025
-331.216	151.898	-0.175	0.242
-330.202	-107.632	-0.526	-0.116
-329.187	-165.742	0.231	0.010
-328.172	-200.000	0.034	-0.177
-327.158	-27.888	-0.209	-0.123
-326.143	-102.449	-0.268	-0.065
-325.129	-200.000	-0.029	-0.496
-324.114	-168.136	0.136	0.005
-323.099	105.688	-0.155	-0.186
-322.085	800.000	0.062	-0.203
-321.070	-200.000	-0.007	-0.263
-320.056	-4.613	0.050	-0.035
-319.041	-200.000	-0.007	-0.040
-318.026	800.000	0.036	0.117
-317.012	-3.362	0.127	0.090
-315.997	-200.000	0.020	0.205
-314.983	-200.000	0.058	0.421
-313.968	-82.020	0.156	0.052
-312.953	-179.880	0.205	-0.004
-311.939	61.251	-0.050	-0.050
-310.924	-37.317	0.127	-0.069
-309.910	-200.000	-0.004	-0.143
-308.895	404.811	0.071	-0.151
-307.880	800.000	-0.090	-0.275
-306.866	412.336	-0.131	-0.282
-305.851	252.185	-0.057	0.098
-304.837	310.838	0.158	0.299
-303.822	-40.713	0.359	-0.188
-302.807	-74.855	-0.066	-0.024
-301.793	344.928	0.113	-0.225
-300.778	-186.429	-0.072	0.001
-299.764	-21.004	-0.254	-0.157
-298.749	385.558	0.127	-0.264
-297.735	-200.000	0.009	0.049
-296.720	9.503	-0.175	-0.134
-295.705	-93.588	0.081	0.023
-294.691	-200.000	-0.033	-0.194
-293.676	375.491	0.336	-0.692
-292.662	-200.000	0.016	0.134
-291.647	-23.288	-0.170	0.103
-290.632	-57.241	0.100	-0.044
-289.618	58.677	-0.125	-0.124
-288.603	-15.385	0.161	-0.104
-287.589	-37.190	0.091	-0.049
-286.574	-29.992	0.337	0.194
-285.559	193.350	-0.193	-0.295
-284.545	-19.372	0.190	0.119
-283.530	-67.841	-0.138	-0.055
-282.516	800.000	-0.075	-0.227
-281.501	-44.356	0.244	0.123
-280.486	-200.000	0.054	0.427
-279.472	-127.017	0.036	0.005
-278.457	-163.743	0.222	0.011
-277.443	-200.000	-0.025	0.219
-276.428	42.842	0.077	0.071
-275.413	-99.265	0.470	-0.120
-274.399	-131.417	0.367	-0.049
-273.384	572.022	-0.014	-0.034
-272.370	-45.921	0.240	-0.120
-271.355	-75.967	-0.187	0.067
-270.340	368.800	0.126	0.257
-269.326	-200.000	-0.007	0.105
-268.311	800.000	0.043	0.140
-267.297	745.769	-0.098	-0.266
-266.282	800.000	-0.055	0.224
-265.267	-48.424	0.215	-0.104
-264.253	-45.936	-0.201	0.100
-263.238	5.517	-0.225	-0.168
-262.224	-94.919	-0.157	-0.043
-261.209	257.855	-0.081	-0.141
-260.195	492.392	0.036	-0.083
-259.180	245.129	0.089	0.151
-258.165	-200.000	0.127	-0.000
-257.151	16.465	-0.293	0.233
-256.136	102.942	-0.145	0.171
-255.122	619.646	-0.097	-0.247
-254.107	46.942	0.042	-0.040
-253.092	7.865	-0.143	0.108
-252.078	-200.000	0.022	0.253
-251.063	800.000	-0.030	0.107
-250.049	-7.447	0.258	0.176
-249.034	198.177	-0.078	0.120
-248.019	-129.213	-0.193	-0.027
-247.005	50.991	0.111	0.106
-245.990	384.713	0.113	0.234
-244.976	-200.000	-0.009	0.250
-243.961	-34.974	-0.058	0.032
-242.946	0.669	0.288	0.208
-241.932	121.555	0.148	-0.186
-240.917	-156.836	-0.248	-0.015
-239.903	800.000	0.142	0.432
-238.888	800.000	0.018	-0.057
-237.873	800.000	0.093	0.397
-236.859	362.898	0.021	0.043
-235.844	38.784	-0.076	0.069
-234.830	581.367	0.123	0.303
-233.815	106.032	0.211	-0.252
-232.800	-155.825	-0.134	0.009
-231.786	-102.059	-0.141	-0.034
-230.771	-200.000	0.020	0.236
-229.757	72.923	0.074	-0.078
-228.742	-200.000	-0.019	-0.187
-227.727	185.426	-0.075	0.113
-226.713	-200.000	-0.010	-0.128
-225.698	11.745	-0.090	0.070
-224.684	243.071	0.124	0.209
-223.669	-64.607	-0.175	-0.072
-222.655	-200.000	0.000	0.037
-221.640	204.657	0.306	0.479
-220.625	57.632	0.046	0.045
-219.611	-121.845	-0.116	0.019
-218.596	-200.000	-0.050	0.248
-217.582	-128.659	0.185	0.026
-216.567	800.000	-0.125	-0.379
-215.552	-200.000	0.018	-0.083
-214.538	-109.985	-0.086	0.018
-213.523	118.508	0.095	-0.118
-212.509	-78.469	0.117	0.040
-211.494	270.913	-0.149	0.265
-210.479	602.015	-0.115	-0.289
-209.465	-94.301	-0.115	-0.032
-208.450	196.855	-0.160	0.246
-207.436	-200.000	-0.001	0.051
-206.421	11.487	0.162	0.125
-205.406	46.721	0.155	0.145
-204.392	-82.495	-0.227	-0.074
-203.377	37.645	0.307	-0.274
-202.363	31.436	-0.313	-0.271
-201.348	109.488	-0.094	-0.114
-200.333	-36.696	0.052	0.028
-199.319	158.447	0.039	0.054
-198.304	-200.000	-0.016	0.248
-197.290	-93.091	-0.034	0.009
-196.275	800.000	-0.106	0.332
-195.260	-200.000	0.033	0.274
-194.246	62.854	0.415	0.418
-193.231	39.079	-0.177	0.159
-192.217	-200.000	-0.040	0.284
-191.202	-58.166	-0.144	-0.063
-190.187	-189.589	-0.219	0.003
-189.173	-200.000	0.038	-0.377
-188.158	-31.970	0.109	0.062
-187.144	362.146	0.069	0.140
-186.129	-200.000	-0.018	0.235
-185.114	-200.000	-0.054	0.244
-184.100	-70.523	-0.159	0.061
-183.085	314.828	0.057	0.108
-182.071	29.637	-0.125	-0.107
-181.056	-18.233	0.236	0.148
-180.042	-113.058	0.291	0.058
-179.027	74.521	-0.134	-0.142
-178.012	-200.000	-0.018	-0.198
-176.998	-17.322	0.160	0.101
-175.983	39.687	0.030	0.027
-174.969	0.492	0.150	0.108
-173.954	-40.499	-0.108	-0.056
-172.939	-12.390	0.219	0.144
-171.925	125.004	0.307	0.389
-170.910	-74.141	0.203	-0.074
-169.896	402.226	0.096	0.203
-168.881	391.699	0.080	0.167
-167.866	-200.000	-0.039	0.320
-166.852	2.432	-0.081	-0.059
-165.837	62.453	0.114	0.115
-164.823	53.054	-0.148	-0.143
-163.808	-137.582	0.153	0.017
-162.793	50.240	-0.213	0.203
-161.779	-13.466	0.106	-0.069
-160.764	-93.221	-0.170	0.047
-159.750	-200.000	-0.005	-0.061
-158.735	27.825	-0.300	-0.254
-157.720	127.329	0.156	0.199
-156.706	-200.000	-0.002	-0.107
-155.691	-51.633	0.293	-0.137
-154.677	-200.000	-0.013	-0.079
-153.662	800.000	-0.020	-0.084
-152.647	-200.000	0.063	-0.330
-151.633	44.432	-0.286	-0.264
-150.618	800.000	0.046	-0.164
-149.604	-44.386	-0.351	0.177
-148.589	-8.597	-0.288	0.194
-147.574	155.866	-0.212	-0.294
-146.560	-75.045	0.215	0.077
-145.545	-43.934	0.064	0.032
-144.531	-38.962	0.124	-0.065
-143.516	-72.380	-0.143	-0.053
-142.502	51.551	0.261	0.249
-141.487	-163.172	0.390	0.019
-140.472	-200.000	-0.004	-0.104
-139.458	-69.382	-0.288	-0.111
-138.443	154.757	-0.284	-0.392
-137.429	-90.355	-0.049	-0.014
-136.414	36.231	-0.122	0.108
-135.399	-55.481	0.213	-0.096
-134.385	-126.493	-0.323	-0.048
-133.370	523.497	0.062	-0.147
-132.356	337.913	0.051	-0.100
-131.341	-32.401	0.148	0.083
-130.326	-56.498	0.146	0.065
-129.312	-130.302	-0.178	-0.024
-128.297	-200.000	0.002	0.060
-127.283	-62.620	-0.067	0.028
-126.268	800.000	-0.060	-0.222
-125.253	5.724	0.125	-0.093
-124.239	325.170	0.254	0.487
-123.224	129.108	0.119	0.152
-122.210	-200.000	-0.030	0.183
-121.195	63.174	-0.194	-0.195
