DTS Sentinel unit serial number:	SN413079Multiplexer serial number:	ORYXHardware model number:	OX4-SRSoftware version number:	ORYX F/W v4.00 Oryx Data Collector v3.7.2.0data status	okinstallation	princeton_trtdifferential loss correction	single-endedforward channel	channel 4reverse channel	N/Adate	2019/09/15time	18:33:35forward acquisition time	60.00reverse acquisition time	0.00gamma	496.2192k internal	0.2276k external	0.2276temperature offset calibration	0.9915default loss term (dB/km)	0.3790temperature slope calibration	1.0000multiplexer offset coefficient	1.0000multiplexer slope coefficient	1.0000fibre end	0.00T internal ref (°C)	43.95T ext. ref 1 (°C)	6.76T ext. ref 2 (°C)	37.56length (m)	temperature (°C)	Stokes	anti-Stokes-747.200	800.000	0.086	0.341
-746.185	-200.000	0.055	0.441
-745.171	129.261	-0.058	-0.076
-744.156	351.669	-0.123	0.251
-743.142	534.514	-0.021	-0.052
-742.127	-133.275	0.178	0.023
-741.112	-7.073	-0.120	-0.084
-740.098	-200.000	-0.020	-0.179
-739.083	-137.696	-0.180	0.021
-738.069	308.028	0.253	0.487
-737.054	374.784	-0.064	-0.134
-736.039	-94.642	0.284	0.080
-735.025	-145.295	-0.299	0.028
-734.010	-112.667	-0.327	0.067
-732.996	-169.784	0.088	0.003
-731.981	-34.724	-0.447	-0.252
-730.966	486.246	-0.097	-0.228
-729.952	-200.000	0.023	-0.318
-728.937	51.853	0.022	0.022
-727.923	86.458	0.090	-0.102
-726.908	-200.000	0.016	-0.420
-725.894	720.104	-0.092	0.252
-724.879	-103.656	0.152	-0.037
-723.864	15.866	-0.227	0.184
-722.850	336.653	-0.191	-0.383
-721.835	-51.106	-0.187	0.090
-720.821	-200.000	0.021	0.128
-719.806	-66.770	-0.349	-0.142
-718.791	-200.000	0.026	0.172
-717.777	-200.000	0.012	0.261
-716.762	687.643	0.095	-0.257
-715.748	-28.003	-0.091	-0.054
-714.733	-166.225	0.314	-0.014
-713.718	-118.090	-0.495	0.091
-712.704	203.550	0.040	-0.064
-711.689	-200.000	0.006	-0.316
-710.675	128.805	-0.234	-0.307
-709.660	-62.240	-0.229	-0.098
-708.645	5.287	-0.062	-0.047
-707.631	-200.000	0.056	0.389
-706.616	273.234	0.115	0.209
-705.602	800.000	-0.042	0.174
-704.587	11.638	-0.025	0.020
-703.572	800.000	-0.038	-0.122
-702.558	-200.000	0.029	-0.245
-701.543	-68.067	0.351	-0.141
-700.529	-120.684	-0.288	0.050
-699.514	72.850	0.399	-0.428
-698.499	800.000	-0.123	-0.354
-697.485	-99.066	-0.366	-0.095
-696.470	-86.644	-0.136	0.043
-695.456	52.312	-0.258	-0.253
-694.441	485.886	0.068	-0.159
-693.426	-170.645	0.213	-0.008
-692.412	-52.474	-0.117	0.055
-691.397	-100.073	0.024	0.006
-690.383	78.235	-0.136	-0.150
-689.368	-139.710	0.106	-0.012
-688.354	-136.149	0.209	0.025
-687.339	-200.000	0.032	-0.215
-686.324	59.165	0.073	0.074
-685.310	800.000	-0.047	0.144
-684.295	89.314	-0.064	-0.073
-683.281	244.460	0.077	0.133
-682.266	92.038	0.170	-0.197
-681.251	-161.795	0.229	0.012
-680.237	266.206	0.046	0.082
-679.222	800.000	-0.063	0.230
-678.208	-200.000	0.041	-0.240
-677.193	345.724	-0.048	-0.097
-676.178	31.636	-0.078	-0.069
-675.164	-51.215	-0.177	0.085
-674.149	653.873	-0.054	-0.144
-673.135	243.282	0.126	-0.218
-672.120	24.544	-0.324	0.276
-671.105	-89.475	0.424	-0.128
-670.091	800.000	0.080	0.284
-669.076	-200.000	-0.081	0.398
-668.062	358.261	-0.039	0.080
-667.047	-200.000	0.005	-0.072
-666.032	-200.000	0.037	0.402
-665.018	307.507	0.035	-0.068
-664.003	-24.329	0.283	0.174
-662.989	-0.620	0.120	-0.088
-661.974	246.962	0.033	0.058
-660.959	-143.753	0.341	0.033
-659.945	-200.000	-0.035	-0.247
-658.930	-76.575	-0.193	0.070
-657.916	-114.115	-0.125	0.025
-656.901	236.674	-0.110	0.187
-655.886	321.064	-0.120	0.233
-654.872	-200.000	-0.012	-0.084
-653.857	-93.182	0.069	-0.020
-652.843	-59.613	-0.157	0.069
-651.828	296.136	-0.193	-0.363
-650.814	-70.313	0.205	0.080
-649.799	-92.384	-0.173	0.050
-648.784	-60.471	0.138	-0.060
-647.770	-200.000	0.028	0.315
-646.755	508.395	-0.189	0.452
-645.741	800.000	0.112	-0.328
-644.726	-200.000	-0.031	-0.167
-643.711	739.005	0.083	-0.228
-642.697	-62.193	0.316	0.135
-641.682	228.353	-0.108	0.181
-640.668	-40.315	-0.045	-0.024
-639.653	-137.477	-0.142	0.016
-638.638	15.808	-0.281	0.227
-637.624	588.370	0.081	-0.204
-636.609	-200.000	0.103	0.517
-635.595	-77.505	0.201	0.071
-634.580	800.000	0.035	-0.140
-633.565	106.151	-0.198	-0.240
-632.551	312.105	-0.059	-0.114
-631.536	-49.381	-0.304	-0.149
-630.522	-133.978	0.236	-0.030
-629.507	-200.000	0.024	-0.132
-628.492	-23.720	-0.152	0.094
-627.478	324.881	-0.125	-0.246
-626.463	237.249	-0.081	-0.138
-625.449	-200.000	0.003	0.068
-624.434	71.547	0.233	0.248
-623.419	467.961	-0.110	0.254
-622.405	478.840	-0.077	0.178
-621.390	-200.000	-0.027	-0.163
-620.376	265.829	0.066	0.118
-619.361	309.077	0.051	-0.098
-618.346	-200.000	-0.019	0.452
-617.332	162.734	-0.049	-0.071
-616.317	-143.497	0.376	0.037
-615.303	11.241	0.138	-0.108
-614.288	126.952	0.126	0.164
-613.273	-200.000	-0.016	0.132
-612.259	-200.000	-0.010	-0.357
-611.244	-125.636	0.216	0.034
-610.230	15.995	-0.046	-0.037
-609.215	-200.000	-0.018	-0.167
-608.201	-32.530	-0.110	-0.063
-607.186	-37.357	0.102	-0.056
-606.171	-200.000	-0.004	0.143
-605.157	342.767	0.050	-0.099
-604.142	-200.000	-0.063	-0.382
-603.128	25.828	-0.188	0.161
-602.113	-57.141	0.273	0.123
-601.098	109.613	-0.125	-0.154
-600.084	306.426	-0.065	-0.124
-599.069	-140.052	0.302	-0.033
-598.055	-145.084	-0.183	-0.017
-597.040	264.659	-0.059	-0.106
-596.025	-118.527	-0.209	-0.038
-595.011	-86.306	-0.143	-0.045
-593.996	-200.000	0.026	0.140
-592.982	572.877	0.098	0.245
-591.967	-200.000	-0.021	0.165
-590.952	-38.131	0.115	-0.062
-589.938	396.203	0.096	-0.205
-588.923	31.058	0.141	0.124
-587.909	-200.000	0.002	-0.180
-586.894	486.145	0.124	-0.289
-585.879	-135.242	-0.281	0.035
-584.865	-200.000	0.015	0.177
-583.850	45.722	-0.160	-0.152
-582.836	21.336	-0.177	-0.147
-581.821	588.684	-0.135	0.342
-580.806	-140.826	-0.371	0.039
-579.792	-200.000	-0.028	0.161
-578.777	-160.445	0.262	-0.014
-577.763	-200.000	-0.062	-0.324
-576.748	166.014	0.204	0.295
-575.733	-46.139	-0.294	-0.148
-574.719	-118.995	-0.246	-0.044
-573.704	800.000	0.069	-0.295
-572.690	-32.875	-0.303	0.172
-571.675	-144.596	0.087	-0.008
-570.661	-200.000	-0.009	-0.067
-569.646	-200.000	0.044	0.342
-568.631	-105.028	0.199	-0.047
-567.617	0.517	-0.262	-0.191
-566.602	5.894	-0.362	0.274
-565.588	199.144	0.193	0.303
-564.573	67.662	0.215	0.224
-563.558	-200.000	0.015	0.243
-562.544	414.045	0.102	0.221
-561.529	-82.949	-0.265	0.088
-560.515	8.725	0.110	-0.085
-559.500	-135.413	-0.192	-0.023
-558.485	-173.883	0.372	0.011
-557.471	-101.351	-0.229	0.057
-556.456	-155.517	-0.256	-0.017
-555.442	125.564	0.228	0.294
-554.427	-119.208	0.191	-0.034
-553.412	-88.385	-0.341	-0.104
-552.398	-92.406	-0.408	0.117
-551.383	-151.198	0.207	-0.016
-550.369	529.662	0.086	-0.209
-549.354	578.596	-0.187	-0.468
-548.339	138.734	-0.194	-0.261
-547.325	-84.593	-0.238	-0.077
-546.310	-113.617	0.295	0.059
-545.296	-113.767	-0.288	0.057
-544.281	-52.481	0.098	-0.046
-543.266	-200.000	-0.055	-0.449
-542.252	443.477	0.024	0.054
-541.237	-40.444	-0.218	0.116
-540.223	144.539	-0.037	0.051
-539.208	-200.000	0.035	0.305
-538.193	-104.004	0.291	-0.069
-537.179	-200.000	-0.061	0.344
-536.164	-75.973	0.258	0.093
-535.150	-115.670	0.108	-0.021
-534.135	47.073	0.242	0.230
-533.121	118.246	0.082	0.103
-532.106	800.000	0.055	0.236
-531.091	86.977	-0.253	0.285
-530.077	-200.000	0.007	0.330
-529.062	-200.000	-0.047	-0.309
-528.048	-200.000	0.001	-0.035
-527.033	-12.716	-0.131	0.087
-526.018	-68.791	-0.307	0.121
-525.004	2.216	-0.250	-0.185
-523.989	38.808	0.034	0.031
-522.975	-200.000	0.024	0.347
-521.960	791.587	0.054	-0.152
-520.945	-149.950	0.171	-0.014
-519.931	142.618	0.169	-0.230
-518.916	99.111	-0.157	-0.186
-517.902	-200.000	-0.028	-0.304
-516.887	-200.000	0.060	-0.382
-515.872	26.664	0.220	0.188
-514.858	800.000	-0.022	0.063
-513.843	19.864	0.112	-0.092
-512.829	800.000	-0.085	0.320
-511.814	-57.564	0.228	0.102
-510.799	-18.380	-0.257	0.164
-509.785	403.953	0.054	0.117
-508.770	-137.780	0.282	0.032
-507.756	-95.438	-0.228	0.062
-506.741	-107.244	-0.221	0.050
-505.726	-13.129	0.123	-0.082
-504.712	-33.981	0.224	-0.126
-503.697	372.925	0.113	-0.234
-502.683	-200.000	-0.009	0.000
-501.668	-92.324	-0.322	0.093
-500.653	-92.501	0.205	-0.059
-499.639	-200.000	-0.023	0.182
-498.624	-32.004	0.087	-0.050
-497.610	-200.000	0.044	-0.290
-496.595	800.000	0.096	0.318
-495.581	36.457	-0.042	0.038
-494.566	-200.000	-0.011	0.150
-493.551	-109.031	0.174	0.038
-492.537	604.193	-0.036	-0.090
-491.522	-43.825	0.098	-0.051
-490.508	800.000	-0.046	0.157
-489.493	159.829	-0.099	-0.141
-488.478	89.328	0.106	0.121
-487.464	800.000	-0.097	-0.298
-486.449	800.000	-0.095	-0.380
-485.435	-200.000	-0.009	-0.117
-484.420	800.000	-0.060	-0.267
-483.405	-86.190	-0.231	-0.073
-482.391	800.000	0.034	-0.116
-481.376	-138.814	0.341	-0.038
-480.362	-39.300	0.371	-0.198
-479.347	-200.000	0.008	-0.046
-478.332	-54.927	-0.238	-0.109
-477.318	67.232	0.292	0.303
-476.303	-54.350	-0.114	0.053
-475.289	-64.568	0.170	-0.071
-474.274	62.462	-0.074	-0.076
-473.259	416.879	0.127	0.278
-472.245	-200.000	-0.023	0.141
-471.230	-25.150	-0.124	0.075
-470.216	-168.171	0.438	0.017
-469.201	-65.989	0.031	-0.013
-468.186	498.063	0.188	-0.440
-467.172	-77.520	0.433	-0.153
-466.157	-114.130	-0.177	0.035
-465.143	800.000	-0.036	-0.110
-464.128	164.385	0.087	-0.125
-463.113	-119.493	-0.150	0.027
-462.099	800.000	-0.110	-0.346
-461.084	-94.723	-0.453	-0.125
-460.070	-200.000	0.006	-0.068
-459.055	-106.705	0.113	-0.026
-458.040	800.000	-0.102	-0.447
-457.026	-102.932	-0.118	0.028
-456.011	-126.672	0.505	-0.076
-454.997	-200.000	0.006	0.339
-453.982	471.146	-0.077	0.176
-452.968	-200.000	-0.029	0.275
-451.953	-59.777	-0.292	0.128
-450.938	-18.453	-0.287	0.183
-449.924	93.258	-0.206	-0.237
-448.909	-86.188	-0.216	-0.068
-447.895	-39.631	0.215	0.115
-446.880	-19.857	-0.208	-0.131
-445.865	-54.538	-0.224	-0.104
-444.851	-104.109	-0.068	-0.016
-443.836	742.808	-0.053	-0.147
-442.822	409.776	0.160	0.344
-441.807	-50.123	0.065	0.032
-440.792	-36.562	0.127	-0.070
-439.778	-200.000	0.060	-0.389
-438.763	-78.487	-0.151	-0.053
-437.749	-15.732	0.158	-0.102
-436.734	-108.236	-0.232	0.051
-435.719	154.306	0.122	-0.171
-434.705	471.772	0.096	0.220
-433.690	201.231	-0.046	0.072
-432.676	-200.000	-0.010	-0.206
-431.661	-139.594	-0.355	-0.039
-430.646	48.568	0.100	0.095
-429.632	-95.632	0.016	-0.004
-428.617	-19.808	-0.219	-0.138
-427.603	-96.270	0.356	0.096
-426.588	-159.279	-0.021	-0.001
-425.573	201.223	0.196	-0.307
-424.559	-2.266	0.130	-0.093
-423.544	-200.000	0.053	-0.412
-422.530	-33.927	0.073	-0.041
-421.515	35.952	0.168	0.150
-420.500	-38.712	0.289	-0.155
-419.486	-66.025	0.360	-0.146
-418.471	554.797	0.084	-0.207
-417.457	-136.554	-0.097	-0.011
-416.442	-117.243	0.091	-0.017
-415.428	-21.180	0.283	0.176
-414.413	359.439	-0.084	0.172
-413.398	595.246	-0.019	0.047
-412.384	148.271	0.099	-0.135
-411.369	68.222	0.229	0.238
-410.355	-82.816	-0.483	-0.159
-409.340	-192.486	0.137	0.001
-408.325	-182.363	0.173	0.003
-407.311	363.155	-0.166	-0.339
-406.296	-140.680	-0.165	0.017
-405.282	-200.000	0.034	0.200
-404.267	-26.963	-0.279	0.166
-403.252	19.419	0.244	-0.200
-402.238	-151.430	0.125	0.009
-401.223	-152.036	-0.094	0.007
-400.209	67.568	0.228	-0.236
-399.194	800.000	-0.037	-0.122
-398.179	-79.577	0.105	0.036
-397.165	-200.000	0.020	0.101
-396.150	399.440	-0.128	0.273
-395.136	248.967	0.108	-0.187
-394.121	-37.366	0.104	-0.056
-393.106	14.333	0.085	-0.067
-392.092	800.000	-0.028	0.101
-391.077	60.935	-0.242	0.244
-390.063	-41.425	0.115	-0.060
-389.048	-161.784	0.154	0.008
-388.033	-200.000	0.021	0.108
-387.019	148.916	-0.187	-0.257
-386.004	89.644	0.098	0.112
-384.990	-17.685	-0.446	0.285
-383.975	-26.259	-0.289	-0.172
-382.960	130.938	0.129	0.168
-381.946	529.960	0.180	0.433
-380.931	-84.197	0.184	-0.059
-379.917	12.783	-0.231	0.181
-378.902	800.000	-0.076	-0.237
-377.888	-133.385	-0.324	-0.041
-376.873	-200.000	-0.031	-0.169
-375.858	800.000	-0.135	-0.439
-374.844	-12.908	0.080	-0.053
-373.829	83.342	0.166	-0.184
-372.815	-56.568	-0.021	-0.010
-371.800	103.760	-0.141	0.168
-370.785	62.643	-0.158	-0.160
-369.771	-76.434	0.119	-0.042
-368.756	800.000	0.035	-0.105
-367.742	-200.000	0.020	-0.186
-366.727	-200.000	0.048	0.297
-365.712	417.427	-0.103	-0.224
-364.698	-200.000	0.029	-0.204
-363.683	-200.000	0.004	-0.199
-362.669	-200.000	-0.006	-0.088
-361.654	-17.795	-0.148	-0.094
-360.639	-78.854	0.153	0.053
-359.625	-46.106	0.181	-0.090
-358.610	77.463	-0.076	0.082
-357.596	-132.527	-0.297	-0.039
-356.581	350.192	0.020	-0.040
-355.566	-104.011	0.155	0.037
-354.552	-75.625	0.223	0.080
-353.537	167.851	-0.098	-0.141
-352.523	-200.000	-0.068	0.320
-351.508	-149.855	0.306	0.024
-350.493	21.405	-0.251	-0.207
-349.479	340.439	-0.179	-0.354
-348.464	-117.730	0.416	0.076
-347.450	-184.781	-0.192	0.003
-346.435	55.204	0.261	0.256
-345.420	28.688	-0.122	0.105
-344.406	-26.893	0.083	-0.049
-343.391	-96.930	0.534	0.142
-342.377	716.206	0.083	0.224
-341.362	-97.296	0.181	0.048
-340.348	70.558	-0.156	0.164
-339.333	100.420	-0.105	-0.124
-338.318	-80.214	-0.203	0.069
-337.304	43.231	0.223	0.206
-336.289	332.372	-0.141	-0.276
-335.275	-44.158	0.043	-0.022
-334.260	-47.460	-0.314	0.155
-333.245	-112.956	-0.227	-0.046
-332.231	-17.188	-0.220	0.141
-331.216	347.475	0.114	0.227
-330.202	-200.000	-0.021	0.136
-329.187	-194.256	-0.089	0.001
-328.172	-94.378	-0.112	0.031
-327.158	-80.241	0.244	-0.083
-326.143	-76.488	-0.156	0.056
-325.129	800.000	0.020	-0.083
-324.114	-71.074	0.089	0.034
-323.099	800.000	-0.036	0.110
-322.085	-75.067	0.100	-0.036
-321.070	800.000	0.012	0.050
-320.056	-142.876	0.420	0.041
-319.041	22.239	0.023	-0.019
-318.026	81.037	-0.089	-0.097
-317.012	66.177	0.205	-0.211
-315.997	-122.609	0.241	-0.040
-314.983	16.740	-0.047	-0.038
-313.968	582.697	0.120	0.298
-312.953	-63.323	-0.026	-0.011
-311.939	63.269	-0.065	0.066
-310.924	103.130	0.005	-0.006
-309.910	-148.173	0.068	-0.006
-308.895	-0.016	0.249	0.180
-307.880	-200.000	0.001	-0.242
-306.866	122.731	-0.045	0.057
-305.851	800.000	0.121	0.445
-304.837	-81.635	-0.147	-0.049
-303.822	488.178	0.144	-0.333
-302.807	-60.327	-0.116	0.050
-301.793	-44.036	-0.239	0.122
-300.778	104.822	0.290	-0.347
-299.764	-21.111	0.475	0.295
-298.749	128.696	-0.204	-0.264
-297.735	80.353	0.187	0.203
-296.720	32.690	-0.172	0.151
-295.705	-172.955	0.188	0.006
-294.691	-127.181	-0.277	0.041
-293.676	110.389	0.182	0.221
-292.662	62.919	-0.327	0.331
-291.647	-124.174	0.105	-0.017
-290.632	12.946	0.222	0.174
-289.618	-61.417	-0.138	0.059
-288.603	-23.208	-0.125	-0.076
-287.589	-24.942	0.089	-0.054
-286.574	331.399	-0.057	0.111
-285.559	-200.000	0.022	-0.113
-284.545	97.190	-0.123	-0.143
-283.530	-176.528	0.124	0.003
-282.516	-200.000	0.019	-0.093
-281.501	-50.188	-0.103	0.049
-280.486	-154.523	0.458	0.031
-279.472	89.049	-0.048	0.054
-278.457	162.170	-0.070	-0.099
-277.443	-70.576	0.156	0.060
-276.428	47.817	0.247	-0.234
-275.413	-116.212	0.357	0.067
-274.399	160.056	-0.112	0.158
-273.384	800.000	-0.072	0.214
-272.370	116.933	-0.142	0.176
-271.355	716.814	0.014	-0.037
-270.340	-85.098	0.103	-0.033
-269.326	-30.694	0.104	-0.060
-268.311	154.564	0.179	-0.248
-267.297	-200.000	0.016	-0.206
-266.282	-7.069	0.083	-0.057
-265.267	-106.110	0.081	0.019
-264.253	800.000	0.042	0.122
-263.238	-6.993	0.164	-0.113
-262.224	673.366	-0.036	-0.095
-261.209	306.112	-0.081	0.153
-260.195	-138.157	-0.298	0.033
-259.180	-92.069	-0.322	0.092
-258.165	44.964	-0.059	0.055
-257.151	-200.000	-0.009	-0.168
-256.136	-99.213	-0.131	0.033
-255.122	-200.000	-0.059	-0.262
-254.107	800.000	-0.037	-0.139
-253.092	-97.452	-0.181	0.048
-252.078	-200.000	0.107	-0.512
-251.063	-28.336	-0.133	0.078
-250.049	-200.000	-0.081	0.357
-249.034	-200.000	-0.006	0.278
-248.019	408.956	-0.158	0.337
-247.005	-200.000	0.009	0.146
-245.990	-200.000	0.006	-0.189
-244.976	-200.000	0.022	-0.180
-243.961	-159.743	-0.101	-0.006
-242.946	85.832	-0.187	0.208
-241.932	10.441	0.258	0.199
-240.917	-86.924	0.177	0.055
-239.903	-200.000	0.016	-0.207
-238.888	-111.071	0.122	-0.025
-237.873	-200.000	0.009	0.222
-236.859	-103.491	-0.224	0.053
-235.844	38.782	-0.208	0.187
-234.830	-87.315	0.265	0.081
-233.815	290.373	-0.130	0.238
-232.800	180.678	-0.076	-0.112
-231.786	127.566	-0.158	-0.202
-230.771	101.132	0.097	-0.114
-229.757	706.008	-0.013	0.034
-228.742	-117.200	-0.336	0.062
-227.727	-95.319	-0.202	0.055
-226.713	-200.000	0.013	-0.139
-225.698	-33.843	-0.148	0.082
-224.684	-200.000	0.005	0.238
-223.669	-104.730	0.260	0.060
-222.655	-200.000	0.052	0.274
-221.640	35.125	-0.140	-0.124
-220.625	20.586	0.167	-0.136
-219.611	800.000	0.021	0.065
-218.596	35.997	0.087	0.077
-217.582	27.707	0.167	-0.142
-216.567	-65.417	0.241	0.098
-215.552	800.000	-0.114	-0.353
-214.538	627.326	0.155	-0.396
-213.523	-3.433	0.075	-0.052
-212.509	-64.479	0.340	-0.139
-211.494	-200.000	-0.002	-0.055
-210.479	-23.760	-0.179	-0.108
-209.465	-86.824	-0.073	-0.023
-208.450	-26.180	0.244	0.145
-207.436	-133.723	0.304	0.038
-206.421	-75.895	-0.145	0.052
-205.406	-178.072	0.216	0.005
-204.392	-56.832	0.055	-0.024
-203.377	-200.000	0.026	0.122
-202.363	-200.000	0.008	-0.096
-201.348	145.898	-0.117	0.158
-200.333	800.000	-0.034	0.113
-199.319	242.993	-0.036	0.061
-198.304	-200.000	0.003	0.102
-197.290	33.926	0.167	-0.146
-196.275	254.237	-0.058	0.099
-195.260	49.783	0.111	-0.106
-194.246	69.323	0.182	0.189
-193.231	-200.000	-0.008	-0.045
-192.217	83.731	-0.128	-0.140
-191.202	-74.720	0.023	-0.008
-190.187	-138.491	0.107	-0.012
-189.173	167.389	-0.266	0.381
-188.158	-200.000	0.114	-0.515
-187.144	7.223	0.048	-0.036
-186.129	21.030	-0.042	0.035
-185.114	-53.354	-0.363	0.168
-184.100	-80.237	-0.277	-0.094
-183.085	-96.993	0.340	0.090
-182.071	-107.692	-0.078	-0.017
-181.056	-152.249	0.146	0.011
-180.042	-26.396	-0.247	-0.146
-179.027	16.767	0.164	0.131
-178.012	-104.139	-0.071	0.017
-176.998	-200.000	0.009	0.052
-175.983	41.466	0.100	-0.091
-174.969	-33.955	0.216	0.120
-173.954	66.152	-0.182	-0.186
-172.939	800.000	-0.024	-0.085
-171.925	-161.288	-0.517	-0.027
-170.910	50.007	-0.221	0.210
-169.896	-200.000	0.018	-0.187
-168.881	49.493	-0.291	-0.276
-167.866	-200.000	0.032	-0.217
-166.852	44.494	0.032	0.029
-165.837	800.000	-0.053	0.163
-164.823	-200.000	-0.005	-0.037
-163.808	-127.333	-0.209	0.031
-162.793	-153.461	-0.314	0.022
-161.779	-23.528	-0.092	-0.055
-160.764	-45.091	-0.070	-0.035
-159.750	-24.185	-0.248	0.149
-158.735	18.250	-0.231	0.186
-157.720	-142.051	0.185	0.019
-156.706	-180.390	0.191	0.004
-155.691	46.008	0.112	-0.104
-154.677	-58.259	0.069	0.030
-153.662	126.086	-0.302	0.385
-152.647	800.000	0.094	0.380
-151.633	800.000	-0.020	-0.058
-150.618	-200.000	0.040	-0.192
-149.604	-81.272	0.418	0.139
-148.589	-107.610	-0.193	0.043
-147.574	-125.904	-0.123	-0.019
-146.560	-200.000	-0.024	-0.125
-145.545	35.364	-0.194	-0.171
-144.531	222.856	-0.234	0.380
-143.516	-18.155	-0.160	0.101
-142.502	800.000	-0.072	0.231
-141.487	95.004	-0.144	-0.165
-140.472	-147.420	-0.304	0.026
-139.458	800.000	-0.146	0.427
-138.443	25.684	-0.277	-0.232
-137.429	122.881	-0.283	-0.357
-136.414	-51.453	0.264	0.124
-135.399	104.461	0.290	-0.344
-134.385	-200.000	0.015	-0.148
-133.370	-4.449	0.051	0.036
-132.356	251.546	0.123	0.211
-131.341	-30.806	-0.103	-0.058
-130.326	40.453	0.348	-0.316
-129.312	409.719	-0.106	-0.227
-128.297	-124.023	-0.066	0.010
-127.283	-65.670	-0.555	0.224
-126.268	-200.000	0.010	-0.097
-125.253	-82.989	-0.271	0.088
-124.239	-93.637	-0.238	-0.066
-123.224	250.157	-0.091	-0.155
-122.210	-200.000	-0.029	0.177
