DTS Sentinel unit serial number:	SN413079Multiplexer serial number:	ORYXHardware model number:	OX4-SRSoftware version number:	ORYX F/W v4.00 Oryx Data Collector v3.7.2.0data status	okinstallation	princeton_trtdifferential loss correction	single-endedforward channel	channel 4reverse channel	N/Adate	2019/09/19time	10:09:35forward acquisition time	60.00reverse acquisition time	0.00gamma	496.2192k internal	0.2330k external	0.2330temperature offset calibration	1.0018default loss term (dB/km)	0.3790temperature slope calibration	1.0000multiplexer offset coefficient	1.0000multiplexer slope coefficient	1.0000fibre end	0.00T internal ref (°C)	23.94T ext. ref 1 (°C)	0.68T ext. ref 2 (°C)	19.69length (m)	temperature (°C)	Stokes	anti-Stokes-747.200	-139.238	0.340	0.037
-746.185	673.006	-0.113	-0.296
-745.171	-141.456	-0.293	-0.030
-744.156	13.082	-0.112	0.087
-743.142	-200.000	0.062	0.309
-742.127	211.862	0.224	0.355
-741.112	546.208	-0.058	0.139
-740.098	251.937	0.023	0.039
-739.083	-64.184	0.201	0.083
-738.069	503.029	-0.048	0.111
-737.054	-200.000	-0.036	0.425
-736.039	-12.797	0.074	0.049
-735.025	-93.715	-0.288	-0.080
-734.010	800.000	-0.043	0.146
-732.996	-82.783	-0.137	-0.045
-731.981	-101.081	-0.334	0.082
-730.966	-168.830	0.253	0.010
-729.952	125.681	0.190	-0.241
-728.937	0.534	-0.301	-0.217
-727.923	-45.992	0.121	-0.060
-726.908	-40.737	-0.213	0.111
-725.894	108.131	-0.223	-0.268
-724.879	-200.000	0.015	-0.081
-723.864	-117.061	-0.302	0.055
-722.850	-19.379	-0.202	-0.126
-721.835	88.344	-0.088	-0.098
-720.821	-43.821	0.231	0.117
-719.806	30.274	0.107	0.092
-718.791	-200.000	0.011	0.146
-717.777	52.437	-0.213	0.204
-716.762	-26.696	0.239	0.140
-715.748	0.861	-0.036	0.026
-714.733	68.098	-0.112	-0.116
-713.718	27.105	-0.196	-0.165
-712.704	64.901	0.069	-0.070
-711.689	800.000	0.089	-0.255
-710.675	573.051	0.127	-0.312
-709.660	123.235	-0.240	0.302
-708.645	-102.492	-0.405	-0.097
-707.631	-40.211	-0.114	0.060
-706.616	83.907	-0.140	-0.154
-705.602	366.178	0.001	0.002
-704.587	64.774	-0.198	-0.200
-703.572	-106.118	-0.231	0.052
-702.558	-200.000	0.001	-0.082
-701.543	-30.732	-0.220	-0.125
-700.529	-97.897	0.136	-0.035
-699.514	29.234	0.311	0.266
-698.499	800.000	-0.033	0.098
-697.485	-139.984	-0.278	-0.029
-696.470	-139.465	-0.259	-0.028
-695.456	88.795	-0.118	-0.132
-694.441	24.495	0.218	-0.181
-693.426	-200.000	-0.031	-0.150
-692.412	-121.562	0.127	-0.021
-691.397	-10.078	-0.043	0.029
-690.383	-142.137	-0.104	0.010
-689.368	-56.376	0.254	0.113
-688.354	-135.669	0.021	0.002
-687.339	480.861	0.174	0.396
-686.324	491.414	-0.103	-0.237
-685.310	325.479	-0.131	-0.252
-684.295	-166.696	0.035	0.001
-683.281	166.518	0.191	0.272
-682.266	-200.000	0.019	0.194
-681.251	-65.960	-0.284	-0.114
-680.237	-38.266	0.079	-0.042
-679.222	-63.981	0.354	0.145
-678.208	130.969	-0.163	-0.210
-677.193	-200.000	-0.007	0.192
-676.178	420.753	-0.111	0.238
-675.164	-200.000	-0.025	-0.115
-674.149	-200.000	0.036	0.414
-673.135	-69.172	-0.023	0.009
-672.120	-200.000	0.025	-0.338
-671.105	-156.334	0.160	-0.010
-670.091	-200.000	-0.015	-0.434
-669.076	-28.482	0.325	-0.188
-668.062	309.643	-0.137	0.257
-667.047	-200.000	-0.027	0.184
-666.032	-102.504	-0.286	0.069
-665.018	131.217	-0.090	-0.116
-664.003	125.522	-0.010	0.013
-662.989	-14.897	0.296	-0.190
-661.974	-166.079	0.388	0.017
-660.959	509.550	-0.103	0.241
-659.945	-200.000	0.002	0.527
-658.930	-2.365	-0.055	0.038
-657.916	582.735	0.010	-0.025
-656.901	54.402	-0.081	0.078
-655.886	-200.000	0.032	0.309
-654.872	221.794	0.198	-0.320
-653.857	-200.000	0.023	0.170
-652.843	288.097	0.116	-0.211
-651.828	-20.106	-0.117	-0.073
-650.814	-200.000	0.048	-0.628
-649.799	-200.000	-0.010	0.102
-648.784	409.226	0.132	-0.280
-647.770	-23.291	-0.419	-0.253
-646.755	-200.000	-0.034	-0.183
-645.741	800.000	0.120	-0.457
-644.726	-12.733	-0.135	0.088
-643.711	22.334	-0.244	-0.200
-642.697	-76.883	-0.104	-0.037
-641.682	800.000	0.071	-0.236
-640.668	57.706	0.149	0.146
-639.653	214.191	0.165	0.262
-638.638	-23.969	-0.168	-0.101
-637.624	-90.530	-0.146	-0.042
-636.609	67.512	0.311	-0.319
-635.595	-44.208	-0.338	0.170
-634.580	-108.866	0.170	0.036
-633.565	350.023	-0.067	-0.134
-632.551	-79.403	-0.213	0.072
-631.536	-149.027	-0.415	0.033
-630.522	-52.804	0.245	-0.113
-629.507	-18.137	-0.216	-0.136
-628.492	-200.000	-0.017	-0.309
-627.478	143.759	0.192	-0.257
-626.463	131.981	0.094	0.121
-625.449	115.494	-0.110	-0.135
-624.434	-200.000	0.049	0.516
-623.419	-145.972	0.117	-0.010
-622.405	291.315	0.131	-0.239
-621.390	-70.717	-0.218	-0.082
-620.376	34.211	-0.227	0.198
-619.361	337.947	-0.047	0.092
-618.346	-35.989	0.179	0.097
-617.332	35.922	0.201	0.177
-616.317	800.000	0.053	0.181
-615.303	800.000	0.011	0.040
-614.288	-106.794	-0.470	0.104
-613.273	-109.869	0.332	-0.070
-612.259	-37.228	0.130	-0.070
-611.244	-180.383	-0.372	-0.008
-610.230	67.810	0.069	-0.070
-609.215	-200.000	0.034	0.230
-608.201	-200.000	-0.052	0.241
-607.186	567.532	-0.104	0.253
-606.171	-87.995	0.237	-0.071
-605.157	-200.000	0.027	0.248
-604.142	311.084	-0.104	-0.195
-603.128	166.516	0.256	-0.363
-602.113	-48.955	-0.088	0.042
-601.098	-3.190	-0.074	-0.052
-600.084	-123.842	-0.129	0.020
-599.069	-69.633	0.460	0.176
-598.055	-200.000	-0.022	0.337
-597.040	-6.219	0.168	0.115
-596.025	-42.351	-0.215	-0.110
-595.011	-92.646	-0.113	-0.032
-593.996	-5.728	0.315	0.216
-592.982	-200.000	-0.005	0.028
-591.967	133.822	-0.097	-0.126
-590.952	274.776	-0.062	-0.111
-589.938	-32.958	0.072	-0.040
-588.923	110.416	-0.254	0.306
-587.909	-200.000	-0.090	-0.408
-586.894	215.897	-0.279	0.443
-585.879	433.987	-0.162	0.353
-584.865	-200.000	-0.037	0.267
-583.850	347.171	0.094	0.186
-582.836	17.889	0.142	-0.113
-581.821	-184.328	-0.124	-0.002
-580.806	168.626	-0.044	-0.063
-579.792	-97.979	-0.073	0.019
-578.777	110.865	0.196	0.236
-577.763	-200.000	0.033	0.171
-576.748	195.916	0.091	-0.139
-575.733	792.287	-0.079	0.217
-574.719	40.179	-0.248	0.223
-573.704	736.517	0.063	-0.170
-572.690	-22.666	-0.183	0.110
-571.675	-178.557	-0.319	-0.007
-570.661	29.286	-0.025	-0.021
-569.646	187.959	-0.211	-0.316
-568.631	-1.149	0.150	0.106
-567.617	-200.000	0.000	0.284
-566.602	64.456	0.260	0.262
-565.588	34.395	0.303	0.265
-564.573	-7.580	-0.241	-0.163
-563.558	-190.166	0.151	0.002
-562.544	181.829	0.170	0.251
-561.529	-31.284	0.293	0.165
-560.515	-122.114	0.322	-0.053
-559.500	-200.000	-0.029	0.465
-558.485	-59.978	-0.145	0.062
-557.471	-200.000	-0.052	0.250
-556.456	-200.000	0.016	-0.337
-555.442	718.979	0.172	-0.457
-554.427	-103.846	-0.093	0.022
-553.412	-61.296	-0.148	0.062
-552.398	-29.151	-0.175	-0.100
-551.383	165.261	0.115	-0.162
-550.369	83.493	-0.248	-0.270
-549.354	81.185	0.250	-0.270
-548.339	-93.859	-0.291	-0.080
-547.325	-167.800	-0.054	0.002
-546.310	60.412	0.367	-0.363
-545.296	54.453	-0.044	0.043
-544.281	-126.303	-0.061	-0.009
-543.266	-56.444	-0.169	-0.075
-542.252	-69.662	-0.405	-0.155
-541.237	415.808	-0.054	0.115
-540.223	-44.373	-0.176	-0.088
-539.208	391.797	-0.143	-0.297
-538.193	129.097	0.138	-0.176
-537.179	9.876	0.170	-0.129
-536.164	-97.040	-0.275	-0.072
-535.150	-200.000	0.000	-0.067
-534.135	366.669	0.088	-0.178
-533.121	-200.000	-0.038	-0.260
-532.106	124.903	0.148	0.186
-531.091	57.595	0.222	-0.217
-530.077	333.253	0.087	0.167
-529.062	565.867	-0.042	0.101
-528.048	-200.000	0.001	0.190
-527.033	262.061	0.118	-0.205
-526.018	800.000	-0.061	0.263
-525.004	-200.000	0.025	0.300
-523.989	-39.465	-0.244	0.127
-522.975	36.049	-0.128	0.112
-521.960	301.474	-0.074	-0.136
-520.945	542.197	0.177	-0.421
-519.931	252.780	0.081	-0.138
-518.916	209.347	0.065	0.101
-517.902	-99.656	-0.197	-0.049
-516.887	-49.122	-0.220	-0.105
-515.872	755.752	-0.058	0.157
-514.858	-25.116	0.039	0.023
-513.843	254.130	0.050	0.086
-512.829	-147.483	-0.254	0.021
-511.814	24.269	-0.134	0.110
-510.799	-126.054	-0.108	-0.016
-509.785	-135.468	-0.139	0.017
-508.770	66.207	0.133	0.135
-507.756	16.490	0.121	0.095
-506.741	800.000	-0.030	-0.082
-505.726	86.120	0.125	-0.137
-504.712	-179.541	0.308	0.007
-503.697	-162.233	-0.242	-0.012
-502.683	-51.009	0.187	0.087
-501.668	-71.704	-0.034	-0.013
-500.653	-42.845	-0.307	0.156
-499.639	-158.898	-0.296	-0.017
-498.624	800.000	-0.045	0.148
-497.610	-132.122	-0.154	0.020
-496.595	264.571	0.133	-0.231
-495.581	21.613	0.224	-0.182
-494.566	602.135	0.127	-0.314
-493.551	-43.727	-0.173	-0.087
-492.537	-200.000	0.009	-0.289
-491.522	-40.332	0.121	0.063
-490.508	-200.000	-0.006	-0.179
-489.493	28.826	-0.026	0.022
-488.478	630.942	-0.105	-0.265
-487.464	800.000	0.059	-0.219
-486.449	39.103	0.137	0.122
-485.435	-80.586	0.310	-0.103
-484.420	-10.988	0.126	-0.083
-483.405	-1.815	-0.150	0.105
-482.391	-188.255	-0.231	-0.003
-481.376	-200.000	0.009	-0.318
-480.362	-98.692	-0.013	-0.003
-479.347	-200.000	-0.049	-0.288
-478.332	-200.000	-0.009	-0.101
-477.318	-71.446	0.235	-0.088
-476.303	97.287	0.117	0.134
-475.289	-200.000	-0.002	-0.138
-474.274	-20.504	-0.242	0.148
-473.259	105.002	-0.170	0.199
-472.245	123.758	0.072	-0.090
-471.230	-137.743	-0.158	-0.018
-470.216	403.303	-0.155	-0.325
-469.201	38.929	-0.280	-0.249
-468.186	-33.162	0.311	-0.172
-467.172	-200.000	-0.034	0.519
-466.157	520.148	-0.107	-0.251
-465.143	-37.105	0.170	0.091
-464.128	71.516	-0.143	-0.148
-463.113	12.347	-0.140	0.108
-462.099	-136.286	0.216	0.025
-461.084	-24.185	0.250	0.149
-460.070	-13.344	0.155	-0.100
-459.055	-105.847	-0.045	-0.010
-458.040	800.000	0.091	0.295
-457.026	469.321	-0.109	0.244
-456.011	-95.054	-0.237	-0.064
-454.997	-200.000	-0.019	-0.109
-453.982	800.000	-0.048	0.149
-452.968	126.466	0.195	0.246
-451.953	-200.000	0.013	-0.279
-450.938	35.337	0.204	-0.179
-449.924	37.593	-0.112	0.099
-448.909	258.412	0.159	0.273
-447.895	-111.670	0.472	0.095
-446.880	-27.483	0.078	-0.045
-445.865	-180.793	-0.247	-0.005
-444.851	800.000	0.080	-0.302
-443.836	223.960	-0.168	-0.270
-442.822	-200.000	0.023	0.407
-441.807	69.132	-0.133	0.136
-440.792	-73.234	-0.150	0.055
-439.778	-200.000	-0.009	-0.274
-438.763	-200.000	-0.040	-0.350
-437.749	-135.436	0.254	-0.030
-436.734	236.140	-0.059	0.097
-435.719	380.696	-0.077	0.157
-434.705	-17.529	0.096	-0.060
-433.690	-200.000	0.011	-0.065
-432.676	725.875	-0.099	-0.262
-431.661	114.665	-0.035	0.042
-430.646	301.911	-0.129	-0.238
-429.632	19.420	-0.302	-0.241
-428.617	-200.000	0.005	0.118
-427.603	31.844	-0.254	0.218
-426.588	-131.652	-0.128	-0.017
-425.573	78.843	-0.137	-0.146
-424.559	44.472	-0.121	-0.111
-423.544	138.465	0.099	0.129
-422.530	689.508	0.071	-0.184
-421.515	124.251	0.129	-0.161
-420.500	142.563	0.085	-0.112
-419.486	-200.000	0.005	0.562
-418.471	-75.792	-0.047	0.017
-417.457	-24.201	-0.138	-0.082
-416.442	800.000	0.029	-0.118
-415.428	-102.522	0.232	-0.055
-414.413	-73.827	0.090	-0.032
-413.398	295.835	-0.005	0.008
-412.384	529.737	-0.065	-0.153
-411.369	441.464	0.037	0.081
-410.355	26.227	0.192	0.160
-409.340	-39.630	0.404	-0.210
-408.325	-200.000	0.018	0.144
-407.311	-200.000	-0.002	-0.050
-406.296	-200.000	-0.010	-0.118
-405.282	111.970	0.135	0.162
-404.267	-127.560	0.218	-0.031
-403.252	-164.784	0.240	0.011
-402.238	0.332	-0.152	-0.108
-401.223	800.000	0.096	0.288
-400.209	-98.806	-0.403	-0.102
-399.194	-96.220	-0.113	-0.030
-398.179	-40.098	0.315	0.163
-397.165	-55.743	0.326	0.145
-396.150	-200.000	0.007	0.340
-395.136	-134.595	0.357	-0.043
-394.121	-83.334	-0.057	0.018
-393.106	800.000	-0.025	0.073
-392.092	168.666	-0.161	-0.227
-391.077	-200.000	0.034	0.203
-390.063	-100.993	0.244	0.059
-389.048	177.140	-0.074	-0.106
-388.033	169.097	-0.148	-0.210
-387.019	70.182	-0.071	-0.073
-386.004	-200.000	-0.029	-0.205
-384.990	800.000	0.057	-0.180
-383.975	265.479	-0.216	-0.374
-382.960	800.000	-0.097	0.280
-381.946	-21.272	-0.151	0.092
-380.931	-180.809	0.120	0.002
-379.917	-95.523	0.228	0.061
-378.902	-82.943	-0.507	-0.162
-377.888	279.409	0.091	0.161
-376.873	100.521	0.085	0.098
-375.858	464.552	-0.023	-0.050
-374.844	225.675	0.050	0.080
-373.829	-200.000	0.037	0.253
-372.815	87.708	0.106	-0.117
-371.800	148.371	0.070	0.094
-370.785	119.239	-0.225	-0.276
-369.771	-153.776	0.254	0.017
-368.756	-200.000	0.025	0.205
-367.742	291.006	0.113	0.203
-366.727	800.000	0.041	0.140
-365.712	-146.116	0.088	0.008
-364.698	453.720	-0.067	0.148
-363.683	72.602	-0.080	0.083
-362.669	29.907	0.020	0.017
-361.654	407.000	0.130	-0.272
-360.639	14.345	0.159	0.123
-359.625	266.832	0.052	0.089
-358.610	741.642	0.092	-0.246
-357.596	499.039	-0.091	-0.207
-356.581	-200.000	0.082	-0.432
-355.566	106.045	0.126	-0.148
-354.552	-35.190	0.100	0.054
-353.537	-115.330	0.149	0.028
-352.523	102.333	-0.126	-0.146
-351.508	800.000	0.150	0.496
-350.493	-11.588	-0.039	-0.025
-349.479	239.324	0.209	-0.345
-348.464	-147.403	-0.325	0.027
-347.450	-127.034	-0.322	-0.047
-346.435	-101.801	-0.187	0.045
-345.420	49.341	-0.079	0.074
-344.406	-166.076	-0.231	-0.010
-343.391	774.665	-0.104	-0.281
-342.377	-19.039	-0.213	0.131
-341.362	496.958	-0.059	0.134
-340.348	-92.589	-0.213	0.059
-339.333	-200.000	0.056	-0.272
-338.318	-60.189	-0.201	-0.085
-337.304	-61.440	-0.260	-0.108
-336.289	150.046	-0.100	-0.134
-335.275	-200.000	-0.031	0.429
-334.260	-113.683	-0.427	-0.083
-333.245	-200.000	-0.049	-0.272
-332.231	-200.000	-0.004	0.026
-331.216	800.000	0.071	0.227
-330.202	625.776	0.090	0.224
-329.187	143.606	-0.145	0.191
-328.172	4.468	-0.249	0.181
-327.158	72.695	0.211	-0.218
-326.143	157.021	-0.110	0.151
-325.129	308.560	0.165	-0.305
-324.114	-96.268	0.193	-0.051
-323.099	800.000	0.044	-0.142
-322.085	-16.462	0.375	0.235
-321.070	292.394	-0.103	0.185
-320.056	29.870	-0.070	-0.059
-319.041	-39.442	0.201	0.105
-318.026	272.744	0.092	0.162
-317.012	192.178	0.155	-0.231
-315.997	-161.036	-0.462	-0.024
-314.983	-77.306	0.260	0.089
-313.968	-49.450	0.367	-0.173
-312.953	310.364	0.049	0.091
-311.939	-200.000	-0.035	0.349
-310.924	608.869	-0.125	-0.309
-309.910	249.532	-0.071	0.120
-308.895	800.000	0.060	-0.236
-307.880	365.478	-0.086	-0.172
-306.866	127.001	-0.215	-0.269
-305.851	-200.000	-0.033	-0.176
-304.837	-21.460	-0.368	0.222
-303.822	405.574	0.077	-0.161
-302.807	-93.226	-0.214	0.059
-301.793	-200.000	0.002	0.221
-300.778	-75.670	0.076	0.027
-299.764	-26.377	-0.186	-0.108
-298.749	-200.000	0.002	-0.328
-297.735	102.377	-0.084	-0.098
-296.720	-21.712	-0.057	0.035
-295.705	800.000	-0.067	-0.212
-294.691	800.000	0.108	-0.380
-293.676	-72.666	-0.126	0.046
-292.662	263.010	0.136	0.233
-291.647	-200.000	0.032	0.215
-290.632	800.000	0.087	-0.359
-289.618	-51.384	-0.351	-0.162
-288.603	87.535	-0.086	-0.095
-287.589	-19.213	-0.268	0.165
-286.574	412.671	-0.007	0.015
-285.559	-80.019	-0.329	-0.109
-284.545	-200.000	-0.008	-0.280
-283.530	-73.026	-0.171	-0.062
-282.516	51.855	0.287	0.270
-281.501	-200.000	-0.008	0.076
-280.486	78.592	0.076	-0.080
-279.472	92.102	0.045	0.050
-278.457	64.538	0.177	-0.177
-277.443	-200.000	0.032	0.371
-276.428	-82.237	-0.161	0.052
-275.413	-31.830	-0.247	0.137
-274.399	1.519	-0.221	-0.157
-273.384	170.832	0.153	-0.217
-272.370	-20.817	0.186	0.113
-271.355	190.062	0.079	-0.118
-270.340	-200.000	-0.009	0.146
-269.326	164.492	0.169	0.235
-268.311	800.000	0.125	0.357
-267.297	-200.000	0.028	0.222
-266.282	-5.425	0.209	-0.142
-265.267	189.030	0.030	0.044
-264.253	-39.759	0.038	-0.019
-263.238	111.077	0.115	-0.136
-262.224	-81.026	0.032	0.011
-261.209	-124.116	0.305	-0.047
-260.195	800.000	-0.062	0.191
-259.180	-105.753	-0.077	-0.017
-258.165	-29.945	0.119	-0.067
-257.151	800.000	0.056	0.158
-256.136	800.000	-0.083	0.327
-255.122	-20.066	0.485	0.295
-254.107	-94.786	0.059	0.016
-253.092	-48.344	0.146	0.069
-252.078	-6.386	-0.183	-0.124
-251.063	-124.487	-0.300	-0.046
-250.049	-200.000	0.353	-0.000
-249.034	-113.554	-0.139	-0.027
-248.019	-200.000	-0.002	-0.056
-247.005	-98.077	0.222	0.057
-245.990	22.091	0.279	-0.225
-244.976	-33.805	0.080	0.044
-243.961	-72.955	-0.096	0.035
-242.946	623.832	0.090	0.224
-241.932	-49.093	0.123	0.058
-240.917	800.000	0.043	-0.185
-239.903	-79.470	0.317	-0.106
-238.888	9.654	0.054	0.040
-237.873	-200.000	0.016	0.073
-236.859	-85.977	-0.187	-0.057
-235.844	800.000	-0.056	-0.234
-234.830	241.926	0.054	-0.089
-233.815	94.670	0.172	0.193
-232.800	800.000	-0.165	-0.528
-231.786	-200.000	0.022	0.100
-230.771	-99.896	0.459	0.113
-229.757	720.482	-0.156	0.409
-228.742	-66.163	-0.011	0.004
-227.727	62.743	0.176	0.174
-226.713	69.236	0.041	-0.042
-225.698	586.419	-0.134	-0.325
-224.684	-89.811	-0.143	0.041
-223.669	-111.397	0.213	-0.043
-222.655	536.934	0.081	0.189
-221.640	48.401	0.151	0.139
-220.625	-200.000	-0.006	0.131
-219.611	800.000	0.059	0.253
-218.596	15.257	0.152	-0.118
-217.582	-200.000	0.115	0.534
-216.567	-125.514	0.117	-0.018
-215.552	211.698	0.075	0.117
-214.538	-108.061	0.083	-0.018
-213.523	-200.000	-0.051	0.244
-212.509	-24.822	0.147	-0.086
-211.494	99.129	-0.143	0.163
-210.479	-200.000	-0.011	-0.104
-209.465	-108.329	-0.218	-0.046
-208.450	-18.584	-0.164	-0.101
-207.436	757.322	0.098	-0.261
-206.421	-200.000	-0.023	-0.194
-205.406	-127.403	-0.295	-0.042
-204.392	-200.000	-0.010	0.121
-203.377	766.979	-0.045	-0.120
-202.363	-183.852	-0.180	0.003
-201.348	-82.631	0.036	-0.012
-200.333	90.074	0.245	-0.270
-199.319	626.528	0.064	-0.159
-198.304	-143.494	0.352	0.033
-197.290	25.063	-0.162	-0.132
-196.275	79.990	-0.128	-0.135
-195.260	-71.481	0.125	-0.046
-194.246	13.143	-0.055	-0.042
-193.231	-113.196	0.209	-0.041
-192.217	-200.000	0.058	0.379
-191.202	95.642	-0.171	0.193
-190.187	-99.625	0.146	0.036
-189.173	-200.000	0.079	0.529
-188.158	-1.441	0.258	0.179
-187.144	-109.195	0.297	-0.062
-186.129	800.000	-0.045	-0.160
-185.114	-105.156	-0.272	0.061
-184.100	-200.000	-0.006	0.133
-183.085	193.856	0.243	0.362
-182.071	84.874	0.341	0.368
-181.056	800.000	0.084	-0.317
-180.042	88.935	-0.017	0.018
-179.027	414.443	-0.206	0.431
-178.012	228.437	-0.165	0.265
-176.998	-30.929	0.240	0.133
-175.983	-28.339	-0.232	0.132
-174.969	21.117	0.158	0.126
-173.954	-80.943	-0.160	-0.052
-172.939	246.347	0.196	-0.326
-171.925	-200.000	0.004	0.110
-170.910	39.885	-0.119	0.105
-169.896	-200.000	-0.039	-0.234
-168.881	9.041	-0.047	-0.035
-167.866	-38.492	-0.104	-0.054
-166.852	-9.075	0.161	-0.106
-165.837	175.293	0.143	0.205
-164.823	-92.442	-0.179	0.050
-163.808	-200.000	-0.024	-0.109
-162.793	-37.462	-0.323	0.170
-161.779	302.172	0.041	0.075
-160.764	-200.000	-0.018	0.238
-159.750	644.903	-0.064	0.160
-158.735	223.473	0.148	0.234
-157.720	-92.696	0.308	0.085
-156.706	-119.284	0.394	0.068
-155.691	-41.267	-0.162	0.082
-154.677	41.681	-0.200	-0.179
-153.662	306.438	-0.269	-0.492
-152.647	-177.494	-0.150	-0.004
-151.633	17.197	0.076	-0.059
-150.618	800.000	0.101	-0.397
-149.604	-200.000	-0.043	-0.234
-148.589	137.797	-0.122	-0.158
-147.574	-113.367	0.465	0.090
-146.560	361.540	0.107	-0.212
-145.545	-200.000	0.014	0.166
-144.531	-16.697	0.189	0.118
-143.516	-32.836	0.234	0.128
-142.502	-19.007	0.489	-0.299
-141.487	-105.580	-0.130	-0.029
-140.472	-21.789	-0.082	-0.049
-139.458	-89.037	-0.228	0.066
-138.443	-200.000	-0.041	0.223
-137.429	-200.000	-0.022	0.170
-136.414	-200.000	0.045	-0.212
-135.399	-200.000	-0.004	0.162
-134.385	-106.811	0.188	-0.041
-133.370	234.132	-0.019	-0.031
-132.356	-52.108	-0.109	-0.050
-131.341	800.000	-0.076	0.313
-130.326	158.440	-0.238	0.325
-129.312	-160.393	0.107	0.006
-128.297	-200.000	-0.084	0.390
-127.283	368.432	-0.174	0.345
-126.268	-114.851	-0.093	-0.017
-125.253	-55.378	0.193	0.085
-124.239	176.571	-0.060	-0.086
-123.224	-82.417	0.086	-0.028
-122.210	-200.000	0.015	-0.241
