DTS Sentinel unit serial number:	SN413079Multiplexer serial number:	ORYXHardware model number:	OX4-SRSoftware version number:	ORYX F/W v4.00 Oryx Data Collector v3.7.2.0data status	okinstallation	princeton_trtdifferential loss correction	single-endedforward channel	channel 4reverse channel	N/Adate	2019/09/15time	06:53:35forward acquisition time	60.00reverse acquisition time	0.00gamma	496.2192k internal	0.2311k external	0.2311temperature offset calibration	1.0033default loss term (dB/km)	0.3790temperature slope calibration	1.0000multiplexer offset coefficient	1.0000multiplexer slope coefficient	1.0000fibre end	0.00T internal ref (°C)	30.50T ext. ref 1 (°C)	4.82T ext. ref 2 (°C)	25.50length (m)	temperature (°C)	Stokes	anti-Stokes-747.200	152.889	-0.090	-0.125
-746.185	284.741	-0.097	0.177
-745.171	-61.724	0.328	0.139
-744.156	-26.718	-0.058	0.035
-743.142	62.460	-0.061	-0.062
-742.127	-194.471	-0.144	-0.001
-741.112	-200.000	0.001	-0.131
-740.098	266.411	-0.068	0.120
-739.083	60.282	0.047	0.047
-738.069	-49.195	-0.216	-0.105
-737.054	-134.000	0.218	0.027
-736.039	224.451	0.036	0.059
-735.025	-74.351	-0.255	-0.094
-734.010	800.000	-0.021	-0.070
-732.996	-118.409	-0.551	-0.099
-731.981	514.774	-0.072	-0.170
-730.966	-139.917	-0.225	-0.024
-729.952	5.912	0.158	0.119
-728.937	284.772	-0.214	-0.390
-727.923	-8.811	-0.132	-0.090
-726.908	393.385	0.204	0.431
-725.894	-68.277	0.116	0.046
-724.879	-156.512	-0.163	0.010
-723.864	-87.529	0.091	-0.028
-722.850	156.108	-0.079	0.111
-721.835	-200.000	-0.017	-0.182
-720.821	195.866	0.045	-0.070
-719.806	-200.000	0.012	-0.071
-718.791	-33.616	0.093	-0.052
-717.777	-55.053	-0.285	-0.130
-716.762	-145.212	0.162	0.015
-715.748	-200.000	-0.008	-0.190
-714.733	-200.000	-0.078	-0.449
-713.718	-86.051	-0.199	0.062
-712.704	-119.559	-0.191	-0.034
-711.689	-165.707	0.081	-0.004
-710.675	797.243	0.092	-0.258
-709.660	-44.348	-0.463	-0.235
-708.645	33.485	0.234	0.206
-707.631	-106.163	0.514	-0.117
-706.616	353.191	-0.055	0.110
-705.602	553.859	0.075	0.182
-704.587	2.207	-0.198	-0.145
-703.572	691.793	0.127	-0.336
-702.558	463.112	0.113	-0.256
-701.543	-122.176	-0.260	0.043
-700.529	703.831	-0.120	-0.320
-699.514	-89.260	0.224	-0.067
-698.499	-200.000	0.009	-0.147
-697.485	-93.502	0.248	-0.069
-696.470	-200.000	0.002	0.072
-695.456	-2.551	-0.346	-0.245
-694.441	-113.270	-0.134	-0.027
-693.426	-27.194	-0.106	-0.062
-692.412	-200.000	-0.032	-0.171
-691.397	-18.412	-0.080	-0.051
-690.383	-200.000	-0.012	0.133
-689.368	-200.000	0.023	-0.112
-688.354	-141.069	0.188	-0.020
-687.339	-200.000	0.002	0.071
-686.324	-155.080	-0.182	0.012
-685.310	-49.941	-0.258	0.124
-684.295	88.779	0.165	-0.185
-683.281	-176.676	0.207	0.005
-682.266	-18.347	-0.266	-0.169
-681.251	123.220	0.168	0.213
-680.237	-169.224	0.260	0.010
-679.222	21.356	0.268	-0.220
-678.208	34.386	-0.160	0.141
-677.193	-130.827	0.202	-0.027
-676.178	-200.000	0.014	-0.086
-675.164	777.632	-0.091	0.250
-674.149	-142.678	0.482	-0.048
-673.135	135.947	-0.033	0.043
-672.120	281.701	-0.079	-0.143
-671.105	83.793	-0.214	0.237
-670.091	121.604	-0.089	-0.113
-669.076	-200.000	-0.026	-0.261
-668.062	290.677	-0.043	0.080
-667.047	362.974	0.140	0.284
-666.032	-8.821	0.100	-0.068
-665.018	800.000	0.022	-0.079
-664.003	-200.000	0.004	-0.232
-662.989	-92.058	-0.296	0.085
-661.974	-77.538	0.018	0.006
-660.959	-57.308	0.312	-0.139
-659.945	-13.307	-0.084	-0.055
-658.930	-200.000	-0.006	-0.072
-657.916	-71.070	0.134	-0.051
-656.901	-38.536	0.322	0.172
-655.886	7.805	-0.248	-0.188
-654.872	-97.523	0.174	-0.046
-653.857	434.456	0.073	-0.161
-652.843	800.000	-0.035	-0.103
-651.828	-200.000	-0.012	0.108
-650.814	-200.000	0.007	0.109
-649.799	-125.356	0.085	-0.013
-648.784	488.072	0.064	0.148
-647.770	-93.802	-0.190	-0.053
-646.755	157.890	-0.063	0.088
-645.741	699.105	-0.106	0.281
-644.726	-200.000	-0.019	0.174
-643.711	-194.652	0.215	0.002
-642.697	-80.613	-0.096	-0.032
-641.682	531.504	-0.197	0.471
-640.668	-133.711	0.119	-0.015
-639.653	-89.519	-0.158	0.047
-638.638	95.133	-0.069	0.080
-637.624	800.000	0.028	0.110
-636.609	540.037	-0.051	0.122
-635.595	-76.594	-0.193	-0.069
-634.580	800.000	0.119	0.355
-633.565	-33.785	0.261	0.145
-632.551	-50.669	-0.216	0.103
-631.536	782.980	-0.135	-0.375
-630.522	-51.824	0.275	0.129
-629.507	-21.181	-0.115	0.071
-628.492	-200.000	-0.024	0.228
-627.478	-161.778	-0.261	0.013
-626.463	-75.534	0.191	0.069
-625.449	277.134	-0.076	-0.136
-624.434	-82.858	-0.070	0.023
-623.419	-200.000	0.025	-0.182
-622.405	-72.029	0.076	0.029
-621.390	627.985	-0.070	-0.179
-620.376	800.000	-0.020	0.061
-619.361	26.907	-0.132	-0.112
-618.346	-107.044	-0.328	0.073
-617.332	205.684	0.050	0.079
-616.317	-200.000	-0.054	0.395
-615.303	-200.000	-0.002	-0.150
-614.288	-200.000	-0.015	-0.230
-613.273	-129.063	-0.202	-0.029
-612.259	173.697	-0.128	-0.186
-611.244	-175.511	0.321	-0.009
-610.230	-61.900	-0.253	-0.107
-609.215	-21.381	-0.145	-0.089
-608.201	-100.852	0.139	-0.035
-607.186	-200.000	0.043	0.215
-606.171	-32.558	0.171	-0.096
-605.157	-81.442	-0.162	0.054
-604.142	-200.000	0.031	-0.392
-603.128	-176.061	-0.031	0.001
-602.113	-140.190	-0.292	0.031
-601.098	170.897	-0.039	0.057
-600.084	800.000	0.043	0.134
-599.069	92.706	0.132	0.151
-598.055	96.945	-0.083	0.096
-597.040	-200.000	0.034	-0.200
-596.025	-176.024	0.184	0.005
-595.011	55.201	-0.178	0.173
-593.996	-50.678	-0.237	0.112
-592.982	523.089	0.093	-0.220
-591.967	226.657	0.179	-0.293
-590.952	-200.000	-0.022	-0.245
-589.938	285.149	-0.257	-0.467
-588.923	-81.398	0.200	-0.067
-587.909	-177.667	0.425	0.010
-586.894	142.755	-0.227	-0.305
-585.879	228.424	0.150	0.247
-584.865	124.235	0.177	0.224
-583.850	-92.993	0.040	-0.011
-582.836	-46.944	-0.215	-0.106
-581.821	-108.636	0.386	-0.084
-580.806	-200.000	0.023	-0.106
-579.792	-96.005	0.161	-0.043
-578.777	-46.836	-0.295	-0.146
-577.763	96.677	0.123	-0.142
-576.748	-35.064	0.185	0.102
-575.733	800.000	0.046	-0.150
-574.719	98.016	-0.175	0.204
-573.704	37.375	0.173	0.154
-572.690	177.846	-0.162	0.238
-571.675	800.000	0.042	0.163
-570.661	-28.679	0.228	0.132
-569.646	-90.302	-0.499	-0.146
-568.631	12.544	0.308	-0.239
-567.617	191.253	-0.181	0.275
-566.602	800.000	0.055	-0.187
-565.588	-98.957	-0.243	-0.062
-564.573	-21.462	0.191	-0.118
-563.558	135.518	-0.166	0.218
-562.544	-200.000	0.018	0.163
-561.529	265.697	-0.194	-0.342
-560.515	148.017	-0.056	0.077
-559.500	176.378	-0.105	0.153
-558.485	800.000	-0.089	0.263
-557.471	-41.975	-0.090	-0.046
-556.456	800.000	-0.028	-0.118
-555.442	-47.945	0.137	-0.067
-554.427	283.619	0.048	0.087
-553.412	145.204	-0.187	0.251
-552.398	-51.765	0.170	-0.080
-551.383	-13.829	0.104	0.068
-550.369	652.981	-0.069	-0.178
-549.354	158.145	-0.164	0.230
-548.339	-120.270	0.190	0.033
-547.325	131.693	0.171	-0.221
-546.310	525.937	-0.101	-0.238
-545.296	800.000	-0.053	0.233
-544.281	-200.000	-0.014	0.079
-543.266	-113.588	0.285	-0.056
-542.252	21.239	0.054	-0.044
-541.237	182.953	0.274	-0.407
-540.223	234.972	0.057	0.095
-539.208	44.054	-0.219	-0.202
-538.193	274.925	0.098	-0.174
-537.179	-109.979	0.096	0.020
-536.164	-134.034	-0.277	-0.034
-535.150	750.143	-0.026	0.071
-534.135	747.963	-0.075	0.203
-533.121	-20.772	-0.365	0.226
-532.106	6.553	-0.071	-0.053
-531.091	-25.037	0.309	-0.185
-530.077	-200.000	0.021	-0.306
-529.062	-0.371	0.185	0.132
-528.048	-200.000	0.030	-0.138
-527.033	191.672	0.075	-0.114
-526.018	-12.395	-0.235	-0.155
-525.004	800.000	0.071	0.262
-523.989	-165.610	-0.114	-0.005
-522.975	800.000	0.040	-0.129
-521.960	367.768	-0.104	0.212
-520.945	28.185	0.151	-0.128
-519.931	-200.000	0.006	0.074
-518.916	-200.000	0.047	0.361
-517.902	87.260	-0.141	-0.156
-516.887	-175.720	0.198	0.005
-515.872	331.023	0.012	-0.024
-514.858	358.672	0.037	-0.074
-513.843	-200.000	-0.018	-0.228
-512.829	-120.821	-0.247	0.042
-511.814	3.474	-0.316	-0.232
-510.799	-26.453	-0.239	0.141
-509.785	63.936	0.017	0.017
-508.770	221.355	-0.232	-0.375
-507.756	56.552	-0.166	0.162
-506.741	470.761	-0.058	0.130
-505.726	128.097	0.236	0.302
-504.712	-200.000	0.009	-0.071
-503.697	-107.545	-0.210	-0.046
-502.683	-117.997	0.175	-0.031
-501.668	45.856	-0.161	0.150
-500.653	-63.194	0.047	0.020
-499.639	11.164	0.188	-0.145
-498.624	-87.856	0.161	-0.049
-497.610	-154.721	0.164	0.011
-496.595	253.929	-0.119	-0.205
-495.581	800.000	-0.033	-0.106
-494.566	-200.000	-0.020	-0.098
-493.551	800.000	-0.033	0.111
-492.537	13.130	-0.086	0.067
-491.522	-173.826	0.381	-0.011
-490.508	63.302	0.241	0.243
-489.493	800.000	0.061	0.264
-488.478	255.403	0.042	-0.072
-487.464	-200.000	0.021	0.324
-486.449	-108.851	0.275	-0.059
-485.435	-153.974	0.313	0.021
-484.420	-137.239	0.145	-0.017
-483.405	-16.326	0.063	0.040
-482.391	137.987	-0.158	0.208
-481.376	800.000	-0.058	-0.176
-480.362	800.000	-0.050	0.155
-479.347	-200.000	0.017	0.258
-478.332	4.556	0.135	-0.100
-477.318	340.470	0.057	-0.111
-476.303	464.391	0.063	0.142
-475.289	-169.455	0.095	-0.003
-474.274	-48.889	-0.483	-0.233
-473.259	-51.116	0.329	0.155
-472.245	-84.024	0.273	-0.087
-471.230	257.944	-0.265	-0.458
-470.216	33.218	0.294	0.256
-469.201	-132.301	0.243	-0.032
-468.186	108.469	-0.199	-0.239
-467.172	382.702	0.060	0.123
-466.157	37.099	0.094	0.084
-465.143	-71.683	-0.170	-0.064
-464.128	17.237	0.136	-0.108
-463.113	43.632	-0.202	0.186
-462.099	37.313	0.213	0.190
-461.084	81.804	-0.194	0.211
-460.070	-6.596	0.076	-0.052
-459.055	800.000	-0.027	-0.083
-458.040	-95.844	-0.061	-0.016
-457.026	-87.601	0.108	-0.033
-456.011	-89.095	0.138	-0.041
-454.997	-200.000	-0.001	0.020
-453.982	120.584	0.088	0.110
-452.968	-200.000	-0.006	0.264
-451.953	-200.000	-0.016	0.085
-450.938	96.303	-0.366	-0.420
-449.924	800.000	-0.082	0.346
-448.909	404.878	-0.063	-0.134
-447.895	800.000	0.048	-0.209
-446.880	-196.029	0.032	0.000
-445.865	-200.000	-0.004	-0.194
-444.851	-26.287	-0.314	-0.185
-443.836	-73.951	0.088	-0.032
-442.822	-200.000	-0.009	-0.160
-441.807	800.000	-0.016	0.067
-440.792	-200.000	0.079	-0.535
-439.778	800.000	-0.071	-0.269
-438.763	-113.091	-0.274	0.054
-437.749	41.834	0.052	0.047
-436.734	-200.000	0.040	-0.279
-435.719	-68.712	0.278	-0.108
-434.705	14.571	0.040	-0.032
-433.690	1.342	-0.246	0.177
-432.676	409.223	0.034	-0.071
-431.661	11.514	0.086	-0.066
-430.646	1.240	0.119	-0.086
-429.632	-112.776	0.139	-0.028
-428.617	304.630	0.098	-0.183
-427.603	-84.285	-0.296	0.094
-426.588	-200.000	-0.002	-0.065
-425.573	-200.000	-0.043	-0.253
-424.559	0.322	0.233	0.166
-423.544	404.810	-0.085	-0.179
-422.530	55.983	0.080	-0.078
-421.515	-200.000	-0.011	-0.185
-420.500	82.653	-0.075	-0.081
-419.486	-113.617	-0.103	0.020
-418.471	20.073	0.431	0.349
-417.457	-130.771	-0.050	0.007
-416.442	800.000	0.049	0.187
-415.428	-200.000	-0.004	-0.028
-414.413	452.046	-0.078	-0.173
-413.398	-112.417	0.327	-0.066
-412.384	-180.373	-0.167	-0.003
-411.369	279.582	0.224	0.401
-410.355	-36.154	0.047	0.025
-409.340	-38.788	-0.255	-0.135
-408.325	-200.000	0.018	-0.196
-407.311	-200.000	0.031	0.208
-406.296	-200.000	0.000	0.141
-405.282	-116.020	-0.190	-0.035
-404.267	-200.000	-0.040	0.199
-403.252	18.600	-0.150	0.120
-402.238	-32.742	-0.125	-0.070
-401.223	0.161	-0.113	0.081
-400.209	-200.000	-0.006	0.135
-399.194	-4.571	-0.378	0.261
-398.179	38.480	0.214	0.191
-397.165	90.333	0.173	0.194
-396.150	136.029	0.105	-0.137
-395.136	111.265	0.068	0.082
-394.121	178.067	-0.070	0.102
-393.106	93.806	-0.171	0.193
-392.092	-101.422	0.045	-0.011
-391.077	698.755	-0.138	-0.363
-390.063	-51.551	0.168	0.079
-389.048	162.105	-0.191	0.268
-388.033	-78.967	-0.203	0.069
-387.019	-200.000	0.045	0.205
-386.004	139.569	0.176	-0.231
-384.990	-45.968	0.304	-0.150
-383.975	-45.519	-0.082	0.040
-382.960	77.533	-0.124	-0.132
-381.946	-170.572	-0.305	-0.011
-380.931	130.490	-0.183	0.234
-379.917	117.545	-0.240	0.296
-378.902	57.053	-0.179	-0.175
-377.888	150.522	0.176	0.239
-376.873	-75.466	-0.294	-0.105
-375.858	-19.685	-0.165	-0.102
-374.844	48.020	-0.248	-0.232
-373.829	-128.040	-0.320	0.046
-372.815	-104.323	-0.065	-0.015
-371.800	-200.000	-0.014	0.080
-370.785	31.774	-0.130	0.112
-369.771	-146.874	0.266	0.023
-368.756	119.116	-0.108	0.134
-367.742	-156.763	0.333	0.021
-366.727	800.000	-0.113	0.365
-365.712	-145.451	0.133	-0.012
-364.698	800.000	0.104	-0.304
-363.683	-32.774	-0.291	0.162
-362.669	-112.505	-0.139	-0.028
-361.654	30.573	0.083	-0.071
-360.639	-8.887	0.246	0.165
-359.625	-200.000	0.025	-0.238
-358.610	-66.872	-0.175	-0.069
-357.596	129.697	-0.100	-0.128
-356.581	52.547	-0.096	-0.092
-355.566	-60.815	-0.261	0.110
-354.552	-61.175	0.346	0.146
-353.537	247.903	0.076	-0.129
-352.523	-113.584	-0.198	0.039
-351.508	-200.000	-0.005	-0.191
-350.493	437.253	-0.096	-0.209
-349.479	-43.081	0.029	-0.015
-348.464	800.000	0.046	-0.172
-347.450	800.000	-0.085	-0.292
-346.435	-145.556	0.053	-0.005
-345.420	243.755	0.160	0.268
-344.406	-200.000	-0.029	0.149
-343.391	60.493	0.181	-0.179
-342.377	195.791	-0.137	0.209
-341.362	-94.784	0.274	0.074
-340.348	-189.839	-0.289	0.003
-339.333	-128.063	-0.096	-0.014
-338.318	-53.804	-0.311	-0.142
-337.304	94.079	0.219	-0.249
-336.289	-150.887	0.114	0.009
-335.275	266.305	-0.146	-0.255
-334.260	245.552	0.203	-0.342
-333.245	-200.000	-0.372	-0.000
-332.231	-48.222	0.259	-0.125
-331.216	17.842	0.093	-0.074
-330.202	652.680	0.111	0.284
-329.187	-18.835	0.100	0.062
-328.172	-10.721	-0.040	-0.026
-327.158	-200.000	-0.016	0.071
-326.143	316.092	-0.054	-0.101
-325.129	-12.280	0.159	0.104
-324.114	120.060	-0.058	-0.072
-323.099	338.737	0.035	-0.068
-322.085	62.518	0.296	-0.295
-321.070	355.622	0.092	0.182
-320.056	157.755	-0.154	0.213
-319.041	-54.608	0.109	0.049
-318.026	-200.000	0.016	-0.225
-317.012	-28.364	-0.192	-0.111
-315.997	-200.000	-0.047	-0.444
-314.983	671.745	0.007	-0.019
-313.968	800.000	0.058	0.204
-312.953	298.007	-0.075	0.138
-311.939	144.446	-0.114	-0.151
-310.924	-200.000	-0.133	-0.000
-309.910	114.786	0.095	-0.116
-308.895	204.674	0.132	0.205
-307.880	18.161	0.107	0.085
-306.866	-40.640	0.126	-0.065
-305.851	800.000	-0.069	-0.265
-304.837	-103.356	-0.411	-0.097
-303.822	-3.547	-0.263	0.182
-302.807	800.000	-0.050	-0.147
-301.793	152.816	0.200	-0.273
-300.778	800.000	0.088	0.321
-299.764	-200.000	-0.004	0.042
-298.749	24.359	-0.080	0.066
-297.735	-15.603	0.290	-0.184
-296.720	468.761	0.035	0.078
-295.705	427.349	0.117	0.251
-294.691	48.070	-0.286	0.266
-293.676	-80.094	0.045	-0.015
-292.662	-91.544	0.338	-0.096
-291.647	1.755	-0.203	-0.146
-290.632	800.000	0.084	-0.254
-289.618	250.770	-0.094	-0.159
-288.603	64.386	-0.261	0.262
-287.589	-149.373	-0.279	-0.022
-286.574	-68.092	0.148	-0.057
-285.559	29.487	-0.105	-0.089
-284.545	-92.491	0.283	0.079
-283.530	97.936	0.231	0.264
-282.516	-15.609	0.139	0.088
-281.501	800.000	0.146	-0.443
-280.486	-112.107	0.150	0.030
-279.472	-69.808	-0.211	-0.080
-278.457	-65.058	0.212	-0.085
-277.443	-61.190	0.264	-0.111
-276.428	428.132	-0.170	0.365
-275.413	800.000	0.032	0.103
-274.399	-200.000	0.033	0.549
-273.384	424.132	-0.205	0.439
-272.370	102.017	0.078	0.091
-271.355	-151.205	-0.108	0.008
-270.340	-130.204	0.095	-0.013
-269.326	360.312	-0.019	-0.038
-268.311	800.000	-0.041	0.154
-267.297	139.459	-0.082	-0.108
-266.282	246.438	-0.056	-0.093
-265.267	-118.329	0.154	-0.027
-264.253	-179.510	-0.153	0.003
-263.238	800.000	0.124	-0.514
-262.224	800.000	-0.033	0.100
-261.209	55.360	0.032	-0.031
-260.195	162.686	-0.065	-0.091
-259.180	-176.032	0.061	-0.002
-258.165	148.789	0.151	0.204
-257.151	157.306	0.026	0.036
-256.136	-122.741	-0.124	-0.020
-255.122	30.627	0.359	-0.305
-254.107	324.293	0.074	-0.141
-253.092	23.401	-0.219	-0.179
-252.078	-13.484	0.212	0.137
-251.063	17.365	0.039	0.031
-250.049	-68.367	0.189	0.073
-249.034	-126.287	-0.100	0.015
-248.019	-127.667	0.175	0.025
-247.005	6.862	-0.170	0.126
-245.990	-35.776	-0.299	-0.161
-244.976	66.017	0.081	0.082
-243.961	800.000	-0.061	-0.217
-242.946	-139.805	-0.128	0.014
-241.932	-200.000	0.048	-0.255
-240.917	146.803	0.182	-0.244
-239.903	121.756	0.212	0.264
-238.888	-103.566	0.062	-0.015
-237.873	-200.000	-0.011	-0.286
-236.859	199.814	0.115	0.176
-235.844	-28.606	0.524	0.300
-234.830	-45.989	-0.274	-0.135
-233.815	-123.535	-0.171	-0.027
-232.800	-101.292	0.038	-0.009
-231.786	-200.000	0.020	0.264
-230.771	67.851	0.227	0.231
-229.757	800.000	-0.046	0.144
-228.742	-200.000	0.022	0.159
-227.727	-200.000	-0.046	0.230
-226.713	800.000	-0.102	0.379
-225.698	-17.573	-0.149	0.093
-224.684	6.798	0.228	-0.169
-223.669	32.093	-0.137	-0.117
-222.655	-197.179	-0.278	-0.002
-221.640	-70.625	-0.237	-0.089
-220.625	28.297	0.431	0.362
-219.611	-163.237	0.179	0.009
-218.596	265.957	-0.055	-0.096
-217.582	-103.271	-0.418	-0.098
-216.567	114.872	-0.118	0.144
-215.552	284.559	-0.206	0.369
-214.538	61.559	-0.084	0.084
-213.523	36.575	0.054	-0.048
-212.509	-124.121	0.107	-0.017
-211.494	-120.185	0.164	-0.028
-210.479	-134.345	0.017	0.002
-209.465	138.981	-0.056	-0.074
-208.450	-200.000	-0.031	0.148
-207.436	-74.317	0.471	-0.169
-206.421	122.721	-0.039	-0.048
-205.406	-35.507	0.235	-0.127
-204.392	-5.533	0.134	-0.092
-203.377	-97.995	-0.146	0.037
-202.363	-128.912	0.250	-0.035
-201.348	104.400	0.050	0.059
-200.333	800.000	0.044	0.164
-199.319	-129.816	0.231	0.032
-198.304	-145.373	0.227	-0.020
-197.290	5.459	0.019	0.014
-196.275	-200.000	0.031	0.166
-195.260	756.005	0.024	0.066
-194.246	32.557	0.129	0.111
-193.231	98.003	-0.225	0.257
-192.217	346.079	-0.150	0.293
-191.202	14.193	0.108	-0.084
-190.187	-144.775	-0.095	0.009
-189.173	-71.711	-0.140	-0.052
-188.158	50.625	-0.065	0.061
-187.144	537.364	0.180	-0.425
-186.129	-70.334	-0.387	-0.146
-185.114	-200.000	0.041	-0.203
-184.100	21.109	0.151	0.122
-183.085	43.890	-0.043	0.039
-182.071	-155.968	0.164	-0.010
-181.056	-17.665	-0.217	-0.135
-180.042	-102.587	-0.274	-0.065
-179.027	-131.562	0.372	-0.049
-178.012	182.745	-0.052	0.076
-176.998	-74.443	-0.193	-0.069
-175.983	-200.000	0.001	0.413
-174.969	16.771	-0.252	0.198
-173.954	-43.767	-0.093	0.047
-172.939	-174.756	0.246	-0.007
-171.925	-190.125	0.294	-0.003
-170.910	-68.701	-0.029	0.011
-169.896	-200.000	0.039	-0.231
-168.881	-9.485	-0.168	-0.111
-167.866	-133.526	-0.167	-0.021
-166.852	110.493	-0.140	0.167
-165.837	56.764	0.121	0.117
-164.823	-38.487	0.098	-0.051
-163.808	-106.025	0.136	-0.030
-162.793	-122.172	0.594	0.097
-161.779	-200.000	-0.051	-0.222
-160.764	-32.167	0.123	0.068
-159.750	22.528	0.318	-0.258
-158.735	387.641	-0.196	-0.403
-157.720	38.390	-0.168	-0.148
-156.706	-19.589	-0.140	0.086
-155.691	800.000	0.098	0.419
-154.677	-200.000	-0.037	0.316
-153.662	21.957	-0.207	-0.167
-152.647	-24.704	-0.095	-0.056
-151.633	-200.000	0.052	-0.438
-150.618	-97.978	-0.358	0.092
-149.604	587.783	-0.019	0.047
-148.589	15.862	-0.306	0.238
-147.574	385.027	0.069	0.141
-146.560	39.284	-0.175	-0.155
-145.545	-188.038	0.269	0.003
-144.531	-94.953	-0.149	0.040
-143.516	194.559	-0.139	-0.209
-142.502	-39.629	-0.351	-0.182
-141.487	233.860	-0.068	0.111
-140.472	800.000	-0.098	0.339
-139.458	131.503	0.055	-0.070
-138.443	671.160	0.046	0.119
-137.429	79.998	0.241	0.257
-136.414	26.012	-0.143	0.118
-135.399	-200.000	0.026	0.116
-134.385	-34.631	0.269	-0.146
-133.370	207.046	0.111	-0.172
-132.356	65.911	0.246	-0.247
-131.341	-200.000	0.013	0.140
-130.326	175.479	-0.108	-0.155
-129.312	233.526	-0.212	-0.346
-128.297	-32.402	0.143	0.079
-127.283	-43.985	0.244	0.122
-126.268	-200.000	-0.016	-0.121
-125.253	343.318	0.054	-0.105
-124.239	-69.752	-0.087	-0.033
-123.224	209.795	0.129	0.200
-122.210	-90.821	-0.123	-0.035
