DTS Sentinel unit serial number:	SN413079Multiplexer serial number:	ORYXHardware model number:	OX4-SRSoftware version number:	ORYX F/W v4.00 Oryx Data Collector v3.7.2.0data status	okinstallation	princeton_trtdifferential loss correction	single-endedforward channel	channel 4reverse channel	N/Adate	2019/09/17time	00:25:35forward acquisition time	60.00reverse acquisition time	0.00gamma	496.2192k internal	0.2314k external	0.2314temperature offset calibration	0.9976default loss term (dB/km)	0.3790temperature slope calibration	1.0000multiplexer offset coefficient	1.0000multiplexer slope coefficient	1.0000fibre end	0.00T internal ref (°C)	29.48T ext. ref 1 (°C)	0.10T ext. ref 2 (°C)	23.64length (m)	temperature (°C)	Stokes	anti-Stokes-747.200	7.643	-0.184	0.140
-746.185	-119.178	0.281	-0.050
-745.171	-47.434	0.483	0.238
-744.156	-57.041	-0.459	-0.205
-743.142	-103.033	-0.320	-0.077
-742.127	160.135	-0.157	0.222
-741.112	414.109	-0.003	0.006
-740.098	-200.000	-0.035	0.309
-739.083	448.677	-0.138	0.309
-738.069	284.939	-0.161	0.293
-737.054	800.000	0.024	-0.083
-736.039	-71.405	-0.206	-0.078
-735.025	57.344	-0.188	0.186
-734.010	-0.398	-0.268	-0.193
-732.996	800.000	0.099	-0.318
-731.981	-27.547	-0.255	0.150
-730.966	131.019	-0.170	0.221
-729.952	71.846	0.133	0.141
-728.937	-160.188	-0.282	-0.016
-727.923	-200.000	0.023	-0.130
-726.908	-41.157	-0.305	0.159
-725.894	480.819	-0.076	0.175
-724.879	189.719	-0.105	-0.160
-723.864	-14.396	0.241	-0.157
-722.850	-200.000	-0.032	-0.162
-721.835	-122.540	-0.088	-0.015
-720.821	30.465	-0.398	-0.345
-719.806	-200.000	-0.046	0.310
-718.791	-11.588	-0.147	-0.098
-717.777	45.440	-0.263	0.246
-716.762	-86.684	0.148	0.046
-715.748	50.127	0.045	-0.043
-714.733	200.957	-0.063	0.098
-713.718	774.123	-0.082	0.228
-712.704	-71.574	0.265	-0.100
-711.689	800.000	-0.027	-0.109
-710.675	1.664	0.170	-0.124
-709.660	32.784	0.273	-0.240
-708.645	-156.978	-0.233	0.014
-707.631	172.131	0.130	-0.189
-706.616	184.445	0.167	-0.251
-705.602	-49.633	-0.211	0.102
-704.587	23.746	0.072	0.060
-703.572	101.804	-0.098	-0.116
-702.558	-36.830	-0.229	-0.124
-701.543	543.353	-0.105	-0.254
-700.529	-127.882	-0.250	-0.036
-699.514	26.790	-0.105	0.089
-698.499	-79.985	-0.237	-0.081
-697.485	126.754	0.058	-0.075
-696.470	46.821	0.243	-0.228
-695.456	-158.062	0.196	0.012
-694.441	-81.755	0.279	0.093
-693.426	-160.221	-0.400	0.022
-692.412	-129.851	0.131	-0.018
-691.397	-200.000	0.052	-0.668
-690.383	-63.945	-0.110	-0.045
-689.368	-2.941	-0.278	-0.196
-688.354	-200.000	0.011	-0.402
-687.339	-9.538	0.083	0.056
-686.324	-109.221	0.158	-0.034
-685.310	-200.000	-0.066	0.299
-684.295	652.432	0.035	0.091
-683.281	-61.439	-0.144	-0.061
-682.266	83.732	0.272	-0.300
-681.251	257.847	-0.093	0.162
-680.237	-200.000	0.071	-0.326
-679.222	-27.713	-0.327	-0.192
-678.208	420.422	0.062	-0.135
-677.193	24.161	0.154	-0.128
-676.178	124.814	-0.088	-0.112
-675.164	-133.191	-0.176	0.023
-674.149	61.249	-0.155	-0.156
-673.135	512.919	-0.076	-0.179
-672.120	87.549	0.097	-0.109
-671.105	-200.000	0.035	0.196
-670.091	645.410	0.069	0.177
-669.076	800.000	0.057	0.243
-668.062	131.395	-0.128	0.167
-667.047	491.237	-0.148	0.341
-666.032	780.419	0.090	-0.248
-665.018	127.519	-0.081	0.104
-664.003	652.536	0.117	-0.302
-662.989	170.175	-0.093	0.135
-661.974	29.275	-0.167	0.143
-660.959	-92.735	-0.379	0.107
-659.945	800.000	0.106	0.326
-658.930	-126.394	0.251	0.038
-657.916	9.009	0.096	0.073
-656.901	148.990	0.061	-0.083
-655.886	-200.000	-0.010	0.132
-654.872	-35.448	0.111	0.061
-653.857	324.396	-0.082	0.159
-652.843	116.525	-0.257	-0.319
-651.828	-200.000	-0.010	0.121
-650.814	800.000	0.040	-0.151
-649.799	3.359	0.118	0.087
-648.784	-200.000	0.024	-0.158
-647.770	351.593	0.110	0.219
-646.755	243.306	-0.125	-0.211
-645.741	-83.088	0.030	0.010
-644.726	304.421	0.026	0.049
-643.711	-200.000	-0.070	-0.354
-642.697	-200.000	0.051	-0.499
-641.682	75.078	-0.069	-0.073
-640.668	-200.000	-0.032	0.184
-639.653	93.711	0.195	0.223
-638.638	53.909	-0.054	0.052
-637.624	286.490	0.154	0.281
-636.609	-200.000	0.018	0.222
-635.595	-129.947	-0.204	-0.028
-634.580	-34.935	0.028	0.015
-633.565	-200.000	0.061	-0.376
-632.551	-200.000	0.001	-0.178
-631.536	-124.112	-0.243	0.038
-630.522	-200.000	-0.016	-0.236
-629.507	800.000	-0.081	0.254
-628.492	-145.673	-0.343	0.031
-627.478	-6.308	-0.065	-0.045
-626.463	-187.212	-0.171	0.002
-625.449	58.024	0.046	-0.045
-624.434	207.103	-0.162	0.256
-623.419	324.588	-0.142	-0.273
-622.405	-200.000	0.023	-0.158
-621.390	129.014	0.138	-0.178
-620.376	-79.458	0.229	-0.078
-619.361	38.704	-0.196	0.176
-618.346	-32.087	-0.309	-0.174
-617.332	-200.000	-0.010	-0.413
-616.317	-5.708	-0.191	0.132
-615.303	52.214	-0.129	-0.124
-614.288	-95.348	-0.189	-0.051
-613.273	35.134	-0.018	0.016
-612.259	29.203	-0.077	-0.066
-611.244	-200.000	-0.010	0.142
-610.230	-200.000	0.016	0.124
-609.215	-102.392	0.123	0.030
-608.201	69.241	0.198	-0.205
-607.186	-60.040	-0.079	0.034
-606.171	-125.689	-0.406	-0.062
-605.157	-92.547	0.324	-0.092
-604.142	-96.616	-0.104	-0.028
-603.128	-71.477	-0.322	-0.121
-602.113	-155.559	-0.305	0.020
-601.098	-200.000	-0.039	0.232
-600.084	-15.041	0.099	-0.064
-599.069	-200.000	-0.044	0.214
-598.055	-24.273	0.313	0.188
-597.040	70.663	-0.209	-0.218
-596.025	-142.519	0.276	-0.027
-595.011	65.768	-0.094	0.096
-593.996	-59.344	-0.166	-0.072
-592.982	-133.830	-0.139	-0.017
-591.967	-135.991	0.306	0.036
-590.952	-69.650	-0.122	-0.047
-589.938	-200.000	0.068	0.329
-588.923	-200.000	0.006	-0.110
-587.909	-56.886	-0.034	-0.015
-586.894	-179.676	-0.174	-0.004
-585.879	123.962	0.382	-0.483
-584.865	-143.038	-0.275	-0.027
-583.850	-46.490	-0.159	0.079
-582.836	-86.251	-0.048	0.015
-581.821	-184.353	0.052	0.001
-580.806	44.926	0.396	-0.367
-579.792	-26.081	-0.119	-0.071
-578.777	-135.914	-0.330	-0.039
-577.763	136.333	0.271	-0.355
-576.748	-113.635	0.368	0.072
-575.733	800.000	-0.069	0.293
-574.719	252.416	0.152	0.261
-573.704	800.000	-0.110	0.334
-572.690	65.366	-0.273	0.278
-571.675	800.000	0.020	0.064
-570.661	-200.000	-0.017	-0.097
-569.646	800.000	-0.039	-0.113
-568.631	-200.000	0.053	0.344
-567.617	-119.107	-0.035	0.006
-566.602	-118.242	-0.225	-0.040
-565.588	-100.817	-0.148	-0.037
-564.573	800.000	-0.065	0.243
-563.558	-85.187	0.120	-0.038
-562.544	39.184	0.183	-0.165
-561.529	-29.387	0.090	-0.052
-560.515	78.199	-0.091	-0.098
-559.500	-200.000	-0.038	0.343
-558.485	6.539	0.173	0.129
-557.471	-200.000	0.026	0.198
-556.456	307.893	0.162	0.304
-555.442	-111.700	-0.108	0.022
-554.427	800.000	0.064	-0.275
-553.412	800.000	-0.030	-0.089
-552.398	800.000	-0.068	-0.293
-551.383	67.580	-0.108	0.111
-550.369	-17.427	-0.330	-0.209
-549.354	800.000	0.017	-0.060
-548.339	417.055	-0.040	-0.086
-547.325	-89.458	0.248	0.073
-546.310	-200.000	0.006	-0.301
-545.296	-130.563	0.261	-0.035
-544.281	-80.203	0.347	0.117
-543.266	593.300	-0.164	0.408
-542.252	-200.000	0.018	0.160
-541.237	-14.378	-0.484	-0.313
-540.223	-200.000	-0.012	0.286
-539.208	167.829	-0.139	-0.198
-538.193	-84.444	-0.210	-0.067
-537.179	-45.417	0.226	-0.113
-536.164	-62.461	-0.347	0.145
-535.150	77.805	-0.092	0.098
-534.135	209.763	-0.012	0.019
-533.121	-35.436	-0.283	0.155
-532.106	-188.943	-0.298	0.004
-531.091	800.000	-0.056	0.184
-530.077	-138.706	-0.063	-0.007
-529.062	-18.620	-0.143	-0.090
-528.048	-88.710	0.194	0.058
-527.033	-12.231	-0.260	-0.171
-526.018	-51.762	0.070	-0.033
-525.004	255.862	-0.133	-0.229
-523.989	-74.957	0.146	-0.053
-522.975	800.000	0.069	0.242
-521.960	450.057	0.039	0.086
-520.945	164.844	0.037	0.052
-519.931	-28.915	0.379	-0.219
-518.916	424.400	0.031	0.067
-517.902	800.000	-0.036	0.103
-516.887	-200.000	0.038	-0.189
-515.872	422.523	0.098	-0.211
-514.858	-113.417	0.116	-0.023
-513.843	41.107	-0.114	-0.104
-512.829	-27.101	-0.148	0.087
-511.814	-28.675	-0.137	0.079
-510.799	30.158	-0.170	0.146
-509.785	-117.841	-0.209	-0.038
-508.770	292.409	0.212	0.388
-507.756	800.000	-0.078	0.311
-506.741	12.812	-0.086	-0.067
-505.726	800.000	-0.042	-0.120
-504.712	-69.224	-0.294	0.113
-503.697	-91.866	-0.074	0.021
-502.683	9.953	0.169	-0.129
-501.668	-77.694	-0.239	0.083
-500.653	-165.593	-0.135	0.006
-499.639	-118.317	-0.049	-0.009
-498.624	560.619	0.076	-0.183
-497.610	-149.481	-0.088	0.007
-496.595	-32.032	0.357	0.201
-495.581	642.303	-0.012	0.032
-494.566	-51.625	0.262	0.123
-493.551	444.959	0.131	0.290
-492.537	-22.844	0.261	0.158
-491.522	-147.453	0.165	-0.014
-490.508	239.278	0.103	-0.172
-489.493	-200.000	-0.018	-0.094
-488.478	51.657	0.276	0.263
-487.464	-200.000	-0.027	0.166
-486.449	105.302	-0.204	-0.241
-485.435	-200.000	-0.047	-0.325
-484.420	-200.000	0.008	-0.069
-483.405	-146.809	-0.384	0.033
-482.391	155.524	0.116	0.160
-481.376	-168.151	-0.364	-0.014
-480.362	-108.269	0.117	0.025
-479.347	475.196	-0.104	0.236
-478.332	-200.000	-0.010	0.124
-477.318	-14.580	0.103	0.067
-476.303	-103.877	-0.332	-0.078
-475.289	-129.568	-0.075	-0.010
-474.274	-32.968	0.322	-0.179
-473.259	-200.000	-0.010	-0.285
-472.245	40.002	0.125	0.113
-471.230	800.000	-0.060	-0.170
-470.216	33.462	0.250	0.218
-469.201	-57.038	0.102	0.045
-468.186	94.608	-0.185	-0.211
-467.172	-18.772	0.321	0.201
-466.157	204.563	-0.060	0.094
-465.143	-200.000	0.026	0.523
-464.128	-200.000	0.039	0.309
-463.113	295.301	0.168	-0.309
-462.099	-126.739	-0.143	0.021
-461.084	-21.317	-0.140	0.086
-460.070	43.194	-0.162	-0.148
-459.055	1.954	-0.231	-0.167
-458.040	132.616	-0.121	0.157
-457.026	82.750	0.007	0.008
-456.011	-73.983	-0.464	0.169
-454.997	111.895	-0.251	0.304
-453.982	-77.097	0.275	0.096
-452.968	85.629	0.091	-0.100
-451.953	-14.925	-0.177	-0.114
-450.938	228.742	-0.087	-0.142
-449.924	197.125	0.318	-0.487
-448.909	633.798	-0.143	-0.364
-447.895	-200.000	-0.008	-0.124
-446.880	133.541	0.033	0.042
-445.865	105.589	-0.158	0.187
-444.851	-200.000	-0.030	-0.211
-443.836	96.154	0.050	0.058
-442.822	-132.738	-0.211	-0.027
-441.807	-15.451	0.229	-0.147
-440.792	272.589	0.001	0.001
-439.778	-15.908	-0.260	-0.166
-438.763	31.998	-0.388	-0.335
-437.749	25.230	0.082	-0.069
-436.734	800.000	-0.068	0.284
-435.719	57.055	-0.021	-0.021
-434.705	-61.356	0.228	0.096
-433.690	169.567	-0.171	-0.244
-432.676	508.334	-0.097	-0.226
-431.661	-29.659	-0.170	-0.097
-430.646	-200.000	0.011	-0.058
-429.632	-50.724	0.228	0.107
-428.617	-30.199	-0.188	-0.107
-427.603	-124.467	-0.091	-0.014
-426.588	-40.199	0.337	-0.176
-425.573	723.543	-0.015	0.039
-424.559	800.000	-0.062	0.173
-423.544	-167.882	-0.129	-0.005
-422.530	-200.000	0.007	0.100
-421.515	-90.099	-0.122	-0.036
-420.500	-200.000	0.002	-0.117
-419.486	-110.040	0.315	-0.066
-418.471	-109.611	0.209	-0.044
-417.457	-26.859	-0.217	-0.127
-416.442	183.235	-0.186	0.275
-415.428	-40.345	-0.091	0.047
-414.413	140.006	0.218	-0.288
-413.398	-57.206	0.347	-0.153
-412.384	-42.421	0.156	-0.079
-411.369	17.904	-0.147	0.117
-410.355	229.336	0.075	0.123
-409.340	800.000	0.081	-0.304
-408.325	-128.952	0.054	0.008
-407.311	395.719	-0.052	-0.109
-406.296	594.679	0.038	-0.094
-405.282	690.265	0.074	-0.194
-404.267	-57.980	0.148	-0.065
-403.252	205.255	-0.083	0.129
-402.238	97.457	0.177	-0.204
-401.223	52.016	-0.100	0.095
-400.209	485.695	0.144	0.329
-399.194	168.900	0.027	0.038
-398.179	-106.111	0.209	0.047
-397.165	728.330	0.125	0.333
-396.150	-110.079	-0.238	0.050
-395.136	-115.624	-0.142	-0.027
-394.121	-200.000	0.001	0.150
-393.106	-40.063	0.121	-0.063
-392.092	7.910	-0.132	-0.099
-391.077	322.174	-0.007	0.013
-390.063	73.393	-0.037	0.039
-389.048	-163.730	0.404	-0.019
-388.033	-170.323	0.078	0.003
-387.019	-144.911	0.145	-0.013
-386.004	335.560	-0.109	0.212
-384.990	-28.192	-0.229	0.132
-383.975	-58.976	0.304	-0.131
-382.960	-108.799	0.195	0.042
-381.946	-39.515	0.219	-0.115
-380.931	-200.000	0.034	0.368
-379.917	48.148	-0.155	-0.145
-378.902	-63.426	-0.092	0.038
-377.888	205.718	0.160	0.249
-376.873	800.000	-0.008	0.033
-375.858	203.678	0.110	0.170
-374.844	-4.241	-0.093	-0.065
-373.829	219.699	0.071	0.114
-372.815	206.621	0.138	-0.215
-371.800	-33.076	-0.222	-0.123
-370.785	24.305	-0.118	-0.097
-369.771	38.239	0.040	-0.035
-368.756	-171.437	0.306	0.010
-367.742	800.000	-0.023	-0.072
-366.727	-38.069	-0.186	0.099
-365.712	403.889	-0.055	-0.115
-364.698	-200.000	0.040	0.185
-363.683	800.000	0.006	-0.026
-362.669	-57.601	-0.082	0.036
-361.654	361.925	0.221	-0.442
-360.639	-200.000	0.011	-0.521
-359.625	112.319	-0.110	-0.132
-358.610	-19.876	0.093	0.057
-357.596	-55.047	0.414	-0.186
-356.581	-133.822	-0.321	0.040
-355.566	800.000	-0.122	-0.426
-354.552	-13.050	0.035	-0.023
-353.537	-112.003	0.042	-0.008
-352.523	800.000	0.090	-0.262
-351.508	345.257	0.087	-0.170
-350.493	277.334	-0.153	-0.273
-349.479	-200.000	0.046	-0.451
-348.464	-200.000	0.001	0.263
-347.450	-17.818	0.109	0.069
-346.435	800.000	-0.023	0.081
-345.420	108.639	-0.276	0.330
-344.406	-144.787	-0.180	-0.016
-343.391	800.000	0.077	0.232
-342.377	-45.857	0.162	0.080
-341.362	-78.835	-0.140	0.048
-340.348	-78.387	-0.218	-0.074
-339.333	614.882	0.087	0.217
-338.318	-79.171	-0.464	-0.157
-337.304	-96.058	0.186	-0.049
-336.289	-98.271	0.111	-0.028
-335.275	-200.000	-0.020	-0.131
-334.260	706.629	-0.104	-0.275
-333.245	-25.061	0.233	0.138
-332.231	-200.000	-0.048	-0.309
-331.216	-104.855	0.091	0.021
-330.202	-200.000	-0.022	-0.276
-329.187	173.687	0.078	-0.112
-328.172	-114.831	-0.209	-0.040
-327.158	-12.722	-0.079	0.051
-326.143	4.228	-0.245	0.179
-325.129	-6.054	0.050	-0.034
-324.114	160.100	0.121	-0.169
-323.099	7.010	-0.078	0.058
-322.085	-151.975	0.165	-0.012
-321.070	-200.000	0.030	0.308
-320.056	148.074	0.115	0.154
-319.041	-200.000	0.049	0.338
-318.026	3.456	0.087	0.063
-317.012	7.572	0.138	-0.103
-315.997	103.956	-0.214	0.251
-314.983	800.000	0.058	0.179
-313.968	-51.997	0.313	0.145
-312.953	-19.964	-0.285	-0.175
-311.939	-200.000	0.027	-0.304
-310.924	123.587	0.110	-0.138
-309.910	-200.000	-0.035	0.285
-308.895	103.682	-0.098	0.115
-307.880	89.628	0.061	0.068
-306.866	62.474	-0.148	0.148
-305.851	87.801	-0.118	0.131
-304.837	23.437	0.017	-0.014
-303.822	-200.000	0.048	-0.218
-302.807	-77.249	0.221	0.077
-301.793	-200.000	-0.033	-0.335
-300.778	64.427	0.122	0.122
-299.764	4.000	0.367	-0.267
-298.749	47.545	0.027	0.025
-297.735	800.000	0.061	0.207
-296.720	-200.000	0.199	-0.001
-295.705	-70.187	0.149	0.057
-294.691	-200.000	-0.013	-0.177
-293.676	-139.245	-0.082	-0.009
-292.662	427.305	0.070	0.149
-291.647	681.571	-0.080	-0.207
-290.632	-75.024	0.196	-0.070
-289.618	478.880	0.048	-0.107
-288.603	36.933	0.246	-0.217
-287.589	-200.000	-0.029	-0.165
-286.574	33.647	-0.250	0.216
-285.559	-115.095	-0.321	-0.061
-284.545	-200.000	-0.004	-0.100
-283.530	167.254	-0.045	0.063
-282.516	17.844	-0.175	0.139
-281.501	-200.000	-0.052	0.276
-280.486	-200.000	0.057	-0.261
-279.472	41.119	0.253	0.228
-278.457	128.495	-0.200	0.254
-277.443	206.680	0.076	0.118
-276.428	2.198	-0.200	-0.144
-275.413	107.324	-0.055	-0.066
-274.399	-158.675	0.253	-0.014
-273.384	154.450	-0.122	0.167
-272.370	132.713	0.108	0.139
-271.355	163.813	-0.102	-0.143
-270.340	-109.201	-0.479	0.101
-269.326	-200.000	0.015	-0.424
-268.311	230.204	0.134	0.219
-267.297	-136.393	0.263	0.031
-266.282	800.000	0.046	0.163
-265.267	-200.000	-0.041	-0.195
-264.253	-100.956	0.205	0.050
-263.238	-154.697	0.492	-0.032
-262.224	-81.751	-0.170	0.055
-261.209	13.194	0.250	0.193
-260.195	-96.497	0.205	-0.054
-259.180	-184.565	0.287	-0.005
-258.165	-56.905	0.111	-0.049
-257.151	9.557	-0.044	-0.033
-256.136	-200.000	-0.064	0.325
-255.122	99.863	-0.067	-0.077
-254.107	-127.680	-0.202	-0.029
-253.092	800.000	-0.068	0.238
-252.078	-48.190	0.120	0.058
-251.063	95.079	-0.285	0.322
-250.049	227.508	0.099	0.160
-249.034	-140.027	0.157	0.016
-248.019	-91.770	-0.242	-0.068
-247.005	318.178	0.046	-0.087
-245.990	511.519	0.155	0.359
-244.976	-59.841	0.234	0.100
-243.961	-124.634	-0.129	-0.020
-242.946	-200.000	-0.014	0.081
-241.932	-200.000	-0.043	0.271
-240.917	-80.022	0.216	-0.072
-239.903	-104.452	-0.013	0.003
-238.888	-200.000	-0.060	0.409
-237.873	-11.372	-0.149	0.098
-236.859	-144.278	0.278	0.026
-235.844	788.561	0.052	0.142
-234.830	-135.810	0.299	0.035
-233.815	-48.098	0.172	-0.083
-232.800	-81.042	0.067	-0.022
-231.786	110.666	0.069	-0.083
-230.771	63.607	0.078	-0.078
-229.757	279.983	-0.144	-0.257
-228.742	-54.568	-0.200	0.090
-227.727	-143.716	0.034	-0.003
-226.713	13.327	-0.210	-0.162
-225.698	800.000	0.060	-0.179
-224.684	133.988	0.090	-0.116
-223.669	-43.520	-0.115	-0.058
-222.655	-107.728	0.094	-0.020
-221.640	800.000	0.116	-0.323
-220.625	-140.378	-0.062	-0.006
-219.611	-74.542	-0.230	-0.082
-218.596	-119.178	0.438	0.076
-217.582	-50.799	0.027	-0.013
-216.567	389.765	-0.127	-0.261
-215.552	-128.435	-0.283	-0.040
-214.538	0.025	0.202	0.143
-213.523	-165.777	0.102	0.004
-212.509	217.620	-0.114	-0.181
-211.494	57.147	0.177	-0.172
-210.479	179.975	-0.231	0.336
-209.465	337.412	0.118	-0.228
-208.450	-200.000	-0.050	-0.238
-207.436	800.000	0.020	0.060
-206.421	-87.778	0.119	-0.035
-205.406	11.783	-0.278	0.212
-204.392	-200.000	0.030	0.232
-203.377	85.847	-0.030	0.033
-202.363	-81.427	0.167	-0.055
-201.348	579.107	-0.149	0.361
-200.333	-100.569	0.307	0.075
-199.319	-200.000	0.038	-0.225
-198.304	299.618	-0.164	0.301
-197.290	-115.018	0.125	-0.024
-196.275	-140.096	0.287	0.030
-195.260	13.812	0.080	0.061
-194.246	169.557	0.210	0.297
-193.231	-100.818	0.172	-0.042
-192.217	800.000	-0.092	-0.393
-191.202	79.705	-0.104	-0.111
-190.187	-93.205	-0.348	-0.096
-189.173	-195.824	-0.176	0.001
-188.158	-200.000	-0.033	-0.224
-187.144	329.058	0.154	0.294
-186.129	64.279	0.198	0.198
-185.114	288.051	0.111	-0.199
-184.100	800.000	-0.132	0.431
-183.085	79.571	0.205	0.219
-182.071	-200.000	-0.054	0.305
-181.056	602.820	-0.048	-0.118
-180.042	-200.000	-0.031	0.244
-179.027	253.148	0.099	-0.167
-178.012	150.986	-0.014	0.019
-176.998	800.000	0.052	0.147
-175.983	-97.207	0.354	0.092
-174.969	-200.000	-0.003	-0.183
-173.954	34.109	0.188	-0.162
-172.939	17.170	0.212	0.167
-171.925	68.683	-0.156	0.159
-170.910	-200.000	-0.035	0.381
-169.896	-160.708	-0.137	0.007
-168.881	152.364	-0.092	0.124
-167.866	202.147	0.179	0.274
-166.852	18.434	0.077	-0.061
-165.837	96.330	-0.219	0.248
-164.823	-169.972	0.215	0.008
-163.808	36.415	-0.262	-0.229
-162.793	-190.114	0.476	0.005
-161.779	179.571	0.056	0.081
-160.764	213.987	-0.179	-0.280
-159.750	67.162	-0.197	-0.199
-158.735	800.000	0.056	0.228
-157.720	-32.214	0.067	0.037
-156.706	4.210	-0.147	-0.107
-155.691	-154.596	-0.395	-0.026
-154.677	800.000	-0.034	-0.097
-153.662	800.000	0.068	-0.282
-152.647	162.289	0.100	-0.138
-151.633	49.045	-0.075	-0.070
-150.618	-200.000	0.008	-0.190
-149.604	-200.000	0.044	0.239
-148.589	-92.612	-0.150	-0.042
-147.574	-200.000	-0.028	0.161
-146.560	800.000	0.039	-0.166
-145.545	-200.000	0.025	0.157
-144.531	-68.507	-0.124	-0.048
-143.516	-19.625	0.289	-0.177
-142.502	242.136	-0.074	-0.122
-141.487	404.241	0.062	0.130
-140.472	156.104	-0.044	-0.060
-139.458	55.396	-0.171	-0.164
-138.443	800.000	0.116	0.340
-137.429	676.955	-0.066	0.169
-136.414	380.168	-0.129	0.261
-135.399	124.602	-0.121	0.150
-134.385	-73.707	0.267	0.096
-133.370	-114.032	0.182	0.035
-132.356	800.000	-0.022	0.076
-131.341	43.158	0.189	-0.171
-130.326	66.390	-0.097	-0.098
-129.312	-54.077	0.155	0.070
-128.297	-200.000	0.028	0.132
-127.283	-87.163	0.113	0.034
-126.268	753.079	-0.117	0.312
-125.253	-200.000	-0.001	-0.302
-124.239	157.758	-0.112	0.154
-123.224	-21.264	0.125	-0.075
-122.210	676.177	-0.071	0.183
-121.195	-163.977	-0.228	0.010
