DTS Sentinel unit serial number:	SN413079Multiplexer serial number:	ORYXHardware model number:	OX4-SRSoftware version number:	ORYX F/W v4.00 Oryx Data Collector v3.7.2.0data status	okinstallation	princeton_trtdifferential loss correction	single-endedforward channel	channel 4reverse channel	N/Adate	2019/09/18time	16:53:34forward acquisition time	60.00reverse acquisition time	0.00gamma	496.2192k internal	0.2290k external	0.2290temperature offset calibration	1.0010default loss term (dB/km)	0.3790temperature slope calibration	1.0000multiplexer offset coefficient	1.0000multiplexer slope coefficient	1.0000fibre end	0.00T internal ref (°C)	40.02T ext. ref 1 (°C)	0.86T ext. ref 2 (°C)	34.33length (m)	temperature (°C)	Stokes	anti-Stokes-747.200	-200.000	-0.101	0.000
-746.185	42.366	0.198	0.185
-745.171	626.758	-0.026	0.067
-744.156	-132.371	0.106	-0.014
-743.142	-45.674	0.184	0.093
-742.127	506.595	0.034	0.080
-741.112	402.480	0.135	0.291
-740.098	-70.377	-0.230	-0.089
-739.083	61.810	0.140	0.143
-738.069	399.081	-0.182	0.390
-737.054	800.000	0.058	0.231
-736.039	-112.127	-0.221	0.045
-735.025	-50.477	0.236	0.114
-734.010	-200.000	-0.051	-0.241
-732.996	232.244	0.044	0.074
-731.981	132.971	0.173	0.229
-730.966	71.570	-0.279	0.297
-729.952	-6.959	0.074	0.052
-728.937	-85.471	-0.252	-0.080
-727.923	-61.298	0.185	-0.080
-726.908	320.723	-0.103	-0.200
-725.894	-3.407	-0.254	-0.181
-724.879	-112.897	-0.266	-0.054
-723.864	65.082	0.175	-0.181
-722.850	-76.194	0.084	0.031
-721.835	72.008	0.247	-0.263
-720.821	205.158	0.088	0.140
-719.806	-151.762	-0.042	0.003
-718.791	351.976	-0.097	-0.196
-717.777	27.381	0.189	0.162
-716.762	-86.790	0.180	0.056
-715.748	321.980	0.101	-0.196
-714.733	109.906	-0.225	-0.276
-713.718	-144.397	-0.130	-0.012
-712.704	182.429	0.063	-0.095
-711.689	131.929	-0.116	-0.152
-710.675	-14.070	0.252	-0.166
-709.660	-116.554	-0.136	-0.026
-708.645	-53.750	0.171	0.080
-707.631	96.457	0.168	-0.197
-706.616	-90.032	0.169	0.050
-705.602	715.927	0.104	-0.282
-704.587	800.000	0.034	0.118
-703.572	-200.000	-0.010	-0.124
-702.558	28.654	0.257	0.223
-701.543	123.813	0.160	0.206
-700.529	-137.617	-0.097	0.011
-699.514	-150.626	-0.392	-0.031
-698.499	361.325	0.153	-0.313
-697.485	-46.358	-0.203	-0.102
-696.470	-122.319	0.200	0.033
-695.456	73.566	0.314	-0.337
-694.441	-68.771	-0.192	-0.076
-693.426	-141.521	0.281	0.029
-692.412	-200.000	0.107	-0.503
-691.397	-200.000	-0.028	-0.175
-690.383	-173.636	-0.081	0.002
-689.368	-55.422	0.211	-0.097
-688.354	37.763	-0.189	0.171
-687.339	800.000	0.074	0.217
-686.324	6.532	-0.041	0.031
-685.310	-127.117	-0.543	-0.081
-684.295	-98.812	-0.284	0.074
-683.281	110.314	-0.141	0.173
-682.266	-50.307	0.225	0.109
-681.251	-200.000	0.008	-0.047
-680.237	-200.000	0.015	0.155
-679.222	192.037	-0.080	0.124
-678.208	239.181	-0.105	0.179
-677.193	-153.102	0.150	-0.011
-676.178	56.601	-0.181	0.180
-675.164	-200.000	-0.043	-0.295
-674.149	131.787	-0.187	0.246
-673.135	6.427	0.260	-0.198
-672.120	759.284	0.094	0.260
-671.105	410.501	-0.056	0.122
-670.091	800.000	-0.071	0.276
-669.076	-9.762	0.164	0.112
-668.062	-8.396	0.146	0.101
-667.047	-89.545	-0.106	-0.032
-666.032	-26.861	-0.322	-0.192
-665.018	101.814	0.155	-0.184
-664.003	800.000	-0.081	-0.313
-662.989	-99.263	-0.234	-0.060
-661.974	800.000	0.043	-0.177
-660.959	-36.563	-0.310	0.170
-659.945	138.831	0.102	-0.137
-658.930	-1.621	-0.089	-0.064
-657.916	800.000	-0.068	0.291
-656.901	529.948	-0.108	0.262
-655.886	55.261	0.201	-0.199
-654.872	7.892	0.170	-0.130
-653.857	108.442	0.186	0.227
-652.843	-147.950	-0.153	-0.013
-651.828	-200.000	0.034	-0.295
-650.814	-9.184	0.159	0.109
-649.799	-108.086	0.149	0.033
-648.784	84.249	0.076	0.085
-647.770	800.000	-0.077	-0.313
-646.755	-200.000	0.021	0.175
-645.741	-146.569	0.083	-0.007
-644.726	16.423	0.093	0.075
-643.711	-120.654	0.200	-0.034
-642.697	-74.367	0.380	-0.140
-641.682	3.838	0.187	-0.139
-640.668	800.000	0.015	-0.058
-639.653	-96.421	-0.146	0.039
-638.638	308.025	-0.093	-0.178
-637.624	-67.480	-0.101	-0.041
-636.609	163.068	-0.066	-0.094
-635.595	180.068	-0.177	-0.265
-634.580	618.214	0.077	0.197
-633.565	-200.000	-0.009	-0.108
-632.551	800.000	-0.069	-0.210
-631.536	270.521	-0.208	-0.374
-630.522	57.659	0.241	-0.241
-629.507	95.774	-0.115	0.134
-628.492	-200.000	-0.030	0.635
-627.478	-160.133	-0.347	0.019
-626.463	-200.000	0.005	0.217
-625.449	586.591	-0.055	-0.137
-624.434	-200.000	-0.010	-0.059
-623.419	95.587	0.020	-0.023
-622.405	-88.463	0.100	0.030
-621.390	-81.088	0.166	0.056
-620.376	300.976	-0.233	0.439
-619.361	1.895	-0.161	0.119
-618.346	-51.629	0.136	-0.065
-617.332	-131.583	-0.162	0.022
-616.317	151.341	0.140	0.195
-615.303	38.094	0.105	-0.096
-614.288	50.824	-0.188	0.182
-613.273	85.316	0.225	0.252
-612.259	800.000	-0.030	0.111
-611.244	-103.201	-0.389	0.094
-610.230	-97.303	0.046	-0.012
-609.215	-70.911	0.070	0.027
-608.201	-137.407	0.073	-0.008
-607.186	-105.919	0.159	-0.037
-606.171	800.000	-0.028	0.086
-605.157	-35.834	0.097	0.054
-604.142	800.000	0.034	0.095
-603.128	-45.280	0.211	0.107
-602.113	168.416	0.056	0.081
-601.098	349.778	-0.108	0.218
-600.084	-108.780	-0.461	-0.101
-599.069	-97.466	-0.117	0.031
-598.055	103.037	-0.104	0.124
-597.040	800.000	0.059	-0.204
-596.025	-134.551	0.293	-0.036
-595.011	-61.586	-0.361	0.154
-593.996	-200.000	0.039	0.430
-592.982	-131.586	-0.528	-0.071
-591.967	-43.350	0.391	-0.201
-590.952	-109.855	-0.264	-0.056
-589.938	-79.158	0.411	-0.142
-588.923	239.259	-0.188	-0.318
-587.909	6.414	0.059	0.045
-586.894	-200.000	-0.026	0.175
-585.879	800.000	-0.099	0.408
-584.865	413.286	-0.062	0.135
-583.850	142.106	-0.057	0.077
-582.836	-48.327	-0.257	-0.126
-581.821	-153.762	0.296	-0.021
-580.806	-200.000	0.063	-0.305
-579.792	-98.922	-0.044	-0.011
-578.777	310.898	0.042	0.080
-577.763	-80.399	-0.190	0.065
-576.748	508.924	0.036	0.085
-575.733	-200.000	0.020	-0.415
-574.719	-144.966	0.199	-0.018
-573.704	-53.271	0.065	0.030
-572.690	297.060	0.142	0.265
-571.675	32.012	0.128	-0.113
-570.661	800.000	0.023	0.076
-569.646	800.000	0.068	-0.212
-568.631	107.978	-0.159	0.193
-567.617	-141.084	-0.252	-0.026
-566.602	-121.947	0.321	0.054
-565.588	-200.000	-0.023	0.138
-564.573	-200.000	-0.020	-0.239
-563.558	800.000	-0.093	-0.397
-562.544	-122.653	-0.274	0.045
-561.529	800.000	0.009	0.036
-560.515	209.139	-0.112	-0.179
-559.500	-200.000	-0.009	0.191
-558.485	248.186	-0.078	0.134
-557.471	52.604	0.164	-0.159
-556.456	187.917	-0.203	0.308
-555.442	-200.000	0.018	-0.157
-554.427	132.594	0.246	-0.323
-553.412	75.363	-0.045	0.049
-552.398	-52.758	-0.416	0.195
-551.383	-78.119	-0.141	0.049
-550.369	558.874	-0.040	0.098
-549.354	-89.472	0.118	-0.035
-548.339	411.237	-0.116	0.250
-547.325	104.444	0.033	0.039
-546.310	800.000	0.118	-0.349
-545.296	-200.000	-0.079	-0.428
-544.281	45.970	0.080	-0.076
-543.266	-200.000	0.033	-0.191
-542.252	-200.000	0.004	0.026
-541.237	-200.000	-0.035	-0.195
-540.223	-86.678	0.064	0.020
-539.208	131.394	-0.105	-0.138
-538.193	-200.000	-0.017	0.236
-537.179	800.000	0.014	0.050
-536.164	43.498	-0.073	0.068
-535.150	73.218	0.277	0.295
-534.135	86.117	0.096	0.108
-533.121	335.153	-0.091	-0.179
-532.106	-3.124	0.218	0.155
-531.091	48.910	-0.150	0.143
-530.077	-93.699	0.115	-0.032
-529.062	-135.501	-0.199	0.024
-528.048	80.045	0.199	0.218
-527.033	-0.066	-0.225	0.163
-526.018	-112.349	0.472	0.096
-525.004	180.042	-0.167	-0.248
-523.989	-200.000	-0.019	-0.202
-522.975	294.557	0.059	-0.110
-521.960	-4.244	-0.060	-0.042
-520.945	-43.565	-0.288	0.148
-519.931	-68.207	0.322	0.127
-518.916	-200.000	-0.040	0.398
-517.902	-91.312	0.191	0.056
-516.887	-11.810	0.274	0.182
-515.872	800.000	0.027	-0.119
-514.858	50.616	-0.063	0.061
-513.843	52.215	-0.118	-0.114
-512.829	9.158	0.124	-0.095
-511.814	-200.000	0.371	-0.001
-510.799	-200.000	0.011	-0.198
-509.785	-200.000	0.035	0.273
-508.770	348.414	0.112	0.224
-507.756	-116.523	-0.268	-0.050
-506.741	-115.369	-0.330	0.063
-505.726	331.412	-0.201	0.393
-504.712	-146.621	0.306	-0.027
-503.697	-124.153	-0.077	-0.012
-502.683	37.583	0.159	0.143
-501.668	-151.762	-0.311	0.023
-500.653	294.938	-0.057	-0.105
-499.639	20.066	0.191	-0.157
-498.624	172.997	-0.158	0.231
-497.610	-62.758	0.331	-0.139
-496.595	-65.042	0.108	0.044
-495.581	446.051	-0.152	-0.338
-494.566	-200.000	0.003	-0.388
-493.551	71.349	-0.059	0.062
-492.537	-200.000	0.042	-0.200
-491.522	227.555	-0.158	-0.261
-490.508	578.505	-0.057	0.141
-489.493	-200.000	-0.059	0.352
-488.478	35.344	0.101	-0.090
-487.464	-200.000	0.029	-0.232
-486.449	-200.000	-0.007	0.188
-485.435	-22.967	-0.229	-0.140
-484.420	-122.562	0.361	-0.059
-483.405	-36.343	-0.026	0.014
-482.391	-114.846	-0.226	-0.044
-481.376	-200.000	-0.016	-0.148
-480.362	-147.240	-0.121	0.010
-479.347	800.000	-0.032	-0.138
-478.332	-33.800	-0.276	0.154
-477.318	63.509	-0.303	-0.308
-476.303	-102.960	-0.458	0.110
-475.289	87.623	-0.054	-0.061
-474.274	16.920	-0.074	-0.060
-473.259	-0.546	-0.143	-0.103
-472.245	-78.804	-0.477	-0.165
-471.230	-48.664	0.204	-0.100
-470.216	-10.447	0.260	-0.175
-469.201	-132.039	-0.237	0.031
-468.186	-200.000	-0.015	-0.215
-467.172	68.459	0.068	-0.071
-466.157	104.873	-0.014	0.017
-465.143	-83.015	0.260	-0.085
-464.128	-58.853	0.234	-0.103
-463.113	569.025	-0.070	-0.171
-462.099	800.000	0.097	-0.343
-461.084	-6.879	-0.205	0.141
-460.070	-30.980	-0.295	0.169
-459.055	-139.786	0.101	-0.011
-458.040	-77.660	-0.485	-0.170
-457.026	250.996	0.160	-0.276
-456.011	-79.243	0.407	-0.140
-454.997	-11.163	0.249	-0.166
-453.982	28.229	-0.203	-0.173
-452.968	800.000	0.103	-0.345
-451.953	-63.834	-0.226	-0.094
-450.938	-115.222	0.158	0.030
-449.924	144.500	0.262	-0.355
-448.909	-165.840	-0.175	-0.008
-447.895	-105.879	-0.219	-0.050
-446.880	-65.520	-0.187	0.076
-445.865	229.377	0.103	0.170
-444.851	676.882	-0.041	-0.108
-443.836	800.000	0.038	-0.117
-442.822	-200.000	0.015	0.448
-441.807	-70.410	0.147	-0.056
-440.792	135.774	-0.080	-0.106
-439.778	-53.164	0.243	-0.113
-438.763	-200.000	-0.014	0.157
-437.749	-51.838	-0.212	0.100
-436.734	-67.342	0.295	-0.117
-435.719	-148.411	-0.237	-0.020
-434.705	-144.146	-0.228	0.022
-433.690	24.773	-0.183	0.153
-432.676	67.141	-0.163	0.168
-431.661	-1.533	0.247	0.176
-430.646	-162.133	-0.121	-0.006
-429.632	218.587	0.125	0.202
-428.617	-55.405	0.088	-0.040
-427.603	-91.818	0.214	0.062
-426.588	-112.804	0.195	-0.039
-425.573	800.000	-0.101	0.283
-424.559	-200.000	-0.005	-0.130
-423.544	-25.244	0.155	-0.093
-422.530	-200.000	-0.001	-0.221
-421.515	68.511	0.018	-0.019
-420.500	-10.857	0.111	0.074
-419.486	177.079	-0.133	0.196
-418.471	-68.621	-0.403	0.158
-417.457	9.095	0.188	0.143
-416.442	196.563	0.062	-0.096
-415.428	-47.631	-0.139	-0.068
-414.413	-37.267	0.176	0.095
-413.398	198.585	-0.137	-0.213
-412.384	-83.083	-0.209	-0.068
-411.369	18.035	0.146	0.118
-410.355	-38.354	0.034	-0.018
-409.340	-16.387	0.355	0.228
-408.325	-74.809	-0.586	-0.213
-407.311	-157.063	-0.194	-0.012
-406.296	-38.767	-0.363	-0.193
-405.282	800.000	0.021	0.067
-404.267	87.516	0.089	0.099
-403.252	-191.526	-0.475	0.005
-402.238	-200.000	-0.013	-0.439
-401.223	-200.000	-0.003	-0.070
-400.209	800.000	0.032	0.090
-399.194	-24.390	0.137	-0.082
-398.179	-200.000	0.002	-0.116
-397.165	25.506	-0.281	-0.236
-396.150	31.434	-0.146	-0.127
-395.136	-132.638	-0.272	-0.035
-394.121	45.273	-0.105	-0.098
-393.106	-135.795	-0.193	0.023
-392.092	590.122	-0.045	0.112
-391.077	-200.000	0.003	-0.163
-390.063	-200.000	-0.008	0.246
-389.048	52.907	-0.069	-0.067
-388.033	-131.453	-0.129	0.017
-387.019	-72.202	-0.451	-0.169
-386.004	-200.000	-0.011	0.107
-384.990	37.547	0.253	0.226
-383.975	552.179	0.177	-0.429
-382.960	577.368	0.127	-0.314
-381.946	138.995	0.160	-0.213
-380.931	-42.863	0.283	-0.145
-379.917	-30.178	0.136	0.078
-378.902	231.390	0.017	-0.028
-377.888	800.000	0.041	0.141
-376.873	-105.231	-0.224	-0.052
-375.858	209.920	-0.080	0.128
-374.844	-41.545	0.445	0.231
-373.829	210.761	0.030	0.047
-372.815	-25.292	-0.251	0.150
-371.800	250.070	0.089	-0.152
-370.785	180.072	-0.122	0.181
-369.771	800.000	0.074	0.211
-368.756	-115.730	-0.269	-0.051
-367.742	-200.000	-0.008	-0.036
-366.727	-200.000	-0.066	-0.420
-365.712	-79.282	-0.346	-0.118
-364.698	120.419	-0.093	0.117
-363.683	-200.000	-0.012	0.345
-362.669	-117.574	-0.104	-0.019
-361.654	138.696	-0.152	0.202
-360.639	34.546	-0.166	0.147
-359.625	-10.900	0.171	0.114
-358.610	-28.773	-0.158	-0.091
-357.596	-200.000	0.006	-0.103
-356.581	250.443	-0.115	0.196
-355.566	-45.865	0.028	-0.014
-354.552	88.638	0.151	-0.169
-353.537	82.187	-0.135	-0.148
-352.523	-123.129	-0.306	-0.049
-351.508	-38.915	-0.115	0.061
-350.493	-134.868	0.201	0.025
-349.479	-200.000	0.001	-0.259
-348.464	-138.555	0.273	-0.030
-347.450	63.985	-0.141	-0.143
-346.435	52.741	0.159	-0.153
-345.420	32.819	0.130	0.113
-344.406	503.299	-0.026	0.060
-343.391	-36.818	0.181	-0.098
-342.377	800.000	-0.210	0.633
-341.362	-161.266	0.203	0.011
-340.348	800.000	-0.069	-0.289
-339.333	-124.124	-0.346	-0.055
-338.318	-19.805	-0.258	-0.161
-337.304	54.190	0.065	-0.063
-336.289	22.126	-0.191	-0.157
-335.275	-157.816	-0.198	0.012
-334.260	326.865	0.079	-0.154
-333.245	-63.028	0.121	-0.050
-332.231	-200.000	0.049	0.294
-331.216	664.262	0.083	-0.217
-330.202	384.886	0.079	-0.165
-329.187	-154.823	-0.368	-0.025
-328.172	114.953	0.112	0.138
-327.158	-200.000	0.017	-0.106
-326.143	174.556	0.053	0.077
-325.129	-94.888	-0.351	-0.096
-324.114	124.011	-0.118	0.150
-323.099	84.980	-0.241	0.266
-322.085	-200.000	-0.015	0.213
-321.070	443.099	-0.074	0.162
-320.056	-200.000	-0.036	-0.237
-319.041	-49.551	0.169	-0.081
-318.026	-18.503	-0.082	-0.052
-317.012	800.000	0.017	-0.065
-315.997	-142.465	-0.073	-0.007
-314.983	-45.739	-0.147	-0.073
-313.968	-200.000	-0.017	-0.124
-312.953	-200.000	0.018	0.080
-311.939	713.096	0.153	-0.408
-310.924	47.419	0.193	0.182
-309.910	-166.765	-0.187	-0.008
-308.895	185.224	0.120	0.179
-307.880	16.933	0.106	-0.084
-306.866	-80.211	0.538	0.181
-305.851	350.014	0.098	0.196
-304.837	-8.052	0.242	0.165
-303.822	-129.313	0.109	-0.015
-302.807	-200.000	0.037	-0.301
-301.793	-56.210	0.328	0.147
-300.778	800.000	-0.022	-0.081
-299.764	51.314	-0.282	-0.269
-298.749	-47.835	0.415	-0.203
-297.735	41.589	0.226	-0.206
-296.720	85.473	0.328	0.363
-295.705	161.776	0.105	0.148
-294.691	-51.659	-0.252	-0.118
-293.676	-1.489	-0.166	0.118
-292.662	-200.000	-0.084	0.416
-291.647	-40.071	0.129	0.068
-290.632	52.844	0.123	-0.118
-289.618	79.146	0.168	-0.181
-288.603	800.000	-0.104	-0.446
-287.589	789.460	-0.053	-0.148
-286.574	386.869	0.091	0.190
-285.559	-200.000	0.013	0.247
-284.545	759.069	-0.160	-0.437
-283.530	248.658	0.206	-0.351
-282.516	-168.429	-0.086	-0.003
-281.501	-85.589	-0.169	0.053
-280.486	226.820	-0.035	0.057
-279.472	800.000	0.006	-0.020
-278.457	623.398	0.058	0.148
-277.443	99.999	0.265	0.309
-276.428	-94.930	0.294	0.080
-275.413	-195.886	0.218	-0.002
-274.399	-93.632	0.296	-0.082
-273.384	-62.217	-0.135	0.057
-272.370	-149.175	0.312	-0.025
-271.355	193.931	0.109	0.166
-270.340	6.468	-0.123	0.092
-269.326	110.631	0.104	-0.126
-268.311	67.616	-0.282	0.290
-267.297	-200.000	-0.015	0.094
-266.282	-33.700	-0.066	0.037
-265.267	-200.000	0.015	-0.096
-264.253	-58.708	-0.393	0.171
-263.238	34.437	-0.175	-0.154
-262.224	262.864	-0.213	-0.373
-261.209	-198.261	-0.189	0.001
-260.195	24.998	0.280	0.234
-259.180	800.000	0.053	0.181
-258.165	800.000	0.028	-0.107
-257.151	-200.000	-0.005	0.095
-256.136	-92.250	0.139	-0.040
-255.122	-53.632	0.246	-0.113
-254.107	-95.006	0.058	0.016
-253.092	-131.835	0.262	0.034
-252.078	-46.961	0.141	0.069
-251.063	101.864	-0.258	-0.303
-250.049	800.000	0.056	0.191
-249.034	77.552	0.282	0.301
-248.019	154.074	0.154	0.213
-247.005	-59.229	0.194	0.084
-245.990	162.148	0.043	-0.061
-244.976	-148.597	-0.263	0.022
-243.961	-26.608	0.358	0.210
-242.946	136.405	0.169	0.221
-241.932	-78.804	0.105	-0.036
-240.917	800.000	-0.029	0.106
-239.903	-100.985	0.278	0.069
-238.888	-74.358	0.154	0.056
-237.873	-80.411	-0.106	0.036
-236.859	218.381	-0.058	0.094
-235.844	-197.447	-0.198	-0.001
-234.830	-200.000	0.004	-0.022
-233.815	-166.459	0.563	0.024
-232.800	99.562	0.288	-0.335
-231.786	-142.189	-0.343	-0.034
-230.771	101.691	0.113	-0.133
-229.757	76.789	0.113	-0.120
-228.742	658.129	0.042	0.108
-227.727	47.595	0.124	-0.116
-226.713	800.000	0.036	-0.138
-225.698	800.000	-0.072	-0.214
-224.684	-91.786	-0.095	-0.027
-223.669	800.000	-0.028	0.100
-222.655	-135.748	0.220	0.026
-221.640	21.814	-0.072	-0.059
-220.625	-139.590	0.148	-0.016
-219.611	0.344	0.366	0.262
-218.596	-9.907	-0.335	-0.223
-217.582	-71.446	-0.247	0.093
-216.567	-100.417	-0.287	0.071
-215.552	9.600	0.342	-0.260
-214.538	85.825	-0.175	-0.193
-213.523	7.740	0.172	0.130
-212.509	439.562	-0.059	-0.129
-211.494	-200.000	0.005	0.251
-210.479	43.663	0.055	-0.051
-209.465	109.278	-0.233	-0.280
-208.450	6.202	-0.235	-0.175
-207.436	-159.249	0.154	-0.009
-206.421	-200.000	0.021	-0.110
-205.406	424.344	0.150	0.323
-204.392	-26.139	0.047	0.028
-203.377	23.629	0.121	-0.100
-202.363	-17.464	-0.093	-0.059
-201.348	-200.000	0.005	0.310
-200.333	756.410	0.105	0.285
-199.319	-70.000	0.149	-0.057
-198.304	-69.481	0.357	0.137
-197.290	-37.909	0.251	0.134
-196.275	2.861	0.092	-0.067
-195.260	142.270	0.192	0.255
-194.246	142.003	-0.138	0.184
-193.231	295.203	-0.130	-0.239
-192.217	477.123	0.108	0.245
-191.202	-110.254	0.414	0.087
-190.187	24.165	0.171	0.142
-189.173	-30.346	-0.192	-0.109
-188.158	-200.000	-0.029	-0.157
-187.144	252.689	-0.123	0.210
-186.129	-10.662	-0.130	0.086
-185.114	-200.000	0.049	0.224
-184.100	67.507	0.149	-0.153
-183.085	281.257	0.164	-0.293
-182.071	-130.100	-0.186	0.025
-181.056	713.493	-0.129	0.341
-180.042	-114.321	0.220	-0.043
-179.027	-111.563	-0.147	-0.030
-178.012	27.742	0.229	0.193
-176.998	-11.231	0.117	0.077
-175.983	95.077	-0.183	0.209
-174.969	2.584	-0.186	0.135
-173.954	-140.433	0.066	0.007
-172.939	800.000	0.114	-0.364
-171.925	293.105	0.113	-0.207
-170.910	38.588	0.157	0.141
-169.896	800.000	-0.026	0.077
-168.881	-14.281	-0.216	0.140
-167.866	800.000	0.089	0.256
-166.852	115.191	-0.152	0.186
-165.837	-200.000	-0.033	-0.397
-164.823	-200.000	0.012	-0.087
-163.808	800.000	-0.081	0.325
-162.793	219.593	0.112	0.180
-161.779	754.700	-0.043	0.115
-160.764	38.783	-0.173	-0.154
-159.750	-57.945	0.055	-0.024
-158.735	-77.411	-0.132	-0.046
-157.720	364.197	0.038	0.076
-156.706	800.000	0.048	0.172
-155.691	-40.301	-0.089	-0.046
-154.677	-200.000	0.032	0.150
-153.662	40.280	-0.032	-0.029
-152.647	-200.000	0.009	0.116
-151.633	15.890	-0.065	0.051
-150.618	-200.000	0.040	0.472
-149.604	179.962	-0.189	0.277
-148.589	29.011	0.214	-0.182
-147.574	-50.684	-0.319	-0.150
-146.560	268.178	-0.064	0.113
-145.545	-103.343	0.132	-0.031
-144.531	-200.000	0.025	-0.209
-143.516	-4.629	0.134	-0.093
-142.502	-36.862	-0.182	0.098
-141.487	78.350	-0.107	0.114
-140.472	231.768	0.087	-0.143
-139.458	-200.000	-0.066	0.428
-138.443	66.356	0.151	-0.154
-137.429	-200.000	0.002	-0.251
-136.414	-128.387	0.227	0.032
-135.399	72.006	0.161	-0.168
-134.385	-107.056	-0.318	-0.070
-133.370	-148.139	-0.101	-0.008
-132.356	-200.000	0.015	0.185
-131.341	-200.000	-0.003	0.166
-130.326	-200.000	-0.019	0.086
-129.312	-97.456	0.223	0.058
-128.297	800.000	0.016	0.070
-127.283	-39.007	-0.129	0.068
-126.268	-44.439	-0.152	-0.076
-125.253	-37.580	-0.094	-0.050
-124.239	-200.000	-0.002	0.278
-123.224	37.483	0.112	0.099
-122.210	-200.000	0.025	0.160
-121.195	-200.000	-0.070	0.362
-120.180	-116.871	0.388	0.071
