DTS Sentinel unit serial number:	SN413079Multiplexer serial number:	ORYXHardware model number:	OX4-SRSoftware version number:	ORYX F/W v4.00 Oryx Data Collector v3.7.2.0data status	okinstallation	princeton_trtdifferential loss correction	single-endedforward channel	channel 4reverse channel	N/Adate	2019/09/17time	11:01:34forward acquisition time	60.00reverse acquisition time	0.00gamma	496.2192k internal	0.2309k external	0.2309temperature offset calibration	0.9978default loss term (dB/km)	0.3790temperature slope calibration	1.0000multiplexer offset coefficient	1.0000multiplexer slope coefficient	1.0000fibre end	0.00T internal ref (°C)	30.31T ext. ref 1 (°C)	0.19T ext. ref 2 (°C)	25.86length (m)	temperature (°C)	Stokes	anti-Stokes-747.200	-200.000	0.010	-0.187
-746.185	112.330	-0.066	0.081
-745.171	245.319	-0.039	0.067
-744.156	-200.000	0.132	0.659
-743.142	111.621	0.237	0.291
-742.127	511.293	-0.072	0.169
-741.112	582.395	0.036	-0.090
-740.098	-151.474	-0.293	-0.022
-739.083	-200.000	0.023	0.144
-738.069	-115.771	-0.365	0.069
-737.054	800.000	0.057	-0.204
-736.039	122.335	-0.114	0.144
-735.025	-173.777	0.574	-0.017
-734.010	405.191	-0.035	0.074
-732.996	-57.670	-0.199	-0.088
-731.981	-20.074	-0.153	0.096
-730.966	211.745	0.051	0.082
-729.952	-200.000	-0.057	0.373
-728.937	-18.628	0.133	-0.084
-727.923	800.000	-0.062	0.187
-726.908	-101.982	-0.634	-0.155
-725.894	620.529	0.093	-0.237
-724.879	-200.000	0.009	-0.470
-723.864	-200.000	0.080	-0.398
-722.850	800.000	-0.043	0.185
-721.835	-66.807	0.064	0.026
-720.821	800.000	-0.016	-0.051
-719.806	-200.000	-0.003	0.059
-718.791	9.564	0.061	-0.047
-717.777	-159.203	-0.239	0.014
-716.762	29.649	-0.306	-0.264
-715.748	18.085	-0.049	0.039
-714.733	172.110	0.055	0.081
-713.718	-137.532	0.235	-0.027
-712.704	-109.734	-0.030	-0.006
-711.689	96.956	-0.137	0.159
-710.675	327.110	-0.107	0.207
-709.660	19.474	-0.180	0.147
-708.645	800.000	-0.104	-0.307
-707.631	-60.368	0.195	-0.084
-706.616	-200.000	-0.015	0.226
-705.602	-127.980	0.300	0.044
-704.587	-70.227	-0.042	0.016
-703.572	-185.467	-0.124	-0.002
-702.558	158.601	0.076	0.107
-701.543	-20.338	0.098	-0.061
-700.529	-200.000	0.006	-0.311
-699.514	63.936	0.117	-0.119
-698.499	-56.275	-0.194	-0.088
-697.485	15.094	-0.153	-0.122
-696.470	-59.517	0.105	0.046
-695.456	15.448	0.203	0.162
-694.441	800.000	0.058	-0.228
-693.426	-33.613	0.275	0.154
-692.412	135.780	-0.086	0.114
-691.397	-125.026	0.301	-0.047
-690.383	800.000	-0.082	-0.274
-689.368	-200.000	0.008	0.173
-688.354	83.049	0.033	-0.037
-687.339	-106.307	-0.159	-0.036
-686.324	107.367	0.221	0.266
-685.310	88.513	-0.163	0.183
-684.295	-200.000	-0.025	-0.286
-683.281	-200.000	-0.019	-0.230
-682.266	261.523	0.215	-0.377
-681.251	-118.848	0.219	0.039
-680.237	800.000	-0.049	0.213
-679.222	55.330	0.049	-0.048
-678.208	262.511	0.133	0.234
-677.193	2.415	-0.235	0.173
-676.178	153.014	-0.038	-0.052
-675.164	-128.207	0.195	-0.028
-674.149	86.281	-0.148	0.165
-673.135	51.277	-0.107	-0.103
-672.120	-121.073	-0.202	-0.034
-671.105	453.267	0.046	0.103
-670.091	331.239	0.100	-0.194
-669.076	800.000	-0.150	-0.511
-668.062	294.114	0.025	0.046
-667.047	87.672	0.035	0.039
-666.032	-41.462	0.177	0.092
-665.018	73.883	0.261	-0.277
-664.003	6.171	-0.064	0.048
-662.989	-98.789	0.485	-0.125
-661.974	-200.000	0.012	0.145
-660.959	-98.232	-0.039	0.010
-659.945	-187.322	-0.175	0.002
-658.930	-200.000	-0.012	-0.408
-657.916	166.985	-0.120	-0.173
-656.901	63.146	-0.086	-0.087
-655.886	-30.336	0.111	0.064
-654.872	42.070	-0.270	0.248
-653.857	800.000	-0.035	0.145
-652.843	-48.750	0.203	0.099
-651.828	434.603	-0.145	0.320
-650.814	-200.000	-0.080	-0.411
-649.799	-17.151	-0.180	0.115
-648.784	-70.545	-0.260	0.100
-647.770	-200.000	-0.085	-0.384
-646.755	-200.000	0.042	0.233
-645.741	-102.150	0.299	0.073
-644.726	-200.000	0.026	-0.263
-643.711	233.457	-0.036	-0.060
-642.697	145.910	0.082	-0.111
-641.682	-80.179	0.105	-0.036
-640.668	-39.507	-0.165	-0.088
-639.653	-200.000	-0.000	0.039
-638.638	800.000	-0.041	0.170
-637.624	12.773	-0.213	-0.167
-636.609	-162.367	0.141	-0.007
-635.595	-42.537	-0.107	-0.055
-634.580	672.114	0.010	0.025
-633.565	-200.000	-0.052	0.391
-632.551	-51.837	-0.289	-0.136
-631.536	79.677	0.066	0.072
-630.522	-200.000	0.039	-0.198
-629.507	436.645	0.113	-0.249
-628.492	314.000	0.098	0.187
-627.478	-136.691	-0.164	-0.019
-626.463	800.000	0.078	0.300
-625.449	800.000	-0.040	-0.129
-624.434	70.213	0.165	0.173
-623.419	38.479	-0.177	-0.159
-622.405	398.361	0.074	0.157
-621.390	94.513	0.135	0.155
-620.376	-93.337	-0.255	0.071
-619.361	-111.482	-0.230	-0.047
-618.346	-149.146	0.080	-0.007
-617.332	-200.000	0.050	0.325
-616.317	800.000	0.034	0.105
-615.303	800.000	0.124	-0.349
-614.288	-174.315	0.157	-0.005
-613.273	426.656	0.102	-0.222
-612.259	184.553	0.153	-0.229
-611.244	-93.199	-0.186	0.052
-610.230	792.536	-0.091	-0.254
-609.215	-131.207	-0.200	0.027
-608.201	-12.015	0.144	-0.095
-607.186	-140.129	0.169	-0.018
-606.171	28.695	-0.126	-0.108
-605.157	24.773	-0.253	-0.211
-604.142	800.000	-0.011	-0.042
-603.128	75.174	-0.059	0.063
-602.113	-102.301	0.256	-0.062
-601.098	130.939	0.143	0.185
-600.084	-3.654	-0.178	0.125
-599.069	-200.000	0.041	0.206
-598.055	251.963	-0.041	0.070
-597.040	800.000	0.057	0.168
-596.025	250.856	0.110	0.189
-595.011	-41.616	-0.312	-0.162
-593.996	-150.397	-0.366	-0.028
-592.982	800.000	-0.062	0.188
-591.967	340.741	0.074	-0.146
-590.952	32.578	0.078	-0.068
-589.938	334.920	-0.140	0.274
-588.923	110.834	-0.100	-0.121
-587.909	66.386	-0.190	-0.195
-586.894	-200.000	-0.030	-0.205
-585.879	-147.749	-0.194	-0.016
-584.865	66.184	-0.169	-0.173
-583.850	306.222	-0.043	0.080
-582.836	158.934	0.193	0.271
-581.821	107.722	0.034	0.041
-580.806	465.107	0.103	-0.234
-579.792	-83.598	0.174	0.056
-578.777	-133.412	-0.099	-0.013
-577.763	99.654	0.159	0.186
-576.748	-161.581	-0.243	-0.013
-575.733	-108.273	0.097	-0.021
-574.719	-141.837	-0.198	-0.020
-573.704	169.452	0.080	-0.115
-572.690	124.520	-0.140	-0.178
-571.675	157.384	-0.103	-0.144
-570.661	-14.077	0.333	0.217
-569.646	800.000	-0.078	-0.308
-568.631	33.388	-0.184	-0.161
-567.617	-200.000	0.027	0.461
-566.602	200.437	0.124	-0.193
-565.588	-41.044	-0.327	0.170
-564.573	246.649	0.176	-0.300
-563.558	-155.936	-0.476	-0.031
-562.544	-106.881	-0.098	-0.022
-561.529	-76.098	-0.206	0.073
-560.515	-200.000	-0.017	-0.245
-559.500	-3.198	0.130	-0.091
-558.485	91.573	-0.156	0.177
-557.471	148.683	-0.088	0.121
-556.456	-182.359	-0.141	-0.003
-555.442	-170.623	0.076	-0.003
-554.427	-81.781	-0.101	0.034
-553.412	-64.221	-0.298	0.122
-552.398	0.811	-0.100	-0.072
-551.383	146.477	0.128	0.174
-550.369	-200.000	0.003	0.289
-549.354	-121.719	0.474	0.079
-548.339	199.413	-0.082	-0.127
-547.325	-200.000	-0.007	0.226
-546.310	145.870	0.134	-0.181
-545.296	-60.656	0.187	0.080
-544.281	800.000	0.066	0.184
-543.266	-141.722	-0.354	-0.036
-542.252	-4.771	0.173	0.121
-541.237	11.827	-0.061	-0.048
-540.223	-118.047	-0.272	0.049
-539.208	98.343	0.189	0.219
-538.193	-200.000	-0.003	0.085
-537.179	70.125	0.145	-0.150
-536.164	218.244	0.071	-0.115
-535.150	-143.875	-0.108	0.010
-534.135	147.881	0.038	-0.052
-533.121	58.129	0.365	0.360
-532.106	-24.760	-0.204	-0.122
-531.091	170.311	0.117	-0.169
-530.077	609.068	0.207	-0.520
-529.062	132.602	-0.089	0.115
-528.048	800.000	-0.062	-0.194
-527.033	-200.000	0.006	-0.232
-526.018	-200.000	-0.003	0.232
-525.004	-138.821	0.406	-0.045
-523.989	800.000	-0.042	-0.121
-522.975	-200.000	-0.076	-0.435
-521.960	-115.175	0.367	0.070
-520.945	288.668	0.148	-0.270
-519.931	187.368	0.074	0.111
-518.916	-52.847	-0.141	-0.066
-517.902	-200.000	-0.035	0.180
-516.887	-200.000	-0.027	0.202
-515.872	-114.234	0.208	0.040
-514.858	-93.335	0.322	0.090
-513.843	-91.808	0.042	-0.012
-512.829	417.680	-0.071	0.152
-511.814	-200.000	-0.030	-0.312
-510.799	-92.110	-0.120	-0.034
-509.785	179.913	0.209	0.309
-508.770	55.953	0.205	0.200
-507.756	-87.472	-0.160	0.049
-506.741	-87.531	0.154	0.047
-505.726	-12.358	0.297	0.195
-504.712	165.532	-0.133	-0.189
-503.697	-200.000	0.033	-0.317
-502.683	-200.000	-0.059	-0.374
-501.668	-103.283	0.214	0.051
-500.653	119.205	0.164	-0.205
-499.639	579.197	-0.020	-0.050
-498.624	622.932	-0.134	-0.340
-497.610	158.784	-0.069	0.097
-496.595	28.827	-0.107	-0.091
-495.581	6.978	0.120	0.090
-494.566	229.173	-0.056	0.092
-493.551	800.000	0.094	0.367
-492.537	146.306	0.251	-0.338
-491.522	800.000	-0.087	0.337
-490.508	-85.421	0.178	0.056
-489.493	553.003	0.198	0.480
-488.478	305.426	0.092	-0.172
-487.464	-146.294	0.073	0.006
-486.449	-200.000	-0.061	0.508
-485.435	-140.777	-0.417	0.043
-484.420	-200.000	-0.023	-0.131
-483.405	-169.295	0.235	-0.009
-482.391	-73.708	-0.147	0.054
-481.376	-102.762	0.007	0.002
-480.362	110.967	-0.059	0.071
-479.347	-91.324	0.495	-0.142
-478.332	129.159	0.230	-0.296
-477.318	-99.894	-0.099	0.025
-476.303	800.000	0.062	0.221
-475.289	131.361	-0.224	-0.289
-474.274	-62.155	-0.129	0.054
-473.259	800.000	0.016	-0.064
-472.245	56.362	-0.191	-0.186
-471.230	211.538	0.133	0.210
-470.216	188.404	-0.037	0.056
-469.201	-93.153	0.398	0.111
-468.186	800.000	0.094	-0.318
-467.172	445.178	0.061	-0.135
-466.157	-200.000	-0.020	0.287
-465.143	-161.090	0.121	-0.006
-464.128	42.569	0.235	-0.215
-463.113	-50.795	0.369	-0.174
-462.099	-200.000	-0.007	0.089
-461.084	35.808	0.274	0.242
-460.070	90.561	0.045	0.050
-459.055	248.274	-0.176	0.299
-458.040	-80.914	-0.352	0.117
-457.026	-36.126	-0.209	0.113
-456.011	-200.000	-0.232	-0.000
-454.997	36.630	0.133	0.118
-453.982	-130.835	-0.174	0.023
-452.968	-103.632	-0.339	-0.080
-451.953	-10.209	0.110	0.074
-450.938	-30.528	0.235	-0.134
-449.924	-113.726	-0.276	0.054
-448.909	-200.000	0.015	-0.130
-447.895	-137.833	0.249	0.028
-446.880	-146.210	-0.292	-0.026
-445.865	-172.886	0.309	0.010
-444.851	409.484	-0.134	0.284
-443.836	-145.489	-0.314	0.028
-442.822	-200.000	-0.032	-0.184
-441.807	-88.692	0.465	-0.139
-440.792	-2.497	-0.081	-0.057
-439.778	-200.000	-0.022	0.255
-438.763	-170.555	-0.080	-0.003
-437.749	-87.511	-0.360	-0.109
-436.734	55.127	-0.165	0.160
-435.719	-156.992	0.145	0.009
-434.705	174.757	-0.104	-0.151
-433.690	-171.383	0.075	0.003
-432.676	-118.092	0.455	-0.081
-431.661	-200.000	-0.033	0.383
-430.646	-200.000	0.067	0.434
-429.632	-89.677	0.412	0.121
-428.617	-67.279	-0.203	-0.080
-427.603	-51.292	-0.324	-0.152
-426.588	-200.000	0.030	-0.288
-425.573	-138.192	0.005	0.001
-424.559	-63.703	0.172	-0.071
-423.544	297.130	-0.070	0.129
-422.530	-200.000	0.055	0.249
-421.515	-200.000	0.001	-0.029
-420.500	116.023	0.136	-0.168
-419.486	277.869	0.126	0.225
-418.471	-200.000	0.046	-0.213
-417.457	-200.000	0.002	0.166
-416.442	-49.442	0.109	-0.052
-415.428	800.000	-0.053	-0.156
-414.413	-89.454	-0.117	-0.035
-413.398	-110.572	-0.355	0.074
-412.384	18.546	-0.061	-0.049
-411.369	-200.000	0.010	0.058
-410.355	-14.659	0.304	0.196
-409.340	-200.000	0.017	-0.120
-408.325	90.500	-0.239	-0.268
-407.311	518.793	0.167	-0.393
-406.296	-200.000	0.021	0.279
-405.282	-54.344	0.283	0.129
-404.267	84.774	0.182	0.200
-403.252	-123.219	0.175	-0.028
-402.238	649.466	-0.098	-0.250
-401.223	-88.030	-0.147	0.044
-400.209	464.564	0.157	0.352
-399.194	363.811	0.195	0.393
-398.179	749.162	-0.185	0.499
-397.165	38.839	0.076	-0.068
-396.150	335.993	-0.127	0.247
-395.136	15.002	0.171	-0.134
-394.121	800.000	0.007	-0.028
-393.106	52.706	-0.037	0.035
-392.092	-200.000	-0.069	0.327
-391.077	-12.939	0.142	0.093
-390.063	-28.411	-0.080	0.046
-389.048	800.000	-0.082	0.297
-388.033	35.934	0.316	0.279
-387.019	-200.000	0.033	0.166
-386.004	-53.796	-0.288	0.132
-384.990	1.341	-0.003	-0.003
-383.975	800.000	-0.079	-0.249
-382.960	-66.782	-0.340	-0.135
-381.946	15.817	-0.061	0.048
-380.931	-152.111	0.316	-0.023
-379.917	-2.265	-0.356	0.250
-378.902	-200.000	-0.029	-0.157
-377.888	-24.930	-0.144	0.086
-376.873	-173.437	0.084	0.003
-375.858	170.362	0.087	-0.125
-374.844	164.633	0.054	0.077
-373.829	-44.642	0.246	0.123
-372.815	-43.127	-0.277	0.140
-371.800	492.797	-0.130	0.298
-370.785	-90.622	0.134	0.039
-369.771	-41.201	0.151	0.078
-368.756	-200.000	0.036	-0.472
-367.742	-200.000	0.013	-0.316
-366.727	-200.000	-0.015	-0.151
-365.712	800.000	0.026	0.081
-364.698	-200.000	-0.042	0.204
-363.683	29.094	-0.062	-0.053
-362.669	-32.311	-0.331	-0.185
-361.654	-45.058	-0.146	0.073
-360.639	-103.946	-0.091	0.021
-359.625	-117.072	0.153	-0.028
-358.610	-104.881	-0.060	-0.014
-357.596	-94.569	-0.038	-0.010
-356.581	-75.630	0.292	-0.104
-355.566	-200.000	0.061	0.326
-354.552	-64.145	-0.132	0.054
-353.537	-91.572	-0.033	-0.009
-352.523	163.393	-0.081	0.115
-351.508	800.000	-0.052	0.194
-350.493	-26.438	0.036	0.021
-349.479	-178.485	-0.142	0.003
-348.464	42.237	0.282	-0.257
-347.450	-200.000	-0.006	0.032
-346.435	110.582	0.199	0.240
-345.420	27.041	0.184	0.154
-344.406	730.789	0.090	0.240
-343.391	-14.451	0.079	0.051
-342.377	800.000	-0.056	-0.184
-341.362	-122.384	-0.309	-0.050
-340.348	38.097	-0.005	0.004
-339.333	-145.630	0.306	-0.027
-338.318	-30.232	0.386	-0.220
-337.304	72.877	-0.025	-0.026
-336.289	46.586	0.244	-0.227
-335.275	-0.239	-0.232	-0.165
-334.260	481.385	-0.057	-0.128
-333.245	-56.983	-0.307	-0.135
-332.231	-121.733	0.268	-0.044
-331.216	800.000	0.029	-0.122
-330.202	-145.662	0.139	-0.012
-329.187	98.462	-0.217	0.250
-328.172	70.989	0.168	-0.174
-327.158	294.751	-0.002	0.004
-326.143	4.398	-0.262	-0.192
-325.129	714.023	-0.068	-0.180
-324.114	-146.886	0.488	0.042
-323.099	-200.000	0.026	-0.159
-322.085	-64.158	-0.363	-0.148
-321.070	-110.403	-0.211	-0.044
-320.056	800.000	0.074	0.224
-319.041	-20.126	-0.200	-0.123
-318.026	36.694	-0.138	0.122
-317.012	-48.280	-0.187	-0.090
-315.997	490.681	0.124	-0.284
-314.983	85.509	0.082	-0.090
-313.968	192.943	0.098	0.148
-312.953	325.225	0.129	-0.247
-311.939	-200.000	-0.014	0.189
-310.924	-200.000	-0.004	0.115
-309.910	555.061	0.088	-0.211
-308.895	449.775	0.073	-0.160
-307.880	3.196	-0.110	0.080
-306.866	-68.957	-0.398	-0.153
-305.851	-130.678	-0.173	-0.023
-304.837	-200.000	0.009	-0.155
-303.822	-32.351	0.048	-0.027
-302.807	225.680	0.033	0.054
-301.793	266.117	-0.036	0.063
-300.778	200.179	-0.121	-0.185
-299.764	-37.534	-0.245	-0.130
-298.749	19.837	0.347	-0.279
-297.735	19.975	-0.196	-0.158
-296.720	-200.000	0.103	-0.478
-295.705	-200.000	-0.024	-0.211
-294.691	-200.000	0.064	0.353
-293.676	-200.000	0.017	-0.168
-292.662	800.000	-0.055	-0.226
-291.647	-40.599	-0.111	0.057
-290.632	-162.380	-0.419	0.021
-289.618	-200.000	0.000	-0.308
-288.603	-75.493	0.164	-0.058
-287.589	38.893	0.103	-0.092
-286.574	231.987	0.138	0.226
-285.559	112.077	0.203	0.244
-284.545	800.000	-0.047	0.131
-283.530	-200.000	-0.020	-0.245
-282.516	66.674	-0.097	0.098
-281.501	-151.901	-0.349	-0.025
-280.486	56.076	0.178	-0.172
-279.472	-12.119	0.092	-0.060
-278.457	-87.081	-0.205	0.062
-277.443	-37.993	-0.210	0.111
-276.428	800.000	0.034	-0.146
-275.413	-92.978	-0.326	0.091
-274.399	800.000	0.067	0.217
-273.384	115.358	0.275	-0.335
-272.370	-127.660	0.301	0.043
-271.355	800.000	-0.029	-0.099
-270.340	16.378	-0.020	0.015
-269.326	-123.934	-0.145	0.023
-268.311	-85.877	-0.217	-0.067
-267.297	-92.713	-0.088	0.025
-266.282	3.621	-0.049	-0.035
-265.267	-200.000	-0.081	0.367
-264.253	28.877	0.275	0.232
-263.238	-39.938	-0.235	0.122
-262.224	-200.000	-0.004	-0.078
-261.209	148.222	0.135	0.182
-260.195	-102.218	0.204	0.049
-259.180	204.746	0.242	0.374
-258.165	800.000	-0.104	-0.335
-257.151	800.000	0.050	0.176
-256.136	-11.607	0.254	0.166
-255.122	369.315	0.061	0.122
-254.107	531.612	0.061	-0.144
-253.092	655.057	0.020	-0.050
-252.078	105.615	-0.034	-0.040
-251.063	-170.616	-0.068	-0.002
-250.049	65.435	0.231	-0.233
-249.034	2.524	-0.101	0.073
-248.019	-200.000	-0.034	0.329
-247.005	-80.288	0.206	-0.068
-245.990	333.852	-0.123	-0.236
-244.976	-5.142	0.258	-0.177
-243.961	-200.000	0.013	-0.091
-242.946	27.343	0.089	0.074
-241.932	-88.777	-0.144	-0.043
-240.917	-200.000	-0.026	0.292
-239.903	685.148	0.103	-0.267
-238.888	-200.000	-0.009	-0.130
-237.873	-57.398	0.037	-0.016
-236.859	-200.000	0.013	-0.073
-235.844	-200.000	-0.013	0.094
-234.830	-200.000	-0.050	-0.263
-233.815	241.410	-0.051	-0.084
-232.800	337.558	-0.035	0.068
-231.786	-200.000	0.010	-0.343
-230.771	-55.002	-0.271	0.121
-229.757	44.346	0.038	-0.035
-228.742	800.000	-0.014	-0.055
-227.727	441.908	-0.053	0.116
-226.713	85.085	0.227	0.248
-225.698	722.451	-0.132	-0.349
-224.684	-200.000	0.034	-0.195
-223.669	-48.017	0.160	0.077
-222.655	-63.030	0.080	0.033
-221.640	-141.632	0.129	0.013
-220.625	-162.472	0.186	-0.009
-219.611	-200.000	0.057	0.282
-218.596	-20.332	-0.295	0.181
-217.582	-61.044	0.175	-0.073
-216.567	476.986	-0.031	0.071
-215.552	78.246	0.091	-0.096
-214.538	73.270	-0.186	-0.194
-213.523	-77.741	0.408	0.140
-212.509	35.881	0.086	-0.075
-211.494	597.069	-0.106	-0.262
-210.479	-104.325	-0.233	-0.054
-209.465	107.090	0.113	0.134
-208.450	49.330	-0.190	0.178
-207.436	-51.857	0.146	-0.068
-206.421	-126.229	0.132	-0.020
-205.406	-200.000	0.092	0.420
-204.392	189.124	0.070	-0.105
-203.377	-134.514	-0.058	-0.007
-202.363	-91.498	0.134	-0.038
-201.348	-96.202	-0.094	0.025
-200.333	-200.000	-0.015	-0.238
-199.319	-79.058	-0.402	0.136
-198.304	129.580	-0.093	0.118
-197.290	-193.608	-0.386	0.003
-196.275	800.000	-0.052	0.173
-195.260	800.000	-0.093	0.311
-194.246	186.452	-0.148	-0.219
-193.231	-87.413	-0.311	0.094
-192.217	-87.921	-0.198	0.059
-191.202	99.909	-0.477	0.549
-190.187	-24.459	0.310	0.183
-189.173	-200.000	-0.013	-0.168
-188.158	-163.307	-0.280	-0.013
-187.144	336.453	-0.059	-0.114
-186.129	-177.774	0.142	-0.003
-185.114	348.417	-0.134	-0.262
-184.100	8.314	-0.270	0.202
-183.085	800.000	0.100	-0.310
-182.071	237.626	-0.129	-0.213
-181.056	800.000	0.052	-0.209
-180.042	3.495	-0.050	-0.036
-179.027	144.634	0.195	-0.260
-178.012	-73.739	0.043	-0.015
-176.998	-200.000	-0.014	-0.143
-175.983	-74.162	0.146	0.052
-174.969	-101.976	0.342	0.082
-173.954	291.670	-0.067	-0.120
-172.939	22.156	0.324	0.263
-171.925	28.548	-0.305	0.256
-170.910	39.705	0.072	-0.064
-169.896	-69.095	0.172	0.066
-168.881	-134.270	0.310	-0.038
-167.866	511.842	0.065	-0.150
-166.852	-200.000	-0.065	0.326
-165.837	290.745	-0.282	-0.510
-164.823	800.000	-0.026	0.104
-163.808	-162.019	0.210	0.011
-162.793	774.696	-0.089	-0.240
-161.779	25.088	-0.220	0.182
-160.764	-46.147	-0.369	0.180
-159.750	-200.000	0.039	-0.292
-158.735	90.123	0.070	-0.078
-157.720	165.276	-0.139	0.194
-156.706	-17.160	0.034	-0.021
-155.691	443.161	0.104	-0.225
-154.677	-34.518	0.228	0.124
-153.662	800.000	-0.128	0.381
-152.647	158.603	0.050	0.069
-151.633	91.434	0.079	0.088
-150.618	135.056	0.261	0.337
-149.604	-119.645	-0.304	0.052
-148.589	-186.698	-0.034	0.000
-147.574	-29.667	-0.122	-0.069
-146.560	49.837	-0.040	-0.038
-145.545	434.297	-0.221	-0.476
-144.531	-172.531	-0.188	-0.006
-143.516	-156.487	-0.101	-0.006
-142.502	39.086	0.140	0.124
-141.487	-76.804	0.254	0.088
-140.472	-49.909	0.128	0.060
-139.458	-44.316	-0.227	-0.113
-138.443	210.842	0.089	0.139
-137.429	198.369	0.083	0.125
-136.414	800.000	0.089	0.257
-135.399	-142.714	0.075	-0.007
-134.385	800.000	-0.056	0.227
-133.370	-63.647	0.008	-0.003
-132.356	-26.931	0.197	-0.114
-131.341	800.000	-0.172	0.515
-130.326	-109.160	-0.174	0.037
-129.312	-200.000	-0.009	-0.063
-128.297	371.388	-0.042	0.085
-127.283	-200.000	-0.025	-0.246
-126.268	-200.000	-0.001	0.145
-125.253	800.000	-0.086	0.349
-124.239	-130.565	-0.208	-0.028
-123.224	-73.755	-0.086	0.031
-122.210	-164.750	-0.112	-0.005
