DTS Sentinel unit serial number:	SN413079Multiplexer serial number:	ORYXHardware model number:	OX4-SRSoftware version number:	ORYX F/W v4.00 Oryx Data Collector v3.7.2.0data status	okinstallation	princeton_trtdifferential loss correction	single-endedforward channel	channel 4reverse channel	N/Adate	2019/09/18time	23:57:34forward acquisition time	60.00reverse acquisition time	0.00gamma	496.2192k internal	0.2336k external	0.2336temperature offset calibration	1.0029default loss term (dB/km)	0.3790temperature slope calibration	1.0000multiplexer offset coefficient	1.0000multiplexer slope coefficient	1.0000fibre end	0.00T internal ref (°C)	23.14T ext. ref 1 (°C)	0.76T ext. ref 2 (°C)	16.04length (m)	temperature (°C)	Stokes	anti-Stokes-747.200	-22.602	0.326	0.198
-746.185	-42.626	-0.282	0.144
-745.171	-76.073	0.182	0.064
-744.156	39.170	0.082	0.074
-743.142	-200.000	-0.029	0.280
-742.127	405.140	-0.037	0.079
-741.112	115.151	-0.076	0.093
-740.098	800.000	0.110	0.320
-739.083	-72.179	0.248	0.092
-738.069	-200.000	-0.012	-0.093
-737.054	211.509	0.154	-0.243
-736.039	800.000	-0.108	-0.348
-735.025	-134.677	0.251	0.031
-734.010	-108.753	-0.450	-0.097
-732.996	108.429	0.037	0.045
-731.981	-79.823	-0.298	-0.101
-730.966	-6.864	-0.188	0.128
-729.952	800.000	-0.072	0.298
-728.937	-200.000	0.005	0.148
-727.923	548.035	-0.127	0.304
-726.908	-9.914	-0.115	0.076
-725.894	-200.000	-0.007	-0.214
-724.879	39.766	-0.187	-0.169
-723.864	-200.000	0.068	0.395
-722.850	139.865	0.152	0.201
-721.835	190.584	-0.166	-0.251
-720.821	-11.958	-0.174	0.115
-719.806	-98.908	0.177	-0.045
-718.791	148.461	-0.196	-0.266
-717.777	-200.000	0.026	-0.119
-716.762	38.820	-0.094	0.084
-715.748	-49.479	-0.117	-0.056
-714.733	-176.523	0.051	0.001
-713.718	-51.246	-0.311	0.146
-712.704	-107.578	-0.268	0.059
-711.689	-110.564	-0.301	-0.063
-710.675	-200.000	0.009	0.104
-709.660	86.027	-0.141	-0.155
-708.645	277.929	0.083	-0.148
-707.631	-159.844	-0.094	0.005
-706.616	-200.000	0.003	-0.286
-705.602	492.574	-0.079	-0.181
-704.587	126.885	-0.068	-0.087
-703.572	-200.000	0.001	-0.081
-702.558	619.306	0.080	-0.202
-701.543	548.941	-0.008	-0.019
-700.529	143.305	-0.180	-0.240
-699.514	-200.000	-0.024	-0.232
-698.499	800.000	0.025	-0.094
-697.485	598.912	-0.074	0.185
-696.470	-200.000	0.055	0.270
-695.456	100.574	0.083	-0.096
-694.441	67.739	0.287	0.293
-693.426	56.373	-0.117	-0.114
-692.412	158.338	-0.134	-0.186
-691.397	171.103	0.128	0.184
-690.383	-156.497	0.311	-0.019
-689.368	98.341	-0.107	-0.123
-688.354	332.523	-0.057	-0.110
-687.339	477.248	-0.013	0.029
-686.324	-126.687	-0.242	0.036
-685.310	-98.570	0.043	0.011
-684.295	-111.766	-0.192	-0.039
-683.281	-76.450	0.324	0.114
-682.266	558.400	-0.132	0.318
-681.251	800.000	0.005	0.015
-680.237	-79.190	0.144	-0.049
-679.222	40.851	0.207	0.187
-678.208	-100.735	0.236	0.058
-677.193	-136.916	-0.235	0.027
-676.178	-200.000	-0.031	0.221
-675.164	18.222	-0.079	-0.063
-674.149	-200.000	-0.020	-0.131
-673.135	327.861	0.074	0.142
-672.120	-77.975	-0.137	0.047
-671.105	800.000	-0.057	0.200
-670.091	92.723	-0.079	0.089
-669.076	-200.000	-0.033	-0.212
-668.062	-129.692	0.185	0.025
-667.047	148.924	0.163	-0.220
-666.032	-77.112	0.051	-0.018
-665.018	584.257	0.110	0.270
-664.003	-15.251	-0.087	0.055
-662.989	49.304	0.191	0.180
-661.974	305.091	-0.225	0.419
-660.959	2.215	-0.075	0.054
-659.945	-200.000	-0.103	-0.552
-658.930	188.595	-0.134	0.200
-657.916	-16.496	-0.191	0.121
-656.901	130.009	0.082	0.105
-655.886	82.856	0.165	-0.180
-654.872	-88.014	-0.131	0.039
-653.857	800.000	-0.077	0.237
-652.843	381.842	-0.019	0.040
-651.828	84.303	-0.013	-0.014
-650.814	-200.000	0.019	0.177
-649.799	-20.096	0.226	0.139
-648.784	-27.460	0.219	-0.127
-647.770	800.000	0.043	0.141
-646.755	304.505	-0.125	-0.232
-645.741	70.311	0.106	-0.110
-644.726	-59.089	-0.165	-0.071
-643.711	-18.123	-0.155	0.097
-642.697	83.010	-0.235	-0.256
-641.682	-69.659	0.260	0.099
-640.668	800.000	-0.073	-0.295
-639.653	-200.000	-0.033	0.355
-638.638	-30.891	-0.064	-0.036
-637.624	-200.000	0.021	0.297
-636.609	-36.739	-0.197	0.106
-635.595	800.000	0.042	0.141
-634.580	124.658	0.046	0.057
-633.565	127.168	-0.049	-0.062
-632.551	-62.850	0.325	-0.134
-631.536	-9.264	-0.201	0.134
-630.522	800.000	0.052	0.173
-629.507	65.275	-0.123	-0.125
-628.492	-56.983	0.253	-0.111
-627.478	-129.506	-0.104	-0.014
-626.463	800.000	0.053	-0.220
-625.449	-107.151	-0.367	-0.081
-624.434	148.011	0.171	0.230
-623.419	-197.371	0.190	-0.001
-622.405	-78.663	0.163	0.056
-621.390	144.579	-0.100	-0.134
-620.376	414.437	0.066	0.141
-619.361	243.657	0.071	-0.120
-618.346	108.526	-0.245	0.293
-617.332	747.132	0.048	-0.130
-616.317	-148.758	0.254	-0.021
-615.303	-80.182	-0.086	-0.029
-614.288	47.873	-0.057	-0.053
-613.273	-3.339	0.293	0.204
-612.259	-63.184	-0.181	-0.074
-611.244	-90.591	-0.109	-0.031
-610.230	96.154	-0.066	-0.076
-609.215	31.851	-0.246	0.212
-608.201	-90.526	-0.167	0.048
-607.186	-30.961	-0.140	0.079
-606.171	132.801	0.022	0.029
-605.157	204.816	-0.132	-0.204
-604.142	655.894	-0.066	0.170
-603.128	-200.000	-0.013	0.209
-602.113	129.905	-0.077	0.099
-601.098	217.930	-0.384	-0.612
-600.084	621.253	0.072	-0.182
-599.069	129.816	-0.169	0.216
-598.055	-29.067	0.310	-0.178
-597.040	-108.446	-0.063	-0.014
-596.025	-124.445	-0.345	-0.054
-595.011	-200.000	0.013	0.300
-593.996	800.000	0.054	0.186
-592.982	347.579	-0.079	-0.156
-591.967	377.823	0.116	0.236
-590.952	-38.591	-0.108	0.057
-589.938	-85.214	-0.298	-0.093
-588.923	52.745	-0.348	-0.332
-587.909	-167.258	-0.110	-0.004
-586.894	-37.532	0.119	0.063
-585.879	-54.490	0.118	0.053
-584.865	154.156	-0.155	-0.213
-583.850	-57.755	-0.040	0.018
-582.836	-54.776	0.249	-0.112
-581.821	-200.000	-0.027	0.395
-580.806	-165.354	0.288	0.013
-579.792	402.018	0.071	0.148
-578.777	630.138	-0.041	0.104
-577.763	-18.464	-0.089	-0.056
-576.748	4.942	0.213	0.156
-575.733	-51.629	0.026	0.012
-574.719	116.109	-0.074	0.091
-573.704	800.000	0.063	-0.183
-572.690	-200.000	-0.050	-0.282
-571.675	63.697	-0.388	-0.388
-570.661	9.008	-0.026	0.020
-569.646	174.150	-0.101	0.145
-568.631	215.552	0.092	0.145
-567.617	-200.000	0.017	0.100
-566.602	241.713	-0.166	0.276
-565.588	-183.226	0.263	0.005
-564.573	-80.099	0.100	0.033
-563.558	391.809	-0.144	0.297
-562.544	100.991	0.251	0.292
-561.529	4.920	-0.144	-0.106
-560.515	194.034	-0.066	0.100
-559.500	-103.062	-0.217	-0.051
-558.485	112.544	0.280	-0.338
-557.471	-200.000	-0.014	-0.178
-556.456	-116.790	0.221	-0.040
-555.442	-200.000	0.028	0.165
-554.427	-107.073	0.354	-0.078
-553.412	29.815	-0.249	-0.211
-552.398	-94.145	0.139	0.038
-551.383	800.000	0.078	-0.259
-550.369	-74.623	-0.143	0.051
-549.354	-200.000	0.017	0.505
-548.339	-3.458	0.239	-0.166
-547.325	746.137	-0.056	0.151
-546.310	106.905	0.260	0.307
-545.296	4.796	0.301	0.220
-544.281	478.393	-0.055	-0.123
-543.266	-117.150	-0.059	-0.011
-542.252	287.371	-0.015	-0.027
-541.237	2.464	-0.193	0.139
-540.223	-200.000	-0.018	0.362
-539.208	-200.000	-0.031	-0.173
-538.193	800.000	0.044	0.124
-537.179	-102.004	-0.222	0.053
-536.164	9.497	-0.332	-0.251
-535.150	-9.404	0.055	0.036
-534.135	-200.000	-0.046	-0.320
-533.121	112.471	0.094	0.113
-532.106	156.424	0.150	-0.206
-531.091	14.749	-0.177	-0.138
-530.077	-100.545	-0.311	0.077
-529.062	-200.000	0.004	-0.160
-528.048	800.000	0.012	0.045
-527.033	-119.825	0.077	0.013
-526.018	-200.000	-0.004	0.200
-525.004	-129.690	0.228	-0.031
-523.989	747.164	0.047	-0.125
-522.975	211.921	-0.174	-0.273
-521.960	342.831	-0.125	-0.243
-520.945	-28.873	0.135	-0.077
-519.931	-133.881	-0.191	-0.024
-518.916	-200.000	0.043	0.196
-517.902	-28.953	-0.162	-0.092
-516.887	-133.559	0.187	-0.023
-515.872	-166.708	0.086	-0.004
-514.858	800.000	-0.120	-0.416
-513.843	-200.000	-0.024	0.186
-512.829	-200.000	0.010	0.284
-511.814	-83.235	0.283	0.091
-510.799	504.591	-0.133	-0.306
-509.785	-200.000	-0.016	-0.074
-508.770	214.715	-0.091	0.143
-507.756	-162.080	-0.181	-0.009
-506.741	152.585	-0.169	0.229
-505.726	-86.760	-0.161	0.049
-504.712	-22.391	0.103	0.062
-503.697	-154.953	0.396	-0.026
-502.683	-143.506	-0.125	0.012
-501.668	-180.426	-0.201	0.004
-500.653	44.033	-0.147	0.134
-499.639	-200.000	0.002	0.057
-498.624	-200.000	-0.006	-0.069
-497.610	800.000	0.085	-0.283
-496.595	588.817	-0.129	-0.315
-495.581	-94.908	-0.179	0.048
-494.566	-200.000	0.002	0.050
-493.551	83.197	0.102	0.111
-492.537	41.568	0.282	-0.254
-491.522	-6.469	0.375	-0.254
-490.508	-82.363	-0.067	-0.022
-489.493	86.935	-0.168	0.184
-488.478	8.037	-0.414	-0.309
-487.464	-146.776	0.079	-0.007
-486.449	800.000	-0.076	-0.295
-485.435	-200.000	-0.051	0.240
-484.420	23.102	0.195	0.159
-483.405	181.246	0.088	-0.129
-482.391	-153.276	0.062	-0.004
-481.376	800.000	0.051	-0.184
-480.362	181.670	-0.169	0.247
-479.347	-80.937	-0.341	-0.112
-478.332	800.000	-0.029	0.082
-477.318	82.380	0.183	0.198
-476.303	151.198	-0.026	-0.036
-475.289	-88.225	-0.081	-0.024
-474.274	-9.318	0.118	0.079
-473.259	-200.000	-0.029	-0.172
-472.245	212.244	0.057	-0.090
-471.230	-200.000	-0.053	-0.416
-470.216	566.402	0.112	-0.270
-469.201	-54.320	0.152	0.069
-468.186	-128.868	0.066	0.009
-467.172	-72.530	0.383	0.140
-466.157	233.298	-0.092	-0.151
-465.143	-92.703	-0.335	0.093
-464.128	208.786	-0.110	-0.171
-463.113	24.232	-0.144	0.118
-462.099	-200.000	0.014	-0.221
-461.084	800.000	-0.069	-0.189
-460.070	-180.390	-0.078	-0.002
-459.055	800.000	-0.038	-0.112
-458.040	142.314	-0.268	-0.354
-457.026	800.000	0.074	-0.229
-456.011	-40.925	-0.392	-0.201
-454.997	237.417	0.319	-0.525
-453.982	800.000	-0.150	-0.546
-452.968	-200.000	0.055	-0.273
-451.953	227.131	0.120	0.194
-450.938	395.846	-0.027	-0.056
-449.924	-74.429	0.151	0.054
-448.909	-37.569	0.091	0.048
-447.895	-96.721	0.176	-0.046
-446.880	-2.826	0.201	-0.139
-445.865	344.567	0.077	-0.150
-444.851	-139.385	-0.259	-0.028
-443.836	-153.158	0.345	-0.024
-442.822	-51.871	0.273	0.126
-441.807	-67.588	-0.152	0.059
-440.792	348.144	0.092	0.180
-439.778	-39.218	-0.134	-0.070
-438.763	800.000	0.103	0.440
-437.749	-200.000	-0.002	-0.059
-436.734	800.000	0.117	0.346
-435.719	597.176	-0.084	-0.205
-434.705	25.962	-0.052	-0.043
-433.690	-81.802	0.184	-0.060
-432.676	-120.367	-0.279	-0.047
-431.661	800.000	0.074	-0.246
-430.646	800.000	-0.081	-0.227
-429.632	-86.004	-0.312	-0.096
-428.617	-200.000	0.027	0.168
-427.603	-200.000	-0.004	0.251
-426.588	-200.000	0.024	0.189
-425.573	-20.808	0.148	-0.090
-424.559	69.723	-0.262	-0.268
-423.544	-48.238	-0.063	0.030
-422.530	-200.000	0.013	-0.287
-421.515	-184.505	0.047	0.001
-420.500	242.160	0.154	-0.256
-419.486	517.699	-0.031	0.072
-418.471	-84.196	-0.226	0.071
-417.457	387.789	-0.171	0.351
-416.442	609.464	0.068	-0.168
-415.428	64.475	-0.047	0.047
-414.413	800.000	0.099	0.272
-413.398	151.605	0.134	-0.181
-412.384	-1.425	-0.104	-0.073
-411.369	-72.126	0.420	-0.155
-410.355	51.986	-0.204	-0.192
-409.340	-4.679	-0.179	-0.123
-408.325	-9.589	0.371	-0.245
-407.311	-102.770	-0.077	0.018
-406.296	-128.255	-0.073	0.010
-405.282	41.924	0.124	0.111
-404.267	-161.998	-0.214	-0.011
-403.252	260.533	-0.173	-0.297
-402.238	141.286	0.163	0.214
-401.223	-166.672	-0.061	-0.003
-400.209	-129.059	0.308	-0.043
-399.194	-200.000	0.012	0.106
-398.179	150.873	0.116	0.156
-397.165	-141.391	0.543	-0.055
-396.150	393.663	0.202	0.417
-395.136	-37.381	0.122	0.064
-394.121	338.197	-0.155	0.299
-393.106	-97.143	-0.184	0.048
-392.092	11.333	0.148	0.112
-391.077	-34.994	-0.055	0.030
-390.063	-53.890	-0.372	0.168
-389.048	-155.565	0.246	-0.016
-388.033	-83.487	0.155	0.049
-387.019	-147.183	-0.120	0.010
-386.004	532.520	-0.060	-0.141
-384.990	-200.000	0.006	0.147
-383.975	245.923	0.114	0.190
-382.960	-200.000	-0.024	-0.119
-381.946	250.653	0.133	-0.224
-380.931	16.492	0.200	0.156
-379.917	-200.000	0.000	-0.028
-378.902	136.580	0.176	0.227
-377.888	800.000	-0.063	-0.202
-376.873	-96.013	0.199	0.052
-375.858	9.954	0.184	0.138
-374.844	-91.401	0.114	-0.032
-373.829	-200.000	0.045	0.246
-372.815	-47.285	0.420	0.203
-371.800	-139.135	-0.437	0.047
-370.785	161.429	0.024	-0.033
-369.771	-46.283	-0.221	0.108
-368.756	800.000	-0.096	0.311
-367.742	-126.304	0.087	-0.013
-366.727	-55.542	-0.183	0.081
-365.712	800.000	-0.070	0.199
-364.698	-0.296	-0.168	-0.118
-363.683	56.724	-0.128	-0.124
-362.669	92.506	0.161	0.179
-361.654	-200.000	0.010	0.249
-360.639	-200.000	-0.088	-0.000
-359.625	-38.749	0.149	-0.078
-358.610	-147.644	0.175	-0.015
-357.596	12.222	0.313	0.239
-356.581	18.588	0.223	0.176
-355.566	-112.803	0.097	0.019
-354.552	256.252	0.103	-0.175
-353.537	37.809	-0.096	-0.085
-352.523	-200.000	0.007	-0.329
-351.508	-117.802	-0.154	-0.027
-350.493	23.157	0.136	-0.110
-349.479	-153.201	-0.345	-0.024
-348.464	342.315	0.055	-0.106
-347.450	81.890	0.216	-0.231
-346.435	-120.161	0.360	0.061
-345.420	-200.000	-0.025	0.168
-344.406	-200.000	-0.017	-0.187
-343.391	-163.202	0.187	-0.009
-342.377	-81.402	0.269	-0.087
-341.362	95.597	0.229	-0.258
-340.348	-124.170	0.283	0.044
-339.333	-4.028	0.219	-0.150
-338.318	-200.000	0.020	-0.180
-337.304	663.317	0.028	-0.072
-336.289	62.544	-0.125	-0.123
-335.275	-200.000	0.046	0.245
-334.260	-200.000	-0.008	0.119
-333.245	-65.297	-0.281	0.112
-332.231	800.000	0.062	0.182
-331.216	800.000	0.070	-0.212
-330.202	-81.839	-0.362	-0.117
-329.187	-200.000	0.013	-0.535
-328.172	171.641	-0.152	0.216
-327.158	-106.310	-0.154	0.034
-326.143	-44.822	0.435	0.214
-325.129	-66.023	-0.330	0.130
-324.114	-200.000	-0.016	-0.287
-323.099	-113.231	-0.244	0.047
-322.085	82.549	-0.232	0.249
-321.070	-158.834	0.316	-0.018
-320.056	-52.352	-0.204	-0.093
-319.041	114.364	0.080	-0.096
-318.026	-16.791	-0.300	0.187
-317.012	800.000	0.016	0.056
-315.997	-85.481	-0.201	0.062
-314.983	515.776	-0.162	-0.375
-313.968	-49.880	0.137	-0.064
-312.953	-39.061	-0.279	0.145
-311.939	513.070	-0.140	-0.322
-310.924	-200.000	0.005	-0.140
-309.910	-200.000	-0.028	-0.153
-308.895	-137.107	-0.075	-0.008
-307.880	-200.000	-0.051	0.293
-306.866	-32.726	0.251	-0.138
-305.851	110.438	-0.047	0.056
-304.837	-93.949	-0.213	0.058
-303.822	-45.559	-0.195	-0.095
-302.807	-100.347	0.130	0.032
-301.793	-94.167	-0.102	-0.028
-300.778	-200.000	-0.050	0.427
-299.764	-46.360	-0.013	-0.006
-298.749	800.000	0.044	0.166
-297.735	800.000	-0.085	0.256
-296.720	800.000	-0.023	-0.070
-295.705	306.345	0.301	-0.552
-294.691	-109.377	0.224	-0.047
-293.676	89.613	-0.219	0.241
-292.662	161.142	0.223	-0.307
-291.647	-200.000	0.047	0.311
-290.632	256.774	-0.108	0.183
-289.618	800.000	0.088	-0.291
-288.603	522.334	-0.025	-0.058
-287.589	-18.716	-0.308	-0.190
-286.574	43.375	0.281	-0.253
-285.559	21.220	-0.232	0.186
-284.545	142.606	0.162	-0.212
-283.530	405.818	-0.064	-0.134
-282.516	208.678	0.069	0.106
-281.501	-200.000	0.005	-0.043
-280.486	15.068	-0.358	-0.276
-279.472	-11.175	0.397	0.258
-278.457	715.640	0.080	0.209
-277.443	226.101	0.128	-0.205
-276.428	-200.000	0.003	-0.269
-275.413	-133.541	0.317	0.039
-274.399	-200.000	-0.079	0.414
-273.384	-200.000	0.034	-0.371
-272.370	-68.342	0.335	0.128
-271.355	-200.000	-0.056	0.279
-270.340	39.181	0.078	-0.069
-269.326	800.000	-0.025	-0.080
-268.311	750.246	0.131	-0.348
-267.297	72.647	-0.175	-0.180
-266.282	-35.763	0.308	0.164
-265.267	90.841	-0.137	0.151
-264.253	-200.000	-0.007	0.237
-263.238	800.000	0.050	0.176
-262.224	-183.424	-0.052	-0.001
-261.209	-111.470	0.293	0.059
-260.195	-29.974	-0.381	-0.214
-259.180	-20.943	-0.143	-0.087
-258.165	1.121	-0.209	-0.148
-257.151	57.928	-0.189	0.182
-256.136	-200.000	0.035	0.155
-255.122	11.979	0.058	0.044
-254.107	-59.191	-0.275	-0.117
-253.092	800.000	0.085	0.262
-252.078	-151.893	0.123	0.009
-251.063	-12.300	-0.081	-0.052
-250.049	76.999	-0.219	0.229
-249.034	48.046	0.104	-0.096
-248.019	41.480	-0.274	-0.244
-247.005	-89.801	-0.265	-0.076
-245.990	-43.731	0.077	-0.038
-244.976	61.266	-0.147	0.144
-243.961	-60.738	-0.021	0.009
-242.946	24.271	0.141	0.115
-241.932	-200.000	-0.083	0.393
-240.917	-200.000	0.036	0.190
-239.903	-81.222	-0.253	0.082
-238.888	-8.689	0.098	0.064
-237.873	35.133	0.128	-0.111
-236.859	-200.000	-0.024	-0.378
-235.844	292.929	-0.078	0.140
-234.830	-119.504	-0.198	0.034
-233.815	-44.183	-0.216	0.107
-232.800	-35.415	-0.192	-0.103
-231.786	380.121	-0.076	-0.154
-230.771	-120.069	-0.153	0.026
-229.757	-200.000	0.001	0.481
-228.742	346.933	-0.070	0.136
-227.727	17.814	0.174	-0.136
-226.713	-19.084	0.053	-0.033
-225.698	18.826	-0.074	0.058
-224.684	-200.000	0.046	0.335
-223.669	-9.409	0.233	0.153
-222.655	325.556	0.089	0.168
-221.640	229.308	0.071	-0.115
-220.625	40.411	-0.186	0.165
-219.611	27.749	0.142	0.118
-218.596	260.549	-0.070	-0.119
-217.582	249.911	0.074	0.123
-216.567	-65.157	0.277	0.110
-215.552	94.017	0.158	0.176
-214.538	-2.080	0.271	0.187
-213.523	-133.358	0.077	-0.009
-212.509	30.399	-0.132	0.111
-211.494	800.000	-0.017	0.063
-210.479	-200.000	0.001	-0.026
-209.465	800.000	-0.032	-0.097
-208.450	312.942	0.137	0.254
-207.436	10.894	-0.277	-0.208
-206.421	-139.902	0.351	0.036
-205.406	-130.426	0.079	0.011
-204.392	24.299	0.242	0.197
-203.377	-39.489	-0.274	-0.141
-202.363	800.000	-0.055	-0.222
-201.348	-200.000	0.000	-0.007
-200.333	-68.166	-0.275	0.105
-199.319	-200.000	-0.085	-0.440
-198.304	206.219	-0.142	0.217
-197.290	-200.000	0.031	-0.329
-196.275	187.859	0.126	0.184
-195.260	260.354	0.029	0.049
-194.246	55.519	0.118	0.112
-193.231	-188.414	0.096	0.001
-192.217	-13.280	0.101	-0.064
-191.202	-3.979	0.231	-0.157
-190.187	110.468	-0.177	0.209
-189.173	7.844	-0.119	0.088
-188.158	-10.050	0.245	0.160
-187.144	-82.123	-0.258	-0.083
-186.129	-134.191	-0.425	0.051
-185.114	-200.000	0.091	0.398
-184.100	-47.188	-0.111	-0.053
-183.085	151.837	0.177	0.236
-182.071	-83.689	0.143	-0.045
-181.056	101.593	0.236	-0.270
-180.042	-95.570	-0.129	0.034
-179.027	185.516	0.121	0.176
-178.012	-200.000	0.023	-0.220
-176.998	-69.304	-0.141	0.053
-175.983	-109.771	0.208	0.043
-174.969	2.899	0.183	-0.131
-173.954	215.263	-0.073	0.114
-172.939	169.309	-0.138	0.193
-171.925	-200.000	0.000	-0.079
-170.910	-150.167	-0.142	0.011
-169.896	-58.238	0.472	0.202
-168.881	-95.005	0.028	0.008
-167.866	259.648	-0.161	0.272
-166.852	-200.000	-0.060	-0.278
-165.837	108.435	-0.027	0.032
-164.823	146.172	-0.036	0.048
-163.808	-88.083	0.140	-0.041
-162.793	155.161	-0.173	0.233
-161.779	-200.000	0.019	0.130
-160.764	112.793	-0.068	-0.081
-159.750	-50.979	0.160	0.074
-158.735	-154.419	0.182	0.012
-157.720	195.722	0.019	-0.028
-156.706	-122.401	-0.087	-0.014
-155.691	755.296	-0.035	0.093
-154.677	-19.754	-0.067	0.040
-153.662	139.958	0.209	-0.270
-152.647	292.598	0.076	0.135
-151.633	162.776	-0.170	-0.234
-150.618	-147.541	0.160	-0.013
-149.604	800.000	-0.087	0.290
-148.589	-100.522	0.075	-0.018
-147.574	-200.000	-0.001	0.476
-146.560	375.207	-0.222	-0.445
-145.545	58.995	-0.166	0.160
-144.531	259.590	0.053	0.090
-143.516	56.236	0.084	-0.080
-142.502	80.983	-0.140	-0.148
-141.487	-102.145	0.106	-0.025
-140.472	800.000	-0.114	0.322
-139.458	757.279	-0.104	0.276
-138.443	800.000	-0.071	0.301
-137.429	-93.097	-0.283	-0.077
-136.414	-20.990	0.063	-0.038
-135.399	-200.000	-0.011	0.114
-134.385	632.070	-0.123	0.305
-133.370	-156.018	-0.217	-0.013
-132.356	-5.999	-0.144	0.096
-131.341	-200.000	0.007	-0.079
-130.326	800.000	0.068	0.217
-129.312	-200.000	0.014	0.181
-128.297	26.609	-0.319	-0.262
-127.283	128.525	-0.213	0.266
-126.268	82.498	-0.247	0.263
-125.253	-174.002	-0.041	-0.001
-124.239	-50.609	-0.223	-0.103
-123.224	-77.380	-0.380	0.129
-122.210	18.239	-0.053	0.042
-121.195	-47.332	0.382	0.182
