DTS Sentinel unit serial number:	SN413079Multiplexer serial number:	ORYXHardware model number:	OX4-SRSoftware version number:	ORYX F/W v4.00 Oryx Data Collector v3.7.2.0data status	okinstallation	princeton_trtdifferential loss correction	single-endedforward channel	channel 4reverse channel	N/Adate	2019/09/15time	02:45:35forward acquisition time	60.00reverse acquisition time	0.00gamma	496.2192k internal	0.2309k external	0.2309temperature offset calibration	1.0034default loss term (dB/km)	0.3790temperature slope calibration	1.0000multiplexer offset coefficient	1.0000multiplexer slope coefficient	1.0000fibre end	0.00T internal ref (°C)	31.37T ext. ref 1 (°C)	4.57T ext. ref 2 (°C)	25.78length (m)	temperature (°C)	Stokes	anti-Stokes-747.200	117.238	-0.219	-0.273
-746.185	-200.000	0.034	0.389
-745.171	31.508	0.095	-0.083
-744.156	226.796	0.269	0.444
-743.142	115.969	0.147	0.183
-742.127	586.933	0.102	0.256
-741.112	-156.574	-0.362	-0.023
-740.098	800.000	-0.084	0.298
-739.083	-7.369	0.185	0.127
-738.069	55.213	-0.355	0.348
-737.054	-200.000	-0.013	0.218
-736.039	-116.048	-0.370	-0.070
-735.025	16.150	-0.481	0.385
-734.010	-101.589	-0.102	-0.025
-732.996	48.557	0.144	0.137
-731.981	-57.347	-0.180	0.080
-730.966	-95.880	0.066	0.018
-729.952	800.000	0.029	-0.085
-728.937	800.000	0.061	0.228
-727.923	-6.681	-0.296	0.205
-726.908	100.837	-0.036	0.043
-725.894	-71.734	-0.257	-0.097
-724.879	140.829	0.167	-0.224
-723.864	-153.864	-0.365	0.025
-722.850	447.872	-0.064	-0.144
-721.835	-200.000	-0.001	0.204
-720.821	-200.000	0.005	-0.283
-719.806	-104.851	0.064	-0.015
-718.791	-200.000	0.020	-0.147
-717.777	176.702	0.053	-0.078
-716.762	-106.987	0.283	-0.064
-715.748	-110.960	-0.327	-0.068
-714.733	-200.000	0.011	-0.188
-713.718	-6.892	-0.166	0.115
-712.704	237.208	-0.064	-0.108
-711.689	-200.000	-0.035	-0.175
-710.675	-200.000	-0.062	0.315
-709.660	4.047	0.163	0.121
-708.645	-100.599	-0.100	0.025
-707.631	800.000	0.070	0.254
-706.616	-17.423	-0.169	-0.108
-705.602	-200.000	-0.001	-0.062
-704.587	54.319	-0.320	-0.313
-703.572	-161.101	-0.305	0.016
-702.558	-0.907	0.004	-0.003
-701.543	320.260	0.144	-0.278
-700.529	20.274	-0.224	-0.184
-699.514	378.789	-0.060	0.125
-698.499	800.000	0.036	-0.156
-697.485	175.937	-0.173	-0.255
-696.470	-45.073	0.199	-0.101
-695.456	-1.009	0.088	-0.063
-694.441	155.660	0.103	0.144
-693.426	263.361	-0.143	0.252
-692.412	69.486	0.155	0.162
-691.397	-199.358	-0.219	0.001
-690.383	-200.000	-0.028	0.263
-689.368	-200.000	-0.196	0.000
-688.354	29.732	0.052	-0.045
-687.339	406.699	0.188	0.403
-686.324	-200.000	-0.004	0.113
-685.310	-200.000	0.053	0.266
-684.295	-38.304	0.199	-0.107
-683.281	40.748	-0.218	-0.200
-682.266	800.000	0.040	-0.113
-681.251	260.665	0.073	0.129
-680.237	-55.373	0.253	0.115
-679.222	-73.324	0.179	0.066
-678.208	-105.288	-0.143	0.033
-677.193	-104.450	0.245	-0.057
-676.178	-15.805	0.126	-0.082
-675.164	-200.000	0.037	0.303
-674.149	269.029	-0.144	-0.257
-673.135	589.472	-0.030	0.074
-672.120	285.315	0.039	-0.071
-671.105	-50.143	-0.220	-0.106
-670.091	123.327	0.145	-0.184
-669.076	-200.000	-0.026	0.275
-668.062	-137.429	0.114	-0.013
-667.047	-126.094	0.185	-0.028
-666.032	-82.276	-0.114	0.038
-665.018	-104.602	0.405	-0.095
-664.003	22.582	0.072	0.060
-662.989	-114.554	-0.293	-0.057
-661.974	-46.228	-0.314	0.157
-660.959	-62.160	-0.037	-0.015
-659.945	791.197	-0.078	-0.217
-658.930	-135.511	-0.222	-0.027
-657.916	-200.000	0.003	-0.270
-656.901	-153.375	0.070	-0.005
-655.886	800.000	-0.042	-0.132
-654.872	407.085	-0.075	-0.160
-653.857	800.000	-0.024	-0.075
-652.843	-109.075	0.378	-0.081
-651.828	75.980	0.180	-0.193
-650.814	-122.667	-0.231	-0.038
-649.799	221.732	0.058	0.094
-648.784	-18.934	-0.108	0.068
-647.770	-96.838	-0.323	-0.086
-646.755	4.753	-0.335	-0.249
-645.741	141.813	0.198	-0.266
-644.726	169.875	0.206	-0.298
-643.711	-126.790	-0.095	0.014
-642.697	-2.992	-0.167	-0.118
-641.682	-69.833	0.228	-0.088
-640.668	-172.070	0.187	-0.006
-639.653	107.601	-0.101	0.121
-638.638	31.982	-0.158	-0.138
-637.624	800.000	-0.040	0.149
-636.609	78.365	0.007	-0.007
-635.595	-14.746	-0.091	-0.059
-634.580	69.456	-0.152	-0.158
-633.565	161.082	-0.009	0.013
-632.551	-200.000	-0.002	0.179
-631.536	-200.000	-0.036	-0.208
-630.522	-200.000	0.019	-0.382
-629.507	-95.112	-0.195	0.053
-628.492	-200.000	0.013	-0.167
-627.478	90.935	-0.245	-0.278
-626.463	-200.000	0.019	-0.092
-625.449	541.712	-0.073	0.177
-624.434	-138.598	0.206	0.023
-623.419	-15.204	-0.150	-0.097
-622.405	-117.680	-0.068	-0.012
-621.390	259.224	0.029	-0.050
-620.376	494.321	-0.077	0.178
-619.361	92.213	0.151	0.172
-618.346	-135.221	0.191	0.023
-617.332	-72.316	0.136	0.051
-616.317	353.480	-0.068	-0.136
-615.303	-137.782	0.211	-0.024
-614.288	-194.931	-0.136	-0.001
-613.273	800.000	0.062	0.189
-612.259	-30.452	0.285	0.163
-611.244	37.525	0.053	-0.047
-610.230	-200.000	0.083	0.390
-609.215	334.014	0.016	0.032
-608.201	-23.491	0.190	0.116
-607.186	-104.068	0.045	-0.011
-606.171	19.417	-0.353	-0.287
-605.157	-31.223	-0.042	-0.024
-604.142	-81.921	0.054	-0.018
-603.128	29.097	0.077	-0.066
-602.113	74.488	-0.232	-0.247
-601.098	800.000	0.088	0.325
-600.084	497.883	0.116	-0.269
-599.069	-104.260	-0.616	-0.145
-598.055	251.513	0.116	0.199
-597.040	584.421	-0.096	0.239
-596.025	111.420	0.186	0.227
-595.011	382.193	-0.140	0.291
-593.996	-200.000	0.036	0.346
-592.982	-66.657	-0.165	0.066
-591.967	-28.116	0.125	0.073
-590.952	-89.334	0.148	-0.044
-589.938	62.287	-0.043	0.043
-588.923	161.079	-0.304	-0.429
-587.909	9.594	-0.162	0.124
-586.894	-6.306	0.124	-0.085
-585.879	-122.469	0.312	-0.051
-584.865	-200.000	0.049	-0.303
-583.850	537.361	0.066	-0.158
-582.836	141.736	0.035	0.046
-581.821	-64.720	-0.147	0.060
-580.806	800.000	0.034	0.102
-579.792	-35.720	0.264	-0.144
-578.777	-200.000	0.000	0.161
-577.763	800.000	0.129	0.364
-576.748	-162.531	-0.280	0.014
-575.733	800.000	-0.098	-0.377
-574.719	-92.785	-0.324	0.091
-573.704	88.359	-0.128	-0.144
-572.690	-137.669	0.425	-0.048
-571.675	32.993	0.170	0.148
-570.661	97.029	-0.199	0.230
-569.646	-200.000	-0.001	0.097
-568.631	729.783	-0.148	-0.398
-567.617	135.238	-0.124	-0.162
-566.602	-83.818	-0.291	-0.093
-565.588	207.529	0.197	0.310
-564.573	-113.252	-0.076	-0.015
-563.558	-101.852	0.100	0.024
-562.544	-118.349	-0.101	-0.018
-561.529	-122.056	0.298	0.049
-560.515	-32.837	-0.140	-0.078
-559.500	262.091	0.036	0.063
-558.485	-79.454	-0.056	0.019
-557.471	-66.699	-0.175	0.070
-556.456	-39.669	0.220	-0.116
-555.442	190.398	0.055	0.084
-554.427	199.029	0.255	0.395
-553.412	-200.000	-0.029	0.204
-552.398	18.932	0.333	-0.269
-551.383	-123.071	-0.442	0.072
-550.369	800.000	-0.079	0.330
-549.354	44.021	-0.212	-0.196
-548.339	80.411	0.179	-0.194
-547.325	-200.000	-0.009	0.078
-546.310	-118.244	0.250	0.045
-545.296	-191.781	-0.132	0.001
-544.281	-149.201	0.392	0.032
-543.266	33.011	-0.260	0.227
-542.252	458.495	-0.098	-0.219
-541.237	209.346	0.210	-0.332
-540.223	-92.900	-0.050	-0.014
-539.208	525.317	0.130	-0.309
-538.193	-200.000	0.008	0.145
-537.179	579.510	0.097	-0.240
-536.164	-200.000	0.001	0.171
-535.150	-118.474	0.089	0.016
-534.135	-27.309	-0.152	-0.089
-533.121	800.000	0.045	0.177
-532.106	508.651	0.030	0.070
-531.091	695.156	-0.083	-0.220
-530.077	-101.536	0.142	0.035
-529.062	-3.777	-0.143	0.100
-528.048	-200.000	0.049	0.286
-527.033	129.920	0.394	-0.508
-526.018	-9.588	0.169	-0.113
-525.004	-200.000	-0.014	0.330
-523.989	-9.665	-0.127	-0.085
-522.975	800.000	-0.115	-0.374
-521.960	150.841	0.204	-0.279
-520.945	-78.685	-0.166	-0.057
-519.931	282.086	0.055	0.099
-518.916	31.017	-0.080	0.069
-517.902	-152.395	0.086	0.006
-516.887	405.300	0.096	0.204
-515.872	-30.617	-0.058	-0.033
-514.858	318.012	-0.038	0.073
-513.843	182.971	-0.172	-0.256
-512.829	-119.000	-0.074	-0.013
-511.814	-200.000	-0.020	-0.225
-510.799	-148.182	0.352	-0.029
-509.785	85.244	0.195	0.216
-508.770	-200.000	0.019	0.087
-507.756	68.216	0.049	-0.050
-506.741	800.000	-0.119	-0.360
-505.726	800.000	0.013	0.058
-504.712	39.827	0.098	0.088
-503.697	-145.040	0.165	0.015
-502.683	54.210	-0.158	-0.153
-501.668	-91.139	0.105	0.030
-500.653	214.745	-0.174	0.278
-499.639	-200.000	0.008	-0.161
-498.624	-57.585	0.182	0.080
-497.610	800.000	-0.028	0.089
-496.595	-1.492	0.025	0.018
-495.581	-30.718	0.370	-0.211
-494.566	11.605	0.145	-0.112
-493.551	-82.395	0.304	-0.099
-492.537	198.979	-0.073	-0.113
-491.522	-98.313	-0.162	-0.042
-490.508	-133.039	-0.016	0.002
-489.493	-85.280	-0.204	-0.064
-488.478	135.371	-0.098	0.128
-487.464	-5.601	-0.301	0.207
-486.449	446.662	0.048	-0.106
-485.435	442.501	0.164	0.362
-484.420	-120.408	0.310	0.053
-483.405	-158.922	0.342	-0.020
-482.391	118.317	-0.115	0.143
-481.376	79.176	0.136	-0.147
-480.362	-31.090	-0.236	-0.134
-479.347	-107.955	-0.240	-0.053
-478.332	-55.570	0.198	-0.089
-477.318	-175.753	0.137	0.004
-476.303	-42.685	-0.241	-0.123
-475.289	-56.364	0.312	-0.140
-474.274	-154.422	-0.047	-0.003
-473.259	-172.293	-0.249	-0.008
-472.245	-53.257	0.170	0.078
-471.230	141.583	0.073	0.098
-470.216	-68.053	-0.104	-0.041
-469.201	-127.347	0.097	0.014
-468.186	800.000	-0.155	-0.444
-467.172	296.707	0.119	-0.220
-466.157	417.746	0.150	-0.322
-465.143	36.560	-0.088	-0.078
-464.128	-90.997	-0.100	0.029
-463.113	39.392	-0.156	-0.140
-462.099	-80.965	0.134	0.045
-461.084	-46.073	-0.461	0.228
-460.070	-44.607	-0.202	-0.102
-459.055	285.135	0.130	0.235
-458.040	318.369	-0.136	0.259
-457.026	800.000	-0.055	0.167
-456.011	800.000	-0.057	0.173
-454.997	381.738	-0.061	-0.125
-453.982	74.202	-0.033	0.035
-452.968	-200.000	-0.008	-0.157
-451.953	35.097	-0.108	0.095
-450.938	-30.463	-0.059	-0.033
-449.924	159.197	-0.128	-0.179
-448.909	333.464	0.138	0.269
-447.895	-116.730	0.117	0.021
-446.880	229.694	-0.289	0.475
-445.865	80.345	-0.125	0.135
-444.851	-45.529	-0.200	-0.100
-443.836	74.792	0.149	0.158
-442.822	-200.000	0.019	0.102
-441.807	228.901	0.125	0.205
-440.792	-97.874	-0.272	0.071
-439.778	330.465	-0.087	-0.168
-438.763	519.053	0.080	0.188
-437.749	153.478	0.181	-0.249
-436.734	117.350	0.197	-0.243
-435.719	295.769	-0.074	0.136
-434.705	30.358	-0.192	-0.164
-433.690	-200.000	0.049	-0.218
-432.676	19.371	0.312	-0.252
-431.661	68.632	0.032	0.033
-430.646	-8.997	-0.174	-0.117
-429.632	800.000	0.063	-0.223
-428.617	17.198	0.011	-0.009
-427.603	-200.000	0.026	-0.214
-426.588	254.214	0.123	-0.211
-425.573	-26.809	0.289	-0.170
-424.559	-200.000	0.001	0.194
-423.544	51.806	-0.140	0.134
-422.530	-200.000	0.005	-0.250
-421.515	-17.018	-0.159	0.100
-420.500	-200.000	-0.335	-0.001
-419.486	75.241	-0.032	-0.034
-418.471	-64.525	-0.088	-0.036
-417.457	-58.033	0.202	0.089
-416.442	334.565	-0.068	0.132
-415.428	-34.739	0.152	-0.083
-414.413	299.254	-0.129	0.239
-413.398	-200.000	0.003	0.087
-412.384	-200.000	0.062	-0.284
-411.369	-200.000	-0.045	0.336
-410.355	49.787	-0.215	0.203
-409.340	800.000	0.085	-0.324
-408.325	-27.553	0.267	0.155
-407.311	-200.000	0.022	-0.153
-406.296	-4.263	0.124	-0.086
-405.282	-124.948	-0.197	-0.030
-404.267	748.109	0.124	-0.334
-403.252	3.599	-0.311	-0.228
-402.238	-200.000	0.038	-0.485
-401.223	18.273	-0.251	-0.201
-400.209	800.000	0.008	0.025
-399.194	29.349	-0.318	-0.271
-398.179	399.037	-0.080	0.169
-397.165	-200.000	0.068	0.445
-396.150	-104.490	0.093	0.022
-395.136	-38.937	-0.148	-0.078
-394.121	210.758	0.043	-0.068
-393.106	-9.133	0.061	0.041
-392.092	293.613	-0.127	0.233
-391.077	-168.646	0.198	0.008
-390.063	-200.000	0.001	-0.098
-389.048	40.961	0.245	-0.221
-388.033	38.248	-0.128	0.114
-387.019	43.214	0.163	0.149
-386.004	-200.000	0.007	0.099
-384.990	115.220	-0.095	0.116
-383.975	72.100	-0.145	0.151
-382.960	44.168	0.060	0.055
-381.946	-200.000	0.012	-0.353
-380.931	-158.782	-0.114	0.007
-379.917	-61.850	-0.182	-0.076
-378.902	-75.033	-0.207	-0.074
-377.888	-44.923	-0.087	0.044
-376.873	100.471	-0.188	-0.219
-375.858	-200.000	0.005	0.176
-374.844	-110.323	0.152	0.032
-373.829	-129.558	0.329	-0.046
-372.815	-36.839	0.133	0.072
-371.800	-116.811	-0.034	-0.006
-370.785	-25.204	0.156	-0.093
-369.771	-2.217	-0.183	0.129
-368.756	800.000	0.052	0.200
-367.742	-30.284	0.115	0.065
-366.727	484.783	0.029	0.066
-365.712	-96.692	-0.131	0.034
-364.698	109.711	-0.183	0.220
-363.683	566.534	-0.170	-0.413
-362.669	-65.751	0.161	-0.065
-361.654	78.200	0.259	-0.276
-360.639	-67.617	-0.185	-0.072
-359.625	-15.634	-0.055	0.035
-358.610	800.000	-0.151	0.439
-357.596	180.831	0.153	0.225
-356.581	675.507	-0.036	-0.095
-355.566	-75.140	0.168	-0.060
-354.552	-200.000	0.005	-0.391
-353.537	419.155	0.094	-0.201
-352.523	-80.853	0.192	0.064
-351.508	-135.046	-0.143	-0.017
-350.493	-6.579	-0.159	0.108
-349.479	-12.090	0.220	0.144
-348.464	-145.121	0.294	0.027
-347.450	-200.000	0.007	0.197
-346.435	164.229	0.299	0.422
-345.420	-32.723	0.210	0.117
-344.406	-200.000	0.066	0.342
-343.391	-101.845	0.142	-0.034
-342.377	-44.573	0.367	-0.183
-341.362	-200.000	-0.003	-0.363
-340.348	113.986	0.103	-0.126
-339.333	-81.517	-0.194	0.064
-338.318	22.437	-0.063	-0.052
-337.304	-135.196	-0.093	0.011
-336.289	800.000	0.032	0.127
-335.275	-200.000	-0.016	-0.118
-334.260	-200.000	0.003	0.081
-333.245	-94.990	0.381	-0.103
-332.231	-200.000	0.016	-0.078
-331.216	-56.141	-0.195	-0.087
-330.202	-25.788	0.154	-0.091
-329.187	800.000	0.140	0.390
-328.172	37.011	-0.191	-0.169
-327.158	800.000	-0.018	0.076
-326.143	54.040	0.143	-0.137
-325.129	-200.000	-0.041	-0.261
-324.114	800.000	0.082	-0.276
-323.099	-200.000	0.006	-0.117
-322.085	-200.000	-0.013	0.154
-321.070	-136.103	0.381	-0.045
-320.056	800.000	0.033	-0.116
-319.041	65.597	0.137	0.138
-318.026	-200.000	0.059	0.299
-317.012	251.916	0.060	0.101
-315.997	-107.077	-0.354	0.078
-314.983	118.307	-0.057	-0.071
-313.968	60.801	-0.214	-0.212
-312.953	-1.885	-0.220	0.155
-311.939	6.651	-0.279	0.207
-310.924	5.819	0.118	-0.087
-309.910	800.000	0.016	-0.045
-308.895	69.696	-0.257	-0.264
-307.880	499.407	-0.031	-0.071
-306.866	163.063	-0.095	0.134
-305.851	800.000	-0.042	-0.149
-304.837	-43.039	-0.135	0.068
-303.822	-37.358	0.201	-0.107
-302.807	-137.556	0.220	-0.025
-301.793	-200.000	-0.008	0.382
-300.778	5.624	0.193	0.142
-299.764	241.869	0.071	-0.118
-298.749	-28.894	0.366	0.210
-297.735	-118.992	0.106	0.019
-296.720	-200.000	-0.001	-0.016
-295.705	-43.805	-0.088	0.044
-294.691	-129.786	0.261	0.036
-293.676	-163.762	-0.126	0.006
-292.662	-58.436	-0.231	-0.100
-291.647	-54.690	-0.209	-0.094
-290.632	85.023	-0.060	-0.065
-289.618	-193.953	0.265	0.002
-288.603	-87.739	0.240	0.072
-287.589	-121.437	0.155	-0.026
-286.574	-122.686	0.224	-0.036
-285.559	8.677	-0.283	0.212
-284.545	-107.752	-0.144	0.031
-283.530	-200.000	0.032	0.183
-282.516	86.499	0.154	-0.169
-281.501	199.511	-0.127	-0.194
-280.486	472.128	0.101	-0.226
-279.472	432.154	-0.067	-0.146
-278.457	800.000	-0.017	0.074
-277.443	-3.002	-0.022	-0.015
-276.428	800.000	0.083	0.234
-275.413	-86.558	0.289	-0.088
-274.399	-133.902	-0.156	0.019
-273.384	-176.680	0.170	-0.004
-272.370	0.980	-0.123	0.088
-271.355	23.470	-0.134	0.110
-270.340	-56.203	-0.370	0.164
-269.326	346.825	0.008	0.016
-268.311	-46.896	0.214	0.104
-267.297	-164.438	-0.304	-0.014
-266.282	-200.000	0.004	-0.062
-265.267	-56.482	-0.220	0.097
-264.253	278.649	0.129	0.229
-263.238	236.992	-0.177	-0.293
-262.224	312.722	-0.160	-0.300
-261.209	142.300	0.056	-0.075
-260.195	70.299	-0.123	0.126
-259.180	-200.000	-0.021	0.295
-258.165	800.000	0.126	0.379
-257.151	16.957	0.095	-0.075
-256.136	335.000	-0.130	-0.252
-255.122	212.435	-0.183	0.288
-254.107	-79.843	0.049	0.016
-253.092	-53.024	0.311	-0.142
-252.078	18.798	-0.218	-0.174
-251.063	-200.000	-0.039	-0.297
-250.049	-68.904	-0.131	-0.050
-249.034	-33.303	0.154	0.085
-248.019	27.308	0.181	0.151
-247.005	779.813	-0.034	-0.092
-245.990	-119.482	-0.093	-0.016
-244.976	230.322	-0.132	0.215
-243.961	-0.548	-0.134	-0.095
-242.946	41.764	-0.211	0.190
-241.932	-54.319	0.105	-0.047
-240.917	800.000	-0.060	-0.231
-239.903	800.000	0.099	-0.350
-238.888	-200.000	-0.019	0.214
-237.873	-95.637	-0.088	0.024
-236.859	-200.000	0.038	0.223
-235.844	-178.579	0.329	0.008
-234.830	-200.000	-0.066	-0.320
-233.815	368.211	0.012	0.025
-232.800	222.455	-0.027	0.043
-231.786	-128.858	0.177	0.025
-230.771	-145.000	0.313	0.028
-229.757	-200.000	0.000	-0.033
-228.742	-200.000	0.000	-0.036
-227.727	53.141	-0.039	0.037
-226.713	491.195	0.029	-0.067
-225.698	-200.000	0.011	0.298
-224.684	-182.716	0.385	0.007
-223.669	-200.000	0.018	-0.096
-222.655	-23.303	-0.193	-0.116
-221.640	-72.481	0.197	0.073
-220.625	-194.724	0.212	-0.002
-219.611	800.000	-0.114	0.374
-218.596	-95.413	-0.205	-0.055
-217.582	41.591	-0.103	0.092
-216.567	-24.093	0.147	0.088
-215.552	-83.467	-0.249	0.079
-214.538	539.743	0.048	-0.114
-213.523	66.447	-0.064	-0.065
-212.509	35.971	-0.345	0.302
-211.494	800.000	-0.057	0.215
-210.479	-200.000	0.013	0.155
-209.465	-200.000	0.090	0.432
-208.450	-200.000	-0.029	0.166
-207.436	336.382	-0.139	-0.268
-206.421	-159.944	0.139	0.008
-205.406	27.317	-0.168	-0.141
-204.392	-22.532	-0.185	0.111
-203.377	-165.807	0.326	-0.014
-202.363	225.653	-0.203	0.327
-201.348	399.499	0.139	0.290
-200.333	126.157	-0.122	0.153
-199.319	-126.171	0.227	-0.034
-198.304	-200.000	0.031	-0.137
-197.290	23.558	-0.107	0.088
-196.275	-82.510	0.252	-0.081
-195.260	800.000	-0.027	0.101
-194.246	-200.000	-0.020	0.284
-193.231	-200.000	0.020	-0.096
-192.217	289.597	-0.063	0.114
-191.202	-200.000	-0.027	0.142
-190.187	99.951	-0.144	0.165
-189.173	62.596	-0.119	-0.119
-188.158	-200.000	0.031	-0.146
-187.144	-107.130	-0.241	0.053
-186.129	29.358	0.141	0.119
-185.114	23.698	0.264	0.216
-184.100	390.924	0.062	-0.127
-183.085	0.312	-0.398	-0.282
-182.071	-131.933	0.175	0.023
-181.056	104.741	-0.107	-0.126
-180.042	534.234	-0.058	0.137
-179.027	-200.000	0.005	0.115
-178.012	-170.888	0.262	-0.009
-176.998	-137.161	-0.297	-0.034
-175.983	-200.000	0.113	-0.547
-174.969	662.085	-0.146	-0.374
-173.954	-119.833	-0.120	0.021
-172.939	658.333	0.040	0.103
-171.925	427.727	-0.126	0.270
-170.910	-30.236	0.120	0.068
-169.896	-139.191	-0.256	-0.027
-168.881	-200.000	-0.075	-0.401
-167.866	13.431	0.219	-0.169
-166.852	173.171	0.161	0.231
-165.837	800.000	0.034	-0.121
-164.823	-200.000	0.002	0.079
-163.808	-200.000	0.005	0.171
-162.793	509.253	0.085	-0.196
-161.779	800.000	-0.048	0.134
-160.764	-93.004	-0.171	-0.047
-159.750	-200.000	-0.032	0.266
-158.735	-54.527	-0.329	0.148
-157.720	338.775	-0.063	0.122
-156.706	130.914	-0.049	-0.062
-155.691	276.128	0.058	-0.102
-154.677	227.743	0.152	0.245
-153.662	-15.251	0.222	0.141
-152.647	-61.589	0.146	-0.061
-151.633	76.903	-0.242	0.256
-150.618	433.967	0.034	0.074
-149.604	-200.000	-0.012	-0.058
-148.589	180.520	0.205	0.298
-147.574	-200.000	-0.012	0.155
-146.560	-110.465	0.172	-0.035
-145.545	-151.916	-0.198	0.014
-144.531	594.610	-0.180	0.443
-143.516	157.449	-0.170	0.233
-142.502	135.247	-0.083	-0.107
-141.487	350.902	-0.121	-0.238
-140.472	103.581	-0.100	-0.116
-139.458	221.342	0.151	0.241
-138.443	-200.000	0.049	-0.219
-137.429	-55.286	-0.184	0.082
-136.414	-65.538	-0.096	0.038
-135.399	-83.757	-0.385	-0.122
-134.385	36.958	-0.028	-0.024
-133.370	175.944	0.092	0.133
-132.356	42.277	0.261	0.235
-131.341	61.233	-0.089	0.088
-130.326	44.812	0.289	-0.264
-129.312	-200.000	-0.013	-0.060
-128.297	-46.130	0.340	-0.166
-127.283	78.777	-0.193	0.205
-126.268	17.410	-0.200	0.158
-125.253	111.995	-0.095	0.113
-124.239	-169.835	0.221	-0.008
-123.224	-55.936	0.161	0.071
-122.210	-122.149	0.398	0.065
-121.195	191.165	-0.182	0.271
