DTS Sentinel unit serial number:	SN413079Multiplexer serial number:	ORYXHardware model number:	OX4-SRSoftware version number:	ORYX F/W v4.00 Oryx Data Collector v3.7.2.0data status	okinstallation	princeton_trtdifferential loss correction	single-endedforward channel	channel 4reverse channel	N/Adate	2019/09/19time	03:25:35forward acquisition time	60.00reverse acquisition time	0.00gamma	496.2192k internal	0.2340k external	0.2340temperature offset calibration	1.0026default loss term (dB/km)	0.3790temperature slope calibration	1.0000multiplexer offset coefficient	1.0000multiplexer slope coefficient	1.0000fibre end	0.00T internal ref (°C)	20.67T ext. ref 1 (°C)	0.64T ext. ref 2 (°C)	14.23length (m)	temperature (°C)	Stokes	anti-Stokes-747.200	685.505	0.024	-0.063
-746.185	-75.106	-0.370	0.133
-745.171	-40.662	0.097	0.051
-744.156	-59.856	0.343	0.147
-743.142	333.303	-0.023	0.044
-742.127	670.177	-0.069	0.178
-741.112	123.186	-0.154	0.193
-740.098	-160.821	-0.275	0.015
-739.083	-200.000	0.013	-0.130
-738.069	-146.534	0.077	0.007
-737.054	800.000	0.151	0.590
-736.039	191.152	0.087	0.130
-735.025	-200.000	-0.029	-0.144
-734.010	-161.179	-0.398	0.021
-732.996	166.298	0.086	-0.122
-731.981	-200.000	0.004	0.023
-730.966	800.000	0.054	0.168
-729.952	800.000	0.069	-0.240
-728.937	-107.990	-0.189	0.041
-727.923	-200.000	0.059	-0.311
-726.908	275.597	-0.123	-0.219
-725.894	220.721	-0.051	-0.082
-724.879	-200.000	0.053	-0.237
-723.864	-86.605	-0.088	-0.027
-722.850	-88.497	-0.184	-0.055
-721.835	800.000	0.016	0.067
-720.821	-69.213	0.037	-0.014
-719.806	-127.848	0.096	-0.014
-718.791	107.849	-0.115	-0.138
-717.777	-200.000	-0.044	0.206
-716.762	-9.898	-0.060	0.040
-715.748	197.064	0.104	0.160
-714.733	-160.871	0.286	-0.015
-713.718	-124.492	-0.153	0.024
-712.704	41.085	-0.204	0.185
-711.689	244.958	-0.063	0.106
-710.675	-11.028	-0.229	-0.151
-709.660	-200.000	0.004	0.024
-708.645	42.737	0.239	0.218
-707.631	-178.508	-0.108	-0.002
-706.616	-200.000	-0.115	0.531
-705.602	-117.023	0.020	0.004
-704.587	-200.000	-0.007	0.223
-703.572	-200.000	0.051	-0.344
-702.558	-26.200	-0.147	-0.086
-701.543	417.505	0.059	0.126
-700.529	-78.268	-0.173	0.060
-699.514	-66.679	-0.305	-0.121
-698.499	387.787	-0.058	0.121
-697.485	430.676	0.066	-0.144
-696.470	-87.366	-0.125	-0.038
-695.456	-68.791	-0.149	0.058
-694.441	-153.821	0.076	-0.005
-693.426	-19.857	0.065	-0.040
-692.412	-68.574	0.290	0.113
-691.397	-33.568	-0.116	0.064
-690.383	35.992	-0.154	-0.135
-689.368	385.105	0.090	0.185
-688.354	-3.513	0.211	0.147
-687.339	258.041	-0.173	-0.297
-686.324	4.467	-0.160	-0.117
-685.310	106.422	0.220	-0.261
-684.295	-65.270	0.124	-0.050
-683.281	-49.403	0.201	0.096
-682.266	-12.576	-0.031	-0.020
-681.251	164.769	0.282	-0.399
-680.237	172.494	0.105	0.151
-679.222	-28.780	0.102	-0.059
-678.208	-172.744	0.265	-0.008
-677.193	-200.000	-0.089	0.506
-676.178	-94.801	0.437	-0.119
-675.164	-148.699	-0.112	0.009
-674.149	-13.063	0.227	-0.148
-673.135	45.932	-0.105	0.097
-672.120	-29.491	0.343	0.196
-671.105	428.106	-0.103	-0.222
-670.091	552.043	-0.082	0.197
-669.076	72.677	-0.092	0.096
-668.062	84.717	0.023	0.026
-667.047	-200.000	0.006	-0.079
-666.032	-71.726	0.066	-0.025
-665.018	226.334	0.243	-0.395
-664.003	15.613	0.282	0.221
-662.989	800.000	-0.048	0.157
-661.974	-112.155	0.288	-0.058
-660.959	-100.634	-0.209	0.052
-659.945	-110.520	0.128	-0.027
-658.930	-95.505	-0.181	0.049
-657.916	151.673	0.053	-0.072
-656.901	311.965	-0.048	-0.091
-655.886	-163.558	0.288	0.014
-654.872	-73.549	0.476	0.173
-653.857	-135.376	0.251	0.030
-652.843	312.146	-0.106	-0.200
-651.828	-43.037	0.201	-0.102
-650.814	548.233	0.080	0.192
-649.799	-200.000	0.028	0.197
-648.784	-136.788	0.157	-0.018
-647.770	0.989	-0.173	-0.124
-646.755	-50.145	-0.284	0.134
-645.741	-200.000	-0.016	0.083
-644.726	-79.836	0.111	0.037
-643.711	607.978	-0.137	0.341
-642.697	58.185	0.058	0.057
-641.682	743.098	-0.058	-0.156
-640.668	10.040	-0.163	0.123
-639.653	-175.022	-0.293	-0.008
-638.638	140.843	0.074	-0.098
-637.624	223.940	-0.141	-0.228
-636.609	-12.660	0.321	-0.209
-635.595	800.000	0.055	0.170
-634.580	-200.000	-0.072	-0.328
-633.565	-6.421	-0.104	-0.071
-632.551	-41.394	0.080	-0.041
-631.536	-46.102	-0.104	0.051
-630.522	-88.249	0.086	0.026
-629.507	-37.363	-0.151	0.080
-628.492	116.549	0.207	-0.253
-627.478	-200.000	0.019	-0.244
-626.463	401.399	0.041	-0.087
-625.449	-200.000	-0.040	-0.220
-624.434	100.594	-0.329	-0.381
-623.419	-163.812	-0.305	0.014
-622.405	-53.796	-0.262	-0.119
-621.390	-111.067	0.382	0.078
-620.376	-131.402	-0.103	-0.014
-619.361	-46.000	0.320	0.158
-618.346	-115.762	0.346	-0.065
-617.332	-130.243	0.244	-0.033
-616.317	800.000	-0.098	0.285
-615.303	-200.000	0.000	-0.132
-614.288	37.902	-0.140	-0.124
-613.273	-200.000	-0.032	-0.161
-612.259	181.738	-0.111	0.163
-611.244	-200.000	0.011	0.086
-610.230	-115.508	0.363	0.068
-609.215	-9.913	0.198	0.131
-608.201	-200.000	-0.002	-0.030
-607.186	-19.500	-0.207	0.128
-606.171	800.000	-0.038	0.146
-605.157	-2.952	-0.364	-0.254
-604.142	-200.000	0.012	-0.192
-603.128	160.163	-0.342	-0.476
-602.113	360.665	0.059	-0.119
-601.098	634.891	0.046	0.117
-600.084	-62.660	-0.431	-0.178
-599.069	-74.280	0.248	0.089
-598.055	800.000	-0.061	-0.226
-597.040	800.000	0.042	0.127
-596.025	241.460	0.196	-0.327
-595.011	800.000	-0.037	-0.160
-593.996	41.639	-0.238	0.215
-592.982	231.604	0.015	0.024
-591.967	37.939	0.139	-0.123
-590.952	-150.364	-0.137	-0.011
-589.938	-2.052	-0.283	-0.198
-588.923	231.396	0.072	-0.117
-587.909	-55.724	-0.161	0.072
-586.894	-138.973	0.289	-0.031
-585.879	800.000	-0.044	0.189
-584.865	800.000	0.037	-0.146
-583.850	-40.178	-0.274	-0.142
-582.836	303.245	-0.212	0.390
-581.821	-57.622	-0.285	0.125
-580.806	-60.596	0.079	-0.033
-579.792	800.000	0.064	-0.276
-578.777	162.826	-0.155	-0.217
-577.763	336.167	0.100	0.192
-576.748	-75.243	-0.249	0.089
-575.733	68.479	0.095	0.097
-574.719	-172.932	0.197	-0.006
-573.704	136.965	-0.069	-0.090
-572.690	800.000	0.040	-0.159
-571.675	165.047	0.180	0.253
-570.661	6.713	-0.030	0.022
-569.646	800.000	-0.072	-0.205
-568.631	-200.000	-0.017	-0.089
-567.617	-63.992	-0.461	-0.187
-566.602	407.484	0.024	0.050
-565.588	-91.237	-0.062	0.018
-564.573	364.487	0.180	0.361
-563.558	-118.711	-0.296	-0.052
-562.544	-73.260	0.132	-0.048
-561.529	-128.867	-0.098	0.014
-560.515	-47.407	-0.051	-0.025
-559.500	117.448	-0.118	0.145
-558.485	800.000	0.037	-0.124
-557.471	-115.634	0.082	-0.015
-556.456	800.000	-0.049	0.149
-555.442	74.419	0.182	-0.190
-554.427	288.834	-0.071	-0.129
-553.412	153.760	-0.183	0.249
-552.398	31.630	-0.089	0.076
-551.383	45.549	-0.128	0.118
-550.369	-45.365	-0.240	-0.118
-549.354	536.191	0.091	-0.215
-548.339	481.861	-0.159	-0.360
-547.325	-62.259	-0.352	-0.146
-546.310	-63.719	-0.310	0.126
-545.296	-119.709	-0.231	0.040
-544.281	168.787	0.077	0.110
-543.266	143.749	-0.139	0.185
-542.252	-200.000	0.001	-0.097
-541.237	-200.000	0.008	0.144
-540.223	-45.625	-0.121	-0.060
-539.208	-200.000	-0.037	-0.235
-538.193	393.686	-0.108	-0.224
-537.179	-98.409	-0.394	0.100
-536.164	-200.000	0.004	-0.290
-535.150	-200.000	-0.017	0.177
-534.135	333.178	0.092	-0.176
-533.121	-64.179	0.256	0.104
-532.106	800.000	-0.115	0.356
-531.091	368.416	0.043	0.087
-530.077	-200.000	0.055	-0.330
-529.062	283.896	0.121	-0.217
-528.048	515.058	-0.128	0.298
-527.033	-48.741	0.307	0.146
-526.018	-104.650	0.096	-0.022
-525.004	462.836	-0.079	-0.176
-523.989	-36.055	-0.190	0.102
-522.975	-200.000	-0.014	0.266
-521.960	-148.194	-0.152	-0.012
-520.945	-186.739	0.115	-0.002
-519.931	-200.000	0.025	-0.363
-518.916	-58.518	-0.144	-0.062
-517.902	-83.762	-0.210	0.067
-516.887	280.838	0.065	0.115
-515.872	-86.186	-0.248	0.076
-514.858	178.504	0.142	-0.207
-513.843	-46.427	0.202	0.098
-512.829	92.829	0.186	-0.209
-511.814	30.319	-0.147	-0.124
-510.799	17.284	0.199	-0.157
-509.785	146.563	-0.126	-0.168
-508.770	613.838	0.093	0.231
-507.756	-154.374	0.060	0.004
-506.741	81.899	0.209	0.224
-505.726	-200.000	0.010	-0.173
-504.712	-200.000	0.009	0.291
-503.697	-29.762	0.160	0.091
-502.683	-30.513	0.180	0.101
-501.668	-111.136	0.216	0.044
-500.653	-200.000	0.055	-0.291
-499.639	204.435	0.138	-0.213
-498.624	-30.186	0.193	0.109
-497.610	652.566	0.080	-0.205
-496.595	-25.732	-0.152	0.089
-495.581	-48.563	-0.197	-0.094
-494.566	-24.502	0.262	-0.155
-493.551	-113.296	0.079	0.015
-492.537	-0.023	0.136	-0.096
-491.522	-87.796	-0.154	-0.046
-490.508	-90.805	-0.117	-0.033
-489.493	29.383	0.140	0.118
-488.478	49.398	-0.063	0.059
-487.464	7.123	-0.217	-0.161
-486.449	-200.000	0.045	-0.226
-485.435	102.692	0.128	0.148
-484.420	62.573	0.103	-0.102
-483.405	147.410	0.073	-0.098
-482.391	49.205	-0.098	-0.091
-481.376	-200.000	0.030	0.323
-480.362	-200.000	-0.032	0.183
-479.347	53.497	0.077	-0.074
-478.332	251.572	-0.124	0.209
-477.318	-200.000	0.004	-0.204
-476.303	-200.000	-0.004	0.160
-475.289	800.000	-0.020	0.058
-474.274	317.712	-0.088	-0.165
-473.259	262.271	0.114	-0.196
-472.245	800.000	0.018	0.057
-471.230	-200.000	0.020	0.201
-470.216	800.000	-0.102	0.310
-469.201	240.681	-0.041	-0.068
-468.186	-141.423	0.152	0.015
-467.172	-200.000	0.014	0.227
-466.157	377.222	0.141	-0.285
-465.143	-200.000	0.023	-0.138
-464.128	491.523	-0.166	0.377
-463.113	-23.381	-0.168	-0.100
-462.099	214.641	-0.009	0.013
-461.084	9.114	0.246	0.184
-460.070	-127.561	-0.481	0.069
-459.055	-190.750	-0.182	-0.002
-458.040	-24.096	0.214	-0.127
-457.026	-143.827	0.288	0.027
-456.011	176.480	-0.075	0.107
-454.997	36.617	-0.097	-0.085
-453.982	3.183	0.308	0.222
-452.968	-25.219	0.151	-0.088
-451.953	-28.391	0.134	0.077
-450.938	16.168	0.106	0.083
-449.924	-200.000	0.020	-0.224
-448.909	671.173	-0.078	-0.200
-447.895	-91.434	0.395	0.112
-446.880	800.000	0.035	0.131
-445.865	-63.742	-0.215	-0.087
-444.851	-3.234	-0.131	0.091
-443.836	123.251	-0.142	-0.176
-442.822	-26.430	-0.180	-0.104
-441.807	152.053	-0.118	0.160
-440.792	-139.522	0.288	-0.031
-439.778	245.473	-0.134	-0.223
-438.763	160.725	-0.151	0.209
-437.749	-200.000	0.175	-0.000
-436.734	-15.099	-0.146	0.093
-435.719	169.443	0.246	-0.348
-434.705	79.091	-0.169	-0.179
-433.690	122.770	0.148	0.184
-432.676	-124.168	-0.125	-0.019
-431.661	-192.712	0.226	-0.002
-430.646	-200.000	-0.011	0.106
-429.632	8.455	0.221	-0.164
-428.617	800.000	0.069	0.223
-427.603	128.046	-0.218	-0.275
-426.588	46.294	-0.189	0.173
-425.573	-200.000	0.015	-0.441
-424.559	-200.000	0.065	0.335
-423.544	264.752	0.079	-0.137
-422.530	-200.000	-0.052	0.331
-421.515	34.731	0.117	0.102
-420.500	310.406	0.075	0.139
-419.486	-19.061	0.249	0.153
-418.471	486.616	0.070	-0.158
-417.457	117.637	0.057	-0.069
-416.442	113.489	0.315	0.379
-415.428	800.000	-0.046	0.174
-414.413	0.045	0.197	-0.139
-413.398	306.891	-0.183	0.337
-412.384	-112.608	-0.154	-0.030
-411.369	-160.696	-0.077	0.004
-410.355	-114.726	0.338	0.064
-409.340	-36.980	-0.098	0.052
-408.325	-2.849	-0.198	-0.137
-407.311	-200.000	-0.037	-0.238
-406.296	279.014	0.004	-0.007
-405.282	-87.554	0.248	-0.074
-404.267	-200.000	0.033	-0.149
-403.252	-133.646	-0.156	-0.019
-402.238	66.764	-0.182	0.183
-401.223	76.478	0.271	-0.284
-400.209	-200.000	-0.000	0.189
-399.194	98.547	-0.192	-0.218
-398.179	-30.060	0.261	-0.147
-397.165	151.318	-0.231	-0.310
-396.150	-200.000	-0.009	0.499
-395.136	225.095	-0.159	0.255
-394.121	-123.486	0.340	-0.054
-393.106	499.174	0.058	0.132
-392.092	265.843	0.110	0.190
-391.077	410.539	-0.054	0.114
-390.063	168.804	0.207	-0.292
-389.048	-200.000	-0.005	-0.460
-388.033	768.219	-0.037	-0.100
-387.019	251.312	-0.209	0.352
-386.004	86.845	0.165	0.180
-384.990	517.725	-0.113	-0.261
-383.975	-65.034	-0.259	-0.103
-382.960	-185.973	0.313	-0.005
-381.946	800.000	-0.048	-0.157
-380.931	-200.000	0.026	0.207
-379.917	-24.203	0.239	-0.141
-378.902	107.911	0.026	0.031
-377.888	-83.584	-0.201	0.064
-376.873	-200.000	0.001	-0.231
-375.858	43.371	-0.195	0.176
-374.844	393.086	0.167	0.344
-373.829	-139.906	-0.329	0.034
-372.815	220.392	-0.158	0.250
-371.800	236.999	0.227	-0.371
-370.785	244.717	-0.162	-0.269
-369.771	-54.006	-0.307	-0.138
-368.756	-85.053	0.472	-0.146
-367.742	153.920	-0.144	0.194
-366.727	-200.000	0.050	-0.252
-365.712	800.000	-0.036	0.140
-364.698	14.816	-0.134	-0.103
-363.683	160.734	-0.185	-0.255
-362.669	-102.752	0.166	0.039
-361.654	-200.000	-0.043	0.196
-360.639	-200.000	0.037	0.313
-359.625	-99.490	-0.158	0.039
-358.610	46.863	0.028	-0.026
-357.596	270.756	0.069	0.119
-356.581	-110.837	-0.176	0.036
-355.566	800.000	-0.088	0.314
-354.552	304.661	-0.217	0.398
-353.537	170.109	0.216	0.306
-352.523	-200.000	0.024	0.433
-351.508	84.645	0.143	0.154
-350.493	245.894	0.172	0.286
-349.479	290.124	-0.018	-0.032
-348.464	24.513	0.210	0.171
-347.450	89.445	-0.237	-0.261
-346.435	20.663	-0.243	-0.194
-345.420	-92.902	-0.103	-0.028
-344.406	-67.027	-0.203	-0.079
-343.391	-32.945	-0.128	-0.070
-342.377	20.425	0.362	0.289
-341.362	202.949	-0.241	0.367
-340.348	-200.000	-0.070	0.369
-339.333	-36.086	0.107	-0.057
-338.318	-200.000	0.027	0.131
-337.304	495.953	-0.032	-0.073
-336.289	-200.000	-0.025	0.177
-335.275	-19.131	-0.219	-0.134
-334.260	-200.000	-0.012	-0.507
-333.245	633.278	0.062	0.156
-332.231	800.000	-0.059	-0.188
-331.216	202.222	0.077	0.117
-330.202	217.054	0.188	0.296
-329.187	-56.017	0.119	0.052
-328.172	406.549	-0.161	0.334
-327.158	94.105	-0.065	0.073
-326.143	46.893	-0.526	-0.482
-325.129	800.000	0.060	-0.165
-324.114	-200.000	0.008	-0.119
-323.099	798.361	-0.112	0.303
-322.085	262.043	-0.114	0.194
-321.070	-133.382	-0.090	0.011
-320.056	800.000	-0.073	-0.226
-319.041	800.000	0.070	-0.192
-318.026	-151.785	0.112	-0.008
-317.012	-88.371	0.354	0.104
-315.997	-200.000	0.018	-0.100
-314.983	387.398	0.120	-0.244
-313.968	792.731	-0.126	-0.342
-312.953	-119.170	-0.208	-0.036
-311.939	800.000	-0.146	0.536
-310.924	73.616	0.054	0.056
-309.910	163.997	0.056	-0.078
-308.895	-72.646	-0.157	-0.057
-307.880	-21.424	-0.271	-0.163
-306.866	46.233	0.190	0.173
-305.851	71.101	0.098	-0.100
-304.837	-102.694	0.273	0.064
-303.822	-200.000	0.054	0.401
-302.807	800.000	-0.069	0.283
-301.793	-159.327	-0.312	0.017
-300.778	-15.976	0.270	-0.169
-299.764	-200.000	0.026	-0.237
-298.749	-71.526	-0.080	-0.030
-297.735	-200.000	0.010	0.079
-296.720	-37.128	0.358	0.189
-295.705	-99.661	0.491	-0.121
-294.691	-200.000	0.009	0.154
-293.676	-200.000	-0.022	-0.213
-292.662	296.174	0.059	-0.106
-291.647	645.068	0.104	0.260
-290.632	102.236	-0.031	-0.035
-289.618	-104.535	0.076	0.017
-288.603	193.332	0.073	0.108
-287.589	-200.000	-0.026	0.180
-286.574	33.637	0.062	-0.053
-285.559	410.889	-0.117	-0.245
-284.545	-200.000	0.002	0.164
-283.530	248.027	-0.153	0.255
-282.516	75.525	-0.110	0.114
-281.501	-200.000	-0.025	0.284
-280.486	-200.000	0.007	-0.112
-279.472	230.310	0.095	-0.153
-278.457	-167.361	0.120	-0.005
-277.443	-47.978	0.192	-0.091
-276.428	-99.280	-0.146	-0.036
-275.413	1.270	0.245	0.173
-274.399	-151.979	-0.349	0.025
-273.384	469.286	0.032	0.070
-272.370	-135.777	-0.132	0.015
-271.355	51.996	-0.145	-0.136
-270.340	-104.976	-0.242	0.055
-269.326	-17.198	0.246	-0.153
-268.311	-71.847	-0.063	-0.023
-267.297	-200.000	-0.028	0.135
-266.282	-106.960	-0.233	-0.051
-265.267	-161.667	0.191	-0.010
-264.253	-200.000	-0.021	-0.108
-263.238	-48.044	-0.184	-0.087
-262.224	174.053	0.132	0.188
-261.209	594.430	-0.152	-0.371
-260.195	-200.000	-0.034	-0.225
-259.180	800.000	-0.115	0.384
-258.165	-200.000	0.046	-0.473
-257.151	-200.000	0.025	-0.110
-256.136	154.877	0.224	-0.303
-255.122	11.143	0.144	0.108
-254.107	-8.112	-0.230	-0.152
-253.092	251.103	-0.175	-0.292
-252.078	-200.000	0.084	0.419
-251.063	466.987	-0.079	-0.175
-250.049	526.021	-0.046	0.107
-249.034	-200.000	0.028	-0.269
-248.019	11.159	0.028	0.021
-247.005	239.246	0.136	-0.222
-245.990	451.530	-0.062	0.135
-244.976	-30.793	0.273	0.152
-243.961	800.000	-0.058	0.190
-242.946	-200.000	-0.009	-0.239
-241.932	-71.564	0.204	-0.075
-240.917	14.556	-0.157	0.121
-239.903	-77.236	0.293	0.100
-238.888	52.666	-0.151	0.142
-237.873	-200.000	0.007	-0.132
-236.859	215.708	0.183	0.286
-235.844	177.395	-0.144	0.206
-234.830	116.513	-0.149	0.180
-233.815	125.174	-0.169	0.209
-232.800	-29.195	-0.094	0.053
-231.786	-186.189	0.166	0.002
-230.771	-83.664	-0.200	0.063
-229.757	-156.744	0.350	-0.021
-228.742	-7.151	0.416	-0.277
-227.727	-200.000	0.028	-0.269
-226.713	5.509	-0.230	-0.167
-225.698	61.801	0.097	0.095
-224.684	-14.017	-0.096	-0.061
-223.669	-151.623	-0.131	0.009
-222.655	30.632	0.183	0.154
-221.640	241.014	0.024	-0.039
-220.625	38.983	0.112	0.098
-219.611	-200.000	0.006	0.059
-218.596	-3.072	-0.020	0.014
-217.582	107.171	-0.077	0.090
-216.567	73.613	0.151	-0.156
-215.552	-200.000	-0.033	0.231
-214.538	-200.000	-0.019	0.268
-213.523	-68.611	-0.232	0.088
-212.509	-132.228	-0.284	-0.036
-211.494	-200.000	0.018	-0.182
-210.479	-20.962	0.042	0.025
-209.465	26.930	0.327	-0.269
-208.450	-200.000	0.011	-0.093
-207.436	76.423	0.147	-0.153
-206.421	-41.837	0.177	-0.089
-205.406	154.174	-0.115	0.154
-204.392	667.557	-0.144	0.365
-203.377	272.697	-0.085	0.147
-202.363	79.936	-0.091	0.096
-201.348	257.077	0.187	-0.316
-200.333	-92.790	-0.291	-0.080
-199.319	-53.073	-0.080	0.036
-198.304	-0.476	0.128	0.089
-197.290	-86.015	0.340	0.103
-196.275	390.083	-0.096	0.195
-195.260	-39.138	0.107	0.055
-194.246	-200.000	-0.009	0.122
-193.231	-200.000	0.013	-0.104
-192.217	-79.289	0.280	0.093
-191.202	153.638	-0.227	-0.305
-190.187	-28.118	-0.130	-0.074
-189.173	153.059	-0.040	0.054
-188.158	140.697	0.106	-0.138
-187.144	35.490	-0.232	0.200
-186.129	-200.000	0.025	0.174
-185.114	753.126	0.119	-0.316
-184.100	-200.000	-0.029	0.199
-183.085	71.212	0.319	-0.324
-182.071	-12.124	-0.235	0.151
-181.056	-200.000	0.309	-0.001
-180.042	-84.302	0.199	-0.062
-179.027	-200.000	-0.016	-0.219
-178.012	527.797	0.110	0.253
-176.998	-107.727	0.611	-0.131
-175.983	-150.541	0.162	-0.012
-174.969	800.000	0.071	0.235
-173.954	-16.653	0.258	0.160
-172.939	-200.000	0.025	-0.178
-171.925	21.692	0.271	-0.216
-170.910	85.752	0.225	-0.242
-169.896	-0.080	0.191	-0.133
-168.881	800.000	-0.039	-0.113
-167.866	83.000	0.211	-0.225
-166.852	54.270	-0.180	0.170
-165.837	-78.773	0.089	0.030
-164.823	585.513	0.115	0.277
-163.808	-200.000	0.004	-0.110
-162.793	-112.578	-0.114	-0.022
-161.779	-200.000	-0.003	0.104
-160.764	-68.632	0.304	0.115
-159.750	145.684	0.158	0.207
-158.735	385.332	-0.081	-0.164
-157.720	97.029	-0.192	0.215
-156.706	-16.412	-0.323	0.201
-155.691	-125.674	-0.117	0.017
-154.677	64.806	0.172	-0.170
-153.662	-169.142	-0.200	0.007
-152.647	-19.700	0.120	0.072
-151.633	164.309	-0.135	-0.187
-150.618	800.000	0.136	0.423
-149.604	47.397	0.229	-0.209
-148.589	-60.472	0.326	0.135
-147.574	-30.866	0.252	0.139
-146.560	800.000	-0.047	0.131
-145.545	-103.358	0.051	-0.012
-144.531	242.627	0.076	-0.125
-143.516	326.130	-0.068	0.128
-142.502	38.558	0.103	0.090
-141.487	348.229	0.054	-0.104
-140.472	-117.166	0.488	-0.087
-139.458	-65.454	0.382	-0.150
-138.443	265.261	0.174	-0.297
-137.429	800.000	-0.104	-0.409
-136.414	-102.017	0.344	0.081
-135.399	20.522	0.131	0.103
-134.385	129.211	0.161	-0.201
-133.370	681.049	0.075	0.191
-132.356	-63.511	0.393	0.158
-131.341	-200.000	0.053	0.248
-130.326	276.954	-0.083	0.144
-129.312	-17.761	0.065	-0.040
-128.297	87.379	-0.117	0.127
-127.283	-200.000	0.010	0.087
-126.268	-41.395	0.074	0.038
-125.253	732.253	0.105	-0.276
-124.239	-70.318	0.111	0.041
-123.224	271.663	0.099	-0.171
-122.210	210.831	0.001	-0.001
-121.195	-104.670	-0.293	-0.066
