DTS Sentinel unit serial number:	SN413079Multiplexer serial number:	ORYXHardware model number:	OX4-SRSoftware version number:	ORYX F/W v4.00 Oryx Data Collector v3.7.2.0data status	okinstallation	princeton_trtdifferential loss correction	single-endedforward channel	channel 4reverse channel	N/Adate	2019/09/15time	21:17:35forward acquisition time	60.00reverse acquisition time	0.00gamma	496.2192k internal	0.2318k external	0.2318temperature offset calibration	0.9939default loss term (dB/km)	0.3790temperature slope calibration	1.0000multiplexer offset coefficient	1.0000multiplexer slope coefficient	1.0000fibre end	0.00T internal ref (°C)	31.12T ext. ref 1 (°C)	8.19T ext. ref 2 (°C)	24.15length (m)	temperature (°C)	Stokes	anti-Stokes-747.200	-40.102	-0.238	0.125
-746.185	-3.093	-0.233	0.165
-745.171	-140.530	0.560	-0.059
-744.156	-0.299	-0.188	0.136
-743.142	-87.396	-0.006	0.002
-742.127	-59.781	-0.194	-0.084
-741.112	-59.281	0.399	0.174
-740.098	-38.731	0.181	0.097
-739.083	372.057	-0.018	0.037
-738.069	-33.471	0.211	0.118
-737.054	800.000	0.047	-0.200
-736.039	800.000	0.062	0.174
-735.025	-17.522	-0.065	-0.041
-734.010	-54.379	-0.009	0.004
-732.996	-47.911	0.165	-0.081
-731.981	-200.000	-0.055	0.581
-730.966	147.093	0.253	0.344
-729.952	-82.445	-0.163	-0.054
-728.937	-42.599	-0.240	-0.124
-727.923	800.000	0.091	-0.266
-726.908	-200.000	-0.004	-0.176
-725.894	-108.612	0.186	-0.040
-724.879	-151.736	-0.392	0.029
-723.864	68.296	0.080	-0.083
-722.850	-58.667	-0.112	0.049
-721.835	-200.000	0.000	-0.534
-720.821	800.000	0.048	0.192
-719.806	-21.036	-0.280	0.174
-718.791	-35.736	-0.150	-0.082
-717.777	-64.044	0.215	-0.089
-716.762	192.531	-0.092	-0.141
-715.748	37.740	-0.264	-0.237
-714.733	-115.217	-0.228	0.044
-713.718	-184.524	0.282	0.005
-712.704	268.753	0.145	-0.257
-711.689	-200.000	-0.025	0.112
-710.675	-200.000	-0.001	0.045
-709.660	103.862	0.133	0.157
-708.645	637.333	-0.067	-0.172
-707.631	-48.150	-0.116	-0.057
-706.616	-72.444	0.110	-0.041
-705.602	-85.068	-0.133	0.042
-704.587	-11.097	0.120	0.080
-703.572	-200.000	-0.074	-0.378
-702.558	-153.548	0.053	0.004
-701.543	-168.807	0.172	0.007
-700.529	-117.469	-0.082	-0.015
-699.514	5.571	0.141	-0.105
-698.499	-5.241	-0.066	-0.046
-697.485	-200.000	0.017	-0.103
-696.470	311.439	0.143	0.271
-695.456	-200.000	0.005	-0.138
-694.441	28.529	-0.153	0.130
-693.426	800.000	0.031	-0.118
-692.412	-200.000	-0.002	0.303
-691.397	729.870	0.139	0.375
-690.383	241.545	0.167	0.282
-689.368	-24.203	-0.293	-0.177
-688.354	30.743	0.169	-0.146
-687.339	-35.454	-0.105	0.058
-686.324	-200.000	0.007	0.176
-685.310	-108.094	-0.124	-0.027
-684.295	22.230	0.185	0.152
-683.281	-64.082	-0.112	0.046
-682.266	-83.046	0.195	-0.063
-681.251	-200.000	0.005	0.112
-680.237	76.255	0.132	0.141
-679.222	-200.000	0.003	0.213
-678.208	-112.469	-0.461	-0.093
-677.193	800.000	-0.049	-0.199
-676.178	-39.433	-0.048	0.026
-675.164	-200.000	-0.034	0.168
-674.149	168.473	0.163	0.234
-673.135	100.932	0.097	-0.114
-672.120	-183.146	-0.215	0.004
-671.105	-200.000	0.003	0.109
-670.091	800.000	-0.021	0.064
-669.076	-5.398	0.204	0.141
-668.062	266.433	0.072	-0.127
-667.047	149.208	-0.164	-0.224
-666.032	-101.312	0.216	-0.053
-665.018	800.000	-0.053	-0.229
-664.003	-200.000	0.009	-0.179
-662.989	493.733	0.098	0.227
-661.974	-200.000	0.006	0.150
-660.959	800.000	0.033	0.096
-659.945	-42.218	0.234	-0.121
-658.930	-111.471	0.459	-0.094
-657.916	800.000	0.053	-0.176
-656.901	800.000	0.089	0.346
-655.886	24.742	-0.256	-0.213
-654.872	-80.775	0.003	-0.001
-653.857	51.449	0.157	-0.150
-652.843	-200.000	-0.002	0.283
-651.828	-149.979	0.012	-0.001
-650.814	-200.000	0.022	-0.106
-649.799	-200.000	-0.004	-0.143
-648.784	236.983	-0.057	-0.096
-647.770	47.053	0.040	0.037
-646.755	78.075	-0.069	-0.075
-645.741	-200.000	-0.010	-0.097
-644.726	-22.545	-0.123	-0.075
-643.711	697.203	0.064	0.168
-642.697	-70.093	-0.408	0.157
-641.682	668.483	0.125	-0.325
-640.668	-67.990	0.483	-0.190
-639.653	-75.080	-0.099	0.036
-638.638	22.518	-0.099	-0.081
-637.624	-106.918	-0.110	0.024
-636.609	-14.568	0.302	-0.196
-635.595	236.552	-0.056	0.093
-634.580	-88.105	0.194	0.059
-633.565	27.652	0.051	-0.043
-632.551	-200.000	-0.019	0.103
-631.536	-84.684	-0.330	0.105
-630.522	-23.301	-0.484	-0.293
-629.507	618.138	-0.128	0.323
-628.492	-144.311	-0.299	-0.028
-627.478	-200.000	-0.005	-0.122
-626.463	293.616	-0.055	-0.100
-625.449	-131.928	0.252	-0.033
-624.434	-126.857	0.084	0.012
-623.419	107.765	0.226	-0.271
-622.405	-21.546	-0.115	-0.071
-621.390	800.000	-0.069	-0.197
-620.376	47.159	-0.075	-0.070
-619.361	800.000	0.027	-0.076
-618.346	-200.000	0.006	-0.146
-617.332	-87.397	-0.163	-0.050
-616.317	-118.339	0.123	-0.022
-615.303	-200.000	0.010	0.254
-614.288	-125.246	-0.295	0.045
-613.273	-200.000	0.006	-0.348
-612.259	-90.154	0.337	0.099
-611.244	280.934	-0.138	-0.248
-610.230	40.329	0.072	-0.065
-609.215	78.081	0.224	-0.241
-608.201	800.000	-0.087	0.340
-607.186	800.000	-0.062	0.193
-606.171	-152.067	0.383	0.028
-605.157	34.843	-0.206	0.181
-604.142	-141.221	0.348	-0.036
-603.128	-108.185	-0.059	-0.013
-602.113	329.941	-0.099	-0.192
-601.098	800.000	0.018	0.071
-600.084	-185.954	-0.318	-0.005
-599.069	800.000	-0.099	0.307
-598.055	171.011	-0.117	0.169
-597.040	-19.468	-0.117	0.073
-596.025	-196.770	0.226	0.002
-595.011	-193.739	-0.154	0.001
-593.996	-200.000	-0.026	0.147
-592.982	93.466	0.171	-0.194
-591.967	800.000	-0.088	-0.284
-590.952	191.428	-0.014	0.022
-589.938	-80.024	0.281	-0.095
-588.923	-89.572	-0.258	-0.076
-587.909	73.616	-0.068	0.072
-586.894	-53.749	0.156	0.071
-585.879	-200.000	-0.043	-0.194
-584.865	-136.580	-0.333	-0.039
-583.850	207.593	-0.373	0.586
-582.836	238.883	-0.098	-0.163
-581.821	-200.000	0.032	-0.230
-580.806	678.532	-0.023	-0.059
-579.792	756.359	0.070	-0.189
-578.777	-200.000	-0.041	-0.214
-577.763	180.282	0.084	0.123
-576.748	800.000	0.032	-0.118
-575.733	119.241	0.147	-0.183
-574.719	-200.000	-0.080	-0.000
-573.704	40.179	0.071	-0.064
-572.690	791.586	0.018	0.049
-571.675	-200.000	0.005	-0.028
-570.661	-166.718	-0.336	-0.014
-569.646	274.343	0.047	-0.083
-568.631	-200.000	-0.012	0.237
-567.617	-42.026	0.215	-0.111
-566.602	-200.000	0.024	-0.217
-565.588	-200.000	0.022	-0.271
-564.573	96.450	0.213	-0.245
-563.558	-200.000	0.021	0.169
-562.544	-121.567	0.166	0.028
-561.529	366.685	-0.129	-0.262
-560.515	-200.000	0.156	0.001
-559.500	163.031	-0.117	-0.165
-558.485	98.454	0.358	-0.415
-557.471	-5.078	0.292	0.202
-556.456	-124.746	-0.245	-0.038
-555.442	56.351	-0.153	0.149
-554.427	17.577	-0.094	0.075
-553.412	-117.872	-0.228	-0.041
-552.398	38.983	-0.242	0.217
-551.383	31.637	0.305	0.263
-550.369	71.120	-0.203	-0.211
-549.354	800.000	0.044	0.125
-548.339	-46.847	-0.336	0.165
-547.325	376.514	-0.057	0.116
-546.310	196.702	0.123	0.188
-545.296	-124.658	-0.249	0.039
-544.281	-74.360	0.144	0.052
-543.266	-200.000	0.267	-0.001
-542.252	327.996	0.069	0.134
-541.237	-100.663	0.198	-0.049
-540.223	-200.000	-0.013	-0.252
-539.208	-200.000	-0.002	0.106
-538.193	-61.321	-0.229	-0.097
-537.179	-105.091	-0.091	-0.021
-536.164	-110.709	-0.345	-0.072
-535.150	-81.519	-0.169	-0.056
-534.135	-127.677	-0.478	0.069
-533.121	313.004	-0.067	-0.126
-532.106	10.763	-0.206	0.158
-531.091	54.385	-0.096	-0.093
-530.077	-38.158	0.122	-0.065
-529.062	-93.240	0.280	-0.078
-528.048	785.508	-0.124	-0.342
-527.033	572.463	-0.046	-0.112
-526.018	-98.107	-0.131	-0.034
-525.004	-156.521	0.186	0.012
-523.989	-18.813	0.280	-0.175
-522.975	459.646	-0.056	-0.126
-521.960	800.000	-0.066	0.286
-520.945	-69.345	-0.269	0.104
-519.931	69.839	-0.246	0.255
-518.916	153.938	0.097	0.133
-517.902	25.266	-0.027	-0.023
-516.887	-110.874	-0.073	0.015
-515.872	639.163	-0.070	-0.178
-514.858	-200.000	-0.032	-0.193
-513.843	800.000	0.035	0.123
-512.829	-33.046	-0.190	0.106
-511.814	-200.000	-0.009	0.172
-510.799	30.763	0.387	0.332
-509.785	-95.926	0.175	-0.047
-508.770	221.567	-0.263	-0.424
-507.756	-49.984	0.187	0.089
-506.741	-152.249	0.131	0.010
-505.726	45.202	-0.176	0.163
-504.712	-200.000	-0.037	-0.301
-503.697	-23.043	0.345	0.208
-502.683	-200.000	0.035	-0.208
-501.668	-200.000	0.040	0.300
-500.653	-84.764	0.335	0.106
-499.639	3.969	0.275	-0.201
-498.624	-20.969	0.264	0.162
-497.610	18.305	-0.170	0.136
-496.595	157.395	-0.177	0.245
-495.581	-112.424	-0.541	0.108
-494.566	254.584	0.028	-0.047
-493.551	29.102	0.133	0.113
-492.537	-131.635	0.130	-0.017
-491.522	-160.148	0.376	0.020
-490.508	-135.199	-0.351	-0.042
-489.493	296.512	0.038	-0.070
-488.478	-101.850	-0.277	-0.067
-487.464	-123.289	0.285	0.046
-486.449	-159.117	0.087	0.005
-485.435	-19.173	0.143	0.089
-484.420	333.688	0.079	0.152
-483.405	-149.967	-0.030	0.002
-482.391	-200.000	-0.087	0.467
-481.376	-52.847	0.102	-0.047
-480.362	128.090	0.329	0.419
-479.347	626.882	0.086	0.218
-478.332	775.812	-0.108	-0.296
-477.318	62.752	0.121	0.121
-476.303	-200.000	-0.016	-0.244
-475.289	800.000	-0.088	-0.287
-474.274	-115.308	0.121	-0.023
-473.259	20.889	-0.114	-0.092
-472.245	-200.000	-0.020	0.219
-471.230	54.300	0.275	0.265
-470.216	669.467	0.072	0.186
-469.201	-125.772	0.186	0.028
-468.186	31.382	0.109	0.093
-467.172	-166.687	0.293	0.012
-466.157	50.732	-0.280	0.265
-465.143	-140.199	0.315	-0.033
-464.128	206.493	-0.026	-0.040
-463.113	50.936	-0.157	-0.149
-462.099	229.305	0.080	0.130
-461.084	586.951	0.090	-0.222
-460.070	800.000	0.034	-0.121
-459.055	152.938	-0.106	-0.145
-458.040	112.963	-0.156	-0.190
-457.026	-73.855	-0.130	0.047
-456.011	-200.000	0.036	-0.207
-454.997	96.244	-0.147	0.168
-453.982	-200.000	-0.048	0.273
-452.968	3.685	0.172	-0.125
-451.953	-125.532	-0.187	0.029
-450.938	64.800	0.195	-0.197
-449.924	588.900	0.051	-0.126
-448.909	-61.978	-0.453	0.189
-447.895	-0.068	-0.164	-0.117
-446.880	-170.638	0.211	-0.007
-445.865	-188.454	-0.224	-0.003
-444.851	-109.286	-0.081	-0.017
-443.836	292.280	-0.172	0.313
-442.822	-200.000	-0.011	-0.221
-441.807	612.451	-0.053	0.134
-440.792	58.196	-0.205	-0.201
-439.778	-67.453	-0.122	0.048
-438.763	-184.528	0.117	0.002
-437.749	-45.989	0.257	-0.127
-436.734	77.604	-0.085	0.091
-435.719	225.578	0.136	0.220
-434.705	529.700	-0.039	-0.093
-433.690	208.980	-0.046	-0.072
-432.676	-180.714	-0.217	0.004
-431.661	12.329	-0.104	0.080
-430.646	123.217	0.078	-0.098
-429.632	-14.932	-0.092	-0.059
-428.617	398.531	0.116	-0.243
-427.603	800.000	0.022	-0.065
-426.588	-64.431	0.218	-0.089
-425.573	800.000	0.094	-0.295
-424.559	-92.865	0.205	0.057
-423.544	112.584	0.152	0.184
-422.530	-5.319	-0.371	0.255
-421.515	-200.000	0.065	0.338
-420.500	498.948	-0.032	0.073
-419.486	-149.169	-0.156	0.012
-418.471	-200.000	0.002	0.414
-417.457	-15.127	-0.228	-0.146
-416.442	-26.100	-0.515	0.302
-415.428	-200.000	-0.017	0.223
-414.413	-60.943	0.285	-0.120
-413.398	800.000	0.094	0.316
-412.384	-200.000	-0.041	-0.259
-411.369	-28.671	0.268	-0.154
-410.355	174.021	-0.148	-0.213
-409.340	20.166	0.265	0.214
-408.325	-200.000	-0.017	0.170
-407.311	20.395	-0.143	0.115
-406.296	-200.000	0.013	0.336
-405.282	178.092	0.137	0.200
-404.267	730.822	0.038	-0.101
-403.252	-168.133	0.133	-0.005
-402.238	55.907	-0.093	0.090
-401.223	-79.819	-0.262	-0.088
-400.209	800.000	0.079	-0.288
-399.194	-6.987	0.080	-0.054
-398.179	89.544	-0.195	0.217
-397.165	63.658	-0.310	-0.311
-396.150	107.568	0.125	-0.149
-395.136	135.698	-0.130	0.169
-394.121	-3.230	-0.131	0.091
-393.106	800.000	-0.083	-0.264
-392.092	-200.000	0.004	-0.072
-391.077	-200.000	-0.007	0.224
-390.063	-79.276	0.161	0.054
-389.048	-146.762	-0.242	-0.021
-388.033	-64.658	0.140	0.057
-387.019	81.763	0.276	-0.298
-386.004	-200.000	0.024	-0.288
-384.990	774.967	0.114	-0.311
-383.975	-120.033	-0.252	-0.043
-382.960	-200.000	-0.029	0.285
-381.946	-96.301	-0.067	0.018
-380.931	800.000	0.097	-0.282
-379.917	179.693	0.115	0.167
-378.902	-200.000	0.023	-0.143
-377.888	-200.000	0.049	-0.320
-376.873	-105.555	0.121	0.027
-375.858	57.869	0.414	-0.404
-374.844	-164.926	-0.073	-0.003
-373.829	52.541	-0.124	0.118
-372.815	-40.368	0.111	0.058
-371.800	-125.330	0.496	0.075
-370.785	800.000	0.054	-0.176
-369.771	-51.242	0.254	-0.119
-368.756	193.187	0.059	-0.088
-367.742	-35.157	0.189	-0.103
-366.727	240.935	-0.129	0.215
-365.712	-137.356	0.200	0.023
-364.698	-7.416	-0.240	0.162
-363.683	-200.000	-0.030	0.191
-362.669	214.766	0.098	0.155
-361.654	718.658	0.019	-0.050
-360.639	-200.000	-0.002	0.017
-359.625	-107.201	0.180	-0.040
-358.610	-56.914	0.282	0.124
-357.596	100.698	-0.084	0.097
-356.581	-119.581	0.158	-0.027
-355.566	-50.256	-0.149	-0.070
-354.552	-200.000	0.004	0.058
-353.537	35.854	0.193	0.169
-352.523	224.698	0.083	-0.134
-351.508	-200.000	-0.043	0.222
-350.493	-16.906	0.096	-0.060
-349.479	546.163	0.061	-0.146
-348.464	-70.874	-0.441	-0.166
-347.450	263.851	0.143	0.248
-346.435	-148.367	-0.017	0.001
-345.420	244.996	0.152	0.254
-344.406	50.382	-0.083	-0.078
-343.391	124.314	0.195	0.244
-342.377	-108.487	-0.103	0.022
-341.362	-144.371	0.204	-0.019
-340.348	7.807	-0.164	-0.122
-339.333	-92.437	-0.096	-0.027
-338.318	-200.000	0.001	-0.021
-337.304	319.187	-0.021	-0.040
-336.289	-67.000	0.071	0.028
-335.275	-46.400	-0.401	-0.196
-334.260	14.972	-0.132	-0.103
-333.245	-200.000	-0.238	0.000
-332.231	800.000	-0.050	0.152
-331.216	800.000	-0.076	-0.221
-330.202	-68.158	0.391	0.151
-329.187	324.665	0.134	0.255
-328.172	138.998	0.092	0.121
-327.158	800.000	-0.028	-0.099
-326.143	-122.927	0.238	-0.038
-325.129	145.449	0.115	-0.153
-324.114	-200.000	0.042	0.281
-323.099	-15.917	-0.057	0.036
-322.085	20.338	-0.066	-0.053
-321.070	135.848	0.158	-0.205
-320.056	-141.295	-0.144	0.015
-319.041	101.230	-0.069	0.080
-318.026	-79.495	-0.162	0.055
-317.012	-46.475	0.246	-0.120
-315.997	-45.227	-0.102	-0.051
-314.983	-51.206	0.311	0.145
-313.968	74.522	0.116	-0.122
-312.953	190.488	-0.143	0.213
-311.939	301.755	-0.010	0.018
-310.924	-200.000	0.044	-0.204
-309.910	21.798	0.158	0.128
-308.895	-58.160	0.214	0.093
-307.880	8.266	0.031	0.023
-306.866	118.776	0.116	-0.142
-305.851	242.528	0.159	0.264
-304.837	-200.000	-0.009	0.078
-303.822	-57.475	-0.197	0.086
-302.807	-193.884	-0.175	0.001
-301.793	27.281	0.045	0.037
-300.778	-200.000	0.017	-0.315
-299.764	234.013	0.094	-0.154
-298.749	-4.597	0.090	-0.062
-297.735	-180.751	0.030	0.001
-296.720	-94.829	-0.259	-0.070
-295.705	371.668	0.121	0.244
-294.691	800.000	-0.196	0.624
-293.676	307.047	-0.025	0.046
-292.662	-200.000	0.036	0.204
-291.647	-200.000	0.017	0.087
-290.632	-64.015	-0.220	-0.089
-289.618	-169.654	-0.223	0.008
-288.603	28.398	0.141	0.118
-287.589	177.677	-0.167	-0.242
-286.574	-139.071	-0.188	-0.020
-285.559	517.237	-0.116	-0.271
-284.545	50.950	0.183	-0.172
-283.530	37.777	-0.069	-0.061
-282.516	-35.009	0.302	0.164
-281.501	684.845	0.081	0.209
-280.486	93.233	-0.096	-0.108
-279.472	-97.794	-0.342	0.088
-278.457	112.396	-0.129	0.155
-277.443	172.357	0.037	0.053
-276.428	102.098	0.102	-0.119
-275.413	35.177	0.079	-0.069
-274.399	-107.140	0.087	-0.019
-273.384	-200.000	0.007	0.194
-272.370	-50.624	-0.082	-0.038
-271.355	60.135	0.264	-0.260
-270.340	46.609	0.094	-0.087
-269.326	53.616	-0.265	0.253
-268.311	657.767	-0.026	-0.068
-267.297	-200.000	-0.030	-0.475
-266.282	-160.158	-0.176	0.009
-265.267	537.897	-0.091	-0.216
-264.253	-20.263	0.208	0.127
-263.238	-88.260	0.225	-0.067
-262.224	-43.537	-0.155	-0.077
-261.209	78.538	-0.095	-0.101
-260.195	-117.904	-0.090	-0.016
-259.180	-200.000	0.013	0.211
-258.165	-76.660	-0.123	-0.043
-257.151	2.994	-0.091	0.065
-256.136	-53.046	-0.063	0.029
-255.122	800.000	-0.075	-0.207
-254.107	-57.584	0.284	0.124
-253.092	33.643	-0.071	0.061
-252.078	-94.577	-0.208	-0.056
-251.063	14.807	-0.087	0.068
-250.049	64.194	0.103	0.103
-249.034	-93.556	0.179	-0.049
-248.019	34.838	0.104	0.091
-247.005	-97.243	0.177	0.046
-245.990	408.423	0.101	0.212
-244.976	558.466	0.080	0.193
-243.961	6.285	0.212	-0.156
-242.946	-135.831	-0.137	0.016
-241.932	-87.055	0.278	0.084
-240.917	59.606	-0.200	-0.196
-239.903	484.918	-0.090	0.204
-238.888	800.000	0.038	-0.122
-237.873	383.556	-0.179	-0.366
-236.859	800.000	0.066	0.198
-235.844	-159.505	0.147	0.008
-234.830	144.362	-0.046	-0.061
-233.815	-152.091	-0.249	0.018
-232.800	-200.000	-0.065	0.361
-231.786	59.791	-0.167	-0.164
-230.771	-200.000	0.002	-0.035
-229.757	226.061	-0.032	-0.051
-228.742	218.695	-0.084	-0.134
-227.727	-25.070	0.040	0.023
-226.713	-128.223	0.231	0.033
-225.698	9.659	0.098	-0.073
-224.684	670.475	0.125	-0.321
-223.669	-30.786	-0.148	-0.083
-222.655	545.411	0.119	0.281
-221.640	-49.063	0.222	-0.105
-220.625	-200.000	0.019	0.110
-219.611	383.458	0.071	-0.145
-218.596	-108.367	-0.177	-0.038
-217.582	132.322	-0.038	0.049
-216.567	-109.220	-0.217	-0.046
-215.552	-29.371	-0.157	-0.089
-214.538	45.456	-0.186	0.170
-213.523	224.775	0.086	0.139
-212.509	198.295	0.073	0.110
-211.494	-51.527	0.353	-0.164
-210.479	800.000	0.070	0.216
-209.465	-200.000	-0.083	0.375
-208.450	239.088	0.176	0.290
-207.436	-200.000	-0.083	0.503
-206.421	20.370	-0.102	0.082
-205.406	552.210	-0.110	0.263
-204.392	248.501	-0.038	0.063
-203.377	42.680	0.116	0.105
-202.363	-200.000	0.034	0.265
-201.348	2.192	-0.050	-0.036
-200.333	142.744	-0.134	-0.176
-199.319	800.000	-0.008	-0.026
-198.304	800.000	-0.033	-0.117
-197.290	-68.946	0.250	0.096
-196.275	52.399	-0.156	-0.148
-195.260	-200.000	0.025	-0.211
-194.246	249.585	0.181	-0.304
-193.231	-80.775	0.080	-0.026
-192.217	373.884	0.112	-0.226
-191.202	-168.605	-0.264	-0.010
-190.187	-129.758	0.043	-0.006
-189.173	-65.397	-0.183	0.073
-188.158	-200.000	-0.044	-0.278
-187.144	-38.732	-0.277	0.145
-186.129	-2.243	0.270	-0.187
-185.114	95.139	-0.280	0.316
-184.100	52.035	0.049	-0.046
-183.085	-200.000	-0.023	-0.143
-182.071	-120.791	-0.304	-0.051
-181.056	-130.954	-0.219	0.029
-180.042	-66.369	0.418	-0.164
-179.027	-37.185	-0.080	0.043
-178.012	138.744	0.302	0.392
-176.998	-200.000	-0.005	-0.254
-175.983	699.860	0.138	0.360
-174.969	628.545	0.031	0.077
-173.954	41.366	0.133	-0.119
-172.939	44.207	-0.088	-0.080
-171.925	-107.723	-0.208	0.045
-170.910	-200.000	-0.038	-0.179
-169.896	-200.000	-0.016	-0.182
-168.881	152.522	-0.044	0.059
-167.866	-84.006	0.218	-0.069
-166.852	90.080	0.233	-0.258
-165.837	13.688	0.068	0.052
-164.823	-12.796	0.108	-0.070
-163.808	-102.314	0.041	0.010
-162.793	-200.000	0.020	0.138
-161.779	-200.000	-0.335	-0.000
-160.764	143.325	-0.068	0.090
-159.750	-35.384	-0.138	-0.074
-158.735	130.618	0.188	0.239
-157.720	-108.191	-0.320	0.068
-156.706	783.392	0.044	-0.119
-155.691	-133.178	0.294	-0.037
-154.677	259.269	-0.067	-0.114
-153.662	-200.000	-0.014	-0.167
-152.647	94.034	0.052	0.058
-151.633	-200.000	0.003	-0.124
-150.618	800.000	-0.058	0.213
-149.604	36.290	-0.090	-0.078
-148.589	-200.000	0.024	-0.196
-147.574	26.344	0.208	0.172
-146.560	-185.487	-0.205	0.003
-145.545	-200.000	-0.007	0.258
-144.531	466.864	0.045	0.101
-143.516	-200.000	-0.023	-0.267
-142.502	-197.724	0.168	0.001
-141.487	-69.296	0.037	0.014
-140.472	514.606	-0.085	0.197
-139.458	-135.706	0.114	0.013
-138.443	78.074	0.068	-0.071
-137.429	-23.285	-0.307	-0.182
-136.414	214.178	0.088	0.138
-135.399	10.826	0.108	-0.081
-134.385	337.772	-0.097	-0.186
-133.370	71.708	-0.172	-0.177
-132.356	-147.812	0.197	0.016
-131.341	-200.000	-0.014	-0.305
-130.326	55.733	-0.107	0.103
-129.312	-4.418	0.170	0.116
-128.297	160.033	-0.165	-0.227
-127.283	707.457	-0.022	0.058
-126.268	800.000	0.068	0.205
-125.253	-40.951	0.208	-0.106
-124.239	-114.814	-0.056	-0.011
-123.224	283.886	-0.233	-0.414
-122.210	-174.115	-0.227	-0.007
