DTS Sentinel unit serial number:	SN413079Multiplexer serial number:	ORYXHardware model number:	OX4-SRSoftware version number:	ORYX F/W v4.00 Oryx Data Collector v3.7.2.0data status	okinstallation	princeton_trtdifferential loss correction	single-endedforward channel	channel 4reverse channel	N/Adate	2019/09/12time	15:55:11forward acquisition time	60.00reverse acquisition time	0.00gamma	496.2192k internal	0.2296k external	0.2296temperature offset calibration	1.0106default loss term (dB/km)	0.3790temperature slope calibration	1.0000multiplexer offset coefficient	1.0000multiplexer slope coefficient	1.0000fibre end	0.00T internal ref (°C)	39.30T ext. ref 1 (°C)	2.49T ext. ref 2 (°C)	32.29length (m)	temperature (°C)	Stokes	anti-Stokes-747.200	-136.978	-0.216	0.025
-746.185	-61.171	-0.185	-0.080
-745.171	-156.473	0.441	0.028
-744.156	-76.901	-0.330	0.118
-743.142	-82.533	-0.128	0.042
-742.127	-36.110	0.172	-0.095
-741.112	-43.735	-0.083	-0.043
-740.098	14.193	0.146	-0.116
-739.083	84.741	0.061	0.069
-738.069	192.613	-0.022	0.034
-737.054	-70.817	-0.168	-0.065
-736.039	-105.448	-0.253	0.059
-735.025	4.416	0.121	-0.091
-734.010	-200.000	-0.036	-0.282
-732.996	-6.902	-0.365	-0.254
-731.981	800.000	-0.064	-0.275
-730.966	-71.216	-0.118	-0.045
-729.952	-54.985	0.187	0.086
-728.937	-120.904	-0.433	-0.074
-727.923	-200.000	-0.036	-0.357
-726.908	-81.108	-0.093	-0.031
-725.894	116.285	0.103	0.129
-724.879	61.793	0.128	-0.130
-723.864	747.865	-0.104	0.287
-722.850	-86.943	-0.135	-0.042
-721.835	-200.000	-0.054	-0.328
-720.821	-178.742	-0.214	-0.005
-719.806	-75.774	-0.107	-0.039
-718.791	-200.000	0.010	0.077
-717.777	-118.989	0.159	-0.028
-716.762	166.894	0.175	0.254
-715.748	800.000	-0.016	-0.067
-714.733	800.000	0.091	-0.307
-713.718	110.236	-0.090	0.110
-712.704	747.987	-0.099	-0.271
-711.689	-176.526	-0.161	0.004
-710.675	41.391	0.219	-0.202
-709.660	34.339	0.014	-0.012
-708.645	254.569	-0.021	-0.037
-707.631	-160.023	0.196	0.011
-706.616	-0.759	-0.130	0.094
-705.602	-165.146	-0.074	0.003
-704.587	-5.693	-0.223	-0.156
-703.572	630.055	-0.026	-0.066
-702.558	95.879	-0.073	0.085
-701.543	800.000	-0.052	-0.158
-700.529	230.615	-0.058	-0.096
-699.514	195.305	-0.157	0.243
-698.499	599.135	0.083	-0.210
-697.485	-101.978	0.055	0.013
-696.470	260.171	-0.134	-0.236
-695.456	-147.212	0.206	0.018
-694.441	513.591	-0.135	-0.321
-693.426	-53.853	-0.064	-0.030
-692.412	800.000	-0.086	0.356
-691.397	72.225	-0.120	-0.127
-690.383	800.000	0.038	0.163
-689.368	52.233	0.192	-0.187
-688.354	800.000	0.064	-0.224
-687.339	211.202	-0.177	-0.284
-686.324	0.687	-0.052	-0.038
-685.310	-200.000	-0.025	-0.195
-684.295	31.838	0.201	-0.176
-683.281	-102.229	0.283	-0.069
-682.266	-50.282	-0.337	0.162
-681.251	800.000	-0.069	0.205
-680.237	25.257	-0.344	-0.292
-679.222	137.846	0.113	0.151
-678.208	295.882	0.020	-0.037
-677.193	517.758	-0.045	0.107
-676.178	800.000	-0.126	-0.478
-675.164	-76.647	0.138	0.049
-674.149	-200.000	0.030	0.139
-673.135	102.565	-0.162	-0.193
-672.120	800.000	-0.075	0.220
-671.105	85.473	-0.091	-0.102
-670.091	263.945	0.133	0.236
-669.076	308.157	0.074	0.141
-668.062	56.649	-0.175	-0.174
-667.047	-179.005	0.275	0.006
-666.032	-113.516	-0.201	0.040
-665.018	236.707	-0.044	-0.074
-664.003	662.814	-0.182	-0.477
-662.989	18.544	0.081	-0.066
-661.974	12.252	-0.219	-0.172
-660.959	-116.715	0.126	0.024
-659.945	-81.347	-0.169	-0.057
-658.930	178.031	-0.124	-0.185
-657.916	-27.028	-0.367	-0.218
-656.901	-117.022	0.239	-0.044
-655.886	372.896	-0.174	-0.361
-654.872	-55.626	0.187	-0.085
-653.857	-70.732	0.152	-0.058
-652.843	-200.000	-0.021	-0.206
-651.828	-137.474	-0.055	-0.006
-650.814	-104.304	-0.091	-0.022
-649.799	-92.687	-0.130	-0.037
-648.784	191.963	-0.140	0.215
-647.770	99.146	-0.207	0.243
-646.755	-158.050	-0.038	-0.002
-645.741	-200.000	-0.007	0.167
-644.726	-75.863	-0.289	0.104
-643.711	-200.000	-0.002	-0.171
-642.697	-200.000	-0.024	0.515
-641.682	-200.000	-0.012	0.179
-640.668	-200.000	0.011	0.216
-639.653	800.000	-0.029	0.105
-638.638	13.795	-0.223	-0.177
-637.624	149.687	-0.180	0.248
-636.609	800.000	-0.084	-0.310
-635.595	616.802	-0.044	-0.112
-634.580	468.867	-0.147	-0.335
-633.565	800.000	-0.082	-0.312
-632.551	486.674	0.079	0.183
-631.536	271.391	-0.034	0.061
-630.522	-45.468	0.079	0.040
-629.507	-200.000	-0.015	-0.085
-628.492	-137.153	0.246	0.029
-627.478	-19.103	0.084	-0.053
-626.463	-200.000	-0.003	0.044
-625.449	-17.272	-0.216	-0.138
-624.434	-200.000	0.020	0.185
-623.419	-139.947	0.191	-0.021
-622.405	85.084	0.198	0.221
-621.390	179.285	0.172	-0.255
-620.376	5.523	0.149	-0.112
-619.361	-200.000	0.039	0.452
-618.346	-200.000	-0.011	0.258
-617.332	-106.131	-0.030	0.007
-616.317	800.000	-0.116	0.382
-615.303	90.120	-0.310	0.353
-614.288	-200.000	-0.039	-0.441
-613.273	-200.000	0.062	0.534
-612.259	267.884	-0.167	0.297
-611.244	-200.000	0.011	-0.155
-610.230	-200.000	-0.009	-0.138
-609.215	-22.534	0.026	-0.016
-608.201	-175.324	-0.205	-0.006
-607.186	101.127	-0.051	0.060
-606.171	-113.697	0.119	0.023
-605.157	-200.000	0.010	0.216
-604.142	-200.000	-0.025	0.156
-603.128	-129.851	-0.147	-0.021
-602.113	198.763	0.195	-0.303
-601.098	800.000	0.107	-0.377
-600.084	-108.511	0.227	-0.050
-599.069	119.591	-0.077	-0.097
-598.055	-111.328	-0.153	0.032
-597.040	-137.424	-0.481	-0.055
-596.025	-200.000	0.010	-0.085
-595.011	36.501	0.234	-0.210
-593.996	-71.859	-0.059	0.022
-592.982	91.531	0.174	-0.198
-591.967	223.572	-0.133	0.218
-590.952	87.102	0.187	-0.210
-589.938	206.846	0.137	-0.216
-588.923	-200.000	0.036	-0.320
-587.909	-78.134	-0.108	0.038
-586.894	136.679	0.114	-0.151
-585.879	800.000	-0.055	-0.241
-584.865	-85.644	-0.171	0.054
-583.850	-12.022	0.465	-0.309
-582.836	274.645	0.173	0.310
-581.821	-90.963	0.190	0.056
-580.806	44.411	-0.149	-0.139
-579.792	800.000	0.069	0.260
-578.777	-141.119	0.237	-0.025
-577.763	62.170	-0.200	-0.203
-576.748	-95.790	0.007	0.002
-575.733	800.000	0.050	0.210
-574.719	-68.599	0.350	-0.137
-573.704	-31.986	0.084	0.048
-572.690	-200.000	0.053	0.241
-571.675	-38.170	-0.252	-0.135
-570.661	166.385	0.279	0.401
-569.646	-200.000	0.011	0.141
-568.631	800.000	-0.034	0.102
-567.617	-120.139	-0.241	-0.042
-566.602	34.610	-0.164	-0.145
-565.588	72.860	-0.102	0.108
-564.573	800.000	-0.059	-0.201
-563.558	-200.000	-0.036	0.319
-562.544	456.218	0.121	0.272
-561.529	-134.576	-0.065	-0.008
-560.515	251.115	0.156	-0.269
-559.500	225.940	-0.149	0.245
-558.485	18.282	0.124	-0.101
-557.471	60.269	-0.222	0.223
-556.456	406.673	0.024	-0.052
-555.442	-200.000	0.046	-0.247
-554.427	410.386	-0.092	-0.197
-553.412	1.445	-0.113	-0.083
-552.398	-112.001	-0.249	0.051
-551.383	88.711	0.143	-0.161
-550.369	317.764	0.039	-0.075
-549.354	-17.526	0.291	-0.186
-548.339	233.267	-0.031	0.051
-547.325	-200.000	0.020	-0.218
-546.310	-200.000	-0.077	-0.380
-545.296	407.203	-0.081	-0.174
-544.281	84.003	0.244	0.270
-543.266	69.506	-0.132	-0.138
-542.252	-43.486	-0.260	0.133
-541.237	-83.119	0.076	-0.025
-540.223	0.747	0.158	0.115
-539.208	-91.700	0.076	0.022
-538.193	-200.000	0.014	-0.140
-537.179	383.715	0.104	-0.216
-536.164	800.000	-0.079	0.329
-535.150	-200.000	-0.025	0.121
-534.135	-1.725	0.114	-0.081
-533.121	297.749	-0.042	-0.079
-532.106	800.000	-0.004	0.015
-531.091	-18.604	-0.119	-0.075
-530.077	-125.721	-0.185	0.028
-529.062	-200.000	0.016	0.087
-528.048	-152.976	0.174	-0.012
-527.033	-126.776	0.181	0.027
-526.018	77.939	0.200	0.216
-525.004	-112.422	-0.203	-0.041
-523.989	444.323	-0.106	-0.235
-522.975	800.000	0.055	0.168
-521.960	-200.000	0.010	-0.260
-520.945	139.692	-0.047	0.062
-519.931	-40.044	-0.200	-0.105
-518.916	-200.000	-0.074	-0.670
-517.902	-99.478	0.108	0.028
-516.887	-78.940	-0.217	0.075
-515.872	109.521	-0.240	-0.292
-514.858	25.187	0.076	-0.064
-513.843	142.093	-0.253	0.339
-512.829	-85.840	-0.212	0.066
-511.814	5.938	-0.138	0.104
-510.799	-135.978	-0.328	-0.039
-509.785	800.000	0.045	-0.157
-508.770	-15.006	-0.098	0.064
-507.756	-200.000	-0.018	0.081
-506.741	-7.111	-0.248	0.170
-505.726	550.724	0.029	0.071
-504.712	589.519	0.089	-0.221
-503.697	-49.469	-0.288	0.139
-502.683	-78.590	-0.186	-0.064
-501.668	-88.380	-0.121	-0.037
-500.653	395.419	0.041	-0.086
-499.639	419.996	0.129	0.281
-498.624	-114.994	0.165	0.032
-497.610	238.878	0.087	-0.146
-496.595	567.751	-0.067	0.164
-495.581	800.000	-0.043	0.137
-494.566	-200.000	-0.014	-0.387
-493.551	718.548	0.011	0.031
-492.537	-59.077	-0.376	0.164
-491.522	738.999	0.113	0.308
-490.508	145.890	-0.139	-0.189
-489.493	215.021	0.100	-0.160
-488.478	-200.000	-0.023	-0.326
-487.464	262.543	0.077	-0.136
-486.449	-200.000	0.067	0.307
-485.435	-200.000	-0.034	-0.279
-484.420	800.000	0.037	-0.113
-483.405	359.130	-0.205	-0.414
-482.391	-30.364	-0.257	-0.148
-481.376	-200.000	0.033	-0.165
-480.362	61.776	-0.064	0.064
-479.347	347.698	-0.028	0.055
-478.332	-200.000	-0.020	0.315
-477.318	-124.060	0.342	0.054
-476.303	800.000	-0.076	0.265
-475.289	110.802	-0.111	-0.136
-474.274	49.976	0.138	0.132
-473.259	-39.513	-0.097	0.051
-472.245	-52.394	-0.082	0.038
-471.230	130.871	0.101	0.132
-470.216	397.581	0.105	-0.222
-469.201	10.525	0.286	0.220
-468.186	383.847	0.067	0.138
-467.172	69.263	-0.250	-0.260
-466.157	224.660	-0.044	0.072
-465.143	148.719	0.229	0.312
-464.128	-67.844	0.285	-0.112
-463.113	-144.565	0.254	-0.024
-462.099	124.855	-0.090	-0.114
-461.084	800.000	0.124	0.413
-460.070	800.000	0.015	-0.050
-459.055	-200.000	-0.021	-0.202
-458.040	-200.000	0.041	0.439
-457.026	-180.836	0.299	0.006
-456.011	165.693	0.060	-0.086
-454.997	-63.326	-0.164	-0.068
-453.982	403.887	0.193	-0.411
-452.968	-126.297	0.055	-0.008
-451.953	-48.702	-0.142	0.069
-450.938	-200.000	0.010	0.297
-449.924	36.493	0.082	0.073
-448.909	-200.000	0.090	0.668
-447.895	-179.722	-0.295	0.006
-446.880	-64.282	0.232	0.095
-445.865	-99.224	-0.175	0.045
-444.851	-102.862	-0.275	0.066
-443.836	-128.708	-0.241	-0.034
-442.822	-90.996	-0.376	0.109
-441.807	-144.457	-0.047	-0.004
-440.792	-200.000	0.009	0.320
-439.778	-80.092	0.162	0.055
-438.763	-29.759	-0.195	-0.112
-437.749	-83.946	0.306	0.098
-436.734	800.000	0.059	-0.198
-435.719	-107.731	-0.356	-0.078
-434.705	159.097	-0.021	-0.029
-433.690	-23.321	0.141	0.086
-432.676	175.187	-0.177	-0.259
-431.661	313.330	-0.144	-0.273
-430.646	739.509	-0.078	-0.211
-429.632	-200.000	-0.049	-0.262
-428.617	-49.500	-0.370	-0.178
-427.603	448.705	0.131	0.291
-426.588	495.920	0.042	0.098
-425.573	525.105	-0.098	-0.232
-424.559	800.000	-0.042	0.163
-423.544	-200.000	0.030	0.135
-422.530	121.667	-0.269	0.338
-421.515	800.000	-0.026	-0.079
-420.500	3.787	-0.142	-0.105
-419.486	31.622	0.291	0.253
-418.471	-89.915	0.191	-0.056
-417.457	-76.474	-0.412	0.146
-416.442	-25.745	0.147	-0.088
-415.428	-200.000	-0.036	-0.193
-414.413	800.000	0.077	-0.330
-413.398	51.412	-0.159	-0.152
-412.384	-200.000	0.005	0.184
-411.369	312.335	-0.115	-0.217
-410.355	484.982	0.078	0.178
-409.340	15.621	-0.053	0.042
-408.325	222.985	-0.219	0.355
-407.311	-9.924	0.091	-0.061
-406.296	228.960	0.124	0.204
-405.282	-120.502	-0.233	0.040
-404.267	14.841	-0.147	-0.116
-403.252	276.042	0.157	-0.281
-402.238	-152.362	0.093	-0.007
-401.223	218.979	0.236	-0.381
-400.209	-200.000	-0.039	0.181
-399.194	-97.605	-0.166	0.043
-398.179	33.829	-0.124	0.109
-397.165	-1.554	-0.219	-0.156
-396.150	457.888	0.082	0.184
-395.136	-81.326	0.351	-0.117
-394.121	800.000	0.093	0.293
-393.106	-135.127	-0.338	0.041
-392.092	-109.363	0.242	-0.052
-391.077	173.181	0.092	-0.133
-390.063	81.577	-0.106	0.116
-389.048	15.716	-0.226	0.179
-388.033	122.375	0.159	-0.200
-387.019	-200.000	0.031	0.152
-386.004	-200.000	-0.005	-0.155
-384.990	499.793	-0.099	-0.229
-383.975	167.320	-0.098	0.140
-382.960	583.004	-0.014	0.035
-381.946	9.188	-0.058	0.044
-380.931	-99.011	-0.126	0.032
-379.917	-200.000	0.094	-0.477
-378.902	-200.000	0.264	0.000
-377.888	58.450	-0.083	0.082
-376.873	709.958	-0.108	-0.287
-375.858	228.649	0.102	0.167
-374.844	419.665	-0.068	-0.147
-373.829	-98.765	0.085	-0.022
-372.815	800.000	-0.067	0.193
-371.800	72.374	-0.124	0.131
-370.785	-200.000	-0.010	0.407
-369.771	17.099	-0.169	-0.135
-368.756	-136.234	-0.099	-0.012
-367.742	-127.097	-0.147	-0.022
-366.727	472.217	0.094	-0.213
-365.712	-85.150	-0.253	0.080
-364.698	29.240	0.159	-0.136
-363.683	-40.398	0.322	0.168
-362.669	-90.975	0.368	-0.107
-361.654	-56.497	0.342	-0.153
-360.639	325.555	0.045	0.087
-359.625	45.363	-0.202	-0.188
-358.610	-93.291	0.140	0.039
-357.596	0.007	-0.096	0.069
-356.581	-85.277	0.389	-0.122
-355.566	-143.933	-0.321	0.030
-354.552	-117.648	-0.102	0.018
-353.537	-21.653	0.101	-0.062
-352.523	78.441	-0.190	-0.204
-351.508	150.542	-0.214	-0.293
-350.493	800.000	0.067	-0.234
-349.479	-200.000	0.050	-0.486
-348.464	-60.841	-0.325	-0.138
-347.450	-114.204	0.216	-0.042
-346.435	171.734	0.173	0.250
-345.420	-200.000	0.025	-0.152
-344.406	-102.776	0.228	0.055
-343.391	-16.904	0.007	-0.004
-342.377	-102.392	0.156	0.038
-341.362	-40.470	-0.101	-0.053
-340.348	-137.586	0.185	-0.021
-339.333	-25.189	-0.143	0.085
-338.318	80.827	0.130	0.140
-337.304	800.000	-0.067	0.211
-336.289	-109.409	-0.349	-0.074
-335.275	9.636	-0.061	0.046
-334.260	339.505	0.036	0.070
-333.245	162.250	-0.065	0.091
-332.231	-200.000	-0.004	0.460
-331.216	122.918	0.234	0.295
-330.202	-200.000	-0.011	-0.143
-329.187	-133.741	0.187	0.023
-328.172	-127.319	-0.194	-0.028
-327.158	-102.253	-0.205	-0.049
-326.143	-104.214	0.358	0.084
-325.129	-77.271	-0.100	-0.035
-324.114	-115.413	0.429	-0.081
-323.099	-200.000	-0.005	0.191
-322.085	-105.526	-0.282	-0.064
-321.070	-200.000	0.019	-0.237
-320.056	74.647	-0.156	0.165
-319.041	-132.420	-0.031	0.004
-318.026	477.549	0.066	0.151
-317.012	462.996	0.151	-0.338
-315.997	-42.283	0.375	-0.192
-314.983	-69.824	-0.346	0.133
-313.968	285.025	-0.073	0.132
-312.953	436.125	0.033	0.073
-311.939	-116.988	-0.289	-0.053
-310.924	113.064	-0.124	-0.151
-309.910	-189.020	0.227	0.003
-308.895	800.000	-0.040	-0.133
-307.880	-61.938	-0.194	-0.081
-306.866	753.782	0.067	0.182
-305.851	94.810	0.110	-0.126
-304.837	-109.072	-0.095	-0.020
-303.822	-200.000	0.062	0.282
-302.807	733.004	-0.116	-0.312
-301.793	-200.000	-0.056	0.264
-300.778	-34.178	0.220	-0.121
-299.764	-27.635	-0.082	0.048
-298.749	-200.000	-0.042	0.233
-297.735	-10.241	-0.217	0.145
-296.720	262.338	0.060	0.104
-295.705	540.306	-0.045	0.107
-294.691	215.811	0.093	-0.149
-293.676	445.200	-0.058	-0.127
-292.662	-91.304	-0.134	0.038
-291.647	-7.613	0.329	0.223
-290.632	800.000	0.023	0.093
-289.618	228.689	-0.157	0.256
-288.603	45.589	0.385	-0.357
-287.589	-111.898	-0.080	-0.016
-286.574	515.661	0.082	0.192
-285.559	326.141	0.069	0.133
-284.545	138.467	0.096	0.126
-283.530	-51.007	-0.236	-0.111
-282.516	-200.000	0.145	-0.000
-281.501	90.063	-0.084	0.095
-280.486	-46.622	-0.212	-0.104
-279.472	-97.799	0.108	-0.028
-278.457	255.855	0.014	-0.024
-277.443	-60.099	-0.346	0.148
-276.428	2.827	-0.206	-0.150
-275.413	152.303	-0.112	0.154
-274.399	-98.513	-0.143	-0.037
-273.384	210.017	0.093	-0.146
-272.370	-158.250	0.222	-0.013
-271.355	20.980	0.276	0.225
-270.340	-67.763	-0.280	-0.110
-269.326	-5.059	0.161	0.111
-268.311	7.904	0.129	-0.097
-267.297	118.834	-0.079	0.098
-266.282	-66.187	-0.293	-0.117
-265.267	800.000	0.091	0.289
-264.253	-200.000	0.011	0.142
-263.238	108.695	0.125	-0.150
-262.224	-200.000	-0.029	-0.253
-261.209	800.000	0.019	0.076
-260.195	-78.400	0.243	-0.083
-259.180	-38.113	0.296	-0.158
-258.165	800.000	0.100	0.289
-257.151	800.000	-0.051	-0.219
-256.136	13.913	0.274	0.214
-255.122	-147.219	0.333	0.028
-254.107	-18.782	0.032	0.020
-253.092	-99.301	0.143	0.036
-252.078	-48.627	-0.131	0.063
-251.063	800.000	-0.138	-0.494
-250.049	-22.894	0.078	-0.047
-249.034	800.000	0.099	-0.372
-248.019	11.247	-0.227	-0.174
-247.005	-23.441	0.173	-0.104
-245.990	800.000	-0.041	-0.146
-244.976	-126.861	0.097	-0.014
-243.961	800.000	0.098	0.345
-242.946	87.314	-0.196	0.217
-241.932	-101.363	-0.160	0.039
-240.917	-117.424	-0.092	-0.017
-239.903	800.000	0.091	0.341
-238.888	800.000	-0.067	-0.224
-237.873	399.866	0.147	0.309
-236.859	-71.774	0.275	-0.103
-235.844	-200.000	-0.031	0.181
-234.830	800.000	-0.129	0.365
-233.815	-200.000	-0.008	-0.133
-232.800	8.424	0.188	-0.142
-231.786	-56.181	-0.126	0.056
-230.771	33.846	-0.164	-0.143
-229.757	-200.000	-0.001	0.253
-228.742	-200.000	-0.006	-0.154
-227.727	112.691	0.149	0.181
-226.713	-115.913	0.295	0.055
-225.698	246.244	-0.153	-0.259
-224.684	-200.000	0.022	0.355
-223.669	442.365	0.130	0.285
-222.655	-200.000	-0.016	-0.282
-221.640	-200.000	-0.052	-0.284
-220.625	-9.458	-0.202	-0.135
-219.611	-82.172	-0.062	-0.020
-218.596	-200.000	-0.019	-0.185
-217.582	268.465	0.129	0.226
-216.567	680.100	-0.101	0.264
-215.552	-4.560	0.176	-0.122
-214.538	-97.710	-0.285	-0.074
-213.523	312.596	-0.072	0.135
-212.509	683.927	0.135	0.351
-211.494	-10.004	0.385	-0.256
-210.479	368.285	-0.108	0.219
-209.465	-127.579	-0.217	0.031
-208.450	800.000	-0.041	0.134
-207.436	-132.477	0.207	-0.027
-206.421	-68.365	-0.149	0.058
-205.406	118.079	-0.205	-0.252
-204.392	-63.994	0.147	0.060
-203.377	-74.140	-0.283	-0.103
-202.363	-123.934	0.143	0.023
-201.348	192.556	-0.132	0.200
-200.333	-97.171	0.314	-0.082
-199.319	800.000	0.115	0.443
-198.304	-200.000	0.015	-0.103
-197.290	-51.917	0.246	0.114
-196.275	-107.159	0.184	-0.041
-195.260	-18.139	0.389	-0.244
-194.246	0.590	0.013	0.009
-193.231	-200.000	-0.015	-0.075
-192.217	-200.000	-0.036	-0.197
-191.202	-93.750	-0.069	-0.019
-190.187	493.149	-0.075	0.171
-189.173	-200.000	0.021	0.111
-188.158	-60.473	0.258	0.110
-187.144	800.000	-0.039	0.121
-186.129	98.289	-0.095	-0.109
-185.114	-77.206	-0.208	0.073
-184.100	-200.000	0.013	-0.072
-183.085	84.121	0.176	0.192
-182.071	73.384	0.077	0.081
-181.056	130.832	0.310	-0.397
-180.042	-77.676	0.091	-0.031
-179.027	-125.254	-0.327	-0.050
-178.012	238.289	-0.073	-0.122
-176.998	10.054	-0.225	-0.171
-175.983	183.039	0.099	0.146
-174.969	15.980	0.077	0.061
-173.954	-62.233	0.228	-0.095
-172.939	82.350	0.301	-0.326
-171.925	-200.000	0.003	0.089
-170.910	-123.610	-0.128	0.020
-169.896	-15.054	0.193	0.123
-168.881	-200.000	-0.043	-0.316
-167.866	800.000	0.076	0.290
-166.852	-25.046	0.216	-0.128
-165.837	578.953	0.037	0.092
-164.823	-135.332	0.225	-0.027
-163.808	-45.386	0.217	-0.107
-162.793	-200.000	0.006	-0.153
-161.779	-178.584	0.164	-0.004
-160.764	497.370	0.022	0.052
-159.750	338.123	-0.077	0.149
-158.735	-116.443	0.182	-0.034
-157.720	-200.000	0.030	-0.222
-156.706	-63.193	-0.167	-0.069
-155.691	-101.827	0.113	0.027
-154.677	-200.000	-0.022	-0.237
-153.662	-167.388	0.131	-0.005
-152.647	439.735	0.133	-0.290
-151.633	-154.563	-0.130	-0.009
-150.618	-200.000	0.001	0.060
-149.604	-200.000	0.030	0.274
-148.589	-200.000	0.256	-0.000
-147.574	213.995	0.096	-0.151
-146.560	278.010	0.132	-0.234
-145.545	-200.000	-0.007	0.310
-144.531	-68.510	-0.349	-0.135
-143.516	-61.714	0.162	0.068
-142.502	-110.670	-0.083	-0.017
-141.487	46.149	0.098	0.091
-140.472	-144.614	0.202	-0.019
-139.458	-186.586	-0.288	-0.004
-138.443	-43.275	0.337	-0.170
-137.429	103.916	-0.180	0.211
-136.414	92.812	0.245	0.276
-135.399	-200.000	0.029	0.243
-134.385	-34.351	0.059	0.032
-133.370	147.567	0.057	0.076
-132.356	114.082	-0.088	-0.107
-131.341	256.958	-0.088	0.151
-130.326	-116.241	0.031	-0.006
-129.312	-85.577	0.073	0.023
-128.297	-200.000	0.001	0.088
-127.283	4.998	0.282	-0.207
-126.268	107.562	-0.133	0.158
-125.253	177.677	0.137	0.199
-124.239	800.000	0.049	0.148
-123.224	630.454	0.126	-0.318
-122.210	-32.827	-0.227	0.126
