DTS Sentinel unit serial number:	SN413079Multiplexer serial number:	ORYXHardware model number:	OX4-SRSoftware version number:	ORYX F/W v4.00 Oryx Data Collector v3.7.2.0data status	okinstallation	princeton_trtdifferential loss correction	single-endedforward channel	channel 4reverse channel	N/Adate	2019/09/10time	19:31:11forward acquisition time	60.00reverse acquisition time	0.00gamma	496.2192k internal	0.2309k external	0.2309temperature offset calibration	0.9939default loss term (dB/km)	0.3790temperature slope calibration	1.0000multiplexer offset coefficient	1.0000multiplexer slope coefficient	1.0000fibre end	0.00T internal ref (°C)	33.44T ext. ref 1 (°C)	-0.41T ext. ref 2 (°C)	26.11length (m)	temperature (°C)	Stokes	anti-Stokes-747.200	-134.791	0.065	0.008
-746.185	-142.683	0.258	-0.026
-745.171	246.084	-0.216	-0.370
-744.156	118.034	0.121	0.152
-743.142	-36.818	0.097	0.053
-742.127	472.414	0.119	0.273
-741.112	735.961	0.091	-0.248
-740.098	140.937	-0.218	0.292
-739.083	-44.071	0.301	-0.154
-738.069	-200.000	-0.027	0.397
-737.054	263.562	0.121	-0.213
-736.039	-58.289	0.125	-0.055
-735.025	-159.326	0.558	-0.032
-734.010	-83.914	-0.377	-0.122
-732.996	-200.000	-0.003	-0.358
-731.981	104.952	0.173	0.208
-730.966	552.577	-0.012	-0.029
-729.952	-183.808	0.181	-0.003
-728.937	78.925	-0.231	0.251
-727.923	140.654	0.006	0.008
-726.908	189.538	0.124	-0.189
-725.894	-200.000	-0.010	-0.194
-724.879	-176.425	0.293	-0.008
-723.864	-152.073	0.277	-0.020
-722.850	520.182	0.078	0.185
-721.835	-200.000	0.014	-0.196
-720.821	-22.013	-0.265	-0.164
-719.806	161.683	0.104	-0.147
-718.791	179.897	0.278	-0.414
-717.777	-117.636	-0.267	0.049
-716.762	800.000	-0.045	0.160
-715.748	-200.000	0.027	-0.120
-714.733	30.180	-0.249	-0.216
-713.718	-44.719	0.151	-0.076
-712.704	10.328	-0.043	0.033
-711.689	456.550	-0.176	-0.398
-710.675	-4.254	0.111	-0.078
-709.660	-100.529	0.214	0.054
-708.645	460.606	-0.065	-0.148
-707.631	-50.361	0.185	-0.089
-706.616	53.400	0.237	-0.230
-705.602	-66.145	0.152	0.062
-704.587	25.725	0.069	-0.059
-703.572	-97.967	-0.122	0.032
-702.558	501.454	0.036	-0.085
-701.543	44.411	0.042	-0.039
-700.529	19.289	0.044	0.036
-699.514	-200.000	0.024	-0.182
-698.499	-160.367	-0.293	-0.016
-697.485	24.143	-0.101	0.084
-696.470	-200.000	-0.076	-0.450
-695.456	79.171	0.138	0.150
-694.441	20.347	-0.283	-0.232
-693.426	-17.543	-0.103	-0.065
-692.412	275.844	0.128	0.230
-691.397	-58.491	0.260	-0.115
-690.383	29.587	-0.181	-0.156
-689.368	586.251	-0.057	0.141
-688.354	-101.256	-0.103	-0.026
-687.339	64.966	0.022	0.022
-686.324	-16.422	-0.075	-0.048
-685.310	370.742	0.085	0.176
-684.295	-49.067	0.117	-0.057
-683.281	29.424	0.117	0.101
-682.266	114.589	0.091	-0.113
-681.251	351.445	0.260	0.522
-680.237	18.497	0.142	0.115
-679.222	-200.000	0.039	0.213
-678.208	-19.968	-0.143	-0.090
-677.193	800.000	0.076	-0.250
-676.178	-200.000	-0.025	-0.280
-675.164	138.030	0.310	0.412
-674.149	286.202	0.201	0.367
-673.135	-146.903	-0.153	0.013
-672.120	-14.454	-0.201	0.131
-671.105	-200.000	0.062	0.281
-670.091	-200.000	-0.057	-0.258
-669.076	-200.000	-0.014	0.488
-668.062	63.651	0.073	-0.075
-667.047	-155.311	-0.232	0.015
-666.032	800.000	0.043	-0.122
-665.018	-145.605	-0.159	0.014
-664.003	-73.325	-0.024	0.009
-662.989	-6.719	0.066	-0.045
-661.974	800.000	-0.043	0.147
-660.959	119.642	0.074	-0.093
-659.945	-57.848	-0.210	0.093
-658.930	-142.363	0.171	-0.017
-657.916	-48.103	-0.196	-0.096
-656.901	-200.000	-0.009	-0.138
-655.886	-200.000	0.047	-0.210
-654.872	-200.000	-0.018	0.261
-653.857	751.685	-0.164	0.449
-652.843	-34.538	0.131	0.073
-651.828	-93.715	-0.200	-0.056
-650.814	-102.716	-0.318	0.077
-649.799	-200.000	0.014	0.125
-648.784	-123.011	0.200	0.033
-647.770	-25.528	0.112	0.067
-646.755	-34.611	-0.156	-0.086
-645.741	-46.763	-0.219	-0.109
-644.726	-156.980	0.230	0.014
-643.711	108.248	0.109	-0.132
-642.697	-137.760	-0.749	0.085
-641.682	132.060	0.074	-0.096
-640.668	-6.862	-0.114	0.078
-639.653	-27.958	0.185	-0.108
-638.638	800.000	-0.083	-0.278
-637.624	-18.243	0.178	0.112
-636.609	-116.345	0.062	-0.012
-635.595	-200.000	0.026	0.220
-634.580	-200.000	-0.049	-0.284
-633.565	160.791	-0.155	-0.219
-632.551	2.745	-0.143	-0.105
-631.536	-36.581	-0.102	-0.055
-630.522	72.667	0.199	-0.210
-629.507	42.180	0.184	0.169
-628.492	83.778	0.132	-0.146
-627.478	800.000	0.099	-0.282
-626.463	46.777	-0.122	-0.114
-625.449	-138.159	0.337	0.038
-624.434	-149.429	-0.332	-0.027
-623.419	-44.274	0.270	0.137
-622.405	35.149	0.183	0.162
-621.390	124.047	0.090	-0.115
-620.376	-118.328	-0.210	0.038
-619.361	-92.250	-0.076	-0.022
-618.346	800.000	-0.078	-0.235
-617.332	39.853	-0.105	-0.095
-616.317	162.356	-0.086	0.122
-615.303	-57.785	-0.076	-0.034
-614.288	39.445	0.177	-0.160
-613.273	66.968	0.151	0.156
-612.259	-51.616	-0.163	0.077
-611.244	-50.660	0.539	-0.257
-610.230	-200.000	-0.016	0.098
-609.215	-116.834	-0.038	0.007
-608.201	356.803	-0.081	-0.163
-607.186	-200.000	0.002	-0.102
-606.171	458.011	0.049	-0.111
-605.157	-200.000	-0.026	-0.193
-604.142	-31.560	0.128	0.073
-603.128	-200.000	0.007	-0.107
-602.113	-200.000	-0.014	0.173
-601.098	39.955	0.156	0.142
-600.084	-43.707	-0.109	0.055
-599.069	-200.000	0.014	-0.298
-598.055	-200.000	-0.008	0.073
-597.040	25.528	-0.171	0.143
-596.025	-83.373	-0.304	0.098
-595.011	311.672	-0.288	0.545
-593.996	-58.031	-0.146	-0.064
-592.982	-78.082	-0.194	-0.067
-591.967	45.908	-0.252	0.236
-590.952	-200.000	-0.037	0.275
-589.938	11.499	-0.332	0.257
-588.923	800.000	0.030	0.120
-587.909	-28.856	0.058	0.034
-586.894	627.271	0.160	0.407
-585.879	-200.000	0.064	0.386
-584.865	-200.000	-0.012	0.172
-583.850	-40.761	-0.124	0.065
-582.836	31.820	0.108	0.094
-581.821	-128.788	-0.332	-0.047
-580.806	313.998	-0.181	-0.344
-579.792	800.000	-0.040	-0.169
-578.777	101.141	-0.239	-0.281
-577.763	116.706	0.227	-0.281
-576.748	198.681	0.073	-0.113
-575.733	800.000	-0.008	0.027
-574.719	-151.801	0.254	-0.019
-573.704	-156.270	0.089	-0.006
-572.690	-65.294	-0.174	-0.071
-571.675	30.115	0.282	0.243
-570.661	-200.000	-0.016	-0.261
-569.646	158.213	-0.187	0.262
-568.631	19.670	-0.190	-0.154
-567.617	-200.000	0.042	-0.242
-566.602	-117.018	-0.093	-0.017
-565.588	800.000	0.138	-0.385
-564.573	429.553	-0.040	0.087
-563.558	-200.000	0.016	-0.095
-562.544	-84.782	-0.316	0.100
-561.529	-107.657	-0.093	-0.021
-560.515	-200.000	0.002	0.027
-559.500	-55.661	0.250	-0.113
-558.485	414.143	-0.097	-0.207
-557.471	52.555	0.204	0.197
-556.456	800.000	0.080	0.335
-555.442	-54.907	-0.228	0.104
-554.427	163.129	-0.182	-0.258
-553.412	-24.104	0.118	-0.071
-552.398	181.940	0.023	0.034
-551.383	-200.000	0.004	-0.127
-550.369	233.595	0.147	0.244
-549.354	751.312	-0.044	0.118
-548.339	112.262	0.183	-0.223
-547.325	-163.412	0.099	0.005
-546.310	-26.588	-0.140	0.082
-545.296	260.284	-0.033	-0.058
-544.281	-160.466	-0.140	-0.008
-543.266	-1.521	0.248	0.176
-542.252	-10.348	0.049	0.033
-541.237	-200.000	-0.024	-0.328
-540.223	635.742	-0.124	0.317
-539.208	-88.130	0.346	-0.105
-538.193	800.000	0.094	-0.416
-537.179	171.784	0.116	-0.168
-536.164	-13.845	-0.148	0.097
-535.150	-131.812	-0.237	0.031
-534.135	-200.000	-0.013	-0.261
-533.121	-200.000	-0.011	0.066
-532.106	26.913	0.134	-0.113
-531.091	-55.185	-0.036	-0.016
-530.077	-99.289	0.045	0.012
-529.062	-200.000	-0.044	-0.230
-528.048	155.182	0.251	-0.348
-527.033	502.873	-0.043	-0.100
-526.018	-42.965	-0.135	-0.069
-525.004	-181.083	-0.368	0.007
-523.989	-200.000	0.008	0.192
-522.975	423.760	-0.072	0.157
-521.960	-119.911	-0.107	0.019
-520.945	-1.595	0.105	-0.075
-519.931	-121.826	-0.069	-0.011
-518.916	-18.872	0.189	-0.119
-517.902	-40.774	0.232	-0.121
-516.887	-160.644	0.553	-0.030
-515.872	-200.000	-0.028	-0.156
-514.858	620.673	-0.127	-0.323
-513.843	179.873	-0.102	-0.151
-512.829	-65.242	0.142	-0.058
-511.814	-57.660	-0.338	0.149
-510.799	13.220	0.122	0.095
-509.785	-200.000	0.378	0.002
-508.770	-92.232	0.478	0.136
-507.756	-48.148	-0.068	0.033
-506.741	-77.905	-0.143	0.050
-505.726	-200.000	0.066	-0.484
-504.712	240.588	0.130	-0.218
-503.697	593.353	0.137	0.340
-502.683	-9.983	0.206	-0.138
-501.668	-30.046	0.158	-0.091
-500.653	-200.000	0.044	0.276
-499.639	-200.000	0.032	0.225
-498.624	800.000	-0.136	0.523
-497.610	-200.000	-0.092	0.477
-496.595	800.000	-0.104	0.323
-495.581	-2.625	-0.123	0.087
-494.566	-200.000	-0.017	0.228
-493.551	-120.974	0.109	-0.018
-492.537	-200.000	-0.192	0.000
-491.522	-200.000	-0.021	-0.110
-490.508	381.352	-0.156	-0.322
-489.493	-200.000	-0.007	-0.193
-488.478	-167.771	0.242	-0.010
-487.464	-170.043	0.161	0.006
-486.449	800.000	0.090	0.296
-485.435	-27.453	0.149	0.087
-484.420	-75.436	-0.053	0.019
-483.405	441.536	0.133	-0.292
-482.391	-38.078	-0.117	-0.063
-481.376	800.000	0.055	0.156
-480.362	186.337	-0.209	0.313
-479.347	-134.852	-0.206	0.025
-478.332	25.230	0.156	-0.130
-477.318	-200.000	0.044	-0.322
-476.303	59.390	-0.235	-0.233
-475.289	-200.000	-0.105	0.000
-474.274	127.235	-0.215	-0.274
-473.259	1.854	-0.125	-0.091
-472.245	231.479	-0.152	-0.250
-471.230	22.248	0.105	0.086
-470.216	-200.000	0.003	0.023
-469.201	235.550	-0.087	-0.145
-468.186	406.930	0.041	0.087
-467.172	800.000	-0.041	0.136
-466.157	-166.325	-0.196	0.008
-465.143	-24.588	0.253	-0.152
-464.128	800.000	0.063	0.250
-463.113	381.601	0.023	0.048
-462.099	-0.544	-0.296	-0.211
-461.084	-87.466	0.070	-0.021
-460.070	18.999	-0.285	-0.229
-459.055	-131.387	0.230	0.031
-458.040	440.738	0.070	-0.154
-457.026	-111.594	-0.085	-0.017
-456.011	-29.751	0.250	0.143
-454.997	-79.634	-0.154	0.052
-453.982	146.785	0.069	0.093
-452.968	800.000	-0.012	-0.039
-451.953	3.690	0.195	0.143
-450.938	-81.338	0.078	-0.026
-449.924	136.668	0.102	0.133
-448.909	-127.350	-0.079	0.012
-447.895	800.000	-0.031	0.090
-446.880	800.000	0.073	-0.226
-445.865	-124.774	-0.381	-0.059
-444.851	-73.654	0.133	0.049
-443.836	-122.702	0.149	-0.024
-442.822	-86.163	-0.227	-0.070
-441.807	161.841	0.132	0.185
-440.792	-45.259	0.077	-0.038
-439.778	-119.946	0.345	0.060
-438.763	-200.000	0.042	-0.255
-437.749	800.000	-0.048	-0.186
-436.734	-74.885	0.307	0.111
-435.719	278.565	-0.116	0.207
-434.705	-108.085	0.208	-0.045
-433.690	-4.871	-0.074	-0.051
-432.676	685.959	0.101	-0.266
-431.661	800.000	0.140	-0.471
-430.646	-71.030	-0.128	0.048
-429.632	7.089	0.068	-0.051
-428.617	691.817	-0.192	0.505
-427.603	342.376	0.218	0.427
-426.588	800.000	0.039	-0.136
-425.573	13.285	0.138	0.108
-424.559	124.441	-0.251	0.317
-423.544	47.427	-0.219	0.204
-422.530	-109.424	-0.115	-0.024
-421.515	-200.000	0.009	0.133
-420.500	-68.592	-0.196	-0.076
-419.486	24.368	-0.091	-0.075
-418.471	393.761	0.158	0.331
-417.457	-200.000	0.028	-0.260
-416.442	800.000	0.016	0.069
-415.428	240.545	0.082	0.137
-414.413	-143.596	-0.339	0.032
-413.398	-200.000	-0.036	-0.307
-412.384	1.962	0.154	0.111
-411.369	-16.954	0.252	-0.160
-410.355	-200.000	0.020	0.368
-409.340	-148.280	0.145	0.012
-408.325	11.230	-0.140	0.107
-407.311	15.496	-0.176	0.139
-406.296	32.313	0.209	-0.181
-405.282	-200.000	0.028	-0.240
-404.267	111.367	0.188	-0.228
-403.252	-60.476	-0.082	-0.035
-402.238	-200.000	0.005	-0.193
-401.223	446.558	-0.154	-0.340
-400.209	-200.000	-0.008	0.035
-399.194	-51.977	-0.195	0.091
-398.179	-100.253	0.222	0.055
-397.165	-60.538	0.136	0.058
-396.150	290.692	-0.189	-0.344
-395.136	276.533	0.112	-0.200
-394.121	800.000	0.053	-0.198
-393.106	99.049	-0.297	0.344
-392.092	-159.636	0.139	0.008
-391.077	-5.504	-0.063	0.044
-390.063	19.631	-0.094	-0.076
-389.048	71.392	0.157	-0.163
-388.033	87.818	-0.113	-0.126
-387.019	322.340	-0.058	0.111
-386.004	800.000	-0.066	-0.260
-384.990	423.667	0.194	-0.417
-383.975	-200.000	0.037	0.174
-382.960	319.332	0.111	0.211
-381.946	800.000	-0.049	0.207
-380.931	-94.741	-0.134	-0.036
-379.917	-161.805	-0.212	0.011
-378.902	-83.713	-0.383	0.123
-377.888	-82.964	0.435	0.141
-376.873	-39.758	-0.309	-0.162
-375.858	10.158	-0.168	0.128
-374.844	-200.000	0.009	0.161
-373.829	-76.123	0.147	0.052
-372.815	3.817	0.367	0.269
-371.800	161.489	-0.226	0.317
-370.785	400.111	0.040	-0.084
-369.771	592.708	0.083	0.206
-368.756	6.679	-0.273	-0.203
-367.742	261.863	-0.129	0.225
-366.727	-200.000	0.014	-0.324
-365.712	-79.155	-0.186	-0.063
-364.698	41.422	0.094	-0.085
-363.683	3.247	0.242	-0.176
-362.669	392.268	0.075	0.156
-361.654	-81.986	-0.196	-0.064
-360.639	-200.000	0.037	-0.212
-359.625	800.000	-0.057	-0.201
-358.610	386.117	-0.121	-0.250
-357.596	296.939	0.105	-0.193
-356.581	-82.599	-0.042	-0.013
-355.566	387.706	-0.200	-0.414
-354.552	316.653	0.053	0.100
-353.537	-43.678	0.156	0.079
-352.523	724.596	-0.042	-0.113
-351.508	380.667	-0.067	0.138
-350.493	-60.615	-0.177	-0.075
-349.479	361.239	-0.107	0.215
-348.464	-54.662	-0.269	0.122
-347.450	800.000	-0.063	0.230
-346.435	37.646	0.142	0.126
-345.420	800.000	0.066	-0.254
-344.406	421.882	0.099	0.213
-343.391	27.476	0.206	0.173
-342.377	-69.242	0.172	-0.066
-341.362	800.000	0.093	-0.407
-340.348	-200.000	-0.035	0.340
-339.333	217.732	-0.029	-0.046
-338.318	-118.331	0.184	-0.033
-337.304	-200.000	-0.031	0.166
-336.289	282.016	0.014	-0.026
-335.275	642.984	-0.110	0.281
-334.260	-129.166	0.258	-0.036
-333.245	472.666	0.066	0.148
-332.231	800.000	-0.081	0.301
-331.216	753.257	0.023	-0.062
-330.202	-30.725	-0.090	-0.051
-329.187	-77.930	-0.140	-0.048
-328.172	-86.001	0.320	0.099
-327.158	-125.087	0.260	0.040
-326.143	-113.478	0.039	0.008
-325.129	58.196	0.113	-0.110
-324.114	-19.398	-0.237	0.147
-323.099	11.885	-0.095	0.073
-322.085	800.000	-0.057	0.227
-321.070	-200.000	0.008	0.045
-320.056	59.721	-0.027	-0.027
-319.041	-26.452	-0.359	0.211
-318.026	-88.870	-0.289	0.086
-317.012	-72.152	0.303	-0.112
-315.997	-200.000	-0.036	0.160
-314.983	-58.974	0.269	-0.116
-313.968	25.981	0.134	-0.112
-312.953	-164.766	-0.300	0.013
-311.939	311.389	-0.205	-0.383
-310.924	-5.046	0.145	0.100
-309.910	71.542	0.144	0.149
-308.895	305.826	-0.049	-0.091
-307.880	1.294	-0.367	-0.263
-306.866	-200.000	-0.036	-0.352
-305.851	751.136	-0.058	-0.157
-304.837	473.067	-0.149	-0.335
-303.822	-38.155	-0.308	0.163
-302.807	71.539	0.193	0.200
-301.793	-71.950	-0.179	-0.067
-300.778	-200.000	0.016	-0.370
-299.764	136.774	0.168	-0.219
-298.749	336.624	0.070	-0.137
-297.735	650.216	-0.083	-0.213
-296.720	-0.879	-0.210	0.148
-295.705	-62.991	0.221	0.091
-294.691	218.641	0.117	-0.186
-293.676	-159.313	0.588	0.033
-292.662	800.000	0.046	0.128
-291.647	-104.295	0.152	-0.035
-290.632	-98.590	-0.162	0.041
-289.618	43.550	-0.054	0.049
-288.603	-200.000	-0.027	-0.200
-287.589	-147.990	-0.021	-0.002
-286.574	598.893	-0.087	-0.216
-285.559	-90.597	-0.154	0.044
-284.545	-12.517	0.290	-0.189
-283.530	4.852	0.230	-0.169
-282.516	-183.979	0.115	0.002
-281.501	10.494	0.182	0.138
-280.486	25.744	-0.180	-0.150
-279.472	133.946	0.177	-0.228
-278.457	137.153	-0.103	-0.134
-277.443	-6.327	0.017	-0.012
-276.428	45.771	-0.259	0.239
-275.413	-88.525	0.493	-0.147
-274.399	48.474	0.060	-0.056
-273.384	800.000	-0.051	0.196
-272.370	21.894	-0.245	0.199
-271.355	54.678	0.178	-0.171
-270.340	444.816	-0.041	0.089
-269.326	-27.003	0.046	0.027
-268.311	121.608	-0.117	0.145
-267.297	-200.000	-0.000	0.129
-266.282	107.959	-0.177	0.211
-265.267	-200.000	0.000	0.013
-264.253	-200.000	-0.019	0.110
-263.238	6.676	0.233	-0.173
-262.224	-74.795	0.081	0.029
-261.209	584.150	-0.107	0.263
-260.195	-101.118	0.332	-0.081
-259.180	436.268	-0.059	0.128
-258.165	-4.412	-0.128	0.088
-257.151	103.905	0.108	0.126
-256.136	303.552	-0.095	0.175
-255.122	53.484	-0.397	-0.380
-254.107	0.226	-0.186	-0.132
-253.092	-145.771	0.290	0.026
-252.078	-108.514	-0.216	0.046
-251.063	347.480	0.121	-0.238
-250.049	-200.000	0.002	-0.129
-249.034	23.715	-0.043	-0.035
-248.019	-53.006	-0.359	0.165
-247.005	-127.749	0.114	0.016
-245.990	223.104	-0.048	0.078
-244.976	-200.000	0.002	0.184
-243.961	-25.566	0.103	-0.060
-242.946	-124.830	0.113	0.017
-241.932	152.578	-0.262	0.356
-240.917	-195.858	0.375	-0.003
-239.903	116.787	-0.073	0.090
-238.888	280.552	-0.175	-0.312
-237.873	-84.355	0.074	-0.023
-236.859	-200.000	-0.005	0.149
-235.844	365.738	0.100	-0.202
-234.830	-40.035	0.296	0.154
-233.815	-29.989	-0.136	-0.077
-232.800	56.292	-0.057	0.056
-231.786	800.000	0.023	-0.094
-230.771	-91.482	-0.307	0.087
-229.757	-200.000	-0.010	-0.096
-228.742	-83.288	0.274	-0.088
-227.727	-200.000	0.121	-0.000
-226.713	-200.000	-0.062	0.544
-225.698	609.877	0.150	0.373
-224.684	800.000	-0.046	-0.142
-223.669	-200.000	-0.003	0.114
-222.655	307.833	-0.077	0.142
-221.640	-131.598	0.188	-0.025
-220.625	196.318	-0.016	-0.025
-219.611	588.544	-0.049	0.121
-218.596	240.635	-0.179	0.298
-217.582	-19.400	-0.413	-0.255
-216.567	-26.065	0.243	0.142
-215.552	145.929	0.044	-0.058
-214.538	-106.708	-0.378	0.084
-213.523	146.907	0.179	0.239
-212.509	800.000	-0.018	0.072
-211.494	-49.494	-0.131	0.062
-210.479	-200.000	0.042	-0.225
-209.465	21.325	0.156	0.126
-208.450	7.057	-0.160	0.119
-207.436	800.000	0.075	-0.310
-206.421	56.576	-0.100	-0.097
-205.406	-55.175	-0.056	-0.025
-204.392	-124.038	-0.261	-0.041
-203.377	-200.000	0.009	0.106
-202.363	159.301	-0.098	-0.135
-201.348	-98.119	0.420	0.107
-200.333	131.512	0.128	-0.164
-199.319	-135.456	0.072	0.009
-198.304	-38.450	-0.092	0.048
-197.290	-43.110	-0.065	-0.033
-196.275	-9.395	0.173	0.115
-195.260	592.215	-0.106	0.260
-194.246	34.044	0.146	0.126
-193.231	-173.604	0.164	-0.005
-192.217	234.388	-0.154	-0.252
-191.202	471.564	-0.049	0.109
-190.187	-29.560	-0.072	-0.041
-189.173	106.977	0.127	0.149
-188.158	-200.000	-0.030	0.187
-187.144	-99.914	-0.155	0.039
-186.129	-19.207	-0.138	0.085
-185.114	-85.771	0.175	-0.054
-184.100	179.831	0.110	-0.161
-183.085	315.629	-0.039	-0.074
-182.071	-68.548	-0.219	0.085
-181.056	-34.998	0.133	0.072
-180.042	-200.000	-0.267	-0.001
-179.027	142.600	0.060	-0.079
-178.012	-23.509	0.297	0.177
-176.998	-118.821	0.109	-0.019
-175.983	-200.000	-0.012	0.058
-174.969	-51.861	-0.189	0.087
-173.954	800.000	-0.068	0.205
-172.939	177.735	0.045	0.066
-171.925	7.004	0.202	-0.149
-170.910	125.561	-0.134	0.169
-169.896	8.511	0.105	-0.079
-168.881	553.114	-0.053	0.126
-167.866	538.494	-0.061	0.144
-166.852	213.554	-0.135	-0.212
-165.837	113.248	-0.206	-0.248
-164.823	12.745	0.288	0.221
-163.808	-124.663	0.011	0.002
-162.793	0.177	0.090	-0.064
-161.779	42.705	0.071	0.064
-160.764	564.117	0.142	0.343
-159.750	55.956	0.112	0.108
-158.735	-111.096	-0.305	0.062
-157.720	299.491	0.103	0.189
-156.706	800.000	-0.020	0.083
-155.691	-200.000	-0.048	0.234
-154.677	-75.929	-0.310	-0.109
-153.662	-20.959	0.222	-0.135
-152.647	-85.801	0.070	-0.022
-151.633	19.010	0.222	0.177
-150.618	-178.003	0.295	-0.007
-149.604	-41.076	0.137	0.070
-148.589	-47.562	-0.093	-0.045
-147.574	-97.286	0.065	-0.017
-146.560	261.115	-0.152	0.260
-145.545	109.670	-0.050	0.059
-144.531	-108.524	0.063	-0.013
-143.516	-86.618	0.228	0.069
-142.502	-28.853	0.362	0.207
-141.487	-81.456	0.339	0.111
-140.472	1.177	0.325	0.231
-139.458	800.000	0.062	-0.170
-138.443	-3.267	0.272	0.188
-137.429	-33.447	0.288	-0.158
-136.414	-136.463	-0.462	0.053
-135.399	-200.000	-0.008	0.133
-134.385	-200.000	0.047	0.230
-133.370	-62.925	-0.046	-0.019
-132.356	-50.096	0.090	0.042
-131.341	230.560	0.095	0.154
-130.326	148.931	0.297	-0.398
-129.312	172.624	-0.247	0.353
-128.297	-34.669	0.177	-0.096
-127.283	-56.624	0.007	-0.003
-126.268	76.742	-0.061	-0.064
-125.253	589.231	-0.013	0.031
-124.239	-196.740	-0.179	0.001
-123.224	745.275	-0.100	0.268
-122.210	513.834	0.116	-0.267
-121.195	-193.250	0.102	0.001
-120.180	-156.622	0.338	-0.021
