DTS Sentinel unit serial number:	SN413079Multiplexer serial number:	ORYXHardware model number:	OX4-SRSoftware version number:	ORYX F/W v4.00 Oryx Data Collector v3.7.2.0data status	okinstallation	princeton_trtdifferential loss correction	single-endedforward channel	channel 4reverse channel	N/Adate	2019/09/12time	22:49:35forward acquisition time	60.00reverse acquisition time	0.00gamma	496.2192k internal	0.2315k external	0.2315temperature offset calibration	1.0173default loss term (dB/km)	0.3790temperature slope calibration	1.0000multiplexer offset coefficient	1.0000multiplexer slope coefficient	1.0000fibre end	0.00T internal ref (°C)	29.45T ext. ref 1 (°C)	3.74T ext. ref 2 (°C)	24.06length (m)	temperature (°C)	Stokes	anti-Stokes-747.200	-200.000	-0.013	-0.066
-746.185	-200.000	-0.022	0.150
-745.171	-200.000	-0.014	0.120
-744.156	-200.000	-0.042	-0.267
-743.142	-95.117	0.138	0.038
-742.127	159.846	0.219	0.310
-741.112	-125.849	-0.276	-0.042
-740.098	11.394	0.210	0.163
-739.083	-33.563	-0.308	-0.173
-738.069	-145.894	0.206	-0.018
-737.054	-152.623	0.221	0.016
-736.039	332.900	-0.082	-0.160
-735.025	4.027	0.071	0.053
-734.010	379.586	-0.156	0.324
-732.996	800.000	-0.049	-0.190
-731.981	-200.000	-0.044	-0.348
-730.966	-80.794	0.171	-0.057
-729.952	800.000	-0.065	-0.209
-728.937	-111.589	0.268	0.055
-727.923	-60.766	0.161	0.069
-726.908	-200.000	0.033	0.235
-725.894	-70.000	-0.289	-0.112
-724.879	264.827	-0.075	-0.132
-723.864	25.736	-0.164	-0.138
-722.850	-60.271	0.326	-0.141
-721.835	-138.876	-0.333	0.037
-720.821	200.346	-0.115	0.178
-719.806	316.668	-0.132	0.253
-718.791	-9.931	0.089	0.060
-717.777	75.733	0.082	-0.087
-716.762	584.936	-0.072	-0.180
-715.748	-61.203	-0.135	0.057
-714.733	-67.148	0.198	-0.079
-713.718	800.000	0.074	0.310
-712.704	-149.338	0.120	-0.010
-711.689	-40.300	-0.162	-0.085
-710.675	383.722	0.132	-0.274
-709.660	-200.000	-0.047	0.337
-708.645	24.402	-0.021	0.018
-707.631	79.317	-0.100	-0.108
-706.616	-200.000	-0.001	-0.069
-705.602	443.092	-0.062	0.138
-704.587	-154.913	-0.249	-0.017
-703.572	461.390	0.069	-0.156
-702.558	800.000	0.030	-0.128
-701.543	109.596	0.221	0.267
-700.529	-200.000	0.010	-0.175
-699.514	151.156	-0.155	-0.213
-698.499	596.191	-0.115	-0.287
-697.485	171.199	0.020	0.030
-696.470	-48.599	0.127	-0.062
-695.456	-118.702	0.354	0.063
-694.441	317.176	0.113	0.216
-693.426	-164.640	0.079	0.004
-692.412	244.776	-0.192	-0.326
-691.397	311.270	0.104	-0.196
-690.383	-99.686	0.348	0.088
-689.368	-151.118	-0.210	-0.016
-688.354	-50.982	0.201	-0.095
-687.339	48.758	0.131	-0.124
-686.324	127.447	0.080	-0.102
-685.310	-131.362	-0.226	-0.030
-684.295	-70.148	0.137	-0.053
-683.281	-129.659	0.133	-0.018
-682.266	-200.000	-0.003	-0.083
-681.251	-95.331	0.269	-0.073
-680.237	-200.000	0.000	-0.200
-679.222	-39.428	0.127	0.067
-678.208	-91.616	0.099	-0.029
-677.193	33.879	-0.101	0.089
-676.178	-82.318	-0.320	0.105
-675.164	-134.850	-0.028	-0.003
-674.149	800.000	-0.045	-0.141
-673.135	-105.021	-0.261	-0.060
-672.120	51.494	0.091	0.088
-671.105	-29.922	-0.380	-0.219
-670.091	-64.153	0.432	-0.178
-669.076	4.580	0.180	-0.134
-668.062	-95.558	-0.119	0.032
-667.047	401.619	0.057	-0.122
-666.032	238.891	0.217	-0.365
-665.018	-58.975	-0.377	-0.165
-664.003	413.555	-0.106	0.227
-662.989	81.304	-0.086	-0.094
-661.974	263.229	-0.126	0.221
-660.959	629.607	-0.026	0.068
-659.945	-30.333	-0.201	-0.115
-658.930	277.332	-0.209	0.376
-657.916	-109.554	0.141	-0.030
-656.901	-51.616	0.153	0.072
-655.886	363.808	-0.074	-0.151
-654.872	800.000	-0.059	-0.211
-653.857	247.004	0.027	-0.045
-652.843	-141.463	-0.185	0.019
-651.828	-134.138	-0.255	0.032
-650.814	-102.643	-0.231	0.056
-649.799	150.739	0.256	0.352
-648.784	45.339	-0.250	-0.233
-647.770	-200.000	0.007	0.326
-646.755	272.929	-0.048	-0.086
-645.741	127.191	0.213	-0.272
-644.726	-62.384	0.344	0.145
-643.711	-102.638	-0.286	-0.069
-642.697	77.252	-0.160	-0.172
-641.682	800.000	-0.062	0.221
-640.668	-200.000	0.025	0.294
-639.653	48.533	0.059	-0.055
-638.638	230.088	0.203	-0.334
-637.624	800.000	0.058	-0.191
-636.609	95.739	-0.261	-0.301
-635.595	659.059	0.120	-0.312
-634.580	-79.165	0.127	0.044
-633.565	63.377	-0.057	-0.058
-632.551	-61.728	-0.114	0.048
-631.536	296.432	0.154	-0.285
-630.522	-200.000	-0.009	0.062
-629.507	-36.697	0.228	0.124
-628.492	-87.312	0.143	-0.044
-627.478	-200.000	0.036	0.326
-626.463	-98.068	-0.131	0.034
-625.449	-136.164	-0.370	0.044
-624.434	-155.000	-0.042	-0.003
-623.419	-51.383	0.163	-0.077
-622.405	284.457	-0.062	-0.113
-621.390	-17.933	-0.207	-0.131
-620.376	225.060	0.123	-0.201
-619.361	192.553	0.234	0.356
-618.346	22.831	-0.055	-0.046
-617.332	-200.000	0.033	-0.252
-616.317	212.297	0.094	-0.149
-615.303	-159.854	-0.129	0.007
-614.288	-70.746	-0.230	0.088
-613.273	-200.000	0.052	0.309
-612.259	-17.336	0.169	-0.107
-611.244	172.001	0.279	-0.404
-610.230	145.084	-0.179	-0.242
-609.215	97.822	0.307	0.356
-608.201	-200.000	-0.036	-0.314
-607.186	-148.552	0.283	0.023
-606.171	-200.000	-0.032	0.299
-605.157	-78.618	0.042	-0.014
-604.142	800.000	-0.042	-0.175
-603.128	-140.173	-0.266	0.028
-602.113	65.803	-0.157	0.161
-601.098	-13.886	0.109	-0.071
-600.084	306.043	-0.155	-0.291
-599.069	118.344	0.145	-0.180
-598.055	-4.728	-0.082	-0.057
-597.040	-111.868	-0.197	-0.040
-596.025	-82.188	0.134	0.044
-595.011	-65.938	-0.375	0.151
-593.996	-78.053	0.385	-0.134
-592.982	-34.202	0.310	0.171
-591.967	56.200	-0.047	-0.046
-590.952	-90.892	0.293	0.085
-589.938	36.874	-0.086	0.076
-588.923	200.651	0.112	0.174
-587.909	-66.912	0.227	-0.090
-586.894	-138.501	-0.228	-0.025
-585.879	216.333	0.041	0.066
-584.865	134.461	0.127	0.166
-583.850	-179.259	0.237	-0.005
-582.836	70.497	-0.229	0.238
-581.821	26.710	-0.317	0.267
-580.806	629.762	0.023	-0.058
-579.792	-200.000	0.050	-0.299
-578.777	-7.656	0.121	0.082
-577.763	296.114	-0.135	-0.250
-576.748	135.309	-0.077	-0.100
-575.733	-130.664	0.438	0.059
-574.719	346.225	-0.115	-0.227
-573.704	800.000	-0.022	-0.066
-572.690	800.000	-0.015	0.054
-571.675	-200.000	0.037	-0.311
-570.661	-200.000	-0.052	-0.252
-569.646	134.798	-0.025	-0.032
-568.631	36.292	0.238	-0.211
-567.617	167.661	0.047	0.068
-566.602	134.947	-0.127	-0.166
-565.588	-200.000	-0.028	-0.201
-564.573	-38.359	-0.067	0.036
-563.558	-21.526	-0.350	-0.215
-562.544	204.767	0.088	-0.138
-561.529	-168.151	0.138	0.005
-560.515	386.933	-0.151	-0.314
-559.500	10.413	-0.174	-0.133
-558.485	-84.017	0.096	-0.031
-557.471	311.856	0.132	0.249
-556.456	-84.297	-0.393	0.125
-555.442	-39.145	0.083	0.044
-554.427	543.052	0.085	0.205
-553.412	800.000	0.013	0.036
-552.398	-200.000	0.003	0.014
-551.383	800.000	-0.080	-0.292
-550.369	113.457	0.163	0.200
-549.354	-169.914	-0.205	-0.007
-548.339	-83.094	-0.136	0.044
-547.325	345.527	-0.234	-0.462
-546.310	-200.000	-0.011	0.222
-545.296	-30.085	-0.100	-0.057
-544.281	164.789	-0.311	0.441
-543.266	800.000	-0.038	0.144
-542.252	-200.000	0.024	-0.274
-541.237	135.890	-0.187	0.245
-540.223	-55.766	-0.173	-0.078
-539.208	109.261	0.171	-0.206
-538.193	92.455	0.094	-0.106
-537.179	-200.000	-0.001	-0.333
-536.164	-33.945	0.105	-0.058
-535.150	136.473	-0.187	-0.245
-534.135	169.455	-0.179	-0.256
-533.121	775.667	0.091	0.249
-532.106	157.188	0.296	0.411
-531.091	32.064	0.072	-0.062
-530.077	-20.066	0.281	-0.174
-529.062	-49.189	0.270	0.129
-528.048	-70.787	-0.220	-0.083
-527.033	82.787	0.221	-0.242
-526.018	-9.097	0.177	-0.119
-525.004	-73.093	-0.285	-0.105
-523.989	351.710	0.128	0.255
-522.975	118.624	-0.108	0.134
-521.960	-86.656	-0.135	0.042
-520.945	467.963	0.079	-0.178
-519.931	192.256	0.248	-0.376
-518.916	-107.973	-0.175	0.038
-517.902	-200.000	0.012	0.158
-516.887	-173.446	0.280	0.008
-515.872	19.795	-0.065	-0.052
-514.858	-200.000	0.003	0.085
-513.843	82.259	-0.081	-0.088
-512.829	314.412	0.197	-0.372
-511.814	800.000	-0.005	-0.016
-510.799	41.222	-0.327	-0.297
-509.785	243.287	-0.147	0.248
-508.770	-200.000	-0.004	0.308
-507.756	194.520	-0.137	-0.209
-506.741	-102.405	0.138	0.033
-505.726	190.763	0.122	-0.184
-504.712	-116.665	0.119	0.022
-503.697	800.000	-0.032	0.116
-502.683	-45.326	0.190	0.095
-501.668	209.208	-0.068	-0.106
-500.653	-18.684	0.002	-0.001
-499.639	-200.000	-0.015	0.100
-498.624	-99.445	0.384	0.097
-497.610	21.138	-0.234	-0.190
-496.595	-0.800	0.116	0.082
-495.581	-200.000	-0.011	-0.342
-494.566	93.148	0.121	0.137
-493.551	-143.862	0.227	0.021
-492.537	340.220	-0.095	0.185
-491.522	24.795	0.304	0.252
-490.508	-105.369	-0.186	-0.043
-489.493	59.920	-0.088	-0.088
-488.478	767.326	0.015	0.041
-487.464	95.322	-0.235	0.269
-486.449	-58.451	0.312	0.136
-485.435	-122.461	0.409	-0.067
-484.420	-22.142	-0.105	-0.064
-483.405	-171.303	-0.242	-0.008
-482.391	-32.458	-0.164	0.092
-481.376	7.940	0.153	-0.115
-480.362	-37.072	-0.164	-0.088
-479.347	-200.000	0.008	0.056
-478.332	486.043	-0.049	0.113
-477.318	444.196	0.036	0.080
-476.303	-57.832	0.036	0.016
-475.289	594.623	-0.045	-0.113
-474.274	36.809	-0.359	-0.318
-473.259	-81.325	-0.135	-0.045
-472.245	284.269	-0.204	0.368
-471.230	35.776	0.138	-0.122
-470.216	80.229	0.265	-0.285
-469.201	800.000	-0.060	0.167
-468.186	-12.743	0.031	-0.021
-467.172	86.195	-0.155	0.171
-466.157	-95.506	-0.309	-0.083
-465.143	153.207	0.119	0.163
-464.128	88.011	0.036	0.040
-463.113	-25.020	0.199	0.118
-462.099	-200.000	-0.013	0.136
-461.084	-33.509	0.255	0.141
-460.070	-152.653	-0.203	-0.014
-459.055	-97.664	0.112	-0.029
-458.040	-200.000	-0.020	-0.125
-457.026	519.707	0.021	0.049
-456.011	-200.000	-0.006	0.050
-454.997	-70.042	-0.230	0.088
-453.982	711.044	-0.072	0.191
-452.968	-146.999	0.045	-0.004
-451.953	-200.000	-0.002	0.033
-450.938	-95.523	-0.113	0.030
-449.924	-200.000	-0.027	-0.130
-448.909	800.000	0.061	-0.198
-447.895	4.963	-0.057	-0.042
-446.880	-200.000	-0.025	0.289
-445.865	25.240	-0.062	0.052
-444.851	-128.965	0.121	-0.017
-443.836	108.511	0.101	0.121
-442.822	85.841	0.106	-0.117
-441.807	-38.587	-0.299	0.158
-440.792	-75.048	0.425	0.152
-439.778	-110.658	0.116	-0.024
-438.763	213.342	-0.187	-0.296
-437.749	-21.963	-0.150	-0.091
-436.734	75.524	-0.152	0.161
-435.719	-68.713	0.033	0.013
-434.705	800.000	-0.042	0.140
-433.690	365.998	0.058	-0.117
-432.676	800.000	0.072	-0.253
-431.661	-200.000	-0.020	0.128
-430.646	-145.814	0.062	0.005
-429.632	-162.288	-0.228	-0.011
-428.617	-117.568	-0.368	0.067
-427.603	-39.603	-0.232	0.122
-426.588	156.185	0.071	-0.098
-425.573	87.424	0.228	0.252
-424.559	-200.000	0.008	-0.158
-423.544	694.922	0.080	0.211
-422.530	43.352	-0.170	-0.155
-421.515	-14.854	-0.261	-0.167
-420.500	-8.823	-0.206	0.138
-419.486	108.173	0.073	0.087
-418.471	-200.000	-0.030	0.360
-417.457	83.131	-0.296	-0.322
-416.442	392.679	-0.100	-0.208
-415.428	117.794	-0.192	-0.236
-414.413	410.133	-0.086	-0.183
-413.398	-200.000	0.028	0.160
-412.384	-59.335	-0.281	0.121
-411.369	641.924	-0.042	-0.107
-410.355	-91.671	0.057	0.016
-409.340	-200.000	0.025	0.236
-408.325	703.160	-0.028	-0.074
-407.311	-18.632	0.184	0.114
-406.296	287.174	0.168	-0.303
-405.282	183.316	0.156	-0.230
-404.267	-165.348	-0.297	0.013
-403.252	800.000	0.108	0.317
-402.238	-89.189	-0.204	0.060
-401.223	-42.589	-0.145	0.074
-400.209	232.384	0.074	-0.122
-399.194	32.494	-0.112	-0.097
-398.179	10.921	-0.176	0.135
-397.165	18.589	0.247	-0.198
-396.150	56.637	-0.155	0.150
-395.136	-93.005	0.187	0.052
-394.121	-164.649	0.259	0.012
-393.106	131.712	0.068	0.087
-392.092	-52.440	0.363	-0.168
-391.077	296.596	0.063	0.116
-390.063	0.248	-0.171	0.122
-389.048	-200.000	0.003	0.088
-388.033	-84.610	0.187	0.059
-387.019	-200.000	-0.025	-0.150
-386.004	-6.540	-0.095	0.065
-384.990	-200.000	0.026	-0.263
-383.975	52.019	-0.124	-0.118
-382.960	800.000	0.032	-0.122
-381.946	-93.186	0.155	0.043
-380.931	378.673	-0.100	0.204
-379.917	9.917	-0.462	0.350
-378.902	-200.000	0.048	0.224
-377.888	255.545	0.073	0.125
-376.873	296.721	0.053	-0.097
-375.858	248.560	-0.150	-0.254
-374.844	-200.000	0.022	0.214
-373.829	-146.410	0.226	-0.020
-372.815	235.919	0.137	-0.226
-371.800	571.310	-0.057	0.140
-370.785	-200.000	-0.019	0.120
-369.771	116.082	0.153	-0.188
-368.756	-200.000	0.098	0.438
-367.742	73.356	0.193	-0.202
-366.727	665.671	-0.054	-0.139
-365.712	-161.676	-0.200	-0.010
-364.698	-197.559	-0.138	-0.001
-363.683	-110.090	-0.275	0.057
-362.669	1.059	-0.067	0.048
-361.654	116.172	-0.136	0.166
-360.639	-71.280	0.293	0.110
-359.625	-200.000	0.048	-0.231
-358.610	124.338	-0.095	0.119
-357.596	-200.000	0.015	-0.114
-356.581	-95.212	-0.145	-0.039
-355.566	366.193	-0.134	-0.270
-354.552	-200.000	0.001	-0.037
-353.537	-145.628	0.196	-0.017
-352.523	50.280	-0.244	0.230
-351.508	-200.000	-0.057	0.307
-350.493	-161.485	0.406	-0.021
-349.479	354.138	0.059	-0.116
-348.464	-153.643	-0.129	-0.009
-347.450	-200.000	-0.029	0.306
-346.435	151.809	0.090	0.123
-345.420	-134.303	-0.243	-0.030
-344.406	81.092	-0.210	-0.226
-343.391	411.712	0.063	0.133
-342.377	-9.454	-0.266	-0.177
-341.362	88.356	-0.059	0.065
-340.348	-75.156	0.165	0.059
-339.333	-12.017	-0.157	-0.102
-338.318	-200.000	0.076	-0.360
-337.304	51.437	-0.153	-0.145
-336.289	156.746	0.111	-0.153
-335.275	87.517	-0.062	-0.069
-334.260	-21.566	-0.172	-0.105
-333.245	14.723	-0.200	0.156
-332.231	-70.110	0.039	0.015
-331.216	184.881	-0.219	0.324
-330.202	66.598	0.222	0.225
-329.187	107.448	-0.133	0.157
-328.172	-36.708	-0.351	-0.188
-327.158	110.901	-0.199	-0.239
-326.143	51.526	0.188	-0.178
-325.129	-132.315	-0.394	-0.051
-324.114	-200.000	0.000	-0.124
-323.099	413.063	0.140	0.298
-322.085	70.433	-0.165	0.169
-321.070	63.682	-0.095	0.095
-320.056	12.112	-0.099	-0.076
-319.041	62.016	0.172	0.171
-318.026	-200.000	0.064	-0.805
-317.012	122.803	-0.051	0.063
-315.997	-6.340	0.128	0.087
-314.983	-18.375	0.137	0.085
-313.968	149.168	-0.078	-0.106
-312.953	31.807	-0.113	-0.097
-311.939	621.624	-0.086	-0.216
-310.924	800.000	-0.024	0.095
-309.910	-200.000	-0.069	0.592
-308.895	372.533	0.024	0.049
-307.880	-128.112	-0.303	0.043
-306.866	-200.000	-0.038	0.191
-305.851	-10.345	0.214	-0.141
-304.837	-20.142	0.130	-0.080
-303.822	-200.000	0.014	0.192
-302.807	-200.000	-0.030	-0.249
-301.793	-47.298	0.230	0.112
-300.778	53.981	0.183	-0.175
-299.764	-30.228	-0.052	0.029
-298.749	-173.008	-0.328	-0.010
-297.735	800.000	0.051	-0.164
-296.720	-41.252	0.252	0.129
-295.705	416.300	-0.196	0.416
-294.691	533.264	0.053	0.125
-293.676	-64.818	-0.090	0.036
-292.662	26.609	0.183	0.152
-291.647	-69.878	0.190	-0.072
-290.632	-114.764	0.320	0.061
-289.618	76.783	-0.125	0.132
-288.603	486.644	-0.144	-0.327
-287.589	-41.508	0.421	0.216
-286.574	-171.114	0.114	-0.004
-285.559	244.524	-0.068	0.114
-284.545	-88.933	-0.223	-0.066
-283.530	-200.000	0.019	-0.101
-282.516	130.370	0.154	-0.196
-281.501	-25.999	0.235	0.138
-280.486	-200.000	0.001	-0.295
-279.472	88.004	-0.114	0.126
-278.457	264.094	-0.136	-0.235
-277.443	112.436	-0.229	-0.275
-276.428	31.038	-0.111	-0.095
-275.413	-200.000	-0.004	0.257
-274.399	33.821	-0.351	-0.304
-273.384	-118.721	-0.219	-0.038
-272.370	-62.128	-0.071	-0.030
-271.355	-58.731	-0.162	0.070
-270.340	102.282	0.228	0.265
-269.326	141.520	0.096	0.126
-268.311	-104.408	0.097	0.022
-267.297	-136.204	0.314	-0.037
-266.282	800.000	0.035	-0.104
-265.267	38.631	0.160	0.142
-264.253	50.758	0.192	-0.181
-263.238	-110.952	-0.161	-0.033
-262.224	62.873	0.166	-0.165
-261.209	-173.936	0.355	0.010
-260.195	109.241	-0.107	-0.127
-259.180	-63.929	0.213	-0.087
-258.165	162.960	-0.150	-0.210
-257.151	-154.005	0.285	0.019
-256.136	148.630	-0.097	0.130
-255.122	-200.000	-0.039	-0.305
-254.107	-25.706	-0.433	-0.254
-253.092	-200.000	0.106	-0.612
-252.078	330.738	0.115	0.220
-251.063	-29.937	-0.082	-0.046
-250.049	-121.644	-0.189	-0.031
-249.034	-1.980	0.104	0.073
-248.019	31.460	-0.166	0.142
-247.005	-123.862	0.130	-0.020
-245.990	-200.000	0.014	0.120
-244.976	-200.000	-0.003	-0.135
-243.961	273.993	-0.027	-0.048
-242.946	800.000	-0.032	0.099
-241.932	-141.759	0.358	0.036
-240.917	46.819	0.212	-0.195
-239.903	-44.582	0.354	-0.176
-238.888	-62.246	-0.302	0.125
-237.873	-29.318	-0.213	0.121
-236.859	134.061	0.334	0.430
-235.844	-80.629	-0.155	-0.051
-234.830	250.147	-0.162	0.272
-233.815	-187.532	-0.101	0.001
-232.800	128.734	0.118	-0.150
-231.786	434.675	-0.090	-0.194
-230.771	-200.000	-0.061	0.291
-229.757	154.164	0.110	0.150
-228.742	800.000	-0.068	0.231
-227.727	-151.175	-0.139	0.010
-226.713	-35.405	0.124	0.067
-225.698	-121.250	0.113	0.019
-224.684	189.361	0.164	-0.244
-223.669	-200.000	0.033	0.144
-222.655	540.399	-0.111	0.262
-221.640	449.599	0.120	0.262
-220.625	-200.000	-0.010	0.330
-219.611	-200.000	0.058	0.294
-218.596	46.643	0.146	0.134
-217.582	-200.000	-0.037	0.290
-216.567	800.000	-0.055	0.153
-215.552	48.538	-0.147	0.137
-214.538	-188.638	0.166	-0.002
-213.523	800.000	-0.124	0.370
-212.509	800.000	-0.033	0.133
-211.494	-200.000	-0.025	-0.141
-210.479	-61.039	0.248	0.104
-209.465	-184.482	-0.101	-0.002
-208.450	-133.149	0.120	0.015
-207.436	188.953	0.075	-0.112
-206.421	253.434	-0.161	-0.273
-205.406	62.713	0.180	-0.178
-204.392	71.736	-0.243	-0.250
-203.377	244.753	-0.165	0.276
-202.363	47.144	-0.177	0.163
-201.348	-200.000	-0.013	-0.210
-200.333	50.808	-0.213	-0.200
-199.319	-200.000	-0.015	-0.225
-198.304	129.537	0.094	-0.119
-197.290	-35.485	0.127	0.069
-196.275	-159.963	0.215	-0.012
-195.260	-29.539	0.365	0.207
-194.246	-174.006	-0.179	0.005
-193.231	-57.031	0.121	0.053
-192.217	113.950	0.167	-0.201
-191.202	-126.204	-0.025	-0.004
-190.187	-66.497	-0.275	0.108
-189.173	-200.000	0.007	0.064
-188.158	-65.837	0.454	0.180
-187.144	-113.370	0.107	-0.021
-186.129	-51.191	-0.263	0.122
-185.114	599.614	0.150	0.369
-184.100	-72.382	-0.205	0.075
-183.085	67.369	-0.110	-0.112
-182.071	5.392	0.199	0.145
-181.056	-200.000	0.050	-0.305
-180.042	-73.966	0.085	0.031
-179.027	275.138	0.154	-0.271
-178.012	135.905	-0.081	0.105
-176.998	800.000	0.037	-0.126
-175.983	-200.000	-0.007	0.390
-174.969	800.000	-0.124	-0.345
-173.954	-200.000	0.026	-0.172
-172.939	15.072	0.152	-0.118
-171.925	-142.219	0.235	-0.023
-170.910	-25.082	0.346	-0.203
-169.896	211.777	-0.103	0.160
-168.881	-200.000	-0.057	0.301
-167.866	62.221	-0.231	-0.229
-166.852	-134.959	0.089	0.011
-165.837	-8.019	0.164	0.109
-164.823	483.799	-0.045	-0.100
-163.808	-168.205	0.148	0.006
-162.793	94.279	0.226	0.254
-161.779	-200.000	-0.000	0.104
-160.764	-200.000	-0.016	-0.154
-159.750	-200.000	-0.009	0.413
-158.735	92.522	0.215	0.240
-157.720	-87.964	-0.239	0.071
-156.706	-142.015	-0.123	0.012
-155.691	800.000	-0.098	0.354
-154.677	96.035	0.237	-0.269
-153.662	19.488	0.134	0.106
-152.647	-0.525	-0.063	0.044
-151.633	33.111	-0.075	0.064
-150.618	26.378	-0.095	0.079
-149.604	1.451	0.018	0.012
-148.589	-60.351	0.230	-0.097
-147.574	-200.000	-0.052	0.547
-146.560	59.055	0.037	0.036
-145.545	130.080	0.132	0.167
-144.531	632.430	0.064	0.160
-143.516	-145.667	-0.349	0.031
-142.502	-189.130	0.226	0.003
-141.487	-56.742	0.151	-0.066
-140.472	-200.000	-0.012	-0.272
-139.458	251.035	-0.218	-0.367
-138.443	32.370	0.145	0.124
-137.429	-31.718	0.422	0.234
-136.414	184.940	0.065	0.096
-135.399	-5.596	0.382	-0.259
-134.385	-101.607	0.204	0.049
-133.370	91.922	-0.064	-0.071
-132.356	-99.186	-0.146	-0.037
-131.341	208.334	-0.173	-0.267
-130.326	-73.087	-0.207	-0.075
-129.312	-66.519	0.077	-0.030
-128.297	-6.829	0.016	0.011
-127.283	187.753	-0.046	0.068
-126.268	171.462	-0.175	0.249
-125.253	276.123	-0.254	-0.445
-124.239	185.914	0.116	0.171
-123.224	800.000	0.089	0.266
-122.210	125.278	0.254	0.317
-121.195	800.000	-0.090	0.338
