DTS Sentinel unit serial number:	SN413079Multiplexer serial number:	ORYXHardware model number:	OX4-SRSoftware version number:	ORYX F/W v4.00 Oryx Data Collector v3.7.2.0data status	okinstallation	princeton_trtdifferential loss correction	single-endedforward channel	channel 4reverse channel	N/Adate	2019/09/19time	15:29:34forward acquisition time	60.00reverse acquisition time	0.00gamma	496.2192k internal	0.2301k external	0.2301temperature offset calibration	1.0024default loss term (dB/km)	0.3790temperature slope calibration	1.0000multiplexer offset coefficient	1.0000multiplexer slope coefficient	1.0000fibre end	0.00T internal ref (°C)	34.06T ext. ref 1 (°C)	1.15T ext. ref 2 (°C)	31.29length (m)	temperature (°C)	Stokes	anti-Stokes-747.200	-200.000	-0.055	0.265
-746.185	36.040	0.091	0.081
-745.171	260.775	0.071	0.126
-744.156	-163.297	0.128	-0.006
-743.142	-45.391	0.308	0.156
-742.127	171.196	-0.195	0.285
-741.112	279.969	0.114	0.208
-740.098	-53.953	-0.350	0.163
-739.083	800.000	-0.034	0.109
-738.069	800.000	0.113	0.399
-737.054	152.192	-0.110	-0.153
-736.039	349.536	0.059	-0.120
-735.025	800.000	-0.040	-0.171
-734.010	-78.335	-0.396	-0.139
-732.996	-200.000	0.051	-0.292
-731.981	95.092	0.109	-0.126
-730.966	800.000	-0.048	0.207
-729.952	800.000	-0.069	-0.208
-728.937	-77.469	0.163	0.058
-727.923	98.197	-0.078	-0.092
-726.908	-200.000	-0.051	0.321
-725.894	75.744	-0.268	0.289
-724.879	-18.231	0.064	0.041
-723.864	-200.000	-0.042	-0.334
-722.850	468.819	0.182	0.417
-721.835	34.703	0.168	-0.150
-720.821	-158.528	-0.294	0.017
-719.806	-200.000	0.001	0.210
-718.791	550.205	-0.070	0.170
-717.777	244.287	-0.125	0.214
-716.762	-200.000	-0.025	-0.200
-715.748	-74.318	-0.288	-0.106
-714.733	800.000	-0.033	-0.134
-713.718	-200.000	0.021	-0.135
-712.704	-26.545	0.183	0.109
-711.689	49.674	-0.241	-0.231
-710.675	-200.000	0.023	-0.139
-709.660	-78.667	-0.078	-0.027
-708.645	371.669	-0.036	-0.073
-707.631	-106.206	-0.118	0.027
-706.616	164.384	0.022	0.031
-705.602	-200.000	-0.023	0.278
-704.587	497.188	-0.113	0.265
-703.572	-25.325	-0.192	0.116
-702.558	-39.513	-0.256	-0.137
-701.543	800.000	-0.042	-0.189
-700.529	-200.000	0.006	0.149
-699.514	-200.000	0.044	0.253
-698.499	-113.022	-0.209	0.042
-697.485	-35.370	0.328	-0.182
-696.470	431.710	0.091	-0.200
-695.456	-90.565	-0.136	-0.040
-694.441	4.441	0.092	-0.068
-693.426	-200.000	0.024	-0.479
-692.412	490.879	0.077	-0.180
-691.397	84.310	0.060	0.067
-690.383	-200.000	-0.032	0.273
-689.368	274.818	-0.108	-0.194
-688.354	-123.888	0.060	-0.010
-687.339	138.007	0.073	0.098
-686.324	146.182	0.097	0.132
-685.310	-72.288	0.094	-0.035
-684.295	244.237	0.167	-0.286
-683.281	-42.989	0.059	-0.030
-682.266	-140.437	-0.296	0.031
-681.251	800.000	-0.056	0.238
-680.237	-52.347	0.206	0.097
-679.222	-113.656	-0.335	-0.066
-678.208	30.994	-0.127	0.111
-677.193	-6.153	0.094	0.065
-676.178	306.139	0.069	-0.131
-675.164	278.563	-0.107	0.193
-674.149	539.373	-0.130	0.313
-673.135	-54.895	0.322	0.147
-672.120	-10.738	-0.372	-0.250
-671.105	-200.000	0.042	-0.222
-670.091	171.190	-0.177	0.258
-669.076	129.572	0.040	-0.052
-668.062	245.065	-0.036	-0.061
-667.047	-103.873	-0.314	-0.075
-666.032	-111.575	0.363	0.075
-665.018	-49.474	0.158	-0.077
-664.003	59.131	-0.188	-0.188
-662.989	521.674	-0.072	0.172
-661.974	41.382	-0.152	-0.140
-660.959	-60.944	-0.147	0.063
-659.945	-186.027	0.472	-0.007
-658.930	-200.000	0.018	0.172
-657.916	102.543	0.111	-0.132
-656.901	337.166	-0.145	0.286
-655.886	425.870	-0.106	0.232
-654.872	-107.803	0.104	-0.023
-653.857	-128.151	0.214	-0.031
-652.843	-44.852	-0.410	0.208
-651.828	582.978	-0.049	-0.121
-650.814	800.000	-0.070	-0.214
-649.799	68.709	-0.210	0.219
-648.784	59.515	0.065	-0.066
-647.770	800.000	0.026	-0.078
-646.755	348.349	-0.166	0.332
-645.741	-200.000	0.010	0.220
-644.726	497.583	-0.059	-0.139
-643.711	377.841	-0.064	0.132
-642.697	-47.801	0.096	-0.047
-641.682	4.759	-0.055	-0.041
-640.668	329.881	0.199	-0.388
-639.653	-48.508	-0.372	0.182
-638.638	-36.999	0.193	-0.105
-637.624	-2.204	0.391	-0.278
-636.609	71.022	-0.107	0.112
-635.595	118.951	-0.209	-0.262
-634.580	114.456	-0.150	-0.186
-633.565	172.350	0.132	-0.192
-632.551	51.810	0.285	-0.275
-631.536	113.156	0.270	-0.332
-630.522	204.288	-0.146	0.229
-629.507	100.456	-0.192	0.227
-628.492	-135.437	-0.219	0.027
-627.478	79.126	-0.247	-0.269
-626.463	-19.641	-0.184	-0.115
-625.449	82.439	0.087	0.096
-624.434	-70.072	-0.387	0.149
-623.419	-74.335	0.168	0.062
-622.405	-200.000	-0.305	-0.001
-621.390	800.000	0.142	-0.400
-620.376	-200.000	-0.035	-0.256
-619.361	91.880	-0.116	0.133
-618.346	-0.626	-0.191	0.138
-617.332	172.887	-0.216	0.316
-616.317	357.205	-0.097	0.196
-615.303	-99.376	-0.303	0.077
-614.288	-200.000	0.034	-0.213
-613.273	-200.000	0.045	0.232
-612.259	-88.154	-0.335	0.102
-611.244	281.909	0.092	0.167
-610.230	27.186	-0.208	-0.177
-609.215	119.621	-0.179	-0.225
-608.201	-200.000	-0.055	-0.276
-607.186	87.086	-0.099	-0.111
-606.171	49.388	-0.086	0.082
-605.157	119.169	-0.295	-0.370
-604.142	-166.731	-0.063	0.003
-603.128	414.899	0.095	-0.205
-602.113	105.330	0.191	-0.229
-601.098	-122.062	0.119	0.020
-600.084	-200.000	0.189	-0.001
-599.069	-54.050	0.304	0.140
-598.055	-68.031	-0.303	0.120
-597.040	386.726	0.095	0.199
-596.025	184.543	0.212	0.318
-595.011	173.840	0.020	0.030
-593.996	-51.348	-0.205	0.097
-592.982	-167.816	-0.073	-0.003
-591.967	-56.633	0.243	-0.109
-590.952	-200.000	-0.095	-0.489
-589.938	12.031	0.258	0.201
-588.923	-200.000	-0.057	-0.360
-587.909	320.809	0.101	-0.195
-586.894	-80.203	-0.088	-0.030
-585.879	347.269	0.118	-0.235
-584.865	50.778	0.128	-0.123
-583.850	183.157	0.032	0.048
-582.836	-3.040	0.151	-0.107
-581.821	92.174	-0.180	-0.206
-580.806	-42.269	-0.383	-0.198
-579.792	310.271	-0.041	0.079
-578.777	-200.000	-0.031	-0.154
-577.763	162.322	0.237	-0.336
-576.748	-200.000	-0.014	-0.078
-575.733	-37.093	0.224	-0.121
-574.719	-94.852	0.407	0.112
-573.704	-122.824	-0.273	0.045
-572.690	-200.000	0.015	0.310
-571.675	-83.464	0.056	-0.018
-570.661	-200.000	0.038	0.427
-569.646	181.537	-0.155	0.230
-568.631	-200.000	-0.024	-0.133
-567.617	-200.000	-0.014	-0.076
-566.602	-134.797	-0.254	-0.031
-565.588	288.909	-0.039	0.071
-564.573	800.000	0.040	0.176
-563.558	-66.226	0.176	0.071
-562.544	-60.642	0.006	-0.002
-561.529	-3.164	-0.230	-0.162
-560.515	683.589	-0.064	-0.168
-559.500	-125.195	0.129	-0.020
-558.485	9.399	-0.127	-0.097
-557.471	-200.000	0.002	0.249
-556.456	800.000	-0.084	0.288
-555.442	198.543	-0.051	0.079
-554.427	-4.292	0.184	-0.129
-553.412	21.164	0.103	-0.085
-552.398	-145.137	0.231	0.021
-551.383	-129.033	0.183	-0.026
-550.369	-91.683	0.136	0.039
-549.354	381.477	0.057	0.119
-548.339	-100.247	0.239	-0.060
-547.325	318.346	-0.129	0.246
-546.310	-192.901	0.088	0.001
-545.296	-16.342	0.092	0.059
-544.281	134.103	0.125	-0.164
-543.266	19.902	0.102	0.083
-542.252	-65.919	-0.198	0.080
-541.237	-124.069	0.089	-0.014
-540.223	-104.031	-0.139	0.033
-539.208	-200.000	0.015	0.172
-538.193	-117.407	-0.110	-0.020
-537.179	54.333	-0.200	-0.194
-536.164	2.839	-0.144	-0.106
-535.150	-61.432	-0.249	0.106
-534.135	-200.000	0.001	-0.112
-533.121	191.621	0.097	0.148
-532.106	-193.564	0.297	0.003
-531.091	200.882	0.121	-0.188
-530.077	-200.000	-0.005	-0.194
-529.062	-141.771	-0.098	-0.010
-528.048	10.233	0.087	-0.067
-527.033	107.428	-0.151	-0.182
-526.018	-131.157	-0.163	0.022
-525.004	435.508	-0.052	-0.113
-523.989	800.000	-0.025	0.077
-522.975	-155.129	-0.202	-0.013
-521.960	800.000	0.125	-0.367
-520.945	-46.513	-0.136	0.067
-519.931	-200.000	-0.033	-0.188
-518.916	-2.121	0.082	-0.058
-517.902	88.352	0.262	0.294
-516.887	16.230	-0.268	-0.214
-515.872	-1.790	0.128	-0.091
-514.858	-178.079	-0.359	0.009
-513.843	-55.740	0.236	-0.106
-512.829	800.000	-0.026	0.103
-511.814	-28.546	-0.087	-0.050
-510.799	42.960	0.228	-0.210
-509.785	620.367	-0.140	-0.355
-508.770	-172.491	0.348	-0.011
-507.756	54.673	0.281	-0.274
-506.741	125.121	-0.272	-0.347
-505.726	194.813	0.080	-0.123
-504.712	47.481	0.204	0.192
-503.697	342.185	-0.183	-0.361
-502.683	800.000	0.042	-0.164
-501.668	35.742	0.144	0.128
-500.653	-51.994	-0.143	-0.067
-499.639	800.000	-0.077	-0.260
-498.624	36.307	-0.146	-0.130
-497.610	800.000	-0.114	-0.389
-496.595	-70.087	0.065	-0.025
-495.581	-148.445	-0.272	-0.022
-494.566	-200.000	-0.028	0.155
-493.551	298.504	0.138	0.255
-492.537	-200.000	-0.019	0.254
-491.522	-200.000	0.019	-0.094
-490.508	295.080	-0.062	-0.114
-489.493	-42.357	0.251	0.129
-488.478	-160.360	0.115	-0.006
-487.464	-200.000	0.004	-0.086
-486.449	-200.000	-0.045	-0.264
-485.435	-65.622	-0.102	0.041
-484.420	544.193	-0.099	0.238
-483.405	-200.000	-0.027	0.208
-482.391	-1.223	-0.031	-0.022
-481.376	-200.000	-0.007	-0.104
-480.362	-35.347	0.245	-0.134
-479.347	96.938	-0.190	-0.219
-478.332	-131.457	-0.009	0.001
-477.318	-200.000	0.055	-0.330
-476.303	-60.911	0.176	0.075
-475.289	-41.015	-0.253	0.132
-474.274	-90.023	0.334	0.098
-473.259	391.033	-0.254	0.532
-472.245	294.044	-0.074	-0.137
-471.230	34.380	0.151	0.133
-470.216	610.600	-0.026	0.067
-469.201	339.726	-0.072	0.142
-468.186	-200.000	0.012	0.088
-467.172	99.160	0.229	0.266
-466.157	-159.391	-0.168	0.009
-465.143	-20.904	-0.167	-0.103
-464.128	-82.643	0.380	0.124
-463.113	-44.797	0.192	-0.097
-462.099	-66.044	-0.070	0.028
-461.084	150.425	0.130	0.178
-460.070	24.827	0.228	-0.190
-459.055	-50.564	0.103	-0.049
-458.040	-200.000	0.006	-0.194
-457.026	-55.976	-0.283	0.127
-456.011	-68.604	0.320	0.125
-454.997	-86.376	-0.185	-0.057
-453.982	-145.267	0.234	0.021
-452.968	-132.989	-0.216	0.028
-451.953	71.099	-0.138	-0.144
-450.938	-106.560	0.093	0.021
-449.924	-187.383	0.087	0.001
-448.909	55.721	-0.214	-0.209
-447.895	718.215	0.011	-0.030
-446.880	5.861	-0.176	0.131
-445.865	152.493	-0.055	-0.075
-444.851	-200.000	-0.011	0.297
-443.836	64.385	0.183	0.186
-442.822	-61.552	-0.436	0.185
-441.807	-43.655	0.218	0.111
-440.792	-168.809	0.237	-0.009
-439.778	272.423	0.165	-0.294
-438.763	-100.581	-0.233	-0.058
-437.749	-90.800	-0.247	0.072
-436.734	186.423	0.189	0.283
-435.719	320.142	0.135	0.259
-434.705	-74.124	0.289	0.106
-433.690	10.298	-0.059	0.046
-432.676	-200.000	-0.013	0.067
-431.661	-200.000	0.017	-0.091
-430.646	148.487	0.053	0.072
-429.632	117.317	0.260	0.322
-428.617	52.618	-0.131	-0.126
-427.603	173.891	-0.043	0.062
-426.588	-38.105	0.241	0.129
-425.573	370.941	-0.135	0.275
-424.559	-32.432	-0.359	-0.202
-423.544	186.056	0.086	-0.128
-422.530	80.145	-0.038	-0.041
-421.515	70.652	-0.120	-0.125
-420.500	-4.761	-0.277	0.192
-419.486	63.760	-0.098	0.100
-418.471	-110.703	-0.235	-0.049
-417.457	-103.685	0.101	-0.024
-416.442	800.000	-0.064	-0.208
-415.428	-118.625	-0.029	0.005
-414.413	800.000	0.105	0.397
-413.398	-200.000	-0.361	-0.001
-412.384	81.394	-0.110	0.120
-411.369	800.000	0.011	0.045
-410.355	-77.677	0.039	0.013
-409.340	272.129	-0.168	0.298
-408.325	305.854	-0.029	0.054
-407.311	800.000	-0.053	0.156
-406.296	-109.820	-0.271	0.057
-405.282	799.579	-0.068	0.190
-404.267	-117.983	0.142	0.026
-403.252	220.028	-0.114	-0.184
-402.238	522.681	0.083	-0.196
-401.223	211.685	0.076	-0.120
-400.209	-66.660	-0.140	-0.056
-399.194	-200.000	0.011	0.101
-398.179	-131.531	0.205	0.027
-397.165	-72.258	-0.162	0.061
-396.150	77.416	-0.213	-0.227
-395.136	79.948	0.115	-0.124
-394.121	-200.000	0.039	-0.198
-393.106	39.822	-0.224	-0.202
-392.092	265.383	-0.146	-0.255
-391.077	-200.000	0.035	0.227
-390.063	215.085	-0.020	0.032
-389.048	78.521	-0.162	0.174
-388.033	20.406	0.179	0.145
-387.019	800.000	-0.032	0.107
-386.004	800.000	-0.097	-0.315
-384.990	-114.195	0.345	-0.067
-383.975	-200.000	0.020	0.171
-382.960	-41.399	-0.242	0.125
-381.946	-100.642	-0.072	0.018
-380.931	-153.039	0.174	-0.012
-379.917	-200.000	0.015	0.235
-378.902	-200.000	0.002	-0.026
-377.888	-200.000	-0.045	0.297
-376.873	800.000	0.065	0.233
-375.858	-33.476	0.437	-0.243
-374.844	188.074	0.076	0.113
-373.829	-75.009	0.292	0.105
-372.815	-45.991	-0.222	0.110
-371.800	184.803	0.113	-0.168
-370.785	-2.457	0.156	-0.109
-369.771	-200.000	0.007	-0.051
-368.756	44.177	0.152	-0.140
-367.742	517.454	0.023	0.055
-366.727	-52.445	0.117	0.054
-365.712	800.000	0.064	0.229
-364.698	161.391	-0.197	-0.276
-363.683	-114.974	0.267	-0.051
-362.669	131.661	-0.032	-0.041
-361.654	66.880	-0.282	0.289
-360.639	480.332	0.040	-0.091
-359.625	-200.000	-0.039	0.171
-358.610	-78.069	0.202	-0.070
-357.596	73.783	0.180	0.189
-356.581	-200.000	0.013	0.208
-355.566	-0.173	0.139	0.099
-354.552	-200.000	0.004	-0.101
-353.537	-45.625	-0.199	0.099
-352.523	-65.229	-0.191	0.077
-351.508	-45.836	0.096	-0.047
-350.493	-102.230	-0.242	-0.058
-349.479	-138.085	-0.390	-0.044
-348.464	800.000	0.130	0.447
-347.450	800.000	-0.040	0.172
-346.435	-138.399	-0.318	-0.035
-345.420	800.000	0.031	0.116
-344.406	354.821	0.062	-0.124
-343.391	-118.683	-0.172	-0.030
-342.377	800.000	-0.068	0.272
-341.362	-142.021	-0.099	-0.010
-340.348	-50.046	-0.150	-0.071
-339.333	-200.000	-0.010	0.262
-338.318	300.715	-0.121	-0.224
-337.304	-127.423	0.065	-0.009
-336.289	-164.817	0.425	-0.019
-335.275	800.000	-0.021	-0.072
-334.260	105.549	-0.208	0.247
-333.245	736.314	-0.112	-0.302
-332.231	-83.471	0.134	0.043
-331.216	800.000	0.105	0.350
-330.202	-137.757	-0.289	0.032
-329.187	-1.027	0.132	0.094
-328.172	78.550	-0.108	-0.116
-327.158	800.000	0.057	0.231
-326.143	177.713	0.350	0.511
-325.129	-76.379	0.322	0.114
-324.114	161.757	0.098	-0.137
-323.099	-65.283	0.133	0.054
-322.085	-200.000	-0.016	-0.114
-321.070	-99.073	-0.290	0.074
-320.056	22.856	-0.178	-0.146
-319.041	51.550	0.057	-0.054
-318.026	124.410	0.221	0.279
-317.012	489.366	-0.027	-0.062
-315.997	-35.171	0.086	0.047
-314.983	-122.518	-0.139	0.023
-313.968	55.225	-0.104	0.101
-312.953	-31.625	-0.157	-0.088
-311.939	55.797	0.045	0.044
-310.924	-157.155	-0.227	0.014
-309.910	-99.289	0.084	-0.021
-308.895	30.140	-0.025	0.021
-307.880	-117.213	-0.347	0.063
-306.866	-200.000	-0.019	-0.220
-305.851	800.000	-0.169	0.503
-304.837	-96.394	-0.154	0.041
-303.822	-56.021	0.246	0.110
-302.807	-123.715	0.185	-0.029
-301.793	-105.872	-0.192	0.043
-300.778	-5.641	0.253	-0.174
-299.764	-200.000	-0.212	0.000
-298.749	800.000	-0.016	-0.072
-297.735	-154.784	0.161	-0.011
-296.720	-45.902	-0.100	0.049
-295.705	800.000	0.079	0.229
-294.691	-114.694	0.115	-0.022
-293.676	-29.251	0.183	0.105
-292.662	-200.000	0.008	-0.350
-291.647	370.115	0.082	-0.167
-290.632	-60.094	0.172	-0.074
-289.618	-102.555	0.125	0.030
-288.603	385.234	-0.225	-0.465
-287.589	-66.499	0.344	0.137
-286.574	-82.943	-0.151	-0.049
-285.559	-102.726	0.165	0.039
-284.545	-200.000	-0.019	-0.096
-283.530	297.330	-0.094	-0.174
-282.516	800.000	0.082	-0.245
-281.501	455.524	-0.055	0.121
-280.486	60.196	0.152	0.150
-279.472	80.340	0.207	0.223
-278.457	94.181	-0.049	-0.056
-277.443	126.364	0.104	-0.132
-276.428	-22.435	0.158	-0.096
-275.413	-148.451	-0.199	0.016
-274.399	-56.687	0.104	0.046
-273.384	-111.526	-0.041	-0.008
-272.370	-200.000	0.028	0.246
-271.355	-135.324	-0.270	0.032
-270.340	-200.000	-0.003	0.186
-269.326	-200.000	-0.000	-0.121
-268.311	-97.578	0.156	-0.040
-267.297	-200.000	-0.034	-0.314
-266.282	56.264	-0.126	-0.122
-265.267	441.258	0.119	-0.262
-264.253	-200.000	-0.006	-0.163
-263.238	-200.000	-0.071	-0.314
-262.224	402.765	0.075	-0.157
-261.209	800.000	-0.105	-0.317
-260.195	592.528	0.010	-0.025
-259.180	800.000	0.057	0.168
-258.165	-156.565	0.371	0.023
-257.151	-200.000	-0.018	0.293
-256.136	57.764	-0.108	-0.105
-255.122	-151.986	0.059	-0.004
-254.107	-200.000	-0.064	0.386
-253.092	175.388	-0.052	0.076
-252.078	-110.527	0.247	-0.051
-251.063	65.570	0.138	-0.139
-250.049	-55.597	0.275	-0.123
-249.034	-200.000	-0.009	-0.290
-248.019	-200.000	0.035	0.186
-247.005	800.000	-0.041	-0.159
-245.990	337.478	0.107	-0.208
-244.976	800.000	-0.122	0.352
-243.961	-127.982	-0.078	0.011
-242.946	-124.469	-0.284	-0.044
-241.932	-200.000	-0.002	0.019
-240.917	23.607	-0.067	0.055
-239.903	800.000	0.046	0.143
-238.888	-48.993	-0.223	-0.107
-237.873	127.740	-0.232	-0.295
-236.859	44.853	-0.136	0.125
-235.844	-23.056	0.498	0.300
-234.830	118.173	-0.025	-0.031
-233.815	164.422	0.107	-0.151
-232.800	45.205	-0.269	0.247
-231.786	-200.000	0.015	0.142
-230.771	800.000	0.074	-0.234
-229.757	-33.226	0.332	0.184
-228.742	-141.623	0.367	0.037
-227.727	-55.746	-0.024	0.011
-226.713	-90.745	0.181	-0.052
-225.698	516.420	-0.176	-0.412
-224.684	-200.000	0.015	-0.105
-223.669	-200.000	0.235	0.001
-222.655	265.915	0.161	-0.280
-221.640	353.705	-0.134	0.266
-220.625	800.000	0.123	-0.376
-219.611	800.000	-0.058	0.240
-218.596	-200.000	-0.014	-0.104
-217.582	130.456	-0.251	0.321
-216.567	127.156	0.110	-0.140
-215.552	179.323	0.171	0.249
-214.538	67.735	-0.199	0.203
-213.523	-63.261	-0.207	-0.085
-212.509	-200.000	0.013	0.289
-211.494	90.707	0.120	0.134
-210.479	-2.047	0.164	-0.115
-209.465	732.946	-0.053	-0.140
-208.450	-141.078	0.196	-0.020
-207.436	-150.226	0.155	-0.012
-206.421	181.660	-0.046	-0.068
-205.406	121.751	-0.124	0.155
-204.392	-200.000	0.029	-0.153
-203.377	-200.000	-0.007	0.243
-202.363	-170.395	-0.220	0.008
-201.348	239.275	-0.210	0.349
-200.333	108.031	-0.176	-0.209
-199.319	-109.224	0.186	0.039
-198.304	-35.802	-0.146	-0.079
-197.290	-79.668	0.330	0.111
-196.275	-109.087	0.300	0.064
-195.260	56.042	0.118	0.114
-194.246	800.000	-0.023	-0.075
-193.231	-24.116	0.149	-0.089
-192.217	-34.767	-0.014	-0.008
-191.202	-122.693	-0.077	0.012
-190.187	-200.000	0.039	-0.352
-189.173	-96.750	-0.097	0.025
-188.158	-4.295	0.237	0.163
-187.144	-90.295	0.199	0.058
-186.129	28.997	-0.214	0.181
-185.114	258.528	-0.029	-0.049
-184.100	231.999	0.188	0.308
-183.085	-93.507	-0.286	0.079
-182.071	800.000	0.041	-0.171
-181.056	800.000	0.044	-0.148
-180.042	800.000	-0.109	0.403
-179.027	-39.100	0.162	0.085
-178.012	192.784	-0.129	-0.194
-176.998	51.901	-0.175	-0.166
-175.983	800.000	-0.083	0.315
-174.969	-200.000	-0.001	0.253
-173.954	14.681	0.378	-0.295
-172.939	11.229	-0.200	0.152
-171.925	800.000	0.054	-0.164
-170.910	-200.000	-0.009	0.187
-169.896	-200.000	0.002	-0.139
-168.881	-74.383	-0.212	-0.076
-167.866	711.703	-0.106	-0.279
-166.852	-200.000	0.006	-0.051
-165.837	-25.248	0.299	0.177
-164.823	230.533	0.113	0.184
-163.808	104.385	-0.186	-0.218
-162.793	-200.000	-0.057	-0.319
-161.779	800.000	0.098	0.275
-160.764	317.354	-0.081	-0.152
-159.750	-67.301	0.276	0.108
-158.735	36.658	-0.166	-0.146
-157.720	258.131	0.043	0.073
-156.706	152.985	0.215	-0.293
-155.691	150.044	0.039	-0.053
-154.677	-200.000	0.049	0.252
-153.662	-200.000	0.025	0.143
-152.647	150.835	-0.092	0.125
-151.633	61.305	0.067	0.066
-150.618	-176.285	0.346	-0.009
-149.604	-0.093	0.149	0.106
-148.589	268.473	-0.248	-0.433
-147.574	-54.778	-0.357	0.160
-146.560	-11.064	-0.064	0.042
-145.545	15.788	-0.080	-0.062
-144.531	-36.085	-0.120	0.065
-143.516	-16.632	-0.317	0.200
-142.502	789.684	-0.130	0.355
-141.487	-177.252	-0.115	-0.003
-140.472	-34.873	-0.198	0.108
-139.458	-200.000	0.020	-0.148
-138.443	-4.298	0.030	-0.021
-137.429	116.208	0.110	-0.134
-136.414	-121.553	-0.135	-0.022
-135.399	13.687	0.051	-0.039
-134.385	-200.000	0.025	0.307
-133.370	-92.715	0.060	0.017
-132.356	-157.446	-0.168	-0.010
-131.341	800.000	0.062	0.204
-130.326	365.109	-0.133	0.266
-129.312	-22.746	0.143	0.086
-128.297	400.537	0.110	0.230
-127.283	-200.000	0.053	0.234
-126.268	-48.279	0.140	0.067
-125.253	41.869	-0.030	0.027
-124.239	147.460	-0.247	-0.332
-123.224	800.000	0.158	0.461
-122.210	236.370	0.087	0.143
-121.195	-200.000	-0.039	0.359
