DTS Sentinel unit serial number:	SN413079Multiplexer serial number:	ORYXHardware model number:	OX4-SRSoftware version number:	ORYX F/W v4.00 Oryx Data Collector v3.7.2.0data status	okinstallation	princeton_trtdifferential loss correction	single-endedforward channel	channel 4reverse channel	N/Adate	2019/09/18time	11:37:34forward acquisition time	60.00reverse acquisition time	0.00gamma	496.2192k internal	0.2310k external	0.2310temperature offset calibration	0.9981default loss term (dB/km)	0.3790temperature slope calibration	1.0000multiplexer offset coefficient	1.0000multiplexer slope coefficient	1.0000fibre end	0.00T internal ref (°C)	30.77T ext. ref 1 (°C)	0.44T ext. ref 2 (°C)	27.92length (m)	temperature (°C)	Stokes	anti-Stokes-747.200	-35.891	0.211	0.116
-746.185	189.562	-0.292	0.445
-745.171	91.300	0.081	0.093
-744.156	456.031	-0.216	0.487
-743.142	592.671	0.099	-0.248
-742.127	100.687	0.027	-0.031
-741.112	222.298	-0.127	0.208
-740.098	-38.606	0.084	0.045
-739.083	418.154	-0.071	0.154
-738.069	800.000	0.093	0.276
-737.054	-51.237	0.231	0.110
-736.039	-64.140	-0.396	0.164
-735.025	53.099	-0.027	-0.026
-734.010	-200.000	-0.050	0.349
-732.996	-8.470	-0.131	-0.089
-731.981	26.001	0.129	-0.109
-730.966	800.000	-0.120	-0.345
-729.952	-122.788	-0.229	-0.038
-728.937	-162.121	-0.155	0.008
-727.923	-102.097	-0.319	0.078
-726.908	279.080	0.101	-0.182
-725.894	-27.215	-0.238	-0.141
-724.879	80.266	0.270	-0.294
-723.864	-84.848	-0.248	-0.079
-722.850	101.536	0.067	0.080
-721.835	800.000	-0.017	-0.055
-720.821	-122.738	-0.230	-0.038
-719.806	236.524	0.036	-0.060
-718.791	344.632	-0.066	-0.132
-717.777	494.782	-0.211	-0.492
-716.762	-200.000	-0.003	0.124
-715.748	13.448	-0.118	-0.093
-714.733	305.889	0.128	-0.241
-713.718	-51.510	-0.070	0.033
-712.704	-145.748	-0.250	-0.023
-711.689	96.765	-0.331	0.384
-710.675	800.000	-0.071	-0.288
-709.660	-200.000	-0.008	-0.273
-708.645	-200.000	0.031	-0.239
-707.631	185.300	0.097	0.146
-706.616	15.958	-0.162	-0.129
-705.602	-50.991	-0.303	0.144
-704.587	-200.000	-0.049	0.230
-703.572	1.848	-0.223	-0.163
-702.558	-144.220	0.236	-0.022
-701.543	-115.663	0.149	0.028
-700.529	-167.929	-0.094	0.004
-699.514	-99.432	0.317	0.081
-698.499	-106.241	-0.362	0.082
-697.485	-134.789	0.309	-0.038
-696.470	800.000	-0.078	-0.261
-695.456	169.838	-0.085	0.124
-694.441	41.479	-0.103	-0.094
-693.426	71.483	-0.129	0.136
-692.412	-117.432	0.294	0.054
-691.397	-35.697	0.206	0.113
-690.383	98.887	-0.113	-0.132
-689.368	78.939	-0.181	-0.196
-688.354	-36.397	-0.238	0.130
-687.339	-27.937	-0.156	-0.092
-686.324	-65.262	-0.205	-0.084
-685.310	168.688	0.221	-0.319
-684.295	104.896	-0.146	0.175
-683.281	-105.627	-0.144	0.033
-682.266	-32.797	-0.099	0.056
-681.251	52.257	-0.063	0.061
-680.237	4.824	-0.146	-0.109
-679.222	60.464	0.327	0.328
-678.208	-116.399	-0.257	0.048
-677.193	295.781	-0.197	-0.366
-676.178	164.062	-0.145	-0.206
-675.164	-33.526	-0.109	0.061
-674.149	244.111	-0.034	-0.057
-673.135	155.250	-0.091	-0.127
-672.120	-200.000	-0.006	0.043
-671.105	93.909	0.235	0.269
-670.091	-136.425	-0.402	0.047
-669.076	-200.000	-0.024	0.178
-668.062	-191.314	-0.211	-0.002
-667.047	47.010	0.075	0.070
-666.032	-200.000	-0.005	0.147
-665.018	383.433	-0.061	-0.127
-664.003	-139.259	0.115	-0.013
-662.989	55.152	0.232	-0.227
-661.974	-143.938	-0.338	0.032
-660.959	44.269	0.266	0.247
-659.945	-14.274	-0.117	0.076
-658.930	92.699	0.120	0.137
-657.916	800.000	0.040	-0.121
-656.901	686.442	-0.134	-0.354
-655.886	-32.807	-0.236	0.133
-654.872	53.698	-0.159	0.154
-653.857	-149.320	0.231	-0.019
-652.843	282.515	0.211	-0.383
-651.828	164.315	-0.155	0.220
-650.814	-46.008	0.351	-0.175
-649.799	100.877	0.215	0.253
-648.784	-143.400	0.189	0.018
-647.770	200.899	0.022	-0.035
-646.755	15.800	-0.271	-0.216
-645.741	141.028	0.151	-0.202
-644.726	-200.000	0.014	0.096
-643.711	-53.380	-0.289	-0.134
-642.697	-42.595	0.104	0.053
-641.682	23.526	0.121	-0.100
-640.668	9.290	0.084	-0.064
-639.653	-55.852	0.113	-0.051
-638.638	120.617	-0.083	0.105
-637.624	139.151	-0.214	-0.285
-636.609	-200.000	0.005	-0.026
-635.595	-37.977	0.335	0.180
-634.580	236.972	0.150	0.252
-633.565	19.215	-0.048	0.039
-632.551	-200.000	-0.009	-0.319
-631.536	19.589	0.228	-0.186
-630.522	559.031	-0.043	0.106
-629.507	310.864	0.149	-0.283
-628.492	800.000	-0.064	-0.196
-627.478	31.590	0.166	-0.144
-626.463	800.000	0.045	-0.191
-625.449	64.513	0.213	0.217
-624.434	800.000	0.069	0.269
-623.419	-43.205	0.141	0.072
-622.405	-200.000	-0.037	-0.411
-621.390	800.000	0.055	-0.240
-620.376	-138.141	-0.204	-0.023
-619.361	200.287	-0.212	0.328
-618.346	-66.279	-0.303	0.122
-617.332	-14.937	0.178	-0.116
-616.317	17.318	0.122	0.098
-615.303	-200.000	0.047	0.285
-614.288	-200.000	0.055	0.264
-613.273	63.408	-0.268	0.272
-612.259	800.000	-0.039	0.114
-611.244	8.462	-0.183	0.139
-610.230	-200.000	0.011	0.456
-609.215	-137.709	0.252	-0.029
-608.201	-113.141	0.143	-0.029
-607.186	800.000	0.063	0.209
-606.171	364.835	0.060	0.122
-605.157	13.402	-0.183	0.143
-604.142	-98.557	-0.168	0.043
-603.128	85.118	0.074	0.082
-602.113	165.009	0.146	0.208
-601.098	-120.852	0.201	0.034
-600.084	239.870	-0.086	0.145
-599.069	29.680	-0.150	-0.129
-598.055	84.365	0.191	0.211
-597.040	-200.000	0.027	0.166
-596.025	80.707	0.110	0.120
-595.011	-200.000	0.008	0.215
-593.996	-127.294	-0.553	-0.081
-592.982	-86.605	-0.349	-0.108
-591.967	800.000	0.083	-0.327
-590.952	14.110	0.166	-0.131
-589.938	-156.825	-0.293	0.018
-588.923	8.707	-0.155	-0.118
-587.909	-81.275	-0.159	-0.053
-586.894	-155.566	0.097	-0.006
-585.879	91.283	0.196	0.223
-584.865	-87.404	-0.091	-0.028
-583.850	800.000	0.128	0.357
-582.836	200.302	0.082	0.128
-581.821	-144.317	0.188	-0.018
-580.806	120.546	-0.186	-0.233
-579.792	17.217	0.316	-0.253
-578.777	-125.911	-0.215	-0.033
-577.763	442.451	-0.104	0.230
-576.748	-25.633	0.314	0.187
-575.733	351.183	0.074	-0.148
-574.719	1.533	-0.184	0.134
-573.704	104.773	-0.055	0.065
-572.690	-61.523	0.104	0.044
-571.675	-108.283	-0.194	0.042
-570.661	-54.551	-0.373	0.170
-569.646	-200.000	-0.045	0.266
-568.631	-200.000	-0.024	-0.183
-567.617	-147.391	0.145	-0.012
-566.602	-187.216	0.299	-0.004
-565.588	45.248	-0.259	0.241
-564.573	277.629	0.064	0.116
-563.558	694.329	-0.113	-0.298
-562.544	63.434	-0.108	0.109
-561.529	477.981	0.044	-0.101
-560.515	-200.000	-0.014	0.089
-559.500	-74.412	0.115	-0.042
-558.485	303.819	-0.095	-0.178
-557.471	-192.423	-0.320	-0.003
-556.456	131.595	-0.025	0.032
-555.442	-200.000	-0.014	-0.220
-554.427	-200.000	0.012	-0.077
-553.412	-200.000	-0.076	-0.451
-552.398	-200.000	-0.021	-0.214
-551.383	50.339	-0.161	-0.154
-550.369	-119.276	0.239	0.042
-549.354	-80.625	0.063	0.021
-548.339	-106.904	-0.328	0.073
-547.325	-200.000	-0.014	0.274
-546.310	-112.324	0.055	-0.011
-545.296	575.446	-0.006	-0.015
-544.281	366.273	-0.097	-0.198
-543.266	63.122	-0.245	0.247
-542.252	-200.000	0.015	-0.340
-541.237	74.528	-0.056	-0.059
-540.223	35.217	-0.110	0.097
-539.208	800.000	0.053	0.167
-538.193	-50.657	0.136	0.064
-537.179	-200.000	0.040	-0.316
-536.164	454.218	-0.090	-0.202
-535.150	-200.000	0.015	0.111
-534.135	38.368	0.131	0.118
-533.121	-200.000	0.019	-0.112
-532.106	19.614	0.275	-0.223
-531.091	101.393	-0.097	0.114
-530.077	41.343	0.231	0.211
-529.062	-200.000	-0.030	0.512
-528.048	88.186	-0.120	-0.134
-527.033	230.803	-0.088	-0.146
-526.018	-73.252	-0.097	0.036
-525.004	-66.749	-0.232	-0.092
-523.989	-200.000	0.013	-0.503
-522.975	145.545	0.101	-0.136
-521.960	57.154	0.211	-0.207
-520.945	464.342	0.101	-0.228
-519.931	-10.941	-0.152	0.101
-518.916	-200.000	-0.014	-0.213
-517.902	121.997	0.123	0.154
-516.887	-200.000	-0.018	-0.122
-515.872	1.129	0.277	-0.200
-514.858	800.000	-0.058	-0.239
-513.843	-200.000	0.008	0.175
-512.829	79.972	0.189	-0.205
-511.814	580.057	0.043	0.106
-510.799	-87.834	0.102	-0.031
-509.785	425.357	-0.057	0.124
-508.770	-84.854	0.371	0.117
-507.756	-165.015	-0.322	0.014
-506.741	66.039	0.125	0.127
-505.726	-130.031	-0.088	0.012
-504.712	-200.000	0.011	0.112
-503.697	242.626	0.145	0.244
-502.683	188.783	-0.089	-0.134
-501.668	37.910	-0.216	-0.193
-500.653	800.000	-0.115	0.368
-499.639	226.371	-0.030	-0.049
-498.624	-200.000	-0.003	-0.080
-497.610	15.978	-0.147	0.117
-496.595	-200.000	0.010	0.263
-495.581	-101.679	0.137	-0.033
-494.566	-200.000	0.043	-0.206
-493.551	-30.190	-0.286	-0.164
-492.537	-200.000	-0.033	-0.244
-491.522	-200.000	-0.357	-0.000
-490.508	101.697	0.043	-0.051
-489.493	-53.420	-0.324	0.149
-488.478	204.089	-0.271	-0.423
-487.464	-4.735	0.102	-0.071
-486.449	800.000	0.127	-0.392
-485.435	800.000	-0.050	-0.182
-484.420	332.754	0.096	-0.187
-483.405	233.497	-0.076	0.126
-482.391	-57.927	0.251	0.110
-481.376	-200.000	-0.044	0.220
-480.362	-200.000	0.017	0.196
-479.347	92.551	-0.184	-0.208
-478.332	-43.026	-0.211	-0.108
-477.318	-200.000	0.044	-0.355
-476.303	181.811	0.073	-0.109
-475.289	153.276	0.072	0.099
-474.274	50.474	0.067	-0.064
-473.259	-100.245	0.118	0.030
-472.245	4.607	0.113	0.084
-471.230	-138.779	0.353	-0.039
-470.216	-200.000	-0.018	-0.287
-469.201	58.806	-0.355	-0.350
-468.186	726.744	-0.091	0.245
-467.172	485.637	-0.068	0.156
-466.157	432.818	0.071	0.156
-465.143	-128.302	-0.362	-0.052
-464.128	330.669	0.165	0.320
-463.113	-200.000	-0.046	-0.446
-462.099	159.796	-0.086	0.120
-461.084	-28.262	0.069	0.040
-460.070	800.000	-0.042	0.165
-459.055	-200.000	0.036	0.221
-458.040	-200.000	-0.019	0.101
-457.026	127.244	-0.090	-0.114
-456.011	1.805	-0.126	0.091
-454.997	112.542	-0.136	-0.166
-453.982	-93.370	0.197	0.055
-452.968	-200.000	-0.058	0.289
-451.953	-83.890	-0.169	-0.054
-450.938	693.235	-0.004	0.011
-449.924	573.125	-0.124	-0.304
-448.909	-200.000	-0.013	0.090
-447.895	29.909	-0.251	-0.215
-446.880	29.176	-0.198	-0.168
-445.865	-147.647	0.349	0.029
-444.851	56.015	0.193	0.188
-443.836	-94.191	-0.145	0.040
-442.822	-95.563	0.081	-0.022
-441.807	-113.549	-0.032	-0.006
-440.792	-97.561	0.090	-0.024
-439.778	93.681	-0.095	0.108
-438.763	428.050	0.163	0.354
-437.749	353.894	0.034	-0.067
-436.734	-72.181	-0.059	-0.022
-435.719	-102.335	-0.301	-0.072
-434.705	-200.000	-0.045	0.225
-433.690	650.741	-0.154	0.396
-432.676	617.072	-0.014	0.036
-431.661	117.944	0.200	-0.247
-430.646	-88.633	-0.209	0.062
-429.632	-200.000	-0.016	0.181
-428.617	152.053	0.103	0.142
-427.603	-200.000	-0.005	-0.173
-426.588	-30.862	0.303	-0.172
-425.573	-105.551	0.063	-0.014
-424.559	-87.956	-0.406	-0.122
-423.544	632.475	0.053	0.135
-422.530	800.000	0.033	-0.107
-421.515	493.835	-0.050	-0.115
-420.500	-200.000	-0.037	0.209
-419.486	-99.846	0.349	-0.088
-418.471	-200.000	-0.026	0.151
-417.457	-2.783	0.115	-0.081
-416.442	-200.000	-0.003	0.111
-415.428	-2.382	0.139	0.098
-414.413	-145.341	0.139	-0.013
-413.398	4.618	-0.099	-0.073
-412.384	227.747	0.150	-0.244
-411.369	372.044	0.231	-0.469
-410.355	-2.283	0.042	-0.029
-409.340	214.607	0.050	-0.079
-408.325	-200.000	-0.008	0.051
-407.311	-200.000	-0.017	-0.395
-406.296	39.340	0.180	0.162
-405.282	-161.094	0.083	-0.004
-404.267	-162.007	0.215	0.011
-403.252	315.269	-0.146	-0.275
-402.238	13.259	-0.278	0.216
-401.223	135.254	0.225	0.293
-400.209	-1.684	0.146	-0.103
-399.194	800.000	0.102	0.377
-398.179	-200.000	-0.007	-0.137
-397.165	-82.433	-0.130	-0.042
-396.150	226.845	0.225	-0.366
-395.136	-200.000	-0.027	0.183
-394.121	-38.964	-0.293	0.155
-393.106	3.501	0.063	0.046
-392.092	5.621	0.254	0.188
-391.077	220.961	0.107	0.172
-390.063	-200.000	-0.071	0.313
-389.048	166.253	0.090	-0.128
-388.033	-60.569	0.345	0.147
-387.019	800.000	0.072	0.292
-386.004	-3.490	-0.338	0.236
-384.990	-76.235	0.145	0.051
-383.975	-122.821	0.131	0.021
-382.960	76.718	-0.213	-0.226
-381.946	-25.552	0.266	-0.158
-380.931	200.982	0.114	0.175
-379.917	800.000	-0.080	0.233
-378.902	-99.814	0.315	-0.079
-377.888	-200.000	-0.052	0.257
-376.873	194.520	0.272	-0.414
-375.858	-25.509	-0.124	-0.073
-374.844	44.196	-0.132	-0.121
-373.829	112.652	-0.205	-0.248
-372.815	800.000	-0.050	-0.203
-371.800	800.000	0.031	0.106
-370.785	508.511	0.099	-0.231
-369.771	57.288	-0.231	-0.226
-368.756	-200.000	0.071	0.376
-367.742	431.025	0.092	0.200
-366.727	-200.000	0.009	-0.130
-365.712	-129.847	-0.402	0.055
-364.698	-127.637	0.076	0.011
-363.683	-112.224	-0.171	0.034
-362.669	800.000	-0.061	-0.249
-361.654	-138.154	0.173	-0.019
-360.639	-51.073	-0.317	-0.149
-359.625	-65.493	-0.112	-0.045
-358.610	47.386	0.219	0.204
-357.596	800.000	-0.092	-0.296
-356.581	18.877	-0.045	-0.036
-355.566	-200.000	0.005	-0.074
-354.552	92.769	0.022	-0.025
-353.537	800.000	-0.094	-0.290
-352.523	-200.000	-0.042	-0.239
-351.508	-108.099	0.160	0.035
-350.493	-69.702	-0.149	0.057
-349.479	88.775	0.166	0.185
-348.464	-91.963	0.115	-0.033
-347.450	751.852	-0.097	-0.261
-346.435	-180.871	-0.223	-0.005
-345.420	-200.000	0.125	0.000
-344.406	-95.252	0.083	0.022
-343.391	-76.414	-0.342	0.120
-342.377	-200.000	-0.078	0.350
-341.362	-200.000	-0.014	-0.247
-340.348	-64.217	-0.591	0.241
-339.333	137.208	0.147	0.192
-338.318	-200.000	0.040	0.183
-337.304	-145.018	-0.020	0.002
-336.289	800.000	0.051	-0.224
-335.275	701.074	0.154	-0.404
-334.260	-85.079	0.347	-0.109
-333.245	-200.000	-0.049	-0.260
-332.231	285.045	-0.032	-0.057
-331.216	43.437	-0.126	0.115
-330.202	36.706	0.160	0.141
-329.187	27.733	-0.148	-0.124
-328.172	-132.796	0.162	0.021
-327.158	513.639	0.035	0.082
-326.143	80.770	-0.051	0.055
-325.129	-200.000	0.004	-0.044
-324.114	-108.349	0.213	-0.046
-323.099	-200.000	-0.018	0.198
-322.085	72.550	0.300	0.312
-321.070	-200.000	0.016	0.191
-320.056	95.398	-0.206	-0.234
-319.041	800.000	-0.049	0.136
-318.026	130.965	0.093	0.120
-317.012	206.400	0.130	0.201
-315.997	31.147	-0.136	-0.117
-314.983	-122.297	0.208	-0.034
-313.968	-185.067	0.025	0.000
-312.953	-66.145	-0.050	0.020
-311.939	-184.826	-0.099	0.002
-310.924	361.616	0.134	0.268
-309.910	-200.000	0.027	-0.323
-308.895	87.197	0.096	0.106
-307.880	34.225	-0.267	-0.232
-306.866	464.939	-0.066	-0.148
-305.851	-139.931	0.356	-0.038
-304.837	-96.552	0.161	0.042
-303.822	534.891	-0.052	-0.123
-302.807	-62.948	0.257	0.106
-301.793	158.787	-0.075	-0.103
-300.778	-3.867	0.246	0.170
-299.764	110.819	-0.144	-0.173
-298.749	91.335	0.054	0.061
-297.735	800.000	0.062	0.230
-296.720	800.000	0.064	-0.279
-295.705	-53.881	0.098	0.045
-294.691	-134.443	-0.347	0.042
-293.676	-124.915	0.139	-0.021
-292.662	-54.283	-0.136	0.062
-291.647	-103.228	-0.157	-0.037
-290.632	-123.680	0.304	-0.048
-289.618	-73.442	-0.067	0.024
-288.603	-57.936	0.166	-0.072
-287.589	81.790	-0.109	0.117
-286.574	233.120	0.094	0.153
-285.559	12.763	-0.265	0.204
-284.545	-200.000	0.101	0.511
-283.530	-130.282	-0.382	0.052
-282.516	248.779	-0.050	0.085
-281.501	460.444	0.101	-0.225
-280.486	183.350	-0.212	-0.312
-279.472	78.304	0.104	0.111
-278.457	-36.777	0.053	-0.028
-277.443	396.149	-0.113	0.236
-276.428	-200.000	-0.020	-0.187
-275.413	-200.000	-0.039	0.324
-274.399	-149.047	0.154	0.012
-273.384	-113.362	0.091	0.018
-272.370	13.366	0.352	0.272
-271.355	246.896	-0.072	0.120
-270.340	584.723	-0.038	-0.093
-269.326	-200.000	-0.019	-0.255
-268.311	-200.000	-0.079	-0.373
-267.297	116.737	-0.225	0.276
-266.282	-51.988	0.150	0.070
-265.267	95.820	-0.093	-0.106
-264.253	202.627	0.178	0.275
-263.238	800.000	-0.074	0.227
-262.224	-72.098	0.369	0.137
-261.209	-200.000	-0.002	0.085
-260.195	-97.768	-0.176	0.045
-259.180	-46.440	-0.164	0.080
-258.165	21.959	-0.116	0.094
-257.151	-131.793	-0.319	-0.042
-256.136	-35.131	0.020	0.011
-255.122	-16.904	-0.200	-0.126
-254.107	423.448	-0.220	-0.472
-253.092	-31.169	0.184	-0.103
-252.078	88.677	-0.042	0.046
-251.063	206.435	-0.170	-0.263
-250.049	-172.167	0.258	-0.008
-249.034	-40.631	0.059	0.030
-248.019	100.523	-0.128	-0.148
-247.005	224.080	-0.135	-0.217
-245.990	-14.921	0.188	-0.120
-244.976	19.044	0.087	0.070
-243.961	221.285	-0.148	-0.237
-242.946	-167.179	-0.093	-0.004
-241.932	8.975	-0.252	0.189
-240.917	-77.924	0.154	0.053
-239.903	150.460	0.089	0.121
-238.888	-49.247	-0.305	-0.145
-237.873	-200.000	-0.006	-0.098
-236.859	65.058	-0.217	0.218
-235.844	443.391	0.057	0.124
-234.830	800.000	-0.058	0.187
-233.815	585.144	0.109	0.267
-232.800	274.938	0.091	0.161
-231.786	154.418	0.278	0.380
-230.771	35.105	0.123	-0.108
-229.757	10.159	0.051	-0.039
-228.742	672.086	0.203	0.524
-227.727	-60.159	-0.267	-0.113
-226.713	762.785	0.050	-0.136
-225.698	-161.707	0.058	-0.003
-224.684	-79.162	-0.236	-0.080
-223.669	677.294	-0.044	-0.113
-222.655	27.189	-0.243	0.203
-221.640	263.814	-0.113	0.195
-220.625	25.326	0.048	-0.040
-219.611	-171.852	0.076	-0.002
-218.596	190.087	0.094	-0.141
-217.582	-151.198	-0.278	-0.021
-216.567	800.000	0.044	-0.149
-215.552	166.090	-0.069	-0.097
-214.538	-200.000	0.023	0.132
-213.523	-164.330	0.375	0.017
-212.509	-3.601	0.081	0.056
-211.494	-187.581	-0.378	-0.005
-210.479	33.143	0.239	0.206
-209.465	539.916	0.029	-0.069
-208.450	800.000	0.049	0.209
-207.436	-94.381	-0.224	-0.061
-206.421	-200.000	0.002	-0.187
-205.406	26.510	0.252	0.210
-204.392	39.032	-0.134	0.119
-203.377	-181.534	0.067	-0.001
-202.363	28.579	0.189	0.159
-201.348	623.533	0.113	-0.283
-200.333	716.803	-0.077	0.203
-199.319	42.265	-0.217	0.196
-198.304	-200.000	-0.004	0.049
-197.290	-200.000	-0.023	-0.130
-196.275	92.076	-0.132	-0.148
-195.260	-200.000	0.001	0.016
-194.246	-17.209	0.293	0.183
-193.231	800.000	0.069	0.248
-192.217	-63.130	-0.244	-0.100
-191.202	21.262	0.176	0.142
-190.187	173.444	0.073	0.105
-189.173	-112.249	0.209	0.042
-188.158	-52.151	-0.278	0.128
-187.144	-23.891	0.579	0.345
-186.129	87.667	0.316	0.348
-185.114	-35.074	-0.240	0.130
-184.100	617.343	-0.143	-0.356
-183.085	800.000	0.099	-0.315
-182.071	-126.562	0.280	-0.041
-181.056	-200.000	-0.065	0.404
-180.042	741.451	0.113	0.302
-179.027	397.554	-0.086	0.178
-178.012	29.787	0.122	-0.103
-176.998	-200.000	-0.128	-0.589
-175.983	203.270	0.206	-0.316
-174.969	22.091	0.144	-0.116
-173.954	74.976	-0.222	-0.233
-172.939	-200.000	0.040	-0.437
-171.925	-61.274	-0.044	-0.018
-170.910	5.705	0.081	-0.060
-169.896	230.782	0.098	-0.159
-168.881	11.375	-0.200	-0.152
-167.866	-200.000	0.013	-0.190
-166.852	-103.126	0.248	-0.058
-165.837	222.132	0.128	-0.204
-164.823	321.265	0.070	-0.131
-163.808	-47.060	0.111	-0.054
-162.793	-57.100	-0.212	0.093
-161.779	-119.861	0.144	-0.025
-160.764	-147.647	-0.205	0.017
-159.750	-112.158	-0.107	0.021
-158.735	-50.715	-0.241	-0.113
-157.720	800.000	0.069	0.200
-156.706	-17.754	-0.360	-0.225
-155.691	-12.712	0.261	-0.169
-154.677	130.673	-0.173	-0.221
-153.662	-76.209	-0.127	0.044
-152.647	-151.114	-0.187	0.014
-151.633	-23.704	0.165	0.098
-150.618	-200.000	-0.002	0.100
-149.604	-88.027	0.282	-0.084
-148.589	254.378	0.094	0.160
-147.574	-4.877	0.194	-0.133
-146.560	-124.479	0.304	-0.047
-145.545	266.992	-0.240	-0.416
-144.531	800.000	0.087	0.291
-143.516	-200.000	0.044	0.279
-142.502	-72.686	-0.255	0.093
-141.487	-160.317	-0.154	-0.008
-140.472	-175.433	0.308	0.008
-139.458	-130.016	-0.114	0.016
-138.443	127.205	0.340	0.428
-137.429	800.000	-0.012	-0.048
-136.414	172.677	0.173	0.247
-135.399	179.830	-0.153	0.222
-134.385	332.792	0.204	0.391
-133.370	-200.000	-0.035	0.264
-132.356	657.178	-0.096	-0.245
-131.341	-22.827	0.039	-0.023
-130.326	-138.869	-0.176	0.019
-129.312	-69.479	0.104	-0.039
-128.297	171.856	0.190	0.271
-127.283	418.207	-0.121	0.257
-126.268	161.258	-0.245	0.340
-125.253	-200.000	-0.013	0.170
-124.239	97.383	-0.268	0.305
-123.224	132.175	-0.091	-0.116
-122.210	85.604	0.083	0.091
-121.195	8.225	-0.118	-0.088
-120.180	287.959	0.090	-0.162
