DTS Sentinel unit serial number:	SN413079Multiplexer serial number:	ORYXHardware model number:	OX4-SRSoftware version number:	ORYX F/W v4.00 Oryx Data Collector v3.7.2.0data status	okinstallation	princeton_trtdifferential loss correction	single-endedforward channel	channel 4reverse channel	N/Adate	2019/09/15time	12:21:35forward acquisition time	60.00reverse acquisition time	0.00gamma	496.2192k internal	0.2294k external	0.2294temperature offset calibration	1.0017default loss term (dB/km)	0.3790temperature slope calibration	1.0000multiplexer offset coefficient	1.0000multiplexer slope coefficient	1.0000fibre end	0.00T internal ref (°C)	34.81T ext. ref 1 (°C)	5.05T ext. ref 2 (°C)	32.15length (m)	temperature (°C)	Stokes	anti-Stokes-747.200	-28.539	0.308	0.182
-746.185	-73.013	-0.159	-0.060
-745.171	14.778	0.143	0.115
-744.156	150.339	-0.137	0.190
-743.142	-195.413	0.009	0.000
-742.127	-79.005	-0.157	0.055
-741.112	131.699	0.059	-0.077
-740.098	-200.000	0.010	0.353
-739.083	-24.577	-0.171	0.104
-738.069	8.096	-0.165	0.126
-737.054	-200.000	-0.010	-0.265
-736.039	-200.000	0.045	-0.341
-735.025	108.383	0.158	0.193
-734.010	-134.471	-0.211	0.026
-732.996	-16.853	0.117	-0.075
-731.981	-68.834	-0.149	0.059
-730.966	55.963	-0.079	-0.078
-729.952	-200.000	-0.062	0.435
-728.937	-97.156	0.272	-0.073
-727.923	-200.000	0.003	-0.068
-726.908	-5.027	-0.088	0.062
-725.894	-114.192	-0.247	-0.049
-724.879	18.878	-0.192	0.158
-723.864	-173.518	-0.203	-0.006
-722.850	-9.039	-0.171	-0.117
-721.835	125.779	-0.105	-0.136
-720.821	-75.022	-0.464	-0.170
-719.806	169.254	0.059	-0.087
-718.791	99.499	0.095	0.112
-717.777	347.976	0.205	-0.413
-716.762	-19.678	-0.153	-0.097
-715.748	36.370	-0.108	0.097
-714.733	167.004	0.094	0.136
-713.718	-200.000	-0.027	-0.135
-712.704	138.273	0.117	0.157
-711.689	-81.318	-0.213	0.072
-710.675	-200.000	-0.013	0.289
-709.660	769.271	-0.053	0.149
-708.645	19.604	-0.064	0.052
-707.631	-200.000	0.017	-0.449
-706.616	-62.735	0.066	0.028
-705.602	106.663	-0.061	0.074
-704.587	-156.720	-0.152	0.010
-703.572	-106.294	-0.191	0.044
-702.558	-200.000	0.011	-0.233
-701.543	-91.316	-0.316	-0.092
-700.529	96.683	0.116	0.136
-699.514	146.638	-0.173	0.238
-698.499	-66.862	-0.146	-0.059
-697.485	-115.028	0.189	-0.037
-696.470	365.473	-0.039	0.079
-695.456	67.021	-0.048	0.050
-694.441	-200.000	0.010	0.138
-693.426	228.305	-0.105	-0.175
-692.412	-200.000	0.032	-0.185
-691.397	-200.000	-0.007	-0.153
-690.383	63.957	0.106	-0.108
-689.368	-17.174	0.210	-0.135
-688.354	-200.000	0.048	-0.343
-687.339	785.535	-0.032	-0.089
-686.324	248.847	-0.074	0.128
-685.310	31.945	0.457	-0.402
-684.295	-70.668	0.203	-0.078
-683.281	800.000	-0.029	-0.118
-682.266	-200.000	-0.037	0.243
-681.251	-84.231	-0.211	0.068
-680.237	-200.000	-0.032	0.174
-679.222	-155.859	0.139	-0.009
-678.208	142.361	0.167	0.226
-677.193	107.467	0.261	0.317
-676.178	142.979	0.150	0.203
-675.164	-166.126	0.483	0.021
-674.149	-63.532	0.180	-0.075
-673.135	-68.731	-0.687	0.271
-672.120	800.000	-0.004	0.015
-671.105	290.628	-0.174	-0.321
-670.091	-200.000	-0.010	0.151
-669.076	-23.830	0.078	-0.048
-668.062	-110.658	-0.233	-0.049
-667.047	-124.680	-0.179	-0.028
-666.032	-200.000	-0.008	0.431
-665.018	-34.609	0.027	-0.015
-664.003	-62.188	-0.310	0.132
-662.989	21.538	-0.179	-0.148
-661.974	16.856	-0.226	-0.183
-660.959	-59.656	-0.118	-0.052
-659.945	800.000	0.037	0.104
-658.930	800.000	0.021	0.084
-657.916	-200.000	0.028	-0.143
-656.901	-200.000	-0.004	-0.244
-655.886	-133.060	-0.246	-0.032
-654.872	-112.259	-0.184	0.038
-653.857	227.180	0.043	0.071
-652.843	800.000	0.068	0.203
-651.828	-55.914	-0.206	-0.094
-650.814	483.020	-0.133	0.308
-649.799	156.001	0.051	0.072
-648.784	-56.854	-0.033	0.015
-647.770	-106.024	-0.253	-0.058
-646.755	-106.871	-0.220	-0.050
-645.741	-200.000	0.030	-0.158
-644.726	25.864	-0.134	-0.114
-643.711	-154.057	-0.214	0.015
-642.697	-200.000	0.040	-0.219
-641.682	800.000	0.110	0.315
-640.668	330.442	0.152	0.297
-639.653	52.329	0.085	0.083
-638.638	135.510	-0.125	0.166
-637.624	19.860	0.338	0.277
-636.609	-200.000	-0.012	0.244
-635.595	54.293	0.064	-0.063
-634.580	-200.000	0.015	0.386
-633.565	800.000	0.123	-0.423
-632.551	365.617	-0.066	-0.135
-631.536	254.758	-0.261	-0.454
-630.522	240.453	-0.117	-0.198
-629.507	213.488	-0.070	0.113
-628.492	426.627	0.148	0.325
-627.478	-98.533	-0.304	-0.079
-626.463	1.806	0.183	-0.134
-625.449	-26.722	-0.240	-0.143
-624.434	38.242	-0.120	0.109
-623.419	-105.732	-0.079	-0.018
-622.405	-84.856	-0.047	-0.015
-621.390	671.564	0.132	0.348
-620.376	177.785	-0.226	0.336
-619.361	57.922	-0.126	0.126
-618.346	-200.000	-0.046	0.342
-617.332	24.416	0.155	0.130
-616.317	-62.654	-0.283	0.119
-615.303	800.000	0.150	0.478
-614.288	135.278	0.141	0.187
-613.273	11.665	-0.265	0.207
-612.259	-59.524	-0.332	0.145
-611.244	-200.000	0.051	0.459
-610.230	-18.463	0.243	0.154
-609.215	-122.806	0.139	-0.023
-608.201	-200.000	-0.019	-0.145
-607.186	-200.000	-0.001	0.091
-606.171	-118.205	0.292	0.053
-605.157	-91.952	0.236	0.068
-604.142	203.677	0.128	-0.202
-603.128	-28.106	-0.142	0.084
-602.113	800.000	0.007	-0.022
-601.098	800.000	0.084	0.327
-600.084	287.585	0.139	0.255
-599.069	-57.462	-0.043	-0.019
-598.055	444.713	0.042	-0.093
-597.040	32.156	-0.075	-0.066
-596.025	-104.691	-0.167	0.039
-595.011	62.268	-0.045	-0.046
-593.996	598.569	-0.087	-0.220
-592.982	800.000	-0.052	-0.190
-591.967	-83.329	0.040	-0.013
-590.952	-43.351	0.315	0.162
-589.938	-183.453	-0.227	0.004
-588.923	-18.425	-0.206	-0.131
-587.909	-7.067	0.108	-0.074
-586.894	-200.000	-0.016	-0.510
-585.879	-31.880	0.027	0.015
-584.865	-148.658	-0.327	-0.027
-583.850	800.000	0.097	-0.348
-582.836	-200.000	-0.078	-0.355
-581.821	635.317	-0.040	-0.104
-580.806	-94.188	-0.247	-0.069
-579.792	50.036	0.075	0.072
-578.777	-176.697	0.197	-0.005
-577.763	121.113	0.144	0.182
-576.748	-18.736	0.283	-0.179
-575.733	-46.960	-0.257	-0.127
-574.719	800.000	0.022	0.088
-573.704	800.000	0.102	-0.322
-572.690	800.000	0.060	-0.176
-571.675	223.881	-0.178	0.291
-570.661	214.628	0.027	-0.044
-569.646	-121.918	-0.259	-0.043
-568.631	102.181	0.171	-0.203
-567.617	-120.451	-0.120	0.021
-566.602	-113.908	0.222	-0.044
-565.588	-48.108	-0.204	0.100
-564.573	12.278	0.089	0.070
-563.558	127.621	0.164	0.211
-562.544	470.388	0.062	-0.141
-561.529	168.007	0.094	-0.136
-560.515	45.434	0.036	0.034
-559.500	-200.000	0.045	-0.270
-558.485	180.790	-0.049	-0.073
-557.471	-87.817	0.304	0.093
-556.456	-107.972	-0.566	0.125
-555.442	-30.776	0.157	0.090
-554.427	108.980	0.252	-0.306
-553.412	-93.783	0.326	-0.091
-552.398	-200.000	0.031	-0.241
-551.383	458.754	0.032	-0.072
-550.369	-26.212	-0.187	-0.111
-549.354	-81.372	-0.182	-0.061
-548.339	186.258	0.132	0.199
-547.325	72.297	-0.127	0.134
-546.310	-200.000	-0.007	-0.077
-545.296	800.000	-0.035	-0.106
-544.281	-47.457	-0.165	-0.082
-543.266	710.334	-0.043	-0.116
-542.252	160.288	0.105	-0.149
-541.237	-74.677	0.103	-0.037
-540.223	-67.340	-0.477	-0.190
-539.208	19.861	0.351	-0.287
-538.193	7.669	0.194	0.147
-537.179	442.465	0.175	0.389
-536.164	-38.729	-0.224	0.120
-535.150	80.560	0.116	-0.126
-534.135	37.446	0.146	0.132
-533.121	42.449	-0.061	-0.057
-532.106	63.464	0.201	0.205
-531.091	126.830	-0.164	-0.211
-530.077	14.683	0.296	-0.234
-529.062	-89.621	-0.108	0.032
-528.048	122.470	-0.022	0.028
-527.033	-152.373	-0.035	-0.003
-526.018	-33.782	-0.313	-0.175
-525.004	205.434	0.261	-0.411
-523.989	76.784	-0.083	0.090
-522.975	54.308	-0.142	-0.139
-521.960	-46.422	0.359	0.179
-520.945	-63.872	0.168	0.070
-519.931	30.101	0.110	0.095
-518.916	-174.374	-0.290	-0.008
-517.902	184.593	-0.073	-0.109
-516.887	117.593	0.070	0.087
-515.872	-111.218	0.068	0.014
-514.858	137.686	0.142	-0.189
-513.843	-135.244	0.120	0.015
-512.829	-200.000	0.014	0.069
-511.814	677.189	-0.130	-0.343
-510.799	-145.161	0.263	-0.024
-509.785	-108.417	0.098	-0.021
-508.770	-200.000	0.010	-0.240
-507.756	34.418	0.208	0.184
-506.741	-200.000	0.060	0.340
-505.726	43.986	0.278	0.258
-504.712	40.998	-0.120	-0.110
-503.697	-101.921	0.068	0.017
-502.683	800.000	0.119	-0.351
-501.668	309.444	0.075	-0.141
-500.653	-186.128	0.160	0.002
-499.639	-200.000	0.024	-0.140
-498.624	676.869	0.034	-0.090
-497.610	39.950	-0.135	0.123
-496.595	800.000	0.050	0.194
-495.581	-60.482	0.127	-0.055
-494.566	800.000	-0.050	-0.193
-493.551	236.973	0.130	0.219
-492.537	668.823	-0.043	-0.113
-491.522	74.333	0.039	0.041
-490.508	-162.844	-0.096	0.005
-489.493	539.573	0.067	0.161
-488.478	-141.811	0.275	-0.028
-487.464	-88.163	0.117	-0.035
-486.449	-79.583	0.287	-0.098
-485.435	646.706	0.063	-0.163
-484.420	-72.286	-0.127	-0.048
-483.405	52.116	0.094	-0.091
-482.391	171.656	-0.245	-0.356
-481.376	-200.000	-0.016	-0.149
-480.362	800.000	-0.040	0.164
-479.347	-26.633	-0.238	0.141
-478.332	-94.478	-0.059	0.016
-477.318	-200.000	-0.019	-0.200
-476.303	-75.817	0.333	-0.119
-475.289	149.000	0.155	0.211
-474.274	-200.000	-0.023	-0.340
-473.259	-200.000	0.028	0.253
-472.245	-151.909	-0.243	0.018
-471.230	304.460	-0.082	0.153
-470.216	119.101	0.228	-0.286
-469.201	-8.832	0.412	-0.280
-468.186	-135.019	-0.243	-0.030
-467.172	119.819	-0.220	-0.276
-466.157	-200.000	-0.014	0.073
-465.143	-103.597	0.104	-0.025
-464.128	-67.168	0.291	0.116
-463.113	-58.250	-0.358	-0.158
-462.099	226.355	-0.183	0.301
-461.084	19.444	0.272	0.221
-460.070	-92.779	-0.252	-0.071
-459.055	-23.096	-0.260	0.158
-458.040	75.286	-0.100	0.107
-457.026	-112.412	-0.149	0.030
-456.011	-200.000	0.071	0.370
-454.997	535.006	0.133	0.318
-453.982	47.216	-0.164	-0.155
-452.968	-32.045	0.179	-0.101
-451.953	-200.000	0.036	-0.243
-450.938	-111.463	-0.214	0.044
-449.924	184.537	-0.142	-0.213
-448.909	109.891	0.190	0.231
-447.895	800.000	-0.017	-0.070
-446.880	-112.120	0.266	0.054
-445.865	131.711	-0.274	0.356
-444.851	27.349	-0.232	0.197
-443.836	-1.046	0.261	0.187
-442.822	336.723	-0.152	0.299
-441.807	140.702	0.181	0.241
-440.792	-179.170	0.135	0.003
-439.778	394.424	-0.228	-0.480
-438.763	11.093	0.107	0.083
-437.749	-200.000	-0.043	-0.252
-436.734	13.383	-0.089	-0.070
-435.719	648.083	-0.161	-0.417
-434.705	-54.238	-0.374	0.172
-433.690	-98.342	0.220	0.057
-432.676	34.233	-0.259	-0.228
-431.661	-11.969	0.177	-0.117
-430.646	-102.242	0.153	-0.037
-429.632	791.437	0.085	0.237
-428.617	194.793	-0.130	-0.199
-427.603	-200.000	-0.072	0.392
-426.588	-23.206	-0.159	-0.097
-425.573	632.048	0.033	0.085
-424.559	-113.210	-0.255	0.051
-423.544	-14.234	-0.242	0.158
-422.530	421.725	-0.127	0.276
-421.515	14.285	-0.128	0.101
-420.500	-98.011	0.086	-0.022
-419.486	-185.157	-0.472	0.007
-418.471	122.274	0.194	0.245
-417.457	22.030	0.119	0.098
-416.442	298.216	0.135	0.251
-415.428	-69.874	0.209	0.080
-414.413	178.846	0.190	-0.281
-413.398	-78.578	-0.137	0.047
-412.384	391.489	-0.107	0.225
-411.369	168.772	-0.137	-0.198
-410.355	-26.850	0.272	0.161
-409.340	-77.283	0.233	-0.082
-408.325	82.166	-0.100	-0.109
-407.311	800.000	0.040	-0.113
-406.296	372.351	0.165	-0.339
-405.282	7.918	0.129	-0.097
-404.267	-62.826	-0.186	0.078
-403.252	800.000	0.137	0.469
-402.238	-37.173	0.168	-0.090
-401.223	-200.000	-0.030	-0.172
-400.209	252.771	-0.121	0.208
-399.194	-12.385	0.131	0.086
-398.179	118.176	0.052	0.064
-397.165	-200.000	0.020	-0.119
-396.150	-0.628	-0.159	0.114
-395.136	110.767	-0.129	-0.156
-394.121	-200.000	0.002	0.231
-393.106	800.000	0.014	-0.042
-392.092	800.000	0.065	0.241
-391.077	-181.868	0.347	0.007
-390.063	163.726	-0.102	-0.144
-389.048	-107.966	-0.049	0.011
-388.033	42.950	-0.099	-0.091
-387.019	-136.451	0.288	-0.034
-386.004	260.232	0.019	0.033
-384.990	-31.206	-0.095	0.054
-383.975	143.036	-0.042	-0.056
-382.960	-34.085	-0.048	0.026
-381.946	-59.588	-0.127	0.055
-380.931	-63.909	0.262	-0.108
-379.917	800.000	-0.031	-0.087
-378.902	800.000	-0.113	-0.419
-377.888	-65.718	-0.316	-0.127
-376.873	800.000	0.097	0.389
-375.858	57.535	-0.230	-0.226
-374.844	-200.000	0.041	0.299
-373.829	-61.388	0.197	-0.084
-372.815	-200.000	0.003	-0.083
-371.800	799.969	0.040	-0.110
-370.785	26.789	0.069	0.059
-369.771	-123.178	-0.318	-0.051
-368.756	-106.120	0.369	-0.084
-367.742	-200.000	0.055	0.339
-366.727	-62.378	0.090	0.038
-365.712	25.681	0.175	0.147
-364.698	800.000	-0.093	0.266
-363.683	800.000	0.050	0.183
-362.669	-144.347	0.079	-0.007
-361.654	-62.299	-0.172	-0.072
-360.639	-200.000	0.055	-0.321
-359.625	768.049	-0.008	-0.023
-358.610	45.858	0.063	0.058
-357.596	72.666	-0.080	0.085
-356.581	-92.063	0.141	-0.040
-355.566	-153.153	-0.100	-0.007
-354.552	92.246	-0.130	-0.147
-353.537	-200.000	0.013	-0.469
-352.523	249.292	0.104	-0.177
-351.508	584.385	0.064	0.159
-350.493	-101.249	-0.400	-0.098
-349.479	235.946	-0.172	-0.287
-348.464	113.731	0.080	0.098
-347.450	-88.896	-0.340	0.101
-346.435	-24.432	0.141	-0.084
-345.420	800.000	-0.044	0.183
-344.406	-200.000	0.016	0.501
-343.391	-5.636	-0.065	0.045
-342.377	78.573	0.122	0.131
-341.362	800.000	-0.118	0.333
-340.348	-16.814	-0.255	-0.162
-339.333	64.641	-0.026	0.026
-338.318	-200.000	-0.100	-0.445
-337.304	-95.197	-0.325	0.088
-336.289	-30.397	-0.118	0.067
-335.275	-172.775	-0.102	0.003
-334.260	-138.198	-0.156	-0.017
-333.245	800.000	0.066	-0.287
-332.231	-1.274	0.037	0.027
-331.216	107.903	0.122	0.146
-330.202	800.000	-0.062	-0.266
-329.187	-47.451	0.267	-0.130
-328.172	-75.207	-0.051	-0.018
-327.158	354.478	0.097	-0.194
-326.143	-78.772	0.127	-0.043
-325.129	800.000	-0.072	0.230
-324.114	118.618	0.065	-0.081
-323.099	-9.017	-0.035	0.023
-322.085	401.057	-0.152	0.321
-321.070	-12.753	0.205	-0.134
-320.056	63.745	-0.115	-0.116
-319.041	93.139	-0.082	0.093
-318.026	-1.796	0.186	0.131
-317.012	22.796	-0.071	-0.059
-315.997	47.148	-0.086	-0.080
-314.983	790.704	0.134	0.372
-313.968	163.073	-0.079	0.112
-312.953	-2.441	0.143	0.101
-311.939	800.000	0.078	-0.219
-310.924	19.839	0.184	0.149
-309.910	136.242	0.196	0.257
-308.895	226.284	0.184	-0.301
-307.880	-13.287	0.271	-0.177
-306.866	800.000	0.074	-0.243
-305.851	9.717	-0.162	-0.124
-304.837	92.885	0.072	-0.082
-303.822	800.000	-0.039	-0.137
-302.807	-21.833	-0.210	-0.128
-301.793	357.182	0.084	0.169
-300.778	-61.616	0.289	-0.122
-299.764	82.933	0.128	-0.140
-298.749	172.354	0.052	0.074
-297.735	-200.000	-0.008	0.173
-296.720	147.640	0.195	0.264
-295.705	-88.641	0.086	0.026
-294.691	-94.344	0.206	-0.057
-293.676	14.473	-0.248	0.194
-292.662	514.698	-0.082	0.191
-291.647	-124.820	0.145	-0.023
-290.632	-200.000	-0.009	-0.319
-289.618	-117.553	-0.249	0.045
-288.603	-106.087	0.160	0.036
-287.589	17.061	0.042	0.034
-286.574	90.703	0.139	-0.157
-285.559	-157.366	-0.081	-0.005
-284.545	-200.000	0.001	-0.066
-283.530	-150.246	-0.147	-0.011
-282.516	-99.961	-0.426	-0.107
-281.501	-200.000	-0.063	-0.426
-280.486	-40.956	-0.276	0.143
-279.472	93.892	-0.005	0.006
-278.457	-88.789	0.470	0.140
-277.443	122.166	0.135	-0.169
-276.428	-200.000	-0.021	-0.175
-275.413	-83.914	0.018	0.006
-274.399	800.000	-0.058	-0.217
-273.384	-200.000	0.005	-0.170
-272.370	-105.496	-0.184	-0.042
-271.355	800.000	-0.010	-0.029
-270.340	-129.162	-0.328	0.046
-269.326	-73.773	-0.317	-0.116
-268.311	-135.542	-0.115	0.014
-267.297	78.198	-0.050	-0.053
-266.282	-200.000	0.015	-0.155
-265.267	90.803	-0.233	-0.262
-264.253	795.101	0.108	0.299
-263.238	800.000	-0.074	0.298
-262.224	-87.632	-0.125	-0.038
-261.209	-200.000	0.053	-0.302
-260.195	-200.000	-0.008	-0.090
-259.180	-200.000	0.040	-0.262
-258.165	-171.032	-0.168	0.006
-257.151	-200.000	-0.039	-0.276
-256.136	-200.000	-0.016	-0.268
-255.122	-71.953	0.067	0.025
-254.107	257.100	0.105	-0.180
-253.092	-200.000	-0.012	-0.184
-252.078	-200.000	-0.068	-0.546
-251.063	275.494	0.082	0.146
-250.049	354.123	-0.084	0.168
-249.034	24.181	0.379	-0.314
-248.019	9.344	-0.207	-0.157
-247.005	-200.000	0.001	-0.155
-245.990	800.000	-0.102	-0.363
-244.976	-200.000	-0.010	-0.201
-243.961	21.024	0.178	-0.144
-242.946	534.574	-0.097	-0.231
-241.932	-118.078	-0.216	0.039
-240.917	800.000	0.098	0.303
-239.903	-22.098	0.264	-0.161
-238.888	800.000	-0.019	-0.084
-237.873	47.033	0.192	-0.179
-236.859	800.000	0.041	-0.166
-235.844	-173.254	0.042	0.001
-234.830	397.078	0.062	0.129
-233.815	-119.767	0.396	-0.068
-232.800	-124.484	0.332	-0.052
-231.786	405.618	-0.083	0.175
-230.771	-132.200	-0.121	-0.016
-229.757	-106.233	0.254	0.057
-228.742	245.863	0.112	0.188
-227.727	-107.283	-0.466	0.103
-226.713	58.271	-0.278	0.273
-225.698	-103.044	0.143	-0.034
-224.684	-145.378	-0.278	-0.025
-223.669	142.835	0.166	-0.221
-222.655	-171.096	0.240	0.008
-221.640	-200.000	0.022	0.109
-220.625	16.778	0.042	-0.033
-219.611	800.000	0.055	0.156
-218.596	-114.434	-0.160	0.031
-217.582	-200.000	0.017	-0.206
-216.567	-35.636	0.213	-0.116
-215.552	800.000	-0.101	0.360
-214.538	-26.840	0.177	0.103
-213.523	-86.495	-0.207	-0.064
-212.509	625.552	0.161	0.406
-211.494	-200.000	-0.035	0.391
-210.479	-58.642	-0.257	-0.111
-209.465	1.424	0.341	0.246
-208.450	2.945	0.300	0.218
-207.436	244.805	0.071	0.120
-206.421	-162.691	-0.314	-0.015
-205.406	336.087	0.025	-0.048
-204.392	84.345	-0.203	0.223
-203.377	-166.412	0.146	-0.006
-202.363	-49.492	0.161	0.077
-201.348	-107.194	0.060	-0.013
-200.333	-113.906	-0.262	0.051
-199.319	-174.707	-0.029	0.001
-198.304	209.824	0.045	0.071
-197.290	18.408	-0.052	-0.042
-196.275	-164.371	-0.201	-0.009
-195.260	-85.071	0.300	-0.094
-194.246	800.000	0.078	0.328
-193.231	800.000	-0.035	-0.097
-192.217	252.292	0.038	-0.065
-191.202	-200.000	0.001	0.196
-190.187	118.603	-0.189	0.233
-189.173	-200.000	0.000	-0.011
-188.158	-94.688	0.293	0.080
-187.144	-24.034	-0.279	0.167
-186.129	150.499	-0.212	-0.288
-185.114	-200.000	0.025	0.158
-184.100	325.417	0.237	0.453
-183.085	368.863	0.098	-0.198
-182.071	-177.525	-0.237	0.006
-181.056	135.088	0.064	0.083
-180.042	-33.894	-0.137	0.076
-179.027	-94.311	0.065	-0.018
-178.012	800.000	0.076	0.210
-176.998	433.524	0.118	-0.257
-175.983	-85.386	0.237	0.074
-174.969	236.121	0.064	-0.105
-173.954	535.285	-0.115	0.274
-172.939	53.144	-0.194	-0.186
-171.925	-156.181	-0.247	0.016
-170.910	152.732	-0.113	-0.155
-169.896	-90.565	-0.233	0.068
-168.881	800.000	0.115	0.406
-167.866	-0.068	-0.217	0.154
-166.852	800.000	-0.047	-0.174
-165.837	-127.649	-0.460	-0.066
-164.823	159.072	0.112	-0.156
-163.808	238.344	-0.115	-0.191
-162.793	54.219	-0.270	0.260
-161.779	-111.186	-0.136	-0.028
-160.764	-200.000	-0.005	0.055
-159.750	-4.274	0.163	0.113
-158.735	15.274	-0.070	0.055
-157.720	-200.000	0.001	0.223
-156.706	236.987	-0.105	0.174
-155.691	85.224	0.296	0.324
-154.677	264.567	0.019	-0.033
-153.662	-200.000	0.003	0.022
-152.647	-200.000	-0.002	-0.053
-151.633	240.402	0.216	0.359
-150.618	-44.531	0.141	0.070
-149.604	-200.000	0.054	-0.235
-148.589	-200.000	0.021	-0.121
-147.574	-93.388	0.146	0.041
-146.560	-65.109	-0.333	-0.134
-145.545	-200.000	-0.004	0.131
-144.531	-90.451	0.057	0.016
-143.516	-137.530	0.224	0.025
-142.502	112.408	0.057	0.069
-141.487	136.503	0.109	-0.142
-140.472	-38.365	-0.094	0.050
-139.458	-62.302	0.077	-0.032
-138.443	-97.826	-0.221	0.057
-137.429	51.061	-0.145	-0.138
-136.414	-200.000	0.005	-0.147
-135.399	101.151	0.279	-0.324
-134.385	800.000	0.056	0.170
-133.370	218.478	0.125	0.199
-132.356	-200.000	-0.111	-0.000
-131.341	259.442	0.118	0.203
-130.326	-200.000	-0.005	0.446
-129.312	-31.887	-0.104	0.058
-128.297	637.056	-0.155	0.393
-127.283	-147.052	0.135	-0.012
-126.268	-200.000	0.006	0.151
-125.253	-200.000	0.031	-0.202
-124.239	-181.061	-0.279	0.006
-123.224	-200.000	0.028	-0.198
-122.210	-200.000	0.027	-0.160
-121.195	-48.868	-0.352	0.168
