DTS Sentinel unit serial number:	SN413079Multiplexer serial number:	ORYXHardware model number:	OX4-SRSoftware version number:	ORYX F/W v4.00 Oryx Data Collector v3.7.2.0data status	okinstallation	princeton_trtdifferential loss correction	single-endedforward channel	channel 4reverse channel	N/Adate	2019/09/14time	03:25:35forward acquisition time	60.00reverse acquisition time	0.00gamma	496.2192k internal	0.2323k external	0.2323temperature offset calibration	1.0132default loss term (dB/km)	0.3790temperature slope calibration	1.0000multiplexer offset coefficient	1.0000multiplexer slope coefficient	1.0000fibre end	0.00T internal ref (°C)	26.64T ext. ref 1 (°C)	3.27T ext. ref 2 (°C)	21.62length (m)	temperature (°C)	Stokes	anti-Stokes-747.200	-32.279	0.140	0.079
-746.185	-35.740	-0.220	0.120
-745.171	65.394	0.093	-0.095
-744.156	-110.558	-0.286	-0.060
-743.142	800.000	0.069	-0.224
-742.127	-200.000	-0.005	0.072
-741.112	-21.713	-0.214	-0.132
-740.098	-200.000	0.001	0.491
-739.083	151.821	0.158	0.218
-738.069	800.000	-0.087	0.299
-737.054	-7.563	0.087	0.059
-736.039	-112.198	-0.368	-0.075
-735.025	-113.084	-0.200	-0.040
-734.010	800.000	0.096	-0.352
-732.996	208.547	-0.031	-0.049
-731.981	-51.409	-0.123	-0.058
-730.966	11.632	-0.154	-0.119
-729.952	36.440	-0.094	-0.084
-728.937	118.641	-0.145	0.180
-727.923	214.266	-0.028	-0.045
-726.908	-200.000	-0.078	0.345
-725.894	19.305	-0.156	0.126
-724.879	-139.422	-0.136	0.015
-723.864	-200.000	-0.023	0.248
-722.850	-200.000	-0.012	0.248
-721.835	399.972	0.035	-0.073
-720.821	-81.507	0.400	-0.133
-719.806	463.238	-0.147	0.332
-718.791	136.606	-0.319	0.420
-717.777	-115.143	-0.287	0.055
-716.762	-200.000	-0.021	-0.129
-715.748	-74.646	-0.252	-0.092
-714.733	5.767	-0.075	0.056
-713.718	89.956	0.111	0.125
-712.704	-200.000	0.000	-0.207
-711.689	-43.003	-0.104	0.053
-710.675	-58.029	-0.151	0.066
-709.660	99.696	0.051	0.059
-708.645	-66.632	0.250	-0.100
-707.631	-200.000	-0.010	-0.331
-706.616	-200.000	0.019	0.348
-705.602	-168.344	0.322	0.012
-704.587	397.363	-0.100	0.210
-703.572	-200.000	0.007	-0.048
-702.558	-200.000	0.037	0.249
-701.543	-169.787	-0.254	0.009
-700.529	-44.995	-0.429	-0.216
-699.514	200.572	0.186	-0.288
-698.499	81.937	0.136	0.149
-697.485	16.529	0.180	-0.143
-696.470	12.945	-0.233	-0.181
-695.456	-34.474	-0.209	0.115
-694.441	-43.833	0.269	0.137
-693.426	-120.829	0.127	0.022
-692.412	-200.000	0.040	-0.264
-691.397	46.511	-0.153	0.143
-690.383	800.000	0.022	-0.094
-689.368	-55.671	-0.276	-0.124
-688.354	51.393	-0.165	-0.158
-687.339	-6.321	-0.172	0.118
-686.324	84.990	0.093	0.103
-685.310	-200.000	0.070	-0.317
-684.295	-9.007	-0.197	0.133
-683.281	235.578	0.056	-0.093
-682.266	-88.423	-0.341	-0.103
-681.251	-82.715	0.041	0.013
-680.237	325.295	0.055	0.107
-679.222	107.869	-0.213	-0.256
-678.208	361.656	-0.086	-0.173
-677.193	-43.739	-0.391	0.198
-676.178	-54.556	-0.028	-0.013
-675.164	195.408	-0.091	0.139
-674.149	-153.662	0.389	0.027
-673.135	800.000	-0.052	-0.163
-672.120	228.520	-0.110	-0.180
-671.105	133.416	0.163	0.212
-670.091	4.527	-0.084	-0.062
-669.076	299.635	-0.178	-0.330
-668.062	-15.262	-0.246	0.159
-667.047	16.272	-0.169	0.134
-666.032	11.621	0.192	0.149
-665.018	-200.000	0.035	0.449
-664.003	-40.438	-0.249	-0.130
-662.989	-49.348	0.013	0.006
-661.974	172.007	-0.265	-0.384
-660.959	14.871	0.311	-0.245
-659.945	-9.070	-0.299	-0.202
-658.930	53.359	0.115	-0.111
-657.916	-17.558	-0.148	-0.094
-656.901	-45.036	0.138	0.069
-655.886	156.370	-0.145	0.201
-654.872	-86.433	-0.160	0.050
-653.857	800.000	0.074	0.257
-652.843	779.698	-0.031	-0.085
-651.828	-97.369	0.235	-0.062
-650.814	-200.000	0.032	-0.189
-649.799	-30.297	-0.189	-0.108
-648.784	800.000	0.106	0.318
-647.770	37.528	-0.277	-0.247
-646.755	-200.000	0.024	0.226
-645.741	-200.000	-0.033	-0.242
-644.726	108.138	-0.073	-0.088
-643.711	-200.000	0.031	-0.168
-642.697	95.238	-0.172	-0.197
-641.682	-123.399	-0.186	0.030
-640.668	34.838	-0.305	0.268
-639.653	-200.000	-0.001	-0.274
-638.638	-13.140	-0.344	-0.225
-637.624	701.888	0.051	0.136
-636.609	-59.531	-0.156	-0.067
-635.595	-200.000	-0.009	-0.233
-634.580	-161.871	0.124	-0.006
-633.565	800.000	-0.063	0.201
-632.551	88.712	0.085	-0.095
-631.536	-2.420	-0.376	-0.265
-630.522	9.956	0.273	-0.208
-629.507	-187.903	-0.351	-0.005
-628.492	36.187	-0.132	0.117
-627.478	71.094	-0.215	-0.224
-626.463	230.207	-0.053	0.087
-625.449	237.211	-0.026	0.043
-624.434	-200.000	0.025	-0.168
-623.419	514.110	0.102	0.238
-622.405	-3.026	0.451	-0.316
-621.390	270.974	0.119	-0.210
-620.376	125.789	0.172	0.218
-619.361	800.000	0.071	0.224
-618.346	45.908	-0.172	-0.160
-617.332	-1.061	-0.098	0.070
-616.317	-10.473	-0.058	-0.038
-615.303	-200.000	0.009	0.252
-614.288	358.696	-0.120	0.241
-613.273	-200.000	0.007	-0.139
-612.259	-200.000	-0.063	-0.332
-611.244	-131.489	-0.200	0.027
-610.230	-113.622	-0.224	-0.044
-609.215	-157.890	-0.222	0.013
-608.201	267.801	0.119	0.209
-607.186	-110.009	-0.118	0.025
-606.171	-96.466	-0.133	0.035
-605.157	240.322	-0.078	-0.131
-604.142	170.905	-0.129	-0.185
-603.128	208.051	0.117	0.183
-602.113	-42.817	-0.181	-0.092
-601.098	448.182	0.112	-0.247
-600.084	-100.834	0.303	0.075
-599.069	-112.595	0.309	0.062
-598.055	-36.158	-0.219	-0.119
-597.040	-126.387	0.245	-0.037
-596.025	-41.024	0.168	0.087
-595.011	126.780	-0.335	-0.426
-593.996	800.000	-0.040	-0.136
-592.982	-173.589	0.216	-0.007
-591.967	18.468	0.152	-0.122
-590.952	-98.100	0.162	-0.042
-589.938	-64.457	-0.382	0.156
-588.923	-144.421	0.104	0.010
-587.909	800.000	0.079	-0.291
-586.894	-110.404	-0.218	0.046
-585.879	8.007	0.030	0.022
-584.865	29.903	0.201	0.172
-583.850	126.489	-0.146	-0.185
-582.836	-53.356	-0.373	-0.172
-581.821	418.523	0.092	-0.198
-580.806	-45.111	0.413	-0.206
-579.792	358.177	-0.149	-0.298
-578.777	-51.410	0.152	-0.071
-577.763	-200.000	0.025	-0.127
-576.748	137.968	-0.032	-0.042
-575.733	196.970	0.041	-0.063
-574.719	-55.484	-0.429	0.193
-573.704	800.000	0.054	0.158
-572.690	-122.774	0.301	0.049
-571.675	16.677	0.213	-0.169
-570.661	-143.644	0.112	0.011
-569.646	190.146	-0.027	-0.041
-568.631	-200.000	-0.011	0.199
-567.617	-18.279	0.290	-0.182
-566.602	11.240	0.123	0.094
-565.588	14.527	-0.209	-0.164
-564.573	-106.485	0.030	0.007
-563.558	2.186	0.336	-0.243
-562.544	115.364	0.243	0.298
-561.529	15.892	-0.158	0.125
-560.515	384.023	0.047	0.097
-559.500	-118.583	0.285	0.050
-558.485	-200.000	-0.005	-0.260
-557.471	99.345	0.109	-0.126
-556.456	14.663	-0.069	0.054
-555.442	524.829	0.073	0.172
-554.427	-200.000	-0.030	0.173
-553.412	-200.000	0.008	0.250
-552.398	800.000	-0.096	0.343
-551.383	84.575	0.328	-0.360
-550.369	78.074	-0.033	0.035
-549.354	99.567	0.037	-0.043
-548.339	196.966	0.132	0.201
-547.325	84.952	0.190	0.209
-546.310	85.088	-0.141	-0.155
-545.296	-200.000	0.018	0.204
-544.281	85.455	-0.081	-0.090
-543.266	-61.223	-0.157	0.066
-542.252	39.546	0.033	-0.029
-541.237	-73.750	-0.040	-0.014
-540.223	225.365	-0.072	0.117
-539.208	-88.328	0.221	0.066
-538.193	503.671	-0.059	0.136
-537.179	800.000	0.091	0.276
-536.164	144.266	0.176	0.235
-535.150	301.696	-0.141	0.260
-534.135	347.747	0.161	0.318
-533.121	-74.957	0.162	0.058
-532.106	-200.000	-0.003	0.367
-531.091	-200.000	0.002	-0.317
-530.077	479.547	-0.121	0.275
-529.062	-97.625	-0.106	-0.028
-528.048	1.890	0.176	0.127
-527.033	170.744	-0.131	0.188
-526.018	16.768	-0.110	0.087
-525.004	-200.000	0.013	0.129
-523.989	727.362	0.216	-0.577
-522.975	-125.648	0.248	-0.038
-521.960	132.548	-0.138	-0.178
-520.945	-106.370	-0.173	-0.039
-519.931	800.000	0.072	0.302
-518.916	50.307	0.253	-0.239
-517.902	-10.150	0.072	-0.048
-516.887	800.000	-0.029	0.102
-515.872	102.337	-0.260	0.304
-514.858	194.016	-0.088	-0.134
-513.843	142.302	-0.177	-0.235
-512.829	-115.692	0.222	0.042
-511.814	-150.787	-0.189	-0.014
-510.799	44.672	0.095	-0.088
-509.785	-131.632	0.223	0.029
-508.770	-103.606	-0.300	-0.070
-507.756	21.290	0.195	-0.159
-506.741	138.544	-0.129	0.169
-505.726	-200.000	0.035	-0.216
-504.712	156.941	-0.047	0.065
-503.697	65.276	-0.180	-0.182
-502.683	-84.567	0.324	-0.102
-501.668	-171.669	0.234	0.008
-500.653	-18.252	0.128	0.080
-499.639	-93.891	-0.235	0.065
-498.624	-38.941	-0.336	-0.177
-497.610	246.712	0.085	0.144
-496.595	562.053	-0.017	0.042
-495.581	-112.927	0.231	-0.046
-494.566	484.574	0.025	-0.056
-493.551	-56.488	0.094	-0.042
-492.537	-93.930	-0.232	-0.064
-491.522	-84.708	0.518	-0.163
-490.508	85.427	-0.098	-0.107
-489.493	-200.000	-0.031	-0.272
-488.478	-76.389	0.041	-0.014
-487.464	-47.758	0.234	-0.113
-486.449	148.145	-0.212	0.286
-485.435	-31.828	-0.122	-0.068
-484.420	-172.719	0.316	-0.010
-483.405	0.719	-0.307	0.220
-482.391	800.000	-0.025	-0.077
-481.376	-78.959	0.085	0.029
-480.362	-63.001	-0.133	0.055
-479.347	800.000	-0.108	-0.402
-478.332	800.000	0.052	-0.160
-477.318	36.551	-0.138	0.122
-476.303	-111.954	0.102	0.020
-475.289	-200.000	0.027	-0.167
-474.274	155.855	-0.109	0.149
-473.259	-80.901	0.166	-0.055
-472.245	-170.510	-0.218	0.008
-471.230	-161.551	-0.318	-0.016
-470.216	384.821	-0.218	-0.449
-469.201	-106.373	0.206	0.046
-468.186	-37.130	0.093	-0.050
-467.172	-200.000	-0.018	0.270
-466.157	146.524	0.136	-0.183
-465.143	-81.868	-0.552	0.180
-464.128	34.908	-0.282	-0.247
-463.113	-200.000	-0.074	-0.549
-462.099	616.860	0.047	-0.117
-461.084	-200.000	-0.032	0.344
-460.070	-10.133	-0.180	-0.119
-459.055	342.248	-0.024	0.046
-458.040	-200.000	0.049	-0.301
-457.026	-181.211	-0.135	0.003
-456.011	-200.000	0.018	-0.097
-454.997	-118.017	-0.300	-0.054
-453.982	147.273	-0.209	0.282
-452.968	175.754	-0.107	-0.155
-451.953	-86.780	-0.236	0.072
-450.938	-164.579	0.219	0.010
-449.924	140.673	0.093	-0.123
-448.909	344.182	-0.083	-0.162
-447.895	800.000	0.033	0.101
-446.880	-200.000	0.016	0.205
-445.865	-56.820	0.212	0.094
-444.851	-1.573	0.245	-0.173
-443.836	-67.216	0.268	0.105
-442.822	-97.558	0.032	0.008
-441.807	74.614	0.153	0.160
-440.792	-21.504	-0.029	-0.018
-439.778	347.412	0.244	0.479
-438.763	-77.780	0.118	-0.041
-437.749	-129.806	0.190	0.026
-436.734	-27.304	0.281	0.163
-435.719	-200.000	0.005	-0.091
-434.705	-200.000	-0.066	0.363
-433.690	169.489	-0.157	-0.223
-432.676	-200.000	0.032	-0.192
-431.661	-200.000	0.022	0.158
-430.646	-111.340	-0.264	-0.054
-429.632	60.145	0.256	0.252
-428.617	-109.593	-0.414	0.087
-427.603	235.033	-0.107	-0.176
-426.588	201.420	-0.072	0.110
-425.573	-114.156	-0.044	0.008
-424.559	-136.018	0.211	-0.025
-423.544	-200.000	-0.011	-0.115
-422.530	-66.888	-0.158	0.062
-421.515	-113.801	0.017	-0.003
-420.500	49.119	0.057	-0.054
-419.486	-29.603	0.216	0.123
-418.471	-127.577	-0.208	0.030
-417.457	-66.734	-0.463	-0.183
-416.442	-71.646	0.221	-0.082
-415.428	60.775	0.145	-0.143
-414.413	6.548	-0.047	-0.035
-413.398	-110.577	0.184	-0.038
-412.384	-136.741	-0.081	-0.009
-411.369	281.779	0.142	0.253
-410.355	319.677	0.031	0.058
-409.340	800.000	-0.027	-0.105
-408.325	-200.000	0.018	-0.085
-407.311	123.011	-0.158	0.198
-406.296	-200.000	0.079	-0.494
-405.282	4.867	0.288	-0.211
-404.267	800.000	-0.050	0.160
-403.252	-200.000	-0.012	-0.414
-402.238	371.544	-0.057	0.116
-401.223	-73.941	-0.126	-0.045
-400.209	-13.928	-0.114	-0.073
-399.194	16.072	-0.207	-0.163
-398.179	-131.665	-0.257	0.034
-397.165	-131.297	0.328	0.043
-396.150	800.000	0.093	0.315
-395.136	151.438	0.104	0.142
-394.121	-200.000	-0.081	0.374
-393.106	442.842	-0.062	-0.136
-392.092	-200.000	-0.022	0.329
-391.077	132.769	0.011	-0.014
-390.063	147.473	0.121	0.163
-389.048	-175.448	-0.329	0.009
-388.033	15.185	-0.082	0.064
-387.019	-200.000	-0.004	0.073
-386.004	-34.406	-0.205	0.112
-384.990	-200.000	-0.005	0.369
-383.975	-123.491	0.102	0.016
-382.960	98.304	-0.133	0.153
-381.946	135.119	-0.049	0.063
-380.931	317.957	-0.197	0.372
-379.917	-116.479	0.383	0.070
-378.902	-75.263	0.274	-0.097
-377.888	-73.703	-0.114	-0.041
-376.873	59.428	0.245	-0.240
-375.858	-200.000	-0.022	0.159
-374.844	82.735	-0.129	0.140
-373.829	30.759	0.368	-0.314
-372.815	-120.659	-0.248	0.042
-371.800	13.021	0.218	0.168
-370.785	800.000	0.029	0.125
-369.771	-200.000	0.011	0.158
-368.756	-55.124	-0.107	0.048
-367.742	-200.000	-0.034	0.171
-366.727	800.000	0.028	-0.076
-365.712	-200.000	0.029	-0.242
-364.698	-48.650	0.354	-0.169
-363.683	-184.225	-0.441	-0.007
-362.669	212.063	0.227	-0.356
-361.654	-26.387	-0.126	0.074
-360.639	800.000	0.027	-0.091
-359.625	-0.425	-0.152	-0.108
-358.610	-200.000	-0.016	0.217
-357.596	-185.500	-0.322	-0.005
-356.581	-56.605	0.248	0.109
-355.566	32.165	0.143	-0.123
-354.552	3.156	0.157	0.113
-353.537	-200.000	0.002	0.093
-352.523	-200.000	-0.071	0.346
-351.508	800.000	-0.093	-0.376
-350.493	-200.000	-0.012	0.266
-349.479	-171.231	0.142	0.005
-348.464	-200.000	-0.019	-0.157
-347.450	-0.023	0.105	0.075
-346.435	-200.000	-0.015	0.231
-345.420	51.611	-0.178	-0.169
-344.406	-54.466	0.141	0.064
-343.391	394.055	0.070	-0.145
-342.377	74.755	-0.226	-0.236
-341.362	-43.947	0.225	-0.113
-340.348	44.425	0.215	-0.196
-339.333	-102.504	-0.261	-0.062
-338.318	100.100	-0.151	-0.174
-337.304	800.000	-0.052	-0.177
-336.289	13.397	0.172	0.132
-335.275	-92.238	0.398	-0.112
-334.260	-45.749	-0.224	0.110
-333.245	146.442	-0.013	0.017
-332.231	119.778	-0.122	0.150
-331.216	-165.066	0.137	-0.006
-330.202	73.631	0.256	-0.266
-329.187	-200.000	-0.057	-0.353
-328.172	-164.612	-0.366	0.016
-327.158	42.359	0.154	-0.139
-326.143	-72.759	-0.097	-0.036
-325.129	55.267	0.122	0.117
-324.114	-44.592	0.242	-0.120
-323.099	800.000	0.081	-0.223
-322.085	664.804	-0.060	-0.153
-321.070	291.348	-0.137	0.248
-320.056	175.869	-0.079	0.114
-319.041	130.623	0.097	-0.123
-318.026	-56.115	0.071	-0.032
-317.012	39.265	0.274	0.244
-315.997	220.133	0.065	-0.103
-314.983	-153.134	0.366	-0.025
-313.968	48.841	-0.304	0.283
-312.953	-50.445	-0.089	0.042
-311.939	-115.801	0.092	-0.017
-310.924	246.166	0.086	0.143
-309.910	496.563	0.098	0.223
-308.895	377.999	-0.110	0.224
-307.880	48.344	-0.307	-0.286
-306.866	12.721	-0.136	-0.105
-305.851	-22.724	0.137	0.082
-304.837	-93.939	-0.327	0.089
-303.822	-6.845	0.205	0.138
-302.807	-52.302	0.139	-0.064
-301.793	-175.292	0.078	0.002
-300.778	96.183	-0.129	0.146
-299.764	800.000	-0.056	-0.157
-298.749	307.672	-0.127	-0.234
-297.735	800.000	0.058	-0.168
-296.720	-187.938	0.414	-0.005
-295.705	-185.103	0.303	-0.005
-294.691	675.614	-0.076	-0.196
-293.676	290.982	-0.154	0.278
-292.662	-40.039	0.092	-0.048
-291.647	697.000	0.150	-0.392
-290.632	123.008	0.103	0.128
-289.618	-139.414	0.102	0.011
-288.603	-13.872	-0.280	0.180
-287.589	-200.000	-0.003	0.308
-286.574	-137.579	0.118	0.013
-285.559	8.573	0.171	-0.128
-284.545	543.685	-0.087	-0.205
-283.530	108.538	-0.129	-0.153
-282.516	-88.658	-0.090	0.027
-281.501	-200.000	-0.027	0.257
-280.486	229.312	0.119	0.192
-279.472	-200.000	0.013	-0.125
-278.457	-141.478	0.010	-0.001
-277.443	153.323	-0.133	-0.181
-276.428	-59.949	-0.145	-0.061
-275.413	-200.000	-0.031	-0.241
-274.399	206.033	-0.066	-0.102
-273.384	-200.000	0.042	0.379
-272.370	-124.946	-0.195	0.030
-271.355	-200.000	-0.402	-0.001
-270.340	-122.954	-0.214	-0.034
-269.326	64.594	0.204	0.204
-268.311	-35.408	0.248	-0.134
-267.297	-86.726	0.091	0.027
-266.282	-200.000	0.033	0.165
-265.267	-71.763	-0.215	0.079
-264.253	800.000	-0.071	0.283
-263.238	800.000	-0.092	-0.255
-262.224	800.000	0.057	-0.224
-261.209	-167.755	0.063	-0.002
-260.195	-5.016	-0.113	0.077
-259.180	100.360	-0.153	0.176
-258.165	138.852	-0.025	0.032
-257.151	402.921	0.122	-0.253
-256.136	-153.308	0.249	-0.017
-255.122	-45.068	-0.246	0.121
-254.107	-137.892	-0.102	0.011
-253.092	30.214	0.187	-0.159
-252.078	800.000	0.031	0.136
-251.063	157.256	0.137	0.188
-250.049	219.429	-0.074	0.117
-249.034	-200.000	0.047	-0.227
-248.019	174.898	0.118	-0.169
-247.005	-200.000	-0.006	-0.149
-245.990	-99.553	0.176	0.044
-244.976	800.000	0.113	0.340
-243.961	-178.419	0.213	0.005
-242.946	-23.001	0.049	-0.029
-241.932	800.000	-0.060	-0.189
-240.917	10.154	0.174	0.131
-239.903	-23.604	-0.229	-0.136
-238.888	-67.914	-0.359	0.139
-237.873	-189.302	0.291	-0.003
-236.859	-17.523	0.063	-0.039
-235.844	800.000	-0.043	-0.151
-234.830	92.399	0.053	0.059
-233.815	-200.000	0.018	-0.091
-232.800	63.914	-0.239	0.238
-231.786	800.000	0.055	-0.182
-230.771	17.234	0.037	0.029
-229.757	-70.257	-0.138	-0.052
-228.742	-58.865	-0.249	-0.107
-227.727	41.676	-0.084	-0.076
-226.713	253.463	0.045	-0.077
-225.698	200.274	0.095	-0.145
-224.684	-85.088	0.068	0.021
-223.669	-200.000	0.014	-0.149
-222.655	-26.010	-0.219	-0.128
-221.640	85.557	-0.060	0.065
-220.625	-200.000	0.045	0.385
-219.611	-151.215	-0.140	0.010
-218.596	778.800	-0.062	0.168
-217.582	134.401	0.232	0.298
-216.567	84.076	0.193	-0.208
-215.552	-72.058	0.261	0.096
-214.538	-183.076	0.074	-0.001
-213.523	-131.240	-0.234	0.031
-212.509	-49.671	0.237	0.112
-211.494	33.849	-0.260	0.223
-210.479	-2.082	-0.206	-0.143
-209.465	9.838	0.160	-0.120
-208.450	-51.456	-0.175	-0.081
-207.436	98.586	0.081	0.092
-206.421	40.063	-0.273	-0.243
-205.406	556.536	0.036	0.086
-204.392	-66.213	-0.304	0.120
-203.377	-200.000	-0.018	0.334
-202.363	227.607	0.079	0.126
-201.348	-113.874	-0.255	0.049
-200.333	53.581	0.190	0.180
-199.319	526.853	0.030	-0.071
-198.304	-79.248	0.196	-0.066
-197.290	800.000	0.033	-0.128
-196.275	-200.000	-0.107	0.000
-195.260	-63.989	0.346	0.140
-194.246	-2.255	-0.202	-0.140
-193.231	776.561	0.070	0.190
-192.217	417.596	-0.161	0.340
-191.202	214.568	-0.099	0.156
-190.187	-200.000	-0.004	0.240
-189.173	-200.000	0.033	0.186
-188.158	290.022	-0.075	-0.135
-187.144	32.522	0.137	0.117
-186.129	-48.418	-0.097	0.046
-185.114	232.796	-0.132	-0.214
-184.100	112.927	-0.092	0.110
-183.085	-15.919	0.361	0.227
-182.071	66.572	-0.133	0.133
-181.056	143.824	0.085	-0.112
-180.042	800.000	-0.073	-0.262
-179.027	135.976	-0.069	-0.089
-178.012	-200.000	0.005	-0.091
-176.998	128.710	-0.151	0.190
-175.983	-98.227	-0.040	0.010
-174.969	-5.957	-0.202	0.137
-173.954	-129.593	0.252	0.034
-172.939	-124.409	-0.111	-0.017
-171.925	-200.000	0.001	-0.063
-170.910	174.686	-0.103	0.147
-169.896	62.608	0.202	0.199
-168.881	-59.563	-0.119	0.051
-167.866	695.611	0.122	0.316
-166.852	257.571	0.055	0.094
-165.837	-107.442	-0.148	-0.032
-164.823	-66.436	0.137	-0.054
-163.808	-200.000	0.042	0.552
-162.793	-99.328	0.195	0.049
-161.779	-185.953	0.170	-0.002
-160.764	-200.000	-0.024	-0.508
-159.750	398.571	0.107	-0.221
-158.735	-46.797	0.084	-0.041
-157.720	-73.848	-0.355	-0.127
-156.706	-200.000	0.008	0.036
-155.691	-200.000	-0.004	0.322
-154.677	365.587	0.202	-0.402
-153.662	-200.000	-0.022	0.106
-152.647	-51.834	0.356	-0.164
-151.633	606.064	0.013	-0.032
-150.618	90.792	0.071	0.079
-149.604	169.651	0.155	0.218
-148.589	-140.919	-0.124	0.013
-147.574	51.229	-0.159	-0.149
-146.560	800.000	0.197	-0.554
-145.545	-24.671	0.122	0.071
-144.531	418.964	0.027	-0.058
-143.516	-64.541	0.041	-0.017
-142.502	196.103	-0.057	0.085
-141.487	-89.285	0.266	0.077
-140.472	-200.000	-0.035	-0.343
-139.458	300.864	0.075	0.136
-138.443	27.680	0.269	0.224
-137.429	800.000	-0.057	0.229
-136.414	-200.000	-0.062	-0.292
-135.399	-182.410	0.279	0.005
-134.385	-200.000	0.010	-0.163
-133.370	282.128	0.064	0.112
-132.356	-200.000	0.008	-0.182
-131.341	-8.510	-0.135	0.089
-130.326	2.623	0.278	0.199
-129.312	27.786	-0.108	-0.090
-128.297	800.000	-0.076	0.251
-127.283	800.000	-0.098	-0.349
-126.268	-37.635	-0.373	-0.196
-125.253	-23.416	-0.174	-0.103
-124.239	124.914	0.042	0.052
-123.224	800.000	0.065	-0.206
-122.210	170.867	0.211	-0.298
-121.195	124.779	-0.121	0.150
