DTS Sentinel unit serial number:	SN413079Multiplexer serial number:	ORYXHardware model number:	OX4-SRSoftware version number:	ORYX F/W v4.00 Oryx Data Collector v3.7.2.0data status	okinstallation	princeton_trtdifferential loss correction	single-endedforward channel	channel 4reverse channel	N/Adate	2019/09/15time	19:33:35forward acquisition time	60.00reverse acquisition time	0.00gamma	496.2192k internal	0.2301k external	0.2301temperature offset calibration	0.9930default loss term (dB/km)	0.3790temperature slope calibration	1.0000multiplexer offset coefficient	1.0000multiplexer slope coefficient	1.0000fibre end	0.00T internal ref (°C)	38.34T ext. ref 1 (°C)	7.32T ext. ref 2 (°C)	27.98length (m)	temperature (°C)	Stokes	anti-Stokes-747.200	-105.909	-0.339	0.078
-746.185	-200.000	0.073	0.568
-745.171	-200.000	0.066	0.331
-744.156	800.000	0.026	0.080
-743.142	17.062	0.169	0.137
-742.127	41.329	0.150	-0.139
-741.112	-200.000	-0.001	0.102
-740.098	-129.367	-0.201	-0.029
-739.083	49.342	-0.203	-0.195
-738.069	-76.586	-0.167	0.060
-737.054	800.000	-0.046	0.140
-736.039	800.000	-0.022	-0.087
-735.025	24.329	0.146	0.123
-734.010	800.000	0.037	0.119
-732.996	-75.907	0.160	-0.058
-731.981	800.000	0.019	-0.053
-730.966	800.000	0.111	0.370
-729.952	800.000	0.041	0.150
-728.937	98.030	-0.249	-0.291
-727.923	229.989	-0.108	-0.180
-726.908	-200.000	0.047	-0.240
-725.894	193.743	0.105	-0.162
-724.879	46.676	0.231	-0.218
-723.864	221.333	-0.155	-0.254
-722.850	-200.000	0.000	0.038
-721.835	94.957	-0.126	-0.146
-720.821	-41.555	0.093	0.048
-719.806	-130.779	-0.207	0.028
-718.791	-69.247	-0.159	-0.062
-717.777	84.545	-0.153	0.171
-716.762	800.000	0.089	-0.352
-715.748	800.000	0.014	0.045
-714.733	-134.273	0.027	-0.003
-713.718	-200.000	-0.026	-0.289
-712.704	7.377	0.269	0.204
-711.689	575.795	-0.073	0.181
-710.675	-200.000	-0.012	-0.206
-709.660	-125.226	-0.282	0.044
-708.645	-127.121	0.115	-0.017
-707.631	-200.000	0.033	0.195
-706.616	159.783	-0.021	0.030
-705.602	29.912	0.089	0.077
-704.587	258.354	-0.025	-0.044
-703.572	-159.946	-0.214	0.012
-702.558	-42.665	0.254	0.132
-701.543	-73.352	0.142	-0.053
-700.529	190.483	-0.114	0.174
-699.514	-87.106	0.211	-0.065
-698.499	700.453	-0.107	-0.288
-697.485	-200.000	0.004	-0.126
-696.470	-80.896	-0.268	-0.091
-695.456	-82.206	0.171	0.057
-694.441	635.128	-0.045	0.115
-693.426	800.000	-0.093	-0.323
-692.412	123.523	-0.145	-0.185
-691.397	-72.904	0.100	-0.038
-690.383	800.000	-0.041	0.163
-689.368	331.420	-0.081	0.159
-688.354	347.669	0.196	0.393
-687.339	-12.643	0.317	0.210
-686.324	800.000	0.042	0.163
-685.310	207.193	0.114	0.181
-684.295	-84.150	0.176	-0.057
-683.281	-200.000	-0.002	-0.087
-682.266	105.601	0.139	0.167
-681.251	-200.000	0.014	-0.196
-680.237	97.134	-0.371	-0.432
-679.222	-11.182	0.316	0.212
-678.208	305.972	0.007	-0.014
-677.193	-60.404	-0.132	0.057
-676.178	-35.027	-0.198	-0.110
-675.164	119.684	-0.069	0.087
-674.149	-40.206	-0.232	-0.123
-673.135	1.919	-0.213	0.156
-672.120	10.707	-0.060	-0.046
-671.105	287.517	-0.048	0.088
-670.091	778.215	0.082	-0.228
-669.076	-200.000	-0.292	0.001
-668.062	-122.848	-0.328	0.054
-667.047	23.373	0.370	0.309
-666.032	156.551	-0.193	-0.271
-665.018	-174.233	-0.188	-0.006
-664.003	55.243	0.172	-0.169
-662.989	-85.821	-0.294	0.093
-661.974	-200.000	0.030	-0.185
-660.959	-69.083	0.061	0.024
-659.945	-200.000	-0.003	0.206
-658.930	-58.329	0.180	0.079
-657.916	-9.106	0.138	-0.094
-656.901	125.537	-0.140	-0.179
-655.886	-200.000	-0.038	0.278
-654.872	-139.616	-0.233	-0.025
-653.857	22.780	-0.047	-0.039
-652.843	-53.796	0.198	-0.092
-651.828	-36.724	0.226	-0.123
-650.814	-158.978	0.153	-0.009
-649.799	410.774	0.044	-0.094
-648.784	-12.871	0.193	0.127
-647.770	-54.898	-0.150	-0.068
-646.755	248.281	-0.120	0.207
-645.741	70.055	-0.380	0.398
-644.726	-88.735	0.278	-0.084
-643.711	227.680	0.129	0.214
-642.697	-200.000	0.018	0.176
-641.682	-88.504	-0.139	0.042
-640.668	800.000	-0.074	-0.219
-639.653	124.225	-0.161	-0.206
-638.638	-115.953	-0.055	-0.010
-637.624	-191.829	0.207	0.002
-636.609	669.175	-0.113	-0.297
-635.595	43.735	0.299	-0.278
-634.580	-37.970	0.384	0.207
-633.565	-132.880	0.175	0.023
-632.551	155.026	-0.111	0.155
-631.536	-77.196	-0.239	0.084
-630.522	800.000	0.048	0.211
-629.507	-109.952	-0.033	0.007
-628.492	-80.888	0.252	-0.085
-627.478	70.530	-0.064	0.067
-626.463	-99.121	0.245	-0.063
-625.449	800.000	-0.076	-0.257
-624.434	770.280	-0.101	-0.279
-623.419	-46.533	-0.158	0.079
-622.405	-26.582	0.161	0.096
-621.390	800.000	0.019	0.071
-620.376	107.213	-0.312	0.376
-619.361	-176.402	-0.445	-0.012
-618.346	-19.132	-0.245	-0.155
-617.332	458.273	-0.090	-0.203
-616.317	-65.674	0.331	0.134
-615.303	-200.000	0.106	0.659
-614.288	-22.696	-0.104	0.064
-613.273	-200.000	-0.024	0.180
-612.259	-200.000	0.018	-0.137
-611.244	-200.000	-0.020	-0.294
-610.230	57.850	0.216	0.215
-609.215	334.308	0.087	0.170
-608.201	102.556	0.057	-0.068
-607.186	462.532	-0.016	-0.036
-606.171	-32.034	0.212	-0.120
-605.157	-147.060	0.249	0.022
-604.142	-15.348	-0.155	-0.100
-603.128	248.275	0.106	0.183
-602.113	-180.742	-0.111	0.002
-601.098	252.570	-0.111	-0.192
-600.084	50.347	0.333	-0.319
-599.069	5.188	0.169	0.127
-598.055	79.494	0.037	-0.040
-597.040	-17.307	0.234	-0.149
-596.025	255.594	-0.070	-0.122
-595.011	617.136	-0.076	0.193
-593.996	120.448	-0.127	-0.160
-592.982	-124.723	0.339	-0.053
-591.967	-191.778	-0.290	-0.003
-590.952	-141.976	0.128	0.013
-589.938	-73.834	0.253	0.093
-588.923	261.089	-0.111	-0.195
-587.909	-200.000	0.027	0.227
-586.894	-200.000	0.007	0.080
-585.879	121.765	-0.264	-0.333
-584.865	202.867	0.177	0.278
-583.850	-97.396	-0.051	0.013
-582.836	185.024	0.081	0.122
-581.821	-76.151	0.232	-0.083
-580.806	54.716	-0.212	0.207
-579.792	-200.000	0.028	0.395
-578.777	148.114	-0.193	0.264
-577.763	-135.162	-0.381	0.046
-576.748	186.287	0.079	-0.119
-575.733	800.000	-0.081	-0.237
-574.719	28.638	-0.241	-0.207
-573.704	-200.000	0.030	-0.137
-572.690	53.073	-0.192	0.186
-571.675	235.735	-0.076	-0.127
-570.661	-192.126	-0.139	-0.001
-569.646	-33.226	-0.057	-0.032
-568.631	-118.717	-0.263	-0.047
-567.617	705.880	0.032	0.085
-566.602	800.000	-0.046	0.155
-565.588	-200.000	0.072	-0.384
-564.573	597.501	-0.098	0.245
-563.558	-72.271	0.187	-0.070
-562.544	-88.123	-0.278	0.084
-561.529	-180.441	0.300	0.006
-560.515	392.690	-0.045	-0.094
-559.500	-169.978	0.375	0.014
-558.485	-200.000	-0.011	0.087
-557.471	-200.000	0.039	-0.295
-556.456	-200.000	-0.007	-0.539
-555.442	-40.811	-0.226	-0.118
-554.427	-93.274	-0.108	0.030
-553.412	19.123	-0.168	0.137
-552.398	-105.653	-0.100	0.023
-551.383	60.614	-0.140	0.141
-550.369	-65.122	0.257	0.105
-549.354	-35.408	-0.180	0.099
-548.339	-200.000	-0.013	0.312
-547.325	800.000	-0.063	-0.194
-546.310	743.033	-0.112	-0.304
-545.296	287.165	-0.108	-0.197
-544.281	27.925	-0.234	0.200
-543.266	222.936	-0.074	-0.120
-542.252	207.590	0.116	0.183
-541.237	-200.000	0.023	0.273
-540.223	-1.155	0.271	-0.194
-539.208	51.677	0.110	-0.105
-538.193	28.749	0.250	0.214
-537.179	110.489	-0.127	0.154
-536.164	-143.566	-0.308	-0.030
-535.150	422.610	0.155	0.337
-534.135	-200.000	0.013	-0.480
-533.121	-127.031	-0.206	0.031
-532.106	89.006	0.039	0.043
-531.091	-74.719	-0.078	-0.028
-530.077	-200.000	-0.016	-0.109
-529.062	-5.222	-0.080	-0.056
-528.048	-50.905	-0.136	0.064
-527.033	-107.037	-0.205	-0.046
-526.018	100.498	0.141	-0.165
-525.004	-200.000	0.067	0.415
-523.989	365.358	0.097	-0.198
-522.975	599.650	-0.034	-0.086
-521.960	402.571	0.109	-0.231
-520.945	371.804	-0.089	-0.183
-519.931	800.000	0.026	0.106
-518.916	-117.826	-0.317	-0.058
-517.902	91.540	0.191	-0.217
-516.887	-62.734	-0.141	-0.059
-515.872	-8.714	0.206	-0.140
-514.858	106.360	-0.035	-0.042
-513.843	449.500	-0.030	-0.068
-512.829	-114.054	-0.107	0.021
-511.814	-200.000	-0.056	0.370
-510.799	-74.495	-0.410	0.149
-509.785	-40.694	-0.111	0.058
-508.770	-85.536	-0.337	0.106
-507.756	85.022	-0.130	-0.144
-506.741	-164.134	0.195	0.009
-505.726	-7.006	-0.078	0.054
-504.712	-93.031	-0.080	0.022
-503.697	-186.277	-0.141	0.002
-502.683	-124.342	-0.250	0.039
-501.668	800.000	0.060	0.262
-500.653	-93.595	0.421	0.117
-499.639	-29.998	0.202	0.116
-498.624	-76.225	-0.338	0.120
-497.610	-186.701	0.095	-0.001
-496.595	29.496	0.064	-0.055
-495.581	800.000	-0.050	0.193
-494.566	12.946	0.153	-0.119
-493.551	-29.774	-0.188	0.108
-492.537	34.783	0.115	-0.102
-491.522	-8.062	-0.205	-0.139
-490.508	-200.000	0.022	-0.351
-489.493	23.252	0.202	-0.168
-488.478	16.873	0.335	-0.268
-487.464	-26.288	-0.218	0.129
-486.449	-200.000	-0.005	-0.058
-485.435	794.947	0.116	-0.321
-484.420	-34.024	-0.376	-0.209
-483.405	-200.000	0.017	0.147
-482.391	-120.001	-0.404	-0.070
-481.376	-8.462	0.093	-0.063
-480.362	-115.010	0.188	-0.036
-479.347	2.811	-0.057	0.042
-478.332	-200.000	-0.036	0.183
-477.318	149.040	-0.155	0.211
-476.303	-104.750	-0.226	0.053
-475.289	-34.671	-0.128	0.070
-474.274	76.942	0.135	0.145
-473.259	-200.000	0.025	0.401
-472.245	800.000	0.028	-0.088
-471.230	-120.986	0.302	-0.051
-470.216	-200.000	-0.013	0.207
-469.201	282.996	-0.084	0.152
-468.186	-72.134	0.321	0.120
-467.172	50.740	-0.229	0.219
-466.157	62.278	0.156	0.157
-465.143	800.000	0.067	-0.195
-464.128	-119.038	-0.107	0.019
-463.113	-51.622	-0.151	-0.071
-462.099	562.723	0.127	0.309
-461.084	800.000	0.093	-0.338
-460.070	354.830	0.135	0.270
-459.055	-200.000	0.011	-0.250
-458.040	380.710	-0.168	0.347
-457.026	794.486	-0.111	0.308
-456.011	276.511	-0.092	-0.165
-454.997	-200.000	0.038	0.485
-453.982	-200.000	-0.037	-0.216
-452.968	103.440	-0.154	-0.182
-451.953	800.000	-0.039	0.168
-450.938	264.800	0.073	0.127
-449.924	347.154	-0.065	0.130
-448.909	144.318	0.240	-0.323
-447.895	191.427	-0.031	0.047
-446.880	-15.450	-0.173	-0.111
-445.865	-35.247	-0.231	-0.127
-444.851	-8.455	-0.254	0.172
-443.836	-68.208	0.078	0.031
-442.822	800.000	-0.093	0.263
-441.807	164.047	0.041	-0.059
-440.792	-41.836	-0.259	0.134
-439.778	-158.991	-0.144	0.008
-438.763	149.413	0.204	0.279
-437.749	131.624	-0.100	-0.129
-436.734	-56.914	-0.186	-0.083
-435.719	-200.000	-0.036	0.304
-434.705	218.334	0.129	-0.207
-433.690	45.536	-0.169	0.157
-432.676	-13.688	0.107	-0.070
-431.661	800.000	-0.112	-0.384
-430.646	246.445	-0.172	-0.292
-429.632	-176.870	-0.329	-0.008
-428.617	98.603	-0.112	-0.131
-427.603	70.976	-0.117	-0.123
-426.588	-107.732	-0.319	0.070
-425.573	135.896	-0.258	0.338
-424.559	-178.283	-0.377	-0.009
-423.544	30.298	-0.304	-0.261
-422.530	-68.526	-0.076	0.029
-421.515	579.305	0.085	0.209
-420.500	0.265	0.203	-0.146
-419.486	-131.395	0.257	0.034
-418.471	62.645	-0.272	-0.274
-417.457	-153.579	0.227	-0.016
-416.442	800.000	0.028	-0.086
-415.428	800.000	0.108	-0.299
-414.413	-13.816	0.103	-0.067
-413.398	-26.516	0.145	0.085
-412.384	-84.185	0.215	-0.069
-411.369	-113.925	0.283	0.055
-410.355	-200.000	-0.004	-0.192
-409.340	-152.378	0.064	-0.005
-408.325	-156.187	0.461	0.029
-407.311	185.299	0.071	-0.106
-406.296	-147.248	-0.170	0.015
-405.282	-71.488	-0.250	-0.094
-404.267	-95.482	-0.122	-0.033
-403.252	-71.112	0.377	0.142
-402.238	800.000	0.023	-0.089
-401.223	211.717	-0.159	-0.251
-400.209	77.697	0.012	0.013
-399.194	-143.074	0.236	0.023
-398.179	48.996	-0.111	-0.105
-397.165	-14.627	0.271	-0.175
-396.150	-4.656	-0.331	-0.230
-395.136	98.081	0.201	0.233
-394.121	-191.716	-0.342	0.003
-393.106	-158.226	0.181	0.011
-392.092	62.975	0.082	0.082
-391.077	800.000	0.036	-0.114
-390.063	420.210	-0.100	0.215
-389.048	323.487	0.117	-0.224
-388.033	176.099	0.084	-0.122
-387.019	141.183	0.006	0.008
-386.004	800.000	-0.081	-0.345
-384.990	124.749	-0.137	-0.174
-383.975	711.927	0.046	-0.122
-382.960	-65.994	0.172	-0.069
-381.946	-14.734	0.046	0.030
-380.931	12.238	-0.137	0.106
-379.917	-2.112	-0.053	-0.037
-378.902	-56.378	-0.076	0.034
-377.888	-77.478	-0.092	-0.032
-376.873	39.194	0.119	0.107
-375.858	-142.498	-0.266	0.026
-374.844	153.026	-0.061	0.084
-373.829	174.498	-0.052	-0.076
-372.815	7.339	0.123	-0.092
-371.800	661.098	-0.035	0.090
-370.785	-143.104	-0.186	-0.018
-369.771	-90.747	0.118	-0.034
-368.756	23.334	0.142	-0.117
-367.742	-98.414	-0.422	0.109
-366.727	109.192	0.144	0.174
-365.712	-113.565	0.073	-0.014
-364.698	800.000	0.130	-0.441
-363.683	342.451	-0.165	0.324
-362.669	200.160	0.127	0.196
-361.654	-200.000	-0.014	0.061
-360.639	-61.159	0.125	0.053
-359.625	45.046	-0.205	0.190
-358.610	129.541	-0.032	-0.041
-357.596	-200.000	0.013	-0.251
-356.581	261.328	0.030	-0.052
-355.566	-200.000	0.007	0.137
-354.552	-200.000	0.042	-0.385
-353.537	-57.645	0.227	0.100
-352.523	625.754	0.146	0.369
-351.508	-200.000	0.036	0.339
-350.493	-200.000	0.035	0.185
-349.479	165.557	-0.065	-0.093
-348.464	-4.600	-0.340	0.236
-347.450	269.060	-0.057	-0.101
-346.435	97.912	0.163	0.188
-345.420	25.543	0.217	0.181
-344.406	-200.000	0.025	0.157
-343.391	45.287	-0.151	-0.140
-342.377	210.786	0.148	-0.233
-341.362	-200.000	-0.033	0.228
-340.348	185.505	-0.067	0.099
-339.333	-2.632	0.307	-0.215
-338.318	-200.000	0.187	-0.001
-337.304	59.560	-0.095	0.094
-336.289	-126.691	-0.031	0.005
-335.275	268.703	0.062	-0.109
-334.260	-56.032	-0.247	0.111
-333.245	103.435	-0.153	-0.180
-332.231	18.752	-0.361	-0.290
-331.216	364.935	-0.058	-0.117
-330.202	-200.000	-0.007	-0.071
-329.187	148.380	-0.166	-0.225
-328.172	-5.826	0.415	0.285
-327.158	109.518	0.149	-0.179
-326.143	800.000	-0.051	0.203
-325.129	686.852	-0.139	-0.363
-324.114	-200.000	-0.011	-0.211
-323.099	2.788	-0.222	-0.162
-322.085	-14.403	-0.140	0.091
-321.070	118.705	0.272	0.337
-320.056	-127.726	0.157	-0.023
-319.041	386.256	-0.132	0.274
-318.026	605.748	-0.107	0.268
-317.012	-200.000	0.026	0.114
-315.997	800.000	0.084	-0.346
-314.983	-146.231	0.308	-0.027
-313.968	-61.705	-0.054	-0.023
-312.953	513.671	0.080	0.186
-311.939	-112.388	-0.136	0.027
-310.924	-200.000	0.010	-0.369
-309.910	-191.772	-0.278	0.003
-308.895	69.351	0.388	-0.400
-307.880	147.172	-0.066	-0.090
-306.866	409.224	-0.061	0.130
-305.851	-56.800	0.122	0.054
-304.837	-118.392	-0.252	-0.045
-303.822	-200.000	0.044	0.221
-302.807	-72.549	0.067	-0.025
-301.793	-94.712	0.106	-0.029
-300.778	-110.279	0.236	0.049
-299.764	-25.468	-0.068	-0.040
-298.749	66.195	0.205	0.209
-297.735	-126.646	0.397	0.059
-296.720	-55.237	-0.189	0.085
-295.705	800.000	-0.061	0.264
-294.691	381.768	0.050	0.103
-293.676	265.562	0.176	0.307
-292.662	266.432	-0.113	0.197
-291.647	-54.465	-0.432	0.196
-290.632	339.166	0.160	0.313
-289.618	353.360	0.047	-0.094
-288.603	-200.000	-0.006	-0.304
-287.589	-200.000	0.068	-0.354
-286.574	800.000	0.029	-0.095
-285.559	-56.283	0.260	0.116
-284.545	21.781	-0.035	-0.029
-283.530	4.529	0.131	-0.096
-282.516	570.829	0.101	0.247
-281.501	-200.000	-0.044	0.267
-280.486	143.838	-0.039	0.052
-279.472	-169.570	0.100	0.004
-278.457	473.493	-0.086	0.194
-277.443	-143.199	-0.145	0.014
-276.428	800.000	0.121	0.403
-275.413	35.848	0.174	0.153
-274.399	6.157	-0.077	0.057
-273.384	800.000	0.045	0.164
-272.370	326.115	-0.098	0.187
-271.355	94.911	-0.153	0.174
-270.340	248.077	0.129	-0.218
-269.326	361.484	0.025	0.050
-268.311	800.000	-0.044	0.135
-267.297	480.910	0.132	-0.299
-266.282	82.243	-0.182	-0.197
-265.267	4.500	0.086	0.063
-264.253	19.837	0.182	-0.147
-263.238	-200.000	-0.039	0.270
-262.224	42.937	0.445	-0.406
-261.209	-200.000	0.021	0.106
-260.195	310.150	-0.071	0.133
-259.180	-13.093	-0.247	-0.160
-258.165	-160.282	0.121	-0.007
-257.151	-200.000	0.051	0.243
-256.136	73.819	-0.126	-0.132
-255.122	-200.000	-0.002	0.202
-254.107	-103.113	0.373	0.088
-253.092	-21.005	-0.231	-0.141
-252.078	342.116	0.083	0.162
-251.063	-200.000	0.016	0.216
-250.049	131.718	-0.040	0.051
-249.034	-13.332	-0.222	0.144
-248.019	800.000	0.011	0.030
-247.005	-200.000	0.024	0.186
-245.990	171.227	0.046	-0.066
-244.976	-32.724	-0.153	-0.085
-243.961	-200.000	0.025	-0.235
-242.946	-200.000	-0.012	-0.310
-241.932	-33.146	0.141	0.078
-240.917	36.752	0.045	-0.040
-239.903	-151.936	-0.134	-0.010
-238.888	120.983	0.218	-0.272
-237.873	511.014	0.141	-0.329
-236.859	-166.761	-0.232	-0.010
-235.844	-200.000	-0.009	-0.119
-234.830	-200.000	0.029	-0.231
-233.815	361.276	0.029	-0.057
-232.800	-31.908	-0.280	-0.157
-231.786	-100.203	-0.199	-0.049
-230.771	-200.000	0.098	0.000
-229.757	-98.546	0.305	0.078
-228.742	-65.289	-0.027	0.011
-227.727	800.000	0.056	-0.165
-226.713	-63.073	-0.162	-0.067
-225.698	-200.000	0.017	0.190
-224.684	281.230	0.122	-0.218
-223.669	800.000	-0.090	-0.352
-222.655	305.509	0.044	-0.082
-221.640	-170.195	-0.327	0.012
-220.625	-52.857	0.302	0.139
-219.611	800.000	-0.027	0.091
-218.596	-104.313	0.341	0.079
-217.582	-200.000	-0.060	-0.337
-216.567	-9.289	0.175	0.117
-215.552	-60.180	0.400	0.170
-214.538	800.000	0.126	-0.376
-213.523	31.428	0.142	0.122
-212.509	7.292	0.061	-0.046
-211.494	461.973	-0.099	0.221
-210.479	55.521	-0.256	0.247
-209.465	-64.116	0.142	0.058
-208.450	-200.000	-0.022	0.252
-207.436	-22.569	0.187	-0.113
-206.421	409.607	-0.110	0.233
-205.406	-148.680	-0.285	0.023
-204.392	800.000	-0.011	-0.040
-203.377	-200.000	0.284	0.001
-202.363	-200.000	0.051	-0.233
-201.348	800.000	0.160	-0.568
-200.333	-12.128	0.155	0.101
-199.319	50.754	0.227	0.214
-198.304	180.910	0.124	-0.182
-197.290	800.000	-0.032	0.100
-196.275	-112.127	-0.213	0.043
-195.260	4.956	-0.105	-0.077
-194.246	14.098	0.240	-0.187
-193.231	-139.699	0.359	0.038
-192.217	6.063	0.235	-0.174
-191.202	233.740	0.076	0.125
-190.187	355.956	-0.043	0.085
-189.173	179.378	-0.141	-0.205
-188.158	-8.512	0.141	0.094
-187.144	-45.594	0.261	-0.129
-186.129	-94.810	-0.233	0.063
-185.114	-106.370	-0.184	0.041
-184.100	-45.262	-0.206	-0.102
-183.085	170.187	-0.151	0.216
-182.071	-129.184	-0.153	0.021
-181.056	388.114	0.112	-0.230
-180.042	-30.066	-0.196	-0.111
-179.027	420.818	-0.222	-0.475
-178.012	-200.000	0.017	-0.198
-176.998	242.977	0.052	-0.087
-175.983	800.000	-0.171	0.505
-174.969	274.032	0.186	0.328
-173.954	800.000	0.056	0.204
-172.939	800.000	-0.009	-0.027
-171.925	17.453	0.226	-0.179
-170.910	-99.024	0.316	-0.080
-169.896	127.519	-0.014	0.017
-168.881	264.958	0.081	0.141
-167.866	800.000	0.045	-0.170
-166.852	406.970	0.124	0.262
-165.837	193.661	0.104	-0.157
-164.823	-147.263	0.308	0.026
-163.808	49.459	-0.145	-0.136
-162.793	-92.502	-0.203	-0.057
-161.779	-183.663	-0.117	0.002
-160.764	800.000	0.074	-0.287
-159.750	-84.912	-0.240	-0.075
-158.735	96.937	0.114	0.131
-157.720	-6.618	-0.114	-0.077
-156.706	800.000	-0.037	0.143
-155.691	-121.518	0.184	-0.030
-154.677	37.781	0.110	0.097
-153.662	-200.000	-0.002	0.202
-152.647	-60.445	0.367	0.155
-151.633	482.527	0.216	-0.488
-150.618	-83.453	0.175	0.056
-149.604	-120.211	-0.368	-0.063
-148.589	340.217	-0.046	0.089
-147.574	-109.177	-0.291	-0.062
-146.560	-78.692	-0.143	-0.048
-145.545	34.541	0.243	0.211
-144.531	-23.833	-0.052	0.031
-143.516	-11.079	-0.041	-0.027
-142.502	322.267	0.193	0.366
-141.487	44.411	0.066	-0.061
-140.472	748.146	0.044	-0.118
-139.458	180.857	0.181	-0.265
-138.443	800.000	-0.035	0.148
-137.429	-42.734	0.085	-0.043
-136.414	-200.000	-0.019	-0.197
-135.399	-117.250	-0.123	0.022
-134.385	353.219	-0.109	-0.215
-133.370	657.995	-0.134	0.343
-132.356	452.747	-0.033	0.072
-131.341	800.000	0.049	0.201
-130.326	138.096	0.049	0.064
-129.312	-48.269	0.069	0.033
-128.297	-200.000	0.023	0.120
-127.283	-200.000	-0.013	-0.214
-126.268	-200.000	-0.046	0.333
-125.253	-200.000	0.002	-0.069
-124.239	-12.513	-0.149	0.097
-123.224	-200.000	0.029	0.376
-122.210	166.703	-0.081	0.114
-121.195	-200.000	-0.001	-0.134
-120.180	375.228	-0.105	-0.213
