DTS Sentinel unit serial number:	SN413079Multiplexer serial number:	ORYXHardware model number:	OX4-SRSoftware version number:	ORYX F/W v4.00 Oryx Data Collector v3.7.2.0data status	okinstallation	princeton_trtdifferential loss correction	single-endedforward channel	channel 4reverse channel	N/Adate	2019/09/18time	02:29:34forward acquisition time	60.00reverse acquisition time	0.00gamma	496.2192k internal	0.2334k external	0.2334temperature offset calibration	0.9994default loss term (dB/km)	0.3790temperature slope calibration	1.0000multiplexer offset coefficient	1.0000multiplexer slope coefficient	1.0000fibre end	0.00T internal ref (°C)	22.81T ext. ref 1 (°C)	0.17T ext. ref 2 (°C)	16.80length (m)	temperature (°C)	Stokes	anti-Stokes-747.200	394.664	0.111	0.233
-746.185	-83.393	-0.046	-0.015
-745.171	136.780	0.167	-0.220
-744.156	-44.400	-0.331	-0.166
-743.142	236.463	0.044	0.072
-742.127	800.000	-0.120	0.417
-741.112	-102.597	0.223	0.053
-740.098	800.000	-0.068	-0.214
-739.083	-127.268	0.186	0.027
-738.069	-61.379	-0.271	0.115
-737.054	248.366	-0.020	0.034
-736.039	28.746	0.115	-0.098
-735.025	-58.633	0.440	-0.191
-734.010	29.404	-0.246	-0.210
-732.996	-8.033	-0.184	-0.125
-731.981	-40.896	-0.212	0.110
-730.966	356.571	0.109	0.217
-729.952	-78.609	-0.121	0.041
-728.937	-108.557	0.107	0.023
-727.923	-200.000	-0.014	-0.124
-726.908	-82.569	-0.182	-0.059
-725.894	-22.028	0.121	0.074
-724.879	800.000	-0.088	0.310
-723.864	-200.000	0.043	0.313
-722.850	-155.860	-0.256	-0.016
-721.835	58.807	-0.120	-0.118
-720.821	-29.323	-0.194	-0.112
-719.806	-97.830	-0.169	-0.044
-718.791	487.147	-0.083	0.190
-717.777	-81.046	-0.158	-0.052
-716.762	181.595	0.222	-0.329
-715.748	-36.871	-0.313	-0.169
-714.733	146.134	-0.145	-0.196
-713.718	289.855	0.120	-0.219
-712.704	-200.000	0.011	0.207
-711.689	31.281	-0.224	0.193
-710.675	375.691	0.087	-0.177
-709.660	7.147	-0.271	0.203
-708.645	49.467	0.080	-0.076
-707.631	-200.000	-0.097	-0.546
-706.616	75.179	0.127	0.134
-705.602	769.431	-0.041	0.112
-704.587	-54.904	-0.119	-0.054
-703.572	112.097	-0.107	0.129
-702.558	33.889	-0.321	0.280
-701.543	-200.000	0.184	0.000
-700.529	482.057	-0.213	-0.485
-699.514	459.293	-0.184	-0.411
-698.499	-40.205	-0.100	-0.052
-697.485	-176.973	-0.121	-0.003
-696.470	-53.414	-0.067	0.031
-695.456	800.000	-0.129	-0.389
-694.441	-118.091	0.046	-0.008
-693.426	-104.136	0.134	0.031
-692.412	288.745	-0.103	-0.187
-691.397	-200.000	0.024	-0.318
-690.383	57.761	0.109	-0.107
-689.368	-135.899	0.077	0.009
-688.354	27.038	-0.042	0.035
-687.339	-186.390	-0.548	0.008
-686.324	428.229	-0.043	0.093
-685.310	800.000	0.084	-0.325
-684.295	-67.514	0.161	-0.063
-683.281	-99.837	0.055	-0.014
-682.266	222.045	-0.210	-0.339
-681.251	-58.601	-0.345	0.150
-680.237	-156.232	-0.284	-0.018
-679.222	-200.000	0.010	-0.103
-678.208	-47.654	0.060	0.029
-677.193	266.794	0.059	0.104
-676.178	-127.428	0.121	0.018
-675.164	171.131	-0.099	-0.142
-674.149	-36.184	-0.128	-0.069
-673.135	139.323	0.045	0.059
-672.120	-200.000	-0.014	-0.092
-671.105	-88.260	-0.403	0.121
-670.091	-160.492	-0.350	-0.019
-669.076	-200.000	0.017	-0.182
-668.062	2.496	-0.020	-0.015
-667.047	800.000	-0.060	-0.207
-666.032	142.753	-0.134	-0.179
-665.018	705.284	-0.086	0.227
-664.003	-90.113	-0.132	-0.039
-662.989	-200.000	-0.003	0.015
-661.974	-15.252	-0.143	0.092
-660.959	7.457	-0.107	-0.080
-659.945	174.506	-0.062	-0.089
-658.930	228.569	-0.158	-0.258
-657.916	-136.261	-0.070	0.008
-656.901	-28.504	-0.188	-0.108
-655.886	-48.590	0.417	0.201
-654.872	102.437	0.162	-0.189
-653.857	29.193	-0.191	-0.162
-652.843	-200.000	0.008	0.153
-651.828	-32.845	-0.377	-0.210
-650.814	800.000	-0.056	-0.193
-649.799	-200.000	-0.015	-0.344
-648.784	-32.953	-0.097	0.054
-647.770	160.669	0.387	-0.541
-646.755	800.000	-0.026	0.073
-645.741	-85.693	-0.038	0.012
-644.726	31.101	0.187	0.160
-643.711	-200.000	-0.002	0.199
-642.697	-20.303	0.261	0.161
-641.682	418.431	0.072	0.154
-640.668	154.582	-0.203	-0.279
-639.653	-200.000	0.033	-0.192
-638.638	132.558	-0.127	0.164
-637.624	75.803	0.059	-0.062
-636.609	-200.000	-0.013	0.113
-635.595	-200.000	0.026	0.151
-634.580	214.829	-0.156	0.247
-633.565	-114.947	-0.319	-0.061
-632.551	-87.211	-0.073	-0.022
-631.536	97.031	-0.252	0.290
-630.522	-76.697	-0.242	-0.085
-629.507	-81.253	-0.213	-0.070
-628.492	324.529	-0.146	0.278
-627.478	-143.140	-0.165	-0.016
-626.463	21.644	-0.089	0.073
-625.449	-200.000	-0.051	-0.251
-624.434	-200.000	0.028	-0.187
-623.419	29.675	-0.118	0.100
-622.405	148.809	0.176	0.238
-621.390	304.822	0.055	-0.101
-620.376	252.523	0.071	-0.121
-619.361	-200.000	-0.009	-0.191
-618.346	259.924	0.089	-0.154
-617.332	-72.648	-0.140	-0.052
-616.317	202.661	-0.036	0.055
-615.303	-59.592	-0.264	0.113
-614.288	-60.084	-0.265	-0.113
-613.273	-108.655	0.140	-0.030
-612.259	800.000	0.048	-0.149
-611.244	-68.762	0.195	-0.076
-610.230	245.918	0.112	-0.188
-609.215	-166.608	-0.233	0.010
-608.201	11.739	0.124	-0.095
-607.186	-200.000	0.100	-0.477
-606.171	334.077	0.131	0.253
-605.157	130.149	-0.253	-0.324
-604.142	-14.200	0.256	0.165
-603.128	-200.000	-0.011	-0.164
-602.113	657.533	-0.169	0.433
-601.098	-193.131	0.089	0.001
-600.084	-157.804	-0.296	0.018
-599.069	-200.000	-0.035	-0.215
-598.055	-200.000	-0.004	-0.158
-597.040	94.617	-0.228	0.259
-596.025	800.000	0.025	0.079
-595.011	-200.000	-0.015	-0.256
-593.996	-103.937	0.197	0.046
-592.982	-200.000	-0.025	-0.354
-591.967	-96.958	-0.336	-0.088
-590.952	-0.850	-0.205	-0.145
-589.938	800.000	0.054	-0.151
-588.923	-21.785	-0.173	0.105
-587.909	792.536	-0.078	-0.214
-586.894	-42.650	-0.222	-0.113
-585.879	-62.159	0.448	0.187
-584.865	-64.841	-0.004	-0.002
-583.850	2.434	-0.168	0.121
-582.836	94.060	0.059	0.067
-581.821	102.154	0.197	-0.230
-580.806	-200.000	-0.017	-0.132
-579.792	243.953	-0.108	-0.181
-578.777	37.479	-0.195	-0.173
-577.763	46.477	-0.324	0.300
-576.748	-114.800	0.196	-0.037
-575.733	662.689	-0.050	-0.130
-574.719	549.173	0.030	-0.073
-573.704	800.000	0.040	0.116
-572.690	25.803	0.239	0.199
-571.675	-19.428	0.260	0.161
-570.661	-13.181	0.277	0.180
-569.646	767.153	-0.147	-0.399
-568.631	-200.000	-0.035	-0.401
-567.617	800.000	-0.034	0.107
-566.602	300.602	-0.172	0.317
-565.588	222.392	-0.029	-0.046
-564.573	800.000	-0.051	0.185
-563.558	-7.754	-0.162	-0.109
-562.544	-160.587	-0.201	0.011
-561.529	-42.603	0.193	0.098
-560.515	800.000	-0.029	-0.097
-559.500	-21.206	-0.159	-0.097
-558.485	94.911	0.142	-0.162
-557.471	-200.000	-0.037	0.195
-556.456	145.350	-0.177	0.236
-555.442	11.758	-0.164	-0.126
-554.427	-200.000	-0.020	0.216
-553.412	-162.501	0.217	0.011
-552.398	-200.000	-0.035	-0.299
-551.383	87.615	-0.238	0.263
-550.369	106.038	-0.130	0.153
-549.354	-30.988	0.195	0.110
-548.339	315.545	0.134	-0.252
-547.325	3.140	-0.305	-0.221
-546.310	47.137	0.093	0.087
-545.296	-148.576	0.247	-0.020
-544.281	800.000	-0.063	0.197
-543.266	800.000	0.040	0.141
-542.252	243.959	-0.075	-0.126
-541.237	-32.887	-0.094	-0.052
-540.223	-200.000	0.017	-0.101
-539.208	-200.000	-0.037	-0.216
-538.193	-68.666	0.127	0.049
-537.179	-78.646	-0.031	0.010
-536.164	-188.206	-0.296	0.004
-535.150	800.000	0.043	-0.142
-534.135	74.590	-0.151	0.158
-533.121	9.368	0.193	-0.145
-532.106	69.386	0.108	0.110
-531.091	475.556	-0.057	-0.128
-530.077	-42.026	-0.185	0.094
-529.062	-103.606	-0.134	0.031
-528.048	359.735	-0.225	-0.449
-527.033	-61.416	-0.143	0.060
-526.018	-82.257	-0.191	-0.062
-525.004	-9.184	-0.228	0.152
-523.989	800.000	0.044	-0.170
-522.975	-85.765	-0.143	-0.044
-521.960	353.721	-0.130	0.257
-520.945	800.000	0.037	0.139
-519.931	63.260	0.133	0.133
-518.916	-33.475	-0.207	-0.114
-517.902	-129.101	-0.289	0.040
-516.887	800.000	0.052	0.163
-515.872	201.921	0.224	0.345
-514.858	-1.362	-0.099	0.070
-513.843	444.879	-0.144	0.314
-512.829	-200.000	0.053	0.263
-511.814	800.000	0.064	0.237
-510.799	167.157	0.134	-0.190
-509.785	-200.000	-0.011	-0.116
-508.770	-21.879	0.074	-0.045
-507.756	-123.780	0.396	0.062
-506.741	-200.000	-0.033	-0.164
-505.726	-200.000	-0.040	0.362
-504.712	-200.000	0.126	0.000
-503.697	331.443	-0.050	0.097
-502.683	139.313	-0.144	0.189
-501.668	461.112	0.072	0.161
-500.653	-200.000	0.038	0.266
-499.639	106.386	0.179	0.212
-498.624	-100.016	-0.088	0.022
-497.610	384.520	0.086	-0.176
-496.595	396.344	-0.129	-0.268
-495.581	-75.002	0.063	0.022
-494.566	-148.465	0.412	-0.034
-493.551	-190.932	-0.204	0.002
-492.537	130.076	-0.173	-0.221
-491.522	258.834	-0.044	-0.075
-490.508	29.004	-0.283	-0.239
-489.493	800.000	0.032	0.117
-488.478	17.496	0.227	-0.180
-487.464	-37.895	0.049	0.026
-486.449	-200.000	0.046	0.255
-485.435	343.701	0.126	-0.246
-484.420	-66.133	-0.204	-0.081
-483.405	-191.869	0.173	0.002
-482.391	509.299	-0.091	0.209
-481.376	-36.406	-0.185	0.099
-480.362	11.975	0.192	-0.147
-479.347	-19.841	0.115	-0.071
-478.332	-88.541	0.119	0.035
-477.318	-114.634	0.320	-0.061
-476.303	-200.000	-0.014	-0.077
-475.289	800.000	0.029	0.109
-474.274	351.113	-0.085	0.168
-473.259	-152.719	0.135	-0.010
-472.245	-37.846	-0.316	-0.167
-471.230	-129.531	-0.531	-0.073
-470.216	-73.629	-0.049	-0.018
-469.201	-151.700	-0.234	0.017
-468.186	-39.345	0.184	-0.096
-467.172	184.305	-0.084	0.123
-466.157	-18.578	0.274	-0.170
-465.143	-200.000	0.041	0.260
-464.128	64.604	-0.285	-0.285
-463.113	228.134	-0.126	0.203
-462.099	800.000	0.092	0.355
-461.084	-200.000	-0.013	0.232
-460.070	305.653	-0.085	0.157
-459.055	-39.487	-0.144	0.075
-458.040	-70.223	0.286	-0.108
-457.026	800.000	-0.069	-0.270
-456.011	-90.308	0.087	-0.025
-454.997	289.421	0.126	-0.228
-453.982	-169.946	-0.385	0.014
-452.968	102.056	0.184	0.214
-451.953	72.505	-0.103	0.106
-450.938	54.965	0.060	0.057
-449.924	-200.000	0.011	-0.301
-448.909	279.850	-0.035	0.062
-447.895	-122.503	0.291	0.047
-446.880	-101.800	0.273	0.066
-445.865	541.153	-0.072	-0.171
-444.851	-200.000	-0.050	-0.298
-443.836	-50.779	-0.233	0.109
-442.822	8.543	0.263	0.196
-441.807	-26.116	0.239	-0.139
-440.792	382.177	0.106	0.216
-439.778	-200.000	0.038	0.204
-438.763	800.000	0.090	0.263
-437.749	229.051	-0.116	-0.188
-436.734	372.995	0.227	-0.458
-435.719	111.658	-0.300	0.359
-434.705	-43.549	-0.094	0.047
-433.690	351.502	-0.082	-0.162
-432.676	-200.000	0.008	0.192
-431.661	-115.136	-0.156	-0.029
-430.646	297.573	0.126	-0.230
-429.632	294.426	0.177	-0.321
-428.617	249.269	0.147	-0.248
-427.603	-109.016	0.559	0.118
-426.588	-143.777	-0.278	0.026
-425.573	-200.000	-0.042	0.262
-424.559	-200.000	0.006	0.341
-423.544	-200.000	0.017	-0.242
-422.530	-200.000	0.068	-0.396
-421.515	-200.000	0.001	-0.188
-420.500	633.922	-0.131	0.329
-419.486	90.398	0.132	-0.146
-418.471	406.140	-0.325	-0.680
-417.457	408.738	-0.056	-0.118
-416.442	-200.000	-0.004	0.223
-415.428	3.336	-0.330	-0.239
-414.413	-54.237	-0.083	0.038
-413.398	15.889	0.124	-0.097
-412.384	-140.481	-0.208	-0.021
-411.369	190.967	-0.062	0.092
-410.355	-122.194	-0.219	0.036
-409.340	520.239	0.141	0.329
-408.325	420.922	-0.129	-0.275
-407.311	37.376	0.302	0.266
-406.296	-200.000	-0.015	-0.090
-405.282	-116.389	0.143	0.026
-404.267	55.897	0.132	-0.127
-403.252	115.525	0.069	-0.083
-402.238	800.000	-0.065	-0.225
-401.223	800.000	0.084	0.236
-400.209	-98.493	0.051	-0.013
-399.194	-62.825	0.304	0.125
-398.179	16.832	-0.106	0.083
-397.165	101.911	0.299	0.346
-396.150	-141.122	-0.127	-0.013
-395.136	800.000	0.028	0.104
-394.121	115.704	0.024	0.029
-393.106	394.282	-0.127	0.261
-392.092	-198.144	-0.067	-0.000
-391.077	-200.000	-0.033	0.255
-390.063	-197.702	0.040	-0.000
-389.048	25.687	-0.283	0.233
-388.033	-49.842	0.237	0.112
-387.019	-200.000	0.024	0.167
-386.004	-5.997	-0.078	0.053
-384.990	-65.642	-0.169	0.067
-383.975	-61.246	-0.133	-0.056
-382.960	54.809	0.177	0.169
-381.946	191.431	-0.076	0.114
-380.931	-92.039	-0.322	0.090
-379.917	-100.603	0.336	-0.082
-378.902	381.457	0.137	-0.279
-377.888	335.751	-0.196	-0.377
-376.873	-85.215	0.080	-0.025
-375.858	-200.000	0.002	0.102
-374.844	69.784	-0.168	0.171
-373.829	132.888	-0.129	-0.166
-372.815	-46.323	-0.163	-0.080
-371.800	-43.507	0.070	0.035
-370.785	92.147	0.302	-0.336
-369.771	-200.000	0.026	0.124
-368.756	122.615	-0.083	0.102
-367.742	-55.928	-0.109	0.048
-366.727	800.000	-0.077	0.318
-365.712	-200.000	-0.003	-0.148
-364.698	-131.188	0.297	-0.039
-363.683	275.497	0.322	-0.565
-362.669	800.000	-0.025	0.085
-361.654	800.000	-0.097	0.388
-360.639	800.000	-0.101	-0.330
-359.625	-164.161	0.115	0.005
-358.610	-148.685	-0.190	0.015
-357.596	-31.457	0.053	-0.030
-356.581	86.365	-0.271	0.295
-355.566	564.375	0.120	-0.288
-354.552	-90.295	0.176	-0.051
-353.537	-58.446	0.471	-0.203
-352.523	-121.873	-0.214	0.035
-351.508	-200.000	0.001	0.225
-350.493	-200.000	0.054	-0.357
-349.479	335.115	0.085	0.162
-348.464	800.000	0.056	-0.166
-347.450	-50.864	-0.195	0.090
-346.435	-200.000	-0.015	-0.139
-345.420	-144.195	-0.086	-0.008
-344.406	-156.257	0.378	0.023
-343.391	-13.002	0.359	0.231
-342.377	-5.011	0.047	-0.032
-341.362	800.000	0.086	0.258
-340.348	1.368	-0.229	-0.163
-339.333	742.364	0.091	-0.241
-338.318	73.700	0.187	-0.194
-337.304	23.747	0.237	-0.193
-336.289	41.989	0.136	-0.122
-335.275	60.044	-0.294	0.287
-334.260	37.211	0.261	-0.229
-333.245	-10.049	-0.134	-0.088
-332.231	-200.000	-0.009	-0.278
-331.216	82.131	-0.253	0.272
-330.202	-61.694	-0.087	-0.036
-329.187	800.000	0.011	0.033
-328.172	7.403	0.195	0.144
-327.158	-34.499	-0.067	0.036
-326.143	94.858	-0.109	0.123
-325.129	7.066	0.288	0.213
-324.114	-163.889	0.165	0.008
-323.099	35.673	0.077	0.067
-322.085	33.373	-0.082	0.070
-321.070	-69.678	0.212	0.080
-320.056	-112.799	-0.061	0.012
-319.041	800.000	0.008	-0.033
-318.026	292.100	0.106	-0.191
-317.012	0.942	0.139	-0.099
-315.997	-35.308	-0.048	0.026
-314.983	289.599	-0.104	0.186
-313.968	23.702	0.250	0.204
-312.953	208.052	0.286	-0.442
-311.939	800.000	-0.051	-0.200
-310.924	-97.217	0.209	0.054
-309.910	-69.410	-0.468	0.177
-308.895	125.816	0.014	-0.018
-307.880	-200.000	-0.039	0.179
-306.866	800.000	-0.146	-0.445
-305.851	-132.083	-0.293	-0.038
-304.837	82.995	-0.265	-0.285
-303.822	-57.567	-0.077	-0.033
-302.807	-200.000	0.067	-0.340
-301.793	-23.558	0.225	-0.133
-300.778	-17.219	0.103	0.064
-299.764	313.206	-0.080	-0.148
-298.749	80.737	-0.106	-0.113
-297.735	-60.799	-0.143	-0.060
-296.720	-200.000	0.006	0.225
-295.705	-200.000	-0.008	0.188
-294.691	60.178	-0.144	0.141
-293.676	-95.978	0.315	0.083
-292.662	702.811	0.071	-0.183
-291.647	219.926	-0.244	-0.386
-290.632	-124.042	0.046	0.007
-289.618	-200.000	-0.009	0.090
-288.603	-74.191	-0.128	-0.046
-287.589	-167.070	0.308	-0.012
-286.574	522.951	0.075	-0.174
-285.559	120.718	0.086	-0.105
-284.545	688.046	0.136	0.351
-283.530	-200.000	-0.033	0.328
-282.516	411.787	0.049	-0.102
-281.501	149.311	0.069	-0.093
-280.486	-3.046	-0.321	0.221
-279.472	-28.919	0.248	0.141
-278.457	-84.261	0.301	0.094
-277.443	-132.570	0.085	-0.011
-276.428	-110.098	-0.169	-0.035
-275.413	7.799	0.255	0.189
-274.399	-106.848	0.055	-0.012
-273.384	-24.468	-0.406	0.238
-272.370	800.000	-0.044	0.186
-271.355	-200.000	-0.052	0.347
-270.340	57.493	0.140	0.135
-269.326	800.000	-0.095	-0.325
-268.311	800.000	0.018	0.052
-267.297	-87.599	0.418	-0.124
-266.282	-200.000	-0.008	-0.042
-265.267	800.000	-0.072	-0.256
-264.253	800.000	0.101	0.334
-263.238	800.000	-0.082	-0.343
-262.224	20.957	-0.427	0.342
-261.209	141.390	0.076	-0.100
-260.195	136.259	0.126	0.163
-259.180	-4.531	0.108	0.074
-258.165	-141.158	0.112	0.011
-257.151	-200.000	-0.015	-0.067
-256.136	-109.513	0.195	0.041
-255.122	-85.345	0.155	0.048
-254.107	-99.179	-0.361	0.090
-253.092	62.903	-0.130	-0.128
-252.078	-101.950	0.190	0.045
-251.063	350.555	-0.069	0.134
-250.049	-113.391	-0.126	-0.024
-249.034	44.014	-0.232	0.209
-248.019	50.843	-0.028	-0.026
-247.005	134.084	0.178	-0.227
-245.990	-200.000	0.024	0.254
-244.976	800.000	-0.047	0.176
-243.961	-109.582	0.291	0.061
-242.946	800.000	0.062	0.198
-241.932	188.891	-0.071	-0.104
-240.917	-200.000	-0.003	-0.027
-239.903	64.635	0.116	-0.116
-238.888	129.298	0.240	0.302
-237.873	-26.542	-0.222	0.128
-236.859	36.894	-0.207	-0.180
-235.844	-50.921	-0.265	-0.123
-234.830	800.000	-0.025	-0.091
-233.815	800.000	0.045	-0.172
-232.800	-171.506	0.243	-0.008
-231.786	-158.384	0.015	-0.001
-230.771	62.223	0.313	0.307
-229.757	-47.103	0.051	-0.024
-228.742	144.359	0.051	-0.068
-227.727	-147.849	-0.284	0.023
-226.713	467.474	0.018	-0.040
-225.698	-118.638	-0.077	-0.013
-224.684	-200.000	-0.025	-0.263
-223.669	473.573	0.159	-0.354
-222.655	57.576	0.017	0.016
-221.640	429.641	0.117	-0.250
-220.625	-200.000	0.058	-0.497
-219.611	-200.000	-0.027	0.132
-218.596	-4.832	0.188	0.128
-217.582	78.614	0.223	-0.235
-216.567	73.096	0.307	-0.316
-215.552	-24.341	-0.374	-0.219
-214.538	-76.642	-0.139	0.048
-213.523	-190.229	-0.073	0.001
-212.509	800.000	-0.084	0.288
-211.494	28.725	0.355	-0.296
-210.479	-159.491	0.321	-0.018
-209.465	800.000	-0.134	0.537
-208.450	177.190	-0.178	0.255
-207.436	-60.533	0.370	0.155
-206.421	-91.942	-0.364	-0.101
-205.406	-93.332	0.146	0.040
-204.392	105.999	-0.097	-0.112
-203.377	40.008	-0.209	-0.185
-202.363	209.727	-0.075	0.116
-201.348	301.832	-0.069	-0.125
-200.333	-200.000	0.004	-0.101
-199.319	662.436	-0.135	0.343
-198.304	-83.095	0.212	-0.067
-197.290	-55.235	-0.171	0.076
-196.275	43.060	0.112	0.100
-195.260	15.324	-0.131	0.101
-194.246	-63.080	-0.220	0.089
-193.231	-66.063	0.079	-0.031
-192.217	448.577	0.071	0.154
-191.202	800.000	-0.064	0.244
-190.187	800.000	0.139	-0.487
-189.173	-200.000	-0.027	-0.176
-188.158	268.105	-0.200	-0.344
-187.144	41.547	-0.092	0.082
-186.129	7.138	0.185	-0.135
-185.114	-134.513	0.164	0.020
-184.100	-67.369	0.175	0.068
-183.085	-136.788	0.387	-0.044
-182.071	-133.556	-0.119	-0.015
-181.056	-200.000	-0.011	0.214
-180.042	-34.706	-0.131	0.070
-179.027	800.000	0.073	0.208
-178.012	62.711	-0.148	0.146
-176.998	-42.732	-0.028	-0.014
-175.983	-114.308	-0.212	0.040
-174.969	-200.000	0.022	0.280
-173.954	51.250	-0.229	-0.213
-172.939	84.510	0.126	-0.135
-171.925	-60.955	-0.080	0.033
-170.910	-200.000	-0.023	0.122
-169.896	162.596	-0.041	0.056
-168.881	13.018	0.278	-0.211
-167.866	-200.000	0.051	0.327
-166.852	800.000	0.178	0.512
-165.837	16.171	0.218	-0.169
-164.823	51.475	-0.244	-0.228
-163.808	7.281	-0.180	0.132
-162.793	48.205	-0.298	0.274
-161.779	87.854	-0.207	0.225
-160.764	-117.720	0.219	-0.039
-159.750	-87.430	0.294	-0.088
-158.735	800.000	0.008	0.031
-157.720	518.683	0.057	0.132
-156.706	-125.615	0.436	0.065
-155.691	-169.573	-0.194	-0.007
-154.677	282.609	0.139	-0.245
-153.662	251.821	0.046	0.077
-152.647	-166.067	0.267	0.011
-151.633	-98.636	-0.133	0.033
-150.618	-126.321	0.246	0.036
-149.604	59.263	-0.135	0.130
-148.589	-56.137	-0.026	-0.011
-147.574	-200.000	0.035	-0.206
-146.560	-172.257	0.247	0.008
-145.545	52.490	-0.059	0.055
-144.531	-21.569	-0.188	0.112
-143.516	-6.986	0.409	-0.273
-142.502	-57.472	0.179	0.077
-141.487	-200.000	0.003	-0.331
-140.472	139.777	0.206	-0.266
-139.458	-64.307	-0.088	0.035
-138.443	-200.000	0.000	0.185
-137.429	-87.133	0.303	0.090
-136.414	-200.000	-0.002	0.072
-135.399	-200.000	-0.004	0.159
-134.385	-147.690	-0.160	-0.013
-133.370	-200.000	-0.038	0.430
-132.356	110.197	-0.068	0.080
-131.341	-85.001	-0.068	-0.021
-130.326	-125.052	-0.318	0.048
-129.312	-200.000	0.009	-0.136
-128.297	36.596	0.018	-0.015
-127.283	108.948	0.035	-0.041
-126.268	600.794	0.015	0.036
-125.253	-97.412	-0.214	-0.055
-124.239	49.395	0.225	-0.207
-123.224	800.000	-0.057	-0.173
-122.210	-73.046	0.335	-0.120
-121.195	800.000	0.080	0.279
