DTS Sentinel unit serial number:	SN413079Multiplexer serial number:	ORYXHardware model number:	OX4-SRSoftware version number:	ORYX F/W v4.00 Oryx Data Collector v3.7.2.0data status	okinstallation	princeton_trtdifferential loss correction	single-endedforward channel	channel 4reverse channel	N/Adate	2019/09/12time	11:27:11forward acquisition time	60.00reverse acquisition time	0.00gamma	496.2192k internal	0.2292k external	0.2292temperature offset calibration	1.0069default loss term (dB/km)	0.3790temperature slope calibration	1.0000multiplexer offset coefficient	1.0000multiplexer slope coefficient	1.0000fibre end	0.00T internal ref (°C)	39.27T ext. ref 1 (°C)	1.96T ext. ref 2 (°C)	36.46length (m)	temperature (°C)	Stokes	anti-Stokes-747.200	-64.939	-0.232	0.096
-746.185	86.899	0.396	0.447
-745.171	201.680	-0.065	0.102
-744.156	128.623	-0.290	0.378
-743.142	-62.017	0.133	-0.057
-742.127	-1.041	-0.464	0.336
-741.112	-200.000	0.000	0.101
-740.098	-179.635	0.271	-0.006
-739.083	56.474	0.173	-0.172
-738.069	97.081	-0.074	-0.087
-737.054	-149.887	-0.332	0.027
-736.039	-24.771	0.227	-0.138
-735.025	551.258	0.179	0.439
-734.010	71.058	-0.240	-0.255
-732.996	-69.150	0.065	-0.026
-731.981	-71.785	-0.197	0.075
-730.966	4.405	-0.188	0.141
-729.952	-55.192	-0.241	0.111
-728.937	-117.589	-0.218	0.040
-727.923	-82.393	0.521	-0.173
-726.908	-93.335	-0.350	-0.099
-725.894	-22.372	-0.226	0.140
-724.879	-119.051	0.395	0.071
-723.864	-130.726	0.148	0.020
-722.850	-107.903	-0.230	0.051
-721.835	-86.719	0.356	-0.111
-720.821	340.173	-0.088	0.176
-719.806	800.000	0.049	0.161
-718.791	-100.499	0.351	-0.089
-717.777	-112.863	-0.360	-0.073
-716.762	98.940	-0.049	-0.057
-715.748	500.533	0.121	-0.287
-714.733	20.697	0.080	-0.067
-713.718	426.185	0.060	0.132
-712.704	-0.579	0.042	-0.031
-711.689	-132.552	-0.160	-0.021
-710.675	293.699	0.139	0.260
-709.660	-56.729	-0.288	-0.130
-708.645	525.108	-0.059	0.143
-707.631	-59.804	0.237	-0.104
-706.616	800.000	0.092	-0.297
-705.602	-200.000	0.026	-0.168
-704.587	-200.000	-0.008	0.070
-703.572	314.576	0.060	-0.116
-702.558	-11.404	0.318	-0.214
-701.543	-76.964	0.335	0.120
-700.529	-80.787	-0.102	0.034
-699.514	192.960	0.068	-0.105
-698.499	-66.433	-0.089	-0.036
-697.485	800.000	0.017	0.065
-696.470	800.000	-0.084	-0.279
-695.456	-79.984	0.069	-0.024
-694.441	41.834	-0.160	0.148
-693.426	-200.000	-0.025	0.126
-692.412	271.479	-0.054	0.097
-691.397	-143.749	0.250	0.024
-690.383	-94.112	-0.356	-0.100
-689.368	-136.613	0.204	-0.024
-688.354	-71.129	-0.216	-0.083
-687.339	35.231	0.280	0.250
-686.324	173.367	0.173	-0.255
-685.310	-200.000	-0.023	-0.202
-684.295	-108.320	-0.172	0.038
-683.281	-150.039	0.198	0.016
-682.266	114.746	0.127	-0.159
-681.251	-200.000	0.007	0.051
-680.237	-137.766	0.197	-0.023
-679.222	-200.000	0.015	-0.276
-678.208	-200.000	-0.006	0.125
-677.193	-25.702	0.075	-0.045
-676.178	-128.461	0.142	0.021
-675.164	-200.000	-0.083	-0.420
-674.149	323.710	-0.144	0.281
-673.135	455.329	-0.047	0.106
-672.120	673.984	0.153	-0.406
-671.105	-137.999	-0.071	0.008
-670.091	-108.529	0.213	-0.047
-669.076	-3.621	-0.177	-0.126
-668.062	-76.506	-0.140	0.050
-667.047	-105.059	-0.216	-0.050
-666.032	800.000	-0.071	0.278
-665.018	800.000	0.030	0.094
-664.003	-1.774	0.183	0.132
-662.989	-96.937	-0.139	0.037
-661.974	173.856	-0.190	0.280
-660.959	800.000	-0.035	-0.136
-659.945	-200.000	0.028	-0.128
-658.930	800.000	0.054	-0.175
-657.916	800.000	-0.045	-0.183
-656.901	17.238	-0.279	-0.226
-655.886	-200.000	0.040	0.224
-654.872	800.000	0.067	0.238
-653.857	-122.865	0.262	-0.043
-652.843	800.000	0.043	-0.153
-651.828	298.459	-0.034	-0.065
-650.814	168.329	0.242	0.351
-649.799	-136.654	-0.126	-0.015
-648.784	-22.583	0.157	-0.097
-647.770	-200.000	0.002	-0.205
-646.755	-82.419	0.287	-0.095
-645.741	-79.284	-0.271	-0.094
-644.726	-44.162	0.197	0.101
-643.711	-200.000	-0.023	0.118
-642.697	-133.340	-0.458	-0.059
-641.682	-92.967	-0.108	0.031
-640.668	31.707	-0.121	-0.106
-639.653	-19.008	0.177	0.112
-638.638	595.197	-0.124	-0.314
-637.624	800.000	0.047	0.188
-636.609	182.805	-0.051	-0.076
-635.595	42.835	-0.318	0.295
-634.580	270.160	-0.215	0.385
-633.565	143.173	-0.066	0.089
-632.551	800.000	0.146	-0.444
-631.536	-186.723	0.149	-0.002
-630.522	220.085	-0.226	-0.369
-629.507	170.263	0.108	0.157
-628.492	800.000	0.050	0.213
-627.478	276.763	0.079	0.143
-626.463	30.676	-0.341	-0.298
-625.449	-200.000	-0.003	-0.283
-624.434	46.369	-0.085	-0.081
-623.419	-83.232	-0.438	-0.144
-622.405	186.961	0.097	0.147
-621.390	-92.214	0.258	-0.074
-620.376	35.400	-0.202	-0.181
-619.361	800.000	0.027	-0.099
-618.346	800.000	-0.080	0.226
-617.332	-87.010	0.112	0.035
-616.317	800.000	-0.027	0.096
-615.303	-84.533	0.086	-0.027
-614.288	-95.941	-0.360	-0.098
-613.273	112.094	-0.196	0.241
-612.259	-106.895	0.214	-0.048
-611.244	398.023	-0.013	0.028
-610.230	101.246	0.231	0.273
-609.215	-112.350	-0.338	-0.069
-608.201	-200.000	-0.031	-0.196
-607.186	37.237	0.041	0.037
-606.171	-71.086	0.244	-0.093
-605.157	-185.585	-0.158	-0.002
-604.142	-89.399	-0.324	0.097
-603.128	111.102	-0.251	0.307
-602.113	17.468	-0.173	0.140
-601.098	-91.319	-0.180	-0.053
-600.084	-200.000	-0.005	-0.345
-599.069	54.543	-0.092	-0.090
-598.055	295.878	-0.050	-0.092
-597.040	-35.924	-0.171	-0.094
-596.025	-11.299	0.226	-0.152
-595.011	133.000	0.241	0.317
-593.996	-200.000	-0.007	-0.219
-592.982	17.185	0.066	0.054
-591.967	800.000	0.120	-0.355
-590.952	106.324	-0.151	0.182
-589.938	800.000	0.060	0.237
-588.923	-200.000	-0.155	0.000
-587.909	407.074	0.066	0.141
-586.894	-200.000	-0.004	0.103
-585.879	-0.239	-0.110	-0.080
-584.865	123.727	-0.171	0.218
-583.850	181.879	-0.209	0.313
-582.836	-200.000	-0.021	-0.234
-581.821	-142.785	0.254	-0.025
-580.806	-145.808	0.038	-0.003
-579.792	800.000	0.021	-0.092
-578.777	31.702	-0.164	-0.143
-577.763	-56.000	0.302	-0.137
-576.748	-200.000	0.015	0.195
-575.733	297.548	0.099	0.184
-574.719	254.347	-0.140	-0.244
-573.704	-200.000	-0.052	0.385
-572.690	800.000	-0.052	0.228
-571.675	312.190	-0.064	0.123
-570.661	237.947	0.095	0.161
-569.646	-108.743	0.231	-0.050
-568.631	800.000	0.031	0.094
-567.617	122.859	-0.192	-0.245
-566.602	66.382	-0.110	0.113
-565.588	-200.000	0.037	0.172
-564.573	-200.000	-0.042	-0.285
-563.558	-75.343	0.255	0.092
-562.544	430.166	-0.061	-0.134
-561.529	-200.000	-0.009	-0.074
-560.515	-200.000	-0.028	-0.335
-559.500	465.779	-0.057	0.130
-558.485	209.232	-0.110	0.176
-557.471	-11.982	-0.069	-0.046
-556.456	-89.557	-0.290	-0.086
-555.442	7.642	0.204	-0.155
-554.427	-43.691	-0.053	-0.027
-553.412	-129.760	0.294	-0.041
-552.398	35.228	-0.155	0.138
-551.383	326.615	0.019	0.037
-550.369	-146.839	0.324	-0.028
-549.354	-50.205	0.257	0.124
-548.339	12.320	-0.299	0.234
-547.325	5.564	-0.234	-0.175
-546.310	170.890	-0.166	-0.241
-545.296	-114.869	0.139	0.027
-544.281	372.595	-0.116	-0.240
-543.266	-159.423	-0.090	0.005
-542.252	-121.178	-0.565	0.096
-541.237	192.488	0.076	0.117
-540.223	85.795	-0.259	-0.290
-539.208	-200.000	-0.004	-0.108
-538.193	40.971	-0.101	-0.093
-537.179	-18.894	-0.048	0.031
-536.164	-117.049	-0.368	-0.068
-535.150	800.000	0.105	-0.321
-534.135	130.635	-0.084	0.110
-533.121	472.102	0.069	-0.157
-532.106	481.347	0.047	-0.107
-531.091	21.044	-0.114	-0.094
-530.077	17.380	0.247	-0.199
-529.062	-83.352	-0.362	-0.118
-528.048	-167.429	0.293	0.012
-527.033	40.241	-0.171	0.156
-526.018	67.226	0.235	0.243
-525.004	363.773	0.030	0.061
-523.989	-62.780	-0.118	-0.049
-522.975	-200.000	-0.047	-0.281
-521.960	-76.777	-0.325	0.115
-520.945	97.016	-0.237	-0.276
-519.931	-116.006	0.155	0.029
-518.916	470.249	-0.151	0.345
-517.902	76.920	0.154	0.166
-516.887	800.000	0.056	-0.231
-515.872	38.663	0.270	0.244
-514.858	219.530	-0.080	0.130
-513.843	-125.953	-0.369	0.056
-512.829	-47.337	-0.216	-0.107
-511.814	-92.011	0.146	0.042
-510.799	56.675	-0.095	0.094
-509.785	254.587	0.177	0.308
-508.770	-162.461	-0.199	0.010
-507.756	-43.106	0.211	-0.108
-506.741	53.678	0.091	0.089
-505.726	196.642	-0.151	-0.233
-504.712	-108.141	-0.103	0.023
-503.697	98.855	0.185	0.216
-502.683	232.655	0.198	0.330
-501.668	-200.000	-0.045	0.332
-500.653	800.000	0.047	0.163
-499.639	-39.178	0.302	-0.161
-498.624	136.992	-0.040	-0.053
-497.610	-23.096	0.362	-0.221
-496.595	-48.993	0.174	0.084
-495.581	417.059	-0.035	0.075
-494.566	103.109	-0.105	-0.125
-493.551	115.637	0.253	0.314
-492.537	-69.960	0.121	-0.047
-491.522	362.706	0.133	-0.271
-490.508	102.592	0.167	0.199
-489.493	82.922	0.082	-0.090
-488.478	-14.267	0.165	-0.108
-487.464	-200.000	0.007	-0.125
-486.449	340.534	0.210	0.416
-485.435	89.332	0.115	0.130
-484.420	-81.439	-0.379	0.126
-483.405	-200.000	0.050	0.241
-482.391	68.812	0.158	-0.165
-481.376	-69.424	-0.196	-0.076
-480.362	309.062	-0.157	-0.298
-479.347	-200.000	0.022	-0.130
-478.332	-167.891	0.200	-0.008
-477.318	-153.290	0.225	-0.016
-476.303	800.000	0.017	0.050
-475.289	-200.000	-0.016	0.227
-474.274	-3.419	-0.154	-0.109
-473.259	-68.972	-0.500	-0.195
-472.245	-23.386	0.065	0.039
-471.230	800.000	0.068	-0.284
-470.216	57.112	0.120	-0.118
-469.201	-127.690	0.191	-0.028
-468.186	-33.340	-0.265	-0.148
-467.172	268.075	-0.063	0.111
-466.157	-59.119	0.208	-0.091
-465.143	17.234	-0.231	-0.185
-464.128	800.000	-0.042	-0.129
-463.113	-132.355	0.360	-0.047
-462.099	29.323	0.149	0.128
-461.084	139.391	0.049	0.066
-460.070	-117.109	-0.166	0.031
-459.055	208.337	-0.075	-0.118
-458.040	-142.553	-0.237	-0.024
-457.026	19.968	0.109	0.089
-456.011	-109.515	-0.121	0.026
-454.997	724.596	0.028	-0.074
-453.982	325.186	0.125	0.243
-452.968	32.441	0.134	0.117
-451.953	232.624	-0.087	-0.145
-450.938	-29.762	-0.221	0.128
-449.924	-79.894	-0.141	0.048
-448.909	-71.425	-0.149	-0.056
-447.895	196.110	0.139	0.213
-446.880	-54.630	0.463	-0.212
-445.865	-113.119	-0.145	-0.029
-444.851	-57.936	-0.056	-0.025
-443.836	-200.000	0.001	-0.010
-442.822	-146.324	0.024	-0.002
-441.807	376.167	0.066	-0.136
-440.792	-85.391	-0.387	0.122
-439.778	-200.000	-0.124	0.554
-438.763	10.525	-0.174	0.134
-437.749	324.576	-0.144	0.278
-436.734	-63.529	0.189	-0.078
-435.719	-91.874	0.265	0.076
-434.705	-28.234	-0.229	-0.134
-433.690	-59.601	0.288	0.125
-432.676	452.310	0.105	-0.234
-431.661	136.932	0.161	0.213
-430.646	-114.994	-0.153	-0.029
-429.632	-9.163	0.118	-0.080
-428.617	-71.295	0.331	-0.126
-427.603	-15.685	0.133	-0.086
-426.588	-132.274	0.088	-0.011
-425.573	119.916	0.161	0.201
-424.559	800.000	-0.098	0.341
-423.544	-45.114	-0.268	-0.135
-422.530	280.508	-0.162	-0.294
-421.515	800.000	-0.020	-0.067
-420.500	-200.000	-0.065	-0.299
-419.486	485.646	-0.108	-0.249
-418.471	-200.000	0.314	-0.001
-417.457	275.875	-0.098	-0.176
-416.442	-118.761	0.245	0.044
-415.428	370.131	-0.101	0.207
-414.413	-200.000	-0.047	-0.259
-413.398	37.564	0.317	-0.284
-412.384	-172.485	-0.071	-0.002
-411.369	800.000	0.061	-0.190
-410.355	-200.000	-0.039	-0.201
-409.340	77.489	-0.252	-0.271
-408.325	-200.000	-0.004	0.150
-407.311	46.936	0.093	0.088
-406.296	-6.243	-0.254	0.175
-405.282	-94.616	-0.223	-0.061
-404.267	102.215	0.158	0.186
-403.252	180.852	-0.117	0.174
-402.238	-200.000	0.025	-0.340
-401.223	-200.000	-0.271	-0.000
-400.209	26.175	0.042	-0.035
-399.194	-8.488	-0.164	0.111
-398.179	-9.417	-0.238	0.160
-397.165	-200.000	-0.027	-0.144
-396.150	-115.590	0.275	0.052
-395.136	64.630	0.249	0.253
-394.121	-200.000	-0.012	-0.175
-393.106	-133.843	0.293	0.037
-392.092	-70.751	0.069	-0.026
-391.077	-200.000	-0.025	0.290
-390.063	800.000	0.070	0.243
-389.048	71.805	0.197	-0.207
-388.033	-200.000	0.024	-0.183
-387.019	-200.000	0.208	0.000
-386.004	491.316	-0.086	-0.198
-384.990	-200.000	0.056	-0.253
-383.975	-148.726	-0.231	0.019
-382.960	-104.480	0.372	0.087
-381.946	-76.890	-0.259	0.092
-380.931	572.934	0.130	0.320
-379.917	647.759	0.181	-0.467
-378.902	-200.000	0.001	0.019
-377.888	-200.000	-0.002	-0.172
-376.873	800.000	-0.096	0.282
-375.858	800.000	0.095	0.369
-374.844	-54.432	0.234	0.107
-373.829	800.000	0.009	0.027
-372.815	-96.129	-0.179	0.048
-371.800	21.071	0.134	-0.109
-370.785	-125.722	0.175	-0.027
-369.771	-45.863	-0.309	0.154
-368.756	18.674	0.175	0.141
-367.742	-41.716	-0.061	-0.032
-366.727	-200.000	0.031	0.278
-365.712	144.666	-0.210	0.283
-364.698	333.496	0.136	-0.265
-363.683	-153.748	0.234	0.016
-362.669	66.040	-0.387	0.396
-361.654	800.000	0.142	0.416
-360.639	13.425	0.206	-0.161
-359.625	-9.868	0.152	-0.102
-358.610	-14.251	0.133	-0.087
-357.596	-92.294	0.183	-0.052
-356.581	355.411	-0.113	-0.226
-355.566	-200.000	0.015	0.181
-354.552	-200.000	0.005	-0.215
-353.537	35.859	0.267	0.237
-352.523	64.067	-0.260	0.264
-351.508	152.981	-0.203	0.280
-350.493	-183.124	-0.194	0.003
-349.479	68.590	0.212	-0.219
-348.464	-103.498	-0.098	0.023
-347.450	221.839	0.084	-0.136
-346.435	-200.000	-0.003	-0.071
-345.420	35.699	0.109	0.097
-344.406	150.923	0.076	-0.104
-343.391	532.047	0.091	0.218
-342.377	800.000	-0.072	0.261
-341.362	83.802	-0.030	-0.033
-340.348	114.623	-0.110	0.135
-339.333	492.460	-0.071	-0.163
-338.318	-200.000	-0.030	-0.155
-337.304	697.413	-0.025	-0.066
-336.289	-93.035	0.045	-0.013
-335.275	-200.000	0.085	0.437
-334.260	-47.758	0.114	0.056
-333.245	-200.000	0.012	0.060
-332.231	800.000	0.043	-0.135
-331.216	418.554	0.156	0.335
-330.202	-125.740	-0.189	0.029
-329.187	800.000	-0.018	0.056
-328.172	205.399	0.168	-0.263
-327.158	800.000	-0.094	-0.293
-326.143	800.000	-0.023	-0.082
-325.129	255.079	-0.074	0.128
-324.114	10.971	-0.242	-0.186
-323.099	800.000	-0.073	0.265
-322.085	-91.778	-0.142	0.041
-321.070	306.580	0.050	-0.094
-320.056	160.378	0.136	0.191
-319.041	-59.661	0.050	-0.022
-318.026	439.724	-0.059	0.130
-317.012	-83.860	0.360	0.116
-315.997	507.588	-0.114	-0.266
-314.983	-200.000	0.036	-0.574
-313.968	-200.000	-0.006	-0.307
-312.953	747.435	-0.185	-0.503
-311.939	-87.744	-0.261	-0.079
-310.924	-200.000	0.041	-0.279
-309.910	-143.692	0.172	-0.016
-308.895	-180.781	-0.133	-0.003
-307.880	-200.000	-0.015	-0.166
-306.866	800.000	-0.045	-0.139
-305.851	573.996	-0.121	-0.297
-304.837	-200.000	0.069	0.514
-303.822	26.042	0.148	-0.124
-302.807	-200.000	0.001	0.049
-301.793	109.888	-0.062	-0.075
-300.778	303.014	0.106	-0.197
-299.764	187.034	-0.193	-0.290
-298.749	-200.000	-0.017	0.224
-297.735	-19.390	0.251	0.157
-296.720	-200.000	-0.045	0.302
-295.705	39.507	0.101	-0.091
-294.691	408.028	0.115	-0.244
-293.676	800.000	0.092	0.335
-292.662	800.000	-0.037	0.128
-291.647	800.000	0.119	0.375
-290.632	140.138	-0.084	0.111
-289.618	-22.084	-0.129	0.079
-288.603	45.937	-0.038	-0.035
-287.589	-30.131	0.246	0.140
-286.574	-158.950	-0.242	-0.014
-285.559	113.741	-0.141	0.172
-284.545	-200.000	0.017	-0.099
-283.530	-73.409	0.160	-0.059
-282.516	568.947	0.165	-0.402
-281.501	31.022	-0.097	-0.084
-280.486	-58.017	-0.230	-0.101
-279.472	-54.609	0.241	-0.110
-278.457	-120.266	-0.165	-0.028
-277.443	84.647	-0.037	0.040
-276.428	12.887	0.220	0.171
-275.413	283.855	-0.128	-0.231
-274.399	800.000	-0.084	-0.240
-273.384	153.571	-0.144	-0.198
-272.370	-200.000	0.068	-0.353
-271.355	-78.448	0.277	-0.095
-270.340	800.000	-0.053	0.214
-269.326	75.265	-0.238	-0.253
-268.311	64.898	0.232	0.235
-267.297	0.503	0.227	0.163
-266.282	-200.000	-0.027	0.240
-265.267	-70.251	-0.337	0.128
-264.253	124.779	0.140	0.177
-263.238	760.163	-0.041	0.112
-262.224	-148.415	-0.118	-0.010
-261.209	800.000	0.024	-0.066
-260.195	322.703	0.176	-0.338
-259.180	-200.000	0.006	-0.123
-258.165	335.976	-0.121	0.235
-257.151	-177.808	0.217	0.005
-256.136	142.130	0.110	-0.147
-255.122	-9.043	-0.169	-0.113
-254.107	-162.310	-0.307	0.015
-253.092	476.111	0.141	-0.319
-252.078	-124.097	-0.106	0.017
-251.063	89.372	0.178	-0.199
-250.049	-200.000	0.063	-0.326
-249.034	-200.000	0.029	-0.135
-248.019	58.180	0.105	0.103
-247.005	484.141	-0.191	0.436
-245.990	-140.672	0.230	0.024
-244.976	635.624	-0.056	-0.142
-243.961	519.912	-0.137	0.322
-242.946	274.394	-0.175	0.310
-241.932	451.160	0.051	-0.113
-240.917	88.361	0.186	-0.208
-239.903	-54.930	0.239	-0.108
-238.888	-32.352	0.112	0.063
-237.873	327.262	-0.137	-0.263
-236.859	-100.749	0.140	0.035
-235.844	109.509	-0.170	0.204
-234.830	284.388	-0.164	0.296
-233.815	-160.306	-0.207	0.011
-232.800	-200.000	0.041	-0.296
-231.786	-47.759	0.300	-0.146
-230.771	-151.670	-0.320	-0.024
-229.757	140.753	0.130	-0.173
-228.742	87.007	-0.225	0.250
-227.727	-95.409	-0.170	-0.046
-226.713	-200.000	-0.008	0.140
-225.698	-88.628	0.143	-0.043
-224.684	-138.073	-0.235	-0.026
-223.669	-200.000	-0.019	-0.288
-222.655	107.853	-0.025	-0.030
-221.640	800.000	0.046	-0.152
-220.625	-38.227	-0.117	-0.062
-219.611	14.770	0.140	0.110
-218.596	800.000	0.099	-0.418
-217.582	136.363	0.095	-0.124
-216.567	-60.879	-0.023	-0.010
-215.552	32.173	0.217	0.187
-214.538	-200.000	0.004	0.134
-213.523	-131.196	-0.089	0.012
-212.509	800.000	0.147	0.508
-211.494	-68.273	0.268	-0.104
-210.479	351.924	-0.027	0.055
-209.465	-200.000	-0.031	-0.173
-208.450	-200.000	0.012	0.059
-207.436	-36.770	-0.023	0.013
-206.421	-200.000	0.033	0.222
-205.406	-115.086	0.307	0.058
-204.392	485.643	-0.092	-0.210
-203.377	-200.000	-0.020	0.181
-202.363	-200.000	0.094	0.533
-201.348	-200.000	-0.035	0.341
-200.333	-200.000	0.028	0.332
-199.319	165.311	-0.201	-0.284
-198.304	209.444	-0.124	-0.195
-197.290	-23.758	-0.123	0.074
-196.275	-200.000	-0.016	0.165
-195.260	58.660	0.087	0.085
-194.246	109.278	0.187	0.224
-193.231	800.000	0.045	-0.157
-192.217	22.661	0.182	-0.149
-191.202	-69.101	0.191	0.074
-190.187	800.000	-0.112	-0.357
-189.173	-84.414	-0.070	-0.022
-188.158	35.229	0.111	-0.097
-187.144	-126.243	0.270	0.040
-186.129	744.489	0.043	-0.115
-185.114	-200.000	0.027	0.248
-184.100	8.094	0.186	0.140
-183.085	36.310	-0.208	-0.184
-182.071	92.899	-0.040	-0.045
-181.056	-15.607	-0.224	0.143
-180.042	-200.000	-0.031	0.147
-179.027	-58.282	0.265	-0.116
-178.012	-80.678	-0.079	-0.026
-176.998	800.000	0.015	-0.066
-175.983	5.758	0.223	0.165
-174.969	268.438	0.140	-0.246
-173.954	-171.096	0.217	-0.007
-172.939	-200.000	0.021	-0.120
-171.925	-84.417	0.095	-0.030
-170.910	233.160	-0.075	-0.123
-169.896	-158.062	0.065	-0.004
-168.881	-141.071	0.157	0.016
-167.866	-34.782	0.406	0.222
-166.852	57.219	-0.098	0.096
-165.837	-87.794	-0.181	0.055
-164.823	-188.403	0.573	0.007
-163.808	-9.845	0.247	-0.164
-162.793	-200.000	-0.013	0.080
-161.779	178.158	-0.249	0.364
-160.764	792.535	0.070	0.191
-159.750	99.605	-0.230	0.266
-158.735	39.624	-0.174	0.156
-157.720	-7.312	-0.048	0.033
-156.706	-200.000	0.009	0.109
-155.691	81.367	-0.090	-0.097
-154.677	-87.495	-0.373	0.113
-153.662	600.572	0.033	0.082
-152.647	800.000	0.031	-0.104
-151.633	159.668	-0.202	-0.281
-150.618	110.571	0.099	-0.119
-149.604	800.000	0.034	-0.130
-148.589	800.000	-0.056	-0.181
-147.574	538.349	-0.072	0.172
-146.560	-41.392	0.118	-0.061
-145.545	-200.000	-0.025	-0.151
-144.531	800.000	-0.062	0.203
-143.516	-200.000	0.017	-0.115
-142.502	-18.071	-0.030	0.019
-141.487	50.782	-0.190	0.180
-140.472	-112.595	-0.072	-0.014
-139.458	235.669	-0.156	-0.258
-138.443	193.845	-0.176	0.267
-137.429	236.616	-0.018	-0.029
-136.414	800.000	-0.048	0.171
-135.399	800.000	-0.041	0.150
-134.385	85.049	0.149	-0.163
-133.370	329.998	0.166	-0.320
-132.356	173.129	-0.053	-0.076
-131.341	62.552	0.269	0.268
-130.326	-152.067	-0.207	-0.015
-129.312	-200.000	-0.050	0.221
-128.297	800.000	-0.113	0.332
-127.283	64.658	-0.212	-0.214
-126.268	-155.232	-0.010	0.001
-125.253	5.636	0.126	0.093
-124.239	-84.867	-0.361	0.113
-123.224	2.092	-0.148	-0.107
-122.210	67.436	0.177	0.181
-121.195	-117.505	0.223	0.040
