DTS Sentinel unit serial number:	SN413079Multiplexer serial number:	ORYXHardware model number:	OX4-SRSoftware version number:	ORYX F/W v4.00 Oryx Data Collector v3.7.2.0data status	okinstallation	princeton_trtdifferential loss correction	single-endedforward channel	channel 4reverse channel	N/Adate	2019/09/19time	07:33:35forward acquisition time	60.00reverse acquisition time	0.00gamma	496.2192k internal	0.2339k external	0.2339temperature offset calibration	1.0025default loss term (dB/km)	0.3790temperature slope calibration	1.0000multiplexer offset coefficient	1.0000multiplexer slope coefficient	1.0000fibre end	0.00T internal ref (°C)	19.30T ext. ref 1 (°C)	0.55T ext. ref 2 (°C)	14.11length (m)	temperature (°C)	Stokes	anti-Stokes-747.200	-133.313	0.438	0.055
-746.185	-6.389	-0.226	0.155
-745.171	-200.000	-0.020	0.607
-744.156	-34.290	-0.456	0.251
-743.142	-51.063	0.324	0.153
-742.127	-36.136	-0.236	0.128
-741.112	-38.809	-0.020	0.011
-740.098	-31.954	-0.210	0.118
-739.083	-181.571	0.306	0.006
-738.069	460.514	0.035	0.078
-737.054	-71.140	-0.179	-0.067
-736.039	349.070	-0.078	-0.155
-735.025	76.837	0.122	0.130
-734.010	-90.597	-0.597	0.173
-732.996	-200.000	0.072	-0.462
-731.981	-113.578	-0.294	0.058
-730.966	53.083	-0.130	-0.125
-729.952	310.280	-0.066	-0.124
-728.937	-5.088	-0.141	-0.098
-727.923	220.992	0.096	0.155
-726.908	-148.865	-0.112	-0.009
-725.894	-91.889	-0.346	-0.098
-724.879	58.870	-0.234	-0.230
-723.864	349.741	0.099	0.196
-722.850	-200.000	0.018	0.124
-721.835	-54.931	-0.409	0.185
-720.821	-64.017	-0.243	0.099
-719.806	-200.000	-0.023	-0.242
-718.791	-176.880	0.105	-0.003
-717.777	-85.736	0.191	-0.059
-716.762	-200.000	0.010	0.306
-715.748	-72.924	-0.117	0.043
-714.733	-103.081	0.236	-0.056
-713.718	214.173	-0.130	0.206
-712.704	440.328	-0.162	-0.354
-711.689	-32.137	0.093	0.052
-710.675	-86.973	0.110	0.034
-709.660	-200.000	0.017	-0.297
-708.645	-41.479	-0.118	-0.061
-707.631	-120.591	-0.089	0.015
-706.616	-121.478	-0.092	0.015
-705.602	693.699	-0.055	-0.144
-704.587	-200.000	0.007	-0.118
-703.572	-169.599	0.277	-0.010
-702.558	177.382	0.101	-0.148
-701.543	-50.242	-0.182	-0.086
-700.529	74.320	0.073	0.077
-699.514	-200.000	-0.010	-0.242
-698.499	-2.728	0.313	0.219
-697.485	22.720	-0.159	0.131
-696.470	-67.489	0.193	-0.076
-695.456	-59.913	0.262	0.112
-694.441	-200.000	-0.018	-0.222
-693.426	437.325	-0.074	0.161
-692.412	800.000	0.078	-0.247
-691.397	-200.000	-0.003	0.026
-690.383	204.996	-0.020	-0.031
-689.368	-162.675	0.058	0.003
-688.354	605.269	0.063	0.158
-687.339	-200.000	0.017	-0.136
-686.324	-200.000	-0.064	0.371
-685.310	-75.990	-0.163	0.058
-684.295	-38.536	-0.507	0.268
-683.281	-40.756	-0.276	0.143
-682.266	329.375	-0.171	0.328
-681.251	449.818	0.078	-0.171
-680.237	-117.591	-0.021	-0.004
-679.222	800.000	0.009	-0.036
-678.208	-160.667	-0.011	0.001
-677.193	800.000	0.062	-0.269
-676.178	-57.491	0.115	-0.051
-675.164	-96.665	-0.230	-0.061
-674.149	-133.698	0.160	-0.020
-673.135	800.000	-0.082	0.293
-672.120	52.838	-0.130	0.124
-671.105	-91.744	0.217	-0.062
-670.091	-31.572	0.089	0.050
-669.076	140.024	0.060	0.080
-668.062	-43.699	-0.045	-0.023
-667.047	-41.212	0.101	-0.052
-666.032	-51.309	-0.096	-0.045
-665.018	-30.201	-0.161	-0.092
-664.003	-53.735	-0.272	-0.124
-662.989	-200.000	-0.012	-0.432
-661.974	-98.961	0.030	-0.008
-660.959	-200.000	-0.017	-0.277
-659.945	-13.675	-0.151	-0.098
-658.930	-74.058	0.081	-0.029
-657.916	121.101	-0.082	-0.102
-656.901	-146.555	-0.181	0.016
-655.886	800.000	0.032	-0.102
-654.872	47.365	-0.109	-0.102
-653.857	800.000	-0.061	0.170
-652.843	93.289	0.191	-0.216
-651.828	758.915	-0.049	0.133
-650.814	-20.939	0.188	-0.115
-649.799	-115.506	0.426	0.080
-648.784	-139.943	0.272	0.029
-647.770	-200.000	0.010	-0.250
-646.755	261.916	0.095	-0.165
-645.741	-41.610	-0.104	0.054
-644.726	166.192	-0.116	0.164
-643.711	396.246	0.017	-0.035
-642.697	-104.922	-0.012	-0.003
-641.682	-173.431	-0.186	-0.006
-640.668	800.000	0.093	-0.284
-639.653	141.868	0.119	0.158
-638.638	207.658	-0.112	0.175
-637.624	382.718	0.127	-0.261
-636.609	153.941	-0.218	-0.298
-635.595	-99.048	0.158	-0.040
-634.580	-1.118	-0.067	-0.048
-633.565	251.082	-0.196	0.333
-632.551	22.983	0.177	-0.145
-631.536	525.355	-0.107	-0.250
-630.522	786.173	-0.089	0.245
-629.507	-200.000	0.047	0.262
-628.492	149.165	0.166	0.224
-627.478	-159.264	-0.112	0.006
-626.463	-200.000	0.004	0.073
-625.449	-122.452	-0.154	-0.025
-624.434	800.000	-0.123	0.394
-623.419	800.000	-0.070	-0.301
-622.405	-53.331	0.158	0.072
-621.390	800.000	0.007	-0.029
-620.376	800.000	-0.038	-0.119
-619.361	212.093	-0.102	-0.160
-618.346	-40.605	0.273	0.141
-617.332	-200.000	0.043	-0.307
-616.317	463.760	0.136	0.303
-615.303	511.636	0.031	-0.072
-614.288	391.824	0.043	-0.089
-613.273	-0.766	-0.052	-0.037
-612.259	-33.596	0.081	0.045
-611.244	-51.798	-0.160	-0.075
-610.230	-61.318	-0.097	0.041
-609.215	-200.000	-0.023	-0.211
-608.201	-198.512	-0.208	-0.001
-607.186	0.290	-0.134	0.095
-606.171	800.000	0.025	-0.090
-605.157	-200.000	0.017	0.081
-604.142	162.900	-0.183	-0.257
-603.128	604.196	-0.095	0.236
-602.113	-200.000	0.068	0.457
-601.098	-84.005	-0.305	-0.097
-600.084	49.149	-0.119	-0.112
-599.069	-68.977	-0.142	0.055
-598.055	179.488	0.037	0.054
-597.040	479.928	-0.106	-0.240
-596.025	-116.849	0.123	-0.022
-595.011	-17.853	-0.209	-0.131
-593.996	-106.649	0.264	-0.059
-592.982	-200.000	0.020	0.312
-591.967	-13.234	-0.132	-0.085
-590.952	156.233	-0.147	0.203
-589.938	-200.000	0.004	-0.450
-588.923	-97.712	0.050	-0.013
-587.909	-78.007	0.244	0.084
-586.894	-138.758	-0.110	-0.012
-585.879	-91.330	0.074	-0.021
-584.865	-63.366	0.287	0.118
-583.850	-115.960	-0.409	-0.076
-582.836	162.990	0.105	0.146
-581.821	-200.000	-0.007	0.133
-580.806	270.721	0.073	0.129
-579.792	36.164	-0.211	0.185
-578.777	-200.000	0.025	-0.402
-577.763	29.661	0.179	0.152
-576.748	-48.667	-0.360	-0.172
-575.733	800.000	0.054	-0.167
-574.719	-85.138	-0.247	0.077
-573.704	-160.962	0.406	0.021
-572.690	-52.573	-0.119	-0.055
-571.675	121.070	0.051	-0.063
-570.661	143.367	-0.182	0.241
-569.646	-90.903	-0.096	0.027
-568.631	-85.045	0.203	0.063
-567.617	-84.640	0.087	0.027
-566.602	800.000	-0.105	-0.301
-565.588	-112.110	-0.089	0.018
-564.573	-200.000	0.025	-0.158
-563.558	51.907	-0.482	-0.457
-562.544	25.565	-0.253	-0.210
-561.529	-43.609	0.081	-0.041
-560.515	42.477	0.263	0.239
-559.500	169.797	0.070	0.100
-558.485	3.336	0.101	-0.073
-557.471	86.788	0.125	-0.138
-556.456	-67.540	-0.317	0.124
-555.442	99.232	-0.087	0.100
-554.427	58.941	-0.200	-0.196
-553.412	-108.666	-0.231	-0.049
-552.398	800.000	0.067	-0.185
-551.383	-64.200	-0.111	0.045
-550.369	-56.919	0.180	-0.079
-549.354	11.056	0.110	0.084
-548.339	32.275	0.089	0.076
-547.325	32.512	-0.281	0.242
-546.310	-148.677	0.088	-0.007
-545.296	-55.785	-0.222	-0.099
-544.281	283.532	0.137	-0.244
-543.266	-200.000	-0.013	-0.204
-542.252	6.828	0.211	0.156
-541.237	-67.875	0.200	0.078
-540.223	283.051	-0.114	0.204
-539.208	-133.500	-0.107	-0.013
-538.193	-200.000	-0.026	-0.221
-537.179	800.000	-0.020	-0.080
-536.164	228.113	0.091	0.147
-535.150	126.441	0.243	0.306
-534.135	604.309	0.049	-0.122
-533.121	26.993	-0.252	-0.210
-532.106	310.042	-0.154	0.287
-531.091	-140.184	-0.134	0.014
-530.077	73.736	0.184	-0.192
-529.062	-67.424	-0.068	-0.026
-528.048	-11.268	-0.347	0.227
-527.033	227.096	0.108	0.174
-526.018	-190.574	0.168	0.002
-525.004	800.000	0.011	0.032
-523.989	-160.147	-0.049	-0.003
-522.975	-110.395	0.159	0.033
-521.960	-80.477	0.223	-0.074
-520.945	6.337	-0.182	0.134
-519.931	-112.161	0.332	-0.066
-518.916	800.000	-0.039	0.110
-517.902	-200.000	0.010	-0.045
-516.887	19.170	-0.207	0.165
-515.872	800.000	-0.019	-0.064
-514.858	-200.000	0.010	0.279
-513.843	586.715	0.110	-0.269
-512.829	574.030	-0.106	-0.256
-511.814	-11.328	0.090	-0.059
-510.799	237.902	-0.122	0.201
-509.785	-141.876	-0.099	0.010
-508.770	-200.000	0.009	-0.215
-507.756	-41.427	-0.164	-0.084
-506.741	-75.397	0.229	0.081
-505.726	249.194	-0.043	-0.072
-504.712	-37.393	0.252	0.134
-503.697	468.614	-0.077	0.172
-502.683	-172.061	-0.157	0.005
-501.668	-200.000	-0.014	0.388
-500.653	5.783	0.038	-0.028
-499.639	10.945	0.205	0.156
-498.624	-55.382	-0.102	-0.046
-497.610	-119.642	-0.085	0.015
-496.595	3.385	0.289	-0.209
-495.581	13.782	-0.095	-0.074
-494.566	-200.000	-0.031	-0.171
-493.551	800.000	0.070	0.204
-492.537	171.896	0.125	-0.178
-491.522	-200.000	0.009	0.263
-490.508	-200.000	-0.054	-0.243
-489.493	-120.523	0.301	0.051
-488.478	-121.973	0.389	-0.064
-487.464	7.161	0.078	0.057
-486.449	-51.209	0.385	-0.179
-485.435	776.743	-0.079	-0.214
-484.420	5.391	-0.087	0.064
-483.405	-200.000	-0.042	-0.245
-482.391	-128.303	-0.166	0.023
-481.376	-200.000	0.019	-0.201
-480.362	800.000	-0.057	0.215
-479.347	17.719	-0.038	0.030
-478.332	-97.186	-0.097	-0.025
-477.318	211.072	0.106	0.166
-476.303	-6.725	0.229	0.154
-475.289	800.000	0.041	0.124
-474.274	-166.339	-0.249	0.010
-473.259	-106.588	-0.066	-0.015
-472.245	-200.000	-0.016	0.143
-471.230	-21.865	0.287	0.173
-470.216	800.000	-0.033	-0.094
-469.201	-20.016	-0.062	0.038
-468.186	800.000	0.047	0.142
-467.172	-125.760	0.099	0.015
-466.157	140.576	-0.134	-0.176
-465.143	107.998	0.134	-0.158
-464.128	-73.846	-0.124	0.045
-463.113	-60.566	0.236	-0.099
-462.099	116.080	-0.172	0.209
-461.084	-175.692	0.184	0.005
-460.070	6.226	0.168	0.123
-459.055	54.615	-0.157	-0.151
-458.040	317.098	-0.049	-0.091
-457.026	68.096	-0.322	-0.327
-456.011	-200.000	0.002	-0.374
-454.997	282.709	0.063	0.111
-453.982	47.667	0.102	0.094
-452.968	-200.000	0.042	-0.274
-451.953	150.508	0.194	0.261
-450.938	266.119	0.119	0.206
-449.924	-44.095	0.052	-0.026
-448.909	479.754	-0.165	0.370
-447.895	144.772	-0.131	-0.174
-446.880	800.000	-0.071	-0.292
-445.865	-200.000	-0.016	-0.208
-444.851	-14.556	0.376	0.240
-443.836	-200.000	0.024	0.218
-442.822	-12.515	-0.165	0.106
-441.807	800.000	0.073	0.283
-440.792	-110.889	-0.239	-0.049
-439.778	49.874	0.114	0.106
-438.763	44.069	-0.160	-0.145
-437.749	65.654	-0.143	0.144
-436.734	54.596	-0.153	0.147
-435.719	119.495	0.073	0.090
-434.705	-53.275	-0.288	-0.131
-433.690	141.330	0.120	-0.157
-432.676	30.012	0.141	0.119
-431.661	108.667	-0.221	-0.262
-430.646	-200.000	-0.021	-0.119
-429.632	-184.404	0.155	-0.003
-428.617	-62.816	-0.111	0.045
-427.603	-64.384	0.418	-0.168
-426.588	-200.000	-0.004	0.132
-425.573	240.982	-0.097	0.160
-424.559	-0.349	-0.164	-0.115
-423.544	-185.850	0.110	-0.002
-422.530	-124.066	-0.233	0.036
-421.515	148.598	-0.043	0.058
-420.500	27.400	0.172	-0.143
-419.486	-29.248	0.365	0.207
-418.471	-42.629	0.243	-0.122
-417.457	-200.000	-0.008	-0.041
-416.442	-114.485	0.118	-0.022
-415.428	293.674	-0.085	-0.154
-414.413	120.891	-0.169	0.208
-413.398	800.000	-0.073	0.299
-412.384	-73.156	-0.294	0.107
-411.369	800.000	-0.044	0.160
-410.355	-141.913	-0.174	0.017
-409.340	-200.000	-0.015	0.128
-408.325	-84.446	0.046	0.014
-407.311	800.000	0.089	-0.288
-406.296	-2.283	0.150	-0.104
-405.282	71.582	0.275	0.282
-404.267	-94.086	-0.275	-0.075
-403.252	-2.803	0.033	-0.023
-402.238	800.000	-0.116	-0.432
-401.223	81.748	0.133	0.143
-400.209	403.730	-0.119	0.248
-399.194	-35.147	-0.023	-0.013
-398.179	800.000	0.011	-0.031
-397.165	325.419	-0.081	-0.154
-396.150	231.115	-0.056	0.091
-395.136	45.203	-0.094	0.085
-394.121	-102.864	0.085	-0.020
-393.106	561.163	0.117	-0.281
-392.092	605.783	0.075	-0.185
-391.077	19.551	-0.148	0.118
-390.063	-200.000	0.049	0.228
-389.048	-137.838	-0.417	-0.046
-388.033	800.000	0.045	0.181
-387.019	-34.432	-0.259	0.140
-386.004	90.543	0.063	-0.069
-384.990	800.000	-0.063	0.272
-383.975	693.139	0.123	-0.318
-382.960	-76.769	-0.081	-0.028
-381.946	-161.838	-0.151	0.008
-380.931	-110.410	-0.329	-0.068
-379.917	526.661	-0.149	-0.348
-378.902	150.165	-0.119	-0.160
-377.888	-84.672	-0.319	-0.099
-376.873	229.279	0.093	-0.150
-375.858	-37.952	0.316	-0.166
-374.844	-6.395	0.200	-0.135
-373.829	-89.812	0.526	-0.152
-372.815	-19.963	0.087	-0.053
-371.800	667.787	-0.156	0.400
-370.785	68.068	-0.121	-0.123
-369.771	800.000	0.068	-0.194
-368.756	800.000	-0.116	-0.450
-367.742	145.406	0.106	0.140
-366.727	-127.746	0.210	0.030
-365.712	800.000	0.037	-0.140
-364.698	-78.878	-0.283	0.095
-363.683	-145.800	0.142	0.012
-362.669	24.507	-0.213	0.174
-361.654	96.628	-0.075	-0.085
-360.639	-90.846	-0.256	0.073
-359.625	3.912	-0.128	-0.092
-358.610	-57.046	0.318	0.139
-357.596	-200.000	-0.017	0.123
-356.581	-99.592	-0.044	0.011
-355.566	-109.713	0.056	-0.012
-354.552	-11.977	-0.210	-0.136
-353.537	219.034	-0.071	0.113
-352.523	-79.720	0.212	-0.071
-351.508	-49.581	-0.212	0.100
-350.493	-86.498	0.223	0.068
-349.479	-90.102	0.089	-0.026
-348.464	-31.967	0.099	0.055
-347.450	-200.000	0.042	0.249
-346.435	800.000	0.037	0.160
-345.420	-40.051	-0.191	0.098
-344.406	-200.000	-0.032	0.230
-343.391	800.000	-0.019	0.063
-342.377	-176.237	0.143	-0.004
-341.362	738.026	-0.121	0.319
-340.348	-7.042	-0.066	-0.044
-339.333	-109.440	0.201	0.042
-338.318	-200.000	0.049	0.443
-337.304	140.792	0.088	0.115
-336.289	-108.329	0.229	-0.049
-335.275	-200.000	-0.048	0.221
-334.260	-121.516	-0.282	0.046
-333.245	50.384	-0.210	0.196
-332.231	134.594	0.135	-0.173
-331.216	-137.841	0.066	-0.007
-330.202	-200.000	-0.005	-0.079
-329.187	-24.895	-0.156	-0.091
-328.172	800.000	0.023	-0.064
-327.158	152.199	-0.056	0.076
-326.143	-171.563	0.268	0.009
-325.129	-26.341	0.057	-0.033
-324.114	-46.142	-0.201	-0.098
-323.099	-120.357	-0.092	-0.015
-322.085	65.164	-0.123	0.122
-321.070	156.389	0.047	-0.063
-320.056	-173.613	-0.096	0.003
-319.041	153.585	-0.134	0.182
-318.026	104.871	0.041	-0.048
-317.012	58.288	0.218	-0.211
-315.997	-49.625	0.368	0.173
-314.983	-158.759	-0.053	0.003
-313.968	375.810	-0.091	0.184
-312.953	144.154	-0.050	-0.066
-311.939	2.384	0.094	-0.067
-310.924	16.305	-0.396	-0.308
-309.910	-200.000	-0.028	-0.319
-308.895	-68.821	0.086	-0.033
-307.880	-22.160	-0.087	0.052
-306.866	552.265	-0.110	0.260
-305.851	-94.073	0.450	-0.122
-304.837	-72.466	0.240	0.088
-303.822	-39.854	0.208	-0.107
-302.807	-64.231	0.259	-0.104
-301.793	-5.001	0.063	0.043
-300.778	-200.000	-0.022	0.101
-299.764	-100.296	-0.346	-0.085
-298.749	-200.000	-0.049	0.333
-297.735	76.622	-0.268	-0.280
-296.720	-35.105	0.224	0.120
-295.705	30.698	0.090	0.076
-294.691	800.000	-0.040	0.117
-293.676	-200.000	-0.031	-0.303
-292.662	-132.756	-0.050	0.006
-291.647	128.811	0.149	-0.187
-290.632	5.586	0.313	0.228
-289.618	-103.438	-0.245	0.057
-288.603	126.507	0.220	-0.274
-287.589	-83.180	0.301	0.095
-286.574	45.192	0.178	0.162
-285.559	-115.693	-0.202	0.037
-284.545	800.000	-0.068	-0.211
-283.530	-35.770	-0.054	-0.029
-282.516	-200.000	0.040	0.289
-281.501	-2.237	-0.313	0.216
-280.486	309.007	0.103	0.189
-279.472	123.703	0.031	0.038
-278.457	88.369	0.194	-0.212
-277.443	91.861	-0.159	-0.176
-276.428	-65.866	0.127	0.050
-275.413	443.795	-0.027	0.058
-274.399	-27.953	0.105	0.060
-273.384	-117.202	-0.196	0.035
-272.370	-157.864	0.364	-0.021
-271.355	164.051	-0.242	-0.335
-270.340	78.817	0.096	-0.101
-269.326	-117.400	-0.257	0.046
-268.311	-200.000	-0.019	-0.136
-267.297	208.568	-0.058	-0.090
-266.282	122.917	-0.208	-0.256
-265.267	26.493	-0.077	0.063
-264.253	159.892	-0.092	0.125
-263.238	14.204	0.271	0.208
-262.224	425.677	-0.159	-0.337
-261.209	-138.652	-0.273	0.029
-260.195	100.771	-0.095	0.108
-259.180	12.423	-0.217	-0.165
-258.165	-200.000	0.016	-0.108
-257.151	140.773	-0.243	-0.315
-256.136	-200.000	0.000	0.155
-255.122	-149.680	-0.383	-0.030
-254.107	-39.541	0.173	0.089
-253.092	-200.000	0.029	-0.153
-252.078	122.768	-0.200	0.246
-251.063	635.055	-0.064	0.161
-250.049	-190.596	-0.142	0.002
-249.034	-195.277	-0.099	-0.001
-248.019	-87.277	0.172	-0.051
-247.005	-39.915	0.315	0.162
-245.990	468.492	-0.139	0.307
-244.976	-200.000	-0.010	0.294
-243.961	-153.447	-0.276	-0.019
-242.946	-200.000	0.019	-0.090
-241.932	757.725	0.061	0.163
-240.917	56.806	-0.173	0.166
-239.903	407.122	-0.142	-0.296
-238.888	-200.000	0.098	-0.475
-237.873	-97.275	0.092	0.024
-236.859	570.501	0.123	-0.293
-235.844	-160.893	-0.155	0.008
-234.830	544.613	0.073	0.171
-233.815	-66.730	0.101	-0.039
-232.800	54.011	0.128	0.121
-231.786	31.714	-0.123	0.104
-230.771	-200.000	0.028	-0.186
-229.757	-6.801	-0.171	-0.114
-228.742	347.088	0.127	0.246
-227.727	-155.832	0.322	0.020
-226.713	168.377	-0.201	-0.281
-225.698	800.000	0.085	0.300
-224.684	378.101	0.125	-0.250
-223.669	-99.102	0.275	-0.068
-222.655	-19.988	0.192	0.116
-221.640	120.564	-0.070	0.086
-220.625	-200.000	0.011	0.206
-219.611	-10.147	0.162	-0.106
-218.596	-161.197	-0.037	-0.002
-217.582	155.828	-0.266	0.360
-216.567	66.055	-0.068	0.067
-215.552	-95.035	0.161	-0.043
-214.538	-103.584	0.196	0.045
-213.523	43.089	-0.138	-0.124
-212.509	210.900	0.126	-0.195
-211.494	-81.695	-0.460	0.148
-210.479	-40.158	-0.053	-0.027
-209.465	800.000	-0.114	-0.420
-208.450	-142.001	-0.392	0.038
-207.436	70.756	-0.151	0.153
-206.421	158.139	0.033	-0.046
-205.406	284.258	-0.072	-0.127
-204.392	-18.342	0.168	0.103
-203.377	800.000	-0.056	-0.226
-202.363	525.013	-0.067	-0.155
-201.348	39.554	0.254	-0.224
-200.333	37.353	0.123	-0.107
-199.319	-200.000	0.038	0.212
-198.304	22.653	0.248	-0.199
-197.290	161.593	-0.124	-0.171
-196.275	-74.175	0.338	-0.120
-195.260	-170.702	-0.136	0.005
-194.246	-126.623	-0.154	0.022
-193.231	150.788	0.100	-0.133
-192.217	-37.198	0.096	-0.051
-191.202	69.977	-0.041	-0.042
-190.187	800.000	-0.027	-0.075
-189.173	201.828	0.190	-0.287
-188.158	800.000	-0.123	0.378
-187.144	24.263	0.248	0.201
-186.129	234.487	0.163	0.264
-185.114	24.706	-0.268	0.218
-184.100	-77.462	0.179	0.061
-183.085	-87.357	0.655	-0.195
-182.071	-67.826	0.277	-0.106
-181.056	-103.164	0.043	-0.010
-180.042	107.597	0.103	0.121
-179.027	-165.405	0.079	-0.003
-178.012	800.000	0.076	0.315
-176.998	-160.445	0.158	0.008
-175.983	556.677	-0.029	-0.069
-174.969	-76.555	-0.166	0.057
-173.954	87.253	0.129	-0.140
-172.939	295.606	0.012	0.021
-171.925	1.216	0.173	-0.122
-170.910	-200.000	0.058	-0.277
-169.896	-77.398	0.215	-0.073
-168.881	-10.367	0.179	0.116
-167.866	-27.753	-0.207	0.118
-166.852	-200.000	0.025	-0.156
-165.837	123.482	-0.077	0.094
-164.823	5.168	0.101	0.073
-163.808	-108.486	-0.332	0.070
-162.793	-200.000	-0.004	-0.199
-161.779	-200.000	0.031	-0.180
-160.764	800.000	-0.070	0.206
-159.750	71.047	-0.229	-0.232
-158.735	-86.825	0.155	-0.046
-157.720	-30.583	0.160	0.089
-156.706	-200.000	-0.001	0.364
-155.691	46.672	0.057	0.052
-154.677	800.000	-0.017	0.052
-153.662	571.935	-0.080	0.190
-152.647	438.638	0.153	0.326
-151.633	45.587	-0.115	-0.104
-150.618	-111.772	0.268	-0.053
-149.604	-114.513	0.085	0.016
-148.589	72.092	-0.140	0.143
-147.574	-130.717	0.047	0.006
-146.560	800.000	-0.180	0.503
-145.545	-197.534	-0.267	-0.002
-144.531	73.526	0.186	-0.191
-143.516	-110.634	0.048	-0.010
-142.502	-200.000	-0.024	0.269
-141.487	-54.379	0.115	0.051
-140.472	-200.000	-0.015	-0.152
-139.458	-125.735	-0.413	0.061
-138.443	366.454	0.120	0.238
-137.429	-200.000	0.045	-0.238
-136.414	-121.587	0.355	0.058
-135.399	-28.426	-0.259	-0.146
-134.385	800.000	-0.087	0.295
-133.370	158.915	0.292	-0.397
-132.356	454.833	0.134	0.290
-131.341	-173.925	-0.293	0.008
-130.326	175.909	0.041	0.058
-129.312	-133.774	0.133	0.016
-128.297	199.774	0.123	0.184
-127.283	1.047	-0.092	-0.064
-126.268	70.472	-0.215	-0.218
-125.253	-200.000	0.026	-0.158
-124.239	145.167	0.063	0.082
-123.224	-160.519	-0.505	0.026
-122.210	800.000	0.012	0.048
-121.195	147.858	0.228	-0.300
