DTS Sentinel unit serial number:	SN413079Multiplexer serial number:	ORYXHardware model number:	OX4-SRSoftware version number:	ORYX F/W v4.00 Oryx Data Collector v3.7.2.0data status	okinstallation	princeton_trtdifferential loss correction	single-endedforward channel	channel 4reverse channel	N/Adate	2019/09/16time	15:25:35forward acquisition time	60.00reverse acquisition time	0.00gamma	496.2192k internal	0.2287k external	0.2287temperature offset calibration	0.9938default loss term (dB/km)	0.3790temperature slope calibration	1.0000multiplexer offset coefficient	1.0000multiplexer slope coefficient	1.0000fibre end	0.00T internal ref (°C)	41.08T ext. ref 1 (°C)	14.65T ext. ref 2 (°C)	37.54length (m)	temperature (°C)	Stokes	anti-Stokes-747.200	-200.000	-0.020	0.160
-746.185	-72.004	-0.157	-0.060
-745.171	13.363	0.108	0.086
-744.156	-200.000	0.059	0.288
-743.142	-147.802	0.087	-0.007
-742.127	-152.032	0.399	0.030
-741.112	15.504	-0.196	-0.157
-740.098	-38.748	-0.124	0.067
-739.083	-179.134	0.062	0.001
-738.069	800.000	-0.057	0.242
-737.054	-94.271	-0.250	-0.070
-736.039	10.789	-0.114	-0.089
-735.025	-32.039	-0.171	-0.098
-734.010	-127.338	-0.235	0.035
-732.996	311.599	0.151	0.290
-731.981	-51.229	-0.234	-0.112
-730.966	323.977	-0.224	-0.438
-729.952	800.000	-0.046	-0.151
-728.937	310.302	-0.231	-0.443
-727.923	800.000	-0.132	-0.380
-726.908	-15.951	-0.243	-0.159
-725.894	-164.744	-0.206	0.010
-724.879	-166.291	0.166	-0.007
-723.864	-41.981	-0.154	0.081
-722.850	-123.918	-0.064	-0.010
-721.835	11.678	0.127	0.100
-720.821	436.957	-0.026	0.058
-719.806	800.000	-0.082	-0.351
-718.791	192.868	0.153	0.237
-717.777	-69.935	-0.288	0.113
-716.762	-200.000	-0.054	0.328
-715.748	-53.189	0.150	0.071
-714.733	62.002	0.282	-0.288
-713.718	-200.000	-0.004	-0.080
-712.704	132.376	0.204	-0.270
-711.689	172.198	-0.238	-0.351
-710.675	-51.573	-0.135	0.064
-709.660	-5.723	-0.149	-0.104
-708.645	-50.560	0.226	-0.109
-707.631	800.000	0.049	0.139
-706.616	-200.000	-0.062	-0.342
-705.602	454.256	-0.134	0.303
-704.587	-83.801	0.242	-0.079
-703.572	472.488	-0.125	-0.289
-702.558	-36.138	-0.181	-0.100
-701.543	152.426	-0.084	0.118
-700.529	426.987	-0.096	0.212
-699.514	481.525	0.075	0.175
-698.499	-121.869	0.203	0.034
-697.485	-46.104	-0.055	-0.028
-696.470	22.023	0.120	-0.100
-695.456	343.692	0.047	-0.094
-694.441	-45.359	-0.077	0.039
-693.426	-139.451	-0.039	0.004
-692.412	-200.000	-0.005	-0.090
-691.397	-94.089	0.202	0.057
-690.383	-44.296	-0.190	0.098
-689.368	279.985	0.081	0.148
-688.354	-89.504	0.045	-0.014
-687.339	-104.101	-0.201	-0.048
-686.324	-67.864	-0.121	-0.048
-685.310	190.598	0.279	-0.429
-684.295	-200.000	0.023	0.246
-683.281	-200.000	0.061	-0.279
-682.266	0.812	0.184	-0.134
-681.251	282.858	-0.139	0.255
-680.237	67.706	-0.168	-0.176
-679.222	-51.296	0.074	0.035
-678.208	42.877	-0.267	-0.249
-677.193	-133.046	-0.271	0.035
-676.178	-0.608	0.087	0.063
-675.164	735.251	0.115	-0.315
-674.149	-104.559	-0.152	0.036
-673.135	-67.055	0.310	0.125
-672.120	-93.401	0.311	0.088
-671.105	-138.690	0.259	0.029
-670.091	94.565	-0.058	0.068
-669.076	-200.000	-0.045	-0.416
-668.062	-176.362	0.248	-0.007
-667.047	-200.000	0.040	0.320
-666.032	100.702	0.049	0.058
-665.018	146.027	-0.054	-0.074
-664.003	-200.000	-0.329	-0.001
-662.989	113.699	0.125	-0.156
-661.974	70.255	0.142	0.150
-660.959	-23.236	-0.169	0.104
-659.945	-37.796	0.247	0.134
-658.930	-200.000	-0.060	-0.289
-657.916	-16.898	0.183	-0.118
-656.901	-126.737	-0.061	-0.009
-655.886	-87.351	0.044	-0.014
-654.872	-200.000	-0.036	-0.279
-653.857	310.649	-0.089	-0.170
-652.843	-41.058	-0.173	-0.092
-651.828	109.938	0.015	0.019
-650.814	392.325	-0.126	0.269
-649.799	-2.557	-0.230	0.164
-648.784	-127.340	-0.239	-0.036
-647.770	-200.000	-0.009	-0.227
-646.755	-200.000	-0.024	-0.140
-645.741	-69.464	-0.107	0.042
-644.726	593.124	-0.039	-0.098
-643.711	-114.202	0.243	0.048
-642.697	-40.303	-0.202	-0.107
-641.682	0.355	0.172	0.126
-640.668	12.067	-0.039	0.031
-639.653	-74.121	0.213	-0.079
-638.638	-200.000	-0.020	-0.237
-637.624	-15.064	0.090	0.059
-636.609	70.705	-0.126	-0.133
-635.595	-16.718	-0.126	0.082
-634.580	75.011	-0.101	0.108
-633.565	-200.000	0.039	-0.245
-632.551	45.873	0.082	-0.077
-631.536	-200.000	0.026	-0.269
-630.522	638.096	-0.065	0.168
-629.507	598.910	0.066	0.167
-628.492	63.063	0.189	0.193
-627.478	403.532	0.139	0.299
-626.463	-132.125	0.099	-0.013
-625.449	-200.000	-0.025	0.223
-624.434	168.429	0.022	-0.032
-623.419	-200.000	-0.003	-0.149
-622.405	54.641	-0.193	0.190
-621.390	215.116	-0.189	-0.306
-620.376	182.669	-0.071	0.107
-619.361	-200.000	-0.043	0.233
-618.346	37.191	-0.212	-0.192
-617.332	98.827	-0.008	0.009
-616.317	-112.569	0.330	0.067
-615.303	-2.651	-0.074	-0.053
-614.288	198.501	-0.234	-0.366
-613.273	800.000	0.114	-0.345
-612.259	174.164	0.072	0.107
-611.244	92.448	-0.028	0.032
-610.230	-169.428	-0.072	0.003
-609.215	-200.000	-0.044	-0.304
-608.201	-200.000	0.009	-0.166
-607.186	95.432	-0.182	0.212
-606.171	339.315	0.086	-0.171
-605.157	-200.000	0.005	-0.027
-604.142	-83.244	-0.227	-0.074
-603.128	-200.000	-0.166	0.000
-602.113	253.123	0.069	-0.120
-601.098	24.985	0.421	-0.357
-600.084	-35.997	-0.063	0.035
-599.069	204.536	0.130	0.205
-598.055	531.666	-0.071	0.170
-597.040	35.896	0.125	-0.112
-596.025	21.646	0.204	0.169
-595.011	-82.170	-0.069	0.023
-593.996	-7.702	-0.324	-0.223
-592.982	-177.241	-0.220	-0.006
-591.967	800.000	0.124	0.472
-590.952	-200.000	-0.011	0.095
-589.938	-35.626	-0.345	0.191
-588.923	172.200	0.226	0.331
-587.909	-112.638	-0.110	-0.022
-586.894	367.968	-0.101	-0.207
-585.879	800.000	0.079	0.315
-584.865	-200.000	-0.007	0.205
-583.850	552.403	-0.052	-0.127
-582.836	337.076	0.058	-0.114
-581.821	-59.657	-0.120	-0.052
-580.806	179.524	0.065	0.097
-579.792	-200.000	0.019	-0.174
-578.777	-92.990	0.084	-0.024
-577.763	-59.399	-0.144	0.063
-576.748	335.309	-0.128	0.252
-575.733	212.595	-0.101	0.162
-574.719	-105.996	-0.482	-0.110
-573.704	-158.239	-0.087	-0.005
-572.690	26.120	-0.068	-0.058
-571.675	-83.138	-0.070	-0.023
-570.661	16.790	-0.189	0.152
-569.646	-40.583	0.307	0.162
-568.631	-68.886	0.128	0.050
-567.617	-115.987	-0.144	-0.027
-566.602	-112.300	0.037	-0.008
-565.588	-61.567	-0.199	0.085
-564.573	117.330	-0.217	-0.271
-563.558	261.644	0.064	-0.112
-562.544	-88.725	0.122	-0.037
-561.529	-162.009	-0.205	-0.011
-560.515	-200.000	-0.031	0.306
-559.500	-98.124	-0.220	-0.058
-558.485	-108.811	-0.455	-0.099
-557.471	41.959	-0.145	-0.134
-556.456	309.056	0.042	-0.080
-555.442	-25.656	0.261	0.157
-554.427	357.421	0.055	0.113
-553.412	314.008	0.121	0.232
-552.398	-34.412	-0.152	-0.085
-551.383	-185.386	-0.303	-0.005
-550.369	195.629	0.028	-0.043
-549.354	-53.249	-0.232	0.108
-548.339	-52.463	-0.220	0.104
-547.325	130.796	-0.055	0.072
-546.310	42.446	-0.147	-0.136
-545.296	-83.262	0.036	-0.012
-544.281	68.272	0.334	-0.348
-543.266	-55.228	0.149	-0.068
-542.252	-74.975	0.203	-0.074
-541.237	-200.000	-0.030	0.208
-540.223	195.103	-0.076	-0.117
-539.208	800.000	-0.067	0.268
-538.193	800.000	-0.052	0.207
-537.179	800.000	-0.055	-0.232
-536.164	-78.013	0.169	0.059
-535.150	72.932	-0.295	0.313
-534.135	-42.160	-0.082	0.043
-533.121	-200.000	0.029	0.228
-532.106	-200.000	-0.035	-0.227
-531.091	-102.596	0.266	-0.065
-530.077	-74.767	0.183	0.067
-529.062	37.160	0.329	0.296
-528.048	-6.244	-0.284	-0.197
-527.033	-200.000	-0.025	0.205
-526.018	-2.749	-0.065	-0.046
-525.004	-126.571	-0.153	0.023
-523.989	-200.000	-0.013	-0.228
-522.975	800.000	-0.053	-0.196
-521.960	5.806	-0.058	0.043
-520.945	-200.000	-0.020	-0.187
-519.931	-200.000	0.017	-0.083
-518.916	268.919	-0.140	0.250
-517.902	-64.657	0.096	0.040
-516.887	800.000	0.093	-0.267
-515.872	61.206	0.221	0.223
-514.858	-200.000	0.060	-0.307
-513.843	128.097	0.079	0.102
-512.829	-45.838	-0.161	-0.081
-511.814	551.837	0.085	0.207
-510.799	353.824	0.009	-0.017
-509.785	316.039	0.220	-0.423
-508.770	-200.000	-0.012	0.073
-507.756	25.566	-0.070	0.059
-506.741	12.216	0.105	-0.082
-505.726	800.000	-0.076	-0.281
-504.712	-13.523	0.121	-0.080
-503.697	233.322	0.146	0.243
-502.683	800.000	0.041	0.143
-501.668	-200.000	-0.030	0.540
-500.653	-200.000	-0.025	0.133
-499.639	83.278	0.478	0.529
-498.624	-120.658	0.181	0.031
-497.610	-200.000	0.025	-0.173
-496.595	-168.026	-0.220	-0.009
-495.581	-48.984	-0.252	-0.123
-494.566	89.037	0.200	-0.226
-493.551	800.000	-0.069	-0.197
-492.537	-200.000	-0.011	0.175
-491.522	-200.000	-0.026	-0.314
-490.508	452.319	0.150	0.337
-489.493	317.777	-0.129	-0.248
-488.478	-200.000	0.014	-0.432
-487.464	800.000	-0.104	0.349
-486.449	-47.263	0.207	0.102
-485.435	-200.000	0.143	0.001
-484.420	-200.000	-0.024	0.369
-483.405	-96.834	0.297	0.079
-482.391	39.306	-0.234	-0.212
-481.376	456.481	0.097	-0.218
-480.362	138.163	0.241	-0.321
-479.347	800.000	0.075	0.218
-478.332	316.613	-0.034	0.066
-477.318	64.190	-0.156	0.159
-476.303	-75.567	-0.138	0.050
-475.289	-40.385	-0.200	0.106
-474.274	98.029	0.155	-0.181
-473.259	261.155	0.039	0.068
-472.245	201.768	-0.045	0.070
-471.230	-200.000	-0.007	-0.199
-470.216	-9.700	0.131	-0.089
-469.201	-77.337	-0.178	0.063
-468.186	-200.000	-0.006	0.088
-467.172	309.209	0.119	0.226
-466.157	320.658	0.063	0.121
-465.143	82.818	-0.070	0.077
-464.128	-153.130	0.123	-0.009
-463.113	45.121	0.072	-0.067
-462.099	78.238	-0.155	-0.167
-461.084	15.521	-0.175	-0.139
-460.070	800.000	0.041	-0.118
-459.055	-105.369	0.284	0.066
-458.040	-13.456	0.207	-0.136
-457.026	129.735	0.036	0.046
-456.011	106.217	-0.175	-0.210
-454.997	4.302	0.111	0.082
-453.982	-53.750	0.225	-0.104
-452.968	-89.496	-0.437	0.130
-451.953	135.365	0.192	-0.253
-450.938	571.014	0.098	0.241
-449.924	-150.339	-0.272	0.021
-448.909	49.398	-0.152	0.145
-447.895	-67.462	0.094	-0.038
-446.880	800.000	-0.065	0.195
-445.865	-200.000	0.176	0.001
-444.851	99.976	0.188	0.221
-443.836	109.182	0.089	-0.108
-442.822	-159.551	-0.246	-0.014
-441.807	112.876	-0.190	0.234
-440.792	-200.000	0.011	0.051
-439.778	-9.731	-0.095	0.064
-438.763	-79.424	0.323	0.111
-437.749	24.141	0.168	-0.140
-436.734	33.118	-0.230	-0.202
-435.719	800.000	0.018	0.070
-434.705	-66.375	0.454	0.183
-433.690	35.155	0.314	0.279
-432.676	363.373	-0.184	-0.374
-431.661	-130.630	0.305	-0.042
-430.646	390.544	-0.157	-0.329
-429.632	-14.423	-0.224	0.146
-428.617	-138.469	0.278	0.031
-427.603	-84.355	-0.197	0.063
-426.588	-200.000	0.009	-0.110
-425.573	-104.428	-0.236	0.055
-424.559	-97.005	0.042	0.011
-423.544	-200.000	0.051	0.309
-422.530	204.462	-0.045	0.070
-421.515	534.683	0.080	-0.191
-420.500	800.000	-0.050	0.203
-419.486	800.000	0.074	0.296
-418.471	-22.773	0.104	-0.063
-417.457	207.731	0.071	0.113
-416.442	-16.331	-0.183	0.118
-415.428	256.197	-0.115	0.199
-414.413	-200.000	-0.024	-0.284
-413.398	99.445	0.129	-0.151
-412.384	118.098	-0.106	-0.133
-411.369	-29.044	0.205	0.119
-410.355	15.300	0.229	-0.182
-409.340	-12.916	-0.158	0.104
-408.325	-171.115	-0.123	-0.004
-407.311	243.529	0.137	-0.233
-406.296	-128.546	-0.191	0.027
-405.282	51.017	-0.207	0.199
-404.267	-126.071	-0.140	0.021
-403.252	24.131	0.426	-0.356
-402.238	210.461	0.186	-0.295
-401.223	74.251	0.160	0.170
-400.209	550.818	0.026	0.063
-399.194	205.044	-0.099	-0.155
-398.179	-200.000	0.010	0.209
-397.165	34.361	-0.198	0.175
-396.150	92.672	0.091	-0.104
-395.136	-113.987	0.258	-0.051
-394.121	-45.704	-0.050	0.025
-393.106	106.830	0.192	-0.230
-392.092	172.045	-0.085	0.124
-391.077	472.698	0.159	-0.362
-390.063	103.596	0.064	-0.076
-389.048	-200.000	0.024	-0.303
-388.033	-147.697	0.038	0.003
-387.019	-71.910	-0.148	-0.056
-386.004	-179.554	0.171	-0.004
-384.990	-200.000	0.006	-0.136
-383.975	75.864	0.095	-0.102
-382.960	546.058	0.049	-0.119
-381.946	-55.589	0.258	0.117
-380.931	-114.089	-0.360	-0.070
-379.917	-200.000	-0.021	0.135
-378.902	119.781	0.079	-0.099
-377.888	60.076	-0.105	-0.105
-376.873	85.235	-0.082	0.091
-375.858	-140.893	0.196	0.020
-374.844	536.368	-0.034	0.081
-373.829	-200.000	0.059	0.281
-372.815	42.726	-0.279	0.257
-371.800	800.000	0.078	0.278
-370.785	43.823	-0.081	0.075
-369.771	-26.274	-0.349	-0.207
-368.756	-35.492	-0.076	-0.042
-367.742	423.142	-0.075	-0.163
-366.727	67.998	0.168	-0.174
-365.712	220.984	0.140	-0.226
-364.698	-67.805	-0.271	-0.107
-363.683	-43.981	-0.030	0.015
-362.669	800.000	0.030	-0.085
-361.654	148.663	-0.166	-0.227
-360.639	-6.098	0.106	-0.073
-359.625	201.442	0.167	0.260
-358.610	-139.576	-0.063	-0.007
-357.596	-155.451	0.233	0.015
-356.581	-44.973	-0.188	0.095
-355.566	-108.437	0.271	0.059
-354.552	800.000	-0.030	0.089
-353.537	-38.939	-0.107	-0.057
-352.523	214.102	-0.116	-0.186
-351.508	-200.000	0.020	0.338
-350.493	-200.000	-0.021	0.217
-349.479	-6.794	0.126	-0.086
-348.464	-160.373	-0.172	-0.009
-347.450	394.004	0.051	0.107
-346.435	172.086	0.050	-0.072
-345.420	-75.230	-0.106	-0.038
-344.406	-200.000	0.018	0.145
-343.391	83.785	0.161	0.178
-342.377	49.440	0.094	-0.089
-341.362	194.260	-0.044	-0.068
-340.348	-86.726	0.154	0.047
-339.333	-79.649	-0.005	0.002
-338.318	634.146	0.021	0.054
-337.304	-99.222	-0.357	-0.091
-336.289	-170.937	0.242	0.008
-335.275	567.082	0.075	-0.184
-334.260	-200.000	0.004	0.134
-333.245	35.796	-0.425	0.377
-332.231	108.899	-0.095	0.115
-331.216	225.716	-0.098	0.161
-330.202	-105.269	0.182	-0.042
-329.187	800.000	0.017	-0.074
-328.172	-45.776	0.087	-0.044
-327.158	96.079	0.030	-0.035
-326.143	800.000	0.024	-0.093
-325.129	-14.909	0.125	0.081
-324.114	19.765	-0.036	-0.029
-323.099	-4.689	0.194	0.135
-322.085	9.280	-0.049	-0.037
-321.070	-40.484	0.094	0.049
-320.056	-200.000	0.017	-0.186
-319.041	205.144	0.122	-0.191
-318.026	-200.000	-0.018	-0.175
-317.012	-55.134	0.112	0.051
-315.997	232.888	0.106	-0.176
-314.983	800.000	0.045	0.184
-313.968	-38.337	-0.186	-0.099
-312.953	800.000	0.104	0.326
-311.939	127.423	0.269	-0.345
-310.924	-54.603	-0.176	-0.080
-309.910	-200.000	-0.023	-0.266
-308.895	414.018	-0.031	0.067
-307.880	-126.494	0.226	-0.034
-306.866	-51.219	0.454	0.214
-305.851	-6.470	0.141	0.097
-304.837	162.960	-0.074	-0.105
-303.822	250.090	-0.068	0.117
-302.807	-120.906	-0.275	0.047
-301.793	-200.000	-0.037	-0.186
-300.778	-101.363	0.215	-0.053
-299.764	227.378	-0.171	0.281
-298.749	800.000	0.023	0.094
-297.735	-200.000	0.008	0.245
-296.720	185.329	0.039	0.058
-295.705	-182.801	0.162	-0.003
-294.691	-191.700	-0.291	0.003
-293.676	27.267	-0.106	-0.090
-292.662	-200.000	0.008	-0.045
-291.647	114.012	-0.088	-0.108
-290.632	-97.348	-0.150	0.039
-289.618	-70.890	0.244	0.093
-288.603	-78.649	0.211	0.073
-287.589	436.329	-0.076	-0.168
-286.574	79.194	0.223	-0.241
-285.559	-9.048	-0.494	0.333
-284.545	800.000	-0.044	-0.135
-283.530	-63.357	-0.025	-0.010
-282.516	96.191	-0.064	-0.074
-281.501	800.000	-0.048	0.205
-280.486	-200.000	-0.001	-0.130
-279.472	-200.000	0.002	0.110
-278.457	94.369	-0.076	0.087
-277.443	-32.979	0.082	0.046
-276.428	-48.551	-0.127	0.062
-275.413	315.018	-0.085	-0.161
-274.399	-200.000	-0.036	-0.198
-273.384	-200.000	0.001	-0.249
-272.370	-75.006	-0.242	-0.087
-271.355	-200.000	0.040	0.484
-270.340	-41.723	0.347	-0.179
-269.326	800.000	0.125	0.410
-268.311	-35.360	-0.646	0.353
-267.297	-200.000	-0.031	-0.165
-266.282	-174.607	0.090	-0.003
-265.267	-36.279	0.069	0.037
-264.253	230.493	0.100	0.164
-263.238	-76.861	-0.203	0.072
-262.224	97.063	0.232	0.268
-261.209	-129.530	0.345	-0.048
-260.195	-136.412	0.111	-0.013
-259.180	-12.617	-0.217	0.143
-258.165	800.000	-0.121	-0.389
-257.151	-58.362	0.235	0.103
-256.136	739.203	-0.087	-0.235
-255.122	296.081	0.092	0.169
-254.107	357.001	-0.088	-0.177
-253.092	-99.610	-0.154	0.039
-252.078	-180.219	0.431	-0.009
-251.063	327.760	-0.130	0.251
-250.049	596.852	-0.015	0.038
-249.034	-10.246	0.136	0.091
-248.019	-200.000	0.000	0.199
-247.005	-200.000	-0.037	0.225
-245.990	424.376	0.033	-0.071
-244.976	739.350	-0.111	-0.300
-243.961	-200.000	-0.033	0.279
-242.946	-200.000	-0.088	-0.396
-241.932	19.165	-0.179	0.144
-240.917	162.666	0.091	-0.129
-239.903	-97.075	-0.328	-0.086
-238.888	89.380	-0.176	-0.197
-237.873	-200.000	-0.026	0.260
-236.859	70.564	0.098	-0.102
-235.844	-122.732	-0.121	0.020
-234.830	-111.256	0.124	-0.025
-233.815	-54.320	-0.156	-0.071
-232.800	45.872	0.435	-0.404
-231.786	101.058	-0.161	-0.189
-230.771	-130.810	-0.104	-0.014
-229.757	153.082	-0.011	-0.015
-228.742	-118.149	-0.225	-0.040
-227.727	70.505	0.179	-0.186
-226.713	-200.000	0.023	-0.119
-225.698	-103.632	0.093	0.022
-224.684	800.000	0.092	0.301
-223.669	93.646	0.094	-0.107
-222.655	-3.610	0.211	0.148
-221.640	-79.147	0.199	-0.068
-220.625	389.999	0.061	0.127
-219.611	405.596	-0.065	0.139
-218.596	-118.293	-0.152	-0.027
-217.582	-37.518	-0.211	-0.113
-216.567	-132.865	0.280	0.036
-215.552	-200.000	0.023	0.173
-214.538	402.267	0.083	0.175
-213.523	-74.410	0.171	0.062
-212.509	-200.000	0.002	0.121
-211.494	-173.756	0.038	0.001
-210.479	-62.308	-0.301	-0.126
-209.465	-90.189	0.026	0.008
-208.450	25.750	-0.118	0.099
-207.436	460.768	0.114	-0.254
-206.421	620.236	0.078	0.196
-205.406	208.704	-0.148	0.233
-204.392	8.583	0.174	0.132
-203.377	47.197	0.272	-0.254
-202.363	-82.187	-0.415	-0.136
-201.348	-200.000	-0.036	-0.242
-200.333	-144.512	-0.280	0.026
-199.319	-155.140	0.189	-0.012
-198.304	-200.000	-0.036	-0.178
-197.290	800.000	0.091	-0.306
-196.275	-200.000	0.007	-0.253
-195.260	126.640	-0.245	-0.312
-194.246	-142.930	-0.204	0.020
-193.231	447.333	0.032	0.070
-192.217	-151.178	0.384	-0.029
-191.202	-66.309	-0.122	-0.049
-190.187	-90.887	0.074	-0.021
-189.173	-200.000	-0.003	-0.206
-188.158	497.330	0.094	0.216
-187.144	66.235	-0.199	-0.203
-186.129	101.060	0.235	0.275
-185.114	-200.000	0.000	0.213
-184.100	-27.669	-0.142	0.083
-183.085	39.397	0.021	-0.019
-182.071	-70.366	0.179	-0.068
-181.056	197.568	-0.193	0.296
-180.042	-200.000	0.029	0.189
-179.027	106.467	0.141	0.168
-178.012	-200.000	0.026	-0.228
-176.998	226.646	-0.094	-0.153
-175.983	-200.000	0.010	0.083
-174.969	460.502	-0.054	0.121
-173.954	-145.287	-0.049	-0.004
-172.939	608.195	-0.114	-0.285
-171.925	200.253	-0.113	-0.175
-170.910	-200.000	0.004	0.025
-169.896	406.189	0.066	-0.140
-168.881	-200.000	0.008	-0.308
-167.866	-22.577	0.241	-0.146
-166.852	-55.737	0.191	0.086
-165.837	-57.996	-0.179	0.078
-164.823	-100.923	-0.279	0.069
-163.808	-17.171	0.141	-0.089
-162.793	-190.597	0.187	0.002
-161.779	-168.851	0.354	0.013
-160.764	-100.727	-0.340	0.084
-159.750	-131.353	0.134	-0.018
-158.735	-200.000	0.004	0.033
-157.720	-200.000	0.026	0.138
-156.706	224.979	-0.077	-0.124
-155.691	-142.300	-0.141	0.014
-154.677	-200.000	0.028	-0.231
-153.662	216.953	0.109	0.174
-152.647	403.525	0.162	0.343
-151.633	-200.000	-0.047	-0.375
-150.618	-6.056	0.120	0.082
-149.604	661.886	-0.151	0.391
-148.589	-40.699	-0.046	-0.024
-147.574	629.084	0.030	0.075
-146.560	-65.316	-0.136	0.055
-145.545	652.495	-0.125	0.322
-144.531	-200.000	0.030	0.288
-143.516	79.241	0.120	0.129
-142.502	-64.160	-0.052	0.021
-141.487	675.899	0.074	-0.192
-140.472	-200.000	-0.016	0.241
-139.458	301.046	0.026	0.049
-138.443	-137.450	-0.302	0.034
-137.429	-168.138	0.297	-0.012
-136.414	800.000	0.075	0.221
-135.399	-21.852	0.086	0.052
-134.385	-74.214	0.143	0.052
-133.370	800.000	0.028	0.087
-132.356	-137.347	0.173	0.020
-131.341	-114.221	0.115	-0.022
-130.326	-200.000	-0.020	-0.193
-129.312	12.989	-0.111	0.086
-128.297	-80.503	-0.279	0.093
-127.283	22.312	-0.081	0.066
-126.268	-168.681	-0.107	-0.004
-125.253	800.000	-0.142	-0.609
-124.239	135.464	0.119	-0.155
-123.224	-20.314	0.295	-0.182
-122.210	176.341	-0.294	0.428
-121.195	132.772	0.102	-0.132
