DTS Sentinel unit serial number:	SN413079Multiplexer serial number:	ORYXHardware model number:	OX4-SRSoftware version number:	ORYX F/W v4.00 Oryx Data Collector v3.7.2.0data status	okinstallation	princeton_trtdifferential loss correction	single-endedforward channel	channel 4reverse channel	N/Adate	2019/09/11time	23:35:10forward acquisition time	60.00reverse acquisition time	0.00gamma	496.2192k internal	0.2309k external	0.2309temperature offset calibration	1.0079default loss term (dB/km)	0.3790temperature slope calibration	1.0000multiplexer offset coefficient	1.0000multiplexer slope coefficient	1.0000fibre end	0.00T internal ref (°C)	34.16T ext. ref 1 (°C)	1.87T ext. ref 2 (°C)	28.84length (m)	temperature (°C)	Stokes	anti-Stokes-747.200	177.646	-0.160	0.237
-746.185	-116.414	0.268	-0.050
-745.171	445.927	-0.109	-0.243
-744.156	-60.387	-0.295	0.128
-743.142	800.000	-0.142	-0.401
-742.127	-200.000	0.031	0.428
-741.112	-200.000	0.034	0.201
-740.098	-200.000	0.045	0.301
-739.083	97.647	-0.049	0.057
-738.069	-30.797	-0.276	0.158
-737.054	-89.750	-0.206	-0.061
-736.039	-144.838	-0.324	-0.030
-735.025	-41.963	0.223	0.116
-734.010	-62.689	-0.189	-0.080
-732.996	34.796	0.407	-0.361
-731.981	-27.925	-0.167	-0.098
-730.966	4.469	0.137	-0.102
-729.952	800.000	-0.062	-0.276
-728.937	29.276	-0.240	0.207
-727.923	33.458	-0.225	0.199
-726.908	-81.698	-0.453	-0.151
-725.894	43.245	-0.105	0.097
-724.879	779.381	-0.061	0.169
-723.864	-101.259	-0.072	-0.018
-722.850	64.522	-0.140	0.144
-721.835	-182.515	-0.212	0.004
-720.821	-200.000	-0.185	-0.001
-719.806	800.000	0.054	-0.221
-718.791	-200.000	0.032	-0.416
-717.777	40.313	-0.078	0.071
-716.762	800.000	0.043	0.136
-715.748	27.226	0.135	0.115
-714.733	-88.692	0.148	-0.045
-713.718	-200.000	-0.014	0.132
-712.704	37.068	-0.066	-0.059
-711.689	30.886	-0.047	-0.041
-710.675	-129.476	-0.132	-0.019
-709.660	61.114	-0.236	-0.238
-708.645	-43.648	0.518	-0.265
-707.631	567.383	0.082	0.202
-706.616	169.477	0.025	-0.037
-705.602	-200.000	0.005	-0.075
-704.587	800.000	0.049	-0.147
-703.572	800.000	-0.050	-0.213
-702.558	174.435	-0.184	-0.271
-701.543	-200.000	-0.030	-0.356
-700.529	-30.872	-0.207	-0.119
-699.514	-2.657	0.200	-0.142
-698.499	208.511	0.085	-0.135
-697.485	-12.355	0.170	-0.113
-696.470	78.020	-0.172	-0.186
-695.456	-24.849	0.075	-0.045
-694.441	-200.000	-0.017	0.311
-693.426	-26.115	0.362	0.216
-692.412	386.761	-0.239	-0.500
-691.397	127.254	-0.163	-0.210
-690.383	-47.477	-0.033	-0.016
-689.368	426.337	0.107	0.234
-688.354	-141.901	0.069	0.007
-687.339	140.893	-0.198	0.265
-686.324	-200.000	-0.010	-0.349
-685.310	799.864	-0.042	0.116
-684.295	-161.946	0.098	-0.005
-683.281	-200.000	0.054	0.307
-682.266	-35.801	0.185	-0.102
-681.251	262.815	-0.217	-0.382
-680.237	-106.669	0.193	-0.043
-679.222	-25.507	0.199	-0.119
-678.208	-104.445	-0.254	-0.060
-677.193	235.280	0.135	0.226
-676.178	-60.277	-0.294	-0.127
-675.164	539.984	0.180	-0.433
-674.149	800.000	0.059	-0.179
-673.135	149.720	0.125	-0.172
-672.120	-174.569	0.317	-0.009
-671.105	-200.000	-0.059	0.383
-670.091	-132.183	-0.180	0.024
-669.076	-138.725	-0.414	-0.046
-668.062	800.000	0.063	-0.224
-667.047	-172.909	-0.027	0.001
-666.032	-97.236	-0.220	0.058
-665.018	53.159	0.200	0.194
-664.003	71.006	0.099	0.103
-662.989	-23.666	0.144	0.087
-661.974	-59.882	-0.056	-0.024
-660.959	-12.923	0.105	0.069
-659.945	-106.441	-0.191	-0.043
-658.930	-73.415	0.226	-0.084
-657.916	539.916	-0.210	0.506
-656.901	228.502	0.278	0.459
-655.886	-4.922	0.047	0.032
-654.872	-200.000	-0.022	-0.127
-653.857	45.474	0.116	-0.109
-652.843	171.675	-0.115	0.167
-651.828	212.969	-0.167	0.267
-650.814	800.000	0.090	-0.337
-649.799	800.000	0.063	0.215
-648.784	800.000	0.037	0.145
-647.770	34.760	0.185	0.164
-646.755	-200.000	0.048	-0.364
-645.741	-14.602	0.085	-0.056
-644.726	-200.000	-0.014	-0.084
-643.711	-135.559	0.145	0.018
-642.697	800.000	-0.045	-0.165
-641.682	137.521	0.095	-0.126
-640.668	-75.880	-0.293	-0.105
-639.653	-200.000	-0.046	-0.661
-638.638	-34.150	-0.233	0.130
-637.624	179.538	-0.120	0.177
-636.609	-200.000	0.027	0.362
-635.595	800.000	-0.068	0.198
-634.580	800.000	0.056	-0.176
-633.565	-153.950	-0.285	-0.020
-632.551	266.618	-0.028	0.050
-631.536	-82.998	-0.112	-0.036
-630.522	143.457	-0.195	0.263
-629.507	203.343	0.234	-0.366
-628.492	-200.000	-0.012	0.489
-627.478	-42.159	-0.238	0.123
-626.463	-162.485	0.197	-0.010
-625.449	800.000	-0.042	-0.139
-624.434	134.673	0.049	-0.064
-623.419	107.263	-0.202	-0.243
-622.405	-75.208	0.172	0.062
-621.390	-137.149	0.144	-0.017
-620.376	163.116	-0.208	-0.295
-619.361	-200.000	0.012	-0.062
-618.346	9.557	0.077	0.059
-617.332	-162.742	-0.152	-0.008
-616.317	280.420	-0.166	-0.300
-615.303	800.000	0.089	-0.280
-614.288	-31.778	-0.120	-0.068
-613.273	24.760	-0.217	0.182
-612.259	49.917	0.161	-0.154
-611.244	64.817	-0.131	-0.134
-610.230	22.189	-0.241	0.199
-609.215	-122.733	0.219	-0.036
-608.201	-82.717	0.339	-0.111
-607.186	76.677	0.180	-0.193
-606.171	455.003	0.074	0.166
-605.157	-95.231	0.290	0.079
-604.142	83.735	0.080	-0.088
-603.128	12.324	0.208	-0.162
-602.113	-30.131	0.216	0.124
-601.098	273.867	-0.137	0.244
-600.084	155.685	-0.223	-0.310
-599.069	278.633	0.003	0.005
-598.055	-197.826	0.211	0.001
-597.040	57.523	-0.232	-0.229
-596.025	8.489	0.058	0.044
-595.011	-122.200	-0.126	-0.021
-593.996	85.604	0.161	0.179
-592.982	127.525	0.111	0.142
-591.967	-180.787	-0.394	0.008
-590.952	-27.802	0.328	0.192
-589.938	-200.000	-0.038	0.239
-588.923	-128.582	-0.145	0.021
-587.909	-200.000	-0.002	0.153
-586.894	-72.436	0.208	-0.078
-585.879	-200.000	-0.008	0.249
-584.865	488.126	0.167	0.386
-583.850	2.965	-0.205	-0.150
-582.836	331.065	0.041	0.081
-581.821	-200.000	-0.081	0.374
-580.806	-41.092	0.343	0.179
-579.792	-200.000	-0.003	0.084
-578.777	800.000	-0.096	-0.349
-577.763	9.310	-0.353	-0.269
-576.748	-82.339	-0.085	0.028
-575.733	800.000	0.092	0.313
-574.719	-33.046	0.191	-0.107
-573.704	-29.421	0.070	-0.040
-572.690	-200.000	0.009	-0.232
-571.675	-151.700	-0.316	0.024
-570.661	237.519	0.151	-0.253
-569.646	-200.000	0.028	-0.177
-568.631	-200.000	-0.015	-0.470
-567.617	-141.368	0.194	-0.020
-566.602	-200.000	0.046	-0.494
-565.588	800.000	-0.039	-0.166
-564.573	244.853	-0.145	0.247
-563.558	628.011	0.040	-0.101
-562.544	-200.000	0.006	0.172
-561.529	-200.000	0.002	0.109
-560.515	-200.000	-0.019	-0.298
-559.500	767.100	0.040	0.111
-558.485	247.504	-0.059	0.100
-557.471	-34.052	0.266	0.147
-556.456	-9.880	-0.236	-0.159
-555.442	800.000	0.070	0.306
-554.427	38.961	-0.291	0.263
-553.412	616.266	-0.049	0.124
-552.398	-200.000	-0.069	0.305
-551.383	-108.269	-0.231	-0.050
-550.369	359.151	0.065	0.131
-549.354	-97.218	0.332	0.087
-548.339	610.276	0.092	-0.232
-547.325	-23.356	0.139	0.084
-546.310	15.210	-0.086	-0.068
-545.296	800.000	0.098	-0.276
-544.281	800.000	-0.078	-0.242
-543.266	-200.000	0.024	-0.214
-542.252	103.784	-0.142	0.168
-541.237	-151.500	0.340	-0.025
-540.223	-79.234	-0.363	0.124
-539.208	-12.639	-0.292	-0.192
-538.193	-200.000	-0.033	-0.381
-537.179	67.388	0.201	0.206
-536.164	-114.380	0.077	-0.015
-535.150	698.593	0.178	0.473
-534.135	-43.441	-0.236	0.120
-533.121	192.761	0.160	-0.243
-532.106	-200.000	-0.032	0.172
-531.091	668.875	0.070	0.183
-530.077	31.753	0.216	-0.187
-529.062	150.651	0.191	-0.261
-528.048	90.398	0.109	0.123
-527.033	-193.412	-0.045	0.000
-526.018	257.917	-0.069	-0.119
-525.004	-98.602	-0.379	0.097
-523.989	-150.897	0.109	-0.008
-522.975	-43.253	-0.199	-0.102
-521.960	16.523	0.277	-0.220
-520.945	-200.000	0.035	0.193
-519.931	116.068	-0.066	0.081
-518.916	-200.000	-0.051	0.272
-517.902	-200.000	0.043	0.243
-516.887	-200.000	0.002	0.084
-515.872	-119.753	0.578	-0.100
-514.858	-200.000	0.045	-0.281
-513.843	-132.381	-0.318	-0.041
-512.829	245.744	0.043	0.074
-511.814	216.434	-0.190	-0.304
-510.799	64.588	0.163	0.166
-509.785	-200.000	0.054	-0.520
-508.770	800.000	0.040	-0.115
-507.756	800.000	-0.098	-0.358
-506.741	93.332	0.188	-0.214
-505.726	-162.769	0.235	-0.012
-504.712	24.727	-0.069	-0.058
-503.697	-200.000	0.022	0.186
-502.683	-200.000	0.040	-0.293
-501.668	-200.000	-0.000	-0.020
-500.653	-200.000	0.009	0.276
-499.639	10.886	-0.202	0.155
-498.624	800.000	0.043	0.173
-497.610	293.613	-0.257	-0.472
-496.595	-200.000	-0.053	-0.399
-495.581	-63.637	-0.250	-0.103
-494.566	-200.000	0.019	-0.155
-493.551	-117.310	-0.145	0.027
-492.537	-88.474	0.074	0.022
-491.522	800.000	0.103	0.423
-490.508	198.682	-0.060	-0.092
-489.493	-56.836	-0.158	-0.070
-488.478	-27.288	-0.211	0.124
-487.464	573.248	-0.124	-0.304
-486.449	-9.575	0.240	-0.161
-485.435	-200.000	-0.073	0.396
-484.420	-94.503	0.338	-0.093
-483.405	-200.000	0.040	0.241
-482.391	-200.000	0.007	0.083
-481.376	379.462	0.042	0.086
-480.362	-142.391	0.167	0.017
-479.347	-43.811	0.242	-0.123
-478.332	-131.845	-0.373	0.049
-477.318	800.000	-0.189	-0.593
-476.303	800.000	0.034	-0.145
-475.289	148.127	0.224	0.304
-474.274	-200.000	-0.001	0.168
-473.259	197.558	-0.184	0.282
-472.245	151.731	0.125	0.172
-471.230	598.851	0.053	-0.132
-470.216	-55.174	0.131	0.059
-469.201	87.868	0.023	0.026
-468.186	-45.590	0.069	-0.034
-467.172	301.278	0.080	-0.148
-466.157	-161.264	0.344	-0.018
-465.143	20.808	0.207	0.168
-464.128	800.000	-0.067	-0.271
-463.113	517.248	-0.187	0.440
-462.099	20.829	0.042	-0.034
-461.084	800.000	0.049	0.207
-460.070	800.000	0.095	-0.388
-459.055	604.521	0.065	-0.163
-458.040	-123.006	-0.030	0.005
-457.026	16.543	0.163	-0.129
-456.011	-95.059	-0.217	0.059
-454.997	800.000	-0.070	0.300
-453.982	674.086	-0.036	0.093
-452.968	224.965	-0.074	0.120
-451.953	350.998	0.025	0.051
-450.938	-57.853	-0.414	0.182
-449.924	370.420	-0.087	-0.177
-448.909	540.994	0.209	0.501
-447.895	800.000	-0.099	0.366
-446.880	348.915	0.075	0.148
-445.865	-120.695	0.095	0.016
-444.851	195.239	-0.076	0.117
-443.836	-124.672	-0.103	-0.016
-442.822	800.000	-0.038	0.154
-441.807	269.833	0.110	0.193
-440.792	-84.863	-0.336	0.106
-439.778	-200.000	0.001	0.067
-438.763	256.185	-0.252	-0.434
-437.749	259.436	-0.049	-0.085
-436.734	162.755	0.076	-0.108
-435.719	600.013	-0.097	0.241
-434.705	242.941	-0.042	-0.071
-433.690	149.144	0.094	-0.127
-432.676	389.345	-0.186	-0.386
-431.661	22.696	-0.117	0.096
-430.646	-200.000	-0.068	0.327
-429.632	-23.738	-0.266	-0.160
-428.617	12.705	-0.202	-0.156
-427.603	-56.995	0.241	-0.107
-426.588	-200.000	0.390	0.000
-425.573	800.000	0.071	-0.253
-424.559	-62.760	-0.187	0.078
-423.544	-98.516	-0.151	0.039
-422.530	21.009	-0.074	-0.060
-421.515	-200.000	0.105	-0.481
-420.500	-200.000	-0.006	0.054
-419.486	-184.767	0.247	0.004
-418.471	70.089	-0.195	-0.202
-417.457	-148.271	-0.338	-0.028
-416.442	-200.000	0.051	-0.386
-415.428	-200.000	-0.034	-0.168
-414.413	-48.094	-0.057	0.027
-413.398	800.000	-0.046	-0.173
-412.384	800.000	-0.054	0.235
-411.369	-88.881	-0.493	-0.147
-410.355	-200.000	-0.002	0.086
-409.340	19.811	-0.192	0.155
-408.325	-121.416	0.219	0.037
-407.311	-143.740	-0.223	0.021
-406.296	82.778	0.396	0.431
-405.282	-42.055	-0.130	0.067
-404.267	30.063	0.217	-0.186
-403.252	-60.689	0.228	-0.097
-402.238	694.181	0.054	-0.143
-401.223	-83.447	0.505	0.162
-400.209	-200.000	0.002	-0.047
-399.194	-200.000	0.001	-0.014
-398.179	23.380	0.170	0.140
-397.165	145.570	0.142	0.190
-396.150	136.164	-0.034	-0.044
-395.136	-51.993	-0.264	-0.123
-394.121	800.000	-0.077	-0.246
-393.106	800.000	0.069	0.227
-392.092	73.943	-0.286	0.301
-391.077	800.000	0.054	-0.184
-390.063	-45.908	0.388	-0.192
-389.048	-112.355	0.138	-0.028
-388.033	-146.460	-0.360	0.031
-387.019	-200.000	-0.004	0.139
-386.004	-41.872	-0.142	0.073
-384.990	-75.139	-0.234	-0.084
-383.975	-200.000	-0.005	0.172
-382.960	-200.000	0.017	0.195
-381.946	-105.698	-0.091	-0.021
-380.931	676.512	0.017	0.045
-379.917	-125.608	0.151	-0.023
-378.902	201.951	-0.037	-0.057
-377.888	635.894	-0.047	-0.119
-376.873	-8.146	0.038	-0.026
-375.858	93.036	0.112	0.127
-374.844	800.000	0.035	0.122
-373.829	-200.000	-0.012	-0.216
-372.815	-125.973	-0.370	0.056
-371.800	800.000	0.051	-0.220
-370.785	114.810	0.059	-0.072
-369.771	-200.000	-0.012	-0.284
-368.756	19.667	-0.097	-0.078
-367.742	-64.318	-0.080	-0.032
-366.727	800.000	-0.043	-0.182
-365.712	-95.402	0.319	0.086
-364.698	-146.502	0.409	-0.036
-363.683	164.994	-0.111	-0.158
-362.669	398.719	-0.085	-0.178
-361.654	-193.060	-0.164	-0.001
-360.639	424.784	-0.106	0.228
-359.625	-200.000	-0.124	-0.593
-358.610	-0.940	0.215	-0.152
-357.596	199.612	-0.078	0.120
-356.581	-17.833	0.159	0.100
-355.566	-84.966	0.368	-0.115
-354.552	-111.896	-0.426	0.086
-353.537	-119.379	0.173	-0.030
-352.523	144.693	0.057	0.076
-351.508	-200.000	0.006	0.256
-350.493	645.988	-0.115	-0.294
-349.479	-200.000	0.014	-0.099
-348.464	61.865	0.245	0.244
-347.450	-200.000	-0.003	0.038
-346.435	-200.000	0.035	-0.182
-345.420	8.608	0.148	0.112
-344.406	13.566	-0.095	-0.074
-343.391	463.252	0.090	-0.202
-342.377	-112.997	-0.224	0.044
-341.362	398.856	0.067	0.141
-340.348	800.000	0.048	0.180
-339.333	-127.949	-0.271	-0.039
-338.318	-97.235	0.218	0.057
-337.304	-0.815	-0.184	-0.130
-336.289	800.000	-0.020	-0.069
-335.275	397.940	0.202	0.422
-334.260	-200.000	0.039	-0.225
-333.245	-89.096	-0.094	0.028
-332.231	-36.164	-0.245	-0.132
-331.216	43.238	-0.167	-0.153
-330.202	119.867	0.299	0.371
-329.187	-99.361	0.294	-0.074
-328.172	611.516	-0.076	-0.190
-327.158	-136.208	0.259	0.030
-326.143	800.000	-0.075	-0.295
-325.129	200.051	0.056	-0.087
-324.114	81.143	0.184	0.199
-323.099	-7.446	-0.278	0.188
-322.085	-139.120	0.219	0.024
-321.070	800.000	0.063	-0.231
-320.056	80.703	-0.240	-0.258
-319.041	800.000	0.131	0.378
-318.026	112.999	0.127	0.154
-317.012	133.851	-0.106	-0.138
-315.997	-158.636	0.027	-0.002
-314.983	77.850	-0.107	-0.114
-313.968	-87.525	-0.115	0.035
-312.953	145.642	0.092	0.124
-311.939	117.752	0.246	0.303
-310.924	-200.000	-0.006	-0.122
-309.910	-200.000	-0.014	0.103
-308.895	-154.053	0.243	0.016
-307.880	-108.950	0.220	-0.047
-306.866	315.033	-0.078	0.147
-305.851	-60.565	0.343	0.146
-304.837	-200.000	0.024	-0.110
-303.822	-39.954	0.045	-0.023
-302.807	45.888	0.107	0.099
-301.793	40.380	0.209	0.188
-300.778	304.164	0.113	0.209
-299.764	800.000	-0.091	-0.304
-298.749	-54.612	-0.083	-0.038
-297.735	-200.000	0.009	-0.435
-296.720	395.215	-0.148	0.308
-295.705	-32.790	0.532	-0.295
-294.691	69.506	0.227	0.233
-293.676	-22.111	0.483	0.293
-292.662	-89.844	-0.259	0.075
-291.647	726.596	0.041	0.109
-290.632	-26.313	-0.213	0.125
-289.618	-44.761	-0.109	0.054
-288.603	-29.421	-0.166	0.095
-287.589	800.000	0.120	0.436
-286.574	-150.990	-0.185	-0.014
-285.559	-13.635	-0.315	-0.204
-284.545	259.718	0.173	0.297
-283.530	-54.783	-0.043	0.020
-282.516	13.570	-0.128	-0.099
-281.501	-73.966	0.115	0.042
-280.486	-102.512	-0.181	0.043
-279.472	-27.432	0.285	-0.165
-278.457	219.667	-0.148	0.236
-277.443	-42.973	-0.229	-0.116
-276.428	21.041	-0.027	-0.022
-275.413	-200.000	-0.067	0.303
-274.399	153.401	-0.196	-0.267
-273.384	105.077	-0.256	0.302
-272.370	-200.000	-0.019	0.116
-271.355	490.912	-0.112	-0.256
-270.340	800.000	0.103	0.334
-269.326	800.000	-0.091	0.282
-268.311	800.000	0.041	0.173
-267.297	180.051	0.089	0.130
-266.282	-20.946	0.201	-0.123
-265.267	380.826	0.195	0.400
-264.253	-36.822	0.221	0.118
-263.238	-101.090	0.021	0.005
-262.224	-125.433	-0.160	-0.024
-261.209	-115.269	0.086	-0.016
-260.195	-117.545	-0.189	0.034
-259.180	-145.355	0.023	0.002
-258.165	-200.000	-0.009	-0.068
-257.151	-6.147	-0.136	0.093
-256.136	113.931	-0.094	0.114
-255.122	-30.561	-0.365	0.206
-254.107	388.620	0.104	-0.215
-253.092	-21.438	-0.015	-0.009
-252.078	-83.123	0.324	-0.104
-251.063	-15.577	-0.470	-0.299
-250.049	7.183	0.136	-0.101
-249.034	800.000	0.037	0.152
-248.019	-200.000	-0.002	-0.016
-247.005	800.000	-0.044	-0.177
-245.990	-135.238	-0.387	0.046
-244.976	-35.430	-0.225	0.122
-243.961	-200.000	0.053	0.321
-242.946	800.000	-0.011	0.044
-241.932	99.428	0.190	0.220
-240.917	288.650	-0.069	-0.125
-239.903	299.158	0.039	-0.071
-238.888	-200.000	0.022	-0.179
-237.873	155.590	-0.047	0.064
-236.859	-200.000	-0.072	-0.339
-235.844	-138.575	-0.191	-0.021
-234.830	-60.627	-0.194	0.082
-233.815	32.579	0.281	0.242
-232.800	-175.214	0.255	-0.007
-231.786	800.000	-0.060	0.251
-230.771	17.050	-0.104	0.082
-229.757	402.462	0.025	0.053
-228.742	-118.893	-0.294	-0.051
-227.727	-38.999	-0.099	0.052
-226.713	49.303	-0.101	0.095
-225.698	-52.691	-0.158	-0.072
-224.684	84.623	-0.150	-0.164
-223.669	113.568	0.093	-0.113
-222.655	1.324	-0.119	-0.085
-221.640	401.345	-0.087	-0.182
-220.625	-200.000	-0.007	-0.172
-219.611	6.692	0.157	0.116
-218.596	-46.128	0.222	-0.109
-217.582	111.151	-0.079	0.095
-216.567	23.579	-0.169	-0.138
-215.552	658.150	0.063	0.161
-214.538	-77.713	0.131	0.045
-213.523	690.269	-0.122	0.319
-212.509	800.000	0.072	0.263
-211.494	61.667	0.173	0.172
-210.479	323.633	0.036	-0.068
-209.465	-200.000	-0.008	-0.039
-208.450	-0.466	0.150	-0.106
-207.436	-200.000	0.017	-0.188
-206.421	-7.771	0.487	-0.327
-205.406	-93.298	-0.269	0.074
-204.392	800.000	0.123	-0.353
-203.377	-35.546	0.095	0.051
-202.363	-200.000	0.015	0.433
-201.348	264.894	-0.053	-0.092
-200.333	-134.745	0.204	0.025
-199.319	-200.000	-0.008	-0.307
-198.304	-119.602	-0.131	0.022
-197.290	-136.430	0.316	-0.037
-196.275	-70.145	-0.319	-0.121
-195.260	156.572	0.133	0.183
-194.246	-116.662	-0.232	0.042
-193.231	795.342	-0.099	-0.272
-192.217	74.637	0.255	-0.267
-191.202	-200.000	0.013	0.088
-190.187	35.118	-0.201	-0.175
-189.173	10.689	0.159	-0.121
-188.158	191.362	0.033	0.049
-187.144	800.000	-0.058	0.234
-186.129	800.000	0.084	-0.257
-185.114	-118.667	0.236	0.041
-184.100	36.954	0.214	0.188
-183.085	113.288	0.039	-0.047
-182.071	783.217	-0.085	0.231
-181.056	-62.496	0.352	-0.146
-180.042	-147.655	-0.258	-0.022
-179.027	46.467	0.234	0.216
-178.012	-34.649	0.256	0.139
-176.998	-99.859	-0.061	-0.015
-175.983	-200.000	-0.037	0.184
-174.969	800.000	-0.159	0.536
-173.954	-200.000	0.004	0.579
-172.939	260.092	0.087	0.150
-171.925	-40.045	-0.222	0.115
-170.910	31.513	0.149	-0.127
-169.896	-99.798	-0.157	0.039
-168.881	8.401	-0.110	0.082
-167.866	70.069	-0.259	0.266
-166.852	-76.122	-0.151	0.053
-165.837	676.226	0.039	-0.100
-164.823	32.677	-0.154	0.132
-163.808	-200.000	0.026	0.123
-162.793	7.359	0.281	-0.208
-161.779	-200.000	0.081	-0.391
-160.764	295.929	-0.066	-0.120
-159.750	-98.999	-0.121	-0.031
-158.735	34.077	-0.158	-0.136
-157.720	-200.000	0.037	-0.222
-156.706	800.000	-0.067	-0.236
-155.691	-177.793	-0.207	-0.005
-154.677	-108.226	0.168	-0.036
-153.662	-200.000	-0.055	-0.256
-152.647	63.024	-0.080	-0.079
-151.633	-133.737	-0.178	-0.022
-150.618	150.722	0.063	-0.085
-149.604	800.000	-0.042	0.129
-148.589	-125.530	-0.274	0.041
-147.574	-135.921	-0.373	0.044
-146.560	-1.813	-0.174	0.122
-145.545	-100.721	-0.089	-0.022
-144.531	-200.000	0.011	-0.274
-143.516	-38.746	-0.096	-0.050
-142.502	-34.613	-0.226	-0.123
-141.487	67.133	-0.070	0.071
-140.472	-33.799	0.099	-0.054
-139.458	254.318	0.088	-0.149
-138.443	800.000	-0.025	0.085
-137.429	547.883	-0.049	-0.116
-136.414	-21.991	-0.128	-0.077
-135.399	-171.370	-0.033	-0.001
-134.385	109.307	0.205	0.244
-133.370	-70.891	0.066	-0.025
-132.356	-141.195	0.154	0.016
-131.341	500.375	-0.053	0.121
-130.326	-117.258	-0.103	-0.019
-129.312	800.000	0.071	0.215
-128.297	130.820	0.099	-0.126
-127.283	-141.556	0.199	-0.020
-126.268	385.297	-0.199	0.407
-125.253	-200.000	-0.008	0.094
-124.239	50.900	-0.079	-0.074
-123.224	-103.931	-0.252	-0.058
-122.210	-153.453	0.114	0.008
