DTS Sentinel unit serial number:	SN413079Multiplexer serial number:	ORYXHardware model number:	OX4-SRSoftware version number:	ORYX F/W v4.00 Oryx Data Collector v3.7.2.0data status	okinstallation	princeton_trtdifferential loss correction	single-endedforward channel	channel 4reverse channel	N/Adate	2019/09/17time	12:13:34forward acquisition time	60.00reverse acquisition time	0.00gamma	496.2192k internal	0.2305k external	0.2305temperature offset calibration	0.9990default loss term (dB/km)	0.3790temperature slope calibration	1.0000multiplexer offset coefficient	1.0000multiplexer slope coefficient	1.0000fibre end	0.00T internal ref (°C)	31.37T ext. ref 1 (°C)	0.43T ext. ref 2 (°C)	28.00length (m)	temperature (°C)	Stokes	anti-Stokes-747.200	-57.094	0.351	0.158
-746.185	578.732	-0.212	0.528
-745.171	-24.630	0.167	0.101
-744.156	-58.389	-0.264	0.117
-743.142	-200.000	0.026	0.125
-742.127	-61.302	-0.188	0.081
-741.112	-24.796	-0.084	0.051
-740.098	41.629	-0.171	-0.158
-739.083	-145.180	-0.185	-0.017
-738.069	38.888	0.120	0.109
-737.054	-58.048	0.063	-0.028
-736.039	-126.561	-0.237	-0.036
-735.025	-5.109	-0.210	-0.147
-734.010	-112.797	0.134	0.027
-732.996	-33.751	-0.333	-0.187
-731.981	-98.978	0.152	0.039
-730.966	-55.734	-0.282	-0.128
-729.952	-200.000	0.252	0.001
-728.937	324.045	-0.133	0.258
-727.923	78.941	-0.366	0.399
-726.908	561.048	-0.115	-0.282
-725.894	-53.908	-0.264	0.122
-724.879	-200.000	-0.122	0.000
-723.864	-48.273	0.199	0.097
-722.850	-27.110	-0.028	-0.017
-721.835	196.457	-0.282	0.436
-720.821	-200.000	0.019	-0.311
-719.806	-89.038	0.046	-0.014
-718.791	168.325	-0.148	-0.214
-717.777	-177.266	-0.138	0.003
-716.762	12.916	-0.272	-0.214
-715.748	-56.721	0.356	0.160
-714.733	-20.810	0.251	-0.157
-713.718	60.701	-0.302	0.304
-712.704	-200.000	-0.009	-0.229
-711.689	800.000	0.039	0.120
-710.675	-148.335	-0.250	-0.021
-709.660	31.441	0.176	-0.154
-708.645	-200.000	-0.019	0.104
-707.631	-135.618	0.083	0.010
-706.616	769.219	0.035	-0.098
-705.602	10.142	-0.170	0.132
-704.587	-163.187	0.252	0.012
-703.572	800.000	0.018	-0.056
-702.558	-47.092	0.137	-0.068
-701.543	800.000	-0.100	-0.281
-700.529	-154.138	-0.117	-0.008
-699.514	257.800	0.197	-0.345
-698.499	-141.243	-0.282	0.029
-697.485	-86.182	0.222	-0.070
-696.470	-172.843	-0.225	-0.007
-695.456	32.005	0.230	0.201
-694.441	125.898	-0.133	0.170
-693.426	-110.592	-0.163	-0.034
-692.412	160.170	0.201	-0.285
-691.397	30.048	-0.087	0.075
-690.383	-18.253	-0.137	-0.087
-689.368	63.388	-0.276	-0.281
-688.354	-200.000	0.040	0.372
-687.339	800.000	0.020	-0.081
-686.324	336.795	0.076	0.149
-685.310	95.901	-0.094	-0.109
-684.295	800.000	-0.114	-0.386
-683.281	554.684	-0.057	-0.140
-682.266	-200.000	0.033	0.185
-681.251	-146.903	-0.396	0.035
-680.237	-158.874	-0.139	-0.008
-679.222	58.548	-0.272	-0.271
-678.208	-46.718	-0.470	0.234
-677.193	214.009	-0.072	-0.116
-676.178	60.529	-0.029	-0.030
-675.164	24.881	-0.050	-0.042
-674.149	-48.036	-0.122	0.060
-673.135	-185.645	0.207	0.003
-672.120	24.530	-0.112	0.094
-671.105	-45.076	0.244	-0.123
-670.091	628.692	-0.066	0.168
-669.076	-200.000	0.031	0.245
-668.062	-89.751	-0.173	0.051
-667.047	723.195	-0.052	0.140
-666.032	-146.486	-0.277	-0.024
-665.018	-143.067	0.157	-0.015
-664.003	58.798	-0.152	-0.152
-662.989	-140.227	-0.098	0.010
-661.974	-60.870	0.145	-0.062
-660.959	-96.503	-0.358	-0.096
-659.945	25.694	-0.164	-0.139
-658.930	0.431	0.196	-0.142
-657.916	60.894	0.140	0.141
-656.901	800.000	-0.133	0.446
-655.886	-92.067	0.220	0.063
-654.872	79.833	0.085	-0.093
-653.857	-41.987	0.022	0.012
-652.843	-195.494	-0.047	0.000
-651.828	107.441	-0.216	-0.261
-650.814	800.000	0.068	0.216
-649.799	654.452	0.058	0.150
-648.784	-196.616	0.292	0.002
-647.770	-43.961	0.184	-0.094
-646.755	393.605	-0.036	-0.076
-645.741	-90.996	-0.394	-0.115
-644.726	799.432	0.094	-0.263
-643.711	516.104	-0.039	0.093
-642.697	4.265	0.115	-0.086
-641.682	-158.698	0.275	0.016
-640.668	-157.237	-0.206	0.013
-639.653	800.000	0.069	-0.258
-638.638	436.864	0.049	-0.109
-637.624	800.000	0.058	-0.186
-636.609	-101.357	0.460	-0.114
-635.595	92.379	-0.164	-0.188
-634.580	88.684	-0.240	-0.271
-633.565	-200.000	-0.000	-0.316
-632.551	-114.105	-0.293	-0.057
-631.536	-93.547	-0.131	0.037
-630.522	69.693	0.041	0.043
-629.507	21.710	-0.140	-0.115
-628.492	0.500	-0.286	0.207
-627.478	-61.036	0.037	-0.016
-626.463	800.000	-0.037	-0.139
-625.449	-99.926	0.104	0.026
-624.434	-200.000	0.044	0.243
-623.419	412.431	-0.054	0.117
-622.405	-200.000	-0.003	-0.347
-621.390	459.478	-0.063	-0.143
-620.376	76.182	-0.168	-0.180
-619.361	231.174	0.096	-0.159
-618.346	-25.974	0.140	-0.083
-617.332	-50.020	0.159	-0.077
-616.317	-12.189	0.203	0.135
-615.303	-2.790	0.165	-0.117
-614.288	-200.000	0.003	-0.119
-613.273	-200.000	-0.092	-0.436
-612.259	344.371	-0.122	-0.243
-611.244	38.360	0.156	0.141
-610.230	-34.220	0.093	0.052
-609.215	-135.884	-0.349	-0.042
-608.201	-200.000	-0.078	-0.357
-607.186	-13.382	-0.268	-0.176
-606.171	4.938	-0.206	0.154
-605.157	-119.620	0.388	0.068
-604.142	-19.454	0.034	0.021
-603.128	-136.399	-0.470	-0.055
-602.113	-200.000	0.000	-0.048
-601.098	-132.872	-0.184	-0.024
-600.084	-72.082	-0.356	-0.134
-599.069	65.877	0.143	-0.146
-598.055	800.000	-0.126	-0.357
-597.040	281.500	-0.128	-0.232
-596.025	33.764	0.059	-0.052
-595.011	-33.651	-0.187	0.105
-593.996	800.000	0.061	0.208
-592.982	-42.826	0.221	-0.114
-591.967	-200.000	0.050	-0.289
-590.952	-126.822	-0.224	-0.033
-589.938	15.487	-0.286	-0.227
-588.923	-50.980	-0.474	-0.225
-587.909	-15.513	0.223	-0.144
-586.894	67.413	-0.114	0.117
-585.879	-200.000	-0.024	0.294
-584.865	-119.108	0.225	-0.040
-583.850	-200.000	0.027	-0.292
-582.836	-15.400	-0.072	-0.047
-581.821	-200.000	-0.022	-0.366
-580.806	37.214	-0.232	-0.208
-579.792	-10.658	-0.181	-0.121
-578.777	469.608	0.078	0.177
-577.763	-200.000	-0.019	-0.145
-576.748	-107.817	0.094	-0.021
-575.733	1.145	0.206	0.150
-574.719	-200.000	-0.009	0.123
-573.704	23.537	-0.026	-0.021
-572.690	647.922	0.016	0.041
-571.675	-130.281	0.324	0.045
-570.661	-200.000	0.013	-0.354
-569.646	367.857	0.063	0.129
-568.631	21.184	0.126	0.103
-567.617	633.624	-0.043	-0.109
-566.602	77.445	0.075	-0.081
-565.588	-200.000	0.044	0.235
-564.573	-26.495	-0.122	-0.072
-563.558	-33.552	0.244	0.136
-562.544	715.488	0.084	0.225
-561.529	-123.334	-0.256	-0.041
-560.515	191.362	0.108	-0.164
-559.500	800.000	-0.067	0.243
-558.485	-143.728	-0.232	-0.022
-557.471	789.697	0.018	-0.051
-556.456	-53.548	0.143	0.066
-555.442	-66.287	0.110	-0.044
-554.427	-193.159	-0.379	0.003
-553.412	-200.000	0.007	-0.169
-552.398	-98.744	-0.201	0.052
-551.383	-61.407	-0.093	-0.040
-550.369	-88.583	-0.180	0.054
-549.354	459.289	0.052	-0.117
-548.339	-200.000	0.026	-0.370
-547.325	252.795	0.044	0.076
-546.310	-200.000	0.040	0.240
-545.296	610.439	-0.027	0.067
-544.281	76.974	0.104	0.112
-543.266	67.053	0.266	0.274
-542.252	439.732	-0.090	-0.198
-541.237	-36.851	-0.304	-0.164
-540.223	-87.387	0.249	-0.076
-539.208	-156.903	-0.063	0.004
-538.193	-146.568	-0.202	0.018
-537.179	171.235	0.113	0.163
-536.164	-200.000	0.004	0.041
-535.150	-105.227	0.356	0.082
-534.135	384.899	0.041	-0.085
-533.121	81.382	0.058	-0.063
-532.106	-6.855	-0.084	-0.058
-531.091	-1.744	-0.288	-0.204
-530.077	-119.107	0.265	0.047
-529.062	-152.449	0.162	0.012
-528.048	-70.288	0.154	0.059
-527.033	421.159	-0.190	0.412
-526.018	113.773	-0.061	0.075
-525.004	-200.000	0.038	0.341
-523.989	-200.000	-0.008	0.134
-522.975	-200.000	-0.017	-0.189
-521.960	62.668	-0.186	-0.187
-520.945	-18.644	0.152	0.096
-519.931	-99.525	-0.226	0.057
-518.916	755.585	0.124	0.339
-517.902	-102.346	0.062	0.015
-516.887	-150.661	-0.128	0.010
-515.872	-125.118	-0.167	-0.026
-514.858	145.171	0.196	-0.265
-513.843	210.646	-0.107	-0.169
-512.829	146.265	-0.122	0.165
-511.814	-54.535	0.078	-0.036
-510.799	261.720	0.040	0.070
-509.785	391.682	0.159	-0.334
-508.770	-144.920	0.133	-0.012
-507.756	250.032	0.179	-0.306
-506.741	227.263	0.066	-0.109
-505.726	-200.000	-0.003	0.062
-504.712	-200.000	-0.031	0.193
-503.697	2.944	-0.085	-0.062
-502.683	-49.283	-0.266	-0.128
-501.668	59.507	0.046	-0.045
-500.653	-31.789	-0.177	0.100
-499.639	388.883	-0.025	0.052
-498.624	-92.061	0.154	-0.044
-497.610	-200.000	-0.003	0.235
-496.595	-148.924	0.129	-0.010
-495.581	34.500	0.099	-0.087
-494.566	23.289	-0.188	-0.156
-493.551	35.533	0.142	-0.125
-492.537	-42.995	-0.052	0.026
-491.522	-136.966	0.316	0.036
-490.508	630.601	-0.070	0.179
-489.493	-161.171	-0.339	-0.018
-488.478	61.279	0.162	-0.162
-487.464	-114.756	0.203	0.039
-486.449	-147.322	-0.315	-0.027
-485.435	-200.000	0.058	-0.368
-484.420	7.978	0.072	-0.054
-483.405	144.722	0.092	-0.125
-482.391	-22.839	-0.201	-0.122
-481.376	48.382	0.199	0.187
-480.362	-200.000	0.017	0.321
-479.347	-200.000	0.048	0.332
-478.332	-11.571	-0.140	-0.093
-477.318	255.779	0.069	-0.119
-476.303	-200.000	0.063	-0.285
-475.289	670.914	0.049	-0.128
-474.274	-113.514	-0.163	-0.032
-473.259	512.207	-0.037	0.086
-472.245	126.578	0.205	-0.262
-471.230	-13.359	-0.226	-0.148
-470.216	-200.000	0.039	0.251
-469.201	152.484	-0.108	0.149
-468.186	-44.898	-0.208	0.105
-467.172	-29.074	-0.253	-0.146
-466.157	170.151	-0.118	-0.171
-465.143	83.392	-0.044	-0.049
-464.128	-72.552	0.042	0.016
-463.113	-18.440	0.065	-0.041
-462.099	-200.000	0.014	0.185
-461.084	-102.931	-0.117	0.028
-460.070	-200.000	0.565	-0.001
-459.055	-200.000	0.021	0.268
-458.040	-137.656	-0.263	-0.030
-457.026	108.124	-0.056	0.067
-456.011	-23.454	0.429	0.259
-454.997	-10.895	0.163	0.108
-453.982	590.077	0.057	0.141
-452.968	-98.169	0.407	-0.105
-451.953	44.848	-0.179	-0.166
-450.938	-112.336	-0.188	0.038
-449.924	-200.000	0.005	0.179
-448.909	-67.590	0.118	-0.047
-447.895	82.514	0.129	-0.141
-446.880	-64.894	-0.079	-0.032
-445.865	-200.000	0.002	-0.018
-444.851	-106.991	0.283	0.063
-443.836	-53.632	0.213	-0.098
-442.822	-186.890	0.033	-0.000
-441.807	29.184	0.132	-0.113
-440.792	-37.611	-0.224	-0.120
-439.778	130.752	-0.246	0.317
-438.763	-67.783	-0.257	0.101
-437.749	-69.042	0.387	-0.150
-436.734	-44.805	-0.244	-0.122
-435.719	131.426	-0.206	-0.266
-434.705	-75.802	0.287	-0.102
-433.690	576.864	0.073	-0.179
-432.676	-173.553	-0.447	-0.014
-431.661	-81.810	-0.238	-0.079
-430.646	72.059	-0.102	-0.107
-429.632	245.192	-0.124	0.210
-428.617	233.664	0.146	0.242
-427.603	79.807	0.188	0.203
-426.588	-109.279	-0.127	-0.027
-425.573	-136.365	-0.359	-0.042
-424.559	800.000	0.095	-0.374
-423.544	-200.000	0.021	-0.246
-422.530	393.986	-0.022	0.046
-421.515	244.273	-0.183	-0.309
-420.500	800.000	-0.068	0.191
-419.486	-200.000	0.026	0.125
-418.471	91.929	0.145	0.164
-417.457	-200.000	-0.011	-0.266
-416.442	-144.477	-0.399	0.037
-415.428	-20.960	0.093	0.057
-414.413	-200.000	0.066	-0.307
-413.398	-38.977	-0.082	0.043
-412.384	800.000	-0.150	0.545
-411.369	800.000	-0.031	-0.101
-410.355	94.948	0.197	-0.225
-409.340	60.334	-0.187	0.185
-408.325	-71.259	0.192	0.072
-407.311	-75.715	0.170	-0.061
-406.296	-71.404	0.068	0.025
-405.282	-200.000	0.004	0.074
-404.267	800.000	-0.044	-0.124
-403.252	-127.963	-0.290	-0.042
-402.238	-131.162	-0.488	0.065
-401.223	309.141	0.093	-0.175
-400.209	174.532	0.139	0.202
-399.194	-95.396	-0.203	-0.055
-398.179	-114.341	0.491	0.095
-397.165	55.977	0.089	-0.087
-396.150	-200.000	-0.058	-0.291
-395.136	-200.000	0.034	-0.390
-394.121	36.594	-0.108	-0.096
-393.106	800.000	-0.019	-0.079
-392.092	144.578	0.063	0.084
-391.077	27.207	0.292	0.247
-390.063	-24.676	0.263	-0.157
-389.048	-19.238	0.192	-0.120
-388.033	-98.554	0.106	-0.027
-387.019	180.831	0.084	-0.124
-386.004	68.192	-0.127	0.131
-384.990	-111.105	0.190	0.039
-383.975	-170.475	0.601	0.021
-382.960	-38.651	-0.053	-0.028
-381.946	-8.874	-0.153	-0.103
-380.931	-104.933	0.403	-0.093
-379.917	-51.141	0.264	-0.124
-378.902	800.000	0.006	-0.017
-377.888	71.422	0.267	0.279
-376.873	-200.000	-0.005	-0.081
-375.858	-52.980	0.191	0.088
-374.844	800.000	0.061	0.193
-373.829	-64.320	0.200	0.082
-372.815	-200.000	0.003	0.083
-371.800	800.000	-0.086	-0.264
-370.785	-200.000	-0.049	0.255
-369.771	182.506	0.130	-0.193
-368.756	90.207	0.157	-0.176
-367.742	389.342	0.019	0.039
-366.727	-149.057	-0.029	-0.002
-365.712	101.922	0.137	0.161
-364.698	-89.090	-0.292	0.087
-363.683	-200.000	0.037	-0.315
-362.669	-200.000	0.037	0.519
-361.654	-200.000	0.024	-0.194
-360.639	-113.601	-0.581	-0.114
-359.625	-200.000	0.016	-0.078
-358.610	800.000	-0.111	-0.415
-357.596	-200.000	0.004	0.027
-356.581	-200.000	0.074	0.426
-355.566	800.000	0.077	0.287
-354.552	593.471	-0.088	0.217
-353.537	-182.581	0.129	0.002
-352.523	-115.308	-0.528	0.100
-351.508	-14.374	0.073	0.047
-350.493	-139.282	-0.052	-0.006
-349.479	183.173	0.200	0.296
-348.464	800.000	-0.090	0.281
-347.450	-200.000	-0.011	0.342
-346.435	-200.000	-0.038	-0.380
-345.420	16.390	-0.303	-0.240
-344.406	-200.000	-0.055	0.323
-343.391	49.345	-0.170	0.161
-342.377	-149.571	0.252	-0.020
-341.362	-118.341	-0.269	0.048
-340.348	-200.000	-0.072	-0.441
-339.333	-119.622	-0.151	-0.026
-338.318	44.484	0.227	0.209
-337.304	181.917	-0.197	-0.290
-336.289	-200.000	0.010	0.220
-335.275	-118.591	-0.242	-0.043
-334.260	83.927	0.094	0.103
-333.245	-69.062	-0.263	-0.101
-332.231	-125.666	0.132	-0.020
-331.216	800.000	0.161	-0.476
-330.202	-200.000	-0.005	0.386
-329.187	-40.850	0.178	0.092
-328.172	33.494	0.069	0.060
-327.158	-125.718	0.401	0.061
-326.143	752.186	0.060	-0.162
-325.129	800.000	-0.128	0.437
-324.114	61.558	0.223	0.222
-323.099	-63.410	-0.245	0.101
-322.085	800.000	-0.033	0.101
-321.070	78.401	0.169	0.180
-320.056	-81.645	-0.117	-0.038
-319.041	-3.652	-0.207	0.144
-318.026	1.352	-0.152	-0.109
-317.012	-14.095	-0.270	0.174
-315.997	800.000	0.044	-0.132
-314.983	-136.866	0.186	-0.021
-313.968	-61.630	-0.171	0.072
-312.953	-200.000	0.003	0.162
-311.939	-189.271	-0.393	0.005
-310.924	210.806	-0.130	-0.205
-309.910	-50.081	0.166	-0.079
-308.895	-20.154	0.387	-0.239
-307.880	-67.210	0.203	-0.080
-306.866	137.504	0.102	0.134
-305.851	-200.000	0.009	0.167
-304.837	-157.469	0.429	0.026
-303.822	68.141	0.144	-0.147
-302.807	-180.134	-0.134	-0.003
-301.793	270.991	-0.146	-0.258
-300.778	580.891	-0.181	-0.443
-299.764	782.327	0.055	0.149
-298.749	-164.906	-0.235	0.011
-297.735	-159.404	-0.293	0.016
-296.720	800.000	0.107	-0.392
-295.705	-77.280	-0.122	-0.042
-294.691	52.622	-0.153	-0.146
-293.676	-200.000	0.004	-0.313
-292.662	-200.000	0.035	0.169
-291.647	-22.929	0.398	0.240
-290.632	446.407	0.138	-0.302
-289.618	43.343	-0.196	-0.179
-288.603	-200.000	0.028	0.234
-287.589	60.111	-0.070	0.069
-286.574	79.133	0.140	0.150
-285.559	-200.000	0.358	-0.001
-284.545	-145.245	-0.257	-0.023
-283.530	-72.556	-0.036	0.013
-282.516	800.000	-0.162	0.475
-281.501	-44.432	0.390	0.195
-280.486	-96.290	0.199	-0.053
-279.472	-1.221	0.187	-0.132
-278.457	17.478	0.250	0.198
-277.443	344.852	-0.095	0.186
-276.428	-7.577	0.079	0.053
-275.413	183.997	0.207	0.305
-274.399	-200.000	-0.042	0.220
-273.384	-179.623	0.298	-0.006
-272.370	294.638	-0.083	0.152
-271.355	438.330	0.054	0.117
-270.340	-116.961	-0.340	0.062
-269.326	800.000	-0.063	-0.234
-268.311	60.603	-0.191	0.189
-267.297	800.000	0.030	0.096
-266.282	-62.433	-0.266	-0.111
-265.267	-99.459	-0.527	-0.133
-264.253	228.070	-0.078	0.127
-263.238	11.881	0.076	0.059
-262.224	-200.000	0.022	-0.167
-261.209	76.325	0.103	0.109
-260.195	569.438	-0.123	0.298
-259.180	-11.159	0.325	0.214
-258.165	800.000	0.064	-0.273
-257.151	-200.000	-0.041	-0.210
-256.136	302.877	0.078	0.143
-255.122	-200.000	-0.011	0.229
-254.107	-118.591	-0.220	0.039
-253.092	-30.654	-0.331	0.187
-252.078	-147.095	-0.288	0.025
-251.063	800.000	-0.037	0.105
-250.049	-72.518	0.290	-0.107
-249.034	-69.259	-0.134	-0.051
-248.019	-18.725	0.280	0.174
-247.005	392.077	-0.019	0.040
-245.990	800.000	-0.085	0.275
-244.976	-54.583	-0.400	-0.181
-243.961	-84.033	0.143	-0.045
-242.946	-108.928	-0.130	-0.028
-241.932	50.510	0.092	-0.087
-240.917	71.609	-0.119	0.123
-239.903	35.812	-0.103	0.090
-238.888	-200.000	0.026	0.486
-237.873	37.368	0.248	-0.219
-236.859	-147.774	-0.295	0.025
-235.844	800.000	0.056	0.175
-234.830	-23.651	0.289	0.173
-233.815	-98.304	-0.065	-0.017
-232.800	-200.000	-0.192	0.000
-231.786	-200.000	0.020	0.258
-230.771	-4.525	0.322	0.222
-229.757	-98.292	-0.346	-0.089
-228.742	46.139	0.161	-0.148
-227.727	800.000	0.047	0.165
-226.713	73.887	0.095	-0.099
-225.698	201.868	0.189	0.291
-224.684	71.301	-0.092	0.095
-223.669	-200.000	-0.042	-0.214
-222.655	25.977	0.121	0.100
-221.640	72.283	0.145	0.150
-220.625	-83.859	0.218	-0.069
-219.611	-200.000	0.011	0.060
-218.596	-45.935	0.082	-0.040
-217.582	-200.000	-0.018	-0.130
-216.567	-200.000	0.002	-0.092
-215.552	1.519	0.099	0.071
-214.538	483.419	0.072	0.162
-213.523	-48.806	0.115	-0.055
-212.509	-200.000	0.041	-0.234
-211.494	-111.693	0.236	-0.048
-210.479	28.440	0.079	-0.066
-209.465	176.130	-0.048	0.070
-208.450	-2.185	-0.328	0.230
-207.436	67.746	0.119	0.121
-206.421	115.723	-0.117	-0.143
-205.406	-156.813	-0.253	0.016
-204.392	181.323	0.088	-0.129
-203.377	178.394	0.131	-0.191
-202.363	775.444	-0.077	0.209
-201.348	581.634	-0.058	0.142
-200.333	-200.000	-0.044	-0.242
-199.319	153.334	-0.220	0.299
-198.304	-200.000	0.045	0.197
-197.290	161.014	-0.059	-0.082
-196.275	-96.929	-0.051	-0.013
-195.260	800.000	-0.088	0.244
-194.246	-89.120	-0.217	0.064
-193.231	126.294	-0.160	-0.202
-192.217	74.523	-0.209	-0.219
-191.202	-65.344	-0.212	0.085
-190.187	-200.000	-0.024	0.160
-189.173	196.768	0.139	0.211
-188.158	587.822	0.120	0.293
-187.144	311.693	0.085	0.159
-186.129	158.221	-0.064	-0.089
-185.114	800.000	0.122	0.439
-184.100	267.658	0.132	-0.230
-183.085	-80.719	-0.275	-0.091
-182.071	-134.246	0.168	-0.021
-181.056	175.885	0.135	-0.196
-180.042	306.129	0.130	-0.241
-179.027	309.212	0.179	0.333
-178.012	-78.807	0.233	0.079
-176.998	-6.014	0.175	0.119
-175.983	150.422	0.216	-0.291
-174.969	91.646	0.148	0.166
-173.954	-130.519	-0.246	0.033
-172.939	-153.974	0.186	-0.013
-171.925	-20.881	0.096	0.059
-170.910	-25.361	-0.216	0.127
-169.896	594.911	-0.154	0.378
-168.881	666.357	0.006	0.016
-167.866	-28.846	-0.187	0.107
-166.852	800.000	-0.046	0.180
-165.837	460.676	0.028	-0.062
-164.823	-200.000	0.001	-0.203
-163.808	6.292	-0.242	-0.179
-162.793	128.181	0.225	-0.284
-161.779	38.236	0.219	0.194
-160.764	265.999	-0.011	-0.019
-159.750	185.763	-0.034	0.050
-158.735	779.335	0.095	0.258
-157.720	-200.000	0.007	0.144
-156.706	-200.000	-0.034	-0.211
-155.691	-16.723	-0.202	0.127
-154.677	-58.592	-0.187	0.081
-153.662	-141.667	0.156	0.016
-152.647	55.875	0.221	0.214
-151.633	-65.732	0.151	0.060
-150.618	-112.181	0.272	0.054
-149.604	-200.000	0.039	0.220
-148.589	-200.000	0.058	0.380
-147.574	69.398	-0.016	0.016
-146.560	5.140	0.091	0.067
-145.545	-200.000	0.021	-0.242
-144.531	800.000	0.097	0.402
-143.516	88.647	0.048	0.053
-142.502	-42.236	0.412	-0.209
-141.487	-200.000	0.037	0.249
-140.472	204.617	0.163	0.252
-139.458	57.570	0.373	0.362
-138.443	-32.346	0.218	0.121
-137.429	800.000	-0.022	-0.068
-136.414	109.964	0.153	0.183
-135.399	11.258	-0.072	0.055
-134.385	235.183	-0.060	0.098
-133.370	-200.000	0.017	0.274
-132.356	-69.223	0.366	-0.140
-131.341	-53.193	-0.163	0.074
-130.326	-29.701	-0.199	-0.113
-129.312	800.000	0.088	0.263
-128.297	2.992	-0.121	0.087
-127.283	3.229	-0.152	-0.110
-126.268	800.000	-0.072	-0.213
-125.253	-200.000	-0.048	0.228
-124.239	-126.729	-0.070	0.010
-123.224	39.098	-0.137	-0.122
-122.210	47.389	0.223	-0.206
-121.195	331.593	-0.034	0.065
-120.180	-19.019	0.087	0.054
