DTS Sentinel unit serial number:	SN413079Multiplexer serial number:	ORYXHardware model number:	OX4-SRSoftware version number:	ORYX F/W v4.00 Oryx Data Collector v3.7.2.0data status	okinstallation	princeton_trtdifferential loss correction	single-endedforward channel	channel 4reverse channel	N/Adate	2019/09/18time	14:45:34forward acquisition time	60.00reverse acquisition time	0.00gamma	496.2192k internal	0.2298k external	0.2298temperature offset calibration	0.9998default loss term (dB/km)	0.3790temperature slope calibration	1.0000multiplexer offset coefficient	1.0000multiplexer slope coefficient	1.0000fibre end	0.00T internal ref (°C)	34.94T ext. ref 1 (°C)	0.71T ext. ref 2 (°C)	33.03length (m)	temperature (°C)	Stokes	anti-Stokes-747.200	123.662	0.168	-0.215
-746.185	240.869	0.337	0.575
-745.171	-125.177	0.496	0.078
-744.156	216.387	-0.204	0.331
-743.142	-63.269	0.443	0.186
-742.127	800.000	-0.022	-0.075
-741.112	-11.411	0.072	0.048
-740.098	-200.000	0.015	0.124
-739.083	-200.000	0.027	-0.141
-738.069	-183.596	0.117	0.002
-737.054	-35.883	-0.183	-0.101
-736.039	-200.000	0.014	0.230
-735.025	-86.848	0.309	-0.096
-734.010	128.166	-0.137	0.178
-732.996	-99.172	-0.140	-0.036
-731.981	-128.050	-0.336	-0.049
-730.966	133.079	-0.094	-0.124
-729.952	-90.662	-0.307	-0.090
-728.937	-200.000	0.019	0.223
-727.923	195.324	-0.246	0.381
-726.908	129.574	-0.093	-0.121
-725.894	102.900	0.105	-0.126
-724.879	800.000	-0.024	-0.105
-723.864	72.664	0.089	0.095
-722.850	-15.294	-0.201	-0.131
-721.835	331.392	0.127	0.249
-720.821	116.420	0.156	-0.195
-719.806	-23.322	-0.050	-0.031
-718.791	-200.000	0.001	-0.158
-717.777	342.655	-0.132	-0.263
-716.762	16.244	-0.119	-0.096
-715.748	54.988	-0.036	-0.035
-714.733	-46.243	-0.164	0.082
-713.718	-200.000	0.004	-0.277
-712.704	-123.595	-0.285	-0.046
-711.689	54.209	0.314	-0.308
-710.675	306.233	0.159	0.302
-709.660	-97.929	-0.132	0.035
-708.645	-138.736	0.309	-0.034
-707.631	-108.663	0.299	0.065
-706.616	37.729	0.343	-0.311
-705.602	7.454	0.162	0.123
-704.587	-76.552	-0.168	-0.060
-703.572	-134.860	0.122	0.015
-702.558	-25.066	0.118	-0.071
-701.543	-7.707	-0.158	0.109
-700.529	315.017	-0.113	-0.216
-699.514	316.899	0.136	-0.262
-698.499	-15.467	-0.145	-0.094
-697.485	-200.000	0.045	0.243
-696.470	800.000	0.040	0.127
-695.456	-101.949	0.146	0.036
-694.441	213.539	0.100	0.161
-693.426	233.179	0.050	0.084
-692.412	98.270	-0.151	-0.177
-691.397	-200.000	-0.003	0.113
-690.383	800.000	-0.139	-0.405
-689.368	800.000	0.029	-0.122
-688.354	248.020	-0.274	-0.472
-687.339	-71.261	0.137	-0.052
-686.324	414.553	0.136	-0.296
-685.310	682.899	-0.031	0.082
-684.295	15.620	0.210	-0.168
-683.281	24.502	0.114	-0.096
-682.266	514.700	0.099	-0.236
-681.251	336.954	-0.121	0.239
-680.237	-200.000	-0.004	0.156
-679.222	-200.000	-0.072	-0.361
-678.208	164.688	0.104	-0.149
-677.193	44.044	-0.100	0.093
-676.178	346.962	0.119	-0.239
-675.164	213.356	0.091	-0.146
-674.149	413.380	0.082	-0.177
-673.135	769.037	0.062	0.171
-672.120	421.848	-0.063	0.137
-671.105	431.833	0.089	-0.196
-670.091	-97.755	-0.109	-0.029
-669.076	-67.770	0.156	0.062
-668.062	-75.420	-0.317	0.115
-667.047	-200.000	-0.001	-0.048
-666.032	-108.711	0.324	0.071
-665.018	-71.738	-0.235	-0.089
-664.003	513.026	0.072	0.171
-662.989	-158.517	-0.152	-0.009
-661.974	-52.840	-0.149	0.070
-660.959	111.292	0.195	-0.239
-659.945	-200.000	-0.276	0.001
-658.930	-135.149	0.098	0.012
-657.916	-200.000	-0.029	-0.167
-656.901	239.978	0.151	0.256
-655.886	2.027	0.079	-0.058
-654.872	686.549	-0.122	-0.324
-653.857	247.870	-0.054	-0.093
-652.843	-83.711	-0.322	-0.104
-651.828	210.260	-0.068	0.109
-650.814	-92.924	0.390	-0.111
-649.799	-101.717	0.230	-0.057
-648.784	121.063	-0.113	-0.143
-647.770	4.277	0.140	0.105
-646.755	-102.355	-0.195	-0.048
-645.741	2.902	0.209	0.155
-644.726	-200.000	-0.047	-0.261
-643.711	311.710	-0.107	-0.205
-642.697	800.000	0.064	0.185
-641.682	240.488	0.059	0.100
-640.668	-200.000	-0.037	-0.385
-639.653	-200.000	0.047	-0.297
-638.638	34.204	-0.207	0.184
-637.624	-29.779	-0.428	0.248
-636.609	-4.968	-0.142	0.099
-635.595	-11.792	-0.335	-0.223
-634.580	-200.000	-0.020	0.247
-633.565	272.730	-0.097	0.174
-632.551	86.394	-0.217	0.243
-631.536	364.829	-0.054	0.111
-630.522	800.000	-0.060	0.219
-629.507	55.072	-0.169	-0.166
-628.492	800.000	-0.067	-0.251
-627.478	-83.456	-0.124	-0.040
-626.463	-157.922	0.165	0.010
-625.449	193.045	0.106	-0.162
-624.434	-200.000	-0.018	-0.307
-623.419	177.276	0.213	-0.315
-622.405	-117.275	-0.358	-0.066
-621.390	756.212	0.125	-0.344
-620.376	-200.000	0.006	-0.148
-619.361	-113.858	0.062	0.012
-618.346	-62.270	0.148	-0.062
-617.332	-200.000	-0.029	-0.331
-616.317	800.000	-0.061	0.224
-615.303	30.089	0.124	0.107
-614.288	-199.279	0.134	0.001
-613.273	-200.000	0.043	0.239
-612.259	-112.836	-0.080	-0.016
-611.244	-23.989	-0.147	-0.089
-610.230	29.854	-0.206	0.178
-609.215	800.000	0.063	-0.195
-608.201	-41.518	-0.440	0.230
-607.186	-52.166	0.111	-0.052
-606.171	-139.652	-0.269	-0.029
-605.157	57.816	0.207	0.205
-604.142	-190.824	-0.278	-0.003
-603.128	27.675	0.181	0.155
-602.113	-119.359	0.145	0.026
-601.098	-82.677	0.258	-0.085
-600.084	-92.449	0.173	0.049
-599.069	-200.000	-0.022	-0.204
-598.055	-16.828	0.255	-0.164
-597.040	766.985	-0.028	0.076
-596.025	363.948	-0.056	-0.115
-595.011	-38.270	-0.199	-0.107
-593.996	235.761	-0.115	-0.193
-592.982	800.000	-0.054	0.212
-591.967	-73.835	-0.311	0.115
-590.952	-131.115	0.198	0.027
-589.938	9.542	-0.159	0.122
-588.923	99.503	0.134	-0.157
-587.909	-132.688	-0.152	0.020
-586.894	386.347	0.105	-0.220
-585.879	-33.611	0.059	0.033
-584.865	-100.541	-0.241	-0.061
-583.850	220.255	0.169	0.274
-582.836	-40.091	-0.211	-0.111
-581.821	55.856	0.102	0.100
-580.806	800.000	-0.071	-0.253
-579.792	425.434	-0.050	-0.108
-578.777	657.284	0.084	-0.219
-577.763	800.000	0.096	0.381
-576.748	138.869	0.155	0.206
-575.733	-98.767	0.133	0.034
-574.719	-200.000	0.052	-0.432
-573.704	-120.482	-0.200	-0.034
-572.690	-78.182	-0.448	-0.156
-571.675	490.125	0.075	0.173
-570.661	800.000	-0.071	-0.202
-569.646	-200.000	0.057	-0.359
-568.631	-200.000	0.011	0.061
-567.617	-200.000	-0.001	0.334
-566.602	-35.702	-0.419	0.230
-565.588	-119.390	0.352	-0.062
-564.573	50.759	-0.146	0.140
-563.558	-97.854	0.338	-0.088
-562.544	-200.000	-0.019	-0.142
-561.529	79.960	0.348	0.379
-560.515	-15.061	0.262	-0.170
-559.500	-164.501	0.126	-0.006
-558.485	-31.696	-0.114	-0.065
-557.471	-200.000	-0.009	-0.050
-556.456	-20.335	0.086	-0.054
-555.442	-200.000	0.008	-0.080
-554.427	-167.164	-0.137	-0.006
-553.412	-9.717	-0.125	0.085
-552.398	-200.000	-0.009	0.139
-551.383	92.485	-0.144	-0.164
-550.369	-44.218	0.152	-0.077
-549.354	52.257	-0.179	0.173
-548.339	-135.746	-0.140	0.017
-547.325	800.000	0.051	0.182
-546.310	-16.770	0.161	0.103
-545.296	-200.000	-0.003	0.169
-544.281	-200.000	0.028	-0.283
-543.266	-117.966	0.353	-0.064
-542.252	-79.911	-0.115	-0.039
-541.237	800.000	-0.085	-0.331
-540.223	800.000	0.119	-0.394
-539.208	-151.157	0.092	0.007
-538.193	800.000	-0.042	-0.136
-537.179	1.650	0.276	-0.201
-536.164	-30.331	-0.159	-0.091
-535.150	141.801	-0.306	-0.411
-534.135	-182.561	0.320	-0.006
-533.121	214.752	0.233	0.374
-532.106	-200.000	-0.001	0.041
-531.091	52.029	-0.044	-0.043
-530.077	541.019	0.156	-0.377
-529.062	44.920	-0.211	0.197
-528.048	172.359	0.091	0.133
-527.033	277.939	0.112	0.202
-526.018	213.255	-0.156	-0.250
-525.004	4.858	0.134	-0.100
-523.989	-169.145	-0.332	-0.012
-522.975	-136.823	-0.280	-0.033
-521.960	-200.000	0.026	-0.157
-520.945	-200.000	0.012	0.118
-519.931	-146.787	-0.243	-0.021
-518.916	800.000	-0.021	-0.076
-517.902	221.585	0.039	0.063
-516.887	-25.953	0.347	0.207
-515.872	286.133	0.138	0.252
-514.858	13.156	0.261	0.205
-513.843	-200.000	0.019	0.100
-512.829	152.268	0.179	0.247
-511.814	41.427	0.104	-0.095
-510.799	-97.223	0.175	-0.046
-509.785	-13.096	0.145	-0.095
-508.770	8.461	-0.355	0.270
-507.756	200.401	-0.143	-0.222
-506.741	800.000	-0.078	0.285
-505.726	39.161	-0.082	0.074
-504.712	-116.872	-0.120	-0.022
-503.697	19.977	-0.052	0.042
-502.683	29.524	-0.045	-0.039
-501.668	168.109	-0.083	-0.119
-500.653	-116.726	-0.185	-0.034
-499.639	-45.291	-0.364	0.183
-498.624	-120.596	0.126	-0.022
-497.610	-200.000	0.007	-0.131
-496.595	-150.127	-0.198	0.016
-495.581	96.700	0.038	0.044
-494.566	-19.013	0.193	-0.122
-493.551	102.414	-0.205	-0.243
-492.537	58.465	-0.176	-0.174
-491.522	-159.713	0.184	0.010
-490.508	-119.896	0.402	0.070
-489.493	56.231	-0.215	0.211
-488.478	800.000	-0.099	0.363
-487.464	-35.991	-0.093	0.051
-486.449	-48.044	0.212	-0.104
-485.435	-66.149	-0.039	-0.016
-484.420	-200.000	-0.003	-0.056
-483.405	-56.700	0.109	-0.049
-482.391	-81.736	0.261	0.086
-481.376	-53.717	0.302	-0.139
-480.362	800.000	-0.089	0.252
-479.347	800.000	-0.052	-0.167
-478.332	-200.000	0.091	-0.502
-477.318	-39.129	-0.273	-0.145
-476.303	-200.000	0.000	0.056
-475.289	-106.651	-0.315	0.071
-474.274	-200.000	0.096	-0.454
-473.259	383.200	0.094	-0.195
-472.245	-145.645	-0.118	0.011
-471.230	34.172	0.174	-0.153
-470.216	-147.387	0.085	0.007
-469.201	335.871	0.064	0.126
-468.186	22.973	-0.153	0.127
-467.172	458.049	0.092	0.206
-466.157	230.574	0.171	-0.283
-465.143	-200.000	0.008	-0.063
-464.128	412.471	0.018	-0.039
-463.113	-114.061	-0.177	-0.035
-462.099	-5.417	0.023	0.016
-461.084	-193.030	0.115	0.001
-460.070	-60.896	0.306	-0.131
-459.055	-106.540	-0.334	0.075
-458.040	62.925	-0.248	-0.251
-457.026	-122.166	0.010	-0.002
-456.011	-17.592	-0.208	-0.132
-454.997	89.517	-0.017	0.019
-453.982	-63.449	0.278	0.116
-452.968	-142.230	-0.120	-0.012
-451.953	-37.899	0.330	-0.177
-450.938	47.524	0.126	0.119
-449.924	36.852	0.236	-0.211
-448.909	-200.000	0.010	-0.275
-447.895	-54.270	-0.263	-0.120
-446.880	377.117	-0.164	0.339
-445.865	227.701	0.101	-0.166
-444.851	800.000	0.009	-0.031
-443.836	-200.000	-0.005	-0.226
-442.822	100.581	0.261	-0.305
-441.807	87.228	0.166	-0.185
-440.792	-133.884	-0.095	0.012
-439.778	-200.000	0.006	-0.295
-438.763	185.514	0.195	0.293
-437.749	-200.000	-0.047	0.240
-436.734	-93.198	0.247	-0.069
-435.719	800.000	0.071	-0.252
-434.705	-200.000	0.013	0.136
-433.690	-200.000	0.052	0.378
-432.676	-200.000	-0.028	0.169
-431.661	220.708	0.014	-0.022
-430.646	800.000	-0.064	-0.223
-429.632	-83.458	0.208	0.067
-428.617	176.585	-0.088	0.129
-427.603	25.477	0.087	0.073
-426.588	-43.939	-0.419	-0.213
-425.573	-89.657	-0.088	-0.026
-424.559	-200.000	-0.010	0.205
-423.544	-89.679	0.193	0.057
-422.530	449.797	-0.070	0.156
-421.515	800.000	0.035	0.152
-420.500	800.000	-0.043	0.131
-419.486	36.698	0.052	0.046
-418.471	-30.711	-0.381	-0.217
-417.457	358.806	-0.156	-0.314
-416.442	-112.117	-0.070	-0.014
-415.428	296.698	-0.090	-0.166
-414.413	4.688	-0.071	0.052
-413.398	378.409	-0.039	0.081
-412.384	58.338	0.192	0.190
-411.369	-58.846	0.151	0.066
-410.355	-10.210	-0.227	0.152
-409.340	-106.787	-0.241	0.054
-408.325	2.850	0.251	-0.184
-407.311	-153.416	0.438	0.031
-406.296	-39.262	-0.257	0.136
-405.282	-109.797	0.269	-0.057
-404.267	-118.352	-0.120	0.022
-403.252	-200.000	-0.006	-0.394
-402.238	-95.372	-0.068	-0.019
-401.223	-200.000	-0.060	-0.332
-400.209	119.330	0.253	0.315
-399.194	248.114	0.071	0.121
-398.179	60.155	-0.194	-0.193
-397.165	800.000	0.125	-0.407
-396.150	-147.144	0.305	-0.026
-395.136	-14.657	0.214	0.138
-394.121	181.492	0.170	0.252
-393.106	-66.012	-0.340	0.137
-392.092	-119.017	0.229	0.040
-391.077	-200.000	-0.029	-0.136
-390.063	-4.714	-0.125	-0.087
-389.048	16.473	-0.267	-0.212
-388.033	-36.330	-0.221	-0.120
-387.019	192.693	0.150	-0.228
-386.004	-200.000	-0.041	0.214
-384.990	-49.802	0.234	-0.112
-383.975	262.227	0.081	-0.141
-382.960	-200.000	-0.095	-0.545
-381.946	645.971	-0.130	-0.334
-380.931	-166.243	-0.307	0.013
-379.917	94.675	-0.036	0.042
-378.902	800.000	0.055	-0.152
-377.888	-200.000	0.038	0.288
-376.873	-176.009	-0.450	0.012
-375.858	244.655	-0.130	-0.220
-374.844	586.466	-0.067	0.165
-373.829	365.339	-0.049	-0.099
-372.815	800.000	-0.118	-0.377
-371.800	299.546	0.084	-0.155
-370.785	-121.136	-0.224	0.038
-369.771	800.000	0.071	-0.221
-368.756	-83.958	0.488	-0.156
-367.742	89.840	-0.121	0.136
-366.727	-56.265	-0.498	-0.223
-365.712	246.992	-0.074	0.125
-364.698	286.406	-0.048	0.087
-363.683	-37.457	-0.158	0.085
-362.669	800.000	-0.047	0.180
-361.654	-200.000	0.015	0.166
-360.639	151.602	-0.214	0.293
-359.625	-18.541	-0.005	-0.003
-358.610	244.390	0.083	-0.140
-357.596	-200.000	0.004	-0.094
-356.581	329.588	0.228	0.441
-355.566	-200.000	-0.096	-0.493
-354.552	-200.000	0.018	-0.085
-353.537	-165.866	-0.172	-0.007
-352.523	-33.345	-0.070	0.039
-351.508	-30.554	-0.328	0.187
-350.493	-12.881	0.259	-0.169
-349.479	-200.000	-0.011	-0.191
-348.464	545.051	-0.061	-0.146
-347.450	36.329	0.230	0.204
-346.435	-91.250	0.059	0.017
-345.420	21.887	0.045	-0.037
-344.406	-69.955	-0.159	-0.061
-343.391	81.456	0.046	-0.050
-342.377	86.206	-0.220	0.243
-341.362	-106.528	0.319	0.071
-340.348	-39.783	-0.275	0.144
-339.333	-200.000	-0.027	-0.255
-338.318	37.861	-0.103	-0.092
-337.304	523.701	0.167	0.394
-336.289	-26.434	-0.095	0.056
-335.275	-179.011	-0.046	0.001
-334.260	800.000	-0.027	-0.117
-333.245	800.000	0.064	-0.197
-332.231	-57.707	0.310	0.136
-331.216	-200.000	-0.015	0.119
-330.202	94.191	-0.055	-0.063
-329.187	219.619	-0.176	0.283
-328.172	-36.984	0.156	0.084
-327.158	130.195	-0.200	-0.258
-326.143	800.000	-0.059	-0.172
-325.129	-200.000	0.018	-0.251
-324.114	-200.000	0.045	0.209
-323.099	118.352	-0.151	-0.187
-322.085	-155.395	0.119	-0.008
-321.070	298.328	-0.124	0.228
-320.056	-137.332	-0.370	-0.042
-319.041	-148.748	0.091	-0.007
-318.026	82.959	0.216	-0.236
-317.012	-98.002	-0.150	0.039
-315.997	-98.730	0.184	-0.047
-314.983	-142.256	0.199	-0.020
-313.968	800.000	-0.097	-0.355
-312.953	374.108	0.118	0.241
-311.939	-154.291	0.141	-0.010
-310.924	50.037	0.071	-0.067
-309.910	-83.345	-0.205	0.066
-308.895	-85.754	0.380	-0.118
-307.880	-79.294	-0.280	0.095
-306.866	-14.247	0.119	-0.077
-305.851	800.000	0.049	-0.177
-304.837	-200.000	0.006	0.074
-303.822	-200.000	-0.054	0.252
-302.807	800.000	0.080	0.322
-301.793	744.760	0.017	0.045
-300.778	-39.518	-0.306	-0.161
-299.764	9.854	0.273	-0.208
-298.749	-154.407	0.350	0.024
-297.735	-200.000	-0.004	0.146
-296.720	-95.229	-0.470	-0.127
-295.705	-118.493	-0.290	0.051
-294.691	276.554	0.052	0.092
-293.676	800.000	-0.087	-0.259
-292.662	243.517	-0.107	0.181
-291.647	-164.333	0.020	-0.001
-290.632	113.609	0.200	0.244
-289.618	26.131	0.108	0.090
-288.603	-200.000	0.036	-0.495
-287.589	-200.000	-0.018	0.079
-286.574	-78.257	-0.289	0.099
-285.559	27.995	0.272	-0.230
-284.545	567.480	0.020	0.049
-283.530	-200.000	-0.036	-0.165
-282.516	237.967	-0.102	0.170
-281.501	67.898	0.210	0.215
-280.486	82.730	0.172	-0.187
-279.472	800.000	-0.035	-0.140
-278.457	72.218	0.306	0.320
-277.443	-113.192	-0.487	0.096
-276.428	-200.000	-0.015	-0.177
-275.413	-200.000	0.002	0.215
-274.399	200.547	-0.167	0.258
-273.384	-136.948	0.268	0.031
-272.370	-200.000	-0.044	0.332
-271.355	41.059	0.052	-0.047
-270.340	177.864	-0.099	0.144
-269.326	-200.000	0.022	0.190
-268.311	119.589	-0.186	-0.230
-267.297	-200.000	-0.051	-0.290
-266.282	-150.537	-0.122	0.009
-265.267	-200.000	0.007	-0.056
-264.253	-200.000	0.002	-0.014
-263.238	-200.000	-0.062	-0.373
-262.224	-96.627	-0.149	-0.039
-261.209	-52.611	0.397	0.184
-260.195	97.267	0.087	-0.100
-259.180	-170.752	0.155	-0.005
-258.165	-200.000	0.010	0.632
-257.151	-85.608	0.132	-0.041
-256.136	800.000	0.040	-0.113
-255.122	-200.000	0.016	0.299
-254.107	-84.012	-0.130	0.041
-253.092	65.342	0.307	0.311
-252.078	-77.137	-0.140	-0.049
-251.063	108.333	0.292	0.349
-250.049	800.000	0.117	0.460
-249.034	28.601	-0.051	-0.043
-248.019	-23.072	0.095	0.058
-247.005	-16.205	-0.275	0.175
-245.990	41.547	-0.079	0.071
-244.976	800.000	0.058	0.173
-243.961	-63.876	0.287	0.118
-242.946	220.377	-0.322	0.516
-241.932	135.834	0.347	-0.453
-240.917	800.000	0.128	-0.445
-239.903	172.962	-0.217	0.312
-238.888	2.011	0.188	0.136
-237.873	-46.608	0.144	0.071
-236.859	-200.000	-0.036	0.294
-235.844	-79.311	0.225	0.076
-234.830	-18.574	-0.292	0.182
-233.815	-133.470	0.115	0.014
-232.800	639.607	0.097	0.248
-231.786	800.000	-0.035	0.112
-230.771	13.586	0.162	0.126
-229.757	198.363	-0.169	0.259
-228.742	-77.146	-0.170	-0.059
-227.727	-139.399	0.165	0.018
-226.713	544.000	-0.086	0.205
-225.698	366.377	-0.032	0.065
-224.684	-129.958	-0.583	-0.080
-223.669	283.150	0.018	0.032
-222.655	403.992	-0.062	-0.131
-221.640	-29.090	0.338	-0.194
-220.625	113.696	-0.165	-0.201
-219.611	231.432	-0.064	0.105
-218.596	185.713	0.291	-0.432
-217.582	151.579	-0.109	0.149
-216.567	-113.682	-0.206	-0.040
-215.552	295.096	-0.173	0.317
-214.538	169.289	0.305	0.436
-213.523	-4.979	-0.173	-0.119
-212.509	-200.000	-0.007	0.134
-211.494	91.386	0.430	-0.483
-210.479	-200.000	-0.015	0.209
-209.465	239.172	-0.051	0.085
-208.450	-115.170	0.170	0.032
-207.436	48.731	0.150	0.141
-206.421	-54.837	-0.192	-0.087
-205.406	51.298	-0.245	0.233
-204.392	800.000	-0.066	-0.212
-203.377	22.383	-0.077	0.063
-202.363	251.413	-0.058	-0.098
-201.348	-200.000	-0.025	0.245
-200.333	353.578	-0.089	0.176
-199.319	-200.000	-0.023	-0.202
-198.304	-8.681	-0.051	0.034
-197.290	-12.728	0.115	0.075
-196.275	45.742	-0.225	0.208
-195.260	261.138	0.140	0.241
-194.246	-46.358	0.065	-0.032
-193.231	-82.956	-0.193	0.062
-192.217	28.109	-0.213	-0.180
-191.202	-180.499	0.402	0.008
-190.187	-185.557	0.138	-0.002
-189.173	-44.525	0.049	0.024
-188.158	85.071	-0.123	0.135
-187.144	-123.741	0.204	0.032
-186.129	-90.262	0.246	-0.072
-185.114	-6.388	0.097	0.066
-184.100	125.083	-0.238	0.300
-183.085	352.599	-0.068	0.134
-182.071	127.147	0.171	0.216
-181.056	-89.693	0.225	0.066
-180.042	-173.052	0.115	0.004
-179.027	-200.000	0.041	0.325
-178.012	296.584	0.046	-0.084
-176.998	367.430	0.195	-0.394
-175.983	800.000	0.102	-0.346
-174.969	-54.000	0.439	0.200
-173.954	6.695	-0.167	0.124
-172.939	-101.551	0.078	-0.019
-171.925	147.455	0.180	-0.242
-170.910	-8.650	0.213	0.143
-169.896	9.677	-0.192	-0.146
-168.881	108.660	0.139	-0.166
-167.866	-77.344	0.234	-0.081
-166.852	198.366	0.170	0.260
-165.837	800.000	0.047	0.135
-164.823	-96.942	0.084	-0.022
-163.808	-21.804	0.096	-0.058
-162.793	800.000	-0.079	0.272
-161.779	121.346	-0.070	-0.087
-160.764	800.000	0.023	0.083
-159.750	-112.833	-0.031	-0.006
-158.735	48.486	-0.058	-0.054
-157.720	-200.000	0.013	0.061
-156.706	204.506	-0.087	-0.135
-155.691	30.818	-0.220	0.188
-154.677	33.322	-0.244	0.211
-153.662	800.000	-0.085	0.278
-152.647	116.150	0.130	-0.158
-151.633	800.000	0.073	0.268
-150.618	800.000	0.039	-0.121
-149.604	-114.409	0.332	-0.064
-148.589	178.439	-0.035	0.051
-147.574	-200.000	-0.001	0.070
-146.560	-142.650	0.105	-0.010
-145.545	11.778	-0.128	0.098
-144.531	800.000	-0.012	0.041
-143.516	-24.965	-0.325	-0.192
-142.502	800.000	0.024	-0.101
-141.487	49.138	0.188	-0.176
-140.472	510.332	-0.099	-0.231
-139.458	-33.079	0.324	-0.179
-138.443	22.417	-0.221	0.180
-137.429	-200.000	-0.029	0.152
-136.414	-175.456	0.044	-0.001
-135.399	152.858	-0.107	0.146
-134.385	800.000	-0.097	0.308
-133.370	800.000	-0.074	0.250
-132.356	16.973	-0.038	0.030
-131.341	199.114	-0.255	-0.390
-130.326	295.413	-0.188	0.344
-129.312	-34.899	0.207	0.112
-128.297	65.873	0.138	-0.140
-127.283	308.234	-0.116	-0.215
-126.268	-112.090	-0.290	0.058
-125.253	-200.000	-0.014	-0.176
-124.239	800.000	-0.172	-0.652
-123.224	-70.827	-0.247	0.093
-122.210	-100.410	0.276	-0.068
-121.195	68.728	-0.359	-0.367
