DTS Sentinel unit serial number:	SN413079Multiplexer serial number:	ORYXHardware model number:	OX4-SRSoftware version number:	ORYX F/W v4.00 Oryx Data Collector v3.7.2.0data status	okinstallation	princeton_trtdifferential loss correction	single-endedforward channel	channel 4reverse channel	N/Adate	2019/09/19time	07:49:35forward acquisition time	60.00reverse acquisition time	0.00gamma	496.2192k internal	0.2339k external	0.2339temperature offset calibration	1.0022default loss term (dB/km)	0.3790temperature slope calibration	1.0000multiplexer offset coefficient	1.0000multiplexer slope coefficient	1.0000fibre end	0.00T internal ref (°C)	19.56T ext. ref 1 (°C)	0.56T ext. ref 2 (°C)	14.81length (m)	temperature (°C)	Stokes	anti-Stokes-747.200	33.902	0.072	0.063
-746.185	246.120	0.120	-0.203
-745.171	26.190	-0.256	-0.214
-744.156	-200.000	0.027	0.146
-743.142	66.642	0.119	0.122
-742.127	152.384	-0.111	-0.152
-741.112	95.543	-0.193	0.220
-740.098	117.914	0.107	0.132
-739.083	-133.425	-0.231	0.029
-738.069	-200.000	0.045	0.253
-737.054	800.000	-0.098	0.289
-736.039	18.489	-0.250	-0.200
-735.025	-126.815	0.180	0.027
-734.010	-43.383	-0.143	0.073
-732.996	378.615	0.089	-0.183
-731.981	-67.267	0.261	-0.103
-730.966	72.825	-0.257	0.269
-729.952	-200.000	0.010	-0.210
-728.937	72.573	0.118	0.124
-727.923	-94.371	-0.230	0.063
-726.908	151.990	0.129	0.177
-725.894	-200.000	-0.013	-0.108
-724.879	-106.678	-0.403	-0.090
-723.864	-10.148	-0.095	-0.063
-722.850	21.619	0.137	0.112
-721.835	-103.977	-0.228	0.053
-720.821	278.165	-0.058	-0.104
-719.806	-200.000	-0.048	0.211
-718.791	-91.256	-0.065	-0.019
-717.777	-15.399	-0.083	0.053
-716.762	-200.000	-0.018	-0.186
-715.748	-15.781	-0.139	-0.088
-714.733	234.086	0.130	-0.214
-713.718	-200.000	-0.017	-0.473
-712.704	-200.000	-0.015	-0.335
-711.689	-200.000	-0.017	-0.118
-710.675	800.000	-0.021	-0.080
-709.660	-59.150	-0.252	-0.109
-708.645	101.220	0.152	0.177
-707.631	-139.767	-0.225	0.024
-706.616	-90.996	-0.230	-0.066
-705.602	55.990	0.169	0.164
-704.587	-200.000	-0.006	-0.151
-703.572	800.000	0.070	-0.194
-702.558	424.975	-0.096	-0.207
-701.543	81.575	0.155	-0.168
-700.529	133.022	0.096	0.124
-699.514	-30.074	-0.187	0.107
-698.499	-101.527	0.128	-0.031
-697.485	-200.000	0.005	-0.124
-696.470	-17.964	0.056	-0.035
-695.456	-81.707	0.358	-0.118
-694.441	-77.130	-0.233	0.081
-693.426	786.772	-0.085	0.235
-692.412	-200.000	-0.029	0.262
-691.397	-77.914	0.163	0.056
-690.383	93.075	0.189	0.214
-689.368	-67.405	0.318	0.125
-688.354	-98.969	0.155	-0.039
-687.339	800.000	0.036	0.145
-686.324	800.000	-0.030	0.095
-685.310	275.129	-0.067	-0.119
-684.295	378.640	-0.125	-0.257
-683.281	183.360	-0.254	-0.375
-682.266	-152.740	-0.008	-0.001
-681.251	-200.000	-0.066	0.300
-680.237	-124.254	0.452	0.071
-679.222	-162.125	-0.090	0.005
-678.208	248.435	0.123	-0.208
-677.193	-200.000	-0.021	-0.237
-676.178	-44.915	-0.207	-0.103
-675.164	63.483	-0.194	0.195
-674.149	170.434	-0.095	-0.135
-673.135	800.000	-0.084	0.302
-672.120	-33.339	0.145	-0.080
-671.105	76.484	0.097	-0.102
-670.091	-103.374	0.112	0.026
-669.076	71.600	0.069	-0.072
-668.062	588.150	-0.109	0.269
-667.047	-200.000	-0.020	-0.138
-666.032	-200.000	0.036	-0.203
-665.018	-200.000	0.050	0.263
-664.003	-25.149	-0.273	0.162
-662.989	170.409	-0.152	0.217
-661.974	-59.968	-0.578	-0.247
-660.959	800.000	-0.052	0.191
-659.945	-166.682	-0.100	-0.004
-658.930	-41.550	-0.152	-0.078
-657.916	-68.450	0.177	-0.069
-656.901	-200.000	-0.064	0.324
-655.886	-79.537	-0.282	0.095
-654.872	317.110	0.039	-0.074
-653.857	-100.061	-0.024	0.006
-652.843	34.249	0.046	-0.040
-651.828	447.978	0.027	0.059
-650.814	310.929	-0.143	0.267
-649.799	100.985	-0.174	0.203
-648.784	151.644	-0.130	-0.177
-647.770	115.236	0.254	-0.310
-646.755	366.912	-0.158	-0.319
-645.741	83.536	-0.059	-0.065
-644.726	-200.000	0.033	0.211
-643.711	526.796	0.068	-0.160
-642.697	-131.443	-0.132	-0.017
-641.682	-200.000	0.006	-0.028
-640.668	800.000	-0.086	0.327
-639.653	-46.497	0.228	-0.112
-638.638	-200.000	0.059	-0.505
-637.624	-2.530	-0.278	0.195
-636.609	800.000	-0.006	-0.023
-635.595	-14.972	-0.257	0.164
-634.580	-200.000	-0.002	-0.146
-633.565	-27.142	-0.282	-0.164
-632.551	133.714	0.080	0.103
-631.536	-137.048	-0.070	0.008
-630.522	-110.358	-0.243	0.050
-629.507	563.659	-0.148	-0.357
-628.492	183.971	-0.019	0.028
-627.478	-200.000	-0.024	-0.209
-626.463	-73.187	-0.063	-0.023
-625.449	-17.102	-0.313	-0.197
-624.434	356.765	0.194	-0.385
-623.419	621.731	-0.071	-0.178
-622.405	800.000	0.073	0.305
-621.390	70.706	-0.075	-0.077
-620.376	-56.759	-0.260	-0.115
-619.361	-200.000	0.055	-0.376
-618.346	-115.973	-0.262	0.049
-617.332	800.000	-0.023	-0.081
-616.317	-111.435	-0.284	-0.058
-615.303	-200.000	-0.003	0.377
-614.288	-64.633	-0.227	0.092
-613.273	800.000	0.117	0.441
-612.259	92.031	0.185	0.207
-611.244	-200.000	0.023	-0.173
-610.230	506.140	0.086	-0.198
-609.215	67.660	-0.174	-0.177
-608.201	1.658	0.015	-0.011
-607.186	30.369	-0.092	0.079
-606.171	-60.262	0.239	0.101
-605.157	-200.000	-0.010	-0.181
-604.142	48.862	-0.055	-0.052
-603.128	-64.226	-0.114	-0.046
-602.113	135.717	-0.198	0.257
-601.098	-94.972	0.101	0.027
-600.084	-144.508	0.255	-0.024
-599.069	-112.183	-0.307	-0.062
-598.055	76.361	-0.302	-0.319
-597.040	-92.070	0.300	-0.085
-596.025	-51.842	-0.137	-0.064
-595.011	3.857	0.190	-0.138
-593.996	34.083	-0.156	-0.135
-592.982	29.503	-0.398	-0.337
-591.967	800.000	-0.097	0.394
-590.952	58.448	0.148	0.145
-589.938	18.246	-0.054	-0.043
-588.923	-81.016	-0.210	-0.069
-587.909	-0.050	0.198	-0.140
-586.894	76.522	-0.227	0.240
-585.879	-200.000	0.037	0.167
-584.865	800.000	-0.011	0.034
-583.850	316.360	-0.192	-0.361
-582.836	-32.109	0.212	-0.118
-581.821	-9.495	0.239	-0.159
-580.806	169.963	-0.077	-0.110
-579.792	-200.000	-0.032	-0.173
-578.777	-20.265	-0.144	-0.089
-577.763	-56.888	0.089	-0.039
-576.748	-200.000	-0.001	0.221
-575.733	-121.161	0.072	-0.012
-574.719	-173.766	0.024	-0.001
-573.704	-200.000	-0.007	0.114
-572.690	-120.558	0.564	0.095
-571.675	634.382	-0.061	0.155
-570.661	69.905	0.244	0.250
-569.646	520.702	-0.193	0.452
-568.631	-200.000	0.021	-0.141
-567.617	8.410	0.125	-0.093
-566.602	46.617	0.262	-0.242
-565.588	226.055	-0.249	0.402
-564.573	-200.000	0.023	-0.255
-563.558	-200.000	0.046	-0.338
-562.544	118.515	0.092	-0.114
-561.529	-137.222	0.282	-0.032
-560.515	-19.439	-0.180	0.111
-559.500	365.034	0.194	-0.388
-558.485	800.000	-0.035	-0.127
-557.471	-200.000	-0.002	0.272
-556.456	60.632	0.176	-0.174
-555.442	433.626	0.045	-0.096
-554.427	-20.668	-0.137	-0.084
-553.412	98.888	-0.053	0.061
-552.398	150.900	0.188	0.254
-551.383	-74.733	-0.169	0.061
-550.369	70.493	0.091	-0.094
-549.354	249.727	0.230	0.389
-548.339	-77.041	0.232	0.081
-547.325	-68.030	0.184	-0.072
-546.310	-127.460	0.165	-0.024
-545.296	89.704	-0.082	-0.091
-544.281	191.038	0.076	-0.113
-543.266	-200.000	-0.020	-0.200
-542.252	800.000	0.065	0.277
-541.237	800.000	-0.058	-0.189
-540.223	-200.000	-0.049	0.324
-539.208	-7.804	-0.197	-0.133
-538.193	76.378	-0.144	-0.152
-537.179	-66.232	0.132	-0.052
-536.164	800.000	0.035	-0.104
-535.150	101.987	-0.061	0.071
-534.135	-96.580	0.251	-0.066
-533.121	-126.257	0.207	-0.031
-532.106	-82.071	-0.211	0.069
-531.091	-94.250	0.461	0.125
-530.077	-43.862	-0.214	-0.107
-529.062	800.000	0.055	0.188
-528.048	-42.595	-0.036	0.018
-527.033	800.000	0.101	-0.323
-526.018	-95.877	-0.213	0.057
-525.004	-200.000	-0.007	0.322
-523.989	108.576	-0.139	0.165
-522.975	-200.000	-0.002	-0.012
-521.960	800.000	0.058	0.167
-520.945	-73.225	0.365	0.133
-519.931	-200.000	-0.010	-0.262
-518.916	264.512	-0.169	0.292
-517.902	-30.855	-0.175	-0.099
-516.887	-85.366	-0.284	-0.088
-515.872	50.762	0.101	-0.095
-514.858	-50.449	-0.051	-0.024
-513.843	135.132	-0.081	0.105
-512.829	-88.537	0.091	0.027
-511.814	800.000	-0.054	0.202
-510.799	-200.000	0.009	-0.133
-509.785	6.599	-0.198	-0.147
-508.770	-155.843	0.416	-0.026
-507.756	-200.000	-0.045	0.270
-506.741	-52.057	0.406	0.187
-505.726	-35.292	-0.074	-0.040
-504.712	-15.046	0.106	-0.067
-503.697	82.152	-0.243	-0.262
-502.683	-136.717	-0.156	-0.018
-501.668	67.940	0.155	-0.157
-500.653	754.731	0.048	-0.128
-499.639	98.690	0.241	0.276
-498.624	-86.463	0.076	0.023
-497.610	-200.000	0.002	-0.326
-496.595	-200.000	-0.058	0.264
-495.581	-74.756	0.258	0.092
-494.566	-63.206	-0.128	0.052
-493.551	-200.000	-0.008	0.059
-492.537	-89.559	0.248	0.072
-491.522	527.902	-0.134	0.314
-490.508	-12.692	0.348	-0.225
-489.493	154.771	-0.322	0.439
-488.478	800.000	0.030	-0.095
-487.464	18.222	0.336	0.266
-486.449	-200.000	-0.093	0.437
-485.435	231.956	0.063	0.102
-484.420	-177.570	-0.057	0.001
-483.405	2.502	0.161	0.116
-482.391	18.591	0.093	-0.074
-481.376	358.606	0.031	0.062
-480.362	-200.000	0.067	0.303
-479.347	-90.903	0.260	-0.074
-478.332	-51.868	-0.329	-0.152
-477.318	-21.329	-0.156	-0.095
-476.303	83.878	-0.241	0.262
-475.289	669.412	-0.144	0.369
-474.274	80.815	0.137	0.146
-473.259	800.000	0.033	-0.135
-472.245	-131.524	-0.222	-0.029
-471.230	800.000	0.024	-0.105
-470.216	-19.111	0.169	0.104
-469.201	156.267	0.089	-0.122
-468.186	800.000	0.013	-0.044
-467.172	2.694	-0.070	-0.051
-466.157	-75.747	-0.385	-0.136
-465.143	6.651	-0.300	0.222
-464.128	-111.243	-0.133	-0.027
-463.113	800.000	-0.024	-0.074
-462.099	-107.370	0.111	-0.024
-461.084	-66.795	-0.217	-0.085
-460.070	-200.000	-0.007	0.242
-459.055	30.564	0.170	-0.144
-458.040	73.242	-0.135	-0.140
-457.026	800.000	0.062	-0.198
-456.011	-85.923	-0.272	0.084
-454.997	0.280	0.160	-0.113
-453.982	-68.597	-0.405	-0.156
-452.968	448.678	0.069	-0.151
-451.953	10.601	0.199	-0.151
-450.938	-45.050	-0.162	-0.080
-449.924	-59.750	-0.137	-0.058
-448.909	458.839	0.106	-0.234
-447.895	-88.073	-0.186	-0.055
-446.880	-200.000	-0.022	-0.201
-445.865	-200.000	-0.121	-0.539
-444.851	-98.910	-0.319	0.080
-443.836	-33.198	0.220	-0.121
-442.822	241.915	-0.124	-0.206
-441.807	-73.047	0.367	-0.134
-440.792	-108.613	-0.070	-0.015
-439.778	395.781	-0.012	-0.025
-438.763	164.981	0.062	-0.086
-437.749	-13.164	0.222	0.143
-436.734	-64.620	0.189	0.076
-435.719	429.122	0.146	0.314
-434.705	351.706	0.146	-0.286
-433.690	44.833	-0.124	-0.113
-432.676	-191.229	-0.177	0.002
-431.661	800.000	0.025	0.084
-430.646	-1.815	-0.214	-0.149
-429.632	-24.445	-0.116	0.068
-428.617	-79.076	0.368	0.124
-427.603	152.328	-0.174	-0.236
-426.588	122.187	0.196	0.242
-425.573	-200.000	-0.029	-0.142
-424.559	268.832	-0.114	0.197
-423.544	800.000	-0.069	0.280
-422.530	800.000	0.069	0.219
-421.515	800.000	0.097	-0.283
-420.500	215.061	-0.089	-0.139
-419.486	-200.000	0.007	-0.079
-418.471	-200.000	-0.013	0.079
-417.457	248.854	-0.083	0.139
-416.442	-141.736	0.087	0.009
-415.428	432.991	0.072	0.155
-414.413	5.938	-0.049	-0.036
-413.398	-77.932	-0.226	-0.077
-412.384	800.000	-0.021	0.077
-411.369	-104.777	-0.253	0.058
-410.355	-200.000	0.033	0.253
-409.340	-104.405	0.235	0.054
-408.325	-85.987	0.093	-0.028
-407.311	-93.305	0.343	-0.094
-406.296	-84.412	0.153	-0.048
-405.282	-102.564	-0.347	0.082
-404.267	695.211	-0.072	-0.186
-403.252	-200.000	0.023	-0.347
-402.238	44.593	0.220	0.200
-401.223	298.591	0.068	0.124
-400.209	-39.688	-0.202	0.105
-399.194	37.304	-0.112	0.098
-398.179	-200.000	-0.013	-0.115
-397.165	-200.000	-0.003	0.032
-396.150	-124.864	0.210	0.032
-395.136	86.556	-0.090	-0.098
-394.121	800.000	-0.078	0.294
-393.106	-166.556	-0.285	0.012
-392.092	-49.299	0.124	-0.058
-391.077	-128.541	0.111	-0.016
-390.063	313.484	-0.053	-0.098
-389.048	-51.852	0.256	0.118
-388.033	-139.715	0.258	-0.027
-387.019	-64.268	-0.506	-0.204
-386.004	-41.129	0.143	0.073
-384.990	243.677	0.180	-0.299
-383.975	58.002	-0.109	-0.106
-382.960	800.000	0.054	-0.226
-381.946	-37.315	-0.272	-0.144
-380.931	216.239	0.177	-0.278
-379.917	800.000	-0.065	-0.212
-378.902	54.945	0.273	0.260
-377.888	650.578	-0.139	0.351
-376.873	-168.946	0.143	-0.005
-375.858	-8.687	-0.153	0.101
-374.844	375.339	-0.109	0.220
-373.829	761.673	-0.036	0.098
-372.815	584.006	-0.095	0.232
-371.800	-139.517	-0.390	0.041
-370.785	-93.849	0.257	-0.070
-369.771	-200.000	0.013	0.148
-368.756	-200.000	-0.044	-0.276
-367.742	-200.000	-0.002	0.107
-366.727	25.901	0.238	0.197
-365.712	-134.429	0.217	-0.026
-364.698	208.452	0.054	-0.083
-363.683	-73.112	0.072	0.026
-362.669	-93.546	0.387	0.106
-361.654	-200.000	-0.002	0.176
-360.639	402.374	0.105	-0.219
-359.625	-200.000	0.001	0.034
-358.610	154.362	0.069	-0.094
-357.596	800.000	0.030	-0.126
-356.581	63.889	-0.189	-0.187
-355.566	800.000	0.068	0.199
-354.552	334.840	0.066	-0.126
-353.537	-200.000	0.001	0.130
-352.523	-157.525	0.275	-0.016
-351.508	57.847	-0.106	0.103
-350.493	-24.163	-0.059	-0.035
-349.479	687.226	-0.104	0.269
-348.464	-90.063	0.223	-0.064
-347.450	-87.569	0.330	-0.098
-346.435	113.573	-0.144	0.173
-345.420	800.000	-0.104	-0.344
-344.406	244.332	-0.161	-0.267
-343.391	800.000	-0.020	0.070
-342.377	-3.460	0.174	0.120
-341.362	-85.823	-0.238	0.073
-340.348	80.631	0.203	0.217
-339.333	677.741	-0.063	0.163
-338.318	439.116	0.183	-0.394
-337.304	-62.803	0.376	-0.154
-336.289	-200.000	-0.028	0.457
-335.275	512.594	-0.150	0.344
-334.260	-170.527	-0.010	0.000
-333.245	-200.000	0.006	0.097
-332.231	37.700	-0.059	0.052
-331.216	209.056	-0.145	0.224
-330.202	-60.075	0.193	-0.081
-329.187	-200.000	0.023	-0.131
-328.172	-200.000	-0.046	-0.292
-327.158	-200.000	0.045	-0.211
-326.143	-52.128	0.268	-0.123
-325.129	124.022	-0.111	-0.137
-324.114	-200.000	-0.005	0.245
-323.099	234.852	-0.093	-0.151
-322.085	-42.843	0.250	0.125
-321.070	102.381	0.179	-0.207
-320.056	800.000	0.035	0.141
-319.041	-122.923	-0.183	0.029
-318.026	232.433	0.108	-0.175
-317.012	-49.133	0.266	0.126
-315.997	-119.749	-0.168	0.029
-314.983	52.016	0.168	0.158
-313.968	29.518	0.474	0.397
-312.953	-109.637	-0.074	0.015
-311.939	-67.180	-0.469	-0.182
-310.924	177.253	-0.070	-0.101
-309.910	800.000	-0.065	0.178
-308.895	0.869	0.182	0.129
-307.880	-12.765	-0.185	-0.119
-306.866	787.501	-0.114	-0.309
-305.851	66.437	-0.204	0.204
-304.837	-22.389	-0.289	0.173
-303.822	-47.803	-0.152	0.073
-302.807	205.981	-0.149	-0.228
-301.793	800.000	0.129	-0.399
-300.778	17.092	-0.180	-0.141
-299.764	-112.974	0.258	0.050
-298.749	256.539	-0.022	-0.038
-297.735	-200.000	-0.042	0.215
-296.720	-200.000	0.013	0.152
-295.705	450.089	0.064	-0.140
-294.691	726.550	-0.043	0.113
-293.676	-200.000	-0.001	-0.028
-292.662	-38.413	0.031	-0.016
-291.647	-64.942	-0.154	-0.061
-290.632	-16.231	0.220	-0.138
-289.618	105.963	0.034	-0.040
-288.603	-200.000	0.033	0.155
-287.589	-50.902	-0.158	0.073
-286.574	-57.984	-0.170	0.073
-285.559	-39.812	0.155	-0.080
-284.545	-97.825	0.141	0.036
-283.530	71.757	-0.143	-0.146
-282.516	-162.929	-0.114	-0.005
-281.501	78.565	0.241	0.254
-280.486	29.327	-0.225	-0.188
-279.472	-45.757	0.363	0.177
-278.457	-122.501	0.276	-0.044
-277.443	-157.766	0.158	0.009
-276.428	-200.000	0.032	0.214
-275.413	255.560	0.105	0.178
-274.399	-91.324	0.282	-0.079
-273.384	-148.311	-0.136	0.011
-272.370	-84.986	0.218	0.067
-271.355	97.271	-0.143	-0.161
-270.340	-112.529	-0.265	-0.052
-269.326	0.313	-0.345	-0.242
-268.311	-87.456	0.370	-0.110
-267.297	234.126	0.073	-0.119
-266.282	51.483	-0.383	0.359
-265.267	409.474	-0.048	0.099
-264.253	800.000	-0.070	0.235
-263.238	54.608	-0.093	0.089
-262.224	-166.008	0.442	0.019
-261.209	-87.432	-0.382	0.114
-260.195	-187.221	-0.411	0.006
-259.180	46.397	0.155	0.141
-258.165	-113.211	-0.121	0.023
-257.151	800.000	-0.035	0.143
-256.136	66.385	-0.029	0.029
-255.122	-200.000	-0.014	-0.076
-254.107	63.446	0.184	-0.182
-253.092	397.891	-0.042	-0.087
-252.078	-200.000	-0.011	-0.081
-251.063	-180.150	-0.290	-0.006
-250.049	-139.322	-0.481	0.051
-249.034	-21.468	0.605	-0.363
-248.019	178.086	-0.102	0.147
-247.005	-52.975	-0.294	-0.133
-245.990	-5.687	0.231	-0.156
-244.976	-200.000	0.021	-0.190
-243.961	-119.304	-0.080	-0.014
-242.946	800.000	-0.090	0.252
-241.932	80.172	-0.110	0.116
-240.917	28.539	-0.094	0.078
-239.903	-40.782	-0.121	0.062
-238.888	230.772	-0.038	-0.061
-237.873	800.000	-0.045	-0.173
-236.859	800.000	0.038	-0.151
-235.844	-200.000	-0.036	-0.163
-234.830	-200.000	-0.001	0.243
-233.815	-200.000	0.005	0.052
-232.800	-200.000	0.000	0.236
-231.786	-51.457	0.026	-0.012
-230.771	63.426	-0.173	0.171
-229.757	82.268	-0.141	0.150
-228.742	177.552	0.014	-0.021
-227.727	-60.044	-0.397	0.167
-226.713	800.000	-0.109	0.301
-225.698	-200.000	-0.017	-0.085
-224.684	-200.000	0.002	0.086
-223.669	-30.090	-0.097	-0.054
-222.655	51.380	-0.310	0.289
-221.640	77.955	0.134	0.141
-220.625	786.152	0.060	0.163
-219.611	52.461	-0.074	0.070
-218.596	28.793	0.181	0.151
-217.582	-35.611	0.168	-0.090
-216.567	-66.005	0.527	-0.207
-215.552	226.379	0.100	-0.160
-214.538	-177.437	-0.027	0.001
-213.523	530.041	-0.085	-0.197
-212.509	-158.346	0.253	0.014
-211.494	331.123	0.072	0.136
-210.479	-36.787	0.093	0.049
-209.465	-171.990	0.308	0.010
-208.450	32.926	0.293	0.249
-207.436	-200.000	-0.029	0.227
-206.421	800.000	-0.021	-0.059
-205.406	800.000	0.037	-0.139
-204.392	-15.334	-0.259	-0.163
-203.377	300.826	-0.143	-0.259
-202.363	800.000	-0.074	0.264
-201.348	-86.548	0.250	-0.075
-200.333	-99.346	0.139	-0.034
-199.319	603.261	-0.111	0.272
-198.304	-200.000	0.006	-0.063
-197.290	-200.000	-0.007	0.189
-196.275	800.000	-0.084	0.239
-195.260	800.000	0.065	-0.237
-194.246	-131.680	0.155	-0.020
-193.231	607.381	-0.130	0.317
-192.217	136.735	-0.252	0.323
-191.202	-67.098	0.338	-0.131
-190.187	308.123	-0.114	-0.208
-189.173	-200.000	0.030	-0.139
-188.158	-150.792	0.379	-0.028
-187.144	-101.131	0.127	0.030
-186.129	-86.583	-0.103	-0.031
-185.114	-200.000	-0.010	-0.171
-184.100	81.506	-0.044	-0.047
-183.085	15.561	0.165	-0.127
-182.071	30.756	0.176	0.148
-181.056	-98.780	0.315	0.079
-180.042	160.218	-0.073	-0.099
-179.027	-52.267	0.129	-0.059
-178.012	39.782	-0.277	0.244
-176.998	-85.847	0.170	0.052
-175.983	-106.055	-0.406	-0.090
-174.969	-167.484	0.174	0.007
-173.954	800.000	-0.057	0.224
-172.939	-105.920	-0.287	-0.063
-171.925	-196.506	0.305	-0.002
-170.910	-200.000	-0.002	0.040
-169.896	-7.072	0.047	0.031
-168.881	-128.352	0.200	0.028
-167.866	471.649	-0.089	0.197
-166.852	433.887	0.069	0.147
-165.837	800.000	-0.103	-0.377
-164.823	-57.038	0.200	0.087
-163.808	-200.000	-0.012	-0.222
-162.793	279.293	-0.123	-0.215
-161.779	344.175	-0.174	-0.334
-160.764	-200.000	0.000	-0.074
-159.750	12.294	-0.322	0.243
-158.735	264.686	0.146	0.250
-157.720	-200.000	0.082	-0.404
-156.706	184.545	0.252	0.366
-155.691	-110.490	-0.061	-0.012
-154.677	606.931	-0.114	0.279
-153.662	39.958	0.041	-0.036
-152.647	-200.000	0.046	-0.315
-151.633	-177.142	-0.447	-0.011
-150.618	119.150	-0.090	0.109
-149.604	81.132	-0.278	-0.294
-148.589	-2.928	0.089	-0.061
-147.574	-96.386	0.201	0.052
-146.560	-6.458	-0.200	0.133
-145.545	648.046	-0.060	0.150
-144.531	-102.099	0.167	0.039
-143.516	-61.611	0.333	-0.137
-142.502	-18.378	0.179	0.109
-141.487	-14.915	-0.059	-0.037
-140.472	-38.617	-0.041	-0.021
-139.458	-200.000	-0.030	0.143
-138.443	-200.000	0.026	-0.263
-137.429	-36.621	-0.097	-0.051
-136.414	18.468	-0.143	0.112
-135.399	-200.000	-0.055	0.295
-134.385	-153.403	0.170	-0.012
-133.370	-84.629	0.163	-0.050
-132.356	197.659	-0.190	0.285
-131.341	184.392	0.074	-0.107
-130.326	-21.735	0.129	0.077
-129.312	-47.346	-0.123	0.058
-128.297	237.208	-0.071	0.116
-127.283	-163.029	0.649	0.031
-126.268	-4.768	0.142	0.096
-125.253	82.362	-0.100	0.106
-124.239	21.957	-0.103	0.082
-123.224	140.021	0.278	-0.359
-122.210	-138.136	0.144	-0.016
