DTS Sentinel unit serial number:	SN413079Multiplexer serial number:	ORYXHardware model number:	OX4-SRSoftware version number:	ORYX F/W v4.00 Oryx Data Collector v3.7.2.0data status	okinstallation	princeton_trtdifferential loss correction	single-endedforward channel	channel 4reverse channel	N/Adate	2019/09/17time	22:41:35forward acquisition time	60.00reverse acquisition time	0.00gamma	496.2192k internal	0.2330k external	0.2330temperature offset calibration	0.9996default loss term (dB/km)	0.3790temperature slope calibration	1.0000multiplexer offset coefficient	1.0000multiplexer slope coefficient	1.0000fibre end	0.00T internal ref (°C)	25.12T ext. ref 1 (°C)	0.19T ext. ref 2 (°C)	18.49length (m)	temperature (°C)	Stokes	anti-Stokes-747.200	-41.990	0.266	0.137
-746.185	-200.000	0.045	0.235
-745.171	-71.896	0.436	0.163
-744.156	147.154	-0.121	0.163
-743.142	409.419	0.187	0.399
-742.127	419.717	-0.078	0.169
-741.112	800.000	-0.099	0.382
-740.098	-152.065	-0.347	0.025
-739.083	5.276	-0.205	0.152
-738.069	-200.000	0.031	-0.163
-737.054	-112.653	0.158	0.032
-736.039	237.635	-0.156	0.261
-735.025	800.000	0.067	0.289
-734.010	-51.372	-0.135	-0.064
-732.996	162.818	-0.204	-0.289
-731.981	-5.663	-0.197	-0.136
-730.966	-200.000	-0.009	0.062
-729.952	256.891	0.078	0.135
-728.937	-78.708	0.192	0.066
-727.923	-146.475	-0.481	0.042
-726.908	230.853	0.094	0.154
-725.894	232.945	0.049	0.081
-724.879	-200.000	0.011	0.320
-723.864	-200.000	0.053	0.371
-722.850	30.529	0.037	0.032
-721.835	-166.702	0.191	-0.008
-720.821	-50.410	0.032	0.015
-719.806	-200.000	0.039	-0.379
-718.791	247.009	-0.160	-0.272
-717.777	-38.746	-0.197	-0.105
-716.762	-145.191	0.131	-0.012
-715.748	79.273	-0.230	-0.248
-714.733	596.858	0.114	0.284
-713.718	-73.227	0.234	-0.086
-712.704	-81.590	-0.612	-0.202
-711.689	-200.000	-0.056	-0.288
-710.675	314.389	0.132	0.250
-709.660	-34.535	0.074	-0.041
-708.645	-70.630	-0.345	-0.131
-707.631	27.633	0.062	0.052
-706.616	-63.581	-0.146	-0.060
-705.602	-151.947	-0.176	0.013
-704.587	-157.388	-0.383	-0.023
-703.572	2.436	0.132	0.096
-702.558	-78.543	-0.270	-0.093
-701.543	800.000	0.131	-0.456
-700.529	-200.000	0.034	0.226
-699.514	-37.408	0.235	0.126
-698.499	-55.035	-0.214	0.097
-697.485	33.463	-0.139	0.121
-696.470	-90.653	-0.058	-0.017
-695.456	-200.000	0.038	-0.293
-694.441	481.425	0.050	-0.113
-693.426	-200.000	-0.036	-0.361
-692.412	2.955	-0.235	0.172
-691.397	108.204	-0.285	-0.341
-690.383	-106.719	-0.075	-0.017
-689.368	162.754	-0.123	-0.173
-688.354	-9.267	-0.205	0.138
-687.339	54.845	-0.094	0.091
-686.324	471.061	0.124	-0.281
-685.310	594.160	0.072	-0.179
-684.295	444.174	0.031	-0.069
-683.281	126.817	-0.177	-0.225
-682.266	-80.871	0.116	-0.039
-681.251	-177.592	0.445	0.011
-680.237	318.952	-0.131	-0.249
-679.222	-200.000	-0.104	0.502
-678.208	-200.000	-0.008	-0.042
-677.193	163.432	0.236	0.333
-676.178	-174.580	0.096	-0.003
-675.164	-150.370	0.203	-0.016
-674.149	447.145	0.067	-0.149
-673.135	-200.000	-0.012	0.290
-672.120	-200.000	-0.018	0.166
-671.105	318.841	-0.057	-0.109
-670.091	-200.000	-0.025	-0.390
-669.076	-199.818	0.157	0.001
-668.062	-163.149	-0.379	0.018
-667.047	-76.985	-0.185	-0.065
-666.032	-200.000	0.083	-0.457
-665.018	-126.664	0.118	0.018
-664.003	-42.476	-0.226	0.116
-662.989	-200.000	0.057	0.270
-661.974	26.168	0.257	-0.216
-660.959	-159.050	-0.032	0.002
-659.945	-98.978	-0.383	-0.097
-658.930	-161.803	0.196	0.010
-657.916	-23.721	-0.242	-0.146
-656.901	-100.156	-0.142	0.035
-655.886	-78.140	-0.230	0.080
-654.872	-107.392	-0.201	-0.044
-653.857	792.988	0.056	-0.155
-652.843	-66.535	-0.232	0.092
-651.828	784.051	-0.029	-0.079
-650.814	223.141	0.036	0.058
-649.799	-111.320	0.165	0.034
-648.784	-116.571	-0.194	-0.036
-647.770	366.137	-0.118	0.238
-646.755	-121.500	-0.194	-0.032
-645.741	397.816	-0.156	-0.327
-644.726	800.000	-0.042	0.150
-643.711	196.928	0.104	-0.159
-642.697	122.577	-0.093	0.117
-641.682	-153.117	-0.309	-0.022
-640.668	-21.719	-0.313	0.191
-639.653	-200.000	0.006	-0.212
-638.638	554.880	0.083	0.200
-637.624	-66.041	-0.127	-0.051
-636.609	614.565	0.070	-0.177
-635.595	51.081	-0.506	-0.481
-634.580	231.931	0.191	-0.314
-633.565	12.341	-0.043	0.033
-632.551	21.399	0.216	0.176
-631.536	79.445	-0.152	-0.163
-630.522	-9.039	-0.280	-0.188
-629.507	-200.000	-0.007	-0.166
-628.492	-10.749	0.228	-0.151
-627.478	-58.746	0.095	-0.041
-626.463	-188.311	-0.215	0.003
-625.449	-126.463	-0.024	0.004
-624.434	-200.000	-0.007	-0.069
-623.419	800.000	-0.010	-0.038
-622.405	-200.000	-0.012	-0.083
-621.390	52.348	-0.235	0.225
-620.376	-87.249	-0.203	0.062
-619.361	-200.000	-0.053	-0.262
-618.346	98.311	0.147	0.170
-617.332	159.543	-0.037	-0.051
-616.317	-168.403	0.191	-0.007
-615.303	-58.236	-0.301	-0.131
-614.288	-45.048	-0.142	0.071
-613.273	48.572	-0.288	0.270
-612.259	207.704	0.171	-0.267
-611.244	-109.197	-0.232	0.049
-610.230	-200.000	0.036	-0.213
-609.215	-26.517	-0.191	-0.112
-608.201	-200.000	-0.025	0.233
-607.186	435.852	-0.092	0.201
-606.171	145.602	-0.080	0.108
-605.157	800.000	-0.006	-0.019
-604.142	-67.911	0.141	-0.055
-603.128	59.034	-0.108	-0.106
-602.113	-30.463	-0.107	-0.061
-601.098	182.327	0.154	-0.227
-600.084	-114.743	0.360	0.069
-599.069	-200.000	-0.037	-0.208
-598.055	406.161	-0.070	0.147
-597.040	217.701	0.085	-0.135
-596.025	487.443	-0.205	0.469
-595.011	92.889	0.049	-0.055
-593.996	-105.250	-0.134	-0.030
-592.982	649.738	0.063	-0.162
-591.967	-50.402	0.117	-0.055
-590.952	-39.798	0.272	0.142
-589.938	-3.989	-0.244	0.169
-588.923	800.000	-0.022	0.064
-587.909	-200.000	-0.076	-0.552
-586.894	-200.000	0.000	0.024
-585.879	-87.044	0.324	-0.099
-584.865	-200.000	-0.010	0.171
-583.850	36.296	0.217	0.192
-582.836	219.889	0.049	0.079
-581.821	-68.043	-0.231	-0.090
-580.806	-99.245	-0.064	-0.016
-579.792	73.483	0.132	-0.138
-578.777	-200.000	-0.007	-0.166
-577.763	10.938	0.121	-0.093
-576.748	-35.971	0.173	0.093
-575.733	326.071	0.171	0.328
-574.719	-46.869	-0.368	-0.180
-573.704	-121.949	0.337	0.056
-572.690	-97.033	-0.271	0.071
-571.675	800.000	0.085	-0.237
-570.661	-200.000	0.094	-0.497
-569.646	-68.322	0.219	0.085
-568.631	-56.815	0.236	-0.104
-567.617	-1.734	0.131	0.092
-566.602	1.530	-0.165	-0.119
-565.588	-48.275	0.190	0.092
-564.573	-64.813	-0.068	-0.028
-563.558	800.000	-0.128	-0.418
-562.544	-102.932	0.243	0.058
-561.529	-67.611	-0.202	-0.079
-560.515	131.385	0.210	-0.270
-559.500	-200.000	-0.017	0.271
-558.485	-200.000	0.017	0.077
-557.471	52.134	-0.070	0.066
-556.456	-13.072	-0.121	-0.079
-555.442	293.439	0.042	0.077
-554.427	-120.878	0.273	-0.046
-553.412	800.000	0.033	-0.117
-552.398	-200.000	-0.028	-0.413
-551.383	571.678	-0.184	-0.449
-550.369	231.215	0.212	-0.346
-549.354	-200.000	-0.034	0.296
-548.339	-6.540	0.415	0.282
-547.325	800.000	0.059	0.222
-546.310	-200.000	-0.008	-0.259
-545.296	-200.000	0.058	-0.496
-544.281	-8.266	-0.350	-0.236
-543.266	97.693	-0.093	-0.107
-542.252	242.160	0.080	-0.134
-541.237	-13.421	0.120	0.077
-540.223	140.811	-0.099	-0.131
-539.208	-136.291	0.273	0.032
-538.193	-125.418	0.356	-0.054
-537.179	-90.174	0.262	-0.076
-536.164	-187.625	0.163	0.002
-535.150	16.599	0.232	0.183
-534.135	510.716	0.176	-0.409
-533.121	95.819	0.034	0.039
-532.106	-167.591	-0.244	0.010
-531.091	-200.000	0.004	-0.206
-530.077	-140.627	-0.123	0.013
-529.062	62.843	0.302	0.302
-528.048	345.247	0.091	0.178
-527.033	774.148	-0.043	-0.117
-526.018	-62.039	-0.096	-0.040
-525.004	-200.000	0.057	0.298
-523.989	367.049	-0.137	0.277
-522.975	-58.774	-0.188	-0.081
-521.960	-200.000	-0.046	0.466
-520.945	-6.103	-0.384	0.262
-519.931	27.504	-0.077	0.065
-518.916	344.601	-0.117	-0.229
-517.902	-50.694	0.275	-0.129
-516.887	21.083	-0.278	0.225
-515.872	-200.000	-0.044	0.225
-514.858	-56.939	-0.280	0.124
-513.843	116.974	-0.075	0.092
-512.829	26.928	-0.094	-0.079
-511.814	-22.323	0.041	0.025
-510.799	-93.506	-0.145	-0.040
-509.785	32.872	0.144	-0.124
-508.770	66.536	0.065	-0.066
-507.756	-55.986	-0.119	-0.053
-506.741	17.796	-0.123	-0.098
-505.726	-106.778	0.355	-0.079
-504.712	482.581	-0.130	-0.295
-503.697	169.696	-0.057	0.081
-502.683	-68.291	-0.262	-0.102
-501.668	-69.583	0.147	-0.056
-500.653	800.000	-0.028	-0.119
-499.639	-20.887	-0.221	-0.135
-498.624	63.038	0.195	-0.194
-497.610	430.655	-0.039	-0.084
-496.595	-200.000	-0.035	-0.415
-495.581	32.736	0.259	0.224
-494.566	-200.000	0.040	-0.219
-493.551	155.072	-0.136	-0.186
-492.537	-16.464	0.131	-0.083
-491.522	-200.000	-0.053	0.293
-490.508	379.267	0.064	-0.130
-489.493	-200.000	-0.000	-0.076
-488.478	-200.000	-0.024	-0.336
-487.464	24.571	-0.037	0.031
-486.449	800.000	-0.166	-0.469
-485.435	800.000	0.070	0.225
-484.420	-7.692	-0.127	0.086
-483.405	472.093	-0.098	-0.221
-482.391	-129.905	-0.316	0.043
-481.376	13.475	0.195	0.151
-480.362	33.587	-0.297	0.257
-479.347	-200.000	0.013	0.326
-478.332	73.279	0.108	0.113
-477.318	154.907	0.245	0.336
-476.303	125.525	0.313	-0.394
-475.289	-34.642	-0.146	0.079
-474.274	177.077	0.047	-0.068
-473.259	-191.416	0.390	-0.004
-472.245	-74.062	-0.391	-0.141
-471.230	800.000	0.100	-0.364
-470.216	800.000	0.025	-0.079
-469.201	-113.527	-0.203	0.040
-468.186	32.671	-0.096	0.082
-467.172	-200.000	-0.029	0.226
-466.157	141.377	-0.212	0.280
-465.143	88.743	-0.131	-0.145
-464.128	317.072	0.132	0.248
-463.113	-67.085	0.072	0.028
-462.099	23.921	-0.158	0.129
-461.084	-200.000	-0.030	0.146
-460.070	202.727	-0.068	0.105
-459.055	800.000	-0.069	0.212
-458.040	-118.555	0.292	-0.051
-457.026	800.000	0.052	0.159
-456.011	-200.000	0.053	-0.373
-454.997	206.650	0.194	0.301
-453.982	-200.000	-0.021	0.170
-452.968	800.000	0.049	-0.211
-451.953	76.535	-0.222	-0.235
-450.938	-61.794	-0.137	-0.057
-449.924	47.544	0.041	0.038
-448.909	-200.000	-0.004	0.120
-447.895	72.207	-0.267	0.276
-446.880	-128.298	0.108	-0.015
-445.865	132.290	-0.104	-0.134
-444.851	29.311	-0.128	0.108
-443.836	-92.996	-0.085	0.023
-442.822	-138.904	-0.332	-0.036
-441.807	-72.621	0.188	-0.069
-440.792	-95.485	0.243	0.065
-439.778	569.214	-0.148	-0.358
-438.763	-200.000	0.020	0.199
-437.749	142.590	0.227	-0.300
-436.734	422.654	-0.142	-0.304
-435.719	-200.000	-0.012	-0.170
-434.705	-3.270	0.097	0.067
-433.690	534.888	-0.170	0.400
-432.676	-69.708	0.270	-0.103
-431.661	-21.429	-0.043	-0.026
-430.646	-100.411	0.351	-0.087
-429.632	4.784	0.248	-0.182
-428.617	-97.855	0.427	0.110
-427.603	145.174	-0.352	-0.468
-426.588	-69.250	0.190	-0.073
-425.573	621.811	0.040	-0.100
-424.559	38.500	-0.218	0.193
-423.544	800.000	-0.045	0.188
-422.530	45.264	-0.018	-0.016
-421.515	-200.000	-0.029	-0.207
-420.500	-58.840	0.259	0.112
-419.486	227.322	0.150	0.242
-418.471	-140.342	-0.211	-0.022
-417.457	800.000	0.042	-0.116
-416.442	44.192	-0.257	-0.235
-415.428	-95.332	0.272	-0.073
-414.413	617.052	-0.008	-0.020
-413.398	-200.000	-0.021	0.166
-412.384	-85.561	-0.259	-0.080
-411.369	-200.000	-0.045	0.202
-410.355	-77.640	-0.125	0.043
-409.340	201.987	0.093	0.143
-408.325	176.322	-0.178	0.256
-407.311	-88.779	0.310	0.091
-406.296	-200.000	0.056	-0.267
-405.282	-4.916	0.141	0.097
-404.267	800.000	-0.055	-0.225
-403.252	416.885	-0.059	0.125
-402.238	-200.000	-0.022	-0.147
-401.223	-30.999	-0.304	-0.171
-400.209	546.527	-0.030	0.072
-399.194	17.680	-0.364	0.288
-398.179	-200.000	0.067	0.560
-397.165	-93.944	0.189	-0.052
-396.150	-9.566	0.172	0.114
-395.136	-41.591	0.073	0.037
-394.121	800.000	-0.062	0.191
-393.106	-200.000	-0.004	-0.043
-392.092	-200.000	-0.005	0.071
-391.077	-140.750	-0.521	-0.053
-390.063	283.353	0.102	-0.182
-389.048	800.000	0.078	-0.234
-388.033	-200.000	0.020	-0.195
-387.019	-200.000	-0.003	-0.165
-386.004	-84.999	-0.226	-0.070
-384.990	-200.000	0.037	-0.226
-383.975	30.461	-0.229	-0.194
-382.960	800.000	-0.029	-0.119
-381.946	757.420	-0.142	-0.381
-380.931	67.323	0.329	-0.333
-379.917	12.581	0.039	-0.030
-378.902	696.324	-0.102	-0.266
-377.888	-174.252	-0.229	0.007
-376.873	-200.000	-0.016	0.084
-375.858	800.000	-0.105	-0.332
-374.844	-126.838	0.296	-0.043
-373.829	28.180	0.119	0.100
-372.815	452.529	0.148	0.324
-371.800	42.925	-0.437	0.395
-370.785	-22.610	0.162	0.097
-369.771	-55.696	-0.131	0.058
-368.756	37.115	-0.036	0.031
-367.742	-89.719	0.224	-0.065
-366.727	21.136	-0.072	-0.058
-365.712	-113.592	-0.232	0.045
-364.698	24.368	-0.154	0.127
-363.683	-151.126	0.108	0.008
-362.669	531.887	0.042	-0.099
-361.654	79.647	-0.181	0.193
-360.639	800.000	-0.120	-0.330
-359.625	-132.405	-0.132	0.017
-358.610	800.000	-0.046	0.191
-357.596	-66.117	0.222	-0.088
-356.581	-66.865	-0.153	-0.060
-355.566	-84.719	0.187	0.058
-354.552	-122.620	0.282	-0.045
-353.537	-200.000	-0.040	-0.298
-352.523	34.616	-0.183	0.159
-351.508	245.116	-0.175	0.291
-350.493	-200.000	-0.019	-0.372
-349.479	282.158	-0.173	0.307
-348.464	-44.616	-0.317	0.157
-347.450	-200.000	-0.030	-0.139
-346.435	521.850	0.036	-0.083
-345.420	10.994	0.309	0.234
-344.406	13.322	0.166	0.128
-343.391	800.000	-0.063	0.226
-342.377	-44.544	0.161	0.080
-341.362	-1.949	0.174	-0.121
-340.348	-108.757	-0.124	0.026
-339.333	169.673	0.155	-0.219
-338.318	460.027	-0.173	0.383
-337.304	670.549	0.177	0.453
-336.289	-102.073	-0.159	0.038
-335.275	-108.352	-0.149	0.032
-334.260	-2.558	-0.125	-0.087
-333.245	-47.390	-0.418	-0.201
-332.231	800.000	-0.055	-0.192
-331.216	800.000	0.030	0.110
-330.202	-144.900	0.348	-0.032
-329.187	-200.000	-0.025	-0.144
-328.172	43.437	0.152	0.138
-327.158	-200.000	0.012	0.053
-326.143	-2.219	-0.246	0.171
-325.129	-70.617	0.075	0.028
-324.114	-35.986	0.145	0.077
-323.099	800.000	-0.131	0.422
-322.085	-148.519	0.265	-0.021
-321.070	-1.702	0.098	-0.068
-320.056	11.048	-0.224	0.169
-319.041	800.000	0.026	0.081
-318.026	-100.049	0.245	0.061
-317.012	64.121	-0.195	-0.194
-315.997	175.188	0.304	0.437
-314.983	-200.000	0.015	-0.224
-313.968	-20.651	-0.045	0.027
-312.953	-133.097	-0.144	-0.018
-311.939	-12.669	-0.099	0.064
-310.924	229.819	-0.203	-0.329
-309.910	-105.036	-0.218	-0.049
-308.895	411.154	-0.187	0.393
-307.880	27.692	0.245	-0.205
-306.866	-151.500	0.056	-0.004
-305.851	-41.437	0.105	0.053
-304.837	-98.357	-0.210	0.053
-303.822	-200.000	0.019	-0.173
-302.807	-37.227	0.323	0.171
-301.793	7.270	0.236	-0.174
-300.778	69.991	-0.093	-0.095
-299.764	213.594	-0.061	-0.096
-298.749	134.495	-0.014	0.018
-297.735	234.533	0.079	0.129
-296.720	-136.367	-0.165	-0.019
-295.705	-200.000	-0.007	0.200
-294.691	-77.435	0.165	-0.057
-293.676	229.282	0.010	0.016
-292.662	-160.146	-0.090	0.005
-291.647	-51.123	0.062	-0.029
-290.632	47.570	0.383	-0.353
-289.618	-154.834	-0.670	-0.044
-288.603	-81.825	0.085	0.028
-287.589	-36.650	-0.307	0.163
-286.574	-26.405	-0.200	-0.116
-285.559	286.739	0.027	0.047
-284.545	-13.998	0.215	-0.137
-283.530	-105.954	0.077	0.017
-282.516	-200.000	0.021	-0.224
-281.501	-121.468	0.334	0.055
-280.486	800.000	0.026	0.098
-279.472	215.984	-0.253	0.397
-278.457	32.050	0.178	0.152
-277.443	23.277	-0.163	0.132
-276.428	-200.000	0.019	0.465
-275.413	-5.776	0.342	-0.232
-274.399	-18.245	0.214	0.133
-273.384	34.647	-0.305	0.264
-272.370	402.106	0.016	0.033
-271.355	-22.981	0.382	0.228
-270.340	68.155	0.308	-0.312
-269.326	-91.833	0.148	0.042
-268.311	-155.287	0.059	-0.004
-267.297	13.460	-0.153	-0.117
-266.282	-65.136	0.161	0.064
-265.267	323.467	-0.050	-0.094
-264.253	-76.845	-0.401	-0.139
-263.238	-15.191	0.123	-0.077
-262.224	-100.683	0.364	-0.089
-261.209	203.010	-0.149	-0.228
-260.195	66.496	-0.310	0.311
-259.180	-200.000	-0.004	0.185
-258.165	-13.918	0.129	0.082
-257.151	-11.741	0.141	0.091
-256.136	-200.000	0.003	0.197
-255.122	296.259	0.083	-0.150
-254.107	11.334	-0.092	0.070
-253.092	-160.201	0.451	-0.024
-252.078	-82.645	-0.147	0.047
-251.063	256.055	0.129	0.218
-250.049	-200.000	-0.003	0.296
-249.034	800.000	-0.073	0.259
-248.019	-137.914	0.190	0.021
-247.005	76.381	-0.055	-0.057
-245.990	-34.047	0.319	-0.173
-244.976	-16.343	-0.244	0.153
-243.961	-200.000	0.040	0.201
-242.946	800.000	0.097	-0.315
-241.932	65.240	-0.070	0.070
-240.917	-87.322	0.414	0.124
-239.903	-200.000	0.044	0.274
-238.888	646.363	0.127	0.320
-237.873	482.577	-0.070	-0.157
-236.859	-200.000	0.017	0.194
-235.844	722.179	-0.046	0.122
-234.830	19.271	0.033	-0.026
-233.815	189.819	-0.088	0.131
-232.800	-17.086	0.447	-0.278
-231.786	-38.679	-0.335	-0.174
-230.771	800.000	0.025	0.107
-229.757	800.000	0.060	0.171
-228.742	-168.038	0.014	-0.001
-227.727	-124.106	-0.032	0.005
-226.713	-200.000	-0.055	0.269
-225.698	-200.000	-0.060	-0.276
-224.684	-200.000	-0.003	0.154
-223.669	800.000	-0.122	0.352
-222.655	116.342	-0.108	-0.131
-221.640	-200.000	0.028	-0.182
-220.625	-92.433	-0.298	-0.083
-219.611	99.422	-0.149	-0.171
-218.596	28.352	0.174	0.145
-217.582	-129.818	-0.008	0.001
-216.567	-200.000	-0.012	-0.078
-215.552	160.318	0.086	-0.119
-214.538	-187.658	0.258	-0.003
-213.523	40.184	0.189	-0.167
-212.509	-10.824	-0.432	-0.281
-211.494	-54.585	-0.249	0.111
-210.479	15.161	-0.147	0.114
-209.465	-79.138	-0.109	0.036
-208.450	51.673	0.243	0.228
-207.436	800.000	-0.096	0.372
-206.421	800.000	0.045	0.130
-205.406	49.401	0.207	-0.192
-204.392	-145.698	-0.213	0.019
-203.377	-200.000	0.030	0.288
-202.363	248.778	-0.110	-0.183
-201.348	-40.231	-0.129	-0.066
-200.333	-3.798	0.107	0.073
-199.319	-89.275	0.526	0.153
-198.304	51.575	0.035	-0.032
-197.290	210.233	0.093	0.144
-196.275	-164.858	0.219	0.010
-195.260	520.702	0.021	0.048
-194.246	64.153	0.089	0.088
-193.231	800.000	0.052	0.178
-192.217	-200.000	-0.050	0.294
-191.202	167.263	0.091	0.128
-190.187	39.719	0.030	-0.027
-189.173	327.728	-0.089	0.169
-188.158	-112.606	-0.228	0.045
-187.144	800.000	-0.074	-0.305
-186.129	106.762	-0.061	-0.072
-185.114	-29.669	0.440	-0.248
-184.100	-97.628	0.151	-0.038
-183.085	63.238	0.119	-0.117
-182.071	-200.000	-0.015	0.190
-181.056	-98.122	0.440	-0.112
-180.042	-18.053	0.197	0.122
-179.027	-200.000	0.094	0.414
-178.012	-85.923	-0.461	-0.141
-176.998	800.000	0.023	0.094
-175.983	145.307	0.161	0.212
-174.969	-120.769	0.094	-0.016
-173.954	-200.000	-0.025	-0.128
-172.939	28.687	-0.145	-0.121
-171.925	-143.131	0.471	-0.045
-170.910	26.796	0.127	-0.105
-169.896	-11.927	0.274	0.177
-168.881	-101.486	-0.250	-0.060
-167.866	-200.000	0.026	0.144
-166.852	800.000	-0.067	0.217
-165.837	-155.231	-0.343	0.022
-164.823	-159.375	0.217	-0.012
-163.808	800.000	0.069	0.215
-162.793	800.000	-0.076	-0.270
-161.779	-79.575	-0.114	0.038
-160.764	-68.287	-0.280	0.107
-159.750	-16.178	-0.194	0.121
-158.735	465.281	-0.056	-0.123
-157.720	-200.000	0.008	-0.206
-156.706	216.306	0.235	0.367
-155.691	27.412	0.164	0.136
-154.677	28.466	-0.047	0.040
-153.662	16.032	-0.265	-0.205
-152.647	67.172	0.136	-0.136
-151.633	36.285	-0.195	-0.169
-150.618	52.798	0.113	0.106
-149.604	-152.903	0.144	-0.010
-148.589	-54.494	0.305	0.136
-147.574	-79.265	-0.299	0.100
-146.560	30.676	0.288	0.242
-145.545	127.923	-0.190	0.237
-144.531	406.882	0.092	-0.191
-143.516	311.960	0.192	0.355
-142.502	-10.458	-0.198	0.129
-141.487	800.000	0.027	-0.097
-140.472	-46.429	0.215	0.104
-139.458	-134.111	0.315	-0.038
-138.443	-93.208	-0.277	-0.076
-137.429	-61.122	0.284	-0.118
-136.414	-55.102	0.089	0.039
-135.399	-63.027	0.194	0.079
-134.385	167.525	0.043	-0.060
-133.370	-145.202	-0.147	0.013
-132.356	59.648	-0.171	-0.166
-131.341	-40.007	-0.097	-0.050
-130.326	449.610	-0.059	-0.128
-129.312	174.548	-0.136	0.193
-128.297	186.592	0.055	0.080
-127.283	-14.049	-0.180	0.114
-126.268	63.547	-0.107	0.106
-125.253	92.844	0.053	-0.059
-124.239	46.363	-0.252	-0.229
-123.224	800.000	0.149	0.421
-122.210	55.774	-0.152	0.145
-121.195	-110.403	0.165	-0.034
