DTS Sentinel unit serial number:	SN413079Multiplexer serial number:	ORYXHardware model number:	OX4-SRSoftware version number:	ORYX F/W v4.00 Oryx Data Collector v3.7.2.0data status	okinstallation	princeton_trtdifferential loss correction	single-endedforward channel	channel 4reverse channel	N/Adate	2019/09/11time	05:19:11forward acquisition time	60.00reverse acquisition time	0.00gamma	496.2192k internal	0.2316k external	0.2316temperature offset calibration	0.9947default loss term (dB/km)	0.3790temperature slope calibration	1.0000multiplexer offset coefficient	1.0000multiplexer slope coefficient	1.0000fibre end	0.00T internal ref (°C)	29.44T ext. ref 1 (°C)	-0.25T ext. ref 2 (°C)	23.36length (m)	temperature (°C)	Stokes	anti-Stokes-747.200	160.382	-0.128	0.181
-746.185	-90.970	-0.284	0.083
-745.171	695.260	0.168	-0.447
-744.156	-200.000	-0.003	0.163
-743.142	-33.675	0.235	0.131
-742.127	43.521	-0.221	0.205
-741.112	30.057	-0.200	0.173
-740.098	-86.824	-0.045	-0.014
-739.083	-200.000	-0.022	-0.261
-738.069	-200.000	0.055	-0.354
-737.054	166.613	-0.158	-0.226
-736.039	-36.615	-0.098	-0.053
-735.025	310.223	-0.135	-0.256
-734.010	-200.000	0.024	-0.278
-732.996	-40.183	-0.086	-0.045
-731.981	186.819	0.066	-0.099
-730.966	-194.280	-0.334	0.003
-729.952	681.419	-0.035	0.093
-728.937	18.108	0.092	0.074
-727.923	-200.000	0.015	0.152
-726.908	-112.723	-0.321	-0.065
-725.894	95.336	-0.135	0.155
-724.879	96.586	0.160	-0.185
-723.864	10.873	-0.321	-0.248
-722.850	-200.000	0.049	-0.335
-721.835	93.166	-0.141	0.162
-720.821	40.101	-0.051	0.046
-719.806	234.568	-0.139	0.232
-718.791	560.315	0.179	-0.437
-717.777	-112.241	-0.174	-0.035
-716.762	-85.536	-0.040	-0.013
-715.748	800.000	-0.040	0.131
-714.733	-65.573	0.294	-0.119
-713.718	800.000	0.072	-0.267
-712.704	142.754	0.159	-0.214
-711.689	196.761	-0.068	-0.104
-710.675	-81.130	-0.216	0.072
-709.660	14.243	0.025	0.019
-708.645	-107.379	0.067	0.015
-707.631	-196.866	0.440	-0.003
-706.616	-200.000	0.040	0.206
-705.602	-56.804	-0.335	0.150
-704.587	-52.386	-0.092	0.043
-703.572	-200.000	0.003	0.269
-702.558	-21.496	-0.378	0.233
-701.543	-200.000	0.260	0.000
-700.529	-138.080	-0.416	0.047
-699.514	126.293	0.155	-0.198
-698.499	-2.871	0.168	-0.119
-697.485	57.172	0.105	-0.103
-696.470	283.321	0.037	-0.068
-695.456	8.206	-0.195	0.148
-694.441	-119.914	-0.359	-0.062
-693.426	-39.845	0.111	-0.059
-692.412	2.283	0.391	-0.286
-691.397	-129.736	-0.227	-0.032
-690.383	32.123	0.109	-0.095
-689.368	93.908	0.109	-0.125
-688.354	-200.000	0.014	-0.108
-687.339	126.072	-0.263	-0.336
-686.324	-111.253	0.211	-0.044
-685.310	800.000	0.022	-0.071
-684.295	798.212	-0.163	-0.455
-683.281	-10.794	0.274	-0.183
-682.266	-200.000	-0.005	-0.180
-681.251	-200.000	-0.001	0.144
-680.237	75.944	-0.091	0.097
-679.222	-124.002	-0.319	-0.051
-678.208	-100.992	0.133	0.033
-677.193	160.204	-0.208	-0.292
-676.178	-200.000	-0.035	-0.205
-675.164	-118.698	-0.087	0.015
-674.149	-200.000	-0.033	-0.174
-673.135	546.041	0.050	-0.121
-672.120	-200.000	0.059	0.301
-671.105	-128.854	0.133	0.019
-670.091	26.538	-0.087	-0.074
-669.076	82.500	0.190	-0.208
-668.062	-28.115	0.426	-0.249
-667.047	-3.320	0.462	-0.325
-666.032	-11.124	-0.321	-0.214
-665.018	-107.116	-0.354	-0.079
-664.003	145.314	0.126	0.170
-662.989	-200.000	-0.024	-0.320
-661.974	-200.000	0.024	0.166
-660.959	25.173	-0.253	-0.212
-659.945	800.000	0.044	-0.130
-658.930	-200.000	0.020	-0.120
-657.916	-200.000	-0.005	-0.053
-656.901	-137.207	0.209	0.024
-655.886	214.159	-0.128	-0.204
-654.872	-55.696	-0.119	0.054
-653.857	-174.748	-0.278	-0.008
-652.843	-200.000	0.017	-0.205
-651.828	-169.962	0.080	-0.003
-650.814	309.830	-0.100	-0.189
-649.799	39.972	0.227	-0.206
-648.784	28.843	0.145	-0.124
-647.770	800.000	0.062	-0.229
-646.755	74.685	-0.269	-0.286
-645.741	166.385	0.180	-0.257
-644.726	-200.000	-0.010	-0.118
-643.711	-27.917	-0.212	-0.124
-642.697	252.142	0.063	0.108
-641.682	800.000	0.022	-0.097
-640.668	80.907	0.073	-0.079
-639.653	800.000	-0.046	-0.164
-638.638	-1.382	-0.129	0.092
-637.624	800.000	0.055	-0.170
-636.609	115.367	-0.032	0.039
-635.595	-200.000	-0.013	-0.276
-634.580	-200.000	0.000	-0.049
-633.565	-123.139	0.192	-0.031
-632.551	-200.000	-0.035	-0.296
-631.536	231.356	-0.081	0.134
-630.522	-120.698	0.050	0.009
-629.507	-171.251	-0.181	-0.006
-628.492	-77.482	-0.306	0.107
-627.478	-159.608	0.089	-0.005
-626.463	432.150	-0.129	-0.283
-625.449	-200.000	0.008	0.188
-624.434	244.935	0.042	-0.072
-623.419	79.310	0.244	0.264
-622.405	-4.883	0.092	-0.064
-621.390	-60.666	-0.258	-0.110
-620.376	800.000	0.024	-0.089
-619.361	-19.179	0.162	-0.101
-618.346	-200.000	0.025	0.182
-617.332	-132.364	0.143	-0.019
-616.317	576.176	-0.123	0.303
-615.303	-56.574	-0.106	0.048
-614.288	43.436	0.341	-0.314
-613.273	-176.165	-0.132	0.003
-612.259	26.695	-0.104	-0.088
-611.244	-68.319	0.048	-0.019
-610.230	-200.000	-0.005	-0.043
-609.215	132.734	0.014	0.018
-608.201	9.479	-0.015	0.012
-607.186	333.183	0.092	0.178
-606.171	361.281	0.046	-0.094
-605.157	300.690	-0.119	-0.220
-604.142	-79.208	0.140	-0.048
-603.128	-54.958	-0.128	-0.058
-602.113	-141.621	-0.218	0.022
-601.098	-200.000	-0.025	0.129
-600.084	64.609	-0.038	-0.038
-599.069	17.445	-0.071	0.057
-598.055	748.703	-0.071	0.194
-597.040	-96.377	-0.310	0.083
-596.025	86.909	0.148	-0.165
-595.011	-200.000	-0.023	-0.240
-593.996	-162.524	-0.205	-0.010
-592.982	199.444	0.097	0.150
-591.967	-14.778	0.251	0.162
-590.952	-96.491	-0.073	0.019
-589.938	-169.466	-0.329	-0.012
-588.923	499.508	0.059	0.137
-587.909	-58.768	-0.153	-0.067
-586.894	-200.000	-0.020	0.131
-585.879	21.584	-0.133	0.109
-584.865	800.000	-0.036	0.112
-583.850	454.518	0.047	-0.105
-582.836	436.341	0.093	0.203
-581.821	800.000	-0.011	0.031
-580.806	-141.103	-0.283	-0.029
-579.792	-106.206	0.082	-0.018
-578.777	16.847	0.155	0.124
-577.763	156.788	-0.061	-0.084
-576.748	800.000	0.022	0.062
-575.733	-102.058	-0.283	-0.069
-574.719	-19.750	-0.122	0.076
-573.704	-130.267	0.198	-0.027
-572.690	-79.806	0.310	0.105
-571.675	-22.890	0.122	0.074
-570.661	-50.088	0.150	-0.072
-569.646	342.209	-0.217	-0.428
-568.631	399.861	-0.107	-0.225
-567.617	166.600	-0.108	-0.154
-566.602	72.796	0.089	-0.093
-565.588	367.762	0.133	0.269
-564.573	15.654	-0.249	0.197
-563.558	-60.580	-0.293	0.125
-562.544	-200.000	-0.014	-0.199
-561.529	-200.000	-0.027	-0.133
-560.515	-200.000	0.022	-0.138
-559.500	-57.565	0.146	-0.064
-558.485	800.000	-0.057	-0.191
-557.471	-163.555	0.254	-0.012
-556.456	26.139	0.270	0.227
-555.442	201.558	-0.017	-0.026
-554.427	56.206	-0.272	0.265
-553.412	97.218	-0.136	-0.157
-552.398	-110.456	-0.278	-0.058
-551.383	800.000	-0.062	-0.240
-550.369	-200.000	0.005	-0.077
-549.354	-37.334	-0.096	0.051
-548.339	85.543	-0.141	0.155
-547.325	-200.000	-0.053	-0.272
-546.310	-89.106	0.233	-0.069
-545.296	121.548	-0.207	-0.259
-544.281	340.749	-0.164	0.322
-543.266	-130.932	0.525	0.071
-542.252	-51.413	0.232	-0.109
-541.237	-153.553	0.280	0.019
-540.223	-10.009	0.022	0.015
-539.208	-55.097	-0.558	0.252
-538.193	-53.973	0.235	0.108
-537.179	-14.615	0.296	-0.191
-536.164	-152.243	0.083	0.006
-535.150	-17.933	0.272	0.172
-534.135	-200.000	0.016	-0.205
-533.121	-69.848	0.109	-0.042
-532.106	-92.410	-0.303	-0.086
-531.091	566.533	0.074	-0.180
-530.077	173.517	-0.204	0.295
-529.062	8.421	0.290	-0.219
-528.048	-200.000	0.019	0.111
-527.033	698.153	0.125	-0.330
-526.018	19.135	-0.058	-0.047
-525.004	-69.816	-0.328	0.126
-523.989	-116.447	0.187	0.035
-522.975	-200.000	0.022	0.331
-521.960	240.698	0.117	0.197
-520.945	228.929	-0.045	0.074
-519.931	-200.000	-0.015	-0.112
-518.916	-77.618	0.459	-0.159
-517.902	16.239	-0.194	0.154
-516.887	-121.046	-0.168	0.028
-515.872	-0.833	-0.206	-0.146
-514.858	800.000	-0.056	0.202
-513.843	88.764	0.138	0.154
-512.829	-157.102	0.372	0.023
-511.814	-200.000	0.003	-0.023
-510.799	800.000	0.038	-0.134
-509.785	74.313	0.101	0.106
-508.770	370.731	0.092	0.188
-507.756	-165.611	0.196	-0.009
-506.741	73.124	0.235	0.247
-505.726	56.921	-0.355	-0.347
-504.712	12.180	-0.288	-0.222
-503.697	45.433	-0.195	0.181
-502.683	240.190	-0.153	0.257
-501.668	-106.017	0.142	-0.032
-500.653	-80.917	-0.281	0.093
-499.639	-139.852	-0.255	0.027
-498.624	-200.000	-0.015	-0.069
-497.610	273.565	0.078	0.139
-496.595	267.960	0.198	0.349
-495.581	-200.000	0.022	-0.302
-494.566	800.000	-0.055	0.180
-493.551	249.043	-0.096	-0.164
-492.537	124.183	-0.104	0.132
-491.522	-65.877	0.265	-0.106
-490.508	197.291	-0.038	0.058
-489.493	-65.599	-0.196	-0.079
-488.478	-200.000	0.029	0.217
-487.464	-64.994	0.085	-0.034
-486.449	-15.708	0.171	-0.110
-485.435	43.942	-0.188	-0.173
-484.420	89.491	-0.090	0.100
-483.405	-55.076	0.068	0.031
-482.391	-173.089	-0.088	0.003
-481.376	-200.000	-0.006	0.407
-480.362	-100.578	-0.266	0.066
-479.347	-200.000	-0.004	0.209
-478.332	93.717	-0.182	-0.207
-477.318	98.594	0.276	-0.319
-476.303	-108.245	-0.085	-0.018
-475.289	-81.634	0.177	0.058
-474.274	-138.440	0.232	-0.026
-473.259	-98.222	-0.421	0.108
-472.245	-16.552	-0.132	-0.084
-471.230	-45.919	-0.129	0.064
-470.216	-44.219	-0.389	-0.195
-469.201	-46.573	0.322	0.158
-468.186	800.000	-0.037	-0.117
-467.172	-150.040	0.075	-0.006
-466.157	83.727	0.123	-0.135
-465.143	-137.130	-0.148	-0.017
-464.128	33.600	0.122	0.106
-463.113	323.437	-0.039	0.075
-462.099	105.163	0.119	0.140
-461.084	800.000	0.038	0.153
-460.070	-121.502	-0.080	0.013
-459.055	63.595	-0.132	0.132
-458.040	24.211	0.096	-0.079
-457.026	800.000	-0.130	-0.502
-456.011	-144.795	0.216	-0.020
-454.997	-200.000	-0.023	-0.288
-453.982	-114.695	-0.114	-0.022
-452.968	601.072	0.145	-0.360
-451.953	51.237	0.137	0.131
-450.938	-99.013	-0.042	0.011
-449.924	-8.006	0.072	-0.048
-448.909	36.037	0.251	-0.222
-447.895	102.807	-0.312	0.366
-446.880	65.443	0.146	0.148
-445.865	190.906	0.137	0.207
-444.851	-107.915	0.141	0.031
-443.836	-43.671	-0.063	0.032
-442.822	800.000	0.078	0.248
-441.807	149.652	-0.155	-0.210
-440.792	-200.000	-0.050	-0.507
-439.778	-200.000	0.014	0.265
-438.763	706.191	0.100	0.264
-437.749	800.000	-0.068	0.227
-436.734	-53.548	0.317	-0.145
-435.719	-154.904	0.253	-0.017
-434.705	-120.051	-0.246	-0.042
-433.690	-44.075	-0.134	-0.067
-432.676	-36.162	0.104	-0.056
-431.661	-19.486	0.118	-0.073
-430.646	-177.048	0.115	0.003
-429.632	800.000	-0.025	0.094
-428.617	800.000	0.017	-0.070
-427.603	327.031	0.024	0.046
-426.588	-200.000	0.010	0.162
-425.573	-200.000	-0.017	0.103
-424.559	165.064	0.078	-0.111
-423.544	-2.738	-0.121	0.085
-422.530	-63.193	0.149	-0.062
-421.515	-149.352	0.094	0.007
-420.500	733.920	-0.014	0.038
-419.486	-200.000	-0.038	0.358
-418.471	-200.000	-0.054	0.276
-417.457	268.300	0.033	0.057
-416.442	-200.000	-0.038	0.172
-415.428	-135.327	-0.137	-0.016
-414.413	9.348	0.430	-0.325
-413.398	-49.207	-0.201	0.096
-412.384	89.358	-0.167	0.186
-411.369	-46.844	-0.306	-0.149
-410.355	10.991	0.200	0.153
-409.340	-32.237	-0.059	-0.033
-408.325	-63.104	0.585	0.241
-407.311	-15.206	-0.212	0.136
-406.296	-96.036	0.344	-0.091
-405.282	63.018	0.163	0.163
-404.267	-4.722	-0.214	0.148
-403.252	-114.665	-0.222	-0.043
-402.238	-165.275	0.295	-0.013
-401.223	-200.000	-0.004	-0.087
-400.209	-149.704	0.306	0.024
-399.194	107.586	0.265	0.315
-398.179	317.293	-0.152	0.288
-397.165	-173.893	0.203	0.006
-396.150	207.834	-0.179	0.280
-395.136	-200.000	-0.009	0.078
-394.121	-136.156	-0.252	-0.029
-393.106	800.000	0.023	-0.071
-392.092	789.837	0.086	-0.236
-391.077	-179.240	0.022	0.000
-390.063	800.000	0.034	-0.121
-389.048	15.744	0.104	0.082
-388.033	-200.000	-0.022	0.332
-387.019	800.000	-0.044	0.180
-386.004	-59.918	-0.268	-0.114
-384.990	800.000	-0.111	-0.355
-383.975	-107.447	-0.347	-0.076
-382.960	-53.786	-0.253	-0.115
-381.946	412.823	0.168	0.358
-380.931	176.388	0.133	0.194
-379.917	-93.693	-0.240	0.066
-378.902	124.706	-0.041	0.052
-377.888	-126.872	-0.168	0.025
-376.873	-18.151	0.263	-0.164
-375.858	-21.853	0.216	-0.131
-374.844	-200.000	-0.001	-0.118
-373.829	-120.561	0.232	-0.039
-372.815	484.449	-0.124	-0.281
-371.800	367.184	-0.091	-0.183
-370.785	-96.880	-0.275	-0.072
-369.771	-104.935	-0.101	-0.023
-368.756	19.041	0.159	-0.128
-367.742	-148.620	-0.592	-0.048
-366.727	-147.460	-0.263	-0.022
-365.712	-160.412	-0.151	-0.008
-364.698	-51.747	0.175	0.081
-363.683	-6.147	0.110	0.075
-362.669	109.220	0.064	0.077
-361.654	25.902	0.168	-0.139
-360.639	-200.000	0.002	0.069
-359.625	194.301	0.117	0.177
-358.610	-200.000	0.000	-0.270
-357.596	-28.978	0.243	-0.139
-356.581	-200.000	0.039	0.325
-355.566	-16.440	-0.339	-0.214
-354.552	295.733	-0.225	-0.410
-353.537	191.459	0.020	-0.031
-352.523	-62.400	0.120	-0.050
-351.508	-186.378	0.057	0.001
-350.493	113.644	0.139	0.169
-349.479	800.000	0.046	0.191
-348.464	-42.550	0.338	-0.172
-347.450	-200.000	-0.010	-0.261
-346.435	-119.334	0.175	-0.030
-345.420	-200.000	0.015	-0.211
-344.406	185.811	0.048	-0.071
-343.391	-200.000	0.137	-0.605
-342.377	474.326	-0.072	0.162
-341.362	-16.684	0.163	-0.103
-340.348	308.109	-0.185	-0.343
-339.333	42.816	0.232	-0.210
-338.318	800.000	-0.030	-0.104
-337.304	66.847	0.119	0.121
-336.289	210.159	0.065	0.102
-335.275	-81.135	-0.119	0.039
-334.260	-76.137	-0.259	0.091
-333.245	-33.888	-0.547	0.300
-332.231	-157.231	0.244	0.015
-331.216	-112.842	0.087	0.017
-330.202	-200.000	0.029	0.175
-329.187	-89.845	-0.213	0.062
-328.172	-54.497	-0.026	-0.012
-327.158	-69.909	-0.271	-0.103
-326.143	-200.000	-0.046	-0.244
-325.129	-200.000	0.050	0.267
-324.114	800.000	-0.054	0.168
-323.099	275.849	-0.078	0.138
-322.085	-157.908	0.394	-0.023
-321.070	14.696	-0.268	-0.209
-320.056	256.386	0.125	-0.214
-319.041	71.033	-0.219	-0.226
-318.026	-95.621	0.425	0.113
-317.012	120.020	0.234	0.289
-315.997	-144.704	0.108	-0.010
-314.983	76.562	-0.132	-0.139
-313.968	407.744	0.108	-0.227
-312.953	-79.857	0.305	-0.102
-311.939	-55.388	0.282	-0.126
-310.924	454.100	0.060	0.133
-309.910	-155.436	-0.109	0.007
-308.895	-86.334	0.220	0.067
-307.880	126.213	0.066	0.083
-306.866	17.707	0.411	0.326
-305.851	96.581	0.090	0.103
-304.837	118.283	0.245	-0.301
-303.822	509.314	0.059	-0.136
-302.807	-200.000	0.014	0.117
-301.793	237.403	-0.218	-0.360
-300.778	369.505	-0.100	0.202
-299.764	17.002	0.198	-0.156
-298.749	-62.055	-0.313	-0.130
-297.735	-172.323	-0.297	-0.009
-296.720	800.000	-0.073	-0.284
-295.705	-112.970	0.190	-0.037
-294.691	800.000	0.043	-0.127
-293.676	-19.146	-0.068	0.042
-292.662	105.164	0.244	-0.286
-291.647	-200.000	0.009	0.171
-290.632	800.000	-0.034	0.126
-289.618	-132.686	-0.168	0.021
-288.603	-200.000	-0.004	0.103
-287.589	-117.021	-0.283	-0.051
-286.574	-65.152	-0.159	0.064
-285.559	112.440	0.164	0.198
-284.545	-92.015	-0.335	-0.094
-283.530	-161.405	0.299	-0.015
-282.516	-35.134	0.089	0.048
-281.501	800.000	0.055	0.201
-280.486	-197.699	-0.134	-0.001
-279.472	450.319	0.073	-0.160
-278.457	-79.775	-0.030	-0.010
-277.443	-59.410	-0.272	-0.116
-276.428	244.581	-0.074	0.123
-275.413	-161.260	0.111	-0.006
-274.399	-189.013	-0.143	0.002
-273.384	413.508	-0.096	0.204
-272.370	-200.000	0.028	0.358
-271.355	-200.000	-0.014	0.129
-270.340	273.679	-0.086	-0.152
-269.326	183.632	0.158	-0.232
-268.311	-200.000	-0.046	-0.284
-267.297	95.046	-0.063	0.071
-266.282	-200.000	-0.017	0.128
-265.267	-33.798	0.277	0.152
-264.253	-79.904	-0.124	-0.041
-263.238	-148.006	0.241	0.020
-262.224	-200.000	-0.090	-0.000
-261.209	33.626	-0.347	0.300
-260.195	132.764	-0.194	-0.248
-259.180	800.000	-0.066	-0.243
-258.165	75.632	-0.262	0.275
-257.151	388.966	-0.097	0.199
-256.136	-63.751	-0.130	-0.053
-255.122	16.343	0.138	-0.108
-254.107	800.000	0.071	-0.244
-253.092	-200.000	-0.015	0.479
-252.078	398.839	-0.117	-0.243
-251.063	79.226	-0.252	-0.268
-250.049	-200.000	-0.050	0.253
-249.034	178.735	0.199	0.289
-248.019	33.157	0.244	0.210
-247.005	-130.488	0.250	-0.034
-245.990	-47.718	-0.079	0.038
-244.976	-49.243	-0.038	0.018
-243.961	545.432	-0.124	0.294
-242.946	101.115	0.142	-0.164
-241.932	-93.130	-0.229	0.063
-240.917	-42.067	0.264	0.134
-239.903	247.008	-0.025	0.041
-238.888	-102.836	0.271	0.064
-237.873	-61.117	-0.189	-0.079
-236.859	-200.000	0.009	0.074
-235.844	-95.228	0.147	0.039
-234.830	-126.252	-0.295	0.044
-233.815	-37.036	-0.284	-0.151
-232.800	-51.820	-0.053	0.025
-231.786	467.993	0.075	-0.167
-230.771	-66.957	-0.198	-0.078
-229.757	-36.753	-0.285	0.152
-228.742	-0.880	0.060	0.042
-227.727	265.478	0.030	-0.052
-226.713	39.411	0.195	0.174
-225.698	359.314	0.004	0.008
-224.684	166.585	0.239	-0.336
-223.669	619.805	-0.039	-0.098
-222.655	53.132	-0.055	0.052
-221.640	426.781	0.059	-0.126
-220.625	31.589	0.263	0.224
-219.611	-200.000	-0.035	-0.242
-218.596	527.191	0.077	0.181
-217.582	-121.882	-0.186	-0.030
-216.567	-61.530	-0.282	0.117
-215.552	55.585	0.042	-0.040
-214.538	100.574	0.076	-0.088
-213.523	-200.000	0.038	0.268
-212.509	184.420	-0.138	0.203
-211.494	-142.749	-0.292	0.028
-210.479	-90.283	0.169	0.049
-209.465	-19.757	0.099	0.060
-208.450	301.117	-0.147	-0.269
-207.436	-25.838	0.123	-0.072
-206.421	-39.898	0.112	-0.058
-205.406	-200.000	-0.087	-0.396
-204.392	-76.697	0.186	0.065
-203.377	306.779	-0.038	-0.071
-202.363	292.793	-0.171	-0.310
-201.348	32.262	0.244	0.209
-200.333	32.808	-0.415	0.356
-199.319	85.547	0.199	0.217
-198.304	213.685	-0.093	-0.146
-197.290	-188.508	-0.234	0.003
-196.275	-124.774	0.085	0.013
-195.260	104.005	0.171	-0.199
-194.246	-200.000	-0.001	0.016
-193.231	43.788	0.258	-0.234
-192.217	193.494	-0.147	0.221
-191.202	34.054	-0.226	0.195
-190.187	-135.896	0.093	-0.011
-189.173	-78.119	0.481	0.164
-188.158	119.298	-0.052	0.064
-187.144	78.789	-0.165	0.175
-186.129	640.550	0.152	-0.384
-185.114	-200.000	0.002	0.230
-184.100	-18.707	0.126	0.078
-183.085	800.000	0.023	0.066
-182.071	-149.555	-0.302	0.024
-181.056	-200.000	-0.012	0.254
-180.042	-200.000	-0.013	0.123
-179.027	70.867	0.205	0.210
-178.012	208.970	0.135	0.209
-176.998	800.000	0.049	0.198
-175.983	-60.567	-0.347	-0.146
-174.969	-200.000	0.043	-0.193
-173.954	800.000	-0.016	0.060
-172.939	-142.976	0.498	0.048
-171.925	-200.000	0.004	0.370
-170.910	48.559	0.217	0.201
-169.896	587.467	0.052	-0.126
-168.881	-82.000	0.101	0.033
-167.866	-200.000	-0.060	-0.327
-166.852	800.000	0.062	-0.188
-165.837	-73.562	-0.054	0.019
-164.823	119.330	-0.166	0.203
-163.808	22.443	0.143	0.115
-162.793	-46.323	0.064	0.031
-161.779	800.000	0.017	-0.067
-160.764	240.018	0.048	0.080
-159.750	63.788	-0.310	-0.308
-158.735	446.772	0.053	-0.116
-157.720	14.377	-0.005	0.004
-156.706	-16.895	-0.010	0.006
-155.691	54.863	-0.198	0.189
-154.677	16.455	-0.185	0.144
-153.662	328.397	-0.115	-0.218
-152.647	284.197	0.216	-0.384
-151.633	272.416	-0.078	0.136
-150.618	-4.869	0.024	-0.017
-149.604	-200.000	0.034	-0.240
-148.589	-60.500	0.200	-0.084
-147.574	109.625	-0.065	-0.077
-146.560	75.339	-0.202	0.211
-145.545	-124.099	0.325	0.050
-144.531	-200.000	-0.023	-0.131
-143.516	-200.000	0.006	-0.142
-142.502	-46.033	0.123	0.060
-141.487	-200.000	0.005	0.130
-140.472	-200.000	-0.006	0.156
-139.458	-200.000	-0.003	0.062
-138.443	105.742	0.158	0.185
-137.429	-200.000	-0.037	0.176
-136.414	322.613	-0.223	0.420
-135.399	-66.452	-0.284	-0.112
-134.385	342.715	-0.124	0.241
-133.370	-14.065	-0.203	0.130
-132.356	-95.028	-0.361	-0.097
-131.341	269.362	-0.092	0.160
-130.326	-76.679	0.163	-0.057
-129.312	-145.396	0.464	-0.041
-128.297	11.996	-0.138	0.105
-127.283	12.118	-0.295	0.224
-126.268	-200.000	0.030	0.284
-125.253	210.477	0.233	0.362
-124.239	132.387	0.167	-0.213
-123.224	-200.000	0.008	-0.190
-122.210	67.397	-0.200	0.201
