DTS Sentinel unit serial number:	SN413079Multiplexer serial number:	ORYXHardware model number:	OX4-SRSoftware version number:	ORYX F/W v4.00 Oryx Data Collector v3.7.2.0data status	okinstallation	princeton_trtdifferential loss correction	single-endedforward channel	channel 4reverse channel	N/Adate	2019/09/13time	19:13:35forward acquisition time	60.00reverse acquisition time	0.00gamma	496.2192k internal	0.2313k external	0.2313temperature offset calibration	1.0169default loss term (dB/km)	0.3790temperature slope calibration	1.0000multiplexer offset coefficient	1.0000multiplexer slope coefficient	1.0000fibre end	0.00T internal ref (°C)	31.39T ext. ref 1 (°C)	3.82T ext. ref 2 (°C)	24.75length (m)	temperature (°C)	Stokes	anti-Stokes-747.200	800.000	-0.083	-0.317
-746.185	704.273	-0.068	-0.183
-745.171	40.833	0.318	-0.291
-744.156	-96.343	-0.249	0.067
-743.142	-200.000	-0.019	0.255
-742.127	-8.164	-0.245	0.167
-741.112	117.960	0.140	0.175
-740.098	86.146	0.170	0.190
-739.083	-137.043	-0.262	0.030
-738.069	-93.747	-0.203	0.057
-737.054	800.000	-0.075	-0.318
-736.039	1.435	-0.303	-0.221
-735.025	-106.407	0.113	-0.026
-734.010	-38.390	-0.294	0.158
-732.996	25.636	-0.317	0.268
-731.981	-200.000	-0.044	0.299
-730.966	-36.912	-0.091	0.049
-729.952	92.180	-0.125	0.143
-728.937	-200.000	-0.039	-0.211
-727.923	-162.086	-0.046	-0.002
-726.908	127.250	-0.057	0.073
-725.894	800.000	0.066	-0.290
-724.879	-170.703	-0.347	0.012
-723.864	-33.645	-0.394	-0.221
-722.850	82.418	-0.139	0.153
-721.835	-200.000	-0.043	-0.246
-720.821	225.740	0.046	-0.075
-719.806	250.883	0.035	-0.061
-718.791	-200.000	0.048	0.398
-717.777	602.062	-0.108	0.273
-716.762	183.740	-0.319	-0.478
-715.748	786.274	0.101	-0.282
-714.733	-200.000	-0.040	-0.194
-713.718	-55.654	0.173	-0.079
-712.704	-46.020	0.317	-0.158
-711.689	94.836	0.097	-0.111
-710.675	208.306	-0.019	-0.031
-709.660	-101.754	-0.161	0.040
-708.645	-57.425	-0.223	-0.099
-707.631	-106.035	0.288	0.066
-706.616	-142.840	0.110	-0.011
-705.602	-44.922	-0.176	0.089
-704.587	26.375	-0.113	0.095
-703.572	293.903	0.059	0.109
-702.558	-24.177	0.106	0.064
-701.543	-70.728	0.163	-0.062
-700.529	-11.384	-0.262	-0.174
-699.514	-151.061	0.326	0.025
-698.499	-200.000	-0.043	-0.297
-697.485	658.662	-0.137	-0.356
-696.470	140.048	-0.088	0.117
-695.456	116.223	-0.037	0.046
-694.441	209.974	-0.147	0.233
-693.426	-200.000	0.046	-0.260
-692.412	792.328	-0.097	0.271
-691.397	-200.000	-0.001	-0.098
-690.383	-164.518	-0.248	0.011
-689.368	800.000	0.128	-0.424
-688.354	66.078	-0.026	0.026
-687.339	-45.684	-0.251	0.126
-686.324	-92.875	0.283	-0.080
-685.310	-88.186	0.279	0.085
-684.295	-75.761	0.125	-0.045
-683.281	-4.835	-0.135	0.094
-682.266	-95.025	-0.167	-0.046
-681.251	-200.000	-0.008	-0.087
-680.237	113.794	0.228	0.280
-679.222	-180.639	-0.364	-0.008
-678.208	101.257	-0.129	-0.152
-677.193	-60.269	-0.189	0.082
-676.178	800.000	0.012	0.038
-675.164	187.098	-0.077	-0.117
-674.149	-76.366	0.041	0.015
-673.135	51.609	-0.079	0.076
-672.120	800.000	-0.062	-0.225
-671.105	20.383	-0.152	-0.124
-670.091	568.730	0.118	-0.290
-669.076	648.294	-0.087	0.225
-668.062	800.000	0.098	0.383
-667.047	476.739	-0.025	-0.057
-666.032	-188.919	-0.172	-0.002
-665.018	-107.677	-0.227	0.050
-664.003	800.000	0.094	-0.262
-662.989	135.866	0.059	-0.077
-661.974	-135.059	-0.468	0.057
-660.959	800.000	0.050	-0.207
-659.945	115.594	0.113	0.140
-658.930	83.854	0.073	0.080
-657.916	-199.939	0.555	0.003
-656.901	144.546	0.130	0.175
-655.886	528.850	-0.035	0.084
-654.872	279.331	-0.168	0.303
-653.857	11.185	0.078	0.060
-652.843	-22.547	-0.246	0.150
-651.828	-11.892	-0.240	0.159
-650.814	44.305	-0.161	0.149
-649.799	23.713	-0.255	0.212
-648.784	-17.915	0.335	0.212
-647.770	-39.147	-0.110	-0.058
-646.755	597.357	-0.038	0.095
-645.741	-24.439	-0.252	0.152
-644.726	-200.000	0.030	0.169
-643.711	-95.454	0.285	-0.077
-642.697	-81.865	-0.628	0.208
-641.682	-200.000	-0.063	0.316
-640.668	-65.834	-0.091	0.037
-639.653	33.905	-0.273	-0.240
-638.638	-200.000	-0.030	0.202
-637.624	20.981	0.052	-0.043
-636.609	126.167	-0.135	0.172
-635.595	800.000	0.080	-0.334
-634.580	-200.000	-0.006	-0.056
-633.565	241.366	0.141	-0.237
-632.551	9.048	0.314	0.239
-631.536	800.000	0.059	-0.226
-630.522	-200.000	-0.009	-0.269
-629.507	32.306	-0.117	-0.102
-628.492	57.566	-0.164	-0.162
-627.478	63.720	-0.178	-0.181
-626.463	19.454	-0.182	0.148
-625.449	-150.519	-0.238	-0.018
-624.434	-200.000	-0.002	-0.080
-623.419	331.249	-0.239	0.465
-622.405	90.707	0.183	0.207
-621.390	-8.519	-0.163	0.111
-620.376	5.159	-0.087	0.065
-619.361	-200.000	-0.016	-0.277
-618.346	-200.000	0.021	0.209
-617.332	-57.147	-0.309	0.137
-616.317	-200.000	0.035	0.330
-615.303	374.577	-0.007	-0.015
-614.288	-88.266	-0.279	-0.084
-613.273	-45.254	-0.074	-0.037
-612.259	-200.000	0.044	-0.481
-611.244	-200.000	-0.034	0.182
-610.230	800.000	0.058	-0.222
-609.215	49.729	-0.188	0.179
-608.201	158.827	0.110	0.155
-607.186	-43.147	0.213	0.109
-606.171	-200.000	0.047	0.221
-605.157	800.000	0.062	-0.195
-604.142	-200.000	0.027	0.122
-603.128	-129.626	0.118	0.016
-602.113	-200.000	0.033	0.250
-601.098	800.000	0.055	-0.166
-600.084	-2.263	0.082	-0.058
-599.069	94.452	0.191	0.219
-598.055	9.429	0.042	0.032
-597.040	80.553	-0.099	-0.108
-596.025	-47.239	0.199	0.098
-595.011	-10.852	-0.124	-0.082
-593.996	-155.967	0.113	-0.007
-592.982	4.799	-0.135	0.100
-591.967	-155.920	-0.257	0.016
-590.952	-200.000	0.000	-0.052
-589.938	10.223	-0.071	0.054
-588.923	800.000	0.111	0.319
-587.909	-4.588	-0.254	-0.177
-586.894	-200.000	-0.016	0.129
-585.879	-200.000	-0.027	-0.155
-584.865	-19.205	0.101	0.063
-583.850	374.785	-0.059	0.121
-582.836	695.401	-0.064	-0.170
-581.821	-200.000	0.058	0.259
-580.806	-69.313	0.325	0.126
-579.792	214.379	0.047	0.075
-578.777	-200.000	0.049	-0.321
-577.763	421.643	-0.035	-0.075
-576.748	-53.349	0.287	-0.133
-575.733	-83.492	-0.294	-0.095
-574.719	49.260	-0.276	-0.262
-573.704	-18.022	0.365	0.230
-572.690	-121.436	-0.244	-0.041
-571.675	-82.745	-0.339	0.110
-570.661	-200.000	-0.057	-0.289
-569.646	9.105	-0.123	-0.093
-568.631	-84.812	0.390	-0.123
-567.617	104.265	-0.218	0.258
-566.602	112.058	-0.158	0.192
-565.588	-91.488	-0.277	0.080
-564.573	-200.000	0.007	0.343
-563.558	400.356	-0.157	-0.332
-562.544	-88.916	-0.062	0.019
-561.529	-19.592	0.137	0.085
-560.515	125.328	0.059	0.075
-559.500	-70.212	-0.214	0.082
-558.485	-200.000	0.004	-0.089
-557.471	800.000	0.208	-0.605
-556.456	-49.744	-0.083	-0.040
-555.442	170.865	0.166	-0.240
-554.427	60.802	0.086	0.086
-553.412	111.449	0.038	-0.047
-552.398	-77.072	0.238	-0.084
-551.383	-9.129	-0.071	-0.048
-550.369	-179.420	0.173	0.004
-549.354	105.747	0.200	-0.238
-548.339	137.425	0.148	-0.195
-547.325	-11.782	-0.231	-0.153
-546.310	131.922	0.164	-0.213
-545.296	-200.000	0.027	-0.136
-544.281	-53.592	0.200	-0.092
-543.266	-200.000	-0.056	0.388
-542.252	54.027	-0.130	0.126
-541.237	9.035	0.110	0.084
-540.223	-56.757	-0.196	-0.087
-539.208	-159.406	0.127	0.007
-538.193	425.432	-0.083	-0.179
-537.179	-126.644	-0.108	0.016
-536.164	164.475	-0.151	-0.215
-535.150	15.053	0.204	-0.161
-534.135	69.553	0.256	-0.266
-533.121	399.406	0.145	-0.305
-532.106	-91.485	0.487	0.140
-531.091	-20.845	-0.041	-0.025
-530.077	800.000	-0.159	0.585
-529.062	-134.752	-0.129	-0.016
-528.048	723.083	-0.048	-0.128
-527.033	800.000	-0.120	-0.349
-526.018	167.866	0.106	-0.151
-525.004	-28.147	-0.314	0.183
-523.989	281.145	-0.102	-0.183
-522.975	-200.000	-0.358	-0.000
-521.960	39.423	0.339	0.306
-520.945	103.516	-0.063	-0.074
-519.931	-47.063	-0.132	0.065
-518.916	113.650	-0.055	0.068
-517.902	40.926	-0.358	-0.325
-516.887	-200.000	0.146	-0.699
-515.872	-165.056	0.136	0.006
-514.858	216.722	-0.135	0.216
-513.843	-96.684	-0.231	0.061
-512.829	-0.140	0.045	0.032
-511.814	800.000	0.030	-0.108
-510.799	-29.392	0.351	-0.202
-509.785	179.001	-0.249	0.366
-508.770	318.398	-0.173	0.330
-507.756	-200.000	-0.017	0.153
-506.741	15.708	0.220	-0.174
-505.726	-178.515	-0.178	0.004
-504.712	800.000	-0.042	0.154
-503.697	-200.000	-0.013	0.097
-502.683	-200.000	0.262	-0.001
-501.668	151.832	-0.158	-0.216
-500.653	39.576	-0.194	-0.174
-499.639	-120.177	0.279	0.048
-498.624	-23.711	0.305	-0.184
-497.610	-200.000	0.007	-0.214
-496.595	15.026	-0.148	-0.116
-495.581	-200.000	-0.033	0.224
-494.566	-133.105	0.347	0.044
-493.551	-116.326	0.118	-0.022
-492.537	-132.629	0.315	-0.041
-491.522	-156.521	0.152	0.009
-490.508	-94.358	-0.257	-0.070
-489.493	800.000	-0.073	-0.298
-488.478	268.976	-0.158	-0.279
-487.464	86.904	0.249	0.277
-486.449	-4.089	-0.116	0.081
-485.435	-93.762	0.082	-0.023
-484.420	800.000	0.033	0.135
-483.405	-200.000	-0.026	0.166
-482.391	29.768	0.068	-0.058
-481.376	71.926	0.132	-0.138
-480.362	-7.849	-0.150	0.102
-479.347	69.427	0.071	0.074
-478.332	-102.234	-0.097	-0.023
-477.318	-101.818	0.112	0.027
-476.303	9.510	0.306	-0.233
-475.289	-0.873	-0.110	0.078
-474.274	-200.000	-0.060	0.397
-473.259	-104.997	-0.199	-0.046
-472.245	-200.000	-0.034	-0.172
-471.230	489.705	0.043	0.100
-470.216	-69.368	-0.456	0.176
-469.201	-200.000	-0.061	0.336
-468.186	329.404	0.076	0.146
-467.172	178.819	0.182	-0.267
-466.157	-200.000	-0.029	-0.277
-465.143	17.278	0.127	0.101
-464.128	326.844	0.106	-0.203
-463.113	800.000	-0.027	-0.115
-462.099	-54.206	0.244	0.111
-461.084	85.205	-0.059	0.064
-460.070	-200.000	0.027	-0.186
-459.055	-31.546	-0.394	0.222
-458.040	800.000	-0.109	0.326
-457.026	199.659	0.110	0.169
-456.011	13.558	0.138	-0.107
-454.997	-28.821	-0.133	-0.077
-453.982	202.369	-0.125	-0.194
-452.968	-102.621	0.156	0.037
-451.953	-200.000	0.033	0.305
-450.938	753.410	0.097	0.263
-449.924	483.603	-0.079	-0.181
-448.909	-10.218	0.050	-0.034
-447.895	54.291	0.283	0.274
-446.880	-174.114	-0.420	0.012
-445.865	-122.071	0.062	-0.010
-444.851	-47.815	-0.072	-0.035
-443.836	83.620	-0.300	-0.328
-442.822	29.804	0.150	-0.128
-441.807	-200.000	-0.008	0.197
-440.792	-200.000	-0.017	-0.187
-439.778	800.000	-0.080	-0.280
-438.763	-52.045	0.229	-0.107
-437.749	140.255	-0.203	0.268
-436.734	-58.113	-0.192	-0.084
-435.719	321.706	0.142	0.270
-434.705	-18.150	0.266	-0.167
-433.690	-200.000	0.004	-0.088
-432.676	-150.986	0.273	0.021
-431.661	-200.000	0.007	0.126
-430.646	-200.000	0.017	0.142
-429.632	800.000	-0.037	-0.141
-428.617	67.643	0.173	-0.177
-427.603	-27.231	-0.112	0.065
-426.588	-137.682	0.182	-0.021
-425.573	-126.374	-0.077	-0.012
-424.559	15.340	-0.096	0.075
-423.544	-200.000	0.136	0.000
-422.530	16.348	-0.167	-0.132
-421.515	-79.041	0.070	-0.024
-420.500	50.855	-0.235	-0.223
-419.486	21.087	0.298	-0.242
-418.471	-34.609	-0.396	0.217
-417.457	800.000	-0.040	0.145
-416.442	800.000	0.070	-0.196
-415.428	110.826	-0.148	0.179
-414.413	-173.895	-0.422	-0.012
-413.398	800.000	0.063	-0.197
-412.384	-151.796	0.237	-0.017
-411.369	346.862	-0.171	-0.338
-410.355	293.685	0.090	0.165
-409.340	62.618	-0.363	0.363
-408.325	0.630	0.247	0.177
-407.311	55.223	-0.224	-0.217
-406.296	-151.870	0.081	-0.006
-405.282	98.106	0.138	0.159
-404.267	169.628	-0.034	-0.049
-403.252	171.544	-0.122	-0.175
-402.238	-171.952	0.273	0.009
-401.223	64.213	0.133	0.134
-400.209	-150.762	0.064	0.005
-399.194	-138.259	-0.193	0.021
-398.179	142.242	-0.172	0.228
-397.165	-51.856	0.105	-0.049
-396.150	-130.298	0.278	-0.038
-395.136	800.000	0.042	-0.176
-394.121	-95.344	-0.365	0.098
-393.106	-136.263	0.146	0.017
-392.092	575.704	-0.086	-0.209
-391.077	215.274	-0.076	0.120
-390.063	800.000	-0.053	0.184
-389.048	554.632	0.045	0.108
-388.033	-200.000	-0.006	0.044
-387.019	103.144	-0.226	0.265
-386.004	-98.959	-0.363	-0.092
-384.990	391.106	0.212	0.441
-383.975	-11.146	0.165	-0.109
-382.960	90.804	0.013	-0.014
-381.946	305.652	-0.069	-0.128
-380.931	-184.733	0.342	-0.005
-379.917	-46.735	-0.163	-0.080
-378.902	-30.691	-0.301	0.171
-377.888	-130.543	-0.217	-0.029
-376.873	78.153	-0.190	-0.202
-375.858	-111.281	0.076	-0.016
-374.844	-62.410	0.226	0.094
-373.829	118.237	0.172	0.212
-372.815	-131.224	0.362	-0.048
-371.800	-96.855	-0.314	-0.082
-370.785	-73.759	-0.302	-0.110
-369.771	-200.000	-0.015	0.319
-368.756	-200.000	0.027	-0.143
-367.742	800.000	-0.046	0.132
-366.727	-200.000	-0.004	-0.109
-365.712	-200.000	0.022	-0.099
-364.698	-141.287	-0.283	-0.029
-363.683	-135.284	0.294	-0.035
-362.669	73.711	0.099	0.104
-361.654	-200.000	0.038	-0.227
-360.639	28.728	0.090	-0.076
-359.625	-77.256	0.403	-0.140
-358.610	-128.813	0.343	-0.048
-357.596	-105.283	0.175	-0.040
-356.581	-200.000	0.011	-0.115
-355.566	567.323	0.087	-0.212
-354.552	-55.232	0.305	-0.137
-353.537	672.862	-0.030	-0.077
-352.523	-4.859	-0.074	0.051
-351.508	800.000	0.148	0.520
-350.493	95.238	0.126	-0.144
-349.479	157.664	0.188	0.260
-348.464	-59.375	0.408	-0.175
-347.450	-2.006	-0.181	0.127
-346.435	-64.654	0.395	-0.160
-345.420	451.518	-0.020	0.044
-344.406	-64.491	-0.205	-0.083
-343.391	-200.000	-0.022	-0.144
-342.377	17.651	0.121	-0.096
-341.362	-52.660	0.203	0.094
-340.348	-67.502	0.203	0.080
-339.333	3.227	-0.206	0.150
-338.318	-200.000	-0.032	-0.270
-337.304	-136.709	-0.013	-0.002
-336.289	-200.000	-0.060	-0.291
-335.275	126.316	0.122	-0.154
-334.260	-59.131	-0.179	-0.077
-333.245	74.373	0.141	-0.148
-332.231	787.466	0.145	0.398
-331.216	-126.683	0.109	0.016
-330.202	472.161	-0.152	-0.341
-329.187	-200.000	0.049	-0.412
-328.172	-81.463	-0.113	0.037
-327.158	512.633	0.148	0.344
-326.143	-94.487	0.161	0.044
-325.129	463.969	-0.202	-0.450
-324.114	800.000	0.053	-0.189
-323.099	-200.000	0.047	0.218
-322.085	28.227	-0.098	0.083
-321.070	-115.793	-0.250	0.047
-320.056	-124.921	0.128	0.020
-319.041	125.301	-0.222	-0.279
-318.026	-30.767	0.472	0.267
-317.012	125.989	0.154	-0.194
-315.997	165.780	-0.196	0.277
-314.983	-5.748	0.172	0.118
-313.968	-129.246	0.221	-0.031
-312.953	-200.000	0.009	-0.165
-311.939	800.000	0.114	-0.330
-310.924	5.085	0.218	-0.160
-309.910	-195.217	0.082	0.001
-308.895	152.995	-0.272	0.371
-307.880	-95.316	-0.323	-0.087
-306.866	498.951	0.032	0.074
-305.851	-75.696	-0.017	-0.006
-304.837	800.000	-0.042	0.167
-303.822	-93.864	0.414	-0.114
-302.807	507.379	0.032	0.075
-301.793	-106.052	-0.204	0.046
-300.778	70.338	-0.265	0.273
-299.764	-200.000	0.045	-0.326
-298.749	321.013	0.048	0.090
-297.735	-130.515	0.466	-0.063
-296.720	-200.000	-0.030	-0.151
-295.705	90.588	0.311	0.348
-294.691	-64.690	0.168	0.068
-293.676	122.194	-0.263	0.327
-292.662	303.141	0.081	-0.150
-291.647	-72.159	0.140	0.052
-290.632	-200.000	-0.016	0.171
-289.618	511.778	0.046	-0.106
-288.603	660.612	-0.038	0.097
-287.589	55.774	-0.150	-0.145
-286.574	-83.669	-0.094	-0.030
-285.559	211.767	-0.061	0.096
-284.545	62.822	0.119	-0.119
-283.530	-200.000	0.015	-0.110
-282.516	-104.370	0.156	-0.036
-281.501	-19.018	0.144	-0.089
-280.486	-39.247	0.326	-0.171
-279.472	-170.336	-0.259	0.009
-278.457	56.945	-0.173	0.168
-277.443	800.000	-0.029	0.093
-276.428	155.154	-0.042	0.057
-275.413	84.343	-0.135	0.147
-274.399	-59.732	-0.212	-0.091
-273.384	12.814	-0.162	-0.125
-272.370	-172.318	-0.141	-0.004
-271.355	-200.000	0.025	-0.270
-270.340	800.000	-0.112	-0.347
-269.326	-200.000	0.011	0.345
-268.311	120.987	0.238	0.294
-267.297	-200.000	0.068	-0.626
-266.282	32.934	-0.124	0.107
-265.267	219.352	-0.216	0.345
-264.253	93.438	0.236	-0.266
-263.238	582.290	-0.058	0.140
-262.224	-43.322	0.019	0.009
-261.209	67.122	0.108	0.110
-260.195	-57.656	-0.203	-0.089
-259.180	267.213	0.171	0.297
-258.165	-200.000	-0.013	0.139
-257.151	-200.000	0.025	0.212
-256.136	-133.913	0.045	-0.006
-255.122	420.465	0.071	-0.151
-254.107	-92.769	0.034	-0.009
-253.092	7.819	-0.165	0.123
-252.078	-200.000	0.015	0.255
-251.063	321.704	-0.190	0.359
-250.049	750.188	-0.076	0.204
-249.034	-27.697	-0.427	-0.246
-248.019	-13.751	0.142	0.091
-247.005	800.000	0.139	0.395
-245.990	-107.432	-0.260	-0.057
-244.976	-63.584	0.120	0.049
-243.961	41.171	0.217	-0.195
-242.946	-200.000	0.008	0.226
-241.932	123.007	0.101	0.126
-240.917	-85.449	-0.130	-0.040
-239.903	-110.021	0.171	0.036
-238.888	336.370	-0.088	-0.169
-237.873	206.532	-0.090	0.140
-236.859	435.401	-0.055	0.119
-235.844	483.208	0.029	-0.065
-234.830	107.668	0.385	-0.456
-233.815	-200.000	0.024	-0.257
-232.800	21.403	-0.151	-0.122
-231.786	328.585	-0.063	-0.120
-230.771	319.654	-0.022	0.041
-229.757	-200.000	-0.004	0.095
-228.742	6.871	-0.131	-0.097
-227.727	-19.231	-0.236	0.146
-226.713	-200.000	0.073	-0.364
-225.698	-79.701	0.235	0.079
-224.684	800.000	0.044	-0.148
-223.669	279.692	0.087	-0.154
-222.655	118.559	-0.222	0.273
-221.640	14.162	-0.129	-0.100
-220.625	43.536	0.261	0.237
-219.611	-22.432	0.158	0.095
-218.596	-79.359	-0.226	0.076
-217.582	55.598	-0.032	-0.030
-216.567	-198.433	0.265	0.002
-215.552	331.426	-0.147	0.282
-214.538	-200.000	-0.010	-0.194
-213.523	800.000	-0.085	0.267
-212.509	-200.000	0.031	0.167
-211.494	-32.677	-0.123	0.068
-210.479	-32.169	-0.056	0.031
-209.465	92.121	-0.092	0.103
-208.450	-200.000	0.026	0.159
-207.436	-200.000	-0.005	-0.269
-206.421	799.809	-0.096	-0.263
-205.406	-200.000	0.025	-0.327
-204.392	-82.976	-0.294	0.094
-203.377	-4.535	0.222	-0.152
-202.363	-86.838	-0.116	0.035
-201.348	800.000	0.099	0.425
-200.333	800.000	-0.037	0.125
-199.319	636.650	-0.012	-0.029
-198.304	228.841	0.027	0.044
-197.290	194.485	-0.037	-0.056
-196.275	-3.659	0.328	-0.227
-195.260	-48.958	-0.112	-0.053
-194.246	-29.302	-0.362	-0.206
-193.231	-78.197	-0.146	-0.050
-192.217	587.722	0.091	0.222
-191.202	800.000	-0.057	0.187
-190.187	-106.527	-0.436	0.097
-189.173	-200.000	0.040	0.190
-188.158	-200.000	-0.008	-0.072
-187.144	217.936	-0.025	0.040
-186.129	-101.194	0.056	-0.014
-185.114	100.870	0.045	0.052
-184.100	138.367	-0.173	0.225
-183.085	-200.000	0.337	0.001
-182.071	-134.775	-0.202	0.024
-181.056	13.243	0.393	-0.302
-180.042	209.599	0.039	-0.061
-179.027	129.019	-0.143	-0.181
-178.012	61.184	0.322	-0.317
-176.998	35.280	-0.140	0.121
-175.983	-79.701	0.095	0.032
-174.969	-131.412	-0.259	0.034
-173.954	-12.841	0.341	-0.220
-172.939	5.852	-0.054	0.039
-171.925	40.697	0.137	0.122
-170.910	89.887	0.087	0.096
-169.896	-200.000	0.047	0.275
-168.881	-79.143	-0.079	0.027
-167.866	-60.226	0.192	-0.081
-166.852	-200.000	-0.002	0.065
-165.837	-200.000	-0.010	0.178
-164.823	372.951	-0.042	0.085
-163.808	177.741	-0.148	-0.214
-162.793	191.482	0.193	0.289
-161.779	61.450	-0.225	0.222
-160.764	19.050	-0.095	-0.075
-159.750	-7.879	0.073	-0.049
-158.735	49.350	0.136	-0.126
-157.720	405.971	0.112	0.234
-156.706	-145.309	-0.099	0.009
-155.691	385.760	0.138	0.282
-154.677	-200.000	0.026	-0.438
-153.662	656.621	0.066	0.168
-152.647	-104.105	-0.375	-0.086
-151.633	-200.000	-0.023	-0.223
-150.618	233.067	0.181	0.295
-149.604	251.426	0.022	0.037
-148.589	155.098	0.054	0.074
-147.574	64.297	-0.107	-0.107
-146.560	800.000	-0.036	-0.133
-145.545	-23.529	-0.096	-0.057
-144.531	2.609	-0.200	0.143
-143.516	28.007	0.179	-0.149
-142.502	-86.809	-0.309	-0.093
-141.487	139.073	0.200	-0.260
-140.472	46.123	-0.164	-0.150
-139.458	800.000	-0.090	0.249
-138.443	21.070	0.122	0.098
-137.429	-19.635	0.252	0.155
-136.414	-101.876	-0.144	0.034
-135.399	28.050	0.106	-0.089
-134.385	800.000	-0.114	0.369
-133.370	-102.332	-0.224	-0.053
-132.356	-200.000	-0.021	-0.093
-131.341	800.000	0.043	0.120
-130.326	-140.665	0.254	-0.026
-129.312	235.100	-0.168	0.275
-128.297	-136.517	0.087	-0.010
-127.283	304.977	0.084	0.154
-126.268	157.388	-0.037	-0.051
-125.253	-128.575	0.393	0.055
-124.239	117.345	-0.136	0.165
-123.224	488.116	-0.098	-0.222
-122.210	-200.000	-0.034	0.471
-121.195	18.650	0.211	0.167
