DTS Sentinel unit serial number:	SN413079Multiplexer serial number:	ORYXHardware model number:	OX4-SRSoftware version number:	ORYX F/W v4.00 Oryx Data Collector v3.7.2.0data status	okinstallation	princeton_trtdifferential loss correction	single-endedforward channel	channel 4reverse channel	N/Adate	2019/09/17time	07:01:34forward acquisition time	60.00reverse acquisition time	0.00gamma	496.2192k internal	0.2320k external	0.2320temperature offset calibration	0.9983default loss term (dB/km)	0.3790temperature slope calibration	1.0000multiplexer offset coefficient	1.0000multiplexer slope coefficient	1.0000fibre end	0.00T internal ref (°C)	27.50T ext. ref 1 (°C)	0.13T ext. ref 2 (°C)	21.07length (m)	temperature (°C)	Stokes	anti-Stokes-747.200	107.289	0.144	0.173
-746.185	-82.600	-0.229	-0.075
-745.171	-72.976	0.312	-0.116
-744.156	-200.000	0.058	0.319
-743.142	-142.379	0.358	-0.036
-742.127	150.048	-0.217	0.298
-741.112	800.000	0.066	-0.211
-740.098	-77.303	-0.156	0.055
-739.083	-17.097	-0.294	0.188
-738.069	65.009	-0.260	0.266
-737.054	30.169	0.144	0.124
-736.039	-197.821	-0.383	-0.002
-735.025	-52.831	-0.142	0.066
-734.010	-94.844	-0.148	0.041
-732.996	141.989	-0.031	-0.041
-731.981	40.993	-0.097	-0.089
-730.966	800.000	0.064	-0.186
-729.952	-200.000	0.065	-0.368
-728.937	-200.000	-0.027	-0.147
-727.923	800.000	0.098	-0.372
-726.908	428.803	0.054	0.119
-725.894	257.249	0.134	-0.233
-724.879	328.819	-0.076	0.147
-723.864	710.612	-0.067	-0.180
-722.850	-200.000	-0.040	0.217
-721.835	800.000	-0.061	0.216
-720.821	800.000	-0.066	-0.203
-719.806	-70.277	-0.389	0.149
-718.791	-29.249	0.227	-0.132
-717.777	609.200	-0.091	0.230
-716.762	800.000	-0.135	-0.466
-715.748	-200.000	-0.024	-0.177
-714.733	1.294	-0.102	-0.074
-713.718	-120.124	0.189	0.033
-712.704	18.406	-0.158	0.128
-711.689	-66.908	-0.216	0.086
-710.675	100.473	0.230	0.270
-709.660	800.000	-0.131	0.412
-708.645	-200.000	-0.033	0.190
-707.631	-200.000	0.030	0.152
-706.616	-200.000	-0.024	0.309
-705.602	27.476	-0.363	0.309
-704.587	140.970	0.209	-0.279
-703.572	-114.438	-0.076	-0.015
-702.558	800.000	0.065	0.183
-701.543	-46.460	0.094	-0.047
-700.529	318.651	-0.205	0.392
-699.514	381.484	0.102	0.211
-698.499	731.683	0.075	0.202
-697.485	-139.970	-0.306	0.033
-696.470	-200.000	-0.021	0.282
-695.456	-22.208	0.124	0.076
-694.441	35.158	0.062	0.054
-693.426	-68.821	-0.375	0.146
-692.412	-99.371	0.107	-0.027
-691.397	-44.702	-0.165	-0.083
-690.383	800.000	0.046	0.166
-689.368	271.937	0.115	0.204
-688.354	348.388	0.094	-0.187
-687.339	-105.001	-0.124	0.029
-686.324	171.453	-0.200	0.290
-685.310	193.930	-0.168	-0.257
-684.295	800.000	-0.102	-0.410
-683.281	-134.521	-0.315	-0.039
-682.266	186.223	0.063	-0.094
-681.251	-145.699	0.358	0.032
-680.237	-200.000	-0.026	0.156
-679.222	800.000	0.116	-0.338
-678.208	-56.369	0.079	-0.035
-677.193	12.448	0.033	0.026
-676.178	37.880	-0.241	0.216
-675.164	35.302	-0.374	-0.331
-674.149	-200.000	0.081	0.000
-673.135	-200.000	0.053	-0.307
-672.120	40.621	0.231	-0.210
-671.105	-59.879	-0.160	0.069
-670.091	-91.651	0.200	0.057
-669.076	286.391	0.086	0.157
-668.062	-148.371	0.142	-0.012
-667.047	-58.175	0.070	0.031
-666.032	-87.509	0.118	-0.036
-665.018	97.199	-0.081	-0.094
-664.003	-154.928	-0.226	0.015
-662.989	-112.118	-0.047	0.010
-661.974	75.748	0.077	-0.082
-660.959	682.336	-0.056	-0.148
-659.945	-147.959	-0.201	-0.017
-658.930	800.000	0.062	0.245
-657.916	-200.000	-0.003	-0.351
-656.901	-30.964	0.281	0.160
-655.886	73.292	-0.016	0.017
-654.872	98.440	0.097	-0.113
-653.857	-138.480	0.086	0.010
-652.843	577.335	0.098	0.240
-651.828	-50.788	0.364	0.172
-650.814	-18.334	-0.274	0.172
-649.799	38.020	-0.277	-0.248
-648.784	-82.577	-0.323	-0.106
-647.770	101.490	-0.147	-0.172
-646.755	57.275	0.144	-0.142
-645.741	-136.609	-0.259	0.030
-644.726	-200.000	0.092	0.000
-643.711	-57.713	0.408	0.180
-642.697	85.212	0.210	0.232
-641.682	-64.652	0.078	0.032
-640.668	43.069	0.113	0.104
-639.653	245.579	-0.066	-0.113
-638.638	800.000	-0.054	-0.215
-637.624	-117.173	0.197	0.036
-636.609	10.873	0.074	0.057
-635.595	385.126	-0.063	-0.131
-634.580	-200.000	-0.022	-0.320
-633.565	206.028	-0.103	-0.162
-632.551	-200.000	-0.003	-0.285
-631.536	-49.723	0.325	-0.156
-630.522	-200.000	0.013	0.086
-629.507	264.991	0.035	-0.061
-628.492	-36.553	0.179	0.097
-627.478	-141.379	0.358	0.037
-626.463	-85.254	0.415	0.130
-625.449	703.294	0.048	-0.128
-624.434	-66.590	-0.098	0.039
-623.419	-200.000	-0.038	0.470
-622.405	-93.345	-0.277	0.077
-621.390	75.680	0.131	-0.140
-620.376	477.607	-0.132	-0.301
-619.361	209.052	-0.034	0.054
-618.346	-44.457	-0.323	-0.163
-617.332	11.266	0.219	-0.168
-616.317	-73.274	-0.068	-0.025
-615.303	-200.000	0.005	0.120
-614.288	701.246	-0.070	-0.185
-613.273	463.785	-0.074	0.165
-612.259	-136.987	-0.087	-0.010
-611.244	12.468	0.266	0.207
-610.230	800.000	0.061	-0.227
-609.215	-107.378	0.366	-0.081
-608.201	82.105	0.253	0.276
-607.186	-145.557	0.198	-0.018
-606.171	-41.343	0.262	-0.136
-605.157	800.000	-0.041	-0.173
-604.142	321.558	-0.149	-0.285
-603.128	800.000	0.066	-0.216
-602.113	340.795	0.212	0.417
-601.098	-67.112	-0.226	-0.090
-600.084	-79.062	0.071	-0.024
-599.069	766.201	0.097	0.264
-598.055	-200.000	-0.001	0.019
-597.040	9.884	-0.060	0.045
-596.025	38.330	0.211	0.189
-595.011	-119.664	0.172	0.030
-593.996	800.000	-0.145	0.605
-592.982	-18.036	0.258	-0.162
-591.967	-97.447	-0.159	-0.041
-590.952	336.756	0.095	-0.185
-589.938	-165.404	-0.206	0.009
-588.923	167.844	0.174	-0.249
-587.909	-63.990	0.196	-0.080
-586.894	127.893	-0.068	-0.087
-585.879	-200.000	0.021	-0.188
-584.865	-178.426	-0.257	-0.006
-583.850	-90.960	0.285	0.082
-582.836	-95.504	-0.267	0.072
-581.821	-51.744	-0.085	0.040
-580.806	503.290	-0.167	-0.389
-579.792	244.230	0.150	-0.254
-578.777	-22.081	0.115	0.070
-577.763	212.700	0.137	-0.218
-576.748	165.091	0.034	-0.048
-575.733	48.489	0.103	0.097
-574.719	-200.000	0.014	-0.113
-573.704	737.105	-0.121	-0.326
-572.690	800.000	-0.024	0.086
-571.675	67.496	-0.173	-0.177
-570.661	25.562	-0.073	-0.061
-569.646	211.521	-0.152	0.240
-568.631	-11.332	0.070	0.046
-567.617	-82.112	0.226	-0.074
-566.602	-97.392	0.317	-0.083
-565.588	-200.000	0.011	-0.054
-564.573	54.920	0.097	-0.094
-563.558	-39.757	-0.168	0.088
-562.544	632.958	-0.155	-0.395
-561.529	-42.611	-0.274	-0.140
-560.515	367.998	0.156	0.317
-559.500	-33.005	-0.213	-0.119
-558.485	201.163	0.285	0.441
-557.471	-138.726	-0.148	0.016
-556.456	-200.000	0.007	0.187
-555.442	-131.225	0.192	0.026
-554.427	91.420	-0.171	0.192
-553.412	236.138	0.125	0.207
-552.398	225.782	0.131	0.214
-551.383	-200.000	0.034	0.271
-550.369	800.000	0.095	0.284
-549.354	-69.778	-0.145	0.056
-548.339	-141.899	0.308	0.031
-547.325	-174.451	-0.181	0.005
-546.310	17.094	-0.177	-0.141
-545.296	152.847	-0.183	-0.252
-544.281	-104.082	0.342	-0.080
-543.266	463.664	-0.072	0.161
-542.252	-129.845	-0.314	-0.043
-541.237	-200.000	-0.043	-0.472
-540.223	422.220	0.084	-0.180
-539.208	102.430	-0.170	-0.200
-538.193	-200.000	-0.011	0.105
-537.179	800.000	0.009	0.028
-536.164	800.000	-0.047	0.159
-535.150	159.080	0.062	-0.086
-534.135	601.222	0.064	-0.158
-533.121	-148.102	-0.408	-0.034
-532.106	27.358	-0.206	0.173
-531.091	-200.000	0.075	0.461
-530.077	26.807	-0.166	0.140
-529.062	-200.000	0.020	-0.457
-528.048	109.893	0.188	0.226
-527.033	87.134	-0.273	0.302
-526.018	-132.249	-0.180	-0.023
-525.004	160.042	-0.142	0.198
-523.989	109.461	0.182	-0.218
-522.975	26.347	-0.186	0.156
-521.960	-200.000	0.011	0.160
-520.945	-75.758	0.137	0.049
-519.931	247.827	-0.098	0.167
-518.916	800.000	-0.013	-0.053
-517.902	-200.000	0.023	0.110
-516.887	-200.000	-0.027	-0.223
-515.872	-200.000	0.060	-0.334
-514.858	-56.538	-0.125	0.055
-513.843	229.614	-0.111	0.182
-512.829	-200.000	0.005	0.369
-511.814	-5.331	-0.157	0.108
-510.799	-200.000	-0.015	0.119
-509.785	303.737	-0.093	-0.173
-508.770	-200.000	-0.028	-0.159
-507.756	112.171	-0.117	-0.142
-506.741	-200.000	0.053	-0.293
-505.726	-55.315	-0.211	-0.095
-504.712	124.228	0.102	-0.129
-503.697	141.017	-0.112	-0.148
-502.683	-200.000	-0.011	-0.056
-501.668	-200.000	-0.028	0.327
-500.653	-200.000	-0.021	0.176
-499.639	291.188	-0.152	-0.277
-498.624	19.541	0.221	0.178
-497.610	658.374	-0.099	-0.256
-496.595	10.699	-0.207	-0.158
-495.581	-200.000	-0.007	0.158
-494.566	-121.992	0.192	-0.032
-493.551	-38.129	-0.032	0.017
-492.537	-200.000	-0.021	0.217
-491.522	222.637	-0.145	-0.234
-490.508	37.876	-0.135	-0.120
-489.493	22.502	0.327	0.268
-488.478	-9.859	0.334	0.222
-487.464	-200.000	0.039	-0.183
-486.449	124.044	0.119	-0.150
-485.435	35.293	-0.188	-0.165
-484.420	82.612	0.180	0.196
-483.405	-4.701	-0.052	0.036
-482.391	71.214	-0.106	0.110
-481.376	-103.366	0.048	-0.011
-480.362	-86.822	0.136	-0.042
-479.347	-20.604	-0.078	-0.048
-478.332	-91.560	0.064	0.018
-477.318	-82.611	0.231	0.075
-476.303	180.101	-0.159	0.234
-475.289	-93.602	0.377	-0.104
-474.274	800.000	0.089	0.296
-473.259	49.635	-0.173	-0.163
-472.245	800.000	-0.014	-0.048
-471.230	-6.947	-0.069	0.047
-470.216	-25.474	-0.104	0.061
-469.201	-52.588	0.117	0.054
-468.186	-200.000	0.014	-0.204
-467.172	-200.000	-0.013	-0.411
-466.157	800.000	0.050	0.200
-465.143	800.000	0.073	0.254
-464.128	265.583	0.095	-0.167
-463.113	-109.798	-0.273	-0.057
-462.099	-78.593	0.169	0.058
-461.084	176.329	0.114	-0.166
-460.070	-135.657	0.152	-0.018
-459.055	465.494	0.077	0.172
-458.040	-31.234	0.135	-0.076
-457.026	-164.502	0.178	-0.008
-456.011	-31.962	0.102	0.057
-454.997	176.655	0.259	-0.376
-453.982	-165.043	-0.092	-0.004
-452.968	-25.440	0.086	0.051
-451.953	114.315	-0.009	-0.011
-450.938	30.729	-0.227	-0.194
-449.924	147.226	0.124	0.167
-448.909	133.383	-0.321	-0.415
-447.895	364.562	-0.043	0.086
-446.880	-118.489	-0.384	0.068
-445.865	294.592	0.116	-0.213
-444.851	-81.804	-0.328	-0.108
-443.836	69.421	-0.140	0.144
-442.822	685.465	-0.109	0.286
-441.807	-122.009	0.109	0.018
-440.792	-134.096	-0.327	0.040
-439.778	548.288	0.048	-0.116
-438.763	800.000	0.057	-0.232
-437.749	-121.852	-0.349	0.058
-436.734	-88.385	0.166	-0.049
-435.719	269.644	0.163	0.285
-434.705	-200.000	-0.061	-0.301
-433.690	625.158	-0.074	0.187
-432.676	800.000	-0.084	0.249
-431.661	-79.213	-0.254	-0.086
-430.646	-175.863	0.469	0.013
-429.632	-115.186	0.256	-0.048
-428.617	-200.000	0.044	0.324
-427.603	441.061	-0.165	-0.361
-426.588	732.471	0.047	-0.127
-425.573	190.175	0.138	0.207
-424.559	800.000	0.032	0.107
-423.544	-136.931	0.302	0.035
-422.530	800.000	0.036	0.124
-421.515	-200.000	0.010	-0.055
-420.500	533.510	0.140	0.331
-419.486	800.000	-0.051	0.165
-418.471	347.806	-0.113	0.222
-417.457	-118.617	-0.389	0.069
-416.442	-88.232	-0.152	0.046
-415.428	-66.345	-0.214	-0.085
-414.413	-200.000	0.003	-0.039
-413.398	23.807	0.043	0.036
-412.384	52.146	-0.171	-0.163
-411.369	62.519	0.215	0.214
-410.355	-200.000	-0.037	-0.200
-409.340	-58.357	0.260	-0.113
-408.325	114.496	0.234	-0.284
-407.311	531.208	-0.079	-0.187
-406.296	-119.263	-0.096	0.017
-405.282	98.549	0.085	-0.098
-404.267	-121.809	-0.125	0.021
-403.252	131.423	-0.052	0.066
-402.238	-152.347	-0.106	0.008
-401.223	23.160	-0.190	-0.155
-400.209	219.076	0.166	-0.265
-399.194	-6.765	0.233	0.158
-398.179	72.204	-0.212	-0.221
-397.165	-200.000	0.017	-0.367
-396.150	-188.127	-0.134	-0.002
-395.136	-34.444	-0.172	-0.094
-394.121	379.609	0.137	0.281
-393.106	-200.000	0.051	0.297
-392.092	-177.128	-0.050	0.001
-391.077	-100.501	-0.195	0.048
-390.063	-79.909	0.297	-0.100
-389.048	-200.000	-0.029	0.144
-388.033	-90.483	-0.161	0.047
-387.019	-84.984	0.273	-0.085
-386.004	-200.000	-0.004	-0.031
-384.990	-200.000	0.049	0.250
-383.975	-200.000	-0.049	0.296
-382.960	24.161	-0.138	0.114
-381.946	800.000	0.061	0.191
-380.931	38.535	-0.107	-0.095
-379.917	-103.036	0.258	-0.061
-378.902	-200.000	-0.021	-0.285
-377.888	-100.221	0.112	0.028
-376.873	11.029	-0.242	-0.184
-375.858	321.707	0.204	-0.387
-374.844	800.000	0.038	-0.116
-373.829	-117.053	0.317	0.058
-372.815	-19.758	0.182	-0.112
-371.800	-170.536	0.272	-0.009
-370.785	-200.000	-0.048	0.213
-369.771	-200.000	0.033	0.173
-368.756	-120.716	0.204	-0.034
-367.742	800.000	-0.039	0.164
-366.727	800.000	0.153	-0.423
-365.712	781.094	-0.078	0.212
-364.698	530.874	-0.056	0.133
-363.683	11.443	-0.033	0.025
-362.669	-180.499	-0.138	0.003
-361.654	249.561	-0.077	0.130
-360.639	-172.305	0.085	0.003
-359.625	329.614	-0.150	-0.287
-358.610	322.742	0.051	-0.098
-357.596	113.044	0.016	-0.019
-356.581	-154.549	-0.042	-0.003
-355.566	-45.854	-0.321	-0.158
-354.552	800.000	-0.051	-0.157
-353.537	-68.912	0.175	-0.067
-352.523	-185.833	-0.162	0.002
-351.508	224.717	-0.105	0.170
-350.493	31.534	0.207	-0.178
-349.479	-172.291	-0.161	-0.005
-348.464	-0.579	0.187	-0.132
-347.450	414.512	-0.040	-0.085
-346.435	2.321	0.025	-0.018
-345.420	-109.098	-0.426	0.090
-344.406	119.457	0.154	-0.190
-343.391	3.895	-0.082	-0.059
-342.377	800.000	0.039	0.153
-341.362	-18.115	0.222	0.138
-340.348	-53.004	-0.182	0.083
-339.333	33.325	-0.173	-0.150
-338.318	-200.000	0.003	0.016
-337.304	-62.040	-0.238	0.099
-336.289	-200.000	-0.020	-0.102
-335.275	800.000	0.022	-0.062
-334.260	433.803	-0.060	-0.129
-333.245	11.650	-0.120	0.092
-332.231	-169.736	0.255	-0.009
-331.216	-200.000	-0.015	-0.080
-330.202	28.438	-0.099	-0.083
-329.187	800.000	-0.085	0.316
-328.172	104.835	0.128	-0.150
-327.158	-200.000	-0.036	0.249
-326.143	800.000	0.059	0.186
-325.129	-200.000	-0.017	0.161
-324.114	-85.169	0.208	0.065
-323.099	-52.661	0.221	0.101
-322.085	-123.167	0.179	0.028
-321.070	-172.564	0.064	-0.002
-320.056	82.159	-0.321	-0.346
-319.041	-134.016	-0.072	-0.009
-318.026	-101.839	0.048	0.011
-317.012	390.680	0.088	0.181
-315.997	-127.071	0.254	-0.037
-314.983	-67.776	-0.491	0.191
-313.968	-48.139	-0.141	0.067
-312.953	-200.000	0.005	-0.251
-311.939	-91.860	-0.243	0.069
-310.924	-117.120	0.154	0.028
-309.910	-200.000	0.078	-0.372
-308.895	-59.156	-0.066	-0.028
-307.880	-110.306	0.457	0.095
-306.866	800.000	0.054	0.210
-305.851	-112.348	-0.187	-0.037
-304.837	800.000	0.085	0.267
-303.822	54.875	-0.351	0.337
-302.807	-179.473	0.235	-0.005
-301.793	51.550	-0.157	0.149
-300.778	74.962	0.076	0.079
-299.764	-104.938	-0.230	-0.052
-298.749	-117.326	-0.071	0.013
-297.735	800.000	0.060	0.231
-296.720	800.000	0.060	0.196
-295.705	-200.000	-0.033	-0.182
-294.691	-200.000	0.025	-0.175
-293.676	-141.868	-0.398	-0.040
-292.662	543.225	-0.131	-0.309
-291.647	-151.255	0.068	0.005
-290.632	15.787	-0.127	0.099
-289.618	63.490	-0.128	0.128
-288.603	58.150	0.017	0.016
-287.589	-51.636	0.193	-0.089
-286.574	-60.179	0.232	-0.098
-285.559	-140.737	-0.190	-0.020
-284.545	-15.321	-0.098	0.062
-283.530	-129.883	-0.228	-0.031
-282.516	164.356	-0.284	0.398
-281.501	-135.192	0.246	0.029
-280.486	-200.000	-0.021	0.343
-279.472	-94.107	0.241	0.066
-278.457	-200.000	0.010	0.219
-277.443	-48.025	-0.206	-0.099
-276.428	-200.000	-0.017	0.138
-275.413	520.750	-0.057	-0.133
-274.399	147.037	0.129	-0.173
-273.384	-200.000	0.050	0.302
-272.370	-189.308	-0.234	0.003
-271.355	800.000	0.102	-0.351
-270.340	437.538	-0.081	-0.175
-269.326	-52.359	0.319	-0.146
-268.311	-200.000	0.051	0.252
-267.297	-21.032	-0.299	-0.181
-266.282	800.000	0.083	0.301
-265.267	-125.319	-0.119	0.018
-264.253	154.760	-0.135	0.184
-263.238	-37.919	0.101	0.053
-262.224	-56.263	0.082	-0.036
-261.209	12.906	0.051	-0.039
-260.195	745.055	0.048	-0.128
-259.180	-114.410	0.304	0.058
-258.165	156.196	-0.196	-0.268
-257.151	-61.913	-0.205	-0.085
-256.136	34.861	0.168	-0.146
-255.122	-43.835	-0.419	0.209
-254.107	800.000	0.066	-0.277
-253.092	-200.000	0.054	0.328
-252.078	800.000	0.060	-0.193
-251.063	-200.000	-0.008	0.309
-250.049	-200.000	-0.015	-0.354
-249.034	236.108	-0.065	-0.106
-248.019	31.444	0.160	-0.137
-247.005	-193.756	-0.375	0.003
-245.990	-17.214	-0.154	0.096
-244.976	13.671	0.231	0.178
-243.961	71.674	0.267	0.275
-242.946	312.075	-0.086	-0.159
-241.932	114.865	0.123	-0.148
-240.917	-4.273	-0.128	0.088
-239.903	53.061	0.131	0.124
-238.888	-125.794	0.213	0.032
-237.873	-26.520	-0.527	-0.306
-236.859	557.044	0.166	0.397
-235.844	800.000	-0.111	-0.357
-234.830	220.457	-0.164	-0.261
-233.815	504.818	0.075	0.172
-232.800	800.000	-0.028	0.081
-231.786	-200.000	-0.005	0.259
-230.771	72.610	-0.126	-0.130
-229.757	-147.520	-0.081	-0.007
-228.742	800.000	0.070	-0.247
-227.727	800.000	0.046	-0.131
-226.713	-53.727	-0.331	0.150
-225.698	-118.192	0.232	0.041
-224.684	50.198	-0.328	0.307
-223.669	117.324	0.272	0.332
-222.655	-61.012	-0.117	0.049
-221.640	-19.969	-0.271	-0.166
-220.625	-35.773	0.370	-0.199
-219.611	-58.049	-0.199	0.086
-218.596	147.226	0.069	-0.092
-217.582	135.365	-0.236	-0.304
-216.567	364.315	-0.045	-0.090
-215.552	-141.972	-0.233	-0.023
-214.538	-200.000	0.013	0.202
-213.523	-119.033	0.103	0.018
-212.509	69.287	-0.198	0.201
-211.494	-119.240	0.128	0.022
-210.479	-200.000	0.012	-0.054
-209.465	-82.897	0.094	0.030
-208.450	800.000	-0.055	-0.183
-207.436	-200.000	0.004	0.417
-206.421	-200.000	0.036	-0.189
-205.406	-200.000	-0.036	0.271
-204.392	446.859	0.052	-0.114
-203.377	-200.000	-0.003	-0.149
-202.363	157.704	0.194	0.267
-201.348	800.000	-0.015	0.060
-200.333	-91.206	0.399	0.113
-199.319	800.000	-0.110	-0.354
-198.304	-2.801	-0.282	0.195
-197.290	-8.096	0.058	0.039
-196.275	-32.714	0.122	0.067
-195.260	20.896	-0.073	-0.058
-194.246	65.778	-0.158	0.159
-193.231	-80.475	-0.322	-0.106
-192.217	649.293	0.058	-0.146
-191.202	-58.835	0.055	0.024
-190.187	-99.912	-0.120	-0.030
-189.173	-103.100	0.195	0.046
-188.158	800.000	0.112	-0.312
-187.144	187.721	-0.074	0.110
-186.129	-57.672	0.142	0.062
-185.114	6.548	0.153	-0.112
-184.100	-7.257	0.174	-0.117
-183.085	-140.646	-0.174	0.018
-182.071	53.028	0.122	0.116
-181.056	-200.000	-0.024	-0.220
-180.042	134.824	-0.145	0.186
-179.027	206.512	-0.063	0.097
-178.012	-200.000	-0.056	0.374
-176.998	262.069	0.084	-0.145
-175.983	255.502	0.106	0.180
-174.969	-8.775	0.136	-0.090
-173.954	95.263	0.083	0.094
-172.939	-37.073	-0.182	-0.096
-171.925	13.333	0.223	-0.171
-170.910	-6.858	-0.118	0.079
-169.896	-139.955	-0.173	-0.018
-168.881	-58.060	0.052	0.023
-167.866	-31.321	0.164	0.091
-166.852	-80.799	0.100	0.033
-165.837	277.958	0.104	-0.182
-164.823	-200.000	-0.011	0.330
-163.808	800.000	0.038	0.157
-162.793	800.000	-0.008	0.022
-161.779	800.000	-0.036	0.133
-160.764	-59.547	-0.204	-0.087
-159.750	-75.310	0.203	-0.072
-158.735	42.016	0.265	0.238
-157.720	585.298	0.074	-0.181
-156.706	36.969	0.110	0.096
-155.691	-32.934	0.107	0.059
-154.677	800.000	0.086	-0.318
-153.662	-153.476	-0.208	0.014
-152.647	223.950	0.133	0.212
-151.633	-200.000	0.008	-0.045
-150.618	77.975	-0.232	0.244
-149.604	-2.637	0.139	0.096
-148.589	113.442	0.308	0.369
-147.574	-95.616	0.227	0.060
-146.560	-35.389	-0.133	0.071
-145.545	181.532	0.160	-0.233
-144.531	-126.636	-0.375	-0.055
-143.516	-19.509	0.178	-0.109
-142.502	-200.000	0.011	0.094
-141.487	243.587	0.111	0.184
-140.472	-200.000	-0.076	0.392
-139.458	-95.966	-0.054	0.014
-138.443	173.427	0.090	0.128
-137.429	-97.624	-0.255	-0.065
-136.414	-92.315	0.125	-0.035
-135.399	273.218	-0.090	0.158
-134.385	-200.000	0.002	-0.031
-133.370	-200.000	-0.005	0.376
-132.356	-200.000	-0.046	-0.388
-131.341	-39.578	0.094	-0.048
-130.326	-200.000	-0.048	0.387
-129.312	-66.513	0.080	0.031
-128.297	58.286	-0.129	-0.125
-127.283	495.435	0.046	-0.105
-126.268	-47.205	0.229	-0.110
-125.253	3.671	-0.076	-0.055
-124.239	10.697	-0.208	-0.156
-123.224	800.000	-0.057	-0.224
-122.210	226.877	-0.187	0.300
-121.195	39.605	-0.162	0.143
