DTS Sentinel unit serial number:	SN413079Multiplexer serial number:	ORYXHardware model number:	OX4-SRSoftware version number:	ORYX F/W v4.00 Oryx Data Collector v3.7.2.0data status	okinstallation	princeton_trtdifferential loss correction	single-endedforward channel	channel 4reverse channel	N/Adate	2019/09/16time	16:53:35forward acquisition time	60.00reverse acquisition time	0.00gamma	496.2192k internal	0.2294k external	0.2294temperature offset calibration	0.9942default loss term (dB/km)	0.3790temperature slope calibration	1.0000multiplexer offset coefficient	1.0000multiplexer slope coefficient	1.0000fibre end	0.00T internal ref (°C)	39.50T ext. ref 1 (°C)	15.24T ext. ref 2 (°C)	33.77length (m)	temperature (°C)	Stokes	anti-Stokes-747.200	34.331	0.217	0.194
-746.185	49.987	-0.196	-0.189
-745.171	-75.003	-0.238	-0.087
-744.156	-23.896	-0.140	0.086
-743.142	-12.550	0.139	-0.093
-742.127	-147.628	0.348	-0.030
-741.112	49.169	-0.041	-0.039
-740.098	33.137	0.140	0.124
-739.083	-200.000	-0.002	-0.197
-738.069	317.588	-0.085	0.164
-737.054	-200.000	0.049	0.245
-736.039	11.338	0.080	0.063
-735.025	38.224	0.252	-0.229
-734.010	256.162	-0.032	0.056
-732.996	-48.603	-0.398	-0.196
-731.981	-142.959	-0.290	0.029
-730.966	-200.000	-0.040	0.244
-729.952	-88.213	-0.251	-0.077
-728.937	-114.573	-0.285	0.056
-727.923	-200.000	-0.004	0.234
-726.908	1.826	0.075	0.055
-725.894	-111.945	-0.244	0.050
-724.879	-200.000	0.040	-0.226
-723.864	-200.000	-0.077	0.550
-722.850	-200.000	0.014	0.147
-721.835	-200.000	0.036	-0.169
-720.821	175.548	0.194	0.287
-719.806	-43.224	-0.359	-0.186
-718.791	-91.117	-0.130	-0.038
-717.777	800.000	-0.035	-0.101
-716.762	230.747	0.297	-0.497
-715.748	766.845	-0.134	-0.373
-714.733	-114.998	0.123	-0.024
-713.718	-200.000	-0.024	0.126
-712.704	-178.623	-0.161	0.004
-711.689	105.893	-0.210	-0.254
-710.675	-123.362	0.130	-0.021
-709.660	-19.803	-0.064	-0.040
-708.645	71.621	-0.179	-0.190
-707.631	800.000	0.078	-0.288
-706.616	95.827	0.072	-0.084
-705.602	389.080	0.113	0.239
-704.587	800.000	-0.040	0.161
-703.572	165.356	-0.090	0.130
-702.558	800.000	0.014	-0.041
-701.543	402.686	-0.065	-0.141
-700.529	-39.816	-0.115	-0.062
-699.514	800.000	0.153	-0.445
-698.499	-134.924	0.266	0.033
-697.485	157.684	-0.113	-0.160
-696.470	-100.741	0.180	-0.045
-695.456	-200.000	0.019	0.144
-694.441	-89.372	0.372	0.112
-693.426	287.852	0.062	0.114
-692.412	-200.000	0.003	-0.052
-691.397	-10.964	-0.516	0.348
-690.383	120.385	-0.061	-0.077
-689.368	-200.000	0.039	-0.272
-688.354	269.396	-0.187	0.334
-687.339	-104.417	-0.245	-0.058
-686.324	105.167	0.138	-0.166
-685.310	242.925	0.160	-0.273
-684.295	135.514	0.130	-0.172
-683.281	800.000	-0.052	-0.190
-682.266	-48.941	-0.113	-0.055
-681.251	-200.000	-0.011	-0.102
-680.237	123.912	-0.365	-0.467
-679.222	-200.000	-0.030	-0.385
-678.208	-10.207	0.128	-0.087
-677.193	45.686	0.066	0.063
-676.178	56.527	-0.124	-0.123
-675.164	-72.616	-0.154	0.058
-674.149	527.795	0.062	-0.148
-673.135	694.835	0.118	-0.316
-672.120	26.610	-0.212	0.181
-671.105	46.234	-0.079	-0.075
-670.091	176.452	0.046	-0.068
-669.076	299.548	-0.114	0.215
-668.062	5.680	-0.133	0.100
-667.047	-141.875	-0.148	0.015
-666.032	14.913	-0.222	-0.177
-665.018	21.531	-0.164	0.136
-664.003	-200.000	-0.009	0.173
-662.989	-99.881	-0.082	-0.021
-661.974	-71.477	-0.281	-0.107
-660.959	680.931	-0.076	0.202
-659.945	412.990	0.008	-0.017
-658.930	-129.159	0.063	0.009
-657.916	126.415	-0.224	-0.288
-656.901	800.000	-0.056	0.204
-655.886	800.000	0.080	-0.337
-654.872	50.817	0.241	-0.233
-653.857	14.413	-0.194	-0.154
-652.843	-200.000	0.042	-0.244
-651.828	165.412	0.062	-0.090
-650.814	13.536	-0.228	-0.180
-649.799	800.000	0.023	0.067
-648.784	-75.983	0.174	0.063
-647.770	-151.420	0.162	-0.012
-646.755	-86.161	-0.036	0.011
-645.741	13.960	-0.128	0.102
-644.726	-41.749	0.134	-0.070
-643.711	-200.000	0.091	-0.449
-642.697	-18.638	-0.237	-0.151
-641.682	-200.000	0.023	-0.134
-640.668	-76.631	-0.188	-0.067
-639.653	-57.787	-0.319	-0.142
-638.638	-156.430	-0.188	0.012
-637.624	-200.000	-0.010	0.119
-636.609	-42.404	-0.109	0.057
-635.595	-152.266	-0.130	-0.010
-634.580	-200.000	-0.008	0.266
-633.565	-123.236	0.227	-0.037
-632.551	-33.889	-0.175	-0.098
-631.536	-87.252	-0.194	0.060
-630.522	-52.686	-0.166	-0.078
-629.507	156.379	0.096	-0.134
-628.492	-88.825	0.065	-0.020
-627.478	-11.132	0.331	0.222
-626.463	-200.000	0.066	-0.479
-625.449	90.779	-0.256	0.292
-624.434	-84.026	-0.080	0.026
-623.419	140.253	-0.253	0.340
-622.405	-154.835	0.127	-0.009
-621.390	-145.296	-0.261	-0.024
-620.376	43.427	-0.133	0.124
-619.361	-200.000	-0.012	0.488
-618.346	800.000	0.008	0.035
-617.332	351.228	0.138	-0.278
-616.317	62.955	0.133	-0.135
-615.303	800.000	0.096	0.388
-614.288	95.923	-0.087	-0.101
-613.273	800.000	0.075	0.324
-612.259	671.863	0.101	0.267
-611.244	-115.412	0.251	-0.048
-610.230	-99.337	-0.313	0.080
-609.215	-77.758	-0.354	0.125
-608.201	-200.000	0.018	0.106
-607.186	97.372	-0.175	-0.204
-606.171	153.636	0.098	-0.137
-605.157	-117.123	0.291	0.054
-604.142	800.000	0.113	0.369
-603.128	-123.542	-0.071	0.012
-602.113	-23.562	-0.163	-0.100
-601.098	-200.000	0.031	-0.163
-600.084	45.036	-0.213	0.199
-599.069	233.844	-0.093	0.155
-598.055	150.265	0.060	0.083
-597.040	-0.640	-0.119	-0.086
-596.025	77.845	-0.066	0.072
-595.011	57.105	-0.205	0.204
-593.996	-200.000	0.072	0.378
-592.982	246.703	0.058	0.099
-591.967	-34.888	-0.024	0.013
-590.952	-200.000	0.008	0.324
-589.938	-1.940	0.114	0.082
-588.923	400.934	-0.040	-0.086
-587.909	449.265	0.143	-0.320
-586.894	209.158	0.160	-0.255
-585.879	-50.210	-0.129	0.062
-584.865	-129.417	-0.155	-0.022
-583.850	-183.169	-0.130	-0.002
-582.836	-66.748	0.264	-0.106
-581.821	226.765	-0.084	-0.138
-580.806	269.022	-0.084	0.150
-579.792	-54.157	0.501	0.231
-578.777	33.477	0.180	-0.159
-577.763	-200.000	-0.079	-0.420
-576.748	-2.186	-0.345	-0.246
-575.733	254.795	0.043	0.075
-574.719	220.036	0.061	-0.099
-573.704	9.667	-0.350	0.270
-572.690	-200.000	0.058	-0.294
-571.675	332.466	-0.179	-0.350
-570.661	142.530	0.268	0.362
-569.646	-80.300	-0.270	0.092
-568.631	-200.000	-0.031	0.142
-567.617	-200.000	0.012	0.194
-566.602	-37.633	0.219	0.118
-565.588	75.235	0.028	0.030
-564.573	-186.275	-0.369	-0.005
-563.558	800.000	-0.029	0.093
-562.544	97.671	0.117	0.137
-561.529	102.831	0.085	0.101
-560.515	56.609	0.152	0.150
-559.500	-9.618	-0.269	0.182
-558.485	-193.542	0.144	0.001
-557.471	-200.000	0.027	0.151
-556.456	-160.915	0.026	0.001
-555.442	-200.000	0.008	0.095
-554.427	-200.000	-0.016	0.254
-553.412	-3.588	0.168	0.119
-552.398	-56.643	-0.164	0.074
-551.383	39.775	-0.056	0.051
-550.369	-149.499	-0.247	-0.020
-549.354	-96.457	0.305	0.082
-548.339	-54.101	0.218	0.101
-547.325	-54.183	-0.125	0.058
-546.310	-200.000	-0.006	-0.179
-545.296	800.000	0.097	-0.403
-544.281	-45.850	-0.064	-0.032
-543.266	423.399	0.085	-0.186
-542.252	-8.733	0.107	-0.073
-541.237	-113.464	0.260	-0.052
-540.223	176.422	-0.073	-0.108
-539.208	-200.000	0.002	-0.047
-538.193	225.639	-0.113	0.186
-537.179	236.689	0.070	0.117
-536.164	-2.362	0.094	0.067
-535.150	800.000	0.071	-0.261
-534.135	-92.944	-0.037	-0.010
-533.121	21.308	0.262	-0.216
-532.106	36.594	-0.034	-0.030
-531.091	-115.243	-0.063	0.012
-530.077	800.000	0.049	0.178
-529.062	800.000	0.071	-0.294
-528.048	18.519	0.129	0.104
-527.033	88.626	-0.025	0.028
-526.018	-126.080	-0.302	-0.046
-525.004	252.060	0.118	0.204
-523.989	-72.747	0.180	0.067
-522.975	-81.170	-0.384	0.129
-521.960	-120.593	0.465	0.080
-520.945	-200.000	-0.004	-0.166
-519.931	128.134	0.135	-0.174
-518.916	-90.814	0.308	-0.090
-517.902	273.051	-0.018	0.032
-516.887	-200.000	0.004	0.030
-515.872	-26.637	0.288	0.171
-514.858	-200.000	-0.006	0.321
-513.843	-156.379	-0.208	-0.013
-512.829	-18.114	0.239	-0.151
-511.814	-99.762	-0.045	0.011
-510.799	-88.262	0.189	0.057
-509.785	800.000	0.044	-0.152
-508.770	-200.000	-0.081	0.436
-507.756	-156.186	0.152	0.010
-506.741	-200.000	-0.015	-0.200
-505.726	246.880	0.167	-0.285
-504.712	-200.000	0.069	-0.312
-503.697	-117.585	-0.421	0.077
-502.683	746.663	-0.047	-0.129
-501.668	-76.953	-0.213	0.075
-500.653	15.768	-0.239	0.191
-499.639	-200.000	-0.003	-0.096
-498.624	191.543	-0.031	0.048
-497.610	-55.501	0.208	-0.094
-496.595	-122.706	-0.290	0.048
-495.581	-28.654	-0.274	0.160
-494.566	10.772	0.134	0.103
-493.551	-135.696	-0.152	0.018
-492.537	3.723	-0.090	-0.067
-491.522	-50.314	-0.077	0.037
-490.508	-19.671	0.140	0.088
-489.493	339.155	0.219	0.432
-488.478	672.326	0.111	0.292
-487.464	293.024	-0.080	-0.148
-486.449	-25.827	0.140	0.083
-485.435	87.162	-0.108	0.120
-484.420	155.380	-0.154	-0.215
-483.405	800.000	-0.065	-0.258
-482.391	282.259	0.121	0.220
-481.376	175.450	-0.128	-0.188
-480.362	81.589	0.142	-0.155
-479.347	367.348	-0.072	-0.147
-478.332	-200.000	0.025	-0.129
-477.318	659.427	0.136	0.353
-476.303	-200.000	0.008	-0.143
-475.289	51.526	0.362	0.348
-474.274	362.260	0.123	0.250
-473.259	-200.000	-0.002	-0.210
-472.245	111.216	-0.128	0.156
-471.230	236.396	-0.062	0.103
-470.216	-81.517	-0.169	0.056
-469.201	-165.987	-0.291	-0.013
-468.186	-54.721	-0.084	-0.039
-467.172	-200.000	-0.052	-0.237
-466.157	-200.000	0.050	0.318
-465.143	-88.101	0.270	0.082
-464.128	450.122	0.105	-0.234
-463.113	228.957	-0.101	0.166
-462.099	-37.900	0.417	-0.224
-461.084	-170.785	-0.169	-0.006
-460.070	-200.000	0.024	-0.166
-459.055	-115.097	0.285	-0.055
-458.040	253.939	0.155	-0.269
-457.026	133.300	-0.272	0.355
-456.011	-36.683	0.464	-0.252
-454.997	-91.530	0.336	-0.097
-453.982	-88.068	0.309	0.094
-452.968	-86.522	-0.046	-0.014
-451.953	-190.194	-0.071	0.001
-450.938	11.262	-0.128	-0.099
-449.924	-114.067	0.312	-0.061
-448.909	475.303	-0.044	-0.100
-447.895	-116.306	0.239	-0.045
-446.880	65.493	0.172	-0.176
-445.865	567.593	0.145	-0.356
-444.851	40.656	0.112	0.102
-443.836	-200.000	0.071	0.355
-442.822	-195.916	-0.340	0.002
-441.807	-57.211	0.187	-0.083
-440.792	550.612	0.157	0.381
-439.778	800.000	0.038	0.126
-438.763	-200.000	0.018	-0.098
-437.749	7.444	0.254	0.192
-436.734	-123.317	0.231	-0.037
-435.719	-126.265	-0.466	-0.070
-434.705	61.712	-0.034	-0.034
-433.690	-78.927	-0.159	0.055
-432.676	95.205	-0.138	-0.159
-431.661	-59.679	0.097	0.042
-430.646	-153.606	-0.203	0.014
-429.632	-7.835	-0.334	0.228
-428.617	-5.371	-0.141	0.097
-427.603	120.450	-0.245	0.307
-426.588	240.862	0.015	-0.025
-425.573	19.329	-0.059	-0.048
-424.559	-27.244	-0.342	0.201
-423.544	58.040	0.104	0.103
-422.530	100.163	-0.158	-0.185
-421.515	-200.000	0.039	0.262
-420.500	-200.000	0.019	0.217
-419.486	166.439	-0.060	0.086
-418.471	-74.637	-0.325	-0.118
-417.457	-200.000	0.019	0.194
-416.442	-200.000	-0.015	0.180
-415.428	-105.760	0.132	-0.030
-414.413	-141.347	0.308	0.032
-413.398	657.558	-0.124	-0.322
-412.384	-34.846	0.319	-0.176
-411.369	-200.000	-0.059	-0.281
-410.355	-200.000	0.027	-0.292
-409.340	800.000	0.050	-0.163
-408.325	-200.000	0.021	-0.111
-407.311	-11.587	-0.325	0.216
-406.296	321.809	0.093	-0.179
-405.282	-10.527	-0.145	-0.097
-404.267	31.104	-0.096	0.083
-403.252	94.212	-0.081	0.093
-402.238	-52.966	-0.160	-0.074
-401.223	-200.000	0.059	0.356
-400.209	39.980	-0.182	-0.165
-399.194	-48.194	0.093	0.045
-398.179	10.168	-0.227	-0.174
-397.165	-200.000	-0.023	0.127
-396.150	47.911	-0.141	0.133
-395.136	398.290	0.105	0.221
-394.121	124.200	-0.044	-0.056
-393.106	800.000	0.070	0.283
-392.092	-32.843	-0.106	0.060
-391.077	-57.211	-0.183	-0.081
-390.063	697.114	0.068	0.180
-389.048	-84.933	-0.391	-0.124
-388.033	51.669	-0.162	-0.155
-387.019	292.380	-0.090	-0.165
-386.004	-83.093	0.296	-0.096
-384.990	-32.864	0.255	-0.143
-383.975	134.836	0.028	-0.036
-382.960	-50.179	-0.239	0.114
-381.946	64.121	-0.137	-0.139
-380.931	-44.207	-0.317	-0.160
-379.917	94.537	-0.091	-0.104
-378.902	-88.195	-0.199	0.060
-377.888	531.013	0.181	-0.431
-376.873	-200.000	-0.027	-0.197
-375.858	10.494	-0.242	0.186
-374.844	-200.000	-0.032	0.380
-373.829	-58.932	-0.444	0.193
-372.815	95.619	-0.120	-0.137
-371.800	-200.000	-0.011	-0.308
-370.785	314.869	0.027	0.052
-369.771	142.969	-0.041	0.055
-368.756	-133.474	-0.251	-0.032
-367.742	-35.510	-0.251	0.138
-366.727	116.932	-0.194	-0.241
-365.712	-67.460	0.296	0.117
-364.698	290.726	0.049	-0.089
-363.683	-43.362	-0.195	0.099
-362.669	-104.644	0.296	-0.069
-361.654	44.330	0.024	-0.022
-360.639	60.741	0.149	-0.149
-359.625	-145.536	-0.134	-0.012
-358.610	38.910	-0.132	0.118
-357.596	173.385	-0.186	-0.270
-356.581	36.666	-0.053	0.047
-355.566	-28.338	0.063	-0.037
-354.552	-70.381	0.069	0.026
-353.537	167.003	0.185	-0.264
-352.523	-82.185	-0.214	-0.070
-351.508	23.190	0.366	-0.302
-350.493	-200.000	-0.012	-0.262
-349.479	-42.394	0.164	-0.084
-348.464	-106.636	0.167	-0.037
-347.450	-72.545	-0.259	-0.096
-346.435	5.513	-0.404	-0.301
-345.420	-6.448	0.125	0.086
-344.406	-200.000	-0.038	0.327
-343.391	-152.312	-0.115	0.008
-342.377	266.138	0.152	0.268
-341.362	-2.549	-0.188	-0.133
-340.348	146.775	0.186	0.252
-339.333	-49.088	0.087	-0.042
-338.318	-12.385	0.072	-0.047
-337.304	12.215	-0.078	0.060
-336.289	-40.618	-0.083	0.044
-335.275	-200.000	0.025	0.203
-334.260	83.104	0.100	0.110
-333.245	167.616	-0.190	0.271
-332.231	-27.523	-0.190	0.111
-331.216	-200.000	-0.004	-0.028
-330.202	138.184	0.154	0.203
-329.187	800.000	0.112	0.361
-328.172	37.916	-0.404	0.362
-327.158	-106.215	0.189	0.043
-326.143	161.800	-0.057	-0.080
-325.129	-64.206	-0.169	-0.069
-324.114	-200.000	0.016	0.157
-323.099	40.586	-0.085	-0.077
-322.085	-200.000	-0.010	-0.213
-321.070	160.095	-0.092	-0.129
-320.056	228.690	0.040	0.066
-319.041	-69.914	0.264	-0.101
-318.026	33.803	0.034	-0.030
-317.012	189.129	0.042	0.063
-315.997	-200.000	-0.014	0.065
-314.983	571.552	-0.246	-0.603
-313.968	67.868	0.117	0.121
-312.953	800.000	-0.088	0.288
-311.939	-200.000	0.019	0.176
-310.924	-200.000	0.038	0.388
-309.910	800.000	-0.029	-0.094
-308.895	-108.606	0.414	0.089
-307.880	25.944	-0.109	-0.091
-306.866	800.000	0.016	0.063
-305.851	-132.893	-0.220	-0.028
-304.837	-200.000	-0.053	-0.335
-303.822	800.000	-0.068	-0.245
-302.807	228.487	0.122	-0.200
-301.793	-181.693	-0.110	0.002
-300.778	-200.000	-0.002	0.198
-299.764	-71.018	0.057	0.022
-298.749	135.310	0.062	-0.081
-297.735	-200.000	0.035	-0.332
-296.720	185.475	-0.162	0.242
-295.705	294.809	-0.029	0.053
-294.691	-122.674	0.143	-0.023
-293.676	-200.000	0.034	0.378
-292.662	-200.000	-0.010	0.187
-291.647	-200.000	-0.046	0.269
-290.632	74.689	0.044	-0.046
-289.618	-132.121	0.140	-0.018
-288.603	-200.000	-0.033	-0.329
-287.589	-97.447	0.245	0.064
-286.574	-85.400	-0.252	-0.079
-285.559	800.000	-0.032	-0.114
-284.545	201.904	-0.171	-0.264
-283.530	-130.996	-0.065	0.009
-282.516	-93.361	-0.299	0.083
-281.501	-24.600	0.029	0.018
-280.486	800.000	0.070	0.247
-279.472	-200.000	0.008	0.168
-278.457	-81.011	0.318	-0.106
-277.443	-117.552	-0.137	0.025
-276.428	23.666	0.046	0.038
-275.413	544.888	-0.065	0.155
-274.399	27.054	-0.107	-0.090
-273.384	71.106	-0.097	-0.101
-272.370	790.346	0.018	0.049
-271.355	224.246	0.047	0.076
-270.340	-174.795	0.348	0.010
-269.326	100.515	-0.071	-0.082
-268.311	296.852	-0.142	0.261
-267.297	-200.000	-0.032	-0.259
-266.282	-59.751	-0.083	-0.036
-265.267	-105.113	0.341	-0.078
-264.253	-165.179	0.162	-0.007
-263.238	-200.000	0.064	0.337
-262.224	150.836	-0.243	0.331
-261.209	-174.841	0.293	-0.008
-260.195	-200.000	-0.034	-0.259
-259.180	18.545	0.199	-0.160
-258.165	-200.000	-0.011	0.050
-257.151	-200.000	0.002	0.199
-256.136	-200.000	0.011	-0.259
-255.122	-200.000	0.017	-0.140
-254.107	150.113	-0.038	0.052
-253.092	-80.762	0.176	-0.059
-252.078	-115.791	0.152	-0.029
-251.063	351.714	-0.095	0.189
-250.049	-178.312	0.072	0.002
-249.034	800.000	0.085	0.255
-248.019	800.000	-0.040	0.122
-247.005	90.829	-0.091	0.103
-245.990	358.051	0.143	-0.287
-244.976	-200.000	0.098	-0.467
-243.961	-14.454	0.200	-0.129
-242.946	-185.916	-0.293	0.004
-241.932	108.276	0.215	-0.257
-240.917	526.245	0.078	-0.185
-239.903	-152.705	-0.388	0.028
-238.888	155.463	0.180	0.249
-237.873	-141.944	0.174	0.017
-236.859	800.000	0.056	-0.183
-235.844	109.111	0.071	0.085
-234.830	-171.652	-0.196	-0.006
-233.815	54.018	-0.147	0.141
-232.800	-200.000	0.046	-0.355
-231.786	-108.935	-0.107	0.023
-230.771	-123.904	-0.180	0.028
-229.757	-128.780	-0.044	-0.006
-228.742	-80.149	0.124	0.042
-227.727	12.887	0.069	-0.053
-226.713	190.151	0.075	0.113
-225.698	-63.611	-0.127	0.052
-224.684	-151.521	0.289	0.021
-223.669	-15.533	0.119	-0.076
-222.655	-15.341	0.180	0.116
-221.640	-170.093	-0.123	-0.004
-220.625	-6.781	-0.228	-0.155
-219.611	108.859	-0.174	0.208
-218.596	-111.867	-0.243	0.049
-217.582	-200.000	0.004	-0.144
-216.567	43.104	0.115	-0.105
-215.552	-99.670	0.247	-0.062
-214.538	253.159	0.039	-0.067
-213.523	-200.000	0.007	-0.095
-212.509	8.797	0.107	-0.081
-211.494	-169.496	0.096	-0.003
-210.479	-18.657	0.327	-0.204
-209.465	-20.286	-0.103	0.063
-208.450	-200.000	-0.071	-0.449
-207.436	25.841	-0.251	0.210
-206.421	-143.567	-0.448	-0.043
-205.406	14.123	0.184	0.144
-204.392	800.000	0.044	-0.138
-203.377	-200.000	-0.028	-0.214
-202.363	-200.000	0.087	-0.411
-201.348	-117.807	-0.145	-0.026
-200.333	-97.598	-0.147	-0.038
-199.319	-200.000	0.034	0.172
-198.304	-96.609	0.160	-0.042
-197.290	739.206	-0.092	-0.247
-196.275	9.509	-0.400	0.303
-195.260	-125.501	0.257	0.039
-194.246	800.000	-0.118	-0.447
-193.231	81.133	-0.177	0.191
-192.217	26.807	-0.143	0.120
-191.202	-200.000	-0.013	-0.212
-190.187	115.874	-0.148	-0.181
-189.173	10.569	-0.116	-0.088
-188.158	-101.567	0.281	0.068
-187.144	84.377	-0.070	-0.076
-186.129	-200.000	0.001	-0.393
-185.114	-36.374	0.401	-0.216
-184.100	-108.164	0.082	0.018
-183.085	-18.776	0.201	-0.126
-182.071	157.913	0.187	-0.259
-181.056	-8.666	0.291	0.195
-180.042	27.922	0.139	-0.117
-179.027	51.362	0.179	0.170
-178.012	136.377	0.045	0.059
-176.998	-37.221	0.221	0.118
-175.983	-200.000	0.020	0.120
-174.969	-200.000	0.016	0.198
-173.954	-177.924	0.122	-0.003
-172.939	84.942	0.216	-0.237
-171.925	21.057	-0.308	-0.250
-170.910	-119.400	0.118	0.021
-169.896	800.000	-0.030	-0.110
-168.881	69.740	-0.089	-0.092
-167.866	-73.792	-0.295	-0.107
-166.852	-117.724	0.123	-0.022
-165.837	113.342	-0.229	0.277
-164.823	339.619	0.187	0.364
-163.808	-69.196	-0.032	-0.012
-162.793	34.460	0.259	-0.226
-161.779	-200.000	0.007	0.169
-160.764	-83.454	0.099	0.032
-159.750	-140.171	0.125	-0.013
-158.735	-80.637	0.175	0.058
-157.720	-60.176	0.306	0.130
-156.706	-93.031	-0.061	-0.017
-155.691	-62.156	0.120	-0.050
-154.677	246.898	-0.122	-0.206
-153.662	-132.232	0.257	-0.033
-152.647	446.842	0.067	-0.147
-151.633	800.000	-0.003	0.008
-150.618	647.132	0.088	0.224
-149.604	313.023	-0.092	0.172
-148.589	-200.000	-0.015	0.270
-147.574	-200.000	0.026	-0.160
-146.560	259.750	0.048	-0.083
-145.545	-200.000	-0.012	-0.200
-144.531	413.475	0.074	-0.157
-143.516	33.291	0.061	-0.053
-142.502	-135.523	0.028	0.003
-141.487	416.949	0.040	0.085
-140.472	-28.223	-0.195	-0.113
-139.458	800.000	0.054	0.213
-138.443	-200.000	0.096	0.424
-137.429	84.778	0.060	-0.065
-136.414	-78.474	0.249	0.085
-135.399	-37.936	-0.106	0.056
-134.385	-141.428	0.269	0.027
-133.370	-86.100	0.140	0.043
-132.356	67.995	-0.237	-0.242
-131.341	-24.305	-0.098	-0.058
-130.326	-200.000	0.010	-0.142
-129.312	-51.550	-0.167	0.078
-128.297	-200.000	0.022	-0.128
-127.283	-200.000	-0.013	-0.258
-126.268	-121.313	0.313	-0.052
-125.253	368.084	0.083	-0.167
-124.239	21.413	0.208	-0.169
-123.224	800.000	-0.044	-0.189
-122.210	800.000	0.079	-0.239
