DTS Sentinel unit serial number:	SN413079Multiplexer serial number:	ORYXHardware model number:	OX4-SRSoftware version number:	ORYX F/W v4.00 Oryx Data Collector v3.7.2.0data status	okinstallation	princeton_trtdifferential loss correction	single-endedforward channel	channel 4reverse channel	N/Adate	2019/09/14time	06:45:34forward acquisition time	60.00reverse acquisition time	0.00gamma	496.2192k internal	0.2324k external	0.2324temperature offset calibration	1.0137default loss term (dB/km)	0.3790temperature slope calibration	1.0000multiplexer offset coefficient	1.0000multiplexer slope coefficient	1.0000fibre end	0.00T internal ref (°C)	26.28T ext. ref 1 (°C)	3.41T ext. ref 2 (°C)	20.64length (m)	temperature (°C)	Stokes	anti-Stokes-747.200	-157.681	-0.368	0.022
-746.185	23.987	-0.110	0.092
-745.171	-200.000	0.027	0.196
-744.156	42.249	-0.222	0.204
-743.142	389.044	0.080	-0.167
-742.127	-125.460	-0.215	-0.033
-741.112	800.000	0.045	0.136
-740.098	103.760	0.118	0.140
-739.083	-27.897	-0.140	0.082
-738.069	107.254	-0.063	0.076
-737.054	-200.000	0.020	-0.150
-736.039	800.000	0.070	-0.249
-735.025	9.462	0.136	-0.104
-734.010	-187.709	-0.423	0.006
-732.996	-80.298	-0.046	-0.016
-731.981	-57.614	0.467	0.206
-730.966	-110.170	-0.316	-0.067
-729.952	800.000	0.106	0.294
-728.937	33.790	-0.112	0.098
-727.923	-119.228	0.176	0.031
-726.908	128.234	-0.085	0.109
-725.894	126.259	0.332	-0.424
-724.879	-112.637	0.403	-0.081
-723.864	781.714	0.133	0.368
-722.850	-51.115	-0.247	-0.117
-721.835	-152.385	0.168	-0.012
-720.821	96.084	0.207	0.239
-719.806	-182.318	-0.355	0.007
-718.791	-127.893	-0.191	-0.028
-717.777	-147.207	-0.079	0.007
-716.762	201.637	-0.191	0.297
-715.748	-66.110	-0.117	0.047
-714.733	272.942	0.155	0.276
-713.718	-200.000	0.006	-0.144
-712.704	-5.065	-0.162	-0.112
-711.689	-134.810	0.172	0.021
-710.675	44.942	-0.296	0.275
-709.660	307.113	0.082	-0.154
-708.645	-14.807	-0.176	-0.114
-707.631	463.252	-0.152	0.342
-706.616	254.576	-0.069	-0.120
-705.602	800.000	0.089	0.293
-704.587	800.000	0.058	0.233
-703.572	-93.360	0.128	-0.036
-702.558	94.389	-0.171	-0.196
-701.543	-200.000	0.024	-0.345
-700.529	-53.199	0.362	0.167
-699.514	37.470	-0.230	-0.206
-698.499	-114.447	0.264	0.051
-697.485	-200.000	-0.020	0.185
-696.470	-70.471	0.044	-0.017
-695.456	17.608	-0.021	-0.017
-694.441	404.804	-0.096	-0.204
-693.426	-200.000	-0.007	0.132
-692.412	800.000	0.018	0.073
-691.397	261.953	0.117	0.204
-690.383	320.253	-0.107	-0.205
-689.368	620.386	-0.142	-0.359
-688.354	74.164	0.019	0.021
-687.339	463.902	0.186	0.419
-686.324	800.000	-0.159	0.476
-685.310	-106.652	0.296	-0.066
-684.295	-200.000	-0.004	0.044
-683.281	-200.000	0.005	0.114
-682.266	-102.389	-0.403	-0.097
-681.251	-86.760	-0.193	0.060
-680.237	92.971	0.030	0.034
-679.222	37.982	-0.062	-0.056
-678.208	221.455	-0.224	-0.363
-677.193	-165.790	-0.158	-0.007
-676.178	661.889	-0.112	-0.292
-675.164	-86.675	-0.172	0.053
-674.149	88.340	0.182	0.203
-673.135	-107.726	-0.208	0.046
-672.120	-33.968	-0.276	0.153
-671.105	-100.199	-0.186	0.047
-670.091	-200.000	0.033	-0.185
-669.076	88.274	-0.087	-0.098
-668.062	-200.000	-0.015	-0.075
-667.047	-58.803	0.123	0.054
-666.032	454.376	-0.072	0.161
-665.018	69.403	0.098	0.102
-664.003	-88.105	-0.261	-0.079
-662.989	-115.295	-0.158	-0.030
-661.974	51.846	-0.225	0.215
-660.959	-25.891	0.055	-0.033
-659.945	110.403	-0.248	-0.300
-658.930	-200.000	-0.025	0.135
-657.916	-132.559	0.213	0.027
-656.901	-30.276	-0.255	0.146
-655.886	1.224	0.322	0.233
-654.872	200.210	0.146	0.226
-653.857	-28.974	0.263	-0.152
-652.843	-37.198	-0.210	0.113
-651.828	800.000	0.092	0.280
-650.814	-200.000	-0.028	-0.271
-649.799	-200.000	0.023	0.108
-648.784	-144.298	-0.007	-0.001
-647.770	-200.000	-0.014	-0.137
-646.755	20.382	-0.218	-0.177
-645.741	-97.437	0.264	-0.069
-644.726	-200.000	0.034	0.273
-643.711	-14.964	0.064	0.042
-642.697	-5.058	0.026	0.018
-641.682	18.776	0.161	0.129
-640.668	-200.000	-0.043	0.299
-639.653	-138.268	0.386	-0.043
-638.638	-100.063	-0.295	-0.074
-637.624	-200.000	-0.022	-0.168
-636.609	-173.070	-0.239	0.007
-635.595	35.363	0.206	-0.182
-634.580	-200.000	0.006	0.032
-633.565	409.499	-0.086	-0.184
-632.551	21.369	-0.133	0.108
-631.536	-20.701	0.090	0.055
-630.522	-200.000	0.002	-0.181
-629.507	699.945	0.039	-0.103
-628.492	-31.487	0.154	-0.087
-627.478	-86.246	0.195	-0.060
-626.463	800.000	0.180	-0.571
-625.449	-39.624	0.136	-0.071
-624.434	-60.926	-0.081	-0.034
-623.419	370.867	0.142	-0.290
-622.405	-64.990	0.272	-0.111
-621.390	-79.420	-0.172	0.059
-620.376	800.000	-0.006	-0.023
-619.361	-93.346	0.435	0.121
-618.346	-200.000	0.021	-0.129
-617.332	-36.520	-0.090	-0.048
-616.317	-200.000	-0.060	0.309
-615.303	27.174	-0.147	-0.124
-614.288	-200.000	-0.007	-0.053
-613.273	12.454	0.143	-0.111
-612.259	150.926	0.116	0.159
-611.244	800.000	0.051	0.203
-610.230	305.612	0.052	-0.098
-609.215	-200.000	-0.025	-0.188
-608.201	-98.905	0.331	0.084
-607.186	-117.039	0.087	0.016
-606.171	-96.845	0.193	0.051
-605.157	-200.000	0.007	0.375
-604.142	800.000	0.057	0.202
-603.128	-7.105	0.177	0.120
-602.113	-80.037	0.116	-0.039
-601.098	137.803	0.128	-0.168
-600.084	-169.444	-0.638	-0.023
-599.069	438.297	-0.063	0.138
-598.055	-140.552	0.202	0.021
-597.040	151.547	-0.021	0.028
-596.025	469.344	-0.062	0.139
-595.011	-111.069	0.281	0.058
-593.996	-55.384	-0.235	0.106
-592.982	-68.617	-0.317	-0.123
-591.967	-200.000	-0.039	-0.247
-590.952	-86.462	0.208	0.064
-589.938	55.260	0.252	0.244
-588.923	800.000	0.142	-0.476
-587.909	152.326	-0.134	-0.184
-586.894	132.969	0.118	0.153
-585.879	-195.501	-0.183	-0.001
-584.865	-77.072	-0.344	-0.120
-583.850	-83.329	-0.049	0.016
-582.836	621.172	-0.098	0.247
-581.821	259.354	-0.135	-0.235
-580.806	-71.745	-0.145	0.054
-579.792	-32.898	-0.196	-0.109
-578.777	-200.000	0.016	-0.464
-577.763	-112.582	-0.106	-0.021
-576.748	229.827	0.085	0.139
-575.733	-200.000	0.001	0.125
-574.719	171.915	0.131	-0.189
-573.704	-39.907	-0.221	-0.116
-572.690	412.204	-0.080	-0.170
-571.675	-38.618	0.078	-0.041
-570.661	474.888	-0.027	-0.061
-569.646	10.398	-0.205	-0.157
-568.631	-140.735	-0.443	0.046
-567.617	-200.000	-0.010	-0.151
-566.602	-200.000	0.018	0.108
-565.588	-200.000	0.003	0.079
-564.573	176.108	-0.161	-0.234
-563.558	-115.239	0.260	0.049
-562.544	-200.000	0.017	-0.186
-561.529	-14.493	0.182	-0.117
-560.515	-200.000	0.056	-0.285
-559.500	-100.746	0.178	0.044
-558.485	-61.269	0.142	-0.060
-557.471	289.970	0.016	-0.030
-556.456	-79.153	-0.171	-0.058
-555.442	800.000	0.024	-0.099
-554.427	-43.542	-0.091	-0.046
-553.412	-13.344	0.258	-0.168
-552.398	141.349	0.161	-0.214
-551.383	-86.184	-0.382	-0.118
-550.369	-119.153	-0.529	0.093
-549.354	-70.777	0.292	-0.110
-548.339	-59.255	0.046	-0.020
-547.325	764.892	-0.041	-0.113
-546.310	192.839	-0.210	0.318
-545.296	-200.000	-0.015	0.109
-544.281	268.086	-0.061	0.107
-543.266	272.920	0.029	0.051
-542.252	30.244	0.111	0.095
-541.237	-200.000	-0.037	0.311
-540.223	800.000	0.054	0.177
-539.208	-200.000	-0.035	0.154
-538.193	192.058	0.180	-0.272
-537.179	395.212	0.191	-0.398
-536.164	87.041	-0.090	-0.099
-535.150	-21.874	-0.204	-0.124
-534.135	134.191	0.096	0.124
-533.121	-190.099	-0.334	-0.004
-532.106	382.955	0.067	0.138
-531.091	181.100	-0.051	-0.075
-530.077	-97.378	0.134	0.035
-529.062	245.589	0.042	-0.071
-528.048	134.373	0.124	0.160
-527.033	4.016	0.223	0.163
-526.018	-88.911	-0.027	-0.008
-525.004	651.393	-0.038	-0.097
-523.989	44.934	0.254	-0.234
-522.975	255.583	0.149	0.256
-521.960	-114.591	0.174	0.033
-520.945	-127.656	0.164	0.024
-519.931	-91.038	-0.277	-0.080
-518.916	800.000	0.079	0.282
-517.902	-146.004	0.318	-0.028
-516.887	198.975	-0.097	0.149
-515.872	-200.000	0.043	-0.194
-514.858	-132.306	0.191	0.025
-513.843	202.127	-0.058	-0.089
-512.829	-194.127	-0.056	-0.000
-511.814	-154.055	-0.294	-0.020
-510.799	12.962	0.052	0.040
-509.785	-40.271	-0.009	0.005
-508.770	-81.628	0.049	-0.016
-507.756	509.466	0.074	0.172
-506.741	-78.740	0.427	0.146
-505.726	-48.687	-0.131	0.063
-504.712	-200.000	0.028	0.356
-503.697	-200.000	-0.032	-0.288
-502.683	-87.528	-0.521	-0.158
-501.668	800.000	-0.174	0.572
-500.653	-113.352	-0.126	0.025
-499.639	-78.439	-0.073	0.025
-498.624	-190.133	-0.199	0.002
-497.610	-79.596	0.339	-0.115
-496.595	129.994	-0.025	-0.032
-495.581	21.948	-0.225	0.184
-494.566	-126.076	-0.305	-0.046
-493.551	-96.857	0.088	0.023
-492.537	-66.229	0.155	0.062
-491.522	80.718	-0.166	0.179
-490.508	6.183	0.114	-0.085
-489.493	-35.987	-0.271	-0.147
-488.478	-102.133	-0.124	0.030
-487.464	-99.929	-0.269	-0.067
-486.449	800.000	0.028	-0.085
-485.435	66.666	-0.045	0.046
-484.420	464.514	-0.043	0.096
-483.405	25.251	-0.296	-0.246
-482.391	305.633	0.020	-0.037
-481.376	453.871	0.075	0.166
-480.362	-143.371	0.219	-0.021
-479.347	6.644	-0.255	0.189
-478.332	168.088	-0.142	0.202
-477.318	29.647	-0.296	-0.252
-476.303	188.524	-0.046	-0.069
-475.289	-32.951	0.423	0.235
-474.274	9.578	-0.043	0.032
-473.259	-44.287	-0.161	0.081
-472.245	32.518	0.184	-0.159
-471.230	136.282	0.042	-0.055
-470.216	-53.111	-0.118	0.054
-469.201	93.527	-0.113	-0.127
-468.186	188.446	0.174	-0.260
-467.172	142.817	0.193	-0.257
-466.157	187.109	0.056	0.084
-465.143	-200.000	-0.006	0.086
-464.128	255.728	0.126	-0.215
-463.113	-69.172	0.158	-0.061
-462.099	254.903	0.145	-0.248
-461.084	-82.191	0.286	0.093
-460.070	-61.893	0.192	-0.080
-459.055	-100.399	-0.243	0.060
-458.040	-19.825	-0.322	0.199
-457.026	800.000	0.031	-0.087
-456.011	-131.870	-0.156	-0.020
-454.997	-200.000	0.012	-0.105
-453.982	122.164	-0.195	-0.243
-452.968	-200.000	0.006	-0.205
-451.953	169.653	0.159	0.227
-450.938	-83.446	-0.186	-0.060
-449.924	-108.921	0.257	0.055
-448.909	-106.566	-0.063	0.014
-447.895	-26.534	-0.213	-0.125
-446.880	-47.285	-0.219	0.107
-445.865	-200.000	-0.015	0.147
-444.851	-46.901	0.287	-0.140
-443.836	-133.359	-0.238	-0.030
-442.822	-70.584	-0.075	-0.028
-441.807	272.972	-0.268	-0.473
-440.792	9.419	0.222	-0.168
-439.778	-63.504	-0.253	0.104
-438.763	-80.303	0.061	0.020
-437.749	24.466	0.181	-0.150
-436.734	0.258	-0.469	-0.334
-435.719	647.318	0.043	0.108
-434.705	-200.000	-0.007	0.034
-433.690	-94.236	-0.041	-0.011
-432.676	361.070	0.123	0.247
-431.661	82.430	-0.189	0.204
-430.646	-121.249	-0.111	0.018
-429.632	-23.169	0.219	0.131
-428.617	-200.000	-0.023	-0.217
-427.603	113.725	0.216	0.262
-426.588	427.216	-0.117	0.251
-425.573	-102.009	-0.338	0.081
-424.559	800.000	0.021	0.089
-423.544	6.916	0.266	-0.198
-422.530	-75.253	0.123	0.044
-421.515	800.000	-0.067	0.228
-420.500	-200.000	-0.007	0.228
-419.486	393.954	0.099	0.205
-418.471	-200.000	0.019	0.461
-417.457	-63.007	-0.185	-0.076
-416.442	-12.760	0.388	0.252
-415.428	40.566	0.095	0.085
-414.413	-83.268	0.431	0.138
-413.398	-16.727	0.267	-0.168
-412.384	-20.071	0.210	-0.129
-411.369	33.216	0.069	0.060
-410.355	343.856	-0.181	-0.355
-409.340	-139.143	-0.066	0.007
-408.325	800.000	0.107	-0.376
-407.311	-116.878	0.255	-0.047
-406.296	162.276	0.149	-0.208
-405.282	-200.000	-0.038	-0.173
-404.267	226.699	0.177	0.287
-403.252	157.184	0.134	-0.185
-402.238	-200.000	-0.047	0.239
-401.223	800.000	0.014	-0.045
-400.209	-26.085	-0.164	0.096
-399.194	-32.506	0.018	0.010
-398.179	133.063	0.238	0.307
-397.165	606.313	0.114	-0.283
-396.150	-172.839	-0.309	-0.010
-395.136	-200.000	-0.004	-0.119
-394.121	-86.427	0.251	-0.077
-393.106	-2.653	-0.087	0.060
-392.092	800.000	-0.060	-0.233
-391.077	380.683	0.082	0.168
-390.063	-162.366	0.160	0.008
-389.048	-200.000	0.048	0.228
-388.033	-200.000	-0.024	-0.249
-387.019	-123.940	0.307	-0.048
-386.004	9.331	-0.144	0.108
-384.990	154.569	-0.115	-0.157
-383.975	736.093	0.030	-0.081
-382.960	-46.061	0.269	0.132
-381.946	9.362	0.207	0.156
-380.931	37.105	0.255	0.224
-379.917	-200.000	0.040	-0.209
-378.902	800.000	-0.084	-0.311
-377.888	242.412	-0.139	0.231
-376.873	28.826	-0.017	0.014
-375.858	800.000	0.040	-0.168
-374.844	395.320	-0.075	-0.156
-373.829	800.000	0.018	-0.053
-372.815	756.853	-0.122	-0.327
-371.800	800.000	0.062	-0.203
-370.785	-182.927	0.099	0.002
-369.771	800.000	0.063	0.233
-368.756	-200.000	-0.046	0.302
-367.742	3.331	0.119	-0.087
-366.727	-200.000	-0.008	0.353
-365.712	85.938	-0.102	0.112
-364.698	60.500	-0.018	-0.018
-363.683	489.555	0.074	-0.167
-362.669	279.102	0.038	0.067
-361.654	572.710	-0.128	0.310
-360.639	-53.475	0.280	-0.127
-359.625	-200.000	-0.069	-0.341
-358.610	10.125	0.064	-0.048
-357.596	800.000	-0.083	0.277
-356.581	501.103	0.017	0.039
-355.566	345.678	-0.094	0.183
-354.552	99.181	-0.066	-0.076
-353.537	-149.629	0.415	-0.033
-352.523	-88.245	-0.471	0.140
-351.508	21.254	-0.121	-0.098
-350.493	-10.804	-0.239	0.157
-349.479	-99.312	-0.138	0.035
-348.464	800.000	-0.092	0.283
-347.450	-8.987	0.272	0.181
-346.435	164.469	0.197	0.277
-345.420	-4.798	-0.194	0.133
-344.406	-47.221	-0.218	0.106
-343.391	-200.000	-0.013	0.260
-342.377	158.082	-0.114	-0.157
-341.362	-77.151	0.348	0.121
-340.348	-68.768	0.123	-0.047
-339.333	-200.000	0.009	0.110
-338.318	-96.551	0.129	-0.034
-337.304	-95.133	0.047	-0.013
-336.289	-151.922	0.127	-0.009
-335.275	131.729	-0.051	-0.065
-334.260	-97.094	0.212	-0.055
-333.245	57.119	-0.193	-0.187
-332.231	-43.572	0.268	0.135
-331.216	-93.466	0.469	-0.129
-330.202	-54.316	-0.227	-0.102
-329.187	-2.802	0.122	0.085
-328.172	800.000	-0.030	0.096
-327.158	-109.765	-0.176	-0.037
-326.143	-67.605	0.236	-0.092
-325.129	-160.506	-0.275	-0.015
-324.114	-50.898	0.153	-0.071
-323.099	800.000	0.155	-0.448
-322.085	55.251	-0.350	-0.336
-321.070	208.818	-0.109	-0.170
-320.056	-200.000	-0.014	-0.210
-319.041	800.000	-0.103	-0.361
-318.026	142.773	-0.051	-0.067
-317.012	-10.399	-0.230	-0.151
-315.997	-11.135	-0.051	-0.034
-314.983	-200.000	0.028	0.173
-313.968	-62.141	0.223	-0.092
-312.953	176.816	-0.077	0.110
-311.939	800.000	-0.030	0.083
-310.924	-56.563	-0.183	0.081
-309.910	-200.000	0.042	0.233
-308.895	125.030	0.133	-0.166
-307.880	-61.083	0.221	-0.093
-306.866	-102.424	0.321	0.076
-305.851	315.404	-0.035	0.065
-304.837	64.523	-0.070	0.070
-303.822	68.221	-0.191	0.194
-302.807	318.438	0.053	-0.099
-301.793	-66.398	-0.256	0.101
-300.778	40.751	0.309	0.277
-299.764	189.589	-0.060	0.090
-298.749	661.959	-0.063	0.161
-297.735	-30.268	0.406	0.229
-296.720	23.759	0.327	0.267
-295.705	-200.000	-0.054	0.258
-294.691	66.439	0.245	0.247
-293.676	-200.000	0.033	0.365
-292.662	-200.000	0.056	-0.284
-291.647	-2.503	-0.117	-0.081
-290.632	304.240	-0.148	0.273
-289.618	-200.000	-0.007	0.100
-288.603	-200.000	-0.031	-0.312
-287.589	-200.000	0.013	-0.156
-286.574	-72.013	-0.038	0.014
-285.559	800.000	0.016	-0.060
-284.545	-115.238	0.343	-0.064
-283.530	-99.445	-0.249	0.062
-282.516	209.989	-0.064	0.100
-281.501	-200.000	-0.052	-0.398
-280.486	132.111	-0.115	-0.147
-279.472	-29.143	0.140	-0.079
-278.457	77.825	0.249	-0.263
-277.443	-69.056	-0.231	-0.088
-276.428	82.513	0.285	-0.307
-275.413	-59.257	0.373	0.159
-274.399	-67.769	0.362	0.140
-273.384	-87.946	-0.231	-0.069
-272.370	-18.991	-0.045	-0.028
-271.355	-150.097	-0.104	0.008
-270.340	118.286	-0.101	-0.123
-269.326	-200.000	0.008	0.168
-268.311	169.164	-0.075	-0.107
-267.297	45.316	0.286	-0.262
-266.282	-39.324	-0.200	-0.104
-265.267	-200.000	0.007	0.054
-264.253	-200.000	-0.039	0.486
-263.238	505.912	0.127	0.293
-262.224	-76.690	0.277	-0.096
-261.209	-200.000	-0.039	0.295
-260.195	-200.000	0.038	0.341
-259.180	-200.000	-0.047	0.273
-258.165	-19.189	-0.088	-0.054
-257.151	271.512	-0.069	-0.121
-256.136	-155.695	-0.256	-0.016
-255.122	-186.060	0.062	-0.001
-254.107	-116.374	0.190	0.035
-253.092	800.000	-0.098	-0.269
-252.078	-27.185	-0.315	-0.182
-251.063	418.109	0.137	0.290
-250.049	99.361	-0.036	-0.041
-249.034	-200.000	-0.029	-0.405
-248.019	-200.000	-0.008	-0.156
-247.005	-40.814	-0.337	-0.173
-245.990	43.177	-0.141	-0.127
-244.976	-156.526	-0.263	-0.016
-243.961	426.331	-0.191	-0.407
-242.946	-200.000	-0.001	0.043
-241.932	-70.831	-0.076	0.029
-240.917	-200.000	-0.021	-0.128
-239.903	568.123	-0.077	0.186
-238.888	-152.883	-0.544	0.038
-237.873	-200.000	0.008	0.279
-236.859	-51.361	0.066	-0.030
-235.844	-163.797	0.257	0.012
-234.830	-62.979	-0.412	0.169
-233.815	-122.653	0.314	-0.050
-232.800	-200.000	-0.033	-0.208
-231.786	220.158	0.114	0.180
-230.771	-200.000	0.077	-0.386
-229.757	15.785	-0.126	0.098
-228.742	421.356	0.046	-0.098
-227.727	264.245	-0.145	0.250
-226.713	-100.379	0.413	-0.101
-225.698	-145.661	-0.222	-0.020
-224.684	-98.402	-0.315	-0.080
-223.669	-130.028	-0.161	-0.022
-222.655	-109.465	-0.184	0.039
-221.640	-58.861	-0.280	0.120
-220.625	-8.791	-0.265	0.176
-219.611	-159.400	0.154	0.008
-218.596	-137.737	-0.167	0.019
-217.582	-2.542	-0.106	0.073
-216.567	-21.657	0.401	0.241
-215.552	-153.324	-0.272	0.019
-214.538	800.000	-0.065	-0.263
-213.523	-30.638	-0.124	-0.069
-212.509	-200.000	-0.006	0.135
-211.494	143.701	-0.146	-0.193
-210.479	142.101	-0.055	-0.072
-209.465	-24.712	-0.278	0.163
-208.450	193.686	-0.073	-0.109
-207.436	-98.484	-0.197	0.050
-206.421	194.238	0.043	-0.064
-205.406	-181.036	-0.317	0.006
-204.392	-136.201	-0.209	0.024
-203.377	513.430	0.051	-0.118
-202.363	800.000	0.094	-0.339
-201.348	215.282	-0.122	-0.191
-200.333	-115.359	0.111	-0.021
-199.319	-90.810	-0.228	0.065
-198.304	234.716	-0.064	-0.104
-197.290	-185.420	-0.379	-0.006
-196.275	-78.709	0.408	0.138
-195.260	-200.000	0.005	-0.289
-194.246	282.473	-0.145	0.257
-193.231	8.471	-0.180	0.134
-192.217	-71.979	0.267	-0.098
-191.202	-125.312	0.210	0.032
-190.187	57.793	-0.211	-0.204
-189.173	800.000	0.024	0.090
-188.158	134.003	-0.208	0.267
-187.144	-176.332	-0.154	-0.004
-186.129	271.089	0.048	-0.084
-185.114	169.960	0.305	0.431
-184.100	216.072	0.280	-0.440
-183.085	800.000	-0.061	0.216
-182.071	-16.071	-0.059	0.037
-181.056	-136.424	-0.274	0.031
-180.042	500.102	-0.079	-0.180
-179.027	60.924	0.011	0.010
-178.012	237.131	0.190	0.310
-176.998	-200.000	-0.006	-0.189
-175.983	-200.000	-0.061	-0.312
-174.969	-173.072	-0.135	-0.004
-173.954	800.000	-0.067	-0.283
-172.939	-108.662	-0.121	-0.026
-171.925	-31.113	-0.167	0.093
-170.910	800.000	-0.054	0.194
-169.896	-162.323	0.325	0.016
-168.881	87.019	-0.126	0.138
-167.866	-200.000	0.017	0.237
-166.852	186.587	0.097	0.143
-165.837	-145.851	0.368	0.032
-164.823	-200.000	0.037	0.324
-163.808	-200.000	0.056	-0.259
-162.793	-49.276	0.159	-0.075
-161.779	67.797	0.131	0.132
-160.764	-200.000	-0.209	-0.001
-159.750	141.230	0.416	0.543
-158.735	125.013	-0.036	-0.044
-157.720	237.449	-0.233	0.381
-156.706	800.000	0.075	0.235
-155.691	-134.931	-0.207	0.025
-154.677	-200.000	-0.037	0.234
-153.662	-200.000	-0.038	0.204
-152.647	-143.035	0.257	-0.025
-151.633	-15.673	0.255	0.160
-150.618	800.000	-0.050	-0.188
-149.604	-17.215	0.403	0.250
-148.589	0.697	0.079	-0.056
-147.574	-108.963	0.115	0.024
-146.560	-197.934	0.310	0.002
-145.545	236.312	0.142	-0.232
-144.531	800.000	-0.085	0.325
-143.516	-200.000	0.015	0.117
-142.502	-12.137	0.294	-0.190
-141.487	-156.057	0.235	0.015
-140.472	64.692	-0.188	0.187
-139.458	367.503	0.120	-0.239
-138.443	-123.466	0.180	-0.028
-137.429	-110.734	0.121	0.025
-136.414	-93.980	-0.358	0.097
-135.399	800.000	0.102	-0.338
-134.385	23.312	0.198	-0.161
-133.370	-130.829	0.600	-0.079
-132.356	-96.668	-0.248	0.064
-131.341	-82.816	-0.164	0.052
-130.326	-140.103	0.243	-0.025
-129.312	-96.067	0.177	-0.046
-128.297	-71.089	0.176	0.065
-127.283	-100.972	-0.085	-0.020
-126.268	-67.149	-0.048	-0.019
-125.253	-139.675	0.294	0.031
-124.239	-144.921	-0.064	-0.006
-123.224	-200.000	0.003	-0.023
-122.210	-53.817	0.244	0.109
