DTS Sentinel unit serial number:	SN413079Multiplexer serial number:	ORYXHardware model number:	OX4-SRSoftware version number:	ORYX F/W v4.00 Oryx Data Collector v3.7.2.0data status	okinstallation	princeton_trtdifferential loss correction	single-endedforward channel	channel 4reverse channel	N/Adate	2019/09/14time	06:09:35forward acquisition time	60.00reverse acquisition time	0.00gamma	496.2192k internal	0.2322k external	0.2322temperature offset calibration	1.0138default loss term (dB/km)	0.3790temperature slope calibration	1.0000multiplexer offset coefficient	1.0000multiplexer slope coefficient	1.0000fibre end	0.00T internal ref (°C)	26.75T ext. ref 1 (°C)	3.41T ext. ref 2 (°C)	20.88length (m)	temperature (°C)	Stokes	anti-Stokes-747.200	-200.000	0.058	0.289
-746.185	66.143	0.167	0.172
-745.171	-57.884	-0.234	-0.103
-744.156	62.423	0.195	0.197
-743.142	-200.000	0.011	-0.233
-742.127	78.494	0.156	0.169
-741.112	-200.000	0.001	-0.264
-740.098	-65.943	-0.302	0.122
-739.083	-15.777	0.275	0.177
-738.069	800.000	-0.050	0.142
-737.054	-200.000	-0.001	0.091
-736.039	356.535	0.084	-0.168
-735.025	-106.593	0.301	0.068
-734.010	-55.085	-0.294	-0.134
-732.996	170.934	-0.056	-0.082
-731.981	800.000	-0.047	-0.149
-730.966	800.000	0.041	0.165
-729.952	474.977	-0.079	-0.180
-728.937	-80.511	-0.049	-0.017
-727.923	-200.000	-0.016	-0.126
-726.908	31.661	-0.138	0.120
-725.894	69.892	-0.065	-0.068
-724.879	196.679	-0.261	0.401
-723.864	-137.306	-0.066	-0.008
-722.850	800.000	0.102	-0.344
-721.835	-200.000	-0.016	-0.153
-720.821	800.000	0.047	-0.173
-719.806	49.042	-0.142	-0.135
-718.791	-39.951	0.229	-0.121
-717.777	-47.414	-0.180	0.088
-716.762	800.000	-0.090	-0.279
-715.748	-98.846	-0.182	0.047
-714.733	-200.000	-0.022	-0.109
-713.718	103.630	0.204	0.241
-712.704	-38.086	0.310	-0.166
-711.689	-200.000	-0.025	-0.208
-710.675	224.519	0.022	0.036
-709.660	-141.744	0.267	-0.027
-708.645	-29.371	0.321	0.186
-707.631	800.000	-0.129	0.398
-706.616	-4.689	0.101	-0.070
-705.602	74.398	0.076	0.081
-704.587	-200.000	-0.018	0.297
-703.572	59.879	-0.072	-0.072
-702.558	-91.427	0.202	0.058
-701.543	-200.000	0.046	0.323
-700.529	40.147	-0.452	0.410
-699.514	-93.898	0.369	0.102
-698.499	51.236	-0.109	-0.105
-697.485	-200.000	0.013	-0.108
-696.470	-59.495	0.332	-0.144
-695.456	-200.000	-0.017	0.116
-694.441	-200.000	0.025	-0.225
-693.426	-200.000	-0.008	0.212
-692.412	40.977	-0.151	-0.138
-691.397	-129.712	-0.349	0.049
-690.383	-54.111	0.152	0.070
-689.368	-103.427	0.274	-0.065
-688.354	800.000	0.122	0.369
-687.339	-18.504	0.053	0.033
-686.324	-120.491	-0.359	0.062
-685.310	352.840	-0.169	0.338
-684.295	11.656	-0.282	-0.218
-683.281	187.125	-0.129	0.194
-682.266	-91.037	-0.100	0.029
-681.251	-138.376	0.329	-0.037
-680.237	-9.289	0.155	-0.104
-679.222	-22.596	0.102	0.062
-678.208	110.054	-0.217	0.262
-677.193	800.000	0.086	-0.336
-676.178	-24.600	0.109	-0.065
-675.164	549.853	0.106	0.256
-674.149	121.253	-0.127	-0.159
-673.135	-44.581	0.191	0.096
-672.120	-72.044	-0.216	0.081
-671.105	277.484	0.233	0.417
-670.091	800.000	-0.031	-0.116
-669.076	800.000	-0.016	-0.057
-668.062	9.324	-0.212	-0.162
-667.047	183.982	0.099	0.148
-666.032	-134.633	0.361	0.044
-665.018	-146.823	-0.292	0.025
-664.003	-121.255	0.085	-0.014
-662.989	38.765	0.232	-0.208
-661.974	171.118	-0.118	0.170
-660.959	256.933	0.226	0.390
-659.945	-200.000	0.032	-0.260
-658.930	800.000	-0.077	0.259
-657.916	-200.000	0.002	0.054
-656.901	-200.000	0.211	-0.000
-655.886	60.419	-0.247	0.247
-654.872	68.301	0.339	0.350
-653.857	-77.055	-0.200	-0.070
-652.843	17.941	0.290	-0.232
-651.828	95.596	-0.288	-0.331
-650.814	-46.199	0.352	0.174
-649.799	-200.000	-0.054	0.242
-648.784	135.942	-0.048	-0.063
-647.770	158.530	-0.213	-0.297
-646.755	0.763	-0.074	-0.053
-645.741	88.094	-0.126	-0.141
-644.726	800.000	-0.028	-0.096
-643.711	61.057	-0.088	0.088
-642.697	800.000	0.057	0.175
-641.682	-200.000	-0.001	0.198
-640.668	-45.937	0.101	0.050
-639.653	800.000	-0.057	0.172
-638.638	320.862	0.072	0.137
-637.624	-143.243	0.511	0.049
-636.609	129.315	0.119	0.152
-635.595	18.391	-0.044	-0.035
-634.580	-59.485	-0.186	-0.080
-633.565	742.934	-0.025	-0.066
-632.551	-118.515	0.217	-0.039
-631.536	-200.000	-0.008	0.134
-630.522	-91.729	0.180	0.051
-629.507	-39.989	-0.112	-0.059
-628.492	800.000	0.053	0.228
-627.478	-82.499	0.132	-0.043
-626.463	-37.140	0.103	-0.055
-625.449	-200.000	-0.048	0.259
-624.434	-53.312	0.146	0.067
-623.419	-200.000	-0.030	-0.171
-622.405	133.856	-0.028	0.036
-621.390	212.925	-0.068	-0.108
-620.376	-28.684	-0.036	0.021
-619.361	200.792	-0.066	0.102
-618.346	-10.496	0.293	0.195
-617.332	56.856	0.117	0.115
-616.317	-34.398	-0.300	-0.165
-615.303	66.735	-0.125	-0.128
-614.288	800.000	-0.019	-0.080
-613.273	73.918	0.100	-0.105
-612.259	240.840	-0.014	-0.024
-611.244	-200.000	0.002	-0.235
-610.230	-175.892	-0.328	0.009
-609.215	493.069	0.109	-0.251
-608.201	-36.516	-0.319	0.173
-607.186	705.261	-0.151	-0.402
-606.171	-44.587	0.071	-0.036
-605.157	-15.921	0.184	-0.118
-604.142	-125.440	-0.234	0.036
-603.128	-84.904	-0.153	0.048
-602.113	78.446	-0.222	-0.239
-601.098	85.806	0.120	0.132
-600.084	260.591	0.025	0.044
-599.069	-200.000	-0.025	0.289
-598.055	800.000	-0.024	-0.075
-597.040	96.930	-0.064	0.074
-596.025	-200.000	-0.018	-0.159
-595.011	-200.000	0.073	-0.326
-593.996	-77.211	0.042	-0.015
-592.982	800.000	-0.073	0.228
-591.967	753.091	0.046	-0.124
-590.952	-200.000	-0.000	0.011
-589.938	-109.904	0.203	-0.043
-588.923	-12.032	0.157	-0.103
-587.909	78.817	-0.083	0.089
-586.894	-200.000	0.027	0.291
-585.879	449.423	-0.034	-0.074
-584.865	-122.292	-0.264	0.043
-583.850	-43.309	0.161	0.082
-582.836	-65.043	0.186	0.075
-581.821	-83.521	-0.200	0.064
-580.806	186.225	0.127	-0.190
-579.792	-49.950	-0.134	0.064
-578.777	475.462	-0.148	-0.336
-577.763	800.000	-0.079	-0.263
-576.748	535.069	-0.121	-0.287
-575.733	800.000	-0.069	0.272
-574.719	-88.489	0.272	0.082
-573.704	-48.707	-0.251	0.121
-572.690	-200.000	0.067	0.317
-571.675	-12.704	0.062	-0.040
-570.661	-165.608	-0.075	0.003
-569.646	-197.501	0.494	-0.003
-568.631	-200.000	0.002	-0.083
-567.617	-116.226	-0.376	-0.070
-566.602	468.688	0.008	-0.019
-565.588	-84.347	-0.178	-0.057
-564.573	324.936	0.093	-0.178
-563.558	-108.813	0.390	-0.084
-562.544	800.000	0.088	0.365
-561.529	419.231	-0.110	0.237
-560.515	-200.000	-0.005	0.054
-559.500	405.476	0.090	-0.190
-558.485	-200.000	-0.007	-0.102
-557.471	-25.322	-0.160	0.095
-556.456	116.035	0.228	0.280
-555.442	-200.000	0.014	-0.256
-554.427	-155.922	-0.191	-0.012
-553.412	-108.103	-0.130	-0.028
-552.398	-200.000	0.019	0.280
-551.383	-200.000	0.009	-0.052
-550.369	442.815	0.162	0.356
-549.354	800.000	0.048	-0.211
-548.339	-200.000	-0.031	0.322
-547.325	-71.677	-0.139	-0.052
-546.310	-15.603	0.205	0.131
-545.296	406.942	-0.069	0.147
-544.281	-191.517	0.251	0.003
-543.266	-96.808	0.381	-0.100
-542.252	-98.306	-0.199	-0.051
-541.237	-200.000	-0.016	0.263
-540.223	-3.029	-0.306	0.214
-539.208	-39.452	-0.020	0.011
-538.193	36.865	0.269	-0.238
-537.179	372.634	-0.144	-0.294
-536.164	-200.000	0.044	-0.219
-535.150	800.000	0.054	-0.183
-534.135	7.726	-0.206	-0.154
-533.121	-124.637	0.041	0.006
-532.106	800.000	-0.011	-0.031
-531.091	49.732	0.079	-0.074
-530.077	-165.142	-0.294	0.013
-529.062	-79.667	-0.269	0.091
-528.048	154.968	0.032	0.044
-527.033	332.886	-0.056	-0.109
-526.018	39.150	0.142	-0.127
-525.004	-148.426	-0.460	-0.038
-523.989	-101.826	-0.164	-0.040
-522.975	-155.419	0.252	0.016
-521.960	-134.215	-0.220	0.027
-520.945	19.231	0.420	-0.338
-519.931	93.643	0.029	0.033
-518.916	118.504	-0.096	0.118
-517.902	233.922	0.059	0.097
-516.887	11.934	0.279	0.215
-515.872	-43.302	-0.343	-0.174
-514.858	-116.508	0.247	-0.046
-513.843	99.591	-0.057	0.066
-512.829	52.420	-0.384	0.367
-511.814	-56.107	-0.371	0.165
-510.799	310.586	-0.133	-0.250
-509.785	86.643	-0.113	-0.124
-508.770	-200.000	-0.022	0.204
-507.756	-79.630	0.212	-0.071
-506.741	800.000	0.030	-0.126
-505.726	-27.911	-0.094	-0.055
-504.712	-200.000	-0.011	-0.450
-503.697	224.445	-0.154	0.249
-502.683	800.000	0.069	0.242
-501.668	-74.739	-0.161	0.058
-500.653	263.133	-0.017	0.030
-499.639	622.754	-0.048	-0.120
-498.624	61.194	-0.144	-0.143
-497.610	-159.555	0.048	-0.003
-496.595	-127.023	-0.219	0.032
-495.581	-20.041	-0.363	-0.224
-494.566	-94.663	-0.114	-0.031
-493.551	-68.066	-0.216	0.084
-492.537	-48.273	-0.149	0.072
-491.522	-13.710	-0.385	-0.249
-490.508	-200.000	0.010	-0.412
-489.493	-16.133	-0.066	0.042
-488.478	-93.814	0.109	-0.030
-487.464	719.641	0.125	-0.332
-486.449	119.758	-0.176	-0.219
-485.435	394.335	-0.063	-0.132
-484.420	-59.892	0.195	-0.083
-483.405	-154.492	0.210	-0.014
-482.391	-5.522	0.102	0.070
-481.376	-106.064	-0.114	0.026
-480.362	-151.192	0.171	0.013
-479.347	14.964	-0.183	0.143
-478.332	-177.490	0.214	0.005
-477.318	-93.004	-0.077	0.021
-476.303	-200.000	0.030	0.231
-475.289	31.314	0.089	-0.077
-474.274	122.759	0.196	0.245
-473.259	324.272	0.144	0.275
-472.245	-111.601	-0.347	-0.071
-471.230	0.913	-0.324	-0.232
-470.216	619.310	-0.034	0.085
-469.201	-60.236	0.147	0.063
-468.186	790.015	0.085	-0.235
-467.172	-33.486	-0.094	-0.052
-466.157	19.559	0.081	-0.065
-465.143	457.113	-0.200	0.443
-464.128	-77.819	0.337	-0.116
-463.113	-200.000	0.013	0.208
-462.099	-200.000	-0.002	-0.127
-461.084	-200.000	0.017	-0.199
-460.070	800.000	0.098	0.352
-459.055	86.986	-0.119	-0.131
-458.040	413.842	0.036	0.076
-457.026	-53.525	0.211	0.097
-456.011	1.952	0.329	0.237
-454.997	59.767	0.247	0.243
-453.982	11.889	-0.150	0.115
-452.968	-200.000	0.018	-0.152
-451.953	-84.908	0.310	-0.097
-450.938	52.962	-0.085	0.082
-449.924	800.000	0.062	0.194
-448.909	22.003	-0.037	-0.030
-447.895	701.341	-0.116	0.304
-446.880	-200.000	0.025	-0.192
-445.865	162.155	-0.120	0.168
-444.851	-200.000	-0.002	-0.275
-443.836	-33.421	-0.421	-0.232
-442.822	-58.337	-0.312	-0.135
-441.807	583.022	0.026	-0.064
-440.792	-105.583	0.158	-0.036
-439.778	-128.734	-0.290	0.041
-438.763	-120.135	0.482	0.082
-437.749	-200.000	-0.010	-0.124
-436.734	-50.248	-0.241	0.114
-435.719	255.592	0.042	-0.071
-434.705	17.497	0.273	-0.216
-433.690	-200.000	0.024	0.216
-432.676	208.973	-0.033	-0.052
-431.661	132.619	0.235	-0.303
-430.646	-200.000	0.026	0.186
-429.632	95.675	0.193	-0.219
-428.617	-15.808	-0.047	0.030
-427.603	232.461	0.071	0.116
-426.588	-96.119	-0.416	-0.110
-425.573	-40.194	-0.095	0.049
-424.559	62.383	0.174	0.174
-423.544	-200.000	-0.001	-0.315
-422.530	-51.736	0.159	-0.074
-421.515	31.145	-0.083	0.071
-420.500	50.594	0.122	0.116
-419.486	-64.078	-0.082	0.034
-418.471	75.341	-0.213	-0.224
-417.457	-142.505	-0.261	-0.026
-416.442	13.862	0.143	0.111
-415.428	800.000	-0.081	0.330
-414.413	-200.000	0.001	0.288
-413.398	-107.007	0.127	0.028
-412.384	-141.567	-0.097	-0.010
-411.369	-59.458	-0.379	0.162
-410.355	211.890	-0.139	-0.219
-409.340	211.151	-0.109	0.171
-408.325	535.361	-0.069	-0.164
-407.311	132.403	-0.206	-0.265
-406.296	800.000	0.041	-0.133
-405.282	47.504	-0.069	-0.064
-404.267	-200.000	-0.048	-0.329
-403.252	318.523	0.076	-0.143
-402.238	791.352	-0.109	0.299
-401.223	800.000	-0.102	0.323
-400.209	258.089	-0.040	0.068
-399.194	800.000	-0.020	0.054
-398.179	715.755	0.081	0.215
-397.165	562.480	-0.086	0.208
-396.150	-29.169	0.323	0.184
-395.136	68.203	0.114	0.117
-394.121	-200.000	-0.039	-0.417
-393.106	-200.000	-0.010	0.070
-392.092	-43.703	-0.145	-0.073
-391.077	-31.925	0.225	-0.125
-390.063	-44.998	-0.141	0.070
-389.048	800.000	-0.052	-0.223
-388.033	245.992	0.100	-0.168
-387.019	432.740	0.180	0.388
-386.004	158.351	-0.372	0.515
-384.990	428.994	0.097	0.209
-383.975	-111.105	0.259	0.053
-382.960	-52.601	-0.180	-0.083
-381.946	-38.802	-0.465	-0.244
-380.931	308.972	0.132	-0.246
-379.917	-200.000	-0.005	-0.321
-378.902	553.916	0.047	-0.112
-377.888	304.164	0.139	-0.256
-376.873	-121.318	-0.242	0.040
-375.858	-26.766	0.037	-0.022
-374.844	-52.133	0.041	0.019
-373.829	-200.000	-0.017	0.147
-372.815	104.691	-0.115	-0.135
-371.800	-200.000	0.030	-0.228
-370.785	-95.429	-0.127	0.034
-369.771	34.367	-0.147	-0.127
-368.756	-185.852	0.143	0.002
-367.742	317.829	0.131	0.247
-366.727	-137.892	-0.108	-0.012
-365.712	-113.000	-0.146	-0.029
-364.698	800.000	-0.025	-0.097
-363.683	411.214	0.128	-0.271
-362.669	31.633	-0.188	0.161
-361.654	512.465	-0.073	0.169
-360.639	-20.322	-0.090	0.055
-359.625	-44.810	-0.193	0.096
-358.610	-200.000	0.008	-0.216
-357.596	-200.000	0.001	0.365
-356.581	-96.347	-0.217	0.057
-355.566	-36.858	0.231	0.123
-354.552	-200.000	0.009	-0.136
-353.537	209.891	0.195	0.305
-352.523	-86.152	0.276	0.085
-351.508	-90.461	-0.083	0.024
-350.493	800.000	-0.035	0.125
-349.479	-151.626	0.204	0.015
-348.464	26.022	-0.410	-0.341
-347.450	-71.132	0.133	0.050
-346.435	182.463	-0.092	-0.135
-345.420	83.193	0.318	-0.344
-344.406	-134.170	0.106	-0.013
-343.391	-200.000	-0.010	0.166
-342.377	243.014	-0.055	0.091
-341.362	-200.000	-0.128	-0.655
-340.348	277.797	-0.095	-0.169
-339.333	-18.718	0.004	-0.003
-338.318	-13.856	0.157	0.101
-337.304	60.675	0.166	0.164
-336.289	-200.000	-0.009	0.126
-335.275	-200.000	0.056	0.290
-334.260	95.357	0.141	-0.159
-333.245	-34.553	-0.266	0.145
-332.231	-167.986	0.294	0.011
-331.216	800.000	-0.022	0.074
-330.202	64.800	-0.098	-0.099
-329.187	-78.478	0.283	0.097
-328.172	-178.314	-0.228	-0.005
-327.158	-26.692	0.295	-0.171
-326.143	-147.898	0.066	-0.005
-325.129	-200.000	0.073	0.582
-324.114	800.000	0.043	0.153
-323.099	104.334	0.055	0.064
-322.085	13.797	0.138	0.107
-321.070	48.504	-0.195	-0.181
-320.056	-200.000	0.048	-0.307
-319.041	439.205	-0.045	0.098
-318.026	800.000	0.057	0.193
-317.012	-200.000	0.053	0.233
-315.997	41.975	0.213	-0.192
-314.983	-139.044	0.400	0.043
-313.968	296.689	0.081	0.148
-312.953	47.489	-0.110	-0.102
-311.939	-38.162	-0.132	0.070
-310.924	-150.426	0.309	0.024
-309.910	800.000	0.054	0.179
-308.895	100.064	-0.263	-0.303
-307.880	97.444	0.194	-0.222
-306.866	-52.328	-0.192	-0.088
-305.851	466.489	-0.063	0.139
-304.837	138.159	0.123	0.160
-303.822	-200.000	0.007	0.406
-302.807	15.897	-0.038	0.030
-301.793	125.583	0.141	0.177
-300.778	800.000	-0.119	-0.444
-299.764	-200.000	-0.009	0.039
-298.749	-35.738	0.184	-0.099
-297.735	167.477	-0.269	0.380
-296.720	-24.451	-0.107	0.063
-295.705	449.417	-0.111	0.244
-294.691	10.903	-0.033	0.025
-293.676	77.859	-0.103	-0.108
-292.662	482.253	-0.032	-0.072
-291.647	32.857	0.102	0.088
-290.632	-22.563	0.183	0.110
-289.618	2.177	-0.055	0.040
-288.603	800.000	-0.062	0.225
-287.589	-180.584	-0.466	0.010
-286.574	65.854	0.039	-0.039
-285.559	-200.000	0.007	-0.054
-284.545	-109.492	0.150	0.031
-283.530	-90.801	0.155	-0.044
-282.516	800.000	0.037	-0.113
-281.501	-101.492	0.344	-0.083
-280.486	37.452	-0.109	-0.096
-279.472	-125.102	-0.326	-0.050
-278.457	-86.953	-0.376	0.114
-277.443	632.948	0.073	-0.184
-276.428	156.971	0.175	-0.240
-275.413	-200.000	-0.034	-0.347
-274.399	-62.859	-0.096	0.039
-273.384	132.461	-0.118	0.151
-272.370	-200.000	-0.033	-0.303
-271.355	351.027	0.085	0.167
-270.340	-200.000	-0.059	-0.296
-269.326	-161.505	0.172	0.009
-268.311	-200.000	0.001	-0.265
-267.297	-200.000	0.035	0.216
-266.282	-200.000	-0.013	-0.123
-265.267	523.362	0.109	0.254
-264.253	-87.646	-0.336	-0.100
-263.238	-200.000	-0.073	-0.361
-262.224	18.887	0.276	0.219
-261.209	75.055	-0.025	0.026
-260.195	-41.962	0.479	-0.243
-259.180	-200.000	-0.038	0.211
-258.165	-101.445	0.243	0.059
-257.151	-55.835	0.137	0.061
-256.136	731.845	0.118	-0.314
-255.122	-86.868	-0.268	-0.081
-254.107	-27.840	0.325	0.187
-253.092	62.122	0.156	0.154
-252.078	10.623	0.243	0.184
-251.063	-68.733	0.088	0.034
-250.049	293.393	0.100	0.182
-249.034	-200.000	0.021	0.165
-248.019	-17.062	-0.279	-0.175
-247.005	-200.000	0.047	-0.263
-245.990	-141.236	0.275	0.028
-244.976	-140.426	0.306	0.032
-243.961	319.805	-0.035	-0.066
-242.946	324.208	-0.078	0.147
-241.932	800.000	-0.048	0.181
-240.917	117.078	0.242	0.295
-239.903	-90.688	0.223	0.064
-238.888	21.365	0.154	0.124
-237.873	-52.096	-0.121	-0.056
-236.859	-68.285	0.246	-0.095
-235.844	800.000	-0.093	-0.332
-234.830	-73.835	0.139	-0.050
-233.815	800.000	0.090	0.283
-232.800	-3.603	0.149	0.103
-231.786	151.115	-0.065	-0.088
-230.771	-200.000	0.055	-0.280
-229.757	60.522	-0.073	0.072
-228.742	-200.000	-0.013	0.100
-227.727	-200.000	0.004	-0.035
-226.713	800.000	0.061	-0.194
-225.698	71.545	-0.134	0.137
-224.684	-200.000	-0.016	-0.252
-223.669	-76.867	0.060	0.021
-222.655	-60.189	-0.237	-0.100
-221.640	440.478	-0.106	0.229
-220.625	-99.928	0.366	0.090
-219.611	-200.000	-0.003	0.241
-218.596	-113.599	0.039	-0.008
-217.582	-72.854	0.237	-0.086
-216.567	2.470	0.144	-0.103
-215.552	32.103	-0.075	0.064
-214.538	546.175	0.077	0.181
-213.523	-3.039	0.081	0.056
-212.509	-49.878	0.218	-0.102
-211.494	-0.814	-0.175	0.123
-210.479	-122.077	-0.180	-0.029
-209.465	-200.000	0.013	0.258
-208.450	20.499	0.199	-0.159
-207.436	-84.550	-0.379	0.118
-206.421	188.745	0.184	-0.273
-205.406	-69.059	0.407	-0.155
-204.392	800.000	-0.026	0.102
-203.377	341.343	-0.056	0.108
-202.363	-100.335	0.148	0.036
-201.348	1.578	-0.066	-0.047
-200.333	455.943	0.035	0.076
-199.319	-111.863	-0.269	0.054
-198.304	56.731	-0.053	0.051
-197.290	-200.000	-0.017	-0.083
-196.275	224.073	-0.094	0.150
-195.260	121.978	0.276	-0.340
-194.246	-147.840	-0.228	0.019
-193.231	12.034	0.255	-0.194
-192.217	-2.307	-0.300	-0.208
-191.202	677.547	0.047	-0.122
-190.187	-54.146	0.344	-0.155
-189.173	-200.000	0.002	-0.204
-188.158	-53.518	-0.171	0.077
-187.144	548.229	-0.114	-0.270
-186.129	505.305	-0.059	-0.135
-185.114	-143.575	0.159	-0.015
-184.100	-61.402	-0.057	-0.024
-183.085	-200.000	0.033	0.192
-182.071	279.809	0.008	-0.014
-181.056	201.029	0.028	0.043
-180.042	229.958	-0.071	-0.114
-179.027	-200.000	-0.021	-0.165
-178.012	800.000	0.042	0.140
-176.998	-38.166	0.295	-0.154
-175.983	227.847	0.043	-0.070
-174.969	253.873	0.152	0.256
-173.954	702.032	0.105	0.274
-172.939	355.241	-0.087	0.170
-171.925	125.188	-0.152	-0.189
-170.910	800.000	0.084	-0.266
-169.896	-77.984	0.040	-0.014
-168.881	37.705	0.172	0.151
-167.866	227.441	-0.208	-0.335
-166.852	-200.000	0.033	0.177
-165.837	-170.625	-0.293	-0.010
-164.823	328.607	0.037	0.070
-163.808	-200.000	0.082	0.379
-162.793	800.000	-0.083	0.283
-161.779	229.447	0.050	-0.081
-160.764	-111.320	-0.281	-0.057
-159.750	36.706	0.011	0.009
-158.735	-35.683	-0.150	0.080
-157.720	-77.128	0.338	-0.116
-156.706	-87.458	-0.242	0.072
-155.691	74.513	-0.213	0.221
-154.677	-50.023	0.163	-0.076
-153.662	-153.553	-0.178	-0.012
-152.647	-200.000	-0.057	0.314
-151.633	800.000	0.104	-0.310
-150.618	800.000	0.098	-0.386
-149.604	800.000	0.049	0.204
-148.589	454.072	-0.126	0.275
-147.574	-38.983	0.046	-0.024
-146.560	-200.000	-0.016	-0.084
-145.545	299.720	-0.112	-0.203
-144.531	-137.114	-0.172	-0.019
-143.516	23.626	-0.295	0.240
-142.502	13.216	-0.101	0.077
-141.487	-51.206	0.137	-0.063
-140.472	-76.812	0.296	0.102
-139.458	232.886	-0.205	-0.333
-138.443	-200.000	-0.011	0.139
-137.429	800.000	-0.039	0.156
-136.414	-200.000	0.038	0.200
-135.399	51.859	0.172	-0.161
-134.385	-200.000	0.007	0.084
-133.370	604.600	0.054	-0.133
-132.356	-112.181	-0.320	0.063
-131.341	464.945	0.114	0.253
-130.326	800.000	0.099	-0.376
-129.312	800.000	-0.054	-0.155
-128.297	74.863	0.079	-0.082
-127.283	103.914	-0.064	0.074
-126.268	238.638	0.173	-0.284
-125.253	-56.208	-0.148	0.065
-124.239	-200.000	-0.017	0.169
-123.224	-156.051	0.320	-0.020
-122.210	-163.528	0.149	0.007
-121.195	27.546	0.281	-0.233
