DTS Sentinel unit serial number:	SN413079Multiplexer serial number:	ORYXHardware model number:	OX4-SRSoftware version number:	ORYX F/W v4.00 Oryx Data Collector v3.7.2.0data status	okinstallation	princeton_trtdifferential loss correction	single-endedforward channel	channel 4reverse channel	N/Adate	2019/09/16time	16:25:34forward acquisition time	60.00reverse acquisition time	0.00gamma	496.2192k internal	0.2292k external	0.2292temperature offset calibration	0.9939default loss term (dB/km)	0.3790temperature slope calibration	1.0000multiplexer offset coefficient	1.0000multiplexer slope coefficient	1.0000fibre end	0.00T internal ref (°C)	40.36T ext. ref 1 (°C)	15.06T ext. ref 2 (°C)	34.19length (m)	temperature (°C)	Stokes	anti-Stokes-747.200	262.509	0.079	0.141
-746.185	-93.444	0.199	-0.056
-745.171	-104.376	-0.050	-0.012
-744.156	-200.000	0.150	0.677
-743.142	-135.179	0.164	0.020
-742.127	152.159	-0.126	0.177
-741.112	-91.250	-0.276	-0.081
-740.098	-200.000	0.042	0.456
-739.083	97.771	0.136	0.160
-738.069	-58.656	-0.337	0.149
-737.054	783.062	-0.038	0.106
-736.039	-92.123	-0.221	-0.064
-735.025	-28.994	-0.252	0.148
-734.010	-47.541	-0.127	0.063
-732.996	2.561	-0.037	-0.028
-731.981	349.655	0.057	-0.115
-730.966	-200.000	-0.014	0.105
-729.952	59.037	0.159	-0.160
-728.937	800.000	0.038	-0.151
-727.923	355.526	-0.078	-0.158
-726.908	800.000	0.045	-0.159
-725.894	-164.765	-0.171	-0.008
-724.879	-78.268	0.233	0.082
-723.864	-200.000	0.009	-0.198
-722.850	-71.702	0.350	-0.134
-721.835	198.603	-0.118	0.184
-720.821	-109.881	-0.244	0.052
-719.806	-96.480	0.221	-0.060
-718.791	800.000	-0.026	-0.075
-717.777	600.519	-0.058	-0.147
-716.762	800.000	0.034	-0.105
-715.748	-200.000	-0.022	-0.108
-714.733	-39.515	0.159	0.085
-713.718	800.000	0.067	-0.294
-712.704	143.248	-0.081	-0.110
-711.689	20.350	-0.082	0.068
-710.675	-122.069	-0.177	0.030
-709.660	335.702	-0.157	-0.311
-708.645	-89.271	0.491	0.148
-707.631	-62.801	0.077	-0.033
-706.616	-177.911	-0.123	-0.003
-705.602	46.291	0.211	0.200
-704.587	800.000	0.047	-0.193
-703.572	77.269	0.156	0.169
-702.558	393.236	-0.153	-0.325
-701.543	-94.988	0.228	0.063
-700.529	362.556	0.198	-0.406
-699.514	690.577	0.096	0.257
-698.499	-23.830	-0.104	-0.063
-697.485	606.690	0.101	-0.256
-696.470	-112.033	-0.210	-0.043
-695.456	800.000	0.087	-0.337
-694.441	-90.404	0.063	-0.019
-693.426	-200.000	0.014	-0.237
-692.412	800.000	-0.038	-0.126
-691.397	-120.956	0.237	-0.041
-690.383	-200.000	-0.067	-0.426
-689.368	183.441	-0.165	-0.249
-688.354	-137.523	-0.290	-0.033
-687.339	662.471	-0.049	-0.128
-686.324	-162.119	-0.208	0.011
-685.310	31.799	0.246	0.216
-684.295	-139.687	0.104	-0.011
-683.281	-92.408	0.260	0.075
-682.266	299.308	0.045	-0.085
-681.251	-200.000	-0.065	0.305
-680.237	800.000	0.105	-0.344
-679.222	-24.937	0.172	-0.104
-678.208	555.017	-0.197	0.483
-677.193	-102.323	-0.273	0.067
-676.178	-200.000	0.040	-0.426
-675.164	-112.567	-0.434	-0.088
-674.149	101.896	0.192	-0.229
-673.135	800.000	-0.107	-0.354
-672.120	105.730	0.044	-0.053
-671.105	-54.705	0.330	-0.152
-670.091	51.336	0.157	-0.152
-669.076	-45.347	0.195	-0.099
-668.062	-79.503	0.369	-0.127
-667.047	-109.706	-0.262	-0.056
-666.032	-78.880	-0.146	-0.051
-665.018	-96.687	-0.285	-0.077
-664.003	800.000	-0.024	0.089
-662.989	-172.446	0.270	-0.009
-661.974	-13.110	-0.622	-0.413
-660.959	800.000	0.116	-0.485
-659.945	48.708	0.143	-0.136
-658.930	-179.282	0.157	-0.004
-657.916	800.000	-0.057	-0.223
-656.901	0.755	0.234	0.171
-655.886	203.473	-0.075	-0.118
-654.872	160.803	-0.182	-0.260
-653.857	800.000	0.101	0.297
-652.843	-66.075	0.227	0.092
-651.828	800.000	0.080	-0.329
-650.814	546.159	-0.048	-0.117
-649.799	800.000	0.080	0.263
-648.784	-74.949	0.085	0.031
-647.770	34.423	0.194	-0.173
-646.755	-15.000	-0.180	-0.118
-645.741	-8.957	-0.288	-0.197
-644.726	-119.219	-0.303	-0.054
-643.711	-74.426	0.180	0.066
-642.697	-158.135	-0.030	-0.002
-641.682	39.958	0.017	-0.015
-640.668	92.821	-0.167	-0.193
-639.653	1.499	-0.332	-0.243
-638.638	4.083	0.214	0.160
-637.624	73.474	-0.235	0.250
-636.609	79.955	-0.008	-0.008
-635.595	-131.065	0.009	-0.001
-634.580	-81.266	0.358	0.120
-633.565	43.303	-0.260	-0.242
-632.551	-5.131	0.133	-0.093
-631.536	-200.000	0.015	-0.223
-630.522	25.268	-0.325	0.275
-629.507	800.000	0.096	0.317
-628.492	132.005	-0.161	0.211
-627.478	138.890	-0.121	0.163
-626.463	-79.579	0.113	0.039
-625.449	159.663	-0.132	0.187
-624.434	26.058	0.009	-0.008
-623.419	517.672	-0.170	-0.404
-622.405	-31.156	-0.129	0.074
-621.390	417.835	0.016	0.035
-620.376	-7.397	0.052	0.036
-619.361	800.000	0.073	-0.297
-618.346	-200.000	-0.030	-0.218
-617.332	-200.000	-0.001	0.125
-616.317	-115.937	-0.236	-0.045
-615.303	800.000	0.036	0.135
-614.288	-19.246	-0.042	-0.027
-613.273	800.000	0.071	0.216
-612.259	800.000	-0.066	0.188
-611.244	277.467	0.150	0.271
-610.230	368.582	0.168	0.346
-609.215	404.680	0.089	-0.192
-608.201	135.385	-0.212	-0.280
-607.186	-20.211	0.114	-0.072
-606.171	-200.000	-0.044	0.432
-605.157	63.710	-0.115	0.117
-604.142	-121.049	0.144	0.025
-603.128	735.940	0.028	0.075
-602.113	-121.914	-0.178	0.030
-601.098	-36.416	0.128	0.070
-600.084	-200.000	0.023	-0.151
-599.069	800.000	-0.069	-0.211
-598.055	-44.422	-0.398	0.203
-597.040	-200.000	0.020	-0.129
-596.025	120.367	0.096	0.121
-595.011	-168.785	-0.059	-0.002
-593.996	418.946	-0.015	0.033
-592.982	-200.000	-0.016	-0.363
-591.967	146.822	-0.093	-0.128
-590.952	-129.830	0.202	-0.028
-589.938	-4.811	-0.110	0.077
-588.923	29.264	-0.195	-0.169
-587.909	800.000	0.060	0.237
-586.894	-62.862	0.316	0.133
-585.879	250.039	0.158	0.274
-584.865	176.782	-0.088	-0.130
-583.850	-134.658	-0.344	0.043
-582.836	214.048	-0.010	-0.016
-581.821	-152.328	0.142	0.010
-580.806	-63.193	-0.076	-0.032
-579.792	22.828	0.140	-0.117
-578.777	577.777	0.132	0.327
-577.763	-200.000	-0.039	-0.329
-576.748	85.035	0.086	-0.096
-575.733	-189.843	-0.232	0.003
-574.719	-158.113	-0.319	-0.019
-573.704	-90.922	0.190	-0.055
-572.690	-128.356	0.159	-0.023
-571.675	800.000	-0.070	-0.199
-570.661	26.854	-0.070	0.059
-569.646	-100.239	-0.150	-0.038
-568.631	-2.199	0.227	-0.162
-567.617	-127.935	0.063	-0.009
-566.602	-69.559	0.148	-0.057
-565.588	564.920	0.030	-0.075
-564.573	-17.326	-0.069	-0.044
-563.558	143.193	-0.048	-0.065
-562.544	-36.095	0.207	0.113
-561.529	105.531	-0.081	-0.097
-560.515	-165.750	-0.246	0.011
-559.500	-45.150	-0.227	0.115
-558.485	-11.320	-0.166	0.111
-557.471	-101.369	0.306	-0.076
-556.456	-61.948	0.115	0.049
-555.442	-144.518	0.262	0.025
-554.427	-199.419	0.426	-0.002
-553.412	85.108	0.071	-0.079
-552.398	-200.000	0.010	0.210
-551.383	88.132	-0.126	0.142
-550.369	-131.062	0.495	0.067
-549.354	-55.838	-0.170	0.077
-548.339	223.119	0.095	0.155
-547.325	800.000	-0.062	0.262
-546.310	-170.201	0.179	-0.006
-545.296	-14.174	0.184	-0.120
-544.281	500.059	0.056	-0.131
-543.266	338.056	-0.057	-0.113
-542.252	246.101	0.147	0.252
-541.237	-99.146	0.117	-0.030
-540.223	-55.186	-0.510	0.233
-539.208	-53.197	-0.410	0.191
-538.193	358.593	-0.022	0.045
-537.179	-152.382	0.087	0.006
-536.164	-135.588	0.352	-0.042
-535.150	105.694	0.142	-0.170
-534.135	800.000	0.025	0.099
-533.121	-151.872	-0.140	0.010
-532.106	-200.000	0.031	-0.458
-531.091	69.539	0.049	0.051
-530.077	-63.024	0.153	-0.064
-529.062	-200.000	0.053	0.270
-528.048	574.982	0.121	0.299
-527.033	-200.000	-0.032	-0.260
-526.018	607.301	0.082	-0.208
-525.004	130.388	-0.150	0.195
-523.989	-22.817	0.190	-0.116
-522.975	-200.000	-0.004	-0.084
-521.960	-125.072	-0.246	0.038
-520.945	84.214	0.124	-0.137
-519.931	268.566	-0.148	0.264
-518.916	249.243	-0.069	-0.119
-517.902	-129.081	0.386	0.055
-516.887	-25.847	0.187	-0.112
-515.872	-35.728	-0.103	0.057
-514.858	-200.000	0.010	-0.145
-513.843	689.456	-0.083	0.219
-512.829	-200.000	-0.005	-0.077
-511.814	800.000	0.036	0.112
-510.799	800.000	-0.077	0.222
-509.785	-14.749	0.252	-0.164
-508.770	-200.000	-0.010	-0.248
-507.756	-145.468	-0.213	-0.019
-506.741	165.696	0.216	0.310
-505.726	-63.775	0.118	0.049
-504.712	-200.000	0.002	0.209
-503.697	372.235	-0.123	-0.254
-502.683	-156.387	-0.204	0.013
-501.668	800.000	0.118	-0.334
-500.653	800.000	-0.061	-0.259
-499.639	-200.000	0.008	-0.347
-498.624	-70.099	0.149	0.058
-497.610	702.919	-0.080	-0.215
-496.595	146.109	0.155	-0.211
-495.581	-53.081	0.166	0.077
-494.566	455.817	0.048	-0.109
-493.551	-200.000	-0.081	-0.419
-492.537	-124.326	0.444	-0.070
-491.522	-20.986	-0.092	-0.057
-490.508	-175.865	0.088	0.002
-489.493	657.107	-0.161	-0.419
-488.478	73.462	0.020	0.021
-487.464	-119.684	-0.330	0.058
-486.449	43.898	0.195	-0.181
-485.435	-125.069	-0.237	0.037
-484.420	-139.999	0.174	0.019
-483.405	-187.447	-0.150	0.002
-482.391	-200.000	-0.006	0.054
-481.376	-97.462	0.130	-0.034
-480.362	65.823	0.082	-0.085
-479.347	53.575	0.210	-0.204
-478.332	41.982	-0.278	0.255
-477.318	-172.240	0.049	0.002
-476.303	-77.542	-0.058	0.020
-475.289	-200.000	-0.017	-0.119
-474.274	-200.000	0.014	-0.112
-473.259	54.277	-0.196	-0.192
-472.245	-96.814	-0.083	0.022
-471.230	794.946	0.042	0.117
-470.216	800.000	0.035	0.123
-469.201	-200.000	0.008	0.040
-468.186	-88.056	0.301	0.092
-467.172	-200.000	0.059	0.301
-466.157	123.712	0.179	-0.227
-465.143	-67.761	-0.312	0.124
-464.128	800.000	0.049	0.159
-463.113	800.000	0.036	0.142
-462.099	-200.000	0.027	0.390
-461.084	122.696	-0.134	0.170
-460.070	47.066	0.183	0.173
-459.055	-148.188	-0.155	-0.013
-458.040	324.084	0.077	0.148
-457.026	272.152	-0.178	0.318
-456.011	-2.553	-0.304	-0.215
-454.997	-75.046	0.574	0.208
-453.982	-6.282	-0.115	0.079
-452.968	-46.819	0.140	-0.069
-451.953	800.000	0.097	-0.317
-450.938	800.000	0.058	-0.218
-449.924	-41.859	0.107	0.055
-448.909	134.283	0.147	0.192
-447.895	-200.000	-0.025	-0.212
-446.880	-61.468	-0.361	0.154
-445.865	-38.540	-0.358	-0.191
-444.851	800.000	-0.051	-0.145
-443.836	-200.000	-0.031	0.169
-442.822	-200.000	-0.029	0.199
-441.807	-147.296	-0.236	-0.020
-440.792	0.330	-0.240	-0.173
-439.778	55.730	-0.114	-0.112
-438.763	204.751	0.117	0.184
-437.749	299.815	-0.037	0.069
-436.734	48.160	-0.192	-0.182
-435.719	800.000	0.060	-0.167
-434.705	585.526	-0.186	0.462
-433.690	-59.931	-0.413	-0.179
-432.676	-200.000	0.013	-0.160
-431.661	-48.235	0.282	0.137
-430.646	-127.240	-0.095	0.014
-429.632	-80.262	-0.220	-0.074
-428.617	-18.842	-0.210	-0.132
-427.603	-71.353	0.104	-0.039
-426.588	409.999	-0.099	0.212
-425.573	-85.062	0.261	0.083
-424.559	-95.672	0.156	0.042
-423.544	-200.000	0.002	0.035
-422.530	-20.777	0.067	-0.041
-421.515	800.000	-0.038	0.125
-420.500	-73.267	0.200	-0.074
-419.486	55.504	-0.215	-0.211
-418.471	800.000	-0.053	-0.220
-417.457	374.077	0.031	-0.064
-416.442	-200.000	0.010	-0.052
-415.428	-87.633	-0.320	0.098
-414.413	-109.979	0.124	-0.026
-413.398	-56.308	0.028	-0.012
-412.384	-119.092	-0.062	0.011
-411.369	100.369	-0.117	0.137
-410.355	-200.000	0.029	0.280
-409.340	-148.249	0.276	0.023
-408.325	800.000	-0.038	-0.162
-407.311	-178.097	0.149	0.004
-406.296	800.000	-0.025	-0.089
-405.282	163.694	-0.234	0.333
-404.267	260.899	-0.067	0.117
-403.252	342.549	0.096	-0.190
-402.238	-69.973	-0.184	0.071
-401.223	-86.405	-0.134	0.042
-400.209	3.962	-0.236	-0.174
-399.194	27.009	0.306	0.259
-398.179	287.221	-0.045	0.082
-397.165	83.588	0.097	0.107
-396.150	4.211	-0.105	-0.077
-395.136	504.603	-0.093	-0.217
-394.121	-79.013	-0.162	0.056
-393.106	-200.000	0.058	-0.308
-392.092	33.457	-0.165	0.144
-391.077	6.467	0.174	0.130
-390.063	201.282	-0.099	0.154
-389.048	109.782	-0.094	0.114
-388.033	47.378	-0.275	-0.259
-387.019	-47.180	0.093	0.046
-386.004	-200.000	-0.021	0.222
-384.990	-90.426	-0.182	-0.053
-383.975	800.000	-0.037	0.153
-382.960	86.241	0.092	0.102
-381.946	-43.149	-0.218	0.111
-380.931	-200.000	-0.283	0.000
-379.917	-200.000	-0.024	-0.469
-378.902	-193.104	-0.098	-0.001
-377.888	-130.952	-0.328	0.044
-376.873	-200.000	-0.024	-0.112
-375.858	-82.279	-0.086	-0.028
-374.844	-200.000	-0.024	-0.245
-373.829	-129.401	0.350	-0.049
-372.815	583.775	0.085	-0.211
-371.800	-186.083	-0.433	-0.006
-370.785	-104.240	-0.275	-0.065
-369.771	-200.000	0.013	0.082
-368.756	-200.000	0.051	0.254
-367.742	-144.759	-0.058	-0.005
-366.727	264.846	-0.022	-0.039
-365.712	416.265	-0.138	-0.296
-364.698	-105.315	-0.218	0.050
-363.683	103.088	0.132	0.156
-362.669	14.692	0.136	-0.107
-361.654	-22.202	-0.305	-0.186
-360.639	-200.000	0.057	-0.259
-359.625	-113.515	0.419	0.083
-358.610	292.944	-0.139	-0.256
-357.596	-50.923	0.226	0.107
-356.581	-48.478	-0.293	0.142
-355.566	109.681	-0.181	-0.219
-354.552	64.483	-0.221	-0.224
-353.537	29.872	0.144	0.124
-352.523	800.000	-0.033	-0.145
-351.508	204.831	-0.086	0.135
-350.493	-200.000	-0.001	0.160
-349.479	2.274	0.051	0.037
-348.464	-114.338	-0.121	0.023
-347.450	-200.000	-0.046	-0.419
-346.435	-37.263	0.380	0.205
-345.420	800.000	0.048	-0.137
-344.406	800.000	-0.052	0.150
-343.391	-1.429	-0.197	0.140
-342.377	52.801	0.061	-0.059
-341.362	-140.642	0.304	0.032
-340.348	576.211	-0.086	-0.212
-339.333	-186.033	-0.387	0.006
-338.318	-79.605	0.128	0.043
-337.304	1.038	0.225	-0.163
-336.289	-65.994	-0.306	0.123
-335.275	800.000	-0.069	-0.256
-334.260	-200.000	0.015	-0.344
-333.245	-102.026	0.419	0.102
-332.231	411.894	-0.104	-0.223
-331.216	15.252	-0.194	0.154
-330.202	-76.198	-0.252	-0.089
-329.187	-138.831	-0.107	-0.012
-328.172	51.888	0.310	-0.297
-327.158	-9.253	0.143	0.096
-326.143	327.502	-0.163	0.315
-325.129	-200.000	-0.021	0.301
-324.114	358.258	0.015	-0.030
-323.099	-200.000	-0.046	0.379
-322.085	800.000	0.055	-0.161
-321.070	-200.000	0.044	-0.217
-320.056	95.021	-0.124	0.142
-319.041	800.000	-0.107	0.298
-318.026	800.000	-0.133	-0.511
-317.012	197.385	0.187	0.287
-315.997	712.146	0.033	-0.087
-314.983	-87.058	-0.065	-0.020
-313.968	775.917	0.073	0.201
-312.953	-65.943	-0.393	0.158
-311.939	151.209	-0.065	0.089
-310.924	-141.833	0.262	0.026
-309.910	-86.700	-0.200	-0.062
-308.895	-200.000	0.018	0.084
-307.880	-85.003	0.346	0.109
-306.866	44.892	0.301	-0.279
-305.851	-64.172	-0.127	0.052
-304.837	-25.416	0.064	-0.038
-303.822	72.035	0.057	0.060
-302.807	508.939	-0.173	-0.405
-301.793	-84.634	0.213	-0.067
-300.778	-89.997	0.075	0.022
-299.764	-200.000	0.086	-0.453
-298.749	128.053	-0.106	0.135
-297.735	-145.603	-0.334	0.030
-296.720	282.721	-0.093	0.169
-295.705	136.739	-0.120	0.158
-294.691	58.152	0.113	0.112
-293.676	-200.000	0.021	-0.157
-292.662	-101.572	-0.035	0.009
-291.647	-63.463	0.255	0.105
-290.632	800.000	0.036	0.105
-289.618	-200.000	0.010	0.209
-288.603	-17.172	0.094	-0.060
-287.589	-122.252	-0.042	0.007
-286.574	-48.797	-0.359	-0.173
-285.559	-89.157	0.526	0.156
-284.545	800.000	-0.082	0.236
-283.530	305.254	0.150	-0.279
-282.516	-144.039	0.430	0.041
-281.501	-200.000	0.020	-0.343
-280.486	404.642	-0.059	0.125
-279.472	49.675	0.162	0.154
-278.457	581.005	0.082	-0.203
-277.443	-200.000	-0.061	-0.487
-276.428	-134.282	-0.095	-0.012
-275.413	60.135	-0.118	0.117
-274.399	89.451	-0.271	-0.304
-273.384	167.006	0.159	0.226
-272.370	-128.088	-0.252	0.036
-271.355	203.714	-0.090	-0.141
-270.340	-200.000	-0.039	0.223
-269.326	800.000	-0.041	-0.154
-268.311	-69.303	0.194	0.075
-267.297	-200.000	0.038	0.194
-266.282	800.000	-0.065	-0.192
-265.267	-200.000	-0.019	-0.152
-264.253	-200.000	-0.029	-0.130
-263.238	40.613	-0.169	-0.153
-262.224	135.516	-0.251	-0.328
-261.209	-65.653	0.303	-0.122
-260.195	414.860	-0.069	-0.147
-259.180	114.935	-0.190	0.233
-258.165	-164.766	0.385	-0.017
-257.151	84.757	-0.148	0.163
-256.136	693.647	0.081	-0.212
-255.122	235.854	0.086	0.143
-254.107	52.157	0.288	0.276
-253.092	-78.143	0.249	-0.086
-252.078	-110.085	0.211	0.044
-251.063	-75.366	-0.107	0.038
-250.049	514.901	-0.104	0.244
-249.034	95.061	0.279	0.319
-248.019	-152.389	-0.056	-0.004
-247.005	294.209	0.100	0.184
-245.990	-107.376	-0.238	-0.052
-244.976	-61.498	0.306	0.129
-243.961	72.721	0.012	0.013
-242.946	176.986	0.134	-0.195
-241.932	-80.484	0.224	0.075
-240.917	-121.049	-0.121	-0.020
-239.903	82.247	-0.154	-0.168
-238.888	-200.000	-0.017	-0.199
-237.873	89.059	0.105	-0.118
-236.859	-135.321	0.398	0.048
-235.844	-150.856	0.363	-0.028
-234.830	-44.751	0.097	-0.048
-233.815	263.242	0.074	0.129
-232.800	106.231	-0.264	0.314
-231.786	17.605	0.114	0.091
-230.771	-96.298	0.117	-0.031
-229.757	736.704	-0.050	0.135
-228.742	-200.000	-0.014	-0.207
-227.727	466.487	-0.118	0.266
-226.713	-200.000	-0.016	0.223
-225.698	45.021	0.199	0.184
-224.684	150.065	0.073	0.099
-223.669	-133.129	0.131	-0.017
-222.655	-87.974	0.268	0.081
-221.640	-121.835	0.067	-0.011
-220.625	-50.393	-0.392	-0.186
-219.611	-48.052	-0.120	0.058
-218.596	-197.071	0.116	0.001
-217.582	538.248	-0.124	-0.296
-216.567	730.721	0.035	0.094
-215.552	-40.271	-0.079	-0.041
-214.538	206.909	0.071	0.111
-213.523	-39.673	0.117	-0.061
-212.509	225.930	-0.067	-0.108
-211.494	-57.984	0.243	0.106
-210.479	12.371	-0.086	-0.067
-209.465	-39.596	0.149	0.078
-208.450	800.000	-0.022	0.080
-207.436	-45.331	-0.371	-0.184
-206.421	14.189	-0.051	-0.040
-205.406	372.247	0.092	0.187
-204.392	-34.458	-0.089	-0.049
-203.377	270.818	0.112	-0.197
-202.363	-101.263	0.285	0.070
-201.348	123.790	0.099	-0.124
-200.333	-200.000	0.068	0.371
-199.319	-200.000	-0.012	-0.282
-198.304	-45.767	0.217	-0.107
-197.290	-173.977	0.230	0.007
-196.275	-96.934	0.145	-0.038
-195.260	145.296	0.055	-0.074
-194.246	169.472	-0.046	-0.066
-193.231	450.059	-0.034	0.075
-192.217	58.013	-0.032	-0.032
-191.202	-178.582	-0.204	0.005
-190.187	-62.871	0.174	0.072
-189.173	-36.064	0.233	0.126
-188.158	-129.175	0.092	-0.013
-187.144	87.108	-0.092	0.102
-186.129	-63.449	-0.217	0.089
-185.114	-73.538	-0.144	0.052
-184.100	161.766	-0.073	-0.102
-183.085	-126.636	-0.230	0.034
-182.071	197.346	-0.170	0.259
-181.056	39.253	0.159	0.142
-180.042	226.128	-0.030	0.049
-179.027	-200.000	0.016	-0.107
-178.012	158.450	-0.132	0.183
-176.998	-200.000	0.353	0.001
-175.983	53.254	0.113	-0.108
-174.969	128.490	0.258	0.329
-173.954	194.029	0.190	0.288
-172.939	-127.361	-0.467	0.068
-171.925	-200.000	-0.014	-0.071
-170.910	800.000	0.047	0.159
-169.896	-31.270	0.094	-0.053
-168.881	89.405	-0.021	0.024
-167.866	800.000	0.105	-0.346
-166.852	800.000	0.068	-0.192
-165.837	296.527	-0.083	0.152
-164.823	800.000	0.061	-0.228
-163.808	45.016	-0.135	-0.124
-162.793	375.486	0.100	0.205
-161.779	-63.665	0.071	-0.029
-160.764	4.860	-0.200	-0.147
-159.750	-200.000	0.039	0.200
-158.735	6.094	0.286	0.212
-157.720	800.000	0.079	0.290
-156.706	-43.453	0.093	-0.047
-155.691	-46.669	-0.105	0.051
-154.677	247.307	0.067	-0.114
-153.662	54.961	0.100	-0.097
-152.647	800.000	-0.053	-0.161
-151.633	-122.409	-0.179	0.029
-150.618	-72.552	0.321	-0.119
-149.604	-200.000	-0.028	0.350
-148.589	-200.000	-0.001	-0.004
-147.574	547.557	-0.114	0.273
-146.560	-200.000	-0.029	0.185
-145.545	-112.498	0.212	0.042
-144.531	-32.906	-0.166	0.092
-143.516	-39.810	-0.326	-0.171
-142.502	88.605	-0.283	0.314
-141.487	227.668	-0.103	-0.167
-140.472	106.296	0.234	0.278
-139.458	-200.000	0.017	0.122
-138.443	-191.243	-0.033	-0.000
-137.429	20.372	-0.272	-0.220
-136.414	-47.366	-0.075	-0.037
-135.399	-149.431	0.406	-0.032
-134.385	-148.848	-0.241	-0.019
-133.370	392.414	-0.028	0.059
-132.356	-125.904	-0.232	0.035
-131.341	-145.524	-0.332	0.030
-130.326	-200.000	-0.030	0.183
-129.312	66.704	0.044	-0.045
-128.297	-137.771	0.078	-0.009
-127.283	-186.287	0.472	0.007
-126.268	-109.572	0.166	-0.035
-125.253	-53.887	0.146	0.067
-124.239	-93.919	-0.088	-0.024
-123.224	9.151	0.106	-0.080
-122.210	-7.167	-0.136	-0.092
-121.195	-1.938	0.227	0.159
