DTS Sentinel unit serial number:	SN413079Multiplexer serial number:	ORYXHardware model number:	OX4-SRSoftware version number:	ORYX F/W v4.00 Oryx Data Collector v3.7.2.0data status	okinstallation	princeton_trtdifferential loss correction	single-endedforward channel	channel 4reverse channel	N/Adate	2019/09/14time	17:25:35forward acquisition time	60.00reverse acquisition time	0.00gamma	496.2192k internal	0.2294k external	0.2294temperature offset calibration	1.0119default loss term (dB/km)	0.3790temperature slope calibration	1.0000multiplexer offset coefficient	1.0000multiplexer slope coefficient	1.0000fibre end	0.00T internal ref (°C)	37.75T ext. ref 1 (°C)	5.05T ext. ref 2 (°C)	32.38length (m)	temperature (°C)	Stokes	anti-Stokes-747.200	415.180	0.084	-0.184
-746.185	-200.000	-0.009	-0.053
-745.171	-200.000	0.021	0.209
-744.156	-141.270	-0.145	0.015
-743.142	-6.058	-0.038	-0.027
-742.127	-200.000	0.006	0.655
-741.112	-175.981	0.200	0.005
-740.098	-48.831	-0.325	-0.160
-739.083	140.594	-0.047	-0.064
-738.069	417.004	0.158	0.345
-737.054	503.995	-0.088	0.208
-736.039	-71.957	-0.132	0.050
-735.025	-141.428	0.209	-0.022
-734.010	-96.688	0.305	-0.082
-732.996	-5.829	-0.346	-0.242
-731.981	-92.366	-0.129	-0.037
-730.966	151.082	-0.131	0.182
-729.952	-43.678	-0.160	0.082
-728.937	172.808	0.165	0.243
-727.923	195.088	-0.223	0.346
-726.908	432.612	0.152	0.337
-725.894	-110.445	0.291	-0.062
-724.879	68.571	-0.121	-0.127
-723.864	194.555	0.166	-0.257
-722.850	15.473	0.070	-0.056
-721.835	-36.432	-0.411	-0.226
-720.821	342.828	-0.174	-0.347
-719.806	148.801	-0.173	-0.239
-718.791	800.000	-0.073	-0.209
-717.777	-109.971	-0.104	-0.022
-716.762	-114.224	0.397	0.078
-715.748	126.611	0.198	-0.256
-714.733	5.530	0.246	0.185
-713.718	-6.963	0.285	0.198
-712.704	95.809	-0.122	-0.142
-711.689	-30.381	0.142	0.082
-710.675	-12.027	0.040	0.027
-709.660	-23.011	-0.335	0.206
-708.645	232.722	-0.143	0.239
-707.631	428.365	0.112	-0.247
-706.616	-200.000	-0.019	-0.128
-705.602	111.200	-0.048	0.059
-704.587	63.613	0.181	0.186
-703.572	-82.762	0.087	0.029
-702.558	-108.822	-0.188	0.041
-701.543	414.682	0.060	0.131
-700.529	-75.241	0.222	-0.081
-699.514	337.772	-0.067	-0.133
-698.499	111.954	-0.244	-0.301
-697.485	82.101	-0.087	0.096
-696.470	-126.478	0.329	0.050
-695.456	713.927	-0.118	-0.319
-694.441	52.507	0.263	0.256
-693.426	447.756	0.133	0.299
-692.412	36.432	0.446	0.402
-691.397	-27.022	-0.082	-0.049
-690.383	7.758	-0.180	-0.137
-689.368	-46.807	-0.194	-0.097
-688.354	79.121	0.230	0.252
-687.339	57.159	-0.209	0.208
-686.324	19.762	0.084	0.069
-685.310	-200.000	0.074	-0.349
-684.295	-67.465	-0.160	-0.064
-683.281	159.867	0.079	-0.112
-682.266	-17.581	0.191	-0.123
-681.251	-200.000	0.001	-0.139
-680.237	-200.000	0.009	0.072
-679.222	-200.000	0.034	0.163
-678.208	-30.969	-0.236	-0.136
-677.193	28.313	-0.394	0.340
-676.178	125.279	-0.066	-0.085
-675.164	-200.000	0.023	-0.117
-674.149	-177.559	0.254	0.006
-673.135	-54.995	-0.279	0.128
-672.120	55.618	0.190	-0.188
-671.105	-9.744	-0.053	-0.036
-670.091	-26.553	-0.213	0.127
-669.076	-101.331	-0.180	-0.045
-668.062	699.519	-0.020	-0.053
-667.047	-29.685	0.153	-0.089
-666.032	800.000	-0.058	0.230
-665.018	-200.000	0.026	0.262
-664.003	-129.554	-0.066	-0.009
-662.989	73.777	-0.083	0.089
-661.974	75.086	0.119	0.128
-660.959	60.089	0.387	-0.390
-659.945	800.000	-0.047	-0.149
-658.930	-81.896	0.192	-0.064
-657.916	219.223	0.172	-0.280
-656.901	265.747	0.090	0.160
-655.886	-171.500	0.401	0.014
-654.872	-134.495	-0.183	-0.023
-653.857	18.197	-0.276	-0.224
-652.843	800.000	0.031	-0.111
-651.828	-82.587	0.213	-0.070
-650.814	124.489	-0.045	0.058
-649.799	192.267	-0.143	0.219
-648.784	-163.068	0.095	-0.005
-647.770	-50.186	-0.126	-0.061
-646.755	800.000	-0.047	-0.189
-645.741	47.030	0.364	-0.345
-644.726	-52.076	-0.151	-0.071
-643.711	-200.000	0.047	-0.252
-642.697	-200.000	0.022	0.170
-641.682	-58.859	0.326	0.144
-640.668	-135.040	0.348	0.043
-639.653	-57.740	-0.085	-0.038
-638.638	275.620	0.134	0.243
-637.624	-200.000	0.016	-0.159
-636.609	758.415	0.039	0.107
-635.595	-153.572	0.302	-0.021
-634.580	116.625	-0.256	-0.320
-633.565	54.544	-0.212	-0.208
-632.551	-200.000	-0.052	0.411
-631.536	73.724	-0.129	-0.138
-630.522	7.265	-0.273	-0.208
-629.507	769.725	-0.085	0.236
-628.492	50.558	0.242	-0.233
-627.478	9.337	-0.349	-0.269
-626.463	107.763	-0.109	0.132
-625.449	450.447	0.044	-0.099
-624.434	-94.704	0.019	-0.005
-623.419	80.066	-0.219	-0.239
-622.405	290.508	-0.107	0.197
-621.390	-126.455	-0.268	-0.041
-620.376	440.372	-0.161	0.357
-619.361	800.000	-0.072	0.323
-618.346	-200.000	0.002	0.270
-617.332	800.000	0.105	-0.305
-616.317	22.296	-0.044	0.036
-615.303	-170.783	0.138	0.005
-614.288	440.359	-0.116	0.258
-613.273	-80.704	0.258	0.087
-612.259	498.771	0.088	0.207
-611.244	-45.292	-0.021	0.010
-610.230	484.334	-0.101	0.233
-609.215	800.000	0.060	-0.171
-608.201	284.864	0.045	-0.083
-607.186	378.683	0.122	-0.254
-606.171	-16.334	-0.150	-0.097
-605.157	106.054	0.180	-0.217
-604.142	175.978	0.121	-0.178
-603.128	-164.811	0.290	-0.013
-602.113	-200.000	0.005	0.225
-601.098	213.861	0.060	0.096
-600.084	-200.000	-0.014	-0.382
-599.069	603.333	0.111	0.282
-598.055	492.813	-0.058	-0.134
-597.040	-200.000	-0.024	0.204
-596.025	-74.605	0.258	0.094
-595.011	5.370	0.283	-0.212
-593.996	599.764	-0.047	-0.120
-592.982	110.833	-0.251	-0.307
-591.967	95.324	-0.226	-0.262
-590.952	72.496	-0.123	0.130
-589.938	-105.561	0.233	0.054
-588.923	800.000	0.070	-0.236
-587.909	-200.000	-0.035	0.171
-586.894	-200.000	0.021	0.251
-585.879	-108.459	0.213	0.047
-584.865	-26.087	0.142	0.085
-583.850	275.846	0.177	-0.320
-582.836	101.157	0.092	0.109
-581.821	171.110	-0.082	-0.119
-580.806	-200.000	0.024	-0.115
-579.792	-130.339	0.054	0.007
-578.777	800.000	0.054	-0.187
-577.763	-200.000	0.003	-0.168
-576.748	-200.000	-0.013	-0.063
-575.733	477.050	-0.125	-0.287
-574.719	237.408	-0.088	-0.148
-573.704	116.462	0.250	-0.311
-572.690	412.390	-0.103	0.222
-571.675	-200.000	-0.061	0.396
-570.661	0.547	-0.086	0.062
-569.646	-40.978	-0.162	0.085
-568.631	800.000	-0.038	0.124
-567.617	112.138	0.136	-0.167
-566.602	-85.744	-0.127	0.040
-565.588	-200.000	-0.002	-0.158
-564.573	-39.179	-0.352	-0.188
-563.558	800.000	-0.025	-0.078
-562.544	-181.553	0.273	-0.005
-561.529	-200.000	0.040	-0.266
-560.515	-200.000	-0.047	-0.298
-559.500	-200.000	-0.015	-0.072
-558.485	-200.000	-0.019	0.322
-557.471	-200.000	-0.026	0.334
-556.456	-95.232	0.116	-0.032
-555.442	15.890	0.105	0.084
-554.427	-200.000	0.073	0.499
-553.412	-200.000	0.007	0.054
-552.398	181.006	0.092	0.138
-551.383	800.000	0.041	-0.176
-550.369	131.989	-0.107	0.139
-549.354	-122.486	-0.214	-0.035
-548.339	-153.564	-0.250	-0.018
-547.325	-46.199	0.105	-0.052
-546.310	39.067	-0.363	0.330
-545.296	-112.213	0.165	0.034
-544.281	510.864	-0.158	-0.373
-543.266	89.386	-0.236	-0.267
-542.252	-200.000	0.032	0.203
-541.237	39.692	-0.344	0.313
-540.223	800.000	0.106	0.434
-539.208	800.000	0.062	0.255
-538.193	17.674	0.296	0.239
-537.179	-36.337	0.116	0.063
-536.164	-200.000	-0.055	-0.526
-535.150	212.670	-0.185	-0.295
-534.135	-30.507	-0.210	0.121
-533.121	776.041	0.051	0.141
-532.106	-200.000	0.037	0.301
-531.091	138.211	-0.087	0.116
-530.077	-10.498	-0.146	0.098
-529.062	-121.452	0.401	0.068
-528.048	-8.170	-0.116	0.079
-527.033	-152.852	-0.150	-0.011
-526.018	-158.477	-0.126	0.007
-525.004	-200.000	0.022	0.266
-523.989	-200.000	-0.003	0.042
-522.975	12.626	-0.329	0.257
-521.960	13.005	0.171	-0.134
-520.945	-22.656	0.375	0.230
-519.931	-200.000	0.023	-0.152
-518.916	366.006	0.060	-0.123
-517.902	593.734	-0.156	-0.391
-516.887	10.324	-0.315	-0.243
-515.872	6.463	-0.157	-0.118
-514.858	-35.870	-0.137	0.075
-513.843	-200.000	-0.011	0.316
-512.829	184.433	0.180	0.271
-511.814	-0.371	-0.154	0.111
-510.799	24.252	-0.201	0.168
-509.785	-110.182	0.074	0.016
-508.770	-66.837	0.279	0.112
-507.756	-29.191	-0.147	-0.085
-506.741	800.000	-0.054	-0.173
-505.726	-46.824	-0.375	-0.186
-504.712	-165.812	0.325	-0.014
-503.697	665.853	-0.053	-0.139
-502.683	-121.128	-0.165	-0.028
-501.668	-46.930	0.188	0.093
-500.653	-129.679	-0.292	0.041
-499.639	-200.000	0.007	-0.144
-498.624	497.272	0.124	-0.288
-497.610	800.000	-0.094	-0.373
-496.595	150.129	-0.090	-0.124
-495.581	-65.940	-0.074	-0.030
-494.566	-58.907	-0.419	-0.183
-493.551	-29.582	0.368	-0.213
-492.537	-200.000	-0.058	-0.330
-491.522	7.895	-0.167	0.127
-490.508	-200.000	0.067	0.323
-489.493	800.000	0.091	0.262
-488.478	204.558	-0.051	0.079
-487.464	-0.711	0.226	-0.162
-486.449	78.719	-0.293	0.317
-485.435	64.029	0.157	-0.160
-484.420	333.753	-0.045	-0.087
-483.405	-129.017	-0.117	-0.017
-482.391	509.073	0.064	-0.151
-481.376	26.690	0.292	0.247
-480.362	38.392	0.129	0.116
-479.347	-22.652	0.153	-0.094
-478.332	-192.692	-0.120	-0.001
-477.318	-115.148	0.317	0.061
-476.303	800.000	-0.119	-0.337
-475.289	24.791	-0.126	-0.106
-474.274	-19.536	0.201	0.126
-473.259	-54.991	-0.151	0.069
-472.245	-32.026	0.067	0.038
-471.230	250.661	-0.120	0.206
-470.216	3.908	0.117	-0.087
-469.201	653.921	0.106	-0.275
-468.186	214.396	0.104	0.167
-467.172	456.071	0.102	-0.229
-466.157	50.086	-0.208	-0.199
-465.143	-99.183	0.059	-0.015
-464.128	-73.204	-0.312	-0.116
-463.113	-10.996	-0.215	0.144
-462.099	188.772	-0.042	0.064
-461.084	-200.000	-0.026	0.241
-460.070	-200.000	-0.003	0.228
-459.055	1.634	-0.086	-0.063
-458.040	-5.883	0.186	0.128
-457.026	-200.000	-0.037	0.216
-456.011	199.354	-0.100	-0.156
-454.997	800.000	0.075	0.302
-453.982	205.657	0.067	-0.105
-452.968	-126.976	0.107	-0.016
-451.953	800.000	-0.051	-0.210
-450.938	-5.381	-0.275	-0.191
-449.924	48.687	0.163	-0.155
-448.909	-198.165	-0.117	0.001
-447.895	258.576	0.100	0.173
-446.880	-95.032	0.297	0.081
-445.865	672.530	0.055	0.144
-444.851	-0.613	0.147	-0.105
-443.836	800.000	-0.039	0.159
-442.822	-43.917	0.101	0.051
-441.807	4.742	0.030	0.022
-440.792	487.536	0.102	0.236
-439.778	-117.890	-0.113	-0.020
-438.763	87.547	0.093	0.104
-437.749	100.904	0.083	-0.097
-436.734	523.763	-0.018	0.043
-435.719	-153.175	0.137	0.010
-434.705	-200.000	-0.020	-0.363
-433.690	145.956	-0.176	-0.238
-432.676	89.392	-0.013	-0.015
-431.661	419.530	-0.075	0.163
-430.646	40.126	-0.054	-0.049
-429.632	250.571	-0.066	0.113
-428.617	800.000	0.066	-0.193
-427.603	-70.968	0.083	-0.032
-426.588	425.186	0.093	0.202
-425.573	174.385	0.098	-0.143
-424.559	311.179	-0.139	-0.263
-423.544	-200.000	0.041	0.367
-422.530	-64.756	0.185	0.076
-421.515	105.755	-0.071	-0.085
-420.500	542.347	-0.159	-0.383
-419.486	126.598	-0.151	-0.194
-418.471	91.328	0.040	-0.046
-417.457	-135.366	-0.222	0.027
-416.442	-200.000	-0.027	0.120
-415.428	44.781	-0.107	0.100
-414.413	-16.220	0.277	0.178
-413.398	-59.792	0.146	-0.063
-412.384	-200.000	0.022	0.281
-411.369	-99.709	0.235	-0.060
-410.355	-13.120	-0.176	-0.116
-409.340	-184.156	0.129	-0.002
-408.325	-6.123	0.056	-0.038
-407.311	209.066	-0.127	-0.201
-406.296	-75.291	-0.245	-0.088
-405.282	-200.000	0.000	0.240
-404.267	64.175	0.079	-0.080
-403.252	800.000	0.064	0.186
-402.238	-200.000	-0.011	0.262
-401.223	-4.667	0.049	0.034
-400.209	-133.460	0.365	-0.046
-399.194	95.250	-0.129	0.149
-398.179	-200.000	-0.032	0.339
-397.165	-57.797	-0.403	-0.178
-396.150	800.000	0.065	0.199
-395.136	-51.963	-0.215	0.101
-394.121	19.214	0.167	-0.135
-393.106	25.230	-0.320	-0.268
-392.092	-84.232	0.209	0.067
-391.077	-181.680	-0.285	0.006
-390.063	49.252	-0.044	0.041
-389.048	-131.674	-0.103	0.014
-388.033	-98.693	-0.154	-0.040
-387.019	82.550	-0.105	-0.115
-386.004	-33.588	-0.111	0.062
-384.990	-200.000	0.012	-0.399
-383.975	175.636	-0.087	-0.127
-382.960	-118.144	0.170	0.031
-381.946	172.907	-0.066	0.096
-380.931	61.367	0.242	-0.243
-379.917	15.673	0.284	-0.225
-378.902	-28.177	-0.288	0.168
-377.888	58.171	0.114	0.113
-376.873	-170.799	0.122	-0.004
-375.858	478.003	-0.062	0.140
-374.844	45.180	0.147	0.137
-373.829	168.440	0.223	0.320
-372.815	149.722	0.106	-0.145
-371.800	-99.093	0.307	-0.078
-370.785	-64.025	0.174	0.072
-369.771	-178.385	0.229	-0.005
-368.756	5.236	-0.079	0.058
-367.742	-69.525	-0.164	-0.063
-366.727	800.000	-0.074	0.233
-365.712	104.580	0.214	0.254
-364.698	54.064	0.270	0.261
-363.683	7.389	-0.063	0.048
-362.669	-200.000	-0.002	-0.236
-361.654	209.076	0.149	0.234
-360.639	-200.000	-0.012	0.114
-359.625	800.000	0.121	-0.366
-358.610	70.194	0.168	0.174
-357.596	-59.091	-0.143	-0.062
-356.581	443.560	-0.037	0.082
-355.566	68.220	-0.176	-0.181
-354.552	370.963	-0.134	-0.274
-353.537	-56.224	0.166	-0.074
-352.523	-43.285	0.211	-0.108
-351.508	126.576	-0.265	-0.338
-350.493	-60.575	-0.328	-0.140
-349.479	-61.445	-0.321	0.136
-348.464	-12.566	0.125	-0.082
-347.450	-12.798	-0.138	-0.091
-346.435	-126.467	0.176	0.026
-345.420	-24.815	-0.208	-0.125
-344.406	120.695	0.013	-0.017
-343.391	351.196	-0.109	-0.218
-342.377	800.000	0.041	0.172
-341.362	-200.000	-0.009	0.315
-340.348	81.389	-0.093	-0.102
-339.333	-200.000	-0.043	0.230
-338.318	800.000	0.079	0.294
-337.304	-60.516	0.256	-0.109
-336.289	-129.906	-0.214	0.030
-335.275	-42.517	0.240	-0.123
-334.260	-139.216	0.262	0.028
-333.245	800.000	0.044	0.169
-332.231	124.978	-0.176	0.223
-331.216	-200.000	-0.024	-0.168
-330.202	223.347	0.123	0.200
-329.187	650.058	0.048	-0.125
-328.172	86.946	-0.222	-0.246
-327.158	-95.604	0.039	0.011
-326.143	30.602	-0.376	-0.323
-325.129	800.000	-0.060	-0.188
-324.114	-15.017	0.133	-0.086
-323.099	-91.193	-0.472	-0.136
-322.085	10.613	0.211	0.162
-321.070	-200.000	0.005	-0.036
-320.056	335.527	-0.118	-0.230
-319.041	800.000	0.058	-0.221
-318.026	220.946	0.121	0.195
-317.012	-200.000	-0.008	0.287
-315.997	45.942	0.107	-0.100
-314.983	-69.886	-0.257	-0.098
-313.968	82.106	-0.174	0.189
-312.953	-43.621	-0.264	0.134
-311.939	800.000	0.098	0.282
-310.924	-67.444	0.197	0.078
-309.910	-161.997	0.323	0.016
-308.895	93.235	-0.166	0.189
-307.880	-78.535	0.165	-0.057
-306.866	-89.938	-0.243	0.071
-305.851	-118.503	-0.292	0.052
-304.837	-54.500	0.043	0.019
-303.822	-200.000	0.060	-0.429
-302.807	18.602	-0.204	-0.164
-301.793	800.000	-0.085	0.346
-300.778	-200.000	-0.001	0.207
-299.764	-125.496	0.102	0.016
-298.749	470.500	0.076	0.172
-297.735	-67.610	-0.424	-0.167
-296.720	-134.366	0.387	0.048
-295.705	-12.992	-0.150	-0.098
-294.691	-76.980	0.248	0.087
-293.676	-120.994	0.131	-0.022
-292.662	287.351	-0.020	0.036
-291.647	81.155	0.146	-0.158
-290.632	414.442	-0.015	0.031
-289.618	-107.568	-0.236	0.052
-288.603	68.931	-0.281	-0.290
-287.589	800.000	0.036	0.127
-286.574	144.663	-0.074	0.100
-285.559	-200.000	-0.016	-0.158
-284.545	-110.202	0.162	-0.034
-283.530	-36.035	-0.320	0.174
-282.516	100.961	-0.127	-0.149
-281.501	-78.336	0.081	0.028
-280.486	-200.000	-0.017	0.238
-279.472	-88.423	-0.123	0.037
-278.457	-137.413	-0.355	-0.040
-277.443	530.470	0.145	-0.345
-276.428	27.333	-0.060	0.051
-275.413	-2.514	0.352	-0.248
-274.399	-7.472	0.034	0.023
-273.384	141.860	-0.106	-0.140
-272.370	-200.000	0.000	0.313
-271.355	-200.000	-0.067	0.324
-270.340	800.000	0.077	0.243
-269.326	-200.000	0.088	-0.441
-268.311	-46.705	-0.249	-0.122
-267.297	277.171	-0.068	0.121
-266.282	86.685	-0.112	-0.124
-265.267	-55.175	-0.270	0.122
-264.253	-108.088	-0.215	0.047
-263.238	1.200	-0.035	-0.025
-262.224	76.810	-0.192	-0.205
-261.209	-41.383	0.358	0.185
-260.195	707.393	-0.033	0.087
-259.180	384.594	-0.143	0.296
-258.165	-148.651	-0.170	0.014
-257.151	-36.908	0.294	-0.158
-256.136	-142.534	0.235	-0.023
-255.122	213.682	0.138	-0.218
-254.107	84.195	-0.133	0.146
-253.092	6.672	0.163	-0.121
-252.078	-48.311	0.297	0.144
-251.063	800.000	0.045	-0.128
-250.049	212.975	0.110	0.174
-249.034	141.210	0.080	0.106
-248.019	-200.000	-0.031	-0.366
-247.005	-52.324	-0.305	-0.142
-245.990	-170.306	-0.142	0.005
-244.976	-112.581	-0.303	-0.061
-243.961	-200.000	-0.002	-0.324
-242.946	-149.883	-0.299	0.023
-241.932	243.708	0.146	0.246
-240.917	-200.000	0.013	-0.072
-239.903	557.985	-0.119	-0.287
-238.888	-200.000	-0.034	0.194
-237.873	50.508	0.121	0.115
-236.859	-145.449	0.035	0.003
-235.844	-53.329	0.280	0.129
-234.830	-200.000	0.044	0.317
-233.815	-0.421	0.132	-0.094
-232.800	-172.900	-0.117	0.004
-231.786	-103.880	0.073	0.017
-230.771	488.709	0.162	-0.370
-229.757	244.457	-0.195	-0.328
-228.742	-71.606	0.370	0.139
-227.727	59.082	0.110	0.109
-226.713	172.103	0.100	0.144
-225.698	506.055	-0.021	0.050
-224.684	206.913	0.188	-0.293
-223.669	-68.154	-0.327	0.128
-222.655	-200.000	-0.037	-0.221
-221.640	-167.695	0.346	0.014
-220.625	487.123	0.034	-0.078
-219.611	468.327	0.020	-0.046
-218.596	10.293	-0.068	0.052
-217.582	423.703	0.084	0.180
-216.567	213.184	0.215	-0.340
-215.552	57.846	0.145	0.142
-214.538	13.623	0.168	-0.131
-213.523	-21.655	-0.163	-0.099
-212.509	458.944	-0.146	0.325
-211.494	-200.000	0.028	0.160
-210.479	20.048	-0.220	-0.178
-209.465	800.000	-0.056	0.214
-208.450	-200.000	0.015	0.239
-207.436	-91.133	-0.378	-0.109
-206.421	800.000	0.033	-0.119
-205.406	287.438	0.106	-0.192
-204.392	17.897	0.208	0.165
-203.377	-200.000	0.045	0.234
-202.363	-52.384	0.214	-0.099
-201.348	309.224	-0.070	-0.130
-200.333	168.848	0.154	-0.220
-199.319	493.941	-0.088	-0.202
-198.304	-63.468	0.145	-0.060
-197.290	-75.521	0.258	0.092
-196.275	-88.704	-0.104	-0.031
-195.260	221.484	0.095	-0.153
-194.246	-49.520	0.061	0.029
-193.231	-73.022	0.358	-0.132
-192.217	-10.300	0.022	-0.015
-191.202	750.798	-0.115	-0.310
-190.187	519.936	-0.021	-0.050
-189.173	-57.375	-0.286	-0.126
-188.158	458.417	-0.094	0.210
-187.144	7.404	-0.321	-0.240
-186.129	491.010	0.117	0.267
-185.114	22.604	0.024	0.020
-184.100	-28.191	-0.161	-0.093
-183.085	-30.372	-0.225	0.128
-182.071	-9.564	0.079	-0.053
-181.056	800.000	0.076	0.283
-180.042	-66.087	0.309	-0.123
-179.027	-200.000	-0.044	0.206
-178.012	-76.066	0.068	-0.024
-176.998	169.565	-0.035	0.050
-175.983	10.410	0.228	0.173
-174.969	59.941	-0.199	0.196
-173.954	-200.000	0.016	-0.136
-172.939	80.682	0.300	0.323
-171.925	800.000	0.097	-0.280
-170.910	-150.629	0.176	0.013
-169.896	-100.693	0.088	0.022
-168.881	0.802	0.183	-0.131
-167.866	-119.265	-0.107	0.019
-166.852	48.771	0.107	-0.100
-165.837	482.073	0.161	0.366
-164.823	-169.925	0.280	0.010
-163.808	-98.807	-0.224	-0.057
-162.793	-115.412	0.179	0.034
-161.779	-200.000	0.026	0.480
-160.764	417.260	0.091	0.194
-159.750	445.698	-0.096	-0.212
-158.735	130.098	-0.025	-0.031
-157.720	-146.938	0.308	0.026
-156.706	-200.000	0.054	0.332
-155.691	-200.000	-0.002	0.163
-154.677	19.922	-0.031	0.025
-153.662	157.410	-0.089	0.123
-152.647	161.871	-0.348	-0.486
-151.633	-200.000	0.010	0.146
-150.618	-37.218	0.264	0.141
-149.604	-56.992	0.109	-0.048
-148.589	-59.309	-0.230	-0.099
-147.574	-200.000	-0.056	-0.332
-146.560	-17.732	0.246	-0.154
-145.545	2.897	-0.212	0.154
-144.531	800.000	0.092	-0.369
-143.516	-112.184	0.217	0.043
-142.502	10.471	-0.258	-0.196
-141.487	800.000	-0.051	-0.158
-140.472	298.748	0.190	-0.349
-139.458	-192.922	0.271	0.002
-138.443	-70.263	-0.219	0.083
-137.429	51.823	0.106	0.101
-136.414	138.252	-0.140	0.183
-135.399	634.978	0.092	-0.233
-134.385	87.160	0.315	0.348
-133.370	603.795	0.085	0.210
-132.356	162.178	-0.144	0.201
-131.341	112.327	-0.281	0.339
-130.326	-200.000	-0.066	-0.307
-129.312	-21.045	-0.328	-0.201
-128.297	384.701	-0.128	-0.263
-127.283	-151.062	0.119	0.009
-126.268	97.355	0.145	-0.167
-125.253	-61.466	-0.373	0.157
-124.239	-44.935	0.273	-0.136
-123.224	-138.220	-0.333	0.037
-122.210	237.158	0.112	0.185
-121.195	800.000	0.072	0.218
-120.180	-200.000	0.030	-0.131
-119.166	-200.000	0.013	0.329
