DTS Sentinel unit serial number:	SN413079Multiplexer serial number:	ORYXHardware model number:	OX4-SRSoftware version number:	ORYX F/W v4.00 Oryx Data Collector v3.7.2.0data status	okinstallation	princeton_trtdifferential loss correction	single-endedforward channel	channel 4reverse channel	N/Adate	2019/09/13time	05:25:34forward acquisition time	60.00reverse acquisition time	0.00gamma	496.2192k internal	0.2323k external	0.2323temperature offset calibration	1.0194default loss term (dB/km)	0.3790temperature slope calibration	1.0000multiplexer offset coefficient	1.0000multiplexer slope coefficient	1.0000fibre end	0.00T internal ref (°C)	26.30T ext. ref 1 (°C)	4.05T ext. ref 2 (°C)	20.90length (m)	temperature (°C)	Stokes	anti-Stokes-747.200	580.353	-0.099	-0.245
-746.185	109.025	-0.085	-0.103
-745.171	-93.965	-0.119	-0.033
-744.156	800.000	-0.044	0.128
-743.142	-29.005	-0.502	0.291
-742.127	225.480	0.107	0.176
-741.112	800.000	0.113	0.464
-740.098	4.920	-0.204	0.152
-739.083	800.000	-0.057	0.239
-738.069	-110.527	-0.286	0.060
-737.054	-200.000	-0.039	-0.407
-736.039	800.000	-0.004	-0.015
-735.025	31.930	0.044	-0.039
-734.010	-36.008	-0.188	-0.103
-732.996	57.781	-0.114	-0.113
-731.981	-21.975	-0.134	-0.082
-730.966	544.651	-0.023	-0.055
-729.952	150.413	0.114	-0.156
-728.937	-146.511	-0.321	0.028
-727.923	-65.918	-0.257	0.104
-726.908	180.740	0.142	-0.211
-725.894	66.444	-0.189	-0.194
-724.879	163.682	-0.071	0.101
-723.864	186.948	0.225	-0.338
-722.850	-200.000	-0.040	-0.189
-721.835	102.172	-0.251	0.295
-720.821	-61.777	-0.130	-0.055
-719.806	121.130	-0.091	-0.114
-718.791	-200.000	-0.016	0.155
-717.777	160.846	0.143	0.201
-716.762	-200.000	-0.016	-0.183
-715.748	396.416	-0.174	-0.366
-714.733	-19.801	0.086	-0.054
-713.718	800.000	0.099	-0.386
-712.704	237.198	0.098	-0.164
-711.689	308.942	0.097	-0.183
-710.675	-200.000	-0.017	-0.132
-709.660	800.000	0.045	-0.138
-708.645	26.486	0.066	0.055
-707.631	27.575	0.113	-0.096
-706.616	-105.803	0.140	-0.032
-705.602	156.827	-0.172	-0.239
-704.587	527.720	-0.115	-0.273
-703.572	-75.353	-0.071	-0.026
-702.558	-200.000	0.072	0.368
-701.543	19.151	0.198	-0.160
-700.529	-115.659	-0.519	-0.098
-699.514	800.000	0.028	0.080
-698.499	-11.897	0.136	-0.090
-697.485	-200.000	-0.041	0.476
-696.470	709.829	-0.047	-0.125
-695.456	-200.000	-0.043	-0.322
-694.441	120.530	0.180	0.225
-693.426	271.733	-0.105	0.187
-692.412	-135.258	-0.170	0.021
-691.397	40.359	-0.399	-0.362
-690.383	-64.006	0.235	0.097
-689.368	-78.156	0.098	-0.034
-688.354	138.155	0.122	-0.162
-687.339	24.409	0.190	0.158
-686.324	-29.160	-0.312	0.180
-685.310	-62.481	-0.088	-0.037
-684.295	542.126	-0.082	0.197
-683.281	146.931	0.114	-0.155
-682.266	243.073	0.050	0.085
-681.251	-67.441	-0.121	-0.048
-680.237	202.478	0.081	0.125
-679.222	-108.953	0.094	0.020
-678.208	-100.572	-0.502	-0.125
-677.193	173.319	-0.044	0.064
-676.178	-167.127	-0.128	0.005
-675.164	-26.238	0.132	0.078
-674.149	210.525	-0.250	0.395
-673.135	800.000	0.071	0.314
-672.120	-148.457	0.074	0.006
-671.105	-93.791	0.280	0.078
-670.091	-67.222	-0.228	0.090
-669.076	737.390	0.117	0.315
-668.062	500.678	0.052	0.121
-667.047	-7.478	-0.376	0.256
-666.032	596.776	-0.063	-0.156
-665.018	22.964	-0.115	-0.095
-664.003	800.000	-0.154	0.430
-662.989	-97.653	-0.604	0.158
-661.974	221.677	-0.114	-0.185
-660.959	94.439	-0.154	-0.176
-659.945	310.306	0.154	-0.291
-658.930	800.000	0.086	-0.248
-657.916	252.451	-0.030	0.051
-656.901	286.317	-0.077	0.141
-655.886	800.000	-0.071	0.232
-654.872	117.797	0.268	-0.333
-653.857	-100.048	-0.095	-0.024
-652.843	-34.562	-0.181	0.100
-651.828	602.681	0.112	-0.281
-650.814	149.339	0.203	-0.277
-649.799	800.000	0.025	-0.099
-648.784	73.530	0.264	0.278
-647.770	80.917	-0.186	0.202
-646.755	-200.000	-0.030	0.185
-645.741	212.116	-0.169	0.268
-644.726	-200.000	0.017	0.161
-643.711	-200.000	0.001	-0.112
-642.697	52.919	-0.303	-0.291
-641.682	550.864	-0.073	0.177
-640.668	-200.000	0.093	-0.491
-639.653	50.170	0.059	-0.056
-638.638	-74.379	-0.297	-0.108
-637.624	175.899	0.136	-0.199
-636.609	-84.149	0.272	0.087
-635.595	-96.959	0.016	0.004
-634.580	-107.688	-0.123	0.027
-633.565	-96.043	0.091	0.024
-632.551	-109.092	0.153	0.033
-631.536	-183.538	0.037	0.001
-630.522	-87.320	0.282	0.086
-629.507	0.055	0.009	-0.007
-628.492	-93.676	-0.228	-0.063
-627.478	195.957	0.038	-0.059
-626.463	800.000	-0.029	-0.086
-625.449	64.676	-0.215	0.218
-624.434	26.752	0.158	0.133
-623.419	-77.673	0.138	0.048
-622.405	-200.000	-0.056	-0.268
-621.390	-112.235	-0.247	0.050
-620.376	139.014	-0.059	-0.078
-619.361	-135.188	0.097	0.012
-618.346	336.111	-0.107	0.208
-617.332	-40.841	0.203	0.106
-616.317	49.589	0.203	-0.192
-615.303	74.943	0.076	0.080
-614.288	-200.000	0.015	-0.068
-613.273	60.535	-0.117	0.117
-612.259	800.000	0.066	-0.284
-611.244	-105.681	0.010	-0.002
-610.230	-57.897	-0.126	-0.055
-609.215	76.143	-0.083	-0.088
-608.201	800.000	0.119	0.402
-607.186	311.229	-0.075	-0.140
-606.171	-45.618	0.231	0.115
-605.157	800.000	0.101	-0.347
-604.142	-53.102	0.314	-0.145
-603.128	-144.539	-0.279	-0.026
-602.113	59.734	-0.203	-0.202
-601.098	748.568	-0.078	-0.212
-600.084	-200.000	-0.011	0.161
-599.069	800.000	-0.042	-0.157
-598.055	-50.896	-0.107	0.050
-597.040	476.943	-0.089	0.201
-596.025	-200.000	0.042	0.533
-595.011	-47.334	0.209	0.102
-593.996	-144.763	0.297	0.027
-592.982	-8.661	0.149	-0.100
-591.967	-200.000	-0.003	-0.219
-590.952	71.351	-0.189	0.197
-589.938	110.155	-0.079	-0.096
-588.923	-142.751	-0.098	-0.010
-587.909	329.840	0.039	-0.075
-586.894	800.000	0.083	-0.283
-585.879	800.000	0.103	-0.293
-584.865	800.000	0.020	-0.073
-583.850	-200.000	0.017	-0.129
-582.836	-175.294	-0.448	0.012
-581.821	-200.000	0.006	-0.156
-580.806	573.589	0.128	-0.314
-579.792	-112.781	-0.090	-0.018
-578.777	31.516	-0.093	-0.081
-577.763	187.081	0.112	0.167
-576.748	5.311	-0.035	-0.026
-575.733	-61.722	-0.058	-0.024
-574.719	-4.998	0.061	0.042
-573.704	-200.000	0.038	-0.444
-572.690	389.124	-0.067	-0.139
-571.675	-186.073	0.136	-0.002
-570.661	13.091	-0.428	0.332
-569.646	-59.995	0.516	0.221
-568.631	-59.349	-0.457	-0.197
-567.617	283.776	-0.128	0.230
-566.602	219.358	-0.213	-0.342
-565.588	715.735	-0.036	-0.096
-564.573	-200.000	-0.061	-0.454
-563.558	16.762	0.267	-0.212
-562.544	654.924	-0.125	0.323
-561.529	-13.182	0.413	0.269
-560.515	-106.870	-0.118	0.026
-559.500	46.123	-0.237	0.220
-558.485	119.891	-0.100	0.124
-557.471	-41.033	-0.666	-0.345
-556.456	556.637	-0.166	-0.401
-555.442	19.151	-0.308	0.248
-554.427	0.931	-0.337	0.242
-553.412	15.691	-0.475	-0.374
-552.398	-200.000	0.018	0.103
-551.383	39.753	0.072	-0.065
-550.369	386.924	-0.098	0.203
-549.354	-7.323	0.252	-0.171
-548.339	800.000	0.119	-0.334
-547.325	800.000	-0.015	-0.052
-546.310	34.040	-0.066	-0.058
-545.296	-82.140	-0.124	-0.040
-544.281	-46.763	0.154	0.076
-543.266	-56.492	0.135	0.060
-542.252	800.000	0.072	0.218
-541.237	800.000	-0.130	-0.377
-540.223	-200.000	0.033	0.191
-539.208	49.532	0.234	0.220
-538.193	437.298	0.113	0.246
-537.179	-182.270	-0.171	0.003
-536.164	-200.000	-0.008	-0.066
-535.150	603.941	-0.137	-0.341
-534.135	-54.648	-0.121	0.055
-533.121	-81.773	-0.333	0.109
-532.106	-8.868	-0.209	-0.141
-531.091	800.000	-0.140	-0.415
-530.077	-20.484	-0.108	-0.067
-529.062	-23.842	0.158	-0.095
-528.048	-95.890	-0.210	0.056
-527.033	110.906	0.228	0.274
-526.018	288.545	-0.108	-0.196
-525.004	452.457	0.065	-0.144
-523.989	-65.120	-0.141	0.057
-522.975	249.792	-0.138	-0.235
-521.960	-14.128	0.390	-0.252
-520.945	-120.954	0.224	0.038
-519.931	-122.214	-0.160	-0.026
-518.916	-193.753	0.113	-0.001
-517.902	-51.525	-0.211	-0.099
-516.887	800.000	-0.103	0.335
-515.872	188.122	-0.121	0.181
-514.858	106.421	0.120	0.142
-513.843	-27.058	-0.139	0.081
-512.829	167.514	-0.116	0.165
-511.814	-74.795	-0.248	-0.089
-510.799	-23.309	-0.268	-0.161
-509.785	-99.646	0.231	-0.058
-508.770	9.433	0.134	0.102
-507.756	800.000	0.006	-0.017
-506.741	-57.177	-0.443	-0.195
-505.726	9.404	-0.066	0.050
-504.712	339.319	0.247	-0.482
-503.697	88.106	0.210	-0.234
-502.683	-134.719	0.346	0.042
-501.668	-119.730	-0.257	0.044
-500.653	401.369	-0.115	0.242
-499.639	238.472	0.148	0.245
-498.624	45.500	0.156	-0.144
-497.610	38.798	0.104	-0.093
-496.595	686.476	0.082	0.214
-495.581	-90.089	-0.111	-0.032
-494.566	-27.150	-0.325	-0.189
-493.551	83.575	0.154	0.168
-492.537	-11.510	-0.201	0.132
-491.522	-200.000	0.075	0.467
-490.508	81.120	0.256	0.276
-489.493	635.950	0.044	-0.113
-488.478	-100.094	0.282	-0.070
-487.464	-143.216	0.198	-0.019
-486.449	-71.135	-0.153	0.057
-485.435	-162.309	0.160	-0.008
-484.420	89.973	-0.170	0.190
-483.405	97.927	-0.122	0.140
-482.391	-200.000	0.013	-0.142
-481.376	-96.775	0.551	-0.145
-480.362	15.520	0.076	0.059
-479.347	40.011	0.092	-0.082
-478.332	44.371	-0.286	0.263
-477.318	106.600	-0.191	-0.226
-476.303	115.923	-0.155	-0.190
-475.289	-74.501	0.148	0.053
-474.274	-56.384	0.251	-0.111
-473.259	800.000	-0.029	-0.115
-472.245	46.095	-0.054	-0.050
-471.230	191.337	-0.130	-0.196
-470.216	36.857	-0.055	-0.049
-469.201	-200.000	-0.013	0.071
-468.186	-75.932	0.147	0.052
-467.172	-108.886	-0.216	0.046
-466.157	-200.000	0.012	0.143
-465.143	-153.679	0.426	0.029
-464.128	54.836	-0.063	-0.061
-463.113	-119.260	-0.220	0.038
-462.099	800.000	-0.082	0.357
-461.084	40.429	0.252	0.226
-460.070	800.000	-0.021	-0.073
-459.055	-115.538	0.325	0.061
-458.040	25.471	0.101	-0.084
-457.026	800.000	0.059	-0.187
-456.011	283.246	-0.096	-0.172
-454.997	224.189	0.176	-0.284
-453.982	38.831	0.071	0.063
-452.968	-105.826	0.382	0.086
-451.953	-41.275	-0.289	-0.149
-450.938	-120.976	0.103	0.017
-449.924	800.000	0.057	0.212
-448.909	22.759	0.191	0.156
-447.895	-160.438	-0.344	-0.018
-446.880	-200.000	-0.002	0.019
-445.865	217.493	0.093	0.149
-444.851	149.555	0.133	-0.179
-443.836	-200.000	-0.000	-0.024
-442.822	39.277	0.150	-0.134
-441.807	244.062	-0.160	0.268
-440.792	59.754	-0.223	-0.219
-439.778	65.782	-0.181	0.183
-438.763	-164.174	0.146	0.007
-437.749	-200.000	-0.047	0.223
-436.734	-200.000	0.031	-0.283
-435.719	-139.935	0.116	-0.012
-434.705	-200.000	-0.055	-0.329
-433.690	87.600	-0.248	0.273
-432.676	-200.000	-0.029	-0.317
-431.661	21.191	0.062	0.050
-430.646	112.060	0.139	-0.167
-429.632	196.902	0.075	-0.115
-428.617	-21.847	0.328	-0.199
-427.603	-63.990	0.196	-0.080
-426.588	-200.000	0.030	-0.180
-425.573	-106.219	-0.043	-0.010
-424.559	-200.000	-0.036	-0.204
-423.544	-35.965	-0.249	-0.134
-422.530	343.549	-0.026	-0.051
-421.515	72.695	0.092	-0.096
-420.500	-200.000	-0.005	0.125
-419.486	735.176	-0.089	0.239
-418.471	4.664	0.214	-0.156
-417.457	-84.254	0.192	-0.061
-416.442	-200.000	0.039	-0.239
-415.428	-144.500	-0.383	-0.035
-414.413	105.057	0.161	-0.189
-413.398	-200.000	-0.009	-0.100
-412.384	-62.331	-0.418	-0.174
-411.369	-66.462	-0.254	-0.101
-410.355	-124.413	0.308	-0.048
-409.340	137.600	-0.207	-0.270
-408.325	20.388	0.161	-0.129
-407.311	212.521	-0.118	-0.186
-406.296	414.734	0.126	0.267
-405.282	800.000	-0.076	-0.310
-404.267	35.238	0.285	-0.249
-403.252	282.164	-0.243	0.434
-402.238	124.061	-0.246	0.307
-401.223	800.000	-0.044	-0.146
-400.209	-56.527	0.020	0.009
-399.194	283.132	-0.093	-0.167
-398.179	-190.348	0.294	-0.003
-397.165	-7.349	0.138	-0.093
-396.150	-200.000	0.132	-0.001
-395.136	-176.474	-0.181	-0.005
-394.121	80.946	0.279	-0.300
-393.106	179.664	-0.031	0.045
-392.092	-50.979	-0.228	0.107
-391.077	-5.084	0.100	-0.068
-390.063	-72.117	0.155	-0.057
-389.048	-123.143	-0.154	0.025
-388.033	34.025	-0.144	-0.125
-387.019	800.000	0.122	-0.387
-386.004	-100.789	0.256	-0.063
-384.990	-77.078	0.086	-0.030
-383.975	-181.316	0.078	0.002
-382.960	-101.658	-0.166	0.040
-381.946	-0.946	0.273	-0.192
-380.931	57.041	-0.173	0.168
-379.917	-200.000	0.046	0.223
-378.902	440.977	0.076	-0.166
-377.888	514.667	-0.066	-0.154
-376.873	-69.662	0.208	-0.079
-375.858	198.931	0.153	0.234
-374.844	-47.529	-0.242	0.117
-373.829	35.951	0.172	0.151
-372.815	-38.684	0.321	-0.168
-371.800	-120.950	0.239	0.040
-370.785	-62.270	0.307	-0.127
-369.771	164.112	0.170	0.238
-368.756	-200.000	0.002	0.152
-367.742	244.000	-0.118	0.198
-366.727	110.711	-0.171	0.205
-365.712	136.778	0.100	0.130
-364.698	-61.171	-0.394	0.165
-363.683	341.878	-0.079	-0.154
-362.669	800.000	-0.017	-0.061
-361.654	800.000	0.039	-0.163
-360.639	266.845	0.049	0.085
-359.625	800.000	0.041	-0.115
-358.610	-80.560	0.201	-0.067
-357.596	112.079	0.030	-0.036
-356.581	106.895	0.137	0.162
-355.566	800.000	-0.047	-0.155
-354.552	4.237	0.255	0.186
-353.537	-165.558	0.255	0.011
-352.523	5.259	0.122	0.089
-351.508	63.486	-0.131	0.131
-350.493	-53.850	0.314	-0.142
-349.479	-3.762	0.092	-0.064
-348.464	-61.279	0.249	0.104
-347.450	771.615	-0.137	0.371
-346.435	-100.209	-0.402	0.099
-345.420	800.000	-0.086	0.269
-344.406	800.000	0.113	0.372
-343.391	68.303	-0.226	0.230
-342.377	-118.334	0.134	0.024
-341.362	8.566	-0.141	-0.106
-340.348	280.141	-0.073	0.129
-339.333	-134.486	-0.077	0.009
-338.318	45.291	-0.212	0.195
-337.304	267.693	0.089	-0.154
-336.289	-78.338	0.253	-0.086
-335.275	64.591	0.144	-0.145
-334.260	-12.866	0.058	-0.038
-333.245	57.397	-0.034	-0.033
-332.231	-41.612	-0.210	-0.107
-331.216	800.000	0.024	-0.074
-330.202	142.702	-0.160	-0.211
-329.187	478.164	0.025	-0.057
-328.172	0.598	0.073	-0.052
-327.158	137.690	-0.073	0.096
-326.143	-115.884	-0.160	0.030
-325.129	217.634	0.097	0.154
-324.114	248.857	-0.050	0.084
-323.099	0.466	0.205	0.145
-322.085	64.449	-0.123	-0.123
-321.070	203.371	-0.078	-0.120
-320.056	136.846	-0.157	-0.204
-319.041	-70.191	0.228	0.086
-318.026	211.916	0.265	0.414
-317.012	289.451	-0.070	0.127
-315.997	-146.870	0.341	0.029
-314.983	-145.778	0.398	-0.035
-313.968	-38.523	-0.346	-0.182
-312.953	-79.371	0.206	0.069
-311.939	-95.776	0.107	0.028
-310.924	-132.497	-0.287	-0.037
-309.910	-66.192	-0.119	0.047
-308.895	-110.526	0.115	0.024
-307.880	-200.000	0.007	0.129
-306.866	-103.686	0.155	-0.036
-305.851	625.550	0.086	-0.215
-304.837	-200.000	0.007	0.271
-303.822	800.000	-0.123	0.389
-302.807	800.000	-0.117	0.336
-301.793	800.000	0.030	-0.120
-300.778	212.042	0.064	0.099
-299.764	-120.476	-0.148	0.025
-298.749	-200.000	-0.041	-0.386
-297.735	78.778	0.246	-0.261
-296.720	163.629	-0.053	-0.074
-295.705	47.246	0.171	-0.158
-294.691	-7.017	-0.025	0.017
-293.676	-200.000	-0.002	0.071
-292.662	-82.307	-0.073	-0.024
-291.647	340.350	0.114	-0.220
-290.632	-200.000	0.008	0.075
-289.618	-79.484	0.080	-0.027
-288.603	211.800	-0.085	0.133
-287.589	-82.457	-0.209	-0.067
-286.574	442.434	0.028	0.060
-285.559	-24.010	0.077	0.046
-284.545	-200.000	0.031	-0.194
-283.530	780.106	0.057	-0.155
-282.516	382.225	-0.073	0.149
-281.501	-76.505	-0.156	-0.054
-280.486	-11.763	0.195	0.127
-279.472	23.511	0.218	0.178
-278.457	-200.000	-0.023	0.270
-277.443	-187.132	-0.279	0.004
-276.428	-144.794	0.021	-0.002
-275.413	-73.198	0.149	-0.054
-274.399	72.971	-0.083	0.086
-273.384	308.965	-0.190	-0.351
-272.370	12.199	-0.212	0.162
-271.355	-95.834	0.264	-0.070
-270.340	800.000	0.107	0.365
-269.326	32.502	-0.099	0.085
-268.311	-43.080	-0.237	-0.119
-267.297	254.293	0.100	0.169
-266.282	-114.714	-0.257	-0.049
-265.267	-108.217	-0.200	0.043
-264.253	74.476	0.187	0.195
-263.238	-76.330	-0.183	0.064
-262.224	144.511	0.153	0.203
-261.209	-200.000	0.006	-0.165
-260.195	-30.094	0.215	0.121
-259.180	-200.000	-0.032	0.448
-258.165	-59.788	-0.018	-0.008
-257.151	87.240	0.125	0.136
-256.136	-200.000	-0.040	-0.251
-255.122	-56.727	0.259	-0.113
-254.107	800.000	-0.112	0.331
-253.092	251.624	0.171	0.289
-252.078	173.107	0.077	-0.109
-251.063	-200.000	0.022	-0.207
-250.049	800.000	-0.136	0.534
-249.034	-10.025	0.030	-0.020
-248.019	800.000	0.118	0.339
-247.005	-133.569	0.434	0.054
-245.990	-69.406	-0.196	0.074
-244.976	90.709	-0.035	-0.039
-243.961	800.000	0.097	0.266
-242.946	220.030	0.146	0.232
-241.932	51.007	-0.144	-0.136
-240.917	-200.000	0.013	-0.118
-239.903	-200.000	-0.026	0.291
-238.888	-71.732	0.253	-0.093
-237.873	266.174	-0.086	-0.149
-236.859	-102.116	-0.178	-0.042
-235.844	242.126	0.139	-0.231
-234.830	-86.887	-0.289	0.087
-233.815	163.224	-0.221	0.308
-232.800	-123.214	0.189	0.030
-231.786	-111.731	0.202	-0.041
-230.771	800.000	0.039	-0.112
-229.757	-200.000	-0.004	-0.114
-228.742	-76.327	-0.233	-0.081
-227.727	800.000	-0.050	0.173
-226.713	-102.133	0.066	0.016
-225.698	-92.954	0.249	0.069
-224.684	800.000	0.075	0.261
-223.669	800.000	0.077	-0.255
-222.655	197.873	0.089	-0.135
-221.640	-87.563	-0.458	0.137
-220.625	-161.148	0.260	-0.013
-219.611	-72.284	-0.238	0.087
-218.596	-20.284	-0.281	0.171
-217.582	-107.360	-0.185	-0.040
-216.567	29.690	-0.064	0.054
-215.552	87.255	-0.204	0.223
-214.538	-200.000	-0.013	0.283
-213.523	-97.032	-0.253	0.066
-212.509	106.466	0.006	0.007
-211.494	179.294	0.082	0.118
-210.479	370.180	0.079	-0.158
-209.465	-85.770	-0.357	-0.109
-208.450	-142.640	0.104	0.010
-207.436	38.292	-0.156	-0.138
-206.421	-171.393	0.133	0.004
-205.406	0.133	-0.143	0.101
-204.392	48.754	-0.160	0.148
-203.377	126.258	0.177	0.222
-202.363	152.524	-0.069	0.093
-201.348	-16.179	-0.247	-0.155
-200.333	-43.181	0.205	0.103
-199.319	-14.444	0.205	-0.131
-198.304	122.759	0.124	-0.153
-197.290	-200.000	-0.015	-0.237
-196.275	263.078	-0.095	0.163
-195.260	800.000	-0.108	0.372
-194.246	188.432	0.181	-0.267
-193.231	97.674	0.025	-0.028
-192.217	294.869	0.056	0.102
-191.202	-102.883	-0.176	0.041
-190.187	-194.892	-0.184	-0.001
-189.173	-115.780	-0.278	0.051
-188.158	-200.000	-0.008	-0.176
-187.144	-141.544	-0.188	-0.019
-186.129	800.000	-0.068	0.194
-185.114	62.341	0.123	0.121
-184.100	-24.616	0.574	0.337
-183.085	-40.619	-0.177	0.090
-182.071	800.000	-0.043	0.119
-181.056	549.807	0.075	0.178
-180.042	37.930	-0.075	-0.065
-179.027	212.756	0.104	-0.162
-178.012	-200.000	0.033	-0.247
-176.998	-54.469	0.172	0.077
-175.983	-38.444	0.134	-0.070
-174.969	444.591	-0.219	-0.476
-173.954	-163.317	-0.419	-0.020
-172.939	800.000	-0.074	0.215
-171.925	269.782	-0.191	-0.331
-170.910	118.494	0.181	-0.221
-169.896	800.000	0.037	-0.106
-168.881	-112.335	0.384	-0.076
-167.866	-200.000	0.010	0.176
-166.852	-200.000	-0.000	-0.243
-165.837	-90.800	-0.205	0.058
-164.823	-113.130	0.154	-0.030
-163.808	-98.404	0.184	0.046
-162.793	164.818	-0.150	0.209
-161.779	-6.275	-0.197	0.133
-160.764	800.000	-0.053	-0.179
-159.750	-102.583	0.422	0.100
-158.735	205.581	-0.075	-0.115
-157.720	-200.000	-0.028	-0.178
-156.706	800.000	-0.046	0.185
-155.691	211.773	-0.223	0.347
-154.677	800.000	0.045	-0.155
-153.662	-40.494	0.088	-0.045
-152.647	-200.000	-0.014	-0.067
-151.633	800.000	-0.057	0.231
-150.618	178.256	-0.056	0.081
-149.604	-200.000	-0.024	0.327
-148.589	-124.805	-0.173	-0.026
-147.574	-56.312	-0.191	-0.084
-146.560	-53.791	0.099	-0.044
-145.545	-118.433	-0.118	0.021
-144.531	11.124	-0.290	0.219
-143.516	-200.000	-0.018	0.110
-142.502	33.070	0.097	0.083
-141.487	-6.137	0.206	-0.139
-140.472	665.457	-0.077	-0.195
-139.458	755.265	-0.115	-0.307
-138.443	-12.413	0.069	0.044
-137.429	148.206	0.268	-0.357
-136.414	89.010	0.150	0.164
-135.399	-198.541	0.173	0.001
-134.385	-102.654	-0.178	0.042
-133.370	419.381	0.124	0.261
-132.356	800.000	-0.102	0.418
-131.341	-113.902	0.283	-0.054
-130.326	-149.147	-0.252	0.020
-129.312	-126.752	0.263	-0.038
-128.297	292.531	0.088	-0.158
-127.283	-108.167	-0.139	0.030
-126.268	636.202	-0.088	0.220
-125.253	114.435	-0.135	0.162
-124.239	-130.638	0.165	-0.022
-123.224	-146.489	0.239	-0.021
-122.210	-48.600	0.141	0.067
-121.195	-66.886	0.163	0.064
