DTS Sentinel unit serial number:	SN413079Multiplexer serial number:	ORYXHardware model number:	OX4-SRSoftware version number:	ORYX F/W v4.00 Oryx Data Collector v3.7.2.0data status	okinstallation	princeton_trtdifferential loss correction	single-endedforward channel	channel 4reverse channel	N/Adate	2019/09/18time	15:45:35forward acquisition time	60.00reverse acquisition time	0.00gamma	496.2192k internal	0.2296k external	0.2296temperature offset calibration	1.0006default loss term (dB/km)	0.3790temperature slope calibration	1.0000multiplexer offset coefficient	1.0000multiplexer slope coefficient	1.0000fibre end	0.00T internal ref (°C)	36.48T ext. ref 1 (°C)	0.79T ext. ref 2 (°C)	33.30length (m)	temperature (°C)	Stokes	anti-Stokes-747.200	-200.000	0.005	0.151
-746.185	-5.522	-0.199	0.139
-745.171	800.000	0.073	0.273
-744.156	346.156	-0.055	0.110
-743.142	-45.413	0.260	0.132
-742.127	-200.000	-0.005	0.121
-741.112	10.342	0.089	0.069
-740.098	335.450	-0.248	0.491
-739.083	-2.222	0.280	0.201
-738.069	312.360	-0.168	0.322
-737.054	6.919	-0.270	-0.205
-736.039	-6.015	-0.138	-0.096
-735.025	221.784	-0.211	0.347
-734.010	-200.000	0.114	-0.521
-732.996	800.000	0.027	-0.108
-731.981	-133.583	0.333	-0.043
-730.966	-111.544	0.162	0.034
-729.952	-69.143	0.228	-0.090
-728.937	508.300	-0.131	-0.311
-727.923	157.389	0.036	0.051
-726.908	298.331	-0.101	-0.190
-725.894	538.418	0.146	-0.353
-724.879	800.000	-0.058	-0.180
-723.864	-110.888	0.085	-0.018
-722.850	-141.316	0.342	-0.035
-721.835	3.781	0.102	0.076
-720.821	-200.000	0.012	-0.059
-719.806	86.001	0.220	-0.248
-718.791	-200.000	0.014	-0.072
-717.777	139.011	0.208	0.279
-716.762	-200.000	0.018	-0.100
-715.748	-200.000	-0.058	0.262
-714.733	-200.000	0.006	-0.120
-713.718	-200.000	0.017	-0.242
-712.704	437.231	-0.131	0.292
-711.689	-118.437	-0.289	-0.052
-710.675	56.238	-0.111	0.110
-709.660	47.687	0.073	-0.069
-708.645	800.000	0.028	-0.099
-707.631	-78.536	-0.220	-0.077
-706.616	-156.724	-0.212	0.013
-705.602	68.851	-0.224	0.235
-704.587	-135.005	0.222	-0.027
-703.572	129.836	0.032	0.042
-702.558	99.450	-0.116	-0.137
-701.543	-200.000	0.007	0.322
-700.529	110.020	-0.103	0.126
-699.514	325.889	-0.042	0.082
-698.499	-56.221	-0.297	-0.135
-697.485	-26.388	0.214	0.128
-696.470	-132.813	-0.193	0.025
-695.456	-8.013	-0.117	0.080
-694.441	-16.171	-0.231	0.150
-693.426	-200.000	-0.028	-0.339
-692.412	291.982	0.127	0.236
-691.397	800.000	-0.102	0.403
-690.383	-129.030	0.098	-0.014
-689.368	227.983	0.131	0.218
-688.354	266.534	-0.031	0.054
-687.339	232.879	-0.089	-0.149
-686.324	-128.319	0.053	0.008
-685.310	739.265	0.108	-0.296
-684.295	-200.000	-0.034	-0.601
-683.281	67.103	0.071	-0.073
-682.266	-63.550	-0.053	0.022
-681.251	25.676	-0.064	0.054
-680.237	272.899	0.069	0.124
-679.222	37.784	0.269	0.243
-678.208	182.706	-0.084	-0.127
-677.193	-200.000	-0.012	0.336
-676.178	9.232	-0.267	-0.206
-675.164	-72.928	0.115	0.043
-674.149	263.914	-0.110	0.194
-673.135	-200.000	-0.045	0.303
-672.120	-125.889	0.252	0.039
-671.105	-200.000	0.011	-0.128
-670.091	162.950	0.214	0.306
-669.076	308.464	0.133	-0.253
-668.062	800.000	-0.117	-0.358
-667.047	-103.959	0.419	-0.100
-666.032	36.941	-0.158	-0.143
-665.018	6.157	-0.387	0.292
-664.003	-200.000	0.016	0.362
-662.989	-48.297	0.080	-0.039
-661.974	-200.000	0.020	0.091
-660.959	225.071	0.171	-0.282
-659.945	-164.085	-0.205	0.010
-658.930	-166.792	0.396	0.017
-657.916	127.629	-0.174	0.225
-656.901	-46.511	-0.027	-0.014
-655.886	-151.027	0.203	-0.016
-654.872	716.996	0.078	0.210
-653.857	240.711	-0.105	-0.178
-652.843	-44.884	-0.197	-0.100
-651.828	-102.813	0.279	-0.068
-650.814	-200.000	-0.002	0.200
-649.799	-63.759	0.037	-0.016
-648.784	-102.567	0.330	0.080
-647.770	374.925	-0.117	-0.244
-646.755	-172.902	0.211	-0.007
-645.741	413.208	-0.063	-0.136
-644.726	-200.000	0.000	0.120
-643.711	62.937	-0.066	-0.067
-642.697	-193.194	0.196	-0.002
-641.682	800.000	0.129	-0.421
-640.668	-80.889	-0.343	-0.116
-639.653	174.592	0.069	-0.102
-638.638	39.573	0.216	-0.197
-637.624	800.000	0.080	-0.227
-636.609	-46.962	-0.107	-0.053
-635.595	-72.633	-0.382	0.143
-634.580	-117.120	0.031	0.006
-633.565	109.968	-0.090	-0.110
-632.551	-23.986	-0.062	-0.038
-631.536	98.724	-0.099	0.116
-630.522	125.044	0.065	-0.083
-629.507	237.972	0.123	-0.207
-628.492	280.618	0.074	-0.134
-627.478	-129.878	0.006	0.001
-626.463	800.000	0.070	0.219
-625.449	74.546	-0.300	0.320
-624.434	500.111	0.066	-0.155
-623.419	-135.166	0.168	0.020
-622.405	-8.081	0.105	0.072
-621.390	-157.438	0.359	0.022
-620.376	-200.000	0.059	-0.360
-619.361	778.789	-0.102	0.283
-618.346	-200.000	0.026	-0.218
-617.332	-53.823	-0.510	-0.237
-616.317	-37.520	0.126	0.068
-615.303	244.691	-0.200	-0.343
-614.288	-200.000	-0.004	-0.257
-613.273	-37.597	-0.354	-0.192
-612.259	35.306	-0.060	0.053
-611.244	-25.044	0.124	-0.075
-610.230	-200.000	-0.005	-0.059
-609.215	-62.456	0.061	-0.026
-608.201	100.819	-0.096	0.113
-607.186	-200.000	-0.019	0.125
-606.171	-61.622	-0.045	0.019
-605.157	-142.045	0.293	-0.030
-604.142	693.721	0.109	-0.291
-603.128	133.339	0.066	0.086
-602.113	-157.888	0.233	0.014
-601.098	-56.430	-0.384	0.173
-600.084	-200.000	0.011	0.119
-599.069	329.812	0.146	0.285
-598.055	-200.000	0.027	-0.311
-597.040	152.334	0.115	-0.159
-596.025	-51.920	-0.174	0.082
-595.011	89.575	-0.066	0.075
-593.996	-200.000	0.037	0.239
-592.982	-17.077	-0.167	-0.107
-591.967	70.452	0.100	0.105
-590.952	-89.732	-0.200	-0.060
-589.938	103.078	0.303	-0.361
-588.923	-200.000	0.024	-0.127
-587.909	-71.417	-0.074	-0.028
-586.894	57.805	0.152	0.151
-585.879	-9.797	0.109	0.074
-584.865	-200.000	0.014	0.196
-583.850	800.000	0.063	0.194
-582.836	-17.233	0.184	0.118
-581.821	-64.548	0.173	-0.071
-580.806	-98.307	-0.191	0.050
-579.792	800.000	-0.056	-0.179
-578.777	127.683	0.042	0.054
-577.763	-44.604	0.082	0.041
-576.748	-76.856	0.475	-0.169
-575.733	141.422	0.143	-0.192
-574.719	418.483	-0.074	0.161
-573.704	-129.379	-0.112	0.016
-572.690	800.000	-0.037	-0.158
-571.675	320.067	-0.135	0.260
-570.661	800.000	-0.104	0.297
-569.646	52.444	-0.246	0.238
-568.631	-200.000	0.005	0.505
-567.617	-200.000	-0.020	0.129
-566.602	-95.626	-0.142	0.038
-565.588	111.190	0.046	-0.056
-564.573	800.000	-0.104	0.401
-563.558	636.605	-0.066	0.169
-562.544	-57.091	0.294	-0.131
-561.529	-23.064	0.276	0.169
-560.515	550.335	-0.039	0.096
-559.500	-51.022	-0.338	0.161
-558.485	800.000	0.052	-0.204
-557.471	-104.962	0.198	-0.046
-556.456	-132.730	-0.094	0.012
-555.442	9.287	0.189	0.145
-554.427	193.127	-0.086	0.132
-553.412	-7.692	-0.265	0.181
-552.398	116.238	-0.101	-0.125
-551.383	444.568	-0.049	-0.110
-550.369	266.991	-0.115	-0.203
-549.354	800.000	0.067	-0.199
-548.339	69.975	-0.177	-0.186
-547.325	537.912	-0.096	-0.231
-546.310	105.030	0.062	-0.075
-545.296	-200.000	-0.065	-0.426
-544.281	-133.078	0.331	-0.043
-543.266	-200.000	-0.011	-0.090
-542.252	264.861	0.172	-0.303
-541.237	-136.883	-0.030	-0.004
-540.223	30.371	-0.218	0.189
-539.208	8.536	0.153	-0.117
-538.193	-63.780	0.161	0.067
-537.179	-115.874	-0.273	-0.052
-536.164	334.962	-0.066	-0.130
-535.150	-200.000	-0.032	0.176
-534.135	91.019	0.085	0.097
-533.121	-200.000	-0.002	0.058
-532.106	470.039	0.037	-0.085
-531.091	202.807	0.172	0.269
-530.077	-170.795	0.341	-0.012
-529.062	-200.000	0.014	0.669
-528.048	-152.293	0.235	-0.017
-527.033	53.979	-0.009	0.009
-526.018	-200.000	0.029	0.215
-525.004	-29.647	-0.315	0.182
-523.989	337.588	-0.079	-0.157
-522.975	-152.302	0.106	0.008
-521.960	89.317	0.137	0.155
-520.945	101.435	-0.050	0.059
-519.931	-82.714	-0.226	0.074
-518.916	33.688	0.347	0.305
-517.902	-42.827	0.089	0.046
-516.887	-101.440	-0.250	0.062
-515.872	237.884	0.093	0.157
-514.858	151.617	0.124	-0.171
-513.843	107.008	-0.131	0.158
-512.829	-200.000	-0.006	0.284
-511.814	-109.875	-0.308	-0.065
-510.799	30.941	-0.110	0.095
-509.785	1.912	0.261	0.191
-508.770	32.805	-0.125	0.109
-507.756	15.112	0.227	0.180
-506.741	-165.708	0.179	-0.008
-505.726	-200.000	-0.033	-0.278
-504.712	-33.843	-0.108	-0.060
-503.697	65.256	-0.385	-0.394
-502.683	356.036	-0.086	-0.174
-501.668	-152.587	0.336	-0.024
-500.653	-121.415	0.318	-0.054
-499.639	185.657	0.162	0.244
-498.624	-75.148	0.221	-0.080
-497.610	-152.292	-0.159	0.012
-496.595	-111.828	0.125	0.026
-495.581	51.143	0.117	0.112
-494.566	676.482	-0.197	-0.517
-493.551	19.618	0.141	-0.115
-492.537	-200.000	-0.030	-0.157
-491.522	326.110	-0.104	0.201
-490.508	-166.657	0.046	0.002
-489.493	-200.000	0.023	0.106
-488.478	-107.159	0.077	0.017
-487.464	119.057	0.114	-0.142
-486.449	131.680	-0.094	-0.122
-485.435	109.783	-0.130	0.158
-484.420	10.908	0.129	-0.100
-483.405	-104.680	-0.227	-0.053
-482.391	-176.809	0.155	-0.004
-481.376	-88.947	0.116	-0.035
-480.362	47.678	0.087	0.082
-479.347	-200.000	-0.016	-0.090
-478.332	-200.000	-0.017	0.257
-477.318	85.159	0.235	-0.261
-476.303	-52.870	0.152	0.071
-475.289	132.116	-0.065	0.085
-474.274	-55.819	-0.109	-0.049
-473.259	-68.118	0.228	0.090
-472.245	329.174	0.096	0.186
-471.230	-102.658	0.255	0.061
-470.216	800.000	0.115	-0.399
-469.201	-121.933	-0.338	0.056
-468.186	123.053	-0.201	-0.255
-467.172	174.500	0.109	-0.159
-466.157	-18.525	0.169	0.107
-465.143	15.829	0.088	-0.070
-464.128	-14.602	0.167	-0.109
-463.113	234.214	-0.070	-0.116
-462.099	-200.000	0.029	0.197
-461.084	-121.551	-0.135	-0.023
-460.070	24.763	-0.207	-0.173
-459.055	-200.000	0.018	-0.128
-458.040	800.000	0.058	-0.163
-457.026	506.514	-0.136	0.318
-456.011	-125.862	0.115	-0.017
-454.997	-49.010	0.199	0.096
-453.982	300.831	-0.116	-0.217
-452.968	57.248	0.281	0.277
-451.953	-179.377	0.166	-0.004
-450.938	-46.063	0.301	-0.150
-449.924	-200.000	0.004	-0.263
-448.909	120.612	-0.124	0.156
-447.895	36.220	-0.052	0.046
-446.880	800.000	-0.073	0.285
-445.865	800.000	0.032	-0.095
-444.851	-74.345	-0.149	-0.054
-443.836	-28.223	0.087	-0.051
-442.822	-200.000	-0.071	-0.369
-441.807	-25.683	-0.136	-0.081
-440.792	800.000	-0.080	0.245
-439.778	275.844	0.109	0.196
-438.763	236.775	-0.193	-0.323
-437.749	-143.566	-0.434	-0.042
-436.734	46.247	-0.128	0.120
-435.719	-200.000	0.062	-0.293
-434.705	-137.682	-0.174	0.020
-433.690	29.947	-0.050	-0.043
-432.676	13.425	-0.244	-0.191
-431.661	-84.569	0.291	-0.093
-430.646	800.000	-0.035	-0.103
-429.632	-132.730	-0.276	0.036
-428.617	23.098	0.143	0.119
-427.603	-7.026	0.326	-0.224
-426.588	323.433	-0.085	-0.164
-425.573	800.000	0.060	0.264
-424.559	-200.000	-0.040	-0.238
-423.544	-4.113	0.187	-0.131
-422.530	-200.000	0.031	-0.247
-421.515	-58.797	-0.150	0.065
-420.500	-200.000	-0.000	0.122
-419.486	289.525	0.072	0.132
-418.471	-200.000	-0.056	-0.374
-417.457	-162.219	-0.203	-0.010
-416.442	-30.809	-0.282	-0.161
-415.428	-200.000	0.029	-0.176
-414.413	186.186	0.217	-0.326
-413.398	187.917	-0.058	-0.087
-412.384	-200.000	0.017	-0.291
-411.369	-56.046	0.150	0.067
-410.355	-134.636	-0.240	-0.030
-409.340	800.000	-0.026	-0.086
-408.325	67.189	-0.149	0.154
-407.311	147.263	0.106	-0.144
-406.296	499.090	0.054	-0.125
-405.282	20.776	-0.105	0.086
-404.267	-200.000	0.046	0.384
-403.252	-101.566	-0.349	0.086
-402.238	70.867	0.122	0.128
-401.223	591.802	-0.108	-0.268
-400.209	-200.000	0.078	-0.390
-399.194	205.390	0.043	-0.067
-398.179	-9.669	0.182	0.122
-397.165	458.851	0.016	0.037
-396.150	-200.000	-0.035	0.259
-395.136	433.130	0.015	-0.032
-394.121	-200.000	-0.029	0.337
-393.106	-3.711	0.246	-0.172
-392.092	-200.000	-0.023	-0.192
-391.077	-50.677	0.173	0.082
-390.063	240.098	0.062	-0.104
-389.048	-200.000	-0.002	0.054
-388.033	-177.917	0.296	0.007
-387.019	-35.810	-0.360	-0.196
-386.004	-200.000	-0.021	0.143
-384.990	-15.361	-0.062	-0.040
-383.975	315.827	-0.063	0.120
-382.960	-200.000	-0.005	-0.111
-381.946	-200.000	-0.010	-0.068
-380.931	-200.000	-0.026	-0.220
-379.917	566.042	0.079	-0.194
-378.902	800.000	-0.061	0.176
-377.888	-200.000	-0.009	0.251
-376.873	-200.000	0.040	0.182
-375.858	-200.000	0.028	-0.209
-374.844	640.571	-0.069	-0.177
-373.829	227.314	0.075	0.123
-372.815	329.305	0.088	-0.171
-371.800	37.168	-0.156	0.139
-370.785	-200.000	0.046	0.281
-369.771	800.000	-0.027	0.111
-368.756	46.591	-0.107	-0.100
-367.742	-78.979	-0.060	-0.021
-366.727	-127.937	0.076	-0.011
-365.712	87.446	-0.069	-0.077
-364.698	800.000	0.109	0.340
-363.683	-174.735	-0.130	-0.004
-362.669	800.000	-0.134	0.422
-361.654	15.750	-0.081	-0.064
-360.639	319.855	-0.138	0.265
-359.625	140.213	0.040	-0.054
-358.610	-49.124	-0.233	-0.112
-357.596	-200.000	-0.052	-0.252
-356.581	-46.427	0.019	-0.010
-355.566	229.227	0.128	0.210
-354.552	-141.673	0.315	-0.032
-353.537	-140.826	0.023	-0.002
-352.523	-102.258	-0.056	-0.013
-351.508	-200.000	-0.008	-0.084
-350.493	-200.000	0.010	-0.126
-349.479	38.670	0.142	-0.128
-348.464	-66.539	0.114	0.046
-347.450	32.230	0.270	0.234
-346.435	-40.414	0.225	0.117
-345.420	569.148	0.029	-0.070
-344.406	-35.670	0.074	0.040
-343.391	89.267	0.268	-0.300
-342.377	-133.258	0.090	-0.011
-341.362	-160.374	0.269	-0.015
-340.348	800.000	-0.028	-0.081
-339.333	126.225	-0.183	-0.233
-338.318	-200.000	0.011	0.182
-337.304	-200.000	-0.008	0.195
-336.289	16.540	0.207	-0.165
-335.275	-92.230	-0.115	-0.033
-334.260	-200.000	0.192	-0.000
-333.245	-139.290	-0.170	-0.018
-332.231	-200.000	-0.035	-0.340
-331.216	-147.870	0.095	-0.008
-330.202	94.809	-0.054	-0.061
-329.187	-38.326	0.085	-0.045
-328.172	575.150	-0.102	0.251
-327.158	-200.000	0.054	0.264
-326.143	321.461	0.179	-0.342
-325.129	43.239	-0.104	-0.096
-324.114	-123.666	0.260	-0.041
-323.099	-200.000	-0.031	0.145
-322.085	168.006	-0.191	0.273
-321.070	72.501	-0.085	0.089
-320.056	154.784	0.115	0.159
-319.041	-200.000	0.012	-0.121
-318.026	800.000	-0.054	0.192
-317.012	162.082	0.013	0.019
-315.997	800.000	0.014	-0.051
-314.983	-78.857	-0.183	0.063
-313.968	-200.000	-0.347	0.002
-312.953	253.700	-0.050	0.086
-311.939	78.798	0.071	0.076
-310.924	-22.023	-0.081	-0.049
-309.910	77.244	-0.060	0.064
-308.895	278.825	0.129	-0.231
-307.880	230.882	0.073	-0.121
-306.866	-69.074	-0.229	0.088
-305.851	-141.537	-0.089	0.009
-304.837	-200.000	0.031	0.294
-303.822	-24.027	0.063	0.038
-302.807	19.161	-0.166	0.133
-301.793	-139.904	-0.574	-0.061
-300.778	397.773	-0.121	0.255
-299.764	82.861	0.130	-0.142
-298.749	-68.072	-0.162	0.063
-297.735	317.112	-0.064	-0.121
-296.720	374.359	0.125	-0.256
-295.705	-200.000	-0.001	0.396
-294.691	-111.244	0.303	-0.062
-293.676	-79.864	-0.065	0.022
-292.662	-4.239	0.197	0.137
-291.647	19.016	-0.090	-0.072
-290.632	40.641	0.085	0.077
-289.618	-5.036	0.127	0.088
-288.603	123.401	0.059	0.074
-287.589	-200.000	0.006	-0.289
-286.574	2.887	-0.126	0.092
-285.559	-81.752	-0.215	0.071
-284.545	800.000	0.112	0.320
-283.530	-200.000	0.008	0.106
-282.516	-83.980	-0.071	0.023
-281.501	-106.547	0.135	-0.030
-280.486	66.578	-0.264	0.269
-279.472	-200.000	-0.048	0.283
-278.457	-30.702	0.077	-0.044
-277.443	734.153	-0.055	0.147
-276.428	-33.824	-0.094	-0.052
-275.413	-200.000	-0.014	0.131
-274.399	-53.064	0.409	-0.189
-273.384	-55.860	-0.162	0.073
-272.370	-2.694	0.113	0.079
-271.355	15.856	0.105	0.083
-270.340	-187.962	0.150	0.002
-269.326	51.758	-0.055	-0.053
-268.311	50.098	-0.292	-0.277
-267.297	-124.757	0.041	-0.006
-266.282	-53.362	-0.109	0.050
-265.267	11.705	-0.112	-0.086
-264.253	-4.147	0.234	-0.163
-263.238	643.320	-0.042	-0.108
-262.224	200.909	-0.225	-0.347
-261.209	146.902	0.097	0.131
-260.195	-200.000	0.102	0.470
-259.180	604.932	0.155	-0.387
-258.165	800.000	0.143	0.402
-257.151	-57.911	0.174	-0.076
-256.136	323.041	-0.064	-0.122
-255.122	364.188	0.167	0.336
-254.107	-113.597	-0.355	-0.070
-253.092	800.000	-0.051	0.210
-252.078	-8.927	0.319	-0.214
-251.063	-86.859	0.592	0.181
-250.049	-64.945	0.146	0.059
-249.034	-200.000	0.033	-0.164
-248.019	-200.000	-0.001	-0.414
-247.005	184.157	-0.184	0.273
-245.990	86.869	-0.229	-0.253
-244.976	-18.336	0.102	-0.064
-243.961	292.696	-0.096	0.175
-242.946	-143.614	-0.098	-0.009
-241.932	765.973	0.109	0.298
-240.917	271.599	0.022	0.038
-239.903	-113.090	0.318	0.063
-238.888	-200.000	-0.004	-0.162
-237.873	336.066	0.133	0.258
-236.859	-9.068	-0.217	0.145
-235.844	-102.708	0.145	-0.035
-234.830	17.314	-0.162	-0.129
-233.815	26.553	0.152	-0.127
-232.800	-65.612	0.031	-0.012
-231.786	-39.285	-0.271	-0.142
-230.771	-37.827	0.064	0.034
-229.757	87.399	-0.197	-0.218
-228.742	65.198	0.213	0.216
-227.727	-72.353	-0.021	0.008
-226.713	-21.140	0.075	-0.046
-225.698	-157.610	0.426	-0.026
-224.684	-200.000	-0.057	-0.287
-223.669	-200.000	0.053	0.267
-222.655	-146.656	-0.385	0.033
-221.640	97.398	0.166	0.191
-220.625	-200.000	0.015	-0.145
-219.611	800.000	-0.095	0.268
-218.596	181.312	0.198	0.292
-217.582	800.000	-0.032	0.112
-216.567	-27.991	-0.099	-0.057
-215.552	-161.513	-0.150	0.008
-214.538	-76.161	0.063	-0.022
-213.523	-200.000	0.073	-0.359
-212.509	800.000	0.032	-0.122
-211.494	800.000	0.078	-0.228
-210.479	-126.017	-0.202	-0.030
-209.465	-75.560	-0.113	0.040
-208.450	-200.000	0.013	0.245
-207.436	35.250	-0.152	0.133
-206.421	395.957	-0.148	0.310
-205.406	509.105	-0.012	0.029
-204.392	-29.002	-0.361	0.207
-203.377	293.167	-0.033	-0.061
-202.363	503.980	-0.068	-0.157
-201.348	-116.434	0.055	-0.010
-200.333	-196.797	-0.177	-0.001
-199.319	25.060	-0.084	-0.070
-198.304	-200.000	0.027	0.303
-197.290	-8.994	-0.130	0.087
-196.275	800.000	0.032	-0.136
-195.260	211.204	0.196	-0.308
-194.246	291.626	0.065	0.119
-193.231	-200.000	-0.063	0.306
-192.217	-25.336	-0.141	0.084
-191.202	800.000	0.035	0.129
-190.187	46.178	-0.128	0.119
-189.173	391.660	0.125	-0.259
-188.158	351.206	-0.140	-0.278
-187.144	-61.985	-0.290	-0.121
-186.129	541.173	-0.094	0.224
-185.114	-200.000	0.036	0.218
-184.100	-170.510	-0.234	-0.008
-183.085	800.000	-0.097	0.303
-182.071	63.705	-0.085	0.086
-181.056	-29.414	-0.194	-0.111
-180.042	-8.499	0.070	-0.047
-179.027	43.540	0.153	0.140
-178.012	32.146	-0.052	-0.045
-176.998	111.839	-0.081	-0.097
-175.983	225.142	0.142	-0.230
-174.969	-123.007	-0.125	-0.020
-173.954	8.279	-0.267	0.200
-172.939	-134.601	-0.267	0.033
-171.925	-190.658	-0.169	0.002
-170.910	-200.000	0.016	-0.081
-169.896	-63.964	-0.304	0.124
-168.881	250.710	0.049	-0.084
-167.866	-200.000	-0.007	-0.345
-166.852	-138.941	-0.186	-0.020
-165.837	-43.060	-0.225	-0.114
-164.823	240.435	0.200	0.334
-163.808	66.560	-0.087	0.089
-162.793	-44.080	0.072	0.036
-161.779	-200.000	-0.017	-0.261
-160.764	-75.929	0.206	-0.073
-159.750	-88.664	0.563	-0.167
-158.735	-82.567	0.203	-0.066
-157.720	489.210	0.132	0.301
-156.706	-37.089	0.120	-0.064
-155.691	218.622	-0.126	0.201
-154.677	347.048	-0.070	-0.138
-153.662	-81.860	-0.521	0.170
-152.647	-133.635	-0.331	0.041
-151.633	-140.983	0.172	-0.018
-150.618	411.760	-0.084	0.179
-149.604	-182.961	-0.248	-0.004
-148.589	29.313	0.053	0.045
-147.574	71.411	0.044	-0.045
-146.560	-125.357	0.421	0.064
-145.545	-87.301	-0.355	0.108
-144.531	-200.000	0.003	-0.131
-143.516	-72.787	0.138	0.051
-142.502	42.244	0.188	-0.170
-141.487	-133.917	-0.077	0.010
-140.472	361.187	-0.070	0.141
-139.458	398.052	0.060	0.126
-138.443	-0.959	0.067	0.048
-137.429	377.469	-0.058	0.119
-136.414	-63.713	0.087	-0.036
-135.399	-4.787	0.044	0.030
-134.385	-87.376	0.256	-0.077
-133.370	-67.274	0.453	-0.178
-132.356	-64.145	-0.015	0.006
-131.341	-29.750	0.142	-0.081
-130.326	-2.200	0.353	0.247
-129.312	-113.880	-0.343	-0.066
-128.297	-200.000	0.006	-0.321
-127.283	420.566	-0.029	0.061
-126.268	-192.723	-0.342	0.003
-125.253	-200.000	-0.002	0.034
-124.239	800.000	-0.010	-0.030
-123.224	-43.472	0.238	0.120
-122.210	-42.607	-0.089	-0.045
-121.195	-200.000	0.010	-0.332
