DTS Sentinel unit serial number:	SN413079Multiplexer serial number:	ORYXHardware model number:	OX4-SRSoftware version number:	ORYX F/W v4.00 Oryx Data Collector v3.7.2.0data status	okinstallation	princeton_trtdifferential loss correction	single-endedforward channel	channel 4reverse channel	N/Adate	2019/09/17time	09:45:34forward acquisition time	60.00reverse acquisition time	0.00gamma	496.2192k internal	0.2311k external	0.2311temperature offset calibration	0.9975default loss term (dB/km)	0.3790temperature slope calibration	1.0000multiplexer offset coefficient	1.0000multiplexer slope coefficient	1.0000fibre end	0.00T internal ref (°C)	29.34T ext. ref 1 (°C)	0.15T ext. ref 2 (°C)	25.42length (m)	temperature (°C)	Stokes	anti-Stokes-747.200	-42.346	-0.074	0.039
-746.185	16.761	-0.220	0.176
-745.171	-200.000	-0.011	-0.253
-744.156	133.029	-0.114	-0.149
-743.142	61.812	-0.209	-0.211
-742.127	800.000	0.083	0.272
-741.112	-200.000	-0.018	-0.108
-740.098	-89.224	0.315	0.094
-739.083	344.945	0.053	0.106
-738.069	-44.390	-0.154	0.078
-737.054	446.425	-0.038	0.084
-736.039	6.688	-0.219	-0.165
-735.025	142.664	0.047	-0.063
-734.010	-200.000	0.019	-0.090
-732.996	167.086	-0.062	0.089
-731.981	-144.807	-0.303	0.028
-730.966	-52.497	-0.109	-0.051
-729.952	-200.000	-0.042	-0.335
-728.937	228.839	-0.079	-0.131
-727.923	-36.195	0.173	0.095
-726.908	-103.018	0.313	-0.075
-725.894	632.558	-0.110	0.283
-724.879	-6.375	0.191	0.132
-723.864	-84.059	0.072	-0.023
-722.850	212.462	0.107	0.172
-721.835	-28.853	0.221	0.129
-720.821	-91.912	-0.144	0.041
-719.806	33.172	-0.171	-0.151
-718.791	-146.472	0.253	0.022
-717.777	-75.155	0.478	-0.173
-716.762	103.349	0.287	-0.342
-715.748	325.701	-0.136	-0.264
-714.733	-138.369	-0.390	0.044
-713.718	-200.000	-0.030	0.298
-712.704	81.404	-0.347	-0.380
-711.689	-60.322	0.246	-0.106
-710.675	-138.404	-0.182	-0.020
-709.660	-104.951	-0.208	-0.048
-708.645	221.029	0.167	-0.271
-707.631	-200.000	0.096	-0.450
-706.616	-126.312	0.141	0.021
-705.602	-79.506	-0.369	-0.126
-704.587	28.445	-0.161	0.138
-703.572	-97.465	0.418	-0.110
-702.558	-12.573	-0.285	-0.188
-701.543	-200.000	-0.020	0.101
-700.529	99.442	-0.161	-0.189
-699.514	739.627	0.054	-0.146
-698.499	179.197	-0.229	-0.340
-697.485	-55.257	-0.442	-0.201
-696.470	314.430	-0.087	-0.166
-695.456	-97.053	0.153	0.041
-694.441	-18.845	-0.030	0.019
-693.426	-200.000	0.021	-0.490
-692.412	-143.402	-0.286	-0.028
-691.397	800.000	-0.054	0.224
-690.383	-25.387	-0.076	-0.046
-689.368	-200.000	0.004	0.419
-688.354	-200.000	0.008	-0.152
-687.339	119.111	0.109	0.136
-686.324	401.119	0.091	0.194
-685.310	-134.068	0.243	-0.030
-684.295	117.723	-0.263	0.328
-683.281	-144.636	-0.096	0.009
-682.266	-134.745	0.130	0.016
-681.251	15.912	-0.231	-0.184
-680.237	66.071	-0.181	-0.186
-679.222	135.065	0.179	-0.235
-678.208	-200.000	-0.066	0.306
-677.193	-34.603	-0.257	-0.142
-676.178	154.437	0.130	0.181
-675.164	183.021	0.124	-0.185
-674.149	-200.000	-0.034	0.320
-673.135	-88.717	-0.118	0.036
-672.120	-54.862	-0.174	0.080
-671.105	70.128	-0.187	-0.195
-670.091	98.523	0.031	0.036
-669.076	-200.000	-0.065	-0.331
-668.062	569.548	-0.037	0.091
-667.047	178.688	-0.113	-0.167
-666.032	-70.458	-0.108	0.041
-665.018	-200.000	0.067	-0.401
-664.003	800.000	0.047	-0.138
-662.989	105.810	0.043	-0.052
-661.974	-200.000	0.010	-0.243
-660.959	98.037	-0.110	0.129
-659.945	800.000	-0.055	-0.219
-658.930	-172.357	0.421	-0.014
-657.916	-103.845	0.222	-0.052
-656.901	-40.349	-0.252	-0.133
-655.886	-80.162	-0.340	-0.115
-654.872	-200.000	0.011	-0.272
-653.857	-200.000	-0.001	0.005
-652.843	-129.059	0.266	0.038
-651.828	-127.724	0.125	-0.018
-650.814	-63.843	-0.066	0.027
-649.799	660.806	-0.094	0.244
-648.784	133.454	-0.045	0.059
-647.770	25.998	-0.108	0.091
-646.755	-96.668	0.162	-0.043
-645.741	800.000	-0.073	-0.237
-644.726	-200.000	0.046	-0.278
-643.711	800.000	0.137	0.385
-642.697	292.630	0.141	0.260
-641.682	-137.015	0.155	-0.018
-640.668	340.555	0.109	-0.215
-639.653	124.349	-0.181	-0.230
-638.638	-200.000	-0.022	0.246
-637.624	800.000	-0.127	-0.359
-636.609	22.087	-0.107	-0.088
-635.595	-200.000	-0.020	0.251
-634.580	46.430	0.051	-0.048
-633.565	-116.488	0.236	0.044
-632.551	800.000	0.054	-0.232
-631.536	5.754	0.073	0.055
-630.522	285.924	0.068	-0.124
-629.507	-178.188	-0.106	-0.003
-628.492	-91.799	-0.211	-0.061
-627.478	722.930	0.184	-0.495
-626.463	127.068	0.191	0.245
-625.449	-10.314	-0.197	-0.132
-624.434	312.389	0.078	-0.149
-623.419	103.573	0.214	0.253
-622.405	94.196	-0.193	0.221
-621.390	-200.000	0.004	-0.131
-620.376	-200.000	-0.019	0.205
-619.361	800.000	-0.050	0.140
-618.346	800.000	0.063	-0.222
-617.332	-134.897	-0.169	0.021
-616.317	-25.692	-0.096	0.057
-615.303	-15.265	0.143	0.093
-614.288	-29.572	0.223	0.129
-613.273	-60.368	0.031	0.013
-612.259	-21.320	-0.229	-0.141
-611.244	-135.925	-0.283	0.034
-610.230	-7.350	-0.128	-0.088
-609.215	47.092	0.062	-0.058
-608.201	-200.000	-0.023	-0.267
-607.186	425.521	0.123	0.267
-606.171	-139.217	-0.326	0.035
-605.157	-200.000	-0.022	-0.137
-604.142	243.089	0.120	-0.203
-603.128	-99.641	0.049	0.012
-602.113	196.983	-0.082	-0.126
-601.098	34.128	-0.305	0.269
-600.084	800.000	0.054	-0.192
-599.069	-200.000	-0.029	0.198
-598.055	173.159	-0.199	-0.289
-597.040	800.000	0.058	-0.202
-596.025	-51.530	0.244	-0.115
-595.011	-64.274	-0.086	-0.035
-593.996	22.243	-0.091	-0.075
-592.982	800.000	-0.058	0.165
-591.967	175.214	-0.176	-0.257
-590.952	-200.000	-0.005	0.240
-589.938	800.000	0.083	0.310
-588.923	38.353	0.201	0.181
-587.909	-200.000	0.012	0.405
-586.894	-80.586	-0.134	0.045
-585.879	18.229	-0.073	0.058
-584.865	73.322	-0.218	0.230
-583.850	78.948	-0.066	0.071
-582.836	-111.002	0.232	-0.048
-581.821	-200.000	-0.015	-0.284
-580.806	-200.000	0.019	-0.130
-579.792	118.342	0.125	-0.156
-578.777	313.301	0.088	0.167
-577.763	51.701	-0.118	0.113
-576.748	63.482	0.272	0.275
-575.733	-200.000	-0.005	-0.088
-574.719	-64.478	-0.413	0.169
-573.704	-200.000	0.290	0.001
-572.690	-200.000	-0.013	0.142
-571.675	682.620	0.055	0.145
-570.661	365.357	-0.056	0.114
-569.646	800.000	0.012	0.051
-568.631	213.098	-0.183	0.291
-567.617	-96.001	0.224	0.060
-566.602	53.025	0.152	-0.147
-565.588	-88.109	-0.143	-0.043
-564.573	-110.826	-0.056	-0.012
-563.558	82.986	-0.052	-0.057
-562.544	-81.268	0.210	-0.070
-561.529	-29.795	0.180	-0.103
-560.515	26.524	-0.277	0.234
-559.500	684.564	0.098	0.257
-558.485	800.000	-0.130	-0.492
-557.471	59.970	0.152	0.151
-556.456	51.968	0.115	0.110
-555.442	-63.611	0.145	0.060
-554.427	477.685	0.090	-0.206
-553.412	51.322	-0.114	0.109
-552.398	-18.988	0.058	-0.037
-551.383	800.000	-0.064	-0.186
-550.369	-8.366	0.130	-0.088
-549.354	89.320	0.061	0.068
-548.339	14.473	-0.262	-0.206
-547.325	800.000	0.103	-0.335
-546.310	-74.047	-0.337	0.123
-545.296	-57.356	0.127	0.056
-544.281	13.706	-0.208	-0.163
-543.266	-200.000	-0.027	0.179
-542.252	800.000	0.055	0.205
-541.237	138.536	0.076	-0.100
-540.223	-84.863	-0.182	0.058
-539.208	800.000	-0.094	-0.345
-538.193	-200.000	0.148	-0.000
-537.179	446.636	0.061	0.135
-536.164	-200.000	0.037	0.220
-535.150	116.965	0.182	-0.225
-534.135	15.986	0.186	0.147
-533.121	-71.639	0.216	-0.081
-532.106	8.792	-0.123	-0.093
-531.091	-200.000	-0.022	0.187
-530.077	-121.593	0.100	-0.017
-529.062	12.729	-0.315	-0.245
-528.048	-137.213	0.144	-0.016
-527.033	335.554	0.078	-0.153
-526.018	-96.160	0.149	-0.040
-525.004	-122.041	0.442	0.073
-523.989	46.162	-0.076	-0.070
-522.975	-106.549	-0.221	0.050
-521.960	800.000	0.027	-0.103
-520.945	109.704	-0.169	0.204
-519.931	76.919	0.071	0.076
-518.916	-159.118	0.090	-0.005
-517.902	800.000	0.034	-0.113
-516.887	800.000	-0.076	0.283
-515.872	43.348	-0.065	-0.060
-514.858	-138.310	-0.469	0.052
-513.843	-36.044	0.212	0.115
-512.829	33.306	-0.181	-0.158
-511.814	-48.576	0.047	0.023
-510.799	-200.000	-0.042	-0.253
-509.785	-169.409	0.249	0.009
-508.770	173.677	-0.128	0.186
-507.756	133.815	-0.241	0.314
-506.741	-124.570	-0.211	0.033
-505.726	789.610	-0.072	-0.198
-504.712	131.698	0.045	-0.058
-503.697	-129.298	-0.262	0.037
-502.683	-12.114	-0.095	-0.062
-501.668	-18.761	-0.296	0.186
-500.653	98.213	0.271	0.313
-499.639	478.344	-0.161	-0.366
-498.624	-57.385	0.211	-0.093
-497.610	800.000	0.048	0.202
-496.595	-34.736	0.396	0.218
-495.581	747.861	0.076	-0.207
-494.566	55.929	0.117	0.114
-493.551	-178.510	-0.165	0.004
-492.537	107.001	-0.305	-0.364
-491.522	-87.951	0.257	-0.078
-490.508	15.061	-0.274	0.216
-489.493	-69.894	-0.155	0.060
-488.478	-11.448	0.128	-0.085
-487.464	-59.065	-0.224	0.097
-486.449	-200.000	0.024	-0.169
-485.435	-81.629	-0.351	0.116
-484.420	20.318	0.083	0.068
-483.405	10.922	0.078	0.060
-482.391	800.000	-0.021	-0.068
-481.376	-117.931	-0.285	-0.051
-480.362	-200.000	0.061	0.510
-479.347	-67.053	-0.092	0.036
-478.332	-15.426	-0.109	-0.070
-477.318	657.333	-0.029	-0.074
-476.303	-10.899	-0.185	-0.123
-475.289	73.060	0.098	-0.102
-474.274	124.638	-0.084	0.107
-473.259	-16.156	0.170	0.108
-472.245	34.379	-0.172	-0.151
-471.230	341.844	-0.148	-0.290
-470.216	258.431	0.102	-0.177
-469.201	158.970	-0.059	0.082
-468.186	182.969	0.114	-0.168
-467.172	800.000	0.043	-0.141
-466.157	69.112	-0.059	-0.060
-465.143	26.233	-0.181	0.151
-464.128	-180.648	-0.212	0.004
-463.113	28.110	-0.276	-0.234
-462.099	-32.594	0.297	0.166
-461.084	-75.042	-0.198	0.071
-460.070	-200.000	-0.052	0.234
-459.055	-200.000	0.017	-0.140
-458.040	-50.037	-0.086	0.041
-457.026	-20.399	0.152	0.094
-456.011	-191.194	-0.195	-0.002
-454.997	15.389	-0.144	0.113
-453.982	388.899	-0.079	-0.165
-452.968	-200.000	-0.031	-0.208
-451.953	269.682	-0.136	0.240
-450.938	800.000	0.094	0.295
-449.924	228.515	-0.185	0.302
-448.909	298.833	-0.053	0.099
-447.895	-200.000	0.045	0.222
-446.880	-200.000	0.033	0.186
-445.865	-57.364	0.125	0.055
-444.851	800.000	-0.047	-0.180
-443.836	-49.205	-0.107	-0.051
-442.822	68.337	-0.087	-0.090
-441.807	-88.465	-0.225	0.067
-440.792	-89.813	-0.319	0.094
-439.778	800.000	0.048	-0.182
-438.763	-28.141	-0.182	-0.106
-437.749	-144.330	0.087	-0.008
-436.734	-146.528	-0.102	0.009
-435.719	-122.283	-0.038	-0.006
-434.705	91.231	0.092	0.103
-433.690	191.861	0.116	-0.175
-432.676	156.470	0.310	-0.429
-431.661	-61.147	-0.154	0.065
-430.646	3.324	0.155	-0.113
-429.632	800.000	0.096	0.297
-428.617	-77.614	0.579	-0.201
-427.603	800.000	0.074	-0.277
-426.588	120.571	-0.217	-0.270
-425.573	65.533	0.115	-0.117
-424.559	-140.045	0.229	-0.024
-423.544	181.841	0.199	-0.294
-422.530	-14.257	0.087	-0.056
-421.515	-133.381	0.245	-0.031
-420.500	-142.336	0.090	-0.009
-419.486	-63.544	-0.193	-0.079
-418.471	-14.966	-0.463	-0.297
-417.457	-68.377	0.206	-0.080
-416.442	122.324	-0.154	0.192
-415.428	97.748	0.184	0.211
-414.413	123.565	-0.102	-0.129
-413.398	-52.111	-0.294	-0.137
-412.384	25.475	0.219	0.183
-411.369	-120.973	-0.524	0.088
-410.355	-200.000	0.044	0.246
-409.340	-128.238	0.466	0.067
-408.325	800.000	-0.076	0.229
-407.311	-144.998	-0.201	-0.018
-406.296	142.598	0.131	0.175
-405.282	-90.413	0.180	-0.052
-404.267	30.904	0.136	-0.117
-403.252	177.612	-0.137	-0.199
-402.238	-57.453	0.231	0.101
-401.223	-200.000	-0.004	-0.185
-400.209	497.118	0.043	0.099
-399.194	64.337	-0.252	0.254
-398.179	-200.000	-0.023	-0.127
-397.165	-114.394	0.242	-0.047
-396.150	-82.174	-0.142	0.046
-395.136	-119.747	0.217	0.038
-394.121	29.990	0.200	0.171
-393.106	-89.553	0.245	-0.072
-392.092	-200.000	0.012	-0.558
-391.077	-200.000	0.049	0.215
-390.063	-200.000	0.027	0.218
-389.048	-59.890	0.275	-0.118
-388.033	22.180	-0.096	0.079
-387.019	800.000	-0.024	-0.090
-386.004	-186.487	0.187	-0.003
-384.990	241.854	0.048	-0.080
-383.975	232.433	-0.035	0.058
-382.960	-90.465	0.133	0.039
-381.946	-119.448	0.197	0.034
-380.931	800.000	-0.060	0.201
-379.917	45.434	-0.178	-0.164
-378.902	-200.000	-0.038	0.512
-377.888	800.000	-0.038	-0.113
-376.873	444.390	0.085	-0.187
-375.858	-200.000	0.028	0.444
-374.844	-42.265	-0.076	-0.039
-373.829	-84.419	-0.034	0.011
-372.815	-166.536	-0.343	-0.014
-371.800	429.742	-0.033	0.072
-370.785	237.414	0.162	0.268
-369.771	94.016	0.054	0.061
-368.756	-8.028	-0.193	-0.130
-367.742	800.000	-0.041	-0.123
-366.727	-200.000	-0.070	0.331
-365.712	25.981	-0.161	0.134
-364.698	93.053	0.268	-0.303
-363.683	16.802	0.189	0.149
-362.669	-158.590	-0.266	0.015
-361.654	-44.797	-0.032	-0.016
-360.639	-30.512	-0.280	-0.159
-359.625	-140.175	0.189	0.020
-358.610	-49.046	0.250	0.120
-357.596	-94.135	-0.155	0.042
-356.581	53.531	-0.269	-0.258
-355.566	77.450	0.116	-0.123
-354.552	214.382	-0.061	-0.097
-353.537	-150.520	-0.027	-0.002
-352.523	-114.756	-0.288	0.055
-351.508	163.969	-0.118	-0.167
-350.493	27.945	0.127	-0.107
-349.479	-54.689	0.229	-0.104
-348.464	57.601	0.228	0.223
-347.450	97.502	-0.120	-0.137
-346.435	71.171	-0.170	-0.177
-345.420	233.153	-0.141	-0.232
-344.406	-200.000	-0.019	0.197
-343.391	250.062	0.165	-0.279
-342.377	-200.000	0.005	-0.477
-341.362	90.162	0.152	-0.169
-340.348	-172.931	0.079	-0.002
-339.333	800.000	0.103	0.296
-338.318	169.688	-0.095	-0.135
-337.304	-200.000	-0.083	-0.467
-336.289	-101.001	-0.102	-0.025
-335.275	113.981	0.095	-0.115
-334.260	-200.000	-0.007	0.334
-333.245	-83.407	-0.322	0.103
-332.231	372.455	0.129	-0.263
-331.216	-59.773	-0.272	0.117
-330.202	-159.181	0.091	-0.005
-329.187	-200.000	0.083	0.636
-328.172	-155.153	0.071	0.005
-327.158	-101.080	-0.135	-0.033
-326.143	34.264	0.090	-0.079
-325.129	-119.202	0.346	-0.060
-324.114	-200.000	0.042	0.304
-323.099	-200.000	0.019	0.269
-322.085	-200.000	-0.020	-0.103
-321.070	-200.000	-0.024	0.111
-320.056	145.664	-0.276	-0.370
-319.041	800.000	0.189	0.532
-318.026	-200.000	-0.003	0.088
-317.012	138.283	-0.163	0.213
-315.997	-42.534	0.213	0.109
-314.983	800.000	-0.068	-0.226
-313.968	-3.702	0.010	-0.007
-312.953	800.000	0.058	-0.188
-311.939	-200.000	0.001	0.172
-310.924	-140.004	0.148	-0.016
-309.910	-65.781	0.238	0.095
-308.895	262.353	0.155	0.268
-307.880	-163.228	-0.073	-0.003
-306.866	17.273	0.177	0.140
-305.851	-200.000	-0.002	0.442
-304.837	800.000	0.037	0.129
-303.822	64.045	0.225	0.226
-302.807	26.997	-0.102	0.086
-301.793	-54.056	0.044	0.020
-300.778	125.175	-0.192	0.241
-299.764	315.296	0.164	0.308
-298.749	405.642	-0.035	-0.074
-297.735	-156.749	0.314	0.019
-296.720	2.916	-0.207	-0.150
-295.705	-200.000	0.022	-0.115
-294.691	167.088	0.126	0.178
-293.676	119.991	-0.104	0.128
-292.662	-163.741	0.209	0.010
-291.647	-200.000	-0.033	-0.184
-290.632	1.881	-0.247	-0.178
-289.618	155.632	-0.157	0.216
-288.603	800.000	0.020	0.080
-287.589	16.948	0.215	0.170
-286.574	88.042	0.165	0.182
-285.559	-40.136	-0.116	-0.060
-284.545	428.242	0.085	0.182
-283.530	-200.000	-0.016	0.121
-282.516	-200.000	0.012	0.184
-281.501	-114.497	-0.316	0.061
-280.486	-30.947	0.169	0.095
-279.472	-55.568	-0.289	0.129
-278.457	29.487	-0.165	-0.140
-277.443	267.738	0.066	-0.115
-276.428	-200.000	0.053	-0.569
-275.413	38.760	-0.157	0.139
-274.399	-200.000	0.004	0.200
-273.384	-94.404	-0.138	-0.037
-272.370	59.220	0.198	-0.194
-271.355	97.950	0.215	-0.247
-270.340	176.266	-0.248	-0.360
-269.326	-200.000	0.011	-0.080
-268.311	107.634	-0.143	-0.170
-267.297	-200.000	-0.047	0.301
-266.282	-23.905	-0.164	0.098
-265.267	-54.390	0.171	0.077
-264.253	725.675	0.034	-0.090
-263.238	-200.000	-0.039	0.270
-262.224	-57.300	-0.158	0.069
-261.209	-112.639	-0.240	-0.048
-260.195	453.408	-0.103	-0.227
-259.180	84.730	0.157	0.172
-258.165	-200.000	0.038	-0.171
-257.151	-200.000	-0.000	0.009
-256.136	237.034	0.098	-0.161
-255.122	403.193	-0.120	-0.251
-254.107	-103.019	0.236	0.056
-253.092	-86.111	-0.500	-0.154
-252.078	-56.030	0.202	0.090
-251.063	74.690	0.157	-0.165
-250.049	800.000	0.118	-0.340
-249.034	40.510	0.101	0.091
-248.019	-12.602	0.139	-0.090
-247.005	800.000	-0.137	0.416
-245.990	47.826	-0.239	0.222
-244.976	-200.000	0.017	-0.201
-243.961	800.000	-0.130	-0.376
-242.946	247.278	0.194	-0.327
-241.932	-148.914	-0.284	-0.023
-240.917	27.550	0.156	0.130
-239.903	-200.000	0.047	-0.226
-238.888	-97.602	0.264	-0.068
-237.873	-28.428	-0.290	0.166
-236.859	-155.451	-0.200	-0.013
-235.844	800.000	0.021	-0.084
-234.830	-109.710	0.240	-0.050
-233.815	-170.977	-0.403	-0.014
-232.800	-21.873	0.399	-0.241
-231.786	-188.897	-0.196	0.002
-230.771	468.952	-0.224	0.500
-229.757	304.501	0.078	-0.144
-228.742	-96.020	-0.082	-0.022
-227.727	-82.145	0.169	0.055
-226.713	-9.374	-0.053	0.035
-225.698	43.224	-0.072	0.066
-224.684	-119.439	0.388	-0.067
-223.669	6.109	-0.071	-0.053
-222.655	-25.525	0.067	0.039
-221.640	378.038	-0.069	-0.141
-220.625	-92.247	-0.090	0.025
-219.611	800.000	0.047	0.187
-218.596	-200.000	-0.002	0.028
-217.582	95.258	-0.128	-0.145
-216.567	-50.935	-0.404	-0.189
-215.552	-200.000	0.012	0.058
-214.538	57.207	-0.056	-0.054
-213.523	474.291	0.059	-0.133
-212.509	-192.498	0.122	-0.001
-211.494	65.228	-0.041	-0.041
-210.479	-51.161	-0.260	-0.121
-209.465	-159.878	-0.185	-0.010
-208.450	-200.000	0.016	-0.206
-207.436	-0.744	-0.250	0.176
-206.421	-125.780	0.265	0.040
-205.406	-127.328	0.312	0.045
-204.392	-8.769	0.118	-0.079
-203.377	-36.354	0.137	-0.073
-202.363	686.741	0.104	0.270
-201.348	-136.991	0.240	0.027
-200.333	-104.031	0.100	-0.023
-199.319	-106.114	-0.140	-0.031
-198.304	95.601	-0.100	0.114
-197.290	109.149	0.034	-0.040
-196.275	-106.541	-0.097	-0.021
-195.260	-200.000	0.011	0.051
-194.246	369.709	-0.071	0.144
-193.231	-90.481	0.323	-0.093
-192.217	84.117	-0.194	0.210
-191.202	-138.692	0.325	0.035
-190.187	-60.841	-0.240	0.101
-189.173	-200.000	0.145	0.690
-188.158	-124.840	0.129	0.020
-187.144	62.427	0.242	-0.240
-186.129	56.857	-0.157	0.152
-185.114	-81.748	0.269	-0.088
-184.100	97.326	-0.106	0.121
-183.085	49.787	0.035	-0.033
-182.071	198.110	-0.150	-0.228
-181.056	-144.598	0.371	-0.034
-180.042	-88.586	0.209	0.062
-179.027	-133.543	0.465	-0.058
-178.012	283.537	-0.210	0.375
-176.998	172.932	-0.080	-0.115
-175.983	36.952	-0.015	-0.013
-174.969	292.994	0.147	0.266
-173.954	-66.270	0.220	-0.087
-172.939	-154.747	-0.065	0.004
-171.925	-142.649	-0.186	-0.018
-170.910	800.000	0.103	0.296
-169.896	155.573	-0.130	-0.178
-168.881	-114.436	0.079	0.015
-167.866	-59.992	-0.103	-0.044
-166.852	-200.000	0.005	-0.159
-165.837	800.000	-0.005	-0.015
-164.823	243.213	-0.049	0.081
-163.808	222.843	0.082	-0.131
-162.793	-105.129	-0.152	-0.035
-161.779	800.000	0.131	-0.384
-160.764	-61.273	0.392	-0.164
-159.750	-70.245	0.100	-0.038
-158.735	800.000	-0.101	-0.423
-157.720	85.104	-0.102	0.111
-156.706	216.503	0.166	-0.262
-155.691	-131.462	0.259	0.034
-154.677	-200.000	-0.038	-0.216
-153.662	-200.000	0.021	-0.285
-152.647	-89.093	-0.190	0.056
-151.633	106.990	0.096	-0.113
-150.618	198.260	-0.147	0.223
-149.604	-7.552	0.190	0.128
-148.589	-200.000	-0.005	0.057
-147.574	-200.000	-0.001	0.111
-146.560	250.237	-0.147	-0.247
-145.545	43.608	0.092	0.083
-144.531	-200.000	0.014	0.171
-143.516	-200.000	0.023	-0.156
-142.502	87.538	-0.035	0.039
-141.487	138.054	0.129	-0.168
-140.472	-170.943	-0.083	0.003
-139.458	50.425	0.028	0.026
-138.443	7.051	-0.215	0.159
-137.429	-49.330	-0.076	-0.036
-136.414	83.003	0.229	-0.247
-135.399	-200.000	-0.025	0.132
-134.385	-108.350	-0.188	-0.040
-133.370	800.000	-0.021	0.081
-132.356	-30.865	0.248	-0.139
-131.341	-137.842	-0.111	0.012
-130.326	-200.000	0.021	0.595
-129.312	263.939	0.147	-0.254
-128.297	112.545	0.164	0.197
-127.283	-123.956	-0.212	0.033
-126.268	-131.025	-0.092	-0.012
-125.253	-138.143	0.344	0.038
-124.239	800.000	0.079	0.239
-123.224	-20.686	-0.152	-0.092
-122.210	-132.965	0.311	-0.039
-121.195	-129.749	-0.141	0.019
