DTS Sentinel unit serial number:	SN413079Multiplexer serial number:	ORYXHardware model number:	OX4-SRSoftware version number:	ORYX F/W v4.00 Oryx Data Collector v3.7.2.0data status	okinstallation	princeton_trtdifferential loss correction	single-endedforward channel	channel 4reverse channel	N/Adate	2019/09/18time	13:37:35forward acquisition time	60.00reverse acquisition time	0.00gamma	496.2192k internal	0.2301k external	0.2301temperature offset calibration	0.9995default loss term (dB/km)	0.3790temperature slope calibration	1.0000multiplexer offset coefficient	1.0000multiplexer slope coefficient	1.0000fibre end	0.00T internal ref (°C)	34.37T ext. ref 1 (°C)	0.63T ext. ref 2 (°C)	30.72length (m)	temperature (°C)	Stokes	anti-Stokes-747.200	-152.745	-0.220	0.016
-746.185	81.179	-0.221	0.244
-745.171	29.808	0.111	-0.097
-744.156	-200.000	0.024	-0.230
-743.142	23.045	-0.077	-0.065
-742.127	-200.000	-0.047	0.252
-741.112	-16.237	0.112	0.073
-740.098	-87.022	-0.325	0.101
-739.083	-93.402	-0.458	-0.129
-738.069	236.928	0.162	0.274
-737.054	-200.000	0.028	-0.444
-736.039	42.700	-0.190	0.176
-735.025	-200.000	0.044	-0.234
-734.010	120.106	0.174	-0.220
-732.996	31.752	-0.179	-0.157
-731.981	320.036	0.030	-0.058
-730.966	549.347	-0.039	-0.094
-729.952	49.444	-0.250	-0.239
-728.937	118.096	-0.114	-0.143
-727.923	-200.000	-0.035	0.201
-726.908	-200.000	0.005	-0.187
-725.894	131.119	0.290	-0.380
-724.879	-73.983	-0.138	0.051
-723.864	-200.000	0.013	-0.079
-722.850	353.447	-0.133	0.270
-721.835	74.128	-0.133	0.142
-720.821	31.083	-0.076	0.067
-719.806	18.107	0.258	-0.210
-718.791	-43.126	-0.177	-0.091
-717.777	119.063	-0.162	-0.204
-716.762	-200.000	-0.038	0.253
-715.748	-200.000	-0.013	-0.228
-714.733	61.114	-0.078	-0.079
-713.718	-71.150	0.154	0.059
-712.704	-200.000	-0.003	-0.032
-711.689	-35.567	-0.167	0.092
-710.675	-91.767	-0.108	0.031
-709.660	-94.209	0.083	0.023
-708.645	441.957	-0.129	0.289
-707.631	-200.000	-0.001	-0.024
-706.616	800.000	-0.065	-0.232
-705.602	-200.000	0.018	-0.310
-704.587	310.986	-0.110	0.209
-703.572	800.000	-0.033	0.103
-702.558	87.053	0.051	-0.058
-701.543	-81.912	-0.246	0.082
-700.529	-52.997	0.078	-0.037
-699.514	193.489	-0.105	-0.161
-698.499	44.779	0.232	0.217
-697.485	-81.837	0.413	-0.138
-696.470	9.505	0.229	0.177
-695.456	-200.000	0.079	0.482
-694.441	143.335	0.129	-0.175
-693.426	-144.817	0.298	0.028
-692.412	-34.332	-0.120	-0.067
-691.397	172.783	0.275	-0.403
-690.383	63.147	0.087	0.089
-689.368	-200.000	-0.031	0.165
-688.354	-26.951	-0.208	0.123
-687.339	-200.000	0.037	0.256
-686.324	-125.545	0.161	-0.025
-685.310	-200.000	-0.025	-0.183
-684.295	-35.808	-0.325	0.179
-683.281	-100.128	-0.201	0.051
-682.266	-200.000	0.039	-0.190
-681.251	800.000	0.056	-0.197
-680.237	-200.000	0.007	0.153
-679.222	-200.000	-0.018	0.317
-678.208	-151.585	-0.084	0.006
-677.193	-60.750	0.051	-0.022
-676.178	-200.000	0.052	0.302
-675.164	15.194	-0.123	0.098
-674.149	-16.734	0.104	-0.067
-673.135	-3.065	-0.260	0.185
-672.120	-56.934	-0.064	0.029
-671.105	376.857	0.044	-0.092
-670.091	800.000	-0.110	-0.364
-669.076	176.344	-0.107	0.158
-668.062	800.000	0.018	0.072
-667.047	99.717	0.082	-0.097
-666.032	800.000	0.046	0.143
-665.018	5.995	0.020	0.015
-664.003	-84.591	0.056	0.018
-662.989	48.258	0.210	0.199
-661.974	8.660	0.190	-0.145
-660.959	800.000	-0.025	0.083
-659.945	-200.000	-0.056	-0.268
-658.930	-134.888	0.200	0.025
-657.916	-191.295	-0.395	0.004
-656.901	-144.534	0.147	-0.014
-655.886	-74.980	-0.096	-0.035
-654.872	-114.647	-0.192	0.037
-653.857	-15.431	0.344	0.223
-652.843	-57.153	-0.182	0.081
-651.828	78.394	0.184	-0.199
-650.814	-38.515	-0.340	-0.183
-649.799	601.017	0.125	-0.314
-648.784	-200.000	0.025	-0.276
-647.770	-200.000	-0.013	0.124
-646.755	-93.731	-0.115	0.032
-645.741	-200.000	0.012	-0.166
-644.726	158.387	0.172	-0.242
-643.711	-101.242	0.173	-0.043
-642.697	-151.807	-0.378	-0.028
-641.682	-31.274	0.035	0.020
-640.668	-76.699	0.030	0.011
-639.653	-120.412	0.263	-0.045
-638.638	18.900	-0.329	-0.268
-637.624	329.150	-0.149	0.290
-636.609	258.726	-0.239	0.419
-635.595	68.090	0.180	0.187
-634.580	400.444	0.166	-0.354
-633.565	232.402	0.052	0.087
-632.551	-200.000	0.141	0.000
-631.536	9.320	0.119	0.091
-630.522	-169.304	-0.195	0.007
-629.507	-52.342	-0.117	0.055
-628.492	800.000	0.083	-0.319
-627.478	-55.625	-0.027	-0.012
-626.463	210.093	-0.093	0.148
-625.449	-57.059	-0.345	-0.154
-624.434	800.000	-0.038	0.147
-623.419	130.435	-0.034	0.044
-622.405	-53.567	-0.021	0.010
-621.390	111.054	-0.136	-0.166
-620.376	-200.000	0.031	-0.197
-619.361	113.151	-0.104	0.128
-618.346	-200.000	0.001	-0.379
-617.332	800.000	0.022	0.073
-616.317	-38.632	0.263	0.141
-615.303	-43.957	-0.316	-0.161
-614.288	87.424	0.095	0.107
-613.273	350.366	0.078	-0.156
-612.259	-67.723	0.170	-0.068
-611.244	3.905	0.261	0.194
-610.230	46.609	-0.365	-0.344
-609.215	-96.332	0.410	0.110
-608.201	800.000	-0.037	-0.137
-607.186	-200.000	-0.009	0.107
-606.171	789.922	-0.091	0.252
-605.157	-154.256	0.198	-0.014
-604.142	288.321	-0.121	0.223
-603.128	-200.000	0.015	-0.209
-602.113	107.901	-0.150	-0.181
-601.098	431.136	-0.065	-0.144
-600.084	-112.493	-0.228	-0.046
-599.069	-31.377	0.405	0.231
-598.055	-134.986	-0.251	0.031
-597.040	-1.694	-0.174	0.124
-596.025	-200.000	-0.005	0.027
-595.011	800.000	0.103	-0.372
-593.996	800.000	0.121	-0.396
-592.982	-120.227	-0.232	-0.040
-591.967	-200.000	0.311	-0.001
-590.952	-144.615	-0.188	0.018
-589.938	800.000	0.027	-0.093
-588.923	-106.724	-0.218	-0.049
-587.909	-151.245	-0.354	-0.027
-586.894	341.542	-0.051	-0.101
-585.879	-106.208	0.069	0.016
-584.865	-200.000	-0.074	0.404
-583.850	-200.000	-0.007	0.055
-582.836	646.033	0.063	0.164
-581.821	-118.470	0.318	-0.057
-580.806	-117.439	-0.065	-0.012
-579.792	136.495	-0.143	0.190
-578.777	-53.212	-0.312	-0.145
-577.763	282.426	-0.008	-0.014
-576.748	-58.282	0.080	0.035
-575.733	676.712	-0.114	-0.301
-574.719	-200.000	-0.016	-0.088
-573.704	800.000	0.044	-0.127
-572.690	544.347	-0.218	-0.527
-571.675	800.000	-0.079	-0.337
-570.661	281.294	0.052	0.095
-569.646	-200.000	-0.003	-0.175
-568.631	237.411	0.071	0.119
-567.617	-168.246	-0.330	0.013
-566.602	155.299	0.323	-0.450
-565.588	-39.552	-0.130	0.069
-564.573	-11.147	-0.038	0.025
-563.558	-148.798	0.181	0.015
-562.544	17.768	0.056	0.045
-561.529	800.000	0.042	0.173
-560.515	-92.430	0.198	0.056
-559.500	-200.000	0.060	-0.361
-558.485	-195.208	-0.144	-0.001
-557.471	360.825	0.097	0.198
-556.456	-200.000	-0.000	0.378
-555.442	140.983	0.067	-0.089
-554.427	535.645	-0.040	0.096
-553.412	-42.441	0.318	0.164
-552.398	-200.000	-0.006	-0.114
-551.383	-173.310	0.236	-0.007
-550.369	318.828	-0.118	-0.226
-549.354	-127.926	-0.269	-0.039
-548.339	-200.000	0.001	-0.202
-547.325	93.938	-0.149	0.171
-546.310	320.526	-0.063	0.122
-545.296	188.934	0.186	-0.281
-544.281	-200.000	-0.052	-0.240
-543.266	203.657	-0.094	-0.147
-542.252	705.382	-0.079	-0.210
-541.237	583.341	0.086	0.213
-540.223	-200.000	-0.009	-0.187
-539.208	800.000	0.048	-0.211
-538.193	-200.000	0.060	-0.382
-537.179	-150.074	0.032	0.003
-536.164	-110.930	0.334	0.070
-535.150	-200.000	0.017	0.275
-534.135	-200.000	-0.048	0.228
-533.121	488.720	-0.046	0.106
-532.106	332.323	-0.045	0.088
-531.091	-98.309	-0.413	-0.107
-530.077	-200.000	0.006	-0.490
-529.062	-120.284	-0.243	0.042
-528.048	-76.889	-0.208	0.073
-527.033	-20.685	0.300	0.186
-526.018	738.306	-0.041	0.110
-525.004	263.126	-0.198	0.347
-523.989	-43.353	0.275	0.141
-522.975	-200.000	-0.014	0.399
-521.960	-200.000	0.050	0.225
-520.945	32.740	-0.118	0.103
-519.931	-73.836	0.169	-0.062
-518.916	800.000	-0.017	0.067
-517.902	-71.992	-0.360	0.135
-516.887	215.198	0.084	0.135
-515.872	800.000	0.069	0.211
-514.858	321.675	0.081	-0.155
-513.843	486.292	-0.029	-0.068
-512.829	138.242	-0.198	-0.263
-511.814	-57.991	-0.019	0.009
-510.799	193.795	0.065	-0.100
-509.785	411.008	0.093	-0.199
-508.770	81.111	-0.086	-0.094
-507.756	-105.777	0.128	0.029
-506.741	144.856	-0.139	-0.188
-505.726	37.880	-0.057	-0.051
-504.712	800.000	0.129	-0.369
-503.697	-119.739	-0.147	0.026
-502.683	-77.107	0.137	0.048
-501.668	-66.031	0.158	0.064
-500.653	212.111	0.138	-0.220
-499.639	541.587	-0.052	0.125
-498.624	800.000	-0.008	-0.029
-497.610	-42.689	-0.231	0.119
-496.595	-200.000	-0.017	0.165
-495.581	143.861	-0.109	0.147
-494.566	-40.508	0.190	0.099
-493.551	771.761	-0.113	0.312
-492.537	138.418	0.075	0.100
-491.522	-4.616	0.283	0.197
-490.508	-188.298	0.324	-0.004
-489.493	73.538	-0.216	0.229
-488.478	-16.606	-0.170	0.108
-487.464	-102.935	-0.293	-0.070
-486.449	496.326	0.073	0.169
-485.435	800.000	0.142	-0.402
-484.420	429.222	-0.225	-0.491
-483.405	390.007	0.090	-0.188
-482.391	-76.558	0.154	-0.054
-481.376	-25.175	0.229	0.137
-480.362	71.353	-0.239	0.251
-479.347	-21.662	0.173	-0.106
-478.332	713.664	0.029	0.079
-477.318	-108.502	0.274	-0.060
-476.303	667.316	0.072	0.188
-475.289	-42.784	-0.230	0.118
-474.274	-200.000	-0.024	0.201
-473.259	-81.870	-0.349	-0.115
-472.245	59.745	-0.270	-0.269
-471.230	174.281	-0.188	-0.274
-470.216	56.170	0.133	0.130
-469.201	-71.394	0.110	-0.042
-468.186	138.638	-0.059	0.079
-467.172	-40.119	-0.323	0.170
-466.157	-13.465	0.117	-0.076
-465.143	-62.774	0.145	-0.060
-464.128	-200.000	0.020	-0.108
-463.113	800.000	-0.053	-0.170
-462.099	800.000	-0.111	0.476
-461.084	-60.272	0.189	0.081
-460.070	-200.000	-0.003	0.215
-459.055	-200.000	0.011	-0.310
-458.040	91.812	-0.181	-0.205
-457.026	800.000	0.105	0.413
-456.011	-111.100	-0.095	0.020
-454.997	28.054	-0.203	0.173
-453.982	-122.128	0.051	0.008
-452.968	14.390	-0.330	0.260
-451.953	800.000	-0.019	-0.070
-450.938	-22.037	-0.079	0.048
-449.924	138.149	0.123	-0.163
-448.909	1.210	-0.306	-0.221
-447.895	-200.000	-0.026	0.311
-446.880	-155.700	-0.358	0.023
-445.865	-199.186	0.328	-0.002
-444.851	295.043	-0.121	0.223
-443.836	-42.122	0.294	0.151
-442.822	-200.000	-0.017	0.208
-441.807	34.381	0.277	0.244
-440.792	-200.000	-0.003	0.425
-439.778	-88.775	0.016	0.005
-438.763	-139.169	-0.213	-0.023
-437.749	106.526	-0.136	0.162
-436.734	-52.420	0.245	0.114
-435.719	390.159	0.011	0.024
-434.705	76.120	0.136	0.145
-433.690	-94.175	0.113	-0.031
-432.676	-24.445	-0.185	0.111
-431.661	450.224	-0.055	0.122
-430.646	-41.060	0.099	0.051
-429.632	7.025	-0.080	0.060
-428.617	800.000	0.163	0.576
-427.603	242.172	0.189	0.318
-426.588	-87.337	-0.326	-0.099
-425.573	206.995	-0.025	-0.040
-424.559	-170.843	-0.230	0.008
-423.544	-200.000	0.036	0.297
-422.530	-10.241	-0.056	0.037
-421.515	225.560	0.122	0.199
-420.500	-63.080	-0.240	-0.100
-419.486	51.732	-0.235	-0.225
-418.471	-97.785	0.323	0.084
-417.457	159.496	-0.261	-0.365
-416.442	34.644	-0.090	-0.079
-415.428	800.000	-0.049	-0.179
-414.413	-173.508	-0.071	0.002
-413.398	800.000	0.084	0.311
-412.384	145.459	0.113	0.152
-411.369	-25.801	0.112	0.066
-410.355	-26.344	0.250	-0.148
-409.340	57.573	-0.206	0.202
-408.325	291.346	-0.072	0.132
-407.311	800.000	0.037	-0.159
-406.296	-164.147	-0.075	-0.003
-405.282	18.421	0.112	0.090
-404.267	-200.000	-0.021	0.237
-403.252	-200.000	-0.004	-0.105
-402.238	-200.000	0.016	-0.323
-401.223	800.000	-0.079	-0.258
-400.209	-67.638	0.157	-0.062
-399.194	33.249	-0.262	0.229
-398.179	-63.949	0.193	0.079
-397.165	-200.000	-0.071	0.333
-396.150	87.370	-0.150	-0.167
-395.136	59.837	0.283	-0.281
-394.121	124.912	0.165	-0.209
-393.106	134.550	0.055	-0.071
-392.092	151.851	-0.201	-0.276
-391.077	40.714	-0.213	-0.193
-390.063	51.962	0.230	-0.220
-389.048	-77.640	0.245	-0.085
-388.033	67.858	-0.027	0.027
-387.019	-156.427	0.508	-0.032
-386.004	682.094	0.036	-0.094
-384.990	168.907	-0.136	-0.195
-383.975	800.000	0.086	-0.307
-382.960	-3.832	0.112	-0.078
-381.946	47.061	-0.242	0.226
-380.931	800.000	0.002	-0.007
-379.917	1.084	-0.427	0.308
-378.902	-200.000	0.030	0.221
-377.888	348.361	-0.085	0.169
-376.873	-32.374	-0.228	-0.128
-375.858	-200.000	-0.005	-0.159
-374.844	-81.487	0.253	-0.084
-373.829	-22.385	-0.133	-0.081
-372.815	70.303	-0.084	-0.087
-371.800	-38.505	0.195	0.104
-370.785	231.822	-0.068	0.113
-369.771	151.488	0.307	-0.420
-368.756	-94.237	-0.226	0.062
-367.742	-112.048	0.127	-0.026
-366.727	-12.940	-0.148	-0.097
-365.712	82.633	-0.195	-0.213
-364.698	24.402	-0.141	0.117
-363.683	27.218	-0.102	-0.086
-362.669	190.964	-0.148	0.224
-361.654	-140.578	-0.125	0.013
-360.639	-200.000	-0.044	0.323
-359.625	-200.000	0.005	0.347
-358.610	229.072	0.052	0.085
-357.596	12.893	-0.352	-0.273
-356.581	-65.842	-0.395	0.158
-355.566	-21.701	0.292	0.178
-354.552	19.831	0.177	-0.143
-353.537	-11.471	0.216	-0.143
-352.523	-200.000	0.013	-0.065
-351.508	-170.441	0.429	-0.015
-350.493	-159.154	0.176	0.010
-349.479	689.512	0.047	-0.123
-348.464	800.000	-0.084	-0.253
-347.450	-112.011	0.394	0.080
-346.435	27.252	0.100	-0.084
-345.420	318.083	-0.090	-0.171
-344.406	-4.326	0.162	-0.112
-343.391	207.826	-0.157	-0.246
-342.377	163.267	0.151	0.213
-341.362	159.058	-0.156	0.217
-340.348	26.073	-0.252	-0.211
-339.333	-200.000	-0.054	0.341
-338.318	-189.496	-0.497	0.006
-337.304	99.251	-0.092	0.107
-336.289	800.000	-0.051	0.166
-335.275	-200.000	-0.037	0.232
-334.260	800.000	0.125	-0.468
-333.245	-117.245	-0.101	0.018
-332.231	-138.551	0.295	0.033
-331.216	-5.065	0.140	0.097
-330.202	273.416	-0.116	0.206
-329.187	-166.154	-0.263	-0.011
-328.172	-53.973	-0.127	0.058
-327.158	-54.050	0.281	-0.128
-326.143	409.264	0.187	0.397
-325.129	-200.000	0.013	0.255
-324.114	-96.295	0.135	0.036
-323.099	-200.000	-0.005	-0.313
-322.085	-200.000	0.006	0.027
-321.070	-200.000	-0.038	0.259
-320.056	134.116	-0.049	0.064
-319.041	-148.907	0.309	-0.025
-318.026	230.350	-0.128	-0.209
-317.012	-70.770	-0.237	-0.090
-315.997	-39.883	0.173	0.091
-314.983	-12.327	0.215	-0.141
-313.968	-200.000	-0.024	0.128
-312.953	471.799	-0.109	0.246
-311.939	-47.716	0.167	0.081
-310.924	310.179	0.089	-0.167
-309.910	-54.500	0.194	0.088
-308.895	800.000	0.048	-0.148
-307.880	800.000	-0.048	-0.207
-306.866	197.625	-0.052	0.080
-305.851	-50.186	-0.309	-0.147
-304.837	-200.000	-0.046	-0.231
-303.822	-200.000	-0.028	-0.145
-302.807	-6.937	0.081	0.055
-301.793	143.993	-0.108	0.144
-300.778	-0.256	0.182	-0.130
-299.764	800.000	-0.057	-0.182
-298.749	-147.716	0.289	0.024
-297.735	-69.305	0.105	-0.040
-296.720	-200.000	0.036	0.168
-295.705	712.607	-0.041	0.109
-294.691	349.815	-0.123	0.244
-293.676	-200.000	0.116	-0.551
-292.662	-200.000	-0.017	0.089
-291.647	24.227	-0.108	0.090
-290.632	26.753	-0.169	0.141
-289.618	-87.368	-0.329	0.100
-288.603	-135.330	0.214	0.026
-287.589	-60.256	0.091	-0.039
-286.574	132.980	-0.209	0.270
-285.559	-71.062	0.354	0.133
-284.545	-197.569	-0.274	-0.002
-283.530	82.068	-0.031	-0.033
-282.516	199.896	-0.094	0.144
-281.501	43.039	0.107	-0.098
-280.486	800.000	-0.086	-0.317
-279.472	211.815	0.100	-0.157
-278.457	-49.282	-0.231	0.110
-277.443	39.692	-0.208	0.187
-276.428	-200.000	-0.017	0.091
-275.413	-138.164	0.419	-0.047
-274.399	3.780	-0.236	-0.172
-273.384	34.213	0.098	-0.085
-272.370	102.307	0.224	0.261
-271.355	-200.000	-0.081	0.374
-270.340	-200.000	0.026	-0.163
-269.326	-46.660	0.087	0.043
-268.311	800.000	0.068	0.198
-267.297	269.777	-0.122	0.214
-266.282	-30.282	-0.407	-0.231
-265.267	-180.536	-0.439	0.009
-264.253	-20.877	0.205	0.126
-263.238	-200.000	0.023	0.110
-262.224	-34.906	-0.157	-0.086
-261.209	800.000	-0.080	0.294
-260.195	193.406	0.097	0.147
-259.180	655.354	0.077	-0.197
-258.165	-121.636	0.177	0.029
-257.151	179.506	0.072	0.106
-256.136	-122.016	0.064	-0.010
-255.122	4.985	0.070	0.052
-254.107	145.905	-0.187	0.250
-253.092	100.685	-0.232	-0.269
-252.078	493.915	-0.150	-0.344
-251.063	-105.097	0.275	-0.063
-250.049	1.106	0.263	0.189
-249.034	-175.720	0.413	-0.011
-248.019	800.000	-0.051	0.197
-247.005	-200.000	0.031	-0.165
-245.990	800.000	0.087	-0.254
-244.976	-52.753	0.253	-0.116
-243.961	-13.651	0.094	0.061
-242.946	130.757	0.203	0.260
-241.932	800.000	0.110	0.337
-240.917	244.588	0.052	-0.087
-239.903	482.841	0.052	-0.117
-238.888	42.522	-0.061	0.055
-237.873	-51.721	-0.179	-0.083
-236.859	417.846	0.066	0.140
-235.844	52.201	0.200	0.191
-234.830	55.142	0.098	0.094
-233.815	-200.000	0.031	-0.265
-232.800	-117.019	-0.274	0.050
-231.786	800.000	-0.041	0.159
-230.771	-18.689	0.127	-0.079
-229.757	49.437	0.284	0.267
-228.742	-200.000	-0.001	-0.078
-227.727	-96.368	-0.527	0.139
-226.713	-35.282	0.197	0.107
-225.698	-70.268	-0.148	0.056
-224.684	397.676	0.103	-0.215
-223.669	-200.000	-0.024	-0.114
-222.655	141.374	0.152	-0.201
-221.640	116.737	0.221	-0.271
-220.625	800.000	0.088	-0.380
-219.611	800.000	-0.053	-0.160
-218.596	-42.463	-0.109	-0.055
-217.582	140.184	0.073	0.096
-216.567	-72.718	0.230	0.084
-215.552	-200.000	0.036	-0.306
-214.538	-105.558	-0.405	-0.092
-213.523	27.133	0.108	0.090
-212.509	309.119	-0.057	-0.107
-211.494	21.976	0.194	-0.158
-210.479	3.832	0.185	-0.135
-209.465	-149.558	0.219	0.017
-208.450	-200.000	-0.005	0.052
-207.436	530.260	0.075	0.178
-206.421	-41.139	-0.163	-0.084
-205.406	800.000	0.112	-0.381
-204.392	-60.940	0.352	-0.148
-203.377	438.552	-0.071	-0.155
-202.363	-200.000	0.013	0.235
-201.348	-162.870	0.297	-0.014
-200.333	97.484	-0.126	0.144
-199.319	39.097	0.135	0.120
-198.304	-7.429	0.483	0.326
-197.290	792.978	0.034	-0.094
-196.275	-134.354	0.332	-0.041
-195.260	-3.192	-0.098	0.068
-194.246	800.000	-0.131	-0.434
-193.231	-74.816	0.560	-0.201
-192.217	29.954	0.063	0.054
-191.202	81.237	0.096	-0.103
-190.187	-170.807	-0.246	-0.008
-189.173	274.698	-0.191	-0.338
-188.158	45.379	-0.157	-0.145
-187.144	-19.118	0.445	-0.276
-186.129	-200.000	-0.039	0.247
-185.114	259.946	-0.077	0.133
-184.100	695.976	0.070	-0.183
-183.085	-20.909	-0.422	-0.258
-182.071	-31.124	0.152	-0.086
-181.056	-200.000	-0.033	-0.179
-180.042	186.181	-0.136	0.202
-179.027	-67.728	-0.091	0.036
-178.012	-174.907	-0.138	0.004
-176.998	-60.199	0.172	-0.073
-175.983	29.305	-0.117	-0.099
-174.969	-200.000	-0.073	-0.407
-173.954	-200.000	0.006	0.269
-172.939	-42.874	-0.254	0.129
-171.925	323.976	0.136	0.259
-170.910	-43.593	0.229	0.115
-169.896	-52.783	-0.191	-0.088
-168.881	213.710	0.087	-0.136
-167.866	335.807	0.079	-0.152
-166.852	-49.581	-0.027	0.013
-165.837	-113.876	-0.305	-0.059
-164.823	800.000	0.045	0.169
-163.808	59.686	-0.134	0.132
-162.793	800.000	0.132	0.434
-161.779	290.224	-0.231	0.418
-160.764	-147.247	-0.157	0.013
-159.750	352.155	0.037	-0.073
-158.735	374.888	-0.125	-0.254
-157.720	-25.267	0.160	-0.094
-156.706	-200.000	0.007	-0.051
-155.691	1.187	0.105	0.075
-154.677	800.000	0.088	0.285
-153.662	6.418	-0.302	0.224
-152.647	3.566	0.147	0.107
-151.633	4.690	0.188	0.138
-150.618	56.736	0.209	0.203
-149.604	46.232	-0.060	-0.056
-148.589	-85.891	0.185	0.057
-147.574	-123.349	-0.271	0.043
-146.560	-102.333	0.103	0.025
-145.545	263.138	-0.198	-0.342
-144.531	-82.184	-0.337	0.109
-143.516	73.341	0.146	-0.152
-142.502	659.227	0.097	-0.247
-141.487	-165.980	-0.192	0.008
-140.472	-200.000	0.012	-0.122
-139.458	-89.253	-0.355	-0.104
-138.443	110.986	0.131	0.157
-137.429	176.381	-0.210	-0.304
-136.414	190.510	0.190	0.284
-135.399	82.595	0.118	-0.127
-134.385	25.568	-0.179	-0.148
-133.370	-90.812	0.320	0.092
-132.356	-33.618	0.244	-0.134
-131.341	301.480	-0.053	-0.098
-130.326	19.346	0.123	-0.098
-129.312	-93.857	-0.179	0.049
-128.297	50.640	0.185	0.175
-127.283	249.159	-0.075	0.127
-126.268	-200.000	-0.013	-0.101
-125.253	225.655	0.211	0.339
-124.239	311.353	0.048	0.089
-123.224	296.247	-0.036	0.065
-122.210	26.069	0.232	-0.192
-121.195	-200.000	0.027	0.176
-120.180	4.489	0.168	0.123
