DTS Sentinel unit serial number:	SN413079Multiplexer serial number:	ORYXHardware model number:	OX4-SRSoftware version number:	ORYX F/W v4.00 Oryx Data Collector v3.7.2.0data status	okinstallation	princeton_trtdifferential loss correction	single-endedforward channel	channel 4reverse channel	N/Adate	2019/09/11time	04:19:11forward acquisition time	60.00reverse acquisition time	0.00gamma	496.2192k internal	0.2316k external	0.2316temperature offset calibration	0.9945default loss term (dB/km)	0.3790temperature slope calibration	1.0000multiplexer offset coefficient	1.0000multiplexer slope coefficient	1.0000fibre end	0.00T internal ref (°C)	29.56T ext. ref 1 (°C)	-0.29T ext. ref 2 (°C)	23.33length (m)	temperature (°C)	Stokes	anti-Stokes-747.200	-15.427	0.158	-0.103
-746.185	800.000	0.063	0.209
-745.171	74.239	0.095	0.101
-744.156	49.802	-0.193	0.185
-743.142	186.346	0.208	0.314
-742.127	-115.527	-0.140	-0.027
-741.112	800.000	0.045	0.187
-740.098	-200.000	-0.062	0.372
-739.083	-93.932	-0.176	0.049
-738.069	-50.781	-0.179	-0.085
-737.054	-200.000	0.031	-0.284
-736.039	-127.172	-0.158	-0.023
-735.025	800.000	0.075	0.244
-734.010	-99.293	-0.099	-0.025
-732.996	-18.419	0.168	-0.106
-731.981	133.661	-0.232	-0.304
-730.966	-67.443	0.046	0.018
-729.952	-200.000	-0.023	-0.320
-728.937	800.000	-0.030	-0.119
-727.923	-200.000	-0.006	-0.311
-726.908	201.625	-0.237	-0.370
-725.894	-200.000	0.035	-0.176
-724.879	800.000	-0.059	-0.212
-723.864	181.711	-0.093	0.138
-722.850	438.215	0.049	-0.109
-721.835	192.649	-0.116	-0.178
-720.821	16.030	0.132	-0.106
-719.806	-159.817	0.226	0.013
-718.791	-200.000	0.010	-0.344
-717.777	277.475	-0.073	-0.132
-716.762	800.000	0.071	-0.258
-715.748	131.033	0.127	0.165
-714.733	-200.000	0.015	-0.096
-713.718	-200.000	-0.015	-0.213
-712.704	-74.827	0.227	0.082
-711.689	9.439	-0.163	0.125
-710.675	22.796	0.025	-0.021
-709.660	785.250	0.101	0.281
-708.645	22.526	0.058	-0.048
-707.631	-67.833	0.128	-0.051
-706.616	85.849	0.044	-0.048
-705.602	-83.107	-0.098	-0.032
-704.587	181.610	0.165	-0.246
-703.572	800.000	0.051	-0.171
-702.558	-53.548	-0.175	-0.081
-701.543	60.508	-0.219	0.219
-700.529	469.847	-0.011	0.026
-699.514	-83.376	-0.012	-0.004
-698.499	-126.484	-0.172	0.026
-697.485	-71.580	-0.260	-0.098
-696.470	-31.912	-0.173	0.098
-695.456	9.088	-0.131	-0.100
-694.441	189.871	-0.106	0.161
-693.426	262.997	-0.228	-0.401
-692.412	16.311	-0.271	-0.216
-691.397	410.941	-0.141	-0.302
-690.383	800.000	-0.030	0.119
-689.368	800.000	-0.113	-0.359
-688.354	-200.000	-0.021	-0.125
-687.339	-145.491	-0.102	-0.009
-686.324	800.000	0.076	0.221
-685.310	167.677	-0.072	-0.103
-684.295	518.376	0.095	-0.224
-683.281	68.369	0.056	-0.058
-682.266	-63.552	0.146	-0.061
-681.251	728.359	-0.073	-0.198
-680.237	15.327	-0.077	-0.061
-679.222	39.318	-0.096	-0.087
-678.208	-200.000	-0.095	-0.515
-677.193	48.945	0.278	-0.264
-676.178	65.757	-0.074	0.075
-675.164	800.000	-0.074	0.233
-674.149	79.467	-0.329	0.356
-673.135	-200.000	0.005	-0.265
-672.120	-81.511	-0.347	-0.115
-671.105	-200.000	-0.026	-0.194
-670.091	432.026	0.177	-0.388
-669.076	262.734	-0.155	-0.272
-668.062	175.878	0.145	-0.212
-667.047	333.956	0.170	-0.332
-666.032	102.103	0.048	0.057
-665.018	-200.000	-0.064	-0.385
-664.003	98.769	-0.040	-0.047
-662.989	139.735	-0.154	-0.205
-661.974	-200.000	0.011	-0.203
-660.959	-139.792	-0.220	-0.024
-659.945	-9.348	-0.150	-0.101
-658.930	-96.721	-0.123	-0.033
-657.916	449.007	-0.093	-0.206
-656.901	-200.000	-0.010	0.170
-655.886	800.000	-0.075	0.273
-654.872	378.173	0.073	0.152
-653.857	800.000	-0.127	-0.358
-652.843	-200.000	-0.062	-0.369
-651.828	-22.357	-0.063	-0.039
-650.814	800.000	0.089	0.286
-649.799	484.646	0.223	0.513
-648.784	-70.033	-0.069	0.026
-647.770	145.289	0.211	-0.285
-646.755	96.713	0.101	0.116
-645.741	-200.000	0.020	-0.266
-644.726	800.000	0.088	0.301
-643.711	800.000	0.079	0.319
-642.697	58.951	-0.057	-0.057
-641.682	-63.618	-0.278	0.115
-640.668	-200.000	-0.073	0.357
-639.653	-109.878	0.067	0.014
-638.638	78.853	-0.127	0.137
-637.624	-29.228	-0.170	-0.098
-636.609	-83.147	-0.120	0.039
-635.595	-116.662	-0.164	-0.030
-634.580	514.600	0.089	-0.210
-633.565	-200.000	-0.004	-0.213
-632.551	800.000	-0.071	0.300
-631.536	-200.000	0.015	-0.145
-630.522	-200.000	-0.002	0.170
-629.507	248.837	0.142	0.242
-628.492	5.916	-0.116	-0.086
-627.478	-8.690	-0.317	-0.214
-626.463	-43.623	0.180	-0.092
-625.449	-87.238	-0.311	-0.095
-624.434	617.882	0.052	-0.131
-623.419	-84.695	-0.203	-0.064
-622.405	44.455	0.057	-0.053
-621.390	-200.000	-0.006	0.163
-620.376	80.867	-0.134	0.146
-619.361	78.024	-0.144	0.154
-618.346	11.990	0.251	0.195
-617.332	-42.323	0.349	-0.180
-616.317	-85.406	0.253	-0.080
-615.303	171.602	-0.172	-0.249
-614.288	22.586	-0.101	-0.083
-613.273	-25.539	-0.072	-0.043
-612.259	-102.549	-0.167	-0.040
-611.244	800.000	0.013	0.042
-610.230	-200.000	0.030	-0.218
-609.215	108.664	-0.131	0.157
-608.201	197.711	0.087	0.134
-607.186	-75.422	-0.393	-0.141
-606.171	163.053	-0.237	0.336
-605.157	31.362	0.020	-0.017
-604.142	-158.645	-0.103	-0.006
-603.128	-118.643	0.126	-0.022
-602.113	26.285	-0.119	-0.100
-601.098	125.753	-0.179	-0.228
-600.084	800.000	-0.070	0.208
-599.069	-200.000	-0.219	0.000
-598.055	-136.065	0.252	-0.030
-597.040	-1.971	-0.195	-0.138
-596.025	800.000	-0.018	-0.056
-595.011	266.325	-0.089	-0.157
-593.996	-200.000	-0.017	0.123
-592.982	171.340	0.089	0.128
-591.967	-9.777	0.145	-0.097
-590.952	-33.167	-0.171	-0.095
-589.938	96.879	0.167	-0.193
-588.923	25.378	-0.258	-0.216
-587.909	198.792	-0.145	0.223
-586.894	540.673	0.035	0.084
-585.879	153.313	-0.043	0.059
-584.865	-74.872	0.227	0.082
-583.850	800.000	-0.073	-0.259
-582.836	-20.920	-0.344	-0.212
-581.821	800.000	0.023	0.074
-580.806	387.173	0.030	0.062
-579.792	50.454	-0.218	-0.208
-578.777	-18.408	-0.327	0.205
-577.763	60.596	-0.085	0.084
-576.748	417.552	0.099	-0.213
-575.733	-69.209	0.071	0.028
-574.719	-81.641	0.050	-0.016
-573.704	13.130	-0.176	0.137
-572.690	38.876	-0.129	-0.116
-571.675	-119.360	0.329	0.058
-570.661	-32.032	0.126	0.071
-569.646	-97.269	0.058	-0.015
-568.631	-75.170	-0.192	-0.069
-567.617	-40.186	-0.289	0.151
-566.602	-200.000	0.017	-0.109
-565.588	169.342	-0.093	0.133
-564.573	132.018	0.014	0.018
-563.558	-152.610	0.201	-0.014
-562.544	-200.000	0.067	0.348
-561.529	259.676	0.092	-0.160
-560.515	-8.979	-0.034	-0.023
-559.500	-200.000	-0.046	-0.225
-558.485	-50.457	-0.475	0.226
-557.471	162.370	0.216	0.305
-556.456	800.000	-0.060	0.177
-555.442	-200.000	0.080	0.361
-554.427	-154.364	-0.224	-0.015
-553.412	-200.000	-0.019	-0.296
-552.398	-200.000	0.077	0.357
-551.383	413.810	0.040	0.085
-550.369	547.822	0.023	0.055
-549.354	122.898	-0.184	0.231
-548.339	98.737	-0.079	-0.091
-547.325	-31.870	-0.140	0.079
-546.310	-81.236	0.170	-0.056
-545.296	34.854	0.140	0.123
-544.281	-27.671	-0.096	-0.056
-543.266	-200.000	0.040	0.352
-542.252	-5.661	-0.207	0.143
-541.237	321.940	0.138	-0.265
-540.223	7.728	0.103	-0.078
-539.208	800.000	0.135	-0.525
-538.193	184.921	0.107	-0.160
-537.179	-112.602	0.229	0.046
-536.164	572.758	0.052	-0.126
-535.150	800.000	0.044	0.162
-534.135	561.675	-0.044	0.107
-533.121	800.000	-0.073	-0.231
-532.106	-88.484	0.397	-0.119
-531.091	-200.000	0.024	-0.193
-530.077	-200.000	-0.022	0.172
-529.062	-200.000	0.028	-0.145
-528.048	207.648	0.171	-0.268
-527.033	434.566	0.022	-0.047
-526.018	800.000	0.121	-0.361
-525.004	-88.125	-0.093	-0.028
-523.989	-19.120	-0.269	-0.168
-522.975	-79.584	0.133	-0.045
-521.960	-38.765	-0.072	0.038
-520.945	800.000	0.017	0.064
-519.931	371.872	0.127	0.258
-518.916	117.193	-0.037	0.046
-517.902	-47.960	0.093	0.045
-516.887	-200.000	0.038	0.256
-515.872	33.545	-0.199	-0.174
-514.858	-50.242	-0.233	0.111
-513.843	-68.661	0.067	-0.026
-512.829	-80.441	-0.167	-0.056
-511.814	-200.000	-0.002	0.040
-510.799	49.324	0.203	-0.192
-509.785	257.935	0.208	-0.359
-508.770	-8.825	0.145	0.098
-507.756	-27.810	0.110	0.064
-506.741	70.373	0.349	0.362
-505.726	3.441	0.176	-0.129
-504.712	458.876	-0.116	0.259
-503.697	92.767	-0.253	-0.286
-502.683	-200.000	0.042	-0.335
-501.668	75.735	-0.110	-0.117
-500.653	272.006	0.039	0.069
-499.639	-35.227	-0.227	-0.124
-498.624	687.591	0.055	-0.145
-497.610	800.000	0.093	-0.371
-496.595	18.146	-0.098	0.078
-495.581	-134.918	0.142	0.017
-494.566	-148.837	0.154	-0.013
-493.551	-189.255	-0.112	-0.001
-492.537	-110.258	0.555	0.116
-491.522	-116.522	-0.221	0.041
-490.508	-57.903	0.342	0.150
-489.493	47.873	-0.247	-0.231
-488.478	-200.000	0.044	-0.209
-487.464	-40.303	0.267	0.139
-486.449	9.654	-0.308	-0.234
-485.435	800.000	0.075	0.246
-484.420	-53.396	-0.116	-0.053
-483.405	102.415	0.212	-0.248
-482.391	-200.000	-0.038	-0.185
-481.376	-67.605	0.096	0.038
-480.362	-15.216	0.034	-0.022
-479.347	-200.000	0.037	0.169
-478.332	17.724	-0.324	0.258
-477.318	165.891	-0.265	0.376
-476.303	-200.000	0.069	-0.327
-475.289	418.384	-0.040	-0.086
-474.274	800.000	-0.019	0.081
-473.259	-107.174	-0.470	0.104
-472.245	388.473	0.069	-0.144
-471.230	800.000	0.175	0.489
-470.216	179.200	-0.140	0.205
-469.201	800.000	0.018	-0.060
-468.186	575.545	0.063	-0.155
-467.172	287.252	0.121	-0.219
-466.157	-140.230	-0.093	0.010
-465.143	-200.000	-0.012	0.099
-464.128	-119.579	-0.253	0.044
-463.113	-73.759	0.388	-0.142
-462.099	63.461	-0.095	0.095
-461.084	-25.202	-0.033	-0.020
-460.070	-32.077	-0.600	-0.336
-459.055	10.616	-0.069	0.052
-458.040	-200.000	-0.051	-0.382
-457.026	-66.214	-0.071	-0.028
-456.011	432.176	-0.111	0.242
-454.997	83.125	0.028	0.031
-453.982	86.626	-0.119	0.132
-452.968	-200.000	-0.006	-0.053
-451.953	25.628	-0.303	0.253
-450.938	764.006	0.089	0.243
-449.924	152.551	-0.120	-0.164
-448.909	17.953	-0.153	0.122
-447.895	-71.753	0.105	0.039
-446.880	80.758	-0.089	-0.096
-445.865	-200.000	0.098	0.638
-444.851	-123.336	0.312	0.050
-443.836	-200.000	-0.001	-0.079
-442.822	-34.851	-0.506	0.277
-441.807	800.000	-0.053	0.219
-440.792	63.394	-0.386	0.388
-439.778	-79.427	0.434	-0.147
-438.763	-86.810	0.131	0.040
-437.749	516.933	0.006	-0.015
-436.734	227.300	-0.189	-0.308
-435.719	-16.204	0.219	-0.139
-434.705	98.321	0.241	-0.278
-433.690	-200.000	0.069	-0.408
-432.676	641.759	-0.099	-0.253
-431.661	13.786	0.202	0.157
-430.646	-200.000	-0.211	-0.001
-429.632	-200.000	-0.035	0.321
-428.617	-93.419	-0.189	0.052
-427.603	86.519	0.192	0.212
-426.588	-200.000	0.154	-0.000
-425.573	-92.928	-0.385	0.107
-424.559	181.598	-0.030	-0.045
-423.544	-66.980	0.332	0.131
-422.530	285.212	-0.022	0.040
-421.515	-56.855	-0.111	0.049
-420.500	25.036	0.055	0.046
-419.486	155.990	0.118	0.162
-418.471	-200.000	-0.042	0.189
-417.457	62.045	-0.218	-0.218
-416.442	68.851	0.203	-0.209
-415.428	-16.615	-0.074	-0.047
-414.413	-194.214	-0.145	-0.001
-413.398	214.803	0.111	-0.176
-412.384	-200.000	0.043	0.236
-411.369	-200.000	0.056	0.357
-410.355	117.092	0.276	0.339
-409.340	-36.730	0.382	0.205
-408.325	-146.307	-0.250	0.022
-407.311	-139.595	-0.038	-0.004
-406.296	-200.000	-0.009	-0.106
-405.282	-43.616	0.167	0.084
-404.267	16.361	-0.091	0.072
-403.252	168.114	-0.191	0.271
-402.238	800.000	-0.054	0.153
-401.223	123.282	-0.093	-0.116
-400.209	-30.140	0.143	-0.081
-399.194	800.000	0.107	-0.435
-398.179	-200.000	-0.392	-0.001
-397.165	148.103	-0.219	-0.295
-396.150	-67.907	0.146	0.057
-395.136	0.898	0.190	-0.136
-394.121	800.000	0.106	0.311
-393.106	-194.896	0.378	0.003
-392.092	-134.627	0.340	-0.041
-391.077	-127.184	0.061	-0.009
-390.063	114.715	-0.173	-0.210
-389.048	800.000	0.083	-0.317
-388.033	245.724	-0.121	-0.203
-387.019	-161.038	-0.143	-0.007
-386.004	227.929	-0.041	0.067
-384.990	42.011	-0.164	0.149
-383.975	234.348	0.192	0.315
-382.960	126.373	-0.248	-0.313
-381.946	800.000	0.031	-0.086
-380.931	519.727	-0.020	0.048
-379.917	167.752	-0.275	0.391
-378.902	-130.334	-0.153	0.021
-377.888	-200.000	0.008	0.070
-376.873	800.000	-0.088	-0.277
-375.858	-73.312	0.085	0.031
-374.844	-64.100	-0.182	-0.074
-373.829	-103.155	0.271	0.064
-372.815	-77.563	0.121	-0.042
-371.800	-116.984	-0.347	0.063
-370.785	-109.727	0.034	0.007
-369.771	-192.101	0.154	-0.001
-368.756	-200.000	-0.032	-0.275
-367.742	-145.001	-0.490	-0.045
-366.727	223.298	-0.049	-0.079
-365.712	-37.373	0.233	-0.124
-364.698	-30.900	-0.163	0.092
-363.683	55.419	0.208	0.201
-362.669	-200.000	-0.011	-0.451
-361.654	-158.587	0.119	-0.007
-360.639	76.400	0.177	-0.187
-359.625	-195.277	0.079	-0.001
-358.610	153.526	0.135	-0.184
-357.596	-200.000	0.016	0.197
-356.581	631.404	-0.023	-0.059
-355.566	-92.507	-0.036	0.010
-354.552	800.000	-0.025	-0.094
-353.537	-103.048	-0.115	-0.027
-352.523	-8.335	0.060	0.041
-351.508	-200.000	0.037	0.506
-350.493	-9.333	-0.113	0.075
-349.479	-95.257	0.147	-0.040
-348.464	-123.389	-0.242	-0.038
-347.450	46.401	-0.141	-0.130
-346.435	0.928	-0.141	0.101
-345.420	3.695	-0.199	0.145
-344.406	407.711	-0.068	0.144
-343.391	-34.748	0.414	-0.225
-342.377	800.000	-0.086	0.351
-341.362	376.160	-0.101	-0.205
-340.348	185.834	0.144	-0.214
-339.333	167.677	0.104	0.148
-338.318	46.173	0.128	0.119
-337.304	171.732	0.090	-0.129
-336.289	-200.000	-0.038	-0.408
-335.275	150.286	-0.201	-0.272
-334.260	-7.014	0.146	-0.099
-333.245	-9.067	0.023	0.015
-332.231	-11.942	-0.258	0.169
-331.216	-136.490	0.348	0.040
-330.202	136.936	-0.127	0.165
-329.187	-200.000	0.038	-0.251
-328.172	800.000	0.064	-0.219
-327.158	613.371	0.166	-0.414
-326.143	-16.663	0.024	0.015
-325.129	800.000	-0.075	0.279
-324.114	-90.890	0.336	0.096
-323.099	-92.689	0.185	0.052
-322.085	89.006	-0.093	0.103
-321.070	-106.421	0.135	0.030
-320.056	-88.085	0.126	-0.038
-319.041	23.103	0.101	0.082
-318.026	-200.000	-0.010	0.197
-317.012	23.838	-0.109	-0.089
-315.997	3.298	0.195	0.142
-314.983	800.000	-0.038	0.122
-313.968	-14.363	-0.131	-0.084
-312.953	185.265	-0.165	-0.244
-311.939	165.153	0.105	-0.147
-310.924	197.025	-0.150	0.227
-309.910	-99.422	-0.314	0.079
-308.895	-200.000	0.023	-0.171
-307.880	-10.685	0.295	-0.195
-306.866	-109.046	0.222	-0.047
-305.851	-25.369	-0.235	-0.139
-304.837	247.641	0.124	0.209
-303.822	-121.335	-0.137	-0.023
-302.807	-100.808	-0.274	-0.067
-301.793	105.707	-0.132	0.156
-300.778	195.540	-0.075	0.114
-299.764	654.752	-0.065	0.166
-298.749	64.199	0.358	0.359
-297.735	229.679	-0.139	-0.226
-296.720	-200.000	0.013	0.269
-295.705	-200.000	0.005	0.023
-294.691	180.544	-0.155	0.226
-293.676	800.000	-0.111	-0.314
-292.662	-87.426	0.261	-0.079
-291.647	-100.332	0.268	0.066
-290.632	-200.000	0.000	0.109
-289.618	-124.944	-0.187	-0.029
-288.603	-12.023	0.053	0.035
-287.589	-106.390	0.110	-0.024
-286.574	344.362	0.155	-0.302
-285.559	9.302	0.254	0.191
-284.545	124.604	0.010	-0.013
-283.530	800.000	-0.030	0.110
-282.516	579.195	-0.068	-0.165
-281.501	-103.960	0.089	0.021
-280.486	-143.965	-0.331	0.031
-279.472	-65.222	0.207	0.083
-278.457	130.205	-0.052	0.066
-277.443	-200.000	0.051	0.253
-276.428	800.000	0.088	0.326
-275.413	-41.773	-0.100	0.051
-274.399	-200.000	-0.011	-0.388
-273.384	800.000	0.099	-0.300
-272.370	-200.000	0.011	0.140
-271.355	-74.943	0.266	0.095
-270.340	103.521	-0.157	-0.183
-269.326	-200.000	0.074	-0.429
-268.311	-200.000	-0.002	0.206
-267.297	800.000	0.022	0.074
-266.282	-200.000	-0.001	-0.219
-265.267	-105.533	0.342	-0.077
-264.253	-17.163	0.578	0.363
-263.238	84.117	-0.200	0.217
-262.224	-23.351	-0.202	-0.121
-261.209	800.000	0.052	0.210
-260.195	800.000	0.100	0.400
-259.180	-42.736	0.253	-0.128
-258.165	70.944	-0.183	-0.189
-257.151	-45.666	0.191	0.094
-256.136	800.000	-0.058	0.232
-255.122	-48.076	-0.138	-0.066
-254.107	-73.514	-0.131	-0.048
-253.092	-64.242	-0.433	-0.175
-252.078	185.029	-0.160	-0.236
-251.063	-61.238	0.196	-0.082
-250.049	-124.295	-0.211	0.033
-249.034	-120.673	-0.308	0.052
-248.019	2.481	-0.161	0.116
-247.005	169.556	0.074	0.105
-245.990	-65.498	0.211	-0.084
-244.976	50.162	0.297	0.279
-243.961	800.000	0.049	-0.147
-242.946	14.582	-0.335	-0.260
-241.932	225.312	0.201	-0.323
-240.917	-200.000	-0.030	-0.162
-239.903	-200.000	0.008	0.094
-238.888	-102.361	0.287	-0.068
-237.873	800.000	0.006	-0.023
-236.859	51.120	-0.123	-0.116
-235.844	96.852	0.380	-0.432
-234.830	-97.031	0.207	0.054
-233.815	800.000	-0.015	0.048
-232.800	172.268	-0.126	0.181
-231.786	81.135	0.154	-0.165
-230.771	114.256	-0.034	-0.041
-229.757	373.764	0.256	0.517
-228.742	-125.545	-0.104	-0.016
-227.727	-200.000	-0.066	-0.290
-226.713	59.587	0.171	0.167
-225.698	264.277	0.151	0.260
-224.684	-71.062	-0.390	-0.146
-223.669	7.172	0.208	-0.154
-222.655	-52.046	-0.171	0.079
-221.640	62.340	0.228	-0.226
-220.625	97.939	-0.091	0.104
-219.611	435.875	0.112	-0.243
-218.596	-200.000	-0.023	0.151
-217.582	174.632	0.103	-0.149
-216.567	800.000	0.049	0.137
-215.552	800.000	-0.146	0.584
-214.538	800.000	-0.044	-0.181
-213.523	-104.147	-0.160	0.037
-212.509	800.000	-0.054	0.198
-211.494	674.773	0.074	0.190
-210.479	-93.864	-0.470	-0.128
-209.465	277.119	0.080	0.141
-208.450	-200.000	-0.046	0.254
-207.436	77.845	0.068	0.071
-206.421	-200.000	0.020	-0.530
-205.406	227.673	-0.062	0.101
-204.392	-102.797	0.147	0.035
-203.377	279.712	0.135	-0.239
-202.363	-37.386	0.157	-0.083
-201.348	-125.727	-0.188	-0.028
-200.333	373.423	-0.070	0.140
-199.319	-143.750	0.298	-0.028
-198.304	-29.477	-0.241	-0.137
-197.290	800.000	0.069	-0.215
-196.275	-133.983	-0.270	0.033
-195.260	131.731	0.125	-0.160
-194.246	71.095	0.056	-0.058
-193.231	-41.972	-0.112	0.057
-192.217	151.899	0.115	-0.156
-191.202	-22.356	0.062	-0.037
-190.187	114.911	-0.095	-0.115
-189.173	301.614	0.088	-0.161
-188.158	-81.811	0.148	0.048
-187.144	-28.238	0.262	0.150
-186.129	51.303	0.229	0.215
-185.114	-28.026	0.244	-0.140
-184.100	-200.000	0.060	-0.295
-183.085	-66.998	-0.068	0.027
-182.071	-15.643	-0.303	-0.192
-181.056	800.000	0.076	-0.213
-180.042	61.995	0.225	-0.222
-179.027	-0.402	-0.119	0.084
-178.012	-200.000	-0.034	0.267
-176.998	800.000	0.025	0.071
-175.983	-95.367	-0.327	0.087
-174.969	-200.000	-0.005	0.025
-173.954	-62.107	0.092	0.038
-172.939	-4.170	-0.253	0.174
-171.925	-28.038	-0.143	0.082
-170.910	-128.343	0.127	-0.018
-169.896	-49.883	-0.338	-0.159
-168.881	-200.000	-0.029	0.249
-167.866	10.659	-0.359	-0.271
-166.852	-128.076	-0.138	-0.020
-165.837	154.306	0.160	-0.217
-164.823	65.680	0.274	-0.275
-163.808	161.471	0.102	0.141
-162.793	-200.000	0.014	-0.147
-161.779	800.000	0.142	0.477
-160.764	138.720	0.082	-0.107
-159.750	-148.404	0.313	-0.025
-158.735	-107.395	0.234	-0.051
-157.720	-62.441	0.496	0.204
-156.706	28.173	-0.151	0.126
-155.691	250.171	-0.090	-0.151
-154.677	-56.356	-0.090	0.040
-153.662	518.956	-0.110	0.255
-152.647	-108.707	0.358	0.076
-151.633	-98.541	0.150	0.038
-150.618	-17.105	0.213	-0.133
-149.604	-68.105	0.056	0.022
-148.589	182.910	0.121	-0.177
-147.574	289.374	-0.090	0.162
-146.560	-100.768	0.565	0.138
-145.545	-200.000	0.013	0.126
-144.531	59.076	0.044	0.043
-143.516	280.779	-0.054	0.096
-142.502	-98.145	0.150	-0.038
-141.487	171.933	0.056	0.079
-140.472	32.153	-0.297	0.253
-139.458	-52.640	0.213	0.097
-138.443	40.047	-0.181	-0.161
-137.429	-6.287	-0.083	0.056
-136.414	677.934	-0.028	-0.072
-135.399	717.844	-0.094	0.248
-134.385	322.091	0.011	0.021
-133.370	45.569	0.260	-0.237
-132.356	800.000	0.104	-0.360
-131.341	65.030	-0.293	0.292
-130.326	13.602	-0.047	0.036
-129.312	19.817	0.111	0.088
-128.297	-200.000	0.011	0.083
-127.283	-200.000	0.025	-0.152
-126.268	408.584	-0.078	-0.163
-125.253	18.051	-0.078	-0.061
-124.239	-116.904	0.179	-0.032
-123.224	-130.289	0.170	0.023
-122.210	-101.319	0.285	0.069
-121.195	800.000	0.034	-0.095
-120.180	800.000	0.061	0.171
