DTS Sentinel unit serial number:	SN413079Multiplexer serial number:	ORYXHardware model number:	OX4-SRSoftware version number:	ORYX F/W v4.00 Oryx Data Collector v3.7.2.0data status	okinstallation	princeton_trtdifferential loss correction	single-endedforward channel	channel 4reverse channel	N/Adate	2019/09/16time	04:29:34forward acquisition time	60.00reverse acquisition time	0.00gamma	496.2192k internal	0.2321k external	0.2321temperature offset calibration	0.9978default loss term (dB/km)	0.3790temperature slope calibration	1.0000multiplexer offset coefficient	1.0000multiplexer slope coefficient	1.0000fibre end	0.00T internal ref (°C)	27.27T ext. ref 1 (°C)	10.85T ext. ref 2 (°C)	21.37length (m)	temperature (°C)	Stokes	anti-Stokes-747.200	800.000	-0.030	0.117
-746.185	-200.000	0.015	0.100
-745.171	67.806	-0.173	-0.179
-744.156	-200.000	0.022	0.159
-743.142	72.224	0.201	-0.212
-742.127	-65.291	0.120	0.049
-741.112	141.591	-0.240	-0.321
-740.098	291.726	-0.076	0.139
-739.083	-200.000	-0.022	-0.112
-738.069	48.602	-0.081	0.076
-737.054	-200.000	0.008	-0.301
-736.039	-200.000	0.003	0.149
-735.025	-177.976	-0.177	-0.004
-734.010	-54.797	0.159	0.072
-732.996	-200.000	0.021	0.187
-731.981	-113.545	0.249	-0.049
-730.966	-200.000	-0.020	-0.319
-729.952	-200.000	-0.033	0.200
-728.937	64.435	-0.166	-0.169
-727.923	-81.292	0.041	-0.014
-726.908	-200.000	0.047	0.247
-725.894	-15.574	-0.190	-0.123
-724.879	-18.626	-0.197	-0.124
-723.864	-51.202	-0.265	-0.125
-722.850	-8.258	0.124	-0.084
-721.835	-200.000	-0.045	0.267
-720.821	-131.908	0.046	0.006
-719.806	1.778	-0.079	-0.058
-718.791	-20.511	-0.488	-0.303
-717.777	148.333	0.120	0.164
-716.762	51.772	0.167	-0.161
-715.748	-200.000	-0.039	0.203
-714.733	-144.028	-0.040	0.004
-713.718	230.195	-0.084	-0.139
-712.704	-200.000	-0.012	0.100
-711.689	60.074	-0.243	0.242
-710.675	-200.000	0.017	0.195
-709.660	800.000	-0.059	-0.213
-708.645	24.046	0.097	0.080
-707.631	101.724	0.066	0.078
-706.616	-200.000	-0.003	0.388
-705.602	127.342	-0.068	-0.087
-704.587	800.000	0.080	0.293
-703.572	-200.000	-0.041	0.201
-702.558	9.220	0.106	-0.081
-701.543	-109.569	-0.341	0.073
-700.529	-200.000	-0.002	0.503
-699.514	-43.729	0.243	-0.123
-698.499	-200.000	-0.001	-0.099
-697.485	-200.000	-0.019	0.233
-696.470	-200.000	-0.035	-0.265
-695.456	800.000	0.032	0.124
-694.441	26.145	0.202	0.170
-693.426	-200.000	0.025	0.215
-692.412	-200.000	-0.055	-0.249
-691.397	-64.572	0.240	-0.098
-690.383	269.204	-0.113	0.200
-689.368	259.580	-0.145	0.252
-688.354	-29.594	-0.198	-0.114
-687.339	534.434	-0.120	-0.288
-686.324	180.851	0.087	-0.129
-685.310	16.756	-0.100	-0.079
-684.295	-74.510	-0.306	0.111
-683.281	-3.322	-0.256	0.180
-682.266	82.576	-0.174	0.191
-681.251	-200.000	-0.043	-0.365
-680.237	-49.291	0.134	-0.065
-679.222	-200.000	0.027	0.344
-678.208	800.000	-0.087	-0.319
-677.193	-200.000	-0.016	-0.083
-676.178	-200.000	-0.064	0.302
-675.164	-200.000	-0.005	0.226
-674.149	-29.746	-0.163	0.094
-673.135	200.863	0.051	0.079
-672.120	-200.000	-0.031	-0.311
-671.105	11.446	0.121	-0.094
-670.091	152.994	0.198	-0.273
-669.076	-76.596	0.073	-0.026
-668.062	-25.638	-0.256	-0.152
-667.047	-153.229	-0.119	0.008
-666.032	-31.037	-0.025	-0.014
-665.018	304.219	-0.104	0.195
-664.003	28.210	-0.331	-0.281
-662.989	289.043	-0.103	-0.188
-661.974	-200.000	0.044	-0.533
-660.959	800.000	-0.033	0.139
-659.945	34.504	-0.205	0.181
-658.930	-200.000	0.024	0.142
-657.916	800.000	0.145	-0.468
-656.901	140.586	-0.116	-0.154
-655.886	-47.711	0.140	-0.068
-654.872	73.006	-0.168	-0.176
-653.857	-140.216	-0.118	-0.012
-652.843	382.372	-0.104	0.215
-651.828	-200.000	0.037	0.295
-650.814	-55.811	0.124	-0.056
-649.799	30.151	0.208	0.179
-648.784	-27.567	-0.105	-0.061
-647.770	413.933	-0.091	0.195
-646.755	800.000	-0.014	0.058
-645.741	-128.467	0.253	-0.036
-644.726	-54.410	-0.155	0.071
-643.711	94.458	-0.108	0.123
-642.697	234.992	0.186	0.309
-641.682	-100.405	-0.204	-0.051
-640.668	-200.000	0.079	0.433
-639.653	-134.632	0.400	-0.049
-638.638	-200.000	-0.008	0.055
-637.624	-50.744	0.165	-0.078
-636.609	-72.610	-0.099	-0.037
-635.595	-200.000	0.062	-0.299
-634.580	4.886	0.098	-0.072
-633.565	-70.439	-0.506	-0.193
-632.551	800.000	-0.031	-0.136
-631.536	-200.000	-0.012	-0.095
-630.522	283.117	0.057	-0.103
-629.507	-55.353	-0.094	0.042
-628.492	5.294	0.427	0.317
-627.478	800.000	-0.034	-0.099
-626.463	-67.193	-0.415	0.164
-625.449	-110.906	0.416	0.086
-624.434	145.247	0.185	-0.249
-623.419	-200.000	0.024	0.322
-622.405	800.000	-0.106	0.418
-621.390	-97.899	-0.123	0.032
-620.376	253.693	-0.071	-0.122
-619.361	800.000	0.104	-0.311
-618.346	54.559	-0.198	0.192
-617.332	-200.000	0.053	-0.253
-616.317	800.000	-0.095	0.339
-615.303	-50.216	-0.053	0.025
-614.288	-149.789	-0.379	-0.030
-613.273	-200.000	0.032	0.328
-612.259	59.642	-0.269	-0.266
-611.244	-127.110	0.376	-0.055
-610.230	63.827	0.169	-0.171
-609.215	58.352	-0.224	-0.221
-608.201	-35.066	0.224	0.123
-607.186	32.857	-0.064	-0.056
-606.171	-200.000	0.018	-0.197
-605.157	-200.000	0.020	-0.362
-604.142	445.246	-0.184	-0.407
-603.128	-190.165	-0.243	0.003
-602.113	-40.176	0.115	0.060
-601.098	-137.990	-0.468	-0.052
-600.084	-2.582	0.096	0.068
-599.069	-39.329	0.041	-0.022
-598.055	100.179	0.032	0.037
-597.040	-28.035	-0.316	-0.184
-596.025	296.050	0.056	-0.103
-595.011	-200.000	0.007	0.295
-593.996	-97.291	-0.184	0.048
-592.982	800.000	-0.008	-0.027
-591.967	-34.252	0.160	-0.088
-590.952	800.000	-0.072	0.304
-589.938	-54.143	0.370	0.169
-588.923	-200.000	-0.029	-0.332
-587.909	-179.393	0.204	0.005
-586.894	-178.101	0.120	0.003
-585.879	43.544	-0.096	0.088
-584.865	26.166	0.268	-0.225
-583.850	800.000	-0.072	-0.308
-582.836	800.000	-0.061	0.192
-581.821	156.339	0.104	-0.144
-580.806	-200.000	-0.012	-0.398
-579.792	48.699	0.072	0.068
-578.777	24.490	-0.201	-0.167
-577.763	800.000	0.053	-0.203
-576.748	50.607	0.212	-0.202
-575.733	-84.679	-0.224	-0.071
-574.719	-120.533	0.411	-0.070
-573.704	-87.014	0.197	-0.060
-572.690	138.030	0.156	0.205
-571.675	-88.380	0.119	0.036
-570.661	45.207	-0.107	0.099
-569.646	800.000	-0.061	-0.219
-568.631	-189.926	0.035	-0.000
-567.617	-200.000	-0.021	-0.100
-566.602	-129.226	0.233	-0.033
-565.588	75.731	0.188	-0.199
-564.573	-55.482	-0.298	0.134
-563.558	564.657	0.020	-0.049
-562.544	-92.467	0.114	0.032
-561.529	-75.691	-0.229	0.081
-560.515	800.000	-0.047	-0.135
-559.500	283.587	0.103	-0.186
-558.485	-132.325	0.140	0.018
-557.471	5.033	0.312	-0.230
-556.456	-113.171	0.189	0.037
-555.442	-200.000	0.010	-0.386
-554.427	-49.128	0.223	-0.107
-553.412	44.057	0.157	-0.145
-552.398	573.961	-0.119	0.292
-551.383	504.776	-0.007	0.016
-550.369	227.941	-0.161	-0.264
-549.354	6.647	-0.117	-0.087
-548.339	796.112	-0.080	0.220
-547.325	-200.000	-0.000	-0.073
-546.310	-200.000	-0.029	0.162
-545.296	177.584	-0.226	-0.330
-544.281	-115.153	0.133	-0.025
-543.266	-35.297	0.128	-0.070
-542.252	800.000	-0.049	0.187
-541.237	-104.771	-0.146	-0.034
-540.223	-157.799	-0.130	0.008
-539.208	227.182	0.028	-0.046
-538.193	456.098	-0.161	0.358
-537.179	0.921	-0.214	0.154
-536.164	-53.285	-0.190	0.088
-535.150	-171.906	-0.125	-0.004
-534.135	-133.667	0.467	-0.059
-533.121	-200.000	-0.018	0.170
-532.106	-81.732	0.035	0.012
-531.091	399.157	0.206	-0.432
-530.077	-200.000	-0.017	0.153
-529.062	-200.000	-0.016	0.230
-528.048	-43.442	-0.488	-0.247
-527.033	-30.743	-0.118	0.067
-526.018	40.968	-0.131	0.119
-525.004	217.269	0.133	0.212
-523.989	-136.433	0.219	-0.025
-522.975	800.000	-0.033	-0.123
-521.960	-200.000	-0.032	0.231
-520.945	-200.000	0.058	-0.333
-519.931	426.364	-0.030	-0.064
-518.916	674.399	-0.048	-0.125
-517.902	13.581	0.278	-0.217
-516.887	-5.731	0.221	0.152
-515.872	375.358	-0.078	-0.159
-514.858	-159.179	0.164	0.009
-513.843	193.219	-0.057	0.086
-512.829	-68.378	0.260	-0.101
-511.814	-85.557	0.051	0.016
-510.799	-144.805	0.143	0.013
-509.785	-78.323	-0.344	0.118
-508.770	800.000	0.049	-0.136
-507.756	-25.482	-0.090	0.053
-506.741	-14.478	-0.117	-0.075
-505.726	-180.140	-0.278	-0.006
-504.712	-52.003	0.213	-0.099
-503.697	20.999	-0.228	0.185
-502.683	-103.295	0.290	-0.069
-501.668	-29.670	-0.328	-0.187
-500.653	-134.763	-0.096	0.012
-499.639	41.975	-0.439	0.399
-498.624	71.959	-0.079	0.083
-497.610	800.000	0.031	0.087
-496.595	385.251	0.042	-0.086
-495.581	157.719	0.108	0.150
-494.566	800.000	0.063	-0.221
-493.551	-54.739	-0.424	-0.192
-492.537	35.468	0.089	0.078
-491.522	154.143	-0.176	-0.242
-490.508	141.469	-0.237	-0.314
-489.493	-101.360	0.282	-0.069
-488.478	93.907	0.074	-0.084
-487.464	-140.386	-0.351	0.037
-486.449	125.581	0.013	-0.016
-485.435	399.479	-0.117	-0.245
-484.420	210.895	-0.136	-0.214
-483.405	-101.873	0.184	-0.045
-482.391	-200.000	0.006	0.096
-481.376	-120.185	-0.177	0.030
-480.362	-200.000	0.007	0.221
-479.347	-200.000	0.021	-0.220
-478.332	-46.742	-0.353	-0.173
-477.318	-200.000	0.049	-0.342
-476.303	-200.000	-0.009	-0.074
-475.289	-200.000	-0.057	0.284
-474.274	-30.298	-0.237	-0.134
-473.259	-200.000	0.006	-0.138
-472.245	130.352	-0.152	-0.194
-471.230	800.000	0.032	-0.139
-470.216	-139.016	-0.110	0.012
-469.201	800.000	-0.007	0.021
-468.186	-109.780	-0.273	0.057
-467.172	363.713	0.110	-0.221
-466.157	139.888	-0.042	-0.056
-465.143	-200.000	-0.042	-0.471
-464.128	-40.698	-0.208	-0.108
-463.113	-200.000	0.012	0.170
-462.099	174.816	0.095	-0.137
-461.084	18.935	-0.154	-0.123
-460.070	348.545	0.057	0.113
-459.055	-71.136	0.181	-0.068
-458.040	-200.000	-0.042	0.207
-457.026	-13.935	0.232	0.150
-456.011	93.596	0.153	-0.173
-454.997	800.000	0.041	-0.179
-453.982	-2.140	0.161	-0.113
-452.968	322.548	-0.137	0.261
-451.953	312.158	0.053	-0.100
-450.938	-200.000	-0.025	0.122
-449.924	-68.270	0.072	-0.028
-448.909	56.773	0.150	-0.146
-447.895	-4.539	-0.292	0.202
-446.880	-200.000	0.019	0.197
-445.865	-90.193	-0.183	-0.053
-444.851	-99.257	0.124	-0.031
-443.836	-200.000	0.052	-0.323
-442.822	800.000	0.063	0.224
-441.807	190.491	-0.029	-0.043
-440.792	361.714	0.171	-0.343
-439.778	248.561	-0.106	-0.180
-438.763	17.629	0.165	-0.131
-437.749	-200.000	0.028	0.190
-436.734	-111.871	-0.316	-0.064
-435.719	-162.049	-0.517	0.026
-434.705	-132.525	-0.174	-0.022
-433.690	71.105	0.147	0.152
-432.676	-8.260	0.216	0.145
-431.661	-37.205	0.040	0.021
-430.646	-68.057	0.307	-0.119
-429.632	-118.072	0.095	0.017
-428.617	279.151	-0.175	-0.311
-427.603	800.000	-0.068	0.224
-426.588	86.193	0.024	0.026
-425.573	50.913	-0.276	0.261
-424.559	158.483	0.111	-0.153
-423.544	116.960	-0.070	-0.086
-422.530	9.620	0.199	0.150
-421.515	-200.000	-0.015	-0.264
-420.500	478.178	-0.146	0.329
-419.486	-200.000	-0.007	0.037
-418.471	-115.055	-0.145	0.027
-417.457	-20.310	-0.261	-0.160
-416.442	-95.623	-0.147	-0.039
-415.428	497.599	0.092	-0.211
-414.413	-34.354	0.102	-0.056
-413.398	75.016	0.054	0.057
-412.384	-93.847	0.041	0.011
-411.369	800.000	0.106	0.343
-410.355	-106.388	0.176	0.039
-409.340	-30.416	-0.488	0.276
-408.325	800.000	-0.088	0.320
-407.311	156.218	0.224	0.308
-406.296	-133.166	-0.418	-0.053
-405.282	-200.000	0.057	0.366
-404.267	174.932	0.028	-0.040
-403.252	-111.665	-0.182	0.037
-402.238	-72.096	0.215	0.079
-401.223	800.000	-0.068	-0.281
-400.209	800.000	-0.155	-0.469
-399.194	-93.461	-0.208	0.057
-398.179	800.000	0.129	-0.449
-397.165	-200.000	0.009	0.098
-396.150	102.985	-0.049	-0.058
-395.136	789.471	0.037	0.101
-394.121	496.172	0.011	0.026
-393.106	800.000	0.046	-0.196
-392.092	59.917	0.201	0.198
-391.077	-54.726	0.333	0.150
-390.063	-188.797	0.357	0.004
-389.048	87.249	-0.197	0.218
-388.033	272.383	-0.082	-0.144
-387.019	-108.763	0.263	-0.056
-386.004	475.240	-0.137	0.307
-384.990	10.398	-0.412	0.313
-383.975	-200.000	0.000	0.170
-382.960	-200.000	-0.008	0.087
-381.946	32.115	0.048	-0.041
-380.931	-58.486	-0.206	-0.089
-379.917	40.175	-0.173	0.155
-378.902	214.598	-0.064	0.102
-377.888	-10.556	0.165	-0.109
-376.873	-31.752	0.182	-0.102
-375.858	-166.980	-0.067	0.003
-374.844	-35.288	0.230	-0.125
-373.829	-99.451	-0.112	0.028
-372.815	-26.669	0.114	-0.066
-371.800	-200.000	-0.014	0.171
-370.785	121.986	-0.252	0.313
-369.771	-54.323	-0.181	0.082
-368.756	-81.509	-0.083	-0.027
-367.742	-158.454	-0.202	-0.012
-366.727	-4.621	-0.047	0.032
-365.712	-200.000	-0.006	0.095
-364.698	369.098	-0.277	-0.559
-363.683	-120.496	-0.133	0.022
-362.669	300.644	0.153	-0.281
-361.654	-161.294	0.214	-0.011
-360.639	-200.000	0.004	0.090
-359.625	-7.370	-0.266	-0.180
-358.610	218.349	0.120	0.191
-357.596	-93.743	-0.169	0.046
-356.581	-22.900	-0.027	0.016
-355.566	-200.000	0.006	-0.030
-354.552	-114.475	0.288	0.055
-353.537	183.302	-0.141	0.207
-352.523	264.950	0.206	0.357
-351.508	10.948	0.283	-0.215
-350.493	81.891	0.078	-0.084
-349.479	-200.000	-0.039	-0.268
-348.464	800.000	-0.082	0.239
-347.450	-84.996	-0.071	-0.022
-346.435	-66.279	0.273	0.108
-345.420	332.165	-0.105	-0.201
-344.406	-200.000	-0.017	0.339
-343.391	-3.198	0.309	-0.214
-342.377	-131.886	-0.206	0.027
-341.362	-200.000	0.013	0.106
-340.348	-200.000	0.085	0.404
-339.333	-200.000	-0.045	0.209
-338.318	204.600	-0.032	-0.049
-337.304	88.809	0.116	0.128
-336.289	286.554	0.161	-0.290
-335.275	-107.442	0.110	-0.024
-334.260	-200.000	0.045	-0.236
-333.245	-101.601	0.345	-0.083
-332.231	102.995	0.103	-0.120
-331.216	195.716	0.018	-0.026
-330.202	277.656	-0.204	-0.362
-329.187	-179.664	-0.167	0.004
-328.172	-200.000	-0.015	-0.067
-327.158	800.000	-0.037	0.138
-326.143	-200.000	0.045	0.401
-325.129	-133.591	-0.336	-0.042
-324.114	60.606	0.298	-0.294
-323.099	270.945	0.068	0.118
-322.085	107.373	-0.282	-0.334
-321.070	14.766	0.159	-0.124
-320.056	-78.861	-0.049	-0.017
-319.041	800.000	0.065	-0.187
-318.026	800.000	-0.024	0.075
-317.012	-152.928	0.230	-0.016
-315.997	800.000	0.086	-0.266
-314.983	-128.375	0.321	-0.045
-313.968	-200.000	-0.033	-0.166
-312.953	-200.000	0.022	-0.389
-311.939	-200.000	-0.026	0.311
-310.924	-200.000	0.083	0.528
-309.910	341.615	0.103	0.200
-308.895	-200.000	0.033	-0.180
-307.880	102.946	0.163	0.189
-306.866	-200.000	0.048	0.250
-305.851	-113.349	-0.281	-0.055
-304.837	81.825	0.250	-0.269
-303.822	-176.849	0.133	-0.003
-302.807	-27.920	0.124	0.071
-301.793	190.705	-0.110	0.164
-300.778	-200.000	0.006	-0.115
-299.764	-58.474	0.234	0.101
-298.749	-94.822	-0.452	0.122
-297.735	8.603	-0.062	-0.046
-296.720	0.311	0.138	-0.098
-295.705	104.694	0.079	0.092
-294.691	-59.859	0.180	-0.077
-293.676	389.641	-0.046	-0.095
-292.662	-141.482	-0.313	0.031
-291.647	-200.000	0.011	-0.186
-290.632	-91.714	-0.212	-0.060
-289.618	167.325	0.169	0.238
-288.603	28.715	0.071	0.059
-287.589	-200.000	0.039	0.412
-286.574	-83.991	0.431	-0.136
-285.559	800.000	0.029	0.112
-284.545	-145.428	-0.296	-0.026
-283.530	-124.544	-0.256	0.039
-282.516	2.219	-0.210	-0.151
-281.501	-168.598	-0.104	0.004
-280.486	-108.567	0.326	0.070
-279.472	116.266	-0.078	-0.095
-278.457	0.134	0.082	-0.058
-277.443	72.932	-0.304	0.315
-276.428	211.693	0.064	0.100
-275.413	-200.000	-0.008	-0.044
-274.399	-141.881	0.269	0.027
-273.384	708.269	-0.006	0.017
-272.370	43.859	0.114	-0.104
-271.355	-52.071	0.539	0.249
-270.340	-200.000	0.015	0.139
-269.326	379.111	-0.146	0.296
-268.311	-117.109	-0.316	-0.057
-267.297	800.000	0.020	0.073
-266.282	-138.853	-0.124	-0.013
-265.267	-134.393	0.057	-0.007
-264.253	800.000	0.043	0.138
-263.238	-55.063	0.229	0.102
-262.224	800.000	-0.109	0.304
-261.209	-32.262	-0.122	0.068
-260.195	-200.000	-0.023	-0.183
-259.180	-132.629	-0.199	0.025
-258.165	-101.820	0.345	-0.083
-257.151	-31.150	-0.247	0.138
-256.136	800.000	0.067	0.202
-255.122	800.000	0.038	0.157
-254.107	488.705	0.097	-0.220
-253.092	-200.000	-0.004	0.098
-252.078	-154.290	0.087	0.006
-251.063	-129.961	0.142	0.019
-250.049	-46.713	0.294	-0.143
-249.034	61.243	0.130	0.128
-248.019	107.656	-0.054	-0.064
-247.005	40.065	-0.172	-0.153
-245.990	45.517	-0.228	0.209
-244.976	10.124	0.219	-0.165
-243.961	204.244	0.029	0.045
-242.946	189.159	0.077	-0.115
-241.932	-131.555	-0.230	-0.030
-240.917	-200.000	0.087	-0.460
-239.903	566.914	0.121	-0.291
-238.888	136.443	-0.014	0.018
-237.873	-200.000	0.004	0.045
-236.859	-200.000	-0.002	0.019
-235.844	414.792	0.110	0.232
-234.830	18.751	-0.341	-0.270
-233.815	-200.000	-0.076	0.364
-232.800	-131.834	-0.424	-0.055
-231.786	800.000	-0.041	0.158
-230.771	111.467	0.084	0.100
-229.757	148.422	0.167	-0.223
-228.742	-82.518	0.158	-0.051
-227.727	-126.606	0.195	-0.029
-226.713	800.000	0.036	0.129
-225.698	2.571	0.287	0.206
-224.684	800.000	0.036	0.126
-223.669	-13.687	-0.355	0.228
-222.655	96.662	-0.128	0.146
-221.640	-200.000	0.006	0.075
-220.625	-46.139	-0.246	-0.120
-219.611	-200.000	0.030	-0.226
-218.596	-50.802	0.205	-0.095
-217.582	-137.284	-0.164	0.018
-216.567	-70.994	0.419	-0.156
-215.552	47.963	0.145	-0.134
-214.538	-124.661	-0.272	0.042
-213.523	43.520	0.226	0.205
-212.509	-69.913	0.094	0.035
-211.494	133.940	-0.122	0.157
-210.479	-79.303	-0.300	0.101
-209.465	74.483	0.057	-0.059
-208.450	-200.000	0.070	-0.383
-207.436	-46.920	-0.106	-0.051
-206.421	800.000	-0.016	-0.055
-205.406	-200.000	0.007	0.229
-204.392	-20.225	0.218	-0.133
-203.377	8.348	-0.069	0.051
-202.363	-18.559	-0.134	-0.083
-201.348	-200.000	-0.107	0.501
-200.333	73.959	0.394	0.409
-199.319	-12.233	0.166	-0.107
-198.304	-98.524	-0.025	-0.006
-197.290	-36.113	0.189	0.101
-196.275	588.899	0.138	0.335
-195.260	85.721	-0.198	-0.215
-194.246	-109.649	0.471	-0.098
-193.231	-8.453	0.228	-0.151
-192.217	-117.642	-0.138	-0.025
-191.202	800.000	-0.057	0.178
-190.187	294.169	-0.095	0.172
-189.173	501.552	-0.090	0.205
-188.158	103.014	-0.140	0.163
-187.144	-28.626	0.061	0.035
-186.129	800.000	0.064	-0.267
-185.114	302.832	-0.105	0.193
-184.100	-200.000	0.016	0.093
-183.085	166.637	0.051	0.072
-182.071	38.088	0.185	-0.163
-181.056	800.000	0.043	0.152
-180.042	-115.031	0.217	-0.041
-179.027	-52.166	-0.171	-0.078
-178.012	433.935	0.069	0.149
-176.998	30.349	0.185	0.156
-175.983	9.580	-0.221	0.165
-174.969	-132.710	-0.253	0.032
-173.954	800.000	0.028	0.113
-172.939	34.694	-0.127	0.110
-171.925	48.487	-0.117	-0.109
-170.910	-200.000	0.030	-0.280
-169.896	-196.242	-0.316	-0.002
-168.881	369.243	0.137	0.274
-167.866	-200.000	-0.013	0.226
-166.852	-149.663	-0.188	-0.015
-165.837	230.392	0.108	0.174
-164.823	-27.594	-0.356	0.204
-163.808	-98.209	0.198	-0.050
-162.793	-200.000	0.019	0.109
-161.779	-130.292	-0.113	0.015
-160.764	-47.708	-0.094	-0.045
-159.750	657.604	0.144	0.365
-158.735	-67.234	0.111	0.043
-157.720	170.049	0.081	-0.114
-156.706	-3.448	0.090	-0.062
-155.691	231.952	-0.112	-0.181
-154.677	50.377	-0.049	-0.046
-153.662	61.449	0.134	-0.132
-152.647	-107.034	0.206	-0.045
-151.633	136.806	0.102	0.131
-150.618	-108.421	0.089	-0.019
-149.604	-142.178	-0.160	0.016
-148.589	-200.000	0.021	0.213
-147.574	222.245	0.230	0.365
-146.560	-92.820	0.362	-0.100
-145.545	-116.103	-0.057	-0.010
-144.531	-62.854	0.125	-0.051
-143.516	235.804	0.072	0.118
-142.502	622.247	-0.049	-0.121
-141.487	649.552	-0.064	0.161
-140.472	-200.000	0.062	0.271
-139.458	-200.000	0.052	0.384
-138.443	-200.000	-0.022	0.186
-137.429	308.103	-0.164	0.302
-136.414	-147.069	-0.204	0.017
-135.399	294.306	-0.236	0.426
-134.385	-31.170	-0.248	-0.138
-133.370	-135.262	0.363	0.043
-132.356	-116.440	-0.371	-0.068
-131.341	-59.677	0.191	-0.081
-130.326	51.226	0.186	0.174
-129.312	-200.000	0.018	0.517
-128.297	800.000	-0.110	0.460
-127.283	267.497	-0.091	-0.157
-126.268	-91.173	-0.042	-0.012
-125.253	-1.049	0.079	0.055
-124.239	-52.600	-0.046	-0.021
-123.224	-73.324	0.217	0.078
-122.210	191.765	-0.104	-0.155
