DTS Sentinel unit serial number:	SN413079Multiplexer serial number:	ORYXHardware model number:	OX4-SRSoftware version number:	ORYX F/W v4.00 Oryx Data Collector v3.7.2.0data status	okinstallation	princeton_trtdifferential loss correction	single-endedforward channel	channel 4reverse channel	N/Adate	2019/09/16time	01:29:35forward acquisition time	60.00reverse acquisition time	0.00gamma	496.2192k internal	0.2323k external	0.2323temperature offset calibration	0.9968default loss term (dB/km)	0.3790temperature slope calibration	1.0000multiplexer offset coefficient	1.0000multiplexer slope coefficient	1.0000fibre end	0.00T internal ref (°C)	27.31T ext. ref 1 (°C)	9.91T ext. ref 2 (°C)	21.97length (m)	temperature (°C)	Stokes	anti-Stokes-747.200	260.122	0.076	0.132
-746.185	800.000	-0.065	0.235
-745.171	80.887	-0.099	-0.108
-744.156	-200.000	0.078	0.409
-743.142	-200.000	0.006	-0.101
-742.127	-55.584	0.089	0.040
-741.112	-200.000	0.010	0.251
-740.098	106.265	0.186	0.222
-739.083	49.459	0.204	0.194
-738.069	604.144	-0.085	0.215
-737.054	93.261	0.136	-0.155
-736.039	74.900	-0.230	0.245
-735.025	-85.409	0.091	0.029
-734.010	800.000	0.060	0.207
-732.996	86.741	-0.029	-0.033
-731.981	-7.229	0.138	0.094
-730.966	31.511	0.141	-0.122
-729.952	692.454	0.079	-0.209
-728.937	74.294	-0.029	-0.030
-727.923	9.853	-0.074	0.057
-726.908	287.007	0.056	-0.102
-725.894	80.860	-0.090	0.098
-724.879	-125.742	-0.265	-0.041
-723.864	-33.615	-0.037	-0.021
-722.850	-20.644	0.243	0.151
-721.835	184.985	-0.165	-0.247
-720.821	226.068	0.188	-0.308
-719.806	-162.823	0.339	-0.017
-718.791	156.418	-0.024	-0.033
-717.777	40.874	-0.296	-0.269
-716.762	-188.792	0.309	0.004
-715.748	800.000	-0.065	-0.239
-714.733	-145.550	-0.104	-0.009
-713.718	-146.097	0.091	0.008
-712.704	253.396	0.153	-0.263
-711.689	51.037	0.272	-0.260
-710.675	-28.088	-0.247	-0.144
-709.660	-112.552	0.370	0.074
-708.645	408.928	-0.102	0.217
-707.631	800.000	-0.050	-0.165
-706.616	234.243	0.089	-0.147
-705.602	41.064	0.120	-0.109
-704.587	182.624	-0.178	-0.264
-703.572	-56.826	-0.238	0.106
-702.558	-137.060	-0.227	-0.026
-701.543	-29.820	0.107	-0.062
-700.529	584.306	0.105	-0.260
-699.514	-71.239	0.075	0.028
-698.499	-144.400	0.184	-0.017
-697.485	-101.747	-0.183	-0.045
-696.470	23.003	0.381	-0.315
-695.456	-1.139	0.090	-0.064
-694.441	715.652	-0.061	-0.164
-693.426	-200.000	0.090	0.461
-692.412	-111.218	-0.264	-0.054
-691.397	482.805	-0.085	0.195
-690.383	-76.587	-0.209	-0.074
-689.368	-4.651	-0.394	0.274
-688.354	-128.035	-0.144	0.021
-687.339	35.008	0.195	0.172
-686.324	622.568	-0.074	0.189
-685.310	-60.451	-0.341	-0.146
-684.295	-68.735	-0.122	-0.048
-683.281	167.879	0.105	0.150
-682.266	-76.683	0.236	0.083
-681.251	-152.288	0.085	-0.006
-680.237	-77.396	0.252	-0.088
-679.222	154.301	0.141	0.195
-678.208	800.000	-0.077	-0.216
-677.193	616.081	0.109	0.275
-676.178	120.177	0.162	-0.203
-675.164	-200.000	0.038	0.262
-674.149	-100.267	0.116	0.029
-673.135	-38.760	-0.474	-0.252
-672.120	-50.548	0.312	-0.148
-671.105	-15.512	0.145	-0.093
-670.091	139.417	-0.231	-0.306
-669.076	-106.807	-0.315	-0.070
-668.062	-8.896	-0.319	0.215
-667.047	-117.540	0.167	0.030
-666.032	-150.545	0.118	-0.009
-665.018	-141.351	-0.286	-0.029
-664.003	689.177	-0.060	0.159
-662.989	-144.134	0.345	-0.033
-661.974	-200.000	0.029	0.298
-660.959	12.221	-0.208	-0.161
-659.945	-200.000	-0.042	0.325
-658.930	458.445	-0.125	0.281
-657.916	800.000	0.057	-0.188
-656.901	800.000	0.199	-0.640
-655.886	116.160	0.019	0.024
-654.872	800.000	-0.021	-0.065
-653.857	-200.000	0.015	-0.322
-652.843	83.953	-0.135	-0.149
-651.828	-138.671	0.395	0.044
-650.814	-54.335	-0.323	0.147
-649.799	-200.000	-0.047	-0.284
-648.784	757.118	0.140	0.381
-647.770	-138.942	-0.389	0.042
-646.755	109.379	-0.143	-0.173
-645.741	363.407	0.155	-0.313
-644.726	-26.320	0.247	-0.146
-643.711	17.774	-0.312	-0.250
-642.697	220.538	0.088	-0.142
-641.682	191.382	-0.249	0.377
-640.668	-89.496	-0.170	0.050
-639.653	-78.266	0.035	-0.012
-638.638	52.033	-0.226	0.217
-637.624	-200.000	0.010	-0.123
-636.609	800.000	-0.090	0.358
-635.595	-133.382	0.148	0.019
-634.580	232.828	0.248	0.411
-633.565	59.882	0.246	0.244
-632.551	-101.087	-0.136	0.034
-631.536	400.357	0.051	-0.108
-630.522	800.000	-0.048	0.212
-629.507	122.241	0.053	-0.067
-628.492	-200.000	-0.002	-0.087
-627.478	-42.020	0.223	-0.115
-626.463	760.907	0.122	-0.332
-625.449	-144.358	0.089	-0.008
-624.434	91.415	0.142	0.161
-623.419	-200.000	0.004	-0.274
-622.405	78.901	-0.016	0.017
-621.390	-196.330	0.187	0.001
-620.376	-58.849	-0.318	-0.138
-619.361	93.177	-0.131	0.148
-618.346	56.447	0.175	0.171
-617.332	402.213	0.146	-0.309
-616.317	-200.000	0.003	0.233
-615.303	331.185	0.029	-0.057
-614.288	263.896	0.181	-0.317
-613.273	-75.677	-0.037	0.013
-612.259	-200.000	0.077	-0.000
-611.244	-90.895	-0.185	0.054
-610.230	-30.887	0.235	0.133
-609.215	-200.000	0.008	0.068
-608.201	124.807	0.077	0.098
-607.186	222.872	-0.129	-0.208
-606.171	495.027	-0.037	-0.084
-605.157	331.271	-0.070	-0.135
-604.142	315.168	-0.130	-0.246
-603.128	288.258	-0.107	-0.194
-602.113	124.066	0.054	-0.069
-601.098	800.000	-0.098	0.291
-600.084	203.589	-0.258	0.401
-599.069	194.981	-0.077	0.118
-598.055	36.683	0.134	0.119
-597.040	92.614	-0.180	-0.204
-596.025	9.075	0.064	-0.049
-595.011	140.947	-0.070	-0.094
-593.996	-174.922	-0.361	0.010
-592.982	-109.926	-0.421	-0.089
-591.967	187.517	-0.124	0.186
-590.952	532.527	-0.113	0.269
-589.938	-155.090	-0.076	0.005
-588.923	51.523	0.079	0.076
-587.909	-200.000	0.020	-0.240
-586.894	800.000	-0.047	0.168
-585.879	65.302	0.127	-0.129
-584.865	105.950	0.177	-0.210
-583.850	42.023	-0.183	-0.166
-582.836	-39.015	0.132	0.070
-581.821	-112.654	-0.305	-0.061
-580.806	89.944	0.446	0.500
-579.792	-98.938	-0.239	0.061
-578.777	270.214	0.205	0.361
-577.763	-50.778	0.145	0.068
-576.748	495.029	0.117	-0.269
-575.733	-200.000	-0.037	-0.377
-574.719	14.505	-0.245	-0.192
-573.704	-51.569	0.106	-0.050
-572.690	478.714	-0.218	-0.496
-571.675	250.050	0.257	-0.438
-570.661	-0.067	0.159	-0.114
-569.646	115.115	-0.059	0.073
-568.631	-37.285	0.158	-0.085
-567.617	81.729	-0.158	-0.171
-566.602	358.831	0.073	0.146
-565.588	-200.000	0.030	0.157
-564.573	-145.323	-0.191	0.017
-563.558	-93.949	-0.260	0.072
-562.544	800.000	-0.033	0.100
-561.529	409.590	-0.086	-0.182
-560.515	-200.000	0.005	-0.110
-559.500	-132.618	0.110	-0.014
-558.485	79.534	0.150	-0.162
-557.471	128.698	-0.062	-0.080
-556.456	7.786	0.253	0.190
-555.442	176.036	0.178	-0.260
-554.427	47.967	0.063	-0.059
-553.412	309.164	0.078	-0.146
-552.398	-200.000	0.008	0.123
-551.383	-6.651	-0.021	-0.014
-550.369	-22.576	-0.215	-0.130
-549.354	-94.967	-0.331	-0.090
-548.339	32.890	-0.265	-0.230
-547.325	730.222	0.132	-0.354
-546.310	-6.174	0.217	-0.149
-545.296	-177.717	-0.205	0.005
-544.281	156.407	-0.145	0.200
-543.266	95.276	0.304	0.347
-542.252	-200.000	-0.019	-0.185
-541.237	-200.000	0.023	0.205
-540.223	588.825	0.175	0.433
-539.208	-115.207	0.006	-0.001
-538.193	-42.208	0.236	-0.121
-537.179	-16.890	0.258	0.163
-536.164	-111.214	0.260	0.053
-535.150	-200.000	0.048	0.278
-534.135	800.000	0.085	-0.304
-533.121	-173.531	0.268	0.008
-532.106	800.000	-0.055	-0.210
-531.091	-52.421	-0.420	0.195
-530.077	68.231	0.358	-0.367
-529.062	-147.494	-0.306	-0.026
-528.048	-200.000	0.013	0.307
-527.033	-94.581	0.072	-0.019
-526.018	-169.232	0.398	-0.015
-525.004	4.703	0.078	0.058
-523.989	220.592	-0.089	0.142
-522.975	-200.000	-0.077	-0.419
-521.960	-63.562	-0.253	-0.104
-520.945	800.000	-0.021	-0.079
-519.931	-200.000	0.002	0.356
-518.916	-90.363	0.086	-0.025
-517.902	-200.000	0.041	-0.263
-516.887	800.000	0.120	-0.358
-515.872	-200.000	-0.004	-0.034
-514.858	-108.941	0.344	0.073
-513.843	800.000	-0.067	-0.231
-512.829	-152.091	0.205	-0.015
-511.814	-200.000	-0.024	0.195
-510.799	81.695	-0.175	0.190
-509.785	2.439	-0.048	0.035
-508.770	800.000	0.025	0.095
-507.756	-11.765	0.119	-0.078
-506.741	-91.668	0.161	-0.046
-505.726	356.484	-0.103	0.204
-504.712	264.733	-0.090	-0.157
-503.697	260.204	-0.121	0.208
-502.683	-113.778	0.240	0.047
-501.668	-58.909	-0.177	0.076
-500.653	211.045	-0.068	0.107
-499.639	-200.000	-0.007	0.451
-498.624	-200.000	-0.004	-0.298
-497.610	499.586	-0.084	-0.193
-496.595	800.000	-0.100	0.311
-495.581	-44.559	-0.085	-0.043
-494.566	-70.256	-0.477	0.181
-493.551	-200.000	-0.019	-0.093
-492.537	145.292	-0.131	-0.176
-491.522	38.722	0.076	-0.068
-490.508	-89.003	0.219	0.065
-489.493	800.000	-0.102	0.375
-488.478	199.650	0.053	0.082
-487.464	-78.572	0.140	-0.048
-486.449	83.848	-0.202	-0.220
-485.435	701.645	-0.131	-0.344
-484.420	-117.551	-0.271	-0.049
-483.405	-200.000	-0.008	-0.177
-482.391	262.838	0.162	0.282
-481.376	-177.065	0.250	-0.006
-480.362	800.000	0.042	0.133
-479.347	-108.839	-0.408	-0.087
-478.332	97.627	0.070	0.080
-477.318	-34.330	-0.169	-0.093
-476.303	-40.325	0.137	0.071
-475.289	699.448	0.110	0.288
-474.274	14.659	0.035	0.027
-473.259	800.000	0.012	-0.039
-472.245	-200.000	-0.006	-0.222
-471.230	800.000	0.103	0.359
-470.216	800.000	-0.038	-0.121
-469.201	-33.800	0.059	0.032
-468.186	20.238	0.202	-0.163
-467.172	59.745	0.169	-0.167
-466.157	-151.495	0.097	0.007
-465.143	800.000	-0.081	0.334
-464.128	-186.140	-0.107	-0.002
-463.113	6.833	0.112	-0.083
-462.099	-133.349	0.461	0.058
-461.084	-117.384	-0.512	0.093
-460.070	0.949	0.113	0.081
-459.055	668.741	-0.110	0.284
-458.040	388.543	0.109	-0.225
-457.026	112.302	0.148	-0.179
-456.011	530.292	-0.037	-0.087
-454.997	-78.883	0.163	-0.055
-453.982	122.675	0.132	-0.165
-452.968	-200.000	-0.045	-0.313
-451.953	-86.709	-0.138	-0.042
-450.938	-200.000	0.020	0.107
-449.924	-200.000	-0.100	0.618
-448.909	800.000	0.050	-0.144
-447.895	-168.351	-0.068	0.003
-446.880	-56.791	0.122	-0.054
-445.865	221.089	0.058	-0.093
-444.851	-100.617	-0.250	0.062
-443.836	31.335	-0.138	0.118
-442.822	-36.964	-0.163	0.087
-441.807	36.023	0.154	0.135
-440.792	-111.603	-0.211	0.043
-439.778	-116.158	0.237	-0.044
-438.763	-163.334	-0.072	-0.003
-437.749	160.518	0.002	0.003
-436.734	44.491	0.126	-0.116
-435.719	164.123	-0.110	-0.155
-434.705	409.767	-0.091	-0.193
-433.690	-120.200	0.217	0.037
-432.676	-13.008	-0.078	0.051
-431.661	236.993	0.173	-0.286
-430.646	64.422	-0.119	0.120
-429.632	11.013	-0.092	0.070
-428.617	91.114	-0.359	0.402
-427.603	-176.156	0.116	0.003
-426.588	116.019	0.086	0.105
-425.573	-200.000	0.033	0.196
-424.559	18.842	-0.124	-0.099
-423.544	-58.504	0.340	0.147
-422.530	381.876	-0.072	0.147
-421.515	451.610	0.117	0.258
-420.500	572.643	0.139	-0.338
-419.486	139.442	-0.159	-0.209
-418.471	-116.540	-0.075	-0.014
-417.457	-59.821	0.245	0.105
-416.442	-59.397	-0.175	0.075
-415.428	-176.504	-0.037	0.001
-414.413	-102.077	-0.079	0.019
-413.398	-200.000	-0.007	0.138
-412.384	64.834	0.105	0.105
-411.369	-194.825	0.067	0.001
-410.355	94.556	-0.084	-0.096
-409.340	-200.000	-0.006	-0.142
-408.325	742.389	-0.094	-0.252
-407.311	49.383	0.271	0.254
-406.296	-29.198	-0.144	0.083
-405.282	74.673	0.134	0.141
-404.267	-144.584	0.077	0.007
-403.252	-200.000	-0.006	0.317
-402.238	163.451	-0.171	0.240
-401.223	-18.772	-0.226	-0.140
-400.209	-76.798	0.140	0.049
-399.194	-200.000	0.011	0.115
-398.179	-62.521	0.362	0.150
-397.165	87.202	0.348	-0.383
-396.150	369.256	-0.174	-0.351
-395.136	-104.283	0.305	-0.070
-394.121	800.000	-0.055	0.161
-393.106	1.157	-0.272	-0.195
-392.092	800.000	0.042	-0.148
-391.077	-200.000	0.034	0.489
-390.063	350.853	0.007	-0.014
-389.048	-134.771	0.362	0.044
-388.033	12.265	-0.191	0.147
-387.019	657.695	0.137	-0.352
-386.004	249.862	-0.127	-0.214
-384.990	-29.507	-0.109	-0.062
-383.975	800.000	0.063	0.179
-382.960	-145.284	-0.473	0.043
-381.946	37.211	0.162	-0.143
-380.931	-29.478	-0.210	-0.120
-379.917	-94.383	0.083	-0.023
-378.902	72.122	0.126	0.130
-377.888	-22.339	0.254	0.153
-376.873	-30.414	0.177	-0.100
-375.858	-200.000	0.005	0.150
-374.844	-200.000	-0.041	0.446
-373.829	2.173	-0.063	0.045
-372.815	696.210	-0.140	0.367
-371.800	-200.000	0.025	0.200
-370.785	-48.547	-0.423	-0.202
-369.771	-124.118	0.449	0.070
-368.756	173.859	0.078	-0.113
-367.742	800.000	-0.065	-0.278
-366.727	-200.000	0.009	-0.185
-365.712	-45.955	0.226	0.111
-364.698	-136.418	-0.366	0.042
-363.683	-105.214	-0.170	0.038
-362.669	-23.699	0.393	-0.235
-361.654	430.223	0.054	-0.116
-360.639	227.635	-0.060	-0.097
-359.625	541.970	0.042	0.100
-358.610	94.973	0.176	-0.199
-357.596	53.893	0.214	0.204
-356.581	-200.000	0.079	-0.444
-355.566	383.831	-0.074	-0.153
-354.552	-79.110	0.419	-0.141
-353.537	386.898	-0.009	0.019
-352.523	-102.094	0.211	-0.051
-351.508	-112.290	-0.179	-0.036
-350.493	-106.186	0.008	-0.002
-349.479	56.400	0.227	-0.219
-348.464	-36.810	-0.232	-0.124
-347.450	106.895	0.116	0.137
-346.435	-35.951	-0.333	-0.179
-345.420	-125.765	-0.180	0.027
-344.406	800.000	0.119	-0.430
-343.391	-79.403	0.077	0.026
-342.377	800.000	-0.023	0.097
-341.362	800.000	-0.142	-0.402
-340.348	-61.170	-0.009	0.004
-339.333	-191.318	0.502	-0.005
-338.318	208.720	-0.076	-0.118
-337.304	-200.000	0.017	-0.275
-336.289	-100.580	-0.330	0.081
-335.275	-200.000	0.034	-0.278
-334.260	-129.408	-0.353	-0.049
-333.245	-200.000	0.005	0.059
-332.231	-41.294	-0.271	0.139
-331.216	-172.788	-0.223	0.007
-330.202	89.309	0.099	0.110
-329.187	222.335	-0.190	-0.304
-328.172	-1.975	-0.402	-0.281
-327.158	-200.000	0.004	-0.193
-326.143	-8.170	-0.411	-0.275
-325.129	-106.139	-0.067	-0.015
-324.114	33.889	-0.172	0.149
-323.099	-113.718	0.121	-0.023
-322.085	-143.087	-0.211	-0.020
-321.070	78.711	-0.026	0.028
-320.056	-200.000	-0.069	0.325
-319.041	800.000	0.054	0.202
-318.026	-72.206	0.315	0.116
-317.012	800.000	0.070	0.225
-315.997	-195.102	-0.226	-0.002
-314.983	-200.000	0.072	0.405
-313.968	16.911	0.058	0.046
-312.953	26.861	-0.125	-0.104
-311.939	-64.907	-0.169	0.068
-310.924	-86.305	-0.111	0.034
-309.910	800.000	-0.046	-0.150
-308.895	-68.164	0.386	0.149
-307.880	-157.671	0.159	0.009
-306.866	-126.735	-0.338	0.050
-305.851	800.000	0.030	-0.129
-304.837	800.000	0.125	-0.389
-303.822	-200.000	0.032	0.159
-302.807	17.038	-0.140	-0.110
-301.793	-28.486	-0.283	-0.162
-300.778	-10.796	0.083	-0.055
-299.764	800.000	0.026	0.092
-298.749	-200.000	0.005	-0.076
-297.735	-200.000	-0.006	0.190
-296.720	353.194	-0.146	0.288
-295.705	78.047	0.084	0.088
-294.691	800.000	-0.024	-0.093
-293.676	800.000	-0.068	-0.222
-292.662	-200.000	0.007	-0.189
-291.647	-28.603	0.158	0.090
-290.632	398.920	0.153	0.318
-289.618	26.111	0.210	0.174
-288.603	216.084	-0.080	0.126
-287.589	171.182	-0.128	-0.182
-286.574	-29.551	0.233	-0.132
-285.559	-10.227	-0.068	-0.045
-284.545	-51.113	-0.155	-0.072
-283.530	-152.639	0.106	0.007
-282.516	-17.567	0.431	-0.269
-281.501	77.631	0.100	-0.106
-280.486	119.601	-0.144	-0.177
-279.472	25.159	-0.147	0.121
-278.457	217.589	0.168	0.266
-277.443	64.665	-0.098	-0.098
-276.428	59.526	-0.072	0.071
-275.413	-21.594	0.136	0.082
-274.399	181.085	0.010	0.014
-273.384	-200.000	-0.035	-0.232
-272.370	-200.000	0.011	0.178
-271.355	685.288	0.143	0.369
-270.340	86.049	0.252	0.275
-269.326	-117.372	-0.313	-0.056
-268.311	-142.917	0.249	0.024
-267.297	575.243	-0.132	0.318
-266.282	-200.000	-0.010	0.043
-265.267	182.798	-0.153	0.224
-264.253	264.000	-0.128	0.221
-263.238	-200.000	-0.033	-0.227
-262.224	-59.204	-0.135	0.058
-261.209	-127.971	-0.239	0.034
-260.195	284.035	-0.032	0.056
-259.180	800.000	-0.014	0.051
-258.165	-200.000	-0.008	0.290
-257.151	-200.000	0.174	0.001
-256.136	-66.945	-0.231	-0.090
-255.122	36.446	0.188	0.165
-254.107	64.970	-0.307	0.307
-253.092	-100.912	-0.284	-0.069
-252.078	10.431	0.101	-0.077
-251.063	800.000	-0.030	0.110
-250.049	-165.515	0.056	-0.002
-249.034	184.650	0.143	0.211
-248.019	-200.000	0.000	-0.183
-247.005	-1.867	-0.073	0.051
-245.990	-78.676	0.266	0.090
-244.976	800.000	0.138	-0.492
-243.961	55.638	-0.111	-0.106
-242.946	-54.468	0.173	-0.077
-241.932	800.000	0.049	0.172
-240.917	-188.376	-0.458	0.006
-239.903	45.984	0.216	-0.198
-238.888	800.000	-0.070	-0.204
-237.873	800.000	0.018	0.059
-236.859	-200.000	0.050	0.330
-235.844	-60.462	-0.097	0.041
-234.830	70.803	-0.054	-0.055
-233.815	-35.399	0.152	-0.082
-232.800	-59.453	-0.257	0.109
-231.786	30.503	0.133	0.112
-230.771	90.941	-0.123	0.136
-229.757	118.474	0.097	-0.118
-228.742	-69.785	0.270	0.102
-227.727	-136.500	0.040	0.005
-226.713	430.316	-0.019	-0.042
-225.698	-150.699	0.392	-0.030
-224.684	132.305	0.162	0.207
-223.669	-100.865	0.292	0.071
-222.655	-142.481	0.153	0.015
-221.640	-200.000	-0.028	-0.195
-220.625	-200.000	-0.034	0.221
-219.611	1.434	-0.258	0.183
-218.596	21.731	0.184	0.148
-217.582	-42.147	-0.161	0.081
-216.567	-200.000	0.018	0.227
-215.552	-71.501	0.148	-0.055
-214.538	800.000	-0.086	-0.286
-213.523	115.564	-0.209	-0.252
-212.509	-127.945	0.180	-0.026
-211.494	-122.495	0.147	-0.024
-210.479	-42.571	-0.031	0.015
-209.465	295.497	-0.226	-0.410
-208.450	20.506	-0.242	-0.193
-207.436	130.260	0.149	0.188
-206.421	800.000	-0.090	0.272
-205.406	245.127	-0.101	0.168
-204.392	536.833	-0.154	0.362
-203.377	-200.000	0.012	-0.072
-202.363	-178.462	0.268	-0.006
-201.348	209.353	-0.116	-0.180
-200.333	-45.860	-0.159	0.077
-199.319	10.863	-0.167	0.126
-198.304	-200.000	0.004	-0.074
-197.290	142.359	0.196	0.258
-196.275	190.994	-0.149	0.222
-195.260	-33.963	-0.236	-0.128
-194.246	-112.027	0.425	0.085
-193.231	115.056	0.121	0.146
-192.217	-140.437	0.162	0.017
-191.202	-200.000	-0.013	0.094
-190.187	-170.419	0.174	-0.006
-189.173	800.000	-0.089	-0.369
-188.158	-200.000	0.013	0.076
-187.144	142.079	-0.122	0.160
-186.129	105.922	0.170	-0.199
-185.114	-200.000	-0.026	-0.198
-184.100	-130.977	0.221	-0.029
-183.085	-200.000	0.005	-0.177
-182.071	350.683	0.189	-0.369
-181.056	-21.503	0.194	0.117
-180.042	800.000	0.061	-0.214
-179.027	800.000	-0.134	0.514
-178.012	-13.087	-0.174	-0.112
-176.998	-40.176	-0.134	-0.069
-175.983	225.454	-0.099	-0.158
-174.969	-200.000	0.018	-0.134
-173.954	-154.658	-0.170	-0.011
-172.939	284.991	-0.114	0.203
-171.925	137.610	-0.156	0.202
-170.910	800.000	0.027	-0.095
-169.896	800.000	-0.034	0.100
-168.881	-61.816	-0.155	-0.064
-167.866	-164.063	0.309	-0.014
-166.852	-85.318	-0.162	0.050
-165.837	68.313	0.167	-0.169
-164.823	521.715	-0.050	0.115
-163.808	356.400	-0.046	0.091
-162.793	-200.000	-0.033	0.225
-161.779	139.694	-0.157	0.204
-160.764	-200.000	-0.006	0.194
-159.750	-200.000	0.018	-0.133
-158.735	-19.501	0.403	0.246
-157.720	-200.000	-0.008	-0.042
-156.706	-200.000	0.014	-0.164
-155.691	165.817	0.100	0.139
-154.677	-128.996	0.100	0.014
-153.662	800.000	-0.108	-0.409
-152.647	-34.621	-0.346	-0.187
-151.633	140.910	-0.060	-0.078
-150.618	291.543	0.045	-0.081
-149.604	-200.000	-0.020	0.127
-148.589	-108.180	0.187	0.040
-147.574	-117.165	0.129	0.023
-146.560	164.028	-0.050	0.069
-145.545	-48.352	0.195	0.093
-144.531	-117.336	0.086	-0.015
-143.516	10.667	0.053	-0.040
-142.502	-200.000	-0.022	0.116
-141.487	-63.163	0.136	0.056
-140.472	94.795	0.309	0.347
-139.458	-50.460	-0.237	-0.110
-138.443	105.104	0.180	-0.209
-137.429	404.458	0.136	-0.283
-136.414	-73.051	0.290	-0.105
-135.399	1.003	0.160	-0.113
-134.385	-90.920	-0.121	-0.034
-133.370	322.811	-0.146	-0.275
-132.356	-145.273	-0.112	-0.010
-131.341	-58.194	0.134	0.058
-130.326	800.000	0.089	0.374
-129.312	-155.096	-0.254	0.016
-128.297	-200.000	0.034	0.466
-127.283	-31.058	-0.303	-0.168
-126.268	197.654	0.126	0.190
-125.253	48.383	0.150	0.139
-124.239	800.000	0.011	-0.044
-123.224	-61.779	0.123	0.051
-122.210	-200.000	-0.068	-0.367
-121.195	310.957	0.048	-0.089
