DTS Sentinel unit serial number:	SN413079Multiplexer serial number:	ORYXHardware model number:	OX4-SRSoftware version number:	ORYX F/W v4.00 Oryx Data Collector v3.7.2.0data status	okinstallation	princeton_trtdifferential loss correction	single-endedforward channel	channel 4reverse channel	N/Adate	2019/09/12time	11:43:11forward acquisition time	60.00reverse acquisition time	0.00gamma	496.2192k internal	0.2291k external	0.2291temperature offset calibration	1.0067default loss term (dB/km)	0.3790temperature slope calibration	1.0000multiplexer offset coefficient	1.0000multiplexer slope coefficient	1.0000fibre end	0.00T internal ref (°C)	39.75T ext. ref 1 (°C)	1.98T ext. ref 2 (°C)	37.56length (m)	temperature (°C)	Stokes	anti-Stokes-747.200	648.779	-0.094	-0.247
-746.185	604.708	-0.129	0.329
-745.171	-113.051	-0.272	-0.055
-744.156	-200.000	-0.012	0.090
-743.142	478.780	-0.062	0.144
-742.127	66.367	0.319	0.332
-741.112	-159.306	-0.190	-0.011
-740.098	800.000	0.053	0.193
-739.083	6.304	-0.123	0.093
-738.069	-96.048	-0.370	0.101
-737.054	21.698	-0.129	0.107
-736.039	493.334	-0.130	-0.306
-735.025	-18.087	0.252	-0.162
-734.010	293.482	-0.165	0.309
-732.996	-39.808	-0.113	-0.060
-731.981	69.051	-0.037	0.039
-730.966	782.994	0.064	-0.179
-729.952	-4.719	-0.208	-0.147
-728.937	10.348	0.228	0.177
-727.923	375.332	-0.131	0.273
-726.908	-106.083	-0.169	-0.039
-725.894	282.752	-0.056	-0.102
-724.879	800.000	-0.139	0.445
-723.864	-13.758	-0.032	-0.021
-722.850	-200.000	0.011	0.192
-721.835	-200.000	0.025	0.236
-720.821	-148.079	-0.328	-0.028
-719.806	800.000	0.066	-0.204
-718.791	-95.502	-0.343	0.094
-717.777	800.000	-0.056	0.162
-716.762	800.000	-0.031	-0.113
-715.748	800.000	-0.015	-0.056
-714.733	-97.337	-0.292	-0.078
-713.718	436.674	-0.065	0.145
-712.704	117.926	0.026	0.033
-711.689	626.229	-0.029	0.074
-710.675	-200.000	0.041	-0.183
-709.660	260.253	-0.126	-0.222
-708.645	646.286	-0.146	0.381
-707.631	152.772	0.045	0.062
-706.616	682.937	0.055	-0.148
-705.602	175.594	-0.119	0.177
-704.587	-82.944	-0.248	0.082
-703.572	104.289	0.094	-0.113
-702.558	63.065	0.229	-0.234
-701.543	-38.772	0.088	0.047
-700.529	435.830	0.119	0.264
-699.514	-116.855	0.371	0.069
-698.499	800.000	0.071	0.227
-697.485	45.909	-0.286	0.270
-696.470	-97.024	-0.146	0.039
-695.456	194.276	-0.206	-0.318
-694.441	-101.712	0.143	-0.035
-693.426	20.046	-0.071	-0.058
-692.412	800.000	-0.026	-0.089
-691.397	61.607	-0.237	0.241
-690.383	-161.094	0.140	-0.007
-689.368	94.071	-0.175	0.203
-688.354	-102.523	-0.263	0.064
-687.339	-5.960	-0.064	-0.045
-686.324	-198.636	-0.375	-0.002
-685.310	-81.746	0.138	-0.046
-684.295	56.324	0.087	0.087
-683.281	220.866	-0.189	0.311
-682.266	-200.000	-0.031	0.159
-681.251	-88.043	-0.253	0.077
-680.237	-200.000	-0.024	0.137
-679.222	61.021	-0.123	-0.124
-678.208	193.292	0.100	-0.154
-677.193	229.544	0.100	0.167
-676.178	-36.274	0.087	-0.048
-675.164	800.000	0.115	0.497
-674.149	-17.509	0.010	0.007
-673.135	-200.000	0.012	-0.192
-672.120	800.000	-0.018	-0.066
-671.105	-107.219	-0.277	0.062
-670.091	13.838	-0.080	0.063
-669.076	360.455	-0.025	-0.051
-668.062	800.000	0.071	0.205
-667.047	81.357	-0.074	-0.081
-666.032	39.084	-0.079	0.073
-665.018	-130.973	-0.096	0.013
-664.003	0.477	0.112	-0.082
-662.989	40.391	-0.158	-0.145
-661.974	131.872	-0.028	-0.037
-660.959	-156.248	-0.300	0.019
-659.945	-45.420	0.287	-0.145
-658.930	26.381	0.194	0.166
-657.916	-74.382	0.244	0.090
-656.901	-24.364	-0.357	0.217
-655.886	557.259	-0.045	0.109
-654.872	-37.282	-0.243	0.132
-653.857	200.792	-0.081	-0.127
-652.843	-89.877	0.206	-0.061
-651.828	112.455	0.179	0.221
-650.814	767.643	0.131	0.365
-649.799	500.638	0.031	-0.074
-648.784	51.310	-0.060	-0.058
-647.770	-114.493	-0.205	-0.040
-646.755	-140.614	-0.279	0.029
-645.741	87.062	-0.082	-0.092
-644.726	-200.000	0.007	-0.117
-643.711	-35.923	0.073	0.040
-642.697	-50.674	0.175	0.084
-641.682	-200.000	-0.005	0.103
-640.668	49.056	0.258	0.247
-639.653	800.000	0.064	-0.185
-638.638	20.901	0.238	0.197
-637.624	351.887	0.156	0.316
-636.609	800.000	0.036	-0.129
-635.595	-69.027	-0.053	-0.021
-634.580	-200.000	-0.041	-0.189
-633.565	2.791	-0.229	0.170
-632.551	310.536	-0.138	-0.263
-631.536	-62.236	0.092	0.039
-630.522	-20.223	-0.215	-0.135
-629.507	-39.931	0.144	0.077
-628.492	-190.484	-0.191	-0.002
-627.478	12.235	0.150	-0.117
-626.463	800.000	0.055	0.238
-625.449	779.470	0.123	-0.343
-624.434	298.273	-0.139	-0.261
-623.419	116.670	0.134	-0.167
-622.405	-44.751	-0.197	-0.100
-621.390	800.000	-0.100	0.403
-620.376	800.000	0.072	0.241
-619.361	66.575	-0.321	-0.332
-618.346	-200.000	0.039	-0.310
-617.332	173.127	-0.189	-0.278
-616.317	-100.093	0.333	0.085
-615.303	-138.831	-0.420	0.047
-614.288	44.427	-0.149	-0.139
-613.273	15.195	0.050	-0.040
-612.259	40.999	-0.166	0.153
-611.244	-60.904	0.211	-0.091
-610.230	-200.000	-0.037	-0.297
-609.215	-140.558	-0.372	0.039
-608.201	-96.538	-0.085	0.023
-607.186	-97.483	0.123	0.033
-606.171	221.147	-0.078	-0.128
-605.157	325.148	-0.106	-0.206
-604.142	800.000	-0.050	-0.162
-603.128	52.643	-0.167	-0.163
-602.113	142.628	0.141	-0.191
-601.098	-120.904	-0.241	-0.041
-600.084	213.691	0.093	-0.150
-599.069	-200.000	-0.018	-0.140
-598.055	94.132	-0.228	0.264
-597.040	-200.000	-0.001	0.014
-596.025	657.846	0.118	-0.310
-595.011	-200.000	0.016	0.081
-593.996	10.313	-0.074	0.058
-592.982	260.946	0.178	-0.314
-591.967	341.623	0.093	0.184
-590.952	-200.000	0.080	0.443
-589.938	141.569	-0.089	-0.120
-588.923	-200.000	0.009	-0.190
-587.909	-115.503	-0.266	0.051
-586.894	192.041	0.048	0.074
-585.879	-200.000	0.003	-0.096
-584.865	-200.000	0.018	-0.433
-583.850	-4.478	0.153	0.108
-582.836	183.698	0.135	0.204
-581.821	-100.448	0.338	-0.085
-580.806	800.000	0.057	0.161
-579.792	68.597	-0.057	0.060
-578.777	800.000	0.011	-0.042
-577.763	773.254	-0.111	-0.307
-576.748	-30.850	-0.083	-0.048
-575.733	23.859	-0.166	0.139
-574.719	160.660	-0.190	0.270
-573.704	800.000	0.093	-0.274
-572.690	-67.633	-0.546	0.218
-571.675	187.428	-0.166	0.253
-570.661	386.809	0.044	-0.092
-569.646	800.000	-0.019	-0.078
-568.631	143.434	-0.160	-0.216
-567.617	-53.640	-0.263	-0.122
-566.602	-123.649	0.329	-0.053
-565.588	-200.000	-0.049	-0.243
-564.573	800.000	0.001	-0.005
-563.558	64.985	0.288	-0.295
-562.544	-10.909	-0.194	0.130
-561.529	-101.135	0.238	-0.059
-560.515	-72.891	-0.177	-0.066
-559.500	-200.000	-0.019	-0.203
-558.485	-85.455	0.166	-0.053
-557.471	-49.662	0.246	0.119
-556.456	270.458	0.108	0.192
-555.442	800.000	-0.045	-0.147
-554.427	53.723	0.199	0.194
-553.412	-140.323	0.314	0.033
-552.398	-15.025	-0.093	-0.060
-551.383	-154.279	-0.148	-0.010
-550.369	-194.420	0.319	-0.003
-549.354	71.079	0.187	-0.197
-548.339	705.305	0.178	-0.476
-547.325	250.216	-0.031	0.054
-546.310	34.453	0.130	-0.116
-545.296	733.190	-0.013	-0.035
-544.281	229.402	-0.051	-0.084
-543.266	800.000	-0.024	0.103
-542.252	-6.422	0.192	0.133
-541.237	94.143	-0.183	0.211
-540.223	466.288	-0.066	0.151
-539.208	-145.024	-0.354	-0.033
-538.193	-25.931	0.104	0.062
-537.179	-200.000	0.053	-0.307
-536.164	34.460	0.185	0.164
-535.150	-200.000	-0.082	0.391
-534.135	-146.131	-0.208	0.019
-533.121	-117.177	-0.204	0.038
-532.106	-167.170	0.117	-0.005
-531.091	-200.000	0.016	-0.133
-530.077	-200.000	-0.011	0.299
-529.062	-9.279	-0.338	-0.229
-528.048	152.749	-0.114	0.159
-527.033	256.953	-0.138	-0.241
-526.018	-7.851	-0.225	0.154
-525.004	-125.413	-0.189	-0.029
-523.989	-11.870	-0.062	0.041
-522.975	-46.089	0.366	0.183
-521.960	-111.116	-0.356	-0.074
-520.945	218.558	-0.177	0.287
-519.931	-200.000	-0.024	0.228
-518.916	-106.189	0.075	0.017
-517.902	62.279	0.169	-0.171
-516.887	-100.055	0.251	0.064
-515.872	-200.000	-0.001	-0.050
-514.858	-65.109	-0.187	0.076
-513.843	-200.000	-0.111	0.594
-512.829	-128.770	0.203	-0.029
-511.814	102.325	-0.122	-0.145
-510.799	-13.184	-0.147	0.097
-509.785	406.077	-0.087	0.187
-508.770	-45.079	-0.056	-0.028
-507.756	800.000	-0.055	-0.244
-506.741	-200.000	-0.025	0.131
-505.726	-4.467	0.281	-0.197
-504.712	800.000	-0.097	0.289
-503.697	-109.151	0.365	0.079
-502.683	-28.179	0.134	-0.079
-501.668	428.513	-0.135	-0.296
-500.653	-11.699	-0.115	0.076
-499.639	-200.000	0.038	-0.359
-498.624	800.000	0.066	0.282
-497.610	-200.000	-0.030	0.153
-496.595	-121.915	0.087	-0.015
-495.581	-100.902	-0.329	-0.082
-494.566	800.000	-0.104	0.322
-493.551	-200.000	0.014	0.278
-492.537	427.443	0.074	-0.162
-491.522	-170.540	0.199	0.007
-490.508	-21.484	-0.213	-0.132
-489.493	-200.000	0.045	-0.228
-488.478	-200.000	-0.039	0.274
-487.464	-34.261	0.205	0.114
-486.449	-12.644	0.085	-0.056
-485.435	-178.085	0.262	0.006
-484.420	-15.574	0.317	0.205
-483.405	130.192	0.251	0.325
-482.391	-136.521	0.151	0.018
-481.376	18.613	0.171	0.139
-480.362	-80.421	0.196	-0.066
-479.347	-97.378	0.032	0.009
-478.332	297.823	0.098	-0.182
-477.318	60.505	-0.054	0.054
-476.303	171.423	-0.089	0.130
-475.289	-136.418	-0.333	-0.039
-474.274	135.000	0.113	0.148
-473.259	30.351	-0.129	-0.111
-472.245	-33.341	-0.094	-0.053
-471.230	800.000	0.048	-0.206
-470.216	246.470	0.093	0.158
-469.201	580.487	0.065	-0.161
-468.186	-21.468	0.234	-0.145
-467.172	45.639	0.238	-0.223
-466.157	58.285	-0.121	-0.120
-465.143	-113.470	-0.308	-0.061
-464.128	800.000	-0.044	0.184
-463.113	-93.204	0.166	-0.047
-462.099	-200.000	0.058	-0.296
-461.084	59.915	-0.324	-0.324
-460.070	-200.000	0.022	0.105
-459.055	-159.660	-0.195	-0.011
-458.040	-83.312	-0.033	0.011
-457.026	56.411	0.041	0.040
-456.011	-200.000	-0.035	0.225
-454.997	-137.665	0.234	-0.027
-453.982	-19.786	0.163	0.102
-452.968	-56.973	-0.078	-0.035
-451.953	199.648	-0.088	0.137
-450.938	70.966	0.185	0.194
-449.924	37.095	-0.072	-0.065
-448.909	473.993	-0.172	0.393
-447.895	495.272	0.074	0.172
-446.880	-200.000	-0.029	0.346
-445.865	-149.392	-0.249	-0.020
-444.851	-37.121	0.208	0.113
-443.836	800.000	-0.033	-0.106
-442.822	-67.787	-0.154	0.061
-441.807	-18.025	-0.185	-0.117
-440.792	36.722	0.114	-0.101
-439.778	-200.000	0.017	-0.111
-438.763	-200.000	-0.077	-0.392
-437.749	-67.786	-0.095	0.037
-436.734	227.413	0.037	-0.061
-435.719	31.520	-0.267	-0.232
-434.705	108.405	-0.126	-0.152
-433.690	-124.592	-0.324	0.051
-432.676	552.323	0.065	-0.158
-431.661	24.385	-0.199	-0.166
-430.646	-22.603	-0.203	-0.124
-429.632	-200.000	0.069	-0.375
-428.617	-159.850	0.113	0.006
-427.603	4.674	0.054	-0.040
-426.588	517.178	-0.043	0.103
-425.573	-131.367	0.191	0.026
-424.559	638.993	-0.072	-0.186
-423.544	11.299	0.187	0.144
-422.530	218.086	-0.090	0.145
-421.515	-200.000	-0.023	-0.207
-420.500	225.244	0.156	-0.256
-419.486	800.000	-0.044	0.165
-418.471	800.000	-0.041	-0.120
-417.457	-143.640	-0.313	0.030
-416.442	266.873	-0.077	-0.136
-415.428	167.895	-0.036	0.052
-414.413	100.054	-0.155	0.181
-413.398	-200.000	-0.047	-0.274
-412.384	315.862	-0.233	-0.444
-411.369	-194.945	0.244	0.002
-410.355	-200.000	0.025	0.171
-409.340	-200.000	0.011	-0.186
-408.325	-17.240	0.130	-0.082
-407.311	-79.870	0.293	0.100
-406.296	461.848	0.037	-0.084
-405.282	800.000	0.068	0.283
-404.267	8.496	0.118	-0.090
-403.252	-6.076	-0.280	0.194
-402.238	115.807	-0.309	0.382
-401.223	603.392	-0.073	-0.184
-400.209	-156.153	0.222	0.014
-399.194	800.000	-0.076	0.219
-398.179	800.000	-0.067	-0.241
-397.165	-200.000	0.006	-0.177
-396.150	-200.000	-0.056	-0.251
-395.136	282.157	0.128	-0.231
-394.121	101.094	-0.073	0.086
-393.106	-200.000	-0.008	0.100
-392.092	314.045	-0.188	-0.357
-391.077	51.811	0.245	0.235
-390.063	-200.000	0.000	0.156
-389.048	172.426	0.075	-0.109
-388.033	150.908	-0.189	0.259
-387.019	-200.000	-0.034	0.202
-386.004	422.906	-0.011	0.025
-384.990	345.073	0.114	0.226
-383.975	15.315	0.181	0.143
-382.960	-39.831	0.218	0.115
-381.946	-67.584	0.405	0.160
-380.931	-200.000	-0.013	0.214
-379.917	-122.034	0.117	0.019
-378.902	-83.608	0.201	-0.065
-377.888	-200.000	-0.008	0.559
-376.873	-66.820	0.238	0.095
-375.858	329.681	-0.099	-0.192
-374.844	301.961	0.243	-0.454
-373.829	-71.779	-0.231	0.087
-372.815	-200.000	-0.042	-0.226
-371.800	139.796	-0.279	-0.371
-370.785	61.723	-0.187	0.188
-369.771	-34.205	-0.480	-0.266
-368.756	29.256	0.223	0.191
-367.742	-200.000	-0.089	0.406
-366.727	-17.763	0.169	-0.107
-365.712	53.927	-0.135	0.131
-364.698	-68.849	-0.242	0.094
-363.683	-135.278	-0.207	-0.025
-362.669	145.936	0.072	-0.097
-361.654	-35.518	-0.331	-0.181
-360.639	-90.592	0.139	-0.041
-359.625	-74.975	0.208	-0.075
-358.610	-38.848	0.266	-0.141
-357.596	65.900	0.208	-0.212
-356.581	-200.000	-0.012	-0.105
-355.566	800.000	0.018	-0.051
-354.552	-116.128	-0.417	0.078
-353.537	-200.000	0.018	-0.139
-352.523	82.637	-0.112	-0.123
-351.508	800.000	-0.038	-0.156
-350.493	800.000	0.028	-0.081
-349.479	-200.000	-0.035	-0.224
-348.464	-5.474	-0.196	0.136
-347.450	259.960	0.202	-0.353
-346.435	-200.000	-0.043	0.259
-345.420	1.641	-0.265	-0.193
-344.406	108.236	0.054	-0.064
-343.391	-137.565	-0.218	0.025
-342.377	255.341	-0.011	0.020
-341.362	-160.135	-0.148	0.008
-340.348	-98.468	0.174	-0.045
-339.333	196.806	-0.074	-0.114
-338.318	142.424	-0.183	-0.245
-337.304	-200.000	0.062	0.366
-336.289	-200.000	0.074	0.378
-335.275	-108.693	0.541	-0.117
-334.260	-41.091	0.089	0.046
-333.245	67.649	0.094	0.097
-332.231	-125.284	0.494	0.076
-331.216	20.329	0.145	0.118
-330.202	-166.996	0.172	0.007
-329.187	249.038	0.157	0.268
-328.172	800.000	-0.076	-0.291
-327.158	-32.911	-0.176	-0.098
-326.143	-200.000	0.062	-0.282
-325.129	-94.481	-0.550	0.151
-324.114	77.287	-0.236	0.252
-323.099	-1.688	-0.242	0.171
-322.085	-19.966	-0.159	-0.099
-321.070	60.149	0.184	0.184
-320.056	-117.765	-0.216	-0.039
-319.041	-115.765	0.438	0.083
-318.026	-200.000	-0.033	0.227
-317.012	557.392	0.056	-0.136
-315.997	-144.299	0.100	-0.009
-314.983	-142.578	0.256	0.025
-313.968	4.218	-0.220	0.162
-312.953	242.860	0.125	-0.210
-311.939	9.113	0.120	0.091
-310.924	68.990	0.223	0.231
-309.910	236.688	-0.081	0.136
-308.895	72.489	0.226	-0.238
-307.880	-104.063	0.081	0.019
-306.866	53.776	0.050	-0.048
-305.851	40.026	0.149	0.135
-304.837	48.196	0.102	-0.096
-303.822	-200.000	-0.040	-0.192
-302.807	587.766	-0.091	0.226
-301.793	-171.898	-0.437	0.014
-300.778	-0.295	-0.358	0.256
-299.764	-200.000	-0.002	0.349
-298.749	35.407	0.256	0.226
-297.735	800.000	-0.105	-0.410
-296.720	-99.433	0.155	0.039
-295.705	-62.917	0.428	0.178
-294.691	800.000	-0.106	0.320
-293.676	150.268	-0.104	0.142
-292.662	321.439	0.080	-0.154
-291.647	800.000	-0.033	-0.136
-290.632	128.969	-0.122	0.156
-289.618	-30.314	0.214	0.122
-288.603	-200.000	0.031	0.145
-287.589	-63.300	-0.228	-0.095
-286.574	-76.316	0.186	-0.066
-285.559	800.000	-0.058	0.168
-284.545	314.149	0.043	0.082
-283.530	-85.877	-0.254	0.079
-282.516	57.216	-0.108	0.106
-281.501	-123.783	0.412	-0.066
-280.486	67.242	0.208	-0.213
-279.472	108.121	-0.114	-0.136
-278.457	-20.220	0.147	-0.091
-277.443	800.000	0.079	-0.270
-276.428	71.503	-0.261	-0.272
-275.413	-200.000	0.020	-0.195
-274.399	800.000	-0.024	0.071
-273.384	-166.944	0.231	-0.010
-272.370	800.000	0.084	0.244
-271.355	-200.000	-0.014	0.272
-270.340	-15.928	-0.233	-0.149
-269.326	-191.415	0.441	-0.004
-268.311	-200.000	0.002	0.197
-267.297	371.753	-0.065	-0.132
-266.282	-24.644	0.023	-0.014
-265.267	-140.571	-0.232	-0.024
-264.253	43.963	0.077	0.071
-263.238	4.521	-0.028	0.020
-262.224	-115.138	0.078	-0.015
-261.209	122.426	-0.120	0.151
-260.195	149.702	0.116	-0.158
-259.180	-29.849	0.069	-0.039
-258.165	120.035	-0.163	0.204
-257.151	-200.000	0.014	0.098
-256.136	-200.000	0.006	-0.032
-255.122	-24.606	-0.299	-0.179
-254.107	800.000	0.033	-0.101
-253.092	546.178	-0.120	0.288
-252.078	-86.227	0.247	0.077
-251.063	-200.000	-0.036	0.170
-250.049	30.662	-0.181	0.156
-249.034	-200.000	0.006	0.293
-248.019	184.283	0.193	0.287
-247.005	210.763	-0.073	-0.115
-245.990	-60.970	0.244	0.104
-244.976	-45.589	0.064	0.032
-243.961	-173.963	0.383	0.011
-242.946	43.291	-0.177	0.162
-241.932	-56.082	-0.217	0.097
-240.917	-58.930	-0.423	0.183
-239.903	603.122	0.069	-0.172
-238.888	155.276	0.106	-0.147
-237.873	201.934	-0.126	-0.196
-236.859	213.122	-0.018	-0.029
-235.844	793.480	-0.122	0.336
-234.830	-29.776	-0.160	-0.092
-233.815	670.837	0.091	-0.236
-232.800	-38.954	0.238	-0.126
-231.786	120.080	0.134	0.166
-230.771	45.241	-0.178	-0.165
-229.757	-60.993	0.075	0.032
-228.742	-36.982	0.211	0.113
-227.727	-178.625	-0.299	-0.007
-226.713	-72.224	0.224	0.083
-225.698	-18.625	0.338	0.212
-224.684	51.883	-0.015	-0.015
-223.669	276.233	0.054	-0.096
-222.655	-186.451	-0.116	-0.002
-221.640	86.301	-0.209	-0.231
-220.625	-200.000	0.026	-0.151
-219.611	800.000	-0.074	0.284
-218.596	-124.124	0.249	-0.039
-217.582	336.210	0.159	0.309
-216.567	-200.000	0.061	0.405
-215.552	-56.165	0.197	-0.088
-214.538	-3.831	-0.229	-0.160
-213.523	218.128	0.176	-0.282
-212.509	-200.000	-0.012	-0.250
-211.494	-34.514	-0.292	-0.160
-210.479	-200.000	0.039	0.282
-209.465	-200.000	0.043	0.199
-208.450	-200.000	0.001	-0.095
-207.436	-27.784	-0.116	-0.068
-206.421	800.000	-0.085	-0.278
-205.406	-72.838	0.382	0.141
-204.392	-200.000	-0.017	0.379
-203.377	249.342	0.096	0.163
-202.363	-200.000	-0.058	-0.298
-201.348	-131.742	0.138	0.018
-200.333	115.878	0.149	-0.182
-199.319	193.590	-0.262	-0.398
-198.304	148.749	0.199	0.269
-197.290	800.000	-0.052	0.153
-196.275	-61.358	0.146	-0.061
-195.260	525.801	-0.069	0.163
-194.246	-200.000	0.044	0.218
-193.231	152.063	-0.144	-0.197
-192.217	-200.000	0.083	-0.517
-191.202	249.786	-0.093	0.158
-190.187	-85.904	0.178	-0.055
-189.173	800.000	-0.066	-0.289
-188.158	-22.024	-0.112	-0.068
-187.144	800.000	0.046	-0.177
-186.129	133.538	0.184	0.239
-185.114	337.130	0.020	-0.038
-184.100	-97.463	0.346	-0.090
-183.085	21.304	0.237	0.193
-182.071	10.147	0.090	0.068
-181.056	7.985	0.163	0.122
-180.042	-74.464	-0.258	0.093
-179.027	-34.149	-0.321	0.176
-178.012	-83.132	-0.068	-0.022
-176.998	-53.070	0.184	-0.085
-175.983	95.426	-0.048	0.055
-174.969	-200.000	0.027	-0.123
-173.954	-200.000	-0.011	0.340
-172.939	-110.680	-0.165	-0.034
-171.925	-44.541	0.159	-0.080
-170.910	150.220	-0.101	-0.137
-169.896	-68.645	-0.052	-0.020
-168.881	720.133	0.108	-0.287
-167.866	-8.032	-0.233	-0.157
-166.852	102.028	0.164	0.192
-165.837	240.626	0.095	0.158
-164.823	-117.773	0.145	0.026
-163.808	-49.550	-0.300	-0.143
-162.793	-200.000	0.040	-0.187
-161.779	800.000	0.047	-0.132
-160.764	-22.551	-0.114	0.069
-159.750	-120.182	-0.162	0.028
-158.735	-200.000	0.019	-0.138
-157.720	-172.846	0.139	-0.004
-156.706	102.686	-0.112	0.131
-155.691	-42.838	-0.270	-0.137
-154.677	94.481	0.200	0.227
-153.662	20.471	0.323	0.261
-152.647	125.604	-0.196	0.247
-151.633	800.000	0.129	0.420
-150.618	-200.000	0.005	0.287
-149.604	800.000	-0.121	-0.391
-148.589	227.543	0.162	-0.264
-147.574	800.000	-0.038	-0.156
-146.560	-200.000	-0.015	0.188
-145.545	361.002	-0.074	0.148
-144.531	-94.122	0.091	-0.025
-143.516	-138.685	-0.086	-0.009
-142.502	86.414	0.143	0.157
-141.487	77.687	0.079	0.084
-140.472	475.579	0.165	0.372
-139.458	800.000	-0.105	-0.294
-138.443	107.486	0.153	-0.182
-137.429	93.891	0.202	-0.229
-136.414	36.650	-0.122	-0.108
-135.399	-4.116	0.156	0.108
-134.385	-72.593	-0.106	-0.039
-133.370	-89.799	0.100	0.029
-132.356	-92.870	-0.258	-0.072
-131.341	41.084	0.187	0.169
-130.326	-200.000	0.003	0.134
-129.312	-123.675	0.077	-0.012
-128.297	-200.000	-0.018	0.319
-127.283	-200.000	-0.014	0.297
-126.268	800.000	-0.046	0.184
-125.253	-40.958	-0.166	-0.086
-124.239	-200.000	-0.017	-0.122
-123.224	-99.319	-0.139	-0.035
-122.210	52.205	-0.169	0.161
-121.195	132.124	0.176	-0.226
