DTS Sentinel unit serial number:	SN413079Multiplexer serial number:	ORYXHardware model number:	OX4-SRSoftware version number:	ORYX F/W v4.00 Oryx Data Collector v3.7.2.0data status	okinstallation	princeton_trtdifferential loss correction	single-endedforward channel	channel 4reverse channel	N/Adate	2019/09/13time	21:45:35forward acquisition time	60.00reverse acquisition time	0.00gamma	496.2192k internal	0.2319k external	0.2319temperature offset calibration	1.0123default loss term (dB/km)	0.3790temperature slope calibration	1.0000multiplexer offset coefficient	1.0000multiplexer slope coefficient	1.0000fibre end	0.00T internal ref (°C)	28.12T ext. ref 1 (°C)	3.03T ext. ref 2 (°C)	22.80length (m)	temperature (°C)	Stokes	anti-Stokes-747.200	-200.000	0.020	0.107
-746.185	800.000	-0.068	0.201
-745.171	329.961	0.240	-0.468
-744.156	-35.928	0.089	0.049
-743.142	-200.000	-0.038	-0.300
-742.127	800.000	-0.109	0.432
-741.112	800.000	-0.026	0.098
-740.098	665.672	-0.102	0.267
-739.083	-8.865	-0.199	0.135
-738.069	-96.410	-0.168	-0.045
-737.054	502.285	0.111	0.259
-736.039	-26.836	-0.250	0.148
-735.025	11.822	-0.109	0.085
-734.010	783.439	-0.036	-0.099
-732.996	514.813	-0.224	-0.528
-731.981	61.070	-0.143	0.143
-730.966	-200.000	0.037	-0.179
-729.952	1.684	0.053	0.039
-728.937	-200.000	-0.030	-0.461
-727.923	-34.010	0.143	0.080
-726.908	-60.680	-0.219	-0.094
-725.894	-82.094	-0.075	0.025
-724.879	800.000	-0.038	-0.116
-723.864	-200.000	-0.020	0.137
-722.850	-107.863	-0.233	-0.051
-721.835	30.540	0.157	0.135
-720.821	61.369	0.046	-0.046
-719.806	-23.961	0.205	-0.124
-718.791	-157.232	0.174	-0.011
-717.777	117.610	-0.081	0.101
-716.762	-70.883	-0.412	-0.157
-715.748	-200.000	-0.020	-0.157
-714.733	-78.330	-0.107	-0.037
-713.718	53.555	0.192	-0.186
-712.704	-54.867	0.182	-0.083
-711.689	380.209	-0.071	-0.146
-710.675	-115.745	-0.145	0.027
-709.660	-101.844	0.159	0.039
-708.645	276.014	0.107	0.192
-707.631	343.758	-0.112	-0.221
-706.616	598.697	-0.151	-0.377
-705.602	410.341	-0.119	-0.254
-704.587	-200.000	-0.031	-0.514
-703.572	224.616	0.071	0.116
-702.558	-112.920	-0.048	-0.010
-701.543	75.215	0.104	0.111
-700.529	-70.539	-0.166	0.064
-699.514	800.000	-0.059	-0.250
-698.499	231.411	-0.153	-0.253
-697.485	-47.665	-0.144	-0.071
-696.470	137.725	0.128	0.169
-695.456	7.496	-0.129	-0.098
-694.441	-111.582	0.354	-0.073
-693.426	572.455	0.111	-0.272
-692.412	800.000	0.058	-0.209
-691.397	255.640	-0.049	-0.085
-690.383	-160.783	-0.574	0.031
-689.368	23.933	0.053	-0.044
-688.354	-36.736	0.082	-0.044
-687.339	-200.000	0.018	-0.360
-686.324	-73.212	-0.255	0.094
-685.310	48.645	-0.112	-0.106
-684.295	-200.000	0.070	-0.330
-683.281	-166.198	-0.378	-0.016
-682.266	800.000	-0.053	0.209
-681.251	-33.957	0.137	-0.076
-680.237	-51.067	0.172	0.081
-679.222	19.043	0.289	-0.234
-678.208	-168.188	-0.261	0.010
-677.193	-33.697	-0.221	0.123
-676.178	-200.000	-0.006	-0.406
-675.164	-200.000	-0.058	-0.421
-674.149	178.993	0.175	-0.258
-673.135	-200.000	-0.021	0.141
-672.120	236.312	-0.030	-0.050
-671.105	-7.554	-0.107	-0.073
-670.091	555.231	-0.089	-0.216
-669.076	800.000	0.108	-0.359
-668.062	-10.695	-0.247	-0.165
-667.047	-200.000	-0.010	0.295
-666.032	-50.824	-0.257	-0.122
-665.018	-28.070	0.281	0.164
-664.003	-102.494	-0.187	-0.045
-662.989	-52.205	-0.185	-0.086
-661.974	800.000	-0.048	-0.165
-660.959	-156.025	0.040	0.003
-659.945	196.057	0.091	-0.140
-658.930	45.262	0.027	-0.025
-657.916	-168.547	-0.054	0.002
-656.901	36.894	-0.200	-0.178
-655.886	584.723	0.120	0.297
-654.872	-61.496	0.094	-0.040
-653.857	-63.446	-0.201	0.083
-652.843	-200.000	0.011	-0.094
-651.828	-99.665	-0.103	-0.026
-650.814	136.825	0.179	-0.236
-649.799	8.484	-0.249	0.189
-648.784	-24.180	0.421	-0.253
-647.770	-76.356	0.389	-0.138
-646.755	-125.017	0.363	-0.056
-645.741	3.214	-0.236	0.173
-644.726	-120.894	0.150	0.025
-643.711	5.521	0.150	0.111
-642.697	-131.792	0.310	0.041
-641.682	29.108	0.068	-0.058
-640.668	-93.575	0.186	-0.052
-639.653	-152.928	-0.339	0.024
-638.638	517.778	0.120	0.283
-637.624	-100.146	0.245	-0.061
-636.609	-38.975	0.104	0.055
-635.595	-200.000	0.000	0.136
-634.580	-200.000	0.019	0.130
-633.565	-66.920	-0.176	-0.070
-632.551	-56.837	0.102	-0.046
-631.536	-200.000	0.021	-0.272
-630.522	-22.242	-0.195	0.119
-629.507	-38.055	0.151	-0.081
-628.492	800.000	0.062	-0.262
-627.478	321.474	0.056	-0.108
-626.463	331.919	-0.101	-0.197
-625.449	-136.569	-0.075	0.009
-624.434	5.030	0.273	0.202
-623.419	-19.192	0.160	-0.100
-622.405	316.182	0.005	-0.009
-621.390	-181.429	0.143	-0.003
-620.376	-133.006	-0.134	-0.017
-619.361	-200.000	0.016	0.129
-618.346	-200.000	0.021	0.229
-617.332	-200.000	-0.007	0.364
-616.317	694.825	-0.068	-0.181
-615.303	-143.776	-0.297	0.028
-614.288	524.956	0.058	-0.138
-613.273	469.331	-0.099	0.223
-612.259	283.815	-0.131	-0.238
-611.244	29.075	0.254	0.217
-610.230	43.499	0.221	0.204
-609.215	-200.000	0.006	-0.100
-608.201	-40.955	-0.093	-0.048
-607.186	242.161	-0.061	-0.103
-606.171	800.000	-0.044	0.163
-605.157	-115.936	0.314	-0.059
-604.142	523.378	-0.097	0.230
-603.128	64.909	0.127	-0.129
-602.113	-72.774	0.285	-0.106
-601.098	-157.952	-0.110	-0.007
-600.084	-114.562	-0.274	-0.053
-599.069	-146.491	0.360	0.032
-598.055	390.218	-0.099	0.206
-597.040	-81.091	-0.123	0.041
-596.025	354.950	-0.054	-0.107
-595.011	-124.492	0.230	0.036
-593.996	401.330	-0.133	-0.281
-592.982	328.937	-0.193	-0.373
-591.967	-124.465	0.300	0.047
-590.952	-200.000	-0.008	0.073
-589.938	-200.000	-0.025	-0.120
-588.923	63.200	-0.131	-0.132
-587.909	602.593	-0.058	0.145
-586.894	-200.000	0.016	0.309
-585.879	-74.914	-0.320	-0.115
-584.865	-158.635	-0.287	-0.017
-583.850	-85.339	-0.122	-0.038
-582.836	-125.293	0.106	-0.016
-581.821	344.528	0.156	-0.308
-580.806	438.661	0.060	-0.131
-579.792	-200.000	-0.019	-0.159
-578.777	-200.000	-0.005	-0.185
-577.763	-21.469	-0.030	-0.018
-576.748	185.159	-0.128	-0.191
-575.733	109.890	-0.139	0.168
-574.719	363.499	0.043	0.087
-573.704	-200.000	0.053	0.273
-572.690	-200.000	-0.025	-0.129
-571.675	578.656	-0.033	-0.082
-570.661	6.616	0.033	-0.025
-569.646	-42.847	-0.188	-0.096
-568.631	204.542	0.147	-0.228
-567.617	78.923	-0.214	0.230
-566.602	-75.063	-0.127	0.046
-565.588	-200.000	-0.045	-0.288
-564.573	-68.526	-0.214	-0.083
-563.558	-200.000	0.047	0.354
-562.544	186.179	0.112	0.168
-561.529	-26.320	0.227	-0.134
-560.515	-200.000	-0.047	-0.350
-559.500	68.569	-0.140	-0.145
-558.485	-24.632	-0.041	0.024
-557.471	767.998	-0.065	0.179
-556.456	124.660	0.078	-0.098
-555.442	144.364	-0.106	0.142
-554.427	-41.594	-0.256	0.132
-553.412	54.065	0.257	-0.248
-552.398	800.000	-0.084	-0.305
-551.383	-165.320	-0.427	0.019
-550.369	-49.187	-0.278	0.133
-549.354	32.908	0.242	0.211
-548.339	-200.000	-0.052	-0.241
-547.325	550.141	0.033	0.080
-546.310	-39.440	0.072	-0.038
-545.296	-1.395	0.090	-0.064
-544.281	83.455	0.152	0.167
-543.266	800.000	0.074	-0.238
-542.252	-6.788	0.252	-0.172
-541.237	-4.777	-0.258	-0.178
-540.223	-185.735	0.355	-0.005
-539.208	800.000	-0.028	0.108
-538.193	-156.334	-0.465	0.029
-537.179	234.664	-0.079	0.131
-536.164	-200.000	0.044	0.268
-535.150	800.000	-0.039	0.134
-534.135	-187.058	0.214	0.003
-533.121	306.904	-0.071	0.133
-532.106	44.122	-0.095	-0.087
-531.091	13.398	0.235	0.183
-530.077	-47.959	-0.253	-0.123
-529.062	-51.491	0.223	-0.105
-528.048	-95.909	-0.313	0.084
-527.033	-31.537	-0.335	0.189
-526.018	367.241	0.053	-0.106
-525.004	800.000	0.052	0.222
-523.989	-144.435	0.242	-0.023
-522.975	800.000	-0.129	0.389
-521.960	-200.000	-0.042	0.249
-520.945	-25.574	0.389	-0.230
-519.931	448.338	-0.165	-0.365
-518.916	127.541	0.169	0.215
-517.902	-164.549	-0.160	-0.007
-516.887	-200.000	0.020	0.209
-515.872	64.763	-0.122	0.124
-514.858	-135.041	-0.147	0.018
-513.843	-200.000	-0.038	0.192
-512.829	-107.832	-0.196	0.043
-511.814	159.132	0.159	-0.221
-510.799	800.000	-0.106	-0.401
-509.785	226.789	0.064	0.104
-508.770	-53.243	0.284	-0.131
-507.756	-19.937	0.144	-0.089
-506.741	140.833	-0.065	0.086
-505.726	217.395	0.212	-0.339
-504.712	202.080	0.018	-0.028
-503.697	-17.722	-0.332	0.209
-502.683	208.937	-0.065	-0.102
-501.668	-109.870	0.267	0.056
-500.653	800.000	0.065	-0.181
-499.639	-6.813	0.226	-0.154
-498.624	-200.000	0.013	0.218
-497.610	380.711	0.061	-0.126
-496.595	78.539	-0.060	-0.064
-495.581	20.587	-0.142	0.115
-494.566	-118.388	-0.167	-0.030
-493.551	5.848	-0.339	0.252
-492.537	64.121	0.026	-0.027
-491.522	47.629	-0.263	0.246
-490.508	-56.380	-0.233	0.103
-489.493	-150.667	0.336	-0.026
-488.478	-100.619	-0.189	-0.047
-487.464	209.227	-0.095	0.149
-486.449	-91.233	-0.203	0.058
-485.435	-200.000	-0.034	-0.155
-484.420	-118.534	-0.198	0.035
-483.405	-47.434	-0.375	-0.183
-482.391	-34.777	-0.128	-0.070
-481.376	495.244	0.101	0.233
-480.362	137.397	0.058	-0.075
-479.347	304.622	-0.162	0.301
-478.332	-98.619	0.344	0.088
-477.318	89.701	0.147	-0.164
-476.303	-200.000	0.013	-0.091
-475.289	107.676	-0.217	0.259
-474.274	-139.760	0.197	0.021
-473.259	185.156	-0.121	-0.180
-472.245	-89.177	0.410	-0.121
-471.230	43.407	0.206	-0.188
-470.216	61.541	0.116	0.115
-469.201	264.817	0.006	-0.010
-468.186	552.935	0.058	-0.140
-467.172	800.000	-0.056	0.183
-466.157	127.282	-0.212	-0.270
-465.143	-111.749	-0.060	0.012
-464.128	800.000	-0.043	0.138
-463.113	591.157	0.044	0.107
-462.099	-110.650	-0.467	0.097
-461.084	142.030	0.293	0.389
-460.070	-200.000	-0.032	-0.291
-459.055	492.900	0.069	0.157
-458.040	10.037	-0.244	-0.185
-457.026	-57.973	0.126	-0.055
-456.011	259.163	-0.044	0.075
-454.997	18.333	-0.064	0.051
-453.982	-63.086	-0.138	-0.057
-452.968	63.329	-0.143	-0.143
-451.953	75.130	0.141	0.149
-450.938	640.266	-0.091	-0.231
-449.924	800.000	0.019	-0.083
-448.909	-58.069	-0.191	0.083
-447.895	194.912	-0.175	0.266
-446.880	-80.453	0.110	-0.037
-445.865	-18.460	-0.157	0.098
-444.851	-93.353	0.158	0.044
-443.836	739.540	0.045	-0.122
-442.822	-72.830	-0.577	0.212
-441.807	-101.910	-0.193	0.047
-440.792	733.456	-0.086	-0.230
-439.778	-78.067	0.411	-0.142
-438.763	-133.739	-0.095	0.012
-437.749	57.649	0.094	0.091
-436.734	51.201	0.131	-0.124
-435.719	-200.000	0.015	-0.083
-434.705	-200.000	0.059	0.308
-433.690	800.000	-0.027	0.102
-432.676	137.083	-0.059	-0.077
-431.661	-137.286	-0.158	0.018
-430.646	800.000	0.072	0.240
-429.632	-162.412	0.347	-0.017
-428.617	298.925	-0.028	0.052
-427.603	-200.000	0.050	-0.277
-426.588	280.129	0.171	-0.305
-425.573	-200.000	0.033	-0.201
-424.559	-200.000	0.063	-0.461
-423.544	303.815	-0.125	-0.232
-422.530	-69.478	0.265	-0.101
-421.515	-123.408	0.202	0.032
-420.500	281.022	0.161	0.289
-419.486	-124.709	-0.088	0.014
-418.471	210.504	0.146	-0.229
-417.457	-152.559	-0.155	-0.011
-416.442	-9.402	-0.020	0.013
-415.428	361.750	0.158	-0.317
-414.413	-165.867	0.142	-0.006
-413.398	297.401	-0.030	0.055
-412.384	-5.047	0.233	0.160
-411.369	-200.000	-0.059	-0.292
-410.355	800.000	-0.031	0.099
-409.340	270.376	-0.059	0.103
-408.325	107.261	0.075	0.089
-407.311	2.390	-0.100	0.072
-406.296	800.000	-0.088	-0.277
-405.282	-70.005	0.163	-0.062
-404.267	-103.647	0.115	-0.027
-403.252	44.050	-0.100	-0.092
-402.238	291.632	0.163	-0.295
-401.223	-200.000	0.005	-0.134
-400.209	167.154	0.144	0.205
-399.194	-81.051	0.053	0.018
-398.179	444.397	0.100	0.218
-397.165	-69.728	0.192	-0.073
-396.150	-73.551	0.262	0.095
-395.136	45.017	0.092	0.085
-394.121	22.019	-0.297	0.242
-393.106	-200.000	-0.038	0.232
-392.092	115.350	0.060	0.073
-391.077	316.105	0.037	-0.070
-390.063	-84.610	0.280	0.088
-389.048	-18.311	0.155	-0.097
-388.033	-59.583	-0.317	-0.136
-387.019	43.395	0.088	0.080
-386.004	-57.351	-0.052	0.023
-384.990	-101.269	0.141	0.034
-383.975	-93.140	0.147	0.041
-382.960	-200.000	-0.010	0.084
-381.946	129.135	-0.171	-0.218
-380.931	164.323	0.084	0.118
-379.917	-80.939	-0.010	0.003
-378.902	543.575	0.107	-0.255
-377.888	-200.000	-0.012	-0.156
-376.873	-200.000	0.024	-0.462
-375.858	-71.713	-0.066	0.024
-374.844	133.835	-0.038	-0.050
-373.829	-200.000	0.021	0.146
-372.815	556.021	-0.045	0.108
-371.800	97.397	-0.127	-0.145
-370.785	-149.609	0.049	0.004
-369.771	-200.000	0.046	-0.405
-368.756	72.756	-0.207	0.216
-367.742	-200.000	-0.006	0.335
-366.727	180.506	-0.224	0.327
-365.712	-200.000	0.007	0.135
-364.698	-177.125	0.351	-0.009
-363.683	104.282	-0.180	0.211
-362.669	211.561	-0.022	-0.035
-361.654	120.517	0.066	0.081
-360.639	245.898	-0.137	0.231
-359.625	447.522	-0.144	0.317
-358.610	-59.066	0.197	0.085
-357.596	21.611	0.084	-0.068
-356.581	800.000	0.087	0.306
-355.566	-200.000	-0.007	-0.093
-354.552	564.636	0.057	-0.137
-353.537	-50.226	0.294	0.138
-352.523	-8.773	-0.150	0.100
-351.508	-117.350	-0.067	-0.012
-350.493	800.000	-0.034	-0.145
-349.479	210.427	0.088	-0.138
-348.464	190.387	0.125	0.187
-347.450	-7.314	-0.358	-0.242
-346.435	-200.000	0.267	0.000
-345.420	-199.176	0.308	-0.002
-344.406	-200.000	-0.018	-0.268
-343.391	545.776	0.138	0.328
-342.377	90.132	-0.167	-0.186
-341.362	-114.540	-0.076	-0.015
-340.348	-74.755	-0.386	-0.138
-339.333	-163.948	0.102	0.005
-338.318	-90.062	-0.135	-0.039
-337.304	16.463	0.124	-0.097
-336.289	148.010	0.315	0.423
-335.275	123.179	0.103	-0.128
-334.260	-48.659	0.265	-0.127
-333.245	-61.221	-0.184	-0.077
-332.231	303.816	0.294	-0.542
-331.216	185.945	-0.154	-0.228
-330.202	-200.000	0.013	0.091
-329.187	577.185	-0.014	-0.034
-328.172	65.748	-0.256	0.258
-327.158	800.000	-0.077	-0.296
-326.143	800.000	-0.028	-0.081
-325.129	99.685	0.036	-0.041
-324.114	-32.610	0.183	-0.101
-323.099	500.537	-0.016	0.036
-322.085	759.769	0.116	0.312
-321.070	-137.232	-0.104	-0.012
-320.056	-161.319	-0.264	-0.014
-319.041	-200.000	0.047	0.295
-318.026	-34.332	-0.052	-0.029
-317.012	-200.000	-0.016	0.375
-315.997	-200.000	0.012	-0.113
-314.983	64.432	-0.180	-0.180
-313.968	32.546	-0.105	0.090
-312.953	-62.608	-0.080	-0.033
-311.939	579.556	0.020	-0.050
-310.924	708.831	-0.151	-0.397
-309.910	-200.000	0.004	0.028
-308.895	82.687	0.102	0.110
-307.880	80.759	-0.252	0.270
-306.866	433.707	-0.011	0.024
-305.851	671.567	-0.044	0.114
-304.837	-200.000	-0.014	-0.163
-303.822	-167.677	0.515	-0.020
-302.807	-181.613	0.153	0.003
-301.793	800.000	-0.072	0.199
-300.778	-200.000	-0.003	0.186
-299.764	-200.000	-0.026	-0.141
-298.749	91.983	-0.283	0.317
-297.735	-2.166	-0.036	-0.025
-296.720	47.845	0.228	-0.212
-295.705	800.000	-0.123	-0.391
-294.691	800.000	-0.068	0.256
-293.676	800.000	-0.117	0.466
-292.662	52.944	-0.236	0.225
-291.647	-23.214	-0.044	0.027
-290.632	46.252	-0.357	0.329
-289.618	-158.776	0.255	-0.015
-288.603	-57.391	0.245	0.107
-287.589	-26.899	0.197	-0.114
-286.574	372.012	-0.070	-0.142
-285.559	-200.000	-0.050	-0.236
-284.545	119.665	-0.163	0.200
-283.530	159.974	0.146	-0.202
-282.516	101.982	-0.098	0.114
-281.501	-3.797	-0.191	0.132
-280.486	34.001	0.136	0.118
-279.472	249.181	0.181	0.304
-278.457	-200.000	0.036	-0.573
-277.443	-100.023	-0.142	-0.035
-276.428	-59.530	-0.047	-0.020
-275.413	800.000	-0.039	-0.126
-274.399	-200.000	-0.023	-0.134
-273.384	-110.834	0.147	0.030
-272.370	-11.319	-0.105	0.068
-271.355	-52.871	-0.232	0.106
-270.340	-91.832	-0.271	-0.076
-269.326	-56.644	0.237	-0.104
-268.311	-200.000	0.019	-0.338
-267.297	-122.063	0.121	0.020
-266.282	-200.000	0.044	0.192
-265.267	-46.088	0.254	0.124
-264.253	11.898	-0.046	-0.035
-263.238	-19.725	-0.256	0.157
-262.224	-126.918	0.304	0.044
-261.209	431.078	-0.035	0.075
-260.195	235.953	0.153	0.250
-259.180	351.950	0.097	-0.191
-258.165	136.366	0.105	-0.136
-257.151	222.838	0.050	-0.079
-256.136	-200.000	-0.000	0.214
-255.122	-183.225	0.373	-0.007
-254.107	-200.000	-0.065	-0.340
-253.092	-158.199	0.141	0.008
-252.078	-79.246	0.379	-0.128
-251.063	-2.611	-0.076	-0.053
-250.049	88.434	0.053	0.058
-249.034	-151.033	0.272	0.020
-248.019	-200.000	-0.015	-0.138
-247.005	-200.000	-0.000	0.045
-245.990	118.758	0.029	0.036
-244.976	553.608	0.091	0.216
-243.961	-196.919	-0.113	0.001
-242.946	-59.457	0.252	0.107
-241.932	-200.000	0.037	0.307
-240.917	72.557	-0.174	-0.180
-239.903	-111.339	-0.127	0.026
-238.888	-148.584	0.456	-0.037
-237.873	293.034	0.141	0.256
-236.859	248.608	-0.086	0.144
-235.844	800.000	0.051	0.154
-234.830	14.354	-0.340	0.263
-233.815	103.225	-0.153	0.178
-232.800	112.928	0.100	0.120
-231.786	168.723	0.215	-0.304
-230.771	263.397	-0.009	-0.016
-229.757	-136.269	-0.328	-0.038
-228.742	800.000	0.089	-0.321
-227.727	-200.000	-0.043	-0.205
-226.713	41.169	-0.217	0.194
-225.698	-41.128	0.301	-0.154
-224.684	-38.481	-0.099	-0.052
-223.669	-116.835	-0.066	-0.012
-222.655	354.523	-0.103	0.202
-221.640	-200.000	0.009	0.341
-220.625	344.505	-0.182	-0.354
-219.611	-53.902	-0.336	0.152
-218.596	800.000	0.109	-0.338
-217.582	656.927	0.126	-0.320
-216.567	-79.437	0.062	-0.021
-215.552	-11.787	0.122	0.079
-214.538	800.000	0.026	-0.076
-213.523	-166.498	0.276	-0.011
-212.509	-97.378	-0.531	0.137
-211.494	-103.597	-0.219	-0.051
-210.479	0.033	-0.164	0.116
-209.465	-200.000	-0.033	-0.150
-208.450	-143.303	0.175	0.017
-207.436	-76.370	-0.150	0.052
-206.421	-200.000	0.029	-0.334
-205.406	12.423	-0.186	-0.142
-204.392	-79.665	-0.233	0.078
-203.377	15.865	0.119	0.093
-202.363	113.899	0.172	0.207
-201.348	481.939	-0.047	-0.105
-200.333	-101.835	-0.223	-0.054
-199.319	-14.257	-0.498	-0.318
-198.304	-65.285	-0.122	0.048
-197.290	363.092	0.083	-0.164
-196.275	35.969	-0.178	0.155
-195.260	-72.999	0.245	0.089
-194.246	-139.932	-0.224	-0.023
-193.231	-55.425	-0.362	-0.161
-192.217	133.534	-0.106	0.136
-191.202	-42.238	0.234	0.119
-190.187	-20.748	0.304	0.185
-189.173	144.591	0.079	0.104
-188.158	57.878	0.168	-0.163
-187.144	-200.000	0.025	-0.163
-186.129	666.880	0.063	-0.161
-185.114	-29.552	-0.240	0.136
-184.100	-167.515	-0.300	0.012
-183.085	62.464	0.086	0.085
-182.071	219.912	-0.229	0.362
-181.056	800.000	0.068	-0.262
-180.042	800.000	0.082	-0.238
-179.027	-21.596	-0.202	0.122
-178.012	-8.929	0.228	0.151
-176.998	-138.790	0.422	-0.046
-175.983	-200.000	-0.007	0.092
-174.969	-38.419	0.327	-0.171
-173.954	-55.208	0.141	0.063
-172.939	-200.000	-0.011	0.232
-171.925	39.906	-0.206	-0.183
-170.910	-81.862	-0.079	-0.026
-169.896	2.658	-0.212	-0.152
-168.881	427.635	0.075	-0.159
-167.866	674.421	-0.177	0.455
-166.852	800.000	-0.072	0.305
-165.837	-80.689	-0.265	-0.087
-164.823	-175.937	0.253	0.007
-163.808	-139.050	-0.156	-0.017
-162.793	800.000	-0.052	0.212
-161.779	99.707	0.301	0.345
-160.764	-200.000	-0.037	-0.174
-159.750	-177.899	0.382	-0.009
-158.735	-76.238	0.194	-0.067
-157.720	90.209	-0.241	-0.266
-156.706	785.186	-0.089	0.242
-155.691	-31.882	0.057	0.032
-154.677	-100.543	0.220	-0.054
-153.662	-61.129	-0.471	-0.197
-152.647	97.241	-0.190	0.216
-151.633	-13.836	-0.183	-0.117
-150.618	28.163	-0.319	-0.266
-149.604	-56.278	0.159	-0.070
-148.589	24.407	0.083	-0.068
-147.574	94.301	-0.168	-0.189
-146.560	42.526	-0.065	0.059
-145.545	173.801	-0.117	0.167
-144.531	-98.673	-0.256	0.064
-143.516	-200.000	-0.064	-0.336
-142.502	66.277	0.148	-0.149
-141.487	211.741	-0.043	-0.067
-140.472	-200.000	0.018	0.350
-139.458	-72.990	-0.229	0.083
-138.443	293.214	-0.080	0.144
-137.429	-4.124	-0.083	-0.057
-136.414	457.361	-0.051	-0.113
-135.399	40.681	0.324	-0.289
-134.385	-128.443	0.223	0.031
-133.370	648.874	0.105	0.265
-132.356	-107.019	-0.148	0.032
-131.341	-200.000	0.025	-0.120
-130.326	600.077	-0.074	-0.182
-129.312	-68.691	0.205	0.078
-128.297	-30.316	-0.098	0.055
-127.283	97.895	0.072	-0.082
-126.268	-32.885	0.100	0.055
-125.253	800.000	0.095	-0.270
-124.239	-19.992	0.084	-0.051
-123.224	20.589	-0.127	-0.102
-122.210	23.979	0.325	0.264
