DTS Sentinel unit serial number:	SN413079Multiplexer serial number:	ORYXHardware model number:	OX4-SRSoftware version number:	ORYX F/W v4.00 Oryx Data Collector v3.7.2.0data status	okinstallation	princeton_trtdifferential loss correction	single-endedforward channel	channel 4reverse channel	N/Adate	2019/09/19time	07:53:34forward acquisition time	60.00reverse acquisition time	0.00gamma	496.2192k internal	0.2339k external	0.2339temperature offset calibration	1.0020default loss term (dB/km)	0.3790temperature slope calibration	1.0000multiplexer offset coefficient	1.0000multiplexer slope coefficient	1.0000fibre end	0.00T internal ref (°C)	19.67T ext. ref 1 (°C)	0.55T ext. ref 2 (°C)	15.14length (m)	temperature (°C)	Stokes	anti-Stokes-747.200	-132.563	0.345	-0.045
-746.185	-200.000	-0.013	-0.403
-745.171	800.000	0.079	0.252
-744.156	-19.966	0.066	-0.041
-743.142	-76.526	0.173	-0.061
-742.127	-200.000	0.001	0.088
-741.112	-146.356	-0.258	0.023
-740.098	216.465	0.112	-0.178
-739.083	-155.895	-0.352	0.022
-738.069	513.371	-0.115	-0.268
-737.054	95.704	0.099	0.113
-736.039	-98.224	-0.250	-0.064
-735.025	-148.061	0.157	-0.013
-734.010	28.043	0.046	0.039
-732.996	-120.586	-0.198	0.034
-731.981	198.005	-0.202	-0.310
-730.966	8.466	-0.123	-0.093
-729.952	-41.843	-0.050	-0.026
-728.937	800.000	-0.111	0.339
-727.923	-102.742	0.144	-0.034
-726.908	-67.977	-0.048	-0.019
-725.894	142.160	0.272	0.361
-724.879	-63.460	-0.333	-0.137
-723.864	-114.016	0.021	-0.004
-722.850	59.406	-0.132	-0.131
-721.835	-22.440	-0.257	-0.156
-720.821	-36.614	-0.332	0.179
-719.806	-200.000	-0.006	0.089
-718.791	-27.841	0.163	-0.095
-717.777	424.589	-0.095	0.205
-716.762	-200.000	0.021	-0.158
-715.748	139.353	-0.069	0.091
-714.733	129.183	-0.107	-0.137
-713.718	-73.524	0.102	-0.037
-712.704	-162.475	0.306	-0.015
-711.689	-70.070	-0.103	-0.039
-710.675	404.149	0.133	-0.281
-709.660	800.000	0.014	0.043
-708.645	326.588	-0.070	0.134
-707.631	-94.806	0.222	0.060
-706.616	800.000	-0.048	0.151
-705.602	95.025	-0.158	-0.180
-704.587	-127.909	-0.135	-0.019
-703.572	-167.605	-0.237	-0.009
-702.558	61.643	0.122	0.122
-701.543	1.555	0.172	-0.124
-700.529	-46.414	0.196	-0.097
-699.514	-0.617	-0.029	-0.020
-698.499	178.452	0.057	0.083
-697.485	185.935	0.168	-0.250
-696.470	-86.712	-0.114	0.035
-695.456	94.234	0.115	-0.130
-694.441	-200.000	-0.025	0.304
-693.426	37.724	-0.271	-0.241
-692.412	13.910	-0.067	-0.052
-691.397	-26.265	-0.414	0.243
-690.383	-200.000	0.017	0.096
-689.368	472.973	-0.092	0.208
-688.354	-31.641	-0.232	-0.131
-687.339	37.011	0.143	0.127
-686.324	-99.526	0.170	0.043
-685.310	-29.279	-0.095	0.055
-684.295	-115.279	-0.107	-0.020
-683.281	-46.474	-0.083	0.041
-682.266	72.578	-0.078	-0.081
-681.251	-70.758	0.186	-0.070
-680.237	-33.189	-0.194	-0.108
-679.222	-115.861	0.307	0.057
-678.208	-200.000	-0.003	0.171
-677.193	732.083	0.030	0.080
-676.178	-23.273	0.349	0.210
-675.164	-200.000	0.041	-0.194
-674.149	-197.553	-0.199	-0.001
-673.135	181.738	0.042	0.062
-672.120	112.837	-0.175	0.212
-671.105	429.091	-0.091	-0.196
-670.091	119.905	0.120	0.149
-669.076	-200.000	-0.003	0.114
-668.062	-105.997	-0.141	0.032
-667.047	-75.132	0.116	0.042
-666.032	-91.388	-0.141	-0.040
-665.018	514.238	0.043	0.101
-664.003	800.000	-0.049	-0.136
-662.989	264.655	-0.129	-0.224
-661.974	105.762	0.176	0.209
-660.959	118.841	-0.209	-0.258
-659.945	97.575	0.113	0.130
-658.930	234.708	0.121	0.199
-657.916	597.231	-0.120	0.297
-656.901	-47.912	-0.251	0.122
-655.886	-121.558	0.436	-0.072
-654.872	-99.380	0.317	0.080
-653.857	144.861	-0.131	0.175
-652.843	8.363	0.188	0.141
-651.828	262.203	-0.088	-0.152
-650.814	-149.710	0.303	-0.024
-649.799	-126.823	-0.295	-0.043
-648.784	-69.081	-0.239	-0.092
-647.770	156.450	0.174	0.241
-646.755	-200.000	0.015	0.363
-645.741	-200.000	0.044	0.292
-644.726	-46.646	-0.354	0.173
-643.711	344.408	-0.153	0.299
-642.697	126.807	0.301	0.381
-641.682	-200.000	0.031	-0.277
-640.668	113.750	0.083	0.100
-639.653	-79.721	-0.228	0.077
-638.638	280.005	0.004	0.007
-637.624	-9.944	-0.119	0.079
-636.609	-90.657	-0.076	0.022
-635.595	-200.000	0.029	-0.169
-634.580	-69.489	0.111	0.042
-633.565	-200.000	0.016	0.119
-632.551	64.254	-0.072	0.073
-631.536	-200.000	0.041	0.212
-630.522	238.475	0.132	-0.219
-629.507	-4.061	-0.197	-0.136
-628.492	-200.000	-0.001	-0.172
-627.478	-87.827	0.193	0.058
-626.463	-200.000	-0.023	0.205
-625.449	800.000	-0.110	-0.344
-624.434	-80.464	-0.136	-0.045
-623.419	-78.025	0.134	0.046
-622.405	-184.524	-0.296	0.005
-621.390	-70.328	-0.235	-0.089
-620.376	-10.736	0.152	0.100
-619.361	-156.305	-0.231	0.014
-618.346	800.000	-0.038	0.163
-617.332	49.797	-0.024	0.023
-616.317	-200.000	0.025	-0.156
-615.303	-169.420	0.200	-0.007
-614.288	95.233	0.083	-0.094
-613.273	30.337	0.102	-0.087
-612.259	-72.433	0.162	0.060
-611.244	26.312	-0.516	0.430
-610.230	506.137	0.057	-0.131
-609.215	-183.008	-0.148	0.003
-608.201	289.972	0.130	-0.235
-607.186	-200.000	-0.052	-0.257
-606.171	23.900	0.201	0.165
-605.157	-117.418	0.144	-0.026
-604.142	116.633	0.115	0.140
-603.128	-182.540	-0.108	-0.002
-602.113	-200.000	-0.015	0.072
-601.098	-63.065	-0.210	0.087
-600.084	3.645	0.298	0.217
-599.069	-136.668	-0.186	-0.021
-598.055	101.641	0.121	-0.140
-597.040	-121.817	0.388	-0.064
-596.025	317.768	-0.034	-0.064
-595.011	800.000	0.085	0.287
-593.996	800.000	-0.085	-0.273
-592.982	61.856	-0.017	0.016
-591.967	-67.323	-0.240	0.094
-590.952	94.000	0.065	0.073
-589.938	-200.000	0.019	0.343
-588.923	216.517	0.137	-0.217
-587.909	-63.871	-0.379	-0.155
-586.894	69.018	-0.139	-0.143
-585.879	-166.601	0.366	0.015
-584.865	-200.000	0.034	-0.300
-583.850	555.914	0.049	-0.117
-582.836	-118.561	0.291	0.051
-581.821	800.000	0.074	-0.319
-580.806	39.593	-0.151	0.135
-579.792	-150.026	-0.121	0.009
-578.777	563.267	-0.172	0.414
-577.763	257.027	-0.067	-0.115
-576.748	-140.408	0.249	-0.026
-575.733	-60.631	-0.283	-0.120
-574.719	-63.139	-0.160	-0.066
-573.704	-138.531	0.304	0.033
-572.690	-200.000	0.032	0.148
-571.675	246.898	0.191	-0.321
-570.661	285.651	-0.192	-0.345
-569.646	-67.735	0.074	0.029
-568.631	-141.465	-0.139	-0.014
-567.617	220.165	-0.138	-0.220
-566.602	69.662	-0.154	0.158
-565.588	-200.000	0.011	0.135
-564.573	-51.749	0.101	-0.047
-563.558	-155.048	0.235	-0.015
-562.544	-65.583	-0.365	0.146
-561.529	364.366	0.126	0.252
-560.515	27.691	-0.099	-0.083
-559.500	-50.532	-0.182	-0.085
-558.485	-136.920	0.320	0.037
-557.471	-84.322	-0.156	0.049
-556.456	-185.413	-0.071	-0.001
-555.442	-200.000	-0.023	-0.218
-554.427	144.376	-0.127	-0.169
-553.412	-40.375	-0.081	0.042
-552.398	800.000	-0.037	0.127
-551.383	-200.000	0.020	0.096
-550.369	20.947	-0.215	-0.174
-549.354	25.980	0.120	-0.100
-548.339	-3.932	0.120	-0.083
-547.325	170.609	0.066	-0.094
-546.310	-55.254	-0.223	-0.100
-545.296	-93.598	0.254	0.070
-544.281	-90.324	-0.014	0.004
-543.266	-117.441	-0.331	-0.060
-542.252	-200.000	0.002	-0.055
-541.237	378.352	-0.095	0.194
-540.223	-55.034	0.340	-0.152
-539.208	43.270	-0.147	0.133
-538.193	270.798	-0.090	-0.157
-537.179	-4.880	0.071	-0.049
-536.164	800.000	0.058	-0.215
-535.150	-200.000	0.008	-0.232
-534.135	-200.000	0.037	-0.218
-533.121	800.000	-0.041	0.132
-532.106	-200.000	-0.001	0.171
-531.091	70.587	0.059	-0.060
-530.077	-71.548	-0.294	0.109
-529.062	800.000	0.087	-0.249
-528.048	778.650	-0.078	0.213
-527.033	-200.000	-0.024	-0.396
-526.018	129.589	0.253	-0.321
-525.004	4.442	-0.067	-0.049
-523.989	371.344	-0.126	0.254
-522.975	-13.765	0.193	-0.124
-521.960	33.519	-0.223	-0.193
-520.945	-63.231	0.410	-0.168
-519.931	-40.175	-0.104	0.054
-518.916	800.000	-0.045	0.152
-517.902	-141.581	-0.426	-0.043
-516.887	-200.000	0.001	0.262
-515.872	559.550	0.043	0.104
-514.858	39.110	-0.058	0.051
-513.843	-175.008	0.212	0.006
-512.829	800.000	-0.066	0.235
-511.814	-200.000	-0.011	-0.160
-510.799	-11.528	0.099	-0.065
-509.785	398.995	0.097	-0.202
-508.770	800.000	-0.117	-0.488
-507.756	652.951	-0.037	-0.095
-506.741	800.000	-0.047	0.134
-505.726	-200.000	-0.054	-0.287
-504.712	-137.369	-0.512	0.058
-503.697	105.343	0.011	-0.013
-502.683	28.532	0.123	0.104
-501.668	327.482	-0.085	0.162
-500.653	81.671	-0.167	0.180
-499.639	-200.000	0.004	-0.037
-498.624	-85.515	0.232	-0.072
-497.610	-49.227	-0.113	-0.054
-496.595	-60.254	-0.038	0.016
-495.581	-154.696	0.147	-0.010
-494.566	-121.765	-0.073	0.012
-493.551	4.623	-0.072	0.053
-492.537	-164.085	0.162	0.007
-491.522	-149.054	0.248	0.020
-490.508	11.797	-0.236	-0.180
-489.493	-162.224	0.446	-0.022
-488.478	-200.000	0.022	0.259
-487.464	-75.026	-0.373	-0.133
-486.449	800.000	0.070	-0.212
-485.435	-26.029	0.203	0.118
-484.420	480.409	-0.118	0.265
-483.405	335.009	-0.031	0.061
-482.391	190.490	0.282	0.421
-481.376	-56.152	-0.326	-0.144
-480.362	606.596	-0.115	-0.284
-479.347	-198.058	-0.245	0.001
-478.332	-139.806	-0.372	0.039
-477.318	-169.490	-0.189	-0.007
-476.303	41.927	0.083	0.075
-475.289	-10.359	-0.270	0.177
-474.274	40.256	0.107	-0.096
-473.259	124.394	-0.084	0.105
-472.245	551.848	-0.171	0.407
-471.230	301.674	-0.097	0.177
-470.216	800.000	0.023	0.075
-469.201	356.040	-0.038	0.075
-468.186	13.384	0.063	0.048
-467.172	800.000	-0.087	-0.245
-466.157	800.000	0.116	-0.389
-465.143	-137.173	-0.228	0.026
-464.128	-73.056	0.239	-0.087
-463.113	157.391	0.195	-0.268
-462.099	-54.331	-0.203	0.092
-461.084	-200.000	-0.012	0.110
-460.070	-5.036	-0.213	0.145
-459.055	800.000	0.062	-0.176
-458.040	187.749	0.104	0.153
-457.026	-2.617	-0.203	-0.141
-456.011	800.000	0.099	-0.328
-454.997	317.326	-0.035	-0.066
-453.982	-30.771	0.227	0.127
-452.968	142.740	-0.034	0.044
-451.953	93.301	-0.150	-0.168
-450.938	14.413	0.072	-0.055
-449.924	-59.399	0.112	0.048
-448.909	295.035	0.253	-0.459
-447.895	-200.000	0.026	-0.213
-446.880	-59.819	0.246	0.104
-445.865	-123.179	0.250	-0.040
-444.851	-50.001	0.146	0.069
-443.836	-50.837	-0.064	-0.030
-442.822	44.733	0.090	0.082
-441.807	83.306	-0.177	0.191
-440.792	-111.946	0.061	-0.012
-439.778	45.262	-0.064	-0.058
-438.763	800.000	-0.009	-0.031
-437.749	-108.363	0.150	0.032
-436.734	-158.539	0.379	-0.022
-435.719	87.215	0.414	0.454
-434.705	659.550	0.145	0.371
-433.690	-137.112	-0.162	0.018
-432.676	47.194	0.141	0.130
-431.661	-200.000	0.061	-0.349
-430.646	-200.000	0.010	-0.178
-429.632	-200.000	-0.020	-0.279
-428.617	-185.023	-0.203	-0.003
-427.603	285.768	0.078	0.140
-426.588	16.349	0.182	-0.142
-425.573	53.980	0.169	-0.161
-424.559	800.000	-0.078	0.312
-423.544	-200.000	-0.028	-0.367
-422.530	-57.283	-0.149	0.065
-421.515	-4.668	-0.101	0.069
-420.500	-200.000	0.019	0.160
-419.486	534.996	-0.195	0.459
-418.471	-79.518	0.234	0.078
-417.457	3.410	-0.213	0.154
-416.442	800.000	-0.039	0.161
-415.428	61.982	0.132	-0.130
-414.413	-200.000	-0.028	0.125
-413.398	-24.306	-0.234	0.138
-412.384	-200.000	-0.034	0.187
-411.369	-200.000	-0.013	0.247
-410.355	-5.306	0.109	-0.074
-409.340	599.409	-0.167	0.411
-408.325	800.000	0.061	0.189
-407.311	-200.000	0.006	-0.261
-406.296	297.449	0.261	0.475
-405.282	-200.000	-0.019	-0.147
-404.267	21.676	0.210	0.169
-403.252	75.336	0.102	-0.107
-402.238	-183.290	0.139	-0.002
-401.223	339.165	0.299	-0.576
-400.209	-59.188	-0.203	0.086
-399.194	-91.485	-0.238	0.067
-398.179	-115.404	0.305	-0.057
-397.165	11.728	0.159	0.121
-396.150	-200.000	-0.047	0.302
-395.136	178.327	-0.067	0.097
-394.121	-42.980	0.146	0.073
-393.106	130.908	0.178	0.226
-392.092	-200.000	-0.024	-0.226
-391.077	-74.384	0.175	0.062
-390.063	85.764	0.127	-0.138
-389.048	734.193	0.120	-0.318
-388.033	84.005	-0.167	0.180
-387.019	180.412	0.058	-0.085
-386.004	230.072	-0.100	-0.162
-384.990	-62.661	-0.380	-0.156
-383.975	0.093	0.141	-0.099
-382.960	-29.848	-0.048	0.027
-381.946	97.036	-0.240	0.273
-380.931	-37.798	-0.067	-0.035
-379.917	-112.828	0.275	0.054
-378.902	399.891	-0.223	-0.462
-377.888	-64.511	0.435	-0.175
-376.873	31.772	-0.094	-0.080
-375.858	-200.000	0.008	-0.108
-374.844	-33.840	0.087	0.047
-373.829	-200.000	0.057	0.421
-372.815	800.000	-0.043	0.133
-371.800	800.000	0.072	0.223
-370.785	84.741	-0.152	0.165
-369.771	-19.088	-0.330	-0.203
-368.756	105.217	0.265	0.309
-367.742	800.000	-0.152	0.584
-366.727	106.711	-0.012	0.014
-365.712	374.739	0.059	-0.119
-364.698	328.135	-0.119	-0.226
-363.683	47.431	0.372	-0.342
-362.669	466.765	-0.170	0.377
-361.654	73.260	-0.253	0.262
-360.639	-93.050	-0.067	0.018
-359.625	-109.023	0.234	0.049
-358.610	-200.000	0.060	0.267
-357.596	-47.982	-0.240	-0.115
-356.581	24.216	-0.105	-0.085
-355.566	130.477	0.123	-0.155
-354.552	-42.791	0.232	0.116
-353.537	512.922	-0.052	0.121
-352.523	-53.439	0.054	0.024
-351.508	-113.553	0.139	0.027
-350.493	-200.000	-0.022	-0.296
-349.479	-35.276	-0.228	-0.123
-348.464	503.202	-0.144	-0.330
-347.450	-200.000	-0.023	0.173
-346.435	-37.251	0.262	-0.139
-345.420	-64.490	-0.340	-0.136
-344.406	288.534	-0.048	0.087
-343.391	263.486	-0.091	-0.156
-342.377	-98.112	-0.493	-0.125
-341.362	255.424	-0.235	-0.397
-340.348	-52.182	0.209	0.096
-339.333	-166.413	0.248	-0.010
-338.318	-102.549	0.181	0.043
-337.304	-200.000	0.070	0.374
-336.289	-91.698	-0.082	-0.023
-335.275	-116.194	-0.215	-0.039
-334.260	-64.788	-0.198	-0.079
-333.245	-116.844	0.452	0.082
-332.231	-61.312	-0.178	0.074
-331.216	-81.810	0.346	0.112
-330.202	-200.000	0.025	0.133
-329.187	91.796	0.155	-0.172
-328.172	-38.507	0.128	0.067
-327.158	-200.000	-0.023	-0.486
-326.143	25.361	-0.244	0.200
-325.129	40.413	-0.347	0.308
-324.114	-56.402	-0.218	0.095
-323.099	-87.397	0.445	-0.133
-322.085	-200.000	-0.010	-0.250
-321.070	235.699	-0.093	0.152
-320.056	6.874	-0.152	0.112
-319.041	25.069	-0.095	0.078
-318.026	230.428	-0.195	-0.315
-317.012	766.552	0.138	-0.371
-315.997	-31.870	-0.106	0.058
-314.983	-108.866	0.129	-0.027
-313.968	-200.000	0.083	-0.365
-312.953	224.718	0.109	-0.174
-311.939	800.000	-0.029	-0.098
-310.924	-200.000	-0.002	-0.429
-309.910	-101.234	0.217	0.052
-308.895	-200.000	0.005	0.056
-307.880	26.319	0.103	-0.085
-306.866	82.197	0.118	0.127
-305.851	602.466	-0.148	0.364
-304.837	70.055	-0.134	-0.136
-303.822	-200.000	0.029	-0.131
-302.807	193.224	-0.100	-0.149
-301.793	277.670	-0.124	-0.218
-300.778	210.736	0.032	-0.049
-299.764	324.113	0.046	-0.087
-298.749	156.153	-0.061	-0.082
-297.735	34.244	0.038	0.033
-296.720	-200.000	-0.033	0.282
-295.705	151.223	0.133	-0.178
-294.691	53.666	-0.104	0.098
-293.676	-130.962	0.267	0.035
-292.662	-54.134	0.067	-0.030
-291.647	-200.000	0.018	0.095
-290.632	72.431	0.092	-0.094
-289.618	114.514	-0.158	-0.189
-288.603	-128.607	0.211	-0.029
-287.589	-200.000	-0.003	0.087
-286.574	-144.657	0.168	0.015
-285.559	108.762	0.087	-0.103
-284.545	70.322	-0.310	0.315
-283.530	-200.000	0.012	0.176
-282.516	-200.000	0.019	0.190
-281.501	-39.705	0.287	0.148
-280.486	82.809	0.135	0.144
-279.472	-200.000	-0.010	0.064
-278.457	228.327	0.128	-0.205
-277.443	-80.379	0.179	0.059
-276.428	41.873	-0.233	-0.208
-275.413	-127.638	0.389	-0.055
-274.399	-162.146	0.299	0.015
-273.384	438.025	-0.138	-0.296
-272.370	800.000	0.135	-0.491
-271.355	-4.498	-0.200	-0.136
-270.340	154.609	0.109	-0.147
-269.326	-54.395	-0.019	0.009
-268.311	-17.669	-0.141	-0.087
-267.297	-145.575	0.122	-0.011
-266.282	522.442	0.067	0.156
-265.267	85.547	0.110	-0.119
-264.253	274.167	-0.234	0.407
-263.238	64.157	-0.022	0.022
-262.224	-200.000	-0.100	-0.457
-261.209	-92.544	-0.233	0.064
-260.195	-200.000	-0.027	-0.250
-259.180	-200.000	0.004	-0.320
-258.165	-32.125	-0.308	0.170
-257.151	570.387	0.194	0.464
-256.136	91.968	0.164	0.182
-255.122	-200.000	-0.016	-0.133
-254.107	-25.653	-0.146	-0.085
-253.092	16.521	0.328	-0.255
-252.078	-128.245	-0.133	0.019
-251.063	115.852	0.235	-0.282
-250.049	-87.979	0.272	-0.080
-249.034	80.174	-0.338	0.357
-248.019	-162.962	-0.106	-0.005
-247.005	-200.000	-0.013	-0.198
-245.990	-48.303	0.178	-0.085
-244.976	-143.005	0.163	-0.016
-243.961	-175.130	-0.444	0.012
-242.946	100.887	0.084	-0.096
-241.932	587.177	-0.122	-0.295
-240.917	-2.748	-0.185	0.127
-239.903	326.297	0.118	0.223
-238.888	-200.000	-0.009	0.142
-237.873	42.345	-0.136	0.122
-236.859	19.839	-0.277	0.219
-235.844	6.826	-0.108	-0.079
-234.830	-186.758	-0.394	-0.005
-233.815	-200.000	0.008	-0.077
-232.800	-178.064	0.137	-0.003
-231.786	-43.316	-0.104	-0.052
-230.771	-200.000	-0.004	-0.196
-229.757	-200.000	-0.075	0.348
-228.742	-37.200	-0.227	0.119
-227.727	-104.248	-0.257	0.059
-226.713	-34.561	-0.236	-0.127
-225.698	292.451	0.165	-0.296
-224.684	86.823	-0.200	-0.217
-223.669	-200.000	-0.038	0.256
-222.655	71.011	0.303	-0.308
-221.640	-97.231	0.233	-0.060
-220.625	-66.519	0.156	0.061
-219.611	311.752	0.106	-0.195
-218.596	724.903	-0.118	0.309
-217.582	-17.615	0.237	-0.146
-216.567	66.736	-0.250	0.250
-215.552	116.240	-0.088	0.106
-214.538	348.916	-0.053	-0.103
-213.523	-115.400	0.376	-0.070
-212.509	-84.317	-0.081	0.025
-211.494	-200.000	0.003	-0.017
-210.479	-146.615	0.310	0.026
-209.465	21.112	-0.054	-0.043
-208.450	-16.027	-0.423	0.264
-207.436	-21.886	-0.200	-0.119
-206.421	-200.000	-0.031	0.151
-205.406	-149.647	-0.261	-0.020
-204.392	26.404	0.154	-0.127
-203.377	560.366	0.079	0.188
-202.363	679.909	-0.125	0.320
-201.348	-141.358	0.102	0.010
-200.333	-153.161	0.204	-0.014
-199.319	27.365	-0.100	0.082
-198.304	-93.236	-0.205	0.056
-197.290	800.000	-0.097	0.265
-196.275	-51.417	-0.132	0.060
-195.260	322.666	0.086	0.161
-194.246	-0.886	0.197	-0.137
-193.231	101.492	-0.080	0.091
-192.217	219.825	-0.141	0.222
-191.202	202.206	-0.074	0.111
-190.187	-200.000	-0.024	0.183
-189.173	518.993	0.051	-0.117
-188.158	39.882	0.388	0.341
-187.144	321.425	-0.060	-0.111
-186.129	-61.956	0.344	-0.141
-185.114	-80.919	0.103	-0.034
-184.100	3.566	-0.313	0.224
-183.085	-200.000	-0.032	0.352
-182.071	-38.533	-0.161	-0.084
-181.056	-200.000	0.050	-0.268
-180.042	63.818	-0.234	0.230
-179.027	237.700	0.258	-0.420
-178.012	-200.000	-0.004	-0.212
-176.998	108.974	-0.301	-0.353
-175.983	-147.348	0.393	-0.033
-174.969	-200.000	-0.042	0.370
-173.954	-200.000	0.033	0.338
-172.939	138.554	0.200	0.257
-171.925	135.867	-0.065	-0.083
-170.910	591.122	-0.102	-0.246
-169.896	-65.290	0.218	-0.086
-168.881	-200.000	-0.044	0.236
-167.866	800.000	0.103	-0.291
-166.852	800.000	0.149	-0.415
-165.837	-91.144	-0.330	-0.093
-164.823	800.000	0.038	-0.115
-163.808	-15.454	0.113	0.071
-162.793	30.751	0.033	-0.028
-161.779	800.000	-0.012	-0.051
-160.764	53.641	0.353	0.332
-159.750	65.259	0.065	0.064
-158.735	-115.661	0.188	-0.035
-157.720	-43.509	0.123	0.061
-156.706	163.231	0.141	0.194
-155.691	-74.242	-0.085	-0.030
-154.677	711.262	0.086	0.224
-153.662	-77.631	0.360	0.122
-152.647	147.997	0.085	0.113
-151.633	50.206	0.047	0.044
-150.618	-200.000	0.027	-0.151
-149.604	-200.000	0.009	0.086
-148.589	-167.191	0.096	0.004
-147.574	-110.769	0.403	-0.081
-146.560	-188.250	-0.187	0.002
-145.545	-200.000	-0.002	-0.270
-144.531	-10.685	0.192	-0.125
-143.516	-22.426	0.177	0.105
-142.502	-200.000	-0.026	0.205
-141.487	159.078	0.219	-0.299
-140.472	-75.649	-0.235	-0.082
-139.458	31.083	-0.109	0.091
-138.443	351.308	0.031	-0.060
-137.429	126.485	-0.045	0.056
-136.414	-200.000	0.021	0.161
-135.399	-200.000	-0.013	-0.334
-134.385	24.561	-0.236	-0.191
-133.370	-200.000	0.007	-0.077
-132.356	24.630	-0.208	-0.169
-131.341	-35.460	0.050	0.027
-130.326	-200.000	-0.011	0.237
-129.312	-200.000	-0.007	0.033
-128.297	-55.480	0.226	-0.099
-127.283	-180.358	-0.206	0.004
-126.268	-104.680	0.196	-0.044
-125.253	28.615	0.072	-0.060
-124.239	342.346	-0.095	0.182
-123.224	116.320	-0.252	-0.303
-122.210	-33.587	-0.427	0.231
-121.195	71.604	0.224	-0.228
