DTS Sentinel unit serial number:	SN413079Multiplexer serial number:	ORYXHardware model number:	OX4-SRSoftware version number:	ORYX F/W v4.00 Oryx Data Collector v3.7.2.0data status	okinstallation	princeton_trtdifferential loss correction	single-endedforward channel	channel 4reverse channel	N/Adate	2019/09/11time	21:03:11forward acquisition time	60.00reverse acquisition time	0.00gamma	496.2192k internal	0.2304k external	0.2304temperature offset calibration	1.0063default loss term (dB/km)	0.3790temperature slope calibration	1.0000multiplexer offset coefficient	1.0000multiplexer slope coefficient	1.0000fibre end	0.00T internal ref (°C)	36.62T ext. ref 1 (°C)	1.60T ext. ref 2 (°C)	30.63length (m)	temperature (°C)	Stokes	anti-Stokes-747.200	-53.650	-0.285	-0.132
-746.185	-121.834	-0.264	0.044
-745.171	-200.000	-0.004	0.062
-744.156	800.000	-0.087	0.246
-743.142	35.929	0.266	0.239
-742.127	-136.858	-0.427	-0.050
-741.112	241.747	-0.050	0.084
-740.098	-200.000	-0.058	0.422
-739.083	-143.319	-0.018	-0.002
-738.069	-200.000	0.060	0.387
-737.054	-19.246	-0.300	-0.189
-736.039	800.000	-0.061	0.241
-735.025	233.582	0.191	0.321
-734.010	162.264	-0.170	-0.243
-732.996	-62.369	-0.181	-0.076
-731.981	-200.000	-0.037	-0.283
-730.966	-25.745	-0.324	-0.195
-729.952	427.877	-0.045	-0.100
-728.937	-35.925	-0.034	-0.019
-727.923	-32.356	-0.179	-0.101
-726.908	233.798	0.084	-0.141
-725.894	-200.000	-0.067	0.444
-724.879	-135.066	0.160	-0.020
-723.864	-67.661	-0.433	-0.173
-722.850	800.000	-0.076	0.265
-721.835	-44.030	0.039	0.020
-720.821	68.195	-0.234	0.244
-719.806	132.590	-0.093	0.122
-718.791	-174.672	-0.195	0.006
-717.777	471.424	-0.032	0.073
-716.762	171.755	-0.311	0.455
-715.748	-192.497	0.063	-0.001
-714.733	-151.913	-0.321	-0.024
-713.718	-98.736	-0.244	-0.063
-712.704	51.402	0.201	0.194
-711.689	-75.050	-0.306	-0.111
-710.675	74.506	0.156	-0.166
-709.660	800.000	0.057	-0.192
-708.645	-122.601	0.218	0.036
-707.631	311.889	0.191	-0.364
-706.616	145.629	0.171	0.233
-705.602	-62.858	0.070	-0.030
-704.587	800.000	0.025	-0.072
-703.572	-125.048	0.281	0.044
-702.558	-108.995	-0.342	0.074
-701.543	-9.117	-0.057	-0.039
-700.529	-76.570	-0.326	0.116
-699.514	679.806	-0.056	0.148
-698.499	800.000	-0.053	-0.171
-697.485	-200.000	-0.000	-0.193
-696.470	-187.161	-0.234	-0.003
-695.456	-57.143	-0.198	-0.089
-694.441	-26.564	-0.319	-0.190
-693.426	-118.110	-0.273	-0.050
-692.412	-4.172	0.028	-0.020
-691.397	-15.342	-0.334	0.217
-690.383	-65.028	0.067	0.028
-689.368	-6.962	0.209	-0.144
-688.354	-80.323	0.445	0.151
-687.339	68.152	0.066	-0.069
-686.324	800.000	-0.061	0.256
-685.310	43.560	-0.196	0.182
-684.295	-122.948	-0.235	-0.038
-683.281	-7.054	-0.266	-0.183
-682.266	-48.214	0.289	-0.142
-681.251	479.739	0.094	-0.217
-680.237	52.710	-0.053	-0.051
-679.222	-200.000	0.031	-0.199
-678.208	5.825	0.035	-0.026
-677.193	-144.772	-0.200	-0.019
-676.178	692.380	-0.103	-0.274
-675.164	-50.184	-0.117	-0.056
-674.149	-155.585	0.073	0.005
-673.135	800.000	-0.043	-0.120
-672.120	800.000	-0.046	-0.192
-671.105	182.022	-0.211	0.315
-670.091	459.383	-0.019	-0.043
-669.076	449.945	0.093	-0.208
-668.062	702.186	-0.056	-0.149
-667.047	-200.000	0.043	-0.313
-666.032	336.315	0.030	-0.060
-665.018	-33.275	-0.157	0.088
-664.003	-200.000	-0.039	-0.193
-662.989	800.000	-0.031	-0.128
-661.974	-200.000	-0.024	-0.275
-660.959	35.309	-0.239	-0.213
-659.945	2.341	-0.089	-0.066
-658.930	102.526	0.146	0.173
-657.916	-55.879	-0.117	-0.053
-656.901	29.251	-0.269	0.231
-655.886	186.470	0.082	-0.124
-654.872	-77.407	0.305	-0.107
-653.857	-200.000	0.015	-0.099
-652.843	-93.801	0.171	-0.048
-651.828	-200.000	0.006	-0.086
-650.814	-40.232	-0.149	0.079
-649.799	494.125	0.087	-0.202
-648.784	-45.774	0.366	0.184
-647.770	-140.163	0.448	0.048
-646.755	100.509	-0.085	0.100
-645.741	276.000	0.148	0.266
-644.726	-200.000	0.032	-0.215
-643.711	-101.152	-0.134	-0.033
-642.697	-104.268	-0.391	0.092
-641.682	290.041	0.089	-0.163
-640.668	-23.296	-0.013	0.008
-639.653	141.223	0.275	-0.369
-638.638	87.393	0.150	0.168
-637.624	172.166	-0.097	0.141
-636.609	-76.556	-0.604	-0.215
-635.595	800.000	-0.072	0.206
-634.580	-140.662	0.193	0.020
-633.565	-200.000	0.066	-0.391
-632.551	-200.000	-0.035	-0.218
-631.536	-114.436	-0.170	-0.033
-630.522	800.000	-0.036	-0.115
-629.507	-61.757	0.472	0.201
-628.492	-16.901	0.234	0.150
-627.478	-162.341	0.026	-0.001
-626.463	-78.954	0.274	-0.094
-625.449	800.000	-0.010	-0.037
-624.434	-200.000	0.001	-0.025
-623.419	134.639	-0.283	-0.372
-622.405	6.624	0.364	-0.275
-621.390	-101.000	-0.383	-0.095
-620.376	-23.241	0.140	-0.085
-619.361	-90.160	0.170	0.050
-618.346	-25.651	0.188	-0.112
-617.332	473.791	-0.081	0.186
-616.317	-200.000	0.023	-0.248
-615.303	200.308	-0.158	-0.246
-614.288	752.162	-0.117	-0.319
-613.273	-94.682	0.114	-0.031
-612.259	205.646	0.047	0.075
-611.244	-171.992	0.212	-0.007
-610.230	-117.223	0.280	0.052
-609.215	-200.000	-0.051	0.311
-608.201	17.676	0.178	0.144
-607.186	-20.758	-0.314	-0.195
-606.171	-72.231	0.301	-0.113
-605.157	-112.954	-0.198	-0.040
-604.142	9.957	-0.232	-0.178
-603.128	48.194	0.111	0.105
-602.113	11.449	0.156	-0.121
-601.098	-57.123	0.127	-0.057
-600.084	-112.158	0.280	-0.057
-599.069	94.347	-0.040	0.046
-598.055	800.000	-0.017	0.066
-597.040	142.091	-0.173	-0.232
-596.025	800.000	-0.075	0.297
-595.011	-102.341	0.158	-0.038
-593.996	-84.061	0.113	-0.036
-592.982	800.000	-0.059	-0.251
-591.967	-200.000	0.001	0.129
-590.952	105.477	-0.137	-0.164
-589.938	-200.000	-0.186	-0.000
-588.923	-200.000	0.042	0.226
-587.909	800.000	-0.088	0.261
-586.894	716.646	0.211	0.567
-585.879	82.115	0.136	0.149
-584.865	-138.849	-0.190	-0.021
-583.850	-200.000	0.010	-0.074
-582.836	800.000	-0.072	-0.238
-581.821	800.000	-0.048	-0.205
-580.806	156.202	-0.077	0.107
-579.792	285.707	-0.084	-0.153
-578.777	-118.007	0.025	-0.004
-577.763	-200.000	-0.029	0.157
-576.748	45.450	-0.193	0.180
-575.733	54.540	0.083	0.081
-574.719	800.000	-0.057	-0.182
-573.704	335.147	0.116	0.227
-572.690	-2.453	-0.172	-0.122
-571.675	63.195	-0.281	-0.284
-570.661	205.216	-0.130	0.204
-569.646	439.023	0.063	0.140
-568.631	9.038	0.193	0.147
-567.617	-200.000	-0.058	0.269
-566.602	-46.483	-0.123	0.061
-565.588	800.000	-0.036	0.113
-564.573	-129.734	0.164	0.023
-563.558	800.000	-0.127	0.443
-562.544	-200.000	-0.031	0.507
-561.529	394.070	-0.168	0.354
-560.515	-200.000	0.044	-0.312
-559.500	-62.186	-0.231	0.097
-558.485	-165.656	0.250	-0.011
-557.471	-163.819	-0.144	-0.007
-556.456	-77.111	-0.364	0.128
-555.442	-36.792	-0.454	-0.246
-554.427	124.552	0.042	0.054
-553.412	0.785	0.139	-0.101
-552.398	86.435	-0.090	-0.101
-551.383	-200.000	-0.025	0.126
-550.369	-200.000	0.008	-0.183
-549.354	800.000	0.056	0.193
-548.339	367.918	-0.076	-0.154
-547.325	-200.000	-0.018	-0.115
-546.310	-86.388	-0.330	0.103
-545.296	121.711	-0.250	-0.314
-544.281	-200.000	0.011	-0.108
-543.266	34.187	0.186	-0.164
-542.252	-200.000	0.040	0.335
-541.237	166.806	-0.115	-0.165
-540.223	800.000	0.095	-0.319
-539.208	-200.000	-0.030	0.290
-538.193	64.274	-0.455	-0.463
-537.179	145.361	-0.046	0.063
-536.164	-131.486	-0.365	-0.049
-535.150	-200.000	0.012	-0.315
-534.135	241.416	-0.192	-0.324
-533.121	33.759	0.172	-0.151
-532.106	208.529	-0.227	-0.359
-531.091	-93.436	0.307	-0.086
-530.077	-92.105	-0.331	-0.095
-529.062	172.522	-0.175	-0.254
-528.048	-64.182	0.439	0.181
-527.033	97.138	0.182	-0.211
-526.018	-200.000	0.006	0.277
-525.004	0.092	-0.306	-0.220
-523.989	318.428	0.080	0.154
-522.975	-200.000	-0.021	-0.268
-521.960	800.000	-0.062	0.258
-520.945	-31.626	-0.132	0.075
-519.931	58.559	0.088	-0.087
-518.916	800.000	0.105	0.370
-517.902	266.620	-0.049	-0.087
-516.887	-27.495	-0.080	-0.047
-515.872	-45.945	-0.282	-0.140
-514.858	800.000	0.003	-0.012
-513.843	800.000	0.037	-0.150
-512.829	800.000	-0.031	-0.125
-511.814	40.894	0.221	0.201
-510.799	800.000	0.034	0.097
-509.785	107.036	-0.229	-0.275
-508.770	-127.942	-0.129	0.019
-507.756	127.020	-0.033	-0.042
-506.741	163.291	-0.142	0.201
-505.726	751.259	0.093	-0.254
-504.712	-164.049	-0.168	-0.008
-503.697	154.985	-0.109	-0.152
-502.683	-25.111	0.122	0.073
-501.668	182.080	0.188	-0.279
-500.653	-9.252	-0.145	-0.098
-499.639	33.176	0.233	-0.204
-498.624	223.518	0.136	0.221
-497.610	115.601	-0.150	0.185
-496.595	16.946	-0.159	0.127
-495.581	151.606	-0.115	0.158
-494.566	645.444	-0.064	-0.165
-493.551	-173.806	0.094	-0.003
-492.537	-109.453	0.163	-0.035
-491.522	571.269	0.062	0.153
-490.508	800.000	-0.037	0.115
-489.493	68.112	-0.152	-0.157
-488.478	-125.560	-0.194	-0.030
-487.464	-108.668	0.217	0.047
-486.449	-94.450	0.194	0.053
-485.435	-129.556	-0.238	0.033
-484.420	596.624	-0.025	0.061
-483.405	412.003	0.103	-0.219
-482.391	-200.000	0.023	0.243
-481.376	-40.774	-0.161	-0.084
-480.362	-200.000	-0.018	-0.191
-479.347	800.000	0.037	0.154
-478.332	29.729	-0.358	-0.307
-477.318	118.254	-0.173	-0.215
-476.303	-22.045	-0.132	-0.081
-475.289	82.351	-0.186	0.203
-474.274	-92.433	0.348	-0.099
-473.259	391.858	0.171	-0.357
-472.245	-200.000	-0.001	0.109
-471.230	800.000	0.113	0.328
-470.216	800.000	0.082	-0.299
-469.201	-181.614	0.349	-0.007
-468.186	125.542	0.020	0.025
-467.172	-147.162	0.214	0.018
-466.157	-116.835	0.126	-0.023
-465.143	-77.458	-0.171	0.060
-464.128	-126.557	0.148	-0.022
-463.113	-157.957	-0.282	-0.017
-462.099	296.791	0.077	-0.142
-461.084	-40.540	-0.134	0.070
-460.070	201.888	0.059	-0.092
-459.055	-135.737	0.080	-0.009
-458.040	-84.154	0.139	0.044
-457.026	-65.587	0.253	0.102
-456.011	116.005	-0.241	-0.297
-454.997	156.687	-0.118	-0.164
-453.982	507.267	-0.075	0.176
-452.968	139.252	-0.090	-0.119
-451.953	71.576	-0.200	0.209
-450.938	-200.000	0.018	-0.142
-449.924	-150.654	-0.091	-0.007
-448.909	-20.086	0.240	0.149
-447.895	565.733	-0.116	0.284
-446.880	67.118	-0.124	-0.127
-445.865	264.697	-0.093	-0.162
-444.851	-200.000	-0.025	-0.220
-443.836	28.591	0.031	-0.026
-442.822	541.608	0.126	0.301
-441.807	-200.000	0.005	0.124
-440.792	-22.915	0.186	0.113
-439.778	-200.000	0.004	0.103
-438.763	-200.000	-0.024	0.134
-437.749	-200.000	0.033	-0.289
-436.734	506.503	-0.088	0.205
-435.719	316.082	0.071	0.134
-434.705	67.340	-0.230	-0.236
-433.690	21.051	-0.181	-0.148
-432.676	138.637	0.113	-0.150
-431.661	-63.777	0.045	-0.018
-430.646	354.884	0.040	-0.080
-429.632	396.163	-0.077	-0.161
-428.617	-200.000	0.019	-0.406
-427.603	-12.889	0.362	0.237
-426.588	-134.180	0.233	0.029
-425.573	-200.000	0.038	0.202
-424.559	54.277	-0.140	0.135
-423.544	-72.891	-0.295	0.109
-422.530	366.778	0.135	0.274
-421.515	-200.000	0.021	0.185
-420.500	342.002	0.157	0.308
-419.486	-117.609	0.145	0.026
-418.471	359.245	0.078	0.156
-417.457	-200.000	-0.003	-0.083
-416.442	311.835	-0.158	-0.298
-415.428	49.538	-0.322	-0.304
-414.413	48.959	0.151	-0.143
-413.398	239.589	0.160	0.267
-412.384	800.000	0.041	0.177
-411.369	-156.673	0.160	0.010
-410.355	-146.003	-0.332	-0.029
-409.340	786.111	0.128	0.354
-408.325	11.632	0.072	-0.055
-407.311	-200.000	-0.059	-0.381
-406.296	-200.000	-0.015	0.144
-405.282	-6.518	-0.125	0.086
-404.267	24.249	0.127	-0.105
-403.252	320.158	0.125	0.238
-402.238	72.661	0.017	0.018
-401.223	11.038	0.262	-0.201
-400.209	96.062	0.032	-0.036
-399.194	800.000	0.038	-0.119
-398.179	800.000	0.063	-0.179
-397.165	-118.058	0.078	0.014
-396.150	64.385	0.109	0.110
-395.136	-160.360	-0.170	-0.009
-394.121	-133.765	-0.326	-0.041
-393.106	247.419	0.284	-0.483
-392.092	-200.000	0.005	-0.324
-391.077	273.901	0.139	0.247
-390.063	48.429	0.215	-0.202
-389.048	800.000	0.032	0.139
-388.033	-200.000	0.005	-0.031
-387.019	-142.788	0.317	-0.031
-386.004	-160.765	0.418	0.022
-384.990	-99.041	0.359	0.091
-383.975	407.123	0.029	0.062
-382.960	-12.384	0.066	0.043
-381.946	97.392	0.270	0.311
-380.931	-200.000	-0.024	0.184
-379.917	174.002	0.211	0.306
-378.902	378.801	0.038	-0.077
-377.888	-25.159	-0.160	-0.095
-376.873	-117.201	-0.193	-0.035
-375.858	-200.000	0.035	-0.196
-374.844	33.755	0.117	-0.102
-373.829	-200.000	0.034	-0.226
-372.815	-200.000	0.003	-0.055
-371.800	137.740	0.220	-0.289
-370.785	261.909	0.111	0.193
-369.771	-200.000	0.016	0.365
-368.756	-125.137	-0.113	-0.017
-367.742	216.896	-0.099	-0.158
-366.727	150.060	0.086	-0.117
-365.712	-81.949	-0.169	0.055
-364.698	-34.044	0.080	0.044
-363.683	579.487	0.021	-0.053
-362.669	-40.434	0.172	-0.090
-361.654	-66.299	0.251	0.100
-360.639	-45.465	0.055	0.027
-359.625	580.110	-0.133	-0.327
-358.610	-200.000	0.034	-0.283
-357.596	-200.000	0.040	0.223
-356.581	190.285	-0.044	-0.066
-355.566	-123.725	0.102	-0.016
-354.552	-127.281	0.362	0.053
-353.537	-54.119	-0.093	0.042
-352.523	-200.000	-0.021	0.381
-351.508	93.062	0.140	-0.158
-350.493	109.259	-0.183	0.220
-349.479	-103.658	-0.244	0.057
-348.464	28.500	0.124	0.105
-347.450	-200.000	0.062	0.304
-346.435	158.005	0.230	-0.319
-345.420	91.982	0.175	-0.197
-344.406	16.810	-0.290	0.230
-343.391	95.747	-0.073	0.083
-342.377	-52.679	0.129	0.060
-341.362	-56.103	0.125	0.056
-340.348	-83.482	0.131	-0.042
-339.333	105.559	-0.100	-0.119
-338.318	322.975	0.161	-0.308
-337.304	-200.000	-0.023	-0.310
-336.289	-97.939	0.213	-0.055
-335.275	743.996	0.040	0.107
-334.260	-23.892	0.292	-0.175
-333.245	-58.545	-0.399	0.173
-332.231	-62.096	-0.340	0.142
-331.216	-51.177	-0.384	-0.180
-330.202	-109.567	-0.437	0.092
-329.187	35.877	-0.143	0.126
-328.172	-190.706	-0.084	-0.001
-327.158	800.000	0.082	-0.237
-326.143	26.993	0.102	-0.086
-325.129	522.240	-0.044	0.102
-324.114	800.000	0.009	-0.024
-323.099	9.516	-0.231	0.176
-322.085	740.267	-0.125	-0.336
-321.070	-200.000	0.022	0.211
-320.056	112.140	0.189	0.229
-319.041	-200.000	0.012	-0.209
-318.026	446.153	-0.215	-0.474
-317.012	-172.756	0.364	-0.011
-315.997	-200.000	0.051	0.587
-314.983	474.937	0.116	-0.262
-313.968	436.908	0.212	0.463
-312.953	-88.302	0.241	0.072
-311.939	-200.000	-0.030	-0.164
-310.924	796.724	0.098	0.270
-309.910	3.978	-0.310	-0.227
-308.895	-127.871	-0.188	0.027
-307.880	166.310	0.094	-0.133
-306.866	-181.641	-0.153	-0.003
-305.851	522.976	0.042	0.098
-304.837	487.783	0.110	0.251
-303.822	-51.042	-0.082	-0.039
-302.807	-23.812	0.128	0.077
-301.793	-83.165	0.394	0.127
-300.778	8.669	-0.049	0.037
-299.764	174.550	-0.193	0.279
-298.749	134.349	-0.136	0.176
-297.735	285.150	0.155	0.279
-296.720	402.439	-0.178	0.373
-295.705	141.723	0.225	-0.298
-294.691	172.751	-0.141	-0.203
-293.676	-200.000	0.000	-0.245
-292.662	24.564	-0.098	-0.082
-291.647	-38.556	0.145	-0.077
-290.632	31.277	0.236	0.203
-289.618	-130.232	-0.273	-0.037
-288.603	-70.455	0.188	-0.071
-287.589	-120.444	-0.040	-0.007
-286.574	-124.803	-0.237	-0.037
-285.559	19.064	-0.352	0.283
-284.545	-200.000	-0.004	0.061
-283.530	-95.801	-0.247	0.066
-282.516	34.162	0.287	0.250
-281.501	56.040	-0.203	-0.197
-280.486	-146.864	-0.053	-0.005
-279.472	32.544	-0.077	-0.067
-278.457	-8.129	-0.314	0.211
-277.443	245.453	0.049	-0.082
-276.428	-10.598	0.088	0.058
-275.413	-160.681	-0.148	0.008
-274.399	115.950	-0.151	-0.185
-273.384	800.000	0.046	-0.178
-272.370	150.630	-0.091	0.124
-271.355	557.006	0.088	-0.212
-270.340	-131.422	-0.239	-0.032
-269.326	398.486	0.118	-0.247
-268.311	4.876	0.334	-0.245
-267.297	-200.000	0.043	-0.203
-266.282	226.185	0.139	0.225
-265.267	-138.068	-0.253	-0.028
-264.253	-200.000	-0.059	0.329
-263.238	-200.000	0.033	-0.191
-262.224	-144.417	0.521	-0.048
-261.209	-113.044	-0.200	0.039
-260.195	-142.213	0.124	-0.012
-259.180	26.867	0.051	0.043
-258.165	-67.987	0.368	0.143
-257.151	227.758	-0.197	0.320
-256.136	531.941	-0.243	0.575
-255.122	33.897	0.107	0.093
-254.107	197.170	-0.156	0.238
-253.092	-37.527	-0.189	-0.101
-252.078	-56.500	0.264	-0.117
-251.063	800.000	0.063	-0.184
-250.049	672.952	0.090	0.232
-249.034	-200.000	-0.026	0.147
-248.019	-117.893	0.171	0.031
-247.005	-17.223	-0.053	0.033
-245.990	413.549	0.071	0.150
-244.976	-22.196	0.217	-0.131
-243.961	39.013	0.082	-0.073
-242.946	-200.000	0.008	-0.176
-241.932	-66.326	0.212	0.084
-240.917	-71.481	-0.047	0.017
-239.903	-34.518	-0.172	0.094
-238.888	-200.000	0.002	0.319
-237.873	30.497	-0.060	-0.051
-236.859	-124.648	-0.331	0.051
-235.844	-64.715	0.306	-0.124
-234.830	800.000	0.094	-0.318
-233.815	160.634	0.071	-0.099
-232.800	-200.000	-0.005	0.078
-231.786	-200.000	0.023	-0.122
-230.771	800.000	0.125	0.461
-229.757	-86.434	-0.432	0.132
-228.742	226.919	-0.248	0.403
-227.727	270.398	-0.180	-0.316
-226.713	-169.109	-0.212	0.008
-225.698	800.000	-0.051	0.163
-224.684	398.995	0.148	0.308
-223.669	64.302	0.147	-0.148
-222.655	9.536	-0.196	-0.148
-221.640	-42.526	0.275	0.140
-220.625	800.000	-0.052	0.166
-219.611	95.204	0.018	-0.020
-218.596	142.216	-0.231	-0.306
-217.582	340.323	0.072	-0.140
-216.567	340.847	-0.185	0.360
-215.552	-200.000	-0.011	-0.119
-214.538	-101.268	0.132	-0.032
-213.523	127.049	0.233	0.295
-212.509	-142.198	-0.164	-0.016
-211.494	-71.089	-0.287	0.107
-210.479	-74.246	-0.246	0.089
-209.465	-150.576	0.362	0.028
-208.450	179.167	-0.294	0.429
-207.436	174.875	0.063	0.091
-206.421	143.861	-0.102	-0.136
-205.406	-146.846	-0.269	-0.023
-204.392	-118.044	0.254	-0.045
-203.377	-145.823	-0.119	0.011
-202.363	-70.023	0.099	0.038
-201.348	-79.703	0.203	-0.068
-200.333	11.408	0.070	0.053
-199.319	-108.806	-0.116	0.025
-198.304	-115.874	-0.089	-0.017
-197.290	-47.572	-0.264	0.128
-196.275	1.326	-0.279	-0.200
-195.260	-200.000	0.093	-0.437
-194.246	122.857	0.096	0.120
-193.231	-111.433	0.117	0.024
-192.217	95.003	0.016	-0.019
-191.202	443.134	0.090	-0.196
-190.187	-101.270	0.068	0.017
-189.173	35.699	0.129	0.113
-188.158	-176.451	0.092	-0.002
-187.144	174.182	0.053	-0.077
-186.129	371.899	-0.022	0.044
-185.114	58.788	-0.233	0.228
-184.100	-200.000	-0.024	0.212
-183.085	265.382	-0.084	-0.146
-182.071	-93.425	0.361	-0.099
-181.056	-20.920	0.186	0.114
-180.042	800.000	-0.053	-0.168
-179.027	-165.820	0.415	-0.018
-178.012	-121.095	0.212	-0.035
-176.998	214.451	-0.198	-0.313
-175.983	-73.120	-0.349	0.127
-174.969	-100.339	-0.322	0.080
-173.954	-147.923	0.052	0.004
-172.939	57.614	0.085	0.083
-171.925	25.083	0.473	-0.391
-170.910	16.860	0.089	0.070
-169.896	-61.544	0.134	0.056
-168.881	-134.248	-0.117	-0.014
-167.866	-2.745	0.353	0.245
-166.852	191.309	-0.098	0.147
-165.837	347.133	-0.079	-0.155
-164.823	-62.470	0.112	-0.046
-163.808	323.725	0.052	-0.098
-162.793	800.000	-0.081	-0.293
-161.779	-49.374	-0.096	-0.046
-160.764	-126.610	-0.372	0.055
-159.750	-200.000	-0.017	0.294
-158.735	-200.000	-0.045	0.353
-157.720	-32.370	0.080	0.045
-156.706	257.139	-0.117	0.200
-155.691	207.974	-0.198	-0.308
-154.677	-83.340	-0.351	-0.112
-153.662	-29.824	-0.177	0.100
-152.647	-86.416	0.229	0.070
-151.633	352.868	-0.129	0.255
-150.618	-21.160	-0.050	0.030
-149.604	-92.843	-0.285	-0.079
-148.589	57.162	0.261	-0.253
-147.574	100.087	-0.157	0.181
-146.560	208.674	-0.062	-0.096
-145.545	-107.877	-0.557	-0.121
-144.531	26.899	0.255	-0.213
-143.516	184.525	0.096	0.142
-142.502	-6.611	0.181	0.122
-141.487	-100.882	-0.120	0.029
-140.472	11.654	-0.454	0.346
-139.458	-59.429	-0.066	0.028
-138.443	-22.337	0.144	0.087
-137.429	-85.916	0.051	0.016
-136.414	539.591	0.087	0.205
-135.399	-87.835	0.390	0.117
-134.385	51.182	0.166	0.156
-133.370	87.207	-0.258	-0.283
-132.356	-27.727	0.273	0.158
-131.341	-138.177	-0.249	0.027
-130.326	800.000	-0.075	0.280
-129.312	151.606	-0.133	0.180
-128.297	-22.567	0.313	-0.188
-127.283	183.663	-0.162	0.238
-126.268	-40.507	-0.078	0.040
-125.253	800.000	0.067	-0.287
-124.239	430.292	0.161	-0.345
-123.224	-109.313	-0.121	-0.026
-122.210	800.000	0.107	-0.394
