DTS Sentinel unit serial number:	SN413079Multiplexer serial number:	ORYXHardware model number:	OX4-SRSoftware version number:	ORYX F/W v4.00 Oryx Data Collector v3.7.2.0data status	okinstallation	princeton_trtdifferential loss correction	single-endedforward channel	channel 4reverse channel	N/Adate	2019/09/13time	05:29:34forward acquisition time	60.00reverse acquisition time	0.00gamma	496.2192k internal	0.2323k external	0.2323temperature offset calibration	1.0191default loss term (dB/km)	0.3790temperature slope calibration	1.0000multiplexer offset coefficient	1.0000multiplexer slope coefficient	1.0000fibre end	0.00T internal ref (°C)	26.28T ext. ref 1 (°C)	4.03T ext. ref 2 (°C)	20.86length (m)	temperature (°C)	Stokes	anti-Stokes-747.200	169.752	0.167	-0.240
-746.185	230.328	-0.188	0.311
-745.171	-200.000	0.044	-0.245
-744.156	-3.962	-0.191	0.134
-743.142	38.229	0.174	-0.157
-742.127	331.274	-0.093	0.181
-741.112	-177.301	0.430	-0.011
-740.098	9.026	-0.135	0.103
-739.083	571.564	-0.081	-0.199
-738.069	-200.000	-0.072	0.383
-737.054	-82.730	0.224	0.073
-736.039	-131.877	-0.541	0.071
-735.025	-19.254	0.501	0.314
-734.010	429.494	-0.182	-0.398
-732.996	274.136	-0.032	0.057
-731.981	800.000	0.061	0.251
-730.966	163.079	-0.080	-0.113
-729.952	800.000	0.018	-0.060
-728.937	81.480	-0.100	-0.109
-727.923	800.000	0.103	0.350
-726.908	-200.000	-0.009	0.464
-725.894	-200.000	-0.115	-0.529
-724.879	134.078	-0.116	-0.151
-723.864	172.415	-0.222	-0.323
-722.850	-32.601	-0.240	0.135
-721.835	800.000	0.070	-0.242
-720.821	0.583	-0.085	0.061
-719.806	-97.953	-0.189	0.049
-718.791	-200.000	0.022	-0.142
-717.777	230.964	0.189	-0.312
-716.762	53.520	0.149	0.144
-715.748	-8.734	-0.220	0.149
-714.733	303.096	-0.044	0.082
-713.718	-162.866	-0.062	-0.003
-712.704	-117.497	-0.113	-0.021
-711.689	800.000	-0.083	-0.269
-710.675	-17.320	-0.191	-0.121
-709.660	800.000	-0.066	0.238
-708.645	-200.000	-0.004	0.029
-707.631	-200.000	0.008	0.175
-706.616	-200.000	-0.001	-0.249
-705.602	-200.000	-0.030	-0.260
-704.587	-88.722	0.151	-0.045
-703.572	-200.000	-0.035	-0.221
-702.558	-200.000	0.041	-0.236
-701.543	-200.000	0.014	-0.345
-700.529	800.000	0.059	-0.225
-699.514	175.861	0.150	-0.220
-698.499	780.134	-0.064	0.177
-697.485	-68.473	0.096	-0.038
-696.470	-121.197	0.221	0.037
-695.456	-100.990	0.114	-0.028
-694.441	145.962	-0.203	-0.274
-693.426	-102.334	-0.157	0.038
-692.412	-80.041	-0.078	-0.026
-691.397	126.938	-0.183	0.234
-690.383	800.000	-0.070	-0.221
-689.368	-42.271	-0.130	-0.067
-688.354	-101.699	-0.301	-0.074
-687.339	199.845	0.069	0.106
-686.324	157.746	0.025	-0.035
-685.310	-31.693	0.148	-0.084
-684.295	6.843	0.154	0.116
-683.281	-73.450	-0.048	-0.018
-682.266	16.329	0.032	-0.025
-681.251	419.975	0.043	0.092
-680.237	-121.865	0.350	-0.058
-679.222	-74.494	-0.293	-0.107
-678.208	800.000	-0.038	-0.154
-677.193	800.000	-0.065	-0.241
-676.178	195.823	0.211	-0.323
-675.164	-75.909	0.322	-0.115
-674.149	247.623	-0.017	0.030
-673.135	317.664	0.061	0.115
-672.120	-82.067	-0.313	0.103
-671.105	800.000	-0.080	0.288
-670.091	-61.314	-0.248	-0.105
-669.076	604.377	0.093	0.234
-668.062	-200.000	0.016	0.206
-667.047	-172.990	0.046	-0.001
-666.032	800.000	-0.009	-0.026
-665.018	-127.488	0.497	0.073
-664.003	-200.000	-0.044	0.443
-662.989	-59.490	-0.145	-0.063
-661.974	-142.391	-0.147	0.015
-660.959	-200.000	-0.029	-0.198
-659.945	-78.534	-0.127	-0.044
-658.930	178.156	-0.203	-0.298
-657.916	-110.588	0.131	0.027
-656.901	283.078	0.254	-0.459
-655.886	40.072	-0.138	0.125
-654.872	316.971	0.333	-0.633
-653.857	38.819	0.184	-0.165
-652.843	-200.000	-0.021	-0.238
-651.828	66.346	0.143	0.146
-650.814	-39.095	-0.466	-0.246
-649.799	358.594	0.172	0.345
-648.784	17.755	-0.291	-0.233
-647.770	-82.607	-0.341	-0.111
-646.755	359.505	-0.096	0.192
-645.741	-130.819	-0.130	-0.018
-644.726	-200.000	-0.023	-0.153
-643.711	-66.085	0.118	-0.047
-642.697	152.247	-0.088	0.120
-641.682	-60.685	-0.271	0.115
-640.668	406.142	-0.199	-0.423
-639.653	-200.000	0.011	-0.104
-638.638	-118.205	-0.325	-0.058
-637.624	-156.315	-0.408	-0.026
-636.609	-200.000	-0.029	0.377
-635.595	103.746	-0.064	0.076
-634.580	-200.000	-0.017	-0.082
-633.565	262.041	0.138	0.241
-632.551	275.016	0.012	-0.021
-631.536	-81.654	-0.083	-0.027
-630.522	-200.000	0.039	-0.180
-629.507	159.852	0.120	-0.168
-628.492	333.150	-0.029	-0.057
-627.478	9.432	0.116	0.088
-626.463	-200.000	0.017	-0.121
-625.449	800.000	-0.082	0.304
-624.434	44.511	0.229	0.211
-623.419	-107.503	-0.210	-0.046
-622.405	-160.761	0.176	0.009
-621.390	-197.679	0.517	-0.003
-620.376	348.204	0.107	-0.213
-619.361	359.389	0.163	0.328
-618.346	-20.619	0.300	-0.185
-617.332	-180.885	0.339	-0.007
-616.317	77.892	0.221	-0.237
-615.303	-116.228	0.053	0.010
-614.288	281.514	-0.185	0.333
-613.273	-63.349	0.180	-0.074
-612.259	227.744	-0.072	0.118
-611.244	12.545	-0.130	0.101
-610.230	-33.318	0.068	0.038
-609.215	-36.927	0.130	-0.070
-608.201	-130.535	-0.221	-0.030
-607.186	-200.000	-0.008	-0.416
-606.171	152.173	-0.159	-0.218
-605.157	155.850	-0.116	0.161
-604.142	800.000	0.017	0.060
-603.128	-139.153	-0.159	0.017
-602.113	220.801	0.192	0.310
-601.098	219.729	-0.161	0.259
-600.084	-90.504	0.194	-0.056
-599.069	61.527	-0.303	-0.303
-598.055	8.401	0.166	-0.126
-597.040	-124.824	-0.381	-0.059
-596.025	719.525	0.067	0.178
-595.011	88.701	0.301	0.336
-593.996	800.000	-0.057	0.219
-592.982	56.054	-0.020	-0.019
-591.967	42.286	-0.050	-0.046
-590.952	-200.000	0.008	0.036
-589.938	265.739	-0.227	-0.398
-588.923	-94.460	0.151	-0.041
-587.909	-101.978	-0.458	-0.111
-586.894	800.000	-0.038	0.152
-585.879	-173.444	-0.101	-0.003
-584.865	183.298	0.176	0.261
-583.850	800.000	-0.066	0.276
-582.836	369.161	0.108	0.219
-581.821	-200.000	-0.030	-0.312
-580.806	609.863	-0.089	-0.222
-579.792	3.154	0.168	-0.123
-578.777	-200.000	-0.012	0.281
-577.763	298.294	-0.207	-0.382
-576.748	382.564	0.119	-0.246
-575.733	-189.532	-0.084	-0.001
-574.719	62.092	-0.282	0.282
-573.704	800.000	-0.045	0.138
-572.690	-160.234	0.266	-0.014
-571.675	-200.000	0.012	-0.082
-570.661	-126.185	-0.105	-0.016
-569.646	-178.626	-0.170	0.004
-568.631	-200.000	-0.031	-0.236
-567.617	-129.876	0.119	-0.016
-566.602	-26.758	0.067	0.039
-565.588	-178.921	-0.244	0.006
-564.573	223.683	-0.102	0.165
-563.558	-138.389	0.365	0.040
-562.544	-159.033	-0.186	-0.011
-561.529	-36.750	-0.079	-0.042
-560.515	329.682	0.129	-0.248
-559.500	-200.000	0.066	0.314
-558.485	-143.747	0.087	-0.008
-557.471	166.752	-0.129	-0.183
-556.456	-124.456	-0.117	-0.018
-555.442	-68.381	-0.143	0.056
-554.427	54.812	-0.115	0.111
-553.412	-127.368	-0.201	-0.029
-552.398	-20.004	-0.565	-0.349
-551.383	-90.103	-0.208	0.061
-550.369	-200.000	-0.384	0.000
-549.354	800.000	0.061	0.182
-548.339	-155.275	-0.274	0.018
-547.325	-200.000	-0.020	0.214
-546.310	-92.769	-0.275	0.077
-545.296	800.000	0.041	-0.139
-544.281	61.535	-0.289	-0.289
-543.266	334.713	-0.093	0.181
-542.252	645.108	-0.139	0.354
-541.237	73.681	0.193	0.203
-540.223	-137.905	-0.483	-0.054
-539.208	77.963	0.106	0.113
-538.193	-200.000	0.008	-0.143
-537.179	-61.888	-0.089	-0.037
-536.164	-112.358	0.067	-0.013
-535.150	157.815	-0.059	-0.082
-534.135	-138.471	-0.231	0.025
-533.121	25.190	0.111	0.092
-532.106	-16.277	0.096	-0.061
-531.091	-13.618	-0.089	0.057
-530.077	-46.820	0.141	-0.069
-529.062	209.956	-0.081	-0.127
-528.048	-17.375	-0.512	-0.323
-527.033	4.381	0.165	-0.121
-526.018	-200.000	-0.013	0.346
-525.004	-200.000	0.022	0.257
-523.989	-15.666	-0.138	-0.088
-522.975	-200.000	0.050	-0.255
-521.960	-53.568	0.325	-0.149
-520.945	-80.873	-0.289	0.096
-519.931	227.712	-0.049	0.079
-518.916	-68.947	0.071	0.027
-517.902	-200.000	-0.055	-0.327
-516.887	144.706	-0.123	-0.165
-515.872	20.147	-0.084	-0.068
-514.858	800.000	0.077	-0.247
-513.843	213.985	0.131	-0.208
-512.829	18.105	-0.220	-0.176
-511.814	5.543	0.193	0.143
-510.799	-55.276	0.155	0.070
-509.785	54.464	-0.133	0.128
-508.770	-76.574	-0.256	0.090
-507.756	303.174	-0.162	-0.300
-506.741	-105.687	0.228	0.052
-505.726	-55.529	-0.080	0.036
-504.712	159.018	0.050	0.070
-503.697	22.323	0.040	-0.033
-502.683	-150.240	-0.212	0.016
-501.668	35.265	0.097	0.085
-500.653	800.000	-0.056	-0.182
-499.639	-68.128	0.243	0.095
-498.624	800.000	-0.019	-0.068
-497.610	-142.617	0.214	0.021
-496.595	-103.872	-0.185	0.043
-495.581	-26.319	-0.033	0.020
-494.566	-200.000	0.004	0.256
-493.551	575.466	0.114	0.277
-492.537	8.847	0.383	-0.289
-491.522	-200.000	-0.049	0.434
-490.508	-74.257	0.258	0.093
-489.493	764.174	0.106	0.287
-488.478	-116.287	-0.364	-0.067
-487.464	79.507	0.148	0.159
-486.449	-119.395	0.328	0.057
-485.435	-200.000	0.030	0.229
-484.420	-67.415	0.186	0.073
-483.405	709.386	-0.107	0.283
-482.391	-96.072	-0.017	0.005
-481.376	-98.245	-0.106	-0.027
-480.362	800.000	0.042	0.174
-479.347	74.128	-0.092	-0.097
-478.332	-93.140	-0.194	0.054
-477.318	323.484	0.053	-0.102
-476.303	-200.000	-0.006	0.050
-475.289	-200.000	-0.036	-0.282
-474.274	-200.000	0.005	0.237
-473.259	-200.000	0.005	-0.023
-472.245	-73.985	-0.232	-0.084
-471.230	-79.368	-0.148	-0.050
-470.216	800.000	0.069	-0.223
-469.201	-200.000	0.047	-0.274
-468.186	-200.000	-0.026	0.227
-467.172	-200.000	-0.047	0.275
-466.157	800.000	-0.064	0.198
-465.143	-200.000	-0.023	0.170
-464.128	509.850	0.054	-0.127
-463.113	800.000	0.045	0.153
-462.099	-200.000	-0.035	0.276
-461.084	702.113	0.066	-0.173
-460.070	-109.484	-0.064	0.013
-459.055	-83.905	0.450	-0.143
-458.040	52.759	0.225	-0.214
-457.026	-87.566	-0.015	-0.005
-456.011	-110.417	0.091	-0.019
-454.997	-79.552	0.133	-0.045
-453.982	443.790	-0.097	0.213
-452.968	34.604	-0.155	-0.135
-451.953	-50.411	0.173	0.082
-450.938	-125.704	-0.308	-0.047
-449.924	210.940	-0.290	0.454
-448.909	800.000	-0.094	0.383
-447.895	-200.000	-0.014	-0.082
-446.880	100.064	-0.129	0.149
-445.865	247.575	0.012	-0.020
-444.851	139.408	0.135	-0.177
-443.836	800.000	0.087	-0.243
-442.822	3.628	0.368	-0.268
-441.807	-200.000	0.016	0.166
-440.792	-51.221	-0.215	0.101
-439.778	-12.868	0.292	0.189
-438.763	20.216	-0.425	0.342
-437.749	-200.000	0.022	0.275
-436.734	386.213	-0.081	-0.167
-435.719	195.120	0.214	-0.325
-434.705	641.703	0.135	-0.343
-433.690	32.800	0.384	-0.332
-432.676	149.407	-0.085	-0.115
-431.661	800.000	0.065	-0.235
-430.646	-154.789	0.075	0.005
-429.632	240.905	0.145	-0.242
-428.617	46.656	0.092	-0.085
-427.603	-83.987	-0.269	0.085
-426.588	-200.000	-0.041	-0.201
-425.573	-110.744	-0.176	0.036
-424.559	-28.084	0.201	-0.116
-423.544	-75.807	-0.161	0.057
-422.530	800.000	0.067	-0.234
-421.515	-94.994	-0.112	0.030
-420.500	402.408	-0.233	-0.488
-419.486	-200.000	-0.023	0.165
-418.471	45.872	-0.065	0.060
-417.457	163.963	-0.049	-0.068
-416.442	-27.940	0.230	0.133
-415.428	5.866	0.388	-0.286
-414.413	311.083	-0.052	-0.097
-413.398	-58.180	0.128	-0.056
-412.384	240.741	0.027	0.044
-411.369	-200.000	-0.029	0.331
-410.355	145.217	-0.132	0.176
-409.340	379.084	-0.131	-0.266
-408.325	100.704	-0.148	0.171
-407.311	-63.159	0.077	0.032
-406.296	-52.205	-0.238	0.110
-405.282	652.071	0.079	-0.201
-404.267	68.517	-0.182	0.186
-403.252	-12.734	-0.280	0.182
-402.238	45.796	0.253	0.233
-401.223	-77.164	0.103	0.036
-400.209	-152.221	0.120	0.009
-399.194	68.146	-0.128	-0.130
-398.179	600.690	-0.044	-0.108
-397.165	-103.410	-0.267	0.063
-396.150	-129.915	0.257	-0.035
-395.136	-13.049	-0.380	0.246
-394.121	-30.084	-0.210	0.119
-393.106	-113.311	-0.259	0.051
-392.092	-200.000	0.015	0.093
-391.077	-108.878	-0.170	-0.036
-390.063	55.540	0.206	0.198
-389.048	-200.000	0.015	0.403
-388.033	256.215	-0.120	0.205
-387.019	-127.484	0.319	0.046
-386.004	-175.074	-0.094	0.003
-384.990	-93.960	0.107	-0.029
-383.975	-110.966	0.084	-0.017
-382.960	5.476	0.021	-0.015
-381.946	529.448	0.056	0.131
-380.931	-200.000	0.041	-0.229
-379.917	56.387	0.072	-0.070
-378.902	-200.000	0.003	-0.025
-377.888	-200.000	-0.008	0.281
-376.873	-102.644	0.107	0.025
-375.858	-91.115	0.201	-0.057
-374.844	-62.504	0.435	-0.180
-373.829	270.625	-0.130	0.227
-372.815	272.398	0.222	-0.390
-371.800	-200.000	0.044	-0.207
-370.785	800.000	0.048	-0.181
-369.771	-138.921	-0.332	-0.036
-368.756	679.969	-0.157	0.407
-367.742	-200.000	0.020	-0.195
-366.727	-149.246	0.432	-0.034
-365.712	-200.000	-0.031	-0.552
-364.698	800.000	0.074	-0.205
-363.683	-114.578	0.175	-0.033
-362.669	800.000	-0.064	-0.225
-361.654	800.000	0.022	-0.090
-360.639	-200.000	-0.010	0.084
-359.625	800.000	-0.103	0.297
-358.610	-119.862	-0.369	-0.063
-357.596	800.000	-0.040	0.127
-356.581	116.361	-0.211	-0.258
-355.566	6.686	0.143	0.106
-354.552	-116.608	0.103	-0.019
-353.537	-200.000	0.078	-0.420
-352.523	800.000	-0.090	0.261
-351.508	-19.322	0.184	-0.114
-350.493	-25.137	-0.080	0.047
-349.479	800.000	-0.110	0.303
-348.464	-200.000	-0.026	0.167
-347.450	-33.845	0.118	-0.064
-346.435	54.765	0.266	0.255
-345.420	-81.074	0.028	0.009
-344.406	-56.625	0.325	-0.143
-343.391	78.821	-0.223	-0.237
-342.377	-31.834	-0.147	0.082
-341.362	-200.000	0.016	-0.280
-340.348	38.211	0.095	-0.084
-339.333	644.651	-0.036	0.092
-338.318	433.608	0.144	0.310
-337.304	-75.682	0.406	0.143
-336.289	72.328	0.213	-0.221
-335.275	-89.827	0.217	0.063
-334.260	-127.295	-0.241	0.035
-333.245	-64.514	0.218	0.088
-332.231	-101.356	0.219	-0.053
-331.216	-24.165	0.128	0.076
-330.202	214.070	0.120	-0.189
-329.187	800.000	0.099	-0.379
-328.172	166.367	-0.114	-0.160
-327.158	92.017	0.229	-0.257
-326.143	-200.000	-0.030	-0.210
-325.129	150.984	-0.120	-0.162
-324.114	-101.970	0.117	-0.028
-323.099	-200.000	-0.018	-0.184
-322.085	524.009	-0.072	-0.169
-321.070	27.244	0.197	-0.165
-320.056	320.531	0.096	-0.181
-319.041	82.177	0.147	-0.159
-318.026	-128.757	-0.116	0.016
-317.012	-200.000	0.040	0.305
-315.997	-15.562	-0.065	-0.041
-314.983	-200.000	0.070	-0.549
-313.968	381.301	0.180	-0.366
-312.953	-93.442	-0.090	-0.025
-311.939	91.832	-0.021	-0.023
-310.924	-99.297	0.369	-0.092
-309.910	-105.408	0.272	-0.061
-308.895	-200.000	0.026	-0.139
-307.880	-110.673	0.112	0.023
-306.866	-61.427	-0.153	0.064
-305.851	714.974	-0.040	0.106
-304.837	125.473	-0.058	0.073
-303.822	192.913	0.127	-0.191
-302.807	152.391	0.233	0.315
-301.793	800.000	-0.013	0.039
-300.778	800.000	-0.072	0.231
-299.764	800.000	-0.023	0.089
-298.749	628.285	0.091	-0.229
-297.735	145.098	-0.049	-0.065
-296.720	-28.836	-0.094	0.054
-295.705	800.000	0.064	-0.276
-294.691	4.542	-0.033	-0.024
-293.676	-200.000	-0.029	-0.328
-292.662	-200.000	0.024	0.202
-291.647	-160.267	-0.367	-0.020
-290.632	-15.340	-0.179	-0.113
-289.618	37.117	-0.144	0.126
-288.603	-72.788	-0.159	0.058
-287.589	421.204	0.138	0.294
-286.574	-101.784	0.284	-0.068
-285.559	-14.825	-0.109	0.070
-284.545	39.249	-0.076	0.067
-283.530	-91.154	0.256	-0.073
-282.516	255.892	-0.130	-0.221
-281.501	-10.773	0.324	-0.212
-280.486	735.833	0.086	-0.230
-279.472	495.462	-0.125	-0.284
-278.457	-200.000	-0.016	-0.112
-277.443	-182.650	0.186	-0.003
-276.428	-200.000	-0.003	-0.049
-275.413	-92.084	-0.189	0.053
-274.399	726.105	-0.093	0.246
-273.384	7.015	0.322	0.238
-272.370	102.264	0.161	0.186
-271.355	-83.345	-0.060	-0.019
-270.340	-46.637	-0.094	-0.045
-269.326	800.000	-0.114	0.341
-268.311	800.000	-0.018	-0.076
-267.297	800.000	-0.073	0.240
-266.282	800.000	-0.119	-0.342
-265.267	-45.470	0.070	-0.034
-264.253	119.942	-0.044	0.054
-263.238	389.246	0.116	-0.238
-262.224	55.536	0.134	0.128
-261.209	41.238	0.371	0.333
-260.195	776.017	-0.004	0.010
-259.180	-131.371	-0.390	-0.051
-258.165	177.796	0.063	-0.092
-257.151	63.850	0.041	0.041
-256.136	159.967	-0.048	-0.066
-255.122	-200.000	0.047	-0.236
-254.107	-90.499	0.034	-0.010
-253.092	-200.000	-0.087	0.432
-252.078	-71.979	0.156	-0.057
-251.063	66.045	0.114	0.114
-250.049	800.000	0.057	-0.169
-249.034	63.597	0.077	-0.077
-248.019	-114.907	-0.401	0.076
-247.005	800.000	-0.069	-0.211
-245.990	368.206	-0.164	0.329
-244.976	-93.351	-0.266	0.073
-243.961	-22.170	0.319	0.192
-242.946	-67.440	0.207	0.081
-241.932	81.951	-0.240	-0.257
-240.917	-200.000	-0.045	-0.372
-239.903	183.783	-0.041	-0.060
-238.888	-200.000	0.006	-0.091
-237.873	-83.973	-0.236	0.074
-236.859	-130.802	-0.055	-0.007
-235.844	173.775	-0.205	0.293
-234.830	16.127	0.043	0.033
-233.815	-200.000	-0.061	-0.347
-232.800	710.027	0.041	0.108
-231.786	438.101	0.077	-0.166
-230.771	-169.102	-0.183	0.007
-229.757	81.049	0.103	0.110
-228.742	800.000	0.046	0.183
-227.727	125.071	0.234	-0.292
-226.713	126.649	-0.050	-0.062
-225.698	800.000	-0.123	0.418
-224.684	-120.504	-0.061	-0.010
-223.669	151.359	-0.124	0.167
-222.655	-200.000	-0.012	0.226
-221.640	191.829	0.170	0.253
-220.625	-25.058	-0.290	0.170
-219.611	-200.000	0.084	-0.000
-218.596	-98.844	-0.491	0.124
-217.582	12.103	0.160	0.122
-216.567	-65.190	0.162	0.064
-215.552	271.483	-0.167	-0.290
-214.538	-77.370	0.175	0.060
-213.523	-200.000	-0.012	0.287
-212.509	105.364	0.173	0.202
-211.494	-121.107	-0.332	0.055
-210.479	-200.000	-0.045	0.462
-209.465	-26.096	0.124	0.072
-208.450	-22.618	-0.167	-0.100
-207.436	-97.991	0.249	0.064
-206.421	-9.576	-0.139	0.092
-205.406	-49.196	0.279	-0.132
-204.392	-112.676	0.220	-0.043
-203.377	-95.157	-0.318	-0.085
-202.363	800.000	0.041	-0.164
-201.348	124.114	-0.186	-0.232
-200.333	-13.544	0.031	-0.020
-199.319	-112.759	-0.126	-0.025
-198.304	452.120	-0.118	-0.257
-197.290	-28.295	-0.141	0.080
-196.275	-44.475	0.207	-0.102
-195.260	-200.000	-0.023	0.296
-194.246	-155.482	-0.284	0.018
-193.231	87.210	0.087	-0.095
-192.217	800.000	0.066	-0.259
-191.202	-200.000	0.021	-0.194
-190.187	800.000	-0.037	-0.138
-189.173	-68.996	0.103	0.039
-188.158	-121.543	0.077	0.013
-187.144	-94.545	0.388	0.104
-186.129	-141.972	-0.034	-0.003
-185.114	800.000	0.055	-0.165
-184.100	-16.377	-0.392	0.245
-183.085	39.679	-0.011	-0.010
-182.071	-200.000	0.070	-0.365
-181.056	57.101	0.200	0.193
-180.042	-200.000	0.026	0.452
-179.027	-68.692	0.208	-0.079
-178.012	-90.455	0.266	-0.076
-176.998	66.089	0.160	0.160
-175.983	-5.386	-0.171	-0.116
-174.969	-62.926	-0.087	-0.035
-173.954	13.707	0.193	-0.148
-172.939	-47.116	0.158	0.076
-171.925	482.848	-0.072	0.161
-170.910	83.955	0.181	0.195
-169.896	-46.687	-0.179	0.087
-168.881	296.811	-0.206	-0.373
-167.866	-143.203	-0.406	0.039
-166.852	800.000	-0.046	-0.156
-165.837	-107.711	-0.011	-0.002
-164.823	59.893	0.115	0.113
-163.808	-58.017	0.294	0.127
-162.793	800.000	0.090	-0.285
-161.779	-157.036	0.503	-0.030
-160.764	47.769	0.448	0.413
-159.750	-200.000	-0.032	0.362
-158.735	-175.820	-0.334	-0.009
-157.720	-200.000	0.088	0.522
-156.706	-192.884	0.140	-0.001
-155.691	18.640	-0.063	0.050
-154.677	95.500	0.251	0.283
-153.662	-35.214	0.132	0.071
-152.647	41.301	0.221	-0.197
-151.633	800.000	0.052	-0.201
-150.618	95.773	0.121	0.137
-149.604	356.801	-0.134	0.264
-148.589	-21.190	0.032	0.019
-147.574	712.022	-0.113	-0.294
-146.560	11.166	-0.133	0.100
-145.545	-128.146	0.041	-0.006
-144.531	800.000	0.045	0.152
-143.516	-200.000	0.074	0.322
-142.502	-6.739	0.107	0.072
-141.487	133.052	-0.065	-0.082
-140.472	-119.829	0.152	-0.026
-139.458	-3.281	-0.145	-0.100
-138.443	-200.000	-0.002	-0.148
-137.429	-0.728	-0.239	0.167
-136.414	-104.416	0.189	0.043
-135.399	-200.000	-0.014	0.278
-134.385	-200.000	-0.024	0.233
-133.370	-200.000	-0.027	0.126
-132.356	-49.596	-0.058	-0.027
-131.341	135.516	-0.045	-0.057
-130.326	-200.000	0.010	0.215
-129.312	-121.191	0.084	-0.014
-128.297	91.207	0.108	-0.119
-127.283	76.436	-0.037	-0.039
-126.268	-0.581	0.158	0.110
-125.253	72.671	0.151	-0.155
-124.239	314.728	-0.005	-0.010
-123.224	4.917	0.088	-0.064
-122.210	-200.000	0.037	0.203
