DTS Sentinel unit serial number:	SN413079Multiplexer serial number:	ORYXHardware model number:	OX4-SRSoftware version number:	ORYX F/W v4.00 Oryx Data Collector v3.7.2.0data status	okinstallation	princeton_trtdifferential loss correction	single-endedforward channel	channel 4reverse channel	N/Adate	2019/09/13time	09:45:34forward acquisition time	60.00reverse acquisition time	0.00gamma	496.2192k internal	0.2311k external	0.2311temperature offset calibration	1.0187default loss term (dB/km)	0.3790temperature slope calibration	1.0000multiplexer offset coefficient	1.0000multiplexer slope coefficient	1.0000fibre end	0.00T internal ref (°C)	29.81T ext. ref 1 (°C)	4.45T ext. ref 2 (°C)	26.46length (m)	temperature (°C)	Stokes	anti-Stokes-747.200	-199.791	0.267	-0.001
-746.185	-82.490	-0.320	0.105
-745.171	504.142	0.077	-0.180
-744.156	-136.794	0.400	-0.047
-743.142	800.000	0.059	-0.245
-742.127	-200.000	-0.007	0.195
-741.112	122.904	0.326	0.414
-740.098	-160.321	-0.215	-0.012
-739.083	29.280	-0.232	-0.200
-738.069	137.427	0.120	0.159
-737.054	-200.000	-0.051	0.278
-736.039	174.120	0.179	-0.263
-735.025	-111.406	0.274	-0.057
-734.010	72.340	-0.222	0.234
-732.996	-200.000	-0.026	-0.233
-731.981	110.294	-0.164	0.200
-730.966	121.036	0.199	-0.251
-729.952	17.753	-0.226	-0.183
-728.937	-33.485	-0.255	0.143
-727.923	-26.460	-0.209	-0.125
-726.908	173.199	0.064	-0.093
-725.894	-15.653	-0.150	0.097
-724.879	561.331	0.107	0.263
-723.864	420.457	-0.134	-0.291
-722.850	-200.000	-0.045	-0.290
-721.835	-121.087	-0.494	0.084
-720.821	12.334	0.185	0.145
-719.806	-107.153	-0.328	-0.073
-718.791	549.710	0.155	-0.377
-717.777	-200.000	-0.036	0.225
-716.762	-96.959	0.171	0.045
-715.748	-86.622	-0.393	-0.122
-714.733	392.014	0.059	-0.124
-713.718	-54.906	-0.088	0.040
-712.704	800.000	0.052	-0.191
-711.689	279.625	-0.078	-0.141
-710.675	-200.000	-0.067	0.367
-709.660	-59.601	0.246	0.107
-708.645	492.127	0.132	-0.307
-707.631	-171.113	-0.120	0.004
-706.616	-103.659	-0.417	-0.099
-705.602	-103.120	-0.122	0.029
-704.587	-200.000	-0.043	-0.278
-703.572	-94.675	-0.257	-0.071
-702.558	72.249	0.024	-0.025
-701.543	14.031	-0.124	0.098
-700.529	-110.587	0.296	0.062
-699.514	114.847	-0.133	-0.165
-698.499	-163.865	0.212	0.010
-697.485	390.608	0.069	-0.145
-696.470	792.117	0.044	-0.123
-695.456	-51.493	-0.375	-0.177
-694.441	-79.657	0.248	-0.085
-693.426	-148.464	-0.258	-0.021
-692.412	-200.000	-0.029	0.310
-691.397	93.933	-0.013	0.014
-690.383	-200.000	-0.001	0.116
-689.368	41.656	-0.241	0.222
-688.354	-200.000	0.001	-0.068
-687.339	-200.000	0.004	-0.057
-686.324	-95.396	-0.084	0.023
-685.310	232.001	-0.197	-0.327
-684.295	800.000	0.030	-0.129
-683.281	233.200	-0.090	-0.150
-682.266	219.117	0.125	-0.202
-681.251	-108.163	0.296	0.065
-680.237	-200.000	-0.010	0.285
-679.222	-45.389	-0.259	-0.130
-678.208	4.792	-0.294	-0.219
-677.193	-200.000	-0.003	0.096
-676.178	-52.472	0.372	-0.174
-675.164	328.614	-0.222	-0.431
-674.149	-82.138	0.172	0.057
-673.135	-200.000	-0.027	0.361
-672.120	-126.140	0.150	-0.023
-671.105	-75.456	-0.413	0.149
-670.091	-147.516	0.282	0.024
-669.076	-126.044	-0.240	-0.037
-668.062	268.917	0.196	0.348
-667.047	-88.825	-0.205	0.062
-666.032	800.000	0.039	0.170
-665.018	-118.452	0.190	0.034
-664.003	-41.744	-0.156	0.081
-662.989	-200.000	0.005	-0.043
-661.974	-123.198	0.148	-0.024
-660.959	98.741	0.077	-0.090
-659.945	-126.719	0.197	0.029
-658.930	-108.143	0.296	0.065
-657.916	-83.368	0.319	-0.104
-656.901	134.245	0.146	0.191
-655.886	800.000	-0.033	-0.117
-654.872	-200.000	-0.081	-0.379
-653.857	-112.158	0.058	0.012
-652.843	126.665	0.297	0.380
-651.828	-94.110	0.227	0.063
-650.814	-200.000	0.035	-0.295
-649.799	800.000	-0.064	0.253
-648.784	-49.788	0.192	0.092
-647.770	306.164	0.133	-0.250
-646.755	605.660	0.090	-0.225
-645.741	-105.628	0.052	-0.012
-644.726	18.763	0.245	-0.198
-643.711	717.866	0.027	-0.072
-642.697	-22.733	0.205	-0.125
-641.682	311.257	-0.080	0.151
-640.668	-109.398	-0.158	0.034
-639.653	344.696	0.037	0.073
-638.638	-1.483	0.117	0.083
-637.624	82.360	-0.141	0.155
-636.609	-9.887	0.139	0.093
-635.595	4.204	-0.216	0.160
-634.580	800.000	0.068	-0.211
-633.565	-140.586	-0.250	0.026
-632.551	-30.335	-0.063	0.036
-631.536	-200.000	-0.035	-0.277
-630.522	800.000	0.052	-0.215
-629.507	266.034	0.233	-0.411
-628.492	-3.441	0.272	0.191
-627.478	-104.494	0.311	0.073
-626.463	403.729	-0.088	-0.187
-625.449	-92.397	-0.156	0.044
-624.434	-200.000	-0.036	0.000
-623.419	659.429	0.047	0.123
-622.405	800.000	-0.058	0.179
-621.390	-190.441	0.166	-0.002
-620.376	-11.891	-0.074	-0.049
-619.361	-110.916	-0.375	-0.078
-618.346	409.596	-0.066	0.142
-617.332	609.923	0.170	-0.429
-616.317	800.000	0.026	-0.111
-615.303	117.103	-0.138	-0.171
-614.288	186.318	-0.115	0.172
-613.273	125.868	-0.220	0.281
-612.259	-104.223	0.354	0.083
-611.244	-182.729	-0.221	-0.004
-610.230	-44.228	0.123	0.062
-609.215	-21.683	-0.317	0.195
-608.201	800.000	0.033	-0.111
-607.186	-161.047	0.288	0.015
-606.171	-200.000	-0.025	0.313
-605.157	223.643	0.100	0.162
-604.142	-183.020	-0.093	-0.002
-603.128	798.138	-0.070	-0.195
-602.113	-200.000	-0.016	-0.121
-601.098	-200.000	-0.022	0.266
-600.084	-75.921	0.186	-0.066
-599.069	5.533	0.136	0.101
-598.055	-200.000	-0.032	-0.196
-597.040	-200.000	-0.051	0.401
-596.025	-98.619	-0.074	-0.019
-595.011	190.896	-0.116	-0.176
-593.996	181.898	-0.161	-0.239
-592.982	57.869	0.125	0.124
-591.967	-65.183	-0.276	0.112
-590.952	-90.146	0.112	-0.033
-589.938	184.182	-0.186	-0.277
-588.923	-44.659	0.253	-0.128
-587.909	-80.491	0.191	-0.064
-586.894	49.657	-0.241	0.229
-585.879	28.199	-0.348	0.297
-584.865	-19.460	-0.267	-0.167
-583.850	-114.947	-0.117	-0.022
-582.836	323.657	0.145	0.279
-581.821	113.763	-0.089	0.109
-580.806	-181.679	0.352	-0.007
-579.792	11.027	0.207	-0.159
-578.777	-31.597	-0.057	0.032
-577.763	147.332	0.182	-0.247
-576.748	287.019	-0.025	0.046
-575.733	92.474	0.043	-0.048
-574.719	123.701	0.143	0.181
-573.704	494.523	-0.120	0.279
-572.690	23.565	-0.152	-0.126
-571.675	-46.783	-0.207	-0.102
-570.661	336.143	-0.068	-0.133
-569.646	41.927	0.145	-0.133
-568.631	139.487	-0.088	0.117
-567.617	-129.347	-0.148	-0.021
-566.602	643.333	0.074	-0.189
-565.588	443.134	0.092	-0.204
-564.573	31.429	-0.309	-0.268
-563.558	-67.147	0.115	0.046
-562.544	-19.973	-0.165	0.103
-561.529	365.010	0.081	0.164
-560.515	72.787	-0.050	-0.053
-559.500	120.672	-0.101	-0.126
-558.485	125.822	0.186	-0.237
-557.471	57.631	-0.438	0.432
-556.456	-79.707	-0.340	0.115
-555.442	-119.752	-0.057	-0.010
-554.427	39.841	0.193	0.175
-553.412	202.617	0.167	0.261
-552.398	800.000	-0.132	-0.422
-551.383	-112.715	-0.415	0.083
-550.369	-22.059	0.308	0.188
-549.354	-200.000	-0.011	-0.075
-548.339	-69.155	0.256	-0.099
-547.325	98.938	-0.321	0.373
-546.310	-200.000	0.003	0.228
-545.296	-200.000	0.034	0.284
-544.281	-131.768	-0.605	0.080
-543.266	-45.447	-0.058	0.029
-542.252	452.179	0.187	0.417
-541.237	-41.962	0.124	0.064
-540.223	-36.722	-0.148	0.080
-539.208	-92.491	-0.109	0.031
-538.193	-33.109	0.097	0.054
-537.179	-34.089	0.138	-0.076
-536.164	-77.289	-0.077	-0.027
-535.150	-66.030	-0.230	0.092
-534.135	68.878	-0.123	0.127
-533.121	26.163	0.256	-0.215
-532.106	-200.000	0.047	0.242
-531.091	577.760	-0.058	0.143
-530.077	-200.000	0.010	-0.259
-529.062	-200.000	0.032	0.330
-528.048	-200.000	0.021	-0.275
-527.033	79.424	0.059	-0.063
-526.018	318.388	-0.056	0.107
-525.004	-41.119	-0.100	0.052
-523.989	-96.226	-0.023	0.006
-522.975	800.000	-0.136	0.395
-521.960	-2.565	-0.085	0.060
-520.945	-9.263	0.085	-0.057
-519.931	-53.400	0.250	-0.115
-518.916	-39.656	0.324	-0.171
-517.902	-200.000	-0.041	-0.208
-516.887	83.795	0.156	0.171
-515.872	220.045	-0.135	-0.218
-514.858	-152.317	0.375	0.027
-513.843	-10.943	-0.404	0.269
-512.829	119.525	-0.170	-0.212
-511.814	-200.000	-0.018	-0.094
-510.799	278.010	0.114	-0.204
-509.785	-90.104	0.167	-0.049
-508.770	7.719	0.135	0.102
-507.756	-200.000	-0.003	-0.113
-506.741	39.541	-0.106	0.095
-505.726	-200.000	0.020	-0.167
-504.712	-165.932	0.033	0.001
-503.697	-200.000	-0.027	0.161
-502.683	-200.000	-0.070	0.409
-501.668	-104.688	0.444	-0.103
-500.653	538.308	-0.144	0.343
-499.639	-65.864	0.509	-0.205
-498.624	-200.000	-0.051	-0.423
-497.610	2.677	0.194	0.142
-496.595	165.091	-0.012	-0.017
-495.581	-133.903	-0.168	0.021
-494.566	-157.359	-0.136	0.008
-493.551	107.750	-0.108	0.130
-492.537	286.614	-0.113	-0.205
-491.522	753.982	-0.064	-0.174
-490.508	-126.597	-0.184	-0.027
-489.493	-53.481	0.202	0.093
-488.478	189.951	-0.251	-0.379
-487.464	-200.000	-0.035	-0.199
-486.449	-99.672	-0.215	0.054
-485.435	-133.119	-0.183	-0.023
-484.420	275.442	-0.094	-0.167
-483.405	1.202	-0.190	0.137
-482.391	-28.083	-0.149	-0.087
-481.376	218.053	0.166	-0.266
-480.362	-170.284	-0.253	-0.009
-479.347	482.198	-0.070	-0.160
-478.332	-113.928	0.164	-0.032
-477.318	-20.453	0.103	0.064
-476.303	-115.645	-0.179	0.034
-475.289	800.000	0.052	0.228
-474.274	257.604	-0.113	-0.195
-473.259	-200.000	-0.007	0.196
-472.245	-153.540	0.227	-0.016
-471.230	706.698	0.093	-0.247
-470.216	-19.594	-0.067	-0.042
-469.201	-53.186	-0.285	0.132
-468.186	-117.210	0.252	0.046
-467.172	-115.582	-0.184	-0.035
-466.157	209.299	0.245	-0.385
-465.143	64.113	-0.111	-0.112
-464.128	-93.910	0.259	0.071
-463.113	800.000	-0.075	-0.242
-462.099	624.636	0.113	-0.285
-461.084	417.603	-0.073	0.157
-460.070	133.562	-0.232	0.302
-459.055	-200.000	0.001	0.231
-458.040	-63.907	0.194	0.080
-457.026	340.204	-0.077	0.150
-456.011	-200.000	-0.258	-0.000
-454.997	17.905	0.207	-0.165
-453.982	-200.000	-0.004	0.111
-452.968	-138.196	-0.212	-0.024
-451.953	-200.000	0.028	-0.432
-450.938	-200.000	-0.022	0.198
-449.924	-55.115	0.273	0.123
-448.909	-88.133	0.262	-0.079
-447.895	27.930	0.264	0.223
-446.880	-61.185	0.191	-0.081
-445.865	285.148	-0.149	0.269
-444.851	-69.451	-0.073	-0.028
-443.836	283.480	-0.048	0.086
-442.822	-41.511	-0.120	0.062
-441.807	106.706	-0.191	0.228
-440.792	48.812	-0.234	0.220
-439.778	-136.639	0.145	-0.017
-438.763	6.107	-0.061	-0.045
-437.749	-2.651	0.065	0.046
-436.734	178.555	0.174	-0.255
-435.719	-83.605	-0.415	-0.133
-434.705	391.829	-0.018	-0.037
-433.690	610.350	-0.066	0.166
-432.676	-200.000	0.027	-0.306
-431.661	60.214	0.162	0.161
-430.646	-131.987	0.309	0.040
-429.632	800.000	0.061	0.191
-428.617	-44.224	-0.049	0.025
-427.603	-52.183	0.228	0.106
-426.588	398.402	0.098	0.206
-425.573	800.000	-0.095	0.284
-424.559	800.000	-0.047	0.178
-423.544	143.061	0.248	-0.331
-422.530	325.665	-0.053	0.102
-421.515	-107.004	0.322	-0.071
-420.500	25.746	0.206	0.172
-419.486	196.402	-0.099	-0.152
-418.471	-200.000	0.004	-0.077
-417.457	-146.542	0.216	-0.019
-416.442	9.926	-0.183	0.139
-415.428	-23.651	0.159	-0.096
-414.413	-200.000	-0.012	0.197
-413.398	-192.407	-0.272	-0.003
-412.384	-86.615	-0.187	0.057
-411.369	-82.303	0.217	-0.071
-410.355	-95.047	0.295	-0.080
-409.340	-200.000	0.007	-0.353
-408.325	658.955	0.085	-0.219
-407.311	-200.000	0.015	-0.114
-406.296	318.934	-0.184	-0.349
-405.282	-124.920	-0.236	-0.036
-404.267	-154.756	-0.273	-0.018
-403.252	275.771	0.103	0.183
-402.238	126.264	-0.109	-0.138
-401.223	800.000	0.116	-0.443
-400.209	-200.000	-0.020	-0.115
-399.194	-107.312	0.115	-0.025
-398.179	-156.042	-0.210	0.013
-397.165	-200.000	0.055	0.262
-396.150	144.462	0.084	-0.112
-395.136	52.342	0.134	-0.128
-394.121	-96.149	0.341	0.091
-393.106	699.360	0.148	0.390
-392.092	218.439	-0.203	0.324
-391.077	123.141	0.134	-0.168
-390.063	-153.751	0.156	-0.011
-389.048	666.837	-0.110	-0.284
-388.033	265.887	0.065	-0.113
-387.019	196.631	0.188	0.287
-386.004	90.587	-0.164	-0.184
-384.990	-17.726	-0.116	-0.073
-383.975	-18.122	0.134	-0.084
-382.960	-200.000	0.003	-0.171
-381.946	136.198	-0.058	-0.076
-380.931	48.388	0.196	0.183
-379.917	194.262	0.230	0.349
-378.902	-167.399	0.481	-0.019
-377.888	-24.301	-0.097	0.058
-376.873	-95.382	0.108	-0.029
-375.858	-43.636	0.116	0.059
-374.844	-58.501	-0.266	-0.116
-373.829	-88.326	-0.071	-0.021
-372.815	-200.000	-0.028	0.232
-371.800	-200.000	-0.004	-0.089
-370.785	47.946	0.115	-0.107
-369.771	282.884	-0.159	-0.286
-368.756	-14.100	0.171	0.110
-367.742	-124.213	0.365	0.057
-366.727	-74.836	0.102	-0.037
-365.712	-200.000	0.026	0.137
-364.698	-153.272	0.480	-0.034
-363.683	800.000	-0.078	0.216
-362.669	611.510	-0.015	-0.036
-361.654	52.038	-0.201	-0.192
-360.639	-45.194	0.011	0.005
-359.625	-17.838	-0.069	0.043
-358.610	-140.169	-0.234	0.025
-357.596	-200.000	0.033	0.368
-356.581	153.218	0.134	-0.184
-355.566	41.476	-0.048	0.044
-354.552	800.000	0.044	-0.164
-353.537	326.705	0.142	-0.273
-352.523	19.422	-0.021	0.017
-351.508	-24.717	-0.200	-0.119
-350.493	-49.236	-0.074	-0.035
-349.479	-200.000	-0.017	-0.083
-348.464	-200.000	0.016	0.368
-347.450	-51.650	-0.040	0.018
-346.435	359.171	0.166	-0.332
-345.420	-200.000	0.027	-0.173
-344.406	-33.747	0.206	-0.113
-343.391	-200.000	-0.004	-0.040
-342.377	-58.413	-0.224	-0.097
-341.362	-200.000	0.051	0.225
-340.348	125.903	-0.100	0.126
-339.333	-16.455	0.176	0.112
-338.318	158.007	0.010	-0.014
-337.304	-200.000	0.052	0.254
-336.289	520.953	0.073	-0.171
-335.275	-19.496	-0.054	-0.034
-334.260	-107.907	-0.155	-0.034
-333.245	329.253	0.196	-0.377
-332.231	-1.805	-0.092	-0.065
-331.216	-149.897	-0.095	-0.007
-330.202	-200.000	-0.273	0.001
-329.187	-200.000	-0.005	0.087
-328.172	-133.639	-0.208	-0.026
-327.158	173.658	0.050	0.072
-326.143	-200.000	-0.003	0.264
-325.129	-140.014	0.330	-0.035
-324.114	563.636	0.116	0.280
-323.099	-200.000	-0.030	0.326
-322.085	-200.000	0.027	0.138
-321.070	164.039	0.147	-0.207
-320.056	-75.541	-0.365	-0.130
-319.041	800.000	-0.016	0.056
-318.026	-76.054	-0.191	0.067
-317.012	68.815	0.098	0.100
-315.997	-15.596	0.320	0.204
-314.983	-25.285	-0.216	-0.127
-313.968	-55.237	0.393	-0.176
-312.953	-88.939	0.231	-0.068
-311.939	759.942	-0.150	-0.405
-310.924	-200.000	0.006	0.054
-309.910	-48.748	0.260	0.124
-308.895	-39.540	0.314	0.164
-307.880	-102.208	-0.279	0.067
-306.866	-50.458	0.069	0.032
-305.851	148.368	-0.149	-0.200
-304.837	10.780	-0.240	-0.183
-303.822	800.000	0.057	-0.197
-302.807	-51.726	-0.036	-0.017
-301.793	-200.000	0.082	-0.401
-300.778	88.937	0.220	-0.245
-299.764	-200.000	-0.022	-0.261
-298.749	11.583	-0.306	-0.234
-297.735	-32.835	0.094	0.052
-296.720	-187.162	-0.144	-0.002
-295.705	82.583	0.036	-0.039
-294.691	800.000	0.027	-0.102
-293.676	102.951	0.180	0.210
-292.662	361.537	-0.129	0.258
-291.647	-117.622	-0.208	-0.037
-290.632	-98.494	-0.143	0.037
-289.618	-48.646	-0.180	0.086
-288.603	44.146	-0.079	-0.072
-287.589	119.447	-0.167	0.206
-286.574	-75.281	-0.280	-0.100
-285.559	220.545	-0.110	-0.177
-284.545	-60.439	0.049	0.021
-283.530	-69.166	-0.253	0.097
-282.516	-200.000	0.026	0.271
-281.501	-184.150	0.177	0.003
-280.486	800.000	-0.012	0.053
-279.472	-69.001	-0.144	-0.055
-278.457	78.893	0.108	0.115
-277.443	-88.027	0.081	-0.024
-276.428	-11.951	-0.170	0.111
-275.413	-24.550	0.102	0.061
-274.399	800.000	-0.053	0.151
-273.384	280.188	0.125	0.223
-272.370	2.613	-0.084	0.060
-271.355	800.000	0.079	0.241
-270.340	-34.977	0.198	0.107
-269.326	93.541	-0.129	-0.145
-268.311	-200.000	0.030	-0.231
-267.297	-200.000	0.019	0.110
-266.282	-200.000	-0.088	-0.411
-265.267	-8.737	-0.219	0.146
-264.253	800.000	0.040	-0.164
-263.238	-60.568	-0.226	0.096
-262.224	800.000	-0.118	-0.384
-261.209	-200.000	0.026	0.128
-260.195	200.776	-0.123	-0.189
-259.180	94.794	-0.192	0.217
-258.165	-84.601	-0.098	0.031
-257.151	-86.248	-0.229	-0.070
-256.136	96.873	0.120	0.137
-255.122	-200.000	-0.008	-0.048
-254.107	-141.116	0.160	0.016
-253.092	-27.926	-0.086	-0.050
-252.078	-46.788	0.283	0.138
-251.063	87.261	-0.137	0.151
-250.049	-150.584	-0.129	-0.010
-249.034	-200.000	0.067	0.319
-248.019	-200.000	-0.045	-0.353
-247.005	470.247	-0.094	-0.211
-245.990	652.899	-0.142	0.363
-244.976	-200.000	-0.023	0.105
-243.961	174.241	0.086	0.124
-242.946	-65.370	-0.133	0.053
-241.932	800.000	0.140	-0.469
-240.917	-110.603	0.093	0.019
-239.903	-200.000	-0.027	-0.199
-238.888	289.468	0.066	-0.119
-237.873	800.000	-0.172	-0.482
-236.859	-79.664	-0.108	-0.036
-235.844	42.495	0.119	-0.108
-234.830	-133.219	-0.175	0.022
-233.815	-200.000	0.041	0.255
-232.800	88.891	0.279	-0.309
-231.786	66.317	0.047	0.048
-230.771	68.925	0.202	0.207
-229.757	800.000	0.063	0.255
-228.742	-39.529	-0.205	0.107
-227.727	617.127	-0.072	0.179
-226.713	266.011	0.012	-0.020
-225.698	45.452	0.243	-0.223
-224.684	-95.897	-0.274	-0.073
-223.669	800.000	0.085	0.298
-222.655	-88.846	-0.530	-0.156
-221.640	201.512	0.047	0.073
-220.625	-127.380	0.196	0.028
-219.611	139.395	0.176	0.231
-218.596	-58.532	-0.167	-0.072
-217.582	800.000	0.080	0.222
-216.567	800.000	0.044	0.133
-215.552	119.971	0.221	0.273
-214.538	-119.168	0.144	0.025
-213.523	800.000	-0.120	-0.474
-212.509	800.000	0.080	-0.264
-211.494	-63.509	0.254	0.104
-210.479	138.216	0.141	-0.184
-209.465	-72.321	-0.244	0.090
-208.450	13.691	0.029	0.022
-207.436	260.806	-0.107	-0.184
-206.421	-200.000	0.061	-0.411
-205.406	-92.052	0.091	0.026
-204.392	800.000	0.090	-0.261
-203.377	11.849	-0.066	0.051
-202.363	-200.000	0.003	-0.087
-201.348	408.260	-0.108	-0.226
-200.333	288.536	0.230	0.414
-199.319	-200.000	-0.068	0.351
-198.304	-145.436	0.153	-0.014
-197.290	73.577	-0.099	0.103
-196.275	262.224	-0.027	0.047
-195.260	20.913	0.237	-0.191
-194.246	-28.044	0.083	-0.048
-193.231	-164.250	0.311	0.014
-192.217	-41.903	-0.126	-0.064
-191.202	-51.498	0.135	-0.063
-190.187	641.948	0.046	-0.117
-189.173	-200.000	-0.032	0.226
-188.158	-97.710	-0.170	-0.044
-187.144	800.000	-0.100	0.307
-186.129	-85.125	-0.126	-0.039
-185.114	32.537	0.333	-0.286
-184.100	333.682	-0.033	0.063
-183.085	-20.855	-0.091	0.056
-182.071	-200.000	0.046	0.244
-181.056	277.415	0.091	0.160
-180.042	-200.000	-0.012	-0.087
-179.027	-200.000	0.051	-0.297
-178.012	42.159	0.047	0.042
-176.998	398.267	-0.095	0.197
-175.983	-82.427	0.135	0.044
-174.969	-200.000	0.115	-0.548
-173.954	-86.181	-0.457	-0.140
-172.939	595.120	-0.099	-0.242
-171.925	-14.343	-0.223	-0.142
-170.910	-33.171	0.101	0.056
-169.896	237.009	0.088	0.145
-168.881	-38.928	-0.326	0.170
-167.866	-200.000	-0.015	0.103
-166.852	585.304	0.020	0.049
-165.837	231.839	0.088	0.143
-164.823	-200.000	-0.010	0.394
-163.808	-200.000	-0.072	0.326
-162.793	-200.000	0.005	-0.228
-161.779	-110.914	0.313	-0.064
-160.764	-128.241	-0.213	-0.030
-159.750	800.000	-0.130	0.384
-158.735	232.842	0.107	0.174
-157.720	184.128	0.109	0.160
-156.706	336.775	-0.027	0.053
-155.691	23.164	-0.095	-0.077
-154.677	800.000	-0.062	0.253
-153.662	-152.032	0.147	0.011
-152.647	-200.000	0.022	-0.190
-151.633	-200.000	-0.015	-0.298
-150.618	55.787	0.054	-0.052
-149.604	-200.000	0.008	-0.231
-148.589	154.359	-0.147	0.200
-147.574	-200.000	-0.010	0.079
-146.560	-138.360	-0.157	0.017
-145.545	-200.000	0.017	-0.338
-144.531	58.704	0.163	0.158
-143.516	-128.423	0.364	-0.051
-142.502	-68.696	-0.147	0.056
-141.487	-200.000	0.031	0.159
-140.472	732.078	0.029	-0.078
-139.458	162.793	0.178	-0.248
-138.443	-200.000	0.024	-0.257
-137.429	-102.846	0.124	-0.029
-136.414	800.000	-0.013	0.053
-135.399	-126.204	-0.229	0.034
-134.385	-13.531	0.159	0.102
-133.370	651.227	-0.121	0.307
-132.356	248.497	0.080	-0.134
-131.341	-122.930	-0.166	-0.027
-130.326	96.998	-0.109	-0.124
-129.312	800.000	-0.082	0.335
-128.297	800.000	0.044	0.181
-127.283	-23.401	0.259	0.154
-126.268	-155.687	0.139	0.009
-125.253	-78.171	-0.221	-0.075
-124.239	-21.609	0.074	-0.045
-123.224	-33.886	-0.051	0.028
-122.210	164.740	0.116	-0.161
