DTS Sentinel unit serial number:	SN413079Multiplexer serial number:	ORYXHardware model number:	OX4-SRSoftware version number:	ORYX F/W v4.00 Oryx Data Collector v3.7.2.0data status	okinstallation	princeton_trtdifferential loss correction	single-endedforward channel	channel 4reverse channel	N/Adate	2019/09/13time	18:41:35forward acquisition time	60.00reverse acquisition time	0.00gamma	496.2192k internal	0.2307k external	0.2307temperature offset calibration	1.0183default loss term (dB/km)	0.3790temperature slope calibration	1.0000multiplexer offset coefficient	1.0000multiplexer slope coefficient	1.0000fibre end	0.00T internal ref (°C)	32.81T ext. ref 1 (°C)	4.16T ext. ref 2 (°C)	25.96length (m)	temperature (°C)	Stokes	anti-Stokes-747.200	150.323	-0.112	0.155
-746.185	250.400	0.120	0.207
-745.171	519.665	0.036	0.086
-744.156	297.219	-0.168	0.314
-743.142	-200.000	0.048	-0.353
-742.127	-105.577	0.269	-0.062
-741.112	-23.929	0.214	-0.130
-740.098	306.568	0.020	-0.038
-739.083	-200.000	0.006	-0.198
-738.069	-54.094	-0.252	0.117
-737.054	-91.240	-0.042	-0.012
-736.039	790.539	0.094	-0.264
-735.025	129.055	0.148	0.192
-734.010	48.782	0.045	0.043
-732.996	353.404	-0.066	0.132
-731.981	1.859	-0.355	-0.260
-730.966	800.000	0.024	-0.099
-729.952	37.949	-0.086	-0.078
-728.937	137.752	0.023	0.030
-727.923	800.000	-0.043	0.141
-726.908	-14.948	0.146	0.095
-725.894	64.633	-0.317	-0.324
-724.879	-200.000	0.065	-0.372
-723.864	18.340	-0.248	-0.202
-722.850	-200.000	-0.012	0.282
-721.835	-94.090	0.127	-0.035
-720.821	-72.984	-0.098	0.037
-719.806	-8.079	0.034	0.023
-718.791	-13.923	-0.290	0.191
-717.777	800.000	0.018	-0.054
-716.762	151.033	-0.111	-0.153
-715.748	698.168	0.056	0.149
-714.733	134.122	-0.172	0.226
-713.718	800.000	-0.048	-0.154
-712.704	800.000	-0.059	-0.181
-711.689	13.045	-0.117	-0.092
-710.675	165.973	-0.076	-0.109
-709.660	800.000	0.099	0.327
-708.645	-107.465	-0.447	-0.100
-707.631	-31.842	0.203	-0.116
-706.616	-144.297	0.211	-0.020
-705.602	174.174	-0.121	-0.177
-704.587	-200.000	0.076	-0.345
-703.572	-60.995	0.259	-0.111
-702.558	185.949	0.137	0.207
-701.543	33.348	-0.223	0.197
-700.529	-126.775	-0.160	0.024
-699.514	-24.958	-0.143	0.086
-698.499	-200.000	-0.079	-0.494
-697.485	525.360	-0.033	-0.079
-696.470	-156.972	-0.270	0.017
-695.456	-115.362	0.237	-0.045
-694.441	311.906	-0.162	-0.309
-693.426	-95.632	-0.258	-0.070
-692.412	-171.154	0.203	-0.007
-691.397	491.173	0.193	-0.449
-690.383	-5.500	-0.044	-0.030
-689.368	-53.382	-0.240	-0.112
-688.354	800.000	-0.110	0.402
-687.339	-200.000	-0.055	0.252
-686.324	800.000	-0.067	-0.195
-685.310	-135.367	0.283	-0.034
-684.295	280.875	-0.054	0.098
-683.281	-132.892	0.234	0.030
-682.266	-162.520	-0.417	-0.021
-681.251	198.774	0.104	0.162
-680.237	-81.638	-0.433	0.144
-679.222	-45.768	0.257	0.129
-678.208	39.188	-0.170	-0.155
-677.193	657.452	0.134	-0.349
-676.178	800.000	-0.075	-0.328
-675.164	-200.000	-0.039	0.322
-674.149	-200.000	-0.026	-0.285
-673.135	-72.543	0.203	0.076
-672.120	-38.437	-0.339	0.182
-671.105	-200.000	-0.001	0.012
-670.091	96.346	0.148	-0.172
-669.076	800.000	0.054	-0.168
-668.062	800.000	-0.011	-0.035
-667.047	304.718	-0.029	0.054
-666.032	-1.382	-0.048	0.035
-665.018	-200.000	0.029	0.194
-664.003	89.357	-0.254	0.287
-662.989	31.985	-0.177	-0.155
-661.974	138.521	-0.077	-0.103
-660.959	-159.922	-0.119	0.007
-659.945	-169.492	0.337	0.012
-658.930	-53.691	-0.206	0.095
-657.916	800.000	-0.113	-0.362
-656.901	161.186	-0.032	-0.045
-655.886	-200.000	0.012	-0.172
-654.872	570.526	-0.115	-0.283
-653.857	323.869	-0.104	0.201
-652.843	-103.092	0.244	0.059
-651.828	-200.000	0.023	-0.145
-650.814	-181.177	0.130	0.003
-649.799	-200.000	0.000	-0.045
-648.784	477.373	0.083	0.191
-647.770	162.414	0.178	-0.253
-646.755	257.658	-0.095	0.166
-645.741	800.000	0.075	0.247
-644.726	-75.501	0.099	0.036
-643.711	-85.492	-0.303	0.095
-642.697	135.470	0.026	0.034
-641.682	60.052	-0.097	-0.097
-640.668	264.691	-0.070	-0.124
-639.653	286.231	-0.093	-0.171
-638.638	-168.323	-0.360	0.014
-637.624	-56.178	-0.179	0.081
-636.609	-164.775	0.307	-0.014
-635.595	235.187	-0.129	0.216
-634.580	133.063	0.096	-0.126
-633.565	-200.000	0.052	0.350
-632.551	800.000	-0.038	0.154
-631.536	139.545	-0.077	0.103
-630.522	-200.000	0.037	0.382
-629.507	81.991	0.199	0.218
-628.492	-90.457	-0.294	0.086
-627.478	102.113	-0.123	0.145
-626.463	-134.956	0.092	-0.011
-625.449	8.187	-0.206	0.157
-624.434	-162.433	-0.299	-0.015
-623.419	-200.000	-0.147	-0.001
-622.405	-181.266	0.338	0.007
-621.390	-123.812	0.356	-0.057
-620.376	-151.160	0.379	-0.029
-619.361	724.069	-0.168	-0.452
-618.346	-32.744	0.136	-0.077
-617.332	-129.984	0.180	-0.025
-616.317	800.000	0.057	-0.196
-615.303	-127.919	-0.069	0.010
-614.288	197.959	-0.100	0.155
-613.273	435.314	-0.071	0.156
-612.259	-35.624	-0.410	-0.225
-611.244	-101.231	0.114	-0.028
-610.230	133.950	-0.194	0.254
-609.215	364.124	-0.110	0.224
-608.201	-91.121	0.440	0.128
-607.186	131.450	-0.106	-0.138
-606.171	480.953	-0.082	0.189
-605.157	459.490	0.124	0.279
-604.142	-200.000	-0.059	-0.321
-603.128	141.388	0.201	-0.269
-602.113	204.568	-0.188	-0.294
-601.098	-102.134	-0.270	-0.066
-600.084	-150.180	-0.310	0.024
-599.069	70.733	0.077	0.081
-598.055	39.109	0.162	-0.146
-597.040	-164.837	0.225	-0.010
-596.025	-126.715	0.373	0.056
-595.011	-200.000	-0.070	-0.343
-593.996	-102.745	0.262	-0.063
-592.982	-109.446	0.228	0.049
-591.967	88.728	-0.188	0.211
-590.952	716.991	0.055	-0.148
-589.938	-157.966	0.196	0.012
-588.923	-200.000	0.017	-0.588
-587.909	340.855	-0.137	-0.271
-586.894	48.191	-0.069	-0.065
-585.879	-32.138	0.070	-0.040
-584.865	-71.684	0.155	0.058
-583.850	-49.569	-0.146	0.070
-582.836	-110.606	0.100	0.021
-581.821	-118.073	0.285	-0.051
-580.806	-117.205	-0.319	-0.059
-579.792	-200.000	0.008	0.075
-578.777	-92.240	-0.372	0.106
-577.763	-200.000	0.030	0.195
-576.748	800.000	0.024	-0.103
-575.733	15.460	-0.305	-0.242
-574.719	-200.000	0.047	-0.299
-573.704	-96.610	-0.137	-0.036
-572.690	800.000	0.057	0.202
-571.675	44.728	-0.158	0.147
-570.661	-200.000	-0.009	0.051
-569.646	-200.000	-0.069	0.351
-568.631	-8.218	0.279	0.190
-567.617	-129.032	-0.371	0.052
-566.602	-200.000	0.047	-0.222
-565.588	415.744	-0.058	0.126
-564.573	307.985	0.222	0.418
-563.558	-39.488	-0.138	-0.073
-562.544	-200.000	0.059	-0.358
-561.529	-200.000	-0.034	-0.164
-560.515	-64.218	-0.232	-0.095
-559.500	-31.348	0.023	0.013
-558.485	-118.238	0.087	0.016
-557.471	800.000	0.070	0.242
-556.456	800.000	0.016	0.072
-555.442	-115.734	0.282	0.053
-554.427	112.525	-0.235	0.287
-553.412	-34.485	0.171	0.095
-552.398	265.001	0.077	-0.135
-551.383	58.190	-0.095	-0.094
-550.369	-200.000	0.036	-0.181
-549.354	9.743	-0.062	-0.047
-548.339	-28.352	0.035	0.021
-547.325	800.000	0.068	0.241
-546.310	-41.196	0.264	0.137
-545.296	95.969	-0.144	-0.166
-544.281	-75.541	-0.047	0.017
-543.266	603.316	-0.121	0.303
-542.252	354.323	0.066	-0.133
-541.237	-70.324	0.206	-0.079
-540.223	-122.551	-0.225	0.037
-539.208	-73.912	0.132	-0.048
-538.193	-7.823	0.237	0.162
-537.179	-200.000	-0.042	-0.209
-536.164	82.304	-0.224	-0.245
-535.150	-80.056	0.051	-0.017
-534.135	-22.265	0.321	0.196
-533.121	209.351	-0.124	-0.195
-532.106	235.000	0.080	-0.134
-531.091	111.461	-0.190	-0.231
-530.077	-126.886	-0.192	-0.029
-529.062	-97.831	-0.418	0.109
-528.048	800.000	-0.060	-0.262
-527.033	-200.000	0.007	0.167
-526.018	800.000	-0.040	-0.169
-525.004	61.812	0.098	0.099
-523.989	295.965	0.109	-0.201
-522.975	-200.000	-0.069	-0.333
-521.960	39.992	0.083	-0.075
-520.945	532.815	-0.136	0.324
-519.931	-117.525	-0.433	-0.079
-518.916	433.546	-0.052	0.114
-517.902	800.000	-0.043	-0.135
-516.887	17.542	0.126	-0.101
-515.872	-78.009	0.229	-0.079
-514.858	-126.900	0.364	0.054
-513.843	-200.000	0.005	0.243
-512.829	112.196	-0.149	-0.181
-511.814	-154.197	-0.202	-0.014
-510.799	408.525	-0.125	-0.267
-509.785	21.912	-0.181	-0.149
-508.770	-66.843	0.139	0.055
-507.756	335.878	-0.179	-0.350
-506.741	800.000	-0.049	0.214
-505.726	-31.397	-0.130	0.074
-504.712	7.977	0.371	-0.280
-503.697	-200.000	-0.027	-0.294
-502.683	-84.242	0.073	-0.023
-501.668	-200.000	0.008	-0.101
-500.653	210.564	0.069	0.109
-499.639	185.630	-0.177	0.265
-498.624	88.370	0.137	-0.153
-497.610	79.863	0.126	-0.137
-496.595	414.170	0.048	0.104
-495.581	122.440	-0.165	-0.208
-494.566	342.337	-0.126	-0.249
-493.551	-61.557	-0.208	0.088
-492.537	-200.000	0.036	0.242
-491.522	239.640	-0.028	0.046
-490.508	-6.522	-0.204	-0.140
-489.493	-55.375	0.080	-0.036
-488.478	104.855	-0.298	0.354
-487.464	166.362	-0.177	0.252
-486.449	800.000	-0.059	-0.212
-485.435	601.855	0.039	0.099
-484.420	-52.589	0.075	0.035
-483.405	-200.000	0.002	0.037
-482.391	61.285	0.221	-0.221
-481.376	151.096	0.120	0.165
-480.362	291.802	-0.181	-0.333
-479.347	169.078	0.064	0.092
-478.332	-188.556	0.269	0.003
-477.318	24.721	-0.175	0.146
-476.303	558.495	-0.175	0.426
-475.289	-200.000	0.012	-0.166
-474.274	55.083	-0.056	0.055
-473.259	-47.257	-0.260	-0.127
-472.245	620.819	0.070	0.177
-471.230	-200.000	-0.038	0.232
-470.216	214.199	0.186	0.297
-469.201	-200.000	0.003	0.051
-468.186	800.000	0.056	-0.245
-467.172	-61.963	0.191	-0.080
-466.157	800.000	0.082	0.341
-465.143	-111.488	-0.329	0.067
-464.128	226.715	-0.064	-0.104
-463.113	-101.563	0.352	-0.086
-462.099	111.324	0.070	0.085
-461.084	-65.914	0.261	0.105
-460.070	-129.623	-0.285	0.040
-459.055	-171.717	0.117	0.004
-458.040	-101.459	-0.155	0.038
-457.026	238.702	-0.153	0.256
-456.011	213.159	0.139	-0.222
-454.997	-163.165	0.193	0.009
-453.982	800.000	-0.090	-0.291
-452.968	-200.000	0.036	0.248
-451.953	12.838	0.091	-0.071
-450.938	-38.342	-0.063	-0.034
-449.924	-64.223	-0.214	-0.088
-448.909	-156.013	-0.244	-0.016
-447.895	-79.891	0.378	0.128
-446.880	619.636	-0.133	-0.337
-445.865	113.253	-0.099	-0.121
-444.851	-200.000	0.010	-0.091
-443.836	118.760	0.178	0.222
-442.822	-56.255	-0.239	0.107
-441.807	137.582	0.113	-0.149
-440.792	115.069	-0.150	-0.183
-439.778	93.395	-0.227	0.258
-438.763	232.333	0.206	0.339
-437.749	-200.000	0.024	0.171
-436.734	84.059	-0.019	-0.021
-435.719	-17.905	0.128	-0.081
-434.705	-84.576	-0.159	0.050
-433.690	-88.913	-0.209	-0.062
-432.676	216.169	-0.111	0.177
-431.661	229.252	0.025	0.042
-430.646	-197.905	0.200	0.001
-429.632	-50.825	0.092	0.044
-428.617	-180.731	0.324	-0.007
-427.603	-71.240	-0.028	-0.011
-426.588	537.398	-0.152	-0.362
-425.573	-200.000	0.031	-0.241
-424.559	-26.278	0.253	-0.149
-423.544	499.935	-0.053	0.122
-422.530	67.278	0.182	-0.187
-421.515	-200.000	0.038	-0.171
-420.500	800.000	-0.102	0.325
-419.486	-14.905	-0.066	0.043
-418.471	-98.534	0.049	0.012
-417.457	-200.000	-0.028	-0.379
-416.442	-200.000	-0.020	-0.271
-415.428	-140.092	0.309	-0.033
-414.413	530.605	0.131	0.311
-413.398	800.000	-0.032	0.116
-412.384	-110.680	0.274	0.057
-411.369	17.075	0.145	0.116
-410.355	206.236	-0.100	0.156
-409.340	-47.764	0.244	-0.118
-408.325	-115.262	0.269	-0.051
-407.311	140.708	-0.085	0.113
-406.296	193.892	0.141	0.214
-405.282	359.542	-0.060	-0.120
-404.267	-132.091	0.215	0.028
-403.252	-200.000	-0.014	-0.269
-402.238	-200.000	-0.036	0.260
-401.223	-82.394	-0.262	0.085
-400.209	-111.979	-0.224	0.045
-399.194	68.816	0.309	0.318
-398.179	651.344	0.057	-0.148
-397.165	324.295	0.078	-0.150
-396.150	67.928	-0.187	0.191
-395.136	-200.000	-0.017	0.098
-394.121	-139.807	0.167	-0.018
-393.106	66.837	-0.237	-0.243
-392.092	-200.000	-0.017	-0.143
-391.077	77.688	-0.067	-0.072
-390.063	409.870	0.125	0.265
-389.048	95.762	-0.119	-0.136
-388.033	-114.216	-0.060	-0.012
-387.019	74.805	0.207	0.219
-386.004	-141.138	-0.101	-0.010
-384.990	-41.221	0.253	-0.131
-383.975	-17.890	-0.269	-0.169
-382.960	181.071	-0.079	-0.116
-381.946	425.132	0.056	0.122
-380.931	532.710	0.047	-0.112
-379.917	-62.114	-0.237	0.099
-378.902	-200.000	0.021	-0.212
-377.888	-200.000	-0.028	-0.126
-376.873	75.582	0.221	-0.234
-375.858	32.507	0.238	0.206
-374.844	-100.271	-0.087	0.022
-373.829	21.083	-0.169	0.138
-372.815	-190.583	0.197	-0.002
-371.800	-200.000	-0.006	0.165
-370.785	-193.918	0.225	0.002
-369.771	-97.685	0.140	0.036
-368.756	-109.016	0.293	0.063
-367.742	-3.357	0.107	-0.075
-366.727	-96.397	-0.165	-0.044
-365.712	800.000	-0.032	-0.137
-364.698	-200.000	-0.053	0.319
-363.683	800.000	-0.106	0.335
-362.669	-40.683	-0.085	0.044
-361.654	-5.944	-0.313	0.215
-360.639	46.483	-0.190	0.177
-359.625	97.369	-0.087	-0.101
-358.610	-181.987	0.247	0.005
-357.596	-200.000	-0.063	0.485
-356.581	149.348	-0.169	-0.229
-355.566	-67.058	0.254	0.100
-354.552	-124.722	0.157	-0.024
-353.537	101.601	0.039	-0.045
-352.523	800.000	0.022	-0.067
-351.508	273.680	0.029	0.052
-350.493	-27.822	0.203	0.118
-349.479	-200.000	-0.000	-0.101
-348.464	-183.025	-0.064	0.001
-347.450	800.000	-0.090	0.313
-346.435	789.940	0.096	0.265
-345.420	-118.239	-0.310	0.055
-344.406	-23.491	0.157	-0.095
-343.391	5.254	-0.121	0.089
-342.377	216.752	-0.091	0.146
-341.362	-139.702	0.315	0.034
-340.348	25.419	-0.074	0.061
-339.333	-13.766	-0.255	-0.165
-338.318	-65.654	0.222	0.089
-337.304	116.376	0.147	0.181
-336.289	-10.398	-0.273	0.181
-335.275	-200.000	0.037	0.168
-334.260	-19.168	-0.149	0.093
-333.245	304.990	0.138	0.257
-332.231	93.600	0.151	0.171
-331.216	-92.475	0.195	-0.055
-330.202	-200.000	-0.057	-0.383
-329.187	176.510	0.177	-0.257
-328.172	-200.000	-0.007	0.110
-327.158	560.283	0.051	-0.122
-326.143	-124.947	-0.316	0.049
-325.129	14.723	0.131	-0.102
-324.114	-200.000	-0.009	-0.055
-323.099	-68.150	-0.190	-0.074
-322.085	628.108	-0.085	0.214
-321.070	49.646	0.128	0.120
-320.056	-200.000	0.002	-0.139
-319.041	-131.528	0.185	0.024
-318.026	225.406	0.087	-0.140
-317.012	-38.329	0.181	0.096
-315.997	-25.478	-0.053	0.031
-314.983	800.000	0.057	0.247
-313.968	-159.422	-0.046	-0.003
-312.953	800.000	-0.066	-0.183
-311.939	800.000	0.049	-0.153
-310.924	-52.404	0.283	-0.131
-309.910	216.179	0.030	-0.048
-308.895	800.000	0.071	-0.214
-307.880	-6.506	-0.177	-0.121
-306.866	-138.476	-0.180	-0.020
-305.851	-49.633	0.010	0.005
-304.837	73.199	0.105	0.110
-303.822	-200.000	0.075	-0.360
-302.807	19.028	0.060	-0.048
-301.793	-128.965	-0.308	0.043
-300.778	188.857	0.112	-0.168
-299.764	124.810	0.179	0.225
-298.749	-200.000	-0.006	-0.045
-297.735	-100.356	-0.068	-0.017
-296.720	94.727	0.352	0.400
-295.705	-66.790	-0.141	-0.056
-294.691	-114.923	0.314	0.060
-293.676	-129.117	0.219	0.031
-292.662	800.000	0.138	0.412
-291.647	273.296	-0.159	0.281
-290.632	73.761	-0.109	-0.114
-289.618	-150.104	0.425	0.033
-288.603	259.297	-0.131	-0.226
-287.589	-75.282	0.263	0.094
-286.574	110.173	-0.097	-0.116
-285.559	-98.187	-0.089	-0.023
-284.545	-200.000	-0.002	-0.058
-283.530	155.052	-0.185	0.255
-282.516	-200.000	-0.010	-0.234
-281.501	-200.000	0.014	-0.315
-280.486	-45.400	0.167	0.083
-279.472	-84.168	-0.054	-0.017
-278.457	-200.000	-0.046	-0.219
-277.443	-10.036	-0.241	0.160
-276.428	-200.000	-0.015	-0.193
-275.413	800.000	-0.058	-0.187
-274.399	-34.900	0.094	0.051
-273.384	-200.000	-0.010	-0.199
-272.370	-200.000	0.030	-0.418
-271.355	-87.894	0.346	-0.104
-270.340	-200.000	-0.023	-0.107
-269.326	-200.000	-0.049	-0.277
-268.311	591.859	0.113	0.279
-267.297	-140.193	-0.518	0.054
-266.282	-116.990	-0.169	-0.031
-265.267	8.330	0.172	0.129
-264.253	800.000	-0.039	-0.136
-263.238	-128.162	0.226	-0.032
-262.224	479.298	0.120	0.271
-261.209	271.707	0.096	0.169
-260.195	-75.629	-0.085	-0.030
-259.180	-71.277	-0.184	0.069
-258.165	800.000	-0.080	-0.281
-257.151	-168.411	0.264	-0.010
-256.136	-200.000	0.054	-0.335
-255.122	800.000	-0.024	-0.093
-254.107	141.716	0.146	-0.192
-253.092	321.188	-0.121	-0.229
-252.078	-200.000	-0.001	0.047
-251.063	-200.000	0.004	-0.050
-250.049	7.312	0.142	-0.106
-249.034	194.099	-0.097	0.147
-248.019	-200.000	0.064	-0.436
-247.005	108.967	0.276	-0.329
-245.990	-117.878	-0.276	0.049
-244.976	-35.335	0.129	0.070
-243.961	-200.000	-0.013	0.378
-242.946	-64.325	0.209	-0.085
-241.932	565.526	-0.195	-0.471
-240.917	800.000	-0.071	0.212
-239.903	-200.000	-0.005	0.084
-238.888	18.795	-0.152	-0.121
-237.873	-200.000	-0.004	0.037
-236.859	-200.000	0.037	-0.169
-235.844	110.982	-0.028	-0.033
-234.830	-99.530	-0.144	0.036
-233.815	530.006	-0.074	-0.175
-232.800	93.992	0.146	0.165
-231.786	-44.506	-0.126	-0.063
-230.771	-200.000	0.068	0.298
-229.757	-16.209	0.161	0.102
-228.742	800.000	-0.047	-0.176
-227.727	-142.156	-0.228	-0.023
-226.713	-113.595	0.444	0.087
-225.698	-171.188	-0.070	-0.002
-224.684	-200.000	0.010	0.153
-223.669	-200.000	-0.002	0.267
-222.655	172.901	-0.148	0.213
-221.640	800.000	0.019	0.063
-220.625	800.000	-0.011	0.041
-219.611	174.630	-0.116	-0.167
-218.596	1.206	-0.300	0.214
-217.582	-151.330	-0.447	-0.033
-216.567	-126.089	0.227	0.034
-215.552	212.952	-0.163	-0.257
-214.538	-200.000	-0.011	-0.152
-213.523	-200.000	-0.029	0.248
-212.509	132.972	0.086	-0.111
-211.494	-76.783	0.025	-0.009
-210.479	777.601	0.039	0.107
-209.465	-21.923	-0.120	0.073
-208.450	70.534	0.101	-0.104
-207.436	800.000	-0.052	-0.151
-206.421	-145.147	-0.181	0.016
-205.406	255.267	0.139	-0.236
-204.392	-48.514	-0.362	0.173
-203.377	-84.009	0.295	-0.093
-202.363	-140.072	-0.329	0.034
-201.348	-200.000	0.061	-0.335
-200.333	-87.758	-0.034	0.010
-199.319	-133.711	0.353	0.044
-198.304	-200.000	0.033	0.196
-197.290	136.275	0.161	-0.209
-196.275	-113.847	-0.299	0.058
-195.260	98.096	-0.238	0.272
-194.246	69.043	-0.220	-0.225
-193.231	-16.216	-0.314	0.199
-192.217	-67.771	0.150	0.059
-191.202	800.000	0.097	0.289
-190.187	125.971	0.129	-0.162
-189.173	11.605	-0.291	-0.222
-188.158	-8.985	-0.059	0.040
-187.144	-104.602	-0.353	-0.081
-186.129	-136.148	-0.150	-0.018
-185.114	-200.000	0.033	-0.171
-184.100	5.514	0.183	0.135
-183.085	28.619	-0.070	-0.059
-182.071	-86.189	0.061	-0.019
-181.056	285.670	-0.043	-0.078
-180.042	-174.823	0.305	0.009
-179.027	800.000	-0.036	0.147
-178.012	-193.956	-0.066	0.001
-176.998	175.985	0.108	-0.156
-175.983	-92.746	0.214	-0.060
-174.969	-200.000	-0.015	-0.116
-173.954	4.116	-0.095	0.069
-172.939	-66.901	-0.062	0.024
-171.925	134.651	0.086	-0.111
-170.910	136.449	0.168	0.218
-169.896	-148.046	0.285	0.024
-168.881	231.932	-0.179	0.293
-167.866	54.482	-0.258	-0.247
-166.852	-139.551	-0.363	-0.039
-165.837	-97.112	-0.266	0.069
-164.823	128.742	0.028	0.036
-163.808	-200.000	-0.013	0.085
-162.793	41.013	-0.086	0.077
-161.779	-40.915	0.156	-0.080
-160.764	26.885	0.246	0.205
-159.750	-174.495	0.189	-0.005
-158.735	-61.149	0.243	0.102
-157.720	-200.000	-0.018	0.263
-156.706	-13.697	0.353	0.227
-155.691	-127.239	-0.437	0.063
-154.677	782.808	0.100	0.272
-153.662	-33.057	-0.307	-0.169
-152.647	18.324	0.110	-0.087
-151.633	-200.000	-0.004	-0.290
-150.618	-110.365	-0.124	0.026
-149.604	-200.000	-0.047	0.348
-148.589	27.234	-0.147	0.123
-147.574	556.203	0.063	0.151
-146.560	-200.000	0.015	0.273
-145.545	580.247	0.073	0.179
-144.531	-110.690	0.072	0.015
-143.516	-130.797	-0.444	-0.059
-142.502	94.871	0.277	0.313
-141.487	72.385	-0.211	-0.218
-140.472	156.186	0.184	-0.252
-139.458	47.320	-0.267	-0.247
-138.443	-95.636	0.104	0.028
-137.429	34.287	0.101	0.088
-136.414	238.241	0.129	0.212
-135.399	60.469	-0.385	0.379
-134.385	728.105	0.182	0.482
-133.370	40.340	0.218	0.194
-132.356	71.164	-0.105	0.108
-131.341	800.000	-0.083	-0.237
-130.326	-200.000	0.006	-0.144
-129.312	-111.814	0.249	-0.050
-128.297	72.812	0.151	0.157
-127.283	-7.449	-0.142	-0.096
-126.268	-20.112	0.359	0.220
-125.253	800.000	0.088	-0.278
-124.239	-85.208	-0.147	-0.046
-123.224	-200.000	0.035	-0.362
-122.210	-200.000	0.065	-0.289
