DTS Sentinel unit serial number:	SN413079Multiplexer serial number:	ORYXHardware model number:	OX4-SRSoftware version number:	ORYX F/W v4.00 Oryx Data Collector v3.7.2.0data status	okinstallation	princeton_trtdifferential loss correction	single-endedforward channel	channel 4reverse channel	N/Adate	2019/09/15time	04:25:35forward acquisition time	60.00reverse acquisition time	0.00gamma	496.2192k internal	0.2310k external	0.2310temperature offset calibration	1.0029default loss term (dB/km)	0.3790temperature slope calibration	1.0000multiplexer offset coefficient	1.0000multiplexer slope coefficient	1.0000fibre end	0.00T internal ref (°C)	30.87T ext. ref 1 (°C)	4.63T ext. ref 2 (°C)	25.56length (m)	temperature (°C)	Stokes	anti-Stokes-747.200	-97.315	-0.263	-0.070
-746.185	-200.000	-0.011	0.255
-745.171	-170.819	-0.130	0.005
-744.156	118.924	-0.085	0.107
-743.142	-138.977	0.306	-0.034
-742.127	86.313	0.188	0.210
-741.112	800.000	-0.038	0.114
-740.098	241.333	0.120	0.204
-739.083	68.393	0.139	0.144
-738.069	513.031	-0.033	0.078
-737.054	63.327	-0.057	-0.058
-736.039	800.000	0.104	0.354
-735.025	161.109	0.190	0.269
-734.010	-12.192	-0.096	0.064
-732.996	-200.000	-0.014	0.113
-731.981	-135.920	-0.208	0.025
-730.966	-53.375	0.328	0.153
-729.952	-73.021	0.222	0.083
-728.937	-200.000	-0.018	-0.223
-727.923	-71.021	0.018	0.007
-726.908	-1.389	-0.264	0.189
-725.894	-99.624	-0.134	0.034
-724.879	-34.065	-0.159	-0.089
-723.864	237.826	0.047	-0.078
-722.850	-200.000	0.011	-0.053
-721.835	190.477	0.137	-0.208
-720.821	-200.000	0.006	-0.135
-719.806	-96.899	-0.174	-0.046
-718.791	800.000	0.064	-0.251
-717.777	-35.446	-0.210	-0.116
-716.762	-200.000	-0.017	0.196
-715.748	-200.000	0.013	0.334
-714.733	-200.000	0.047	0.256
-713.718	782.663	-0.046	-0.127
-712.704	10.732	-0.188	-0.146
-711.689	-94.916	-0.080	-0.022
-710.675	-50.094	0.438	-0.210
-709.660	111.989	0.172	-0.211
-708.645	114.872	-0.010	-0.012
-707.631	-132.606	-0.177	-0.023
-706.616	-105.183	0.100	-0.023
-705.602	-2.797	-0.096	-0.068
-704.587	800.000	-0.056	-0.241
-703.572	-89.267	0.165	-0.049
-702.558	209.995	-0.063	0.101
-701.543	9.044	-0.287	-0.220
-700.529	46.624	-0.167	0.157
-699.514	-200.000	-0.039	0.264
-698.499	113.024	0.168	0.207
-697.485	800.000	-0.071	-0.283
-696.470	87.391	0.355	-0.398
-695.456	-146.864	-0.248	-0.022
-694.441	-12.085	-0.181	-0.120
-693.426	286.787	0.247	0.453
-692.412	659.803	-0.097	0.252
-691.397	205.155	-0.109	-0.172
-690.383	-129.570	0.388	0.054
-689.368	-43.155	0.027	0.014
-688.354	-83.100	0.318	-0.104
-687.339	800.000	-0.063	-0.186
-686.324	31.170	-0.118	-0.103
-685.310	800.000	-0.101	-0.346
-684.295	-160.103	0.098	0.005
-683.281	31.850	-0.171	-0.149
-682.266	-65.917	-0.051	-0.021
-681.251	322.236	0.024	0.046
-680.237	70.745	0.131	-0.137
-679.222	-42.075	-0.412	-0.213
-678.208	21.743	-0.245	-0.202
-677.193	407.141	-0.030	-0.064
-676.178	-9.144	-0.093	-0.063
-675.164	800.000	0.054	-0.233
-674.149	-142.051	-0.088	-0.009
-673.135	232.995	-0.114	0.190
-672.120	-84.548	0.275	-0.088
-671.105	-22.685	-0.302	0.185
-670.091	-200.000	-0.001	-0.203
-669.076	-200.000	-0.013	0.200
-668.062	-200.000	0.070	-0.411
-667.047	20.010	0.096	0.079
-666.032	580.730	0.061	-0.151
-665.018	-200.000	-0.009	0.041
-664.003	-10.923	0.115	-0.077
-662.989	-200.000	-0.016	-0.135
-661.974	777.188	-0.053	-0.147
-660.959	-19.121	-0.217	0.136
-659.945	232.109	0.044	-0.074
-658.930	-110.097	0.240	-0.051
-657.916	-11.405	-0.046	-0.031
-656.901	59.077	-0.174	0.173
-655.886	-120.324	0.295	0.051
-654.872	151.339	0.074	-0.102
-653.857	-160.103	-0.255	0.014
-652.843	-8.042	-0.131	-0.089
-651.828	-200.000	0.021	0.161
-650.814	470.222	-0.082	-0.187
-649.799	-79.932	0.306	0.104
-648.784	108.952	-0.149	-0.180
-647.770	-142.063	-0.197	0.020
-646.755	139.006	-0.036	-0.048
-645.741	-116.279	-0.178	0.033
-644.726	-122.499	0.290	-0.048
-643.711	800.000	-0.035	-0.146
-642.697	-129.809	-0.310	0.043
-641.682	445.964	-0.129	-0.286
-640.668	-200.000	-0.006	-0.171
-639.653	-28.928	-0.140	-0.082
-638.638	800.000	0.028	-0.095
-637.624	-28.568	-0.242	-0.141
-636.609	800.000	-0.110	-0.328
-635.595	126.896	-0.164	0.210
-634.580	46.430	-0.215	-0.201
-633.565	-38.578	0.284	0.152
-632.551	-200.000	-0.014	0.204
-631.536	-200.000	0.038	0.287
-630.522	-122.568	0.191	-0.031
-629.507	349.967	-0.176	-0.352
-628.492	800.000	-0.111	-0.313
-627.478	165.024	0.104	0.148
-626.463	82.487	-0.177	0.194
-625.449	-119.001	-0.258	0.046
-624.434	-114.733	-0.342	0.066
-623.419	800.000	-0.090	-0.387
-622.405	-104.887	-0.162	0.038
-621.390	81.827	-0.292	0.320
-620.376	-81.249	-0.043	0.014
-619.361	-106.466	0.221	0.050
-618.346	44.365	-0.152	0.141
-617.332	-200.000	0.016	0.208
-616.317	-130.924	-0.232	-0.031
-615.303	-73.726	0.264	0.097
-614.288	-96.611	0.404	0.107
-613.273	-22.144	-0.209	0.128
-612.259	-32.163	0.098	-0.055
-611.244	-200.000	-0.022	-0.168
-610.230	-200.000	0.019	0.191
-609.215	-53.973	0.268	-0.123
-608.201	-200.000	0.089	0.421
-607.186	776.456	0.036	-0.100
-606.171	-97.924	0.068	-0.018
-605.157	-86.544	0.231	-0.072
-604.142	357.282	-0.045	0.090
-603.128	800.000	-0.062	-0.233
-602.113	-90.609	0.276	0.081
-601.098	800.000	0.093	0.261
-600.084	304.971	0.108	0.202
-599.069	-157.573	-0.033	-0.002
-598.055	11.254	-0.016	0.012
-597.040	800.000	0.017	-0.071
-596.025	139.841	-0.097	-0.130
-595.011	-200.000	-0.016	0.169
-593.996	-81.644	0.441	-0.146
-592.982	-88.431	0.102	-0.031
-591.967	-200.000	-0.002	-0.066
-590.952	800.000	0.027	-0.112
-589.938	-94.164	0.139	-0.039
-588.923	-177.764	-0.356	0.009
-587.909	-68.075	-0.225	-0.088
-586.894	473.799	-0.056	-0.128
-585.879	-200.000	-0.065	-0.388
-584.865	199.562	-0.222	-0.343
-583.850	800.000	0.012	-0.047
-582.836	75.655	0.105	-0.112
-581.821	-167.949	0.109	0.004
-580.806	-20.151	-0.164	0.102
-579.792	88.936	0.093	-0.104
-578.777	275.840	0.130	0.233
-577.763	-87.688	-0.149	0.045
-576.748	625.755	0.081	0.205
-575.733	800.000	-0.007	-0.027
-574.719	-70.584	-0.425	0.162
-573.704	-200.000	-0.009	-0.351
-572.690	-97.639	-0.197	0.052
-571.675	-33.602	0.225	-0.125
-570.661	-111.189	0.060	-0.012
-569.646	141.284	0.146	-0.196
-568.631	800.000	-0.052	-0.183
-567.617	-49.040	-0.154	0.074
-566.602	212.390	-0.193	-0.307
-565.588	-81.165	0.328	-0.109
-564.573	7.779	0.228	-0.173
-563.558	-71.693	-0.031	-0.012
-562.544	31.643	0.265	-0.230
-561.529	88.216	-0.105	-0.117
-560.515	-67.849	0.271	-0.107
-559.500	-59.106	0.006	0.003
-558.485	-72.617	0.083	-0.031
-557.471	-58.554	-0.186	-0.081
-556.456	-81.505	0.529	0.175
-555.442	-200.000	0.011	0.096
-554.427	16.930	-0.159	-0.127
-553.412	-164.604	0.240	-0.011
-552.398	-25.415	-0.183	0.109
-551.383	-48.365	-0.186	0.090
-550.369	628.390	0.075	-0.191
-549.354	-200.000	0.036	-0.253
-548.339	-70.989	0.045	-0.017
-547.325	-200.000	0.010	0.176
-546.310	-61.864	-0.214	-0.090
-545.296	39.220	-0.128	-0.115
-544.281	33.201	0.140	0.122
-543.266	210.455	0.092	-0.146
-542.252	-76.096	0.296	-0.105
-541.237	105.484	-0.053	0.063
-540.223	800.000	0.047	-0.174
-539.208	-89.779	0.144	-0.043
-538.193	24.467	-0.126	-0.105
-537.179	59.086	-0.167	0.165
-536.164	-34.159	0.112	0.062
-535.150	800.000	0.020	-0.079
-534.135	26.251	0.093	-0.079
-533.121	800.000	0.081	-0.306
-532.106	59.250	0.181	0.180
-531.091	433.318	0.219	0.480
-530.077	-17.930	-0.239	0.151
-529.062	-0.959	-0.257	0.184
-528.048	-125.368	-0.167	-0.026
-527.033	-59.011	-0.091	0.039
-526.018	-88.219	-0.238	-0.072
-525.004	120.353	-0.157	0.196
-523.989	-124.445	0.067	0.010
-522.975	-200.000	-0.040	0.209
-521.960	-61.224	-0.239	-0.102
-520.945	-2.828	-0.221	0.155
-519.931	-25.349	0.066	-0.039
-518.916	123.005	-0.038	-0.047
-517.902	164.949	0.196	-0.278
-516.887	-49.161	-0.273	-0.131
-515.872	159.901	-0.102	-0.143
-514.858	96.045	0.268	-0.309
-513.843	517.716	0.140	0.330
-512.829	-82.872	-0.105	0.034
-511.814	163.851	0.259	0.367
-510.799	-59.417	0.239	0.103
-509.785	-94.515	-0.446	-0.122
-508.770	-200.000	-0.033	0.202
-507.756	-109.094	-0.142	0.030
-506.741	-87.088	-0.222	0.068
-505.726	87.320	-0.273	0.304
-504.712	-55.665	-0.229	0.103
-503.697	152.093	0.054	-0.074
-502.683	47.114	-0.192	0.180
-501.668	800.000	-0.027	0.104
-500.653	-4.365	0.040	-0.028
-499.639	-63.177	-0.085	0.035
-498.624	90.685	-0.159	-0.179
-497.610	-4.700	0.318	-0.221
-496.595	85.956	-0.157	-0.174
-495.581	604.671	-0.191	-0.478
-494.566	800.000	-0.077	0.240
-493.551	-87.155	0.185	0.057
-492.537	-39.634	0.254	0.133
-491.522	800.000	0.024	-0.083
-490.508	-60.297	0.289	-0.124
-489.493	-97.182	-0.133	-0.035
-488.478	-46.225	-0.293	-0.145
-487.464	87.283	-0.290	-0.322
-486.449	532.601	-0.048	0.115
-485.435	-200.000	0.003	-0.268
-484.420	-88.319	-0.297	-0.089
-483.405	177.114	0.082	-0.119
-482.391	800.000	-0.107	-0.317
-481.376	383.278	0.027	-0.056
-480.362	-154.462	0.126	0.008
-479.347	-200.000	-0.039	-0.199
-478.332	195.574	0.065	0.100
-477.318	-200.000	0.099	-0.537
-476.303	-45.273	0.167	-0.083
-475.289	-66.146	-0.073	-0.029
-474.274	-200.000	-0.012	0.129
-473.259	-19.018	0.262	-0.163
-472.245	-200.000	-0.009	-0.599
-471.230	800.000	-0.044	0.129
-470.216	-89.615	-0.171	0.051
-469.201	-53.982	-0.358	-0.164
-468.186	793.790	-0.120	-0.332
-467.172	-200.000	-0.040	-0.190
-466.157	179.811	-0.144	-0.212
-465.143	-38.368	-0.232	-0.123
-464.128	0.137	-0.308	0.220
-463.113	-193.303	-0.278	0.002
-462.099	201.706	-0.140	-0.217
-461.084	157.806	0.207	0.288
-460.070	-43.670	0.221	0.112
-459.055	787.232	0.070	0.194
-458.040	-70.089	-0.187	-0.072
-457.026	-68.886	-0.052	0.020
-456.011	243.889	0.091	-0.153
-454.997	-35.792	-0.387	0.211
-453.982	-200.000	-0.010	0.100
-452.968	148.991	-0.213	0.289
-451.953	-194.383	0.294	0.002
-450.938	-104.454	-0.155	0.036
-449.924	-200.000	0.018	-0.134
-448.909	61.454	-0.182	-0.182
-447.895	-200.000	0.026	0.236
-446.880	132.875	-0.048	-0.062
-445.865	53.927	0.030	-0.029
-444.851	-113.088	-0.187	-0.037
-443.836	-30.456	0.231	-0.131
-442.822	-83.254	0.095	0.031
-441.807	163.788	-0.154	0.217
-440.792	800.000	-0.079	-0.302
-439.778	800.000	-0.036	0.108
-438.763	66.002	0.008	0.008
-437.749	800.000	-0.067	-0.289
-436.734	-200.000	0.061	-0.337
-435.719	800.000	0.044	0.143
-434.705	-38.650	0.312	0.165
-433.690	-200.000	-0.009	-0.042
-432.676	-141.975	0.143	0.014
-431.661	-3.393	-0.151	-0.105
-430.646	118.031	-0.042	-0.052
-429.632	-146.178	-0.072	-0.006
-428.617	88.579	0.067	0.075
-427.603	195.900	0.044	0.068
-426.588	-21.755	0.096	-0.058
-425.573	229.323	-0.120	0.197
-424.559	-103.955	0.395	-0.092
-423.544	-51.091	-0.010	-0.005
-422.530	-200.000	-0.015	0.263
-421.515	-105.587	-0.031	0.007
-420.500	-98.747	0.245	-0.062
-419.486	-116.765	0.161	0.030
-418.471	577.978	-0.031	0.075
-417.457	8.987	-0.134	0.101
-416.442	-113.447	-0.281	0.055
-415.428	-13.784	-0.156	0.101
-414.413	-110.760	-0.112	0.023
-413.398	82.416	0.131	0.143
-412.384	144.810	-0.239	0.320
-411.369	156.878	0.185	0.256
-410.355	-28.065	-0.389	0.226
-409.340	186.053	0.139	-0.208
-408.325	568.459	-0.024	0.058
-407.311	-200.000	-0.013	-0.230
-406.296	-200.000	-0.010	0.109
-405.282	-58.680	0.375	-0.163
-404.267	-184.466	-0.168	-0.003
-403.252	-200.000	-0.011	0.264
-402.238	-200.000	-0.014	0.110
-401.223	193.550	0.112	0.170
-400.209	-117.178	0.226	0.041
-399.194	87.159	0.142	-0.157
-398.179	275.061	-0.045	-0.080
-397.165	215.620	-0.129	-0.205
-396.150	-200.000	0.031	0.344
-395.136	-108.839	-0.184	0.039
-394.121	800.000	0.143	-0.538
-393.106	-200.000	-0.007	-0.344
-392.092	-198.956	0.149	-0.001
-391.077	115.130	-0.275	0.336
-390.063	381.916	0.058	0.119
-389.048	-200.000	-0.015	0.131
-388.033	36.160	0.058	-0.051
-387.019	800.000	0.024	-0.100
-386.004	120.603	-0.210	-0.261
-384.990	-60.989	0.097	-0.041
-383.975	-9.826	0.232	-0.155
-382.960	-83.027	-0.185	-0.060
-381.946	-78.457	-0.332	-0.114
-380.931	-79.372	0.095	-0.032
-379.917	-34.971	0.286	0.156
-378.902	-60.235	-0.162	0.069
-377.888	389.855	0.125	-0.259
-376.873	-45.768	0.073	-0.036
-375.858	-200.000	0.005	0.436
-374.844	-97.180	0.191	0.050
-373.829	50.092	0.186	-0.175
-372.815	51.709	0.047	-0.045
-371.800	130.051	0.157	-0.201
-370.785	-200.000	0.014	0.111
-369.771	-5.534	0.293	-0.201
-368.756	53.628	0.211	-0.203
-367.742	800.000	-0.034	-0.096
-366.727	-118.667	0.236	-0.042
-365.712	1.313	-0.107	-0.077
-364.698	-35.292	0.254	-0.138
-363.683	-147.602	-0.342	0.029
-362.669	-103.334	-0.358	0.084
-361.654	397.574	-0.081	0.170
-360.639	-146.484	-0.070	-0.006
-359.625	-30.730	0.163	-0.092
-358.610	-46.078	-0.206	0.102
-357.596	81.474	0.114	-0.124
-356.581	-187.784	0.294	-0.004
-355.566	48.255	0.081	0.076
-354.552	800.000	0.067	0.270
-353.537	-200.000	-0.005	0.383
-352.523	-122.927	0.162	-0.026
-351.508	252.345	-0.185	0.316
-350.493	306.157	0.036	0.068
-349.479	198.683	-0.076	0.116
-348.464	-200.000	-0.006	-0.102
-347.450	185.730	-0.071	-0.106
-346.435	-111.117	0.211	0.043
-345.420	-189.125	-0.068	-0.001
-344.406	-33.096	-0.289	0.160
-343.391	-9.141	-0.175	0.117
-342.377	21.651	-0.252	-0.205
-341.362	-26.434	-0.163	-0.096
-340.348	800.000	0.090	0.298
-339.333	27.080	-0.257	0.215
-338.318	-58.442	-0.228	-0.099
-337.304	132.468	-0.133	0.172
-336.289	-162.295	0.199	-0.010
-335.275	-102.992	0.220	0.052
-334.260	24.218	0.259	0.214
-333.245	-200.000	-0.009	0.333
-332.231	599.169	-0.072	0.178
-331.216	-38.731	0.355	0.187
-330.202	105.294	0.050	0.059
-329.187	29.155	-0.212	-0.180
-328.172	800.000	0.036	0.112
-327.158	-48.979	0.233	0.112
-326.143	-200.000	-0.047	-0.215
-325.129	795.076	-0.015	-0.041
-324.114	75.040	-0.085	-0.089
-323.099	-84.736	0.187	-0.059
-322.085	224.210	-0.147	0.238
-321.070	-95.164	0.190	0.051
-320.056	800.000	-0.017	-0.067
-319.041	55.395	0.159	-0.154
-318.026	58.176	-0.369	0.361
-317.012	-62.117	-0.153	-0.064
-315.997	290.515	0.118	0.214
-314.983	-95.742	0.282	0.075
-313.968	310.377	-0.150	-0.280
-312.953	-111.719	0.026	-0.005
-311.939	-14.362	-0.353	0.227
-310.924	602.107	0.080	0.198
-309.910	123.218	0.113	0.141
-308.895	27.628	-0.184	-0.155
-307.880	-30.417	-0.119	0.067
-306.866	-149.981	-0.161	-0.013
-305.851	-48.172	0.067	-0.032
-304.837	800.000	0.100	0.335
-303.822	205.095	0.056	-0.086
-302.807	-200.000	-0.013	0.396
-301.793	-55.476	0.102	-0.046
-300.778	-200.000	0.027	-0.170
-299.764	-200.000	-0.007	-0.227
-298.749	32.756	0.123	0.106
-297.735	33.486	-0.182	0.158
-296.720	-57.342	-0.182	-0.080
-295.705	-110.118	0.041	-0.009
-294.691	7.423	-0.316	-0.235
-293.676	-200.000	-0.152	-0.000
-292.662	335.574	0.113	-0.218
-291.647	-200.000	0.013	-0.265
-290.632	791.609	0.084	-0.231
-289.618	-200.000	0.059	0.279
-288.603	-122.202	-0.165	0.027
-287.589	-44.504	0.370	0.185
-286.574	532.901	0.165	-0.391
-285.559	365.846	-0.102	-0.206
-284.545	641.144	-0.082	-0.209
-283.530	-42.442	-0.087	0.044
-282.516	800.000	0.114	0.352
-281.501	727.607	-0.086	0.229
-280.486	-200.000	-0.027	0.211
-279.472	140.032	0.173	0.228
-278.457	-200.000	-0.009	0.192
-277.443	800.000	0.080	-0.259
-276.428	-200.000	0.004	-0.250
-275.413	83.855	0.060	0.066
-274.399	-14.541	0.180	0.116
-273.384	103.071	0.137	0.160
-272.370	145.046	-0.078	0.104
-271.355	26.921	0.250	-0.209
-270.340	-102.823	0.198	-0.047
-269.326	-19.876	-0.138	0.085
-268.311	-116.751	0.160	-0.029
-267.297	447.454	0.152	0.333
-266.282	-155.186	-0.106	0.007
-265.267	-200.000	0.035	-0.299
-264.253	-41.318	0.112	0.057
-263.238	800.000	0.127	-0.412
-262.224	-200.000	0.063	-0.318
-261.209	-107.133	-0.126	0.028
-260.195	2.091	0.230	-0.165
-259.180	29.583	0.178	-0.151
-258.165	-43.659	-0.169	0.085
-257.151	-9.687	0.166	0.110
-256.136	-19.198	-0.257	0.159
-255.122	-109.724	0.095	-0.020
-254.107	322.854	-0.190	-0.360
-253.092	148.668	-0.048	-0.065
-252.078	-39.161	-0.042	0.022
-251.063	-52.575	-0.214	0.098
-250.049	248.983	0.078	0.132
-249.034	800.000	0.131	0.431
-248.019	301.673	0.185	-0.340
-247.005	-172.683	-0.194	-0.006
-245.990	800.000	0.130	0.379
-244.976	250.113	0.094	0.158
-243.961	467.206	-0.147	-0.328
-242.946	-155.175	-0.160	0.010
-241.932	47.380	0.097	-0.090
-240.917	115.722	0.215	0.262
-239.903	-105.984	0.130	-0.029
-238.888	800.000	-0.026	-0.102
-237.873	-111.275	0.250	-0.051
-236.859	-3.715	0.183	0.127
-235.844	-81.433	0.305	0.100
-234.830	13.451	-0.329	0.254
-233.815	800.000	-0.089	0.275
-232.800	-156.133	0.071	0.004
-231.786	-65.309	-0.068	-0.027
-230.771	175.825	0.039	-0.057
-229.757	182.899	-0.114	0.168
-228.742	-200.000	0.180	-0.001
-227.727	-98.888	-0.212	-0.054
-226.713	-75.738	-0.267	-0.094
-225.698	174.459	0.145	0.209
-224.684	-62.409	0.283	0.117
-223.669	168.107	-0.049	0.070
-222.655	-68.437	0.203	-0.078
-221.640	-28.025	0.117	0.067
-220.625	-8.422	-0.052	0.035
-219.611	53.407	-0.129	-0.123
-218.596	800.000	0.061	0.230
-217.582	341.982	0.116	-0.226
-216.567	-173.470	-0.188	0.006
-215.552	800.000	0.104	0.399
-214.538	-200.000	-0.008	0.225
-213.523	-60.599	-0.105	-0.044
-212.509	800.000	0.097	-0.280
-211.494	-200.000	-0.005	0.129
-210.479	-55.710	0.045	-0.020
-209.465	14.877	0.134	-0.104
-208.450	-179.815	-0.228	-0.005
-207.436	800.000	-0.085	0.270
-206.421	-71.167	-0.200	0.075
-205.406	7.529	0.163	0.121
-204.392	-200.000	0.017	0.133
-203.377	314.236	0.232	0.434
-202.363	16.779	0.116	-0.091
-201.348	-75.045	-0.088	-0.031
-200.333	153.716	-0.190	-0.259
-199.319	-132.530	0.273	0.035
-198.304	-63.782	-0.196	0.080
-197.290	800.000	0.047	-0.159
-196.275	-185.547	-0.305	0.005
-195.260	208.511	0.215	0.334
-194.246	-68.014	-0.106	-0.041
-193.231	-79.627	-0.404	0.135
-192.217	-98.837	0.324	0.082
-191.202	15.710	0.191	0.149
-190.187	65.003	-0.083	-0.083
-189.173	24.846	-0.275	-0.226
-188.158	1.018	-0.235	0.167
-187.144	-133.607	0.287	0.036
-186.129	17.518	0.264	0.208
-185.114	-53.688	0.206	-0.094
-184.100	-90.111	0.242	0.070
-183.085	-200.000	0.046	-0.322
-182.071	-17.606	0.136	-0.085
-181.056	-35.201	-0.144	0.078
-180.042	800.000	0.067	0.198
-179.027	-185.116	0.043	0.001
-178.012	-8.140	0.246	-0.165
-176.998	-73.883	-0.153	-0.055
-175.983	-157.434	0.097	-0.006
-174.969	-91.306	-0.132	0.037
-173.954	19.311	0.237	-0.189
-172.939	-200.000	-0.009	0.110
-171.925	111.577	0.205	-0.245
-170.910	-200.000	0.058	0.262
-169.896	89.630	0.062	0.068
-168.881	-75.734	-0.039	0.014
-167.866	55.529	-0.115	-0.110
-166.852	227.274	0.202	0.326
-165.837	-66.888	0.172	0.068
-164.823	40.465	-0.161	0.144
-163.808	223.464	-0.064	0.102
-162.793	-164.922	0.185	-0.008
-161.779	516.051	0.108	-0.251
-160.764	-200.000	0.006	-0.216
-159.750	-55.645	-0.056	-0.025
-158.735	-36.733	-0.108	0.058
-157.720	800.000	-0.088	-0.313
-156.706	265.051	-0.067	-0.115
-155.691	14.128	0.041	0.032
-154.677	335.287	0.131	0.253
-153.662	-25.004	-0.182	-0.107
-152.647	517.434	0.074	0.171
-151.633	-184.634	0.297	0.005
-150.618	26.299	0.084	-0.070
-149.604	-103.195	0.394	-0.092
-148.589	-51.369	0.364	0.169
-147.574	-200.000	-0.041	0.291
-146.560	-34.010	-0.020	-0.011
-145.545	-200.000	0.374	0.001
-144.531	109.982	0.165	-0.196
-143.516	408.979	0.072	-0.151
-142.502	20.419	0.093	-0.074
-141.487	649.824	0.096	-0.243
-140.472	-145.364	-0.309	0.028
-139.458	198.600	-0.089	0.135
-138.443	-119.600	0.272	-0.047
-137.429	-162.163	0.185	0.009
-136.414	-200.000	0.044	-0.313
-135.399	800.000	0.014	-0.055
-134.385	-31.694	0.138	-0.077
-133.370	731.974	-0.094	-0.249
-132.356	800.000	-0.032	0.133
-131.341	13.695	0.083	0.064
-130.326	-200.000	-0.018	0.144
-129.312	-174.131	0.343	0.010
-128.297	-112.493	-0.214	-0.042
-127.283	-200.000	0.012	-0.081
-126.268	636.787	0.085	0.214
-125.253	66.192	-0.141	-0.142
-124.239	579.431	0.131	0.319
-123.224	744.774	-0.130	-0.347
-122.210	800.000	0.046	-0.126
-121.195	152.195	0.146	0.197
