DTS Sentinel unit serial number:	SN413079Multiplexer serial number:	ORYXHardware model number:	OX4-SRSoftware version number:	ORYX F/W v4.00 Oryx Data Collector v3.7.2.0data status	okinstallation	princeton_trtdifferential loss correction	single-endedforward channel	channel 4reverse channel	N/Adate	2019/09/14time	03:29:35forward acquisition time	60.00reverse acquisition time	0.00gamma	496.2192k internal	0.2323k external	0.2323temperature offset calibration	1.0131default loss term (dB/km)	0.3790temperature slope calibration	1.0000multiplexer offset coefficient	1.0000multiplexer slope coefficient	1.0000fibre end	0.00T internal ref (°C)	26.64T ext. ref 1 (°C)	3.28T ext. ref 2 (°C)	21.58length (m)	temperature (°C)	Stokes	anti-Stokes-747.200	304.826	0.148	0.277
-746.185	16.106	-0.272	0.216
-745.171	-106.751	0.237	-0.053
-744.156	-18.058	0.181	0.114
-743.142	800.000	0.029	0.081
-742.127	12.197	-0.254	0.197
-741.112	115.575	0.184	-0.227
-740.098	-200.000	0.049	0.336
-739.083	6.845	-0.051	0.038
-738.069	224.880	0.167	0.273
-737.054	-161.269	-0.112	0.006
-736.039	87.763	-0.311	-0.348
-735.025	-30.459	-0.122	-0.070
-734.010	-134.346	0.104	-0.013
-732.996	-11.761	-0.228	0.151
-731.981	-125.013	-0.189	0.029
-730.966	124.844	-0.272	-0.346
-729.952	192.218	-0.122	-0.186
-728.937	-106.647	-0.082	0.018
-727.923	-21.021	0.092	-0.057
-726.908	426.898	-0.127	-0.275
-725.894	10.328	0.114	-0.087
-724.879	42.964	-0.268	0.246
-723.864	83.797	0.063	-0.069
-722.850	-115.250	-0.164	0.031
-721.835	114.137	-0.260	0.319
-720.821	-200.000	-0.012	0.084
-719.806	-200.000	-0.001	0.067
-718.791	102.058	-0.185	0.218
-717.777	234.933	-0.139	-0.231
-716.762	47.220	-0.106	-0.100
-715.748	800.000	0.068	-0.256
-714.733	-71.054	-0.161	0.061
-713.718	224.855	-0.123	-0.200
-712.704	205.928	-0.132	0.206
-711.689	-139.372	0.146	-0.016
-710.675	160.578	-0.110	-0.155
-709.660	-169.824	-0.158	-0.006
-708.645	-123.240	-0.302	-0.049
-707.631	-18.719	0.066	0.041
-706.616	-180.417	-0.217	0.005
-705.602	-17.572	-0.247	-0.157
-704.587	19.035	-0.134	-0.109
-703.572	-3.305	0.347	0.243
-702.558	800.000	-0.042	-0.134
-701.543	-200.000	0.011	-0.074
-700.529	-28.729	0.179	0.104
-699.514	1.030	0.152	-0.110
-698.499	-94.286	0.160	0.044
-697.485	-23.604	0.088	0.053
-696.470	-21.842	-0.151	0.093
-695.456	-110.502	0.135	-0.028
-694.441	-200.000	-0.034	-0.203
-693.426	126.669	0.077	-0.098
-692.412	-17.676	-0.252	-0.159
-691.397	-92.276	-0.591	0.168
-690.383	17.908	0.253	-0.203
-689.368	92.073	0.200	-0.227
-688.354	-47.917	0.047	-0.023
-687.339	-26.441	0.178	0.105
-686.324	-19.695	-0.163	-0.102
-685.310	15.279	0.258	-0.204
-684.295	-84.710	-0.256	-0.081
-683.281	746.160	-0.144	-0.390
-682.266	-200.000	0.049	0.475
-681.251	800.000	-0.104	0.334
-680.237	-70.773	-0.244	0.093
-679.222	-153.859	-0.158	0.011
-678.208	-149.025	0.249	-0.020
-677.193	-73.824	0.311	-0.114
-676.178	800.000	-0.106	0.296
-675.164	100.328	-0.172	-0.201
-674.149	17.678	-0.093	-0.074
-673.135	-133.052	0.319	-0.041
-672.120	15.685	-0.146	0.116
-671.105	-200.000	-0.057	-0.295
-670.091	225.623	0.186	-0.304
-669.076	800.000	0.041	-0.140
-668.062	800.000	0.066	-0.283
-667.047	-90.415	0.361	-0.106
-666.032	59.620	0.210	0.209
-665.018	-200.000	-0.029	-0.349
-664.003	-61.129	0.049	-0.021
-662.989	-200.000	-0.015	-0.140
-661.974	800.000	-0.058	-0.226
-660.959	707.570	0.032	-0.086
-659.945	-33.943	-0.192	-0.106
-658.930	29.260	-0.294	0.251
-657.916	60.598	0.248	0.247
-656.901	12.443	0.169	0.131
-655.886	467.967	-0.046	0.104
-654.872	-200.000	0.027	0.158
-653.857	287.453	0.058	0.105
-652.843	-42.638	0.125	-0.064
-651.828	-145.109	0.362	-0.033
-650.814	-64.119	0.070	0.029
-649.799	225.809	0.044	-0.072
-648.784	-101.579	-0.339	-0.083
-647.770	-119.094	0.238	0.042
-646.755	201.304	-0.256	-0.396
-645.741	410.645	-0.039	-0.083
-644.726	190.642	-0.132	0.199
-643.711	-131.308	-0.327	0.044
-642.697	-10.111	-0.316	0.211
-641.682	125.284	-0.218	-0.277
-640.668	-107.755	-0.123	-0.027
-639.653	-200.000	0.002	0.089
-638.638	-17.326	-0.301	0.191
-637.624	-196.822	0.194	0.001
-636.609	-146.546	0.302	0.026
-635.595	44.881	-0.284	0.262
-634.580	148.481	-0.073	0.099
-633.565	55.875	-0.114	0.111
-632.551	618.694	0.088	0.223
-631.536	-136.908	-0.289	0.033
-630.522	308.751	-0.116	-0.219
-629.507	160.208	-0.072	0.101
-628.492	3.378	-0.104	-0.076
-627.478	-100.590	-0.237	-0.059
-626.463	89.180	-0.063	0.071
-625.449	-200.000	-0.038	0.355
-624.434	82.622	-0.129	0.141
-623.419	-54.805	-0.291	-0.132
-622.405	-200.000	0.015	0.258
-621.390	-7.475	0.453	-0.308
-620.376	-91.870	0.019	0.006
-619.361	800.000	0.039	0.146
-618.346	437.705	0.025	0.056
-617.332	-93.328	0.157	0.044
-616.317	476.418	-0.088	0.199
-615.303	-118.391	-0.100	0.018
-614.288	-151.318	0.154	-0.012
-613.273	182.774	-0.126	-0.187
-612.259	772.855	-0.029	-0.080
-611.244	406.085	0.091	0.193
-610.230	143.198	-0.207	0.276
-609.215	-200.000	0.003	0.159
-608.201	-200.000	-0.011	-0.116
-607.186	722.231	-0.122	0.326
-606.171	210.734	-0.125	-0.198
-605.157	800.000	0.074	0.264
-604.142	-162.716	0.287	0.014
-603.128	181.673	-0.253	-0.375
-602.113	-146.135	0.215	0.019
-601.098	-98.620	-0.083	0.021
-600.084	-33.433	0.194	-0.108
-599.069	800.000	-0.052	-0.187
-598.055	-33.240	0.344	-0.191
-597.040	-200.000	0.026	-0.116
-596.025	-155.178	0.023	0.002
-595.011	-7.101	-0.183	-0.125
-593.996	-127.850	0.315	-0.046
-592.982	69.811	-0.046	0.048
-591.967	-200.000	0.007	-0.203
-590.952	-200.000	-0.003	-0.021
-589.938	800.000	0.037	0.138
-588.923	503.060	-0.099	0.231
-587.909	800.000	-0.025	0.095
-586.894	-128.280	-0.283	-0.041
-585.879	127.551	-0.096	-0.123
-584.865	681.598	-0.049	0.129
-583.850	-128.418	-0.230	0.033
-582.836	-111.348	-0.159	0.033
-581.821	-200.000	-0.042	-0.435
-580.806	-115.434	0.199	-0.038
-579.792	-200.000	-0.042	-0.219
-578.777	-121.818	0.080	-0.013
-577.763	175.095	0.052	-0.076
-576.748	-200.000	0.007	0.099
-575.733	14.752	-0.041	-0.032
-574.719	293.998	0.070	0.128
-573.704	800.000	0.091	-0.303
-572.690	-200.000	-0.025	-0.189
-571.675	-136.570	0.294	-0.034
-570.661	-12.153	-0.449	0.295
-569.646	-56.557	0.122	0.054
-568.631	380.085	-0.082	-0.168
-567.617	95.492	0.086	0.098
-566.602	24.277	0.142	-0.118
-565.588	800.000	-0.025	-0.091
-564.573	85.464	0.101	0.112
-563.558	-69.955	0.263	-0.101
-562.544	302.551	-0.040	-0.074
-561.529	-40.026	-0.266	0.139
-560.515	-59.209	-0.135	-0.058
-559.500	-72.339	-0.175	0.065
-558.485	475.797	0.092	-0.209
-557.471	-36.366	0.064	0.035
-556.456	-200.000	0.007	-0.196
-555.442	-2.423	0.323	0.227
-554.427	-200.000	-0.011	0.143
-553.412	-154.785	0.367	0.024
-552.398	-129.639	0.279	-0.039
-551.383	76.251	-0.216	-0.229
-550.369	-108.242	0.226	-0.049
-549.354	800.000	0.056	0.181
-548.339	189.434	0.202	0.303
-547.325	-200.000	-0.011	0.344
-546.310	-185.309	-0.214	-0.003
-545.296	27.419	0.150	0.126
-544.281	-11.518	0.120	0.079
-543.266	800.000	0.068	-0.252
-542.252	38.373	0.236	-0.211
-541.237	-123.395	0.197	0.031
-540.223	-168.124	0.115	-0.004
-539.208	-26.052	0.229	-0.135
-538.193	25.646	0.168	-0.140
-537.179	-94.450	-0.145	-0.040
-536.164	-69.933	0.181	0.069
-535.150	159.848	0.133	-0.186
-534.135	94.258	-0.169	-0.192
-533.121	-165.664	-0.351	-0.015
-532.106	-10.041	-0.072	-0.048
-531.091	392.465	0.055	0.115
-530.077	228.190	0.037	0.060
-529.062	800.000	0.125	0.378
-528.048	-200.000	-0.001	-0.080
-527.033	109.924	-0.203	-0.244
-526.018	-90.535	0.237	0.069
-525.004	119.666	-0.166	0.206
-523.989	-200.000	-0.001	0.112
-522.975	-24.429	0.293	-0.175
-521.960	800.000	-0.050	0.140
-520.945	-83.588	0.062	-0.020
-519.931	120.860	0.121	0.150
-518.916	297.372	-0.107	-0.197
-517.902	-101.984	-0.306	-0.074
-516.887	149.458	0.071	-0.097
-515.872	-200.000	0.023	0.100
-514.858	666.760	0.175	-0.452
-513.843	-15.134	0.405	-0.259
-512.829	800.000	-0.096	0.348
-511.814	108.803	-0.252	-0.302
-510.799	111.258	-0.081	0.098
-509.785	800.000	0.058	-0.208
-508.770	-200.000	0.020	-0.238
-507.756	77.879	0.174	0.186
-506.741	423.911	-0.089	-0.192
-505.726	-200.000	-0.008	-0.149
-504.712	-200.000	0.007	-0.103
-503.697	-175.650	-0.232	-0.006
-502.683	211.417	-0.141	-0.222
-501.668	186.497	0.151	0.224
-500.653	-59.670	0.252	0.108
-499.639	-186.379	-0.209	-0.003
-498.624	-103.620	-0.326	0.077
-497.610	64.870	-0.197	0.199
-496.595	-200.000	0.000	-0.291
-495.581	-84.044	-0.167	0.053
-494.566	207.697	-0.079	0.124
-493.551	800.000	0.108	0.303
-492.537	64.245	0.022	-0.022
-491.522	462.554	0.131	-0.293
-490.508	-88.269	0.231	-0.069
-489.493	387.741	-0.124	-0.257
-488.478	-200.000	0.159	0.000
-487.464	-200.000	-0.041	0.179
-486.449	-122.549	0.093	0.015
-485.435	-164.915	0.059	0.003
-484.420	-66.955	0.161	0.063
-483.405	85.844	-0.114	-0.125
-482.391	9.024	-0.181	-0.137
-481.376	-92.636	-0.044	-0.012
-480.362	-30.031	-0.086	0.049
-479.347	-42.296	0.305	0.156
-478.332	109.608	0.081	-0.097
-477.318	-200.000	0.006	-0.187
-476.303	-40.230	0.124	0.065
-475.289	-48.802	-0.351	-0.168
-474.274	12.635	0.017	0.013
-473.259	48.026	0.170	0.159
-472.245	-8.740	0.170	-0.114
-471.230	800.000	0.077	-0.238
-470.216	-92.668	-0.179	0.050
-469.201	-145.132	0.252	-0.023
-468.186	-32.013	-0.050	-0.028
-467.172	-200.000	0.025	-0.373
-466.157	69.627	0.106	-0.109
-465.143	-100.705	0.324	-0.080
-464.128	-126.413	-0.271	-0.040
-463.113	251.321	-0.099	-0.168
-462.099	95.551	-0.031	-0.036
-461.084	219.816	-0.061	0.098
-460.070	14.511	-0.316	0.247
-459.055	-200.000	0.050	-0.447
-458.040	-200.000	0.019	0.154
-457.026	42.806	0.223	0.203
-456.011	161.238	-0.065	-0.091
-454.997	504.223	-0.075	0.173
-453.982	-70.764	0.084	-0.032
-452.968	9.555	0.241	-0.182
-451.953	-16.839	-0.374	-0.236
-450.938	209.439	0.114	-0.179
-449.924	-43.512	-0.096	0.048
-448.909	800.000	0.094	-0.309
-447.895	-200.000	0.090	-0.495
-446.880	-132.012	-0.302	-0.039
-445.865	-103.037	0.489	0.116
-444.851	800.000	-0.063	0.221
-443.836	-30.292	-0.387	0.219
-442.822	527.770	0.101	0.237
-441.807	-138.852	0.198	0.022
-440.792	78.492	-0.162	-0.173
-439.778	83.054	0.139	0.151
-438.763	611.200	-0.010	-0.026
-437.749	430.603	0.209	0.451
-436.734	800.000	-0.103	0.297
-435.719	-64.258	-0.283	-0.115
-434.705	-162.509	-0.140	0.007
-433.690	-99.477	-0.090	-0.022
-432.676	-200.000	-0.010	-0.148
-431.661	-24.918	0.048	-0.028
-430.646	311.787	-0.084	-0.158
-429.632	35.143	0.109	0.095
-428.617	180.347	0.066	0.097
-427.603	-200.000	0.030	0.241
-426.588	-138.230	-0.119	0.013
-425.573	800.000	-0.036	0.102
-424.559	800.000	-0.018	0.073
-423.544	-25.894	0.166	-0.097
-422.530	-57.188	0.033	-0.014
-421.515	-110.499	-0.175	0.036
-420.500	-13.711	-0.154	0.099
-419.486	-70.208	-0.298	-0.113
-418.471	-137.150	0.169	0.019
-417.457	309.573	-0.157	0.293
-416.442	-79.887	-0.115	0.039
-415.428	97.067	0.234	-0.268
-414.413	-24.851	0.214	0.127
-413.398	-87.148	0.128	0.039
-412.384	-155.285	-0.139	0.009
-411.369	-60.722	0.304	0.129
-410.355	-127.812	0.195	-0.028
-409.340	21.514	0.060	-0.048
-408.325	800.000	0.025	0.096
-407.311	692.661	-0.136	0.356
-406.296	15.002	-0.237	-0.185
-405.282	-42.864	-0.121	0.061
-404.267	226.735	0.134	-0.216
-403.252	89.406	0.130	0.145
-402.238	-87.099	-0.213	-0.065
-401.223	761.509	0.005	0.015
-400.209	-200.000	0.042	0.277
-399.194	275.363	-0.167	-0.294
-398.179	253.883	0.131	-0.224
-397.165	-200.000	0.060	-0.272
-396.150	245.729	0.220	0.370
-395.136	-200.000	0.001	-0.098
-394.121	-200.000	-0.012	0.180
-393.106	-20.768	0.038	0.023
-392.092	185.367	-0.066	0.097
-391.077	251.034	-0.157	-0.265
-390.063	-200.000	-0.051	-0.231
-389.048	102.727	0.323	0.376
-388.033	800.000	0.091	0.285
-387.019	-67.314	0.124	-0.049
-386.004	659.241	0.096	0.246
-384.990	-98.937	0.096	0.024
-383.975	-78.617	-0.357	-0.121
-382.960	-138.359	0.290	-0.032
-381.946	189.457	0.158	0.236
-380.931	-200.000	-0.027	-0.330
-379.917	201.653	-0.031	0.048
-378.902	-200.000	-0.024	-0.123
-377.888	4.233	0.071	-0.051
-376.873	-62.680	0.212	0.087
-375.858	196.534	-0.055	0.084
-374.844	57.637	0.074	0.072
-373.829	-200.000	-0.062	0.464
-372.815	800.000	-0.038	-0.124
-371.800	-200.000	0.014	0.250
-370.785	-118.110	-0.213	-0.038
-369.771	38.343	-0.159	-0.141
-368.756	800.000	0.050	-0.185
-367.742	-76.912	0.285	0.099
-366.727	35.425	0.151	0.132
-365.712	-100.235	-0.074	-0.018
-364.698	-0.422	-0.223	-0.158
-363.683	124.668	0.148	0.186
-362.669	-30.432	0.015	-0.008
-361.654	272.609	0.200	-0.352
-360.639	800.000	-0.057	-0.173
-359.625	144.240	-0.094	0.125
-358.610	-1.680	0.228	0.160
-357.596	95.502	0.257	0.292
-356.581	-200.000	-0.177	-0.001
-355.566	188.315	-0.073	0.109
-354.552	-39.094	0.064	0.033
-353.537	-105.291	0.298	-0.067
-352.523	-200.000	-0.035	-0.290
-351.508	-8.877	-0.150	-0.100
-350.493	-164.242	-0.080	-0.004
-349.479	-119.059	0.360	0.063
-348.464	94.069	-0.120	0.136
-347.450	-68.752	0.341	0.131
-346.435	-200.000	0.014	0.174
-345.420	-145.357	-0.237	-0.021
-344.406	40.434	-0.289	0.258
-343.391	-106.355	0.214	-0.047
-342.377	-178.161	0.106	-0.002
-341.362	-125.165	0.175	0.027
-340.348	33.324	-0.262	0.226
-339.333	-98.317	0.067	-0.017
-338.318	-26.369	-0.099	-0.058
-337.304	-200.000	0.025	0.225
-336.289	29.856	-0.139	0.118
-335.275	-200.000	0.020	0.122
-334.260	-95.445	-0.140	-0.037
-333.245	77.176	-0.221	0.233
-332.231	-88.370	-0.212	-0.063
-331.216	-95.592	0.055	-0.015
-330.202	800.000	0.061	-0.192
-329.187	-161.516	0.304	0.016
-328.172	-156.799	-0.219	0.013
-327.158	800.000	0.031	0.093
-326.143	-106.026	0.150	-0.033
-325.129	-200.000	-0.006	0.092
-324.114	-39.409	-0.061	0.032
-323.099	-107.036	0.290	0.064
-322.085	-32.260	0.213	0.118
-321.070	19.305	0.144	-0.115
-320.056	-29.325	0.022	-0.013
-319.041	-135.549	0.495	0.059
-318.026	-130.686	0.071	-0.009
-317.012	159.047	-0.149	-0.205
-315.997	56.555	0.127	-0.123
-314.983	295.279	0.187	-0.341
-313.968	-200.000	0.006	0.108
-312.953	166.238	0.082	-0.115
-311.939	247.409	0.185	0.311
-310.924	-133.865	-0.213	0.026
-309.910	155.336	0.082	-0.112
-308.895	378.394	-0.042	-0.086
-307.880	-200.000	-0.057	0.280
-306.866	153.647	-0.135	0.184
-305.851	51.068	0.122	-0.115
-304.837	-12.708	0.286	-0.185
-303.822	63.607	-0.221	0.220
-302.807	189.811	-0.085	-0.127
-301.793	-30.346	-0.179	0.101
-300.778	-200.000	0.015	-0.348
-299.764	-174.681	0.075	0.002
-298.749	-53.225	-0.170	0.078
-297.735	800.000	-0.034	0.113
-296.720	729.348	-0.092	0.243
-295.705	150.725	-0.170	-0.230
-294.691	42.909	0.093	-0.084
-293.676	102.223	-0.180	-0.209
-292.662	310.109	0.148	-0.274
-291.647	-7.850	-0.238	0.160
-290.632	-105.640	0.158	0.036
-289.618	-200.000	-0.055	0.312
-288.603	201.589	-0.090	-0.137
-287.589	-135.264	0.299	-0.036
-286.574	-200.000	-0.004	-0.158
-285.559	-200.000	-0.071	0.351
-284.545	-123.188	-0.180	0.029
-283.530	-200.000	-0.057	-0.378
-282.516	306.041	0.140	-0.259
-281.501	146.208	0.179	0.238
-280.486	-106.753	0.201	-0.044
-279.472	3.501	0.148	-0.107
-278.457	-78.306	-0.309	0.105
-277.443	154.350	0.089	-0.121
-276.428	800.000	-0.049	0.199
-275.413	-29.238	-0.104	-0.059
-274.399	31.773	-0.155	0.132
-273.384	-78.254	-0.154	0.052
-272.370	-18.308	-0.187	-0.116
-271.355	78.203	0.106	0.112
-270.340	-179.322	-0.241	0.005
-269.326	-200.000	-0.052	-0.270
-268.311	355.513	-0.169	-0.333
-267.297	-96.973	0.209	-0.054
-266.282	800.000	-0.071	0.264
-265.267	800.000	0.077	-0.241
-264.253	-200.000	0.003	-0.161
-263.238	-147.896	-0.426	-0.035
-262.224	-74.963	0.069	-0.025
-261.209	-76.405	0.076	-0.026
-260.195	800.000	0.072	0.242
-259.180	-95.392	-0.411	-0.109
-258.165	800.000	0.039	-0.152
-257.151	-91.266	0.119	-0.034
-256.136	-111.513	-0.128	0.026
-255.122	-200.000	0.001	-0.069
-254.107	-200.000	0.058	0.381
-253.092	800.000	0.078	-0.278
-252.078	-100.239	-0.140	-0.034
-251.063	-85.247	-0.276	-0.085
-250.049	-135.304	-0.117	0.014
-249.034	-104.520	-0.283	0.065
-248.019	-200.000	0.030	-0.175
-247.005	800.000	-0.047	0.157
-245.990	-87.625	0.321	0.096
-244.976	561.806	-0.062	-0.149
-243.961	-200.000	-0.004	-0.026
-242.946	-56.145	-0.110	-0.049
-241.932	5.275	0.055	-0.041
-240.917	-135.304	-0.113	0.013
-239.903	-20.083	0.254	-0.155
-238.888	-3.128	0.182	0.126
-237.873	-135.142	-0.416	-0.050
-236.859	-57.656	-0.337	-0.146
-235.844	-54.926	0.292	0.130
-234.830	800.000	0.030	0.087
-233.815	-200.000	-0.019	0.202
-232.800	-44.849	-0.078	-0.039
-231.786	-53.742	0.220	0.100
-230.771	27.743	-0.209	0.174
-229.757	-200.000	-0.063	0.296
-228.742	-117.201	0.466	0.084
-227.727	-200.000	0.154	-0.000
-226.713	-0.814	-0.346	-0.242
-225.698	119.131	0.048	-0.058
-224.684	177.264	-0.199	0.287
-223.669	-200.000	-0.005	-0.136
-222.655	-200.000	0.000	0.011
-221.640	94.091	0.214	0.241
-220.625	-149.603	0.102	-0.008
-219.611	46.983	0.043	-0.039
-218.596	-100.092	0.111	0.027
-217.582	436.654	-0.079	-0.169
-216.567	-43.183	-0.153	-0.077
-215.552	147.515	0.024	-0.031
-214.538	29.229	0.316	0.266
-213.523	642.649	0.058	0.146
-212.509	-12.604	0.451	-0.291
-211.494	-108.694	-0.353	-0.075
-210.479	16.207	0.322	0.251
-209.465	61.127	0.055	0.054
-208.450	-200.000	-0.024	0.113
-207.436	-62.856	-0.115	0.047
-206.421	756.012	-0.027	-0.073
-205.406	-200.000	0.029	-0.256
-204.392	-127.806	0.292	0.042
-203.377	62.069	-0.138	0.136
-202.363	161.565	0.158	-0.219
-201.348	253.171	-0.178	-0.300
-200.333	101.417	-0.120	0.138
-199.319	76.149	-0.216	-0.226
-198.304	-12.595	-0.036	0.023
-197.290	-25.185	0.192	0.113
-196.275	-100.059	0.150	0.037
-195.260	-200.000	-0.029	0.131
-194.246	620.901	-0.065	0.160
-193.231	-67.602	0.189	0.073
-192.217	328.558	-0.073	-0.138
-191.202	593.003	-0.018	0.044
-190.187	165.202	0.249	-0.347
-189.173	-98.103	-0.176	-0.045
-188.158	28.391	0.139	0.116
-187.144	-21.710	-0.400	-0.241
-186.129	-30.039	0.330	-0.186
-185.114	-159.449	0.144	0.008
-184.100	-0.063	0.169	0.119
-183.085	-161.913	0.051	-0.003
-182.071	119.958	0.180	0.221
-181.056	36.942	-0.080	-0.070
-180.042	-74.858	-0.313	-0.111
-179.027	-200.000	-0.019	-0.375
-178.012	353.148	-0.116	0.227
-176.998	-28.268	0.062	0.035
-175.983	18.674	-0.079	0.063
-174.969	-200.000	-0.000	-0.072
-173.954	800.000	-0.055	-0.201
-172.939	-50.445	-0.275	0.128
-171.925	-154.812	0.170	-0.011
-170.910	-200.000	-0.008	0.234
-169.896	259.849	-0.169	0.289
-168.881	-81.438	0.189	-0.062
-167.866	188.303	0.167	0.247
-166.852	-200.000	-0.028	0.270
-165.837	16.747	-0.114	-0.089
-164.823	-29.000	0.097	-0.055
-163.808	-200.000	-0.019	-0.085
-162.793	-200.000	0.109	-0.689
-161.779	800.000	0.065	-0.240
-160.764	-80.606	-0.103	0.034
-159.750	103.565	-0.100	0.116
-158.735	-107.018	-0.344	0.075
-157.720	105.620	-0.276	0.322
-156.706	800.000	0.059	0.199
-155.691	118.411	0.100	0.121
-154.677	38.242	-0.250	-0.220
-153.662	121.239	-0.058	0.072
-152.647	-19.663	-0.287	0.175
-151.633	-200.000	0.023	0.167
-150.618	-159.399	0.174	0.010
-149.604	484.062	0.166	0.373
-148.589	118.269	0.039	0.048
-147.574	-200.000	0.019	-0.211
-146.560	-134.031	0.223	-0.027
-145.545	-146.549	-0.249	0.021
-144.531	371.816	0.087	-0.174
-143.516	467.250	0.083	0.184
-142.502	-159.428	-0.040	0.002
-141.487	235.315	-0.245	-0.399
-140.472	315.592	0.139	-0.258
-139.458	126.992	0.091	0.114
-138.443	225.865	0.210	-0.335
-137.429	-200.000	0.037	0.291
-136.414	-78.676	-0.157	-0.053
-135.399	12.513	-0.184	-0.140
-134.385	78.571	0.286	0.301
-133.370	101.500	-0.269	0.310
-132.356	-99.008	0.248	0.062
-131.341	-71.642	0.334	-0.123
-130.326	-33.925	-0.153	0.083
-129.312	800.000	-0.042	0.117
-128.297	-90.296	-0.142	0.041
-127.283	506.741	-0.078	0.178
-126.268	-200.000	-0.048	-0.238
-125.253	-167.199	0.190	0.008
-124.239	-66.833	-0.353	-0.137
-123.224	405.106	0.129	0.267
-122.210	104.864	-0.160	-0.187
