DTS Sentinel unit serial number:	SN413079Multiplexer serial number:	ORYXHardware model number:	OX4-SRSoftware version number:	ORYX F/W v4.00 Oryx Data Collector v3.7.2.0data status	okinstallation	princeton_trtdifferential loss correction	single-endedforward channel	channel 4reverse channel	N/Adate	2019/09/12time	00:51:10forward acquisition time	60.00reverse acquisition time	0.00gamma	496.2192k internal	0.2308k external	0.2308temperature offset calibration	1.0094default loss term (dB/km)	0.3790temperature slope calibration	1.0000multiplexer offset coefficient	1.0000multiplexer slope coefficient	1.0000fibre end	0.00T internal ref (°C)	33.25T ext. ref 1 (°C)	2.11T ext. ref 2 (°C)	27.93length (m)	temperature (°C)	Stokes	anti-Stokes-747.200	-6.280	-0.131	0.091
-746.185	31.458	-0.237	0.207
-745.171	182.107	-0.036	0.054
-744.156	-46.742	-0.152	0.076
-743.142	22.060	-0.124	0.103
-742.127	313.475	0.065	0.125
-741.112	42.005	-0.040	0.037
-740.098	-200.000	0.022	-0.224
-739.083	618.788	-0.089	-0.228
-738.069	-200.000	0.053	0.257
-737.054	-200.000	0.003	0.272
-736.039	-11.470	0.097	-0.065
-735.025	455.113	0.140	0.315
-734.010	237.495	0.136	-0.230
-732.996	-200.000	-0.036	-0.173
-731.981	-200.000	0.034	-0.231
-730.966	-123.754	0.351	-0.056
-729.952	-77.236	0.048	0.017
-728.937	-200.000	-0.008	0.063
-727.923	-200.000	0.002	0.105
-726.908	-117.749	-0.150	-0.027
-725.894	800.000	0.103	-0.429
-724.879	167.650	0.134	-0.193
-723.864	-37.305	0.169	0.092
-722.850	50.384	-0.129	0.124
-721.835	-200.000	0.033	0.148
-720.821	800.000	0.036	0.130
-719.806	-200.000	-0.022	0.163
-718.791	-49.469	0.287	0.139
-717.777	-93.764	-0.347	-0.097
-716.762	-38.541	0.123	0.066
-715.748	122.639	-0.058	0.074
-714.733	-200.000	0.011	0.122
-713.718	-200.000	-0.008	0.199
-712.704	392.249	-0.154	-0.325
-711.689	99.636	-0.104	-0.122
-710.675	800.000	0.004	0.011
-709.660	82.745	0.126	0.139
-708.645	-200.000	0.007	0.256
-707.631	-200.000	0.033	0.386
-706.616	67.562	-0.106	0.110
-705.602	800.000	-0.030	0.112
-704.587	-200.000	-0.027	-0.266
-703.572	800.000	0.010	0.036
-702.558	93.116	0.175	0.200
-701.543	301.005	0.216	-0.404
-700.529	82.138	0.028	0.031
-699.514	800.000	0.026	0.084
-698.499	-200.000	-0.006	-0.226
-697.485	-179.214	-0.283	0.006
-696.470	232.208	-0.112	0.186
-695.456	800.000	0.090	0.329
-694.441	-18.595	0.090	-0.057
-693.426	-117.373	0.136	-0.025
-692.412	700.173	-0.093	0.247
-691.397	337.564	-0.093	0.183
-690.383	-53.932	-0.288	0.133
-689.368	-19.165	0.292	-0.184
-688.354	-161.842	0.272	-0.014
-687.339	94.737	0.114	0.131
-686.324	22.960	0.122	0.102
-685.310	579.304	-0.090	0.223
-684.295	-56.238	-0.214	0.096
-683.281	-200.000	-0.005	-0.112
-682.266	-65.613	-0.236	-0.096
-681.251	800.000	0.090	-0.351
-680.237	285.651	0.036	-0.065
-679.222	-44.645	-0.302	0.153
-678.208	800.000	0.067	-0.207
-677.193	-7.075	-0.046	0.031
-676.178	385.479	-0.079	-0.165
-675.164	-53.549	0.209	0.097
-674.149	-154.785	-0.505	0.034
-673.135	17.257	0.138	-0.111
-672.120	259.646	0.116	0.203
-671.105	413.425	0.154	0.333
-670.091	800.000	0.054	0.167
-669.076	-81.957	-0.145	0.048
-668.062	336.594	-0.089	0.175
-667.047	-200.000	-0.006	-0.077
-666.032	-200.000	-0.048	-0.268
-665.018	-200.000	-0.107	0.000
-664.003	120.816	0.031	-0.039
-662.989	171.509	0.187	0.273
-661.974	-42.331	0.010	-0.005
-660.959	-61.691	-0.116	0.049
-659.945	1.426	-0.294	0.214
-658.930	-149.859	0.475	0.038
-657.916	382.273	0.112	-0.232
-656.901	-200.000	-0.029	-0.228
-655.886	-62.607	0.067	0.028
-654.872	79.474	0.234	-0.254
-653.857	252.658	0.100	0.172
-652.843	800.000	0.087	0.249
-651.828	127.297	-0.185	0.237
-650.814	10.108	0.211	0.162
-649.799	-65.958	0.270	0.109
-648.784	256.374	-0.223	-0.388
-647.770	100.539	0.120	0.141
-646.755	-157.151	0.192	-0.012
-645.741	-137.653	-0.201	0.023
-644.726	-36.180	0.127	0.069
-643.711	-18.323	0.146	0.092
-642.697	-61.272	-0.323	0.138
-641.682	-142.080	0.031	-0.003
-640.668	-105.653	0.091	0.021
-639.653	-200.000	-0.009	-0.087
-638.638	-200.000	-0.029	0.168
-637.624	-31.647	0.123	0.070
-636.609	-104.518	0.278	-0.065
-635.595	11.908	-0.300	-0.233
-634.580	33.280	-0.257	-0.226
-633.565	179.259	-0.190	-0.282
-632.551	272.794	0.121	-0.217
-631.536	-31.858	0.119	0.068
-630.522	92.019	0.133	-0.152
-629.507	86.595	0.207	-0.231
-628.492	14.519	0.162	-0.128
-627.478	80.372	-0.165	0.179
-626.463	68.626	0.103	-0.107
-625.449	-94.834	-0.355	0.097
-624.434	-137.746	0.206	-0.023
-623.419	800.000	-0.069	0.250
-622.405	-50.506	-0.149	0.071
-621.390	800.000	0.032	-0.137
-620.376	-122.255	0.214	-0.035
-619.361	390.209	0.006	0.012
-618.346	115.561	-0.195	0.241
-617.332	233.629	-0.076	-0.127
-616.317	-65.833	-0.039	0.016
-615.303	79.984	0.181	0.197
-614.288	-106.087	0.101	0.023
-613.273	298.532	-0.117	-0.218
-612.259	-95.685	-0.345	-0.093
-611.244	89.267	-0.198	0.223
-610.230	-200.000	-0.034	0.166
-609.215	-200.000	0.028	-0.192
-608.201	15.367	-0.197	0.156
-607.186	-200.000	-0.062	0.418
-606.171	53.532	0.273	-0.265
-605.157	-72.621	-0.282	0.105
-604.142	697.984	0.025	0.066
-603.128	21.404	0.223	-0.183
-602.113	117.885	-0.344	-0.428
-601.098	-89.477	0.363	-0.108
-600.084	-84.110	0.293	0.094
-599.069	-118.171	-0.137	-0.025
-598.055	7.502	-0.148	-0.112
-597.040	-29.442	0.181	-0.105
-596.025	-135.036	-0.107	0.013
-595.011	800.000	0.063	-0.224
-593.996	-99.763	0.143	-0.036
-592.982	-79.860	0.249	0.085
-591.967	436.048	-0.138	0.304
-590.952	-92.174	-0.115	-0.033
-589.938	-83.229	0.222	0.072
-588.923	-200.000	-0.035	0.171
-587.909	-133.285	0.479	0.061
-586.894	-81.559	-0.128	-0.042
-585.879	19.148	-0.117	-0.095
-584.865	-10.654	-0.245	-0.163
-583.850	-103.620	-0.373	0.088
-582.836	800.000	-0.067	0.245
-581.821	8.070	-0.229	-0.173
-580.806	167.256	0.251	-0.360
-579.792	41.583	-0.116	0.106
-578.777	-200.000	0.005	0.091
-577.763	108.607	-0.101	-0.122
-576.748	135.025	-0.071	-0.093
-575.733	503.560	0.147	-0.343
-574.719	64.469	0.110	-0.112
-573.704	125.258	0.313	-0.399
-572.690	-200.000	-0.463	-0.000
-571.675	-74.628	0.208	0.075
-570.661	800.000	-0.037	-0.118
-569.646	-200.000	-0.025	-0.216
-568.631	-10.131	-0.346	-0.232
-567.617	-155.229	0.075	0.005
-566.602	343.326	0.063	-0.124
-565.588	-200.000	0.014	-0.074
-564.573	-96.680	-0.097	-0.026
-563.558	-200.000	-0.003	0.208
-562.544	512.326	0.078	0.182
-561.529	-122.761	0.073	-0.012
-560.515	-136.387	-0.349	-0.041
-559.500	-9.385	-0.181	-0.122
-558.485	-135.128	0.294	-0.036
-557.471	440.526	-0.093	-0.205
-556.456	183.361	-0.211	0.315
-555.442	260.688	-0.042	0.074
-554.427	800.000	0.065	0.183
-553.412	-137.612	0.172	-0.020
-552.398	800.000	-0.097	0.370
-551.383	-200.000	0.043	0.239
-550.369	-82.816	0.271	0.088
-549.354	300.648	0.055	-0.102
-548.339	29.276	-0.206	0.176
-547.325	-82.519	-0.331	0.108
-546.310	570.157	-0.058	0.142
-545.296	308.681	0.086	-0.161
-544.281	-200.000	0.039	0.259
-543.266	-79.208	-0.302	-0.103
-542.252	269.735	-0.269	-0.476
-541.237	-108.564	0.133	-0.029
-540.223	615.417	-0.029	0.073
-539.208	3.870	-0.328	-0.242
-538.193	-156.619	0.511	-0.032
-537.179	800.000	0.044	0.151
-536.164	-162.443	-0.159	0.008
-535.150	800.000	-0.086	0.378
-534.135	56.034	0.169	0.166
-533.121	-200.000	-0.022	-0.420
-532.106	89.750	0.173	-0.194
-531.091	800.000	-0.086	0.247
-530.077	155.988	0.071	0.099
-529.062	-200.000	0.016	-0.135
-528.048	112.726	-0.066	-0.081
-527.033	-182.202	-0.048	0.001
-526.018	-200.000	-0.007	0.161
-525.004	287.882	-0.092	0.167
-523.989	121.987	0.269	0.339
-522.975	450.469	0.057	-0.127
-521.960	-200.000	0.050	-0.258
-520.945	-61.378	-0.091	0.038
-519.931	90.099	0.077	-0.087
-518.916	-200.000	-0.057	0.366
-517.902	-200.000	0.080	0.364
-516.887	800.000	0.061	0.183
-515.872	24.126	0.076	0.064
-514.858	-200.000	0.010	-0.076
-513.843	800.000	-0.006	0.027
-512.829	-188.971	0.197	0.002
-511.814	76.815	0.116	-0.124
-510.799	-154.887	0.206	0.014
-509.785	567.441	0.106	-0.260
-508.770	-42.384	0.210	-0.108
-507.756	-200.000	0.006	-0.057
-506.741	-200.000	0.018	0.128
-505.726	668.406	-0.048	0.125
-504.712	-64.057	0.274	0.113
-503.697	119.005	0.172	0.214
-502.683	-167.690	-0.178	-0.007
-501.668	-200.000	0.029	0.150
-500.653	-60.064	0.352	0.151
-499.639	-109.540	0.400	-0.085
-498.624	-79.898	-0.141	-0.048
-497.610	-154.291	-0.478	0.032
-496.595	800.000	0.097	-0.320
-495.581	-200.000	-0.077	-0.394
-494.566	77.960	-0.069	0.074
-493.551	800.000	-0.055	0.228
-492.537	1.845	0.180	-0.131
-491.522	-200.000	-0.034	0.156
-490.508	800.000	-0.065	0.186
-489.493	-91.826	-0.112	-0.032
-488.478	210.500	0.111	-0.176
-487.464	-117.914	0.152	-0.027
-486.449	-48.497	-0.188	0.091
-485.435	800.000	0.040	-0.161
-484.420	-55.427	0.246	-0.111
-483.405	324.738	0.039	0.075
-482.391	341.658	-0.145	-0.285
-481.376	100.270	-0.070	0.082
-480.362	-160.177	0.090	0.005
-479.347	88.390	0.107	0.119
-478.332	67.837	-0.034	-0.035
-477.318	147.567	0.065	-0.088
-476.303	277.294	-0.138	0.247
-475.289	-72.239	0.212	-0.079
-474.274	-15.893	-0.292	-0.187
-473.259	-200.000	0.090	-0.427
-472.245	116.896	-0.186	-0.230
-471.230	773.433	0.047	-0.129
-470.216	-48.275	0.103	-0.050
-469.201	-200.000	0.112	-0.506
-468.186	-1.320	0.319	0.227
-467.172	29.111	0.034	0.029
-466.157	424.282	0.038	-0.082
-465.143	0.916	-0.324	-0.233
-464.128	-34.789	0.093	-0.051
-463.113	-2.347	0.363	-0.256
-462.099	-148.831	-0.423	0.034
-461.084	359.344	0.052	-0.105
-460.070	-200.000	-0.011	-0.215
-459.055	181.928	-0.170	-0.251
-458.040	800.000	0.031	-0.104
-457.026	-200.000	-0.023	-0.214
-456.011	557.145	0.155	-0.375
-454.997	-200.000	-0.026	-0.312
-453.982	800.000	-0.064	0.249
-452.968	-114.160	-0.167	-0.032
-451.953	-156.758	-0.125	0.008
-450.938	-132.628	-0.084	-0.011
-449.924	356.696	-0.098	0.196
-448.909	-30.429	-0.291	-0.166
-447.895	-6.823	0.299	-0.204
-446.880	11.149	-0.058	-0.045
-445.865	800.000	0.139	0.575
-444.851	-80.698	-0.164	0.055
-443.836	190.627	0.143	-0.216
-442.822	-25.087	-0.248	-0.148
-441.807	44.821	0.255	0.236
-440.792	473.605	0.050	0.113
-439.778	-140.400	0.071	0.007
-438.763	800.000	-0.102	-0.358
-437.749	-200.000	-0.003	-0.253
-436.734	-111.063	-0.294	0.061
-435.719	-200.000	-0.010	0.088
-434.705	-200.000	0.007	0.200
-433.690	580.423	-0.052	-0.127
-432.676	-169.534	0.391	0.014
-431.661	-174.883	0.131	-0.004
-430.646	316.581	-0.139	0.264
-429.632	-1.086	-0.226	-0.161
-428.617	-147.061	0.077	-0.007
-427.603	-35.836	0.154	-0.083
-426.588	800.000	-0.080	-0.305
-425.573	-200.000	-0.092	-0.445
-424.559	-126.447	0.300	-0.045
-423.544	151.667	-0.207	-0.283
-422.530	213.197	-0.155	-0.246
-421.515	-28.016	0.079	0.046
-420.500	514.235	0.083	0.194
-419.486	-89.698	-0.407	-0.120
-418.471	302.752	0.181	0.337
-417.457	-200.000	0.009	-0.446
-416.442	-200.000	-0.018	-0.231
-415.428	800.000	-0.050	-0.170
-414.413	46.277	0.144	-0.134
-413.398	-200.000	-0.021	0.154
-412.384	-200.000	0.031	0.367
-411.369	-80.545	-0.160	0.053
-410.355	204.121	-0.126	0.195
-409.340	-200.000	-0.012	-0.134
-408.325	-22.269	-0.218	-0.132
-407.311	220.802	0.108	-0.173
-406.296	-7.971	0.213	-0.144
-405.282	800.000	-0.100	0.282
-404.267	-44.703	0.031	-0.016
-403.252	-200.000	-0.082	-0.418
-402.238	-96.357	-0.173	-0.046
-401.223	204.934	0.244	0.380
-400.209	-200.000	-0.030	0.202
-399.194	687.222	0.085	0.222
-398.179	-200.000	0.018	-0.164
-397.165	131.419	0.204	-0.263
-396.150	-153.174	-0.105	0.007
-395.136	271.522	-0.057	-0.101
-394.121	-34.629	0.110	-0.061
-393.106	271.917	-0.079	0.140
-392.092	-62.127	0.381	-0.160
-391.077	71.412	-0.234	0.243
-390.063	-135.229	-0.225	0.027
-389.048	-47.123	0.076	0.037
-388.033	-154.685	0.326	0.022
-387.019	141.347	0.150	-0.199
-386.004	426.872	-0.090	-0.195
-384.990	-112.165	0.380	0.077
-383.975	79.108	0.006	-0.006
-382.960	121.606	-0.219	0.274
-381.946	23.079	-0.130	-0.107
-380.931	800.000	0.085	0.293
-379.917	-200.000	0.008	0.093
-378.902	-108.740	-0.090	0.019
-377.888	-133.119	-0.171	-0.022
-376.873	27.066	0.241	-0.202
-375.858	7.002	0.317	0.237
-374.844	800.000	-0.077	0.273
-373.829	-200.000	0.016	0.136
-372.815	-200.000	-0.033	-0.490
-371.800	381.019	-0.151	0.311
-370.785	-200.000	0.054	0.336
-369.771	-157.237	-0.140	-0.009
-368.756	203.466	-0.031	-0.048
-367.742	-151.792	-0.200	-0.015
-366.727	-112.490	-0.278	0.056
-365.712	104.628	0.093	0.110
-364.698	-200.000	0.056	0.303
-363.683	-39.670	-0.128	-0.067
-362.669	-104.013	0.203	-0.047
-361.654	412.972	-0.075	-0.160
-360.639	-31.295	-0.153	-0.086
-359.625	-66.259	0.228	-0.091
-358.610	-88.835	0.241	-0.072
-357.596	-191.684	0.065	-0.001
-356.581	-102.467	0.385	-0.092
-355.566	800.000	0.116	0.332
-354.552	-200.000	-0.063	-0.306
-353.537	523.428	0.052	-0.121
-352.523	190.193	0.046	-0.069
-351.508	335.985	0.146	0.284
-350.493	-20.182	0.121	-0.075
-349.479	160.354	-0.025	0.035
-348.464	800.000	-0.056	-0.233
-347.450	-200.000	-0.007	-0.122
-346.435	348.327	-0.130	0.256
-345.420	193.451	0.048	0.072
-344.406	44.028	-0.106	0.097
-343.391	-88.974	-0.063	-0.019
-342.377	-127.747	-0.156	-0.023
-341.362	368.763	0.129	-0.261
-340.348	261.885	0.085	0.148
-339.333	71.555	-0.183	0.190
-338.318	-200.000	0.038	-0.239
-337.304	-45.293	-0.349	0.174
-336.289	-200.000	0.012	-0.136
-335.275	30.770	-0.071	0.061
-334.260	215.291	-0.145	0.230
-333.245	800.000	-0.064	-0.197
-332.231	23.849	0.174	-0.144
-331.216	45.150	0.242	0.223
-330.202	-158.252	0.127	-0.007
-329.187	165.410	-0.030	-0.042
-328.172	-14.779	-0.224	0.144
-327.158	-16.495	-0.300	-0.190
-326.143	800.000	-0.026	0.092
-325.129	-94.975	-0.247	-0.067
-324.114	-48.419	-0.086	-0.042
-323.099	-140.692	0.182	0.019
-322.085	198.094	0.157	-0.240
-321.070	-54.140	-0.238	0.108
-320.056	-113.650	0.359	0.070
-319.041	-55.691	0.281	0.125
-318.026	-3.687	-0.153	-0.106
-317.012	-86.311	0.107	0.033
-315.997	582.940	-0.073	0.179
-314.983	800.000	0.115	-0.389
-313.968	-30.846	-0.295	-0.167
-312.953	-72.966	-0.274	0.101
-311.939	-31.908	0.017	-0.010
-310.924	-83.851	0.058	0.018
-309.910	74.651	0.105	-0.110
-308.895	128.036	-0.167	-0.212
-307.880	296.742	0.090	-0.165
-306.866	-138.827	-0.278	-0.030
-305.851	-200.000	-0.039	-0.204
-304.837	-200.000	0.011	0.275
-303.822	-129.935	0.262	-0.036
-302.807	800.000	-0.111	0.465
-301.793	-42.598	0.117	0.059
-300.778	-102.949	0.290	0.069
-299.764	800.000	0.039	0.160
-298.749	-56.783	0.310	-0.137
-297.735	189.826	0.208	0.311
-296.720	-87.309	0.185	-0.056
-295.705	-7.961	0.059	-0.040
-294.691	81.677	-0.110	-0.119
-293.676	21.848	-0.177	-0.144
-292.662	162.687	0.084	0.118
-291.647	686.728	-0.134	0.349
-290.632	-139.221	-0.155	0.017
-289.618	800.000	0.078	-0.298
-288.603	-200.000	-0.074	0.366
-287.589	-27.418	0.166	0.096
-286.574	-109.194	0.072	-0.015
-285.559	-64.586	0.144	-0.059
-284.545	-42.822	0.116	-0.059
-283.530	-200.000	-0.048	0.341
-282.516	-200.000	-0.020	-0.205
-281.501	411.571	0.154	-0.327
-280.486	-200.000	-0.029	0.237
-279.472	233.987	-0.142	-0.234
-278.457	-42.431	-0.076	-0.039
-277.443	800.000	-0.077	-0.239
-276.428	-158.238	-0.399	0.023
-275.413	79.306	-0.136	0.145
-274.399	8.022	0.154	0.116
-273.384	167.835	-0.261	0.371
-272.370	68.143	-0.082	-0.084
-271.355	-135.223	-0.292	0.035
-270.340	90.744	-0.212	-0.237
-269.326	-49.609	0.254	0.121
-268.311	-200.000	0.192	-0.001
-267.297	114.992	0.096	-0.116
-266.282	-117.505	-0.174	-0.031
-265.267	-103.227	0.171	-0.040
-264.253	-68.511	0.353	0.136
-263.238	124.907	0.124	-0.156
-262.224	-200.000	0.003	-0.067
-261.209	-200.000	-0.027	0.120
-260.195	545.881	0.063	0.150
-259.180	-68.581	-0.100	0.039
-258.165	800.000	0.103	0.331
-257.151	800.000	-0.180	0.506
-256.136	-129.397	0.195	-0.027
-255.122	-100.285	-0.120	-0.030
-254.107	-145.663	0.362	-0.032
-253.092	-85.823	0.014	-0.004
-252.078	-87.995	-0.186	0.056
-251.063	800.000	0.048	-0.206
-250.049	415.896	-0.029	0.062
-249.034	-200.000	-0.012	0.449
-248.019	-85.208	-0.220	0.068
-247.005	193.303	-0.149	-0.224
-245.990	-67.532	0.288	0.112
-244.976	-123.356	0.256	0.041
-243.961	-77.172	0.112	0.039
-242.946	-200.000	0.053	0.307
-241.932	-121.675	0.011	0.002
-240.917	-200.000	-0.039	0.306
-239.903	1.411	0.149	-0.107
-238.888	800.000	-0.084	0.301
-237.873	-200.000	-0.038	0.490
-236.859	-25.495	0.125	-0.073
-235.844	22.033	-0.316	-0.257
-234.830	-146.501	0.268	-0.023
-233.815	-123.021	0.224	-0.036
-232.800	-27.486	-0.223	0.129
-231.786	-27.612	0.122	0.070
-230.771	-25.754	-0.229	0.135
-229.757	326.430	-0.094	0.179
-228.742	-12.561	0.059	0.038
-227.727	3.801	0.131	0.095
-226.713	-200.000	0.006	-0.029
-225.698	-50.490	0.153	0.072
-224.684	-141.790	-0.148	-0.015
-223.669	56.181	-0.175	0.169
-222.655	274.170	0.072	0.128
-221.640	45.752	-0.120	-0.110
-220.625	29.502	0.087	-0.074
-219.611	81.275	0.163	0.175
-218.596	15.646	-0.117	0.091
-217.582	-152.597	0.245	0.017
-216.567	800.000	-0.103	0.406
-215.552	-58.909	-0.318	-0.137
-214.538	36.155	0.104	0.091
-213.523	-200.000	0.050	-0.346
-212.509	-138.048	0.177	0.020
-211.494	-200.000	0.024	-0.128
-210.479	-49.357	-0.311	0.148
-209.465	24.828	0.372	-0.306
-208.450	742.937	-0.143	0.383
-207.436	800.000	0.084	0.353
-206.421	606.450	-0.138	0.342
-205.406	-42.780	0.041	-0.021
-204.392	120.252	0.273	0.337
-203.377	-58.957	-0.206	0.089
-202.363	670.131	0.074	-0.191
-201.348	-90.571	-0.216	0.062
-200.333	83.737	-0.123	0.133
-199.319	-200.000	0.014	-0.187
-198.304	-52.918	0.349	-0.160
-197.290	-200.000	-0.015	-0.114
-196.275	61.338	-0.111	-0.110
-195.260	-39.480	0.079	0.041
-194.246	-79.204	-0.294	-0.099
-193.231	-124.715	0.176	-0.027
-192.217	800.000	0.170	0.510
-191.202	166.644	0.075	-0.105
-190.187	-200.000	-0.361	0.001
-189.173	-22.298	-0.155	-0.093
-188.158	66.149	0.007	0.007
-187.144	-136.656	0.278	0.032
-186.129	800.000	0.016	-0.055
-185.114	195.396	-0.155	0.234
-184.100	-134.615	-0.241	0.029
-183.085	-200.000	0.064	-0.420
-182.071	464.640	0.151	0.336
-181.056	168.230	-0.037	-0.053
-180.042	11.292	-0.132	-0.100
-179.027	-200.000	-0.019	0.171
-178.012	253.442	0.121	-0.205
-176.998	38.308	-0.081	0.072
-175.983	-43.417	-0.306	-0.154
-174.969	-200.000	-0.058	0.386
-173.954	-200.000	-0.016	-0.097
-172.939	38.107	-0.135	-0.119
-171.925	-200.000	-0.014	-0.118
-170.910	-58.269	0.055	-0.024
-169.896	-71.223	0.318	0.118
-168.881	126.248	-0.277	0.348
-167.866	44.993	0.225	0.205
-166.852	-92.729	-0.211	0.059
-165.837	-200.000	-0.062	0.273
-164.823	-23.432	-0.134	0.080
-163.808	-39.004	-0.340	0.178
-162.793	-200.000	-0.007	-0.112
-161.779	2.919	-0.310	-0.224
-160.764	-50.541	0.038	0.018
-159.750	-200.000	0.050	-0.228
-158.735	676.188	0.042	-0.108
-157.720	-126.055	0.378	0.056
-156.706	268.559	0.055	0.095
-155.691	144.954	-0.092	-0.122
-154.677	-200.000	-0.036	-0.255
-153.662	-49.727	-0.290	0.137
-152.647	22.943	0.153	-0.125
-151.633	218.855	-0.074	-0.117
-150.618	-200.000	0.005	-0.267
-149.604	-200.000	0.046	-0.421
-148.589	-200.000	0.007	0.069
-147.574	1.816	-0.205	-0.147
-146.560	267.047	0.101	-0.175
-145.545	260.090	0.182	-0.312
-144.531	-200.000	0.012	0.054
-143.516	117.777	0.123	0.150
-142.502	-24.241	-0.210	-0.125
-141.487	282.315	0.022	-0.039
-140.472	185.671	0.102	-0.150
-139.458	-23.694	-0.051	-0.030
-138.443	-200.000	-0.027	-0.128
-137.429	284.898	0.080	-0.144
-136.414	3.498	-0.032	0.023
-135.399	67.288	0.039	-0.039
-134.385	563.869	-0.025	0.060
-133.370	-200.000	-0.058	0.290
-132.356	800.000	0.035	0.116
-131.341	-73.209	-0.299	-0.109
-130.326	-121.344	0.224	-0.037
-129.312	-31.397	-0.153	0.085
-128.297	-121.700	-0.101	-0.017
-127.283	-200.000	0.041	0.186
-126.268	338.562	-0.062	-0.120
-125.253	800.000	-0.040	0.156
-124.239	-104.448	0.117	-0.027
-123.224	-12.830	0.352	-0.227
-122.210	-46.001	-0.049	0.024
-121.195	-163.166	0.084	0.004
