DTS Sentinel unit serial number:	SN413079Multiplexer serial number:	ORYXHardware model number:	OX4-SRSoftware version number:	ORYX F/W v4.00 Oryx Data Collector v3.7.2.0data status	okinstallation	princeton_trtdifferential loss correction	single-endedforward channel	channel 4reverse channel	N/Adate	2019/09/17time	22:05:34forward acquisition time	60.00reverse acquisition time	0.00gamma	496.2192k internal	0.2329k external	0.2329temperature offset calibration	0.9992default loss term (dB/km)	0.3790temperature slope calibration	1.0000multiplexer offset coefficient	1.0000multiplexer slope coefficient	1.0000fibre end	0.00T internal ref (°C)	25.94T ext. ref 1 (°C)	0.18T ext. ref 2 (°C)	18.80length (m)	temperature (°C)	Stokes	anti-Stokes-747.200	-114.614	-0.334	-0.064
-746.185	800.000	0.024	0.073
-745.171	-173.704	0.365	0.011
-744.156	-200.000	0.020	0.325
-743.142	13.531	-0.068	0.053
-742.127	117.506	0.072	-0.090
-741.112	229.010	0.105	-0.172
-740.098	131.668	0.165	0.214
-739.083	-200.000	0.095	0.432
-738.069	-41.786	-0.059	-0.030
-737.054	-41.421	0.102	0.053
-736.039	-200.000	0.005	0.064
-735.025	-83.846	0.393	0.126
-734.010	800.000	-0.085	-0.260
-732.996	800.000	0.032	-0.105
-731.981	-113.782	-0.107	0.021
-730.966	800.000	-0.071	0.218
-729.952	-17.857	-0.311	0.196
-728.937	-65.986	-0.397	-0.160
-727.923	25.464	0.135	0.113
-726.908	126.503	0.147	-0.188
-725.894	-200.000	0.004	-0.350
-724.879	-151.788	-0.265	-0.020
-723.864	-200.000	0.013	0.065
-722.850	10.672	-0.042	-0.032
-721.835	138.466	-0.040	-0.053
-720.821	-200.000	-0.022	-0.146
-719.806	-102.448	-0.199	0.048
-718.791	-200.000	0.003	-0.092
-717.777	800.000	-0.122	0.401
-716.762	509.463	-0.102	-0.239
-715.748	615.665	-0.153	0.386
-714.733	-200.000	-0.024	-0.265
-713.718	173.965	-0.101	-0.146
-712.704	800.000	0.046	0.174
-711.689	98.681	0.156	0.181
-710.675	63.332	-0.232	-0.234
-709.660	155.117	0.307	0.425
-708.645	-200.000	-0.031	-0.223
-707.631	-200.000	-0.035	-0.223
-706.616	-99.998	-0.133	0.033
-705.602	-94.593	-0.040	0.011
-704.587	187.588	-0.113	0.170
-703.572	185.442	0.086	-0.128
-702.558	157.056	0.068	0.095
-701.543	-92.666	-0.014	0.004
-700.529	417.618	0.118	0.253
-699.514	-101.141	-0.147	-0.036
-698.499	-147.111	0.203	0.017
-697.485	-76.056	-0.234	-0.083
-696.470	-200.000	-0.013	0.137
-695.456	-67.199	-0.114	-0.045
-694.441	800.000	0.010	0.036
-693.426	-128.143	-0.144	0.021
-692.412	35.627	-0.079	0.070
-691.397	167.736	0.060	-0.086
-690.383	278.451	-0.079	-0.141
-689.368	800.000	0.035	-0.149
-688.354	167.688	0.073	-0.105
-687.339	143.533	-0.161	0.215
-686.324	-200.000	-0.019	-0.240
-685.310	23.515	-0.117	-0.096
-684.295	56.772	-0.073	0.071
-683.281	800.000	0.033	0.098
-682.266	-151.160	-0.322	0.024
-681.251	129.840	-0.061	-0.078
-680.237	-95.739	0.065	0.017
-679.222	800.000	0.040	0.114
-678.208	185.907	-0.052	0.077
-677.193	33.800	0.127	0.111
-676.178	800.000	0.054	0.227
-675.164	-200.000	-0.469	-0.002
-674.149	394.537	-0.083	0.173
-673.135	-200.000	0.055	0.290
-672.120	-200.000	-0.022	0.111
-671.105	275.282	0.052	0.093
-670.091	-105.907	-0.401	0.091
-669.076	-77.352	0.091	0.032
-668.062	-67.947	-0.110	-0.043
-667.047	127.537	-0.274	-0.349
-666.032	83.016	0.099	-0.108
-665.018	-112.821	0.382	0.076
-664.003	-51.737	0.333	-0.156
-662.989	48.003	-0.299	-0.281
-661.974	800.000	0.026	-0.098
-660.959	109.853	-0.243	0.293
-659.945	-41.746	0.250	-0.129
-658.930	-200.000	-0.011	-0.386
-657.916	-142.036	0.206	-0.021
-656.901	-52.118	-0.123	-0.057
-655.886	-137.648	-0.215	-0.024
-654.872	-200.000	-0.045	0.220
-653.857	566.897	0.095	-0.231
-652.843	152.164	-0.153	-0.210
-651.828	-80.408	0.296	0.099
-650.814	-32.992	-0.205	0.114
-649.799	-129.722	-0.382	-0.053
-648.784	258.625	0.075	0.129
-647.770	800.000	-0.076	0.216
-646.755	800.000	-0.017	-0.054
-645.741	-54.055	0.540	-0.247
-644.726	-94.619	0.230	0.063
-643.711	-110.700	-0.537	0.111
-642.697	38.297	-0.117	0.104
-641.682	-200.000	0.045	-0.240
-640.668	709.586	-0.106	-0.280
-639.653	-97.678	-0.398	-0.103
-638.638	-85.723	-0.090	0.028
-637.624	771.522	-0.129	-0.351
-636.609	-44.084	0.476	0.240
-635.595	-31.111	-0.127	-0.072
-634.580	-200.000	0.021	0.221
-633.565	122.782	0.167	0.210
-632.551	344.563	-0.119	0.234
-631.536	24.040	-0.254	0.210
-630.522	-200.000	0.020	-0.124
-629.507	486.032	-0.154	0.352
-628.492	-54.624	0.301	-0.137
-627.478	800.000	-0.054	0.159
-626.463	800.000	0.003	0.011
-625.449	-200.000	0.033	-0.344
-624.434	-103.354	-0.207	-0.049
-623.419	-129.945	0.292	0.040
-622.405	453.147	-0.142	-0.314
-621.390	22.463	0.133	0.109
-620.376	-48.238	-0.327	0.158
-619.361	-102.544	-0.279	-0.067
-618.346	101.888	-0.185	-0.216
-617.332	30.913	-0.279	-0.239
-616.317	249.319	-0.207	-0.352
-615.303	-123.306	0.210	0.034
-614.288	278.893	0.149	-0.266
-613.273	800.000	0.013	0.046
-612.259	-150.168	0.300	0.023
-611.244	-107.852	-0.372	-0.081
-610.230	-85.984	-0.174	0.054
-609.215	-121.261	0.112	0.019
-608.201	-62.798	0.386	-0.160
-607.186	-199.288	-0.141	-0.001
-606.171	193.892	0.246	0.373
-605.157	-40.633	-0.154	-0.080
-604.142	-38.292	0.239	0.127
-603.128	20.481	0.145	0.117
-602.113	800.000	-0.039	-0.110
-601.098	-200.000	-0.012	-0.082
-600.084	800.000	-0.058	-0.206
-599.069	-131.094	0.204	0.027
-598.055	468.178	-0.044	-0.099
-597.040	114.262	-0.258	-0.314
-596.025	-140.848	0.112	-0.012
-595.011	-136.168	-0.167	-0.020
-593.996	-49.702	-0.082	0.039
-592.982	-14.197	-0.232	-0.150
-591.967	-47.018	0.024	-0.012
-590.952	-53.180	-0.133	0.061
-589.938	-83.055	-0.159	0.051
-588.923	-123.615	0.314	-0.050
-587.909	800.000	-0.080	0.267
-586.894	151.441	-0.197	0.268
-585.879	-200.000	-0.010	0.081
-584.865	50.072	-0.138	-0.130
-583.850	-200.000	-0.039	-0.329
-582.836	277.093	-0.102	-0.181
-581.821	-39.117	0.173	-0.091
-580.806	-3.508	0.248	0.173
-579.792	76.529	0.302	0.321
-578.777	-5.872	0.292	-0.200
-577.763	52.810	0.102	0.097
-576.748	-200.000	0.018	0.163
-575.733	141.272	0.133	0.176
-574.719	800.000	0.116	0.439
-573.704	547.225	-0.109	0.261
-572.690	-104.935	-0.319	0.073
-571.675	32.078	-0.331	0.285
-570.661	33.340	0.101	0.088
-569.646	124.551	-0.183	0.230
-568.631	643.932	-0.084	0.215
-567.617	800.000	-0.031	-0.107
-566.602	-200.000	0.006	0.089
-565.588	-200.000	0.033	-0.362
-564.573	-30.417	0.041	-0.023
-563.558	667.594	0.017	0.044
-562.544	-200.000	-0.003	-0.026
-561.529	-200.000	0.008	-0.138
-560.515	412.794	0.125	0.265
-559.500	464.682	-0.079	0.177
-558.485	21.522	0.166	-0.135
-557.471	-101.702	-0.151	0.037
-556.456	-152.329	0.255	-0.018
-555.442	-68.251	0.098	-0.038
-554.427	-45.467	0.304	-0.151
-553.412	-149.746	-0.282	0.022
-552.398	-25.585	0.323	-0.191
-551.383	772.876	-0.079	0.216
-550.369	-147.274	-0.488	-0.042
-549.354	66.293	-0.025	-0.026
-548.339	-200.000	0.048	-0.283
-547.325	-116.109	0.260	0.048
-546.310	-89.920	0.290	-0.085
-545.296	-200.000	-0.045	-0.258
-544.281	-200.000	-0.035	0.460
-543.266	-149.232	-0.146	-0.012
-542.252	-41.026	0.101	0.052
-541.237	149.635	-0.096	0.129
-540.223	-187.228	-0.164	-0.002
-539.208	181.292	-0.100	0.146
-538.193	797.898	0.049	-0.136
-537.179	102.398	-0.322	0.377
-536.164	-114.643	-0.116	-0.022
-535.150	-62.200	0.245	0.102
-534.135	143.399	0.094	0.125
-533.121	91.614	0.123	0.138
-532.106	800.000	0.063	0.247
-531.091	-94.640	0.259	-0.070
-530.077	519.893	-0.070	-0.164
-529.062	-7.314	-0.282	-0.191
-528.048	-33.661	0.209	0.115
-527.033	-98.580	0.040	0.010
-526.018	360.210	-0.138	-0.275
-525.004	800.000	0.045	-0.182
-523.989	-46.494	-0.085	-0.042
-522.975	45.814	-0.080	-0.074
-521.960	291.497	0.037	0.066
-520.945	-32.992	-0.026	-0.015
-519.931	-17.357	-0.308	0.193
-518.916	-65.190	-0.174	-0.070
-517.902	2.172	0.148	0.107
-516.887	505.721	-0.042	0.098
-515.872	-200.000	0.029	-0.153
-514.858	-27.106	-0.155	-0.091
-513.843	-200.000	0.001	0.047
-512.829	-60.550	0.221	0.094
-511.814	106.901	-0.156	0.185
-510.799	-89.622	-0.055	0.016
-509.785	168.712	0.092	-0.131
-508.770	-77.088	-0.366	0.128
-507.756	-39.357	0.288	-0.151
-506.741	800.000	0.016	0.069
-505.726	443.317	-0.013	0.028
-504.712	61.317	-0.150	-0.149
-503.697	-200.000	0.021	-0.180
-502.683	281.150	-0.081	-0.144
-501.668	55.813	-0.320	0.309
-500.653	800.000	-0.020	0.066
-499.639	-172.166	-0.093	-0.003
-498.624	73.596	-0.015	-0.016
-497.610	312.853	0.149	0.279
-496.595	-153.912	0.036	0.002
-495.581	-59.314	-0.319	-0.137
-494.566	12.906	0.279	-0.215
-493.551	305.299	0.042	0.077
-492.537	-120.835	-0.150	-0.025
-491.522	731.815	-0.107	0.286
-490.508	-200.000	0.081	-0.417
-489.493	800.000	-0.028	0.092
-488.478	35.000	-0.245	0.214
-487.464	-99.800	0.124	-0.031
-486.449	-200.000	0.021	-0.167
-485.435	800.000	0.046	-0.142
-484.420	-200.000	0.063	-0.285
-483.405	80.024	-0.116	0.125
-482.391	112.587	0.166	-0.200
-481.376	-95.131	-0.292	-0.079
-480.362	-88.568	-0.142	-0.042
-479.347	63.584	0.088	0.088
-478.332	234.431	0.103	-0.170
-477.318	-200.000	0.002	0.143
-476.303	31.592	-0.277	0.237
-475.289	800.000	-0.074	-0.269
-474.274	229.386	-0.106	-0.172
-473.259	-18.138	0.318	0.198
-472.245	800.000	-0.004	-0.016
-471.230	-49.391	-0.249	0.118
-470.216	-51.478	0.241	0.112
-469.201	69.773	0.084	0.086
-468.186	-2.728	-0.065	-0.045
-467.172	259.927	0.074	-0.127
-466.157	800.000	-0.019	-0.072
-465.143	-9.990	-0.195	-0.129
-464.128	76.127	0.137	0.145
-463.113	-139.011	-0.063	0.007
-462.099	-116.535	-0.400	-0.073
-461.084	800.000	0.023	-0.064
-460.070	-43.215	0.149	0.075
-459.055	226.896	0.068	-0.109
-458.040	-9.396	-0.061	0.041
-457.026	-75.363	-0.087	0.031
-456.011	800.000	-0.040	-0.159
-454.997	800.000	-0.050	0.218
-453.982	-94.875	0.289	0.078
-452.968	-191.315	0.175	0.002
-451.953	-120.021	-0.222	0.038
-450.938	-200.000	-0.002	-0.228
-449.924	70.162	0.088	-0.090
-448.909	-38.510	-0.383	0.202
-447.895	-144.124	0.244	0.023
-446.880	-200.000	-0.011	-0.062
-445.865	138.925	0.141	-0.184
-444.851	145.871	0.166	0.221
-443.836	-14.950	-0.255	-0.163
-442.822	139.725	-0.248	-0.326
-441.807	217.784	0.057	0.090
-440.792	66.460	0.334	0.338
-439.778	75.553	-0.170	0.178
-438.763	-200.000	0.019	0.277
-437.749	170.763	0.092	-0.131
-436.734	-200.000	-0.000	-0.078
-435.719	800.000	0.119	0.398
-434.705	-200.000	-0.057	0.273
-433.690	-37.818	0.229	0.121
-432.676	-200.000	0.057	-0.338
-431.661	221.695	0.062	0.100
-430.646	167.104	0.109	-0.154
-429.632	341.248	-0.049	-0.095
-428.617	-18.187	0.155	-0.096
-427.603	-110.603	0.079	0.016
-426.588	-77.969	0.157	-0.054
-425.573	-118.827	-0.105	0.018
-424.559	800.000	0.057	-0.207
-423.544	-108.750	0.249	0.053
-422.530	26.030	-0.235	-0.195
-421.515	-200.000	0.010	0.331
-420.500	113.422	0.128	0.155
-419.486	800.000	-0.129	0.363
-418.471	8.109	0.242	0.181
-417.457	-200.000	0.013	-0.116
-416.442	800.000	0.061	0.214
-415.428	800.000	-0.017	-0.060
-414.413	384.618	0.078	0.160
-413.398	-53.179	-0.245	-0.112
-412.384	93.135	-0.236	-0.265
-411.369	-113.949	0.351	0.068
-410.355	-133.421	0.093	-0.012
-409.340	800.000	0.056	0.183
-408.325	23.489	-0.156	-0.128
-407.311	-84.162	0.140	-0.044
-406.296	-124.223	0.341	0.053
-405.282	-200.000	0.028	-0.162
-404.267	82.094	0.120	0.129
-403.252	209.868	-0.130	0.203
-402.238	-39.309	-0.385	0.201
-401.223	-24.340	-0.088	-0.052
-400.209	263.372	0.064	-0.110
-399.194	97.262	-0.249	0.284
-398.179	4.079	0.326	0.237
-397.165	588.408	-0.039	0.095
-396.150	124.428	0.139	0.174
-395.136	-163.138	-0.052	-0.002
-394.121	49.702	0.134	0.125
-393.106	-118.510	0.131	-0.023
-392.092	-47.255	0.215	0.104
-391.077	-2.833	0.259	0.180
-390.063	433.576	0.064	0.138
-389.048	-200.000	-0.007	-0.137
-388.033	-46.156	-0.192	-0.094
-387.019	456.199	0.085	0.188
-386.004	358.589	-0.036	-0.072
-384.990	29.908	-0.145	-0.123
-383.975	-77.263	-0.175	0.061
-382.960	33.591	-0.083	-0.071
-381.946	788.896	0.122	0.333
-380.931	800.000	0.078	0.254
-379.917	90.270	0.252	-0.280
-378.902	-126.865	0.416	-0.061
-377.888	179.090	-0.168	0.244
-376.873	186.014	-0.106	-0.156
-375.858	800.000	0.050	-0.192
-374.844	800.000	0.081	0.343
-373.829	162.055	0.098	0.137
-372.815	240.552	-0.247	0.408
-371.800	-82.716	-0.349	0.112
-370.785	76.088	-0.110	0.115
-369.771	178.126	-0.107	-0.154
-368.756	-111.845	-0.080	0.016
-367.742	-84.181	0.406	0.128
-366.727	-131.047	-0.238	0.031
-365.712	57.971	-0.113	0.109
-364.698	-116.337	0.064	0.012
-363.683	-32.739	0.180	-0.100
-362.669	-42.508	-0.150	0.076
-361.654	-26.737	0.228	0.132
-360.639	-200.000	-0.034	0.365
-359.625	-200.000	-0.044	0.386
-358.610	-73.382	0.277	-0.100
-357.596	34.562	0.344	0.298
-356.581	9.689	0.204	0.153
-355.566	443.215	-0.078	0.170
-354.552	-109.898	0.216	-0.045
-353.537	-83.229	-0.191	-0.061
-352.523	-32.322	-0.430	-0.238
-351.508	29.420	-0.246	-0.207
-350.493	-173.244	-0.057	-0.002
-349.479	55.641	0.032	-0.031
-348.464	418.917	-0.056	-0.118
-347.450	-109.098	-0.296	0.062
-346.435	64.782	0.076	0.076
-345.420	211.178	-0.114	-0.177
-344.406	80.511	0.181	0.194
-343.391	-200.000	0.053	-0.326
-342.377	188.815	-0.176	-0.261
-341.362	-200.000	0.033	0.154
-340.348	-59.447	-0.208	-0.089
-339.333	-200.000	0.104	-0.538
-338.318	800.000	-0.078	-0.326
-337.304	-159.253	0.205	-0.011
-336.289	53.745	0.235	-0.224
-335.275	-17.211	-0.204	-0.128
-334.260	-16.169	-0.345	0.217
-333.245	156.848	0.159	0.217
-332.231	-200.000	-0.007	0.174
-331.216	340.215	0.014	0.027
-330.202	19.709	0.196	-0.156
-329.187	167.925	-0.027	-0.039
-328.172	-200.000	-0.006	-0.235
-327.158	-49.853	0.079	-0.037
-326.143	800.000	-0.091	0.267
-325.129	123.609	0.144	0.179
-324.114	-11.501	0.332	-0.216
-323.099	-200.000	-0.052	-0.283
-322.085	165.660	0.144	0.202
-321.070	-122.493	-0.255	-0.041
-320.056	-107.733	-0.106	0.023
-319.041	-200.000	0.037	0.316
-318.026	-200.000	0.008	0.131
-317.012	110.862	0.149	0.178
-315.997	159.828	0.130	0.180
-314.983	-200.000	-0.015	-0.101
-313.968	121.773	0.099	-0.123
-312.953	7.186	0.090	-0.067
-311.939	-122.638	0.037	-0.006
-310.924	446.065	0.157	-0.342
-309.910	-200.000	-0.011	-0.271
-308.895	-171.748	0.164	-0.005
-307.880	-200.000	0.057	-0.279
-306.866	-200.000	-0.037	0.214
-305.851	95.165	0.252	0.284
-304.837	-157.736	-0.521	-0.031
-303.822	-200.000	-0.007	-0.224
-302.807	-16.328	-0.147	-0.092
-301.793	477.334	0.106	0.236
-300.778	27.383	-0.161	-0.134
-299.764	800.000	0.066	-0.243
-298.749	-101.321	0.182	-0.044
-297.735	424.470	0.072	-0.153
-296.720	800.000	-0.052	-0.159
-295.705	-165.550	0.212	-0.009
-294.691	-96.741	0.049	-0.013
-293.676	-165.479	-0.269	0.012
-292.662	21.855	-0.102	-0.082
-291.647	75.682	0.112	0.117
-290.632	721.050	-0.022	-0.059
-289.618	143.787	0.034	0.044
-288.603	-44.471	0.069	0.034
-287.589	-104.233	0.456	0.105
-286.574	800.000	0.056	-0.176
-285.559	102.388	0.016	0.019
-284.545	402.647	-0.169	-0.351
-283.530	-200.000	-0.015	-0.137
-282.516	-200.000	-0.012	0.065
-281.501	35.957	0.187	0.163
-280.486	-200.000	-0.017	0.342
-279.472	-200.000	-0.073	-0.428
-278.457	-35.354	0.172	-0.092
-277.443	244.255	-0.207	-0.344
-276.428	-53.463	-0.066	-0.030
-275.413	33.716	-0.061	-0.052
-274.399	118.070	-0.208	-0.254
-273.384	-200.000	0.023	-0.171
-272.370	-115.334	-0.092	-0.017
-271.355	799.660	-0.047	0.129
-270.340	-93.135	0.188	-0.052
-269.326	509.194	-0.173	0.396
-268.311	-168.690	-0.087	-0.003
-267.297	99.483	0.039	-0.044
-266.282	269.498	-0.070	0.121
-265.267	800.000	-0.080	0.225
-264.253	-200.000	0.018	0.134
-263.238	198.854	-0.122	0.185
-262.224	3.823	0.297	0.215
-261.209	-8.683	0.308	0.204
-260.195	220.095	0.097	0.153
-259.180	-59.770	0.185	0.078
-258.165	800.000	-0.025	-0.070
-257.151	-46.450	-0.326	0.158
-256.136	-35.291	0.271	-0.146
-255.122	-56.679	0.318	0.139
-254.107	800.000	-0.102	-0.304
-253.092	-200.000	-0.080	-0.346
-252.078	550.808	0.016	-0.039
-251.063	-174.589	0.149	0.004
-250.049	-68.639	0.377	-0.144
-249.034	597.292	-0.217	-0.532
-248.019	800.000	0.066	-0.200
-247.005	193.638	-0.071	-0.107
-245.990	800.000	-0.008	-0.034
-244.976	-16.993	0.105	0.065
-243.961	175.887	-0.075	0.108
-242.946	-86.505	-0.290	0.088
-241.932	-2.613	0.070	-0.049
-240.917	10.891	-0.118	-0.089
-239.903	-66.033	-0.502	0.198
-238.888	-50.983	-0.121	0.056
-237.873	-60.082	-0.122	-0.051
-236.859	-200.000	0.002	-0.253
-235.844	-167.593	0.577	0.023
-234.830	-200.000	0.035	-0.316
-233.815	800.000	0.062	-0.173
-232.800	800.000	-0.038	-0.163
-231.786	55.305	0.071	-0.067
-230.771	-49.168	-0.044	-0.021
-229.757	-200.000	-0.084	-0.425
-228.742	581.277	0.074	0.180
-227.727	-21.764	-0.320	-0.192
-226.713	800.000	-0.038	0.147
-225.698	-200.000	0.031	-0.222
-224.684	123.120	-0.107	0.133
-223.669	-107.981	0.299	0.064
-222.655	281.717	-0.290	-0.513
-221.640	-156.931	0.130	0.008
-220.625	-40.675	-0.188	-0.096
-219.611	111.179	0.127	0.151
-218.596	-139.755	0.107	-0.011
-217.582	800.000	0.044	-0.170
-216.567	-71.677	-0.301	0.111
-215.552	-200.000	-0.021	-0.147
-214.538	800.000	0.042	-0.133
-213.523	-17.864	-0.196	-0.121
-212.509	-61.965	0.061	-0.025
-211.494	271.616	0.139	-0.241
-210.479	-125.583	0.248	-0.037
-209.465	-200.000	0.041	0.294
-208.450	-200.000	0.017	-0.169
-207.436	265.408	-0.113	0.194
-206.421	-17.445	0.148	-0.092
-205.406	800.000	0.092	0.372
-204.392	4.554	-0.151	0.109
-203.377	800.000	0.051	0.141
-202.363	-30.502	0.209	0.117
-201.348	54.466	-0.096	-0.091
-200.333	-76.348	0.301	0.104
-199.319	174.891	-0.215	-0.306
-198.304	215.034	-0.239	-0.373
-197.290	-83.237	-0.163	0.052
-196.275	-52.999	-0.076	-0.034
-195.260	-200.000	0.036	0.218
-194.246	-37.939	0.176	0.092
-193.231	-124.903	-0.221	0.034
-192.217	-200.000	-0.062	-0.390
-191.202	-200.000	-0.004	-0.082
-190.187	-133.311	-0.055	0.007
-189.173	-77.362	0.241	-0.082
-188.158	-55.905	0.119	0.052
-187.144	-200.000	0.021	0.303
-186.129	-123.618	0.139	-0.022
-185.114	-68.700	0.204	0.078
-184.100	800.000	0.049	-0.207
-183.085	63.954	-0.135	-0.134
-182.071	-60.505	-0.037	-0.016
-181.056	119.139	-0.213	-0.259
-180.042	-70.118	-0.230	-0.086
-179.027	-72.539	-0.100	-0.036
-178.012	270.899	0.165	-0.286
-176.998	291.001	0.142	0.255
-175.983	124.818	-0.191	0.237
-174.969	-127.963	0.239	-0.034
-173.954	800.000	-0.060	0.239
-172.939	-155.787	-0.146	0.009
-171.925	-181.806	0.333	0.006
-170.910	-73.933	0.439	-0.157
-169.896	-200.000	-0.073	0.365
-168.881	-200.000	0.023	-0.146
-167.866	-130.498	0.105	-0.014
-166.852	56.718	-0.206	0.198
-165.837	-200.000	0.000	0.002
-164.823	-70.081	0.272	-0.102
-163.808	-200.000	-0.046	-0.239
-162.793	-144.590	-0.404	0.037
-161.779	7.562	-0.112	0.082
-160.764	-15.291	-0.143	-0.090
-159.750	-94.665	-0.121	0.032
-158.735	-18.580	0.291	0.179
-157.720	-15.314	-0.157	-0.099
-156.706	61.748	-0.094	0.092
-155.691	72.427	-0.167	0.171
-154.677	-71.855	0.089	-0.032
-153.662	110.998	-0.088	0.105
-152.647	-52.475	-0.225	-0.103
-151.633	-31.987	0.346	0.191
-150.618	-200.000	0.011	0.062
-149.604	-191.378	0.129	-0.001
-148.589	-200.000	-0.315	-0.001
-147.574	-101.675	0.090	-0.021
-146.560	-200.000	-0.032	0.239
-145.545	-153.490	-0.149	-0.010
-144.531	-95.391	-0.333	0.088
-143.516	800.000	0.084	-0.298
-142.502	-38.982	-0.284	-0.147
-141.487	-63.225	0.202	-0.082
-140.472	-161.116	0.516	-0.027
-139.458	150.184	0.131	0.175
-138.443	-66.484	0.181	0.071
-137.429	-200.000	0.038	0.271
-136.414	59.152	-0.044	-0.042
-135.399	-200.000	0.033	-0.263
-134.385	21.934	-0.133	-0.106
-133.370	81.294	0.157	0.167
-132.356	111.849	0.181	0.215
-131.341	-200.000	-0.004	-0.108
-130.326	-200.000	0.017	0.439
-129.312	103.809	0.172	-0.198
-128.297	-77.362	-0.164	-0.056
-127.283	800.000	0.079	0.290
-126.268	-112.125	0.310	-0.061
-125.253	-200.000	0.008	-0.268
-124.239	-3.330	-0.410	-0.281
-123.224	-89.322	-0.147	-0.043
-122.210	-200.000	-0.022	-0.157
