DTS Sentinel unit serial number:	SN413079Multiplexer serial number:	ORYXHardware model number:	OX4-SRSoftware version number:	ORYX F/W v4.00 Oryx Data Collector v3.7.2.0data status	okinstallation	princeton_trtdifferential loss correction	single-endedforward channel	channel 4reverse channel	N/Adate	2019/09/13time	11:41:35forward acquisition time	60.00reverse acquisition time	0.00gamma	496.2192k internal	0.2301k external	0.2301temperature offset calibration	1.0204default loss term (dB/km)	0.3790temperature slope calibration	1.0000multiplexer offset coefficient	1.0000multiplexer slope coefficient	1.0000fibre end	0.00T internal ref (°C)	33.06T ext. ref 1 (°C)	4.49T ext. ref 2 (°C)	30.32length (m)	temperature (°C)	Stokes	anti-Stokes-747.200	-200.000	0.033	0.165
-746.185	-200.000	-0.041	0.434
-745.171	198.433	0.108	0.169
-744.156	154.452	0.033	-0.047
-743.142	-91.000	-0.072	-0.021
-742.127	-200.000	-0.011	0.218
-741.112	-182.646	0.401	-0.007
-740.098	-200.000	-0.006	0.135
-739.083	88.984	0.268	0.304
-738.069	282.979	0.048	0.088
-737.054	800.000	-0.041	-0.140
-736.039	62.599	0.167	-0.171
-735.025	-200.000	-0.003	0.125
-734.010	-32.006	-0.303	-0.173
-732.996	706.165	-0.073	0.197
-731.981	327.698	0.103	-0.202
-730.966	-161.845	-0.256	-0.013
-729.952	-41.058	-0.327	-0.172
-728.937	-94.470	-0.266	0.074
-727.923	530.243	0.126	-0.304
-726.908	484.541	-0.136	0.314
-725.894	-118.909	-0.234	0.042
-724.879	-200.000	-0.010	-0.218
-723.864	-200.000	-0.041	-0.284
-722.850	29.540	-0.040	0.035
-721.835	800.000	-0.033	-0.140
-720.821	-9.536	0.108	-0.073
-719.806	-28.034	0.337	-0.198
-718.791	800.000	-0.198	-0.572
-717.777	430.935	-0.065	-0.144
-716.762	-58.486	0.155	-0.068
-715.748	-154.154	0.193	-0.013
-714.733	800.000	-0.066	-0.234
-713.718	68.118	-0.091	0.094
-712.704	-200.000	0.031	-0.366
-711.689	694.258	-0.077	-0.204
-710.675	-14.473	0.147	-0.096
-709.660	-3.303	0.156	-0.111
-708.645	-89.284	0.160	0.048
-707.631	-130.878	0.170	-0.023
-706.616	-200.000	0.032	0.311
-705.602	-178.628	0.155	-0.004
-704.587	-147.098	0.341	0.030
-703.572	199.402	0.051	0.080
-702.558	-200.000	-0.000	-0.017
-701.543	-147.292	0.375	-0.032
-700.529	711.617	0.116	0.312
-699.514	-131.292	0.142	-0.019
-698.499	487.508	-0.177	0.412
-697.485	-129.719	-0.179	-0.025
-696.470	800.000	0.046	-0.183
-695.456	96.133	0.274	-0.319
-694.441	182.744	0.103	-0.155
-693.426	800.000	0.109	-0.335
-692.412	-200.000	-0.018	0.185
-691.397	-86.316	0.107	0.033
-690.383	91.191	0.257	-0.293
-689.368	116.231	0.031	-0.038
-688.354	-200.000	-0.020	-0.129
-687.339	-39.932	-0.063	-0.033
-686.324	-8.719	0.134	0.092
-685.310	86.795	-0.071	-0.080
-684.295	-39.408	0.348	-0.186
-683.281	-106.788	-0.036	-0.008
-682.266	42.276	-0.010	-0.009
-681.251	-37.774	-0.186	-0.101
-680.237	120.048	0.190	-0.239
-679.222	199.850	0.182	-0.284
-678.208	149.100	0.159	0.218
-677.193	74.433	-0.146	-0.156
-676.178	94.387	0.045	-0.052
-675.164	234.132	-0.195	0.327
-674.149	-105.445	-0.104	0.024
-673.135	-200.000	0.015	-0.280
-672.120	-50.072	0.241	-0.116
-671.105	-33.556	0.170	0.095
-670.091	-64.987	-0.246	0.101
-669.076	-22.726	0.392	0.241
-668.062	-137.973	0.355	0.040
-667.047	21.194	-0.104	0.086
-666.032	144.148	0.229	0.310
-665.018	-79.538	-0.223	-0.076
-664.003	-200.000	-0.014	0.142
-662.989	-51.861	0.102	0.048
-661.974	7.051	-0.171	0.129
-660.959	-99.885	0.180	-0.046
-659.945	-152.040	-0.212	0.016
-658.930	800.000	0.022	0.084
-657.916	131.763	0.087	-0.113
-656.901	44.129	0.204	-0.190
-655.886	800.000	0.128	-0.362
-654.872	-21.174	0.189	-0.117
-653.857	-117.956	-0.337	0.061
-652.843	-63.259	0.182	-0.076
-651.828	273.900	-0.203	-0.364
-650.814	-13.682	-0.090	0.059
-649.799	519.913	0.130	-0.311
-648.784	-36.912	-0.204	-0.111
-647.770	145.368	-0.162	0.220
-646.755	-58.087	0.200	-0.088
-645.741	-200.000	-0.013	-0.354
-644.726	-200.000	-0.004	-0.095
-643.711	110.420	-0.105	0.128
-642.697	-200.000	0.065	-0.345
-641.682	7.983	-0.120	0.092
-640.668	-200.000	-0.001	-0.338
-639.653	-14.604	0.135	-0.088
-638.638	800.000	-0.008	0.023
-637.624	-200.000	-0.048	-0.250
-636.609	280.223	0.113	0.205
-635.595	-146.714	0.061	0.005
-634.580	800.000	0.063	0.178
-633.565	85.314	-0.025	-0.027
-632.551	378.260	0.042	-0.088
-631.536	371.794	-0.022	-0.044
-630.522	800.000	-0.053	0.169
-629.507	-200.000	-0.059	-0.319
-628.492	-2.937	-0.074	-0.052
-627.478	-200.000	0.104	0.000
-626.463	744.051	-0.088	-0.241
-625.449	37.006	-0.230	0.207
-624.434	-140.359	-0.207	-0.022
-623.419	-200.000	0.030	-0.390
-622.405	-136.277	0.195	0.023
-621.390	62.550	0.032	0.033
-620.376	59.584	-0.200	-0.201
-619.361	437.670	-0.176	0.390
-618.346	-41.087	-0.032	0.017
-617.332	146.583	0.039	-0.053
-616.317	-47.672	0.288	-0.142
-615.303	-200.000	-0.050	0.345
-614.288	-154.289	0.114	-0.008
-613.273	574.859	0.005	-0.013
-612.259	-200.000	0.016	-0.333
-611.244	366.887	-0.180	-0.369
-610.230	-89.744	-0.071	-0.021
-609.215	73.259	0.129	0.137
-608.201	-200.000	0.023	0.215
-607.186	-108.457	0.231	-0.050
-606.171	80.441	-0.213	-0.232
-605.157	-200.000	0.002	-0.160
-604.142	54.364	-0.329	-0.322
-603.128	82.221	-0.186	-0.205
-602.113	800.000	0.035	0.106
-601.098	-14.120	-0.255	-0.167
-600.084	-48.107	0.184	-0.090
-599.069	-200.000	-0.008	-0.282
-598.055	-200.000	0.023	0.165
-597.040	-52.223	0.313	-0.147
-596.025	-200.000	-0.018	0.084
-595.011	-117.739	-0.204	-0.037
-593.996	-9.005	0.244	0.165
-592.982	-200.000	-0.011	0.142
-591.967	-21.665	-0.161	-0.100
-590.952	-124.822	-0.203	0.032
-589.938	800.000	-0.074	0.276
-588.923	-200.000	-0.021	0.269
-587.909	49.690	0.068	-0.065
-586.894	-190.523	-0.084	-0.001
-585.879	-88.349	-0.170	0.052
-584.865	-200.000	0.012	-0.118
-583.850	7.893	0.199	-0.151
-582.836	230.288	-0.136	0.225
-581.821	-200.000	-0.020	-0.271
-580.806	-38.398	-0.200	-0.107
-579.792	-158.496	-0.044	0.003
-578.777	-90.531	-0.255	-0.075
-577.763	800.000	0.101	-0.297
-576.748	178.148	-0.064	0.094
-575.733	-164.058	-0.195	0.009
-574.719	198.356	-0.125	-0.193
-573.704	800.000	-0.052	-0.175
-572.690	-147.358	-0.232	-0.020
-571.675	12.010	0.098	-0.076
-570.661	298.050	-0.111	-0.208
-569.646	33.272	0.166	-0.146
-568.631	800.000	0.056	0.220
-567.617	-10.254	0.339	0.228
-566.602	-200.000	-0.015	-0.522
-565.588	59.713	0.293	-0.293
-564.573	-80.050	0.305	0.104
-563.558	-31.746	0.091	-0.052
-562.544	216.345	0.102	0.164
-561.529	-74.978	0.114	0.041
-560.515	366.582	-0.083	0.169
-559.500	182.112	-0.083	0.124
-558.485	-4.991	0.213	-0.149
-557.471	290.562	-0.134	-0.247
-556.456	-98.446	0.051	0.013
-555.442	-200.000	0.015	-0.149
-554.427	360.889	-0.129	-0.262
-553.412	-108.560	0.156	-0.034
-552.398	-76.114	-0.221	0.079
-551.383	-200.000	0.017	0.114
-550.369	-200.000	-0.004	0.042
-549.354	800.000	0.058	-0.176
-548.339	236.372	-0.158	0.265
-547.325	-52.445	-0.101	0.047
-546.310	-70.963	0.104	-0.040
-545.296	29.734	-0.194	0.167
-544.281	-79.230	0.294	0.101
-543.266	-35.153	0.258	-0.142
-542.252	-79.529	0.016	-0.006
-541.237	-19.572	0.267	-0.167
-540.223	800.000	0.060	-0.257
-539.208	335.736	-0.104	0.203
-538.193	800.000	0.069	0.280
-537.179	-11.569	-0.128	-0.085
-536.164	498.672	0.097	0.226
-535.150	153.487	0.135	-0.186
-534.135	414.742	0.137	-0.294
-533.121	241.570	-0.083	0.140
-532.106	403.219	-0.116	-0.248
-531.091	71.166	0.221	-0.232
-530.077	-200.000	0.013	0.200
-529.062	-50.864	0.189	0.090
-528.048	-9.765	-0.107	-0.072
-527.033	-6.493	-0.192	0.132
-526.018	-200.000	0.059	0.328
-525.004	-39.696	0.108	0.057
-523.989	-9.944	0.105	0.071
-522.975	-3.523	-0.211	0.148
-521.960	-156.272	0.117	-0.007
-520.945	-200.000	-0.332	-0.001
-519.931	-200.000	-0.011	-0.138
-518.916	498.290	0.048	0.113
-517.902	-79.624	-0.342	-0.117
-516.887	800.000	0.031	0.112
-515.872	15.791	0.374	0.297
-514.858	166.321	-0.094	-0.135
-513.843	800.000	0.058	-0.248
-512.829	800.000	0.034	0.123
-511.814	105.315	-0.156	-0.186
-510.799	189.440	0.269	-0.407
-509.785	-133.927	0.041	0.005
-508.770	507.575	0.031	-0.072
-507.756	-57.746	0.176	-0.078
-506.741	143.779	-0.054	0.073
-505.726	-200.000	-0.018	0.320
-504.712	589.775	0.089	0.221
-503.697	224.936	-0.154	0.252
-502.683	145.607	-0.050	0.068
-501.668	127.351	0.167	0.214
-500.653	724.051	0.109	0.292
-499.639	594.051	0.055	0.138
-498.624	800.000	-0.050	0.212
-497.610	11.755	0.236	-0.183
-496.595	-109.906	-0.027	-0.006
-495.581	66.556	-0.087	0.089
-494.566	-127.768	-0.143	0.021
-493.551	-56.789	0.186	0.083
-492.537	-76.638	-0.391	0.138
-491.522	-200.000	0.070	0.327
-490.508	-11.134	-0.128	0.085
-489.493	-136.462	-0.116	0.014
-488.478	-121.373	-0.114	-0.019
-487.464	-45.092	-0.336	-0.169
-486.449	-107.900	-0.058	0.013
-485.435	57.479	0.270	-0.266
-484.420	-142.537	0.043	-0.004
-483.405	636.829	0.097	-0.248
-482.391	800.000	-0.085	-0.251
-481.376	206.987	-0.055	-0.086
-480.362	83.820	-0.044	-0.048
-479.347	92.185	-0.134	0.153
-478.332	-200.000	0.024	-0.188
-477.318	473.959	-0.137	-0.312
-476.303	326.325	-0.076	0.146
-475.289	561.868	0.105	-0.256
-474.274	53.518	0.179	-0.173
-473.259	28.136	-0.346	-0.294
-472.245	800.000	0.025	0.105
-471.230	763.011	-0.150	0.410
-470.216	356.742	0.126	-0.253
-469.201	-100.381	-0.445	-0.111
-468.186	-200.000	0.014	-0.268
-467.172	-41.931	-0.250	0.129
-466.157	-200.000	0.039	0.314
-465.143	293.252	0.204	0.375
-464.128	-9.724	-0.326	0.219
-463.113	-97.676	-0.178	0.046
-462.099	72.374	0.047	0.050
-461.084	-1.073	-0.094	0.067
-460.070	19.864	0.109	0.089
-459.055	241.772	0.182	-0.306
-458.040	-125.881	-0.513	0.078
-457.026	49.771	0.398	-0.378
-456.011	-200.000	0.025	-0.240
-454.997	776.606	-0.095	0.261
-453.982	-155.581	-0.102	0.007
-452.968	216.383	0.112	-0.179
-451.953	-31.222	0.268	-0.152
-450.938	-194.688	-0.172	-0.001
-449.924	-200.000	-0.001	-0.268
-448.909	800.000	0.029	-0.107
-447.895	23.127	0.037	-0.030
-446.880	144.027	0.191	-0.256
-445.865	314.288	0.263	-0.499
-444.851	0.788	0.053	-0.038
-443.836	52.974	0.099	-0.095
-442.822	80.141	0.256	-0.277
-441.807	292.915	-0.142	0.261
-440.792	800.000	-0.095	0.386
-439.778	778.288	-0.073	0.200
-438.763	-72.740	-0.178	-0.066
-437.749	181.808	-0.061	-0.091
-436.734	-160.939	0.561	-0.030
-435.719	-62.179	-0.201	-0.085
-434.705	548.593	0.047	-0.112
-433.690	121.625	0.179	0.225
-432.676	-89.751	-0.354	0.104
-431.661	-28.829	-0.083	-0.048
-430.646	298.370	0.139	0.258
-429.632	800.000	0.112	0.315
-428.617	-0.551	0.088	0.063
-427.603	-200.000	0.031	0.189
-426.588	614.403	0.129	-0.326
-425.573	-200.000	0.034	-0.191
-424.559	-200.000	-0.005	0.139
-423.544	-31.401	-0.075	0.043
-422.530	-21.327	-0.202	0.124
-421.515	112.035	0.139	0.169
-420.500	-112.450	0.340	-0.068
-419.486	800.000	-0.040	-0.151
-418.471	-200.000	0.005	-0.150
-417.457	-200.000	0.013	0.495
-416.442	-76.443	0.374	-0.132
-415.428	-200.000	-0.046	-0.248
-414.413	-113.441	-0.265	-0.052
-413.398	-200.000	-0.062	0.284
-412.384	689.337	0.024	0.062
-411.369	520.161	-0.090	-0.213
-410.355	-172.170	-0.170	-0.006
-409.340	-200.000	0.019	0.105
-408.325	-98.693	-0.075	0.019
-407.311	708.231	-0.068	0.181
-406.296	-23.771	-0.233	0.140
-405.282	-90.525	-0.180	-0.052
-404.267	60.282	0.177	-0.176
-403.252	179.319	0.080	-0.119
-402.238	-101.604	-0.501	-0.122
-401.223	132.678	0.264	-0.343
-400.209	800.000	-0.041	0.156
-399.194	285.786	-0.047	0.085
-398.179	-200.000	0.025	0.406
-397.165	-6.586	-0.149	0.102
-396.150	-11.170	-0.296	-0.197
-395.136	253.551	-0.040	-0.068
-394.121	-200.000	0.011	0.215
-393.106	800.000	0.127	0.363
-392.092	-79.970	-0.129	0.043
-391.077	155.187	-0.065	0.090
-390.063	12.851	0.222	0.173
-389.048	-14.807	-0.167	0.108
-388.033	-200.000	-0.011	-0.084
-387.019	800.000	-0.034	0.118
-386.004	-129.580	-0.040	0.006
-384.990	-200.000	0.046	-0.402
-383.975	-91.566	-0.174	0.050
-382.960	90.019	-0.079	-0.089
-381.946	-200.000	-0.006	0.154
-380.931	-200.000	-0.003	0.120
-379.917	-200.000	0.004	0.023
-378.902	-162.105	0.442	-0.022
-377.888	-200.000	0.032	0.365
-376.873	-200.000	0.043	-0.195
-375.858	-7.010	0.150	0.103
-374.844	-200.000	0.035	0.378
-373.829	-148.858	-0.378	0.031
-372.815	331.193	0.026	0.051
-371.800	331.088	0.044	0.085
-370.785	96.445	-0.355	0.408
-369.771	-62.698	-0.430	0.179
-368.756	548.351	0.098	0.235
-367.742	-91.197	0.302	0.087
-366.727	165.231	-0.112	0.159
-365.712	-13.433	-0.048	-0.031
-364.698	-76.063	0.111	0.039
-363.683	-107.067	0.248	-0.055
-362.669	6.324	0.238	0.178
-361.654	-6.520	0.243	-0.166
-360.639	50.079	0.091	-0.086
-359.625	-107.172	-0.208	-0.046
-358.610	800.000	0.068	0.207
-357.596	-71.671	-0.146	-0.055
-356.581	-84.788	0.641	0.202
-355.566	-28.781	0.181	-0.105
-354.552	658.101	0.102	0.264
-353.537	-152.552	0.343	-0.025
-352.523	-200.000	-0.037	0.335
-351.508	-37.888	-0.089	0.047
-350.493	-94.395	-0.169	-0.046
-349.479	-200.000	-0.019	0.197
-348.464	-79.731	-0.174	0.059
-347.450	1.770	0.144	-0.104
-346.435	-200.000	0.015	0.089
-345.420	-20.698	0.175	0.108
-344.406	393.810	-0.053	-0.111
-343.391	-200.000	0.006	-0.247
-342.377	126.793	0.179	0.227
-341.362	-95.947	-0.147	-0.039
-340.348	72.508	-0.076	-0.080
-339.333	-56.458	0.182	-0.081
-338.318	-87.485	-0.477	0.145
-337.304	-42.986	-0.229	-0.117
-336.289	-162.817	0.153	0.008
-335.275	172.459	0.112	0.161
-334.260	-178.943	-0.154	0.003
-333.245	79.047	-0.166	-0.178
-332.231	-111.315	-0.255	-0.052
-331.216	-67.670	-0.213	0.084
-330.202	-14.075	-0.277	0.179
-329.187	800.000	0.087	0.297
-328.172	-124.230	0.346	-0.054
-327.158	-134.587	-0.175	-0.021
-326.143	156.173	-0.176	0.243
-325.129	286.739	-0.155	0.280
-324.114	134.579	0.191	-0.249
-323.099	132.158	0.191	0.247
-322.085	13.191	0.253	0.197
-321.070	-38.128	-0.191	0.102
-320.056	-200.000	-0.010	-0.249
-319.041	-137.653	0.299	-0.034
-318.026	10.544	-0.208	0.159
-317.012	-6.288	-0.099	-0.068
-315.997	128.301	-0.133	0.169
-314.983	602.908	-0.025	0.063
-313.968	95.422	-0.154	0.176
-312.953	-153.444	-0.106	0.007
-311.939	390.830	-0.097	0.201
-310.924	222.005	0.100	-0.161
-309.910	-16.786	0.330	-0.209
-308.895	89.175	-0.020	0.022
-307.880	392.035	-0.083	0.173
-306.866	-27.262	0.152	0.088
-305.851	-68.821	-0.161	0.062
-304.837	-81.419	-0.101	0.033
-303.822	283.285	-0.028	0.050
-302.807	-90.098	0.317	-0.092
-301.793	800.000	0.040	0.154
-300.778	-7.982	0.239	-0.161
-299.764	-140.893	-0.501	0.052
-298.749	-91.754	-0.046	-0.013
-297.735	-25.901	0.299	-0.176
-296.720	-78.906	0.206	-0.070
-295.705	-15.832	0.383	0.245
-294.691	31.969	0.159	-0.137
-293.676	247.399	-0.108	-0.182
-292.662	-194.270	-0.435	0.004
-291.647	-95.241	-0.073	-0.020
-290.632	99.271	-0.063	-0.073
-289.618	-200.000	0.009	-0.094
-288.603	-200.000	-0.026	-0.244
-287.589	-61.898	-0.154	-0.064
-286.574	-128.300	0.246	-0.035
-285.559	-27.353	0.257	0.150
-284.545	-154.643	0.069	-0.005
-283.530	-200.000	0.097	0.575
-282.516	-200.000	-0.004	-0.095
-281.501	-200.000	0.023	0.259
-280.486	-69.389	-0.121	-0.046
-279.472	-30.557	0.146	0.083
-278.457	1.270	-0.250	-0.180
-277.443	458.362	0.058	-0.128
-276.428	-164.387	-0.221	-0.010
-275.413	-44.608	-0.113	-0.056
-274.399	24.274	-0.136	-0.112
-273.384	800.000	0.032	-0.114
-272.370	800.000	0.043	0.167
-271.355	-139.667	0.145	-0.016
-270.340	-95.275	0.468	-0.126
-269.326	-53.196	0.139	0.064
-268.311	800.000	-0.054	0.178
-267.297	-200.000	0.029	-0.338
-266.282	4.393	-0.256	0.188
-265.267	-41.984	-0.157	-0.080
-264.253	-11.034	0.433	0.286
-263.238	-200.000	-0.071	-0.426
-262.224	130.627	-0.148	0.190
-261.209	800.000	-0.043	0.145
-260.195	-200.000	-0.002	-0.071
-259.180	7.633	0.135	0.101
-258.165	800.000	-0.079	0.254
-257.151	364.506	-0.071	-0.144
-256.136	106.503	0.157	0.186
-255.122	49.156	0.269	0.253
-254.107	-200.000	-0.012	0.089
-253.092	-16.038	-0.373	0.237
-252.078	-196.717	0.220	0.001
-251.063	-200.000	-0.005	0.093
-250.049	-200.000	0.021	0.164
-249.034	800.000	-0.160	-0.457
-248.019	140.790	0.069	-0.091
-247.005	77.080	0.179	-0.190
-245.990	192.385	-0.057	-0.085
-244.976	74.630	-0.192	0.202
-243.961	130.486	-0.197	-0.252
-242.946	48.482	-0.021	-0.020
-241.932	-179.171	-0.148	-0.003
-240.917	267.872	-0.128	0.224
-239.903	85.874	0.089	0.098
-238.888	216.140	-0.024	0.039
-237.873	-49.625	-0.198	-0.094
-236.859	-156.355	-0.098	-0.006
-235.844	160.044	0.053	0.073
-234.830	-122.567	0.299	0.048
-233.815	106.486	0.015	0.018
-232.800	227.883	0.091	-0.149
-231.786	-27.834	-0.278	-0.161
-230.771	72.297	-0.133	-0.139
-229.757	-83.512	-0.101	-0.032
-228.742	-106.619	-0.446	0.099
-227.727	-33.799	0.073	0.040
-226.713	372.071	-0.058	0.118
-225.698	8.690	0.326	-0.245
-224.684	-97.523	-0.059	-0.015
-223.669	255.759	0.087	-0.149
-222.655	-200.000	-0.071	-0.351
-221.640	-143.532	-0.129	0.012
-220.625	72.664	-0.196	-0.204
-219.611	87.695	-0.089	0.098
-218.596	212.722	0.148	-0.234
-217.582	181.123	0.063	-0.092
-216.567	244.871	-0.094	0.157
-215.552	800.000	0.058	-0.167
-214.538	800.000	-0.079	0.285
-213.523	98.227	-0.080	0.092
-212.509	-177.025	-0.192	-0.005
-211.494	92.281	0.021	0.024
-210.479	-200.000	0.021	-0.184
-209.465	-83.978	0.245	0.078
-208.450	-200.000	-0.015	0.110
-207.436	-84.624	0.273	0.086
-206.421	800.000	-0.075	-0.234
-205.406	486.002	0.133	0.302
-204.392	1.316	0.116	-0.083
-203.377	-45.995	0.125	0.062
-202.363	440.432	0.107	0.233
-201.348	800.000	0.080	0.334
-200.333	90.979	-0.191	0.214
-199.319	332.956	0.099	-0.190
-198.304	800.000	0.071	-0.253
-197.290	-3.685	0.179	0.124
-196.275	-200.000	0.015	-0.312
-195.260	288.652	-0.102	0.185
-194.246	-156.034	0.107	-0.007
-193.231	-200.000	0.056	-0.463
-192.217	93.804	-0.214	-0.242
-191.202	-114.508	-0.228	0.044
-190.187	800.000	0.068	0.278
-189.173	-200.000	-0.019	0.083
-188.158	-20.009	-0.131	0.081
-187.144	-11.742	-0.252	-0.165
-186.129	261.144	-0.050	0.086
-185.114	-200.000	0.021	-0.378
-184.100	-124.630	0.214	-0.033
-183.085	234.026	0.084	-0.138
-182.071	-155.423	0.277	0.018
-181.056	67.090	0.172	0.175
-180.042	-200.000	-0.022	-0.211
-179.027	348.623	-0.125	0.245
-178.012	232.152	-0.032	0.053
-176.998	-104.554	0.025	-0.006
-175.983	272.243	-0.005	-0.010
-174.969	-200.000	-0.008	0.260
-173.954	-115.299	0.246	-0.046
-172.939	-200.000	-0.059	-0.423
-171.925	-200.000	0.069	-0.441
-170.910	800.000	-0.066	0.252
-169.896	-103.367	0.278	-0.065
-168.881	-147.102	0.177	0.015
-167.866	800.000	-0.035	-0.119
-166.852	800.000	0.025	0.108
-165.837	28.985	0.173	-0.147
-164.823	530.560	-0.077	-0.181
-163.808	721.872	0.035	0.092
-162.793	-200.000	-0.045	0.199
-161.779	-101.834	-0.177	0.043
-160.764	-67.990	0.136	0.053
-159.750	200.289	0.113	0.173
-158.735	-8.732	0.189	0.127
-157.720	571.055	0.123	-0.299
-156.706	-155.102	-0.080	-0.005
-155.691	-5.980	-0.269	0.184
-154.677	110.814	0.146	0.175
-153.662	490.925	0.086	-0.195
-152.647	-161.398	0.286	-0.015
-151.633	-57.591	0.052	-0.023
-150.618	-35.088	-0.384	-0.209
-149.604	149.324	0.109	0.147
-148.589	-200.000	0.008	-0.243
-147.574	800.000	-0.036	-0.108
-146.560	-200.000	0.022	0.129
-145.545	800.000	-0.018	-0.051
-144.531	134.346	-0.166	0.214
-143.516	-200.000	0.052	-0.358
-142.502	0.614	0.050	-0.035
-141.487	-32.400	-0.236	0.131
-140.472	-3.829	0.191	0.132
-139.458	-114.950	-0.112	0.021
-138.443	221.843	0.114	0.183
-137.429	-43.726	-0.102	-0.051
-136.414	23.333	0.157	0.128
-135.399	-148.571	-0.352	-0.029
-134.385	-8.662	-0.069	0.046
-133.370	116.803	0.304	-0.372
-132.356	800.000	-0.067	-0.202
-131.341	305.087	0.038	0.071
-130.326	-37.593	-0.199	-0.106
-129.312	106.658	0.091	-0.108
-128.297	-76.718	-0.098	-0.034
-127.283	-105.862	0.178	0.040
-126.268	-108.385	-0.218	0.047
-125.253	118.258	-0.154	-0.189
-124.239	731.435	-0.041	0.110
-123.224	25.259	0.247	-0.204
-122.210	-84.038	0.185	0.059
-121.195	101.313	0.257	0.297
