DTS Sentinel unit serial number:	SN413079Multiplexer serial number:	ORYXHardware model number:	OX4-SRSoftware version number:	ORYX F/W v4.00 Oryx Data Collector v3.7.2.0data status	okinstallation	princeton_trtdifferential loss correction	single-endedforward channel	channel 4reverse channel	N/Adate	2019/09/13time	22:41:35forward acquisition time	60.00reverse acquisition time	0.00gamma	496.2192k internal	0.2321k external	0.2321temperature offset calibration	1.0135default loss term (dB/km)	0.3790temperature slope calibration	1.0000multiplexer offset coefficient	1.0000multiplexer slope coefficient	1.0000fibre end	0.00T internal ref (°C)	27.62T ext. ref 1 (°C)	3.24T ext. ref 2 (°C)	21.74length (m)	temperature (°C)	Stokes	anti-Stokes-747.200	20.528	-0.156	-0.128
-746.185	167.332	0.214	-0.307
-745.171	-200.000	0.003	0.321
-744.156	-35.966	-0.043	0.023
-743.142	83.535	-0.257	0.283
-742.127	17.615	0.336	0.270
-741.112	39.554	-0.172	-0.156
-740.098	-5.605	-0.175	0.122
-739.083	182.485	-0.114	-0.170
-738.069	110.311	-0.109	0.133
-737.054	-165.288	-0.456	-0.020
-736.039	608.624	-0.053	-0.135
-735.025	-104.748	0.181	-0.042
-734.010	-0.696	-0.087	-0.063
-732.996	-125.054	-0.431	-0.067
-731.981	-200.000	0.009	0.129
-730.966	124.524	-0.080	-0.102
-729.952	-37.587	-0.258	0.139
-728.937	-75.593	-0.284	-0.102
-727.923	-56.029	0.266	0.120
-726.908	303.947	0.036	-0.068
-725.894	15.004	-0.233	-0.184
-724.879	112.566	-0.215	-0.262
-723.864	-143.554	-0.288	-0.028
-722.850	-106.575	0.150	0.034
-721.835	43.167	0.122	-0.113
-720.821	144.314	-0.114	-0.154
-719.806	175.644	-0.193	0.283
-718.791	-200.000	-0.007	-0.279
-717.777	46.211	-0.281	0.263
-716.762	86.634	-0.345	-0.384
-715.748	218.888	0.199	-0.322
-714.733	444.964	0.103	-0.229
-713.718	-71.830	0.171	-0.064
-712.704	-200.000	0.030	-0.169
-711.689	-200.000	0.045	-0.223
-710.675	800.000	0.027	-0.087
-709.660	576.400	0.102	-0.253
-708.645	76.909	-0.116	-0.124
-707.631	-7.087	-0.534	-0.366
-706.616	63.267	-0.163	-0.165
-705.602	-119.662	-0.273	-0.048
-704.587	633.461	-0.066	-0.169
-703.572	113.597	-0.148	0.182
-702.558	174.552	0.119	-0.174
-701.543	-84.853	0.101	0.032
-700.529	-200.000	0.019	-0.099
-699.514	-27.659	-0.098	-0.058
-698.499	-10.294	-0.347	-0.232
-697.485	-160.172	0.109	0.006
-696.470	105.813	-0.232	-0.277
-695.456	-17.516	0.142	-0.090
-694.441	-200.000	0.005	0.074
-693.426	-200.000	-0.005	0.041
-692.412	-200.000	-0.009	0.129
-691.397	-200.000	-0.378	-0.001
-690.383	-49.559	0.212	-0.102
-689.368	-109.066	-0.291	-0.063
-688.354	408.322	0.123	-0.263
-687.339	195.706	-0.138	-0.212
-686.324	-168.780	-0.078	0.003
-685.310	-200.000	-0.034	-0.199
-684.295	-200.000	-0.052	-0.653
-683.281	-200.000	-0.108	-0.482
-682.266	-200.000	-0.004	-0.327
-681.251	-83.725	0.202	0.065
-680.237	-200.000	0.010	0.101
-679.222	800.000	-0.036	-0.141
-678.208	-200.000	-0.008	0.039
-677.193	800.000	0.033	-0.115
-676.178	105.166	0.126	-0.150
-675.164	404.745	-0.124	-0.264
-674.149	45.718	-0.086	0.081
-673.135	351.432	0.153	-0.306
-672.120	188.530	-0.056	-0.085
-671.105	235.389	0.132	-0.220
-670.091	-11.147	0.193	0.128
-669.076	298.566	0.109	0.202
-668.062	-200.000	-0.028	0.233
-667.047	51.502	-0.239	0.229
-666.032	113.309	-0.204	0.249
-665.018	-200.000	-0.015	-0.340
-664.003	184.135	-0.055	-0.082
-662.989	149.215	-0.176	-0.240
-661.974	-193.809	-0.137	-0.001
-660.959	-127.464	-0.561	-0.082
-659.945	244.098	-0.160	0.270
-658.930	-17.711	-0.358	-0.226
-657.916	2.924	0.163	-0.119
-656.901	-4.721	-0.269	-0.187
-655.886	511.549	0.036	0.085
-654.872	240.859	-0.106	0.179
-653.857	-133.812	-0.329	0.041
-652.843	18.417	-0.178	-0.143
-651.828	-166.295	0.132	-0.006
-650.814	-123.258	-0.195	-0.031
-649.799	-133.551	0.383	-0.048
-648.784	-200.000	0.018	-0.178
-647.770	-69.818	-0.371	-0.143
-646.755	246.188	0.129	-0.219
-645.741	117.258	0.160	-0.198
-644.726	53.042	0.281	0.271
-643.711	-1.067	0.066	0.047
-642.697	-98.212	0.231	-0.060
-641.682	-115.255	-0.192	0.037
-640.668	265.863	0.112	0.197
-639.653	-38.662	0.372	-0.198
-638.638	-117.745	-0.110	0.020
-637.624	-69.520	-0.147	0.057
-636.609	62.451	0.209	-0.210
-635.595	670.228	-0.065	-0.169
-634.580	23.179	-0.213	-0.176
-633.565	-4.747	-0.093	-0.064
-632.551	-73.612	0.248	0.091
-631.536	-128.261	0.185	0.027
-630.522	-105.305	-0.259	0.059
-629.507	694.955	-0.161	0.425
-628.492	-81.245	-0.204	0.068
-627.478	800.000	-0.080	-0.310
-626.463	-153.833	0.222	0.015
-625.449	160.958	0.253	-0.355
-624.434	-118.495	-0.251	-0.045
-623.419	-198.902	0.131	-0.001
-622.405	29.220	0.161	0.138
-621.390	46.651	0.260	0.243
-620.376	-14.799	-0.191	-0.123
-619.361	-200.000	0.003	0.161
-618.346	800.000	-0.035	-0.117
-617.332	-119.337	0.214	-0.037
-616.317	201.971	0.209	0.324
-615.303	-78.085	-0.145	-0.050
-614.288	-153.840	-0.175	0.012
-613.273	-39.508	0.241	0.127
-612.259	44.850	0.075	-0.069
-611.244	800.000	0.020	0.064
-610.230	-56.367	0.011	0.005
-609.215	27.004	-0.022	0.018
-608.201	-104.374	-0.106	-0.025
-607.186	60.602	-0.105	0.105
-606.171	-119.090	0.397	-0.070
-605.157	258.636	0.235	0.407
-604.142	800.000	0.056	0.163
-603.128	-115.849	0.378	-0.071
-602.113	-54.756	-0.068	-0.031
-601.098	-152.023	0.366	-0.027
-600.084	15.594	0.237	-0.187
-599.069	-200.000	-0.017	-0.326
-598.055	-200.000	-0.008	-0.146
-597.040	-103.735	0.130	-0.031
-596.025	-200.000	-0.068	-0.400
-595.011	-33.794	-0.218	0.121
-593.996	-156.885	0.345	-0.021
-592.982	-50.157	-0.241	-0.115
-591.967	344.128	-0.174	-0.343
-590.952	224.256	0.142	-0.230
-589.938	-200.000	0.078	-0.398
-588.923	-51.932	0.355	-0.166
-587.909	219.073	-0.057	-0.091
-586.894	-59.518	-0.191	-0.083
-585.879	-80.916	-0.275	-0.092
-584.865	-26.127	-0.147	-0.087
-583.850	-137.752	-0.195	0.022
-582.836	98.435	0.139	0.161
-581.821	800.000	0.098	-0.377
-580.806	328.472	0.237	-0.458
-579.792	800.000	-0.078	-0.227
-578.777	-200.000	-0.014	0.088
-577.763	665.793	0.109	0.282
-576.748	162.606	-0.123	0.173
-575.733	-200.000	-0.001	0.067
-574.719	800.000	0.023	-0.095
-573.704	186.721	-0.122	0.183
-572.690	-113.497	0.049	-0.010
-571.675	-86.628	-0.323	-0.099
-570.661	53.012	0.257	-0.247
-569.646	-65.199	-0.295	-0.119
-568.631	800.000	-0.101	0.331
-567.617	-42.485	-0.342	0.175
-566.602	-89.437	-0.302	0.089
-565.588	800.000	0.040	0.172
-564.573	146.704	0.117	0.158
-563.558	8.676	0.187	0.141
-562.544	800.000	0.066	0.258
-561.529	-165.063	0.089	-0.004
-560.515	800.000	-0.057	-0.201
-559.500	-184.240	-0.235	0.004
-558.485	-40.398	-0.027	-0.014
-557.471	-71.974	-0.129	0.048
-556.456	-200.000	0.014	0.260
-555.442	211.465	0.099	-0.157
-554.427	-93.774	-0.446	0.123
-553.412	201.872	-0.163	-0.252
-552.398	154.771	0.028	0.038
-551.383	-200.000	-0.048	0.218
-550.369	161.432	-0.099	-0.139
-549.354	56.101	0.265	0.258
-548.339	-200.000	0.070	0.333
-547.325	-108.283	-0.393	-0.085
-546.310	-75.113	-0.408	0.146
-545.296	250.188	0.042	0.071
-544.281	800.000	0.103	0.400
-543.266	800.000	0.075	0.236
-542.252	-4.862	0.262	-0.181
-541.237	-70.522	0.324	0.123
-540.223	42.755	0.105	-0.095
-539.208	-56.975	-0.279	0.123
-538.193	-34.518	-0.375	-0.206
-537.179	26.716	0.265	0.223
-536.164	-152.465	-0.159	0.011
-535.150	-41.011	0.165	0.086
-534.135	786.865	0.068	0.188
-533.121	170.261	0.064	-0.091
-532.106	192.682	0.180	0.273
-531.091	-200.000	-0.015	0.123
-530.077	-63.488	-0.282	0.116
-529.062	-50.727	0.107	-0.051
-528.048	263.665	0.172	-0.300
-527.033	286.717	-0.087	-0.158
-526.018	762.752	-0.023	-0.062
-525.004	125.729	-0.125	0.159
-523.989	800.000	-0.042	-0.151
-522.975	-68.460	-0.359	0.139
-521.960	-183.256	-0.210	-0.004
-520.945	-52.341	-0.319	-0.148
-519.931	-200.000	0.025	-0.216
-518.916	-200.000	0.015	0.267
-517.902	-128.753	0.224	0.032
-516.887	3.399	0.117	-0.085
-515.872	-105.806	-0.238	0.054
-514.858	93.463	-0.198	-0.225
-513.843	48.185	-0.191	-0.179
-512.829	-200.000	-0.017	0.262
-511.814	-200.000	-0.049	-0.223
-510.799	-98.248	0.223	0.057
-509.785	-52.975	0.250	-0.115
-508.770	-141.692	0.164	0.016
-507.756	-200.000	-0.013	-0.335
-506.741	-49.199	-0.267	-0.128
-505.726	798.380	-0.091	-0.251
-504.712	32.019	0.160	0.138
-503.697	-102.091	-0.187	0.045
-502.683	-200.000	-0.003	-0.036
-501.668	-80.221	-0.154	0.052
-500.653	43.422	0.054	0.049
-499.639	85.061	0.179	0.197
-498.624	-14.761	-0.296	-0.190
-497.610	-200.000	-0.026	0.178
-496.595	-200.000	-0.002	-0.398
-495.581	-200.000	0.007	0.061
-494.566	800.000	-0.117	-0.397
-493.551	800.000	0.026	0.091
-492.537	-200.000	0.063	0.284
-491.522	-140.105	-0.189	-0.020
-490.508	-86.630	0.501	-0.154
-489.493	-200.000	-0.008	0.207
-488.478	-67.941	-0.133	0.052
-487.464	11.261	-0.008	0.006
-486.449	-89.853	0.148	-0.043
-485.435	59.876	0.211	-0.209
-484.420	-161.978	-0.156	0.008
-483.405	661.480	-0.042	0.109
-482.391	-56.487	0.236	0.105
-481.376	-97.254	-0.271	-0.071
-480.362	43.326	-0.150	-0.137
-479.347	-200.000	-0.047	-0.265
-478.332	-81.804	-0.105	0.034
-477.318	537.980	0.083	0.197
-476.303	21.220	-0.241	-0.196
-475.289	329.549	-0.078	-0.150
-474.274	-200.000	-0.160	0.001
-473.259	78.216	0.206	-0.220
-472.245	-200.000	0.003	-0.024
-471.230	-118.896	-0.209	0.037
-470.216	-93.065	0.333	-0.093
-469.201	-165.454	0.031	0.001
-468.186	-59.631	0.111	-0.048
-467.172	-48.702	-0.154	-0.074
-466.157	757.465	-0.030	-0.081
-465.143	62.308	0.276	0.276
-464.128	-98.039	-0.252	-0.065
-463.113	800.000	-0.050	-0.162
-462.099	-174.785	-0.306	0.009
-461.084	219.065	0.172	-0.275
-460.070	-200.000	-0.033	-0.201
-459.055	-200.000	-0.011	0.254
-458.040	-200.000	-0.012	0.130
-457.026	-37.388	0.082	0.044
-456.011	800.000	-0.091	0.272
-454.997	-200.000	0.031	0.179
-453.982	800.000	-0.059	-0.237
-452.968	-21.210	-0.147	0.090
-451.953	-105.884	0.455	-0.103
-450.938	-106.992	-0.404	-0.089
-449.924	-126.938	-0.420	-0.062
-448.909	-27.140	0.127	0.074
-447.895	-129.252	-0.240	-0.033
-446.880	-58.771	0.218	-0.094
-445.865	-200.000	0.107	-0.559
-444.851	-200.000	0.024	-0.201
-443.836	-60.939	0.111	0.047
-442.822	6.325	-0.195	0.145
-441.807	373.217	0.044	-0.089
-440.792	4.101	0.264	0.193
-439.778	111.329	-0.138	0.166
-438.763	253.421	-0.114	0.195
-437.749	780.012	0.132	-0.359
-436.734	199.860	-0.087	0.133
-435.719	-66.852	-0.378	0.149
-434.705	-200.000	0.054	0.310
-433.690	-133.605	-0.369	0.046
-432.676	346.934	-0.082	-0.161
-431.661	-76.757	-0.249	0.087
-430.646	-200.000	0.015	-0.218
-429.632	-200.000	0.002	-0.147
-428.617	4.369	0.086	-0.063
-427.603	-179.195	-0.088	0.002
-426.588	246.050	-0.056	0.095
-425.573	-200.000	0.004	0.237
-424.559	372.382	-0.139	-0.281
-423.544	-200.000	0.341	0.000
-422.530	84.929	-0.171	0.187
-421.515	239.101	0.091	0.151
-420.500	-47.813	0.051	-0.024
-419.486	-157.896	0.300	0.018
-418.471	53.934	-0.097	0.093
-417.457	-144.126	0.401	-0.037
-416.442	271.357	-0.193	-0.339
-415.428	267.956	0.216	0.378
-414.413	50.853	0.343	0.324
-413.398	-38.828	-0.237	0.124
-412.384	750.967	-0.101	-0.273
-411.369	197.209	0.036	0.055
-410.355	77.321	-0.043	-0.046
-409.340	-102.975	0.307	0.073
-408.325	228.495	0.058	0.094
-407.311	580.767	0.090	0.221
-406.296	-144.993	-0.288	-0.026
-405.282	-200.000	-0.080	-0.374
-404.267	8.145	0.106	0.079
-403.252	661.915	0.120	0.309
-402.238	-169.551	0.028	-0.001
-401.223	-42.570	0.188	-0.096
-400.209	43.054	0.275	0.251
-399.194	-19.412	0.247	-0.152
-398.179	-49.590	0.206	-0.098
-397.165	89.809	0.162	0.181
-396.150	-165.859	-0.208	0.009
-395.136	-200.000	0.080	0.387
-394.121	-90.318	-0.123	0.036
-393.106	-200.000	-0.042	0.245
-392.092	-133.717	-0.320	0.040
-391.077	2.105	0.287	0.207
-390.063	-28.347	0.196	-0.112
-389.048	177.292	0.226	-0.329
-388.033	517.568	-0.133	-0.310
-387.019	-54.075	-0.209	0.095
-386.004	-11.311	-0.151	0.099
-384.990	231.414	-0.095	-0.156
-383.975	281.080	0.162	0.288
-382.960	800.000	0.047	-0.194
-381.946	-75.404	-0.174	0.062
-380.931	-65.659	-0.060	0.024
-379.917	-38.257	0.219	-0.116
-378.902	-200.000	-0.034	-0.208
-377.888	800.000	0.022	0.063
-376.873	-65.695	-0.042	0.017
-375.858	536.799	0.062	0.147
-374.844	-46.769	0.082	-0.040
-373.829	27.469	-0.142	-0.119
-372.815	708.183	-0.180	-0.473
-371.800	-90.191	0.267	-0.077
-370.785	22.552	-0.069	-0.056
-369.771	-124.183	0.368	0.057
-368.756	88.353	-0.092	-0.102
-367.742	9.848	0.237	0.179
-366.727	48.221	-0.074	-0.069
-365.712	-17.812	-0.267	0.167
-364.698	-159.342	0.547	-0.030
-363.683	9.868	0.283	-0.214
-362.669	37.200	0.211	-0.186
-361.654	555.765	-0.060	-0.143
-360.639	297.004	-0.153	0.279
-359.625	52.445	0.164	0.155
-358.610	49.530	0.130	0.122
-357.596	-200.000	-0.023	-0.128
-356.581	800.000	-0.084	-0.283
-355.566	484.057	0.111	0.251
-354.552	366.464	0.080	-0.161
-353.537	800.000	-0.051	0.219
-352.523	116.478	0.113	0.138
-351.508	61.032	-0.072	0.071
-350.493	448.813	-0.054	-0.118
-349.479	-128.514	-0.159	0.022
-348.464	-38.696	0.156	0.082
-347.450	636.547	-0.128	-0.323
-346.435	-200.000	-0.102	0.474
-345.420	65.720	0.179	-0.181
-344.406	529.963	-0.154	-0.362
-343.391	-83.162	-0.453	-0.145
-342.377	353.796	0.138	-0.274
-341.362	-200.000	0.065	-0.313
-340.348	220.528	0.140	0.224
-339.333	800.000	-0.095	0.291
-338.318	-25.755	0.027	-0.016
-337.304	800.000	-0.037	0.141
-336.289	23.207	0.168	-0.137
-335.275	-200.000	-0.001	0.183
-334.260	-56.144	0.287	0.127
-333.245	-110.888	-0.342	-0.070
-332.231	-98.086	0.059	-0.015
-331.216	-52.972	-0.073	0.033
-330.202	800.000	-0.110	0.369
-329.187	-32.422	0.350	-0.194
-328.172	-98.554	-0.095	0.024
-327.158	681.460	-0.069	0.178
-326.143	-87.144	0.291	0.088
-325.129	-111.041	0.360	-0.074
-324.114	-200.000	-0.024	0.233
-323.099	1.387	0.050	0.036
-322.085	-89.731	-0.134	-0.039
-321.070	-164.813	-0.219	-0.010
-320.056	68.673	-0.219	0.223
-319.041	88.989	-0.135	0.150
-318.026	0.219	-0.068	0.048
-317.012	-94.151	-0.463	-0.126
-315.997	104.846	0.028	0.032
-314.983	-107.676	-0.246	0.053
-313.968	-105.423	0.302	-0.068
-312.953	131.660	0.117	-0.149
-311.939	1.449	-0.180	-0.128
-310.924	213.339	0.155	0.243
-309.910	85.212	-0.116	0.126
-308.895	-200.000	-0.012	-0.067
-307.880	-133.342	-0.267	-0.033
-306.866	-100.994	0.218	-0.053
-305.851	-200.000	0.002	-0.063
-304.837	319.935	-0.093	0.176
-303.822	-72.280	0.109	-0.040
-302.807	38.485	-0.319	0.282
-301.793	-118.405	-0.170	0.030
-300.778	-200.000	0.005	-0.119
-299.764	-113.929	-0.183	-0.035
-298.749	-200.000	-0.004	-0.300
-297.735	655.633	-0.061	0.156
-296.720	-200.000	-0.013	0.058
-295.705	-118.056	-0.039	0.007
-294.691	231.453	0.188	0.306
-293.676	-200.000	-0.017	-0.091
-292.662	25.575	-0.090	0.074
-291.647	-200.000	0.025	0.272
-290.632	800.000	0.049	-0.156
-289.618	163.386	-0.325	-0.453
-288.603	-87.258	-0.013	0.004
-287.589	-200.000	0.002	0.388
-286.574	-141.549	0.373	0.037
-285.559	177.383	-0.149	-0.215
-284.545	-200.000	0.027	0.144
-283.530	61.747	-0.057	0.056
-282.516	800.000	0.068	0.289
-281.501	172.329	0.093	0.132
-280.486	31.269	0.203	0.173
-279.472	-57.740	0.174	0.075
-278.457	-196.334	-0.221	0.002
-277.443	-89.148	-0.030	-0.009
-276.428	199.114	-0.138	0.210
-275.413	65.148	0.254	0.255
-274.399	120.148	0.214	-0.264
-273.384	301.401	-0.062	-0.114
-272.370	-102.671	0.393	-0.093
-271.355	313.391	0.066	0.124
-270.340	-32.523	-0.117	-0.065
-269.326	720.925	0.085	-0.224
-268.311	-200.000	0.030	0.165
-267.297	-90.541	-0.133	-0.038
-266.282	-98.160	0.313	0.080
-265.267	800.000	0.076	-0.277
-264.253	800.000	-0.090	-0.264
-263.238	151.699	-0.212	-0.287
-262.224	800.000	-0.153	-0.431
-261.209	405.025	-0.044	0.092
-260.195	325.768	0.107	-0.204
-259.180	274.204	0.118	0.207
-258.165	800.000	-0.059	-0.194
-257.151	-86.493	-0.091	-0.028
-256.136	335.793	-0.197	0.379
-255.122	-17.454	0.285	-0.178
-254.107	-200.000	0.045	-0.285
-253.092	344.851	0.183	0.356
-252.078	-114.421	0.230	-0.044
-251.063	60.166	0.142	0.140
-250.049	175.441	0.073	-0.105
-249.034	-74.196	-0.089	-0.032
-248.019	-98.645	-0.317	-0.080
-247.005	-200.000	-0.025	-0.125
-245.990	191.611	0.154	-0.230
-244.976	55.502	0.070	0.067
-243.961	31.101	-0.066	0.056
-242.946	285.561	-0.043	0.076
-241.932	800.000	-0.065	0.226
-240.917	-200.000	-0.057	0.307
-239.903	50.167	-0.115	0.108
-238.888	-32.132	0.073	-0.040
-237.873	-200.000	0.056	-0.411
-236.859	258.612	0.067	0.114
-235.844	78.744	-0.042	-0.044
-234.830	-66.262	0.081	0.032
-233.815	800.000	-0.087	0.256
-232.800	7.234	0.244	0.180
-231.786	113.398	0.105	-0.126
-230.771	-128.465	-0.216	0.030
-229.757	646.464	0.084	0.212
-228.742	400.319	-0.048	0.099
-227.727	453.345	-0.132	0.290
-226.713	-3.627	0.080	0.055
-225.698	-141.282	-0.287	0.029
-224.684	244.798	0.030	-0.051
-223.669	-77.091	-0.059	0.020
-222.655	-48.415	-0.107	0.051
-221.640	128.117	-0.141	0.178
-220.625	-11.315	-0.242	-0.158
-219.611	44.738	-0.241	0.219
-218.596	-189.258	-0.275	-0.003
-217.582	-200.000	0.072	0.314
-216.567	-126.620	-0.034	0.005
-215.552	136.157	0.110	0.142
-214.538	262.026	0.117	-0.202
-213.523	-200.000	0.039	-0.189
-212.509	-50.625	-0.087	-0.040
-211.494	-88.393	-0.013	0.004
-210.479	-64.395	0.036	-0.014
-209.465	800.000	0.022	-0.072
-208.450	-200.000	-0.002	0.180
-207.436	469.405	-0.062	-0.139
-206.421	-125.742	-0.156	0.023
-205.406	-12.566	0.101	0.065
-204.392	737.201	-0.017	-0.046
-203.377	-19.921	0.331	0.202
-202.363	-35.389	-0.103	0.056
-201.348	79.659	-0.202	-0.215
-200.333	800.000	-0.121	-0.337
-199.319	55.000	0.117	-0.112
-198.304	-78.749	0.168	0.057
-197.290	-128.194	-0.183	0.026
-196.275	223.547	0.098	0.157
-195.260	-9.360	-0.087	0.058
-194.246	-18.983	0.181	-0.111
-193.231	522.391	-0.031	0.073
-192.217	316.186	-0.043	0.080
-191.202	-99.691	0.194	0.048
-190.187	-21.427	0.138	0.083
-189.173	193.511	0.045	-0.067
-188.158	18.074	-0.223	-0.176
-187.144	800.000	0.133	-0.386
-186.129	-200.000	-0.088	0.405
-185.114	-14.293	0.150	-0.095
-184.100	-200.000	-0.004	-0.213
-183.085	-45.919	-0.286	0.140
-182.071	-73.819	0.035	0.013
-181.056	-63.419	-0.192	0.078
-180.042	-19.364	-0.130	-0.080
-179.027	-7.565	-0.254	0.170
-178.012	-157.551	0.256	0.015
-176.998	-102.285	0.262	0.062
-175.983	-137.653	0.210	0.023
-174.969	-120.623	-0.098	0.016
-173.954	-200.000	0.070	0.451
-172.939	-27.785	-0.211	0.121
-171.925	-72.905	0.192	-0.070
-170.910	211.070	-0.059	-0.091
-169.896	-78.929	-0.166	-0.056
-168.881	-176.582	0.281	0.007
-167.866	-35.530	-0.254	0.136
-166.852	-57.574	0.202	-0.088
-165.837	800.000	-0.057	-0.226
-164.823	-54.041	0.114	-0.051
-163.808	800.000	0.085	0.295
-162.793	-81.261	0.186	-0.061
-161.779	56.334	0.087	-0.084
-160.764	314.050	-0.109	-0.202
-159.750	-156.307	-0.252	0.016
-158.735	222.608	0.089	-0.141
-157.720	302.133	0.014	-0.025
-156.706	45.676	0.121	-0.110
-155.691	-114.347	-0.167	-0.032
-154.677	-36.410	-0.213	0.114
-153.662	-200.000	-0.038	0.360
-152.647	155.060	-0.107	-0.145
-151.633	-200.000	0.020	-0.199
-150.618	-157.004	-0.189	0.011
-149.604	0.097	0.092	0.065
-148.589	-143.019	-0.080	-0.008
-147.574	232.432	-0.188	0.305
-146.560	800.000	0.089	-0.256
-145.545	-36.847	0.167	0.089
-144.531	-131.618	-0.153	-0.020
-143.516	-119.961	0.253	0.043
-142.502	-200.000	0.055	-0.319
-141.487	-36.822	-0.213	0.113
-140.472	800.000	0.106	0.376
-139.458	3.992	-0.358	0.259
-138.443	26.015	0.107	0.088
-137.429	192.657	0.241	0.360
-136.414	-200.000	0.027	0.139
-135.399	221.545	-0.068	0.109
-134.385	-105.475	-0.185	0.041
-133.370	-200.000	0.004	0.090
-132.356	-200.000	0.013	-0.144
-131.341	-200.000	-0.001	0.123
-130.326	11.774	-0.138	-0.104
-129.312	131.634	0.093	-0.119
-128.297	-74.152	-0.227	-0.081
-127.283	-67.219	0.169	0.066
-126.268	2.056	-0.186	-0.132
-125.253	-31.183	-0.202	-0.112
-124.239	-200.000	-0.001	0.150
-123.224	-26.065	0.139	-0.081
-122.210	-20.929	0.319	-0.193
