DTS Sentinel unit serial number:	SN413079Multiplexer serial number:	ORYXHardware model number:	OX4-SRSoftware version number:	ORYX F/W v4.00 Oryx Data Collector v3.7.2.0data status	okinstallation	princeton_trtdifferential loss correction	single-endedforward channel	channel 4reverse channel	N/Adate	2019/09/11time	01:11:10forward acquisition time	60.00reverse acquisition time	0.00gamma	496.2192k internal	0.2318k external	0.2318temperature offset calibration	0.9948default loss term (dB/km)	0.3790temperature slope calibration	1.0000multiplexer offset coefficient	1.0000multiplexer slope coefficient	1.0000fibre end	0.00T internal ref (°C)	29.12T ext. ref 1 (°C)	-0.31T ext. ref 2 (°C)	23.19length (m)	temperature (°C)	Stokes	anti-Stokes-747.200	197.429	0.100	-0.154
-746.185	-164.221	-0.268	-0.012
-745.171	-127.310	0.462	-0.068
-744.156	148.763	-0.266	0.363
-743.142	800.000	0.048	0.147
-742.127	800.000	-0.041	0.162
-741.112	-200.000	-0.024	0.321
-740.098	-117.205	-0.341	0.063
-739.083	247.506	0.095	-0.163
-738.069	69.351	-0.310	0.323
-737.054	-44.167	-0.176	0.089
-736.039	7.514	-0.071	0.054
-735.025	260.229	-0.084	0.147
-734.010	800.000	0.048	-0.168
-732.996	-47.219	0.122	0.060
-731.981	-2.798	-0.065	0.046
-730.966	-32.824	0.189	0.106
-729.952	384.425	0.054	0.113
-728.937	195.008	0.083	-0.127
-727.923	-119.684	0.140	-0.024
-726.908	-64.701	-0.214	-0.088
-725.894	800.000	0.025	-0.075
-724.879	52.912	0.204	-0.198
-723.864	105.417	-0.196	0.234
-722.850	784.359	0.168	0.466
-721.835	238.632	-0.113	-0.189
-720.821	-11.190	-0.153	-0.102
-719.806	-95.053	-0.164	0.045
-718.791	-49.337	0.188	-0.091
-717.777	-200.000	0.034	0.223
-716.762	-72.437	-0.118	0.044
-715.748	-147.078	-0.180	0.016
-714.733	800.000	0.098	0.344
-713.718	266.477	-0.016	0.028
-712.704	-200.000	-0.078	-0.375
-711.689	568.610	0.038	0.092
-710.675	119.364	-0.194	-0.242
-709.660	684.332	0.050	-0.133
-708.645	4.109	0.182	-0.135
-707.631	-200.000	-0.028	-0.273
-706.616	-199.367	-0.211	-0.001
-705.602	-150.420	0.229	-0.018
-704.587	-175.798	0.041	-0.001
-703.572	-122.238	-0.320	-0.053
-702.558	702.830	0.149	0.396
-701.543	146.091	0.194	0.263
-700.529	29.083	0.111	0.095
-699.514	201.788	0.102	0.159
-698.499	86.547	0.257	0.286
-697.485	8.733	-0.094	0.072
-696.470	-95.701	0.277	-0.075
-695.456	702.139	0.045	0.119
-694.441	104.346	-0.074	-0.088
-693.426	-165.362	-0.544	0.024
-692.412	259.976	0.086	-0.149
-691.397	180.081	-0.081	-0.120
-690.383	-200.000	0.019	-0.100
-689.368	-109.497	-0.006	-0.001
-688.354	81.354	0.126	0.138
-687.339	-91.772	-0.150	-0.043
-686.324	800.000	0.099	-0.319
-685.310	94.372	-0.047	0.054
-684.295	-105.518	0.156	-0.036
-683.281	629.784	-0.088	-0.226
-682.266	22.837	-0.077	-0.064
-681.251	-116.691	0.155	0.029
-680.237	101.215	-0.094	0.110
-679.222	100.724	0.093	-0.109
-678.208	-200.000	0.028	-0.144
-677.193	84.695	0.339	0.375
-676.178	-52.831	-0.260	-0.121
-675.164	-200.000	0.001	0.092
-674.149	-5.910	-0.125	-0.086
-673.135	-43.885	0.153	0.077
-672.120	-200.000	-0.002	-0.197
-671.105	46.466	0.235	-0.220
-670.091	800.000	0.073	0.214
-669.076	800.000	-0.017	-0.069
-668.062	18.658	0.214	-0.173
-667.047	-98.853	-0.257	-0.066
-666.032	52.394	0.208	0.200
-665.018	-117.905	0.190	0.034
-664.003	77.357	-0.045	-0.048
-662.989	127.739	0.073	-0.093
-661.974	59.711	-0.104	0.103
-660.959	-151.683	-0.049	0.004
-659.945	-170.389	0.203	0.007
-658.930	181.647	0.038	0.057
-657.916	-40.605	0.312	-0.163
-656.901	-113.601	-0.117	-0.023
-655.886	-49.900	0.277	0.133
-654.872	18.068	0.277	-0.222
-653.857	2.893	-0.240	0.176
-652.843	186.991	0.140	-0.211
-651.828	105.741	0.099	0.118
-650.814	241.132	-0.026	0.044
-649.799	-116.808	-0.105	0.019
-648.784	526.780	-0.008	0.020
-647.770	82.810	0.142	-0.156
-646.755	-72.762	0.035	-0.013
-645.741	-94.133	-0.106	0.029
-644.726	-44.483	0.222	0.112
-643.711	-200.000	0.005	0.259
-642.697	-200.000	-0.003	-0.078
-641.682	-96.577	-0.144	-0.038
-640.668	177.166	-0.141	-0.207
-639.653	-143.258	-0.345	-0.033
-638.638	641.640	0.129	-0.332
-637.624	312.495	0.136	-0.257
-636.609	-133.154	-0.246	0.031
-635.595	-79.710	-0.253	-0.086
-634.580	132.807	-0.138	-0.179
-633.565	93.030	0.173	-0.197
-632.551	-34.561	-0.170	-0.094
-631.536	40.827	-0.178	-0.162
-630.522	-40.273	0.198	-0.104
-629.507	575.967	-0.065	0.159
-628.492	154.986	-0.140	0.194
-627.478	132.762	0.094	0.123
-626.463	12.691	-0.192	0.149
-625.449	-107.783	0.031	0.007
-624.434	-73.231	0.157	-0.058
-623.419	-173.642	-0.415	0.013
-622.405	-200.000	0.010	-0.094
-621.390	62.122	-0.255	-0.256
-620.376	112.347	-0.104	0.127
-619.361	475.693	-0.073	-0.166
-618.346	800.000	0.083	0.285
-617.332	63.601	-0.013	-0.014
-616.317	-200.000	-0.009	0.314
-615.303	47.560	0.168	-0.158
-614.288	-32.736	-0.186	-0.104
-613.273	353.461	-0.183	0.366
-612.259	152.560	0.150	-0.206
-611.244	-193.336	-0.127	-0.001
-610.230	-83.470	-0.285	-0.092
-609.215	137.296	-0.131	-0.172
-608.201	800.000	-0.103	-0.324
-607.186	-101.850	-0.221	0.054
-606.171	800.000	-0.004	-0.012
-605.157	289.387	-0.118	0.215
-604.142	89.826	0.061	-0.068
-603.128	800.000	0.101	-0.299
-602.113	-200.000	0.009	-0.301
-601.098	-133.301	-0.224	0.028
-600.084	67.825	-0.073	0.075
-599.069	-200.000	-0.004	-0.153
-598.055	-16.680	0.133	0.084
-597.040	699.299	0.012	-0.032
-596.025	-200.000	-0.023	-0.140
-595.011	-158.380	-0.247	0.014
-593.996	-110.878	-0.168	-0.035
-592.982	185.652	0.136	0.203
-591.967	133.037	0.119	0.155
-590.952	99.301	0.032	0.037
-589.938	-57.426	0.279	0.123
-588.923	-26.406	-0.277	0.163
-587.909	-98.466	0.038	0.010
-586.894	50.522	0.137	-0.130
-585.879	-200.000	-0.006	0.057
-584.865	-124.649	-0.132	-0.021
-583.850	95.551	0.195	0.223
-582.836	800.000	0.058	-0.230
-581.821	-67.878	-0.187	0.074
-580.806	722.976	0.098	0.262
-579.792	-101.047	0.186	0.046
-578.777	70.268	-0.179	0.186
-577.763	659.081	-0.048	-0.123
-576.748	-116.065	-0.436	0.082
-575.733	-200.000	0.034	0.223
-574.719	-114.767	0.135	0.026
-573.704	-40.873	-0.220	-0.114
-572.690	82.646	-0.140	-0.153
-571.675	281.686	0.225	-0.405
-570.661	-42.800	0.330	-0.168
-569.646	-145.534	0.129	0.012
-568.631	600.927	-0.085	0.213
-567.617	52.328	0.194	0.186
-566.602	321.214	-0.144	-0.276
-565.588	-90.214	-0.237	-0.069
-564.573	-200.000	-0.021	-0.205
-563.558	-115.352	-0.076	0.014
-562.544	-76.920	-0.256	0.090
-561.529	800.000	0.050	0.161
-560.515	275.361	-0.125	0.224
-559.500	-67.142	-0.511	-0.203
-558.485	-200.000	-0.011	0.147
-557.471	37.915	0.256	-0.228
-556.456	83.173	-0.323	0.353
-555.442	181.483	0.158	-0.234
-554.427	-200.000	-0.010	-0.121
-553.412	87.137	-0.115	-0.128
-552.398	-107.945	0.093	0.020
-551.383	-200.000	0.003	-0.276
-550.369	-67.323	-0.285	-0.112
-549.354	-158.044	-0.038	-0.002
-548.339	-158.381	0.327	-0.019
-547.325	800.000	0.134	0.451
-546.310	84.666	-0.033	0.036
-545.296	-200.000	0.060	-0.292
-544.281	800.000	-0.096	-0.279
-543.266	266.654	0.257	0.450
-542.252	-166.918	0.168	-0.007
-541.237	-101.154	0.119	-0.029
-540.223	105.018	-0.196	0.232
-539.208	-89.148	0.090	0.027
-538.193	36.930	0.127	-0.113
-537.179	-31.921	-0.255	0.143
-536.164	800.000	0.025	-0.092
-535.150	427.138	-0.032	0.069
-534.135	-14.861	-0.229	-0.147
-533.121	800.000	0.089	-0.355
-532.106	-121.429	0.187	-0.031
-531.091	75.451	-0.109	-0.116
-530.077	43.024	0.163	-0.149
-529.062	-200.000	0.001	-0.161
-528.048	-200.000	0.011	0.414
-527.033	197.096	-0.203	0.311
-526.018	-60.503	-0.082	-0.035
-525.004	-6.953	0.071	-0.048
-523.989	25.603	0.334	-0.279
-522.975	-36.580	0.237	-0.128
-521.960	-61.342	-0.216	-0.091
-520.945	800.000	-0.018	-0.065
-519.931	210.967	0.051	0.081
-518.916	511.035	0.138	-0.323
-517.902	410.398	0.152	0.324
-516.887	-7.968	0.279	0.189
-515.872	-147.146	-0.148	0.013
-514.858	-86.240	-0.187	-0.058
-513.843	186.494	-0.085	0.127
-512.829	228.758	0.057	0.093
-511.814	-130.416	-0.095	0.013
-510.799	-200.000	-0.002	0.043
-509.785	-132.729	-0.321	0.041
-508.770	-200.000	-0.044	0.270
-507.756	5.989	0.222	0.165
-506.741	-200.000	0.025	0.174
-505.726	-83.481	0.388	0.124
-504.712	-200.000	0.008	0.063
-503.697	-200.000	0.022	-0.132
-502.683	-89.803	-0.168	0.049
-501.668	39.884	-0.120	0.108
-500.653	344.932	-0.113	0.222
-499.639	-49.817	0.157	0.075
-498.624	-117.433	0.086	0.016
-497.610	264.112	0.190	0.332
-496.595	438.728	0.113	-0.248
-495.581	57.766	0.129	0.126
-494.566	800.000	0.039	-0.132
-493.551	433.839	0.089	0.193
-492.537	-141.554	0.326	0.033
-491.522	92.015	0.149	-0.168
-490.508	52.415	0.104	0.100
-489.493	156.343	0.178	0.246
-488.478	-200.000	-0.005	-0.211
-487.464	49.801	0.074	-0.070
-486.449	-131.022	0.376	-0.050
-485.435	-45.335	-0.045	0.022
-484.420	91.002	0.270	0.303
-483.405	32.269	0.187	-0.162
-482.391	27.255	-0.207	0.174
-481.376	85.731	-0.171	-0.188
-480.362	356.689	0.092	0.184
-479.347	82.541	0.108	-0.118
-478.332	619.579	-0.098	-0.247
-477.318	49.831	0.082	0.078
-476.303	9.460	0.160	-0.121
-475.289	403.497	-0.135	-0.285
-474.274	-86.128	-0.264	-0.082
-473.259	-200.000	0.007	0.040
-472.245	-200.000	0.014	-0.087
-471.230	139.206	0.082	-0.108
-470.216	-200.000	0.034	-0.244
-469.201	-42.011	0.435	0.223
-468.186	9.724	-0.306	0.232
-467.172	-29.686	0.078	-0.045
-466.157	12.183	0.345	0.266
-465.143	-89.772	-0.132	-0.039
-464.128	-180.200	-0.245	0.005
-463.113	-63.517	0.191	0.078
-462.099	2.929	-0.136	-0.099
-461.084	-20.178	0.313	-0.193
-460.070	-130.156	0.165	-0.023
-459.055	-48.784	0.333	0.160
-458.040	238.934	0.101	0.168
-457.026	800.000	-0.094	0.325
-456.011	57.373	-0.157	-0.154
-454.997	644.004	0.051	-0.129
-453.982	-200.000	-0.004	0.345
-452.968	-159.956	-0.397	0.022
-451.953	525.695	-0.100	-0.235
-450.938	-117.083	0.181	0.033
-449.924	-4.078	0.151	-0.105
-448.909	800.000	-0.080	-0.253
-447.895	-49.130	0.199	0.095
-446.880	133.427	0.212	0.274
-445.865	-79.296	-0.202	0.068
-444.851	-101.719	0.127	0.031
-443.836	92.880	-0.067	-0.076
-442.822	-19.894	-0.231	0.143
-441.807	75.148	0.091	0.096
-440.792	800.000	-0.019	0.082
-439.778	356.711	-0.104	-0.206
-438.763	266.360	0.101	-0.177
-437.749	-143.034	-0.115	0.011
-436.734	82.752	0.193	0.210
-435.719	800.000	-0.073	0.249
-434.705	-75.480	-0.246	0.088
-433.690	-115.194	0.166	0.031
-432.676	-91.663	-0.292	-0.083
-431.661	-58.111	-0.283	0.123
-430.646	-163.628	0.423	-0.020
-429.632	-200.000	0.021	-0.250
-428.617	68.414	-0.210	-0.216
-427.603	725.225	-0.058	0.155
-426.588	73.248	0.163	0.170
-425.573	-132.166	-0.284	0.037
-424.559	160.638	0.105	0.147
-423.544	-154.352	-0.174	0.012
-422.530	-67.788	0.246	0.096
-421.515	-14.490	-0.350	0.225
-420.500	-200.000	0.044	-0.246
-419.486	800.000	0.037	-0.158
-418.471	-200.000	-0.007	-0.076
-417.457	447.294	0.075	0.165
-416.442	800.000	-0.083	-0.246
-415.428	-200.000	0.044	-0.195
-414.413	344.113	0.049	-0.095
-413.398	0.814	-0.052	-0.037
-412.384	202.910	0.137	-0.212
-411.369	-7.891	-0.136	-0.091
-410.355	-41.134	-0.427	0.220
-409.340	-118.172	0.108	-0.019
-408.325	533.129	0.072	-0.171
-407.311	800.000	-0.109	0.314
-406.296	-200.000	0.039	0.352
-405.282	-187.107	-0.111	-0.002
-404.267	800.000	0.037	-0.154
-403.252	12.139	-0.289	0.222
-402.238	273.940	-0.052	-0.092
-401.223	-188.754	0.349	0.004
-400.209	360.207	-0.071	-0.142
-399.194	621.022	0.017	-0.043
-398.179	-27.374	-0.090	-0.052
-397.165	-200.000	-0.005	0.235
-396.150	559.534	0.082	0.199
-395.136	-73.124	-0.230	-0.084
-394.121	30.252	-0.175	0.149
-393.106	47.031	0.039	0.036
-392.092	-56.899	-0.196	-0.087
-391.077	-142.106	-0.060	-0.006
-390.063	-121.800	-0.122	-0.020
-389.048	-150.850	0.167	-0.013
-388.033	-78.450	-0.178	-0.061
-387.019	-125.456	-0.217	-0.033
-386.004	-24.617	-0.318	-0.189
-384.990	-200.000	-0.023	-0.118
-383.975	466.057	-0.072	-0.162
-382.960	92.229	-0.144	-0.162
-381.946	-100.298	0.158	0.039
-380.931	97.698	0.107	-0.122
-379.917	-37.251	0.231	0.123
-378.902	179.089	0.119	-0.173
-377.888	-200.000	-0.001	-0.300
-376.873	-200.000	0.035	0.212
-375.858	244.197	-0.081	-0.135
-374.844	51.838	0.272	0.258
-373.829	3.094	-0.206	0.149
-372.815	-16.574	0.144	0.091
-371.800	304.539	-0.123	-0.228
-370.785	159.203	-0.236	0.327
-369.771	-122.536	0.027	-0.004
-368.756	71.935	-0.049	0.051
-367.742	214.307	0.040	0.063
-366.727	-24.703	0.218	-0.129
-365.712	800.000	0.042	-0.175
-364.698	-200.000	0.076	-0.371
-363.683	-166.992	-0.056	0.002
-362.669	800.000	0.090	0.328
-361.654	46.801	-0.097	-0.090
-360.639	800.000	0.016	-0.070
-359.625	136.713	-0.190	0.247
-358.610	196.616	-0.145	0.220
-357.596	231.539	0.183	-0.300
-356.581	109.099	0.295	0.352
-355.566	-132.013	0.035	-0.005
-354.552	74.361	0.080	-0.084
-353.537	-102.043	-0.225	0.054
-352.523	143.259	0.027	0.036
-351.508	-121.419	-0.295	0.049
-350.493	-71.096	-0.193	-0.072
-349.479	24.204	0.085	0.070
-348.464	39.770	-0.161	0.144
-347.450	-14.041	-0.141	0.091
-346.435	-26.662	-0.159	-0.093
-345.420	-76.501	-0.280	-0.098
-344.406	-68.800	0.083	-0.032
-343.391	-120.555	0.357	0.060
-342.377	-32.983	0.109	-0.060
-341.362	-33.801	-0.490	0.269
-340.348	408.018	0.071	-0.149
-339.333	6.128	0.308	0.227
-338.318	-200.000	-0.007	-0.261
-337.304	17.822	-0.181	0.143
-336.289	-97.136	0.248	-0.065
-335.275	53.782	0.120	0.114
-334.260	111.099	0.112	0.134
-333.245	-172.387	-0.226	0.007
-332.231	531.884	-0.118	-0.279
-331.216	-52.838	0.103	-0.047
-330.202	163.097	0.122	0.171
-329.187	-96.603	-0.226	0.059
-328.172	-200.000	0.004	-0.060
-327.158	800.000	-0.074	-0.283
-326.143	800.000	0.057	-0.165
-325.129	-25.408	-0.093	0.055
-324.114	-82.292	0.128	0.042
-323.099	-33.079	0.005	-0.003
-322.085	-127.750	-0.121	-0.017
-321.070	800.000	0.127	0.403
-320.056	241.010	0.127	-0.212
-319.041	406.717	0.166	-0.350
-318.026	18.305	-0.151	-0.120
-317.012	715.195	0.114	0.302
-315.997	531.895	-0.124	0.291
-314.983	-172.247	-0.188	-0.006
-313.968	800.000	0.024	0.094
-312.953	23.383	-0.122	-0.100
-311.939	-126.880	-0.372	0.055
-310.924	101.536	0.161	0.187
-309.910	-80.872	-0.094	0.031
-308.895	-200.000	-0.035	-0.282
-307.880	88.342	0.141	-0.156
-306.866	-66.385	-0.119	0.047
-305.851	800.000	0.066	0.250
-304.837	-38.363	0.065	0.034
-303.822	-200.000	0.004	-0.076
-302.807	-104.800	-0.262	-0.060
-301.793	-125.127	0.266	0.041
-300.778	183.276	-0.038	-0.056
-299.764	-45.611	0.443	-0.218
-298.749	-102.590	-0.254	-0.060
-297.735	-77.423	-0.124	-0.043
-296.720	-149.166	0.358	0.029
-295.705	7.355	0.298	0.221
-294.691	-6.620	0.219	0.148
-293.676	-200.000	-0.030	0.145
-292.662	-147.138	0.123	0.010
-291.647	476.166	0.115	0.259
-290.632	143.891	-0.038	0.051
-289.618	249.716	-0.125	-0.211
-288.603	-67.873	0.537	0.209
-287.589	800.000	-0.077	-0.329
-286.574	-10.854	0.299	-0.196
-285.559	800.000	0.033	-0.133
-284.545	59.638	-0.154	0.151
-283.530	594.783	0.154	0.378
-282.516	800.000	0.047	0.139
-281.501	-51.202	0.082	-0.038
-280.486	2.379	0.284	-0.204
-279.472	800.000	0.024	-0.085
-278.457	-200.000	-0.038	-0.174
-277.443	569.854	0.001	-0.003
-276.428	422.295	-0.103	-0.219
-275.413	-15.008	0.162	-0.103
-274.399	-200.000	0.027	0.201
-273.384	800.000	0.042	-0.166
-272.370	248.650	0.030	-0.051
-271.355	-76.466	0.238	0.083
-270.340	659.794	-0.040	0.102
-269.326	-182.541	-0.164	-0.003
-268.311	67.469	-0.198	0.200
-267.297	6.589	-0.043	0.032
-266.282	-43.439	0.136	0.068
-265.267	77.867	0.356	0.377
-264.253	-91.180	0.168	0.048
-263.238	407.204	0.060	0.125
-262.224	-200.000	0.019	-0.134
-261.209	125.463	-0.143	-0.180
-260.195	-200.000	0.020	0.306
-259.180	-200.000	-0.009	0.281
-258.165	316.249	0.010	0.019
-257.151	107.428	0.076	0.090
-256.136	28.997	0.298	-0.251
-255.122	800.000	-0.113	-0.437
-254.107	-32.048	0.089	-0.049
-253.092	29.170	-0.165	-0.139
-252.078	54.371	0.182	-0.174
-251.063	40.312	-0.157	-0.141
-250.049	135.376	0.130	-0.168
-249.034	25.271	0.160	0.132
-248.019	15.270	-0.022	0.017
-247.005	215.502	0.114	0.179
-245.990	-75.651	0.209	-0.074
-244.976	477.744	-0.067	-0.151
-243.961	-39.200	-0.468	-0.244
-242.946	584.611	0.024	-0.059
-241.932	-56.888	0.425	-0.186
-240.917	-200.000	-0.014	0.065
-239.903	-81.249	0.173	0.057
-238.888	75.937	-0.115	0.121
-237.873	-70.854	-0.167	0.062
-236.859	110.337	-0.238	0.284
-235.844	-99.594	-0.176	0.044
-234.830	337.125	0.005	0.009
-233.815	-97.179	0.111	0.029
-232.800	51.321	-0.190	-0.179
-231.786	-117.346	0.230	0.041
-230.771	84.817	0.107	-0.116
-229.757	-200.000	-0.021	0.190
-228.742	25.037	-0.445	-0.366
-227.727	-38.470	0.224	0.118
-226.713	-200.000	0.026	0.181
-225.698	624.191	0.114	0.286
-224.684	-200.000	-0.024	-0.107
-223.669	115.656	0.070	-0.085
-222.655	75.462	0.229	0.240
-221.640	-200.000	0.014	-0.142
-220.625	-200.000	0.044	-0.222
-219.611	-33.606	0.190	-0.104
-218.596	519.579	-0.058	0.135
-217.582	691.311	0.136	0.352
-216.567	-15.524	0.124	0.079
-215.552	436.343	-0.021	-0.045
-214.538	-71.877	-0.255	0.094
-213.523	-31.310	-0.051	0.029
-212.509	7.833	-0.070	-0.052
-211.494	657.919	-0.090	-0.229
-210.479	-100.501	-0.059	-0.015
-209.465	800.000	-0.042	-0.169
-208.450	-102.760	0.155	0.037
-207.436	-165.960	-0.264	0.011
-206.421	-200.000	-0.048	-0.214
-205.406	-81.982	0.192	-0.062
-204.392	-138.487	-0.168	-0.018
-203.377	258.487	0.160	-0.273
-202.363	-26.507	-0.105	0.061
-201.348	-127.987	0.158	-0.022
-200.333	-137.957	-0.344	-0.038
-199.319	-4.759	0.013	0.009
-198.304	-92.297	0.068	-0.019
-197.290	106.304	-0.147	-0.173
-196.275	-115.962	0.075	-0.014
-195.260	-75.667	0.131	0.046
-194.246	302.745	-0.045	0.082
-193.231	-200.000	0.009	0.482
-192.217	-200.000	0.048	0.369
-191.202	316.701	0.044	-0.083
-190.187	-10.850	-0.219	-0.144
-189.173	-116.780	-0.257	-0.047
-188.158	105.595	-0.279	-0.326
-187.144	-131.921	-0.191	-0.025
-186.129	10.447	0.190	0.143
-185.114	-41.621	-0.053	0.027
-184.100	-200.000	0.032	0.291
-183.085	464.980	-0.062	-0.138
-182.071	-200.000	-0.013	-0.121
-181.056	51.799	0.105	0.099
-180.042	-83.529	-0.194	-0.061
-179.027	-47.481	0.155	-0.074
-178.012	153.161	0.104	0.141
-176.998	800.000	0.077	0.257
-175.983	-95.330	0.407	-0.108
-174.969	5.204	-0.060	-0.044
-173.954	-1.919	0.108	0.075
-172.939	-200.000	-0.014	0.082
-171.925	-200.000	-0.015	-0.242
-170.910	63.039	-0.216	-0.214
-169.896	-67.411	0.077	0.030
-168.881	62.007	0.209	0.206
-167.866	-25.586	-0.170	-0.099
-166.852	-200.000	-0.007	0.067
-165.837	-200.000	0.005	-0.203
-164.823	-39.188	-0.087	0.045
-163.808	719.020	-0.102	0.268
-162.793	-62.821	-0.271	0.111
-161.779	-28.609	-0.160	-0.091
-160.764	-189.664	0.151	-0.002
-159.750	71.300	-0.195	-0.201
-158.735	-162.601	0.434	-0.021
-157.720	27.870	0.117	-0.098
-156.706	-116.280	0.086	-0.016
-155.691	-160.139	-0.085	0.005
-154.677	-48.900	0.273	-0.129
-153.662	-144.400	0.235	0.022
-152.647	164.341	-0.141	-0.197
-151.633	-200.000	0.036	0.288
-150.618	-114.762	0.470	0.089
-149.604	-200.000	-0.005	0.215
-148.589	460.942	0.217	0.478
-147.574	4.467	0.122	0.088
-146.560	452.188	-0.075	0.164
-145.545	-95.407	-0.244	0.065
-144.531	800.000	-0.042	0.128
-143.516	-112.951	0.329	-0.064
-142.502	-23.333	0.324	-0.193
-141.487	227.258	0.129	-0.207
-140.472	201.458	-0.269	-0.409
-139.458	-121.364	0.055	-0.009
-138.443	800.000	-0.034	0.102
-137.429	800.000	0.035	0.124
-136.414	-26.500	0.244	0.141
-135.399	-1.028	-0.076	-0.053
-134.385	-90.443	0.186	0.053
-133.370	-20.471	-0.209	-0.127
-132.356	-114.736	0.102	0.019
-131.341	45.321	0.030	0.027
-130.326	-147.231	-0.025	0.002
-129.312	800.000	0.023	-0.091
-128.297	-72.676	0.274	0.100
-127.283	-200.000	0.010	0.249
-126.268	-200.000	0.014	-0.420
-125.253	240.583	-0.164	0.270
-124.239	-200.000	0.021	0.185
-123.224	116.067	-0.047	0.057
-122.210	23.435	0.129	-0.104
-121.195	232.811	0.062	-0.101
-120.180	37.513	-0.187	-0.164
