DTS Sentinel unit serial number:	SN413079Multiplexer serial number:	ORYXHardware model number:	OX4-SRSoftware version number:	ORYX F/W v4.00 Oryx Data Collector v3.7.2.0data status	okinstallation	princeton_trtdifferential loss correction	single-endedforward channel	channel 4reverse channel	N/Adate	2019/09/19time	08:33:35forward acquisition time	60.00reverse acquisition time	0.00gamma	496.2192k internal	0.2340k external	0.2340temperature offset calibration	1.0017default loss term (dB/km)	0.3790temperature slope calibration	1.0000multiplexer offset coefficient	1.0000multiplexer slope coefficient	1.0000fibre end	0.00T internal ref (°C)	20.75T ext. ref 1 (°C)	0.57T ext. ref 2 (°C)	16.32length (m)	temperature (°C)	Stokes	anti-Stokes-747.200	-15.085	-0.177	-0.113
-746.185	-152.093	0.195	-0.014
-745.171	-35.926	0.091	-0.049
-744.156	45.041	-0.223	-0.206
-743.142	800.000	-0.092	0.295
-742.127	-91.479	-0.302	-0.086
-741.112	-200.000	-0.068	0.335
-740.098	800.000	-0.058	0.234
-739.083	16.763	0.211	-0.168
-738.069	-111.806	-0.178	-0.036
-737.054	-85.266	-0.091	0.028
-736.039	-200.000	-0.057	0.262
-735.025	800.000	-0.027	0.119
-734.010	-200.000	0.000	-0.256
-732.996	-55.699	-0.215	0.096
-731.981	-91.023	-0.214	0.062
-730.966	95.321	0.099	-0.113
-729.952	-102.592	0.142	0.034
-728.937	515.212	0.030	0.070
-727.923	-58.096	-0.113	-0.049
-726.908	-26.091	-0.065	-0.038
-725.894	-70.629	0.208	0.079
-724.879	-200.000	0.027	-0.126
-723.864	104.781	-0.066	0.078
-722.850	658.651	-0.069	0.177
-721.835	-121.406	-0.269	-0.045
-720.821	-200.000	-0.044	-0.236
-719.806	316.777	0.071	0.134
-718.791	-51.151	-0.153	0.072
-717.777	-200.000	0.047	-0.249
-716.762	-67.041	-0.389	-0.154
-715.748	55.619	-0.163	0.158
-714.733	298.623	0.045	-0.083
-713.718	-200.000	-0.036	0.235
-712.704	152.668	0.034	0.046
-711.689	-37.505	-0.050	-0.027
-710.675	71.982	-0.131	0.136
-709.660	419.674	0.131	-0.280
-708.645	30.437	-0.039	0.033
-707.631	60.502	0.209	0.207
-706.616	800.000	0.038	-0.140
-705.602	-84.052	-0.413	0.131
-704.587	51.920	-0.295	0.281
-703.572	-200.000	0.041	-0.190
-702.558	-2.993	-0.191	-0.133
-701.543	454.071	-0.136	-0.302
-700.529	800.000	0.032	0.134
-699.514	-135.668	0.164	0.019
-698.499	-40.974	-0.174	0.090
-697.485	83.731	-0.366	-0.400
-696.470	-112.653	-0.062	-0.012
-695.456	-59.327	0.208	0.090
-694.441	-101.484	-0.174	0.042
-693.426	204.021	-0.131	-0.203
-692.412	-147.762	-0.272	0.023
-691.397	717.937	-0.046	-0.123
-690.383	-67.316	0.053	-0.021
-689.368	624.985	0.120	-0.304
-688.354	185.220	-0.191	-0.284
-687.339	800.000	0.100	0.302
-686.324	-200.000	0.003	-0.100
-685.310	-200.000	-0.056	-0.666
-684.295	237.108	-0.136	0.225
-683.281	466.111	-0.030	0.067
-682.266	-137.308	-0.129	0.015
-681.251	545.467	-0.104	-0.249
-680.237	-113.531	-0.239	-0.047
-679.222	395.596	-0.108	-0.225
-678.208	175.718	0.089	0.129
-677.193	43.429	-0.157	-0.143
-676.178	-200.000	0.007	-0.415
-675.164	-42.011	0.221	-0.113
-674.149	-53.287	0.202	-0.093
-673.135	402.185	-0.179	-0.375
-672.120	469.402	-0.113	-0.253
-671.105	800.000	0.076	0.322
-670.091	240.039	0.093	-0.154
-669.076	24.996	-0.050	-0.041
-668.062	141.099	-0.068	0.089
-667.047	-119.623	-0.382	0.066
-666.032	3.147	-0.119	0.087
-665.018	800.000	0.037	-0.152
-664.003	5.231	-0.238	0.176
-662.989	-88.318	0.236	-0.070
-661.974	-88.970	-0.233	-0.069
-660.959	-104.007	0.295	-0.069
-659.945	-32.599	-0.240	0.133
-658.930	136.838	0.180	0.235
-657.916	163.258	-0.165	-0.232
-656.901	84.515	-0.054	-0.059
-655.886	800.000	0.099	-0.395
-654.872	-200.000	-0.146	0.664
-653.857	-41.212	-0.116	-0.060
-652.843	-200.000	-0.006	0.061
-651.828	652.008	-0.206	-0.528
-650.814	800.000	-0.007	-0.024
-649.799	-200.000	-0.025	0.141
-648.784	-112.697	-0.313	-0.062
-647.770	-110.721	0.087	-0.018
-646.755	-200.000	-0.087	-0.512
-645.741	-5.234	0.156	-0.107
-644.726	-200.000	0.328	0.000
-643.711	-200.000	-0.028	-0.185
-642.697	-113.112	0.156	0.031
-641.682	-9.542	0.242	-0.161
-640.668	-43.499	-0.178	0.090
-639.653	-200.000	0.023	-0.290
-638.638	710.631	0.014	-0.036
-637.624	221.267	-0.114	-0.182
-636.609	-83.555	0.267	-0.085
-635.595	-60.475	-0.309	0.131
-634.580	-54.541	0.351	-0.159
-633.565	-6.367	0.089	0.061
-632.551	324.272	-0.054	-0.102
-631.536	281.145	-0.049	0.087
-630.522	-116.912	-0.157	-0.029
-629.507	-20.639	0.097	-0.060
-628.492	-200.000	-0.013	-0.121
-627.478	-168.598	-0.164	0.006
-626.463	109.900	-0.109	-0.130
-625.449	-26.155	0.201	-0.118
-624.434	-69.850	0.315	-0.120
-623.419	-5.140	-0.050	-0.034
-622.405	606.088	0.210	-0.522
-621.390	800.000	-0.114	-0.435
-620.376	-200.000	0.000	-0.064
-619.361	377.772	0.082	0.167
-618.346	-154.140	-0.250	0.017
-617.332	-200.000	-0.009	-0.283
-616.317	-200.000	-0.008	-0.226
-615.303	800.000	0.035	0.118
-614.288	-40.228	0.142	-0.074
-613.273	36.394	0.003	0.002
-612.259	800.000	-0.075	-0.303
-611.244	-123.303	-0.238	0.038
-610.230	-200.000	0.020	-0.348
-609.215	345.785	0.123	0.242
-608.201	-10.115	-0.167	-0.111
-607.186	-200.000	0.029	0.165
-606.171	800.000	0.047	0.153
-605.157	-77.395	-0.190	-0.066
-604.142	163.549	0.057	-0.080
-603.128	-117.247	-0.311	0.056
-602.113	800.000	0.011	0.047
-601.098	227.765	-0.133	0.216
-600.084	800.000	0.064	-0.278
-599.069	-200.000	-0.028	-0.221
-598.055	800.000	-0.064	0.244
-597.040	-200.000	0.010	0.062
-596.025	-200.000	-0.043	0.221
-595.011	-115.450	0.420	-0.079
-593.996	-192.249	0.249	-0.002
-592.982	-33.185	-0.341	0.189
-591.967	-127.947	0.193	0.028
-590.952	53.714	0.120	-0.115
-589.938	800.000	-0.045	-0.165
-588.923	-200.000	0.012	-0.162
-587.909	-200.000	-0.025	0.171
-586.894	800.000	0.045	-0.172
-585.879	515.503	0.122	-0.283
-584.865	13.525	-0.183	-0.142
-583.850	260.853	-0.184	0.316
-582.836	-37.698	-0.303	-0.161
-581.821	6.977	-0.170	-0.126
-580.806	-79.202	0.066	-0.022
-579.792	121.797	-0.067	0.084
-578.777	57.365	-0.163	0.159
-577.763	243.171	0.145	-0.242
-576.748	-200.000	0.027	0.157
-575.733	19.009	-0.027	0.022
-574.719	-200.000	0.002	0.015
-573.704	106.881	-0.067	0.079
-572.690	-44.520	-0.160	0.080
-571.675	-149.909	0.333	-0.026
-570.661	-25.024	0.160	-0.095
-569.646	-200.000	-0.017	0.099
-568.631	362.157	0.068	-0.135
-567.617	141.634	-0.062	-0.082
-566.602	21.705	-0.045	-0.036
-565.588	220.980	-0.131	-0.209
-564.573	208.749	-0.138	0.215
-563.558	-77.571	-0.244	-0.084
-562.544	-200.000	-0.012	-0.218
-561.529	392.334	-0.082	0.169
-560.515	-6.999	0.089	0.060
-559.500	800.000	-0.054	-0.155
-558.485	-200.000	-0.025	-0.133
-557.471	-84.671	-0.140	-0.044
-556.456	-57.450	0.277	0.121
-555.442	15.567	0.064	0.050
-554.427	-83.860	0.303	0.096
-553.412	57.507	-0.145	-0.141
-552.398	-167.653	0.277	0.011
-551.383	-200.000	-0.030	0.372
-550.369	-200.000	0.015	-0.115
-549.354	-200.000	-0.018	-0.115
-548.339	-189.365	-0.229	-0.003
-547.325	800.000	0.096	-0.320
-546.310	-134.288	0.183	-0.022
-545.296	-200.000	0.066	0.364
-544.281	-154.902	-0.075	-0.005
-543.266	-195.468	-0.123	0.001
-542.252	-66.606	-0.132	-0.052
-541.237	-126.948	-0.132	0.019
-540.223	462.148	-0.145	-0.321
-539.208	343.668	0.098	-0.190
-538.193	-92.118	0.324	-0.091
-537.179	7.817	-0.194	-0.144
-536.164	-55.590	-0.167	0.074
-535.150	-157.057	-0.122	-0.007
-534.135	535.253	0.085	-0.200
-533.121	-105.578	0.248	0.056
-532.106	-200.000	0.033	-0.212
-531.091	-118.025	0.314	0.056
-530.077	24.724	0.213	-0.176
-529.062	-156.027	0.150	-0.009
-528.048	-200.000	-0.018	0.177
-527.033	458.146	-0.117	0.259
-526.018	-172.114	-0.389	-0.012
-525.004	-17.449	0.385	-0.241
-523.989	493.583	-0.023	-0.053
-522.975	-183.984	0.125	0.002
-521.960	408.064	0.068	-0.144
-520.945	800.000	0.014	-0.055
-519.931	-57.206	0.386	0.169
-518.916	27.687	0.044	-0.037
-517.902	-200.000	0.033	-0.205
-516.887	-61.336	0.250	0.104
-515.872	800.000	0.009	-0.029
-514.858	-200.000	0.061	0.362
-513.843	-112.362	-0.256	-0.051
-512.829	60.101	0.160	-0.157
-511.814	-61.105	0.081	0.034
-510.799	800.000	-0.036	0.113
-509.785	7.016	-0.317	-0.235
-508.770	-200.000	-0.013	-0.169
-507.756	-200.000	-0.323	0.000
-506.741	-200.000	0.003	0.142
-505.726	122.967	0.253	0.315
-504.712	94.320	0.207	-0.234
-503.697	146.879	-0.175	0.234
-502.683	602.988	-0.089	-0.220
-501.668	-57.865	0.214	-0.093
-500.653	492.172	0.101	0.230
-499.639	444.753	-0.052	-0.113
-498.624	-97.705	-0.292	-0.075
-497.610	800.000	-0.119	0.351
-496.595	44.329	0.163	0.148
-495.581	800.000	0.026	-0.095
-494.566	-15.489	0.299	0.190
-493.551	-125.742	-0.271	-0.041
-492.537	5.589	-0.342	0.251
-491.522	-87.831	-0.125	0.037
-490.508	108.102	0.049	0.058
-489.493	15.139	-0.226	0.176
-488.478	634.642	-0.056	0.140
-487.464	-105.694	-0.336	-0.075
-486.449	-160.087	-0.118	-0.006
-485.435	-200.000	-0.024	0.168
-484.420	-167.495	-0.112	-0.004
-483.405	159.478	-0.124	-0.171
-482.391	-84.789	0.325	0.101
-481.376	-40.798	-0.277	0.142
-480.362	-105.793	-0.066	0.015
-479.347	86.416	0.370	0.404
-478.332	-54.850	-0.127	0.057
-477.318	-200.000	0.001	0.041
-476.303	31.856	-0.134	0.115
-475.289	-5.955	0.337	-0.229
-474.274	-108.707	0.205	-0.044
-473.259	221.879	-0.042	0.067
-472.245	-200.000	0.054	-0.251
-471.230	166.169	-0.118	-0.165
-470.216	-72.347	-0.313	-0.115
-469.201	-130.615	0.131	0.017
-468.186	-157.334	0.030	-0.002
-467.172	216.092	0.168	-0.264
-466.157	43.798	-0.282	0.256
-465.143	-147.497	-0.200	-0.017
-464.128	210.975	-0.051	-0.080
-463.113	-58.068	0.083	0.036
-462.099	-200.000	0.040	-0.209
-461.084	-31.957	0.354	-0.197
-460.070	340.763	-0.269	-0.521
-459.055	6.831	0.185	0.136
-458.040	184.681	0.043	-0.063
-457.026	-90.993	0.072	0.020
-456.011	-116.220	-0.300	0.055
-454.997	-123.466	-0.236	0.037
-453.982	96.413	0.085	-0.096
-452.968	-200.000	0.031	0.231
-451.953	20.942	-0.138	-0.111
-450.938	101.609	-0.230	-0.266
-449.924	14.582	-0.090	0.070
-448.909	230.105	-0.092	0.149
-447.895	221.139	-0.197	0.313
-446.880	-78.277	-0.235	-0.080
-445.865	493.798	-0.144	-0.328
-444.851	217.787	-0.067	0.106
-443.836	-18.037	-0.178	-0.110
-442.822	40.448	0.028	0.025
-441.807	-200.000	0.016	0.118
-440.792	3.780	0.299	-0.216
-439.778	132.943	0.168	-0.215
-438.763	397.675	0.068	0.141
-437.749	108.508	0.049	0.058
-436.734	267.468	-0.081	-0.141
-435.719	-103.615	0.263	-0.061
-434.705	-126.553	-0.194	-0.028
-433.690	-28.337	0.179	-0.103
-432.676	-39.621	0.092	0.048
-431.661	-135.448	-0.109	0.013
-430.646	7.017	0.077	0.057
-429.632	-5.906	0.148	0.100
-428.617	13.778	0.196	0.151
-427.603	-200.000	-0.016	-0.089
-426.588	800.000	0.056	-0.200
-425.573	800.000	0.026	-0.104
-424.559	210.990	-0.078	0.121
-423.544	-200.000	0.008	0.358
-422.530	-128.474	-0.132	0.019
-421.515	282.030	-0.122	0.217
-420.500	706.870	0.093	-0.242
-419.486	422.481	-0.020	-0.043
-418.471	-200.000	0.006	-0.049
-417.457	800.000	-0.032	0.130
-416.442	2.107	0.459	0.328
-415.428	-51.661	0.224	-0.103
-414.413	-200.000	0.027	-0.163
-413.398	-130.866	-0.123	-0.016
-412.384	-130.933	-0.209	-0.028
-411.369	552.662	-0.026	0.063
-410.355	-200.000	0.066	0.315
-409.340	-30.020	-0.133	-0.075
-408.325	25.376	-0.108	-0.089
-407.311	800.000	-0.039	-0.168
-406.296	-1.575	0.102	0.071
-405.282	207.226	-0.064	-0.098
-404.267	-200.000	-0.001	0.212
-403.252	47.757	0.241	-0.222
-402.238	148.575	-0.088	0.117
-401.223	-115.287	0.129	0.024
-400.209	-27.235	0.261	0.151
-399.194	-101.413	-0.168	0.040
-398.179	800.000	-0.026	0.101
-397.165	706.339	0.084	-0.220
-396.150	800.000	0.041	-0.116
-395.136	-36.605	-0.173	0.092
-394.121	-97.622	0.298	-0.076
-393.106	-13.831	0.117	-0.075
-392.092	727.842	-0.083	0.218
-391.077	88.155	0.168	0.184
-390.063	-1.075	0.435	0.304
-389.048	-20.779	0.232	0.141
-388.033	800.000	0.093	-0.255
-387.019	13.759	-0.262	0.202
-386.004	17.057	0.092	-0.072
-384.990	-143.967	-0.219	0.020
-383.975	800.000	-0.044	0.184
-382.960	84.927	-0.149	0.162
-381.946	-200.000	-0.028	0.239
-380.931	108.415	-0.034	-0.040
-379.917	800.000	-0.127	-0.364
-378.902	-200.000	0.004	0.103
-377.888	172.551	0.039	0.056
-376.873	45.322	-0.121	-0.110
-375.858	-25.990	0.189	0.110
-374.844	172.462	-0.139	-0.197
-373.829	-200.000	-0.018	0.141
-372.815	-165.720	0.195	0.008
-371.800	-200.000	0.005	0.151
-370.785	567.492	0.064	-0.155
-369.771	-200.000	0.041	0.217
-368.756	-64.654	0.140	0.056
-367.742	-59.644	0.323	0.137
-366.727	26.065	0.291	0.240
-365.712	800.000	0.146	-0.475
-364.698	-84.003	0.211	-0.066
-363.683	-97.279	-0.142	-0.037
-362.669	800.000	0.111	-0.389
-361.654	55.445	-0.128	-0.122
-360.639	-155.618	-0.439	-0.028
-359.625	800.000	0.141	0.422
-358.610	100.003	-0.286	0.327
-357.596	-84.367	0.071	0.022
-356.581	-200.000	-0.005	-0.036
-355.566	4.243	-0.074	0.054
-354.552	25.977	0.127	-0.105
-353.537	37.119	0.095	-0.083
-352.523	-51.285	-0.114	-0.053
-351.508	-88.789	-0.362	-0.106
-350.493	-73.956	-0.115	0.041
-349.479	39.912	0.259	-0.229
-348.464	610.414	-0.107	0.263
-347.450	-200.000	0.026	0.208
-346.435	4.855	0.197	-0.143
-345.420	-200.000	-0.021	0.108
-344.406	-125.098	-0.286	0.043
-343.391	-91.350	0.191	-0.054
-342.377	44.176	0.021	-0.019
-341.362	13.546	-0.105	0.081
-340.348	800.000	-0.079	0.271
-339.333	-200.000	-0.027	0.147
-338.318	-200.000	-0.051	-0.331
-337.304	-161.574	0.208	0.011
-336.289	13.518	0.245	-0.188
-335.275	-98.836	0.370	-0.093
-334.260	800.000	-0.124	0.412
-333.245	329.950	-0.079	0.151
-332.231	452.491	0.068	0.148
-331.216	751.937	-0.098	-0.260
-330.202	407.702	0.221	0.462
-329.187	267.535	0.160	-0.277
-328.172	-141.602	0.152	-0.015
-327.158	127.594	-0.180	0.225
-326.143	8.785	-0.135	0.101
-325.129	-200.000	-0.010	0.159
-324.114	-147.816	-0.324	0.027
-323.099	800.000	-0.069	0.237
-322.085	133.017	-0.014	0.017
-321.070	131.948	-0.040	-0.051
-320.056	-92.925	0.439	0.121
-319.041	474.207	-0.073	0.163
-318.026	-23.254	-0.105	-0.062
-317.012	95.758	-0.137	0.154
-315.997	11.621	-0.483	0.365
-314.983	-85.773	-0.065	0.020
-313.968	800.000	0.006	-0.026
-312.953	-77.421	0.285	0.098
-311.939	-156.490	-0.094	-0.006
-310.924	282.219	0.163	0.289
-309.910	-200.000	-0.017	0.115
-308.895	278.829	-0.149	0.262
-307.880	-200.000	-0.005	0.075
-306.866	-132.684	0.189	-0.024
-305.851	69.928	-0.099	0.101
-304.837	613.739	0.101	-0.250
-303.822	180.272	0.188	0.272
-302.807	800.000	-0.091	0.356
-301.793	-136.088	-0.449	-0.052
-300.778	-200.000	0.016	-0.157
-299.764	-114.517	0.260	-0.049
-298.749	-29.059	-0.349	-0.197
-297.735	-197.826	0.497	-0.003
-296.720	-200.000	0.028	0.650
-295.705	66.130	0.083	0.083
-294.691	-122.926	0.213	-0.034
-293.676	-60.331	0.420	0.176
-292.662	-200.000	-0.037	0.278
-291.647	-91.219	0.076	0.022
-290.632	-79.375	-0.143	-0.048
-289.618	390.641	-0.143	0.293
-288.603	-92.335	-0.209	-0.058
-287.589	618.570	-0.107	-0.265
-286.574	-143.341	-0.265	0.025
-285.559	-200.000	-0.004	-0.082
-284.545	130.893	-0.223	-0.282
-283.530	-200.000	-0.044	0.342
-282.516	765.289	0.052	-0.138
-281.501	0.359	0.121	0.085
-280.486	800.000	0.084	-0.271
-279.472	395.549	0.126	0.258
-278.457	16.938	0.329	-0.256
-277.443	-110.601	-0.433	-0.088
-276.428	340.280	0.049	-0.093
-275.413	178.490	0.080	-0.115
-274.399	-81.949	0.150	-0.048
-273.384	153.687	-0.179	0.241
-272.370	-129.519	0.024	0.003
-271.355	0.335	0.130	-0.091
-270.340	-75.203	0.044	-0.015
-269.326	-200.000	0.018	0.148
-268.311	306.221	-0.047	-0.085
-267.297	-200.000	0.017	-0.276
-266.282	15.800	-0.095	-0.074
-265.267	144.655	0.171	0.225
-264.253	-200.000	0.013	-0.074
-263.238	30.995	-0.222	-0.187
-262.224	-63.135	0.228	0.092
-261.209	-200.000	0.012	0.072
-260.195	-114.430	-0.168	0.032
-259.180	776.515	-0.166	0.445
-258.165	6.254	-0.058	0.042
-257.151	-76.944	0.330	0.113
-256.136	800.000	0.080	0.227
-255.122	-200.000	0.038	-0.297
-254.107	-57.550	0.189	0.082
-253.092	235.502	-0.108	-0.176
-252.078	24.074	0.232	-0.188
-251.063	-133.483	0.079	-0.010
-250.049	-200.000	-0.033	-0.144
-249.034	800.000	-0.090	0.264
-248.019	42.697	-0.148	0.132
-247.005	800.000	0.083	-0.233
-245.990	-68.740	-0.157	-0.060
-244.976	-200.000	-0.039	0.173
-243.961	515.983	-0.083	0.190
-242.946	227.506	0.144	-0.231
-241.932	-72.624	-0.129	0.047
-240.917	-71.932	0.304	-0.111
-239.903	-30.803	-0.160	0.089
-238.888	-200.000	0.019	-0.240
-237.873	-31.885	-0.483	-0.266
-236.859	-134.103	-0.143	-0.017
-235.844	-145.666	-0.177	-0.016
-234.830	632.135	0.158	-0.393
-233.815	156.041	0.284	0.385
-232.800	288.746	-0.119	0.213
-231.786	406.608	-0.227	-0.470
-230.771	-22.648	-0.313	0.186
-229.757	-47.915	-0.107	0.051
-228.742	654.766	0.139	0.350
-227.727	800.000	0.021	-0.067
-226.713	-105.402	0.167	-0.037
-225.698	350.269	-0.072	0.140
-224.684	-102.877	0.123	0.029
-223.669	610.889	0.111	0.272
-222.655	-200.000	0.018	0.171
-221.640	800.000	-0.044	-0.124
-220.625	-84.356	-0.116	-0.036
-219.611	33.958	0.222	-0.190
-218.596	364.202	-0.036	-0.072
-217.582	800.000	-0.109	-0.298
-216.567	345.290	-0.177	0.342
-215.552	24.273	0.127	0.103
-214.538	-102.107	0.210	-0.050
-213.523	-105.034	-0.434	0.098
-212.509	10.240	-0.129	0.096
-211.494	176.380	0.074	-0.105
-210.479	800.000	0.064	-0.176
-209.465	234.413	0.055	-0.089
-208.450	254.942	0.023	0.039
-207.436	-99.995	-0.024	0.006
-206.421	-24.319	-0.107	-0.063
-205.406	-105.670	0.183	-0.041
-204.392	-136.293	0.265	-0.030
-203.377	800.000	-0.084	-0.234
-202.363	703.874	-0.126	0.327
-201.348	-200.000	-0.009	-0.196
-200.333	-105.606	-0.177	0.039
-199.319	-32.258	0.209	0.115
-198.304	-200.000	-0.024	-0.186
-197.290	662.008	-0.099	0.251
-196.275	-200.000	-0.017	0.125
-195.260	267.857	-0.006	0.011
-194.246	-98.698	-0.128	0.032
-193.231	-88.011	-0.210	0.062
-192.217	-120.739	0.203	-0.034
-191.202	-12.187	-0.323	-0.208
-190.187	-59.869	0.265	0.111
-189.173	800.000	0.144	0.436
-188.158	-200.000	0.025	-0.308
-187.144	-90.812	0.104	-0.030
-186.129	-105.304	-0.167	-0.037
-185.114	-6.903	-0.314	0.210
-184.100	49.605	0.189	-0.175
-183.085	800.000	-0.016	0.063
-182.071	-200.000	-0.023	0.127
-181.056	-200.000	0.033	-0.172
-180.042	800.000	0.114	-0.365
-179.027	7.497	0.115	-0.084
-178.012	-0.088	-0.213	-0.149
-176.998	-134.710	0.253	0.030
-175.983	-107.122	0.240	-0.052
-174.969	-6.170	0.283	0.189
-173.954	408.995	-0.124	0.257
-172.939	186.878	-0.070	-0.102
-171.925	-200.000	-0.038	0.458
-170.910	-127.630	0.266	0.038
-169.896	-54.851	0.172	-0.076
-168.881	-84.044	0.316	-0.098
-167.866	-88.146	-0.168	-0.049
-166.852	84.142	0.088	-0.094
-165.837	-200.000	0.003	0.076
-164.823	-118.070	-0.346	-0.061
-163.808	387.160	-0.099	0.201
-162.793	-200.000	-0.020	-0.112
-161.779	270.944	0.116	-0.200
-160.764	216.069	0.035	0.054
-159.750	-11.978	-0.099	-0.064
-158.735	176.702	0.188	-0.268
-157.720	508.030	-0.134	0.305
-156.706	59.813	-0.218	0.211
-155.691	800.000	-0.038	0.122
-154.677	415.121	-0.144	-0.300
-153.662	-70.845	-0.337	-0.124
-152.647	14.522	-0.270	0.206
-151.633	-200.000	-0.009	-0.107
-150.618	29.154	0.030	0.025
-149.604	546.531	0.085	0.198
-148.589	-86.708	-0.294	-0.088
-147.574	-200.000	-0.046	-0.249
-146.560	37.581	-0.196	0.170
-145.545	58.590	0.182	-0.175
-144.531	-200.000	0.002	0.204
-143.516	-200.000	0.035	-0.267
-142.502	314.245	-0.064	-0.119
-141.487	17.670	0.476	0.370
-140.472	-200.000	-0.009	-0.094
-139.458	-200.000	-0.044	0.241
-138.443	70.844	-0.064	-0.065
-137.429	-131.837	-0.107	0.014
-136.414	316.093	-0.092	-0.170
-135.399	84.026	0.036	-0.039
-134.385	-200.000	-0.017	0.122
-133.370	-200.000	0.015	0.157
-132.356	91.343	-0.098	0.108
-131.341	-110.239	-0.200	-0.041
-130.326	177.802	0.203	0.289
-129.312	-67.103	-0.058	0.022
-128.297	32.358	-0.245	-0.207
-127.283	94.192	0.031	-0.034
-126.268	-48.408	-0.199	-0.094
-125.253	-200.000	0.003	0.102
-124.239	523.465	0.041	-0.094
-123.224	-35.685	-0.179	-0.095
-122.210	-36.890	0.083	0.044
