DTS Sentinel unit serial number:	SN413079Multiplexer serial number:	ORYXHardware model number:	OX4-SRSoftware version number:	ORYX F/W v4.00 Oryx Data Collector v3.7.2.0data status	okinstallation	princeton_trtdifferential loss correction	single-endedforward channel	channel 4reverse channel	N/Adate	2019/09/17time	05:01:34forward acquisition time	60.00reverse acquisition time	0.00gamma	496.2192k internal	0.2313k external	0.2313temperature offset calibration	0.9977default loss term (dB/km)	0.3790temperature slope calibration	1.0000multiplexer offset coefficient	1.0000multiplexer slope coefficient	1.0000fibre end	0.00T internal ref (°C)	29.50T ext. ref 1 (°C)	0.14T ext. ref 2 (°C)	23.92length (m)	temperature (°C)	Stokes	anti-Stokes-747.200	800.000	0.111	0.383
-746.185	90.237	-0.385	0.437
-745.171	-200.000	0.059	0.403
-744.156	-62.702	-0.243	-0.102
-743.142	151.039	-0.117	0.162
-742.127	-95.620	0.102	-0.028
-741.112	-107.298	-0.421	0.094
-740.098	374.702	0.164	0.338
-739.083	-125.479	-0.172	0.027
-738.069	427.676	-0.204	0.448
-737.054	59.862	-0.218	-0.218
-736.039	-97.713	-0.262	0.069
-735.025	-2.106	0.134	-0.095
-734.010	149.639	-0.017	0.023
-732.996	139.878	-0.119	0.159
-731.981	-120.620	-0.157	0.027
-730.966	-200.000	-0.047	0.236
-729.952	-45.268	-0.249	0.125
-728.937	14.311	0.026	0.020
-727.923	770.403	0.015	-0.042
-726.908	800.000	0.039	-0.130
-725.894	-200.000	0.001	-0.114
-724.879	-60.759	-0.167	-0.072
-723.864	-28.533	-0.062	-0.036
-722.850	-200.000	-0.007	-0.322
-721.835	147.549	-0.209	-0.286
-720.821	-200.000	-0.050	-0.478
-719.806	-61.302	0.027	0.012
-718.791	-135.823	-0.203	-0.024
-717.777	281.050	0.077	-0.140
-716.762	-69.006	-0.190	-0.074
-715.748	800.000	-0.041	0.120
-714.733	77.755	-0.051	0.055
-713.718	414.559	0.101	-0.217
-712.704	92.175	-0.064	0.073
-711.689	800.000	0.025	-0.090
-710.675	73.151	-0.070	-0.074
-709.660	-200.000	-0.000	0.197
-708.645	69.392	-0.101	-0.105
-707.631	609.436	0.203	-0.515
-706.616	55.265	0.162	-0.159
-705.602	464.505	0.060	0.136
-704.587	-119.556	0.213	0.037
-703.572	135.203	-0.154	-0.203
-702.558	345.168	0.088	-0.175
-701.543	-72.336	-0.320	0.120
-700.529	85.522	0.184	0.205
-699.514	-153.649	-0.120	0.008
-698.499	-200.000	0.032	0.162
-697.485	-149.859	-0.029	0.002
-696.470	156.535	0.026	0.037
-695.456	28.183	-0.196	-0.167
-694.441	136.952	0.148	-0.196
-693.426	49.076	0.116	0.110
-692.412	163.770	0.073	-0.104
-691.397	47.643	-0.149	0.141
-690.383	-144.375	-0.229	0.022
-689.368	800.000	-0.092	0.300
-688.354	-187.527	0.262	-0.004
-687.339	-58.397	0.312	0.137
-686.324	-155.566	-0.211	-0.014
-685.310	58.544	0.230	-0.229
-684.295	-200.000	0.016	-0.267
-683.281	351.973	-0.061	-0.122
-682.266	-138.068	0.321	-0.036
-681.251	-200.000	0.027	0.351
-680.237	138.831	-0.281	0.373
-679.222	-200.000	-0.019	-0.177
-678.208	83.237	0.054	0.059
-677.193	-200.000	0.018	0.189
-676.178	27.127	-0.272	-0.231
-675.164	487.334	0.189	-0.436
-674.149	-11.556	-0.525	-0.349
-673.135	88.119	0.107	0.121
-672.120	63.711	-0.040	0.041
-671.105	-102.651	0.379	-0.091
-670.091	123.906	0.049	-0.062
-669.076	117.353	0.148	0.184
-668.062	800.000	-0.037	0.141
-667.047	206.201	-0.077	-0.120
-666.032	-14.627	-0.241	0.157
-665.018	-42.537	-0.163	0.084
-664.003	215.845	0.061	-0.098
-662.989	-200.000	-0.022	0.117
-661.974	-22.454	0.284	0.174
-660.959	-200.000	-0.062	-0.432
-659.945	-133.288	0.447	0.057
-658.930	37.892	-0.102	0.092
-657.916	800.000	-0.083	-0.275
-656.901	137.746	0.075	-0.099
-655.886	-200.000	0.012	-0.075
-654.872	800.000	0.027	-0.078
-653.857	-116.183	-0.078	-0.015
-652.843	-13.926	-0.123	-0.080
-651.828	-200.000	-0.026	0.298
-650.814	-21.695	-0.266	-0.163
-649.799	-14.878	-0.485	0.315
-648.784	110.323	-0.089	0.108
-647.770	288.675	-0.148	0.272
-646.755	-200.000	0.027	-0.170
-645.741	-97.144	-0.317	-0.084
-644.726	-200.000	0.011	-0.082
-643.711	800.000	-0.068	-0.217
-642.697	149.303	-0.075	-0.103
-641.682	119.725	0.159	-0.199
-640.668	-131.090	-0.679	-0.091
-639.653	-200.000	0.013	0.233
-638.638	-46.798	-0.019	0.010
-637.624	158.379	0.194	0.272
-636.609	-57.704	0.177	-0.078
-635.595	175.234	-0.127	-0.186
-634.580	-85.902	0.306	-0.096
-633.565	483.952	0.081	-0.186
-632.551	367.114	0.099	0.202
-631.536	-159.394	-0.168	-0.009
-630.522	800.000	0.126	-0.523
-629.507	-11.591	-0.135	-0.090
-628.492	-81.333	-0.068	-0.023
-627.478	800.000	0.102	0.298
-626.463	-128.498	-0.162	-0.023
-625.449	-143.165	-0.116	0.011
-624.434	-200.000	-0.006	0.213
-623.419	-88.466	0.297	-0.089
-622.405	-28.644	-0.203	0.118
-621.390	-14.396	-0.134	0.087
-620.376	-45.675	0.320	0.160
-619.361	800.000	-0.013	-0.054
-618.346	-25.004	0.052	0.031
-617.332	-81.194	0.163	-0.054
-616.317	-168.116	0.486	-0.019
-615.303	800.000	-0.103	-0.291
-614.288	-32.210	0.234	-0.132
-613.273	198.513	0.120	0.185
-612.259	-16.196	-0.251	-0.161
-611.244	-141.070	-0.153	-0.016
-610.230	-21.807	-0.150	0.092
-609.215	-149.268	-0.164	0.013
-608.201	-82.497	0.207	0.068
-607.186	-200.000	0.071	-0.435
-606.171	-28.061	-0.239	-0.139
-605.157	63.450	0.048	0.048
-604.142	-200.000	-0.054	-0.324
-603.128	-161.351	0.167	-0.009
-602.113	-41.182	0.020	-0.010
-601.098	-200.000	-0.022	-0.156
-600.084	272.876	0.102	-0.182
-599.069	-200.000	0.052	0.438
-598.055	5.766	-0.197	0.147
-597.040	-33.350	-0.146	0.082
-596.025	-200.000	-0.029	-0.160
-595.011	94.112	-0.153	0.176
-593.996	800.000	0.038	-0.157
-592.982	479.201	-0.066	-0.151
-591.967	-200.000	0.028	0.220
-590.952	35.473	0.179	0.159
-589.938	-98.432	0.086	0.022
-588.923	-200.000	-0.015	0.142
-587.909	-157.946	-0.275	0.016
-586.894	220.131	-0.191	-0.308
-585.879	-200.000	0.040	-0.206
-584.865	-66.928	0.130	0.052
-583.850	599.664	0.141	0.352
-582.836	232.697	-0.119	-0.198
-581.821	303.216	0.115	-0.214
-580.806	-18.398	-0.325	-0.205
-579.792	-200.000	-0.039	-0.295
-578.777	137.097	-0.071	-0.093
-577.763	800.000	-0.108	-0.410
-576.748	800.000	-0.052	-0.204
-575.733	-152.070	0.219	0.016
-574.719	-200.000	-0.002	0.023
-573.704	64.284	0.191	-0.194
-572.690	-29.887	-0.198	-0.114
-571.675	71.022	0.261	0.272
-570.661	120.587	0.027	-0.034
-569.646	800.000	-0.033	-0.142
-568.631	-110.272	-0.229	-0.048
-567.617	-131.797	-0.281	0.037
-566.602	42.049	0.146	0.133
-565.588	32.039	-0.107	-0.093
-564.573	-191.511	-0.174	-0.002
-563.558	-175.125	0.214	0.006
-562.544	163.047	0.231	0.327
-561.529	-44.725	0.204	-0.103
-560.515	21.996	-0.088	0.072
-559.500	296.100	0.102	-0.188
-558.485	800.000	-0.073	-0.219
-557.471	-200.000	-0.043	0.278
-556.456	317.269	0.175	-0.334
-555.442	157.022	-0.083	0.116
-554.427	-104.954	-0.322	-0.074
-553.412	-120.530	0.283	-0.048
-552.398	195.554	0.150	0.230
-551.383	87.166	0.153	0.170
-550.369	400.349	0.153	-0.324
-549.354	24.755	-0.113	0.094
-548.339	-200.000	-0.010	0.128
-547.325	-115.199	0.245	0.047
-546.310	331.997	0.161	0.312
-545.296	-16.980	-0.420	0.267
-544.281	-200.000	-0.045	-0.211
-543.266	-200.000	-0.012	0.193
-542.252	372.843	0.181	0.370
-541.237	641.140	-0.114	0.291
-540.223	307.752	0.214	-0.401
-539.208	76.791	0.227	-0.242
-538.193	-200.000	-0.020	-0.123
-537.179	800.000	-0.034	-0.111
-536.164	800.000	0.041	0.178
-535.150	-200.000	-0.003	-0.212
-534.135	40.806	-0.111	-0.100
-533.121	-80.211	-0.157	0.053
-532.106	225.219	0.062	0.101
-531.091	-200.000	0.058	0.352
-530.077	-200.000	0.050	0.252
-529.062	-145.094	0.281	-0.026
-528.048	-94.959	0.277	-0.075
-527.033	146.227	0.016	0.022
-526.018	800.000	0.055	0.177
-525.004	43.635	-0.180	0.165
-523.989	-18.995	-0.158	-0.099
-522.975	800.000	0.052	-0.212
-521.960	800.000	-0.034	-0.138
-520.945	154.752	0.124	0.171
-519.931	415.638	-0.045	0.096
-518.916	-19.579	0.096	-0.060
-517.902	51.679	-0.168	0.161
-516.887	289.612	-0.094	0.171
-515.872	203.441	-0.082	-0.128
-514.858	-170.535	-0.137	0.005
-513.843	43.135	0.356	-0.327
-512.829	-131.912	-0.141	-0.018
-511.814	-200.000	-0.032	0.251
-510.799	-200.000	0.022	0.102
-509.785	89.598	-0.143	0.161
-508.770	730.086	-0.062	0.167
-507.756	-200.000	0.004	0.246
-506.741	58.374	-0.197	0.194
-505.726	362.735	-0.120	0.242
-504.712	-80.393	-0.254	-0.085
-503.697	-87.709	-0.246	-0.075
-502.683	148.904	-0.231	0.314
-501.668	-78.235	-0.189	0.065
-500.653	510.886	-0.091	-0.212
-499.639	33.295	0.159	-0.139
-498.624	-42.593	0.077	0.039
-497.610	-165.540	0.183	0.008
-496.595	800.000	-0.072	-0.277
-495.581	293.203	-0.104	0.191
-494.566	209.982	-0.119	-0.188
-493.551	-200.000	0.004	-0.044
-492.537	1.684	-0.299	-0.216
-491.522	-200.000	0.015	-0.132
-490.508	52.791	0.173	0.166
-489.493	-200.000	-0.041	0.194
-488.478	-107.321	-0.196	-0.043
-487.464	-116.448	0.267	-0.049
-486.449	-23.406	-0.080	-0.048
-485.435	-88.250	-0.050	0.015
-484.420	800.000	0.032	-0.117
-483.405	25.829	0.313	-0.262
-482.391	800.000	0.025	-0.079
-481.376	-200.000	-0.002	-0.174
-480.362	-138.685	-0.191	-0.021
-479.347	180.973	-0.235	0.347
-478.332	-200.000	0.004	-0.081
-477.318	-71.030	0.134	-0.051
-476.303	800.000	-0.058	0.212
-475.289	-200.000	0.035	-0.287
-474.274	-87.643	0.163	0.049
-473.259	231.189	0.111	-0.183
-472.245	256.352	0.085	-0.147
-471.230	70.422	0.303	-0.315
-470.216	16.611	0.187	-0.149
-469.201	-200.000	-0.029	-0.206
-468.186	56.818	-0.288	0.281
-467.172	-102.732	-0.266	-0.064
-466.157	-136.313	0.127	-0.015
-465.143	123.954	-0.133	0.168
-464.128	29.037	-0.197	-0.167
-463.113	-42.720	-0.362	0.185
-462.099	99.105	0.094	-0.109
-461.084	-200.000	0.002	-0.354
-460.070	16.524	0.080	-0.064
-459.055	2.176	0.139	0.101
-458.040	218.168	0.072	0.115
-457.026	800.000	-0.114	-0.467
-456.011	800.000	-0.133	-0.537
-454.997	-187.562	-0.213	0.003
-453.982	-19.681	0.206	0.128
-452.968	-200.000	-0.028	0.298
-451.953	-200.000	-0.049	-0.361
-450.938	800.000	0.112	0.336
-449.924	-200.000	-0.022	0.184
-448.909	414.184	-0.146	-0.311
-447.895	1.691	0.047	-0.034
-446.880	103.852	-0.094	-0.111
-445.865	-97.001	0.248	-0.065
-444.851	243.496	0.139	0.234
-443.836	-200.000	0.005	-0.407
-442.822	108.487	0.258	-0.309
-441.807	8.363	0.284	0.214
-440.792	49.865	-0.132	0.125
-439.778	214.402	-0.102	0.161
-438.763	-200.000	0.026	0.136
-437.749	647.388	-0.104	-0.266
-436.734	800.000	-0.056	-0.245
-435.719	450.006	0.083	0.183
-434.705	311.796	0.115	0.217
-433.690	45.115	0.109	0.101
-432.676	53.741	-0.165	-0.159
-431.661	800.000	-0.041	-0.157
-430.646	279.375	-0.167	0.299
-429.632	-30.628	0.158	-0.089
-428.617	-200.000	0.019	0.295
-427.603	-76.991	0.133	0.047
-426.588	51.547	0.146	0.139
-425.573	148.352	-0.204	-0.276
-424.559	800.000	-0.068	0.252
-423.544	-200.000	0.012	-0.162
-422.530	-200.000	0.032	-0.198
-421.515	454.316	0.083	0.185
-420.500	-189.330	0.212	-0.003
-419.486	-34.365	0.371	0.204
-418.471	-122.787	0.130	0.021
-417.457	800.000	0.014	-0.058
-416.442	783.350	0.045	-0.123
-415.428	-20.581	0.171	0.105
-414.413	-122.139	0.179	0.029
-413.398	-91.480	-0.107	0.031
-412.384	112.415	0.146	-0.176
-411.369	542.413	-0.112	-0.267
-410.355	53.979	0.151	0.145
-409.340	-7.185	0.213	-0.145
-408.325	-200.000	0.082	-0.400
-407.311	24.650	-0.067	0.055
-406.296	-200.000	0.048	-0.343
-405.282	-200.000	-0.104	0.533
-404.267	-6.651	-0.150	0.102
-403.252	-68.440	-0.204	0.079
-402.238	-56.564	0.159	0.071
-401.223	-200.000	0.319	-0.001
-400.209	-154.230	0.149	-0.010
-399.194	20.320	-0.255	0.206
-398.179	500.955	-0.171	-0.395
-397.165	800.000	-0.108	0.305
-396.150	10.259	0.150	-0.115
-395.136	188.604	-0.166	-0.248
-394.121	-200.000	-0.005	0.382
-393.106	78.703	-0.204	-0.218
-392.092	800.000	0.026	-0.071
-391.077	-200.000	0.013	0.178
-390.063	-62.436	0.107	-0.045
-389.048	778.236	-0.075	-0.206
-388.033	6.521	0.165	-0.123
-387.019	293.206	-0.101	-0.184
-386.004	627.883	0.009	0.023
-384.990	48.049	-0.262	-0.245
-383.975	99.838	-0.264	-0.306
-382.960	-146.299	-0.386	0.034
-381.946	-200.000	-0.050	-0.261
-380.931	301.543	0.124	0.229
-379.917	-141.588	0.215	0.022
-378.902	170.760	0.158	0.227
-377.888	370.413	-0.042	0.085
-376.873	217.253	-0.072	-0.115
-375.858	800.000	-0.047	-0.205
-374.844	-200.000	-0.010	-0.332
-373.829	25.647	0.207	-0.173
-372.815	-101.824	-0.151	-0.037
-371.800	454.124	-0.142	0.313
-370.785	276.931	0.154	0.274
-369.771	-105.205	-0.305	0.070
-368.756	-113.855	0.183	0.035
-367.742	800.000	-0.063	-0.180
-366.727	-68.861	0.276	0.106
-365.712	132.619	-0.083	0.107
-364.698	-101.414	-0.200	-0.049
-363.683	-200.000	-0.012	-0.125
-362.669	135.557	0.181	-0.235
-361.654	312.998	0.066	-0.124
-360.639	-54.188	-0.231	-0.105
-359.625	-36.046	0.283	0.153
-358.610	-200.000	-0.006	-0.130
-357.596	-200.000	-0.034	-0.201
-356.581	682.994	-0.082	-0.214
-355.566	314.365	0.027	0.050
-354.552	-14.330	0.292	-0.188
-353.537	245.760	0.219	-0.368
-352.523	-61.346	-0.319	0.134
-351.508	-200.000	0.029	-0.139
-350.493	140.832	0.075	-0.099
-349.479	351.103	0.003	-0.007
-348.464	800.000	0.084	0.336
-347.450	-200.000	0.002	-0.027
-346.435	-200.000	0.029	0.160
-345.420	-200.000	0.011	0.094
-344.406	-20.079	-0.086	0.053
-343.391	188.888	-0.120	0.179
-342.377	-200.000	-0.054	0.281
-341.362	-36.779	0.207	0.111
-340.348	-200.000	0.049	-0.271
-339.333	-68.030	-0.190	-0.074
-338.318	33.904	-0.351	0.305
-337.304	800.000	0.100	0.321
-336.289	-137.013	0.499	-0.057
-335.275	368.255	0.135	-0.273
-334.260	-21.467	-0.200	-0.122
-333.245	-200.000	0.011	0.302
-332.231	800.000	0.067	-0.222
-331.216	-64.638	0.335	-0.135
-330.202	29.532	0.060	0.051
-329.187	-75.247	-0.134	0.048
-328.172	520.095	-0.058	0.135
-327.158	-200.000	-0.012	-0.064
-326.143	-200.000	-0.007	-0.479
-325.129	-19.930	-0.325	-0.200
-324.114	55.982	0.118	0.114
-323.099	-198.911	0.051	-0.000
-322.085	132.348	-0.094	0.121
-321.070	-200.000	0.013	0.225
-320.056	181.506	0.108	-0.159
-319.041	800.000	-0.088	0.319
-318.026	10.358	0.319	-0.242
-317.012	32.130	-0.179	-0.154
-315.997	-14.981	0.293	0.188
-314.983	44.021	-0.076	0.069
-313.968	140.359	0.105	-0.139
-312.953	20.446	-0.094	-0.076
-311.939	210.882	0.158	0.248
-310.924	395.691	0.032	-0.066
-309.910	537.208	0.150	0.356
-308.895	-113.957	0.270	-0.052
-307.880	70.195	-0.060	0.062
-306.866	-41.758	-0.047	0.024
-305.851	-175.397	0.258	0.007
-304.837	-56.661	0.161	0.071
-303.822	-79.684	0.180	-0.061
-302.807	159.135	-0.076	-0.105
-301.793	-200.000	0.004	0.096
-300.778	800.000	0.078	0.249
-299.764	800.000	-0.007	0.030
-298.749	-191.824	-0.199	0.002
-297.735	-200.000	0.026	0.153
-296.720	-200.000	-0.010	-0.188
-295.705	181.463	-0.101	0.148
-294.691	19.773	-0.147	-0.118
-293.676	291.312	0.105	-0.191
-292.662	-200.000	0.001	0.054
-291.647	18.339	-0.275	0.219
-290.632	300.279	-0.128	0.235
-289.618	-200.000	-0.020	-0.416
-288.603	220.701	-0.102	0.163
-287.589	-118.873	0.096	0.017
-286.574	800.000	0.072	-0.252
-285.559	800.000	0.029	-0.110
-284.545	28.175	0.263	-0.222
-283.530	800.000	-0.062	-0.218
-282.516	-36.469	0.361	-0.194
-281.501	-117.209	0.141	0.026
-280.486	0.924	-0.141	0.101
-279.472	291.977	-0.177	-0.321
-278.457	800.000	-0.138	-0.479
-277.443	98.489	0.340	-0.390
-276.428	267.382	-0.092	0.160
-275.413	-5.293	-0.213	0.146
-274.399	-200.000	-0.046	0.213
-273.384	54.004	-0.164	0.157
-272.370	800.000	-0.086	0.294
-271.355	800.000	-0.083	0.266
-270.340	140.448	0.200	-0.263
-269.326	153.359	-0.237	-0.323
-268.311	-61.163	-0.119	-0.050
-267.297	117.882	-0.361	0.443
-266.282	-7.805	0.185	-0.124
-265.267	-200.000	-0.024	0.121
-264.253	-5.655	-0.128	0.087
-263.238	-200.000	0.013	-0.233
-262.224	-170.049	-0.210	0.007
-261.209	-46.224	-0.167	-0.082
-260.195	-155.968	-0.209	0.013
-259.180	152.867	-0.068	-0.092
-258.165	52.799	-0.054	0.051
-257.151	-2.392	0.103	-0.072
-256.136	-200.000	-0.028	-0.351
-255.122	800.000	-0.080	-0.242
-254.107	-99.279	0.218	-0.055
-253.092	-48.215	0.146	0.070
-252.078	344.502	0.232	0.453
-251.063	800.000	0.095	0.264
-250.049	-54.815	-0.087	0.039
-249.034	-200.000	-0.001	0.114
-248.019	-123.998	0.074	0.012
-247.005	247.270	-0.125	0.210
-245.990	103.451	0.058	0.068
-244.976	-200.000	0.031	0.300
-243.961	18.717	0.120	-0.095
-242.946	-200.000	-0.010	-0.092
-241.932	72.447	0.136	0.141
-240.917	-200.000	0.022	0.194
-239.903	-35.060	0.048	-0.026
-238.888	-77.843	0.261	0.090
-237.873	800.000	0.055	0.179
-236.859	-40.070	-0.117	-0.060
-235.844	342.885	0.080	-0.156
-234.830	87.632	-0.129	0.142
-233.815	-200.000	-0.020	0.203
-232.800	131.090	-0.132	0.169
-231.786	800.000	-0.059	0.224
-230.771	800.000	0.026	0.092
-229.757	-107.668	-0.221	0.048
-228.742	-83.101	0.202	0.065
-227.727	71.243	-0.144	0.149
-226.713	56.323	0.141	0.136
-225.698	-87.274	0.277	0.083
-224.684	-53.884	-0.224	0.101
-223.669	-76.080	-0.135	-0.048
-222.655	665.885	-0.016	-0.042
-221.640	-49.466	-0.267	0.126
-220.625	-6.242	0.068	-0.046
-219.611	-86.372	-0.141	-0.043
-218.596	88.175	0.158	-0.175
-217.582	104.871	0.082	-0.096
-216.567	-63.391	-0.362	0.148
-215.552	800.000	0.014	0.056
-214.538	179.644	0.149	-0.217
-213.523	-200.000	-0.011	-0.170
-212.509	578.174	-0.121	0.294
-211.494	800.000	0.060	0.199
-210.479	145.740	0.096	0.128
-209.465	667.533	-0.120	0.309
-208.450	-200.000	-0.028	0.218
-207.436	-30.653	0.181	0.102
-206.421	-200.000	-0.005	-0.173
-205.406	681.492	-0.031	0.081
-204.392	125.423	0.071	0.089
-203.377	241.113	-0.043	-0.071
-202.363	129.378	0.090	0.115
-201.348	800.000	-0.103	0.331
-200.333	67.525	-0.065	0.066
-199.319	-28.842	-0.149	0.085
-198.304	-200.000	-0.011	0.136
-197.290	-9.519	0.299	-0.198
-196.275	682.310	-0.108	0.279
-195.260	-99.282	-0.099	0.025
-194.246	-84.666	0.162	0.051
-193.231	-73.863	-0.272	0.098
-192.217	-200.000	-0.027	-0.252
-191.202	269.975	0.095	-0.166
-190.187	-200.000	-0.162	0.000
-189.173	92.929	0.112	-0.126
-188.158	386.179	-0.082	-0.167
-187.144	-84.082	-0.551	-0.174
-186.129	-17.391	0.218	-0.136
-185.114	10.460	0.298	0.225
-184.100	169.298	0.039	-0.055
-183.085	800.000	-0.011	0.035
-182.071	-76.794	-0.397	0.138
-181.056	-60.980	-0.274	0.115
-180.042	-87.781	-0.271	-0.081
-179.027	-176.565	0.233	0.006
-178.012	-200.000	0.015	-0.089
-176.998	-200.000	0.003	-0.085
-175.983	342.977	-0.174	0.338
-174.969	-200.000	-0.021	0.250
-173.954	-46.633	0.201	-0.098
-172.939	-94.519	-0.091	-0.025
-171.925	564.364	0.065	0.156
-170.910	-35.649	0.380	-0.204
-169.896	44.872	-0.037	-0.034
-168.881	-47.313	0.333	0.161
-167.866	734.383	0.133	0.353
-166.852	-200.000	-0.053	0.342
-165.837	-200.000	-0.020	-0.250
-164.823	181.125	0.023	0.034
-163.808	65.923	-0.056	0.056
-162.793	800.000	0.178	0.517
-161.779	197.806	-0.069	0.105
-160.764	88.904	0.169	-0.186
-159.750	36.590	-0.177	0.155
-158.735	-24.743	-0.100	-0.059
-157.720	8.675	0.287	0.214
-156.706	-55.363	0.189	0.084
-155.691	-1.861	0.080	0.056
-154.677	-200.000	-0.009	-0.071
-153.662	-151.659	0.167	-0.012
-152.647	63.163	-0.064	-0.063
-151.633	-200.000	0.029	-0.229
-150.618	-200.000	-0.011	-0.063
-149.604	-8.413	0.112	-0.075
-148.589	17.217	0.071	0.056
-147.574	-200.000	-0.008	-0.102
-146.560	800.000	-0.052	-0.202
-145.545	162.532	-0.063	-0.088
-144.531	800.000	0.088	-0.258
-143.516	-57.586	0.205	0.089
-142.502	-154.908	-0.013	-0.001
-141.487	158.546	0.148	-0.204
-140.472	283.705	-0.085	0.152
-139.458	246.928	0.115	-0.192
-138.443	141.318	-0.152	-0.199
-137.429	-48.003	-0.241	-0.115
-136.414	398.386	-0.017	0.036
-135.399	-200.000	0.039	0.178
-134.385	-103.109	0.147	0.035
-133.370	-115.250	0.299	0.056
-132.356	42.000	0.293	-0.264
-131.341	-103.128	-0.145	-0.034
-130.326	-200.000	-0.004	0.092
-129.312	-88.151	0.225	0.067
-128.297	-42.001	0.204	-0.104
-127.283	-39.118	-0.129	-0.067
-126.268	-153.439	0.535	0.037
-125.253	-105.665	0.058	-0.013
-124.239	99.805	0.029	-0.033
-123.224	-37.155	-0.136	-0.072
-122.210	800.000	0.021	0.062
-121.195	-151.358	0.431	0.032
