DTS Sentinel unit serial number:	SN413079Multiplexer serial number:	ORYXHardware model number:	OX4-SRSoftware version number:	ORYX F/W v4.00 Oryx Data Collector v3.7.2.0data status	okinstallation	princeton_trtdifferential loss correction	single-endedforward channel	channel 4reverse channel	N/Adate	2019/09/11time	08:23:11forward acquisition time	60.00reverse acquisition time	0.00gamma	496.2192k internal	0.2305k external	0.2305temperature offset calibration	0.9972default loss term (dB/km)	0.3790temperature slope calibration	1.0000multiplexer offset coefficient	1.0000multiplexer slope coefficient	1.0000fibre end	0.00T internal ref (°C)	32.83T ext. ref 1 (°C)	0.10T ext. ref 2 (°C)	30.53length (m)	temperature (°C)	Stokes	anti-Stokes-747.200	261.365	-0.117	-0.206
-746.185	26.152	-0.034	0.029
-745.171	-46.870	0.401	0.200
-744.156	-145.985	-0.292	0.026
-743.142	482.764	0.114	-0.264
-742.127	24.628	-0.213	0.179
-741.112	-60.784	-0.150	0.065
-740.098	-200.000	0.016	0.363
-739.083	-97.171	0.024	-0.006
-738.069	-13.412	-0.275	0.182
-737.054	-39.942	0.094	-0.050
-736.039	24.229	-0.294	0.247
-735.025	223.441	0.152	0.250
-734.010	-200.000	0.013	-0.143
-732.996	28.764	-0.371	-0.320
-731.981	110.509	-0.258	0.316
-730.966	-200.000	-0.005	-0.350
-729.952	-129.858	0.144	0.020
-728.937	39.736	-0.074	-0.068
-727.923	0.343	-0.084	0.061
-726.908	-3.691	-0.267	-0.189
-725.894	128.152	-0.100	-0.130
-724.879	-200.000	0.023	0.130
-723.864	225.039	-0.163	0.268
-722.850	6.927	0.055	-0.041
-721.835	-46.443	0.104	-0.052
-720.821	-200.000	-0.019	-0.195
-719.806	253.283	-0.082	-0.143
-718.791	24.899	0.095	-0.080
-717.777	-23.340	-0.186	0.114
-716.762	-200.000	-0.004	0.126
-715.748	-2.744	0.071	-0.050
-714.733	800.000	0.023	-0.086
-713.718	-166.065	-0.351	-0.015
-712.704	-200.000	0.019	-0.229
-711.689	-188.110	-0.130	-0.002
-710.675	-200.000	0.005	-0.038
-709.660	-200.000	-0.022	0.240
-708.645	-200.000	0.069	-0.336
-707.631	-56.928	-0.087	0.039
-706.616	-80.854	-0.235	-0.079
-705.602	115.484	-0.225	-0.279
-704.587	42.338	0.090	-0.084
-703.572	-200.000	0.002	-0.103
-702.558	-79.249	-0.069	0.024
-701.543	-109.380	0.272	-0.059
-700.529	265.320	-0.198	-0.352
-699.514	-121.875	0.262	0.044
-698.499	-5.048	-0.108	0.076
-697.485	-56.607	-0.219	0.099
-696.470	-23.425	-0.187	0.114
-695.456	151.684	-0.065	0.090
-694.441	59.688	-0.208	0.209
-693.426	-2.875	-0.070	-0.050
-692.412	-11.834	0.333	-0.222
-691.397	-200.000	-0.024	-0.106
-690.383	157.965	-0.007	0.010
-689.368	-46.759	-0.295	0.147
-688.354	30.960	0.219	0.191
-687.339	-55.621	-0.161	-0.073
-686.324	800.000	-0.044	0.154
-685.310	-66.270	-0.127	0.051
-684.295	-72.322	0.446	-0.168
-683.281	-19.024	-0.381	0.241
-682.266	-200.000	0.022	-0.114
-681.251	-83.831	0.139	-0.045
-680.237	-119.315	-0.356	-0.063
-679.222	-77.364	0.184	-0.065
-678.208	160.916	0.047	0.067
-677.193	48.213	-0.224	-0.213
-676.178	-200.000	-0.008	0.179
-675.164	-200.000	0.002	0.212
-674.149	-6.473	0.025	0.017
-673.135	-188.416	0.331	-0.004
-672.120	-43.959	0.247	-0.126
-671.105	-200.000	0.010	0.064
-670.091	31.506	-0.099	-0.086
-669.076	86.418	0.225	-0.252
-668.062	28.445	-0.118	-0.101
-667.047	-200.000	0.025	-0.327
-666.032	105.239	0.074	-0.089
-665.018	-125.264	0.133	0.021
-664.003	40.057	-0.234	-0.213
-662.989	165.103	-0.083	-0.119
-661.974	800.000	-0.052	0.173
-660.959	152.650	-0.141	-0.195
-659.945	-200.000	0.000	-0.071
-658.930	-200.000	-0.062	-0.356
-657.916	7.681	-0.048	0.037
-656.901	370.343	0.061	-0.125
-655.886	800.000	-0.026	-0.091
-654.872	230.619	-0.229	-0.380
-653.857	-145.913	-0.209	0.019
-652.843	-200.000	0.001	-0.160
-651.828	-78.386	0.421	-0.147
-650.814	34.147	0.275	-0.243
-649.799	-97.212	0.319	-0.084
-648.784	30.946	-0.264	0.229
-647.770	87.574	-0.179	-0.201
-646.755	645.959	-0.130	0.337
-645.741	-200.000	-0.012	0.476
-644.726	-35.410	0.132	-0.073
-643.711	-200.000	0.042	-0.274
-642.697	-37.511	-0.169	-0.092
-641.682	-38.521	0.040	-0.021
-640.668	-200.000	0.004	0.077
-639.653	635.469	-0.034	-0.088
-638.638	-67.415	0.138	0.055
-637.624	-200.000	-0.004	-0.168
-636.609	574.344	-0.227	-0.561
-635.595	-200.000	-0.008	-0.174
-634.580	150.182	0.086	0.118
-633.565	-60.550	0.109	-0.047
-632.551	-200.000	-0.076	-0.481
-631.536	-200.000	-0.026	-0.161
-630.522	133.733	-0.071	0.094
-629.507	35.400	-0.158	-0.140
-628.492	-200.000	-0.009	0.136
-627.478	210.448	-0.147	0.234
-626.463	41.269	0.258	0.237
-625.449	1.729	-0.139	0.101
-624.434	800.000	-0.159	-0.689
-623.419	-1.778	0.315	-0.225
-622.405	265.250	-0.138	0.243
-621.390	169.625	0.019	0.028
-620.376	89.166	-0.091	0.103
-619.361	800.000	-0.048	-0.191
-618.346	-111.358	-0.114	-0.024
-617.332	-100.786	-0.327	-0.082
-616.317	111.915	-0.003	-0.003
-615.303	800.000	0.109	0.315
-614.288	-23.592	-0.129	0.078
-613.273	-132.793	-0.205	0.027
-612.259	142.514	-0.051	-0.069
-611.244	284.951	-0.138	-0.251
-610.230	-156.378	-0.303	-0.019
-609.215	-44.490	0.304	0.154
-608.201	65.710	-0.225	0.231
-607.186	239.064	0.080	-0.135
-606.171	-200.000	0.020	0.164
-605.157	800.000	-0.048	0.187
-604.142	800.000	-0.041	0.120
-603.128	-101.224	0.291	0.072
-602.113	-123.287	0.295	-0.048
-601.098	147.194	-0.149	-0.202
-600.084	800.000	-0.039	0.128
-599.069	-200.000	0.073	0.342
-598.055	136.400	-0.134	-0.177
-597.040	800.000	-0.070	0.274
-596.025	383.384	0.076	0.158
-595.011	-15.693	0.159	0.102
-593.996	40.508	0.203	-0.185
-592.982	-34.300	0.206	0.114
-591.967	-200.000	-0.009	0.118
-590.952	-200.000	0.016	-0.146
-589.938	264.159	0.023	0.040
-588.923	-28.995	0.094	-0.055
-587.909	547.548	0.068	0.164
-586.894	-200.000	0.030	-0.205
-585.879	30.000	0.197	-0.170
-584.865	219.943	-0.115	-0.186
-583.850	127.257	0.291	-0.373
-582.836	128.936	0.171	0.221
-581.821	317.515	-0.135	-0.259
-580.806	-164.352	0.192	0.009
-579.792	285.981	-0.085	-0.155
-578.777	104.910	0.227	0.270
-577.763	-152.241	-0.082	-0.006
-576.748	187.412	0.074	-0.112
-575.733	27.925	-0.212	0.181
-574.719	-72.698	0.081	-0.030
-573.704	-33.779	0.309	-0.172
-572.690	-200.000	0.070	0.436
-571.675	-115.201	0.280	-0.054
-570.661	78.761	0.214	-0.231
-569.646	-49.557	0.336	-0.162
-568.631	93.190	0.222	0.254
-567.617	-86.944	-0.226	-0.070
-566.602	108.559	-0.047	-0.057
-565.588	-200.000	0.020	0.128
-564.573	-200.000	-0.001	0.026
-563.558	596.467	-0.029	-0.072
-562.544	800.000	-0.026	0.111
-561.529	373.749	-0.167	-0.344
-560.515	800.000	-0.139	-0.470
-559.500	-200.000	0.035	0.185
-558.485	362.996	0.061	-0.123
-557.471	800.000	-0.072	0.220
-556.456	-200.000	-0.094	0.460
-555.442	-200.000	-0.089	0.504
-554.427	-39.623	0.285	0.151
-553.412	11.033	0.201	0.155
-552.398	590.779	-0.062	0.155
-551.383	-200.000	0.038	0.223
-550.369	-141.548	-0.182	-0.019
-549.354	-105.220	-0.039	-0.009
-548.339	-186.661	-0.331	-0.005
-547.325	-58.817	-0.288	-0.126
-546.310	241.990	-0.146	-0.246
-545.296	-174.582	0.214	0.006
-544.281	134.198	-0.131	0.171
-543.266	215.825	0.039	0.063
-542.252	45.316	0.114	-0.106
-541.237	233.752	-0.041	-0.068
-540.223	463.245	0.089	-0.200
-539.208	-200.000	-0.025	0.176
-538.193	-10.774	-0.313	0.209
-537.179	103.790	0.107	0.127
-536.164	26.455	0.290	0.245
-535.150	-4.573	0.176	0.123
-534.135	-200.000	-0.010	0.133
-533.121	41.406	0.103	-0.094
-532.106	-200.000	-0.025	-0.116
-531.091	-81.176	0.024	0.008
-530.077	697.005	0.093	-0.245
-529.062	48.876	-0.072	0.069
-528.048	800.000	-0.067	0.265
-527.033	-18.035	-0.260	0.165
-526.018	4.315	-0.108	-0.080
-525.004	75.223	-0.157	-0.167
-523.989	-200.000	0.007	0.158
-522.975	800.000	0.042	-0.159
-521.960	-83.525	0.217	-0.070
-520.945	126.068	0.229	-0.292
-519.931	-38.370	0.045	0.024
-518.916	92.527	0.084	0.095
-517.902	-129.467	0.233	-0.033
-516.887	-153.435	0.413	-0.029
-515.872	-48.771	-0.110	0.053
-514.858	-111.416	-0.242	0.050
-513.843	83.398	-0.107	-0.117
-512.829	-6.398	-0.059	-0.041
-511.814	233.525	-0.130	-0.216
-510.799	800.000	0.026	0.096
-509.785	-200.000	0.020	-0.394
-508.770	800.000	0.067	0.263
-507.756	-40.064	-0.122	0.064
-506.741	-200.000	-0.015	-0.194
-505.726	-97.029	-0.160	0.042
-504.712	-103.064	-0.294	-0.070
-503.697	-36.935	-0.378	0.204
-502.683	-200.000	0.013	0.090
-501.668	-200.000	0.006	0.083
-500.653	-112.356	-0.400	-0.081
-499.639	534.107	-0.092	0.221
-498.624	86.628	-0.256	0.285
-497.610	274.249	-0.109	0.195
-496.595	144.687	-0.032	-0.043
-495.581	-79.939	0.046	0.016
-494.566	-148.103	-0.171	-0.014
-493.551	-125.587	-0.230	0.035
-492.537	315.854	0.085	-0.161
-491.522	800.000	-0.081	-0.339
-490.508	382.776	-0.067	-0.139
-489.493	82.556	0.211	-0.231
-488.478	-200.000	0.050	0.311
-487.464	-200.000	0.043	0.279
-486.449	-134.519	0.201	0.025
-485.435	97.053	-0.233	-0.270
-484.420	70.999	0.114	0.119
-483.405	-139.232	0.451	0.049
-482.391	-99.752	0.196	0.049
-481.376	41.702	-0.117	0.107
-480.362	-150.390	-0.259	0.020
-479.347	-48.676	0.079	0.038
-478.332	-200.000	0.002	-0.021
-477.318	229.044	-0.006	0.010
-476.303	388.497	-0.156	-0.326
-475.289	-9.885	-0.144	-0.096
-474.274	311.277	-0.065	-0.123
-473.259	20.547	-0.112	0.092
-472.245	403.348	-0.067	0.142
-471.230	387.670	0.065	0.136
-470.216	-80.000	-0.099	0.034
-469.201	-200.000	0.013	-0.153
-468.186	64.920	0.139	-0.141
-467.172	-122.040	-0.278	-0.046
-466.157	519.188	0.099	0.234
-465.143	800.000	-0.152	-0.496
-464.128	-82.158	-0.359	0.118
-463.113	109.866	-0.187	-0.226
-462.099	-22.534	0.182	-0.111
-461.084	-73.431	0.173	-0.064
-460.070	-42.519	0.086	-0.044
-459.055	800.000	-0.070	0.241
-458.040	-200.000	-0.056	0.366
-457.026	800.000	-0.083	-0.318
-456.011	-200.000	0.038	0.262
-454.997	-200.000	-0.044	-0.198
-453.982	-1.626	-0.432	-0.306
-452.968	91.620	0.049	-0.056
-451.953	-103.214	-0.191	-0.045
-450.938	-147.281	-0.123	-0.011
-449.924	102.721	0.071	-0.083
-448.909	-42.693	0.129	0.066
-447.895	-129.495	0.222	0.031
-446.880	-142.275	0.177	-0.018
-445.865	24.637	0.123	0.103
-444.851	307.521	0.080	-0.149
-443.836	800.000	-0.017	0.051
-442.822	-66.584	0.096	-0.038
-441.807	192.788	0.148	0.225
-440.792	427.869	-0.120	-0.262
-439.778	149.879	-0.108	0.147
-438.763	615.728	-0.027	0.067
-437.749	800.000	-0.019	-0.071
-436.734	-176.900	0.209	-0.005
-435.719	800.000	-0.042	0.133
-434.705	446.735	-0.048	-0.106
-433.690	-200.000	0.030	0.147
-432.676	-20.940	-0.287	0.177
-431.661	-200.000	-0.005	-0.067
-430.646	491.761	0.020	0.046
-429.632	-117.242	-0.251	-0.046
-428.617	-17.947	-0.201	-0.127
-427.603	-68.295	0.264	0.103
-426.588	-99.117	-0.222	-0.056
-425.573	800.000	-0.123	0.370
-424.559	-30.473	0.140	-0.080
-423.544	-65.896	-0.240	0.096
-422.530	-200.000	-0.004	-0.157
-421.515	193.592	0.171	-0.259
-420.500	126.651	-0.026	-0.033
-419.486	-56.409	-0.112	0.050
-418.471	-200.000	0.018	0.211
-417.457	69.988	0.271	-0.281
-416.442	59.040	-0.152	0.150
-415.428	-118.399	-0.397	0.071
-414.413	-64.954	-0.180	0.073
-413.398	800.000	-0.097	0.391
-412.384	101.005	-0.087	-0.102
-411.369	227.516	0.085	-0.140
-410.355	-172.968	0.201	0.006
-409.340	12.688	-0.256	0.199
-408.325	480.449	0.015	0.033
-407.311	-124.719	0.149	-0.023
-406.296	-23.208	-0.258	0.156
-405.282	800.000	0.098	0.294
-404.267	89.339	0.222	-0.249
-403.252	149.399	0.076	0.103
-402.238	-40.776	-0.089	-0.046
-401.223	331.268	0.089	-0.172
-400.209	11.966	0.123	-0.095
-399.194	407.947	0.024	-0.051
-398.179	-103.686	-0.242	0.057
-397.165	800.000	0.095	-0.351
-396.150	166.545	0.164	0.234
-395.136	-200.000	-0.009	-0.070
-394.121	-200.000	0.019	0.144
-393.106	340.047	-0.112	-0.220
-392.092	117.329	0.158	-0.195
-391.077	-128.357	0.296	0.042
-390.063	500.749	0.021	0.049
-389.048	-77.283	-0.123	0.043
-388.033	48.740	-0.055	0.051
-387.019	-200.000	0.030	0.155
-386.004	-60.008	-0.318	0.136
-384.990	29.986	-0.141	-0.120
-383.975	288.924	-0.161	-0.293
-382.960	800.000	-0.027	0.090
-381.946	-200.000	-0.004	-0.424
-380.931	-153.005	0.179	-0.013
-379.917	104.113	0.080	-0.095
-378.902	450.513	0.188	-0.417
-377.888	359.931	0.045	0.091
-376.873	-200.000	-0.026	-0.225
-375.858	-103.941	0.182	0.043
-374.844	-71.025	-0.061	-0.023
-373.829	196.781	-0.192	-0.293
-372.815	177.352	0.161	-0.235
-371.800	-200.000	-0.014	-0.255
-370.785	-60.236	-0.096	-0.041
-369.771	3.087	0.351	0.256
-368.756	45.728	0.104	-0.097
-367.742	57.805	0.099	-0.097
-366.727	647.401	0.133	-0.341
-365.712	7.041	0.214	-0.160
-364.698	-64.298	0.218	-0.089
-363.683	10.577	0.122	-0.093
-362.669	-200.000	0.247	0.001
-361.654	-200.000	-0.050	-0.232
-360.639	175.536	0.158	0.229
-359.625	-126.142	0.157	-0.024
-358.610	-86.478	0.378	0.116
-357.596	-15.973	-0.261	0.166
-356.581	-200.000	-0.013	-0.274
-355.566	-126.696	0.185	-0.027
-354.552	375.845	-0.191	0.390
-353.537	800.000	-0.071	0.243
-352.523	-200.000	0.052	0.503
-351.508	364.249	-0.079	0.159
-350.493	100.220	-0.195	0.227
-349.479	800.000	0.008	-0.023
-348.464	-159.415	-0.120	-0.007
-347.450	541.314	-0.061	-0.145
-346.435	-16.673	0.077	0.049
-345.420	-181.877	-0.373	0.007
-344.406	-72.584	-0.095	0.035
-343.391	-139.889	0.043	0.005
-342.377	133.221	-0.192	0.249
-341.362	19.337	-0.163	0.131
-340.348	-69.002	-0.312	0.121
-339.333	-22.936	0.254	-0.154
-338.318	-99.659	0.241	-0.061
-337.304	800.000	0.058	-0.224
-336.289	229.230	0.100	-0.163
-335.275	7.443	-0.077	-0.058
-334.260	291.352	0.062	-0.113
-333.245	99.603	0.038	-0.044
-332.231	304.925	0.162	0.302
-331.216	59.890	-0.227	0.225
-330.202	132.118	-0.015	-0.019
-329.187	-67.559	-0.420	-0.165
-328.172	533.508	0.089	0.211
-327.158	704.614	-0.017	-0.045
-326.143	74.053	0.180	0.189
-325.129	-58.134	0.221	0.096
-324.114	-200.000	0.019	0.189
-323.099	13.820	-0.079	-0.061
-322.085	-154.151	-0.163	0.011
-321.070	-174.369	0.072	0.002
-320.056	48.208	-0.128	0.120
-319.041	-8.503	-0.239	-0.161
-318.026	-110.294	0.415	-0.086
-317.012	-78.404	-0.139	0.048
-315.997	-117.623	-0.145	-0.026
-314.983	182.277	-0.190	-0.280
-313.968	-200.000	0.083	-0.485
-312.953	152.029	-0.112	-0.153
-311.939	89.995	0.164	0.183
-310.924	-32.818	0.116	-0.065
-309.910	-147.189	0.378	-0.032
-308.895	-23.328	-0.027	0.016
-307.880	-200.000	-0.016	-0.161
-306.866	50.569	0.051	-0.049
-305.851	-98.279	-0.045	-0.012
-304.837	92.651	0.114	-0.129
-303.822	130.118	0.163	-0.209
-302.807	-114.007	0.220	0.043
-301.793	-29.700	-0.262	0.149
-300.778	1.134	0.150	-0.108
-299.764	91.459	-0.030	-0.034
-298.749	-65.973	0.158	0.063
-297.735	800.000	0.069	0.223
-296.720	-200.000	-0.009	0.184
-295.705	-200.000	0.022	0.442
-294.691	-166.796	-0.345	0.014
-293.676	-67.335	-0.318	0.125
-292.662	-94.502	-0.314	0.086
-291.647	493.331	0.140	-0.322
-290.632	-146.648	-0.285	-0.025
-289.618	28.828	-0.184	-0.156
-288.603	-200.000	-0.006	0.209
-287.589	-200.000	-0.027	0.203
-286.574	576.478	-0.099	-0.241
-285.559	87.219	-0.084	-0.093
-284.545	69.158	-0.276	-0.284
-283.530	269.889	-0.195	-0.343
-282.516	-58.810	0.195	-0.084
-281.501	265.435	-0.060	0.105
-280.486	-155.529	0.568	0.037
-279.472	-49.122	-0.024	0.012
-278.457	-74.965	0.195	0.070
-277.443	80.808	0.078	0.084
-276.428	-110.762	-0.166	0.034
-275.413	106.092	0.092	-0.109
-274.399	163.768	-0.067	0.095
-273.384	-10.725	-0.284	0.188
-272.370	-175.943	0.391	0.010
-271.355	75.664	-0.099	-0.104
-270.340	69.163	0.042	0.043
-269.326	123.736	0.056	-0.070
-268.311	-170.614	0.450	0.016
-267.297	800.000	-0.101	-0.327
-266.282	54.532	0.118	-0.113
-265.267	101.994	0.069	0.081
-264.253	-106.020	-0.209	0.047
-263.238	-105.127	0.052	-0.012
-262.224	-200.000	-0.049	0.227
-261.209	800.000	-0.069	0.274
-260.195	13.315	0.099	-0.076
-259.180	-41.547	-0.266	0.137
-258.165	126.709	-0.117	0.148
-257.151	800.000	-0.027	-0.114
-256.136	800.000	0.077	0.245
-255.122	-172.196	-0.275	0.009
-254.107	-126.309	0.204	-0.030
-253.092	59.600	0.121	-0.119
-252.078	-41.643	0.204	0.105
-251.063	-121.999	0.219	-0.036
-250.049	-84.705	0.359	0.113
-249.034	180.039	0.135	-0.198
-248.019	-77.070	-0.332	-0.115
-247.005	96.434	0.116	0.133
-245.990	-48.223	-0.091	0.044
-244.976	-153.305	-0.086	-0.006
-243.961	-125.512	-0.317	-0.048
-242.946	36.451	0.301	-0.265
-241.932	-97.424	0.394	-0.102
-240.917	-43.671	-0.128	-0.064
-239.903	114.196	-0.125	0.151
-238.888	-127.876	0.118	0.017
-237.873	-64.242	0.218	0.089
-236.859	90.202	0.110	0.123
-235.844	335.398	0.069	0.134
-234.830	-57.002	0.315	-0.139
-233.815	-130.275	0.330	0.045
-232.800	46.848	-0.414	-0.384
-231.786	558.759	-0.180	0.434
-230.771	-163.207	-0.261	-0.013
-229.757	-48.972	-0.293	0.140
-228.742	94.923	0.089	-0.102
-227.727	146.101	0.126	0.169
-226.713	-79.707	-0.068	-0.023
-225.698	189.527	-0.261	0.390
-224.684	19.531	-0.276	0.222
-223.669	174.220	0.110	0.159
-222.655	549.437	-0.127	-0.305
-221.640	33.551	-0.105	-0.091
-220.625	-144.835	-0.435	-0.040
-219.611	-65.216	0.222	0.089
-218.596	69.944	0.210	-0.216
-217.582	-42.997	-0.132	0.067
-216.567	37.567	-0.145	0.128
-215.552	-1.336	0.066	0.046
-214.538	-113.919	0.250	-0.048
-213.523	510.355	-0.036	0.083
-212.509	-120.414	-0.011	0.002
-211.494	24.581	0.105	0.087
-210.479	289.076	-0.141	-0.255
-209.465	-75.282	0.286	0.102
-208.450	-148.412	-0.048	0.004
-207.436	-178.067	-0.344	-0.008
-206.421	221.008	-0.224	-0.359
-205.406	136.936	-0.118	0.154
-204.392	147.389	-0.125	-0.168
-203.377	800.000	0.045	-0.127
-202.363	-55.397	-0.145	0.065
-201.348	356.184	-0.090	0.179
-200.333	-200.000	0.014	-0.069
-199.319	-200.000	-0.040	0.308
-198.304	355.731	0.177	0.352
-197.290	800.000	-0.092	-0.289
-196.275	279.580	-0.140	0.248
-195.260	80.749	0.129	-0.138
-194.246	800.000	-0.036	0.109
-193.231	-200.000	-0.047	0.342
-192.217	-7.732	0.099	-0.067
-191.202	800.000	-0.014	0.045
-190.187	-200.000	-0.012	-0.238
-189.173	-123.176	-0.175	0.028
-188.158	-200.000	0.041	-0.184
-187.144	-200.000	0.002	0.083
-186.129	23.865	0.218	-0.179
-185.114	174.220	0.179	0.258
-184.100	106.288	0.143	-0.169
-183.085	113.142	-0.037	0.044
-182.071	800.000	0.025	0.086
-181.056	419.022	0.056	-0.119
-180.042	86.851	0.175	-0.193
-179.027	362.113	0.104	0.208
-178.012	-150.716	0.099	0.008
-176.998	-55.069	0.255	0.114
-175.983	274.953	-0.050	0.089
-174.969	82.692	-0.138	-0.150
-173.954	-103.792	-0.086	-0.020
-172.939	-26.359	0.189	0.110
-171.925	7.904	-0.114	0.085
-170.910	112.705	0.189	-0.228
-169.896	-40.022	0.164	-0.085
-168.881	16.023	0.203	0.159
-167.866	103.986	0.089	0.104
-166.852	-52.613	-0.268	-0.123
-165.837	131.435	0.065	-0.083
-164.823	125.857	0.254	-0.319
-163.808	-94.238	0.476	0.129
-162.793	-48.996	-0.200	0.095
-161.779	-83.300	0.095	0.030
-160.764	119.178	0.081	0.100
-159.750	800.000	0.027	-0.116
-158.735	800.000	-0.068	-0.227
-157.720	-155.624	0.321	-0.021
-156.706	-72.732	-0.243	-0.089
-155.691	800.000	0.067	0.188
-154.677	203.237	0.117	0.180
-153.662	98.645	0.227	0.261
-152.647	175.699	0.103	-0.148
-151.633	1.287	-0.161	-0.115
-150.618	-85.969	0.346	0.106
-149.604	-17.963	0.054	0.034
-148.589	-19.823	-0.036	-0.022
-147.574	27.033	-0.097	-0.081
-146.560	-123.824	-0.147	-0.023
-145.545	-38.801	-0.121	0.064
-144.531	39.862	-0.120	0.107
-143.516	92.023	0.078	-0.087
-142.502	57.311	-0.361	-0.351
-141.487	580.526	0.070	-0.171
-140.472	5.908	-0.109	-0.080
-139.458	-126.989	-0.449	0.066
-138.443	235.829	0.059	-0.097
-137.429	-167.574	-0.081	0.003
-136.414	-64.527	-0.289	-0.117
-135.399	-200.000	0.028	-0.364
-134.385	-200.000	-0.046	0.234
-133.370	5.868	0.318	0.234
-132.356	-71.302	0.277	-0.103
-131.341	-113.022	-0.151	0.030
-130.326	-33.468	-0.196	0.108
-129.312	18.941	-0.274	-0.218
-128.297	91.725	0.153	0.172
-127.283	-37.598	0.069	0.036
-126.268	-105.346	0.050	0.011
-125.253	-3.895	0.206	-0.142
-124.239	497.051	0.156	-0.356
-123.224	764.942	0.139	-0.376
-122.210	-92.827	0.312	0.087
-121.195	-44.916	-0.163	0.081
