DTS Sentinel unit serial number:	SN413079Multiplexer serial number:	ORYXHardware model number:	OX4-SRSoftware version number:	ORYX F/W v4.00 Oryx Data Collector v3.7.2.0data status	okinstallation	princeton_trtdifferential loss correction	single-endedforward channel	channel 4reverse channel	N/Adate	2019/09/16time	14:21:35forward acquisition time	60.00reverse acquisition time	0.00gamma	496.2192k internal	0.2286k external	0.2286temperature offset calibration	0.9937default loss term (dB/km)	0.3790temperature slope calibration	1.0000multiplexer offset coefficient	1.0000multiplexer slope coefficient	1.0000fibre end	0.00T internal ref (°C)	42.12T ext. ref 1 (°C)	14.18T ext. ref 2 (°C)	36.54length (m)	temperature (°C)	Stokes	anti-Stokes-747.200	311.971	-0.107	-0.205
-746.185	237.156	-0.225	0.382
-745.171	-93.928	-0.096	0.027
-744.156	800.000	0.083	0.252
-743.142	132.284	-0.068	0.090
-742.127	-14.225	0.342	0.226
-741.112	-28.634	-0.176	-0.104
-740.098	410.941	-0.033	-0.071
-739.083	113.552	-0.159	-0.198
-738.069	-54.003	-0.158	-0.074
-737.054	137.299	-0.041	-0.055
-736.039	-200.000	0.027	-0.320
-735.025	412.600	-0.112	0.244
-734.010	-200.000	0.005	0.368
-732.996	-195.690	0.052	0.000
-731.981	-19.580	0.348	0.221
-730.966	406.878	-0.124	-0.268
-729.952	-88.980	-0.277	-0.084
-728.937	-106.588	0.135	0.031
-727.923	71.661	0.236	-0.251
-726.908	147.383	-0.185	-0.255
-725.894	-122.680	-0.224	-0.037
-724.879	173.281	-0.099	0.146
-723.864	-128.392	-0.238	0.035
-722.850	-200.000	0.009	-0.076
-721.835	7.620	0.326	0.250
-720.821	-116.223	-0.131	0.025
-719.806	87.588	0.143	-0.162
-718.791	209.171	-0.189	-0.304
-717.777	31.626	-0.198	-0.175
-716.762	4.123	-0.099	-0.074
-715.748	32.141	-0.268	0.237
-714.733	-149.392	-0.199	-0.016
-713.718	325.440	0.227	-0.446
-712.704	-118.673	-0.358	0.065
-711.689	-150.179	0.076	0.006
-710.675	-75.772	-0.414	-0.151
-709.660	-85.359	0.070	-0.022
-708.645	-200.000	0.000	-0.170
-707.631	-179.539	-0.244	0.005
-706.616	800.000	-0.105	-0.379
-705.602	-200.000	0.006	0.086
-704.587	-155.047	-0.237	-0.016
-703.572	-86.971	0.279	-0.087
-702.558	716.602	-0.073	0.199
-701.543	-200.000	-0.022	0.137
-700.529	36.175	0.302	-0.273
-699.514	-54.123	-0.066	0.031
-698.499	-24.194	0.233	0.143
-697.485	-48.653	-0.274	0.135
-696.470	-11.187	0.140	0.095
-695.456	206.340	-0.191	-0.305
-694.441	-45.560	-0.371	0.188
-693.426	413.226	-0.136	-0.297
-692.412	-200.000	0.042	-0.398
-691.397	11.998	0.257	-0.203
-690.383	60.388	-0.305	-0.309
-689.368	-140.800	-0.177	0.019
-688.354	-125.346	0.473	-0.074
-687.339	285.477	-0.049	-0.091
-686.324	-200.000	-0.007	0.115
-685.310	17.942	-0.109	0.089
-684.295	47.819	0.237	0.226
-683.281	445.485	-0.047	-0.105
-682.266	-48.726	-0.274	0.135
-681.251	-117.126	-0.062	0.012
-680.237	-200.000	-0.045	-0.421
-679.222	38.529	0.372	-0.340
-678.208	-200.000	-0.110	-0.573
-677.193	800.000	-0.015	-0.052
-676.178	-59.305	0.198	-0.087
-675.164	-77.149	-0.191	0.068
-674.149	-81.183	0.270	-0.091
-673.135	17.702	0.207	-0.169
-672.120	-200.000	-0.050	-0.316
-671.105	800.000	-0.022	-0.070
-670.091	-98.924	0.390	-0.101
-669.076	494.974	-0.059	0.138
-668.062	800.000	0.024	0.080
-667.047	-164.826	0.078	-0.004
-666.032	-200.000	-0.038	-0.531
-665.018	53.710	0.165	-0.162
-664.003	-200.000	-0.051	0.239
-662.989	-35.388	-0.052	-0.029
-661.974	164.443	-0.233	0.336
-660.959	129.659	0.207	-0.271
-659.945	783.738	0.110	0.309
-658.930	18.152	0.143	0.116
-657.916	142.366	-0.136	-0.185
-656.901	-44.842	-0.294	0.150
-655.886	-50.139	-0.495	0.240
-654.872	-41.658	-0.340	0.179
-653.857	301.263	0.104	-0.197
-652.843	-108.525	0.237	-0.052
-651.828	-200.000	0.008	0.308
-650.814	800.000	-0.083	0.236
-649.799	368.132	-0.096	0.198
-648.784	149.505	-0.143	-0.197
-647.770	17.554	-0.132	-0.107
-646.755	-36.493	-0.279	0.153
-645.741	-200.000	-0.011	0.113
-644.726	800.000	-0.071	-0.270
-643.711	50.050	-0.219	-0.211
-642.697	-25.821	0.070	-0.042
-641.682	800.000	-0.109	0.388
-640.668	6.676	0.141	-0.107
-639.653	-115.100	0.244	-0.047
-638.638	-64.265	-0.284	-0.118
-637.624	752.573	-0.086	-0.238
-636.609	-71.903	-0.232	0.088
-635.595	-32.612	0.283	0.161
-634.580	800.000	0.040	-0.168
-633.565	-38.508	-0.159	-0.086
-632.551	9.618	0.202	-0.157
-631.536	800.000	0.075	-0.249
-630.522	-18.125	0.365	-0.233
-629.507	456.831	0.063	0.143
-628.492	-200.000	-0.011	0.058
-627.478	-8.567	0.143	0.098
-626.463	800.000	0.013	-0.041
-625.449	40.119	-0.014	-0.013
-624.434	149.161	-0.064	-0.089
-623.419	-80.598	-0.280	0.095
-622.405	41.373	0.148	-0.136
-621.390	516.025	0.067	-0.159
-620.376	14.405	-0.008	-0.006
-619.361	-65.978	0.238	0.097
-618.346	-45.382	-0.093	-0.047
-617.332	800.000	-0.062	0.222
-616.317	329.527	0.165	0.323
-615.303	335.421	0.045	-0.089
-614.288	97.322	0.211	-0.248
-613.273	-57.610	-0.192	-0.086
-612.259	148.166	0.026	-0.036
-611.244	-171.539	-0.125	0.004
-610.230	-67.653	-0.124	-0.050
-609.215	424.485	-0.048	-0.106
-608.201	-119.567	0.176	0.031
-607.186	-200.000	-0.076	-0.477
-606.171	-122.903	-0.208	-0.034
-605.157	21.927	0.144	-0.120
-604.142	-78.789	0.146	-0.051
-603.128	-200.000	-0.033	-0.205
-602.113	-183.930	0.183	-0.003
-601.098	-186.015	0.292	0.004
-600.084	47.739	0.055	-0.052
-599.069	800.000	0.025	0.110
-598.055	-21.759	0.089	0.055
-597.040	436.948	0.168	-0.374
-596.025	581.869	0.044	-0.111
-595.011	102.479	-0.097	-0.116
-593.996	-179.096	0.176	-0.004
-592.982	-4.051	-0.290	-0.205
-591.967	-98.004	0.340	-0.089
-590.952	-85.996	0.129	0.041
-589.938	-200.000	0.055	0.000
-588.923	-200.000	0.018	-0.128
-587.909	237.442	-0.152	0.256
-586.894	800.000	0.016	0.066
-585.879	55.051	-0.153	-0.150
-584.865	-200.000	0.028	0.361
-583.850	-9.121	0.132	0.090
-582.836	800.000	0.052	0.211
-581.821	25.722	-0.142	-0.120
-580.806	-200.000	-0.054	0.448
-579.792	-49.374	-0.262	0.127
-578.777	322.457	-0.033	0.064
-577.763	414.664	-0.115	0.250
-576.748	-29.179	0.165	-0.096
-575.733	249.650	-0.098	-0.169
-574.719	396.289	-0.059	0.125
-573.704	-200.000	0.057	0.269
-572.690	-123.929	0.348	0.056
-571.675	-200.000	0.027	0.183
-570.661	335.885	-0.232	-0.459
-569.646	-200.000	0.022	-0.099
-568.631	-200.000	-0.002	0.114
-567.617	-97.756	0.370	0.098
-566.602	-40.515	-0.399	-0.211
-565.588	175.820	-0.137	-0.202
-564.573	800.000	-0.056	-0.192
-563.558	-200.000	0.030	0.269
-562.544	262.829	-0.040	0.071
-561.529	-200.000	0.032	-0.186
-560.515	74.799	0.201	-0.216
-559.500	-26.087	-0.192	0.115
-558.485	102.916	-0.046	-0.055
-557.471	-200.000	0.037	-0.259
-556.456	-23.349	0.198	0.121
-555.442	-92.098	-0.323	0.093
-554.427	800.000	0.049	-0.169
-553.412	-52.701	0.335	-0.157
-552.398	-200.000	0.003	0.150
-551.383	-124.363	-0.314	-0.050
-550.369	63.891	-0.139	0.143
-549.354	88.739	0.085	-0.097
-548.339	-200.000	0.000	0.005
-547.325	90.640	-0.132	0.151
-546.310	-200.000	0.012	-0.378
-545.296	-112.169	-0.362	-0.074
-544.281	18.462	-0.121	0.098
-543.266	-111.257	0.249	0.052
-542.252	703.868	0.035	0.093
-541.237	66.857	-0.158	-0.163
-540.223	-81.483	-0.280	0.094
-539.208	-143.167	0.159	-0.016
-538.193	-139.668	0.091	0.010
-537.179	12.194	-0.120	-0.094
-536.164	-62.048	-0.410	0.174
-535.150	207.535	0.258	0.411
-534.135	-48.076	-0.123	-0.061
-533.121	-200.000	-0.026	-0.158
-532.106	-23.553	-0.080	-0.049
-531.091	-77.871	-0.190	-0.067
-530.077	-94.920	0.004	-0.001
-529.062	180.165	-0.177	-0.264
-528.048	66.073	-0.205	-0.212
-527.033	706.617	0.085	-0.229
-526.018	800.000	0.084	0.247
-525.004	96.944	-0.062	-0.073
-523.989	675.127	-0.142	0.375
-522.975	7.785	-0.154	0.117
-521.960	-109.430	-0.462	0.099
-520.945	-200.000	0.027	-0.227
-519.931	-155.783	0.145	0.009
-518.916	-130.234	-0.141	0.020
-517.902	800.000	0.084	0.288
-516.887	-65.404	-0.368	0.151
-515.872	-58.845	0.099	-0.044
-514.858	-200.000	-0.041	0.314
-513.843	-133.108	0.198	0.025
-512.829	95.695	-0.073	0.085
-511.814	780.050	-0.084	0.235
-510.799	745.471	0.153	0.419
-509.785	-116.410	-0.111	0.021
-508.770	-41.107	-0.351	0.184
-507.756	-131.415	-0.293	0.039
-506.741	267.196	-0.210	0.374
-505.726	-98.815	0.175	-0.045
-504.712	54.073	0.158	-0.154
-503.697	-2.795	0.043	-0.031
-502.683	-200.000	0.053	0.301
-501.668	315.477	-0.040	-0.076
-500.653	-37.677	-0.170	-0.092
-499.639	266.623	-0.253	-0.450
-498.624	-133.847	-0.165	-0.021
-497.610	-200.000	0.067	-0.559
-496.595	45.153	-0.269	0.252
-495.581	141.150	-0.081	-0.109
-494.566	-200.000	0.020	0.200
-493.551	342.559	-0.039	0.077
-492.537	-200.000	0.028	-0.192
-491.522	800.000	0.034	0.117
-490.508	-15.269	-0.044	-0.029
-489.493	42.145	-0.332	0.306
-488.478	-85.447	-0.271	0.086
-487.464	181.855	-0.185	-0.277
-486.449	-200.000	0.035	0.256
-485.435	-81.574	0.289	-0.097
-484.420	-58.672	0.395	0.174
-483.405	493.104	0.108	0.251
-482.391	242.837	-0.126	0.214
-481.376	-18.330	-0.428	-0.272
-480.362	130.794	0.063	0.082
-479.347	-200.000	0.018	0.236
-478.332	-99.217	-0.147	-0.038
-477.318	-200.000	0.013	-0.237
-476.303	800.000	0.067	0.224
-475.289	-96.820	0.244	0.065
-474.274	-123.682	0.133	0.021
-473.259	-170.735	-0.265	0.009
-472.245	58.643	-0.182	0.181
-471.230	152.694	0.124	-0.172
-470.216	-200.000	-0.011	-0.443
-469.201	68.734	0.041	-0.043
-468.186	204.093	0.042	-0.066
-467.172	-90.446	-0.423	0.124
-466.157	26.602	0.080	0.068
-465.143	-166.959	-0.144	-0.006
-464.128	60.240	0.051	-0.052
-463.113	-13.360	-0.151	0.099
-462.099	69.199	-0.289	0.302
-461.084	135.144	0.245	0.323
-460.070	-200.000	-0.007	0.238
-459.055	730.162	-0.082	-0.223
-458.040	800.000	-0.048	-0.141
-457.026	-176.704	0.078	0.002
-456.011	-159.906	-0.264	0.015
-454.997	-64.938	-0.078	0.032
-453.982	345.315	-0.027	-0.053
-452.968	-42.389	0.004	-0.002
-451.953	24.780	-0.149	-0.125
-450.938	442.670	-0.088	-0.195
-449.924	401.931	0.102	-0.218
-448.909	-200.000	-0.035	0.173
-447.895	12.420	-0.182	-0.142
-446.880	79.097	-0.028	0.030
-445.865	152.978	0.082	-0.114
-444.851	126.773	-0.148	-0.190
-443.836	800.000	-0.102	-0.435
-442.822	-98.315	-0.250	-0.065
-441.807	5.025	0.219	0.163
-440.792	78.127	-0.181	0.196
-439.778	24.912	0.299	-0.251
-438.763	366.386	0.134	-0.273
-437.749	-60.903	0.126	-0.054
-436.734	153.242	-0.103	-0.143
-435.719	-47.925	-0.293	0.144
-434.705	-109.568	0.248	0.053
-433.690	-18.650	-0.389	-0.246
-432.676	206.972	-0.171	0.270
-431.661	-72.555	0.143	0.054
-430.646	613.707	0.058	0.148
-429.632	207.081	-0.134	0.212
-428.617	-90.532	0.204	-0.060
-427.603	-93.188	-0.198	-0.056
-426.588	96.912	-0.112	-0.130
-425.573	506.112	-0.012	0.028
-424.559	-55.929	0.349	0.158
-423.544	800.000	0.217	0.633
-422.530	309.810	0.154	-0.292
-421.515	116.762	0.031	-0.038
-420.500	710.102	0.070	0.186
-419.486	-161.285	-0.294	-0.015
-418.471	-75.165	0.266	0.096
-417.457	-114.691	-0.159	0.031
-416.442	-102.441	-0.280	0.068
-415.428	20.705	0.292	0.240
-414.413	-114.151	0.178	-0.035
-413.398	124.469	-0.188	0.240
-412.384	-200.000	-0.030	-0.267
-411.369	800.000	-0.085	-0.315
-410.355	428.229	0.010	0.023
-409.340	-59.400	0.107	0.047
-408.325	-65.236	-0.219	-0.089
-407.311	131.158	0.183	-0.238
-406.296	-69.876	0.365	0.141
-405.282	83.462	0.077	0.085
-404.267	23.819	-0.081	-0.067
-403.252	-93.906	-0.153	-0.043
-402.238	-50.456	-0.395	-0.189
-401.223	-200.000	0.017	0.082
-400.209	-23.266	-0.181	-0.110
-399.194	227.894	0.191	-0.316
-398.179	-80.096	0.333	0.113
-397.165	800.000	0.009	-0.038
-396.150	-91.529	-0.214	-0.062
-395.136	-87.140	0.125	-0.038
-394.121	43.183	-0.159	0.147
-393.106	21.892	0.158	0.130
-392.092	95.747	-0.052	-0.060
-391.077	249.618	-0.072	0.123
-390.063	-186.508	0.333	-0.005
-389.048	180.070	0.147	-0.218
-388.033	-36.296	0.056	0.030
-387.019	-200.000	0.057	-0.444
-386.004	76.507	-0.210	-0.226
-384.990	27.138	0.095	0.080
-383.975	-200.000	-0.028	0.268
-382.960	-129.745	-0.335	-0.047
-381.946	128.155	0.284	0.366
-380.931	167.225	0.144	0.207
-379.917	-200.000	0.023	0.457
-378.902	235.756	-0.124	-0.207
-377.888	419.262	-0.111	0.240
-376.873	5.512	0.188	0.141
-375.858	-98.409	-0.153	0.040
-374.844	70.237	0.160	-0.167
-373.829	-169.639	-0.248	-0.009
-372.815	467.811	-0.034	-0.076
-371.800	-91.895	0.110	0.032
-370.785	-122.858	-0.071	-0.012
-369.771	44.106	0.297	-0.276
-368.756	87.034	0.114	-0.128
-367.742	-151.472	-0.076	-0.006
-366.727	609.830	-0.098	0.248
-365.712	243.304	0.199	0.338
-364.698	-45.310	0.071	0.036
-363.683	-69.889	0.046	0.018
-362.669	263.287	-0.064	0.113
-361.654	-200.000	-0.022	-0.143
-360.639	447.948	-0.046	0.103
-359.625	-200.000	0.001	-0.403
-358.610	134.664	-0.087	0.114
-357.596	-35.100	-0.024	-0.013
-356.581	-89.669	-0.096	0.028
-355.566	-51.220	0.092	-0.044
-354.552	-200.000	-0.014	-0.117
-353.537	632.465	-0.091	0.233
-352.523	-200.000	0.018	-0.135
-351.508	800.000	-0.082	-0.278
-350.493	-113.681	0.186	0.037
-349.479	-200.000	0.048	-0.270
-348.464	102.635	0.113	-0.134
-347.450	-175.492	-0.300	0.008
-346.435	-25.047	0.049	0.029
-345.420	-100.584	-0.077	-0.019
-344.406	-8.950	0.102	0.069
-343.391	183.414	0.174	0.259
-342.377	-28.731	-0.096	0.056
-341.362	-114.271	0.338	-0.066
-340.348	315.492	0.112	0.214
-339.333	-200.000	0.038	-0.243
-338.318	267.502	-0.128	-0.226
-337.304	-200.000	0.068	0.310
-336.289	-200.000	-0.027	0.157
-335.275	-200.000	0.056	0.298
-334.260	123.175	-0.155	0.196
-333.245	81.117	-0.126	-0.138
-332.231	-21.077	0.044	0.027
-331.216	-105.393	-0.448	0.103
-330.202	800.000	-0.033	0.129
-329.187	-137.118	0.087	0.010
-328.172	-146.317	-0.228	0.020
-327.158	-103.469	0.221	0.053
-326.143	201.341	0.080	-0.124
-325.129	58.368	0.280	-0.277
-324.114	267.627	-0.008	0.014
-323.099	227.863	0.056	-0.092
-322.085	-200.000	0.039	0.210
-321.070	-174.950	-0.045	0.001
-320.056	332.500	0.080	-0.156
-319.041	-169.414	-0.227	0.008
-318.026	-200.000	-0.004	-0.119
-317.012	-57.844	-0.191	0.084
-315.997	-72.051	-0.047	-0.018
-314.983	183.223	0.033	0.049
-313.968	35.956	0.125	-0.111
-312.953	800.000	0.031	0.114
-311.939	297.035	0.145	0.269
-310.924	-50.836	-0.192	0.091
-309.910	-79.276	0.284	0.097
-308.895	96.472	-0.197	0.227
-307.880	-83.474	-0.240	-0.077
-306.866	488.915	0.109	-0.252
-305.851	-200.000	-0.004	-0.145
-304.837	31.200	0.121	0.104
-303.822	-200.000	0.039	0.307
-302.807	163.870	-0.159	0.226
-301.793	143.361	-0.051	-0.069
-300.778	66.066	0.018	0.018
-299.764	611.069	-0.129	-0.325
-298.749	-142.261	0.463	-0.046
-297.735	110.372	0.167	0.202
-296.720	800.000	-0.041	-0.118
-295.705	96.723	0.132	-0.153
-294.691	171.390	0.046	-0.066
-293.676	-90.440	0.162	0.047
-292.662	307.797	-0.180	0.338
-291.647	-178.451	0.290	0.007
-290.632	-200.000	-0.070	-0.439
-289.618	-20.681	0.268	-0.166
-288.603	-55.921	0.336	-0.151
-287.589	-60.243	0.388	-0.166
-286.574	240.050	0.027	0.045
-285.559	-200.000	0.000	-0.120
-284.545	451.416	-0.185	0.412
-283.530	316.276	0.182	0.346
-282.516	-31.137	-0.236	-0.134
-281.501	-200.000	0.002	0.035
-280.486	-143.720	0.435	-0.042
-279.472	20.156	-0.011	0.009
-278.457	-200.000	-0.029	-0.297
-277.443	294.536	0.127	-0.235
-276.428	490.885	0.072	0.167
-275.413	307.442	0.047	0.089
-274.399	-131.097	0.067	-0.009
-273.384	75.836	0.212	0.226
-272.370	-74.053	-0.054	-0.020
-271.355	24.659	-0.122	-0.101
-270.340	-62.172	-0.287	-0.121
-269.326	-94.065	-0.435	-0.120
-268.311	28.308	-0.135	-0.115
-267.297	800.000	-0.125	-0.451
-266.282	631.860	0.077	0.195
-265.267	-200.000	0.025	-0.370
-264.253	-13.312	0.251	0.164
-263.238	-143.466	-0.283	-0.027
-262.224	28.270	0.177	-0.151
-261.209	88.073	-0.063	0.070
-260.195	-137.748	0.103	0.012
-259.180	-200.000	0.022	-0.133
-258.165	0.577	0.058	-0.042
-257.151	-134.011	-0.036	-0.004
-256.136	39.266	0.290	-0.262
-255.122	-80.289	0.128	0.043
-254.107	800.000	-0.065	0.186
-253.092	16.411	0.212	0.168
-252.078	-114.912	0.353	0.068
-251.063	89.436	-0.078	0.088
-250.049	105.298	-0.064	0.076
-249.034	145.981	0.218	-0.294
-248.019	-128.725	0.085	0.012
-247.005	-200.000	0.035	-0.200
-245.990	-174.247	-0.119	-0.003
-244.976	366.973	-0.049	0.100
-243.961	-120.127	-0.427	-0.073
-242.946	800.000	-0.023	0.075
-241.932	77.513	0.260	-0.278
-240.917	-200.000	-0.010	0.280
-239.903	41.674	0.118	-0.108
-238.888	-86.280	0.110	-0.034
-237.873	-140.315	0.281	0.030
-236.859	24.102	0.147	0.122
-235.844	7.486	0.118	0.089
-234.830	-200.000	0.005	0.141
-233.815	-73.264	0.176	0.065
-232.800	800.000	0.064	-0.254
-231.786	-106.107	0.156	-0.035
-230.771	-126.032	0.273	-0.041
-229.757	6.312	-0.215	-0.161
-228.742	-85.648	0.425	0.133
-227.727	-37.510	-0.258	0.138
-226.713	-132.022	-0.234	0.031
-225.698	59.594	-0.121	0.120
-224.684	-52.489	0.141	-0.065
-223.669	98.944	-0.120	-0.139
-222.655	-86.116	-0.266	-0.082
-221.640	190.427	0.024	-0.036
-220.625	129.096	-0.068	0.088
-219.611	-200.000	0.033	-0.210
-218.596	-119.609	0.221	0.038
-217.582	-159.642	-0.145	-0.008
-216.567	-200.000	0.025	0.115
-215.552	-109.636	0.259	-0.055
-214.538	-68.706	-0.140	0.054
-213.523	34.506	0.146	0.128
-212.509	266.875	-0.135	-0.237
-211.494	79.616	-0.162	0.175
-210.479	87.614	-0.200	0.223
-209.465	105.607	0.351	-0.417
-208.450	800.000	0.021	-0.065
-207.436	169.595	0.145	0.209
-206.421	-88.416	-0.081	0.024
-205.406	76.116	-0.054	-0.057
-204.392	-68.009	0.065	-0.025
-203.377	129.664	0.251	-0.323
-202.363	-89.251	-0.191	0.057
-201.348	83.263	0.072	-0.079
-200.333	9.265	-0.210	0.160
-199.319	-101.397	-0.049	-0.012
-198.304	57.330	-0.196	0.192
-197.290	0.996	-0.124	-0.089
-196.275	-71.081	-0.422	-0.159
-195.260	14.339	0.127	0.099
-194.246	365.965	-0.046	-0.094
-193.231	611.897	0.123	0.310
-192.217	-200.000	-0.026	-0.161
-191.202	140.676	0.239	0.317
-190.187	-107.327	-0.018	-0.004
-189.173	800.000	-0.041	0.126
-188.158	800.000	0.100	0.316
-187.144	219.319	-0.023	-0.037
-186.129	-3.658	-0.038	0.027
-185.114	-200.000	0.003	0.179
-184.100	114.397	0.036	-0.043
-183.085	180.455	0.203	0.299
-182.071	-200.000	0.006	0.107
-181.056	-136.838	-0.051	0.006
-180.042	-49.299	0.255	0.122
-179.027	-12.495	0.099	-0.065
-178.012	800.000	-0.061	-0.214
-176.998	-200.000	0.037	0.179
-175.983	-79.415	-0.232	0.079
-174.969	-200.000	0.015	-0.125
-173.954	-124.345	-0.137	0.021
-172.939	800.000	0.080	-0.267
-171.925	-118.944	0.279	0.049
-170.910	-200.000	-0.074	0.396
-169.896	-200.000	0.041	0.224
-168.881	16.782	-0.050	-0.040
-167.866	-149.597	0.151	0.012
-166.852	340.988	-0.081	0.158
-165.837	577.393	0.121	0.296
-164.823	138.925	0.137	-0.181
-163.808	21.951	0.033	0.027
-162.793	74.487	-0.196	0.207
-161.779	347.637	0.147	-0.291
-160.764	364.486	0.073	0.147
-159.750	-38.611	-0.050	-0.027
-158.735	800.000	-0.059	-0.226
-157.720	-112.551	0.285	0.057
-156.706	-45.670	0.029	0.014
-155.691	-60.359	0.093	-0.039
-154.677	-43.445	-0.050	-0.025
-153.662	800.000	-0.082	-0.323
-152.647	-68.667	0.286	-0.111
-151.633	-88.401	0.329	-0.099
-150.618	-107.962	-0.197	0.043
-149.604	139.557	0.157	-0.207
-148.589	-200.000	0.005	-0.072
-147.574	90.437	-0.016	0.019
-146.560	20.771	0.266	-0.216
-145.545	-200.000	-0.006	0.033
-144.531	-185.804	0.214	0.003
-143.516	-48.994	-0.271	-0.130
-142.502	139.516	-0.240	0.316
-141.487	320.850	0.090	0.172
-140.472	800.000	-0.095	0.275
-139.458	46.362	0.190	-0.177
-138.443	222.327	-0.140	0.226
-137.429	-92.129	-0.077	-0.022
-136.414	-128.473	0.178	-0.025
-135.399	16.255	-0.188	0.149
-134.385	212.019	-0.182	0.287
-133.370	96.254	0.097	-0.111
-132.356	-123.981	-0.143	-0.023
-131.341	66.898	0.124	0.126
-130.326	523.728	-0.066	0.154
-129.312	-200.000	-0.030	0.184
-128.297	-47.528	-0.263	0.128
-127.283	-96.858	0.234	0.062
-126.268	-35.984	-0.181	0.098
-125.253	55.014	-0.107	0.104
-124.239	522.880	-0.035	0.083
-123.224	800.000	-0.068	-0.274
-122.210	-152.524	-0.133	-0.010
-121.195	169.457	-0.078	0.111
