DTS Sentinel unit serial number:	SN413079Multiplexer serial number:	ORYXHardware model number:	OX4-SRSoftware version number:	ORYX F/W v4.00 Oryx Data Collector v3.7.2.0data status	okinstallation	princeton_trtdifferential loss correction	single-endedforward channel	channel 4reverse channel	N/Adate	2019/09/15time	17:57:35forward acquisition time	60.00reverse acquisition time	0.00gamma	496.2192k internal	0.2275k external	0.2275temperature offset calibration	0.9921default loss term (dB/km)	0.3790temperature slope calibration	1.0000multiplexer offset coefficient	1.0000multiplexer slope coefficient	1.0000fibre end	0.00T internal ref (°C)	44.77T ext. ref 1 (°C)	6.42T ext. ref 2 (°C)	39.45length (m)	temperature (°C)	Stokes	anti-Stokes-747.200	-108.302	0.135	-0.030
-746.185	-142.644	0.059	-0.006
-745.171	63.761	-0.121	-0.125
-744.156	96.971	-0.140	0.166
-743.142	22.833	-0.100	0.084
-742.127	-46.383	-0.237	0.120
-741.112	-99.501	-0.363	-0.094
-740.098	-200.000	-0.013	0.292
-739.083	-99.017	0.087	-0.023
-738.069	-200.000	-0.004	0.038
-737.054	-200.000	0.016	-0.073
-736.039	-41.119	-0.251	0.133
-735.025	800.000	0.037	-0.140
-734.010	-98.031	-0.188	0.050
-732.996	-80.793	-0.263	0.090
-731.981	185.350	-0.015	-0.024
-730.966	371.981	-0.162	0.340
-729.952	-85.853	-0.265	-0.085
-728.937	-16.760	-0.222	0.144
-727.923	-22.292	-0.250	0.156
-726.908	458.736	0.089	-0.204
-725.894	-102.334	-0.420	0.104
-724.879	312.294	-0.087	0.169
-723.864	136.987	-0.153	0.207
-722.850	-200.000	0.036	-0.495
-721.835	22.565	0.100	-0.084
-720.821	-70.686	0.240	-0.093
-719.806	-107.407	-0.183	0.041
-718.791	-103.162	-0.225	0.055
-717.777	-59.702	0.392	0.173
-716.762	800.000	-0.076	-0.276
-715.748	-52.622	-0.195	0.093
-714.733	-115.658	-0.255	-0.049
-713.718	152.687	-0.186	0.262
-712.704	-85.862	-0.168	-0.054
-711.689	-70.066	-0.160	-0.063
-710.675	-200.000	-0.011	0.056
-709.660	-200.000	-0.063	-0.313
-708.645	4.040	-0.179	-0.135
-707.631	47.778	0.078	0.075
-706.616	800.000	0.027	0.105
-705.602	800.000	-0.121	-0.465
-704.587	641.830	-0.056	0.148
-703.572	-47.126	0.151	-0.076
-702.558	102.910	-0.199	-0.240
-701.543	-200.000	0.004	0.243
-700.529	57.940	-0.184	0.185
-699.514	-200.000	-0.018	0.096
-698.499	-106.463	-0.302	0.069
-697.485	800.000	-0.105	-0.315
-696.470	149.659	-0.098	-0.137
-695.456	800.000	0.029	-0.123
-694.441	-31.216	0.127	0.074
-693.426	-63.090	-0.177	0.075
-692.412	-20.402	-0.281	-0.178
-691.397	800.000	0.101	-0.409
-690.383	800.000	-0.062	-0.216
-689.368	-74.226	-0.175	-0.065
-688.354	-84.201	0.124	0.041
-687.339	92.749	-0.166	-0.193
-686.324	-30.106	-0.141	-0.082
-685.310	213.859	-0.082	-0.134
-684.295	224.177	-0.020	0.033
-683.281	19.556	-0.242	-0.200
-682.266	119.185	-0.195	-0.249
-681.251	544.696	-0.080	-0.197
-680.237	-42.149	0.144	0.076
-679.222	302.734	-0.119	-0.226
-678.208	443.218	-0.072	0.162
-677.193	-98.712	-0.108	0.028
-676.178	-107.586	-0.324	0.073
-675.164	-153.664	0.155	0.011
-674.149	800.000	0.072	-0.229
-673.135	-141.293	-0.174	0.018
-672.120	800.000	0.077	0.286
-671.105	75.195	0.154	0.167
-670.091	-76.180	0.114	0.041
-669.076	84.483	0.042	-0.047
-668.062	145.942	0.061	-0.084
-667.047	-17.392	-0.130	-0.084
-666.032	-108.775	0.322	0.071
-665.018	759.973	-0.106	-0.295
-664.003	-200.000	-0.036	0.198
-662.989	-37.817	0.200	-0.109
-661.974	96.421	0.009	-0.010
-660.959	-115.902	-0.373	-0.072
-659.945	127.690	-0.105	-0.137
-658.930	-8.453	0.200	-0.138
-657.916	545.614	0.155	-0.380
-656.901	800.000	0.072	-0.216
-655.886	4.368	-0.200	-0.150
-654.872	-55.372	-0.230	-0.106
-653.857	95.607	0.030	0.035
-652.843	423.913	0.116	-0.256
-651.828	20.715	-0.152	-0.127
-650.814	56.191	-0.089	0.089
-649.799	-181.625	0.347	0.007
-648.784	-40.703	0.034	0.018
-647.770	195.856	0.140	0.218
-646.755	93.590	0.087	-0.102
-645.741	-6.395	-0.223	0.156
-644.726	-50.248	0.100	0.049
-643.711	66.353	-0.080	0.084
-642.697	-93.010	-0.060	0.017
-641.682	94.797	0.155	-0.181
-640.668	-178.537	-0.255	-0.006
-639.653	-139.799	0.393	0.043
-638.638	-113.671	0.074	-0.015
-637.624	-198.525	-0.295	0.002
-636.609	4.456	-0.086	-0.065
-635.595	800.000	0.041	0.171
-634.580	39.687	-0.117	0.108
-633.565	-99.707	0.280	0.072
-632.551	-200.000	-0.004	-0.039
-631.536	-187.312	-0.282	-0.004
-630.522	-65.841	-0.207	-0.085
-629.507	176.138	-0.169	-0.252
-628.492	75.742	0.216	-0.234
-627.478	-200.000	-0.017	0.107
-626.463	393.912	-0.070	-0.150
-625.449	29.044	-0.034	0.029
-624.434	12.137	-0.135	-0.107
-623.419	-200.000	0.016	0.073
-622.405	-4.481	0.090	0.064
-621.390	-103.395	-0.133	-0.032
-620.376	-200.000	-0.022	0.355
-619.361	-122.218	0.282	0.047
-618.346	-155.197	-0.097	-0.007
-617.332	-60.910	-0.344	0.149
-616.317	-41.228	0.228	0.121
-615.303	800.000	0.073	0.223
-614.288	-156.036	-0.137	0.009
-613.273	800.000	0.056	-0.208
-612.259	-138.012	-0.184	0.021
-611.244	800.000	-0.113	0.392
-610.230	-152.541	-0.026	-0.002
-609.215	4.268	-0.141	0.106
-608.201	77.638	-0.128	-0.139
-607.186	-187.290	-0.292	-0.004
-606.171	38.800	-0.053	0.049
-605.157	-150.876	-0.345	0.027
-604.142	95.153	0.231	0.270
-603.128	30.867	0.198	-0.174
-602.113	-102.901	0.284	-0.069
-601.098	-128.248	-0.090	-0.013
-600.084	800.000	0.023	0.100
-599.069	-200.000	-0.004	-0.125
-598.055	196.513	-0.184	-0.287
-597.040	-200.000	0.011	0.223
-596.025	418.461	0.143	0.313
-595.011	141.747	-0.157	0.213
-593.996	-183.973	-0.335	-0.006
-592.982	517.635	-0.057	-0.136
-591.967	-183.090	0.449	0.008
-590.952	-42.312	-0.280	0.146
-589.938	644.962	-0.055	-0.143
-588.923	-67.027	-0.154	0.062
-587.909	-128.783	-0.198	0.029
-586.894	-56.909	0.132	0.060
-585.879	34.537	-0.145	0.129
-584.865	-179.137	-0.171	-0.004
-583.850	219.609	0.028	-0.045
-582.836	-4.055	-0.263	0.187
-581.821	-150.155	-0.136	-0.011
-580.806	65.777	0.130	-0.135
-579.792	-9.647	0.197	0.134
-578.777	217.115	0.083	0.136
-577.763	-162.469	0.293	0.015
-576.748	800.000	-0.048	0.214
-575.733	-58.083	0.304	0.136
-574.719	-200.000	-0.033	0.355
-573.704	121.783	0.246	-0.315
-572.690	117.265	0.038	0.047
-571.675	95.626	0.056	0.065
-570.661	-12.665	0.104	-0.070
-569.646	80.336	-0.118	0.130
-568.631	-200.000	-0.043	0.439
-567.617	8.110	-0.087	0.067
-566.602	-57.106	0.027	0.012
-565.588	436.732	-0.067	-0.149
-564.573	-106.204	-0.314	0.072
-563.558	207.086	0.215	-0.343
-562.544	441.794	0.078	-0.175
-561.529	206.667	0.059	0.094
-560.515	118.310	0.050	0.063
-559.500	476.346	0.122	0.283
-558.485	-112.465	-0.185	0.038
-557.471	72.212	0.192	0.205
-556.456	188.614	0.223	-0.342
-555.442	-7.320	-0.067	-0.047
-554.427	81.310	0.293	0.324
-553.412	99.514	-0.282	-0.334
-552.398	40.037	-0.368	-0.338
-551.383	24.249	-0.181	0.153
-550.369	51.685	0.212	0.206
-549.354	348.797	0.032	0.065
-548.339	203.753	-0.055	0.088
-547.325	-67.607	-0.198	0.080
-546.310	-200.000	-0.015	-0.090
-545.296	-200.000	0.081	-0.428
-544.281	83.824	-0.148	-0.165
-543.266	127.180	-0.287	-0.372
-542.252	-83.893	-0.226	-0.074
-541.237	33.773	0.096	-0.086
-540.223	-136.282	0.175	0.021
-539.208	-198.608	-0.363	0.002
-538.193	174.420	-0.141	0.209
-537.179	30.886	-0.175	0.154
-536.164	141.590	-0.192	0.260
-535.150	-88.218	-0.130	0.040
-534.135	439.660	0.062	-0.138
-533.121	35.457	-0.122	-0.110
-532.106	21.372	0.226	-0.188
-531.091	-156.205	-0.237	0.015
-530.077	-200.000	-0.077	-0.536
-529.062	-200.000	0.002	0.101
-528.048	70.386	-0.087	0.092
-527.033	127.422	0.068	0.088
-526.018	-57.624	-0.232	0.104
-525.004	175.929	0.169	0.251
-523.989	-98.718	-0.277	0.072
-522.975	-99.167	-0.096	-0.025
-521.960	800.000	0.054	-0.237
-520.945	449.268	0.120	-0.271
-519.931	800.000	-0.036	0.139
-518.916	800.000	-0.044	0.167
-517.902	122.896	0.204	0.261
-516.887	80.329	0.116	-0.128
-515.872	225.969	-0.169	-0.280
-514.858	800.000	-0.070	0.263
-513.843	126.526	0.166	0.215
-512.829	43.620	-0.172	-0.160
-511.814	111.027	0.051	0.062
-510.799	-83.486	-0.224	0.073
-509.785	279.899	0.203	0.371
-508.770	48.215	-0.229	0.219
-507.756	22.875	-0.231	0.193
-506.741	-163.746	0.210	0.010
-505.726	33.030	-0.087	-0.077
-504.712	-38.217	-0.213	-0.115
-503.697	198.165	0.063	-0.098
-502.683	31.954	0.266	0.234
-501.668	-79.159	0.116	-0.040
-500.653	-200.000	-0.046	0.337
-499.639	41.147	-0.162	0.150
-498.624	-200.000	-0.010	0.355
-497.610	-161.938	-0.053	-0.003
-496.595	-69.773	-0.055	0.021
-495.581	-61.301	0.085	0.037
-494.566	344.358	0.089	-0.179
-493.551	-44.652	-0.146	-0.074
-492.537	-18.561	-0.179	-0.114
-491.522	-21.330	0.228	-0.142
-490.508	1.740	-0.431	0.317
-489.493	529.547	0.066	-0.159
-488.478	370.846	-0.121	-0.250
-487.464	346.122	0.081	0.162
-486.449	-144.255	-0.064	-0.006
-485.435	800.000	0.079	0.306
-484.420	101.394	0.041	0.049
-483.405	102.757	0.072	-0.086
-482.391	-200.000	0.011	0.063
-481.376	-200.000	0.048	0.367
-480.362	-200.000	0.035	-0.163
-479.347	-110.063	0.121	0.026
-478.332	-200.000	0.025	-0.153
-477.318	66.419	-0.109	-0.113
-476.303	-40.790	0.160	-0.085
-475.289	741.217	0.058	0.158
-474.274	86.475	-0.080	0.090
-473.259	-170.723	-0.230	0.008
-472.245	-200.000	0.019	-0.541
-471.230	320.394	0.114	-0.222
-470.216	800.000	-0.007	-0.027
-469.201	132.789	0.208	-0.273
-468.186	509.009	0.143	0.339
-467.172	244.618	-0.190	0.326
-466.157	338.638	0.125	0.249
-465.143	-151.910	0.253	-0.019
-464.128	-89.757	0.059	-0.018
-463.113	800.000	0.055	-0.227
-462.099	-59.194	-0.132	-0.058
-461.084	800.000	0.018	-0.063
-460.070	-11.832	-0.262	0.175
-459.055	-152.524	0.123	0.009
-458.040	-14.183	-0.306	0.201
-457.026	342.917	-0.037	-0.075
-456.011	110.158	-0.119	0.145
-454.997	52.596	0.188	0.183
-453.982	800.000	0.100	0.417
-452.968	800.000	-0.056	0.248
-451.953	-200.000	-0.009	-0.222
-450.938	-128.855	0.225	0.032
-449.924	-76.129	-0.168	-0.060
-448.909	39.913	-0.020	0.018
-447.895	221.553	-0.115	-0.188
-446.880	46.471	0.202	-0.191
-445.865	-67.372	-0.393	0.158
-444.851	-72.281	-0.365	0.138
-443.836	-200.000	-0.056	0.382
-442.822	168.686	-0.126	0.183
-441.807	21.866	-0.413	-0.343
-440.792	-9.221	-0.029	0.020
-439.778	-69.564	-0.089	-0.035
-438.763	-200.000	-0.026	-0.377
-437.749	100.422	-0.095	0.112
-436.734	-127.722	0.090	0.013
-435.719	-109.231	0.171	0.037
-434.705	-85.648	0.233	-0.074
-433.690	-162.212	-0.387	-0.020
-432.676	-99.394	-0.086	-0.022
-431.661	40.974	0.099	-0.091
-430.646	-200.000	-0.015	-0.115
-429.632	-83.711	0.299	-0.097
-428.617	-200.000	0.008	-0.067
-427.603	800.000	-0.036	0.138
-426.588	-139.017	0.233	0.026
-425.573	272.320	0.043	0.077
-424.559	800.000	-0.015	0.058
-423.544	142.699	0.082	-0.112
-422.530	-19.875	0.249	-0.157
-421.515	-112.506	0.074	0.015
-420.500	140.682	-0.058	-0.078
-419.486	-30.105	0.290	0.168
-418.471	-38.358	0.092	0.050
-417.457	2.155	0.102	-0.075
-416.442	457.346	0.084	0.191
-415.428	-19.410	0.362	-0.228
-414.413	190.232	0.120	-0.184
-413.398	-61.417	-0.136	-0.058
-412.384	-69.983	-0.279	-0.108
-411.369	177.788	-0.273	-0.406
-410.355	96.858	0.026	0.030
-409.340	-200.000	0.021	0.134
-408.325	188.611	0.128	0.195
-407.311	19.667	0.095	-0.077
-406.296	-15.659	0.067	0.043
-405.282	209.257	0.109	-0.174
-404.267	-200.000	-0.044	-0.337
-403.252	-56.166	0.094	-0.043
-402.238	10.901	0.323	-0.251
-401.223	100.451	-0.195	-0.230
-400.209	75.063	0.153	-0.164
-399.194	-20.508	-0.164	0.103
-398.179	422.180	-0.154	-0.337
-397.165	800.000	-0.039	-0.131
-396.150	232.922	0.044	0.073
-395.136	-10.345	-0.134	0.091
-394.121	-11.987	-0.385	-0.256
-393.106	800.000	0.056	0.190
-392.092	37.380	0.202	0.182
-391.077	182.055	0.085	0.127
-390.063	-25.162	-0.105	0.063
-389.048	11.813	0.090	0.070
-388.033	447.459	-0.082	0.183
-387.019	31.456	0.112	0.098
-386.004	-74.628	-0.235	-0.086
-384.990	1.065	0.312	0.228
-383.975	-138.496	0.383	0.043
-382.960	-158.206	0.286	-0.017
-381.946	415.476	-0.052	-0.112
-380.931	173.168	-0.068	-0.099
-379.917	-200.000	0.015	-0.222
-378.902	-54.541	-0.214	0.099
-377.888	-200.000	-0.002	0.052
-376.873	-25.252	0.193	-0.116
-375.858	-133.184	-0.419	0.054
-374.844	-98.998	0.210	0.054
-373.829	-8.343	-0.127	0.087
-372.815	-40.146	0.051	-0.027
-371.800	-65.966	0.237	0.096
-370.785	382.815	-0.048	-0.100
-369.771	78.344	-0.182	-0.197
-368.756	74.979	0.205	-0.220
-367.742	-200.000	0.051	-0.301
-366.727	800.000	0.013	0.050
-365.712	-200.000	0.011	-0.099
-364.698	307.948	-0.237	-0.450
-363.683	20.443	0.240	-0.197
-362.669	292.838	0.055	0.102
-361.654	-99.233	0.322	-0.083
-360.639	752.162	0.134	-0.366
-359.625	-81.536	0.075	0.025
-358.610	42.733	-0.289	0.268
-357.596	-2.945	-0.398	0.283
-356.581	-129.501	0.118	-0.017
-355.566	800.000	0.033	0.102
-354.552	196.662	0.049	-0.076
-353.537	-200.000	-0.050	0.239
-352.523	216.624	0.087	-0.141
-351.508	462.431	-0.163	-0.370
-350.493	161.614	0.201	-0.286
-349.479	800.000	-0.088	0.257
-348.464	800.000	-0.012	-0.052
-347.450	-200.000	0.012	-0.161
-346.435	727.222	0.103	-0.279
-345.420	-200.000	-0.020	-0.304
-344.406	158.107	0.275	0.387
-343.391	-27.225	-0.090	0.053
-342.377	-200.000	0.027	-0.135
-341.362	-104.226	-0.149	0.035
-340.348	-61.439	-0.112	0.048
-339.333	-101.673	0.082	0.020
-338.318	800.000	-0.086	-0.329
-337.304	-29.630	-0.300	0.174
-336.289	13.338	0.229	0.180
-335.275	-1.127	-0.232	-0.166
-334.260	-52.691	0.353	0.165
-333.245	-132.535	-0.317	0.041
-332.231	-200.000	-0.019	0.494
-331.216	-41.472	0.307	0.160
-330.202	800.000	0.014	-0.052
-329.187	752.441	-0.082	-0.225
-328.172	-106.461	0.101	-0.023
-327.158	24.056	-0.031	-0.026
-326.143	599.071	0.103	0.260
-325.129	-68.349	0.073	-0.029
-324.114	-200.000	0.046	-0.425
-323.099	-10.273	-0.130	0.087
-322.085	77.597	0.152	0.164
-321.070	-126.520	0.390	-0.059
-320.056	-14.052	0.093	0.061
-319.041	-200.000	0.013	0.275
-318.026	149.946	0.217	-0.298
-317.012	90.599	-0.185	-0.210
-315.997	30.231	-0.220	0.190
-314.983	-88.134	0.143	-0.043
-313.968	800.000	0.149	0.544
-312.953	-200.000	-0.030	0.333
-311.939	-200.000	-0.030	0.146
-310.924	-32.823	0.180	-0.101
-309.910	332.292	-0.135	-0.264
-308.895	-200.000	0.007	-0.130
-307.880	-36.116	-0.035	0.019
-306.866	800.000	0.007	0.027
-305.851	-200.000	-0.022	-0.140
-304.837	800.000	-0.079	-0.313
-303.822	24.825	0.257	0.216
-302.807	-200.000	0.032	-0.357
-301.793	-104.089	-0.441	0.104
-300.778	-52.509	0.136	-0.064
-299.764	11.923	0.202	-0.157
-298.749	-190.507	0.225	0.002
-297.735	508.626	-0.143	0.336
-296.720	-200.000	-0.002	-0.135
-295.705	-42.961	-0.179	-0.092
-294.691	74.907	0.123	-0.131
-293.676	-123.116	0.210	-0.034
-292.662	-37.234	-0.046	-0.025
-291.647	-200.000	0.016	0.084
-290.632	644.208	-0.097	-0.250
-289.618	198.492	0.093	-0.143
-288.603	-12.539	-0.218	0.144
-287.589	-200.000	0.001	-0.172
-286.574	416.705	0.012	0.026
-285.559	60.211	-0.247	0.247
-284.545	121.120	-0.120	-0.151
-283.530	-102.770	0.142	-0.034
-282.516	32.389	-0.185	-0.162
-281.501	64.685	0.225	-0.230
-280.486	-200.000	0.016	-0.096
-279.472	-108.116	-0.203	0.045
-278.457	-200.000	0.042	-0.365
-277.443	-200.000	0.025	-0.167
-276.428	-98.695	-0.047	0.012
-275.413	253.311	-0.017	-0.029
-274.399	-37.901	-0.037	0.020
-273.384	-200.000	0.045	-0.210
-272.370	102.977	-0.124	-0.147
-271.355	-200.000	0.013	-0.081
-270.340	29.297	-0.106	-0.091
-269.326	-161.026	0.184	-0.010
-268.311	-200.000	-0.028	0.139
-267.297	-146.153	0.353	0.031
-266.282	-158.042	0.385	0.023
-265.267	-0.045	-0.028	0.020
-264.253	800.000	0.039	0.165
-263.238	-157.950	-0.300	-0.018
-262.224	-200.000	-0.026	-0.183
-261.209	531.921	0.025	0.060
-260.195	-200.000	-0.003	0.156
-259.180	-200.000	0.029	-0.236
-258.165	56.191	0.308	-0.303
-257.151	-200.000	-0.016	0.181
-256.136	171.474	0.104	0.151
-255.122	-200.000	0.089	0.428
-254.107	-154.528	-0.139	0.009
-253.092	800.000	-0.023	0.087
-252.078	-154.645	0.186	-0.013
-251.063	-17.112	-0.248	-0.158
-250.049	164.055	-0.107	0.152
-249.034	-200.000	-0.005	0.146
-248.019	-120.631	-0.240	-0.041
-247.005	-200.000	-0.033	-0.214
-245.990	-157.832	-0.135	0.008
-244.976	-168.348	0.144	-0.006
-243.961	42.571	0.145	0.134
-242.946	-200.000	0.013	-0.100
-241.932	385.469	-0.165	-0.344
-240.917	80.193	-0.067	-0.072
-239.903	-191.984	0.021	-0.000
-238.888	17.281	-0.240	0.193
-237.873	-31.689	-0.107	-0.061
-236.859	397.297	-0.188	-0.396
-235.844	201.658	-0.047	-0.073
-234.830	112.518	0.411	-0.502
-233.815	26.549	0.261	0.221
-232.800	608.804	0.062	-0.157
-231.786	-51.210	-0.128	0.061
-230.771	166.117	-0.071	0.102
-229.757	-49.801	-0.072	-0.035
-228.742	157.333	0.149	-0.208
-227.727	3.370	-0.260	-0.191
-226.713	-91.641	0.365	-0.105
-225.698	-85.284	-0.145	0.046
-224.684	12.201	-0.196	0.152
-223.669	86.927	0.070	-0.078
-222.655	275.529	-0.076	0.136
-221.640	-85.959	0.125	0.039
-220.625	19.811	-0.223	0.181
-219.611	35.391	0.158	-0.140
-218.596	1.516	0.236	0.172
-217.582	291.353	0.114	0.210
-216.567	-200.000	0.014	0.138
-215.552	317.395	0.087	0.167
-214.538	92.587	-0.111	-0.126
-213.523	-28.898	0.306	-0.177
-212.509	11.801	-0.160	-0.124
-211.494	-137.241	0.187	0.021
-210.479	744.832	0.120	0.326
-209.465	62.093	0.160	-0.161
-208.450	33.938	-0.096	-0.085
-207.436	253.686	-0.057	0.098
-206.421	-200.000	0.062	-0.281
-205.406	-21.475	0.117	0.072
-204.392	85.405	-0.075	0.083
-203.377	-97.249	-0.159	-0.042
-202.363	-82.873	0.168	0.055
-201.348	266.412	0.105	-0.186
-200.333	38.138	0.428	-0.384
-199.319	-94.396	0.609	0.168
-198.304	-36.979	-0.146	0.079
-197.290	-94.605	0.057	-0.016
-196.275	800.000	-0.016	-0.051
-195.260	143.715	-0.102	-0.137
-194.246	-200.000	0.011	0.198
-193.231	-29.289	0.335	-0.193
-192.217	-200.000	0.007	-0.323
-191.202	250.569	-0.081	0.139
-190.187	800.000	-0.138	0.383
-189.173	-177.988	0.101	-0.002
-188.158	-200.000	0.020	-0.101
-187.144	55.343	-0.159	-0.155
-186.129	352.237	0.169	0.338
-185.114	800.000	-0.095	0.323
-184.100	-33.547	-0.208	0.116
-183.085	-79.425	-0.187	0.064
-182.071	158.809	-0.258	-0.361
-181.056	-65.458	-0.049	0.020
-180.042	-143.934	-0.087	-0.008
-179.027	-12.067	0.109	-0.072
-178.012	-74.629	0.271	-0.098
-176.998	-108.981	0.332	-0.071
-175.983	-47.281	0.131	-0.064
-174.969	-14.967	-0.143	0.093
-173.954	155.996	0.173	-0.240
-172.939	-42.487	-0.170	0.087
-171.925	41.925	-0.108	0.099
-170.910	-42.792	-0.206	-0.105
-169.896	-27.157	-0.206	-0.121
-168.881	23.372	-0.085	0.071
-167.866	115.626	-0.164	0.202
-166.852	383.201	0.076	0.158
-165.837	-75.408	-0.095	0.034
-164.823	101.565	0.140	-0.165
-163.808	12.821	0.079	-0.062
-162.793	144.313	0.203	0.273
-161.779	-58.891	0.435	0.190
-160.764	156.033	0.234	0.325
-159.750	727.690	-0.078	0.211
-158.735	-87.812	-0.249	-0.075
-157.720	-98.514	0.190	0.049
-156.706	800.000	-0.070	0.226
-155.691	-85.915	-0.204	-0.064
-154.677	-27.104	-0.103	0.061
-153.662	553.800	-0.096	0.233
-152.647	291.101	0.042	-0.077
-151.633	11.293	0.057	0.044
-150.618	-83.691	-0.390	0.125
-149.604	-66.454	-0.300	-0.120
-148.589	405.817	0.025	0.053
-147.574	-102.348	-0.079	-0.019
-146.560	-112.514	-0.171	-0.034
-145.545	800.000	0.108	0.342
-144.531	-7.327	0.136	-0.093
-143.516	-200.000	0.006	0.321
-142.502	101.792	-0.094	0.110
-141.487	383.097	-0.201	0.416
-140.472	-200.000	0.056	0.305
-139.458	82.302	-0.203	0.222
-138.443	-62.233	-0.322	-0.135
-137.429	3.993	-0.216	-0.159
-136.414	24.867	-0.252	0.211
-135.399	57.912	0.126	0.124
-134.385	55.828	0.028	-0.027
-133.370	-200.000	-0.054	-0.336
-132.356	-73.355	-0.118	-0.043
-131.341	-200.000	0.011	0.393
-130.326	-165.915	0.149	-0.006
-129.312	4.591	0.023	0.017
-128.297	-14.519	-0.102	0.066
-127.283	800.000	0.081	0.234
-126.268	-161.456	-0.215	-0.011
-125.253	-200.000	-0.014	-0.197
-124.239	-112.142	0.106	-0.021
-123.224	-200.000	-0.004	-0.043
-122.210	-200.000	-0.014	0.090
-121.195	-200.000	-0.018	-0.238
-120.180	169.208	0.062	0.089
