DTS Sentinel unit serial number:	SN413079Multiplexer serial number:	ORYXHardware model number:	OX4-SRSoftware version number:	ORYX F/W v4.00 Oryx Data Collector v3.7.2.0data status	okinstallation	princeton_trtdifferential loss correction	single-endedforward channel	channel 4reverse channel	N/Adate	2019/09/14time	13:21:35forward acquisition time	60.00reverse acquisition time	0.00gamma	496.2192k internal	0.2291k external	0.2291temperature offset calibration	1.0156default loss term (dB/km)	0.3790temperature slope calibration	1.0000multiplexer offset coefficient	1.0000multiplexer slope coefficient	1.0000fibre end	0.00T internal ref (°C)	37.94T ext. ref 1 (°C)	4.92T ext. ref 2 (°C)	33.59length (m)	temperature (°C)	Stokes	anti-Stokes-747.200	-13.220	-0.138	0.092
-746.185	483.613	-0.092	0.215
-745.171	-125.984	0.021	0.003
-744.156	-62.794	-0.365	0.155
-743.142	43.137	-0.205	-0.192
-742.127	-200.000	0.010	0.190
-741.112	92.940	-0.201	-0.232
-740.098	6.961	-0.250	0.191
-739.083	234.469	0.048	0.081
-738.069	283.558	0.033	-0.060
-737.054	-131.013	0.051	0.007
-736.039	-60.634	-0.450	-0.196
-735.025	128.220	-0.107	0.140
-734.010	267.618	-0.075	-0.134
-732.996	-28.755	-0.208	-0.123
-731.981	-98.915	0.326	-0.085
-730.966	-92.609	-0.153	0.044
-729.952	39.846	0.033	-0.030
-728.937	-55.512	0.078	-0.036
-727.923	-1.550	-0.230	-0.166
-726.908	-17.460	-0.295	-0.190
-725.894	118.301	-0.016	-0.020
-724.879	-53.174	-0.227	-0.107
-723.864	-121.089	0.347	-0.059
-722.850	-173.423	0.297	0.009
-721.835	-200.000	-0.024	0.318
-720.821	-41.042	0.199	-0.105
-719.806	9.491	0.168	-0.130
-718.791	-109.083	-0.289	-0.063
-717.777	242.241	-0.070	0.120
-716.762	71.329	0.054	-0.057
-715.748	-3.318	0.223	0.159
-714.733	-200.000	-0.002	-0.315
-713.718	800.000	0.146	0.438
-712.704	-103.716	-0.166	0.040
-711.689	-27.946	0.191	-0.113
-710.675	-51.632	0.082	-0.039
-709.660	-102.595	0.358	-0.087
-708.645	-169.872	-0.323	0.012
-707.631	577.284	0.114	-0.286
-706.616	-200.000	0.173	0.000
-705.602	148.700	0.169	-0.233
-704.587	-200.000	0.027	0.209
-703.572	-124.059	0.310	0.050
-702.558	-3.484	0.202	-0.143
-701.543	-200.000	-0.007	0.071
-700.529	401.163	-0.091	0.196
-699.514	-29.268	-0.220	-0.129
-698.499	-200.000	-0.027	-0.199
-697.485	-200.000	0.014	0.122
-696.470	-29.920	0.333	0.194
-695.456	-43.711	0.237	0.122
-694.441	-18.164	0.246	-0.158
-693.426	-98.842	-0.081	-0.021
-692.412	-200.000	0.050	-0.265
-691.397	240.234	-0.120	0.205
-690.383	-30.669	0.311	-0.180
-689.368	5.648	-0.123	0.093
-688.354	-85.983	-0.149	0.047
-687.339	222.291	-0.162	-0.266
-686.324	215.641	-0.179	0.291
-685.310	218.437	0.060	-0.097
-684.295	-107.372	-0.291	-0.065
-683.281	146.775	0.133	0.182
-682.266	-121.717	-0.120	0.020
-681.251	800.000	0.051	-0.182
-680.237	-200.000	-0.035	-0.248
-679.222	228.580	-0.226	-0.376
-678.208	51.619	0.184	0.178
-677.193	-29.577	-0.202	-0.118
-676.178	22.878	-0.152	-0.127
-675.164	-117.819	-0.286	-0.053
-674.149	-102.975	0.170	0.041
-673.135	151.010	-0.121	-0.168
-672.120	-81.719	0.151	0.050
-671.105	-53.905	0.022	-0.010
-670.091	800.000	0.041	-0.134
-669.076	-126.563	-0.109	-0.016
-668.062	-200.000	0.006	-0.207
-667.047	-200.000	-0.079	0.416
-666.032	-95.561	-0.232	0.063
-665.018	310.091	-0.190	-0.363
-664.003	-89.412	0.308	-0.092
-662.989	51.887	-0.218	0.212
-661.974	-200.000	-0.031	0.283
-660.959	-22.200	0.157	-0.097
-659.945	-60.918	-0.242	-0.105
-658.930	191.391	-0.069	-0.105
-657.916	267.881	0.121	-0.217
-656.901	-82.993	-0.343	-0.113
-655.886	78.659	0.038	-0.041
-654.872	-200.000	0.240	0.000
-653.857	-200.000	0.023	-0.309
-652.843	-200.000	0.034	-0.179
-651.828	-200.000	0.002	-0.304
-650.814	-97.426	-0.135	0.036
-649.799	-200.000	0.039	-0.295
-648.784	-73.901	-0.275	0.102
-647.770	26.439	-0.197	0.168
-646.755	-169.336	0.376	-0.014
-645.741	481.035	0.062	-0.143
-644.726	-200.000	-0.023	0.395
-643.711	550.246	-0.063	0.154
-642.697	16.209	0.142	0.114
-641.682	800.000	0.080	0.281
-640.668	317.939	-0.109	0.210
-639.653	84.601	0.145	-0.162
-638.638	800.000	-0.088	-0.259
-637.624	296.231	-0.163	0.305
-636.609	496.721	-0.037	-0.086
-635.595	54.769	0.190	0.187
-634.580	-194.256	0.125	0.001
-633.565	-200.000	0.028	-0.146
-632.551	-138.768	0.241	-0.027
-631.536	-200.000	0.010	-0.284
-630.522	-2.460	0.141	-0.101
-629.507	120.933	-0.148	-0.188
-628.492	43.897	0.177	0.165
-627.478	800.000	0.010	0.033
-626.463	112.244	-0.127	-0.156
-625.449	-200.000	-0.072	0.342
-624.434	235.840	-0.160	-0.270
-623.419	-152.174	-0.235	-0.017
-622.405	-69.373	-0.118	-0.046
-621.390	-140.950	-0.345	-0.036
-620.376	-14.690	-0.088	0.058
-619.361	-200.000	0.031	0.238
-618.346	-107.630	-0.145	0.032
-617.332	-200.000	-0.088	-0.411
-616.317	-158.505	0.078	0.005
-615.303	200.707	0.069	0.109
-614.288	596.058	0.119	0.299
-613.273	63.330	0.204	-0.208
-612.259	-17.474	0.200	-0.128
-611.244	16.932	-0.068	-0.055
-610.230	-18.160	0.234	0.149
-609.215	439.626	-0.176	0.392
-608.201	800.000	0.054	0.191
-607.186	-145.273	-0.379	-0.035
-606.171	25.388	-0.062	0.052
-605.157	33.095	0.207	0.183
-604.142	-200.000	-0.078	-0.401
-603.128	97.364	-0.130	0.152
-602.113	58.612	0.107	0.107
-601.098	-101.833	-0.196	-0.048
-600.084	-146.547	0.271	0.024
-599.069	-50.953	0.302	0.144
-598.055	20.349	-0.141	0.116
-597.040	-9.579	-0.361	-0.245
-596.025	-200.000	-0.049	0.418
-595.011	-5.048	-0.085	-0.059
-593.996	92.087	-0.087	-0.100
-592.982	-200.000	-0.030	-0.172
-591.967	730.013	0.064	0.175
-590.952	668.906	-0.026	0.068
-589.938	351.296	0.120	0.242
-588.923	-53.282	0.098	0.046
-587.909	-104.551	0.064	-0.015
-586.894	672.697	-0.036	-0.094
-585.879	463.619	0.102	0.231
-584.865	-79.553	-0.055	-0.019
-583.850	800.000	-0.076	-0.263
-582.836	-45.211	-0.172	0.087
-581.821	-170.468	-0.267	0.009
-580.806	-146.303	0.040	-0.004
-579.792	124.395	-0.066	-0.084
-578.777	-55.888	-0.207	0.094
-577.763	222.579	-0.194	-0.318
-576.748	-112.223	-0.297	0.061
-575.733	-200.000	-0.013	0.309
-574.719	-0.358	-0.257	0.186
-573.704	30.885	-0.229	-0.200
-572.690	-37.196	-0.338	0.184
-571.675	-3.902	0.056	-0.039
-570.661	287.365	-0.038	-0.069
-569.646	34.355	-0.126	-0.112
-568.631	-200.000	-0.034	-0.235
-567.617	-200.000	-0.028	-0.130
-566.602	800.000	0.073	-0.210
-565.588	-200.000	-0.000	0.103
-564.573	-72.029	0.148	-0.056
-563.558	50.866	0.262	-0.252
-562.544	-150.379	0.105	-0.008
-561.529	800.000	-0.059	0.208
-560.515	-61.045	0.104	0.045
-559.500	8.742	-0.294	-0.225
-558.485	800.000	-0.022	0.078
-557.471	800.000	0.098	0.316
-556.456	-91.258	-0.445	0.130
-555.442	-71.572	0.014	-0.005
-554.427	266.655	-0.156	-0.277
-553.412	-200.000	-0.012	0.181
-552.398	-27.744	-0.134	-0.079
-551.383	-74.094	-0.181	0.067
-550.369	-103.572	-0.293	0.070
-549.354	-9.633	-0.086	0.058
-548.339	61.515	0.069	0.070
-547.325	-11.040	-0.020	-0.013
-546.310	-200.000	-0.030	-0.338
-545.296	344.906	-0.119	-0.237
-544.281	-200.000	0.015	0.141
-543.266	800.000	0.092	0.270
-542.252	-122.011	0.390	0.065
-541.237	-200.000	0.009	0.209
-540.223	106.805	-0.104	0.125
-539.208	397.696	0.234	-0.498
-538.193	109.030	0.205	-0.249
-537.179	-134.234	-0.257	-0.032
-536.164	-82.108	-0.088	0.029
-535.150	799.398	0.064	0.179
-534.135	325.860	-0.064	0.124
-533.121	-128.744	0.380	-0.054
-532.106	-200.000	0.009	0.106
-531.091	212.266	0.065	0.104
-530.077	-46.735	-0.196	-0.098
-529.062	414.071	0.049	-0.105
-528.048	-200.000	0.068	-0.320
-527.033	-69.870	0.369	-0.143
-526.018	-130.108	-0.128	0.018
-525.004	23.524	-0.112	0.094
-523.989	-3.140	0.081	0.058
-522.975	361.346	0.097	-0.198
-521.960	-66.720	0.281	-0.113
-520.945	243.333	0.045	0.077
-519.931	46.238	0.071	-0.067
-518.916	-140.167	-0.129	0.014
-517.902	230.483	0.037	-0.061
-516.887	-165.957	-0.202	0.009
-515.872	-200.000	0.041	0.283
-514.858	-52.599	-0.210	-0.098
-513.843	-94.974	-0.340	0.093
-512.829	-52.876	0.438	-0.205
-511.814	800.000	0.052	0.148
-510.799	270.434	0.195	0.348
-509.785	-130.325	0.292	-0.040
-508.770	-181.134	-0.191	0.004
-507.756	-96.574	-0.331	-0.089
-506.741	800.000	0.072	0.278
-505.726	65.223	0.227	0.233
-504.712	139.743	0.235	-0.314
-503.697	270.581	-0.111	-0.197
-502.683	-200.000	0.036	-0.172
-501.668	39.739	0.172	-0.157
-500.653	-72.224	-0.161	0.061
-499.639	49.221	0.262	-0.250
-498.624	-117.648	0.263	-0.048
-497.610	425.765	-0.025	0.054
-496.595	194.899	-0.087	-0.134
-495.581	-129.039	-0.124	0.018
-494.566	222.475	0.079	0.129
-493.551	-25.950	-0.171	-0.102
-492.537	-71.142	-0.439	-0.167
-491.522	-111.759	-0.284	0.058
-490.508	-1.637	0.046	0.033
-489.493	-127.451	0.202	0.030
-488.478	-156.977	0.340	-0.021
-487.464	-120.570	0.096	-0.016
-486.449	-52.948	0.171	0.080
-485.435	13.841	0.174	0.137
-484.420	-200.000	0.042	-0.260
-483.405	-54.161	-0.058	-0.027
-482.391	68.743	-0.171	-0.178
-481.376	-71.130	0.110	0.042
-480.362	-200.000	-0.007	-0.264
-479.347	-146.583	0.273	-0.024
-478.332	800.000	0.078	0.250
-477.318	349.140	-0.116	-0.232
-476.303	-200.000	0.027	0.369
-475.289	-200.000	-0.014	-0.235
-474.274	-200.000	0.012	-0.065
-473.259	-200.000	-0.042	0.242
-472.245	-82.955	0.166	0.054
-471.230	315.803	-0.064	0.123
-470.216	783.151	-0.008	-0.023
-469.201	-96.991	0.269	0.071
-468.186	58.665	-0.218	0.217
-467.172	13.002	-0.091	-0.071
-466.157	144.334	0.147	-0.199
-465.143	5.803	-0.127	0.095
-464.128	-119.479	-0.239	0.042
-463.113	-175.928	0.254	-0.007
-462.099	235.618	-0.056	-0.094
-461.084	-19.808	0.059	0.037
-460.070	146.381	0.044	-0.060
-459.055	-118.319	-0.136	0.024
-458.040	-200.000	0.000	-0.365
-457.026	96.366	-0.104	-0.121
-456.011	200.770	-0.297	-0.463
-454.997	154.449	-0.141	0.196
-453.982	-111.379	0.212	-0.044
-452.968	-156.008	-0.310	-0.020
-451.953	-62.358	0.210	0.089
-450.938	56.268	-0.133	-0.130
-449.924	56.789	-0.060	0.059
-448.909	45.489	0.278	0.260
-447.895	-159.924	0.083	0.005
-446.880	248.801	-0.075	-0.128
-445.865	-137.592	0.384	-0.044
-444.851	9.474	-0.190	-0.146
-443.836	242.168	0.029	-0.049
-442.822	-17.069	-0.037	-0.023
-441.807	-84.933	-0.224	0.071
-440.792	-40.446	0.058	0.030
-439.778	764.372	0.132	-0.363
-438.763	5.878	-0.109	-0.081
-437.749	704.896	0.106	-0.283
-436.734	-140.476	0.081	-0.008
-435.719	615.059	0.133	0.338
-434.705	40.753	0.122	0.111
-433.690	56.164	0.135	0.132
-432.676	50.355	-0.131	-0.125
-431.661	800.000	-0.027	0.088
-430.646	-200.000	0.017	-0.265
-429.632	-49.066	-0.257	-0.125
-428.617	800.000	0.091	-0.268
-427.603	263.311	-0.136	-0.240
-426.588	-106.851	0.075	0.017
-425.573	137.673	0.136	0.181
-424.559	26.131	-0.075	0.064
-423.544	0.512	-0.249	0.180
-422.530	35.524	0.087	-0.077
-421.515	-200.000	-0.015	-0.314
-420.500	454.402	0.089	-0.200
-419.486	342.155	0.082	0.161
-418.471	-200.000	-0.012	-0.246
-417.457	-102.412	-0.079	-0.019
-416.442	-147.499	-0.363	0.031
-415.428	-41.389	-0.211	0.110
-414.413	495.698	-0.142	0.331
-413.398	62.133	-0.152	-0.153
-412.384	-78.090	0.319	0.111
-411.369	541.509	0.035	-0.085
-410.355	32.365	0.079	0.069
-409.340	-128.766	-0.080	-0.011
-408.325	800.000	-0.033	0.098
-407.311	152.432	0.205	-0.283
-406.296	210.004	-0.149	0.237
-405.282	-200.000	0.000	-0.138
-404.267	-140.797	-0.451	0.047
-403.252	228.896	-0.177	0.292
-402.238	129.164	-0.127	0.164
-401.223	-200.000	0.023	0.123
-400.209	-3.850	-0.092	-0.065
-399.194	800.000	0.098	-0.287
-398.179	-23.745	-0.225	-0.136
-397.165	-25.730	0.057	-0.034
-396.150	-24.477	0.259	-0.156
-395.136	-25.649	0.223	-0.133
-394.121	482.930	0.095	0.218
-393.106	-79.997	0.287	0.097
-392.092	121.800	-0.186	0.234
-391.077	800.000	0.049	0.147
-390.063	-109.714	0.262	-0.056
-389.048	-27.124	0.227	-0.133
-388.033	257.202	-0.044	-0.077
-387.019	-152.565	0.446	-0.032
-386.004	-34.118	-0.149	-0.083
-384.990	2.629	-0.203	-0.148
-383.975	199.453	-0.082	-0.127
-382.960	-174.776	0.328	-0.009
-381.946	5.765	-0.223	0.167
-380.931	-147.803	-0.051	-0.004
-379.917	17.448	0.143	0.115
-378.902	-200.000	-0.006	0.268
-377.888	-171.741	-0.210	0.007
-376.873	46.567	0.291	-0.272
-375.858	800.000	0.063	0.183
-374.844	-97.839	-0.118	-0.031
-373.829	-200.000	0.022	0.245
-372.815	608.804	-0.051	0.129
-371.800	800.000	-0.082	-0.231
-370.785	132.240	0.069	-0.090
-369.771	46.280	-0.110	0.103
-368.756	-200.000	0.064	0.317
-367.742	-60.309	0.288	0.124
-366.727	265.869	-0.147	-0.259
-365.712	360.039	0.082	-0.166
-364.698	-71.103	0.079	-0.030
-363.683	113.129	0.132	-0.162
-362.669	104.240	-0.082	0.097
-361.654	-17.466	-0.123	-0.078
-360.639	45.633	-0.256	0.239
-359.625	800.000	0.014	-0.044
-358.610	687.330	-0.137	-0.361
-357.596	-115.191	0.194	-0.037
-356.581	506.681	-0.160	0.375
-355.566	-60.446	0.115	0.049
-354.552	783.080	-0.064	-0.176
-353.537	-99.095	0.180	-0.046
-352.523	800.000	0.030	-0.125
-351.508	643.852	-0.069	0.177
-350.493	416.866	-0.046	0.100
-349.479	10.711	-0.129	0.099
-348.464	-111.546	-0.213	-0.044
-347.450	-18.746	0.436	0.274
-346.435	-69.786	-0.224	-0.086
-345.420	101.005	0.273	0.320
-344.406	-83.704	-0.144	-0.046
-343.391	372.257	-0.063	-0.128
-342.377	495.590	0.074	0.173
-341.362	800.000	-0.024	0.074
-340.348	545.858	0.096	0.230
-339.333	-33.497	0.092	0.051
-338.318	-140.898	-0.209	0.022
-337.304	59.291	-0.083	0.083
-336.289	-83.427	0.374	-0.121
-335.275	-83.385	0.026	0.008
-334.260	319.792	-0.124	-0.236
-333.245	-200.000	0.006	-0.313
-332.231	800.000	0.053	0.157
-331.216	231.429	0.208	-0.343
-330.202	-200.000	0.014	-0.081
-329.187	19.667	0.144	0.117
-328.172	-46.367	-0.156	-0.077
-327.158	-200.000	0.038	-0.465
-326.143	800.000	0.107	-0.304
-325.129	-200.000	-0.005	0.254
-324.114	-52.533	-0.100	-0.047
-323.099	-168.943	-0.062	0.002
-322.085	-102.492	-0.216	-0.052
-321.070	-200.000	-0.013	-0.131
-320.056	-162.305	-0.299	0.015
-319.041	-137.455	0.189	0.021
-318.026	-200.000	-0.031	0.256
-317.012	-200.000	0.021	0.152
-315.997	-32.337	-0.308	0.173
-314.983	118.736	0.130	-0.162
-313.968	800.000	0.049	0.138
-312.953	68.525	0.148	-0.153
-311.939	25.588	0.090	-0.075
-310.924	-38.784	0.071	-0.038
-309.910	572.479	-0.133	-0.326
-308.895	-200.000	-0.045	0.200
-307.880	444.624	0.115	-0.253
-306.866	-42.201	0.095	-0.049
-305.851	-117.641	0.236	0.043
-304.837	-35.438	-0.235	-0.128
-303.822	-200.000	0.007	0.149
-302.807	-2.504	0.176	-0.124
-301.793	18.536	-0.126	-0.101
-300.778	-126.643	0.069	0.010
-299.764	-200.000	0.032	-0.361
-298.749	139.016	0.051	0.067
-297.735	731.077	0.135	0.363
-296.720	16.642	-0.053	0.042
-295.705	485.075	0.048	-0.111
-294.691	-57.989	0.339	0.149
-293.676	800.000	-0.107	0.375
-292.662	437.312	-0.030	0.065
-291.647	644.023	-0.195	0.502
-290.632	-200.000	-0.008	0.237
-289.618	114.935	-0.141	-0.173
-288.603	9.478	0.205	-0.156
-287.589	-33.333	-0.195	-0.108
-286.574	-94.437	0.372	-0.102
-285.559	131.894	-0.087	-0.113
-284.545	800.000	0.093	-0.304
-283.530	-60.101	-0.080	-0.034
-282.516	-58.652	-0.163	-0.071
-281.501	-0.668	0.164	-0.117
-280.486	-37.014	0.187	-0.101
-279.472	-87.928	0.174	0.053
-278.457	-96.633	0.260	0.069
-277.443	-79.861	-0.222	0.075
-276.428	164.188	0.172	0.243
-275.413	-155.469	-0.153	-0.010
-274.399	-200.000	-0.003	0.198
-273.384	521.089	-0.053	0.125
-272.370	-42.291	-0.093	0.048
-271.355	800.000	-0.107	0.308
-270.340	468.102	0.021	-0.048
-269.326	-107.487	0.269	-0.059
-268.311	166.571	-0.074	0.106
-267.297	-170.695	0.192	0.007
-266.282	149.386	-0.056	-0.077
-265.267	81.713	0.164	0.178
-264.253	800.000	-0.043	-0.186
-263.238	90.973	-0.165	0.186
-262.224	-57.090	-0.130	0.058
-261.209	-119.683	-0.425	0.074
-260.195	-200.000	0.031	-0.316
-259.180	-200.000	0.027	0.148
-258.165	800.000	0.066	-0.205
-257.151	-193.750	0.069	0.001
-256.136	800.000	-0.098	-0.291
-255.122	141.497	0.170	0.226
-254.107	15.921	0.151	0.119
-253.092	292.269	0.203	0.372
-252.078	29.919	0.124	0.106
-251.063	373.464	0.131	0.267
-250.049	800.000	0.052	-0.163
-249.034	-23.573	0.158	0.095
-248.019	-75.852	0.209	0.074
-247.005	49.770	-0.096	-0.091
-245.990	154.027	0.148	0.203
-244.976	506.522	0.158	-0.368
-243.961	800.000	0.038	-0.159
-242.946	800.000	0.103	-0.351
-241.932	-133.335	-0.199	0.025
-240.917	102.961	-0.140	-0.165
-239.903	-13.169	-0.119	-0.077
-238.888	233.898	0.201	-0.332
-237.873	-43.500	-0.231	-0.117
-236.859	65.232	0.289	0.294
-235.844	-200.000	-0.004	0.116
-234.830	-67.306	0.182	0.072
-233.815	59.898	0.117	0.116
-232.800	800.000	0.052	-0.169
-231.786	-200.000	0.003	0.351
-230.771	108.687	0.076	-0.091
-229.757	13.905	0.184	-0.143
-228.742	448.437	0.115	-0.255
-227.727	225.907	-0.166	0.270
-226.713	-200.000	-0.036	0.242
-225.698	800.000	0.044	-0.179
-224.684	47.249	-0.189	-0.176
-223.669	-200.000	0.280	-0.000
-222.655	-116.727	-0.097	0.018
-221.640	800.000	0.067	-0.220
-220.625	77.050	0.113	0.120
-219.611	-66.666	0.173	-0.069
-218.596	-200.000	-0.019	-0.136
-217.582	67.872	-0.022	0.022
-216.567	-42.334	-0.206	0.105
-215.552	-9.527	0.123	-0.082
-214.538	-105.923	-0.289	-0.065
-213.523	131.652	-0.124	0.160
-212.509	-200.000	0.003	0.091
-211.494	109.866	0.105	-0.126
-210.479	-200.000	0.002	-0.403
-209.465	-177.879	0.302	0.007
-208.450	9.651	-0.082	-0.062
-207.436	159.263	0.028	-0.039
-206.421	-200.000	0.036	0.418
-205.406	-51.828	0.158	0.074
-204.392	509.629	-0.099	-0.230
-203.377	800.000	-0.076	0.256
-202.363	83.189	-0.153	0.167
-201.348	-200.000	0.009	0.616
-200.333	205.986	-0.081	0.127
-199.319	-174.076	-0.186	0.005
-198.304	-200.000	0.027	0.154
-197.290	-91.244	-0.548	0.157
-196.275	-200.000	0.010	0.128
-195.260	373.585	-0.080	0.162
-194.246	5.006	-0.256	0.189
-193.231	-76.381	0.271	0.096
-192.217	-119.414	-0.286	-0.050
-191.202	91.919	-0.233	-0.262
-190.187	-0.428	-0.206	0.147
-189.173	-3.177	-0.202	-0.141
-188.158	-94.022	-0.353	0.097
-187.144	382.252	0.139	0.287
-186.129	-200.000	-0.003	0.088
-185.114	-54.560	0.198	0.090
-184.100	32.818	0.056	-0.049
-183.085	-123.111	0.389	-0.062
-182.071	455.028	0.117	-0.260
-181.056	-101.133	-0.534	-0.131
-180.042	-200.000	-0.013	0.147
-179.027	57.214	-0.084	-0.082
-178.012	-7.352	-0.167	-0.113
-176.998	-72.092	0.132	-0.049
-175.983	800.000	0.043	-0.133
-174.969	-200.000	-0.002	0.475
-173.954	-193.945	-0.214	-0.002
-172.939	-200.000	0.060	0.292
-171.925	-182.970	0.390	0.007
-170.910	-200.000	-0.008	0.098
-169.896	-93.791	0.076	0.021
-168.881	415.305	-0.072	-0.154
-167.866	-200.000	0.010	0.046
-166.852	-200.000	0.015	0.182
-165.837	800.000	-0.073	-0.295
-164.823	-200.000	-0.011	0.154
-163.808	117.951	-0.199	0.245
-162.793	800.000	-0.091	-0.374
-161.779	14.537	0.242	-0.189
-160.764	489.915	0.113	-0.258
-159.750	-200.000	0.036	0.160
-158.735	800.000	-0.074	-0.212
-157.720	-103.113	-0.366	0.087
-156.706	-39.270	0.285	-0.150
-155.691	15.343	0.274	0.215
-154.677	-200.000	0.021	-0.258
-153.662	800.000	0.006	-0.028
-152.647	-45.520	-0.113	-0.056
-151.633	-150.568	0.207	0.016
-150.618	-200.000	0.032	-0.206
-149.604	437.480	-0.161	-0.351
-148.589	-200.000	-0.047	0.312
-147.574	-188.140	-0.174	0.002
-146.560	-83.129	0.199	0.064
-145.545	5.103	-0.158	0.116
-144.531	-200.000	-0.013	0.317
-143.516	800.000	-0.065	0.216
-142.502	326.812	0.194	0.373
-141.487	216.019	0.165	-0.262
-140.472	288.509	0.118	0.213
-139.458	800.000	-0.063	-0.273
-138.443	-7.646	0.084	-0.057
-137.429	-200.000	-0.013	-0.286
-136.414	72.372	0.136	-0.141
-135.399	216.982	-0.029	-0.046
-134.385	241.911	-0.156	0.261
-133.370	508.059	-0.150	-0.348
-132.356	328.884	-0.030	-0.058
-131.341	-200.000	0.011	-0.049
-130.326	-200.000	0.006	-0.225
-129.312	124.049	-0.233	0.292
-128.297	103.784	0.077	-0.090
-127.283	-115.503	-0.179	0.034
-126.268	-47.762	-0.127	-0.062
-125.253	800.000	-0.121	0.347
-124.239	-102.858	-0.286	0.068
-123.224	-31.374	0.051	0.029
-122.210	-151.905	-0.268	-0.020
-121.195	-200.000	-0.001	-0.085
