DTS Sentinel unit serial number:	SN413079Multiplexer serial number:	ORYXHardware model number:	OX4-SRSoftware version number:	ORYX F/W v4.00 Oryx Data Collector v3.7.2.0data status	okinstallation	princeton_trtdifferential loss correction	single-endedforward channel	channel 4reverse channel	N/Adate	2019/09/18time	09:57:35forward acquisition time	60.00reverse acquisition time	0.00gamma	496.2192k internal	0.2319k external	0.2319temperature offset calibration	0.9986default loss term (dB/km)	0.3790temperature slope calibration	1.0000multiplexer offset coefficient	1.0000multiplexer slope coefficient	1.0000fibre end	0.00T internal ref (°C)	27.34T ext. ref 1 (°C)	0.31T ext. ref 2 (°C)	24.06length (m)	temperature (°C)	Stokes	anti-Stokes-747.200	800.000	0.071	0.301
-746.185	243.672	0.232	0.394
-745.171	-200.000	-0.006	0.148
-744.156	251.300	0.051	0.087
-743.142	481.212	0.056	0.129
-742.127	800.000	0.040	0.169
-741.112	-47.394	0.188	0.092
-740.098	300.356	-0.108	0.201
-739.083	-30.674	-0.225	0.129
-738.069	63.722	0.135	0.137
-737.054	444.085	-0.068	-0.150
-736.039	-200.000	-0.001	0.117
-735.025	-138.908	0.217	-0.024
-734.010	800.000	0.080	-0.308
-732.996	-122.583	0.265	-0.044
-731.981	2.238	-0.119	0.087
-730.966	-200.000	0.065	-0.353
-729.952	800.000	-0.103	0.294
-728.937	-200.000	0.047	0.340
-727.923	4.492	-0.305	-0.226
-726.908	-200.000	-0.169	0.000
-725.894	800.000	-0.097	0.320
-724.879	253.357	0.189	0.327
-723.864	-141.917	-0.337	0.034
-722.850	-56.967	0.205	0.091
-721.835	-118.048	0.135	-0.024
-720.821	-67.444	-0.257	-0.102
-719.806	49.367	0.185	0.176
-718.791	265.335	0.144	0.253
-717.777	273.489	-0.101	0.180
-716.762	-200.000	0.017	-0.340
-715.748	576.454	0.021	0.052
-714.733	133.962	0.098	-0.128
-713.718	128.027	-0.099	-0.127
-712.704	132.844	0.147	0.191
-711.689	-16.805	-0.208	-0.133
-710.675	597.952	0.030	0.075
-709.660	800.000	-0.020	0.086
-708.645	100.435	-0.173	-0.203
-707.631	-200.000	0.004	0.148
-706.616	71.796	0.041	-0.043
-705.602	90.933	-0.199	0.226
-704.587	139.332	0.169	-0.225
-703.572	51.444	-0.040	0.038
-702.558	-200.000	-0.034	-0.192
-701.543	-181.999	-0.184	-0.004
-700.529	-82.501	0.206	-0.067
-699.514	29.254	-0.266	0.228
-698.499	712.022	0.048	-0.127
-697.485	84.636	0.069	0.077
-696.470	208.425	-0.130	-0.205
-695.456	-200.000	0.008	-0.099
-694.441	-18.149	-0.356	-0.225
-693.426	-200.000	0.047	-0.209
-692.412	800.000	-0.082	0.276
-691.397	-129.705	0.379	0.053
-690.383	100.840	0.213	-0.250
-689.368	66.871	-0.163	-0.168
-688.354	-18.669	-0.061	-0.039
-687.339	30.885	0.126	-0.109
-686.324	32.231	-0.064	-0.056
-685.310	60.507	0.147	0.147
-684.295	-99.176	-0.224	0.057
-683.281	306.335	-0.169	0.317
-682.266	800.000	-0.039	0.144
-681.251	-51.989	-0.300	0.141
-680.237	206.079	-0.080	-0.126
-679.222	-200.000	0.024	-0.145
-678.208	2.057	-0.140	-0.102
-677.193	-147.907	0.109	-0.009
-676.178	-65.524	0.119	-0.048
-675.164	-200.000	-0.002	-0.176
-674.149	89.976	-0.117	-0.132
-673.135	51.660	-0.200	0.191
-672.120	589.877	0.031	0.076
-671.105	-178.215	-0.179	-0.004
-670.091	-86.192	0.124	0.039
-669.076	-48.481	-0.294	-0.143
-668.062	-41.532	0.031	0.016
-667.047	-200.000	0.008	-0.275
-666.032	-200.000	0.010	0.075
-665.018	109.296	0.124	-0.150
-664.003	-29.916	-0.121	0.069
-662.989	-3.435	-0.205	-0.144
-661.974	75.594	-0.136	0.144
-660.959	52.802	0.126	0.121
-659.945	-61.530	-0.208	0.088
-658.930	309.817	0.051	0.097
-657.916	143.204	-0.093	0.125
-656.901	-200.000	0.073	-0.351
-655.886	-200.000	0.023	0.117
-654.872	392.789	-0.071	0.148
-653.857	800.000	-0.068	-0.201
-652.843	-35.099	-0.259	0.142
-651.828	-84.949	0.183	-0.058
-650.814	-140.432	-0.029	0.003
-649.799	450.660	-0.086	-0.191
-648.784	800.000	0.079	0.319
-647.770	-13.695	0.350	-0.229
-646.755	-102.877	0.137	0.033
-645.741	67.517	-0.104	0.107
-644.726	-128.583	-0.208	0.030
-643.711	174.121	-0.297	-0.432
-642.697	-200.000	0.008	-0.168
-641.682	-200.000	0.009	0.108
-640.668	401.801	0.177	-0.375
-639.653	331.661	-0.040	0.078
-638.638	-42.225	-0.187	-0.096
-637.624	41.882	-0.101	-0.092
-636.609	-124.687	-0.141	-0.022
-635.595	233.355	-0.039	-0.065
-634.580	-200.000	0.028	0.136
-633.565	800.000	0.027	-0.099
-632.551	582.543	0.151	0.372
-631.536	-90.813	-0.250	0.072
-630.522	625.632	-0.042	-0.106
-629.507	46.236	0.145	0.135
-628.492	-105.021	0.351	0.081
-627.478	800.000	-0.058	-0.202
-626.463	479.068	0.050	-0.114
-625.449	518.722	0.059	0.140
-624.434	-124.442	-0.189	0.030
-623.419	-80.013	0.172	0.058
-622.405	12.647	-0.088	-0.068
-621.390	800.000	0.128	0.420
-620.376	-79.532	0.370	0.126
-619.361	-57.296	-0.319	0.141
-618.346	-200.000	0.035	0.310
-617.332	-123.054	-0.147	0.024
-616.317	-47.410	-0.061	0.030
-615.303	-47.366	0.110	0.054
-614.288	-86.679	-0.328	0.101
-613.273	300.044	0.081	-0.149
-612.259	-89.391	-0.197	-0.058
-611.244	31.016	-0.067	-0.058
-610.230	-200.000	0.039	-0.251
-609.215	-116.085	0.066	-0.012
-608.201	2.989	0.029	-0.021
-607.186	800.000	-0.069	-0.245
-606.171	-131.065	-0.056	-0.008
-605.157	49.580	-0.146	-0.138
-604.142	3.331	0.119	0.087
-603.128	-106.842	0.233	0.052
-602.113	-182.489	-0.038	-0.001
-601.098	-43.147	0.376	-0.191
-600.084	739.523	-0.008	-0.021
-599.069	29.166	-0.034	-0.029
-598.055	-58.945	-0.087	0.038
-597.040	-144.632	0.297	-0.028
-596.025	-45.105	0.355	0.178
-595.011	-8.113	-0.129	-0.087
-593.996	-34.114	0.268	-0.148
-592.982	-103.345	-0.148	0.035
-591.967	198.012	0.022	0.034
-590.952	-3.768	0.331	0.231
-589.938	800.000	-0.065	-0.224
-588.923	9.514	0.137	-0.105
-587.909	-93.526	-0.212	0.059
-586.894	800.000	-0.074	0.299
-585.879	754.347	0.033	-0.090
-584.865	-93.575	0.109	0.030
-583.850	-200.000	0.041	-0.254
-582.836	358.702	-0.154	-0.308
-581.821	-200.000	0.018	-0.498
-580.806	-13.774	0.133	0.086
-579.792	273.917	0.066	0.118
-578.777	317.043	0.039	0.074
-577.763	-200.000	-0.030	0.224
-576.748	800.000	0.043	0.156
-575.733	405.525	-0.111	-0.235
-574.719	-98.474	-0.401	-0.103
-573.704	468.778	0.072	-0.163
-572.690	-200.000	0.009	0.246
-571.675	800.000	0.083	0.313
-570.661	-200.000	0.009	0.173
-569.646	272.268	0.116	0.206
-568.631	23.253	-0.213	-0.175
-567.617	-50.989	0.155	-0.073
-566.602	137.320	-0.165	0.217
-565.588	-99.791	0.177	-0.045
-564.573	449.049	-0.093	-0.206
-563.558	-200.000	0.001	0.171
-562.544	6.915	0.229	0.171
-561.529	52.198	0.100	0.095
-560.515	-200.000	-0.008	-0.059
-559.500	-154.965	0.211	0.014
-558.485	800.000	-0.053	-0.158
-557.471	800.000	0.077	-0.236
-556.456	800.000	-0.047	0.169
-555.442	-139.837	-0.295	-0.031
-554.427	-181.534	0.235	-0.005
-553.412	-134.584	0.212	0.026
-552.398	-148.365	-0.266	0.022
-551.383	-200.000	-0.023	-0.127
-550.369	-200.000	0.012	0.078
-549.354	-147.448	-0.065	0.006
-548.339	-36.062	-0.168	0.091
-547.325	33.861	0.053	0.047
-546.310	151.599	0.155	0.212
-545.296	-200.000	0.018	-0.206
-544.281	-200.000	-0.036	0.201
-543.266	466.888	0.161	-0.361
-542.252	31.799	0.107	0.092
-541.237	113.408	-0.262	-0.319
-540.223	-200.000	-0.007	-0.111
-539.208	-158.675	-0.079	-0.005
-538.193	-82.846	0.119	0.039
-537.179	-34.602	-0.150	-0.082
-536.164	-40.385	0.454	-0.237
-535.150	159.121	-0.099	-0.139
-534.135	246.046	-0.236	-0.399
-533.121	800.000	0.057	-0.229
-532.106	-85.995	-0.055	-0.017
-531.091	-4.775	-0.453	-0.314
-530.077	312.468	0.179	0.337
-529.062	118.809	0.026	-0.032
-528.048	587.005	-0.039	0.096
-527.033	743.799	-0.167	-0.449
-526.018	279.160	0.050	-0.089
-525.004	800.000	0.089	0.342
-523.989	-83.189	0.082	0.027
-522.975	-141.873	0.150	0.015
-521.960	723.188	-0.059	0.159
-520.945	-36.507	0.207	0.111
-519.931	1.127	0.318	0.229
-518.916	-200.000	-0.018	0.124
-517.902	106.102	-0.193	0.230
-516.887	136.015	-0.236	0.308
-515.872	76.949	-0.067	-0.071
-514.858	-200.000	0.019	-0.222
-513.843	-182.576	0.242	-0.004
-512.829	13.107	-0.049	-0.038
-511.814	-200.000	0.077	-0.353
-510.799	340.856	-0.099	-0.194
-509.785	8.612	0.081	0.061
-508.770	539.695	-0.103	0.246
-507.756	497.304	-0.078	0.180
-506.741	-109.972	0.164	0.034
-505.726	-99.941	0.089	-0.022
-504.712	163.392	0.134	0.188
-503.697	-49.820	0.377	0.179
-502.683	-31.696	0.076	-0.042
-501.668	71.634	-0.185	0.193
-500.653	-148.118	0.108	-0.009
-499.639	266.387	-0.113	0.198
-498.624	800.000	0.058	0.254
-497.610	315.965	-0.086	-0.163
-496.595	-200.000	-0.077	-0.512
-495.581	30.627	0.068	0.058
-494.566	800.000	-0.018	0.061
-493.551	327.264	0.044	0.084
-492.537	204.760	-0.128	0.199
-491.522	800.000	-0.114	0.396
-490.508	-81.803	0.264	-0.087
-489.493	-68.360	-0.150	-0.058
-488.478	178.416	-0.283	-0.414
-487.464	-200.000	0.002	0.041
-486.449	800.000	0.112	0.411
-485.435	-200.000	-0.025	0.349
-484.420	-51.453	0.273	-0.128
-483.405	-145.004	0.463	-0.042
-482.391	-200.000	-0.018	-0.088
-481.376	432.061	0.186	-0.404
-480.362	800.000	-0.145	-0.461
-479.347	749.329	-0.076	0.206
-478.332	-82.939	-0.214	-0.069
-477.318	-145.385	-0.100	-0.009
-476.303	-52.045	-0.126	-0.059
-475.289	-23.508	0.143	0.086
-474.274	26.580	-0.189	-0.159
-473.259	67.170	-0.140	0.143
-472.245	-197.293	0.124	0.001
-471.230	-200.000	0.013	-0.070
-470.216	178.652	0.174	-0.255
-469.201	-176.396	0.120	-0.003
-468.186	-200.000	0.043	-0.191
-467.172	341.159	-0.110	0.214
-466.157	-200.000	-0.000	-0.021
-465.143	-69.797	-0.209	-0.080
-464.128	15.187	-0.322	0.253
-463.113	800.000	-0.058	0.207
-462.099	800.000	0.026	-0.109
-461.084	-76.042	-0.154	-0.055
-460.070	800.000	-0.018	0.074
-459.055	800.000	0.058	0.253
-458.040	-200.000	-0.008	-0.143
-457.026	300.949	-0.063	-0.117
-456.011	8.610	-0.257	0.194
-454.997	-115.093	-0.359	-0.068
-453.982	800.000	0.057	-0.173
-452.968	437.633	0.106	0.230
-451.953	-200.000	0.026	-0.256
-450.938	-200.000	-0.017	-0.408
-449.924	-90.546	-0.422	0.122
-448.909	47.619	-0.264	-0.246
-447.895	192.396	0.188	-0.284
-446.880	-200.000	-0.031	-0.136
-445.865	416.886	0.087	0.185
-444.851	-138.162	-0.275	-0.031
-443.836	-177.253	-0.121	0.003
-442.822	-126.602	-0.146	-0.022
-441.807	-157.140	0.327	0.020
-440.792	800.000	-0.014	-0.048
-439.778	160.290	0.102	0.142
-438.763	-137.012	-0.363	0.042
-437.749	240.582	0.123	-0.206
-436.734	-76.944	-0.263	0.092
-435.719	800.000	-0.037	0.135
-434.705	85.603	-0.141	0.155
-433.690	800.000	0.050	-0.187
-432.676	-182.531	0.421	0.008
-431.661	136.327	-0.063	-0.082
-430.646	-21.073	0.328	-0.201
-429.632	-143.285	-0.146	0.014
-428.617	-146.327	0.200	-0.017
-427.603	-37.256	0.270	-0.144
-426.588	413.374	-0.049	-0.105
-425.573	-131.967	0.215	-0.028
-424.559	463.953	-0.010	-0.022
-423.544	153.086	-0.216	-0.296
-422.530	-45.465	-0.266	-0.132
-421.515	311.997	0.125	-0.234
-420.500	-111.491	0.297	-0.060
-419.486	-186.210	-0.013	0.000
-418.471	-200.000	0.039	0.805
-417.457	-24.550	-0.136	0.081
-416.442	299.976	-0.026	-0.047
-415.428	-139.406	-0.105	-0.011
-414.413	129.174	0.098	0.124
-413.398	-110.978	0.216	-0.044
-412.384	800.000	0.054	-0.173
-411.369	-200.000	-0.046	0.229
-410.355	-118.343	0.163	-0.029
-409.340	564.827	0.064	0.156
-408.325	-32.744	-0.212	-0.118
-407.311	800.000	-0.119	0.345
-406.296	78.807	-0.184	-0.196
-405.282	91.059	0.139	0.156
-404.267	444.286	-0.107	0.235
-403.252	61.944	-0.152	-0.151
-402.238	-85.446	-0.145	0.045
-401.223	71.702	0.141	0.146
-400.209	16.779	-0.144	-0.114
-399.194	5.844	-0.158	0.117
-398.179	-119.320	0.055	-0.009
-397.165	-200.000	-0.017	0.177
-396.150	488.877	-0.127	0.291
-395.136	-81.071	-0.082	0.027
-394.121	323.448	0.143	-0.272
-393.106	-90.858	-0.112	-0.032
-392.092	214.094	0.082	-0.129
-391.077	145.882	-0.216	-0.289
-390.063	800.000	0.082	-0.230
-389.048	-17.537	0.023	0.014
-388.033	-200.000	0.009	-0.143
-387.019	31.694	0.166	-0.143
-386.004	-85.199	-0.282	-0.088
-384.990	-18.474	-0.244	0.152
-383.975	-121.914	-0.030	-0.005
-382.960	-200.000	-0.003	0.040
-381.946	0.590	-0.267	-0.190
-380.931	-140.178	0.259	-0.027
-379.917	85.853	0.049	-0.053
-378.902	42.545	-0.086	0.078
-377.888	-0.347	0.215	0.152
-376.873	190.712	0.150	0.224
-375.858	-28.252	-0.282	0.163
-374.844	8.549	0.099	-0.075
-373.829	-200.000	-0.014	-0.236
-372.815	-200.000	0.059	0.372
-371.800	160.881	-0.168	0.234
-370.785	-27.939	0.135	-0.078
-369.771	-72.935	0.110	0.040
-368.756	223.976	-0.014	-0.023
-367.742	52.527	-0.107	0.101
-366.727	69.881	0.060	0.062
-365.712	33.951	0.314	-0.273
-364.698	-200.000	-0.063	0.398
-363.683	-200.000	-0.052	-0.369
-362.669	-86.022	0.336	-0.104
-361.654	-52.232	-0.136	-0.063
-360.639	486.977	-0.055	-0.124
-359.625	-141.860	-0.068	0.007
-358.610	790.717	0.076	0.207
-357.596	-98.782	0.182	-0.046
-356.581	-2.105	0.142	0.099
-355.566	-200.000	0.019	0.118
-354.552	-200.000	-0.017	-0.177
-353.537	327.503	0.152	0.290
-352.523	-200.000	0.022	0.267
-351.508	132.424	0.345	-0.443
-350.493	-26.209	-0.227	0.133
-349.479	263.396	0.079	0.137
-348.464	800.000	-0.073	0.249
-347.450	-200.000	-0.012	-0.112
-346.435	494.747	0.080	-0.182
-345.420	-200.000	0.044	0.276
-344.406	-200.000	0.046	0.327
-343.391	659.680	-0.010	0.025
-342.377	-119.023	-0.366	0.064
-341.362	213.510	0.259	0.408
-340.348	332.039	0.168	-0.324
-339.333	-174.890	0.085	0.002
-338.318	386.253	0.134	-0.274
-337.304	479.454	-0.220	-0.497
-336.289	-131.582	0.147	-0.019
-335.275	73.570	-0.182	0.190
-334.260	-178.322	-0.221	-0.005
-333.245	75.235	-0.201	-0.211
-332.231	-200.000	0.001	0.056
-331.216	-22.981	0.039	-0.023
-330.202	-30.722	0.296	-0.167
-329.187	-200.000	-0.092	-0.556
-328.172	302.206	0.099	-0.182
-327.158	8.957	0.125	0.094
-326.143	-167.347	-0.091	-0.004
-325.129	495.473	-0.088	-0.202
-324.114	245.260	0.091	-0.153
-323.099	146.974	0.100	-0.134
-322.085	-200.000	-0.020	0.367
-321.070	-200.000	-0.012	-0.299
-320.056	269.702	0.046	0.081
-319.041	-150.384	0.153	0.012
-318.026	-200.000	-0.023	-0.126
-317.012	-200.000	0.051	-0.385
-315.997	451.276	0.181	0.397
-314.983	-200.000	0.078	0.533
-313.968	88.459	-0.047	-0.052
-312.953	42.747	0.286	-0.259
-311.939	-55.925	-0.024	0.011
-310.924	17.998	0.174	-0.138
-309.910	451.843	-0.107	0.236
-308.895	521.618	0.113	0.263
-307.880	-97.372	0.270	0.070
-306.866	198.717	-0.206	-0.313
-305.851	-200.000	0.036	0.464
-304.837	800.000	0.027	-0.080
-303.822	800.000	-0.016	-0.066
-302.807	800.000	-0.068	0.222
-301.793	229.730	0.029	-0.047
-300.778	-32.730	-0.195	0.108
-299.764	800.000	0.105	-0.385
-298.749	-138.572	0.315	0.034
-297.735	351.245	-0.063	0.125
-296.720	18.322	-0.238	0.189
-295.705	-81.697	-0.246	-0.080
-294.691	800.000	0.096	0.267
-293.676	-107.178	-0.050	0.011
-292.662	-119.737	0.451	0.077
-291.647	-57.658	-0.133	-0.058
-290.632	-27.328	0.170	0.098
-289.618	-23.335	0.205	0.123
-288.603	418.196	-0.059	0.126
-287.589	-40.978	-0.116	-0.060
-286.574	-97.660	0.432	0.111
-285.559	-147.980	0.201	0.017
-284.545	787.155	-0.156	-0.425
-283.530	-200.000	-0.031	0.165
-282.516	365.603	0.126	-0.252
-281.501	156.292	0.053	0.073
-280.486	504.698	0.119	-0.274
-279.472	-90.116	-0.260	-0.075
-278.457	-4.307	-0.261	0.179
-277.443	325.040	0.062	0.118
-276.428	-200.000	0.021	0.188
-275.413	-169.187	-0.146	0.005
-274.399	485.008	0.182	-0.412
-273.384	-80.191	-0.308	0.102
-272.370	283.416	-0.122	-0.217
-271.355	-89.414	-0.345	0.101
-270.340	205.073	0.267	-0.411
-269.326	-107.757	0.268	-0.058
-268.311	-2.930	0.078	0.054
-267.297	-53.576	-0.304	0.138
-266.282	-47.641	-0.382	-0.184
-265.267	-200.000	0.036	0.166
-264.253	-200.000	-0.000	-0.073
-263.238	-87.724	-0.278	0.083
-262.224	-200.000	0.024	0.232
-261.209	800.000	0.004	0.014
-260.195	740.752	0.086	-0.229
-259.180	574.493	0.132	0.319
-258.165	324.091	0.043	-0.082
-257.151	-200.000	0.083	-0.432
-256.136	-88.323	0.104	-0.031
-255.122	735.712	0.014	0.037
-254.107	-156.895	0.178	0.011
-253.092	133.780	-0.110	-0.142
-252.078	-167.961	-0.492	-0.019
-251.063	-45.330	0.121	-0.060
-250.049	-200.000	-0.086	0.435
-249.034	800.000	0.027	0.104
-248.019	800.000	0.025	0.081
-247.005	-20.343	0.143	0.087
-245.990	59.256	-0.274	0.267
-244.976	-200.000	-0.019	0.117
-243.961	25.316	0.214	0.176
-242.946	-91.796	-0.223	0.063
-241.932	167.336	0.085	0.120
-240.917	269.147	-0.051	-0.088
-239.903	-71.940	-0.352	-0.130
-238.888	97.480	0.188	-0.215
-237.873	-200.000	-0.029	0.274
-236.859	-60.342	0.270	0.114
-235.844	-72.426	-0.252	-0.092
-234.830	800.000	0.058	0.191
-233.815	-77.640	0.320	-0.110
-232.800	697.639	0.117	0.305
-231.786	-186.655	-0.402	0.006
-230.771	-200.000	-0.031	0.255
-229.757	-187.157	0.164	-0.002
-228.742	739.617	0.047	0.125
-227.727	26.511	-0.113	-0.094
-226.713	10.094	-0.321	0.242
-225.698	43.500	0.141	-0.128
-224.684	443.282	-0.079	0.172
-223.669	280.381	-0.150	0.266
-222.655	-200.000	-0.010	-0.044
-221.640	419.190	0.149	-0.316
-220.625	60.355	-0.421	0.413
-219.611	35.630	-0.233	-0.203
-218.596	515.428	-0.059	0.138
-217.582	395.279	0.106	0.218
-216.567	101.784	0.056	0.064
-215.552	184.301	-0.205	0.300
-214.538	50.878	-0.202	-0.189
-213.523	-76.084	-0.147	0.051
-212.509	-179.520	0.135	-0.003
-211.494	47.792	-0.161	0.149
-210.479	800.000	0.017	-0.072
-209.465	285.841	0.074	-0.132
-208.450	-123.829	-0.122	0.019
-207.436	591.177	-0.041	-0.100
-206.421	172.237	-0.112	-0.159
-205.406	-200.000	0.005	-0.110
-204.392	-65.712	0.168	-0.067
-203.377	-200.000	-0.023	-0.197
-202.363	10.197	-0.174	-0.131
-201.348	-125.830	0.216	-0.032
-200.333	439.069	-0.089	0.192
-199.319	236.758	0.103	0.168
-198.304	91.234	0.065	-0.072
-197.290	-200.000	-0.021	0.303
-196.275	-42.665	0.126	-0.064
-195.260	-133.397	0.274	0.034
-194.246	206.732	-0.163	0.251
-193.231	160.727	0.193	-0.267
-192.217	-69.671	0.115	-0.044
-191.202	-168.981	-0.288	0.011
-190.187	-126.525	-0.273	-0.040
-189.173	-43.282	0.244	-0.122
-188.158	-30.860	0.309	0.173
-187.144	-200.000	-0.032	-0.156
-186.129	274.117	0.195	-0.341
-185.114	800.000	-0.060	-0.165
-184.100	71.258	-0.098	-0.101
-183.085	-200.000	0.030	0.176
-182.071	-197.346	-0.340	0.002
-181.056	-30.105	0.265	0.149
-180.042	-6.840	0.176	-0.118
-179.027	125.718	0.367	0.459
-178.012	141.081	0.120	0.157
-176.998	17.949	0.081	-0.064
-175.983	528.190	-0.053	-0.123
-174.969	-96.130	-0.271	-0.071
-173.954	44.082	-0.148	0.134
-172.939	-200.000	-0.001	-0.140
-171.925	-81.894	-0.216	0.070
-170.910	-67.513	-0.282	-0.109
-169.896	-200.000	0.041	0.244
-168.881	-175.864	-0.191	0.005
-167.866	-200.000	0.073	-0.419
-166.852	10.426	0.147	0.110
-165.837	800.000	-0.028	0.095
-164.823	-94.729	-0.199	-0.053
-163.808	-97.303	0.272	-0.070
-162.793	-97.157	-0.321	0.083
-161.779	-4.009	0.182	-0.125
-160.764	800.000	0.053	0.172
-159.750	496.709	0.082	-0.187
-158.735	-46.825	0.398	0.193
-157.720	-62.826	0.067	-0.027
-156.706	-184.706	-0.487	0.008
-155.691	-118.120	-0.175	-0.031
-154.677	13.097	-0.144	-0.110
-153.662	-92.874	-0.054	0.015
-152.647	-183.324	0.154	-0.003
-151.633	91.860	0.128	-0.142
-150.618	81.779	-0.187	0.200
-149.604	201.850	-0.146	0.223
-148.589	800.000	-0.041	-0.114
-147.574	-11.097	0.248	-0.162
-146.560	800.000	-0.046	0.162
-145.545	-200.000	0.002	0.096
-144.531	92.163	-0.141	-0.157
-143.516	-200.000	0.048	0.399
-142.502	507.800	-0.103	0.237
-141.487	-200.000	0.032	0.228
-140.472	221.342	-0.158	0.250
-139.458	168.526	0.138	-0.194
-138.443	40.609	0.192	0.171
-137.429	-55.321	-0.231	-0.102
-136.414	15.874	0.269	0.209
-135.399	6.507	0.113	-0.083
-134.385	68.884	-0.178	-0.181
-133.370	635.953	-0.081	-0.203
-132.356	230.898	0.091	-0.147
-131.341	73.793	0.100	-0.104
-130.326	-28.210	0.303	-0.173
-129.312	104.279	-0.247	0.287
-128.297	-76.478	-0.112	-0.039
-127.283	118.392	-0.144	-0.176
-126.268	329.983	0.086	-0.163
-125.253	-181.201	-0.315	-0.006
-124.239	42.127	0.186	0.167
-123.224	706.985	0.106	-0.275
-122.210	102.191	-0.126	0.145
-121.195	-200.000	-0.022	0.164
