DTS Sentinel unit serial number:	SN413079Multiplexer serial number:	ORYXHardware model number:	OX4-SRSoftware version number:	ORYX F/W v4.00 Oryx Data Collector v3.7.2.0data status	okinstallation	princeton_trtdifferential loss correction	single-endedforward channel	channel 4reverse channel	N/Adate	2019/09/15time	03:05:34forward acquisition time	60.00reverse acquisition time	0.00gamma	496.2192k internal	0.2310k external	0.2310temperature offset calibration	1.0033default loss term (dB/km)	0.3790temperature slope calibration	1.0000multiplexer offset coefficient	1.0000multiplexer slope coefficient	1.0000fibre end	0.00T internal ref (°C)	31.19T ext. ref 1 (°C)	4.58T ext. ref 2 (°C)	25.77length (m)	temperature (°C)	Stokes	anti-Stokes-747.200	230.735	0.102	0.170
-746.185	-92.298	-0.219	-0.063
-745.171	119.707	-0.030	-0.038
-744.156	-85.101	-0.303	-0.096
-743.142	138.775	-0.166	-0.221
-742.127	-72.240	0.080	0.030
-741.112	-200.000	0.016	-0.243
-740.098	56.196	-0.037	-0.037
-739.083	-31.923	0.198	0.112
-738.069	1.228	-0.258	0.188
-737.054	-92.596	-0.048	0.014
-736.039	623.229	0.061	0.157
-735.025	-136.091	0.248	-0.030
-734.010	-156.014	-0.117	0.008
-732.996	-200.000	-0.025	0.275
-731.981	-36.246	0.089	0.049
-730.966	100.340	0.116	0.137
-729.952	444.656	0.098	0.219
-728.937	59.487	-0.254	-0.255
-727.923	781.151	-0.075	-0.209
-726.908	-20.808	-0.398	-0.248
-725.894	83.447	-0.039	0.044
-724.879	454.163	0.080	0.180
-723.864	-80.187	-0.189	0.064
-722.850	-200.000	-0.307	0.001
-721.835	800.000	0.086	0.263
-720.821	-38.227	-0.144	-0.077
-719.806	-151.311	-0.067	-0.005
-718.791	-200.000	0.026	-0.207
-717.777	-77.808	-0.353	0.124
-716.762	-200.000	0.001	0.246
-715.748	-36.709	0.086	0.047
-714.733	-124.204	0.166	0.026
-713.718	53.213	-0.115	0.111
-712.704	-54.346	0.154	-0.071
-711.689	-46.340	-0.265	-0.132
-710.675	-200.000	0.013	-0.156
-709.660	-200.000	0.017	-0.125
-708.645	-62.355	-0.313	-0.132
-707.631	800.000	0.069	0.249
-706.616	800.000	-0.084	-0.239
-705.602	-200.000	-0.028	0.146
-704.587	-51.782	0.160	-0.076
-703.572	-93.613	0.229	-0.064
-702.558	-200.000	0.011	-0.374
-701.543	65.294	0.049	0.050
-700.529	518.520	0.044	0.105
-699.514	-140.524	-0.175	-0.018
-698.499	-99.137	-0.019	-0.005
-697.485	800.000	-0.052	0.190
-696.470	-128.430	0.385	-0.056
-695.456	-200.000	0.023	-0.220
-694.441	-25.289	0.308	-0.185
-693.426	800.000	-0.037	-0.144
-692.412	-111.633	-0.199	0.041
-691.397	507.068	0.163	-0.384
-690.383	80.984	0.158	-0.172
-689.368	-62.023	-0.076	-0.032
-688.354	-67.985	-0.197	-0.078
-687.339	393.788	-0.119	0.251
-686.324	109.714	-0.013	0.016
-685.310	-82.601	-0.182	-0.060
-684.295	-200.000	0.003	0.242
-683.281	-200.000	0.035	0.219
-682.266	-116.960	0.176	0.033
-681.251	-200.000	-0.048	-0.325
-680.237	-200.000	-0.011	-0.241
-679.222	-200.000	0.054	-0.306
-678.208	-124.601	0.158	0.025
-677.193	40.413	-0.323	0.295
-676.178	145.315	0.167	-0.227
-675.164	-24.279	-0.123	-0.074
-674.149	-54.466	0.241	-0.111
-673.135	613.553	-0.130	-0.330
-672.120	-37.571	0.299	-0.161
-671.105	30.212	-0.126	0.109
-670.091	-34.694	0.263	-0.146
-669.076	89.275	-0.146	0.164
-668.062	114.283	0.127	0.156
-667.047	39.726	-0.247	0.225
-666.032	755.804	0.112	-0.306
-665.018	229.000	-0.113	-0.187
-664.003	162.656	0.210	0.298
-662.989	86.082	0.055	0.061
-661.974	263.390	0.122	0.214
-660.959	800.000	-0.056	0.167
-659.945	393.785	0.083	0.175
-658.930	86.982	-0.131	0.146
-657.916	-200.000	0.001	-0.121
-656.901	134.710	0.051	0.067
-655.886	-85.044	0.265	0.084
-654.872	-133.365	-0.131	-0.017
-653.857	-200.000	-0.054	-0.388
-652.843	-200.000	-0.055	-0.298
-651.828	28.998	-0.099	-0.085
-650.814	150.573	-0.114	0.157
-649.799	800.000	-0.055	0.202
-648.784	-35.422	-0.238	0.131
-647.770	153.009	-0.149	-0.206
-646.755	245.105	-0.097	0.165
-645.741	697.658	0.124	-0.330
-644.726	-170.352	0.326	-0.012
-643.711	-85.096	-0.197	-0.062
-642.697	-87.312	0.058	-0.018
-641.682	108.653	-0.088	-0.107
-640.668	281.901	-0.046	0.084
-639.653	654.835	0.152	0.394
-638.638	800.000	-0.052	-0.146
-637.624	291.231	-0.127	-0.234
-636.609	-10.634	0.366	-0.245
-635.595	-68.729	-0.360	-0.141
-634.580	-200.000	0.000	0.006
-633.565	-94.178	0.300	-0.083
-632.551	51.593	0.158	-0.152
-631.536	-38.497	-0.070	0.037
-630.522	359.773	-0.077	-0.156
-629.507	220.412	-0.285	0.461
-628.492	-131.763	-0.098	0.013
-627.478	73.136	0.244	0.258
-626.463	-101.741	0.230	0.056
-625.449	-56.856	-0.055	-0.025
-624.434	-109.539	0.010	0.002
-623.419	-135.839	0.346	0.041
-622.405	3.434	0.360	-0.265
-621.390	91.096	-0.286	-0.325
-620.376	-72.094	-0.248	-0.093
-619.361	11.269	-0.067	-0.052
-618.346	-151.625	0.223	-0.017
-617.332	-116.962	0.285	0.053
-616.317	-52.149	-0.103	-0.048
-615.303	-64.151	0.212	-0.087
-614.288	800.000	-0.083	0.326
-613.273	98.769	0.096	0.112
-612.259	-200.000	-0.065	-0.441
-611.244	-200.000	-0.074	-0.425
-610.230	-200.000	0.240	0.001
-609.215	79.072	0.160	-0.173
-608.201	153.433	-0.178	0.246
-607.186	-59.245	0.133	-0.058
-606.171	148.618	0.111	0.152
-605.157	-48.581	-0.084	0.041
-604.142	104.867	0.060	0.072
-603.128	-36.028	-0.287	0.156
-602.113	-143.975	0.223	0.021
-601.098	153.080	-0.084	-0.116
-600.084	190.579	-0.098	0.149
-599.069	-70.372	-0.184	0.071
-598.055	800.000	0.060	-0.177
-597.040	128.380	0.339	-0.435
-596.025	429.933	-0.173	-0.379
-595.011	800.000	0.081	-0.227
-593.996	-87.269	-0.218	0.067
-592.982	121.197	-0.081	0.102
-591.967	632.074	-0.111	0.283
-590.952	494.128	-0.127	0.293
-589.938	800.000	-0.015	0.061
-588.923	-200.000	0.031	-0.270
-587.909	68.895	0.227	0.236
-586.894	-101.774	0.237	0.058
-585.879	287.871	-0.210	0.383
-584.865	2.080	-0.107	0.078
-583.850	-94.742	0.033	-0.009
-582.836	-6.342	-0.367	-0.253
-581.821	-82.398	0.053	-0.018
-580.806	50.869	0.112	0.107
-579.792	156.088	-0.145	0.201
-578.777	800.000	-0.077	-0.260
-577.763	-113.396	-0.360	-0.071
-576.748	-118.560	-0.231	-0.041
-575.733	311.204	-0.160	-0.302
-574.719	-1.656	0.219	-0.156
-573.704	356.209	-0.077	-0.154
-572.690	-200.000	-0.028	0.332
-571.675	-200.000	0.001	0.014
-570.661	800.000	-0.029	-0.087
-569.646	-200.000	-0.029	0.169
-568.631	-9.309	-0.074	0.050
-567.617	110.088	0.181	-0.219
-566.602	-200.000	-0.003	0.291
-565.588	-83.259	-0.312	0.101
-564.573	800.000	0.116	0.376
-563.558	282.895	0.111	0.201
-562.544	338.717	0.122	-0.240
-561.529	-142.643	-0.256	-0.025
-560.515	-22.106	-0.274	-0.168
-559.500	-15.507	-0.112	-0.072
-558.485	527.246	0.124	-0.294
-557.471	-55.036	-0.367	-0.167
-556.456	-62.603	-0.285	-0.119
-555.442	-13.138	0.380	0.249
-554.427	-119.731	0.446	-0.078
-553.412	-99.771	-0.219	0.055
-552.398	278.698	0.123	0.221
-551.383	-39.872	-0.166	0.087
-550.369	729.499	-0.032	0.086
-549.354	-40.674	-0.091	-0.048
-548.339	-133.012	0.275	0.035
-547.325	-81.155	0.227	0.076
-546.310	800.000	-0.018	0.058
-545.296	-8.951	0.111	-0.075
-544.281	-19.339	-0.177	0.111
-543.266	-163.966	-0.222	-0.010
-542.252	5.597	0.088	-0.066
-541.237	89.565	0.121	0.136
-540.223	160.820	-0.082	-0.115
-539.208	72.306	-0.079	-0.083
-538.193	-127.683	0.093	-0.014
-537.179	-135.777	0.113	-0.014
-536.164	-24.113	-0.247	0.149
-535.150	121.575	-0.234	0.293
-534.135	62.166	0.057	0.058
-533.121	-200.000	-0.010	-0.158
-532.106	-200.000	-0.022	0.356
-531.091	-161.652	0.242	-0.012
-530.077	117.239	-0.076	0.094
-529.062	-200.000	0.007	0.083
-528.048	800.000	0.014	0.047
-527.033	68.140	0.071	-0.073
-526.018	-200.000	0.025	0.130
-525.004	-109.735	0.140	0.030
-523.989	-200.000	-0.062	-0.446
-522.975	-134.266	0.113	0.014
-521.960	-27.613	-0.173	0.101
-520.945	-200.000	-0.080	-0.363
-519.931	205.395	0.023	-0.036
-518.916	-69.388	0.272	0.105
-517.902	-86.916	-0.321	-0.099
-516.887	-200.000	-0.013	-0.096
-515.872	385.407	-0.023	0.048
-514.858	57.718	-0.141	0.139
-513.843	210.935	-0.095	-0.151
-512.829	-200.000	-0.014	-0.120
-511.814	800.000	-0.027	0.091
-510.799	-115.194	-0.286	-0.054
-509.785	-182.370	0.187	0.003
-508.770	74.214	0.160	0.169
-507.756	-200.000	-0.021	0.126
-506.741	42.138	-0.196	0.179
-505.726	41.520	-0.126	-0.115
-504.712	161.752	-0.135	-0.190
-503.697	-163.537	-0.182	0.009
-502.683	-200.000	-0.018	0.174
-501.668	800.000	-0.096	-0.282
-500.653	1.896	-0.163	0.118
-499.639	-44.539	-0.241	0.121
-498.624	-121.255	-0.145	0.024
-497.610	-200.000	-0.095	-0.449
-496.595	800.000	0.065	0.207
-495.581	680.367	-0.041	-0.108
-494.566	81.487	0.215	-0.233
-493.551	60.955	0.235	-0.235
-492.537	722.954	0.105	-0.282
-491.522	-72.349	0.236	0.088
-490.508	82.978	0.087	-0.095
-489.493	-200.000	-0.022	0.279
-488.478	-143.259	0.514	-0.050
-487.464	4.713	0.171	-0.126
-486.449	-200.000	0.000	0.195
-485.435	-53.438	-0.111	0.051
-484.420	800.000	-0.149	0.469
-483.405	-42.664	0.199	-0.102
-482.391	59.931	0.033	0.033
-481.376	-200.000	-0.018	0.430
-480.362	-200.000	-0.030	-0.352
-479.347	134.879	0.033	0.044
-478.332	349.846	0.157	0.312
-477.318	-200.000	0.025	-0.160
-476.303	-54.045	-0.223	-0.102
-475.289	34.506	0.170	-0.149
-474.274	-75.167	-0.143	-0.051
-473.259	-200.000	0.005	0.233
-472.245	-23.443	0.065	0.039
-471.230	209.575	0.095	0.149
-470.216	-69.578	0.201	0.077
-469.201	209.657	-0.282	0.445
-468.186	28.322	0.035	0.030
-467.172	35.720	0.192	-0.169
-466.157	-60.715	-0.272	0.116
-465.143	49.199	0.187	-0.176
-464.128	-84.592	0.190	-0.060
-463.113	291.716	-0.115	-0.211
-462.099	672.138	-0.133	-0.346
-461.084	-116.295	-0.280	0.052
-460.070	404.445	-0.048	-0.102
-459.055	140.425	0.113	-0.150
-458.040	54.880	0.122	-0.119
-457.026	16.163	0.039	0.031
-456.011	-200.000	-0.007	0.207
-454.997	-67.555	0.235	-0.093
-453.982	156.159	0.089	0.123
-452.968	-200.000	-0.034	0.324
-451.953	-200.000	0.030	-0.207
-450.938	102.804	-0.130	-0.153
-449.924	-176.859	0.092	0.002
-448.909	800.000	-0.028	0.119
-447.895	800.000	-0.020	-0.085
-446.880	800.000	-0.100	0.366
-445.865	431.417	-0.164	0.356
-444.851	-200.000	0.065	0.310
-443.836	-200.000	-0.012	-0.130
-442.822	800.000	0.043	-0.179
-441.807	497.117	0.019	0.043
-440.792	-170.494	0.375	-0.013
-439.778	-127.246	0.373	0.055
-438.763	-200.000	-0.012	0.118
-437.749	-194.854	0.404	-0.003
-436.734	-200.000	0.014	0.217
-435.719	634.471	-0.041	-0.105
-434.705	169.948	0.105	-0.150
-433.690	367.654	0.050	0.102
-432.676	800.000	-0.025	0.077
-431.661	-33.775	-0.164	-0.091
-430.646	800.000	0.088	-0.330
-429.632	-145.419	0.297	0.027
-428.617	31.828	0.220	-0.190
-427.603	800.000	0.054	0.193
-426.588	-75.884	-0.318	-0.113
-425.573	-155.998	-0.131	-0.008
-424.559	800.000	-0.107	0.356
-423.544	70.586	-0.127	0.132
-422.530	-200.000	-0.008	0.108
-421.515	-66.073	0.258	-0.103
-420.500	-136.361	0.400	0.047
-419.486	56.494	-0.191	0.186
-418.471	-99.701	0.093	0.024
-417.457	-200.000	-0.067	0.354
-416.442	308.464	0.088	0.164
-415.428	718.248	-0.008	-0.022
-414.413	452.094	0.054	0.119
-413.398	-69.392	0.325	0.125
-412.384	74.048	-0.117	-0.123
-411.369	-75.301	-0.128	-0.046
-410.355	-153.545	0.275	-0.019
-409.340	800.000	0.037	-0.148
-408.325	-86.134	-0.371	0.115
-407.311	71.857	-0.151	0.157
-406.296	800.000	0.069	0.289
-405.282	-4.269	-0.308	-0.214
-404.267	31.469	0.037	-0.031
-403.252	-131.220	0.122	-0.016
-402.238	-100.902	-0.311	0.077
-401.223	-47.535	0.067	-0.033
-400.209	-95.738	-0.274	0.073
-399.194	239.077	0.162	0.270
-398.179	-192.517	0.690	-0.006
-397.165	673.567	0.129	-0.335
-396.150	-195.836	0.177	0.001
-395.136	194.549	-0.208	0.316
-394.121	-200.000	-0.058	-0.332
-393.106	87.126	-0.079	0.087
-392.092	343.353	-0.152	0.298
-391.077	14.608	0.135	0.105
-390.063	-188.094	0.306	0.004
-389.048	-20.457	0.203	-0.125
-388.033	-6.799	-0.164	0.111
-387.019	-200.000	-0.018	0.193
-386.004	-24.769	0.137	0.082
-384.990	-2.010	-0.121	0.085
-383.975	-11.455	0.086	0.057
-382.960	168.319	-0.090	-0.128
-381.946	128.339	-0.254	0.323
-380.931	-23.350	-0.158	0.095
-379.917	-12.570	-0.139	-0.091
-378.902	275.919	0.091	-0.161
-377.888	-20.413	0.351	0.216
-376.873	75.437	0.072	0.076
-375.858	-79.089	-0.162	0.055
-374.844	-200.000	0.022	-0.175
-373.829	-148.900	0.228	0.018
-372.815	280.886	0.077	0.138
-371.800	-112.407	-0.152	-0.030
-370.785	-200.000	-0.035	-0.188
-369.771	566.299	0.215	-0.521
-368.756	31.059	0.197	-0.169
-367.742	-75.235	0.160	0.057
-366.727	76.076	0.212	0.225
-365.712	-200.000	-0.006	-0.115
-364.698	-29.547	0.249	0.142
-363.683	-174.801	-0.197	-0.006
-362.669	64.863	-0.252	0.255
-361.654	-186.459	-0.098	-0.001
-360.639	-200.000	-0.022	0.130
-359.625	-30.621	-0.301	-0.171
-358.610	181.252	0.170	-0.250
-357.596	-47.900	-0.105	0.051
-356.581	-200.000	0.003	-0.369
-355.566	800.000	-0.094	-0.292
-354.552	-0.736	0.321	0.228
-353.537	128.696	0.174	0.222
-352.523	-79.857	0.147	0.049
-351.508	-200.000	0.001	0.106
-350.493	-94.624	-0.132	0.036
-349.479	-200.000	-0.010	0.128
-348.464	-90.372	0.142	-0.041
-347.450	241.780	-0.174	-0.291
-346.435	-200.000	-0.019	-0.153
-345.420	-13.775	0.243	-0.157
-344.406	-43.007	-0.061	0.031
-343.391	111.763	-0.307	0.371
-342.377	-200.000	-0.022	-0.153
-341.362	-200.000	0.015	0.082
-340.348	-46.847	-0.122	-0.060
-339.333	-200.000	-0.038	0.482
-338.318	157.488	-0.169	0.234
-337.304	584.478	0.098	0.240
-336.289	-14.154	-0.221	0.142
-335.275	91.922	0.320	0.360
-334.260	-200.000	0.017	0.171
-333.245	247.440	0.018	-0.031
-332.231	296.331	-0.064	-0.117
-331.216	529.461	0.102	-0.241
-330.202	-189.317	-0.212	0.002
-329.187	-37.486	-0.454	-0.242
-328.172	-116.000	-0.264	-0.049
-327.158	6.544	-0.126	0.094
-326.143	-92.595	0.218	0.061
-325.129	108.013	0.077	-0.092
-324.114	-200.000	-0.031	0.208
-323.099	89.312	-0.301	0.335
-322.085	-173.618	-0.158	0.005
-321.070	-39.057	0.041	-0.022
-320.056	47.550	-0.111	-0.104
-319.041	184.834	-0.096	-0.141
-318.026	-85.567	-0.271	0.084
-317.012	-104.355	0.127	0.029
-315.997	-200.000	-0.017	-0.176
-314.983	58.475	-0.208	-0.204
-313.968	-107.888	0.238	-0.052
-312.953	-6.097	-0.218	0.149
-311.939	800.000	0.057	0.206
-310.924	-164.140	-0.185	0.009
-309.910	283.310	0.118	-0.212
-308.895	-104.846	0.075	-0.017
-307.880	-131.807	-0.325	-0.042
-306.866	25.726	-0.106	0.088
-305.851	-200.000	0.041	-0.369
-304.837	68.960	0.351	-0.360
-303.822	-73.644	-0.066	0.024
-302.807	-27.270	0.154	0.090
-301.793	256.034	-0.111	0.190
-300.778	56.110	0.135	-0.131
-299.764	-60.207	-0.392	0.167
-298.749	-181.092	-0.413	0.008
-297.735	-200.000	0.020	-0.162
-296.720	-119.897	-0.455	-0.078
-295.705	-131.969	-0.173	0.023
-294.691	3.318	-0.206	-0.150
-293.676	800.000	-0.073	0.242
-292.662	-91.451	-0.169	-0.048
-291.647	800.000	0.032	-0.099
-290.632	86.422	-0.052	0.057
-289.618	697.833	-0.055	0.143
-288.603	36.221	-0.040	-0.035
-287.589	-200.000	-0.005	-0.081
-286.574	-11.736	0.309	-0.202
-285.559	13.851	-0.367	0.285
-284.545	-76.126	-0.161	0.057
-283.530	-71.293	-0.167	-0.063
-282.516	661.899	-0.164	-0.422
-281.501	-33.007	0.276	-0.153
-280.486	-39.401	0.120	0.063
-279.472	-78.522	0.081	-0.028
-278.457	-23.358	0.061	0.037
-277.443	800.000	0.106	-0.297
-276.428	-51.965	0.166	-0.077
-275.413	242.341	-0.126	0.211
-274.399	800.000	-0.136	0.384
-273.384	107.178	-0.024	-0.028
-272.370	657.966	0.135	0.347
-271.355	-126.609	0.167	0.025
-270.340	114.951	-0.062	-0.075
-269.326	51.095	-0.084	0.079
-268.311	-200.000	-0.077	0.343
-267.297	163.869	-0.171	-0.241
-266.282	60.100	0.154	-0.152
-265.267	120.190	-0.201	-0.249
-264.253	57.463	0.260	-0.253
-263.238	-108.043	-0.283	-0.061
-262.224	-16.448	0.355	-0.224
-261.209	-0.524	0.241	-0.170
-260.195	528.388	0.094	0.221
-259.180	44.686	0.227	-0.208
-258.165	727.486	-0.055	0.146
-257.151	42.616	0.232	0.211
-256.136	-60.456	-0.294	-0.125
-255.122	-127.686	-0.086	0.012
-254.107	482.687	-0.046	0.105
-253.092	26.637	-0.170	-0.142
-252.078	-10.850	-0.109	-0.072
-251.063	-133.517	0.236	0.029
-250.049	-92.280	-0.214	0.060
-249.034	51.481	-0.088	0.084
-248.019	-12.973	-0.369	-0.239
-247.005	285.238	0.052	-0.094
-245.990	-50.301	-0.217	0.102
-244.976	43.384	-0.125	0.114
-243.961	339.658	0.084	-0.163
-242.946	800.000	0.031	-0.094
-241.932	-75.077	-0.379	0.135
-240.917	-43.415	0.142	0.072
-239.903	-92.078	0.265	-0.075
-238.888	78.876	-0.073	-0.078
-237.873	-111.842	-0.148	0.030
-236.859	430.440	0.098	-0.211
-235.844	47.020	0.109	-0.101
-234.830	-81.760	0.306	0.100
-233.815	-42.200	-0.148	0.076
-232.800	106.789	0.245	-0.289
-231.786	-200.000	0.010	0.567
-230.771	31.733	-0.397	0.340
-229.757	466.476	-0.047	-0.105
-228.742	556.182	0.054	0.131
-227.727	-200.000	0.015	-0.106
-226.713	-115.267	0.119	-0.022
-225.698	-13.810	-0.051	0.033
-224.684	-106.243	0.141	-0.031
-223.669	-200.000	-0.004	-0.143
-222.655	-129.725	0.106	-0.015
-221.640	-88.202	0.065	-0.019
-220.625	190.931	0.235	0.352
-219.611	-145.178	0.367	-0.033
-218.596	-79.083	-0.093	-0.032
-217.582	-125.869	-0.294	-0.044
-216.567	-182.083	-0.120	-0.002
-215.552	284.555	-0.098	-0.175
-214.538	4.970	-0.031	-0.023
-213.523	800.000	0.049	-0.146
-212.509	606.894	0.084	-0.208
-211.494	-46.191	0.217	0.106
-210.479	-43.315	0.077	0.039
-209.465	34.753	-0.152	0.132
-208.450	800.000	-0.041	0.121
-207.436	40.933	-0.153	0.138
-206.421	698.876	0.135	-0.352
-205.406	163.686	0.246	0.345
-204.392	-100.117	0.188	0.047
-203.377	124.177	0.149	0.186
-202.363	-90.973	0.091	0.026
-201.348	-63.519	0.108	-0.044
-200.333	-78.162	-0.263	0.090
-199.319	800.000	-0.068	-0.221
-198.304	-48.548	-0.255	0.122
-197.290	800.000	-0.028	-0.116
-196.275	83.706	0.034	0.037
-195.260	-200.000	-0.053	-0.244
-194.246	-110.253	-0.245	-0.051
-193.231	-200.000	-0.052	-0.395
-192.217	800.000	0.038	0.107
-191.202	800.000	-0.089	0.308
-190.187	-138.184	0.076	0.008
-189.173	-138.963	0.203	-0.022
-188.158	-28.099	-0.168	-0.097
-187.144	-38.165	0.045	0.024
-186.129	674.183	-0.085	-0.219
-185.114	-200.000	-0.032	-0.163
-184.100	-97.988	-0.177	0.045
-183.085	346.767	-0.057	0.111
-182.071	-74.326	0.277	0.099
-181.056	-200.000	-0.044	0.338
-180.042	-200.000	0.013	-0.169
-179.027	28.791	0.369	0.310
-178.012	146.493	-0.164	-0.219
-176.998	-167.679	0.096	0.004
-175.983	-200.000	0.003	-0.201
-174.969	83.748	-0.098	-0.106
-173.954	800.000	0.058	-0.221
-172.939	442.903	-0.125	-0.272
-171.925	98.890	-0.074	-0.085
-170.910	195.625	0.037	-0.056
-169.896	800.000	0.063	-0.192
-168.881	-5.204	0.279	0.190
-167.866	800.000	0.157	0.459
-166.852	-10.184	0.134	-0.088
-165.837	-113.288	-0.394	0.077
-164.823	-151.228	0.480	0.036
-163.808	800.000	0.109	-0.353
-162.793	160.353	-0.286	-0.396
-161.779	18.060	0.187	-0.148
-160.764	243.165	0.135	-0.225
-159.750	-58.849	0.241	-0.104
-158.735	46.474	0.276	-0.254
-157.720	-79.684	0.080	0.027
-156.706	800.000	0.043	0.169
-155.691	-8.040	0.235	0.157
-154.677	-25.212	0.304	-0.179
-153.662	334.270	0.101	-0.193
-152.647	40.012	0.059	0.053
-151.633	-42.912	-0.229	0.115
-150.618	55.590	0.073	0.070
-149.604	-200.000	-0.004	-0.179
-148.589	-141.588	0.539	0.054
-147.574	800.000	-0.107	0.369
-146.560	-93.348	0.309	0.085
-145.545	-130.839	-0.318	0.042
-144.531	-200.000	0.025	-0.129
-143.516	-92.251	-0.359	-0.101
-142.502	124.837	0.348	0.434
-141.487	-200.000	0.053	0.292
-140.472	-90.175	0.245	-0.071
-139.458	800.000	0.021	-0.086
-138.443	64.816	0.129	0.129
-137.429	99.861	0.081	0.093
-136.414	-200.000	0.035	0.178
-135.399	487.265	-0.056	0.127
-134.385	17.180	0.197	0.155
-133.370	-200.000	-0.016	-0.092
-132.356	177.730	-0.182	0.264
-131.341	49.251	-0.122	0.114
-130.326	-200.000	0.007	0.162
-129.312	-11.070	0.135	0.088
-128.297	23.931	0.109	-0.089
-127.283	-200.000	0.060	0.358
-126.268	-50.038	-0.203	-0.095
-125.253	-165.905	-0.186	-0.008
-124.239	159.265	-0.171	-0.235
-123.224	104.064	0.061	0.071
-122.210	417.156	0.083	-0.175
-121.195	-200.000	0.016	0.106
