DTS Sentinel unit serial number:	SN413079Multiplexer serial number:	ORYXHardware model number:	OX4-SRSoftware version number:	ORYX F/W v4.00 Oryx Data Collector v3.7.2.0data status	okinstallation	princeton_trtdifferential loss correction	single-endedforward channel	channel 4reverse channel	N/Adate	2019/09/15time	00:37:34forward acquisition time	60.00reverse acquisition time	0.00gamma	496.2192k internal	0.2307k external	0.2307temperature offset calibration	1.0044default loss term (dB/km)	0.3790temperature slope calibration	1.0000multiplexer offset coefficient	1.0000multiplexer slope coefficient	1.0000fibre end	0.00T internal ref (°C)	32.12T ext. ref 1 (°C)	4.58T ext. ref 2 (°C)	27.11length (m)	temperature (°C)	Stokes	anti-Stokes-747.200	0.457	0.313	0.227
-746.185	38.827	0.350	0.318
-745.171	552.606	0.114	0.280
-744.156	-200.000	0.012	0.197
-743.142	96.975	-0.181	0.211
-742.127	-52.354	-0.371	0.175
-741.112	136.927	-0.071	0.094
-740.098	-200.000	-0.073	0.407
-739.083	178.288	-0.076	-0.113
-738.069	-200.000	-0.038	-0.322
-737.054	211.545	-0.089	-0.143
-736.039	-94.912	-0.272	-0.075
-735.025	-132.487	0.333	-0.044
-734.010	-25.693	-0.092	-0.055
-732.996	-200.000	0.011	-0.188
-731.981	274.933	0.106	-0.190
-730.966	-128.380	-0.187	-0.027
-729.952	-139.071	-0.242	-0.027
-728.937	-104.303	-0.115	-0.027
-727.923	-6.200	0.190	-0.132
-726.908	203.966	-0.142	-0.224
-725.894	-200.000	-0.025	-0.233
-724.879	-200.000	0.003	-0.196
-723.864	101.481	-0.160	0.189
-722.850	-200.000	0.009	0.165
-721.835	192.155	0.063	-0.096
-720.821	-42.003	0.114	-0.059
-719.806	-17.766	0.276	0.176
-718.791	800.000	0.011	-0.045
-717.777	-200.000	-0.016	0.181
-716.762	-200.000	-0.073	0.330
-715.748	-32.021	-0.240	-0.137
-714.733	88.099	0.137	-0.154
-713.718	96.543	-0.012	-0.014
-712.704	85.131	-0.256	-0.286
-711.689	-55.387	-0.253	0.115
-710.675	3.202	-0.294	0.217
-709.660	-150.384	0.339	-0.026
-708.645	-152.794	-0.317	-0.023
-707.631	186.473	-0.059	0.089
-706.616	328.672	0.100	-0.196
-705.602	-17.434	0.112	-0.072
-704.587	-200.000	-0.232	-0.001
-703.572	173.800	-0.112	-0.164
-702.558	791.994	0.067	-0.188
-701.543	-91.673	0.293	0.085
-700.529	525.442	0.157	-0.374
-699.514	-164.090	-0.068	-0.003
-698.499	-58.323	-0.202	-0.089
-697.485	451.368	0.159	-0.357
-696.470	-57.477	-0.247	0.110
-695.456	29.905	0.243	-0.211
-694.441	767.732	-0.054	0.150
-693.426	-35.760	-0.201	-0.110
-692.412	-52.464	0.051	-0.024
-691.397	-200.000	-0.032	-0.195
-690.383	66.780	0.166	-0.172
-689.368	-158.263	-0.192	-0.011
-688.354	-200.000	0.007	0.157
-687.339	56.582	-0.027	-0.027
-686.324	258.735	-0.100	0.175
-685.310	-200.000	-0.047	0.234
-684.295	177.501	-0.072	-0.106
-683.281	-200.000	-0.021	-0.250
-682.266	55.452	0.159	0.156
-681.251	220.809	0.199	0.324
-680.237	209.094	0.159	0.253
-679.222	-75.094	0.293	0.106
-678.208	-32.559	-0.236	0.133
-677.193	-196.767	-0.498	-0.003
-676.178	800.000	0.040	0.120
-675.164	-26.444	-0.133	-0.079
-674.149	-155.495	0.206	-0.014
-673.135	325.069	0.009	-0.018
-672.120	-41.506	0.243	-0.127
-671.105	-86.798	-0.195	0.061
-670.091	499.824	0.012	0.028
-669.076	70.109	-0.208	0.217
-668.062	-93.189	0.087	0.025
-667.047	402.979	0.097	0.208
-666.032	-200.000	0.006	-0.077
-665.018	-181.245	0.115	-0.002
-664.003	210.613	-0.115	0.184
-662.989	-130.222	-0.467	0.064
-661.974	800.000	-0.110	0.355
-660.959	-25.376	0.184	0.110
-659.945	391.937	-0.116	-0.245
-658.930	800.000	0.070	0.236
-657.916	70.024	-0.032	0.034
-656.901	-96.612	-0.257	0.069
-655.886	-78.999	0.573	-0.198
-654.872	397.276	-0.188	-0.397
-653.857	-44.362	-0.259	-0.132
-652.843	655.228	0.103	0.267
-651.828	-51.039	0.104	0.050
-650.814	-108.198	0.221	0.048
-649.799	-200.000	0.039	-0.186
-648.784	-200.000	-0.021	-0.205
-647.770	-40.362	0.157	0.083
-646.755	41.036	-0.231	0.211
-645.741	273.694	-0.070	0.126
-644.726	77.856	-0.169	-0.182
-643.711	576.682	-0.160	-0.397
-642.697	-2.270	-0.141	0.100
-641.682	-137.922	-0.201	-0.023
-640.668	800.000	0.034	-0.111
-639.653	49.181	0.086	-0.082
-638.638	-116.930	-0.143	-0.026
-637.624	-118.414	0.159	-0.029
-636.609	-69.821	0.311	-0.120
-635.595	-89.740	-0.273	0.081
-634.580	-60.186	-0.237	-0.103
-633.565	-9.950	-0.341	-0.230
-632.551	339.604	-0.237	0.467
-631.536	97.416	-0.056	-0.065
-630.522	169.248	-0.103	-0.150
-629.507	-51.370	-0.267	-0.126
-628.492	800.000	0.015	-0.057
-627.478	-200.000	-0.020	-0.118
-626.463	104.488	0.073	0.087
-625.449	-37.277	-0.065	0.035
-624.434	135.212	-0.266	0.350
-623.419	-99.464	-0.261	0.066
-622.405	800.000	-0.039	0.124
-621.390	-6.971	0.240	-0.165
-620.376	170.026	-0.085	-0.124
-619.361	-107.884	0.255	-0.056
-618.346	199.535	-0.052	0.080
-617.332	360.170	-0.152	0.308
-616.317	-31.909	0.181	-0.102
-615.303	-26.468	0.201	0.119
-614.288	-144.051	-0.304	-0.029
-613.273	79.775	0.292	-0.318
-612.259	-156.944	-0.185	-0.011
-611.244	-121.500	0.250	-0.042
-610.230	-84.951	0.185	0.059
-609.215	77.992	-0.199	0.215
-608.201	-51.541	-0.144	0.068
-607.186	800.000	-0.038	-0.138
-606.171	-9.354	-0.380	0.257
-605.157	123.847	0.165	0.209
-604.142	-200.000	-0.016	0.071
-603.128	-200.000	-0.021	0.116
-602.113	139.158	0.091	-0.121
-601.098	-200.000	0.041	-0.206
-600.084	80.606	0.034	-0.037
-599.069	800.000	-0.105	0.331
-598.055	-58.509	-0.182	0.080
-597.040	-17.705	-0.157	-0.099
-596.025	61.656	0.192	0.193
-595.011	-200.000	0.051	0.265
-593.996	126.660	-0.128	-0.164
-592.982	40.423	-0.079	-0.072
-591.967	-110.401	0.324	-0.068
-590.952	-23.939	-0.144	-0.087
-589.938	-45.071	0.074	-0.037
-588.923	-200.000	-0.002	0.086
-587.909	98.642	-0.214	0.250
-586.894	242.677	-0.166	-0.280
-585.879	-200.000	-0.050	-0.335
-584.865	-57.916	-0.188	-0.083
-583.850	-36.299	0.212	0.116
-582.836	-137.563	-0.257	0.029
-581.821	-88.318	-0.205	0.062
-580.806	10.053	-0.119	-0.091
-579.792	75.588	0.261	-0.279
-578.777	200.938	-0.142	0.220
-577.763	35.832	-0.223	0.198
-576.748	-165.918	-0.072	-0.003
-575.733	-92.079	0.235	0.067
-574.719	723.815	0.024	0.065
-573.704	-5.517	0.241	-0.167
-572.690	-10.097	0.156	0.105
-571.675	-200.000	0.026	0.131
-570.661	272.436	0.103	-0.184
-569.646	-46.239	0.146	-0.072
-568.631	-200.000	0.008	-0.278
-567.617	-200.000	0.038	-0.247
-566.602	23.670	-0.242	0.201
-565.588	141.624	-0.125	-0.167
-564.573	-200.000	-0.012	-0.293
-563.558	-39.823	-0.151	0.080
-562.544	423.921	-0.023	-0.050
-561.529	276.104	0.069	0.123
-560.515	37.902	-0.312	0.280
-559.500	-50.395	-0.121	0.058
-558.485	-62.404	-0.063	0.027
-557.471	-172.800	0.087	-0.003
-556.456	154.147	0.051	0.071
-555.442	-200.000	0.038	0.227
-554.427	-200.000	-0.005	-0.082
-553.412	800.000	-0.016	0.049
-552.398	-200.000	-0.000	-0.450
-551.383	142.272	-0.113	-0.152
-550.369	57.736	-0.196	0.193
-549.354	180.676	-0.223	-0.330
-548.339	179.981	-0.111	-0.165
-547.325	225.551	0.249	-0.407
-546.310	800.000	-0.041	-0.168
-545.296	273.895	-0.133	-0.238
-544.281	136.099	-0.163	-0.214
-543.266	69.197	-0.199	0.207
-542.252	-44.501	-0.156	0.079
-541.237	-110.782	0.367	0.076
-540.223	196.738	-0.162	0.248
-539.208	-37.132	0.303	0.164
-538.193	41.341	0.127	-0.116
-537.179	800.000	0.032	-0.110
-536.164	-170.720	-0.048	-0.002
-535.150	800.000	-0.078	-0.328
-534.135	216.407	0.050	0.080
-533.121	-61.131	0.168	0.072
-532.106	797.288	-0.111	-0.308
-531.091	349.946	0.058	-0.115
-530.077	-31.549	-0.234	0.133
-529.062	306.117	0.072	0.134
-528.048	-86.311	-0.203	0.063
-527.033	298.738	-0.223	-0.413
-526.018	-200.000	-0.004	-0.204
-525.004	-200.000	0.020	0.226
-523.989	237.866	-0.258	-0.431
-522.975	121.359	0.179	-0.224
-521.960	-8.164	0.184	0.125
-520.945	124.134	-0.111	-0.141
-519.931	-34.083	0.365	-0.202
-518.916	-200.000	0.016	0.079
-517.902	-12.734	0.153	0.101
-516.887	-38.449	-0.172	-0.092
-515.872	239.041	0.214	0.359
-514.858	-200.000	0.028	-0.395
-513.843	83.934	0.213	-0.234
-512.829	-104.005	0.212	-0.050
-511.814	-122.021	0.375	-0.062
-510.799	165.562	0.148	-0.211
-509.785	-59.498	-0.262	-0.113
-508.770	-38.315	-0.174	0.093
-507.756	792.250	0.013	0.035
-506.741	-42.396	0.021	-0.011
-505.726	226.729	0.054	0.088
-504.712	-155.854	0.347	-0.022
-503.697	-42.578	-0.144	-0.074
-502.683	-141.672	0.034	-0.003
-501.668	-128.011	-0.100	0.015
-500.653	360.176	0.056	0.114
-499.639	800.000	0.054	0.163
-498.624	103.604	0.211	0.249
-497.610	427.529	-0.033	0.071
-496.595	-83.646	-0.143	0.046
-495.581	-200.000	0.040	-0.217
-494.566	30.685	0.142	-0.123
-493.551	364.831	-0.144	-0.292
-492.537	85.643	-0.045	-0.050
-491.522	153.483	-0.209	0.289
-490.508	-20.132	0.244	0.152
-489.493	-91.143	-0.256	0.074
-488.478	255.543	0.168	0.289
-487.464	-10.953	0.181	0.121
-486.449	-159.008	-0.165	0.009
-485.435	180.738	0.169	-0.249
-484.420	-29.464	0.124	-0.072
-483.405	69.083	-0.168	-0.174
-482.391	164.078	-0.273	-0.387
-481.376	225.457	-0.074	-0.121
-480.362	702.486	-0.046	0.122
-479.347	-91.573	0.180	0.052
-478.332	184.555	-0.074	-0.111
-477.318	166.829	0.231	-0.330
-476.303	-15.994	-0.160	-0.102
-475.289	-200.000	0.070	-0.323
-474.274	-33.914	0.038	0.021
-473.259	141.143	0.200	0.266
-472.245	-200.000	-0.058	-0.281
-471.230	190.814	-0.090	-0.137
-470.216	-200.000	0.032	-0.197
-469.201	657.029	0.020	-0.052
-468.186	51.382	-0.281	0.269
-467.172	-52.560	0.141	-0.066
-466.157	492.326	0.041	0.095
-465.143	-94.330	0.129	-0.035
-464.128	800.000	0.113	-0.391
-463.113	472.993	-0.043	-0.098
-462.099	451.164	-0.048	0.107
-461.084	-52.661	0.258	0.120
-460.070	4.046	0.074	0.054
-459.055	-200.000	-0.017	-0.181
-458.040	-31.792	-0.212	0.120
-457.026	184.287	0.098	-0.147
-456.011	-169.193	0.321	-0.012
-454.997	-146.215	-0.165	-0.015
-453.982	-76.993	-0.202	0.071
-452.968	800.000	-0.024	0.104
-451.953	-21.503	-0.089	0.055
-450.938	50.487	-0.241	0.229
-449.924	280.955	-0.070	-0.125
-448.909	-39.312	0.274	-0.144
-447.895	800.000	-0.033	-0.095
-446.880	160.247	-0.069	-0.096
-445.865	312.027	-0.026	-0.050
-444.851	-200.000	-0.200	0.000
-443.836	-63.639	0.210	-0.087
-442.822	800.000	-0.050	-0.166
-441.807	-56.858	0.105	0.047
-440.792	-66.807	0.141	-0.056
-439.778	-200.000	0.020	0.130
-438.763	-200.000	0.007	0.192
-437.749	94.162	-0.186	0.213
-436.734	-200.000	-0.029	0.350
-435.719	-12.040	-0.049	0.032
-434.705	-35.625	0.156	0.085
-433.690	-107.558	-0.093	-0.021
-432.676	-0.547	-0.284	0.203
-431.661	351.212	-0.003	-0.005
-430.646	22.657	0.120	-0.099
-429.632	-166.770	0.155	0.006
-428.617	800.000	-0.151	0.461
-427.603	-30.031	0.134	0.077
-426.588	133.851	0.251	0.326
-425.573	800.000	0.043	-0.125
-424.559	544.570	-0.066	0.159
-423.544	-26.845	-0.091	-0.053
-422.530	800.000	0.034	0.117
-421.515	451.572	-0.078	0.174
-420.500	322.039	-0.192	-0.367
-419.486	18.320	-0.229	-0.184
-418.471	-116.190	0.220	0.041
-417.457	416.232	-0.088	0.190
-416.442	-105.187	-0.240	0.055
-415.428	69.563	0.319	0.330
-414.413	100.412	0.104	-0.121
-413.398	101.289	-0.171	-0.200
-412.384	-200.000	-0.020	-0.140
-411.369	156.952	0.120	-0.167
-410.355	-23.511	0.185	-0.112
-409.340	-167.458	0.172	-0.007
-408.325	-200.000	0.021	0.407
-407.311	78.009	-0.269	-0.288
-406.296	800.000	-0.038	0.111
-405.282	-150.028	-0.037	-0.003
-404.267	13.283	0.206	0.160
-403.252	-45.258	-0.082	-0.041
-402.238	-116.859	-0.077	-0.014
-401.223	-90.840	-0.297	0.086
-400.209	-136.097	0.224	0.026
-399.194	158.988	-0.191	-0.266
-398.179	-2.000	0.448	0.316
-397.165	158.561	0.051	-0.071
-396.150	14.956	0.147	0.115
-395.136	-185.097	-0.165	0.003
-394.121	-94.851	0.121	-0.033
-393.106	-200.000	-0.008	-0.307
-392.092	573.534	0.109	0.266
-391.077	204.620	0.078	0.121
-390.063	83.289	-0.267	-0.292
-389.048	800.000	-0.134	0.378
-388.033	-200.000	-0.043	0.387
-387.019	-92.290	0.315	-0.089
-386.004	-157.028	-0.113	0.007
-384.990	-200.000	-0.026	0.124
-383.975	73.541	-0.189	0.199
-382.960	-200.000	0.015	0.337
-381.946	-77.326	0.108	0.038
-380.931	-55.819	0.152	-0.068
-379.917	-180.072	0.510	-0.011
-378.902	194.577	-0.110	-0.167
-377.888	-200.000	0.030	-0.271
-376.873	-200.000	-0.005	-0.023
-375.858	-95.675	0.239	-0.064
-374.844	-17.361	-0.232	-0.146
-373.829	800.000	-0.060	-0.209
-372.815	-200.000	0.037	0.176
-371.800	558.998	0.023	0.056
-370.785	503.398	-0.025	0.057
-369.771	42.593	-0.044	0.040
-368.756	800.000	-0.138	0.469
-367.742	30.201	0.072	-0.061
-366.727	-33.303	-0.201	-0.111
-365.712	800.000	-0.037	0.149
-364.698	-31.301	-0.105	-0.059
-363.683	800.000	0.015	-0.063
-362.669	-200.000	0.011	-0.213
-361.654	53.481	0.106	-0.102
-360.639	-166.422	0.175	-0.007
-359.625	229.269	0.077	0.126
-358.610	16.705	0.218	0.173
-357.596	-200.000	-0.010	0.051
-356.581	161.576	-0.247	0.346
-355.566	-84.878	-0.069	-0.022
-354.552	800.000	-0.039	0.156
-353.537	-92.340	-0.176	0.050
-352.523	50.610	0.314	-0.297
-351.508	143.091	-0.075	0.099
-350.493	73.525	0.138	-0.145
-349.479	-60.124	-0.283	-0.121
-348.464	-100.537	-0.260	-0.064
-347.450	-126.050	0.559	0.084
-346.435	-149.819	0.218	0.017
-345.420	-200.000	-0.021	0.289
-344.406	-137.868	-0.485	-0.054
-343.391	-67.839	-0.315	0.123
-342.377	19.677	0.191	-0.154
-341.362	307.942	-0.158	0.294
-340.348	-92.798	0.505	-0.141
-339.333	-200.000	-0.027	0.137
-338.318	-200.000	0.017	-0.148
-337.304	-200.000	0.011	-0.064
-336.289	-200.000	0.018	-0.150
-335.275	-160.824	0.317	-0.017
-334.260	-162.600	0.588	-0.029
-333.245	-131.080	-0.364	-0.048
-332.231	38.245	-0.112	-0.100
-331.216	-191.254	0.248	-0.003
-330.202	33.665	0.083	0.072
-329.187	-133.830	-0.230	-0.029
-328.172	775.544	0.031	-0.084
-327.158	141.890	0.199	-0.264
-326.143	-200.000	0.043	0.321
-325.129	-134.295	0.335	0.041
-324.114	52.966	0.120	0.115
-323.099	-83.324	0.200	-0.064
-322.085	800.000	-0.047	0.159
-321.070	292.817	0.097	0.177
-320.056	800.000	0.020	-0.062
-319.041	-85.475	-0.137	0.043
-318.026	212.453	-0.061	-0.096
-317.012	-114.801	-0.107	-0.020
-315.997	239.458	0.075	0.124
-314.983	534.274	-0.096	-0.228
-313.968	800.000	0.063	0.196
-312.953	800.000	-0.036	-0.115
-311.939	800.000	-0.098	0.279
-310.924	800.000	-0.101	0.352
-309.910	-60.112	-0.292	0.124
-308.895	229.842	-0.122	0.199
-307.880	-200.000	0.042	-0.196
-306.866	-44.109	0.160	-0.080
-305.851	74.428	0.191	0.200
-304.837	-200.000	-0.001	0.080
-303.822	89.972	-0.258	0.288
-302.807	-77.301	0.167	0.058
-301.793	5.430	0.140	0.103
-300.778	-200.000	-0.020	-0.317
-299.764	139.413	-0.036	-0.047
-298.749	800.000	-0.117	-0.486
-297.735	-3.909	0.170	0.118
-296.720	47.322	0.090	-0.084
-295.705	-146.493	0.219	-0.019
-294.691	-88.452	-0.065	-0.019
-293.676	-71.063	0.298	0.112
-292.662	-200.000	-0.050	0.225
-291.647	-200.000	0.009	0.094
-290.632	-200.000	0.016	0.198
-289.618	-45.154	0.136	0.068
-288.603	-66.160	-0.013	-0.005
-287.589	471.562	-0.117	-0.263
-286.574	35.485	-0.133	-0.117
-285.559	-200.000	0.033	0.329
-284.545	2.136	-0.081	-0.058
-283.530	19.768	0.116	0.093
-282.516	98.053	0.120	0.137
-281.501	-200.000	-0.002	-0.194
-280.486	85.633	0.223	-0.245
-279.472	-71.305	-0.197	0.074
-278.457	-200.000	0.166	-0.000
-277.443	800.000	0.050	0.143
-276.428	25.893	0.376	-0.313
-275.413	-91.305	-0.071	-0.020
-274.399	34.122	-0.132	0.115
-273.384	-17.670	-0.300	0.188
-272.370	800.000	-0.050	0.213
-271.355	82.052	-0.070	0.076
-270.340	-200.000	-0.020	0.235
-269.326	112.374	0.085	0.102
-268.311	-128.471	0.424	0.060
-267.297	336.699	0.043	-0.083
-266.282	-37.732	0.196	-0.104
-265.267	800.000	-0.061	-0.201
-264.253	-200.000	0.028	0.222
-263.238	-168.858	-0.132	0.005
-262.224	-68.459	0.154	-0.060
-261.209	-200.000	-0.008	-0.499
-260.195	-12.461	-0.103	0.067
-259.180	800.000	0.046	0.171
-258.165	58.116	0.033	-0.032
-257.151	522.302	-0.115	-0.269
-256.136	-200.000	-0.015	-0.127
-255.122	-37.449	0.061	0.033
-254.107	-95.930	-0.105	-0.028
-253.092	664.444	0.076	0.197
-252.078	-200.000	-0.034	-0.257
-251.063	287.881	-0.094	-0.170
-250.049	-123.666	0.217	-0.034
-249.034	115.631	-0.168	-0.205
-248.019	-200.000	0.016	0.222
-247.005	17.250	-0.055	-0.044
-245.990	587.859	0.091	0.224
-244.976	718.931	0.026	0.068
-243.961	96.160	-0.181	0.206
-242.946	169.553	0.123	-0.175
-241.932	-81.364	0.156	0.051
-240.917	15.840	-0.168	-0.132
-239.903	-169.769	-0.252	-0.009
-238.888	193.246	-0.167	-0.253
-237.873	-68.042	0.334	-0.130
-236.859	800.000	0.071	-0.279
-235.844	34.538	-0.142	0.124
-234.830	40.789	-0.320	0.288
-233.815	800.000	0.073	-0.274
-232.800	-133.650	-0.311	0.039
-231.786	-113.092	0.226	0.044
-230.771	-200.000	-0.005	0.381
-229.757	454.209	-0.116	0.256
-228.742	-138.106	0.136	0.015
-227.727	-200.000	0.017	0.089
-226.713	800.000	0.030	-0.091
-225.698	-77.288	-0.188	-0.065
-224.684	-200.000	0.003	-0.343
-223.669	-89.967	0.146	0.043
-222.655	213.741	0.140	0.221
-221.640	-126.890	-0.162	0.024
-220.625	289.084	-0.150	0.271
-219.611	-140.620	-0.221	-0.023
-218.596	-17.333	-0.225	0.141
-217.582	519.518	0.222	-0.517
-216.567	-84.709	0.192	0.060
-215.552	-11.348	-0.344	-0.226
-214.538	536.817	-0.093	-0.221
-213.523	16.615	0.131	0.103
-212.509	195.603	0.154	0.233
-211.494	-100.799	-0.452	0.111
-210.479	-29.760	0.598	0.340
-209.465	-65.713	0.288	-0.115
-208.450	234.613	0.069	-0.113
-207.436	-25.762	-0.164	0.096
-206.421	20.159	0.105	-0.084
-205.406	-200.000	-0.027	-0.227
-204.392	-146.270	-0.131	0.011
-203.377	-13.663	-0.143	0.092
-202.363	-156.316	0.148	0.009
-201.348	-104.674	-0.036	-0.008
-200.333	579.165	0.072	0.175
-199.319	-155.195	-0.322	-0.021
-198.304	58.443	-0.047	-0.046
-197.290	800.000	-0.061	-0.222
-196.275	-60.251	0.286	0.121
-195.260	-186.145	-0.121	0.002
-194.246	-200.000	-0.006	-0.291
-193.231	-128.603	0.053	-0.007
-192.217	-51.762	0.051	0.024
-191.202	36.181	-0.155	0.136
-190.187	-40.077	0.379	0.197
-189.173	800.000	0.022	0.082
-188.158	800.000	0.061	-0.249
-187.144	-95.452	0.059	0.016
-186.129	800.000	0.090	0.294
-185.114	-200.000	0.033	-0.269
-184.100	-60.832	-0.225	-0.095
-183.085	-124.309	0.126	0.020
-182.071	208.445	-0.102	0.158
-181.056	-72.449	0.329	-0.121
-180.042	121.285	0.282	0.349
-179.027	22.901	0.276	0.225
-178.012	-79.507	-0.028	0.009
-176.998	399.150	-0.051	-0.106
-175.983	-200.000	-0.027	-0.167
-174.969	460.695	-0.142	0.315
-173.954	317.646	0.057	-0.108
-172.939	398.418	-0.227	-0.472
-171.925	-131.209	-0.185	0.024
-170.910	302.317	0.047	0.086
-169.896	-29.909	-0.129	-0.073
-168.881	-200.000	0.036	0.391
-167.866	26.246	-0.055	-0.046
-166.852	800.000	-0.092	0.355
-165.837	800.000	-0.070	0.253
-164.823	-31.858	0.027	0.015
-163.808	-200.000	0.009	0.198
-162.793	96.432	-0.171	-0.194
-161.779	51.923	0.171	-0.162
-160.764	77.763	0.115	-0.122
-159.750	-13.315	0.220	-0.142
-158.735	-135.025	0.315	-0.038
-157.720	18.636	-0.146	0.116
-156.706	-200.000	0.024	0.272
-155.691	-124.388	-0.203	0.031
-154.677	800.000	-0.029	0.123
-153.662	-81.836	-0.209	-0.068
-152.647	186.530	-0.136	0.202
-151.633	-110.436	0.229	-0.047
-150.618	800.000	-0.047	0.169
-149.604	443.665	-0.036	-0.079
-148.589	800.000	0.109	0.407
-147.574	735.980	0.018	-0.047
-146.560	231.646	-0.081	0.131
-145.545	223.177	0.126	-0.203
-144.531	317.243	-0.126	0.237
-143.516	-200.000	0.009	0.075
-142.502	45.872	0.172	0.158
-141.487	-200.000	-0.018	0.325
-140.472	154.129	-0.110	0.150
-139.458	-164.865	0.235	0.010
-138.443	338.900	0.060	0.116
-137.429	74.833	-0.122	0.128
-136.414	-60.864	0.250	0.105
-135.399	69.022	-0.272	0.278
-134.385	172.193	0.087	-0.124
-133.370	64.498	0.074	-0.074
-132.356	-30.129	0.250	0.141
-131.341	-110.037	-0.238	0.049
-130.326	800.000	0.047	0.141
-129.312	800.000	-0.080	0.256
-128.297	-200.000	-0.001	0.178
-127.283	135.400	-0.226	-0.292
-126.268	-13.007	0.052	0.033
-125.253	761.934	-0.055	0.148
-124.239	-200.000	0.014	0.495
-123.224	-70.536	-0.129	-0.049
-122.210	582.474	0.054	-0.133
