DTS Sentinel unit serial number:	SN413079Multiplexer serial number:	ORYXHardware model number:	OX4-SRSoftware version number:	ORYX F/W v4.00 Oryx Data Collector v3.7.2.0data status	okinstallation	princeton_trtdifferential loss correction	single-endedforward channel	channel 4reverse channel	N/Adate	2019/09/16time	01:45:34forward acquisition time	60.00reverse acquisition time	0.00gamma	496.2192k internal	0.2323k external	0.2323temperature offset calibration	0.9969default loss term (dB/km)	0.3790temperature slope calibration	1.0000multiplexer offset coefficient	1.0000multiplexer slope coefficient	1.0000fibre end	0.00T internal ref (°C)	27.37T ext. ref 1 (°C)	10.01T ext. ref 2 (°C)	22.24length (m)	temperature (°C)	Stokes	anti-Stokes-747.200	-200.000	0.003	0.237
-746.185	-200.000	-0.063	0.333
-745.171	-148.753	-0.114	-0.009
-744.156	546.320	0.074	-0.178
-743.142	289.462	-0.139	0.254
-742.127	-110.797	0.233	0.048
-741.112	570.323	-0.068	-0.167
-740.098	-51.057	0.174	0.083
-739.083	-200.000	0.008	-0.265
-738.069	311.745	0.082	0.156
-737.054	-168.879	-0.481	0.018
-736.039	800.000	0.092	0.327
-735.025	161.966	-0.058	-0.082
-734.010	-152.665	-0.313	-0.023
-732.996	557.651	-0.032	-0.078
-731.981	365.132	0.076	-0.155
-730.966	-200.000	-0.246	-0.001
-729.952	-62.045	0.342	-0.144
-728.937	139.472	-0.096	-0.127
-727.923	-165.872	-0.096	0.004
-726.908	-7.709	0.166	-0.113
-725.894	121.242	0.246	-0.309
-724.879	-199.401	0.453	0.002
-723.864	-35.315	0.250	0.137
-722.850	-75.830	0.299	-0.107
-721.835	44.721	0.204	0.189
-720.821	120.833	0.222	-0.278
-719.806	800.000	0.032	-0.119
-718.791	-82.864	-0.040	0.013
-717.777	-2.410	-0.053	0.037
-716.762	351.947	0.125	-0.250
-715.748	-153.947	0.241	-0.017
-714.733	-152.442	0.063	-0.005
-713.718	-200.000	-0.227	-0.000
-712.704	-200.000	-0.029	-0.518
-711.689	525.717	-0.052	-0.124
-710.675	-50.965	0.030	-0.014
-709.660	-104.516	0.058	-0.013
-708.645	-166.145	-0.167	0.007
-707.631	453.062	0.136	-0.304
-706.616	800.000	0.032	-0.098
-705.602	194.651	0.060	-0.091
-704.587	-200.000	-0.015	0.086
-703.572	-107.557	-0.238	-0.052
-702.558	-28.703	0.354	-0.206
-701.543	800.000	-0.120	0.339
-700.529	-17.214	0.149	-0.095
-699.514	-103.521	-0.156	0.037
-698.499	306.176	-0.110	0.206
-697.485	-74.742	0.218	0.079
-696.470	-200.000	0.036	0.165
-695.456	107.141	-0.151	0.181
-694.441	-44.781	0.109	-0.055
-693.426	19.391	-0.158	-0.128
-692.412	-200.000	0.073	-0.333
-691.397	126.445	0.126	-0.161
-690.383	53.597	-0.020	0.019
-689.368	58.393	-0.104	0.103
-688.354	212.627	-0.044	0.070
-687.339	-27.918	-0.251	0.147
-686.324	800.000	-0.093	-0.303
-685.310	-12.592	0.218	0.143
-684.295	4.862	-0.220	-0.163
-683.281	425.655	-0.106	0.230
-682.266	-55.712	-0.213	-0.096
-681.251	86.319	-0.076	-0.085
-680.237	71.224	0.101	0.106
-679.222	-200.000	0.017	0.160
-678.208	-8.401	-0.364	-0.246
-677.193	800.000	0.056	0.226
-676.178	-51.378	-0.111	0.052
-675.164	800.000	-0.051	-0.218
-674.149	66.969	0.116	-0.119
-673.135	-87.151	0.237	0.073
-672.120	203.177	-0.055	0.086
-671.105	105.520	0.340	0.405
-670.091	349.021	0.093	0.184
-669.076	327.475	0.182	-0.351
-668.062	-110.084	0.164	-0.035
-667.047	64.739	-0.044	-0.045
-666.032	70.917	0.225	-0.235
-665.018	58.899	0.441	0.436
-664.003	143.909	0.318	-0.427
-662.989	-112.975	-0.120	0.024
-661.974	53.602	-0.161	-0.156
-660.959	114.679	0.110	0.136
-659.945	373.109	-0.189	-0.386
-658.930	800.000	-0.044	0.140
-657.916	800.000	0.055	0.204
-656.901	-169.346	0.128	-0.005
-655.886	56.045	-0.191	-0.186
-654.872	-200.000	0.060	0.304
-653.857	-148.197	0.273	-0.023
-652.843	-200.000	-0.029	0.443
-651.828	-200.000	0.048	-0.486
-650.814	-18.970	-0.200	0.125
-649.799	69.673	-0.342	-0.354
-648.784	-118.351	-0.104	0.019
-647.770	-200.000	-0.023	-0.111
-646.755	175.062	-0.096	-0.140
-645.741	-74.750	-0.014	-0.005
-644.726	-1.442	0.387	-0.275
-643.711	592.842	-0.089	-0.221
-642.697	-100.780	0.188	-0.047
-641.682	440.480	-0.168	0.370
-640.668	420.336	-0.089	0.191
-639.653	91.023	0.152	0.172
-638.638	24.012	-0.185	-0.153
-637.624	-54.269	0.203	-0.093
-636.609	67.795	0.257	-0.265
-635.595	-60.167	0.072	0.031
-634.580	361.545	0.066	0.133
-633.565	1.522	0.120	0.087
-632.551	0.628	-0.123	0.089
-631.536	-150.390	0.224	0.017
-630.522	217.707	-0.166	-0.266
-629.507	-200.000	-0.020	-0.154
-628.492	447.113	0.181	-0.400
-627.478	800.000	-0.070	-0.249
-626.463	-200.000	-0.017	0.080
-625.449	28.604	0.244	-0.208
-624.434	-47.927	0.204	-0.099
-623.419	-142.147	0.125	-0.012
-622.405	-3.487	0.028	0.020
-621.390	-200.000	0.017	-0.194
-620.376	-200.000	0.006	-0.029
-619.361	146.883	-0.178	-0.240
-618.346	117.219	-0.096	-0.119
-617.332	106.825	0.089	0.106
-616.317	-104.395	0.110	-0.026
-615.303	-200.000	-0.028	0.127
-614.288	-88.825	0.236	0.070
-613.273	800.000	-0.010	-0.042
-612.259	-46.341	-0.365	-0.180
-611.244	362.683	0.122	0.246
-610.230	-200.000	0.037	0.220
-609.215	518.288	-0.095	0.223
-608.201	124.857	0.094	0.119
-607.186	706.002	0.020	0.052
-606.171	37.331	-0.290	-0.258
-605.157	-200.000	0.079	-0.367
-604.142	-200.000	-0.063	0.347
-603.128	144.700	-0.188	-0.253
-602.113	-135.549	0.121	-0.015
-601.098	6.931	-0.170	-0.127
-600.084	44.397	-0.149	-0.138
-599.069	-200.000	-0.061	0.336
-598.055	-77.612	0.182	0.063
-597.040	230.317	-0.128	0.211
-596.025	605.413	-0.068	-0.171
-595.011	440.399	-0.043	-0.095
-593.996	-200.000	-0.000	-0.066
-592.982	-118.877	-0.224	-0.040
-591.967	-200.000	-0.004	0.225
-590.952	-118.724	0.318	0.056
-589.938	231.697	0.100	0.164
-588.923	800.000	0.054	-0.231
-587.909	233.889	0.051	-0.084
-586.894	-200.000	0.021	0.106
-585.879	-177.301	-0.411	-0.010
-584.865	384.610	0.124	0.257
-583.850	-54.298	-0.132	-0.060
-582.836	331.986	0.091	0.176
-581.821	35.836	-0.259	0.228
-580.806	255.438	0.134	-0.230
-579.792	688.301	-0.196	-0.514
-578.777	154.032	-0.118	0.162
-577.763	-37.614	0.065	0.035
-576.748	-200.000	-0.004	-0.113
-575.733	-15.659	-0.207	-0.132
-574.719	137.090	-0.156	0.205
-573.704	-200.000	0.028	-0.127
-572.690	-200.000	0.020	-0.239
-571.675	-200.000	0.002	0.124
-570.661	144.865	0.143	0.192
-569.646	370.866	0.044	-0.089
-568.631	255.099	0.151	0.260
-567.617	23.168	0.282	-0.233
-566.602	177.627	0.110	-0.161
-565.588	220.308	-0.125	0.201
-564.573	-166.776	-0.225	-0.009
-563.558	432.357	-0.126	0.274
-562.544	275.095	-0.277	-0.493
-561.529	19.552	-0.210	0.169
-560.515	-27.862	-0.102	0.059
-559.500	66.313	-0.136	0.138
-558.485	-200.000	-0.020	-0.138
-557.471	-200.000	0.059	0.306
-556.456	-73.810	0.189	0.069
-555.442	-200.000	-0.030	-0.376
-554.427	800.000	0.086	0.263
-553.412	-200.000	0.017	-0.367
-552.398	-200.000	-0.036	-0.410
-551.383	119.423	0.078	-0.097
-550.369	259.186	-0.226	0.391
-549.354	35.206	-0.110	0.097
-548.339	800.000	-0.071	-0.282
-547.325	800.000	-0.036	0.152
-546.310	-49.850	0.016	0.007
-545.296	75.470	0.275	0.290
-544.281	-1.386	-0.216	-0.153
-543.266	58.486	0.177	0.174
-542.252	26.115	0.244	-0.204
-541.237	-65.455	-0.228	0.092
-540.223	396.430	-0.219	0.459
-539.208	159.917	-0.253	-0.354
-538.193	-59.839	0.307	-0.131
-537.179	17.882	-0.069	0.055
-536.164	800.000	0.076	-0.325
-535.150	-133.036	0.283	0.036
-534.135	-161.928	-0.219	-0.011
-533.121	-65.782	-0.209	-0.084
-532.106	10.450	0.309	-0.236
-531.091	2.549	0.128	0.093
-530.077	336.606	0.150	0.292
-529.062	-200.000	-0.050	0.257
-528.048	-90.080	0.150	0.044
-527.033	546.704	0.171	-0.410
-526.018	265.807	-0.132	-0.230
-525.004	24.136	0.059	0.049
-523.989	-58.813	0.105	-0.046
-522.975	-65.381	0.250	0.101
-521.960	-149.559	-0.159	-0.013
-520.945	-83.969	0.366	-0.117
-519.931	-26.575	-0.234	-0.137
-518.916	-200.000	-0.029	0.307
-517.902	-200.000	-0.061	0.452
-516.887	257.370	-0.015	-0.025
-515.872	138.279	-0.144	-0.189
-514.858	196.627	-0.132	0.201
-513.843	-200.000	-0.060	-0.439
-512.829	-200.000	0.011	-0.370
-511.814	4.058	0.322	-0.236
-510.799	-200.000	0.006	-0.136
-509.785	-200.000	-0.033	-0.425
-508.770	-129.807	-0.149	-0.020
-507.756	800.000	-0.052	-0.160
-506.741	101.100	0.040	0.046
-505.726	29.426	0.327	-0.278
-504.712	-200.000	0.020	-0.256
-503.697	-62.788	0.255	0.106
-502.683	240.711	0.037	0.061
-501.668	-200.000	-0.004	-0.076
-500.653	-17.635	-0.123	-0.077
-499.639	-200.000	-0.020	0.245
-498.624	35.042	0.093	-0.082
-497.610	248.503	0.227	-0.384
-496.595	-161.659	-0.266	-0.014
-495.581	-79.200	0.190	0.065
-494.566	11.700	-0.128	0.098
-493.551	206.612	0.138	0.216
-492.537	-200.000	0.019	0.142
-491.522	-163.710	0.505	0.024
-490.508	-130.144	0.179	0.024
-489.493	169.791	-0.068	0.097
-488.478	-116.337	0.317	-0.059
-487.464	-117.430	-0.021	0.004
-486.449	-88.886	-0.162	0.048
-485.435	-102.086	-0.154	0.037
-484.420	800.000	0.064	-0.252
-483.405	145.203	-0.260	-0.348
-482.391	-200.000	0.037	0.317
-481.376	-103.127	0.135	0.032
-480.362	-81.214	-0.287	-0.095
-479.347	800.000	0.061	0.241
-478.332	800.000	0.065	0.254
-477.318	-200.000	0.032	-0.343
-476.303	-162.249	0.110	0.006
-475.289	8.807	0.106	-0.080
-474.274	-200.000	-0.053	-0.242
-473.259	-47.409	-0.428	0.208
-472.245	174.325	-0.274	-0.396
-471.230	3.072	0.112	0.082
-470.216	800.000	-0.184	0.529
-469.201	40.281	-0.072	-0.064
-468.186	-200.000	-0.030	-0.260
-467.172	-89.999	0.037	-0.011
-466.157	-118.714	-0.217	-0.038
-465.143	-171.000	0.240	0.008
-464.128	499.930	-0.076	0.175
-463.113	43.525	0.222	-0.203
-462.099	-137.031	0.223	-0.025
-461.084	-108.588	-0.196	0.042
-460.070	298.036	0.068	-0.124
-459.055	-101.423	0.149	0.036
-458.040	-200.000	-0.057	-0.454
-457.026	-172.268	-0.240	-0.008
-456.011	30.718	-0.052	0.044
-454.997	-200.000	0.027	0.372
-453.982	-172.313	-0.329	-0.011
-452.968	-39.542	-0.208	0.109
-451.953	19.658	0.141	0.113
-450.938	275.042	-0.079	0.139
-449.924	37.275	0.171	0.151
-448.909	-88.638	0.089	-0.026
-447.895	-200.000	0.002	-0.039
-446.880	101.380	-0.085	0.099
-445.865	800.000	0.098	0.272
-444.851	40.568	-0.230	-0.206
-443.836	800.000	0.061	-0.266
-442.822	800.000	-0.072	-0.229
-441.807	36.804	0.164	-0.144
-440.792	-48.569	-0.320	0.153
-439.778	800.000	0.072	0.287
-438.763	-47.251	0.113	0.055
-437.749	-200.000	-0.004	0.106
-436.734	-162.455	-0.218	-0.011
-435.719	-198.286	0.234	0.001
-434.705	-87.970	-0.207	-0.062
-433.690	-200.000	-0.006	-0.108
-432.676	43.584	-0.191	-0.175
-431.661	42.423	-0.136	0.123
-430.646	305.524	0.251	0.466
-429.632	-118.118	0.033	-0.006
-428.617	20.743	0.111	-0.090
-427.603	47.009	-0.183	-0.170
-426.588	672.526	-0.067	-0.172
-425.573	-84.678	-0.439	-0.138
-424.559	201.266	0.054	0.083
-423.544	-200.000	0.196	-0.001
-422.530	-193.653	-0.230	0.002
-421.515	-64.227	-0.111	-0.045
-420.500	-117.133	0.070	0.013
-419.486	800.000	0.082	0.287
-418.471	800.000	0.053	0.231
-417.457	-24.259	-0.064	0.038
-416.442	800.000	-0.114	-0.345
-415.428	800.000	0.021	-0.069
-414.413	-15.062	-0.136	0.087
-413.398	17.658	0.154	0.122
-412.384	-93.443	-0.182	0.050
-411.369	71.208	0.398	0.411
-410.355	52.927	0.209	0.199
-409.340	-22.595	-0.137	-0.083
-408.325	459.314	-0.054	-0.120
-407.311	753.938	0.067	-0.180
-406.296	-200.000	-0.068	0.422
-405.282	-1.620	0.203	-0.143
-404.267	-83.290	-0.322	0.103
-403.252	-200.000	-0.008	0.119
-402.238	716.667	0.073	-0.194
-401.223	-200.000	0.037	-0.469
-400.209	-18.611	0.354	-0.220
-399.194	55.114	0.127	0.123
-398.179	-44.178	0.107	0.053
-397.165	110.489	-0.115	0.138
-396.150	226.726	0.123	0.199
-395.136	534.513	-0.042	-0.098
-394.121	-50.130	-0.121	-0.057
-393.106	800.000	-0.034	0.107
-392.092	800.000	0.077	0.244
-391.077	-130.958	0.463	0.062
-390.063	-101.828	0.470	0.113
-389.048	4.667	0.067	0.049
-388.033	-16.589	0.187	-0.118
-387.019	-81.128	-0.154	-0.051
-386.004	800.000	-0.056	0.189
-384.990	126.991	-0.160	-0.202
-383.975	102.296	0.111	-0.129
-382.960	-125.697	-0.364	-0.055
-381.946	796.244	-0.050	0.137
-380.931	194.356	0.198	0.299
-379.917	115.386	-0.073	-0.088
-378.902	-56.724	0.263	0.116
-377.888	-41.063	-0.249	-0.128
-376.873	-187.866	0.184	0.002
-375.858	-14.917	0.247	0.157
-374.844	-100.016	-0.297	-0.074
-373.829	-200.000	-0.017	0.361
-372.815	97.837	0.100	-0.115
-371.800	785.961	-0.106	0.289
-370.785	287.993	-0.106	0.191
-369.771	-2.081	-0.127	-0.088
-368.756	-48.195	-0.215	0.103
-367.742	-61.493	0.324	-0.136
-366.727	204.378	-0.152	-0.234
-365.712	-65.806	-0.092	0.037
-364.698	295.727	-0.154	0.280
-363.683	-174.622	0.273	0.008
-362.669	0.022	0.038	0.027
-361.654	-200.000	0.066	0.329
-360.639	-72.376	-0.347	0.128
-359.625	-200.000	0.053	0.375
-358.610	190.274	-0.154	0.229
-357.596	-200.000	-0.011	-0.091
-356.581	-200.000	0.040	-0.273
-355.566	799.915	-0.073	0.200
-354.552	249.440	0.267	-0.450
-353.537	359.830	-0.065	-0.130
-352.523	210.325	0.132	-0.206
-351.508	-104.494	0.171	0.039
-350.493	-34.955	0.200	0.109
-349.479	521.761	0.119	0.279
-348.464	95.523	0.193	0.219
-347.450	-4.986	-0.061	-0.041
-346.435	-54.987	-0.280	0.125
-345.420	800.000	-0.111	0.337
-344.406	-200.000	0.010	0.293
-343.391	53.358	0.154	-0.146
-342.377	800.000	0.125	0.345
-341.362	-200.000	-0.025	-0.118
-340.348	-70.237	0.396	-0.149
-339.333	54.217	-0.109	-0.104
-338.318	-200.000	0.022	0.149
-337.304	-200.000	-0.006	0.092
-336.289	800.000	-0.073	-0.266
-335.275	-200.000	0.012	-0.168
-334.260	112.476	-0.148	-0.178
-333.245	-200.000	-0.003	0.136
-332.231	800.000	0.057	-0.210
-331.216	-76.677	0.410	-0.143
-330.202	3.853	0.051	-0.037
-329.187	-200.000	-0.034	0.252
-328.172	623.876	0.048	0.119
-327.158	-123.364	0.150	-0.024
-326.143	-89.430	-0.160	-0.047
-325.129	731.187	0.124	-0.331
-324.114	-200.000	-0.054	-0.288
-323.099	135.852	0.147	0.190
-322.085	-13.161	0.169	0.109
-321.070	-129.452	-0.260	-0.036
-320.056	-200.000	-0.005	0.227
-319.041	-154.235	0.174	-0.012
-318.026	140.567	0.060	0.079
-317.012	-15.559	-0.192	0.122
-315.997	-200.000	-0.015	0.231
-314.983	-15.612	-0.123	-0.078
-313.968	-49.986	0.080	-0.037
-312.953	-69.136	-0.263	0.100
-311.939	-200.000	0.032	0.306
-310.924	-65.798	-0.121	0.048
-309.910	-76.328	-0.246	-0.086
-308.895	64.883	0.227	0.227
-307.880	443.212	0.115	-0.251
-306.866	106.200	0.203	-0.239
-305.851	0.223	-0.324	0.230
-304.837	311.522	0.067	0.125
-303.822	-200.000	0.056	0.344
-302.807	-12.030	-0.129	0.084
-301.793	800.000	-0.033	-0.124
-300.778	122.725	0.061	0.076
-299.764	57.262	-0.304	-0.295
-298.749	-112.792	-0.333	-0.066
-297.735	-100.469	0.271	-0.067
-296.720	-167.210	0.148	0.006
-295.705	96.166	-0.120	0.136
-294.691	-52.486	-0.198	-0.091
-293.676	-200.000	-0.031	-0.213
-292.662	-175.501	-0.285	-0.008
-291.647	-88.045	-0.208	-0.062
-290.632	13.605	0.186	0.143
-289.618	220.454	0.112	-0.178
-288.603	-200.000	-0.004	0.032
-287.589	81.071	0.094	0.101
-286.574	-39.245	0.325	-0.169
-285.559	-42.972	-0.100	-0.051
-284.545	-125.740	-0.102	0.015
-283.530	40.659	-0.098	0.088
-282.516	-66.047	-0.159	-0.063
-281.501	-92.018	-0.039	-0.011
-280.486	106.943	0.039	-0.047
-279.472	-138.863	-0.117	-0.013
-278.457	23.009	-0.074	-0.060
-277.443	55.093	-0.057	0.054
-276.428	-200.000	0.007	0.111
-275.413	-200.000	0.002	-0.296
-274.399	463.169	0.081	-0.180
-273.384	-56.953	-0.454	-0.199
-272.370	-200.000	0.000	0.004
-271.355	-127.635	-0.186	-0.027
-270.340	312.920	-0.030	-0.055
-269.326	43.816	0.149	0.136
-268.311	533.523	-0.051	0.120
-267.297	-14.208	-0.152	-0.097
-266.282	88.995	0.036	-0.040
-265.267	-42.599	0.260	-0.131
-264.253	-15.395	-0.202	-0.128
-263.238	-54.402	0.210	-0.094
-262.224	-8.490	0.279	0.186
-261.209	-200.000	-0.019	0.137
-260.195	800.000	0.120	-0.383
-259.180	276.652	-0.117	0.205
-258.165	-200.000	-0.003	-0.024
-257.151	-200.000	0.273	0.000
-256.136	59.888	-0.171	-0.168
-255.122	-151.030	0.201	0.015
-254.107	-160.634	-0.158	0.008
-253.092	58.910	-0.398	-0.387
-252.078	-51.828	0.226	0.104
-251.063	54.548	0.118	0.112
-250.049	0.797	0.149	0.105
-249.034	48.087	0.072	0.067
-248.019	-14.525	-0.236	0.150
-247.005	56.237	0.246	0.237
-245.990	64.926	-0.212	-0.212
-244.976	-98.790	0.082	0.021
-243.961	-125.255	0.188	-0.028
-242.946	229.859	-0.034	-0.054
-241.932	196.713	0.074	-0.112
-240.917	221.839	0.159	0.253
-239.903	-120.600	-0.098	-0.016
-238.888	-182.530	0.319	0.006
-237.873	800.000	-0.056	-0.177
-236.859	526.852	0.044	0.103
-235.844	-109.696	0.090	0.019
-234.830	-35.361	0.225	0.121
-233.815	51.286	0.146	0.137
-232.800	-31.055	0.255	0.142
-231.786	-200.000	0.033	0.207
-230.771	175.822	0.098	-0.141
-229.757	800.000	0.077	0.253
-228.742	-183.397	0.068	-0.001
-227.727	172.936	0.065	0.093
-226.713	-47.022	-0.187	-0.091
-225.698	-44.692	0.179	0.088
-224.684	-110.688	-0.259	-0.053
-223.669	-45.839	-0.237	-0.116
-222.655	-48.010	-0.113	0.054
-221.640	800.000	0.112	0.313
-220.625	24.760	-0.215	0.176
-219.611	-76.981	-0.222	-0.077
-218.596	-166.541	0.387	-0.016
-217.582	555.672	-0.086	-0.205
-216.567	-130.530	0.377	0.050
-215.552	-33.792	-0.039	-0.021
-214.538	-55.252	-0.404	0.180
-213.523	-110.365	-0.287	-0.059
-212.509	-33.572	-0.157	0.086
-211.494	-200.000	0.030	0.218
-210.479	37.070	-0.180	0.157
-209.465	147.931	0.265	0.353
-208.450	165.524	0.072	-0.101
-207.436	-136.445	-0.345	0.040
-206.421	800.000	0.071	-0.241
-205.406	361.611	-0.070	0.138
-204.392	-53.968	0.175	-0.079
-203.377	-133.144	0.198	0.025
-202.363	-107.143	0.437	-0.095
-201.348	77.542	-0.226	-0.238
-200.333	-139.514	0.134	-0.014
-199.319	-36.104	0.150	0.080
-198.304	58.937	-0.224	0.218
-197.290	-141.556	-0.425	-0.042
-196.275	-200.000	-0.019	0.198
-195.260	77.704	0.071	-0.075
-194.246	-5.062	0.149	0.102
-193.231	162.783	-0.139	0.193
-192.217	800.000	0.044	-0.131
-191.202	161.026	-0.137	-0.189
-190.187	-200.000	-0.032	-0.277
-189.173	150.798	-0.172	0.231
-188.158	-83.991	-0.041	0.013
-187.144	-200.000	-0.029	-0.212
-186.129	10.434	-0.344	0.259
-185.114	-90.589	-0.325	0.093
-184.100	-200.000	0.030	-0.297
-183.085	-200.000	0.059	0.259
-182.071	166.432	0.049	0.068
-181.056	-39.904	0.136	0.070
-180.042	643.520	-0.125	0.315
-179.027	-200.000	-0.022	-0.096
-178.012	-118.371	0.288	0.051
-176.998	800.000	0.036	-0.151
-175.983	-29.609	-0.189	0.107
-174.969	800.000	-0.046	0.174
-173.954	339.383	0.152	0.292
-172.939	-200.000	-0.007	0.115
-171.925	535.361	-0.089	-0.209
-170.910	330.648	-0.072	-0.137
-169.896	-192.668	-0.552	-0.005
-168.881	48.093	-0.164	-0.151
-167.866	549.196	0.054	-0.127
-166.852	-200.000	0.079	-0.413
-165.837	-200.000	0.008	-0.086
-164.823	387.080	0.066	-0.134
-163.808	800.000	0.067	-0.202
-162.793	241.007	0.118	0.195
-161.779	-52.589	0.117	-0.053
-160.764	63.236	-0.039	-0.039
-159.750	29.286	0.260	0.218
-158.735	45.646	-0.042	-0.038
-157.720	169.318	0.191	0.270
-156.706	202.325	-0.072	0.110
-155.691	-63.125	-0.197	0.080
-154.677	-117.267	0.246	-0.044
-153.662	-116.872	-0.285	-0.052
-152.647	94.388	0.106	-0.119
-151.633	-31.175	0.162	-0.090
-150.618	132.090	0.217	-0.276
-149.604	-45.619	0.087	0.042
-148.589	-110.198	0.110	0.023
-147.574	335.784	-0.026	0.050
-146.560	800.000	-0.062	0.225
-145.545	-64.685	0.276	0.110
-144.531	-200.000	-0.031	-0.165
-143.516	-165.631	0.245	-0.011
-142.502	-150.472	0.323	-0.024
-141.487	-6.174	-0.091	0.062
-140.472	800.000	0.070	-0.253
-139.458	-200.000	0.027	0.161
-138.443	-200.000	-0.047	0.215
-137.429	182.077	0.125	0.182
-136.414	800.000	-0.083	-0.274
-135.399	-68.239	0.240	-0.092
-134.385	-200.000	0.001	-0.130
-133.370	-163.167	0.065	-0.003
-132.356	-109.716	-0.284	-0.059
-131.341	54.910	0.120	0.114
-130.326	-22.979	-0.133	0.079
-129.312	-0.618	-0.354	-0.248
-128.297	-11.502	0.115	0.074
-127.283	-200.000	-0.017	0.242
-126.268	-125.730	-0.372	0.055
-125.253	-7.880	-0.069	0.046
-124.239	-158.077	-0.139	0.008
-123.224	14.320	-0.060	-0.046
-122.210	213.883	-0.102	-0.160
-121.195	206.817	0.293	0.450
